DTS Sentinel unit serial number:	SN413079Multiplexer serial number:	ORYXHardware model number:	OX4-SRSoftware version number:	ORYX F/W v4.00 Oryx Data Collector v3.7.2.0data status	okinstallation	princeton_trtdifferential loss correction	single-endedforward channel	channel 2reverse channel	N/Adate	2019/09/14time	06:07:35forward acquisition time	60.00reverse acquisition time	0.00gamma	496.2192k internal	0.2337k external	0.2337temperature offset calibration	1.0129default loss term (dB/km)	0.3790temperature slope calibration	1.0000multiplexer offset coefficient	1.0000multiplexer slope coefficient	1.0000fibre end	0.00T internal ref (°C)	26.75T ext. ref 1 (°C)	3.40T ext. ref 2 (°C)	20.93length (m)	temperature (°C)	Stokes	anti-Stokes-747.200	131.834	-0.200	0.258
-746.185	325.762	-0.118	0.227
-745.171	-30.874	0.181	-0.103
-744.156	262.081	0.176	0.306
-743.142	800.000	-0.026	0.086
-742.127	430.564	-0.167	0.362
-741.112	-187.915	-0.155	-0.002
-740.098	-87.063	0.033	0.010
-739.083	87.486	-0.186	-0.207
-738.069	-97.740	-0.181	0.047
-737.054	65.998	-0.129	0.131
-736.039	-200.000	0.022	-0.155
-735.025	-124.910	0.398	0.062
-734.010	44.566	-0.233	-0.215
-732.996	-200.000	0.013	-0.320
-731.981	127.727	0.024	0.031
-730.966	-104.316	0.451	-0.105
-729.952	-43.318	-0.167	0.085
-728.937	-57.481	-0.203	-0.090
-727.923	-200.000	-0.017	-0.171
-726.908	164.840	-0.142	-0.201
-725.894	-97.058	-0.068	0.018
-724.879	-21.919	-0.294	0.179
-723.864	211.061	0.117	-0.184
-722.850	3.083	0.572	-0.417
-721.835	172.984	0.128	-0.184
-720.821	181.043	-0.104	-0.153
-719.806	734.262	-0.065	-0.175
-718.791	-107.517	0.268	0.059
-717.777	187.223	0.116	0.174
-716.762	-133.462	0.331	-0.042
-715.748	73.128	0.075	0.079
-714.733	96.923	0.134	0.154
-713.718	-200.000	-0.017	0.124
-712.704	-135.159	0.109	-0.013
-711.689	-10.933	-0.038	0.025
-710.675	800.000	-0.024	-0.087
-709.660	419.177	0.183	-0.393
-708.645	134.104	0.115	0.150
-707.631	-19.795	0.171	-0.106
-706.616	-78.975	0.220	0.075
-705.602	800.000	0.061	0.203
-704.587	-108.715	-0.342	0.074
-703.572	-200.000	-0.054	-0.393
-702.558	800.000	0.039	-0.143
-701.543	64.026	0.320	0.323
-700.529	800.000	-0.018	0.054
-699.514	113.680	0.092	-0.112
-698.499	800.000	-0.079	-0.238
-697.485	0.454	-0.252	-0.180
-696.470	-200.000	-0.020	0.129
-695.456	368.992	0.128	0.259
-694.441	-23.066	-0.101	-0.061
-693.426	-124.328	0.408	-0.064
-692.412	-129.478	0.069	0.010
-691.397	-71.202	0.248	0.093
-690.383	26.050	-0.085	-0.071
-689.368	-26.656	-0.143	0.084
-688.354	626.037	-0.033	-0.084
-687.339	729.802	-0.103	0.275
-686.324	-21.225	-0.189	-0.116
-685.310	800.000	-0.045	-0.153
-684.295	106.965	-0.082	0.098
-683.281	70.418	-0.086	-0.089
-682.266	-97.457	0.263	-0.069
-681.251	540.484	-0.088	-0.211
-680.237	-100.225	-0.109	0.027
-679.222	800.000	-0.071	-0.248
-678.208	-14.554	0.063	-0.041
-677.193	-200.000	-0.006	-0.054
-676.178	-130.573	0.653	0.088
-675.164	800.000	-0.041	-0.136
-674.149	185.667	0.064	0.095
-673.135	172.256	-0.131	0.189
-672.120	195.763	0.182	0.277
-671.105	21.859	-0.067	-0.055
-670.091	732.626	-0.015	-0.041
-669.076	-115.105	-0.405	-0.077
-668.062	72.030	0.060	0.063
-667.047	-31.017	-0.193	0.109
-666.032	101.554	0.164	-0.191
-665.018	574.699	-0.121	-0.295
-664.003	-200.000	0.017	0.092
-662.989	-21.921	0.259	-0.157
-661.974	137.126	-0.072	-0.094
-660.959	56.681	0.117	0.114
-659.945	800.000	-0.068	0.257
-658.930	143.963	0.223	0.297
-657.916	359.792	0.112	0.223
-656.901	-47.309	0.300	0.146
-655.886	-88.084	-0.283	-0.085
-654.872	-200.000	-0.018	-0.169
-653.857	66.210	-0.195	0.198
-652.843	800.000	0.081	0.245
-651.828	-0.086	0.203	0.145
-650.814	684.688	0.033	0.086
-649.799	-56.797	-0.054	0.024
-648.784	-124.102	-0.365	0.057
-647.770	-82.967	-0.485	-0.156
-646.755	-59.623	0.425	0.183
-645.741	-70.717	-0.187	0.071
-644.726	-166.968	0.060	0.002
-643.711	218.800	0.169	-0.269
-642.697	98.445	0.125	0.144
-641.682	-98.248	-0.082	0.021
-640.668	-110.654	0.072	-0.015
-639.653	800.000	-0.049	-0.155
-638.638	396.396	0.097	-0.203
-637.624	128.807	0.096	-0.123
-636.609	-54.653	-0.185	-0.083
-635.595	-105.251	0.171	0.039
-634.580	270.646	-0.107	-0.188
-633.565	-200.000	0.037	0.260
-632.551	-70.076	0.251	0.095
-631.536	-51.802	-0.114	-0.053
-630.522	6.372	-0.152	-0.113
-629.507	800.000	0.078	-0.311
-628.492	328.411	-0.112	0.214
-627.478	-158.703	0.131	-0.008
-626.463	-59.820	0.210	0.090
-625.449	-48.644	-0.364	0.175
-624.434	-63.598	0.242	0.099
-623.419	-44.017	-0.201	-0.101
-622.405	800.000	0.013	-0.042
-621.390	-200.000	-0.131	-0.665
-620.376	-200.000	-0.009	0.080
-619.361	-14.456	0.054	0.035
-618.346	-200.000	-0.050	-0.416
-617.332	35.857	-0.088	-0.077
-616.317	53.003	0.096	-0.092
-615.303	123.837	0.128	-0.161
-614.288	-40.590	0.110	0.057
-613.273	13.335	-0.128	0.099
-612.259	-125.418	-0.359	-0.055
-611.244	-46.951	0.186	-0.091
-610.230	-200.000	-0.201	0.001
-609.215	800.000	-0.069	0.253
-608.201	-185.339	-0.362	0.006
-607.186	-174.407	0.153	-0.004
-606.171	-19.602	-0.077	-0.048
-605.157	9.628	-0.209	0.158
-604.142	800.000	-0.031	0.109
-603.128	-45.800	-0.334	-0.165
-602.113	-200.000	-0.035	0.164
-601.098	-159.983	-0.160	-0.009
-600.084	36.508	-0.106	-0.093
-599.069	-0.011	-0.235	0.167
-598.055	-86.062	-0.158	-0.049
-597.040	-101.167	-0.329	-0.080
-596.025	301.899	0.157	-0.290
-595.011	23.950	-0.114	-0.094
-593.996	-140.945	-0.075	-0.008
-592.982	-57.623	-0.244	-0.107
-591.967	-97.392	0.306	-0.079
-590.952	-200.000	-0.027	-0.295
-589.938	138.141	0.049	-0.064
-588.923	198.887	-0.112	-0.171
-587.909	-48.732	0.231	-0.111
-586.894	-200.000	-0.022	0.198
-585.879	800.000	0.019	0.075
-584.865	27.075	-0.151	-0.127
-583.850	-200.000	0.008	-0.092
-582.836	-132.966	0.355	-0.045
-581.821	-14.759	0.086	0.055
-580.806	-80.063	-0.138	0.046
-579.792	800.000	-0.054	0.211
-578.777	-5.354	-0.080	0.055
-577.763	374.823	0.196	0.398
-576.748	800.000	-0.007	0.022
-575.733	399.747	-0.086	0.180
-574.719	663.588	0.120	-0.308
-573.704	262.117	0.266	-0.459
-572.690	-36.310	-0.236	0.127
-571.675	800.000	0.130	-0.564
-570.661	27.122	0.146	0.122
-569.646	-95.866	-0.457	-0.122
-568.631	284.016	-0.214	0.383
-567.617	-115.574	-0.336	-0.063
-566.602	-66.079	-0.198	-0.079
-565.588	-110.017	0.329	-0.069
-564.573	111.767	-0.117	-0.141
-563.558	262.086	0.091	0.157
-562.544	73.077	-0.131	-0.137
-561.529	-200.000	-0.031	0.169
-560.515	-70.302	0.194	-0.073
-559.500	1.047	-0.269	-0.192
-558.485	226.385	0.223	0.361
-557.471	800.000	-0.121	-0.342
-556.456	-200.000	-0.011	-0.103
-555.442	585.453	-0.114	-0.278
-554.427	-12.220	0.277	-0.180
-553.412	800.000	0.139	-0.546
-552.398	394.441	-0.129	-0.268
-551.383	212.153	-0.054	-0.086
-550.369	-200.000	-0.051	0.231
-549.354	-200.000	0.044	-0.277
-548.339	-169.270	0.248	0.009
-547.325	-113.377	0.257	-0.050
-546.310	-100.980	-0.109	0.027
-545.296	416.200	-0.061	0.130
-544.281	-200.000	0.005	0.188
-543.266	-43.976	-0.087	-0.044
-542.252	-200.000	0.011	0.343
-541.237	377.658	0.081	0.164
-540.223	-200.000	-0.004	-0.205
-539.208	156.141	0.130	-0.179
-538.193	312.850	-0.089	-0.167
-537.179	-200.000	0.045	0.602
-536.164	-44.400	-0.332	-0.166
-535.150	-38.673	-0.060	-0.032
-534.135	102.660	0.164	0.192
-533.121	-132.808	0.151	0.019
-532.106	314.977	0.159	-0.298
-531.091	289.493	0.091	-0.164
-530.077	-200.000	-0.031	0.160
-529.062	671.682	-0.070	0.181
-528.048	768.752	0.115	0.311
-527.033	19.820	-0.024	0.019
-526.018	4.970	0.174	-0.127
-525.004	800.000	0.114	0.354
-523.989	41.289	-0.098	-0.088
-522.975	550.135	-0.053	-0.128
-521.960	691.134	-0.112	-0.292
-520.945	129.428	0.198	-0.251
-519.931	58.587	-0.125	0.122
-518.916	-96.981	0.079	-0.021
-517.902	-32.961	0.099	-0.055
-516.887	-200.000	-0.025	-0.131
-515.872	504.620	0.064	0.147
-514.858	-200.000	0.011	0.136
-513.843	-118.441	-0.075	-0.013
-512.829	34.731	-0.335	0.291
-511.814	-200.000	-0.046	0.285
-510.799	-130.307	0.448	0.060
-509.785	319.998	-0.075	-0.142
-508.770	-200.000	0.014	0.264
-507.756	-200.000	0.021	0.102
-506.741	-38.051	0.450	0.237
-505.726	-200.000	-0.061	-0.313
-504.712	331.790	0.050	-0.097
-503.697	-200.000	0.030	0.150
-502.683	13.946	-0.118	-0.091
-501.668	7.865	0.072	0.054
-500.653	-200.000	0.049	-0.426
-499.639	-91.855	0.177	-0.050
-498.624	-44.870	0.220	0.109
-497.610	-192.226	-0.335	0.003
-496.595	-35.835	-0.178	0.096
-495.581	-135.430	0.400	-0.047
-494.566	344.169	-0.189	0.369
-493.551	-162.256	0.091	0.005
-492.537	-200.000	0.005	-0.067
-491.522	-0.208	-0.144	-0.102
-490.508	-200.000	0.009	-0.220
-489.493	-105.256	-0.212	-0.048
-488.478	93.545	0.205	0.231
-487.464	-200.000	0.029	-0.137
-486.449	-145.057	0.124	-0.011
-485.435	-200.000	0.047	0.226
-484.420	113.084	-0.071	-0.085
-483.405	-54.797	0.143	0.064
-482.391	-73.172	-0.379	-0.138
-481.376	405.452	-0.142	-0.297
-480.362	-90.335	-0.337	0.097
-479.347	-173.168	0.296	-0.009
-478.332	146.152	0.129	0.173
-477.318	-200.000	-0.022	-0.105
-476.303	27.900	-0.116	-0.097
-475.289	-200.000	-0.010	0.164
-474.274	800.000	0.021	0.061
-473.259	-200.000	-0.042	0.446
-472.245	-195.113	0.167	-0.001
-471.230	-149.396	-0.152	-0.012
-470.216	227.220	-0.039	-0.063
-469.201	596.993	0.131	0.323
-468.186	49.173	-0.309	0.288
-467.172	-200.000	-0.004	-0.380
-466.157	-102.202	0.365	-0.087
-465.143	-62.205	0.181	-0.075
-464.128	417.230	0.153	-0.325
-463.113	-90.748	-0.305	0.087
-462.099	-22.947	-0.110	0.066
-461.084	800.000	0.035	-0.150
-460.070	85.051	-0.084	-0.092
-459.055	82.535	0.156	-0.168
-458.040	800.000	-0.068	-0.195
-457.026	-60.930	-0.432	-0.181
-456.011	-81.328	0.212	-0.069
-454.997	-47.369	-0.146	-0.070
-453.982	-27.714	0.142	-0.082
-452.968	92.364	0.196	-0.219
-451.953	39.800	0.171	0.152
-450.938	739.590	0.036	0.097
-449.924	800.000	-0.056	0.210
-448.909	-75.853	0.158	0.056
-447.895	-200.000	0.003	0.180
-446.880	626.486	-0.060	0.150
-445.865	-131.744	0.288	0.037
-444.851	146.423	-0.008	0.011
-443.836	255.385	0.082	0.139
-442.822	800.000	0.089	-0.256
-441.807	800.000	0.066	-0.234
-440.792	-6.583	0.381	-0.258
-439.778	-176.561	-0.311	-0.008
-438.763	-57.905	-0.098	0.043
-437.749	134.936	0.042	-0.055
-436.734	-42.389	0.071	-0.036
-435.719	800.000	-0.056	0.237
-434.705	-159.202	0.217	-0.012
-433.690	-200.000	0.022	-0.294
-432.676	-183.295	-0.157	0.003
-431.661	-200.000	-0.003	-0.100
-430.646	800.000	0.094	0.307
-429.632	-70.782	-0.307	0.115
-428.617	-126.118	0.077	-0.011
-427.603	286.009	0.113	0.202
-426.588	-200.000	-0.032	-0.230
-425.573	515.185	-0.101	-0.235
-424.559	70.708	0.016	0.017
-423.544	19.468	0.250	0.200
-422.530	41.775	0.053	0.048
-421.515	-160.295	-0.218	0.012
-420.500	30.977	0.109	-0.093
-419.486	142.438	0.278	0.366
-418.471	39.812	-0.212	0.188
-417.457	-80.574	0.353	0.116
-416.442	-132.653	-0.530	0.067
-415.428	-88.284	0.258	-0.076
-414.413	-83.212	-0.216	0.069
-413.398	132.130	-0.101	0.128
-412.384	-1.303	-0.238	-0.167
-411.369	73.326	0.288	-0.298
-410.355	800.000	-0.036	0.108
-409.340	-51.772	0.147	-0.068
-408.325	-72.661	-0.144	-0.053
-407.311	-200.000	0.036	-0.312
-406.296	323.323	0.055	-0.105
-405.282	800.000	0.090	-0.249
-404.267	-49.890	0.292	-0.138
-403.252	-41.692	0.272	0.138
-402.238	-40.222	-0.105	0.054
-401.223	57.313	-0.083	0.081
-400.209	-177.129	-0.062	0.002
-399.194	439.187	0.035	-0.076
-398.179	-71.611	0.320	-0.119
-397.165	-76.423	-0.182	-0.063
-396.150	-70.944	0.274	0.102
-395.136	125.044	0.116	-0.145
-394.121	-200.000	-0.022	0.249
-393.106	103.133	-0.433	0.502
-392.092	-145.506	-0.215	-0.019
-391.077	-200.000	0.003	0.204
-390.063	160.334	0.145	0.201
-389.048	-200.000	-0.028	0.207
-388.033	-54.554	-0.215	0.096
-387.019	-79.053	0.053	-0.018
-386.004	158.230	-0.049	-0.068
-384.990	800.000	-0.046	0.177
-383.975	-133.591	0.140	-0.017
-382.960	393.853	0.132	0.272
-381.946	-79.356	-0.150	-0.050
-380.931	-20.172	-0.135	0.082
-379.917	-42.092	0.130	0.066
-378.902	29.565	0.066	-0.056
-377.888	-137.996	-0.181	-0.020
-376.873	-6.871	-0.479	0.322
-375.858	-151.784	0.383	0.028
-374.844	-107.577	-0.096	-0.021
-373.829	241.605	-0.094	0.155
-372.815	-200.000	-0.068	-0.369
-371.800	-2.279	0.070	0.049
-370.785	469.544	0.060	0.134
-369.771	-25.595	0.336	0.196
-368.756	-110.113	-0.131	-0.027
-367.742	-87.239	-0.340	0.102
-366.727	148.835	0.067	-0.089
-365.712	26.396	-0.039	-0.032
-364.698	-114.236	-0.393	0.075
-363.683	34.014	-0.175	0.151
-362.669	-0.162	0.328	-0.231
-361.654	800.000	0.101	-0.279
-360.639	-114.741	-0.226	-0.043
-359.625	-91.911	-0.246	0.069
-358.610	-91.830	0.158	0.044
-357.596	141.363	-0.084	-0.109
-356.581	195.830	0.111	0.168
-355.566	170.837	0.002	-0.003
-354.552	-200.000	0.006	0.195
-353.537	-74.570	0.180	0.064
-352.523	27.147	0.277	-0.230
-351.508	-200.000	0.018	0.105
-350.493	92.310	-0.177	-0.197
-349.479	-39.344	0.167	0.087
-348.464	-200.000	0.028	0.217
-347.450	-74.112	0.115	0.041
-346.435	68.721	0.220	-0.223
-345.420	797.284	-0.042	0.113
-344.406	44.946	-0.146	0.133
-343.391	800.000	0.066	0.191
-342.377	800.000	0.044	-0.127
-341.362	163.294	0.172	0.239
-340.348	346.116	-0.096	0.186
-339.333	-26.848	0.499	-0.288
-338.318	186.244	0.241	0.355
-337.304	800.000	0.074	-0.243
-336.289	719.494	-0.118	-0.310
-335.275	-6.528	0.128	-0.086
-334.260	77.377	-0.112	0.118
-333.245	-2.761	-0.184	0.127
-332.231	23.169	-0.107	-0.086
-331.216	313.766	0.066	-0.123
-330.202	-200.000	0.010	-0.043
-329.187	181.922	-0.093	0.136
-328.172	800.000	0.061	-0.201
-327.158	800.000	0.045	-0.131
-326.143	-37.028	0.166	0.088
-325.129	-96.889	0.230	0.060
-324.114	202.495	-0.111	-0.169
-323.099	38.365	0.181	-0.160
-322.085	-115.047	0.106	0.020
-321.070	800.000	-0.137	0.406
-320.056	575.316	0.152	0.367
-319.041	241.126	-0.043	0.071
-318.026	28.539	-0.077	0.064
-317.012	800.000	-0.099	-0.416
-315.997	-157.713	-0.198	0.012
-314.983	-10.704	-0.368	0.240
-313.968	-54.151	0.385	-0.173
-312.953	129.077	-0.079	-0.100
-311.939	164.237	0.137	-0.190
-310.924	19.548	0.134	-0.106
-309.910	-191.678	0.266	0.003
-308.895	-161.180	0.106	-0.005
-307.880	43.524	-0.177	0.160
-306.866	-88.780	0.281	-0.082
-305.851	-174.580	-0.414	0.012
-304.837	-6.869	-0.071	0.048
-303.822	-200.000	0.018	0.198
-302.807	-200.000	-0.008	-0.102
-301.793	-122.122	-0.263	0.043
-300.778	-174.309	-0.128	-0.004
-299.764	237.173	-0.094	-0.153
-298.749	-118.685	-0.297	-0.052
-297.735	800.000	-0.058	0.207
-296.720	-200.000	-0.001	0.109
-295.705	-62.763	-0.220	0.090
-294.691	-87.570	-0.223	0.067
-293.676	800.000	-0.053	-0.201
-292.662	-88.288	-0.245	-0.072
-291.647	-200.000	-0.042	0.251
-290.632	15.963	0.210	0.163
-289.618	-200.000	-0.027	0.153
-288.603	-200.000	-0.041	0.196
-287.589	187.878	-0.085	0.126
-286.574	154.833	-0.040	0.054
-285.559	-6.257	0.089	0.060
-284.545	-200.000	-0.028	0.201
-283.530	-200.000	0.001	-0.179
-282.516	214.305	-0.145	-0.227
-281.501	800.000	-0.086	-0.324
-280.486	800.000	-0.040	0.119
-279.472	438.669	-0.123	0.264
-278.457	105.458	-0.190	-0.221
-277.443	368.631	0.200	-0.399
-276.428	-92.566	-0.126	-0.035
-275.413	800.000	-0.149	-0.484
-274.399	-21.713	0.183	0.110
-273.384	-166.558	0.085	0.003
-272.370	19.494	0.102	0.081
-271.355	235.485	-0.050	-0.081
-270.340	392.304	-0.020	-0.041
-269.326	-200.000	-0.014	0.187
-268.311	303.491	0.130	0.238
-267.297	-166.009	0.344	0.014
-266.282	54.072	0.093	-0.088
-265.267	-117.082	-0.305	0.055
-264.253	36.506	-0.163	0.142
-263.238	262.023	-0.204	0.349
-262.224	-156.217	-0.212	0.013
-261.209	-50.578	-0.353	0.164
-260.195	-88.950	0.287	0.084
-259.180	-89.428	-0.204	0.059
-258.165	-73.531	0.275	-0.099
-257.151	38.775	-0.233	-0.205
-256.136	491.189	0.108	-0.242
-255.122	36.035	0.266	0.231
-254.107	-200.000	0.024	-0.174
-253.092	-56.033	-0.161	-0.071
-252.078	-200.000	-0.015	-0.148
-251.063	-36.876	0.134	0.071
-250.049	-144.713	0.183	-0.017
-249.034	555.645	-0.049	-0.115
-248.019	-109.590	-0.103	-0.021
-247.005	363.766	0.046	0.092
-245.990	155.702	0.214	0.291
-244.976	347.679	0.134	0.261
-243.961	2.951	-0.154	-0.110
-242.946	-31.029	0.071	-0.039
-241.932	-200.000	0.021	-0.114
-240.917	2.870	0.154	-0.110
-239.903	-44.157	0.138	-0.068
-238.888	546.826	0.098	-0.230
-237.873	111.462	-0.097	0.116
-236.859	449.085	-0.039	0.084
-235.844	365.644	-0.167	0.330
-234.830	111.942	0.269	-0.320
-233.815	86.411	0.077	0.083
-232.800	-45.591	-0.128	-0.062
-231.786	690.967	0.045	0.115
-230.771	184.754	-0.374	-0.546
-229.757	711.863	0.060	0.157
-228.742	-119.654	0.103	0.018
-227.727	-142.102	0.251	0.025
-226.713	-49.094	-0.236	-0.111
-225.698	195.369	0.140	0.210
-224.684	28.412	0.160	-0.133
-223.669	9.513	0.206	0.154
-222.655	375.557	0.114	-0.228
-221.640	-200.000	-0.001	0.240
-220.625	800.000	0.044	0.177
-219.611	137.184	-0.086	-0.111
-218.596	-101.306	-0.071	0.017
-217.582	-200.000	0.022	0.173
-216.567	-59.757	0.448	0.189
-215.552	522.531	0.105	0.243
-214.538	695.313	0.133	-0.344
-213.523	207.495	0.127	0.195
-212.509	-200.000	-0.059	0.371
-211.494	374.833	-0.113	-0.226
-210.479	237.792	-0.018	-0.029
-209.465	419.145	0.096	0.203
-208.450	151.884	0.151	0.203
-207.436	523.604	0.062	-0.144
-206.421	456.795	-0.081	-0.178
-205.406	28.845	0.231	-0.192
-204.392	-53.625	0.182	-0.082
-203.377	188.759	-0.038	0.056
-202.363	-70.144	-0.082	-0.031
-201.348	520.880	0.196	0.451
-200.333	-200.000	-0.011	0.151
-199.319	-117.395	0.160	-0.028
-198.304	-70.036	-0.159	0.060
-197.290	769.578	0.118	-0.316
-196.275	-96.734	-0.231	0.060
-195.260	-200.000	-0.042	0.259
-194.246	-109.939	-0.263	-0.054
-193.231	-35.473	-0.165	-0.088
-192.217	424.100	0.024	-0.051
-191.202	-200.000	0.026	-0.394
-190.187	-11.885	-0.214	0.138
-189.173	-5.720	0.268	0.180
-188.158	-66.991	-0.136	-0.053
-187.144	-162.399	-0.081	-0.004
-186.129	146.768	0.189	-0.249
-185.114	-87.073	0.216	-0.065
-184.100	-105.712	-0.297	-0.066
-183.085	-200.000	0.027	-0.185
-182.071	-200.000	0.013	-0.119
-181.056	-101.370	0.357	0.085
-180.042	-200.000	0.045	0.359
-179.027	-135.167	-0.417	0.049
-178.012	33.140	0.181	-0.154
-176.998	-114.468	0.203	0.038
-175.983	65.373	0.101	-0.101
-174.969	-200.000	-0.014	-0.086
-173.954	505.397	-0.154	0.350
-172.939	-200.000	0.019	-0.281
-171.925	-164.404	0.197	0.009
-170.910	56.804	-0.031	0.030
-169.896	323.381	-0.088	-0.165
-168.881	396.598	0.164	-0.336
-167.866	21.917	-0.278	0.222
-166.852	-99.191	0.143	0.036
-165.837	-50.959	-0.200	0.092
-164.823	-3.676	0.110	0.075
-163.808	28.172	-0.241	-0.200
-162.793	-78.015	-0.077	0.026
-161.779	-200.000	0.035	0.498
-160.764	-90.648	-0.232	0.066
-159.750	-16.249	0.125	0.078
-158.735	771.863	-0.036	-0.096
-157.720	-200.000	0.054	-0.281
-156.706	81.134	0.164	0.174
-155.691	800.000	-0.117	0.363
-154.677	-33.381	-0.061	0.033
-153.662	-26.558	0.085	0.049
-152.647	30.426	-0.173	0.145
-151.633	-17.130	0.101	0.062
-150.618	43.677	0.212	0.190
-149.604	-200.000	-0.010	0.058
-148.589	37.638	0.199	0.173
-147.574	-200.000	-0.008	0.101
-146.560	-200.000	-0.032	0.256
-145.545	-63.691	-0.115	-0.046
-144.531	284.132	0.009	0.015
-143.516	29.326	0.067	0.056
-142.502	-39.236	-0.144	0.074
-141.487	-73.828	0.149	0.053
-140.472	-104.334	0.324	0.074
-139.458	-200.000	-0.012	-0.381
-138.443	800.000	0.107	-0.293
-137.429	-79.300	-0.189	0.063
-136.414	-200.000	0.043	-0.331
-135.399	-39.682	0.353	0.181
-134.385	126.502	0.265	0.329
-133.370	-56.974	0.018	-0.008
-132.356	-22.967	0.024	-0.014
-131.341	800.000	0.018	-0.072
-130.326	-23.913	-0.183	0.107
-129.312	2.956	-0.027	-0.019
-128.297	766.561	0.093	-0.249
-127.283	-9.077	-0.077	-0.050
-126.268	-8.317	0.102	-0.067
-125.253	-200.000	0.033	0.262
-124.239	90.513	0.018	0.020
-123.224	-83.275	-0.335	0.105
-122.210	-181.602	0.333	-0.006
-121.195	-138.630	0.110	0.012
