DTS Sentinel unit serial number:	SN413079Multiplexer serial number:	ORYXHardware model number:	OX4-SRSoftware version number:	ORYX F/W v4.00 Oryx Data Collector v3.7.2.0data status	okinstallation	princeton_trtdifferential loss correction	single-endedforward channel	channel 2reverse channel	N/Adate	2019/09/14time	19:59:35forward acquisition time	60.00reverse acquisition time	0.00gamma	496.2192k internal	0.2320k external	0.2320temperature offset calibration	1.0098default loss term (dB/km)	0.3790temperature slope calibration	1.0000multiplexer offset coefficient	1.0000multiplexer slope coefficient	1.0000fibre end	0.00T internal ref (°C)	34.09T ext. ref 1 (°C)	4.90T ext. ref 2 (°C)	28.38length (m)	temperature (°C)	Stokes	anti-Stokes-747.200	112.972	-0.197	-0.241
-746.185	-200.000	0.079	0.440
-745.171	70.420	-0.109	-0.114
-744.156	-145.037	-0.075	-0.007
-743.142	-200.000	-0.000	-0.143
-742.127	-152.537	0.098	-0.007
-741.112	137.158	0.271	0.358
-740.098	-2.670	-0.311	0.220
-739.083	-200.000	0.050	0.426
-738.069	292.054	0.201	0.370
-737.054	228.243	0.208	-0.343
-736.039	-89.707	-0.435	-0.129
-735.025	40.754	0.227	-0.207
-734.010	800.000	-0.049	-0.182
-732.996	-150.407	-0.445	-0.035
-731.981	-157.046	0.120	-0.007
-730.966	-48.711	-0.054	-0.026
-729.952	-123.363	-0.100	0.016
-728.937	-130.795	-0.165	-0.022
-727.923	-200.000	-0.009	-0.272
-726.908	53.991	0.144	-0.139
-725.894	800.000	0.067	0.245
-724.879	-29.316	-0.257	0.148
-723.864	-17.126	-0.171	-0.109
-722.850	76.994	0.081	0.087
-721.835	401.851	-0.138	-0.293
-720.821	-200.000	-0.033	0.281
-719.806	-50.606	-0.282	-0.134
-718.791	-200.000	0.027	0.337
-717.777	-3.212	-0.273	0.192
-716.762	221.297	-0.140	-0.227
-715.748	800.000	0.018	-0.052
-714.733	-7.735	-0.162	0.111
-713.718	38.909	-0.342	0.308
-712.704	-90.160	-0.263	-0.077
-711.689	2.039	-0.107	0.078
-710.675	692.791	0.093	-0.245
-709.660	800.000	-0.108	-0.314
-708.645	-93.369	0.223	0.062
-707.631	-113.410	-0.107	0.021
-706.616	-67.426	0.169	0.067
-705.602	-166.468	0.268	0.011
-704.587	-146.327	0.245	0.022
-703.572	-91.892	-0.083	-0.024
-702.558	-84.685	0.437	0.139
-701.543	397.719	-0.024	-0.050
-700.529	-200.000	-0.004	-0.153
-699.514	252.041	-0.104	0.179
-698.499	-64.438	0.381	-0.156
-697.485	-114.967	0.129	-0.025
-696.470	-34.866	0.319	0.176
-695.456	-104.759	0.147	-0.034
-694.441	68.723	0.212	0.219
-693.426	20.119	0.357	-0.290
-692.412	-13.600	-0.231	-0.151
-691.397	706.043	0.046	-0.123
-690.383	-105.792	0.055	0.013
-689.368	-144.492	-0.173	0.016
-688.354	-78.718	0.176	0.060
-687.339	454.480	0.086	-0.193
-686.324	281.935	0.068	0.123
-685.310	111.479	-0.132	-0.161
-684.295	800.000	0.038	-0.115
-683.281	24.214	0.106	-0.088
-682.266	55.886	0.120	-0.118
-681.251	224.823	-0.085	0.139
-680.237	17.897	0.163	-0.131
-679.222	72.302	-0.463	-0.486
-678.208	800.000	-0.096	-0.307
-677.193	272.379	0.042	0.075
-676.178	71.642	0.069	-0.073
-675.164	-12.444	-0.299	-0.197
-674.149	-96.197	-0.097	0.026
-673.135	-200.000	0.005	0.208
-672.120	-69.033	0.145	0.056
-671.105	-16.384	-0.054	-0.035
-670.091	-28.537	0.126	-0.073
-669.076	-9.807	0.130	0.087
-668.062	-192.133	-0.142	-0.001
-667.047	68.727	-0.422	-0.436
-666.032	84.768	-0.202	0.223
-665.018	800.000	0.035	-0.103
-664.003	-29.141	-0.014	0.008
-662.989	-200.000	-0.035	0.227
-661.974	35.413	0.226	0.200
-660.959	-125.003	0.250	0.039
-659.945	-80.090	0.390	-0.132
-658.930	419.435	0.079	0.170
-657.916	41.725	-0.103	0.094
-656.901	-150.675	-0.377	0.029
-655.886	203.917	-0.053	0.083
-654.872	-47.313	0.188	0.092
-653.857	64.911	-0.144	0.147
-652.843	-200.000	-0.015	-0.296
-651.828	800.000	0.021	-0.066
-650.814	-195.857	-0.139	-0.001
-649.799	255.535	-0.178	-0.308
-648.784	-200.000	0.341	-0.001
-647.770	-77.608	0.310	-0.108
-646.755	64.349	0.120	0.122
-645.741	42.715	-0.124	0.114
-644.726	636.843	0.082	-0.209
-643.711	83.261	0.151	-0.165
-642.697	-1.520	0.106	0.075
-641.682	-31.930	0.172	-0.097
-640.668	800.000	-0.054	0.207
-639.653	53.188	-0.147	0.142
-638.638	648.290	0.027	0.069
-637.624	36.333	-0.189	0.168
-636.609	-126.914	-0.230	0.034
-635.595	800.000	-0.045	0.160
-634.580	-200.000	0.026	0.181
-633.565	800.000	0.032	-0.134
-632.551	-55.441	-0.346	-0.156
-631.536	-200.000	-0.041	-0.317
-630.522	-149.100	-0.297	-0.024
-629.507	505.397	-0.092	0.215
-628.492	-200.000	0.015	-0.207
-627.478	31.012	-0.217	-0.187
-626.463	-200.000	-0.011	-0.055
-625.449	800.000	-0.056	0.229
-624.434	85.461	0.184	0.204
-623.419	-26.425	-0.070	0.041
-622.405	111.370	0.015	-0.018
-621.390	103.968	0.079	0.093
-620.376	-64.804	0.241	-0.098
-619.361	50.025	0.152	-0.144
-618.346	747.898	-0.111	0.301
-617.332	-42.235	-0.066	0.034
-616.317	71.826	-0.439	-0.459
-615.303	30.021	-0.254	-0.218
-614.288	3.081	0.169	0.124
-613.273	-52.154	0.155	-0.072
-612.259	29.847	-0.094	0.080
-611.244	74.078	-0.082	0.086
-610.230	-43.710	-0.271	-0.137
-609.215	606.034	-0.183	0.459
-608.201	12.339	0.075	-0.058
-607.186	-145.598	0.152	-0.014
-606.171	5.783	-0.303	-0.226
-605.157	-69.757	0.114	0.044
-604.142	-30.061	0.233	-0.133
-603.128	800.000	-0.058	0.231
-602.113	800.000	0.014	0.055
-601.098	729.052	0.058	0.157
-600.084	-95.844	-0.200	0.054
-599.069	-158.552	-0.411	0.024
-598.055	73.420	0.033	0.035
-597.040	-200.000	-0.001	0.102
-596.025	106.039	0.155	0.185
-595.011	800.000	0.065	-0.267
-593.996	-200.000	-0.043	-0.196
-592.982	102.873	0.202	-0.238
-591.967	221.297	-0.080	0.129
-590.952	164.664	0.027	0.039
-589.938	-40.737	0.187	0.097
-588.923	-128.420	-0.292	0.042
-587.909	32.960	-0.075	0.065
-586.894	-200.000	-0.035	0.248
-585.879	-29.400	0.128	-0.073
-584.865	-105.364	0.251	-0.057
-583.850	-12.175	-0.147	0.097
-582.836	-62.015	-0.177	0.074
-581.821	-11.165	-0.202	-0.134
-580.806	51.047	-0.198	0.189
-579.792	-49.631	-0.199	-0.095
-578.777	-200.000	-0.001	0.071
-577.763	513.064	0.140	0.328
-576.748	653.447	-0.050	-0.128
-575.733	-200.000	0.001	-0.033
-574.719	-200.000	0.035	-0.250
-573.704	-200.000	-0.057	-0.511
-572.690	-200.000	0.018	-0.091
-571.675	-150.939	-0.216	-0.016
-570.661	-115.818	-0.217	0.041
-569.646	-178.312	0.200	-0.005
-568.631	-63.619	-0.128	0.053
-567.617	-123.828	0.098	0.015
-566.602	-36.346	-0.357	-0.193
-565.588	18.215	0.322	0.258
-564.573	-200.000	-0.009	0.305
-563.558	57.377	0.044	-0.043
-562.544	513.454	-0.008	-0.019
-561.529	-74.467	-0.222	-0.081
-560.515	-200.000	-0.027	0.130
-559.500	-200.000	0.013	0.252
-558.485	70.966	-0.116	-0.120
-557.471	-200.000	-0.014	-0.084
-556.456	788.625	0.055	0.151
-555.442	-74.477	0.165	0.060
-554.427	-127.628	-0.064	0.009
-553.412	-85.324	-0.339	-0.106
-552.398	312.816	-0.190	-0.358
-551.383	327.618	-0.045	0.086
-550.369	-200.000	-0.044	0.267
-549.354	-200.000	0.009	-0.248
-548.339	-175.607	0.269	-0.007
-547.325	25.342	0.273	0.227
-546.310	-12.668	0.137	0.090
-545.296	-123.934	-0.077	0.012
-544.281	118.215	-0.058	-0.072
-543.266	-61.868	0.137	0.057
-542.252	-200.000	-0.002	-0.391
-541.237	-28.710	-0.246	-0.142
-540.223	-32.406	-0.133	-0.074
-539.208	-64.465	-0.173	0.070
-538.193	88.542	0.137	0.153
-537.179	-111.855	-0.224	-0.045
-536.164	110.900	-0.145	-0.175
-535.150	29.820	0.209	-0.179
-534.135	-144.726	0.162	0.015
-533.121	-182.813	0.105	-0.002
-532.106	-48.220	0.218	-0.106
-531.091	-129.533	-0.091	0.013
-530.077	165.732	-0.099	-0.140
-529.062	-200.000	0.032	-0.312
-528.048	-132.701	-0.268	0.034
-527.033	96.653	-0.061	0.070
-526.018	-136.521	0.039	-0.004
-525.004	-25.636	0.222	-0.131
-523.989	302.705	0.047	0.088
-522.975	-117.112	0.364	0.066
-521.960	247.391	0.165	0.279
-520.945	103.770	-0.110	-0.129
-519.931	398.352	-0.046	-0.096
-518.916	247.451	-0.198	0.336
-517.902	-104.049	0.040	0.009
-516.887	-3.757	-0.227	0.158
-515.872	14.491	-0.299	-0.234
-514.858	-200.000	0.002	-0.273
-513.843	-200.000	0.016	0.078
-512.829	-65.171	-0.157	-0.063
-511.814	-86.290	-0.146	-0.045
-510.799	-200.000	-0.054	-0.470
-509.785	-158.929	0.336	-0.019
-508.770	605.249	-0.058	0.145
-507.756	-200.000	0.040	0.196
-506.741	119.801	-0.142	0.176
-505.726	-200.000	0.019	0.105
-504.712	-200.000	-0.007	-0.148
-503.697	233.097	0.135	-0.222
-502.683	10.410	0.115	-0.088
-501.668	53.685	-0.163	0.156
-500.653	43.888	0.166	0.152
-499.639	-200.000	0.009	-0.123
-498.624	333.248	-0.065	-0.126
-497.610	-200.000	-0.027	-0.161
-496.595	-200.000	0.053	-0.250
-495.581	-71.231	-0.111	-0.042
-494.566	241.789	-0.123	0.205
-493.551	-88.363	0.283	-0.085
-492.537	-132.086	0.103	0.013
-491.522	77.313	-0.152	-0.162
-490.508	-43.886	0.141	-0.071
-489.493	402.741	-0.070	0.148
-488.478	-38.190	-0.220	-0.117
-487.464	-99.676	0.112	0.028
-486.449	96.872	-0.237	-0.272
-485.435	-19.618	0.074	-0.046
-484.420	-117.609	0.248	0.045
-483.405	800.000	-0.147	-0.419
-482.391	-31.550	-0.107	0.060
-481.376	-54.629	-0.241	-0.109
-480.362	274.337	0.108	-0.191
-479.347	201.679	0.125	-0.193
-478.332	-40.128	0.206	0.107
-477.318	81.647	-0.186	0.202
-476.303	-116.283	-0.132	0.025
-475.289	-165.633	0.073	-0.003
-474.274	284.734	-0.106	0.190
-473.259	-143.865	-0.297	0.028
-472.245	-200.000	0.033	-0.195
-471.230	-142.108	0.111	-0.011
-470.216	506.327	0.024	0.055
-469.201	579.635	0.028	0.069
-468.186	45.613	0.128	-0.119
-467.172	800.000	0.126	0.503
-466.157	347.802	-0.032	-0.062
-465.143	325.693	0.124	0.236
-464.128	-114.302	-0.257	-0.050
-463.113	-105.285	0.282	0.064
-462.099	-200.000	-0.013	0.061
-461.084	-84.002	-0.252	0.080
-460.070	-152.143	0.199	0.014
-459.055	-200.000	-0.003	-0.350
-458.040	227.225	-0.186	-0.302
-457.026	-90.945	0.154	-0.044
-456.011	-165.191	0.293	0.013
-454.997	210.240	-0.117	-0.184
-453.982	-23.647	-0.147	-0.088
-452.968	103.897	0.235	0.276
-451.953	109.474	0.152	-0.182
-450.938	175.315	0.085	-0.124
-449.924	-200.000	-0.048	-0.592
-448.909	-119.037	0.185	-0.032
-447.895	34.905	0.178	0.155
-446.880	222.238	0.041	0.066
-445.865	7.945	-0.084	-0.063
-444.851	-175.387	-0.270	0.007
-443.836	390.595	-0.096	0.199
-442.822	2.844	0.131	0.095
-441.807	-200.000	-0.051	0.238
-440.792	128.780	0.121	0.154
-439.778	72.816	0.243	0.254
-438.763	625.070	0.010	-0.026
-437.749	-81.688	0.128	-0.042
-436.734	58.315	0.226	0.222
-435.719	-87.665	-0.058	-0.017
-434.705	-23.800	-0.018	-0.011
-433.690	-100.711	0.174	0.043
-432.676	-59.893	0.049	-0.021
-431.661	-200.000	0.006	0.085
-430.646	-200.000	-0.005	0.063
-429.632	196.485	0.007	0.010
-428.617	293.051	0.078	-0.142
-427.603	177.285	-0.047	-0.068
-426.588	-200.000	0.022	-0.191
-425.573	151.404	0.163	0.222
-424.559	69.980	-0.423	-0.436
-423.544	59.218	-0.186	0.183
-422.530	-72.938	-0.214	-0.079
-421.515	-149.469	0.371	0.029
-420.500	800.000	-0.044	-0.128
-419.486	509.452	0.111	-0.259
-418.471	800.000	0.123	0.404
-417.457	321.345	-0.074	0.140
-416.442	376.747	-0.173	0.353
-415.428	412.117	0.034	0.071
-414.413	800.000	0.091	-0.298
-413.398	-49.118	0.269	0.128
-412.384	-71.487	-0.222	-0.083
-411.369	800.000	0.155	0.435
-410.355	-72.367	0.248	0.091
-409.340	47.839	0.192	0.179
-408.325	-98.230	-0.030	0.008
-407.311	-113.725	0.250	0.049
-406.296	-153.346	-0.201	-0.014
-405.282	-200.000	-0.008	0.295
-404.267	-22.943	0.073	0.044
-403.252	-85.690	-0.357	-0.111
-402.238	800.000	0.009	-0.039
-401.223	-200.000	-0.052	0.288
-400.209	-3.129	0.047	-0.033
-399.194	-69.005	0.118	-0.045
-398.179	-98.455	0.526	0.134
-397.165	338.670	0.043	0.084
-396.150	-170.888	0.066	-0.002
-395.136	-168.029	0.264	0.010
-394.121	0.019	-0.156	0.111
-393.106	35.955	-0.253	-0.222
-392.092	107.542	0.077	-0.092
-391.077	146.812	-0.237	-0.317
-390.063	-200.000	-0.062	-0.315
-389.048	800.000	-0.023	-0.071
-388.033	800.000	0.088	0.258
-387.019	37.272	-0.120	0.106
-386.004	800.000	-0.182	0.545
-384.990	-170.559	0.031	0.001
-383.975	800.000	-0.037	0.155
-382.960	800.000	0.037	0.154
-381.946	-200.000	0.034	-0.213
-380.931	-163.587	0.188	-0.009
-379.917	-84.431	0.092	-0.029
-378.902	-103.509	0.255	0.060
-377.888	-200.000	0.004	-0.071
-376.873	499.584	-0.042	-0.096
-375.858	-40.328	0.319	-0.165
-374.844	180.197	0.171	-0.250
-373.829	-105.481	0.179	-0.041
-372.815	-73.093	-0.132	-0.048
-371.800	800.000	-0.067	-0.202
-370.785	14.579	0.103	0.080
-369.771	-164.430	-0.399	-0.018
-368.756	118.559	0.095	0.117
-367.742	531.721	0.074	0.174
-366.727	-55.352	-0.062	0.028
-365.712	-200.000	0.050	0.252
-364.698	-128.429	0.278	-0.039
-363.683	52.843	-0.098	0.093
-362.669	-200.000	0.032	0.346
-361.654	-200.000	0.059	-0.284
-360.639	68.179	0.248	-0.253
-359.625	-46.645	0.096	-0.047
-358.610	115.871	-0.106	-0.129
-357.596	-15.306	0.026	0.016
-356.581	-141.236	-0.134	-0.014
-355.566	-200.000	-0.007	-0.267
-354.552	800.000	-0.063	-0.216
-353.537	-103.198	0.114	-0.027
-352.523	6.705	-0.046	0.034
-351.508	800.000	0.069	-0.224
-350.493	-133.138	-0.114	-0.014
-349.479	468.657	-0.037	0.083
-348.464	770.842	0.123	-0.335
-347.450	-67.017	-0.128	-0.050
-346.435	800.000	-0.124	0.364
-345.420	-200.000	-0.008	0.430
-344.406	-152.918	-0.255	-0.018
-343.391	-200.000	0.049	-0.220
-342.377	-200.000	-0.001	0.389
-341.362	227.316	-0.087	-0.141
-340.348	-39.044	-0.101	0.053
-339.333	-200.000	0.024	0.191
-338.318	800.000	0.027	-0.087
-337.304	603.512	-0.066	-0.165
-336.289	388.609	0.152	0.312
-335.275	-200.000	0.009	-0.056
-334.260	750.120	-0.104	-0.280
-333.245	-150.332	0.239	0.018
-332.231	234.610	0.130	-0.213
-331.216	-200.000	0.071	0.327
-330.202	-64.384	-0.208	-0.084
-329.187	-200.000	-0.025	0.110
-328.172	-109.233	-0.316	0.067
-327.158	-200.000	-0.007	-0.138
-326.143	-144.584	0.247	0.023
-325.129	363.314	0.066	-0.132
-324.114	582.728	-0.102	0.249
-323.099	123.007	0.108	0.134
-322.085	-63.246	-0.225	0.092
-321.070	-192.546	0.173	0.002
-320.056	-106.329	-0.256	-0.057
-319.041	172.722	-0.040	-0.057
-318.026	-34.342	-0.091	0.050
-317.012	267.633	0.041	0.071
-315.997	-54.417	0.098	0.044
-314.983	-18.776	-0.333	-0.206
-313.968	-200.000	0.013	-0.255
-312.953	-74.891	0.084	0.030
-311.939	-200.000	0.034	0.194
-310.924	-81.873	0.238	-0.077
-309.910	123.200	-0.051	0.064
-308.895	800.000	-0.044	-0.171
-307.880	800.000	0.077	-0.234
-306.866	800.000	-0.061	0.223
-305.851	66.690	-0.103	0.104
-304.837	800.000	0.044	0.162
-303.822	639.864	-0.062	0.158
-302.807	-100.125	0.187	-0.046
-301.793	-22.607	0.311	0.187
-300.778	127.593	0.135	0.171
-299.764	-75.241	-0.269	-0.095
-298.749	33.909	0.315	-0.273
-297.735	-27.883	0.317	0.183
-296.720	-113.743	0.110	-0.021
-295.705	324.036	0.023	-0.044
-294.691	-113.057	-0.186	-0.037
-293.676	37.714	-0.093	0.082
-292.662	-101.883	-0.189	-0.045
-291.647	800.000	-0.039	0.130
-290.632	-53.412	0.312	-0.142
-289.618	715.358	0.094	0.248
-288.603	422.696	0.123	-0.263
-287.589	181.463	-0.061	-0.089
-286.574	47.254	0.099	0.091
-285.559	-0.791	0.261	-0.183
-284.545	-71.242	0.336	-0.125
-283.530	-81.858	-0.092	-0.030
-282.516	94.536	-0.167	0.189
-281.501	-13.805	0.280	0.180
-280.486	-97.096	-0.363	-0.094
-279.472	-99.462	-0.160	0.040
-278.457	-123.292	0.107	-0.017
-277.443	-126.708	-0.152	-0.022
-276.428	117.430	-0.212	-0.258
-275.413	-94.137	0.142	-0.039
-274.399	23.977	0.173	0.141
-273.384	23.489	0.239	-0.195
-272.370	-58.300	0.402	0.174
-271.355	774.153	-0.063	0.169
-270.340	360.870	0.140	0.278
-269.326	42.460	-0.029	-0.026
-268.311	-40.383	0.251	-0.129
-267.297	468.181	0.124	-0.277
-266.282	-200.000	0.001	0.007
-265.267	363.066	-0.255	0.509
-264.253	-132.917	0.179	-0.023
-263.238	133.780	-0.135	-0.173
-262.224	-99.726	-0.163	0.040
-261.209	533.130	-0.101	0.237
-260.195	144.618	-0.193	0.255
-259.180	-122.457	-0.285	-0.046
-258.165	67.574	-0.239	-0.242
-257.151	-28.462	-0.046	-0.027
-256.136	304.207	0.256	0.472
-255.122	28.340	0.154	0.129
-254.107	40.612	-0.189	0.169
-253.092	81.812	0.094	0.101
-252.078	800.000	-0.005	0.022
-251.063	-97.875	0.237	-0.061
-250.049	-71.253	-0.072	-0.027
-249.034	-200.000	-0.014	-0.621
-248.019	-137.449	0.326	0.037
-247.005	800.000	0.079	0.299
-245.990	360.405	-0.154	0.305
-244.976	276.545	0.101	0.177
-243.961	-200.000	0.021	0.209
-242.946	88.526	-0.276	-0.304
-241.932	-108.019	-0.232	-0.050
-240.917	302.532	-0.008	0.014
-239.903	42.028	-0.132	0.119
-238.888	800.000	0.095	-0.346
-237.873	800.000	-0.093	-0.327
-236.859	128.849	-0.028	-0.036
-235.844	800.000	-0.052	-0.180
-234.830	-46.392	0.203	0.099
-233.815	-152.012	0.158	0.011
-232.800	-134.298	0.085	-0.010
-231.786	-200.000	0.018	0.116
-230.771	61.079	-0.089	-0.088
-229.757	-29.703	0.055	0.031
-228.742	-69.955	0.369	0.139
-227.727	1.376	-0.144	0.103
-226.713	21.157	0.130	-0.105
-225.698	214.807	-0.019	-0.030
-224.684	-148.153	0.075	0.006
-223.669	124.564	-0.142	0.178
-222.655	-200.000	0.025	0.116
-221.640	-38.988	-0.492	-0.257
-220.625	758.477	-0.047	-0.125
-219.611	52.923	0.282	-0.267
-218.596	83.974	-0.195	-0.211
-217.582	-200.000	-0.028	-0.128
-216.567	-177.984	-0.196	0.005
-215.552	800.000	0.027	-0.073
-214.538	-71.603	-0.175	-0.065
-213.523	62.227	0.134	-0.133
-212.509	-103.220	-0.182	-0.043
-211.494	-200.000	-0.024	-0.144
-210.479	800.000	-0.059	0.221
-209.465	733.832	-0.071	0.187
-208.450	-80.219	0.120	0.040
-207.436	32.776	-0.338	0.290
-206.421	-200.000	-0.006	-0.061
-205.406	605.006	0.039	-0.096
-204.392	83.586	-0.166	0.179
-203.377	-200.000	0.014	0.280
-202.363	70.564	-0.195	-0.199
-201.348	49.357	0.033	0.030
-200.333	-31.894	0.333	-0.185
-199.319	-200.000	0.004	0.095
-198.304	800.000	-0.075	-0.219
-197.290	-93.259	-0.078	0.021
-196.275	-109.931	-0.176	0.037
-195.260	298.798	0.095	0.174
-194.246	-200.000	-0.051	-0.251
-193.231	-15.014	0.186	-0.118
-192.217	148.565	-0.088	0.117
-191.202	74.729	0.267	-0.278
-190.187	-142.826	0.087	0.008
-189.173	22.195	0.190	0.153
-188.158	280.669	0.153	-0.270
-187.144	-200.000	-0.034	0.271
-186.129	-200.000	0.065	0.678
-185.114	57.989	-0.110	0.106
-184.100	16.256	-0.118	0.092
-183.085	-200.000	0.091	-0.479
-182.071	-200.000	-0.049	-0.335
-181.056	247.884	0.172	0.287
-180.042	-80.509	0.114	-0.037
-179.027	800.000	-0.059	0.244
-178.012	7.666	-0.139	-0.103
-176.998	-83.302	-0.179	0.057
-175.983	124.510	0.209	0.260
-174.969	8.554	-0.119	-0.088
-173.954	-200.000	-0.008	0.296
-172.939	107.755	-0.161	0.190
-171.925	84.871	0.171	-0.186
-170.910	601.655	0.065	-0.161
-169.896	206.579	0.101	-0.155
-168.881	130.099	-0.192	-0.243
-167.866	-93.518	0.064	-0.017
-166.852	372.363	0.099	-0.199
-165.837	346.586	-0.125	0.244
-164.823	800.000	0.086	-0.354
-163.808	168.406	-0.232	0.327
-162.793	428.900	0.132	-0.283
-161.779	26.162	0.169	0.139
-160.764	-114.831	-0.106	-0.020
-159.750	-126.558	-0.229	0.034
-158.735	-150.803	0.119	-0.009
-157.720	21.979	-0.101	-0.081
-156.706	-200.000	-0.065	0.438
-155.691	800.000	-0.032	0.090
-154.677	-178.094	-0.103	-0.002
-153.662	144.972	0.224	-0.296
-152.647	-169.926	-0.188	0.007
-151.633	258.015	-0.075	0.127
-150.618	-86.143	-0.089	0.027
-149.604	-118.515	0.232	-0.041
-148.589	218.229	0.123	0.193
-147.574	-200.000	0.025	-0.217
-146.560	83.399	0.141	-0.152
-145.545	-48.490	-0.216	0.103
-144.531	33.334	-0.086	-0.074
-143.516	-27.676	-0.192	0.110
-142.502	-148.198	0.310	-0.025
-141.487	-92.218	0.439	-0.122
-140.472	-159.630	-0.037	0.002
-139.458	-200.000	-0.045	0.238
-138.443	750.281	-0.081	0.215
-137.429	566.670	0.058	-0.139
-136.414	800.000	0.068	0.260
-135.399	-200.000	0.004	-0.041
-134.385	-152.240	-0.425	0.030
-133.370	-141.877	0.556	-0.055
-132.356	-200.000	0.013	0.100
-131.341	-107.452	0.082	0.018
-130.326	-175.083	-0.212	-0.006
-129.312	-11.786	-0.209	-0.135
-128.297	325.262	0.121	-0.228
-127.283	800.000	0.008	0.023
-126.268	-97.610	-0.159	-0.041
-125.253	303.579	0.090	-0.164
-124.239	177.121	-0.192	0.276
-123.224	-200.000	-0.082	0.424
-122.210	800.000	-0.013	-0.043
-121.195	226.645	0.327	-0.524
