DTS Sentinel unit serial number:	SN413079Multiplexer serial number:	ORYXHardware model number:	OX4-SRSoftware version number:	ORYX F/W v4.00 Oryx Data Collector v3.7.2.0data status	okinstallation	princeton_trtdifferential loss correction	single-endedforward channel	channel 2reverse channel	N/Adate	2019/09/12time	04:37:11forward acquisition time	60.00reverse acquisition time	0.00gamma	496.2192k internal	0.2327k external	0.2327temperature offset calibration	1.0142default loss term (dB/km)	0.3790temperature slope calibration	1.0000multiplexer offset coefficient	1.0000multiplexer slope coefficient	1.0000fibre end	0.00T internal ref (°C)	31.61T ext. ref 1 (°C)	2.86T ext. ref 2 (°C)	27.00length (m)	temperature (°C)	Stokes	anti-Stokes-747.200	800.000	-0.050	0.195
-746.185	97.205	-0.188	0.218
-745.171	151.111	-0.139	0.190
-744.156	-200.000	-0.020	0.199
-743.142	-14.501	-0.117	0.076
-742.127	-200.000	-0.036	0.508
-741.112	-123.293	-0.056	-0.009
-740.098	41.947	0.076	0.070
-739.083	-83.624	0.378	0.122
-738.069	-118.885	0.063	0.011
-737.054	800.000	0.043	-0.181
-736.039	151.478	-0.284	0.390
-735.025	-118.566	0.168	-0.030
-734.010	-156.709	-0.251	-0.016
-732.996	-102.547	-0.135	0.033
-731.981	368.743	-0.053	-0.108
-730.966	193.381	-0.052	-0.080
-729.952	39.306	-0.124	-0.112
-728.937	-126.191	-0.204	-0.031
-727.923	-78.297	-0.090	-0.031
-726.908	800.000	-0.043	-0.151
-725.894	-19.027	-0.285	-0.178
-724.879	800.000	0.117	-0.359
-723.864	-200.000	0.003	-0.142
-722.850	-145.775	-0.327	0.029
-721.835	151.319	-0.174	-0.238
-720.821	-176.035	-0.076	0.002
-719.806	-200.000	0.030	-0.294
-718.791	125.331	-0.287	-0.365
-717.777	5.794	-0.172	0.128
-716.762	-37.743	-0.139	0.074
-715.748	-200.000	0.012	0.314
-714.733	26.365	-0.165	-0.139
-713.718	136.262	-0.210	0.275
-712.704	-113.026	0.248	0.049
-711.689	-200.000	-0.004	-0.034
-710.675	-90.216	-0.254	-0.074
-709.660	195.295	0.164	-0.251
-708.645	-129.678	-0.349	-0.048
-707.631	-149.808	0.236	0.019
-706.616	-200.000	0.051	-0.332
-705.602	125.884	-0.089	-0.114
-704.587	-129.962	0.036	0.005
-703.572	786.055	-0.058	0.160
-702.558	-200.000	0.003	0.045
-701.543	-54.110	0.376	-0.172
-700.529	-200.000	0.012	0.200
-699.514	-163.677	0.358	-0.017
-698.499	-148.486	-0.028	0.002
-697.485	-58.910	0.308	0.134
-696.470	124.959	-0.115	-0.146
-695.456	-21.106	0.116	-0.072
-694.441	199.502	-0.022	-0.034
-693.426	82.073	0.144	0.157
-692.412	-70.609	-0.309	-0.118
-691.397	223.635	0.048	-0.078
-690.383	440.237	-0.143	0.315
-689.368	-127.249	-0.058	-0.009
-688.354	-65.832	-0.206	-0.083
-687.339	-52.433	0.336	-0.156
-686.324	-94.303	0.142	0.039
-685.310	-134.108	0.398	-0.049
-684.295	-200.000	-0.032	-0.245
-683.281	-200.000	0.008	-0.135
-682.266	-145.137	0.285	-0.026
-681.251	380.594	-0.173	0.356
-680.237	-70.901	-0.225	-0.085
-679.222	93.527	0.088	-0.100
-678.208	800.000	-0.052	-0.216
-677.193	154.112	-0.053	0.074
-676.178	57.242	-0.112	0.110
-675.164	162.388	0.185	0.260
-674.149	-200.000	-0.028	0.166
-673.135	47.880	-0.104	-0.098
-672.120	-143.740	-0.384	0.037
-671.105	-22.923	0.168	0.102
-670.091	-114.164	-0.164	0.032
-669.076	-200.000	0.013	-0.087
-668.062	-19.422	0.287	0.178
-667.047	800.000	0.077	-0.226
-666.032	-111.967	-0.043	-0.009
-665.018	-46.137	0.120	0.059
-664.003	-7.967	-0.103	-0.070
-662.989	-200.000	-0.038	-0.224
-661.974	247.917	-0.233	-0.395
-660.959	-200.000	-0.000	0.073
-659.945	278.041	0.162	-0.290
-658.930	-9.328	0.085	0.057
-657.916	49.490	-0.113	-0.107
-656.901	487.148	-0.107	0.246
-655.886	-200.000	-0.141	-0.000
-654.872	800.000	-0.079	-0.264
-653.857	-161.851	-0.144	0.007
-652.843	-75.783	-0.176	0.063
-651.828	-103.500	-0.157	0.037
-650.814	-79.997	0.134	0.045
-649.799	123.649	-0.116	-0.146
-648.784	271.383	0.171	-0.303
-647.770	38.604	0.244	-0.219
-646.755	387.625	0.115	0.239
-645.741	-79.217	0.041	-0.014
-644.726	262.407	-0.144	-0.252
-643.711	-131.824	-0.043	-0.006
-642.697	169.895	0.010	-0.015
-641.682	800.000	-0.027	0.109
-640.668	43.626	-0.189	0.173
-639.653	53.799	-0.134	0.129
-638.638	209.885	0.110	0.173
-637.624	-200.000	0.036	0.285
-636.609	-66.850	-0.273	0.108
-635.595	-86.677	-0.106	0.033
-634.580	-200.000	-0.163	0.000
-633.565	329.967	-0.053	0.102
-632.551	64.039	0.078	0.079
-631.536	95.615	-0.243	0.278
-630.522	-28.704	0.038	-0.022
-629.507	-14.214	0.229	-0.148
-628.492	205.064	0.049	-0.076
-627.478	278.758	0.065	-0.117
-626.463	-65.680	0.370	0.149
-625.449	-146.428	0.228	0.020
-624.434	-78.247	0.321	-0.111
-623.419	-183.124	0.279	-0.005
-622.405	-2.513	0.215	0.151
-621.390	119.819	0.272	-0.338
-620.376	-64.452	-0.093	0.038
-619.361	-51.823	-0.416	-0.194
-618.346	-75.055	-0.086	-0.031
-617.332	-102.989	-0.211	-0.050
-616.317	800.000	-0.118	0.367
-615.303	800.000	0.057	0.249
-614.288	290.440	-0.083	-0.151
-613.273	25.626	-0.181	0.151
-612.259	800.000	-0.030	-0.117
-611.244	-200.000	0.015	-0.266
-610.230	166.592	-0.120	-0.170
-609.215	161.662	0.178	0.250
-608.201	800.000	-0.065	-0.193
-607.186	-102.639	-0.123	-0.029
-606.171	-4.693	-0.424	0.293
-605.157	259.700	-0.091	-0.157
-604.142	-19.396	-0.210	-0.131
-603.128	-107.200	-0.226	-0.050
-602.113	31.188	0.400	-0.344
-601.098	98.727	-0.157	0.181
-600.084	120.252	0.309	0.384
-599.069	127.676	-0.061	-0.078
-598.055	-137.822	-0.483	0.054
-597.040	-128.928	0.572	-0.080
-596.025	-57.535	-0.251	0.110
-595.011	-200.000	-0.036	-0.239
-593.996	-200.000	0.030	-0.258
-592.982	800.000	0.035	0.101
-591.967	-92.726	0.318	0.089
-590.952	-75.272	-0.220	-0.079
-589.938	-128.001	0.087	-0.013
-588.923	-23.143	-0.113	0.068
-587.909	-112.353	-0.181	-0.036
-586.894	66.253	0.198	-0.202
-585.879	12.702	0.312	0.241
-584.865	-8.748	0.278	0.187
-583.850	800.000	-0.035	0.105
-582.836	248.326	-0.174	0.295
-581.821	-142.774	0.303	0.030
-580.806	-120.454	-0.405	-0.069
-579.792	-9.585	-0.215	0.143
-578.777	-200.000	0.069	0.348
-577.763	-200.000	0.016	0.196
-576.748	-86.522	-0.376	-0.115
-575.733	-114.813	0.295	-0.056
-574.719	-111.974	-0.137	-0.028
-573.704	68.151	-0.218	-0.223
-572.690	-113.418	0.092	-0.018
-571.675	-51.775	-0.321	-0.150
-570.661	-89.406	0.302	-0.089
-569.646	-200.000	0.005	0.257
-568.631	178.520	0.090	0.132
-567.617	-20.392	-0.257	-0.158
-566.602	-106.508	-0.081	-0.018
-565.588	-130.150	0.187	0.025
-564.573	800.000	-0.023	-0.088
-563.558	-106.075	0.045	0.010
-562.544	166.675	0.150	-0.213
-561.529	-113.498	0.319	0.063
-560.515	-157.463	-0.398	-0.024
-559.500	-52.825	-0.144	-0.067
-558.485	30.723	-0.280	-0.240
-557.471	800.000	-0.038	-0.116
-556.456	800.000	0.063	0.244
-555.442	-123.262	0.378	0.060
-554.427	-200.000	0.009	0.176
-553.412	23.912	0.142	0.117
-552.398	72.857	0.137	-0.143
-551.383	-124.714	-0.226	0.035
-550.369	-73.856	0.384	-0.139
-549.354	-200.000	-0.053	-0.327
-548.339	70.457	0.118	-0.122
-547.325	267.344	0.057	-0.100
-546.310	2.658	-0.091	-0.066
-545.296	-31.751	-0.053	0.030
-544.281	34.469	0.038	-0.033
-543.266	-140.216	0.437	0.046
-542.252	-200.000	0.033	0.170
-541.237	-100.381	-0.213	-0.053
-540.223	-200.000	-0.010	-0.133
-539.208	-35.243	0.244	0.133
-538.193	59.186	-0.215	-0.211
-537.179	321.639	0.094	0.178
-536.164	120.545	0.094	-0.117
-535.150	514.372	-0.110	-0.256
-534.135	191.151	-0.128	-0.193
-533.121	-26.227	0.167	-0.098
-532.106	800.000	0.050	-0.170
-531.091	50.017	0.202	-0.191
-530.077	-200.000	0.049	0.231
-529.062	-145.954	-0.214	0.019
-528.048	-33.726	-0.175	-0.096
-527.033	110.923	0.023	0.028
-526.018	-81.491	-0.243	0.080
-525.004	800.000	-0.086	-0.284
-523.989	395.055	-0.136	0.283
-522.975	39.123	-0.106	0.095
-521.960	36.070	0.228	0.200
-520.945	-51.052	-0.159	-0.074
-519.931	800.000	0.026	0.092
-518.916	-148.654	-0.276	0.022
-517.902	-129.488	-0.155	0.021
-516.887	-100.871	0.310	-0.076
-515.872	21.690	-0.073	-0.059
-514.858	90.186	-0.086	-0.096
-513.843	800.000	-0.098	0.393
-512.829	-46.468	0.179	0.088
-511.814	-200.000	0.028	-0.237
-510.799	800.000	-0.028	-0.102
-509.785	127.196	0.087	0.110
-508.770	310.960	0.064	-0.121
-507.756	-38.347	-0.297	0.157
-506.741	-26.300	-0.401	0.235
-505.726	34.071	-0.113	0.099
-504.712	229.545	0.132	0.215
-503.697	-18.236	0.179	-0.112
-502.683	629.598	-0.135	-0.340
-501.668	-29.929	-0.204	0.116
-500.653	-200.000	-0.025	-0.319
-499.639	-118.589	0.179	-0.032
-498.624	390.764	0.185	0.382
-497.610	139.287	-0.017	-0.022
-496.595	-139.473	0.201	0.021
-495.581	145.069	0.186	0.248
-494.566	72.284	0.136	-0.142
-493.551	800.000	-0.087	0.323
-492.537	-8.713	0.079	-0.053
-491.522	-200.000	0.021	0.284
-490.508	800.000	0.064	-0.236
-489.493	-99.596	0.142	0.036
-488.478	298.182	0.036	0.065
-487.464	-200.000	0.005	-0.269
-486.449	-67.767	0.203	0.079
-485.435	245.821	0.130	0.218
-484.420	800.000	-0.115	0.474
-483.405	800.000	0.052	0.189
-482.391	-57.257	0.273	-0.120
-481.376	0.276	-0.077	0.055
-480.362	-200.000	-0.013	0.148
-479.347	-92.171	0.275	0.078
-478.332	-89.924	-0.501	0.146
-477.318	-116.162	-0.105	-0.019
-476.303	-66.456	-0.157	-0.062
-475.289	-56.851	0.178	0.078
-474.274	280.056	-0.068	0.120
-473.259	800.000	-0.067	-0.275
-472.245	-200.000	-0.005	-0.136
-471.230	800.000	-0.050	-0.183
-470.216	-41.699	0.521	-0.267
-469.201	103.099	-0.241	0.281
-468.186	-200.000	0.008	0.085
-467.172	800.000	-0.028	0.113
-466.157	-111.357	-0.059	0.012
-465.143	-8.864	-0.158	-0.106
-464.128	-200.000	-0.017	-0.115
-463.113	-39.814	0.281	0.146
-462.099	8.920	-0.058	0.044
-461.084	217.475	0.040	0.064
-460.070	473.772	-0.106	-0.237
-459.055	-0.541	-0.161	-0.114
-458.040	134.712	0.190	0.246
-457.026	-22.123	0.386	0.234
-456.011	-32.118	-0.318	0.177
-454.997	-200.000	0.009	0.081
-453.982	-122.937	-0.085	-0.014
-452.968	-77.590	0.421	0.145
-451.953	33.234	-0.187	-0.162
-450.938	76.823	0.170	-0.180
-449.924	-200.000	0.082	0.413
-448.909	-200.000	-0.070	0.413
-447.895	-200.000	0.014	0.109
-446.880	-57.730	-0.255	-0.111
-445.865	22.409	0.095	-0.077
-444.851	800.000	0.018	-0.055
-443.836	98.959	-0.146	-0.168
-442.822	128.127	0.147	0.186
-441.807	800.000	0.051	0.182
-440.792	147.556	0.327	0.439
-439.778	-119.531	-0.136	-0.023
-438.763	126.125	0.286	-0.360
-437.749	800.000	-0.015	-0.050
-436.734	39.170	-0.175	-0.156
-435.719	129.609	-0.216	-0.275
-434.705	-107.631	-0.289	0.063
-433.690	-200.000	-0.045	0.205
-432.676	-200.000	-0.015	-0.081
-431.661	-75.944	0.045	0.016
-430.646	126.746	-0.180	0.227
-429.632	-31.853	0.081	-0.045
-428.617	64.386	0.277	0.278
-427.603	238.569	-0.159	-0.263
-426.588	26.168	0.065	0.054
-425.573	-109.286	0.312	-0.066
-424.559	51.138	0.153	0.145
-423.544	-15.954	0.245	-0.155
-422.530	223.135	-0.235	-0.378
-421.515	-98.706	0.039	-0.010
-420.500	331.348	0.011	-0.020
-419.486	-52.221	0.217	-0.100
-418.471	-57.141	0.052	-0.023
-417.457	-117.072	0.128	-0.023
-416.442	-200.000	0.016	0.222
-415.428	24.695	-0.287	0.237
-414.413	800.000	0.046	0.136
-413.398	166.947	-0.198	-0.280
-412.384	-200.000	0.056	-0.247
-411.369	119.522	0.261	-0.321
-410.355	255.773	-0.124	-0.212
-409.340	800.000	0.084	0.293
-408.325	8.916	0.275	-0.206
-407.311	21.566	0.198	0.160
-406.296	-18.725	0.187	0.116
-405.282	-74.420	0.189	-0.068
-404.267	340.006	-0.215	-0.418
-403.252	800.000	-0.125	-0.384
-402.238	-63.308	0.259	-0.106
-401.223	-145.908	0.441	0.039
-400.209	-48.540	-0.183	-0.088
-399.194	-183.989	-0.217	-0.004
-398.179	83.847	0.160	-0.174
-397.165	-0.590	-0.208	0.147
-396.150	256.096	-0.112	-0.191
-395.136	233.902	-0.252	0.413
-394.121	223.720	0.307	0.492
-393.106	496.073	-0.133	0.305
-392.092	16.028	0.240	-0.188
-391.077	-13.559	-0.149	0.096
-390.063	-143.063	-0.145	0.014
-389.048	800.000	-0.060	0.195
-388.033	98.289	0.299	0.342
-387.019	-4.469	0.174	-0.120
-386.004	-103.163	0.238	-0.056
-384.990	800.000	-0.088	0.325
-383.975	-45.146	0.306	-0.151
-382.960	129.805	-0.168	-0.213
-381.946	-35.008	0.131	0.071
-380.931	142.322	-0.102	0.135
-379.917	-200.000	0.014	-0.468
-378.902	-162.411	0.306	0.015
-377.888	-200.000	-0.006	0.033
-376.873	-122.285	0.159	0.026
-375.858	800.000	0.064	0.214
-374.844	3.677	0.133	-0.096
-373.829	-200.000	0.000	-0.053
-372.815	-200.000	-0.017	0.271
-371.800	-62.108	0.317	0.131
-370.785	238.668	-0.159	-0.263
-369.771	712.651	-0.090	0.237
-368.756	-67.726	0.046	-0.018
-367.742	13.537	0.059	0.046
-366.727	-111.235	-0.157	-0.032
-365.712	-147.881	0.323	0.027
-364.698	75.664	-0.108	-0.114
-363.683	-200.000	-0.008	-0.169
-362.669	514.249	-0.164	0.380
-361.654	-200.000	-0.019	0.162
-360.639	-184.201	-0.265	-0.004
-359.625	49.645	-0.178	-0.166
-358.610	800.000	0.043	0.145
-357.596	136.805	0.149	-0.193
-356.581	800.000	0.093	-0.320
-355.566	-157.615	-0.523	-0.031
-354.552	244.087	-0.228	-0.381
-353.537	-74.222	-0.290	0.104
-352.523	800.000	-0.091	-0.250
-351.508	226.887	-0.196	-0.317
-350.493	-46.725	-0.163	-0.079
-349.479	39.121	-0.137	-0.122
-348.464	-19.077	-0.330	0.204
-347.450	-200.000	0.008	-0.157
-346.435	-200.000	-0.053	-0.350
-345.420	-75.447	0.243	0.086
-344.406	-154.286	0.271	-0.018
-343.391	-34.713	-0.288	-0.157
-342.377	-179.580	0.030	-0.001
-341.362	-200.000	-0.011	0.173
-340.348	57.831	-0.193	-0.188
-339.333	-200.000	0.034	-0.348
-338.318	578.256	0.095	0.230
-337.304	-80.859	0.062	0.020
-336.289	2.637	0.103	0.074
-335.275	-65.973	0.280	-0.111
-334.260	800.000	0.157	-0.473
-333.245	488.423	-0.138	-0.313
-332.231	410.421	-0.121	0.254
-331.216	365.136	-0.248	0.496
-330.202	800.000	-0.035	0.120
-329.187	366.888	-0.166	0.333
-328.172	-124.518	-0.108	0.017
-327.158	800.000	-0.137	-0.558
-326.143	605.002	0.161	-0.399
-325.129	10.353	0.263	-0.198
-324.114	-83.942	-0.200	-0.063
-323.099	482.231	0.031	0.069
-322.085	110.427	-0.191	0.227
-321.070	-104.692	0.085	0.019
-320.056	-200.000	0.041	0.214
-319.041	620.351	-0.173	0.430
-318.026	234.403	-0.175	0.286
-317.012	-44.608	-0.179	-0.089
-315.997	-200.000	0.013	-0.127
-314.983	51.483	0.129	0.121
-313.968	-200.000	-0.018	-0.106
-312.953	105.291	-0.128	-0.150
-311.939	-70.796	0.016	-0.006
-310.924	-17.533	0.403	-0.251
-309.910	-133.082	-0.134	0.017
-308.895	758.235	-0.047	0.125
-307.880	-200.000	0.001	0.138
-306.866	-148.760	-0.108	-0.009
-305.851	-102.952	-0.163	-0.038
-304.837	256.936	0.049	0.084
-303.822	5.802	-0.132	-0.097
-302.807	-76.189	-0.116	-0.041
-301.793	-4.124	0.288	0.198
-300.778	-100.266	0.269	0.066
-299.764	48.095	-0.178	0.165
-298.749	-200.000	0.011	-0.363
-297.735	6.548	-0.256	0.188
-296.720	-54.887	0.594	0.265
-295.705	152.410	-0.110	0.149
-294.691	800.000	0.038	0.157
-293.676	49.800	0.176	0.165
-292.662	80.762	0.200	0.214
-291.647	-48.114	0.027	-0.013
-290.632	-39.235	0.268	-0.139
-289.618	-200.000	0.000	0.066
-288.603	-94.919	-0.243	-0.065
-287.589	-68.988	0.220	0.084
-286.574	-70.544	-0.106	0.040
-285.559	-200.000	-0.023	0.197
-284.545	269.606	0.123	-0.213
-283.530	-5.581	0.315	0.214
-282.516	-167.465	-0.166	-0.007
-281.501	-200.000	0.022	-0.212
-280.486	242.985	-0.239	-0.397
-279.472	-14.628	-0.192	0.122
-278.457	242.931	-0.145	0.240
-277.443	14.466	0.251	-0.194
-276.428	24.066	-0.024	0.019
-275.413	195.684	-0.139	0.209
-274.399	-200.000	0.008	-0.059
-273.384	63.686	-0.115	0.114
-272.370	34.978	-0.126	0.109
-271.355	-125.816	0.064	0.010
-270.340	-84.492	-0.073	0.023
-269.326	800.000	-0.047	-0.158
-268.311	-60.847	-0.288	-0.120
-267.297	24.565	0.058	0.048
-266.282	-200.000	-0.009	-0.043
-265.267	-200.000	0.047	-0.366
-264.253	-54.674	-0.105	0.047
-263.238	588.237	0.086	-0.209
-262.224	800.000	-0.086	-0.301
-261.209	126.504	0.223	0.279
-260.195	-21.048	-0.202	-0.122
-259.180	-38.607	-0.323	0.169
-258.165	-1.959	-0.160	0.111
-257.151	-200.000	-0.055	0.326
-256.136	-106.244	0.237	0.053
-255.122	139.663	0.044	0.057
-254.107	-13.619	-0.331	0.212
-253.092	-24.427	0.138	0.081
-252.078	52.644	0.125	-0.118
-251.063	114.883	0.231	-0.278
-250.049	49.750	0.047	-0.044
-249.034	800.000	0.155	-0.538
-248.019	102.369	-0.111	0.129
-247.005	67.821	0.083	0.084
-245.990	292.239	0.075	-0.135
-244.976	170.461	-0.115	0.163
-243.961	-200.000	0.022	0.129
-242.946	6.274	0.083	0.061
-241.932	-56.452	-0.223	-0.098
-240.917	-88.402	0.099	-0.029
-239.903	-65.661	0.151	-0.060
-238.888	-76.591	0.228	0.079
-237.873	-143.081	-0.173	-0.017
-236.859	-200.000	0.043	-0.250
-235.844	-200.000	-0.017	-0.221
-234.830	156.840	-0.045	-0.062
-233.815	-185.592	0.155	0.002
-232.800	-200.000	-0.020	0.107
-231.786	-200.000	-0.044	-0.214
-230.771	-92.884	-0.193	0.053
-229.757	-5.516	-0.133	-0.090
-228.742	577.051	0.123	0.298
-227.727	7.183	-0.376	-0.277
-226.713	-113.679	-0.144	0.028
-225.698	-133.169	0.091	-0.011
-224.684	51.810	0.386	-0.363
-223.669	178.667	0.205	-0.296
-222.655	24.991	0.190	-0.155
-221.640	-183.550	-0.032	0.001
-220.625	-94.773	-0.304	0.081
-219.611	-200.000	-0.020	-0.116
-218.596	800.000	0.065	0.249
-217.582	-86.870	-0.371	0.112
-216.567	737.526	0.082	-0.217
-215.552	-13.278	0.054	0.035
-214.538	-200.000	-0.002	0.217
-213.523	-158.184	-0.025	0.001
-212.509	233.291	-0.104	-0.169
-211.494	-67.424	-0.087	-0.034
-210.479	5.714	-0.149	-0.109
-209.465	450.517	-0.059	0.130
-208.450	-98.260	-0.494	0.125
-207.436	-85.312	-0.096	0.030
-206.421	68.403	0.038	0.039
-205.406	800.000	0.066	0.199
-204.392	-26.941	-0.442	-0.255
-203.377	-200.000	-0.037	-0.264
-202.363	-9.990	-0.267	0.175
-201.348	133.090	-0.106	-0.135
-200.333	-116.924	0.114	-0.021
-199.319	131.732	-0.131	-0.167
-198.304	-111.403	-0.099	0.020
-197.290	258.602	0.096	-0.164
-196.275	-108.421	0.062	-0.013
-195.260	-2.652	-0.383	0.265
-194.246	-155.184	0.241	0.016
-193.231	-63.841	0.087	0.035
-192.217	266.447	-0.042	-0.072
-191.202	-135.088	0.129	-0.015
-190.187	800.000	0.061	-0.257
-189.173	-85.280	-0.086	0.026
-188.158	122.745	0.159	0.196
-187.144	-59.357	0.467	0.198
-186.129	-158.925	0.300	0.017
-185.114	-65.221	0.408	-0.162
-184.100	-200.000	-0.017	0.120
-183.085	-200.000	0.004	0.393
-182.071	-59.246	0.112	0.047
-181.056	49.327	0.134	-0.124
-180.042	170.177	0.136	0.192
-179.027	800.000	0.067	0.281
-178.012	338.757	-0.125	-0.240
-176.998	-127.642	-0.063	0.009
-175.983	-200.000	0.040	0.186
-174.969	-200.000	0.008	-0.191
-173.954	-200.000	-0.042	0.235
-172.939	-200.000	0.014	0.439
-171.925	-25.396	-0.211	0.123
-170.910	-142.834	-0.141	-0.014
-169.896	392.333	0.191	-0.392
-168.881	7.010	0.149	0.110
-167.866	-108.401	0.286	-0.061
-166.852	-5.287	-0.395	0.268
-165.837	800.000	0.039	-0.119
-164.823	32.119	-0.348	0.296
-163.808	-103.149	0.220	0.051
-162.793	-153.069	-0.074	-0.005
-161.779	-200.000	0.036	-0.313
-160.764	622.560	-0.128	-0.319
-159.750	-85.680	0.086	0.026
-158.735	-139.448	0.184	0.019
-157.720	-200.000	-0.040	-0.275
-156.706	55.623	0.048	-0.045
-155.691	-200.000	-0.004	-0.426
-154.677	76.934	-0.080	0.083
-153.662	-41.294	-0.134	0.068
-152.647	-85.419	0.253	-0.078
-151.633	49.149	-0.260	0.241
-150.618	-200.000	-0.057	-0.312
-149.604	127.500	-0.211	0.264
-148.589	-108.221	0.083	0.018
-147.574	800.000	-0.066	-0.249
-146.560	-200.000	-0.036	-0.242
-145.545	6.089	-0.096	0.070
-144.531	-200.000	0.017	0.100
-143.516	800.000	0.071	-0.214
-142.502	-39.971	-0.159	0.082
-141.487	-65.287	-0.106	-0.042
-140.472	352.042	0.119	-0.233
-139.458	75.399	0.145	0.151
-138.443	10.042	0.151	0.113
-137.429	800.000	-0.056	-0.159
-136.414	173.809	0.077	0.109
-135.399	-200.000	0.012	0.087
-134.385	125.633	0.115	0.142
-133.370	139.536	-0.094	0.122
-132.356	-200.000	0.037	0.196
-131.341	-128.635	-0.080	0.011
-130.326	-110.675	0.323	-0.066
-129.312	-71.111	0.140	-0.052
-128.297	61.593	0.140	-0.137
-127.283	-24.581	0.308	0.180
-126.268	364.779	-0.033	0.065
-125.253	138.666	0.242	-0.312
-124.239	-15.594	-0.384	-0.241
-123.224	167.691	0.011	-0.015
-122.210	-200.000	-0.077	0.466
-121.195	16.649	0.090	0.070
