DTS Sentinel unit serial number:	SN413079Multiplexer serial number:	ORYXHardware model number:	OX4-SRSoftware version number:	ORYX F/W v4.00 Oryx Data Collector v3.7.2.0data status	okinstallation	princeton_trtdifferential loss correction	single-endedforward channel	channel 2reverse channel	N/Adate	2019/09/16time	15:11:35forward acquisition time	60.00reverse acquisition time	0.00gamma	496.2192k internal	0.2299k external	0.2299temperature offset calibration	0.9939default loss term (dB/km)	0.3790temperature slope calibration	1.0000multiplexer offset coefficient	1.0000multiplexer slope coefficient	1.0000fibre end	0.00T internal ref (°C)	41.06T ext. ref 1 (°C)	14.55T ext. ref 2 (°C)	36.57length (m)	temperature (°C)	Stokes	anti-Stokes-747.200	119.580	0.232	0.294
-746.185	-200.000	0.027	0.183
-745.171	800.000	-0.045	-0.152
-744.156	27.533	0.146	0.125
-743.142	-131.665	0.323	-0.043
-742.127	-182.386	-0.158	0.003
-741.112	-60.754	-0.077	-0.033
-740.098	238.347	-0.051	-0.087
-739.083	-200.000	-0.064	-0.421
-738.069	800.000	0.088	0.355
-737.054	-200.000	0.033	0.184
-736.039	392.724	-0.032	-0.067
-735.025	-200.000	-0.029	0.318
-734.010	-148.349	-0.402	0.034
-732.996	-95.733	0.114	0.031
-731.981	-66.528	-0.271	-0.110
-730.966	-200.000	-0.005	0.075
-729.952	-200.000	-0.023	0.156
-728.937	409.419	-0.147	0.318
-727.923	-200.000	-0.029	0.216
-726.908	-106.857	-0.448	0.101
-725.894	-200.000	-0.043	0.314
-724.879	165.017	0.162	0.233
-723.864	-131.772	-0.314	-0.042
-722.850	143.097	0.084	-0.114
-721.835	-38.174	-0.252	-0.136
-720.821	641.505	-0.017	0.045
-719.806	-24.597	-0.357	-0.216
-718.791	172.660	-0.219	-0.321
-717.777	-200.000	0.010	0.205
-716.762	800.000	-0.090	-0.284
-715.748	800.000	-0.064	0.212
-714.733	61.547	0.205	-0.208
-713.718	236.737	-0.085	-0.144
-712.704	3.167	-0.085	0.063
-711.689	-200.000	-0.002	-0.259
-710.675	-125.895	0.177	0.027
-709.660	392.280	-0.078	-0.165
-708.645	-44.776	-0.401	-0.204
-707.631	-63.268	0.274	-0.115
-706.616	800.000	0.124	-0.384
-705.602	-200.000	-0.015	-0.324
-704.587	722.340	-0.094	0.256
-703.572	800.000	-0.057	-0.215
-702.558	531.653	0.049	-0.118
-701.543	177.899	0.192	0.286
-700.529	14.175	-0.229	-0.182
-699.514	-141.733	-0.192	0.020
-698.499	190.523	0.136	0.209
-697.485	347.254	-0.128	-0.257
-696.470	-81.719	-0.286	0.095
-695.456	800.000	-0.030	-0.101
-694.441	800.000	-0.085	0.334
-693.426	-200.000	-0.018	-0.226
-692.412	800.000	-0.054	0.164
-691.397	-171.940	0.085	0.003
-690.383	-94.589	0.075	0.021
-689.368	-54.177	0.080	0.037
-688.354	96.715	-0.125	-0.145
-687.339	-44.210	0.091	0.046
-686.324	197.127	0.136	-0.212
-685.310	352.782	-0.086	-0.173
-684.295	-200.000	-0.016	-0.084
-683.281	614.424	-0.088	-0.226
-682.266	800.000	-0.163	-0.502
-681.251	-200.000	0.018	-0.104
-680.237	69.839	0.163	-0.171
-679.222	-200.000	0.012	-0.232
-678.208	800.000	-0.014	0.045
-677.193	171.177	-0.142	0.207
-676.178	-37.502	-0.172	-0.093
-675.164	-82.208	-0.052	0.017
-674.149	-92.095	-0.213	0.061
-673.135	472.226	0.058	0.133
-672.120	469.056	-0.063	-0.145
-671.105	-72.585	0.104	0.039
-670.091	-78.168	-0.092	-0.032
-669.076	322.082	0.167	-0.324
-668.062	135.577	-0.104	-0.138
-667.047	-35.150	0.308	0.171
-666.032	-136.617	0.133	-0.016
-665.018	800.000	-0.055	-0.181
-664.003	-99.500	0.051	-0.013
-662.989	59.318	-0.073	-0.073
-661.974	27.281	0.121	-0.103
-660.959	-200.000	-0.034	-0.164
-659.945	24.788	-0.267	0.225
-658.930	-63.449	-0.064	-0.027
-657.916	125.096	0.218	0.279
-656.901	-99.010	-0.220	-0.057
-655.886	-200.000	-0.021	-0.168
-654.872	337.877	0.055	-0.109
-653.857	-91.720	-0.219	0.063
-652.843	-37.416	0.225	-0.122
-651.828	-11.254	-0.299	0.200
-650.814	800.000	0.023	-0.068
-649.799	800.000	-0.096	0.320
-648.784	39.863	0.190	0.174
-647.770	-200.000	-0.043	-0.290
-646.755	-143.157	-0.450	0.044
-645.741	13.638	0.199	-0.157
-644.726	8.921	-0.085	-0.065
-643.711	-200.000	-0.012	-0.182
-642.697	55.514	0.102	0.101
-641.682	-65.410	-0.173	-0.071
-640.668	-200.000	-0.030	0.203
-639.653	71.008	0.180	-0.189
-638.638	59.495	0.162	0.163
-637.624	189.521	-0.130	0.198
-636.609	137.306	-0.166	-0.221
-635.595	460.311	-0.082	-0.185
-634.580	-200.000	-0.004	0.240
-633.565	800.000	0.045	-0.170
-632.551	-82.939	-0.161	-0.053
-631.536	-84.335	0.060	-0.019
-630.522	22.219	-0.077	0.064
-629.507	75.008	-0.120	-0.128
-628.492	47.532	-0.200	-0.189
-627.478	-47.127	0.201	0.099
-626.463	248.009	0.145	0.248
-625.449	338.102	-0.121	0.239
-624.434	-200.000	-0.008	-0.360
-623.419	9.309	0.145	-0.111
-622.405	9.609	-0.232	0.179
-621.390	800.000	-0.063	0.228
-620.376	800.000	0.107	0.407
-619.361	-134.739	0.114	0.014
-618.346	-96.690	-0.300	0.080
-617.332	-200.000	-0.018	-0.129
-616.317	145.542	0.087	0.118
-615.303	140.375	-0.154	0.207
-614.288	-200.000	0.012	0.135
-613.273	154.224	-0.197	-0.274
-612.259	800.000	0.026	0.099
-611.244	-129.721	0.262	-0.037
-610.230	206.886	-0.097	0.153
-609.215	94.702	-0.132	0.153
-608.201	-200.000	0.022	-0.137
-607.186	233.208	-0.144	-0.241
-606.171	-200.000	-0.011	-0.191
-605.157	-159.481	0.353	-0.020
-604.142	594.438	-0.082	-0.207
-603.128	800.000	-0.040	0.174
-602.113	-200.000	-0.037	0.248
-601.098	-200.000	0.071	-0.413
-600.084	398.697	-0.113	-0.241
-599.069	-200.000	-0.032	0.162
-598.055	-69.989	0.269	0.104
-597.040	-99.446	-0.248	-0.063
-596.025	-200.000	0.102	-0.620
-595.011	331.612	-0.121	0.238
-593.996	-200.000	-0.022	-0.359
-592.982	-103.719	-0.272	-0.065
-591.967	800.000	-0.069	0.225
-590.952	-50.064	0.312	0.150
-589.938	158.236	0.157	-0.221
-588.923	800.000	0.019	-0.064
-587.909	-200.000	0.006	0.067
-586.894	-58.811	-0.203	0.089
-585.879	-111.794	0.270	0.055
-584.865	800.000	0.103	0.339
-583.850	-137.580	0.152	-0.017
-582.836	17.873	0.377	0.304
-581.821	21.679	0.041	0.034
-580.806	-180.036	-0.183	-0.004
-579.792	122.820	-0.267	0.338
-578.777	800.000	0.037	-0.115
-577.763	800.000	-0.045	0.144
-576.748	633.517	0.106	0.273
-575.733	498.485	-0.098	0.228
-574.719	-113.710	-0.241	-0.048
-573.704	-70.945	0.095	-0.036
-572.690	116.200	0.108	0.134
-571.675	77.607	-0.118	-0.127
-570.661	264.996	-0.210	0.371
-569.646	-200.000	0.008	0.058
-568.631	279.480	-0.158	-0.286
-567.617	71.421	0.120	-0.126
-566.602	326.805	-0.072	-0.139
-565.588	-200.000	0.039	0.177
-564.573	-79.256	-0.206	0.071
-563.558	-200.000	-0.028	-0.136
-562.544	-122.114	-0.067	-0.011
-561.529	-93.236	0.176	0.049
-560.515	52.164	-0.084	-0.081
-559.500	28.131	0.081	0.069
-558.485	308.621	0.113	-0.215
-557.471	-67.781	-0.228	-0.090
-556.456	-200.000	-0.089	0.465
-555.442	-3.371	-0.093	-0.066
-554.427	197.476	0.166	0.256
-553.412	-76.590	-0.169	-0.060
-552.398	412.545	0.094	0.202
-551.383	214.175	0.165	0.264
-550.369	-200.000	-0.010	-0.227
-549.354	-28.383	0.217	-0.127
-548.339	-200.000	-0.025	0.177
-547.325	800.000	-0.087	0.331
-546.310	-200.000	-0.016	0.231
-545.296	688.913	0.060	-0.158
-544.281	-144.017	-0.391	-0.037
-543.266	346.239	-0.048	0.096
-542.252	-37.462	-0.010	-0.005
-541.237	762.576	-0.077	0.213
-540.223	-23.149	-0.171	0.104
-539.208	290.413	-0.120	-0.220
-538.193	506.415	-0.112	-0.263
-537.179	255.423	0.083	-0.145
-536.164	5.280	-0.122	-0.091
-535.150	-168.399	0.187	0.007
-534.135	-91.335	0.135	-0.039
-533.121	263.421	0.088	0.155
-532.106	415.684	-0.095	0.205
-531.091	153.205	0.067	-0.093
-530.077	-40.972	-0.296	-0.155
-529.062	-147.594	-0.138	0.012
-528.048	-20.781	-0.114	0.071
-527.033	80.241	0.032	-0.034
-526.018	662.209	0.058	0.152
-525.004	800.000	0.093	0.309
-523.989	-200.000	0.017	-0.197
-522.975	-170.000	0.062	0.002
-521.960	-158.620	0.205	-0.012
-520.945	368.059	-0.090	-0.185
-519.931	153.582	0.082	0.114
-518.916	81.076	-0.049	0.053
-517.902	800.000	0.037	-0.110
-516.887	-200.000	-0.010	0.311
-515.872	800.000	0.018	-0.072
-514.858	-200.000	0.041	-0.252
-513.843	477.171	0.105	-0.239
-512.829	361.047	-0.130	0.264
-511.814	32.962	0.144	-0.126
-510.799	-44.365	0.012	0.006
-509.785	-167.113	0.240	0.010
-508.770	96.874	0.081	-0.094
-507.756	112.202	0.018	0.021
-506.741	-77.288	-0.244	0.086
-505.726	-149.195	0.192	0.015
-504.712	55.548	-0.154	0.151
-503.697	-200.000	0.006	-0.309
-502.683	196.981	-0.136	0.210
-501.668	201.363	0.034	-0.052
-500.653	21.243	-0.215	-0.176
-499.639	331.238	-0.023	-0.046
-498.624	213.336	-0.077	-0.123
-497.610	-112.131	0.091	-0.018
-496.595	130.309	0.129	-0.167
-495.581	72.295	0.130	-0.137
-494.566	800.000	0.072	0.208
-493.551	-82.451	0.215	-0.071
-492.537	150.638	0.062	0.086
-491.522	-136.316	-0.057	-0.007
-490.508	-200.000	0.010	-0.081
-489.493	126.485	-0.247	-0.316
-488.478	-200.000	0.047	-0.288
-487.464	-166.437	0.282	0.012
-486.449	-164.039	-0.342	0.016
-485.435	-136.380	-0.226	0.027
-484.420	598.846	0.053	0.133
-483.405	-200.000	-0.043	-0.284
-482.391	598.752	0.054	-0.135
-481.376	122.066	-0.378	0.477
-480.362	-83.003	-0.140	-0.046
-479.347	-92.862	0.331	-0.093
-478.332	252.152	0.142	-0.244
-477.318	-8.910	0.293	0.198
-476.303	20.750	-0.134	0.110
-475.289	-200.000	-0.006	-0.080
-474.274	-75.236	-0.422	0.152
-473.259	-134.645	0.230	0.028
-472.245	-176.077	-0.323	-0.009
-471.230	-5.546	-0.107	-0.074
-470.216	96.924	0.222	-0.256
-469.201	-45.457	0.134	0.067
-468.186	-200.000	0.003	-0.037
-467.172	6.389	0.150	0.112
-466.157	398.531	0.063	0.133
-465.143	-122.398	-0.346	0.057
-464.128	75.727	0.210	0.224
-463.113	684.835	-0.075	0.197
-462.099	497.997	-0.148	0.343
-461.084	438.108	0.038	0.083
-460.070	-200.000	-0.009	0.081
-459.055	-29.933	-0.029	-0.017
-458.040	130.729	0.186	-0.241
-457.026	53.407	-0.194	0.187
-456.011	-25.343	-0.111	0.066
-454.997	292.522	0.057	0.105
-453.982	534.700	0.028	-0.068
-452.968	-200.000	-0.018	-0.243
-451.953	95.388	-0.206	-0.237
-450.938	-25.564	0.397	0.236
-449.924	-15.043	0.123	-0.079
-448.909	-200.000	-0.025	0.128
-447.895	800.000	-0.019	0.064
-446.880	-26.991	-0.222	0.131
-445.865	0.905	0.051	-0.037
-444.851	126.816	0.032	0.040
-443.836	758.795	-0.065	0.178
-442.822	-1.199	-0.043	0.030
-441.807	82.142	0.006	0.007
-440.792	-65.086	0.119	0.048
-439.778	-130.703	-0.365	-0.050
-438.763	352.528	0.136	0.272
-437.749	-131.052	0.226	-0.030
-436.734	-24.733	-0.213	0.128
-435.719	118.219	0.271	-0.337
-434.705	800.000	-0.023	0.067
-433.690	-24.326	0.015	-0.009
-432.676	18.815	-0.068	0.055
-431.661	223.223	-0.037	0.060
-430.646	101.105	0.323	0.379
-429.632	800.000	0.026	-0.084
-428.617	-200.000	-0.020	-0.200
-427.603	-187.369	0.065	-0.001
-426.588	800.000	-0.094	0.341
-425.573	-32.051	0.064	0.036
-424.559	-87.322	0.122	0.037
-423.544	-200.000	-0.062	-0.335
-422.530	-200.000	-0.019	-0.107
-421.515	-84.462	0.264	-0.084
-420.500	-200.000	0.078	0.610
-419.486	800.000	-0.062	-0.232
-418.471	7.212	0.252	-0.189
-417.457	-42.786	-0.183	-0.094
-416.442	-61.315	0.224	-0.095
-415.428	-5.424	0.141	0.097
-414.413	-66.688	-0.026	-0.010
-413.398	-146.134	-0.102	0.009
-412.384	-27.545	0.082	-0.048
-411.369	92.109	0.073	0.083
-410.355	408.648	0.034	-0.073
-409.340	-200.000	-0.019	-0.090
-408.325	464.167	0.077	-0.173
-407.311	160.329	-0.096	-0.134
-406.296	-200.000	-0.014	0.133
-405.282	-85.207	0.285	0.090
-404.267	800.000	0.093	-0.359
-403.252	136.716	0.156	-0.205
-402.238	-80.849	-0.349	-0.117
-401.223	-97.815	0.182	-0.047
-400.209	322.180	-0.116	-0.223
-399.194	-200.000	0.022	-0.286
-398.179	-35.526	-0.281	-0.154
-397.165	721.423	-0.111	-0.297
-396.150	-3.106	0.172	0.121
-395.136	-169.798	-0.172	0.006
-394.121	-155.187	-0.118	0.008
-393.106	-75.090	-0.122	0.044
-392.092	-200.000	-0.059	-0.358
-391.077	-26.468	-0.067	0.039
-390.063	-91.841	-0.485	0.139
-389.048	380.518	0.188	0.387
-388.033	-176.584	-0.267	-0.007
-387.019	-200.000	0.013	-0.321
-386.004	151.855	-0.108	-0.149
-384.990	-89.882	-0.288	0.085
-383.975	22.333	0.203	-0.167
-382.960	222.066	-0.072	-0.116
-381.946	199.346	-0.113	0.174
-380.931	753.855	-0.076	-0.205
-379.917	-200.000	0.017	0.146
-378.902	103.202	-0.101	0.119
-377.888	58.802	0.021	-0.020
-376.873	5.829	0.051	0.038
-375.858	800.000	-0.086	0.360
-374.844	-138.957	0.160	0.018
-373.829	-15.508	-0.026	-0.017
-372.815	-157.689	-0.055	0.003
-371.800	5.423	0.279	0.207
-370.785	-85.165	0.243	-0.076
-369.771	242.492	-0.234	-0.394
-368.756	-44.766	0.350	0.175
-367.742	800.000	0.069	0.212
-366.727	-200.000	-0.023	0.174
-365.712	132.018	-0.130	0.169
-364.698	686.782	0.039	0.103
-363.683	-200.000	-0.004	-0.219
-362.669	800.000	-0.023	0.098
-361.654	-200.000	-0.002	-0.398
-360.639	414.708	-0.154	0.329
-359.625	273.676	-0.134	-0.238
-358.610	26.832	-0.232	0.195
-357.596	-68.568	0.147	0.057
-356.581	-87.951	0.273	0.082
-355.566	283.341	-0.220	-0.397
-354.552	-117.218	-0.235	0.043
-353.537	-50.513	0.565	0.268
-352.523	-56.144	-0.254	-0.114
-351.508	228.677	-0.120	-0.197
-350.493	-164.039	0.242	0.011
-349.479	72.760	-0.154	-0.162
-348.464	126.583	0.169	-0.215
-347.450	63.001	-0.043	-0.043
-346.435	467.739	0.113	0.253
-345.420	-123.096	0.172	0.028
-344.406	-55.908	0.102	0.046
-343.391	77.034	-0.083	-0.089
-342.377	800.000	0.052	-0.206
-341.362	-185.747	0.162	0.002
-340.348	208.593	0.078	-0.122
-339.333	-109.218	-0.174	-0.037
-338.318	-28.664	-0.027	-0.016
-337.304	174.198	0.115	0.168
-336.289	35.952	0.213	0.188
-335.275	628.904	-0.059	-0.151
-334.260	1.408	-0.205	-0.148
-333.245	800.000	0.047	0.176
-332.231	-200.000	0.044	0.282
-331.216	800.000	0.006	0.025
-330.202	-110.406	0.060	0.012
-329.187	-200.000	0.006	-0.048
-328.172	88.335	0.107	-0.119
-327.158	218.487	0.033	-0.053
-326.143	-41.936	-0.180	-0.093
-325.129	-200.000	0.010	-0.312
-324.114	800.000	0.054	-0.196
-323.099	176.176	0.123	-0.180
-322.085	-126.557	-0.140	0.021
-321.070	34.977	0.096	0.085
-320.056	-200.000	-0.025	0.204
-319.041	-200.000	-0.004	-0.186
-318.026	256.462	-0.054	-0.092
-317.012	-7.998	-0.098	-0.067
-315.997	-200.000	0.026	0.219
-314.983	-34.902	0.091	0.050
-313.968	460.815	0.127	0.284
-312.953	17.219	-0.137	0.109
-311.939	-200.000	-0.060	0.506
-310.924	154.266	-0.187	-0.257
-309.910	183.607	0.286	-0.425
-308.895	-82.011	0.177	0.058
-307.880	-200.000	-0.069	0.406
-306.866	37.534	0.326	-0.290
-305.851	27.950	0.100	-0.085
-304.837	-134.620	0.223	0.027
-303.822	130.433	-0.145	0.186
-302.807	-106.564	-0.156	0.035
-301.793	594.036	-0.058	-0.145
-300.778	-200.000	-0.010	-0.151
-299.764	-73.475	-0.320	0.117
-298.749	410.039	-0.051	0.108
-297.735	671.108	0.162	0.421
-296.720	745.784	-0.059	0.159
-295.705	164.192	0.083	-0.117
-294.691	164.941	0.196	-0.277
-293.676	679.966	0.046	0.119
-292.662	370.475	-0.036	-0.074
-291.647	205.988	-0.025	0.039
-290.632	-200.000	-0.007	0.089
-289.618	30.451	-0.273	-0.234
-288.603	364.279	0.010	0.020
-287.589	119.313	-0.115	0.142
-286.574	-200.000	0.206	0.001
-285.559	-59.492	0.244	-0.105
-284.545	800.000	0.037	-0.113
-283.530	-132.909	0.066	0.008
-282.516	380.143	0.289	0.593
-281.501	800.000	0.023	0.084
-280.486	6.193	0.156	0.116
-279.472	-126.944	-0.328	-0.048
-278.457	-64.372	-0.129	0.053
-277.443	-49.970	-0.062	0.030
-276.428	-46.306	-0.210	0.104
-275.413	652.158	0.068	0.174
-274.399	-112.799	0.237	-0.047
-273.384	-26.570	0.281	-0.165
-272.370	-63.599	-0.290	-0.119
-271.355	635.728	0.092	-0.233
-270.340	800.000	-0.092	0.295
-269.326	7.927	0.111	0.083
-268.311	-15.444	-0.297	0.190
-267.297	-131.561	0.348	-0.046
-266.282	-140.214	0.098	0.010
-265.267	529.876	0.046	0.108
-264.253	-80.977	0.401	-0.133
-263.238	-103.986	-0.128	0.030
-262.224	-28.611	0.073	0.042
-261.209	19.759	-0.044	0.036
-260.195	-10.055	0.183	-0.122
-259.180	-200.000	-0.018	0.188
-258.165	178.642	0.105	0.154
-257.151	249.319	0.201	-0.342
-256.136	800.000	-0.042	0.154
-255.122	28.983	-0.245	-0.208
-254.107	-200.000	-0.012	-0.356
-253.092	-200.000	0.013	-0.485
-252.078	55.864	0.160	-0.155
-251.063	133.035	0.212	0.274
-250.049	81.722	0.036	0.039
-249.034	800.000	0.078	0.295
-248.019	32.914	-0.079	-0.069
-247.005	-200.000	0.074	-0.425
-245.990	72.762	0.075	-0.078
-244.976	-179.289	-0.341	-0.008
-243.961	-156.295	-0.136	0.009
-242.946	800.000	0.009	-0.034
-241.932	-200.000	-0.067	-0.350
-240.917	31.281	-0.192	-0.165
-239.903	-200.000	0.085	-0.521
-238.888	-26.855	-0.045	-0.026
-237.873	800.000	0.032	-0.135
-236.859	-102.789	-0.203	0.048
-235.844	51.024	-0.119	-0.113
-234.830	314.397	-0.062	-0.118
-233.815	248.356	-0.208	-0.351
-232.800	171.824	0.183	-0.263
-231.786	88.317	-0.167	0.186
-230.771	-46.374	-0.154	0.076
-229.757	282.378	-0.084	0.150
-228.742	800.000	-0.042	-0.129
-227.727	800.000	-0.039	-0.122
-226.713	-115.927	0.451	-0.084
-225.698	800.000	0.074	0.260
-224.684	164.809	-0.141	0.199
-223.669	-200.000	0.017	0.246
-222.655	-32.063	0.045	-0.025
-221.640	91.073	0.084	0.095
-220.625	512.660	0.074	-0.172
-219.611	-200.000	0.009	0.185
-218.596	-46.368	0.354	-0.174
-217.582	331.335	-0.017	-0.032
-216.567	225.122	-0.183	0.295
-215.552	144.282	-0.118	0.158
-214.538	157.703	-0.158	-0.219
-213.523	-47.135	-0.093	-0.045
-212.509	-82.207	0.382	-0.124
-211.494	-107.900	-0.195	0.042
-210.479	24.747	-0.183	0.151
-209.465	342.983	-0.031	-0.062
-208.450	-104.366	0.447	-0.104
-207.436	-25.483	0.302	0.179
-206.421	-24.787	0.104	0.062
-205.406	-55.262	0.260	-0.117
-204.392	-161.608	0.087	0.004
-203.377	147.053	-0.222	0.299
-202.363	-83.930	-0.154	-0.049
-201.348	490.785	0.023	-0.054
-200.333	800.000	-0.091	0.380
-199.319	-29.630	-0.162	0.093
-198.304	697.531	0.108	-0.283
-197.290	-64.487	-0.362	-0.147
-196.275	-153.217	-0.316	-0.022
-195.260	283.954	-0.034	-0.062
-194.246	28.442	0.149	-0.126
-193.231	34.080	-0.095	0.083
-192.217	60.507	0.094	0.093
-191.202	-124.489	0.135	0.021
-190.187	69.353	-0.017	0.017
-189.173	-200.000	-0.060	-0.373
-188.158	63.049	-0.107	-0.107
-187.144	-80.378	-0.158	0.053
-186.129	12.166	-0.169	0.130
-185.114	37.559	0.110	0.098
-184.100	-200.000	-0.011	-0.208
-183.085	-200.000	0.052	-0.284
-182.071	-171.608	0.310	-0.010
-181.056	180.754	-0.162	0.238
-180.042	-140.279	0.214	-0.022
-179.027	-89.011	0.347	0.103
-178.012	10.392	-0.411	-0.312
-176.998	9.694	0.052	0.039
-175.983	186.123	-0.099	0.147
-174.969	-6.321	0.218	0.148
-173.954	-200.000	-0.009	-0.117
-172.939	-200.000	0.060	-0.378
-171.925	611.289	-0.069	0.171
-170.910	710.922	-0.015	-0.040
-169.896	-42.692	0.096	-0.049
-168.881	800.000	-0.080	0.246
-167.866	185.181	0.112	-0.166
-166.852	800.000	-0.073	-0.239
-165.837	-68.492	0.335	0.130
-164.823	-97.793	0.223	-0.058
-163.808	-200.000	-0.026	-0.171
-162.793	184.009	0.114	0.169
-161.779	26.115	0.129	0.107
-160.764	-160.284	0.128	0.007
-159.750	349.833	0.071	0.139
-158.735	-200.000	0.015	0.275
-157.720	-92.110	-0.410	0.115
-156.706	-200.000	-0.001	0.208
-155.691	-38.162	-0.126	0.067
-154.677	43.816	-0.269	0.246
-153.662	800.000	-0.016	-0.055
-152.647	169.201	-0.116	-0.165
-151.633	179.925	0.054	-0.079
-150.618	-162.742	0.321	0.016
-149.604	-200.000	-0.029	0.195
-148.589	800.000	0.023	0.069
-147.574	-93.082	-0.262	0.073
-146.560	47.797	0.089	-0.083
-145.545	118.529	0.183	-0.225
-144.531	176.270	-0.193	-0.279
-143.516	134.554	-0.213	0.275
-142.502	-182.351	0.398	-0.007
-141.487	581.567	0.109	-0.266
-140.472	321.632	0.107	-0.202
-139.458	43.860	0.187	-0.171
-138.443	-200.000	-0.068	-0.367
-137.429	127.412	0.069	0.087
-136.414	89.413	-0.220	-0.245
-135.399	695.046	-0.091	0.238
-134.385	130.670	-0.125	0.160
-133.370	393.567	0.112	-0.232
-132.356	-54.998	0.068	-0.031
-131.341	-200.000	-0.052	-0.442
-130.326	5.844	-0.232	-0.171
-129.312	27.446	0.367	0.307
-128.297	591.955	0.032	-0.080
-127.283	49.214	-0.084	-0.079
-126.268	-109.362	0.081	0.017
-125.253	59.037	-0.185	-0.181
-124.239	29.496	-0.139	-0.118
-123.224	-200.000	-0.022	0.350
-122.210	-170.529	0.289	0.010
-121.195	-156.306	0.295	-0.018
