DTS Sentinel unit serial number:	SN413079Multiplexer serial number:	ORYXHardware model number:	OX4-SRSoftware version number:	ORYX F/W v4.00 Oryx Data Collector v3.7.2.0data status	okinstallation	princeton_trtdifferential loss correction	single-endedforward channel	channel 2reverse channel	N/Adate	2019/09/12time	16:53:11forward acquisition time	60.00reverse acquisition time	0.00gamma	496.2192k internal	0.2325k external	0.2325temperature offset calibration	1.0123default loss term (dB/km)	0.3790temperature slope calibration	1.0000multiplexer offset coefficient	1.0000multiplexer slope coefficient	1.0000fibre end	0.00T internal ref (°C)	36.09T ext. ref 1 (°C)	2.74T ext. ref 2 (°C)	29.37length (m)	temperature (°C)	Stokes	anti-Stokes-747.200	442.990	-0.240	-0.530
-746.185	-68.311	-0.251	0.098
-745.171	32.665	-0.080	-0.070
-744.156	89.204	0.327	0.368
-743.142	-40.462	-0.121	0.063
-742.127	-108.791	-0.143	0.031
-741.112	73.771	-0.254	0.269
-740.098	800.000	-0.062	0.211
-739.083	800.000	-0.057	-0.169
-738.069	266.873	-0.168	0.297
-737.054	344.680	0.050	-0.100
-736.039	-9.663	-0.406	-0.273
-735.025	-137.711	0.326	-0.037
-734.010	216.369	-0.098	-0.157
-732.996	57.033	-0.130	-0.128
-731.981	-162.900	-0.149	-0.007
-730.966	77.215	0.235	-0.252
-729.952	232.108	0.164	0.272
-728.937	425.466	0.039	0.085
-727.923	364.124	0.057	0.117
-726.908	800.000	-0.083	-0.238
-725.894	800.000	-0.066	-0.194
-724.879	91.721	0.099	-0.112
-723.864	-115.135	0.060	0.012
-722.850	15.951	-0.053	0.042
-721.835	800.000	0.044	0.144
-720.821	-185.441	-0.247	0.004
-719.806	143.107	-0.056	0.076
-718.791	190.366	-0.098	-0.148
-717.777	203.486	-0.171	-0.266
-716.762	-200.000	0.042	-0.207
-715.748	-157.731	-0.237	0.014
-714.733	-88.654	0.312	0.094
-713.718	-75.885	0.085	0.030
-712.704	321.241	0.083	-0.159
-711.689	-200.000	-0.017	-0.307
-710.675	800.000	0.106	-0.352
-709.660	-102.854	0.010	0.002
-708.645	-41.230	0.181	0.094
-707.631	-200.000	0.033	-0.175
-706.616	288.642	-0.071	0.129
-705.602	-200.000	0.019	0.203
-704.587	-109.068	-0.539	-0.116
-703.572	-200.000	0.019	0.149
-702.558	58.495	0.112	0.111
-701.543	686.410	0.118	-0.311
-700.529	-200.000	-0.011	-0.258
-699.514	22.048	0.166	0.136
-698.499	111.648	-0.121	-0.147
-697.485	-127.196	0.183	0.027
-696.470	-200.000	-0.013	-0.161
-695.456	-200.000	0.102	-0.470
-694.441	780.373	-0.170	-0.468
-693.426	-137.861	0.066	0.007
-692.412	212.727	0.143	-0.227
-691.397	-126.827	-0.184	0.027
-690.383	21.127	-0.212	-0.173
-689.368	349.442	-0.052	-0.104
-688.354	800.000	-0.052	-0.214
-687.339	227.174	0.037	-0.061
-686.324	-15.587	-0.181	0.116
-685.310	800.000	0.115	-0.411
-684.295	5.127	0.104	-0.077
-683.281	800.000	-0.012	0.053
-682.266	800.000	-0.093	-0.263
-681.251	28.644	-0.146	-0.125
-680.237	-34.224	0.147	-0.081
-679.222	-121.127	0.036	0.006
-678.208	-166.554	0.224	-0.009
-677.193	-151.500	-0.132	-0.010
-676.178	256.972	0.089	0.154
-675.164	-200.000	0.028	-0.174
-674.149	249.199	-0.082	0.140
-673.135	56.753	0.064	-0.063
-672.120	149.834	-0.097	-0.132
-671.105	115.631	0.189	-0.233
-670.091	-126.591	0.122	-0.018
-669.076	-113.121	-0.271	-0.054
-668.062	18.876	0.294	-0.237
-667.047	-200.000	0.004	0.322
-666.032	-74.534	0.236	0.085
-665.018	-62.093	-0.204	-0.086
-664.003	188.240	0.178	0.268
-662.989	-106.498	-0.102	-0.023
-661.974	-136.348	0.288	0.034
-660.959	-36.370	-0.196	-0.107
-659.945	-14.242	-0.181	0.118
-658.930	126.952	0.103	-0.131
-657.916	209.702	0.127	0.201
-656.901	-143.675	0.285	-0.027
-655.886	-124.457	-0.116	0.018
-654.872	-144.741	0.323	-0.030
-653.857	-200.000	-0.035	0.474
-652.843	188.087	-0.094	0.142
-651.828	64.728	0.252	0.256
-650.814	-11.136	-0.158	-0.105
-649.799	42.459	-0.108	0.099
-648.784	116.344	0.129	-0.159
-647.770	800.000	-0.024	0.069
-646.755	-191.782	0.342	0.003
-645.741	-82.695	0.112	-0.036
-644.726	55.250	-0.092	0.090
-643.711	500.770	-0.039	0.090
-642.697	433.539	-0.081	-0.178
-641.682	-91.320	0.224	0.064
-640.668	800.000	-0.016	0.059
-639.653	-179.755	-0.168	0.004
-638.638	453.279	-0.139	0.309
-637.624	-34.541	-0.174	0.096
-636.609	-82.567	-0.197	0.064
-635.595	-28.379	0.183	0.106
-634.580	-200.000	-0.020	-0.120
-633.565	377.660	0.072	-0.148
-632.551	86.939	-0.139	-0.155
-631.536	-164.803	-0.426	-0.019
-630.522	-200.000	-0.027	0.228
-629.507	213.162	0.242	0.384
-628.492	-177.049	0.093	0.002
-627.478	-40.202	-0.174	-0.091
-626.463	-24.297	-0.253	-0.152
-625.449	800.000	0.046	0.186
-624.434	800.000	0.081	-0.235
-623.419	-41.535	-0.188	-0.097
-622.405	-200.000	0.014	0.286
-621.390	-84.630	0.239	0.076
-620.376	-200.000	-0.033	-0.566
-619.361	-88.399	-0.183	-0.055
-618.346	36.000	-0.137	0.121
-617.332	-24.142	0.176	0.106
-616.317	-80.214	-0.458	-0.154
-615.303	235.225	0.092	0.152
-614.288	-200.000	0.021	0.376
-613.273	303.490	0.059	-0.111
-612.259	53.391	-0.186	-0.179
-611.244	659.219	-0.128	-0.331
-610.230	135.644	0.247	-0.322
-609.215	800.000	-0.112	-0.401
-608.201	-46.154	-0.071	0.035
-607.186	-137.075	0.305	0.035
-606.171	56.839	-0.228	0.223
-605.157	432.263	-0.120	-0.261
-604.142	-37.321	-0.210	0.112
-603.128	-71.299	0.181	-0.068
-602.113	-200.000	-0.037	0.196
-601.098	-25.479	-0.190	-0.113
-600.084	179.223	-0.048	0.071
-599.069	-120.014	-0.383	-0.066
-598.055	800.000	0.076	-0.272
-597.040	-200.000	0.008	0.260
-596.025	125.883	-0.081	0.102
-595.011	-200.000	-0.025	-0.188
-593.996	-1.188	-0.322	0.228
-592.982	-200.000	0.016	0.091
-591.967	63.429	0.255	0.257
-590.952	10.569	-0.236	0.180
-589.938	188.864	0.091	0.137
-588.923	-179.781	-0.389	0.008
-587.909	258.335	-0.120	-0.207
-586.894	115.727	0.032	-0.039
-585.879	-13.326	-0.344	0.224
-584.865	800.000	-0.086	0.277
-583.850	328.580	0.185	-0.356
-582.836	479.828	0.140	-0.318
-581.821	135.167	-0.139	0.181
-580.806	309.827	-0.084	-0.158
-579.792	-200.000	0.011	-0.215
-578.777	-32.585	0.270	0.151
-577.763	303.426	0.028	-0.052
-576.748	-200.000	0.018	0.303
-575.733	-24.693	-0.190	0.113
-574.719	-80.061	0.173	-0.058
-573.704	-200.000	-0.067	0.299
-572.690	39.669	-0.255	-0.230
-571.675	349.490	-0.025	0.049
-570.661	-106.142	-0.283	0.064
-569.646	-57.078	0.174	0.077
-568.631	305.278	-0.109	-0.204
-567.617	-7.041	-0.026	0.017
-566.602	-65.457	0.174	-0.070
-565.588	155.971	-0.161	0.222
-564.573	-200.000	0.007	-0.261
-563.558	-53.603	-0.111	0.051
-562.544	21.989	0.156	0.128
-561.529	49.771	-0.272	-0.257
-560.515	-200.000	-0.102	0.568
-559.500	-109.377	-0.198	0.042
-558.485	-13.766	-0.338	0.219
-557.471	666.314	0.082	0.211
-556.456	-190.359	0.266	0.003
-555.442	-131.043	-0.220	0.029
-554.427	-200.000	0.026	-0.159
-553.412	-37.258	-0.268	0.144
-552.398	444.196	0.142	0.311
-551.383	389.137	0.051	-0.105
-550.369	416.249	0.035	-0.075
-549.354	-142.231	-0.188	-0.019
-548.339	-40.491	-0.020	0.010
-547.325	386.649	0.052	0.108
-546.310	800.000	0.021	0.084
-545.296	-66.718	0.289	-0.115
-544.281	-126.172	0.229	-0.034
-543.266	616.670	0.118	-0.297
-542.252	800.000	0.058	0.221
-541.237	456.160	-0.066	-0.146
-540.223	-200.000	0.009	-0.048
-539.208	-158.294	-0.235	-0.014
-538.193	-35.176	-0.324	0.177
-537.179	-25.732	0.125	0.074
-536.164	-50.083	0.130	-0.062
-535.150	-159.354	-0.201	0.011
-534.135	97.839	-0.142	0.164
-533.121	-200.000	0.021	-0.298
-532.106	338.625	-0.172	0.334
-531.091	800.000	-0.074	0.213
-530.077	-200.000	0.025	-0.155
-529.062	-146.441	-0.171	0.015
-528.048	-54.015	0.139	-0.063
-527.033	800.000	-0.029	0.092
-526.018	3.971	0.094	-0.069
-525.004	-62.433	-0.249	0.104
-523.989	800.000	-0.029	0.108
-522.975	154.680	0.107	-0.147
-521.960	-146.726	-0.196	-0.017
-520.945	-87.963	-0.083	-0.025
-519.931	-54.951	0.109	-0.049
-518.916	361.659	-0.217	0.434
-517.902	321.970	-0.093	0.177
-516.887	-91.513	-0.038	-0.011
-515.872	50.849	-0.244	0.231
-514.858	-200.000	-0.030	0.210
-513.843	178.095	0.209	0.306
-512.829	57.703	0.142	0.139
-511.814	-127.229	0.091	0.013
-510.799	265.822	-0.035	0.060
-509.785	-73.126	-0.179	-0.066
-508.770	-52.099	-0.196	0.091
-507.756	539.421	-0.093	-0.221
-506.741	43.213	0.068	0.062
-505.726	449.823	-0.088	0.194
-504.712	800.000	0.057	0.238
-503.697	-61.920	-0.220	0.092
-502.683	-73.073	0.181	0.067
-501.668	-200.000	0.010	0.293
-500.653	-200.000	0.007	-0.347
-499.639	-11.471	-0.177	-0.116
-498.624	81.317	-0.088	0.095
-497.610	800.000	0.086	0.339
-496.595	89.806	0.095	-0.106
-495.581	27.364	0.344	0.289
-494.566	-14.152	-0.084	-0.054
-493.551	-200.000	0.000	-0.208
-492.537	800.000	0.125	-0.366
-491.522	44.846	-0.137	0.126
-490.508	-7.419	0.224	-0.152
-489.493	129.613	-0.247	-0.315
-488.478	-4.306	-0.105	-0.073
-487.464	20.800	0.031	-0.025
-486.449	484.816	-0.110	-0.250
-485.435	210.866	0.074	-0.115
-484.420	-113.916	-0.209	0.041
-483.405	58.270	-0.139	0.136
-482.391	-41.231	-0.188	-0.097
-481.376	-0.775	-0.190	-0.135
-480.362	-35.559	-0.048	0.026
-479.347	335.903	-0.065	0.126
-478.332	-200.000	0.030	0.449
-477.318	766.172	-0.033	0.091
-476.303	-200.000	0.055	0.438
-475.289	-200.000	0.067	-0.555
-474.274	188.018	-0.190	-0.284
-473.259	524.101	0.076	-0.180
-472.245	20.088	-0.273	-0.220
-471.230	-153.192	-0.169	-0.012
-470.216	800.000	0.031	-0.130
-469.201	66.391	-0.151	0.153
-468.186	22.523	-0.224	-0.183
-467.172	-21.358	-0.203	-0.123
-466.157	132.953	-0.190	0.244
-465.143	89.195	-0.096	-0.107
-464.128	8.791	0.413	0.311
-463.113	72.540	0.288	-0.299
-462.099	-108.135	0.169	0.037
-461.084	111.772	-0.095	0.114
-460.070	174.804	-0.347	0.501
-459.055	47.694	0.271	0.253
-458.040	-127.517	-0.025	0.004
-457.026	-129.456	0.223	-0.031
-456.011	-166.775	0.104	0.004
-454.997	-200.000	-0.001	-0.010
-453.982	-135.758	0.117	0.014
-452.968	-82.861	-0.125	0.040
-451.953	122.725	0.032	-0.040
-450.938	134.616	-0.153	0.198
-449.924	-8.779	-0.155	-0.104
-448.909	-141.857	0.163	0.016
-447.895	-4.464	0.431	0.297
-446.880	800.000	0.115	0.491
-445.865	101.893	-0.104	-0.121
-444.851	472.071	-0.049	-0.109
-443.836	-200.000	0.014	0.298
-442.822	27.735	0.068	0.057
-441.807	-41.859	0.083	0.042
-440.792	800.000	-0.032	0.137
-439.778	-200.000	-0.056	-0.320
-438.763	800.000	0.030	0.118
-437.749	465.502	0.075	0.167
-436.734	-200.000	-0.102	0.512
-435.719	-88.255	0.267	-0.080
-434.705	154.268	0.015	-0.021
-433.690	-2.819	0.175	-0.122
-432.676	800.000	-0.028	0.094
-431.661	154.273	0.108	0.148
-430.646	39.883	0.292	0.261
-429.632	-158.740	0.119	0.007
-428.617	100.505	-0.102	0.118
-427.603	-5.916	-0.084	0.057
-426.588	186.919	-0.246	-0.366
-425.573	20.794	-0.258	-0.208
-424.559	-24.717	0.116	0.069
-423.544	-200.000	0.006	0.035
-422.530	800.000	0.030	0.088
-421.515	663.883	-0.163	0.418
-420.500	-118.699	0.174	0.031
-419.486	218.116	-0.125	-0.199
-418.471	-159.420	0.292	-0.016
-417.457	37.166	0.231	0.204
-416.442	54.325	-0.165	0.159
-415.428	-18.095	0.295	0.184
-414.413	-51.856	0.256	-0.119
-413.398	-32.529	-0.060	-0.033
-412.384	-38.341	0.218	-0.115
-411.369	800.000	-0.125	-0.403
-410.355	-13.541	0.163	-0.105
-409.340	-38.411	-0.136	0.072
-408.325	86.951	0.130	0.143
-407.311	-2.320	0.220	0.154
-406.296	-2.866	0.071	0.049
-405.282	-65.402	0.306	-0.123
-404.267	225.095	-0.075	0.120
-403.252	-131.723	-0.256	-0.033
-402.238	23.552	-0.176	-0.144
-401.223	160.337	-0.185	-0.257
-400.209	800.000	-0.031	-0.101
-399.194	-200.000	-0.041	0.194
-398.179	-200.000	-0.040	0.373
-397.165	-35.578	0.125	-0.067
-396.150	-200.000	-0.010	-0.183
-395.136	-74.765	0.253	-0.090
-394.121	115.599	-0.161	-0.196
-393.106	-8.682	-0.310	-0.207
-392.092	800.000	0.085	-0.271
-391.077	-200.000	-0.029	-0.372
-390.063	-156.043	-0.027	-0.002
-389.048	46.790	-0.091	0.084
-388.033	-175.087	-0.046	0.001
-387.019	-143.373	-0.273	-0.026
-386.004	-134.602	0.327	0.040
-384.990	43.902	0.195	0.178
-383.975	-57.248	-0.261	-0.114
-382.960	800.000	0.063	-0.182
-381.946	800.000	-0.005	0.023
-380.931	-52.973	0.208	-0.095
-379.917	-54.241	-0.154	0.069
-378.902	115.529	-0.254	-0.309
-377.888	-134.952	0.178	-0.021
-376.873	124.404	0.160	0.200
-375.858	-200.000	-0.042	-0.228
-374.844	45.602	-0.098	0.090
-373.829	698.829	0.196	-0.512
-372.815	-3.179	0.165	0.115
-371.800	-111.634	0.111	-0.022
-370.785	82.802	-0.208	0.225
-369.771	19.283	0.109	0.087
-368.756	68.700	-0.265	0.271
-367.742	-111.745	-0.087	0.018
-366.727	204.171	-0.112	-0.172
-365.712	-52.037	-0.204	0.094
-364.698	428.668	-0.062	0.132
-363.683	-107.017	0.099	0.022
-362.669	-27.171	0.082	0.047
-361.654	-41.057	0.346	0.178
-360.639	139.654	-0.119	-0.156
-359.625	389.924	-0.072	-0.148
-358.610	-45.230	-0.161	0.080
-357.596	541.699	0.119	-0.281
-356.581	29.458	0.381	-0.322
-355.566	-200.000	-0.020	-0.107
-354.552	-54.126	0.193	0.087
-353.537	65.506	0.185	0.186
-352.523	800.000	-0.050	-0.189
-351.508	159.941	-0.191	-0.264
-350.493	369.952	-0.122	0.245
-349.479	-98.577	0.094	-0.024
-348.464	0.078	0.424	-0.300
-347.450	-200.000	0.012	0.239
-346.435	338.504	0.075	0.144
-345.420	-200.000	0.021	0.205
-344.406	-123.704	-0.250	0.039
-343.391	4.222	0.327	0.238
-342.377	-41.815	-0.446	0.227
-341.362	109.651	0.196	0.233
-340.348	-44.911	0.312	0.154
-339.333	-200.000	0.076	-0.339
-338.318	-200.000	0.033	0.185
-337.304	-4.890	-0.259	0.177
-336.289	-200.000	0.023	0.505
-335.275	800.000	0.037	-0.125
-334.260	-67.382	-0.405	-0.158
-333.245	-136.441	0.093	0.011
-332.231	-121.572	0.229	-0.038
-331.216	615.224	-0.106	-0.264
-330.202	74.057	-0.113	-0.118
-329.187	-153.330	-0.256	-0.018
-328.172	248.739	0.124	-0.208
-327.158	-113.836	-0.310	-0.060
-326.143	82.526	0.136	-0.146
-325.129	114.171	-0.164	-0.198
-324.114	-200.000	0.003	0.249
-323.099	-13.269	-0.303	-0.195
-322.085	263.009	-0.109	-0.188
-321.070	-113.380	-0.085	0.017
-320.056	9.784	0.045	0.034
-319.041	-103.212	-0.124	0.029
-318.026	83.131	-0.192	0.207
-317.012	-200.000	-0.012	-0.357
-315.997	233.302	0.086	-0.141
-314.983	4.211	-0.304	0.221
-313.968	-118.170	0.132	0.023
-312.953	-200.000	0.022	0.184
-311.939	21.957	0.145	-0.118
-310.924	-200.000	-0.042	-0.210
-309.910	16.954	0.174	0.137
-308.895	-200.000	0.035	0.296
-307.880	-34.082	-0.047	0.025
-306.866	800.000	0.066	0.266
-305.851	288.225	-0.130	0.233
-304.837	-200.000	0.004	0.277
-303.822	-200.000	-0.042	-0.185
-302.807	800.000	0.095	-0.268
-301.793	-74.676	0.101	0.036
-300.778	-200.000	-0.014	-0.193
-299.764	-2.950	0.129	0.089
-298.749	-75.287	0.323	-0.114
-297.735	-113.499	0.422	-0.082
-296.720	187.492	-0.115	0.171
-295.705	-200.000	-0.008	-0.064
-294.691	-200.000	-0.047	-0.230
-293.676	800.000	-0.113	0.399
-292.662	800.000	-0.084	0.247
-291.647	-200.000	0.007	-0.121
-290.632	-26.370	0.269	0.156
-289.618	-46.220	-0.192	0.094
-288.603	-98.712	-0.081	-0.020
-287.589	-44.650	-0.054	0.027
-286.574	-35.108	0.290	-0.157
-285.559	74.335	0.238	-0.248
-284.545	20.534	0.207	-0.166
-283.530	800.000	0.035	0.111
-282.516	-200.000	-0.072	0.482
-281.501	1.141	0.314	0.224
-280.486	800.000	-0.040	-0.133
-279.472	-200.000	-0.002	0.039
-278.457	-200.000	0.010	-0.066
-277.443	-151.807	-0.049	0.004
-276.428	-82.974	0.032	-0.010
-275.413	-200.000	-0.041	-0.186
-274.399	800.000	-0.047	-0.171
-273.384	-5.824	0.265	0.180
-272.370	-97.957	-0.317	0.081
-271.355	-24.604	0.112	-0.066
-270.340	115.810	0.184	-0.224
-269.326	3.493	-0.101	-0.073
-268.311	-200.000	-0.002	0.232
-267.297	431.641	-0.068	0.147
-266.282	559.622	-0.161	0.386
-265.267	-133.636	0.223	-0.028
-264.253	36.167	-0.099	0.087
-263.238	-146.049	-0.371	0.032
-262.224	-46.479	0.111	0.054
-261.209	63.083	0.258	0.256
-260.195	-200.000	-0.001	-0.180
-259.180	-68.470	0.205	-0.079
-258.165	133.445	0.010	0.013
-257.151	-8.893	-0.044	0.029
-256.136	43.691	-0.034	0.031
-255.122	-128.571	0.282	-0.040
-254.107	-156.706	0.103	-0.006
-253.092	238.156	0.223	0.366
-252.078	39.660	0.079	0.070
-251.063	358.725	-0.100	-0.198
-250.049	-180.781	-0.314	0.006
-249.034	-56.615	0.212	0.093
-248.019	377.329	0.076	0.153
-247.005	-170.877	-0.131	0.004
-245.990	-66.539	-0.126	-0.050
-244.976	304.276	0.105	0.193
-243.961	-112.469	0.102	-0.020
-242.946	258.044	0.048	-0.082
-241.932	-50.127	0.147	-0.069
-240.917	403.131	0.075	-0.157
-239.903	619.497	0.148	-0.368
-238.888	627.523	0.138	-0.344
-237.873	-104.959	0.517	0.117
-236.859	-200.000	-0.008	-0.276
-235.844	44.272	0.186	0.169
-234.830	-130.358	0.062	-0.008
-233.815	391.935	-0.029	0.059
-232.800	168.418	-0.188	-0.265
-231.786	-200.000	0.035	-0.158
-230.771	-200.000	-0.004	-0.261
-229.757	-84.489	-0.191	0.060
-228.742	-89.126	0.203	0.059
-227.727	169.308	0.147	0.208
-226.713	800.000	-0.027	-0.088
-225.698	-200.000	-0.023	-0.467
-224.684	800.000	-0.047	0.187
-223.669	-200.000	-0.290	0.001
-222.655	635.457	0.049	0.122
-221.640	136.721	0.028	-0.036
-220.625	-105.197	0.222	-0.050
-219.611	-200.000	-0.040	-0.229
-218.596	800.000	-0.026	0.105
-217.582	258.042	-0.247	-0.421
-216.567	224.347	0.039	0.062
-215.552	78.826	0.207	0.219
-214.538	-80.285	0.111	-0.037
-213.523	-200.000	0.035	-0.272
-212.509	800.000	0.055	-0.179
-211.494	-30.721	0.169	0.095
-210.479	-188.469	0.135	-0.002
-209.465	119.707	-0.140	-0.171
-208.450	237.703	0.087	0.142
-207.436	326.064	0.138	0.261
-206.421	-130.298	0.223	-0.030
-205.406	67.390	-0.133	-0.134
-204.392	-15.919	0.159	-0.100
-203.377	-63.145	0.320	-0.130
-202.363	-51.097	-0.269	-0.124
-201.348	-34.669	0.072	0.039
-200.333	-51.603	0.294	-0.135
-199.319	800.000	-0.009	0.032
-198.304	-86.760	-0.063	-0.019
-197.290	102.026	0.200	0.231
-196.275	-67.773	0.258	-0.100
-195.260	716.542	-0.039	0.102
-194.246	662.788	0.052	-0.133
-193.231	60.085	-0.247	-0.241
-192.217	38.167	0.151	-0.132
-191.202	800.000	0.055	-0.232
-190.187	571.034	0.019	-0.045
-189.173	-157.852	-0.108	-0.006
-188.158	-200.000	0.079	0.394
-187.144	800.000	-0.103	-0.377
-186.129	-76.293	0.271	0.094
-185.114	-200.000	0.006	0.029
-184.100	95.683	-0.058	0.066
-183.085	181.779	-0.123	0.179
-182.071	204.522	-0.196	-0.300
-181.056	455.383	-0.086	0.189
-180.042	-46.508	0.102	-0.049
-179.027	9.884	0.168	-0.126
-178.012	-103.377	0.004	0.001
-176.998	-200.000	0.059	-0.324
-175.983	-67.141	-0.277	-0.108
-174.969	-200.000	-0.000	0.023
-173.954	19.137	-0.132	0.105
-172.939	-200.000	0.009	0.144
-171.925	12.410	0.167	-0.127
-170.910	-200.000	0.067	-0.355
-169.896	-200.000	0.013	0.302
-168.881	83.232	-0.257	-0.276
-167.866	-200.000	0.031	-0.141
-166.852	-200.000	0.073	-0.566
-165.837	230.912	0.177	-0.286
-164.823	-24.485	0.318	0.187
-163.808	-200.000	-0.080	-0.355
-162.793	-200.000	-0.020	-0.152
-161.779	-80.055	0.206	-0.068
-160.764	-137.727	-0.115	0.013
-159.750	-66.395	-0.349	-0.137
-158.735	-200.000	-0.030	-0.266
-157.720	-200.000	0.039	-0.470
-156.706	378.645	-0.045	-0.091
-155.691	3.530	-0.045	-0.032
-154.677	151.047	0.162	0.218
-153.662	-94.840	0.298	-0.080
-152.647	159.694	0.215	0.295
-151.633	65.488	0.051	-0.051
-150.618	-58.793	-0.041	0.018
-149.604	-200.000	-0.014	0.194
-148.589	23.387	-0.205	0.166
-147.574	-65.445	-0.190	0.075
-146.560	-66.516	0.202	0.079
-145.545	-98.605	-0.221	-0.056
-144.531	-18.258	-0.177	0.109
-143.516	-176.908	-0.246	-0.006
-142.502	-200.000	0.025	-0.146
-141.487	93.854	-0.087	-0.098
-140.472	-200.000	-0.009	-0.102
-139.458	219.679	0.106	0.167
-138.443	175.411	0.153	0.218
-137.429	176.806	-0.184	-0.263
-136.414	212.379	-0.315	0.489
-135.399	-200.000	0.009	-0.075
-134.385	-75.433	0.261	-0.092
-133.370	800.000	-0.052	-0.166
-132.356	231.872	0.153	-0.247
-131.341	-200.000	0.044	0.201
-130.326	220.363	-0.094	-0.149
-129.312	-82.191	-0.156	-0.050
-128.297	194.226	-0.080	0.119
-127.283	375.251	0.138	-0.278
-126.268	-88.460	-0.019	0.006
-125.253	54.269	-0.123	-0.117
-124.239	-200.000	0.050	-0.328
-123.224	12.716	0.117	0.089
-122.210	-58.311	-0.244	-0.105
-121.195	544.244	0.054	0.128
