DTS Sentinel unit serial number:	SN413079Multiplexer serial number:	ORYXHardware model number:	OX4-SRSoftware version number:	ORYX F/W v4.00 Oryx Data Collector v3.7.2.0data status	okinstallation	princeton_trtdifferential loss correction	single-endedforward channel	channel 2reverse channel	N/Adate	2019/09/12time	17:57:10forward acquisition time	60.00reverse acquisition time	0.00gamma	496.2192k internal	0.2324k external	0.2324temperature offset calibration	1.0129default loss term (dB/km)	0.3790temperature slope calibration	1.0000multiplexer offset coefficient	1.0000multiplexer slope coefficient	1.0000fibre end	0.00T internal ref (°C)	33.87T ext. ref 1 (°C)	2.89T ext. ref 2 (°C)	28.33length (m)	temperature (°C)	Stokes	anti-Stokes-747.200	177.463	-0.035	-0.051
-746.185	-200.000	-0.013	0.070
-745.171	189.316	-0.060	-0.091
-744.156	39.474	-0.083	-0.075
-743.142	-32.386	0.275	0.155
-742.127	-200.000	0.028	0.389
-741.112	343.967	-0.145	0.287
-740.098	-200.000	0.014	0.165
-739.083	-183.205	0.078	0.001
-738.069	-200.000	0.037	0.245
-737.054	-200.000	-0.029	-0.292
-736.039	-122.202	-0.214	0.035
-735.025	-200.000	0.016	-0.084
-734.010	664.120	-0.072	-0.187
-732.996	34.392	-0.065	-0.058
-731.981	159.820	0.079	0.111
-730.966	-64.467	-0.118	0.048
-729.952	-200.000	-0.021	-0.109
-728.937	-68.014	-0.233	0.092
-727.923	800.000	0.054	0.214
-726.908	12.771	0.132	0.103
-725.894	-156.283	-0.210	-0.013
-724.879	47.763	-0.089	0.084
-723.864	-200.000	0.048	-0.243
-722.850	723.885	0.074	0.198
-721.835	-9.401	0.255	0.171
-720.821	143.998	0.181	-0.243
-719.806	800.000	0.057	0.174
-718.791	800.000	0.108	-0.361
-717.777	352.302	0.113	-0.226
-716.762	188.767	0.167	-0.252
-715.748	-84.115	-0.140	-0.045
-714.733	18.339	0.165	0.133
-713.718	-15.023	0.148	-0.096
-712.704	317.296	0.067	-0.129
-711.689	-149.522	-0.280	-0.022
-710.675	-200.000	0.005	0.077
-709.660	794.030	-0.134	0.372
-708.645	-22.403	-0.230	-0.141
-707.631	-93.764	0.281	0.078
-706.616	209.837	0.074	-0.117
-705.602	-165.361	-0.487	0.022
-704.587	800.000	0.051	0.201
-703.572	-200.000	0.060	0.304
-702.558	31.147	-0.093	-0.080
-701.543	-135.314	0.282	-0.034
-700.529	-26.759	-0.204	-0.120
-699.514	800.000	-0.097	-0.278
-698.499	800.000	-0.058	0.220
-697.485	-200.000	-0.014	0.154
-696.470	-74.121	0.195	0.071
-695.456	-5.918	-0.310	0.214
-694.441	800.000	-0.026	-0.087
-693.426	-103.957	0.373	-0.088
-692.412	43.712	-0.289	0.267
-691.397	-41.969	-0.314	-0.162
-690.383	-16.151	0.101	-0.065
-689.368	-200.000	-0.048	0.215
-688.354	-111.569	0.190	-0.039
-687.339	800.000	0.031	0.135
-686.324	155.235	-0.196	-0.271
-685.310	-115.373	-0.251	0.048
-684.295	159.362	-0.113	0.158
-683.281	398.574	-0.129	0.272
-682.266	20.188	-0.132	0.107
-681.251	-181.920	-0.339	-0.006
-680.237	-30.600	0.131	-0.075
-679.222	75.546	0.080	0.085
-678.208	227.946	-0.112	0.183
-677.193	-90.095	-0.229	0.067
-676.178	-200.000	0.006	0.173
-675.164	800.000	-0.022	-0.066
-674.149	147.654	0.164	-0.222
-673.135	119.982	0.033	-0.042
-672.120	-153.112	-0.203	-0.014
-671.105	230.010	-0.155	-0.255
-670.091	368.095	0.104	0.212
-669.076	-92.756	-0.304	-0.086
-668.062	-200.000	-0.076	-0.343
-667.047	-153.432	-0.174	0.012
-666.032	-73.573	-0.233	-0.086
-665.018	155.150	-0.152	0.210
-664.003	-200.000	0.023	0.243
-662.989	313.351	0.142	0.269
-661.974	-138.345	-0.108	-0.012
-660.959	800.000	-0.014	0.049
-659.945	307.134	0.100	-0.188
-658.930	202.779	0.053	0.082
-657.916	512.150	-0.066	-0.156
-656.901	-72.963	-0.314	-0.116
-655.886	357.194	0.197	0.395
-654.872	-25.072	0.171	0.102
-653.857	-56.367	0.055	-0.024
-652.843	367.157	-0.102	0.208
-651.828	-127.758	-0.153	0.022
-650.814	-57.876	-0.094	0.041
-649.799	-147.290	0.167	0.014
-648.784	-139.254	-0.115	-0.012
-647.770	-48.765	0.048	-0.023
-646.755	-20.015	-0.347	-0.216
-645.741	-177.238	-0.046	-0.001
-644.726	-31.360	0.006	0.003
-643.711	-118.614	-0.509	0.090
-642.697	-44.660	0.324	0.163
-641.682	341.265	-0.106	0.208
-640.668	788.440	-0.047	0.130
-639.653	-200.000	0.003	0.088
-638.638	-121.204	-0.203	0.034
-637.624	97.600	0.115	0.133
-636.609	-200.000	-0.016	-0.210
-635.595	-3.132	0.254	-0.178
-634.580	-40.970	-0.130	0.067
-633.565	-200.000	0.038	0.339
-632.551	-41.802	0.160	-0.083
-631.536	-28.325	-0.320	-0.186
-630.522	-200.000	-0.004	-0.234
-629.507	-36.704	0.159	-0.086
-628.492	-200.000	0.004	-0.064
-627.478	335.450	0.139	-0.271
-626.463	-33.262	-0.146	0.081
-625.449	528.066	0.119	0.283
-624.434	-87.145	-0.307	-0.094
-623.419	-34.919	-0.218	0.120
-622.405	-152.759	-0.128	-0.009
-621.390	327.664	-0.053	-0.102
-620.376	25.185	-0.023	0.019
-619.361	-147.608	0.142	-0.012
-618.346	-99.778	0.189	0.048
-617.332	121.214	0.040	-0.050
-616.317	-123.317	-0.400	0.064
-615.303	-34.964	0.270	0.148
-614.288	-103.594	-0.225	0.053
-613.273	94.648	0.118	-0.135
-612.259	266.838	0.183	0.321
-611.244	-80.547	0.170	-0.057
-610.230	18.837	-0.349	-0.280
-609.215	-200.000	0.080	-0.441
-608.201	-200.000	0.018	0.112
-607.186	237.480	-0.073	-0.122
-606.171	345.184	0.158	-0.312
-605.157	-66.465	-0.336	-0.134
-604.142	344.425	-0.275	-0.542
-603.128	-105.634	-0.394	-0.090
-602.113	-78.651	0.120	-0.041
-601.098	53.000	0.261	0.251
-600.084	-185.789	-0.364	-0.005
-599.069	41.218	-0.107	0.097
-598.055	180.899	-0.230	-0.340
-597.040	310.450	-0.063	-0.118
-596.025	-200.000	0.000	-0.273
-595.011	-200.000	-0.046	-0.253
-593.996	-200.000	0.010	-0.249
-592.982	-200.000	0.056	0.470
-591.967	-200.000	-0.019	-0.095
-590.952	162.571	0.020	0.027
-589.938	-168.603	-0.230	0.009
-588.923	27.010	-0.101	0.085
-587.909	800.000	-0.050	0.207
-586.894	-117.742	-0.132	0.024
-585.879	-115.590	-0.340	-0.064
-584.865	-7.333	-0.123	-0.084
-583.850	-118.882	0.238	0.042
-582.836	196.093	0.079	-0.121
-581.821	-99.680	-0.252	0.063
-580.806	131.738	-0.170	0.219
-579.792	-90.895	-0.349	-0.101
-578.777	-53.747	-0.126	0.058
-577.763	541.970	-0.027	-0.064
-576.748	-57.104	0.072	0.032
-575.733	-94.581	-0.143	-0.039
-574.719	100.547	-0.323	-0.376
-573.704	800.000	0.105	-0.446
-572.690	-33.959	-0.099	0.055
-571.675	191.679	-0.080	-0.121
-570.661	19.473	0.213	0.172
-569.646	-28.165	0.016	-0.009
-568.631	-66.868	0.119	-0.047
-567.617	800.000	0.107	-0.358
-566.602	139.401	0.195	-0.257
-565.588	-130.030	0.182	0.025
-564.573	800.000	-0.015	-0.051
-563.558	195.667	-0.124	0.189
-562.544	133.487	-0.163	0.212
-561.529	-121.173	0.418	-0.070
-560.515	-1.365	-0.120	-0.085
-559.500	-102.054	-0.322	0.078
-558.485	-200.000	0.051	-0.230
-557.471	453.344	0.139	0.308
-556.456	-70.358	-0.090	-0.034
-555.442	-200.000	-0.012	-0.293
-554.427	800.000	-0.013	0.051
-553.412	-57.160	0.205	0.091
-552.398	-0.594	-0.155	-0.110
-551.383	-71.921	0.156	-0.058
-550.369	-114.486	-0.346	0.067
-549.354	648.094	0.074	0.190
-548.339	-26.246	0.276	0.163
-547.325	224.863	-0.067	0.109
-546.310	356.177	-0.089	-0.178
-545.296	-82.688	-0.139	-0.045
-544.281	-200.000	0.009	-0.062
-543.266	62.011	-0.117	-0.117
-542.252	413.473	-0.166	-0.354
-541.237	-200.000	-0.028	0.136
-540.223	38.483	-0.228	-0.203
-539.208	-3.598	0.177	0.123
-538.193	343.423	-0.092	0.180
-537.179	269.724	-0.100	-0.176
-536.164	800.000	0.119	0.382
-535.150	81.362	-0.172	0.186
-534.135	-200.000	-0.075	0.349
-533.121	-200.000	-0.030	-0.147
-532.106	-24.956	0.212	-0.126
-531.091	273.485	0.080	0.141
-530.077	349.572	-0.026	-0.052
-529.062	-200.000	0.003	0.156
-528.048	143.814	0.199	0.266
-527.033	51.745	0.149	-0.142
-526.018	685.359	-0.068	-0.179
-525.004	-200.000	0.008	-0.117
-523.989	479.851	0.140	-0.318
-522.975	-200.000	0.132	0.000
-521.960	800.000	-0.064	-0.253
-520.945	481.990	0.093	0.212
-519.931	33.324	0.107	-0.093
-518.916	127.551	0.214	0.272
-517.902	596.413	-0.085	-0.210
-516.887	-200.000	-0.005	0.253
-515.872	158.180	0.071	0.098
-514.858	122.248	-0.109	-0.136
-513.843	-86.945	-0.365	-0.111
-512.829	-62.817	-0.321	0.133
-511.814	81.342	-0.192	0.208
-510.799	31.746	0.059	0.051
-509.785	-189.819	0.147	0.002
-508.770	-84.495	-0.049	0.016
-507.756	176.454	-0.170	-0.247
-506.741	-159.260	-0.213	-0.012
-505.726	355.531	0.150	0.299
-504.712	-200.000	-0.026	-0.253
-503.697	73.839	0.126	-0.132
-502.683	-59.816	0.153	-0.065
-501.668	-200.000	-0.047	-0.436
-500.653	-200.000	-0.011	0.365
-499.639	128.166	-0.169	0.215
-498.624	124.372	0.213	0.268
-497.610	-40.602	-0.044	-0.023
-496.595	64.839	0.200	0.202
-495.581	-70.489	-0.148	-0.056
-494.566	-159.816	-0.162	0.009
-493.551	-200.000	0.007	-0.079
-492.537	-200.000	0.001	0.184
-491.522	77.652	0.065	-0.069
-490.508	-106.664	-0.079	0.018
-489.493	-128.763	0.337	0.047
-488.478	221.950	0.110	0.177
-487.464	-91.184	-0.205	-0.059
-486.449	-121.710	0.346	0.057
-485.435	-152.004	-0.483	0.035
-484.420	-98.279	0.195	0.050
-483.405	-192.002	0.287	-0.003
-482.391	56.040	-0.166	0.161
-481.376	-169.290	-0.293	-0.011
-480.362	-39.170	0.197	-0.104
-479.347	-162.554	0.038	-0.002
-478.332	-15.332	-0.304	-0.194
-477.318	116.023	-0.074	0.090
-476.303	-94.912	-0.291	-0.079
-475.289	-78.554	-0.367	0.126
-474.274	800.000	0.010	-0.034
-473.259	-26.495	-0.287	-0.168
-472.245	-32.031	0.052	-0.029
-471.230	776.413	-0.080	0.219
-470.216	-200.000	0.018	0.271
-469.201	800.000	0.053	0.174
-468.186	-200.000	0.037	-0.227
-467.172	-12.244	0.125	-0.082
-466.157	-28.577	0.272	-0.156
-465.143	-200.000	-0.013	-0.210
-464.128	-133.069	0.144	-0.018
-463.113	337.966	-0.100	-0.195
-462.099	-64.478	-0.282	-0.114
-461.084	-200.000	0.009	-0.097
-460.070	17.425	0.442	0.350
-459.055	190.547	-0.158	-0.237
-458.040	469.988	0.109	0.244
-457.026	84.459	0.063	-0.069
-456.011	800.000	0.001	0.005
-454.997	-179.308	0.246	-0.005
-453.982	-10.157	-0.071	-0.047
-452.968	-200.000	0.079	0.369
-451.953	-70.398	0.137	0.052
-450.938	-196.061	0.112	0.001
-449.924	31.078	0.170	-0.145
-448.909	-26.179	-0.309	0.181
-447.895	157.911	0.096	-0.132
-446.880	17.940	-0.182	-0.145
-445.865	178.487	-0.106	-0.155
-444.851	-56.722	0.207	-0.091
-443.836	800.000	-0.023	-0.076
-442.822	800.000	0.109	0.379
-441.807	-98.974	0.159	-0.040
-440.792	51.869	0.067	-0.064
-439.778	-155.712	0.198	0.013
-438.763	555.350	0.023	-0.055
-437.749	307.597	0.091	0.168
-436.734	-200.000	0.012	0.081
-435.719	-130.616	-0.085	0.011
-434.705	401.909	0.184	0.385
-433.690	668.157	-0.057	0.147
-432.676	176.474	0.231	-0.335
-431.661	25.162	-0.083	0.069
-430.646	-37.556	0.149	-0.079
-429.632	-50.964	-0.230	0.108
-428.617	-40.149	0.249	0.129
-427.603	-200.000	0.042	-0.202
-426.588	391.628	0.185	-0.383
-425.573	413.457	0.148	-0.313
-424.559	184.267	-0.227	-0.335
-423.544	-55.608	0.296	-0.132
-422.530	-66.234	0.437	0.173
-421.515	22.541	-0.108	0.088
-420.500	-200.000	0.031	0.279
-419.486	800.000	-0.097	0.291
-418.471	-98.024	0.148	-0.038
-417.457	-78.200	-0.136	0.047
-416.442	-124.353	0.322	0.050
-415.428	400.538	-0.041	0.086
-414.413	144.422	0.189	0.251
-413.398	-84.531	0.517	-0.163
-412.384	67.359	0.095	0.096
-411.369	-59.723	0.161	0.069
-410.355	654.133	0.140	0.357
-409.340	734.454	-0.130	-0.347
-408.325	-200.000	0.031	-0.148
-407.311	-71.411	-0.292	0.109
-406.296	-73.965	0.154	-0.056
-405.282	-77.138	0.131	-0.045
-404.267	73.050	-0.279	-0.291
-403.252	-200.000	0.024	-0.353
-402.238	800.000	0.032	0.091
-401.223	34.705	0.274	0.238
-400.209	-32.374	-0.332	0.184
-399.194	90.615	0.172	-0.192
-398.179	175.100	0.067	0.097
-397.165	78.132	0.121	0.129
-396.150	37.345	0.074	0.065
-395.136	261.335	-0.083	-0.144
-394.121	22.021	-0.134	0.108
-393.106	10.420	-0.014	-0.011
-392.092	621.093	-0.119	-0.299
-391.077	186.804	0.064	0.095
-390.063	316.994	-0.184	-0.347
-389.048	-91.032	-0.084	0.024
-388.033	-198.440	0.174	-0.001
-387.019	-171.941	-0.398	-0.013
-386.004	11.800	-0.307	-0.235
-384.990	-79.320	-0.202	0.068
-383.975	-200.000	0.056	0.342
-382.960	800.000	0.041	-0.162
-381.946	-29.326	-0.134	0.076
-380.931	28.802	0.059	0.050
-379.917	-121.424	0.350	-0.058
-378.902	4.525	-0.311	0.227
-377.888	51.587	-0.083	0.078
-376.873	93.546	-0.047	-0.052
-375.858	-13.885	-0.073	-0.047
-374.844	-102.936	0.093	-0.022
-373.829	-200.000	0.003	-0.026
-372.815	22.312	-0.170	0.138
-371.800	-159.218	-0.410	-0.023
-370.785	32.236	-0.164	0.141
-369.771	24.753	0.105	0.086
-368.756	707.867	0.126	0.332
-367.742	499.825	-0.182	0.416
-366.727	-200.000	-0.011	-0.155
-365.712	467.742	-0.056	0.124
-364.698	774.477	0.052	-0.142
-363.683	218.595	0.098	0.155
-362.669	123.195	-0.073	-0.091
-361.654	6.123	-0.148	-0.109
-360.639	-30.387	0.181	-0.102
-359.625	-193.385	0.399	0.003
-358.610	-200.000	0.050	-0.296
-357.596	38.564	-0.175	-0.155
-356.581	107.734	0.098	0.116
-355.566	159.448	0.265	0.366
-354.552	333.737	0.113	0.218
-353.537	-53.157	0.082	0.037
-352.523	287.581	-0.170	0.306
-351.508	800.000	-0.062	-0.203
-350.493	-73.041	-0.098	0.036
-349.479	-200.000	-0.024	0.110
-348.464	75.764	-0.027	0.028
-347.450	271.949	0.098	-0.172
-346.435	-143.404	-0.227	-0.022
-345.420	265.895	-0.140	-0.243
-344.406	-110.147	-0.144	-0.030
-343.391	800.000	0.060	-0.193
-342.377	26.549	-0.185	0.154
-341.362	-178.589	0.034	0.001
-340.348	-200.000	-0.030	-0.212
-339.333	-88.761	-0.457	-0.135
-338.318	800.000	-0.080	-0.322
-337.304	-60.261	0.118	-0.050
-336.289	117.507	0.099	-0.121
-335.275	-84.909	-0.128	0.040
-334.260	-113.028	-0.361	0.071
-333.245	-93.278	0.147	-0.040
-332.231	26.248	-0.194	-0.161
-331.216	-160.541	0.217	-0.012
-330.202	86.204	-0.224	0.245
-329.187	-94.380	-0.151	0.041
-328.172	29.307	-0.226	0.190
-327.158	27.178	-0.251	0.209
-326.143	-138.024	0.213	-0.024
-325.129	-63.658	0.054	-0.022
-324.114	-17.315	-0.050	-0.031
-323.099	-200.000	0.006	-0.061
-322.085	-39.584	-0.081	-0.042
-321.070	751.520	-0.132	0.353
-320.056	250.502	0.049	-0.083
-319.041	397.118	0.076	-0.158
-318.026	102.705	-0.298	0.346
-317.012	37.990	-0.234	0.207
-315.997	-200.000	0.011	0.105
-314.983	-56.113	0.068	0.030
-313.968	270.108	0.091	0.159
-312.953	125.941	0.160	-0.200
-311.939	-165.941	-0.293	-0.012
-310.924	-162.958	-0.330	0.016
-309.910	555.306	0.080	0.191
-308.895	-156.095	0.337	0.021
-307.880	298.103	0.117	0.213
-306.866	24.963	-0.311	0.256
-305.851	346.390	-0.110	0.216
-304.837	35.975	-0.198	0.173
-303.822	800.000	-0.021	0.090
-302.807	23.320	0.170	0.139
-301.793	-200.000	-0.035	-0.291
-300.778	800.000	0.017	0.051
-299.764	31.044	-0.033	0.028
-298.749	346.961	0.111	-0.218
-297.735	-200.000	0.014	0.163
-296.720	-64.346	0.123	0.050
-295.705	19.437	0.304	0.242
-294.691	-163.224	-0.351	-0.017
-293.676	16.842	0.281	0.220
-292.662	124.602	0.193	0.241
-291.647	-133.995	0.158	-0.019
-290.632	12.506	0.560	-0.428
-289.618	-200.000	0.004	0.247
-288.603	-200.000	-0.023	0.118
-287.589	-114.635	0.486	0.092
-286.574	-78.693	0.163	-0.055
-285.559	133.614	-0.125	-0.160
-284.545	35.655	-0.283	-0.246
-283.530	-200.000	-0.045	0.222
-282.516	800.000	0.085	0.234
-281.501	-63.410	0.138	0.056
-280.486	-18.142	0.036	-0.022
-279.472	183.454	0.156	0.229
-278.457	55.421	0.076	-0.073
-277.443	-3.669	-0.166	0.115
-276.428	103.162	-0.224	0.260
-275.413	800.000	-0.041	-0.174
-274.399	-160.700	0.260	0.014
-273.384	-179.456	0.169	-0.004
-272.370	294.192	0.176	-0.319
-271.355	-200.000	-0.049	0.000
-270.340	-43.975	0.127	-0.063
-269.326	-60.185	0.067	0.028
-268.311	150.426	0.218	0.293
-267.297	-200.000	-0.002	-0.069
-266.282	800.000	-0.073	0.276
-265.267	583.834	0.126	-0.307
-264.253	149.243	-0.016	0.022
-263.238	17.198	-0.203	-0.160
-262.224	-114.016	0.393	0.076
-261.209	408.429	0.180	-0.376
-260.195	-200.000	0.002	-0.336
-259.180	56.762	0.176	-0.169
-258.165	-200.000	-0.025	-0.203
-257.151	-200.000	-0.038	-0.244
-256.136	-74.178	0.293	0.105
-255.122	-200.000	0.069	0.443
-254.107	-24.622	-0.227	0.134
-253.092	776.004	-0.009	0.026
-252.078	70.516	-0.086	0.088
-251.063	-120.286	0.225	0.038
-250.049	-42.239	0.353	0.178
-249.034	128.529	-0.211	-0.266
-248.019	-4.036	0.287	-0.197
-247.005	-85.570	0.273	-0.084
-245.990	-96.935	0.252	-0.065
-244.976	-103.677	0.340	-0.079
-243.961	800.000	0.048	-0.200
-242.946	245.855	0.070	-0.116
-241.932	-96.182	-0.213	0.056
-240.917	-95.808	0.252	0.067
-239.903	38.612	-0.230	-0.203
-238.888	9.048	0.062	-0.046
-237.873	14.508	0.155	0.120
-236.859	141.533	0.096	0.125
-235.844	339.969	0.087	0.168
-234.830	296.755	0.036	-0.066
-233.815	66.468	-0.255	0.256
-232.800	60.430	-0.117	-0.115
-231.786	-49.887	0.100	0.047
-230.771	-200.000	-0.037	0.321
-229.757	-1.638	0.318	0.222
-228.742	-26.601	-0.068	0.039
-227.727	-200.000	0.056	0.256
-226.713	-107.733	-0.138	0.030
-225.698	-16.871	-0.338	0.212
-224.684	63.946	-0.141	-0.140
-223.669	-190.722	-0.320	-0.003
-222.655	-200.000	0.053	-0.451
-221.640	-136.175	-0.168	0.019
-220.625	-146.630	-0.224	-0.019
-219.611	127.411	-0.169	-0.212
-218.596	657.561	0.092	0.234
-217.582	106.380	-0.165	0.194
-216.567	-130.338	0.100	0.013
-215.552	-0.264	-0.112	-0.079
-214.538	71.997	-0.057	0.059
-213.523	-80.296	0.227	0.075
-212.509	-200.000	0.042	0.240
-211.494	-191.634	-0.155	0.002
-210.479	-112.231	0.200	0.040
-209.465	12.504	-0.073	-0.056
-208.450	-200.000	0.000	0.017
-207.436	68.410	0.091	-0.092
-206.421	800.000	0.076	-0.208
-205.406	-101.409	0.109	-0.026
-204.392	369.727	-0.077	-0.154
-203.377	7.562	0.332	0.245
-202.363	-200.000	-0.040	-0.481
-201.348	-31.223	0.145	-0.080
-200.333	-99.790	0.387	0.096
-199.319	800.000	-0.052	0.159
-198.304	52.914	-0.231	-0.218
-197.290	-7.204	-0.178	0.120
-196.275	-125.408	-0.146	0.022
-195.260	18.422	0.020	-0.016
-194.246	-115.419	0.149	0.028
-193.231	86.128	-0.093	-0.102
-192.217	-200.000	0.009	-0.219
-191.202	-45.828	0.092	0.045
-190.187	273.801	-0.096	0.167
-189.173	-69.487	0.144	-0.054
-188.158	469.831	-0.055	-0.121
-187.144	200.663	0.158	-0.240
-186.129	589.229	0.156	0.379
-185.114	626.576	-0.036	-0.090
-184.100	800.000	0.130	0.383
-183.085	-35.598	-0.324	0.173
-182.071	2.099	-0.090	-0.064
-181.056	-23.185	0.101	-0.060
-180.042	7.437	0.013	0.010
-179.027	48.332	0.235	-0.217
-178.012	-200.000	0.008	0.160
-176.998	800.000	0.036	0.145
-175.983	-16.202	-0.079	0.050
-174.969	-200.000	-0.033	-0.162
-173.954	40.357	0.083	-0.073
-172.939	355.770	-0.031	0.062
-171.925	-111.813	0.153	-0.031
-170.910	-200.000	-0.093	-0.442
-169.896	-53.602	0.165	-0.074
-168.881	-200.000	-0.011	-0.191
-167.866	-72.799	0.212	0.077
-166.852	518.146	0.077	0.177
-165.837	348.647	-0.058	0.113
-164.823	34.430	-0.255	0.220
-163.808	330.783	0.150	-0.286
-162.793	-120.451	0.100	0.017
-161.779	-8.938	-0.317	0.210
-160.764	161.173	-0.178	0.246
-159.750	-200.000	-0.002	-0.310
-158.735	-200.000	0.026	-0.214
-157.720	72.921	0.235	0.242
-156.706	192.179	-0.071	0.106
-155.691	415.590	-0.041	-0.087
-154.677	130.230	0.103	-0.130
-153.662	-119.274	0.257	0.044
-152.647	-2.837	0.344	-0.237
-151.633	-103.777	-0.114	-0.026
-150.618	219.695	0.132	-0.208
-149.604	37.466	0.163	0.143
-148.589	193.031	0.136	-0.203
-147.574	-18.946	0.176	-0.108
-146.560	89.216	0.098	-0.107
-145.545	800.000	-0.015	-0.058
-144.531	-60.202	-0.087	-0.037
-143.516	-200.000	0.012	-0.122
-142.502	-49.334	0.243	-0.114
-141.487	-200.000	-0.058	-0.534
-140.472	800.000	0.052	-0.173
-139.458	383.833	-0.044	-0.089
-138.443	-164.428	-0.197	-0.009
-137.429	541.266	0.084	-0.197
-136.414	-200.000	-0.014	0.198
-135.399	-29.983	-0.187	0.105
-134.385	-200.000	0.043	0.396
-133.370	326.060	0.146	0.276
-132.356	-68.247	-0.250	0.096
-131.341	207.960	-0.047	0.073
-130.326	215.484	0.089	0.139
-129.312	210.331	-0.063	0.098
-128.297	-200.000	-0.017	-0.139
-127.283	-125.198	0.323	0.049
-126.268	26.149	-0.211	-0.174
-125.253	-64.500	-0.085	0.034
-124.239	-35.807	0.134	-0.072
-123.224	199.101	0.136	0.206
-122.210	3.928	0.322	0.232
-121.195	48.824	-0.271	-0.250
