DTS Sentinel unit serial number:	SN413079Multiplexer serial number:	ORYXHardware model number:	OX4-SRSoftware version number:	ORYX F/W v4.00 Oryx Data Collector v3.7.2.0data status	okinstallation	princeton_trtdifferential loss correction	single-endedforward channel	channel 2reverse channel	N/Adate	2019/09/13time	11:11:35forward acquisition time	60.00reverse acquisition time	0.00gamma	496.2192k internal	0.2321k external	0.2321temperature offset calibration	1.0203default loss term (dB/km)	0.3790temperature slope calibration	1.0000multiplexer offset coefficient	1.0000multiplexer slope coefficient	1.0000fibre end	0.00T internal ref (°C)	32.12T ext. ref 1 (°C)	4.69T ext. ref 2 (°C)	29.73length (m)	temperature (°C)	Stokes	anti-Stokes-747.200	-178.378	-0.300	0.007
-746.185	-200.000	0.016	0.084
-745.171	29.437	-0.118	-0.101
-744.156	-162.228	-0.297	-0.015
-743.142	-134.928	-0.036	0.004
-742.127	-200.000	-0.010	-0.246
-741.112	-73.229	-0.145	-0.054
-740.098	-151.620	0.261	-0.019
-739.083	-112.478	0.077	-0.016
-738.069	-69.036	0.361	-0.141
-737.054	-63.655	-0.295	0.122
-736.039	-64.550	0.266	-0.109
-735.025	566.410	0.081	-0.197
-734.010	250.709	-0.171	-0.294
-732.996	-200.000	-0.045	-0.272
-731.981	130.149	-0.302	-0.391
-730.966	-200.000	0.082	-0.395
-729.952	-152.725	-0.096	-0.007
-728.937	-25.152	-0.099	0.059
-727.923	240.482	-0.017	-0.028
-726.908	-200.000	0.002	0.190
-725.894	-70.002	-0.121	-0.047
-724.879	-12.620	0.333	0.219
-723.864	-110.005	0.232	0.049
-722.850	2.071	0.157	-0.114
-721.835	675.957	0.025	0.065
-720.821	-95.491	-0.067	-0.018
-719.806	800.000	0.119	-0.463
-718.791	636.929	-0.067	0.171
-717.777	-200.000	-0.019	0.109
-716.762	293.271	0.136	-0.251
-715.748	25.813	0.182	0.154
-714.733	458.400	-0.173	-0.387
-713.718	249.346	-0.150	-0.257
-712.704	800.000	0.041	0.158
-711.689	-78.389	0.085	-0.029
-710.675	28.791	0.134	0.114
-709.660	800.000	0.070	-0.250
-708.645	-200.000	-0.048	-0.271
-707.631	663.734	0.048	-0.126
-706.616	-200.000	0.044	-0.234
-705.602	580.350	-0.089	-0.220
-704.587	800.000	0.036	0.149
-703.572	-39.757	-0.193	-0.102
-702.558	-98.613	-0.186	-0.048
-701.543	215.775	-0.050	0.080
-700.529	-149.439	-0.222	0.018
-699.514	427.265	-0.127	0.277
-698.499	-72.803	-0.164	0.061
-697.485	548.424	-0.155	0.375
-696.470	-200.000	0.035	0.321
-695.456	800.000	0.077	0.289
-694.441	20.130	-0.063	0.051
-693.426	-157.987	-0.446	0.027
-692.412	166.997	-0.169	0.242
-691.397	-200.000	0.019	0.141
-690.383	5.116	0.087	-0.065
-689.368	800.000	0.046	-0.131
-688.354	-50.935	0.178	-0.084
-687.339	375.776	-0.090	-0.185
-686.324	-200.000	0.011	-0.109
-685.310	148.617	0.189	-0.257
-684.295	800.000	-0.067	0.228
-683.281	41.603	-0.309	0.283
-682.266	-200.000	-0.021	-0.168
-681.251	-33.030	0.119	0.067
-680.237	-200.000	-0.012	-0.169
-679.222	-164.112	0.091	0.004
-678.208	-181.292	-0.069	-0.001
-677.193	-66.519	0.208	0.083
-676.178	-200.000	-0.018	0.111
-675.164	-69.637	0.467	0.180
-674.149	-118.470	-0.206	0.037
-673.135	296.460	-0.013	0.024
-672.120	800.000	-0.065	-0.219
-671.105	-61.658	-0.259	-0.110
-670.091	-159.451	-0.303	0.017
-669.076	-118.778	0.043	-0.008
-668.062	-56.355	-0.273	0.122
-667.047	-200.000	-0.034	-0.279
-666.032	3.855	0.078	0.057
-665.018	-38.770	0.150	0.080
-664.003	-148.664	0.288	-0.024
-662.989	-15.702	0.254	0.163
-661.974	430.478	-0.051	-0.110
-660.959	550.666	-0.073	0.175
-659.945	-200.000	0.017	-0.137
-658.930	186.677	0.312	-0.467
-657.916	20.727	-0.134	-0.109
-656.901	-78.078	-0.081	-0.028
-655.886	418.675	0.047	-0.102
-654.872	-120.794	-0.332	-0.056
-653.857	800.000	-0.031	0.098
-652.843	-54.464	-0.428	0.195
-651.828	-133.582	-0.202	0.025
-650.814	-143.533	0.217	-0.021
-649.799	-200.000	-0.025	-0.118
-648.784	-66.491	0.481	-0.192
-647.770	-101.565	-0.660	0.162
-646.755	-200.000	-0.001	0.205
-645.741	144.099	-0.020	0.027
-644.726	-126.073	-0.198	0.030
-643.711	-57.016	-0.114	0.051
-642.697	-19.644	0.140	-0.087
-641.682	-37.579	0.145	-0.078
-640.668	-144.472	0.132	0.012
-639.653	-162.683	-0.213	0.010
-638.638	774.781	0.015	0.041
-637.624	20.565	0.067	0.055
-636.609	186.624	-0.132	0.198
-635.595	-26.081	0.185	0.109
-634.580	-200.000	0.015	0.094
-633.565	800.000	0.032	-0.097
-632.551	-200.000	0.014	-0.263
-631.536	-181.766	-0.121	0.002
-630.522	-89.081	-0.235	-0.070
-629.507	44.735	0.045	-0.041
-628.492	233.792	-0.148	0.245
-627.478	-19.737	-0.225	-0.140
-626.463	301.807	0.230	-0.428
-625.449	-95.431	0.251	0.068
-624.434	800.000	-0.075	-0.260
-623.419	-119.334	-0.228	0.040
-622.405	-36.280	0.338	0.183
-621.390	-122.935	0.520	-0.084
-620.376	39.870	0.176	0.159
-619.361	102.054	-0.217	0.254
-618.346	-200.000	-0.035	0.188
-617.332	-103.058	-0.109	0.026
-616.317	-56.427	-0.445	0.198
-615.303	-21.858	-0.091	-0.055
-614.288	556.512	0.054	0.132
-613.273	-31.185	0.250	0.142
-612.259	40.139	-0.209	-0.189
-611.244	219.420	0.052	0.084
-610.230	800.000	0.054	-0.170
-609.215	111.903	0.230	0.279
-608.201	-24.923	0.114	-0.068
-607.186	7.307	0.093	0.070
-606.171	-5.000	0.149	-0.103
-605.157	131.793	0.159	-0.206
-604.142	-200.000	0.040	0.275
-603.128	800.000	0.026	-0.079
-602.113	-200.000	-0.003	0.220
-601.098	386.132	-0.113	-0.234
-600.084	-56.718	0.340	-0.151
-599.069	800.000	-0.053	-0.177
-598.055	141.721	-0.129	-0.172
-597.040	575.002	0.063	-0.153
-596.025	-196.768	0.195	0.001
-595.011	127.945	0.053	-0.068
-593.996	28.067	-0.154	0.131
-592.982	-82.604	-0.195	-0.064
-591.967	800.000	0.084	-0.256
-590.952	-46.506	-0.166	-0.082
-589.938	351.161	0.171	-0.340
-588.923	256.561	-0.102	0.177
-587.909	-51.737	0.203	0.095
-586.894	96.945	0.072	-0.083
-585.879	-107.029	-0.344	-0.076
-584.865	800.000	0.125	0.393
-583.850	58.847	0.165	0.163
-582.836	-200.000	-0.011	-0.154
-581.821	-34.923	-0.082	0.045
-580.806	-1.849	0.129	0.091
-579.792	-200.000	-0.041	0.251
-578.777	-20.501	0.137	0.085
-577.763	312.051	-0.108	0.204
-576.748	-200.000	-0.022	-0.222
-575.733	-200.000	-0.008	0.059
-574.719	-200.000	0.009	0.126
-573.704	187.303	-0.066	-0.098
-572.690	-200.000	0.034	-0.204
-571.675	-141.849	-0.138	0.014
-570.661	9.909	-0.473	0.361
-569.646	-200.000	0.017	0.185
-568.631	-200.000	0.009	0.234
-567.617	170.220	0.073	-0.104
-566.602	-200.000	0.033	-0.331
-565.588	-55.055	0.181	0.082
-564.573	800.000	0.065	-0.215
-563.558	-17.117	-0.205	-0.130
-562.544	-43.896	-0.141	0.071
-561.529	602.267	0.100	-0.249
-560.515	-119.914	-0.073	-0.013
-559.500	-200.000	-0.047	0.261
-558.485	-62.475	0.227	0.095
-557.471	800.000	-0.026	-0.084
-556.456	-131.736	0.264	0.035
-555.442	-65.556	0.096	0.039
-554.427	28.001	0.128	0.108
-553.412	363.958	-0.093	0.188
-552.398	548.600	0.043	-0.104
-551.383	376.325	-0.024	0.050
-550.369	-200.000	-0.027	0.156
-549.354	-132.455	0.200	-0.026
-548.339	785.925	0.037	-0.103
-547.325	-148.058	0.212	0.018
-546.310	-44.976	0.136	0.068
-545.296	163.465	-0.232	0.328
-544.281	128.413	-0.206	-0.263
-543.266	352.225	-0.054	-0.107
-542.252	-160.261	0.421	0.023
-541.237	-47.321	-0.190	0.093
-540.223	-200.000	-0.023	0.139
-539.208	800.000	-0.053	-0.164
-538.193	800.000	-0.018	0.059
-537.179	-200.000	-0.001	0.057
-536.164	-200.000	0.014	0.454
-535.150	481.799	-0.150	0.341
-534.135	-23.134	0.229	-0.138
-533.121	165.012	0.151	-0.214
-532.106	-200.000	0.012	-0.234
-531.091	12.856	-0.171	0.133
-530.077	-200.000	0.002	0.085
-529.062	157.332	0.135	0.187
-528.048	-106.779	-0.554	-0.123
-527.033	545.300	-0.078	0.186
-526.018	-70.082	0.255	0.097
-525.004	-48.630	0.235	-0.113
-523.989	-81.800	0.234	-0.077
-522.975	-90.282	0.059	0.017
-521.960	200.161	0.053	0.081
-520.945	-200.000	-0.027	0.276
-519.931	800.000	-0.041	0.171
-518.916	-58.896	-0.282	-0.122
-517.902	-67.700	0.299	-0.117
-516.887	800.000	-0.043	0.158
-515.872	161.413	-0.158	0.221
-514.858	800.000	-0.065	-0.230
-513.843	2.139	-0.097	0.070
-512.829	-172.514	0.390	-0.012
-511.814	-115.610	-0.268	0.050
-510.799	156.255	-0.159	0.220
-509.785	60.622	-0.191	-0.189
-508.770	-4.220	0.100	-0.069
-507.756	-71.782	0.023	0.009
-506.741	-200.000	-0.020	0.164
-505.726	-12.995	-0.179	0.117
-504.712	800.000	-0.050	-0.166
-503.697	642.377	0.055	-0.141
-502.683	-90.789	0.316	-0.091
-501.668	-200.000	0.002	-0.211
-500.653	-200.000	-0.003	-0.437
-499.639	-200.000	0.030	0.317
-498.624	-56.904	0.220	-0.097
-497.610	39.331	-0.036	-0.032
-496.595	153.493	0.152	-0.209
-495.581	26.998	0.101	-0.085
-494.566	-200.000	-0.007	-0.180
-493.551	-200.000	-0.048	0.286
-492.537	217.505	-0.100	0.160
-491.522	465.416	-0.205	0.459
-490.508	800.000	0.098	0.287
-489.493	63.323	-0.244	0.245
-488.478	175.335	-0.055	-0.080
-487.464	0.848	0.152	-0.109
-486.449	88.015	0.181	0.201
-485.435	160.455	0.150	0.209
-484.420	-200.000	0.007	0.235
-483.405	-200.000	0.037	0.196
-482.391	115.392	-0.084	0.103
-481.376	-200.000	-0.426	0.001
-480.362	-119.950	0.301	-0.052
-479.347	800.000	-0.177	-0.555
-478.332	79.131	-0.170	0.182
-477.318	-200.000	0.052	-0.464
-476.303	-103.703	-0.209	0.049
-475.289	249.060	0.187	-0.317
-474.274	-184.364	-0.093	-0.002
-473.259	800.000	0.043	-0.175
-472.245	-200.000	0.029	0.159
-471.230	94.418	-0.179	-0.203
-470.216	-14.360	-0.171	0.110
-469.201	218.392	0.067	-0.106
-468.186	402.636	0.115	-0.242
-467.172	589.171	-0.148	-0.365
-466.157	800.000	-0.093	-0.394
-465.143	50.675	-0.177	-0.167
-464.128	759.877	0.092	-0.250
-463.113	-118.258	0.083	0.015
-462.099	259.434	-0.107	-0.184
-461.084	40.772	0.109	-0.098
-460.070	160.862	0.159	-0.222
-459.055	-200.000	0.020	-0.114
-458.040	-66.973	-0.342	-0.135
-457.026	251.558	-0.037	0.063
-456.011	-200.000	0.068	-0.311
-454.997	-156.596	-0.193	0.012
-453.982	91.347	-0.096	-0.108
-452.968	-200.000	-0.011	0.139
-451.953	-29.088	-0.110	-0.063
-450.938	800.000	0.064	-0.247
-449.924	309.847	-0.060	0.113
-448.909	-200.000	-0.180	-0.000
-447.895	98.927	0.180	0.207
-446.880	70.342	0.115	0.119
-445.865	-73.702	0.149	0.054
-444.851	-67.966	0.444	0.173
-443.836	-200.000	-0.060	-0.285
-442.822	-113.905	0.163	0.032
-441.807	-44.457	0.151	-0.076
-440.792	43.299	-0.100	-0.091
-439.778	63.133	-0.222	0.222
-438.763	-15.049	-0.193	0.123
-437.749	25.931	-0.204	0.170
-436.734	248.971	0.045	0.077
-435.719	295.678	0.037	0.067
-434.705	-40.850	0.163	0.084
-433.690	-69.795	-0.022	-0.008
-432.676	-82.981	0.257	0.083
-431.661	85.403	0.214	0.235
-430.646	710.686	-0.087	0.231
-429.632	22.342	-0.084	-0.068
-428.617	544.639	-0.048	-0.115
-427.603	-149.360	0.354	-0.028
-426.588	143.260	-0.030	0.040
-425.573	-200.000	0.004	0.255
-424.559	697.653	-0.078	0.204
-423.544	800.000	0.070	-0.277
-422.530	135.135	-0.116	-0.151
-421.515	-95.375	-0.348	-0.093
-420.500	800.000	0.057	-0.164
-419.486	-101.829	0.074	0.018
-418.471	70.309	-0.251	0.259
-417.457	-103.671	-0.210	0.049
-416.442	800.000	0.079	0.268
-415.428	98.820	0.094	-0.108
-414.413	-3.921	0.213	0.148
-413.398	245.004	-0.072	-0.120
-412.384	-200.000	-0.011	0.083
-411.369	18.492	-0.028	-0.023
-410.355	345.850	-0.181	0.355
-409.340	-10.265	-0.187	-0.124
-408.325	769.466	-0.039	0.106
-407.311	-30.895	-0.377	-0.212
-406.296	-58.585	-0.126	0.055
-405.282	38.451	0.119	0.106
-404.267	-163.553	0.161	-0.008
-403.252	-44.906	-0.296	-0.147
-402.238	71.509	0.111	-0.115
-401.223	-200.000	-0.010	-0.326
-400.209	87.448	-0.112	-0.123
-399.194	-99.859	-0.554	0.138
-398.179	800.000	0.044	-0.143
-397.165	-68.792	0.140	0.054
-396.150	-147.573	0.363	0.031
-395.136	-99.995	0.261	-0.065
-394.121	-94.842	0.469	-0.127
-393.106	227.596	-0.102	-0.165
-392.092	334.788	-0.171	-0.329
-391.077	800.000	-0.039	-0.157
-390.063	-124.614	0.369	-0.057
-389.048	-10.097	0.156	-0.103
-388.033	-54.270	-0.273	-0.123
-387.019	800.000	-0.085	0.328
-386.004	-110.732	-0.147	0.030
-384.990	-200.000	0.378	-0.002
-383.975	389.359	0.071	-0.147
-382.960	10.379	-0.125	0.095
-381.946	56.541	-0.104	0.101
-380.931	800.000	-0.128	-0.435
-379.917	-179.758	-0.253	0.005
-378.902	-114.961	0.157	0.030
-377.888	38.769	-0.177	-0.158
-376.873	-121.946	-0.094	-0.015
-375.858	800.000	-0.101	-0.327
-374.844	24.468	0.033	-0.027
-373.829	-104.570	0.265	-0.061
-372.815	800.000	0.026	0.079
-371.800	-32.287	-0.161	-0.090
-370.785	31.923	0.148	0.127
-369.771	-20.013	0.275	0.169
-368.756	-200.000	0.005	0.430
-367.742	173.348	0.091	0.131
-366.727	-159.396	-0.119	0.007
-365.712	67.103	-0.123	0.125
-364.698	-200.000	-0.055	0.259
-363.683	5.137	0.132	0.097
-362.669	42.982	0.038	-0.035
-361.654	-83.403	-0.175	0.056
-360.639	-200.000	0.015	0.274
-359.625	-67.904	-0.210	-0.082
-358.610	-52.062	0.109	-0.050
-357.596	800.000	-0.016	-0.052
-356.581	240.108	-0.056	-0.094
-355.566	525.761	-0.111	0.259
-354.552	-124.864	-0.309	0.047
-353.537	-52.027	-0.155	-0.072
-352.523	-25.050	0.029	-0.017
-351.508	-20.514	0.102	-0.062
-350.493	-36.781	-0.289	-0.154
-349.479	-93.750	0.211	0.058
-348.464	464.779	0.179	0.399
-347.450	800.000	-0.030	0.103
-346.435	800.000	0.065	0.197
-345.420	-105.605	0.365	0.082
-344.406	800.000	-0.064	0.236
-343.391	99.949	-0.068	0.079
-342.377	29.299	0.119	-0.101
-341.362	229.163	0.040	0.065
-340.348	-172.494	0.340	-0.011
-339.333	-74.313	0.097	-0.035
-338.318	-200.000	0.038	-0.210
-337.304	347.639	-0.115	-0.226
-336.289	15.350	-0.061	0.048
-335.275	800.000	-0.035	0.103
-334.260	-200.000	0.003	-0.084
-333.245	-5.196	-0.205	0.140
-332.231	133.551	-0.150	0.193
-331.216	-200.000	-0.028	0.342
-330.202	800.000	-0.101	0.282
-329.187	800.000	0.093	-0.328
-328.172	-200.000	0.049	0.218
-327.158	-151.181	0.475	0.035
-326.143	-44.338	-0.174	0.086
-325.129	115.179	-0.065	-0.079
-324.114	800.000	0.054	-0.181
-323.099	-47.722	-0.169	0.081
-322.085	10.833	-0.096	0.073
-321.070	-200.000	-0.008	0.061
-320.056	20.978	0.194	-0.156
-319.041	-200.000	0.040	-0.238
-318.026	-85.958	0.070	0.022
-317.012	52.657	-0.472	0.449
-315.997	-105.014	0.264	0.060
-314.983	-1.190	0.229	0.161
-313.968	-69.237	-0.313	-0.119
-312.953	176.945	-0.151	0.219
-311.939	54.030	0.121	0.116
-310.924	2.531	-0.088	0.063
-309.910	800.000	0.087	0.280
-308.895	800.000	-0.051	0.203
-307.880	3.307	-0.090	0.065
-306.866	75.825	-0.078	0.082
-305.851	-105.504	-0.311	-0.070
-304.837	-5.859	-0.160	-0.109
-303.822	-139.270	0.321	-0.034
-302.807	42.039	0.231	-0.208
-301.793	132.798	0.151	-0.194
-300.778	154.368	-0.090	0.123
-299.764	175.057	0.127	-0.183
-298.749	800.000	-0.094	-0.351
-297.735	19.704	-0.064	0.051
-296.720	-138.957	-0.029	0.003
-295.705	800.000	-0.042	-0.176
-294.691	629.039	-0.042	0.106
-293.676	23.263	0.121	-0.099
-292.662	-71.764	0.515	-0.191
-291.647	-115.441	0.102	0.019
-290.632	149.288	-0.086	-0.116
-289.618	-200.000	-0.008	-0.184
-288.603	42.400	-0.307	-0.277
-287.589	-107.875	0.055	0.012
-286.574	72.121	-0.153	0.158
-285.559	-135.112	-0.123	-0.015
-284.545	178.168	-0.260	-0.377
-283.530	-129.720	-0.343	0.047
-282.516	-20.361	0.200	0.122
-281.501	-54.293	-0.176	-0.079
-280.486	-188.262	-0.534	-0.007
-279.472	-200.000	0.039	0.307
-278.457	-77.149	0.255	-0.088
-277.443	80.556	-0.054	-0.058
-276.428	-67.584	-0.423	0.164
-275.413	124.121	0.094	-0.117
-274.399	-72.381	0.147	0.054
-273.384	58.674	-0.016	-0.015
-272.370	-18.550	0.270	0.167
-271.355	-103.615	0.201	0.047
-270.340	736.403	-0.069	-0.185
-269.326	112.841	-0.088	-0.106
-268.311	-200.000	-0.018	-0.119
-267.297	185.881	-0.257	-0.380
-266.282	-200.000	0.048	-0.266
-265.267	-200.000	-0.024	-0.236
-264.253	571.913	0.051	-0.123
-263.238	-200.000	-0.017	0.166
-262.224	800.000	-0.027	0.085
-261.209	-200.000	0.001	-0.120
-260.195	-200.000	0.038	0.255
-259.180	283.204	0.190	0.339
-258.165	189.190	-0.161	0.239
-257.151	-73.993	-0.192	0.069
-256.136	-29.666	-0.380	-0.215
-255.122	-200.000	-0.022	-0.264
-254.107	-164.342	0.113	0.005
-253.092	54.990	0.195	-0.186
-252.078	-60.390	0.160	-0.068
-251.063	-113.043	-0.251	0.049
-250.049	225.413	0.095	0.152
-249.034	-85.217	0.276	-0.085
-248.019	-30.968	0.120	0.067
-247.005	-200.000	0.020	-0.114
-245.990	-70.825	-0.200	0.075
-244.976	-128.867	-0.079	-0.011
-243.961	487.662	-0.100	-0.226
-242.946	-200.000	0.040	-0.239
-241.932	85.262	0.134	0.146
-240.917	1.016	0.331	0.235
-239.903	-37.467	-0.145	-0.077
-238.888	451.255	-0.037	-0.081
-237.873	310.277	0.092	-0.171
-236.859	800.000	0.069	-0.198
-235.844	4.682	0.196	0.143
-234.830	21.028	-0.132	0.106
-233.815	-113.213	0.116	-0.023
-232.800	11.510	0.130	-0.099
-231.786	-113.637	0.227	-0.044
-230.771	21.964	0.344	0.278
-229.757	48.365	-0.267	-0.248
-228.742	47.882	0.188	-0.174
-227.727	-200.000	0.074	-0.328
-226.713	-200.000	0.008	0.055
-225.698	-43.498	-0.250	-0.125
-224.684	138.520	-0.078	0.101
-223.669	301.041	-0.105	-0.192
-222.655	-23.314	-0.335	0.199
-221.640	-200.000	0.065	0.297
-220.625	-14.339	-0.030	0.019
-219.611	-165.341	0.281	-0.012
-218.596	-89.874	-0.550	-0.159
-217.582	231.369	0.117	0.190
-216.567	-111.347	0.197	-0.040
-215.552	631.854	-0.009	0.024
-214.538	800.000	0.063	0.207
-213.523	-74.614	-0.216	0.077
-212.509	-200.000	0.007	-0.087
-211.494	-71.309	0.205	0.076
-210.479	-39.005	0.016	-0.008
-209.465	-58.588	-0.173	-0.074
-208.450	554.672	-0.158	0.377
-207.436	-38.515	0.067	0.035
-206.421	57.239	0.124	-0.120
-205.406	-200.000	-0.060	0.428
-204.392	9.148	-0.185	0.139
-203.377	-141.152	0.010	0.001
-202.363	-138.977	0.205	-0.022
-201.348	258.011	0.198	0.338
-200.333	-139.455	0.308	0.033
-199.319	602.623	0.068	-0.167
-198.304	-103.518	-0.132	-0.031
-197.290	-87.469	0.018	0.005
-196.275	-129.002	0.207	-0.029
-195.260	-178.161	0.392	0.009
-194.246	-164.102	0.208	-0.010
-193.231	-168.910	0.091	0.003
-192.217	800.000	-0.054	0.147
-191.202	-200.000	-0.005	0.025
-190.187	-200.000	-0.002	-0.258
-189.173	-63.389	0.188	0.077
-188.158	-75.319	-0.176	-0.062
-187.144	-79.524	0.224	-0.075
-186.129	-200.000	-0.007	0.101
-185.114	111.980	0.132	-0.158
-184.100	197.537	-0.151	0.228
-183.085	-79.695	0.189	0.063
-182.071	223.506	-0.104	-0.166
-181.056	112.773	0.101	-0.121
-180.042	-100.662	0.293	-0.071
-179.027	136.181	-0.114	-0.146
-178.012	533.477	-0.056	-0.132
-176.998	232.319	-0.066	-0.107
-175.983	58.058	0.066	0.064
-174.969	-151.887	0.232	-0.017
-173.954	-75.798	-0.125	0.044
-172.939	800.000	-0.036	-0.131
-171.925	800.000	0.048	-0.188
-170.910	209.275	-0.212	0.329
-169.896	284.047	-0.049	0.088
-168.881	-200.000	0.013	-0.167
-167.866	-147.199	0.547	-0.046
-166.852	-116.975	-0.391	0.071
-165.837	-200.000	-0.026	-0.126
-164.823	-36.805	-0.052	-0.027
-163.808	800.000	-0.059	0.209
-162.793	-35.287	0.152	-0.082
-161.779	-86.137	-0.471	-0.144
-160.764	-55.228	-0.384	0.171
-159.750	161.084	0.169	0.233
-158.735	463.777	-0.077	-0.170
-157.720	-200.000	-0.007	-0.061
-156.706	-49.515	0.217	-0.102
-155.691	-200.000	0.013	0.075
-154.677	-103.319	0.195	-0.045
-153.662	-103.533	-0.325	-0.075
-152.647	33.445	-0.090	-0.077
-151.633	-2.559	-0.132	-0.091
-150.618	-87.166	-0.265	-0.080
-149.604	105.124	-0.180	-0.210
-148.589	-159.028	0.343	-0.019
-147.574	171.304	-0.147	0.208
-146.560	800.000	0.092	-0.275
-145.545	-19.566	0.104	0.064
-144.531	-200.000	0.024	-0.376
-143.516	168.095	0.099	-0.140
-142.502	-182.279	0.131	-0.002
-141.487	26.137	-0.128	-0.105
-140.472	81.972	-0.157	0.168
-139.458	-200.000	-0.064	0.380
-138.443	-171.819	0.176	-0.006
-137.429	187.439	0.071	-0.105
-136.414	588.039	-0.020	0.050
-135.399	30.858	-0.057	0.048
-134.385	74.038	0.134	0.139
-133.370	14.605	-0.012	0.010
-132.356	-200.000	-0.019	-0.198
-131.341	800.000	0.075	0.246
-130.326	21.718	-0.225	-0.181
-129.312	-200.000	0.011	0.098
-128.297	-83.788	0.402	0.126
-127.283	-200.000	-0.026	0.401
-126.268	-52.253	0.153	-0.070
-125.253	800.000	-0.093	0.301
-124.239	800.000	0.070	-0.200
-123.224	-95.366	0.184	-0.049
-122.210	-59.829	0.174	-0.074
