DTS Sentinel unit serial number:	SN413079Multiplexer serial number:	ORYXHardware model number:	OX4-SRSoftware version number:	ORYX F/W v4.00 Oryx Data Collector v3.7.2.0data status	okinstallation	princeton_trtdifferential loss correction	single-endedforward channel	channel 2reverse channel	N/Adate	2019/09/19time	07:47:35forward acquisition time	60.00reverse acquisition time	0.00gamma	496.2192k internal	0.2352k external	0.2352temperature offset calibration	1.0003default loss term (dB/km)	0.3790temperature slope calibration	1.0000multiplexer offset coefficient	1.0000multiplexer slope coefficient	1.0000fibre end	0.00T internal ref (°C)	19.56T ext. ref 1 (°C)	0.55T ext. ref 2 (°C)	14.79length (m)	temperature (°C)	Stokes	anti-Stokes-747.200	109.951	-0.163	0.195
-746.185	34.675	0.217	0.189
-745.171	75.040	0.081	0.085
-744.156	-48.078	0.107	0.051
-743.142	161.360	0.051	0.071
-742.127	-200.000	-0.009	-0.130
-741.112	-94.309	0.329	0.090
-740.098	-99.267	-0.259	0.065
-739.083	202.460	-0.184	0.283
-738.069	14.345	0.253	0.197
-737.054	-32.151	0.221	0.123
-736.039	-108.309	0.018	-0.004
-735.025	-200.000	-0.049	0.368
-734.010	-64.299	-0.310	-0.126
-732.996	-8.584	-0.141	-0.094
-731.981	-71.300	-0.294	-0.110
-730.966	74.263	-0.198	-0.207
-729.952	116.001	0.010	0.013
-728.937	-46.953	-0.209	-0.102
-727.923	-85.897	-0.158	-0.049
-726.908	800.000	0.060	-0.216
-725.894	25.898	-0.034	-0.028
-724.879	-200.000	0.000	0.215
-723.864	420.793	-0.062	-0.132
-722.850	-69.875	-0.485	0.184
-721.835	219.478	-0.052	0.083
-720.821	-153.078	0.151	-0.011
-719.806	89.752	0.047	0.052
-718.791	255.828	-0.030	-0.051
-717.777	98.906	0.048	-0.056
-716.762	8.428	0.293	-0.220
-715.748	-200.000	0.046	-0.303
-714.733	-121.125	-0.159	-0.027
-713.718	-200.000	0.037	-0.268
-712.704	450.915	0.078	0.171
-711.689	451.151	-0.228	-0.501
-710.675	-6.850	-0.235	-0.159
-709.660	70.295	0.043	0.044
-708.645	-149.530	0.183	-0.014
-707.631	-107.973	-0.236	0.051
-706.616	647.624	0.120	-0.307
-705.602	-98.081	-0.288	0.074
-704.587	800.000	-0.070	-0.270
-703.572	154.861	0.159	0.217
-702.558	342.550	0.155	-0.303
-701.543	-112.413	-0.080	0.016
-700.529	394.182	-0.080	0.166
-699.514	-200.000	0.062	0.467
-698.499	-46.905	0.064	0.031
-697.485	25.916	0.057	-0.047
-696.470	326.723	-0.036	-0.069
-695.456	-116.629	0.569	-0.104
-694.441	-200.000	0.030	-0.279
-693.426	-15.904	0.219	-0.139
-692.412	-118.176	-0.162	-0.029
-691.397	-72.031	-0.327	0.121
-690.383	-10.909	0.324	-0.213
-689.368	-74.011	-0.256	-0.092
-688.354	-19.629	0.087	0.054
-687.339	332.255	0.068	0.130
-686.324	234.410	-0.162	-0.266
-685.310	241.676	0.135	-0.225
-684.295	63.879	0.068	-0.068
-683.281	80.293	-0.244	0.261
-682.266	-25.592	0.127	-0.075
-681.251	800.000	-0.164	0.464
-680.237	-95.471	0.233	0.062
-679.222	-74.950	0.203	-0.073
-678.208	-7.825	-0.253	0.170
-677.193	-14.569	-0.174	0.111
-676.178	151.563	-0.194	0.263
-675.164	-82.534	0.281	-0.091
-674.149	-79.501	0.386	0.130
-673.135	-200.000	0.023	0.195
-672.120	800.000	-0.102	-0.367
-671.105	75.908	0.198	-0.208
-670.091	800.000	-0.053	-0.222
-669.076	-200.000	-0.027	-0.189
-668.062	37.584	-0.360	-0.318
-667.047	-14.170	0.128	-0.082
-666.032	800.000	-0.060	0.202
-665.018	800.000	0.043	-0.151
-664.003	-200.000	-0.032	-0.377
-662.989	-36.174	-0.223	0.120
-661.974	419.778	0.095	-0.202
-660.959	161.694	-0.166	-0.232
-659.945	311.100	0.190	-0.354
-658.930	-112.134	-0.261	-0.052
-657.916	-200.000	-0.194	0.000
-656.901	-169.816	0.177	0.006
-655.886	-95.130	-0.185	0.050
-654.872	44.550	0.234	0.214
-653.857	-200.000	0.006	-0.187
-652.843	-122.081	-0.373	0.061
-651.828	203.442	0.164	-0.252
-650.814	191.349	0.164	-0.245
-649.799	-179.276	0.091	0.002
-648.784	-46.683	-0.125	-0.061
-647.770	694.528	0.037	-0.097
-646.755	244.122	0.113	0.189
-645.741	-169.516	-0.084	-0.003
-644.726	604.028	-0.087	0.214
-643.711	-75.272	-0.311	-0.110
-642.697	311.095	-0.223	-0.415
-641.682	-200.000	-0.031	-0.322
-640.668	-200.000	-0.050	0.232
-639.653	-28.065	-0.125	0.072
-638.638	-200.000	0.015	0.180
-637.624	66.610	0.302	-0.305
-636.609	-33.566	-0.474	-0.260
-635.595	-142.802	0.197	0.019
-634.580	-75.284	-0.192	-0.068
-633.565	743.344	-0.065	-0.173
-632.551	-155.237	0.045	0.003
-631.536	-200.000	-0.011	0.129
-630.522	-200.000	0.013	0.079
-629.507	-10.282	-0.253	0.167
-628.492	-101.489	-0.211	-0.051
-627.478	-98.605	-0.184	0.047
-626.463	-65.284	-0.163	0.065
-625.449	-52.567	-0.211	-0.097
-624.434	800.000	0.082	0.275
-623.419	-200.000	-0.002	-0.029
-622.405	259.843	0.150	-0.258
-621.390	-200.000	-0.048	0.432
-620.376	370.332	0.100	-0.201
-619.361	-200.000	-0.048	-0.308
-618.346	-129.321	0.077	0.011
-617.332	445.711	0.053	0.116
-616.317	-80.787	-0.458	0.151
-615.303	-116.626	0.402	-0.073
-614.288	800.000	0.040	-0.172
-613.273	141.065	-0.172	-0.226
-612.259	-200.000	-0.005	0.232
-611.244	-200.000	-0.051	-0.458
-610.230	206.206	-0.117	0.181
-609.215	-200.000	-0.013	0.293
-608.201	44.630	-0.190	-0.173
-607.186	-101.400	0.278	-0.067
-606.171	-51.944	0.230	0.106
-605.157	10.205	0.210	0.159
-604.142	767.218	0.120	-0.324
-603.128	17.193	-0.104	-0.082
-602.113	-4.358	0.002	0.001
-601.098	17.996	-0.198	-0.156
-600.084	-42.711	-0.058	0.029
-599.069	-193.191	-0.517	-0.005
-598.055	-132.399	0.286	0.037
-597.040	-70.724	-0.159	0.060
-596.025	109.690	0.138	-0.164
-595.011	-118.330	-0.198	-0.035
-593.996	198.444	0.073	-0.111
-592.982	4.408	-0.191	0.139
-591.967	-200.000	0.005	-0.056
-590.952	186.975	-0.083	0.123
-589.938	195.575	0.041	-0.062
-588.923	144.229	-0.078	0.103
-587.909	-59.529	-0.403	0.171
-586.894	58.262	0.222	0.216
-585.879	262.738	-0.212	-0.364
-584.865	591.102	-0.033	0.081
-583.850	-77.977	0.235	0.080
-582.836	800.000	-0.087	-0.368
-581.821	-200.000	-0.036	-0.235
-580.806	86.873	-0.119	-0.130
-579.792	-48.467	0.313	-0.149
-578.777	248.132	-0.136	-0.229
-577.763	-137.808	-0.344	0.038
-576.748	-169.473	0.121	-0.004
-575.733	-8.885	-0.166	-0.110
-574.719	-108.410	-0.259	0.055
-573.704	-104.183	0.291	-0.067
-572.690	800.000	-0.049	-0.178
-571.675	179.952	0.166	-0.241
-570.661	711.975	-0.087	-0.229
-569.646	22.277	0.182	0.148
-568.631	-200.000	0.179	0.000
-567.617	-6.490	0.212	-0.143
-566.602	-43.219	0.025	0.012
-565.588	-200.000	-0.019	0.139
-564.573	-200.000	-0.017	-0.240
-563.558	-104.110	0.140	-0.032
-562.544	-200.000	0.015	0.256
-561.529	-95.022	0.110	0.029
-560.515	-153.810	-0.307	0.021
-559.500	119.018	-0.076	-0.093
-558.485	109.707	0.136	-0.162
-557.471	-200.000	-0.013	0.095
-556.456	800.000	-0.028	-0.092
-555.442	-85.549	-0.086	0.026
-554.427	-158.682	0.069	0.004
-553.412	-200.000	0.004	-0.146
-552.398	-110.360	-0.131	0.027
-551.383	659.795	0.066	-0.169
-550.369	397.009	-0.091	-0.189
-549.354	-58.525	-0.221	-0.095
-548.339	-153.692	0.156	-0.011
-547.325	423.516	-0.056	0.119
-546.310	-97.660	0.179	-0.046
-545.296	25.959	-0.215	-0.177
-544.281	-200.000	-0.026	-0.403
-543.266	-99.865	0.190	-0.047
-542.252	-96.389	-0.181	-0.047
-541.237	800.000	0.053	0.207
-540.223	-200.000	0.020	0.200
-539.208	800.000	0.057	0.173
-538.193	98.200	0.221	0.252
-537.179	86.460	0.065	-0.071
-536.164	-55.030	-0.059	-0.026
-535.150	-200.000	0.072	-0.335
-534.135	780.350	-0.055	-0.150
-533.121	1.509	0.101	-0.072
-532.106	6.027	0.241	0.177
-531.091	800.000	0.115	-0.320
-530.077	-45.708	-0.044	-0.022
-529.062	-2.116	0.191	-0.133
-528.048	60.787	0.161	0.158
-527.033	37.986	-0.282	0.248
-526.018	800.000	0.058	-0.219
-525.004	165.391	0.119	-0.166
-523.989	-200.000	0.005	0.180
-522.975	310.276	0.021	0.038
-521.960	800.000	-0.023	-0.096
-520.945	-200.000	0.025	0.243
-519.931	217.566	-0.029	0.046
-518.916	340.292	-0.271	0.523
-517.902	74.689	-0.146	0.152
-516.887	-86.426	-0.346	0.105
-515.872	15.829	-0.269	0.209
-514.858	-138.602	-0.048	-0.005
-513.843	-136.870	-0.130	0.015
-512.829	138.145	-0.119	-0.154
-511.814	342.259	-0.300	0.581
-510.799	178.111	-0.154	0.222
-509.785	356.838	-0.173	-0.340
-508.770	-75.038	-0.273	-0.097
-507.756	561.964	-0.117	0.279
-506.741	-200.000	-0.019	0.273
-505.726	61.708	-0.029	0.029
-504.712	-22.369	-0.128	-0.077
-503.697	169.937	0.229	-0.324
-502.683	-125.539	-0.215	0.032
-501.668	707.721	0.166	-0.432
-500.653	147.766	0.058	0.077
-499.639	255.260	-0.126	0.213
-498.624	266.197	0.080	0.138
-497.610	-115.162	0.175	-0.033
-496.595	-172.235	0.083	0.003
-495.581	92.961	0.121	0.135
-494.566	-125.504	-0.263	-0.039
-493.551	-200.000	0.002	0.115
-492.537	800.000	0.075	0.235
-491.522	800.000	0.018	0.062
-490.508	-15.652	0.187	0.118
-489.493	-141.765	-0.081	0.008
-488.478	-111.183	0.100	0.020
-487.464	-200.000	0.038	0.185
-486.449	-200.000	-0.052	0.415
-485.435	-38.314	-0.227	0.119
-484.420	-200.000	0.016	0.143
-483.405	-136.680	0.155	-0.018
-482.391	-16.214	0.330	-0.207
-481.376	66.532	0.193	0.194
-480.362	-200.000	-0.024	-0.441
-479.347	-133.166	-0.048	-0.006
-478.332	-143.114	-0.024	-0.002
-477.318	-83.219	-0.326	-0.103
-476.303	-185.715	0.127	0.002
-475.289	-200.000	-0.021	0.460
-474.274	-200.000	0.018	0.213
-473.259	437.747	0.133	0.287
-472.245	-200.000	0.036	-0.232
-471.230	-1.934	-0.113	-0.078
-470.216	63.540	-0.236	0.234
-469.201	-130.292	-0.298	0.040
-468.186	144.757	-0.176	-0.232
-467.172	-63.049	0.191	0.078
-466.157	676.728	-0.081	-0.209
-465.143	159.149	0.317	0.435
-464.128	143.063	-0.041	-0.053
-463.113	43.308	0.251	0.226
-462.099	630.114	0.147	-0.366
-461.084	-140.175	-0.267	-0.028
-460.070	-25.028	-0.222	-0.130
-459.055	-133.109	0.055	-0.007
-458.040	15.230	-0.168	0.130
-457.026	64.643	-0.228	-0.227
-456.011	-68.602	-0.137	-0.052
-454.997	-36.227	0.245	0.131
-453.982	83.056	-0.360	-0.386
-452.968	172.852	-0.082	-0.116
-451.953	-141.128	0.077	-0.008
-450.938	800.000	-0.037	0.110
-449.924	20.601	0.259	0.207
-448.909	-105.274	0.165	-0.037
-447.895	800.000	-0.109	-0.467
-446.880	54.865	-0.329	-0.313
-445.865	47.000	0.055	-0.051
-444.851	800.000	-0.037	0.158
-443.836	-76.200	0.435	-0.151
-442.822	-200.000	-0.011	0.196
-441.807	-46.759	-0.183	-0.088
-440.792	-200.000	0.008	-0.479
-439.778	-200.000	0.012	0.082
-438.763	-65.713	0.440	0.174
-437.749	121.572	0.085	0.105
-436.734	112.458	-0.119	-0.142
-435.719	-200.000	-0.023	0.272
-434.705	-6.234	-0.256	0.172
-433.690	-200.000	-0.071	0.555
-432.676	-99.562	0.458	-0.113
-431.661	487.783	0.062	0.139
-430.646	-5.554	-0.070	0.047
-429.632	-200.000	-0.093	0.486
-428.617	24.296	0.215	0.175
-427.603	142.384	0.077	0.101
-426.588	-192.840	-0.223	0.002
-425.573	-200.000	-0.005	0.158
-424.559	800.000	-0.172	-0.599
-423.544	65.298	0.141	0.140
-422.530	800.000	0.033	-0.126
-421.515	146.190	0.193	-0.255
-420.500	-121.537	-0.078	0.013
-419.486	67.159	0.160	0.161
-418.471	-21.799	0.345	0.206
-417.457	-200.000	-0.030	0.366
-416.442	262.334	-0.103	0.175
-415.428	205.797	0.140	-0.215
-414.413	455.950	0.187	0.408
-413.398	-170.636	-0.210	-0.007
-412.384	800.000	-0.069	0.233
-411.369	95.728	0.310	-0.349
-410.355	-111.799	-0.180	-0.036
-409.340	153.307	-0.250	0.336
-408.325	42.826	-0.107	0.096
-407.311	-26.613	0.145	0.083
-406.296	-165.250	0.173	-0.007
-405.282	800.000	0.098	0.286
-404.267	79.303	0.234	0.247
-403.252	-200.000	0.053	-0.244
-402.238	-111.286	0.174	-0.035
-401.223	-200.000	0.026	-0.116
-400.209	61.121	-0.098	-0.096
-399.194	-49.141	0.446	0.210
-398.179	14.370	-0.181	-0.139
-397.165	554.689	-0.028	-0.066
-396.150	-61.737	0.285	-0.117
-395.136	-200.000	0.008	0.065
-394.121	-120.360	-0.254	0.042
-393.106	-200.000	-0.066	0.290
-392.092	-200.000	0.001	-0.086
-391.077	323.258	-0.135	0.253
-390.063	800.000	0.116	0.365
-389.048	-64.424	0.160	0.064
-388.033	73.179	-0.067	-0.069
-387.019	-4.241	0.161	-0.110
-386.004	98.156	-0.247	-0.280
-384.990	-96.630	0.155	0.040
-383.975	173.099	-0.103	0.146
-382.960	49.072	-0.157	-0.145
-381.946	103.142	0.158	-0.183
-380.931	800.000	-0.043	-0.165
-379.917	800.000	0.034	0.141
-378.902	800.000	-0.031	-0.117
-377.888	-57.125	0.309	-0.134
-376.873	-101.589	-0.192	-0.046
-375.858	800.000	-0.064	-0.273
-374.844	-200.000	0.005	-0.101
-373.829	13.208	0.233	0.177
-372.815	4.543	0.216	-0.156
-371.800	27.912	-0.159	0.131
-370.785	96.506	0.127	0.143
-369.771	-20.216	0.170	0.103
-368.756	355.307	-0.153	0.300
-367.742	-8.354	-0.161	0.107
-366.727	-90.464	0.241	0.069
-365.712	-14.263	-0.168	0.106
-364.698	-2.614	0.145	-0.100
-363.683	800.000	-0.025	0.092
-362.669	-127.376	-0.229	0.033
-361.654	-200.000	-0.069	-0.434
-360.639	800.000	0.021	-0.075
-359.625	-27.212	-0.222	-0.127
-358.610	59.871	-0.165	0.160
-357.596	800.000	0.040	-0.148
-356.581	465.418	-0.063	0.138
-355.566	57.255	0.284	0.272
-354.552	-40.362	-0.128	0.065
-353.537	-198.482	0.224	0.001
-352.523	157.848	0.025	-0.034
-351.508	26.558	-0.127	0.104
-350.493	714.899	0.116	-0.303
-349.479	-162.047	0.166	0.008
-348.464	-108.643	-0.291	-0.061
-347.450	-118.425	0.116	0.020
-346.435	-26.538	-0.089	0.051
-345.420	25.533	-0.247	-0.201
-344.406	-133.272	0.097	-0.012
-343.391	-110.620	-0.321	-0.065
-342.377	-187.012	0.168	-0.002
-341.362	-114.898	-0.410	-0.077
-340.348	710.126	-0.069	0.179
-339.333	-200.000	0.011	0.247
-338.318	-121.028	0.229	0.038
-337.304	320.012	0.183	-0.341
-336.289	-120.308	-0.180	-0.030
-335.275	-43.016	-0.164	-0.082
-334.260	267.989	0.207	-0.356
-333.245	1.290	0.104	-0.073
-332.231	-80.913	0.165	0.054
-331.216	-200.000	-0.004	0.036
-330.202	251.832	-0.182	-0.305
-329.187	23.032	0.358	-0.289
-328.172	-99.640	0.306	0.075
-327.158	-8.969	0.164	-0.108
-326.143	-200.000	-0.055	-0.266
-325.129	589.704	0.032	-0.078
-324.114	215.345	-0.105	0.164
-323.099	43.783	0.255	-0.229
-322.085	-200.000	0.056	-0.272
-321.070	-82.899	-0.069	0.022
-320.056	-200.000	0.008	0.095
-319.041	800.000	0.062	-0.183
-318.026	283.663	-0.038	-0.068
-317.012	-200.000	0.011	0.254
-315.997	-90.229	-0.102	-0.029
-314.983	-200.000	0.049	-0.239
-313.968	-37.811	-0.189	0.098
-312.953	-200.000	-0.033	-0.150
-311.939	-200.000	-0.037	-0.413
-310.924	-200.000	-0.070	0.337
-309.910	21.611	-0.074	-0.059
-308.895	491.017	0.088	-0.197
-307.880	-64.767	-0.379	-0.150
-306.866	332.862	-0.139	0.263
-305.851	800.000	-0.087	0.284
-304.837	-200.000	0.012	0.217
-303.822	3.772	0.079	-0.056
-302.807	-125.062	0.443	0.067
-301.793	-200.000	-0.025	0.377
-300.778	131.606	0.077	-0.097
-299.764	157.026	0.079	0.107
-298.749	-81.650	-0.255	0.082
-297.735	-127.864	-0.119	-0.017
-296.720	-106.106	0.402	0.088
-295.705	-121.771	0.121	0.020
-294.691	-7.952	0.067	0.044
-293.676	-82.552	-0.095	0.030
-292.662	327.841	-0.125	0.236
-291.647	800.000	-0.047	0.183
-290.632	-90.131	-0.058	0.017
-289.618	208.292	0.072	0.110
-288.603	-194.689	0.222	-0.002
-287.589	-68.828	0.073	0.028
-286.574	-23.325	0.300	-0.177
-285.559	800.000	-0.036	0.101
-284.545	-17.217	-0.056	0.035
-283.530	-118.358	-0.133	0.023
-282.516	-1.068	0.159	0.110
-281.501	17.204	0.223	-0.174
-280.486	-200.000	0.054	-0.280
-279.472	-4.003	-0.219	0.149
-278.457	536.629	0.078	-0.181
-277.443	-200.000	-0.019	0.155
-276.428	239.115	-0.135	-0.219
-275.413	104.968	0.236	0.273
-274.399	-200.000	0.026	-0.466
-273.384	-75.290	0.085	-0.030
-272.370	-143.001	0.329	0.031
-271.355	-54.031	0.269	0.120
-270.340	-20.262	0.137	0.083
-269.326	800.000	-0.050	0.138
-268.311	32.697	0.147	-0.125
-267.297	-200.000	-0.028	-0.241
-266.282	581.067	0.073	0.174
-265.267	-22.639	0.250	-0.148
-264.253	-200.000	0.011	-0.095
-263.238	682.398	0.080	0.205
-262.224	67.324	-0.120	-0.120
-261.209	230.067	0.155	-0.248
-260.195	-200.000	-0.042	-0.226
-259.180	-26.717	-0.092	-0.053
-258.165	188.054	-0.230	0.337
-257.151	152.949	-0.178	-0.238
-256.136	-75.157	0.228	0.080
-255.122	-200.000	-0.029	0.145
-254.107	143.459	-0.138	-0.180
-253.092	-61.124	0.339	0.140
-252.078	67.098	-0.064	0.064
-251.063	327.642	-0.057	0.106
-250.049	110.318	0.205	-0.241
-249.034	-200.000	-0.071	-0.345
-248.019	55.557	0.135	0.128
-247.005	-126.294	-0.117	0.017
-245.990	-139.257	0.058	-0.006
-244.976	-58.070	-0.131	0.056
-243.961	184.787	-0.089	-0.129
-242.946	-155.155	0.187	0.012
-241.932	69.681	-0.296	0.298
-240.917	-112.678	-0.182	-0.035
-239.903	-55.532	-0.318	-0.139
-238.888	-21.262	0.276	-0.165
-237.873	-200.000	0.030	0.370
-236.859	107.605	0.143	0.167
-235.844	182.033	-0.065	0.093
-234.830	-200.000	0.012	-0.168
-233.815	-200.000	0.013	0.081
-232.800	20.470	-0.015	-0.011
-231.786	-61.065	-0.126	-0.052
-230.771	800.000	0.090	-0.383
-229.757	-73.369	-0.061	0.022
-228.742	706.386	0.167	-0.431
-227.727	50.976	-0.289	-0.268
-226.713	-78.310	0.290	0.097
-225.698	210.004	-0.240	0.369
-224.684	-200.000	-0.044	0.416
-223.669	-200.000	-0.003	0.022
-222.655	52.819	-0.265	0.248
-221.640	35.257	-0.158	-0.135
-220.625	177.856	0.161	0.229
-219.611	-62.075	0.198	0.081
-218.596	-167.526	-0.450	-0.018
-217.582	-86.992	0.204	-0.061
-216.567	587.397	0.105	-0.253
-215.552	139.355	-0.276	0.356
-214.538	491.505	-0.134	0.299
-213.523	532.597	0.139	0.322
-212.509	-200.000	0.017	-0.224
-211.494	207.175	-0.111	-0.169
-210.479	-61.676	0.160	-0.065
-209.465	800.000	0.064	0.232
-208.450	-200.000	0.006	0.055
-207.436	800.000	0.026	0.085
-206.421	119.600	-0.132	-0.159
-205.406	637.684	0.070	-0.174
-204.392	-147.271	0.364	0.030
-203.377	-94.648	0.269	-0.072
-202.363	-122.194	-0.137	0.022
-201.348	758.869	0.014	0.036
-200.333	26.383	0.141	-0.115
-199.319	-134.022	0.210	0.025
-198.304	-86.893	-0.079	0.024
-197.290	9.920	-0.134	-0.099
-196.275	201.890	-0.225	0.339
-195.260	-200.000	0.001	0.080
-194.246	800.000	0.025	-0.073
-193.231	17.530	0.375	0.291
-192.217	-200.000	-0.042	0.292
-191.202	-99.507	-0.197	0.048
-190.187	-153.781	-0.086	0.006
-189.173	800.000	0.053	-0.186
-188.158	144.575	-0.203	-0.265
-187.144	-159.191	0.279	0.015
-186.129	275.618	0.048	-0.083
-185.114	-200.000	-0.027	-0.309
-184.100	640.589	0.088	0.219
-183.085	31.908	0.189	0.159
-182.071	423.682	-0.073	0.153
-181.056	800.000	0.049	-0.201
-180.042	546.581	-0.028	-0.066
-179.027	28.213	-0.115	-0.094
-178.012	-23.521	0.168	0.098
-176.998	-43.342	-0.162	-0.080
-175.983	-200.000	0.037	0.204
-174.969	-10.734	0.270	0.174
-173.954	82.645	-0.092	0.097
-172.939	438.366	0.107	0.228
-171.925	-11.729	0.257	0.165
-170.910	-200.000	-0.001	-0.132
-169.896	126.375	0.207	-0.256
-168.881	-7.282	0.294	0.194
-167.866	-200.000	-0.002	-0.152
-166.852	-158.691	-0.091	0.005
-165.837	-200.000	0.075	-0.000
-164.823	4.374	0.187	-0.133
-163.808	800.000	0.072	-0.200
-162.793	188.516	-0.258	-0.377
-161.779	-182.015	-0.236	-0.004
-160.764	-160.039	0.065	0.003
-159.750	-200.000	-0.036	-0.469
-158.735	-71.766	-0.142	0.052
-157.720	-103.907	-0.034	-0.008
-156.706	-89.008	-0.155	0.045
-155.691	290.918	0.081	0.143
-154.677	-73.026	-0.110	0.040
-153.662	671.760	0.069	0.174
-152.647	392.635	-0.100	0.204
-151.633	41.298	-0.194	-0.171
-150.618	37.274	0.329	0.284
-149.604	558.351	-0.073	0.172
-148.589	-62.035	-0.174	-0.071
-147.574	-68.918	0.140	0.053
-146.560	199.153	0.078	-0.117
-145.545	106.139	-0.226	0.261
-144.531	-172.571	0.210	-0.006
-143.516	-140.385	0.131	0.013
-142.502	-154.654	0.145	-0.009
-141.487	800.000	0.058	-0.161
-140.472	-152.226	0.498	-0.035
-139.458	-194.187	-0.162	0.001
-138.443	-85.138	-0.313	0.095
-137.429	-10.817	-0.189	0.122
-136.414	-169.581	-0.303	0.011
-135.399	118.199	0.066	-0.080
-134.385	536.328	-0.018	0.042
-133.370	-142.360	-0.366	-0.035
-132.356	230.484	0.090	-0.143
-131.341	-27.397	0.274	0.155
-130.326	-50.916	0.158	0.072
-129.312	43.446	-0.472	-0.420
-128.297	416.328	0.114	0.237
-127.283	104.995	0.172	0.198
-126.268	-200.000	-0.006	-0.049
-125.253	-111.451	0.202	-0.040
-124.239	-83.477	-0.326	-0.102
-123.224	-200.000	-0.013	-0.086
-122.210	166.739	0.231	-0.318
-121.195	-119.128	-0.308	0.052
