DTS Sentinel unit serial number:	SN413079Multiplexer serial number:	ORYXHardware model number:	OX4-SRSoftware version number:	ORYX F/W v4.00 Oryx Data Collector v3.7.2.0data status	okinstallation	princeton_trtdifferential loss correction	single-endedforward channel	channel 2reverse channel	N/Adate	2019/09/14time	00:59:35forward acquisition time	60.00reverse acquisition time	0.00gamma	496.2192k internal	0.2338k external	0.2338temperature offset calibration	1.0129default loss term (dB/km)	0.3790temperature slope calibration	1.0000multiplexer offset coefficient	1.0000multiplexer slope coefficient	1.0000fibre end	0.00T internal ref (°C)	26.37T ext. ref 1 (°C)	3.18T ext. ref 2 (°C)	21.31length (m)	temperature (°C)	Stokes	anti-Stokes-747.200	-200.000	-0.033	0.291
-746.185	800.000	0.197	0.611
-745.171	290.675	-0.127	0.232
-744.156	71.859	-0.050	0.053
-743.142	8.287	0.282	0.213
-742.127	-200.000	0.023	0.447
-741.112	-200.000	-0.013	0.260
-740.098	800.000	-0.030	0.125
-739.083	-55.748	-0.088	-0.040
-738.069	800.000	0.136	0.453
-737.054	800.000	0.035	0.126
-736.039	540.975	-0.057	-0.137
-735.025	-200.000	0.006	0.244
-734.010	-200.000	-0.021	0.235
-732.996	58.972	0.130	-0.128
-731.981	6.798	0.273	-0.204
-730.966	753.955	0.080	0.217
-729.952	-134.115	-0.422	0.052
-728.937	800.000	-0.046	0.166
-727.923	86.871	-0.354	-0.392
-726.908	-100.270	-0.054	-0.013
-725.894	-109.112	-0.071	-0.015
-724.879	-80.993	-0.126	0.042
-723.864	119.817	0.095	0.118
-722.850	800.000	0.118	-0.404
-721.835	-200.000	0.055	-0.313
-720.821	36.785	-0.244	-0.216
-719.806	175.705	-0.148	0.216
-718.791	38.757	0.017	-0.015
-717.777	27.719	0.233	-0.197
-716.762	800.000	-0.022	0.079
-715.748	401.927	0.079	-0.167
-714.733	-56.189	-0.080	0.036
-713.718	188.972	0.089	-0.134
-712.704	284.719	-0.069	-0.125
-711.689	322.718	0.141	0.269
-710.675	-131.800	-0.171	0.022
-709.660	-90.443	0.241	-0.070
-708.645	-47.118	-0.068	-0.033
-707.631	-200.000	-0.018	-0.177
-706.616	-200.000	0.015	-0.086
-705.602	50.808	0.205	0.194
-704.587	-32.131	0.507	0.284
-703.572	48.059	0.088	0.082
-702.558	-166.252	-0.045	-0.002
-701.543	-119.267	-0.421	-0.074
-700.529	-200.000	-0.006	-0.185
-699.514	-140.005	-0.087	0.009
-698.499	-142.943	-0.096	0.009
-697.485	800.000	-0.051	0.151
-696.470	753.828	-0.161	0.436
-695.456	-7.915	-0.134	-0.091
-694.441	-33.404	-0.180	-0.100
-693.426	-35.448	-0.403	-0.219
-692.412	-60.984	0.435	-0.184
-691.397	672.898	0.170	-0.442
-690.383	120.281	-0.036	0.045
-689.368	800.000	-0.123	0.384
-688.354	-13.453	-0.167	0.109
-687.339	88.439	-0.013	-0.014
-686.324	800.000	0.090	0.378
-685.310	168.215	0.032	0.046
-684.295	-23.967	0.065	-0.039
-683.281	-200.000	-0.045	-0.421
-682.266	15.759	-0.140	0.110
-681.251	360.876	0.157	-0.315
-680.237	70.903	0.287	0.298
-679.222	-93.607	-0.318	0.088
-678.208	-63.362	0.159	0.065
-677.193	-200.000	-0.019	-0.189
-676.178	-200.000	-0.045	0.260
-675.164	-200.000	-0.020	-0.099
-674.149	-144.145	-0.323	-0.030
-673.135	62.249	0.192	-0.192
-672.120	-51.581	-0.230	-0.107
-671.105	69.869	-0.109	-0.113
-670.091	3.316	0.350	-0.255
-669.076	282.060	0.133	0.238
-668.062	156.290	0.093	0.129
-667.047	-11.564	-0.248	0.163
-666.032	101.354	-0.042	-0.049
-665.018	800.000	-0.053	0.172
-664.003	800.000	-0.076	0.219
-662.989	-200.000	0.001	0.166
-661.974	125.541	0.140	0.177
-660.959	-176.001	-0.273	-0.007
-659.945	46.524	0.125	-0.116
-658.930	-149.242	0.159	-0.013
-657.916	287.394	-0.110	-0.199
-656.901	88.147	0.187	-0.207
-655.886	282.762	-0.031	0.055
-654.872	268.914	0.119	0.209
-653.857	337.395	-0.064	-0.125
-652.843	83.378	0.142	-0.154
-651.828	-129.848	0.224	0.031
-650.814	7.811	-0.071	-0.053
-649.799	39.011	-0.117	-0.105
-648.784	-200.000	-0.049	0.312
-647.770	-55.973	0.164	0.073
-646.755	800.000	-0.050	-0.181
-645.741	556.879	-0.008	-0.020
-644.726	-102.737	-0.181	0.043
-643.711	205.760	0.136	0.211
-642.697	-200.000	0.004	-0.128
-641.682	403.592	-0.081	-0.170
-640.668	-200.000	-0.036	0.188
-639.653	297.374	0.042	-0.077
-638.638	200.911	0.053	-0.082
-637.624	-200.000	0.004	0.073
-636.609	525.426	0.119	-0.280
-635.595	800.000	0.072	0.208
-634.580	-83.736	-0.149	-0.048
-633.565	90.036	-0.245	0.274
-632.551	-200.000	0.025	0.275
-631.536	-23.403	0.272	-0.163
-630.522	-152.833	-0.191	0.014
-629.507	25.055	-0.105	0.087
-628.492	-163.735	-0.236	-0.011
-627.478	160.720	0.041	0.057
-626.463	20.360	-0.292	-0.236
-625.449	50.699	0.275	-0.260
-624.434	-6.940	-0.311	-0.211
-623.419	-71.547	-0.388	0.145
-622.405	-200.000	0.010	-0.098
-621.390	545.093	0.136	-0.325
-620.376	12.793	0.082	-0.063
-619.361	677.275	-0.019	-0.050
-618.346	-24.319	0.031	-0.019
-617.332	800.000	0.023	-0.098
-616.317	-200.000	-0.031	-0.194
-615.303	-114.648	-0.155	-0.030
-614.288	-200.000	-0.004	-0.082
-613.273	-82.146	0.125	0.041
-612.259	-128.207	-0.023	0.003
-611.244	-200.000	0.000	0.120
-610.230	258.849	-0.017	-0.029
-609.215	173.746	-0.184	-0.265
-608.201	-46.895	0.233	-0.114
-607.186	-166.239	-0.373	-0.016
-606.171	-137.351	0.274	0.031
-605.157	-200.000	-0.044	0.234
-604.142	-71.755	0.134	0.050
-603.128	43.780	0.055	-0.050
-602.113	-78.697	-0.333	-0.114
-601.098	-122.895	-0.140	0.023
-600.084	281.769	0.105	0.188
-599.069	-67.118	0.224	-0.088
-598.055	150.969	-0.168	-0.228
-597.040	800.000	0.038	-0.124
-596.025	293.731	0.112	-0.204
-595.011	800.000	-0.086	0.251
-593.996	290.681	-0.079	0.143
-592.982	-172.750	-0.318	-0.010
-591.967	99.002	-0.133	-0.153
-590.952	-200.000	0.020	-0.164
-589.938	-49.991	-0.209	0.099
-588.923	-174.800	-0.311	-0.009
-587.909	-200.000	-0.065	-0.320
-586.894	549.008	-0.122	0.291
-585.879	177.740	0.135	-0.196
-584.865	-200.000	-0.003	-0.112
-583.850	-183.278	-0.126	-0.002
-582.836	-44.459	-0.091	-0.045
-581.821	40.702	-0.112	0.101
-580.806	-110.815	0.177	-0.036
-579.792	-200.000	-0.022	-0.294
-578.777	800.000	0.116	0.350
-577.763	-61.690	0.203	-0.085
-576.748	491.118	-0.114	0.260
-575.733	-200.000	0.040	0.255
-574.719	-38.509	-0.225	0.118
-573.704	241.182	0.250	0.416
-572.690	-200.000	-0.055	0.296
-571.675	-66.501	-0.190	-0.075
-570.661	-200.000	-0.003	0.064
-569.646	-87.877	-0.299	-0.090
-568.631	-39.372	0.020	0.011
-567.617	37.738	0.151	-0.133
-566.602	390.169	-0.166	-0.344
-565.588	23.500	0.446	-0.365
-564.573	-200.000	-0.011	0.118
-563.558	800.000	0.056	-0.188
-562.544	3.091	-0.050	-0.036
-561.529	800.000	0.070	0.243
-560.515	243.880	0.218	0.365
-559.500	-86.935	0.532	-0.162
-558.485	-200.000	-0.020	-0.367
-557.471	-136.473	0.242	-0.028
-556.456	-103.445	0.331	0.078
-555.442	-73.126	0.273	-0.100
-554.427	48.081	0.084	-0.078
-553.412	-128.395	-0.266	-0.038
-552.398	158.838	-0.033	0.045
-551.383	-76.070	0.114	0.040
-550.369	800.000	-0.063	-0.252
-549.354	800.000	-0.098	-0.290
-548.339	-172.089	0.530	-0.017
-547.325	-72.361	-0.244	0.090
-546.310	26.181	0.108	-0.090
-545.296	-43.433	-0.529	0.266
-544.281	58.782	-0.104	0.102
-543.266	-200.000	0.022	-0.276
-542.252	37.048	-0.140	-0.123
-541.237	260.466	-0.008	0.013
-540.223	4.987	-0.139	0.102
-539.208	800.000	0.045	-0.151
-538.193	-113.105	-0.233	-0.046
-537.179	155.123	0.116	-0.159
-536.164	-105.047	0.191	-0.043
-535.150	-22.074	0.212	0.128
-534.135	800.000	-0.049	0.175
-533.121	-96.432	-0.086	0.023
-532.106	67.117	0.198	-0.200
-531.091	170.784	-0.037	0.053
-530.077	-169.463	-0.558	0.020
-529.062	800.000	0.100	-0.322
-528.048	150.201	-0.045	0.061
-527.033	-90.064	0.272	0.079
-526.018	800.000	0.072	-0.268
-525.004	435.443	-0.018	-0.039
-523.989	-99.159	0.202	-0.051
-522.975	800.000	-0.054	-0.209
-521.960	64.247	-0.077	-0.077
-520.945	-149.073	-0.033	-0.003
-519.931	-200.000	-0.005	0.049
-518.916	634.341	-0.067	0.169
-517.902	-97.449	0.197	-0.051
-516.887	-3.195	0.256	0.177
-515.872	117.403	0.141	-0.172
-514.858	-104.004	0.184	-0.043
-513.843	182.312	0.062	-0.091
-512.829	16.655	0.018	-0.014
-511.814	-64.019	-0.127	-0.051
-510.799	-200.000	-0.031	0.302
-509.785	-200.000	-0.007	-0.046
-508.770	189.797	-0.095	0.142
-507.756	406.090	0.079	-0.166
-506.741	46.282	-0.017	0.016
-505.726	-200.000	0.011	-0.102
-504.712	-200.000	0.020	0.473
-503.697	263.740	-0.021	0.036
-502.683	54.839	-0.228	-0.219
-501.668	-147.884	0.038	0.003
-500.653	-200.000	0.003	0.043
-499.639	-17.653	-0.364	-0.227
-498.624	231.998	-0.095	-0.155
-497.610	-100.964	0.086	-0.021
-496.595	-200.000	0.011	-0.064
-495.581	-200.000	0.037	-0.265
-494.566	-68.092	-0.307	-0.119
-493.551	10.739	0.108	0.082
-492.537	534.314	0.046	-0.109
-491.522	-108.470	0.078	0.017
-490.508	509.442	-0.119	-0.275
-489.493	717.044	-0.116	-0.306
-488.478	288.202	-0.069	0.124
-487.464	125.761	0.237	0.297
-486.449	-48.200	0.236	0.113
-485.435	-95.865	-0.359	-0.095
-484.420	-39.082	-0.064	-0.033
-483.405	19.777	0.101	-0.081
-482.391	-57.438	0.117	-0.051
-481.376	-200.000	0.001	-0.014
-480.362	-57.762	0.200	-0.087
-479.347	153.670	-0.033	-0.045
-478.332	-7.108	-0.066	0.045
-477.318	3.774	-0.099	-0.072
-476.303	-200.000	-0.001	-0.014
-475.289	2.567	0.271	0.195
-474.274	13.949	0.229	-0.177
-473.259	800.000	0.055	0.155
-472.245	-18.717	-0.176	-0.109
-471.230	369.763	0.147	0.296
-470.216	-200.000	0.014	-0.234
-469.201	-200.000	-0.005	-0.230
-468.186	-200.000	-0.003	-0.083
-467.172	800.000	-0.073	0.220
-466.157	-56.440	-0.155	-0.068
-465.143	-39.338	0.339	0.177
-464.128	14.007	0.124	-0.096
-463.113	126.486	0.249	-0.313
-462.099	-21.558	-0.327	0.198
-461.084	-200.000	-0.015	0.503
-460.070	12.922	0.219	-0.168
-459.055	-79.754	0.078	0.026
-458.040	-71.101	0.633	-0.236
-457.026	244.448	0.019	0.032
-456.011	275.527	0.057	0.101
-454.997	11.068	0.042	0.032
-453.982	800.000	0.022	-0.066
-452.968	83.073	-0.110	-0.118
-451.953	-62.291	0.209	-0.086
-450.938	4.407	-0.282	-0.205
-449.924	183.904	-0.039	0.057
-448.909	800.000	0.034	0.117
-447.895	-155.971	-0.290	0.018
-446.880	-35.648	-0.019	-0.010
-445.865	115.567	0.051	-0.062
-444.851	175.752	0.087	-0.125
-443.836	699.400	0.119	0.311
-442.822	-63.216	-0.314	0.128
-441.807	-59.486	-0.196	0.084
-440.792	40.969	0.253	-0.227
-439.778	800.000	-0.073	-0.273
-438.763	800.000	-0.077	0.231
-437.749	800.000	0.013	-0.036
-436.734	-95.705	-0.051	0.014
-435.719	-200.000	0.014	-0.138
-434.705	610.654	-0.123	-0.305
-433.690	-200.000	-0.029	0.174
-432.676	800.000	-0.099	-0.313
-431.661	162.960	0.106	-0.148
-430.646	-200.000	0.000	0.047
-429.632	204.390	-0.139	0.213
-428.617	-30.207	0.168	-0.094
-427.603	-200.000	-0.002	-0.185
-426.588	72.543	-0.330	-0.341
-425.573	-66.647	-0.168	0.066
-424.559	111.810	-0.117	0.140
-423.544	-128.199	-0.251	0.035
-422.530	13.044	0.213	-0.163
-421.515	-108.667	0.206	0.044
-420.500	-80.532	0.270	-0.089
-419.486	254.025	0.019	-0.032
-418.471	174.482	0.082	0.117
-417.457	434.769	0.074	0.160
-416.442	-200.000	-0.006	-0.052
-415.428	-57.888	-0.309	-0.134
-414.413	105.504	0.171	-0.200
-413.398	-200.000	-0.081	0.000
-412.384	145.380	0.202	-0.268
-411.369	-200.000	0.022	0.259
-410.355	32.068	-0.097	0.082
-409.340	-20.730	-0.235	-0.143
-408.325	-161.175	0.201	0.010
-407.311	-200.000	-0.011	0.188
-406.296	-150.664	-0.240	-0.018
-405.282	800.000	-0.090	0.266
-404.267	800.000	0.077	-0.210
-403.252	-37.021	0.104	0.055
-402.238	59.339	-0.056	-0.054
-401.223	517.684	-0.146	0.339
-400.209	-200.000	-0.020	0.402
-399.194	105.001	0.140	-0.163
-398.179	-142.602	0.035	-0.003
-397.165	26.650	-0.037	0.031
-396.150	-114.818	0.258	-0.049
-395.136	4.046	0.191	-0.138
-394.121	800.000	-0.014	-0.039
-393.106	12.306	-0.120	-0.091
-392.092	-92.658	-0.214	-0.059
-391.077	-83.560	-0.291	0.092
-390.063	5.148	-0.182	-0.133
-389.048	-46.870	0.105	-0.051
-388.033	57.674	0.022	0.021
-387.019	-92.563	0.073	-0.020
-386.004	30.811	-0.327	0.277
-384.990	11.257	0.200	0.152
-383.975	539.872	0.109	0.257
-382.960	85.702	-0.052	0.057
-381.946	-200.000	0.042	-0.225
-380.931	-76.920	-0.251	0.087
-379.917	728.614	-0.102	0.270
-378.902	-200.000	-0.006	0.223
-377.888	-5.643	-0.347	-0.235
-376.873	-33.587	0.512	0.280
-375.858	522.658	-0.084	0.195
-374.844	-200.000	-0.001	0.195
-373.829	-96.825	0.042	-0.011
-372.815	441.369	0.089	0.192
-371.800	288.621	0.094	0.168
-370.785	665.229	-0.050	-0.127
-369.771	-200.000	-0.003	0.128
-368.756	-200.000	0.011	-0.048
-367.742	-180.663	0.285	-0.006
-366.727	-49.978	0.168	0.079
-365.712	-103.175	-0.275	0.064
-364.698	330.048	0.064	0.122
-363.683	95.709	0.058	-0.065
-362.669	119.277	0.113	-0.138
-361.654	-98.766	-0.155	0.039
-360.639	322.734	-0.101	0.191
-359.625	-200.000	0.007	-0.091
-358.610	-81.289	0.138	0.045
-357.596	-129.553	-0.143	-0.020
-356.581	67.240	-0.163	0.165
-355.566	-68.911	0.279	-0.106
-354.552	-61.112	-0.111	-0.046
-353.537	800.000	-0.071	0.223
-352.523	-27.154	-0.307	-0.177
-351.508	-45.236	-0.099	-0.049
-350.493	-200.000	-0.005	0.124
-349.479	-200.000	-0.017	0.090
-348.464	-11.268	-0.041	-0.027
-347.450	106.100	-0.041	-0.048
-346.435	-145.477	-0.173	-0.015
-345.420	-33.452	0.312	-0.170
-344.406	-200.000	0.024	-0.201
-343.391	-74.212	0.080	-0.029
-342.377	-4.500	-0.155	-0.106
-341.362	-33.061	0.109	0.060
-340.348	-13.229	0.094	0.060
-339.333	117.430	0.094	-0.114
-338.318	800.000	0.077	-0.324
-337.304	-26.971	-0.149	-0.086
-336.289	9.532	0.169	-0.126
-335.275	91.679	0.139	0.154
-334.260	-200.000	0.017	0.210
-333.245	97.060	-0.071	-0.081
-332.231	158.023	0.061	0.084
-331.216	-35.767	-0.151	0.081
-330.202	-200.000	0.033	0.281
-329.187	-187.127	0.297	0.004
-328.172	-119.631	0.014	0.002
-327.158	-20.106	-0.323	0.196
-326.143	-93.068	0.133	-0.037
-325.129	636.524	0.119	-0.297
-324.114	226.623	0.021	0.034
-323.099	44.893	-0.220	-0.199
-322.085	-200.000	0.020	0.242
-321.070	152.447	0.154	0.208
-320.056	800.000	0.005	0.019
-319.041	379.232	0.094	-0.190
-318.026	300.097	0.150	0.274
-317.012	800.000	-0.101	-0.389
-315.997	17.677	0.227	0.178
-314.983	132.962	0.142	0.181
-313.968	-200.000	0.299	0.001
-312.953	-1.294	0.503	-0.350
-311.939	111.998	-0.302	-0.360
-310.924	800.000	-0.011	0.038
-309.910	-19.679	-0.245	-0.149
-308.895	140.373	0.090	-0.118
-307.880	-200.000	-0.002	0.170
-306.866	-196.576	-0.200	-0.001
-305.851	800.000	-0.062	-0.261
-304.837	679.965	-0.048	0.124
-303.822	-138.246	-0.249	0.027
-302.807	-124.102	0.107	0.017
-301.793	-200.000	0.030	-0.131
-300.778	284.442	0.172	0.305
-299.764	800.000	0.042	0.171
-298.749	-200.000	0.020	0.128
-297.735	330.175	-0.153	-0.290
-296.720	-7.964	0.149	-0.099
-295.705	-9.283	-0.122	-0.080
-294.691	43.617	0.339	-0.305
-293.676	800.000	-0.020	-0.063
-292.662	-200.000	-0.011	-0.180
-291.647	81.802	-0.074	0.079
-290.632	60.252	-0.114	0.111
-289.618	-65.379	0.196	0.078
-288.603	231.970	0.066	-0.107
-287.589	74.017	-0.159	0.165
-286.574	307.572	-0.081	0.148
-285.559	52.072	0.275	-0.258
-284.545	723.685	0.148	-0.389
-283.530	-134.697	-0.069	0.008
-282.516	-200.000	-0.027	0.213
-281.501	150.564	0.158	-0.212
-280.486	6.859	-0.094	-0.069
-279.472	138.911	-0.171	0.222
-278.457	-23.565	-0.205	0.121
-277.443	-89.584	0.223	0.065
-276.428	-12.030	-0.218	0.140
-275.413	104.002	0.260	-0.301
-274.399	127.449	-0.082	-0.103
-273.384	-200.000	-0.064	0.468
-272.370	-200.000	0.017	0.135
-271.355	128.220	0.177	0.222
-270.340	800.000	0.040	-0.144
-269.326	-200.000	0.064	-0.385
-268.311	29.545	-0.235	-0.197
-267.297	694.820	0.083	-0.214
-266.282	-200.000	0.042	0.336
-265.267	-121.818	-0.385	-0.063
-264.253	-200.000	0.046	0.327
-263.238	-35.570	-0.202	0.108
-262.224	412.081	0.211	0.442
-261.209	220.062	0.073	0.115
-260.195	-200.000	0.015	-0.107
-259.180	800.000	-0.004	0.013
-258.165	40.703	0.027	0.024
-257.151	-23.931	0.023	-0.014
-256.136	-58.452	-0.075	0.032
-255.122	-127.963	-0.154	-0.022
-254.107	146.763	-0.077	-0.102
-253.092	-110.211	0.200	0.041
-252.078	56.680	0.176	0.169
-251.063	800.000	-0.085	0.246
-250.049	595.259	-0.095	0.232
-249.034	-68.822	-0.098	-0.037
-248.019	68.405	-0.064	-0.065
-247.005	-101.871	-0.125	0.030
-245.990	101.868	-0.226	-0.259
-244.976	-42.029	-0.085	-0.043
-243.961	-22.769	0.116	-0.069
-242.946	-94.597	-0.300	0.080
-241.932	-38.527	0.145	0.075
-240.917	-132.206	0.111	-0.014
-239.903	-111.245	-0.326	-0.066
-238.888	-200.000	-0.012	0.066
-237.873	392.644	0.118	0.241
-236.859	800.000	0.160	-0.440
-235.844	305.133	-0.144	-0.263
-234.830	-101.440	-0.363	-0.087
-233.815	-63.323	0.330	-0.134
-232.800	3.889	-0.149	0.107
-231.786	-113.813	-0.579	0.111
-230.771	-55.632	0.355	-0.156
-229.757	294.862	0.211	0.379
-228.742	-79.229	-0.028	0.009
-227.727	-37.957	0.245	0.128
-226.713	-104.274	-0.219	-0.050
-225.698	-200.000	0.007	0.326
-224.684	-81.853	0.018	0.006
-223.669	47.233	-0.037	0.034
-222.655	-142.622	-0.140	0.014
-221.640	170.620	-0.131	0.185
-220.625	-68.952	-0.170	-0.065
-219.611	-35.030	0.114	0.061
-218.596	-129.871	0.087	0.012
-217.582	-200.000	0.021	-0.137
-216.567	800.000	-0.057	0.185
-215.552	-30.168	-0.213	-0.119
-214.538	122.171	0.141	0.172
-213.523	-155.942	0.171	0.011
-212.509	-93.895	0.250	-0.067
-211.494	20.559	0.192	-0.152
-210.479	-98.550	-0.174	-0.044
-209.465	-45.986	-0.313	0.152
-208.450	800.000	0.066	0.207
-207.436	35.507	-0.210	0.181
-206.421	-200.000	0.017	0.308
-205.406	116.442	0.201	-0.242
-204.392	250.814	0.116	-0.194
-203.377	125.420	0.162	0.201
-202.363	800.000	0.054	0.214
-201.348	-200.000	-0.001	0.101
-200.333	157.363	-0.129	-0.176
-199.319	58.680	-0.287	0.277
-198.304	158.607	-0.138	0.188
-197.290	238.397	0.063	0.103
-196.275	17.741	0.165	-0.129
-195.260	272.894	-0.217	-0.377
-194.246	-200.000	-0.012	0.098
-193.231	25.684	0.153	-0.125
-192.217	-43.088	0.310	0.155
-191.202	-40.091	-0.365	0.187
-190.187	-165.653	-0.398	0.017
-189.173	-200.000	-0.041	0.186
-188.158	103.486	-0.139	0.160
-187.144	128.115	0.167	0.208
-186.129	-42.653	0.075	0.037
-185.114	-90.795	-0.315	-0.089
-184.100	-200.000	-0.066	-0.312
-183.085	-101.984	0.160	0.038
-182.071	53.308	-0.141	0.132
-181.056	-61.262	0.384	-0.159
-180.042	-58.464	-0.095	0.040
-179.027	81.524	-0.159	-0.168
-178.012	-46.314	0.110	-0.053
-176.998	-134.928	-0.201	-0.024
-175.983	-141.207	-0.029	-0.003
-174.969	61.166	0.151	0.147
-173.954	104.511	0.030	-0.034
-172.939	638.876	-0.143	0.358
-171.925	92.571	0.173	0.191
-170.910	-61.563	0.363	0.149
-169.896	-200.000	-0.041	0.183
-168.881	-200.000	0.052	-0.269
-167.866	414.837	0.193	0.403
-166.852	125.293	-0.034	0.042
-165.837	-200.000	0.028	-0.192
-164.823	-91.527	-0.160	0.045
-163.808	-119.443	0.200	-0.034
-162.793	36.559	0.144	-0.124
-161.779	-37.754	-0.147	0.077
-160.764	-37.609	0.245	-0.128
-159.750	-138.499	0.161	-0.017
-158.735	211.413	-0.086	-0.133
-157.720	-98.178	0.121	-0.031
-156.706	98.502	-0.089	-0.101
-155.691	121.049	0.230	0.281
-154.677	-200.000	0.026	0.232
-153.662	637.728	0.125	0.312
-152.647	-96.400	0.153	0.040
-151.633	-89.029	0.175	-0.051
-150.618	-63.945	0.388	0.155
-149.604	-111.653	-0.150	0.030
-148.589	55.191	0.082	-0.078
-147.574	-5.312	-0.055	0.037
-146.560	-54.762	-0.388	-0.172
-145.545	-96.169	-0.266	-0.069
-144.531	-200.000	-0.373	0.001
-143.516	271.155	-0.081	0.141
-142.502	320.908	0.105	0.196
-141.487	69.431	-0.225	-0.227
-140.472	-200.000	0.360	0.002
-139.458	211.984	0.092	0.142
-138.443	9.520	0.031	-0.023
-137.429	-68.103	0.166	-0.063
-136.414	-43.690	0.120	-0.059
-135.399	-195.935	-0.488	-0.003
-134.385	76.164	0.125	0.129
-133.370	509.988	0.120	0.273
-132.356	-112.427	-0.039	-0.008
-131.341	83.504	-0.301	0.322
-130.326	-111.740	-0.186	0.037
-129.312	610.704	-0.174	0.427
-128.297	-148.058	-0.111	0.009
-127.283	-178.033	0.300	0.007
-126.268	-42.750	-0.280	-0.139
-125.253	304.891	-0.226	-0.411
-124.239	182.966	0.071	-0.102
-123.224	436.339	-0.063	0.135
-122.210	-101.995	0.188	0.044
-121.195	23.541	0.056	-0.045
