DTS Sentinel unit serial number:	SN413079Multiplexer serial number:	ORYXHardware model number:	OX4-SRSoftware version number:	ORYX F/W v4.00 Oryx Data Collector v3.7.2.0data status	okinstallation	princeton_trtdifferential loss correction	single-endedforward channel	channel 2reverse channel	N/Adate	2019/09/17time	00:23:34forward acquisition time	60.00reverse acquisition time	0.00gamma	496.2192k internal	0.2329k external	0.2329temperature offset calibration	0.9974default loss term (dB/km)	0.3790temperature slope calibration	1.0000multiplexer offset coefficient	1.0000multiplexer slope coefficient	1.0000fibre end	0.00T internal ref (°C)	29.50T ext. ref 1 (°C)	0.10T ext. ref 2 (°C)	23.58length (m)	temperature (°C)	Stokes	anti-Stokes-747.200	-18.799	0.326	-0.204
-746.185	-200.000	0.064	0.369
-745.171	-200.000	0.024	-0.321
-744.156	31.858	0.048	0.041
-743.142	-113.004	0.334	0.066
-742.127	-143.656	-0.174	0.017
-741.112	30.952	0.122	0.105
-740.098	-44.886	-0.092	0.046
-739.083	-32.540	-0.152	-0.085
-738.069	218.938	0.132	0.213
-737.054	-168.028	-0.320	-0.013
-736.039	800.000	0.093	-0.274
-735.025	-130.699	0.259	-0.035
-734.010	-200.000	0.022	0.380
-732.996	446.182	0.073	0.160
-731.981	-200.000	-0.026	-0.185
-730.966	-200.000	0.049	-0.336
-729.952	-200.000	0.030	-0.253
-728.937	778.900	-0.085	-0.233
-727.923	164.720	-0.062	0.088
-726.908	-3.283	0.224	-0.157
-725.894	485.445	-0.067	-0.155
-724.879	-200.000	-0.295	0.001
-723.864	4.988	0.062	-0.046
-722.850	-200.000	-0.011	0.057
-721.835	-113.798	0.114	-0.022
-720.821	-117.625	-0.278	0.050
-719.806	-139.735	-0.289	-0.031
-718.791	-29.424	0.098	-0.056
-717.777	-93.042	-0.378	-0.106
-716.762	-17.368	-0.222	-0.141
-715.748	40.109	-0.490	-0.443
-714.733	10.092	-0.130	-0.099
-713.718	800.000	-0.038	0.128
-712.704	457.190	-0.044	0.099
-711.689	76.939	-0.213	-0.227
-710.675	-71.529	0.118	0.045
-709.660	-113.647	-0.309	-0.061
-708.645	9.186	0.024	-0.018
-707.631	800.000	0.072	-0.217
-706.616	-200.000	0.010	0.118
-705.602	-200.000	0.144	-0.001
-704.587	-103.780	-0.019	-0.004
-703.572	-197.382	-0.073	-0.000
-702.558	-122.961	0.160	0.026
-701.543	-200.000	-0.071	-0.354
-700.529	-91.381	0.248	0.071
-699.514	-200.000	0.014	-0.103
-698.499	-200.000	0.032	0.238
-697.485	-4.697	0.150	0.104
-696.470	-200.000	-0.020	-0.093
-695.456	-143.349	-0.206	0.020
-694.441	800.000	0.088	-0.325
-693.426	-190.124	-0.185	0.002
-692.412	115.225	-0.113	0.139
-691.397	173.850	0.102	-0.148
-690.383	-66.628	-0.248	-0.099
-689.368	61.558	0.274	-0.273
-688.354	-165.653	0.341	0.015
-687.339	18.877	-0.168	-0.136
-686.324	74.825	-0.193	0.204
-685.310	316.650	0.128	0.243
-684.295	800.000	-0.079	0.311
-683.281	-13.456	0.288	0.188
-682.266	-137.784	-0.404	0.046
-681.251	800.000	-0.076	-0.332
-680.237	-200.000	-0.057	0.252
-679.222	550.495	-0.085	-0.205
-678.208	-26.842	-0.083	-0.049
-677.193	-163.449	0.273	0.013
-676.178	-200.000	0.023	0.502
-675.164	-200.000	0.043	0.224
-674.149	96.098	-0.060	0.069
-673.135	-20.103	-0.168	-0.104
-672.120	17.960	0.181	-0.145
-671.105	-1.926	0.099	0.070
-670.091	-200.000	0.008	-0.045
-669.076	-109.001	0.184	0.039
-668.062	87.634	-0.218	-0.243
-667.047	800.000	0.101	-0.316
-666.032	800.000	-0.032	0.105
-665.018	416.554	0.141	-0.302
-664.003	800.000	0.081	0.342
-662.989	103.082	-0.106	-0.125
-661.974	-161.797	-0.032	0.002
-660.959	-30.629	-0.113	0.064
-659.945	-103.518	0.126	-0.030
-658.930	53.006	-0.216	-0.207
-657.916	-200.000	-0.243	0.000
-656.901	-60.961	-0.234	-0.099
-655.886	-127.330	-0.128	0.019
-654.872	-65.323	-0.133	0.054
-653.857	14.947	-0.158	-0.124
-652.843	71.765	-0.073	0.077
-651.828	24.268	-0.089	-0.073
-650.814	-145.986	0.207	-0.018
-649.799	-139.045	-0.075	-0.008
-648.784	-64.370	-0.479	0.195
-647.770	17.002	-0.307	0.244
-646.755	-39.568	-0.211	0.111
-645.741	-0.490	-0.222	0.158
-644.726	-63.527	-0.139	-0.057
-643.711	-200.000	0.013	0.119
-642.697	-15.912	-0.261	0.167
-641.682	-200.000	0.060	-0.301
-640.668	-75.083	0.250	-0.090
-639.653	-200.000	-0.040	-0.180
-638.638	-200.000	0.005	-0.339
-637.624	-200.000	-0.028	0.300
-636.609	-35.399	-0.185	-0.101
-635.595	800.000	-0.071	0.258
-634.580	-84.774	0.111	-0.035
-633.565	-138.316	0.324	-0.036
-632.551	-161.419	-0.120	0.006
-631.536	116.122	0.148	-0.181
-630.522	-56.124	-0.307	-0.137
-629.507	-6.162	0.099	-0.068
-628.492	-120.022	-0.093	0.016
-627.478	-84.526	-0.380	-0.120
-626.463	-73.821	0.095	-0.035
-625.449	40.855	0.252	-0.228
-624.434	-18.317	-0.097	0.061
-623.419	-144.288	-0.216	-0.020
-622.405	-200.000	0.026	-0.285
-621.390	-171.918	0.160	0.005
-620.376	-83.783	-0.407	-0.130
-619.361	-144.873	-0.087	0.008
-618.346	201.910	0.136	-0.211
-617.332	-83.173	-0.371	-0.120
-616.317	66.828	-0.203	-0.207
-615.303	-200.000	0.005	-0.108
-614.288	272.387	0.114	-0.202
-613.273	-2.746	-0.335	-0.235
-612.259	111.729	0.079	-0.096
-611.244	-162.343	-0.068	-0.003
-610.230	186.361	0.099	-0.147
-609.215	-165.509	0.064	-0.003
-608.201	-113.777	-0.181	-0.035
-607.186	800.000	-0.094	-0.271
-606.171	-29.259	-0.234	0.134
-605.157	-200.000	-0.053	0.360
-604.142	-8.852	-0.160	-0.108
-603.128	94.318	-0.187	-0.212
-602.113	800.000	0.087	-0.307
-601.098	-200.000	0.058	0.256
-600.084	224.600	0.049	0.080
-599.069	-114.426	0.204	0.039
-598.055	545.838	0.057	-0.135
-597.040	-65.456	-0.195	-0.079
-596.025	1.588	0.152	-0.110
-595.011	-76.354	0.182	0.064
-593.996	-200.000	-0.003	0.080
-592.982	-10.200	-0.176	-0.117
-591.967	-77.614	0.162	-0.056
-590.952	-95.528	-0.259	0.069
-589.938	-188.214	0.129	-0.002
-588.923	-196.150	-0.279	0.002
-587.909	-200.000	-0.066	0.289
-586.894	-9.471	0.245	0.163
-585.879	348.188	-0.040	0.079
-584.865	-44.046	0.153	-0.077
-583.850	-185.343	0.068	-0.001
-582.836	660.266	-0.057	0.148
-581.821	800.000	0.056	0.235
-580.806	38.529	-0.186	-0.166
-579.792	464.900	0.074	0.166
-578.777	11.317	-0.100	0.077
-577.763	800.000	0.039	0.131
-576.748	-74.205	-0.452	-0.164
-575.733	800.000	-0.132	-0.368
-574.719	-200.000	-0.044	0.366
-573.704	-200.000	-0.066	0.303
-572.690	448.265	-0.080	-0.177
-571.675	-70.120	0.008	-0.003
-570.661	-4.700	-0.087	0.060
-569.646	34.584	-0.290	0.253
-568.631	54.832	-0.218	-0.211
-567.617	-162.958	-0.260	-0.013
-566.602	86.166	0.090	-0.100
-565.588	-85.907	-0.230	0.071
-564.573	-144.491	0.296	0.027
-563.558	-200.000	-0.027	0.231
-562.544	-75.474	-0.178	-0.063
-561.529	-143.360	-0.335	-0.032
-560.515	-125.698	0.067	0.010
-559.500	800.000	0.034	-0.148
-558.485	-200.000	0.015	0.090
-557.471	-4.780	-0.114	0.079
-556.456	-200.000	0.027	-0.332
-555.442	44.444	-0.095	-0.087
-554.427	-200.000	0.031	-0.233
-553.412	-36.744	0.349	0.187
-552.398	-200.000	0.006	0.069
-551.383	13.224	-0.128	-0.099
-550.369	247.028	-0.036	-0.061
-549.354	586.901	-0.075	0.184
-548.339	-110.599	-0.081	0.017
-547.325	-173.085	-0.096	0.003
-546.310	800.000	0.015	-0.062
-545.296	-200.000	0.043	-0.249
-544.281	271.595	-0.075	-0.132
-543.266	244.272	-0.143	0.241
-542.252	-78.970	-0.167	0.057
-541.237	-200.000	-0.014	-0.285
-540.223	27.998	0.136	-0.114
-539.208	-200.000	0.196	0.001
-538.193	-200.000	-0.012	-0.085
-537.179	-61.494	-0.256	0.107
-536.164	-200.000	0.060	0.271
-535.150	535.196	0.285	0.676
-534.135	-110.674	0.275	0.057
-533.121	27.369	-0.208	0.174
-532.106	513.418	0.183	0.425
-531.091	-49.235	0.205	-0.098
-530.077	-104.100	0.195	-0.045
-529.062	341.331	-0.156	-0.304
-528.048	-26.742	0.107	0.062
-527.033	316.737	0.150	-0.283
-526.018	261.127	0.079	0.136
-525.004	409.345	0.018	0.038
-523.989	-34.434	-0.176	0.096
-522.975	-69.242	-0.116	-0.045
-521.960	363.838	-0.147	0.294
-520.945	123.935	0.124	0.156
-519.931	606.188	0.079	0.197
-518.916	674.337	0.168	0.435
-517.902	555.121	-0.002	0.005
-516.887	122.792	0.215	-0.268
-515.872	256.910	-0.110	-0.189
-514.858	495.690	-0.120	0.274
-513.843	517.312	0.053	0.123
-512.829	-174.992	-0.314	-0.009
-511.814	1.774	0.080	-0.058
-510.799	119.569	0.102	-0.126
-509.785	37.306	-0.101	0.089
-508.770	91.191	-0.044	0.049
-507.756	-200.000	0.130	0.000
-506.741	-9.974	0.086	-0.057
-505.726	-8.756	-0.324	-0.217
-504.712	252.869	0.087	-0.148
-503.697	112.313	-0.044	-0.053
-502.683	-44.564	0.071	-0.035
-501.668	-192.359	-0.396	0.004
-500.653	-175.425	0.310	0.008
-499.639	-200.000	-0.013	-0.168
-498.624	248.835	0.064	-0.108
-497.610	86.738	0.052	0.057
-496.595	172.420	-0.060	-0.086
-495.581	-25.943	0.422	0.248
-494.566	800.000	0.037	0.139
-493.551	800.000	0.016	-0.060
-492.537	81.295	-0.152	0.164
-491.522	89.351	0.217	-0.241
-490.508	-6.122	0.182	0.124
-489.493	-106.410	0.250	-0.056
-488.478	-200.000	0.029	0.136
-487.464	27.669	0.029	-0.024
-486.449	-200.000	0.029	-0.196
-485.435	-71.186	-0.108	0.040
-484.420	692.828	-0.005	-0.013
-483.405	-156.084	0.365	-0.023
-482.391	229.457	0.106	0.173
-481.376	-114.701	0.077	0.015
-480.362	66.975	0.074	-0.075
-479.347	79.958	0.125	0.134
-478.332	145.660	-0.081	0.109
-477.318	-47.678	0.239	-0.116
-476.303	800.000	0.007	-0.023
-475.289	457.685	-0.043	-0.095
-474.274	135.476	-0.124	-0.161
-473.259	-133.524	-0.249	-0.031
-472.245	9.361	0.217	0.163
-471.230	-200.000	0.020	-0.167
-470.216	556.592	0.012	0.029
-469.201	-32.690	-0.027	-0.015
-468.186	-200.000	-0.018	0.327
-467.172	-64.784	0.325	-0.131
-466.157	-200.000	0.010	0.253
-465.143	370.023	0.048	-0.097
-464.128	-138.871	-0.221	0.024
-463.113	-172.315	-0.187	0.006
-462.099	236.674	0.088	0.145
-461.084	-127.857	-0.262	-0.038
-460.070	189.063	0.203	-0.302
-459.055	800.000	0.024	-0.068
-458.040	55.427	-0.191	0.184
-457.026	-200.000	0.017	-0.211
-456.011	-200.000	-0.007	-0.040
-454.997	230.113	0.187	-0.305
-453.982	-200.000	0.021	0.171
-452.968	-111.872	-0.275	0.055
-451.953	-118.554	0.045	0.008
-450.938	800.000	0.040	-0.129
-449.924	216.615	0.051	-0.081
-448.909	122.620	0.131	0.164
-447.895	63.222	0.087	-0.086
-446.880	763.593	-0.078	-0.212
-445.865	-137.493	0.029	-0.003
-444.851	29.650	0.149	-0.127
-443.836	-200.000	-0.004	0.298
-442.822	546.801	-0.080	-0.190
-441.807	99.648	-0.155	0.179
-440.792	-189.896	-0.358	0.004
-439.778	-152.188	0.099	0.007
-438.763	-81.623	0.347	0.113
-437.749	74.530	0.296	0.310
-436.734	387.635	0.025	-0.052
-435.719	-64.188	-0.227	-0.092
-434.705	-116.972	-0.159	-0.029
-433.690	-59.885	0.202	0.086
-432.676	302.173	0.100	0.184
-431.661	225.997	-0.150	-0.242
-430.646	-200.000	0.002	0.208
-429.632	800.000	0.084	-0.237
-428.617	-103.270	0.334	-0.078
-427.603	-23.385	-0.197	0.118
-426.588	-34.819	-0.225	-0.122
-425.573	236.457	-0.079	0.130
-424.559	-180.530	0.302	-0.006
-423.544	-96.057	-0.330	-0.087
-422.530	-42.719	-0.175	-0.089
-421.515	144.062	0.204	-0.271
-420.500	-100.913	-0.088	0.022
-419.486	393.194	0.045	0.093
-418.471	246.556	-0.323	-0.542
-417.457	-70.908	0.215	-0.081
-416.442	-10.815	0.195	0.128
-415.428	-164.654	0.264	-0.012
-414.413	-200.000	0.027	-0.137
-413.398	195.351	0.084	-0.128
-412.384	210.634	0.113	0.176
-411.369	-177.274	0.295	0.007
-410.355	-200.000	-0.024	0.245
-409.340	323.406	-0.057	0.108
-408.325	124.147	0.104	-0.130
-407.311	-68.195	-0.062	0.024
-406.296	-23.736	0.152	-0.090
-405.282	712.610	-0.047	0.124
-404.267	24.757	-0.080	-0.066
-403.252	-151.848	-0.179	-0.013
-402.238	-151.148	0.211	-0.016
-401.223	177.948	0.168	-0.244
-400.209	-27.331	0.244	0.141
-399.194	464.337	-0.042	0.093
-398.179	125.181	-0.125	0.157
-397.165	800.000	-0.024	-0.089
-396.150	800.000	0.032	0.111
-395.136	26.123	0.095	0.079
-394.121	-200.000	0.029	-0.312
-393.106	-130.555	0.278	-0.037
-392.092	800.000	0.099	-0.419
-391.077	-200.000	0.008	-0.131
-390.063	-125.367	0.262	-0.040
-389.048	-200.000	0.011	0.165
-388.033	32.019	-0.256	0.219
-387.019	139.839	-0.099	0.130
-386.004	142.258	-0.198	0.261
-384.990	-200.000	0.034	-0.280
-383.975	-9.991	0.044	0.029
-382.960	800.000	-0.057	-0.201
-381.946	354.593	-0.122	0.241
-380.931	-52.928	0.232	-0.106
-379.917	-52.963	0.329	-0.150
-378.902	800.000	-0.150	0.484
-377.888	179.666	0.147	-0.214
-376.873	137.786	-0.033	-0.043
-375.858	-23.397	-0.247	-0.147
-374.844	-200.000	-0.012	0.084
-373.829	-127.596	0.194	0.028
-372.815	131.270	0.092	0.118
-371.800	114.460	-0.142	-0.172
-370.785	800.000	0.069	-0.301
-369.771	178.903	0.143	0.208
-368.756	-200.000	-0.006	0.221
-367.742	800.000	0.094	0.388
-366.727	15.609	0.124	0.096
-365.712	-200.000	-0.044	-0.528
-364.698	72.562	-0.082	0.085
-363.683	-111.756	-0.387	0.078
-362.669	-200.000	0.104	0.556
-361.654	-200.000	0.045	0.250
-360.639	584.656	0.037	0.091
-359.625	-200.000	0.038	0.413
-358.610	-51.116	-0.218	0.102
-357.596	-200.000	0.007	-0.094
-356.581	117.188	-0.187	0.228
-355.566	56.331	0.198	-0.191
-354.552	47.366	0.107	0.098
-353.537	111.504	-0.228	0.273
-352.523	526.292	0.048	0.112
-351.508	-106.319	0.140	-0.031
-350.493	189.059	-0.087	-0.130
-349.479	-200.000	0.016	-0.354
-348.464	-200.000	-0.075	-0.491
-347.450	-64.983	0.557	-0.223
-346.435	-200.000	-0.030	0.206
-345.420	180.613	0.083	0.121
-344.406	-200.000	-0.003	0.021
-343.391	-65.220	0.187	0.075
-342.377	-114.231	0.247	-0.047
-341.362	630.261	0.103	0.258
-340.348	-161.812	0.209	0.011
-339.333	-100.035	0.150	0.037
-338.318	-153.843	-0.394	-0.027
-337.304	-200.000	-0.019	0.157
-336.289	180.170	0.105	-0.153
-335.275	-200.000	0.037	0.205
-334.260	76.380	0.055	0.058
-333.245	-68.958	-0.244	0.093
-332.231	-8.968	0.368	0.244
-331.216	-72.489	0.143	0.053
-330.202	144.117	0.037	-0.049
-329.187	330.017	-0.118	0.225
-328.172	800.000	0.072	-0.234
-327.158	29.508	-0.082	-0.069
-326.143	248.915	0.074	-0.124
-325.129	800.000	-0.059	-0.199
-324.114	336.903	-0.218	0.420
-323.099	-61.947	-0.110	0.046
-322.085	-33.209	-0.162	-0.089
-321.070	800.000	0.083	0.280
-320.056	-200.000	-0.011	-0.131
-319.041	258.160	-0.140	-0.238
-318.026	-74.148	0.206	-0.074
-317.012	107.962	0.280	-0.330
-315.997	101.170	-0.220	0.253
-314.983	97.207	-0.206	0.234
-313.968	130.722	0.114	0.145
-312.953	599.472	-0.094	0.231
-311.939	413.998	-0.103	0.218
-310.924	-200.000	-0.026	0.176
-309.910	325.643	-0.125	-0.236
-308.895	-94.327	-0.288	0.078
-307.880	47.958	0.246	0.228
-306.866	-175.135	0.513	-0.014
-305.851	-71.974	-0.208	-0.077
-304.837	-136.600	0.268	0.031
-303.822	-5.281	-0.118	0.080
-302.807	142.278	-0.173	-0.227
-301.793	-173.731	0.402	0.012
-300.778	22.486	-0.196	0.159
-299.764	-200.000	0.003	-0.022
-298.749	-15.138	-0.284	-0.180
-297.735	628.914	0.046	-0.115
-296.720	-2.646	0.247	0.171
-295.705	30.680	-0.199	0.169
-294.691	16.292	0.114	-0.089
-293.676	529.994	0.248	-0.581
-292.662	-200.000	0.014	-0.142
-291.647	-45.122	0.381	-0.187
-290.632	195.928	0.031	0.046
-289.618	103.817	0.025	-0.029
-288.603	-57.879	-0.190	-0.082
-287.589	128.037	-0.217	-0.273
-286.574	-101.890	-0.257	-0.061
-285.559	-200.000	-0.007	0.075
-284.545	-2.321	0.092	0.064
-283.530	-27.770	-0.174	0.100
-282.516	-117.621	0.215	0.038
-281.501	81.594	-0.096	0.103
-280.486	800.000	-0.039	-0.143
-279.472	308.819	0.064	-0.118
-278.457	-200.000	0.061	0.289
-277.443	-63.512	-0.306	-0.124
-276.428	-125.335	-0.280	0.042
-275.413	-200.000	0.050	0.305
-274.399	11.830	-0.280	0.213
-273.384	174.538	-0.120	-0.172
-272.370	-125.843	0.287	0.043
-271.355	475.529	0.057	-0.127
-270.340	-200.000	0.001	-0.107
-269.326	800.000	0.091	0.264
-268.311	161.733	0.132	-0.182
-267.297	53.894	0.119	-0.113
-266.282	-5.297	-0.202	0.137
-265.267	-7.717	-0.194	0.130
-264.253	-12.128	-0.152	0.099
-263.238	290.870	-0.161	0.288
-262.224	-200.000	-0.020	0.090
-261.209	41.769	-0.052	0.047
-260.195	743.182	0.116	0.308
-259.180	22.391	-0.165	-0.134
-258.165	-39.309	0.142	-0.074
-257.151	-18.819	-0.180	-0.111
-256.136	-26.663	-0.178	0.103
-255.122	-115.875	0.148	-0.027
-254.107	800.000	-0.045	-0.125
-253.092	-67.734	-0.101	-0.039
-252.078	-46.180	0.174	-0.085
-251.063	628.293	0.076	-0.190
-250.049	-180.040	-0.425	0.009
-249.034	-55.989	-0.267	-0.118
-248.019	228.853	0.079	0.128
-247.005	178.074	-0.159	-0.229
-245.990	-87.619	-0.274	-0.082
-244.976	-82.368	0.488	0.157
-243.961	358.513	0.130	0.256
-242.946	-47.144	-0.083	0.040
-241.932	-85.775	0.269	0.082
-240.917	800.000	0.091	-0.392
-239.903	-77.614	-0.141	-0.048
-238.888	164.036	-0.051	0.071
-237.873	-79.644	-0.080	0.027
-236.859	144.728	0.147	-0.194
-235.844	236.327	0.068	-0.110
-234.830	800.000	0.024	-0.077
-233.815	-200.000	-0.099	-0.562
-232.800	237.799	-0.177	-0.290
-231.786	-19.883	0.127	0.078
-230.771	-22.393	-0.125	-0.075
-229.757	-80.822	0.100	-0.033
-228.742	-90.550	0.266	0.076
-227.727	-200.000	-0.017	-0.107
-226.713	217.837	0.097	0.152
-225.698	67.392	0.122	-0.123
-224.684	48.338	-0.054	0.050
-223.669	800.000	-0.015	-0.041
-222.655	-200.000	-0.027	0.292
-221.640	-200.000	-0.011	0.183
-220.625	-168.879	-0.152	0.006
-219.611	-7.447	-0.307	-0.205
-218.596	-150.544	0.241	0.018
-217.582	120.147	0.127	-0.155
-216.567	-200.000	0.047	-0.295
-215.552	-67.160	0.032	0.013
-214.538	-200.000	-0.003	-0.278
-213.523	445.305	0.069	0.149
-212.509	-123.899	0.208	-0.032
-211.494	-200.000	-0.037	-0.295
-210.479	709.321	0.033	-0.086
-209.465	23.481	-0.079	0.064
-208.450	222.214	0.095	-0.151
-207.436	-200.000	0.054	0.247
-206.421	800.000	0.074	0.303
-205.406	11.746	-0.314	0.238
-204.392	-200.000	0.005	-0.061
-203.377	-200.000	-0.008	-0.230
-202.363	128.363	-0.115	-0.144
-201.348	-151.988	0.254	0.018
-200.333	800.000	-0.048	0.158
-199.319	-70.629	-0.342	0.128
-198.304	-200.000	0.012	0.255
-197.290	800.000	0.085	-0.275
-196.275	800.000	0.073	-0.305
-195.260	18.580	-0.101	0.080
-194.246	-200.000	0.010	-0.075
-193.231	-200.000	-0.037	0.213
-192.217	-141.357	0.274	0.027
-191.202	800.000	-0.085	0.271
-190.187	-40.687	0.064	0.033
-189.173	-200.000	-0.002	-0.249
-188.158	-151.446	0.172	-0.013
-187.144	-200.000	0.034	-0.330
-186.129	253.174	0.036	-0.061
-185.114	-34.355	0.252	0.136
-184.100	64.858	-0.207	0.206
-183.085	-61.171	0.327	0.136
-182.071	-68.340	-0.111	0.043
-181.056	229.554	0.163	0.263
-180.042	19.496	-0.254	0.201
-179.027	8.586	0.060	-0.045
-178.012	800.000	0.094	-0.361
-176.998	-67.631	-0.129	-0.050
-175.983	596.074	-0.061	0.150
-174.969	-200.000	0.034	-0.181
-173.954	196.884	0.024	0.037
-172.939	127.984	-0.056	-0.071
-171.925	-178.212	0.231	-0.005
-170.910	-200.000	-0.045	0.232
-169.896	-162.866	0.053	-0.003
-168.881	24.317	0.026	-0.021
-167.866	800.000	0.106	-0.404
-166.852	87.300	-0.112	0.122
-165.837	24.252	0.193	0.157
-164.823	-62.240	0.293	0.120
-163.808	-200.000	-0.009	-0.112
-162.793	-200.000	0.022	0.329
-161.779	-68.202	-0.266	-0.102
-160.764	-42.641	0.262	-0.131
-159.750	217.691	0.114	-0.179
-158.735	800.000	-0.063	0.204
-157.720	800.000	0.080	0.278
-156.706	157.890	0.125	0.171
-155.691	-12.532	-0.170	0.109
-154.677	76.908	-0.089	-0.093
-153.662	96.747	0.210	-0.237
-152.647	-117.794	-0.165	0.029
-151.633	-200.000	-0.002	-0.039
-150.618	293.624	0.031	0.055
-149.604	58.019	0.168	-0.162
-148.589	-92.326	-0.348	0.097
-147.574	800.000	0.085	-0.309
-146.560	-200.000	0.322	0.000
-145.545	135.934	-0.126	0.161
-144.531	542.190	0.099	0.233
-143.516	121.750	-0.047	0.057
-142.502	172.862	0.091	0.129
-141.487	-27.225	-0.449	-0.257
-140.472	77.087	0.086	0.090
-139.458	2.660	0.025	-0.018
-138.443	-200.000	0.012	-0.319
-137.429	2.430	-0.195	0.139
-136.414	-200.000	-0.026	0.161
-135.399	-200.000	0.018	-0.283
-134.385	-86.148	-0.048	-0.015
-133.370	-200.000	-0.013	0.238
-132.356	-200.000	-0.032	-0.197
-131.341	-88.542	0.192	0.056
-130.326	-200.000	-0.033	0.209
-129.312	-64.574	0.391	-0.156
-128.297	281.885	0.229	0.404
-127.283	100.066	-0.068	0.078
-126.268	-109.601	0.366	0.076
-125.253	299.328	-0.091	0.164
-124.239	-200.000	0.013	-0.229
-123.224	-200.000	0.006	-0.032
-122.210	2.092	0.346	0.246
