DTS Sentinel unit serial number:	SN413079Multiplexer serial number:	ORYXHardware model number:	OX4-SRSoftware version number:	ORYX F/W v4.00 Oryx Data Collector v3.7.2.0data status	okinstallation	princeton_trtdifferential loss correction	single-endedforward channel	channel 2reverse channel	N/Adate	2019/09/12time	22:39:34forward acquisition time	60.00reverse acquisition time	0.00gamma	496.2192k internal	0.2331k external	0.2331temperature offset calibration	1.0180default loss term (dB/km)	0.3790temperature slope calibration	1.0000multiplexer offset coefficient	1.0000multiplexer slope coefficient	1.0000fibre end	0.00T internal ref (°C)	29.56T ext. ref 1 (°C)	3.75T ext. ref 2 (°C)	24.18length (m)	temperature (°C)	Stokes	anti-Stokes-747.200	-79.578	0.093	0.032
-746.185	-200.000	0.034	-0.403
-745.171	-200.000	0.012	-0.140
-744.156	-200.000	0.032	0.292
-743.142	-200.000	0.007	-0.035
-742.127	114.961	-0.053	-0.065
-741.112	-200.000	-0.029	0.407
-740.098	13.679	-0.027	-0.021
-739.083	26.554	-0.018	0.015
-738.069	800.000	0.030	0.096
-737.054	-92.617	-0.132	0.037
-736.039	-79.224	-0.213	0.073
-735.025	-14.215	0.307	-0.199
-734.010	58.273	-0.263	-0.260
-732.996	193.116	-0.293	0.445
-731.981	800.000	-0.105	-0.443
-730.966	189.942	-0.081	-0.122
-729.952	-200.000	0.035	-0.290
-728.937	139.313	-0.222	0.294
-727.923	-85.023	0.170	0.054
-726.908	-200.000	0.036	-0.255
-725.894	-78.755	-0.140	0.048
-724.879	-28.608	0.042	0.024
-723.864	-116.170	-0.167	-0.031
-722.850	7.347	0.250	-0.188
-721.835	159.786	0.303	0.424
-720.821	237.924	0.136	-0.228
-719.806	-11.760	-0.224	0.148
-718.791	-122.311	-0.161	0.026
-717.777	-200.000	-0.013	-0.244
-716.762	96.195	-0.061	0.070
-715.748	-152.363	-0.152	0.011
-714.733	-15.794	0.073	-0.047
-713.718	-4.971	-0.177	-0.123
-712.704	250.864	-0.109	-0.185
-711.689	-62.019	-0.286	0.120
-710.675	238.694	-0.220	-0.367
-709.660	349.009	-0.046	-0.090
-708.645	-50.731	-0.138	0.065
-707.631	-110.030	0.221	0.046
-706.616	800.000	-0.022	0.073
-705.602	-51.114	0.311	-0.147
-704.587	155.821	0.114	0.158
-703.572	-168.464	-0.217	0.008
-702.558	337.595	0.147	-0.288
-701.543	800.000	0.068	0.263
-700.529	35.477	-0.054	-0.048
-699.514	-190.869	-0.144	0.002
-698.499	-200.000	0.049	-0.350
-697.485	-89.275	-0.129	0.038
-696.470	-117.885	0.224	0.040
-695.456	84.690	0.139	-0.153
-694.441	7.580	-0.076	0.057
-693.426	66.801	0.146	0.149
-692.412	134.962	-0.048	-0.063
-691.397	-104.825	0.372	-0.086
-690.383	215.474	0.126	0.200
-689.368	557.156	0.011	0.026
-688.354	551.420	-0.119	-0.287
-687.339	-183.082	-0.306	-0.005
-686.324	84.271	0.126	0.139
-685.310	-94.584	0.082	-0.022
-684.295	683.766	-0.106	0.277
-683.281	-200.000	0.073	-0.353
-682.266	167.871	0.070	0.100
-681.251	-109.438	-0.237	-0.050
-680.237	-60.062	-0.379	-0.162
-679.222	36.024	0.083	0.073
-678.208	-175.633	-0.101	0.003
-677.193	-3.853	0.116	0.081
-676.178	-89.607	0.112	-0.033
-675.164	-75.557	0.188	-0.067
-674.149	-69.394	-0.130	-0.050
-673.135	-67.054	-0.321	-0.127
-672.120	742.606	-0.081	-0.219
-671.105	260.539	0.052	-0.090
-670.091	-158.411	0.009	0.001
-669.076	-200.000	0.050	-0.262
-668.062	620.407	0.077	-0.194
-667.047	-76.572	0.132	0.047
-666.032	363.838	-0.125	-0.253
-665.018	800.000	0.129	0.392
-664.003	-200.000	0.013	0.094
-662.989	-110.200	-0.241	-0.050
-661.974	-105.115	-0.060	-0.014
-660.959	43.319	-0.130	-0.119
-659.945	-200.000	-0.062	-0.333
-658.930	-200.000	0.059	-0.365
-657.916	198.616	-0.196	-0.301
-656.901	-35.710	-0.040	-0.022
-655.886	771.969	-0.114	0.311
-654.872	-54.437	-0.486	-0.221
-653.857	479.016	-0.088	-0.200
-652.843	-79.770	0.193	-0.065
-651.828	328.066	-0.028	-0.054
-650.814	-200.000	-0.002	0.117
-649.799	60.847	-0.172	-0.171
-648.784	-154.329	0.172	0.012
-647.770	-185.786	0.332	-0.005
-646.755	451.269	0.042	-0.092
-645.741	442.090	0.006	-0.012
-644.726	-48.622	-0.018	-0.009
-643.711	178.701	-0.060	-0.088
-642.697	-82.245	0.205	0.067
-641.682	800.000	0.096	-0.327
-640.668	-106.971	0.283	-0.063
-639.653	356.587	0.103	-0.206
-638.638	-77.353	-0.095	0.033
-637.624	-200.000	0.028	0.283
-636.609	-200.000	-0.052	0.435
-635.595	-49.802	-0.148	-0.071
-634.580	87.090	-0.126	0.140
-633.565	800.000	0.038	0.141
-632.551	-200.000	-0.004	-0.345
-631.536	156.731	-0.046	-0.063
-630.522	119.460	-0.297	0.368
-629.507	212.280	0.070	0.111
-628.492	-200.000	0.020	0.176
-627.478	-50.546	-0.073	0.034
-626.463	-149.684	-0.179	0.014
-625.449	13.152	0.256	-0.198
-624.434	-48.545	-0.178	-0.086
-623.419	167.838	-0.158	-0.225
-622.405	5.851	0.071	-0.052
-621.390	-200.000	0.070	-0.408
-620.376	-200.000	0.029	-0.162
-619.361	-154.431	-0.352	-0.024
-618.346	-63.340	0.102	-0.042
-617.332	-200.000	-0.037	0.384
-616.317	80.268	0.135	-0.145
-615.303	-200.000	0.008	-0.294
-614.288	-56.859	0.103	-0.045
-613.273	-174.456	-0.132	-0.004
-612.259	-78.983	0.281	0.096
-611.244	78.199	-0.131	-0.140
-610.230	13.983	0.233	-0.181
-609.215	-73.629	-0.005	0.002
-608.201	-117.385	0.079	-0.014
-607.186	-200.000	0.201	0.001
-606.171	302.329	-0.132	-0.245
-605.157	17.003	-0.033	-0.026
-604.142	-56.411	0.106	-0.047
-603.128	-192.818	0.009	0.000
-602.113	-170.393	0.213	0.007
-601.098	97.671	-0.153	0.176
-600.084	71.611	0.222	-0.231
-599.069	494.571	0.026	-0.059
-598.055	-34.965	0.217	0.118
-597.040	-200.000	-0.036	0.196
-596.025	159.850	0.018	-0.024
-595.011	-200.000	-0.008	0.121
-593.996	29.692	0.165	0.140
-592.982	-50.724	-0.270	-0.127
-591.967	-110.246	0.131	-0.027
-590.952	-107.229	-0.255	-0.056
-589.938	-117.242	0.317	-0.058
-588.923	41.787	0.114	0.104
-587.909	20.697	-0.129	0.105
-586.894	-99.728	0.140	0.035
-585.879	-52.543	0.281	-0.130
-584.865	800.000	-0.028	0.116
-583.850	182.072	0.073	-0.107
-582.836	-79.717	0.286	0.096
-581.821	-95.114	-0.248	0.067
-580.806	335.881	0.148	0.288
-579.792	-38.559	0.297	-0.157
-578.777	-200.000	-0.007	-0.166
-577.763	-200.000	-0.029	0.270
-576.748	313.144	0.029	-0.055
-575.733	800.000	0.072	-0.199
-574.719	800.000	0.041	0.150
-573.704	-4.836	0.238	-0.164
-572.690	615.648	0.116	-0.290
-571.675	-200.000	0.001	0.137
-570.661	800.000	-0.210	0.585
-569.646	-122.672	-0.158	0.026
-568.631	-200.000	0.041	0.432
-567.617	98.298	-0.035	0.040
-566.602	800.000	-0.002	0.007
-565.588	-140.348	0.142	-0.015
-564.573	-200.000	0.003	-0.051
-563.558	-200.000	-0.015	0.288
-562.544	-87.020	-0.244	0.074
-561.529	594.706	0.014	-0.035
-560.515	-90.269	-0.414	-0.120
-559.500	123.239	-0.136	0.170
-558.485	-200.000	0.002	-0.266
-557.471	-200.000	-0.004	0.018
-556.456	123.017	0.274	-0.342
-555.442	-120.469	0.146	-0.025
-554.427	144.229	-0.059	0.078
-553.412	-200.000	-0.054	-0.257
-552.398	-2.742	-0.245	0.171
-551.383	161.751	0.095	0.133
-550.369	383.203	0.194	0.399
-549.354	-28.605	0.121	0.070
-548.339	-200.000	0.019	-0.212
-547.325	-146.809	0.271	0.023
-546.310	26.178	0.140	-0.117
-545.296	-79.421	-0.114	-0.038
-544.281	-15.927	0.247	-0.157
-543.266	32.279	0.212	-0.183
-542.252	72.168	0.109	-0.114
-541.237	-13.726	0.319	0.206
-540.223	-200.000	0.043	0.281
-539.208	-127.241	-0.029	-0.004
-538.193	-114.174	-0.076	-0.015
-537.179	-76.262	-0.065	-0.023
-536.164	-200.000	-0.016	-0.158
-535.150	235.312	0.106	0.175
-534.135	-200.000	-0.038	0.258
-533.121	11.343	-0.205	-0.157
-532.106	-108.600	0.175	0.038
-531.091	-200.000	0.029	0.234
-530.077	-200.000	-0.043	-0.189
-529.062	800.000	0.027	0.089
-528.048	160.078	0.198	-0.275
-527.033	674.085	0.054	-0.140
-526.018	-112.155	0.091	-0.018
-525.004	279.915	-0.093	0.166
-523.989	129.175	0.050	0.064
-522.975	800.000	-0.077	-0.270
-521.960	27.286	-0.020	-0.017
-520.945	472.944	-0.076	-0.171
-519.931	-200.000	0.201	0.000
-518.916	24.562	0.117	-0.096
-517.902	-169.945	0.293	-0.010
-516.887	-55.482	-0.130	-0.058
-515.872	135.091	-0.155	0.201
-514.858	235.934	0.078	-0.129
-513.843	85.386	-0.191	0.209
-512.829	-200.000	-0.035	0.196
-511.814	-200.000	0.024	0.334
-510.799	-200.000	-0.066	0.328
-509.785	-139.297	-0.334	-0.036
-508.770	-200.000	0.013	-0.160
-507.756	598.585	-0.020	0.050
-506.741	-200.000	-0.003	0.129
-505.726	-200.000	-0.053	0.279
-504.712	350.089	-0.058	0.114
-503.697	-20.728	0.174	-0.106
-502.683	256.170	0.107	0.183
-501.668	409.060	0.125	0.263
-500.653	169.511	0.159	0.226
-499.639	-67.229	-0.137	-0.054
-498.624	-200.000	0.021	-0.356
-497.610	91.757	-0.278	0.312
-496.595	377.739	0.133	0.271
-495.581	-43.315	0.229	-0.116
-494.566	248.950	0.066	0.112
-493.551	93.474	0.183	-0.207
-492.537	800.000	0.134	0.510
-491.522	-41.002	-0.242	-0.125
-490.508	800.000	-0.020	-0.070
-489.493	-156.490	-0.276	-0.017
-488.478	8.552	-0.245	0.184
-487.464	758.924	-0.133	-0.360
-486.449	795.099	-0.068	-0.187
-485.435	-94.270	0.234	-0.064
-484.420	80.015	0.167	0.179
-483.405	800.000	0.098	-0.399
-482.391	304.651	-0.124	-0.230
-481.376	58.684	0.143	0.140
-480.362	-175.162	-0.120	0.003
-479.347	800.000	-0.052	0.193
-478.332	250.594	0.060	0.101
-477.318	183.864	0.111	0.164
-476.303	76.690	0.024	0.025
-475.289	-36.167	-0.307	-0.165
-474.274	-115.490	-0.117	-0.022
-473.259	53.214	0.128	0.122
-472.245	243.530	0.090	-0.150
-471.230	-143.149	-0.291	-0.028
-470.216	68.438	0.354	-0.361
-469.201	-44.554	0.171	-0.085
-468.186	-148.398	-0.164	0.013
-467.172	-200.000	0.057	0.266
-466.157	47.186	0.256	-0.238
-465.143	-82.346	0.155	0.050
-464.128	-200.000	0.010	0.352
-463.113	20.430	-0.154	-0.124
-462.099	5.861	-0.172	-0.127
-461.084	-72.577	0.315	0.116
-460.070	41.839	-0.337	0.304
-459.055	-160.260	-0.153	0.008
-458.040	425.272	-0.033	-0.071
-457.026	54.034	-0.153	-0.146
-456.011	18.042	-0.135	0.107
-454.997	4.939	0.264	-0.194
-453.982	59.010	-0.120	-0.118
-452.968	36.956	0.194	0.171
-451.953	-119.256	-0.122	-0.021
-450.938	-85.159	-0.498	-0.155
-449.924	-134.413	0.124	-0.015
-448.909	800.000	-0.033	-0.093
-447.895	293.937	-0.111	0.203
-446.880	800.000	-0.081	-0.228
-445.865	-50.305	0.084	-0.040
-444.851	43.459	-0.079	0.072
-443.836	68.090	-0.178	-0.181
-442.822	-200.000	-0.015	-0.162
-441.807	-142.063	-0.251	0.025
-440.792	-140.394	-0.239	0.025
-439.778	-119.565	-0.203	0.035
-438.763	-28.456	0.145	0.083
-437.749	298.682	0.167	0.306
-436.734	-78.248	-0.504	0.172
-435.719	-177.171	-0.247	0.006
-434.705	-107.339	0.207	0.045
-433.690	-89.488	-0.220	-0.064
-432.676	-200.000	0.011	0.465
-431.661	243.744	-0.121	0.202
-430.646	250.143	-0.062	-0.104
-429.632	-45.924	-0.373	-0.183
-428.617	800.000	-0.102	-0.308
-427.603	138.649	-0.106	0.138
-426.588	126.373	-0.226	0.284
-425.573	800.000	0.108	0.298
-424.559	-200.000	0.004	0.137
-423.544	-48.567	-0.045	0.021
-422.530	800.000	-0.052	-0.154
-421.515	-99.638	-0.379	0.095
-420.500	-200.000	-0.019	0.167
-419.486	-22.738	0.224	-0.134
-418.471	180.725	0.137	-0.200
-417.457	194.851	-0.099	-0.150
-416.442	247.721	-0.145	-0.243
-415.428	68.060	0.145	-0.147
-414.413	64.059	0.177	-0.177
-413.398	800.000	-0.068	-0.196
-412.384	-69.214	0.166	-0.063
-411.369	-62.412	-0.226	0.093
-410.355	140.119	0.053	-0.070
-409.340	336.206	-0.098	0.188
-408.325	-98.398	0.039	0.010
-407.311	-200.000	-0.039	-0.379
-406.296	112.180	0.190	-0.228
-405.282	755.009	-0.111	-0.298
-404.267	-182.702	-0.202	-0.004
-403.252	-200.000	0.007	0.250
-402.238	-125.006	0.145	-0.022
-401.223	91.599	-0.281	-0.314
-400.209	254.109	-0.075	-0.128
-399.194	-26.845	0.044	0.025
-398.179	191.344	0.112	0.167
-397.165	-200.000	-0.036	-0.168
-396.150	-0.068	-0.227	-0.160
-395.136	131.871	0.164	-0.210
-394.121	111.221	0.325	-0.389
-393.106	94.626	-0.264	-0.298
-392.092	62.768	0.206	0.204
-391.077	46.703	-0.054	0.050
-390.063	124.115	-0.048	0.060
-389.048	800.000	-0.042	-0.183
-388.033	-200.000	0.019	0.147
-387.019	-178.116	-0.280	0.007
-386.004	-136.128	-0.086	-0.010
-384.990	-19.519	0.211	-0.130
-383.975	792.430	-0.144	-0.394
-382.960	800.000	-0.050	-0.154
-381.946	-80.777	0.321	0.106
-380.931	-15.758	0.208	-0.132
-379.917	-200.000	-0.053	0.254
-378.902	-161.900	0.212	-0.011
-377.888	-200.000	-0.036	0.159
-376.873	-32.534	0.086	0.048
-375.858	182.255	-0.084	0.122
-374.844	-200.000	0.022	-0.317
-373.829	-75.855	0.097	-0.034
-372.815	-146.560	-0.294	0.025
-371.800	481.389	0.029	0.065
-370.785	-30.696	0.025	0.014
-369.771	519.932	0.068	0.157
-368.756	-94.763	0.309	-0.083
-367.742	-33.050	-0.099	0.054
-366.727	-99.521	-0.241	-0.060
-365.712	-55.864	0.047	0.021
-364.698	118.589	-0.260	0.318
-363.683	239.102	-0.130	-0.214
-362.669	-200.000	-0.019	-0.548
-361.654	-124.227	0.329	-0.051
-360.639	49.929	-0.135	-0.127
-359.625	-24.079	-0.189	-0.112
-358.610	-127.978	0.140	0.020
-357.596	-58.846	-0.184	-0.079
-356.581	61.150	0.143	0.141
-355.566	792.433	0.141	0.385
-354.552	168.485	0.316	0.446
-353.537	48.589	-0.028	0.026
-352.523	458.366	-0.134	0.296
-351.508	800.000	0.089	0.251
-350.493	3.074	-0.357	-0.257
-349.479	162.723	-0.087	-0.121
-348.464	249.820	-0.178	-0.299
-347.450	-200.000	0.013	-0.150
-346.435	-78.603	-0.263	-0.089
-345.420	18.875	-0.150	0.119
-344.406	-200.000	-0.011	0.074
-343.391	201.918	0.093	-0.142
-342.377	156.290	0.151	-0.207
-341.362	-131.310	-0.146	0.019
-340.348	-31.343	0.355	0.198
-339.333	322.987	-0.047	-0.088
-338.318	172.753	-0.281	0.401
-337.304	156.662	0.201	0.275
-336.289	-61.498	0.320	-0.133
-335.275	-200.000	-0.013	-0.147
-334.260	-78.959	0.237	-0.080
-333.245	-58.573	-0.063	-0.027
-332.231	-200.000	-0.072	0.320
-331.216	24.958	-0.132	0.108
-330.202	100.675	-0.071	0.082
-329.187	53.268	-0.204	-0.193
-328.172	-200.000	0.010	0.093
-327.158	-106.397	-0.215	0.048
-326.143	-200.000	-0.017	0.195
-325.129	-200.000	0.001	0.144
-324.114	209.068	-0.134	-0.208
-323.099	-200.000	0.003	0.060
-322.085	135.876	0.087	0.112
-321.070	21.437	-0.078	0.063
-320.056	-15.274	0.199	0.126
-319.041	-85.963	0.123	-0.038
-318.026	-44.373	0.132	0.065
-317.012	238.033	-0.108	-0.177
-315.997	-154.962	-0.393	-0.026
-314.983	516.123	-0.015	-0.035
-313.968	704.398	0.041	0.107
-312.953	800.000	0.040	0.110
-311.939	3.687	0.147	0.106
-310.924	301.192	0.095	0.174
-309.910	-200.000	-0.013	-0.280
-308.895	-200.000	-0.005	0.209
-307.880	-200.000	0.000	-0.033
-306.866	273.329	-0.019	-0.033
-305.851	-200.000	-0.048	0.212
-304.837	-200.000	-0.006	-0.047
-303.822	-200.000	0.019	-0.208
-302.807	14.463	0.009	0.007
-301.793	-82.701	0.095	0.030
-300.778	-200.000	-0.019	-0.109
-299.764	-50.090	0.214	-0.100
-298.749	-76.077	-0.303	-0.106
-297.735	340.469	0.169	0.326
-296.720	-200.000	-0.027	0.326
-295.705	72.600	0.129	-0.133
-294.691	761.451	-0.134	-0.360
-293.676	-200.000	0.019	-0.185
-292.662	6.176	0.376	-0.275
-291.647	-36.880	0.191	0.101
-290.632	-200.000	0.015	-0.128
-289.618	36.395	-0.190	-0.166
-288.603	166.774	-0.123	-0.173
-287.589	-109.474	-0.293	0.061
-286.574	154.807	0.033	-0.045
-285.559	-87.744	-0.297	-0.088
-284.545	-169.864	-0.345	-0.012
-283.530	-5.933	-0.221	0.149
-282.516	709.148	0.066	0.173
-281.501	-115.604	0.328	-0.061
-280.486	-113.603	-0.154	0.030
-279.472	551.212	-0.104	0.247
-278.457	-200.000	-0.004	-0.132
-277.443	-62.318	0.281	0.116
-276.428	-200.000	0.057	-0.485
-275.413	601.116	-0.082	-0.200
-274.399	-104.627	-0.106	0.024
-273.384	-200.000	0.019	-0.300
-272.370	-200.000	-0.005	0.223
-271.355	-200.000	-0.044	-0.399
-270.340	-200.000	0.026	0.481
-269.326	800.000	-0.033	-0.099
-268.311	-126.230	0.380	0.056
-267.297	-158.371	-0.234	-0.013
-266.282	800.000	-0.039	-0.112
-265.267	79.458	-0.204	-0.216
-264.253	800.000	-0.045	-0.195
-263.238	-166.402	-0.242	-0.010
-262.224	706.345	0.049	-0.128
-261.209	114.581	-0.349	0.420
-260.195	4.697	-0.170	-0.123
-259.180	800.000	-0.014	0.046
-258.165	-184.188	0.513	-0.008
-257.151	-161.278	-0.140	0.007
-256.136	433.280	-0.187	0.400
-255.122	-119.935	0.268	0.045
-254.107	169.661	0.193	0.272
-253.092	127.887	-0.081	-0.102
-252.078	-93.270	0.135	-0.037
-251.063	800.000	-0.024	-0.085
-250.049	-200.000	-0.006	-0.031
-249.034	-200.000	0.022	0.162
-248.019	419.600	-0.114	-0.240
-247.005	-84.154	-0.076	0.024
-245.990	-200.000	0.038	0.217
-244.976	-200.000	0.011	-0.104
-243.961	-79.349	0.244	0.082
-242.946	-159.407	0.151	0.008
-241.932	-200.000	-0.001	0.020
-240.917	179.026	-0.123	0.177
-239.903	800.000	0.030	0.092
-238.888	-29.100	0.042	-0.024
-237.873	-51.107	0.237	-0.110
-236.859	-149.728	-0.458	-0.036
-235.844	-200.000	-0.023	0.290
-234.830	-200.000	0.097	-0.679
-233.815	364.659	-0.034	0.067
-232.800	800.000	0.068	-0.198
-231.786	-200.000	0.039	0.303
-230.771	-200.000	-0.093	0.567
-229.757	-200.000	-0.004	-0.244
-228.742	-138.837	0.147	-0.016
-227.727	53.725	0.041	0.039
-226.713	8.940	0.112	0.083
-225.698	-79.204	-0.138	0.046
-224.684	472.134	-0.194	0.431
-223.669	81.805	0.158	0.169
-222.655	-200.000	-0.009	-0.203
-221.640	-120.962	-0.238	-0.040
-220.625	-119.056	0.300	-0.052
-219.611	17.311	-0.176	-0.138
-218.596	800.000	0.074	0.250
-217.582	800.000	0.072	0.304
-216.567	308.424	-0.140	-0.258
-215.552	133.668	-0.190	-0.243
-214.538	-140.063	-0.251	-0.026
-213.523	800.000	-0.087	0.268
-212.509	-200.000	-0.075	0.408
-211.494	166.411	-0.236	-0.330
-210.479	-89.010	0.184	0.054
-209.465	783.236	0.063	-0.169
-208.450	-200.000	0.039	-0.279
-207.436	553.661	-0.066	-0.157
-206.421	-69.294	-0.135	-0.051
-205.406	-200.000	-0.018	-0.107
-204.392	-58.543	0.106	0.045
-203.377	330.986	0.188	0.357
-202.363	-75.720	0.407	-0.142
-201.348	-77.301	0.170	0.058
-200.333	-28.567	0.220	0.125
-199.319	-12.658	-0.172	-0.111
-198.304	-123.441	-0.429	0.067
-197.290	-35.604	-0.196	-0.105
-196.275	53.868	0.413	0.391
-195.260	265.429	-0.068	-0.117
-194.246	-29.714	0.326	0.183
-193.231	-104.421	0.309	0.070
-192.217	-49.424	0.242	-0.114
-191.202	800.000	0.014	-0.041
-190.187	-200.000	-0.001	-0.068
-189.173	-30.943	0.215	-0.119
-188.158	439.469	-0.102	0.219
-187.144	-200.000	-0.023	0.191
-186.129	-124.387	-0.386	0.059
-185.114	-200.000	-0.044	-0.324
-184.100	28.951	-0.405	0.338
-183.085	31.680	-0.168	-0.142
-182.071	-200.000	0.071	-0.322
-181.056	-200.000	-0.020	-0.151
-180.042	-50.058	0.150	0.070
-179.027	61.273	-0.044	0.043
-178.012	180.212	-0.061	-0.088
-176.998	-101.344	0.120	-0.029
-175.983	-22.818	-0.312	-0.185
-174.969	723.874	0.023	0.061
-173.954	800.000	0.040	0.172
-172.939	800.000	0.065	0.218
-171.925	200.107	-0.143	0.217
-170.910	-107.989	0.084	0.018
-169.896	-98.977	-0.117	-0.029
-168.881	495.989	0.029	0.065
-167.866	800.000	0.024	-0.076
-166.852	800.000	-0.065	0.256
-165.837	-8.588	0.187	-0.123
-164.823	23.908	0.186	0.151
-163.808	56.331	0.274	0.262
-162.793	-147.792	0.107	0.009
-161.779	-200.000	-0.034	-0.246
-160.764	800.000	-0.055	-0.172
-159.750	147.767	-0.157	-0.208
-158.735	-193.702	-0.276	-0.002
-157.720	-82.053	0.057	-0.018
-156.706	-98.115	0.307	0.078
-155.691	78.921	0.228	0.240
-154.677	79.425	0.155	-0.164
-153.662	154.258	-0.020	0.027
-152.647	-107.719	0.284	0.061
-151.633	368.012	0.125	-0.248
-150.618	-34.054	-0.195	-0.105
-149.604	-200.000	0.086	0.436
-148.589	65.422	-0.068	-0.068
-147.574	-69.896	0.200	-0.075
-146.560	-138.083	0.169	0.018
-145.545	300.949	-0.080	-0.146
-144.531	630.756	0.061	0.153
-143.516	-75.547	-0.257	0.090
-142.502	-93.485	0.407	-0.111
-141.487	-90.701	-0.411	0.117
-140.472	94.484	0.382	0.427
-139.458	-48.956	0.195	0.092
-138.443	-48.389	-0.114	-0.054
-137.429	28.577	0.232	0.193
-136.414	-90.700	0.209	0.059
-135.399	-200.000	-0.004	0.032
-134.385	94.621	-0.288	-0.322
-133.370	-96.406	0.220	-0.057
-132.356	-42.692	0.189	-0.095
-131.341	-200.000	-0.006	-0.182
-130.326	-104.422	0.276	-0.063
-129.312	-171.304	0.276	0.009
-128.297	117.877	-0.233	-0.282
-127.283	-200.000	0.022	0.165
-126.268	800.000	0.144	-0.520
-125.253	-27.165	-0.244	0.140
-124.239	-200.000	-0.009	0.079
-123.224	18.149	-0.179	0.140
