DTS Sentinel unit serial number:	SN413079Multiplexer serial number:	ORYXHardware model number:	OX4-SRSoftware version number:	ORYX F/W v4.00 Oryx Data Collector v3.7.2.0data status	okinstallation	princeton_trtdifferential loss correction	single-endedforward channel	channel 2reverse channel	N/Adate	2019/09/14time	23:51:35forward acquisition time	60.00reverse acquisition time	0.00gamma	496.2192k internal	0.2324k external	0.2324temperature offset calibration	1.0055default loss term (dB/km)	0.3790temperature slope calibration	1.0000multiplexer offset coefficient	1.0000multiplexer slope coefficient	1.0000fibre end	0.00T internal ref (°C)	32.25T ext. ref 1 (°C)	4.65T ext. ref 2 (°C)	27.18length (m)	temperature (°C)	Stokes	anti-Stokes-747.200	-200.000	0.074	-0.000
-746.185	-6.346	-0.131	0.090
-745.171	387.634	0.089	-0.186
-744.156	-200.000	0.049	0.286
-743.142	311.573	-0.165	0.312
-742.127	-67.202	0.134	0.053
-741.112	-200.000	-0.064	-0.313
-740.098	-200.000	-0.083	0.419
-739.083	185.643	-0.106	-0.159
-738.069	39.452	0.083	-0.075
-737.054	-200.000	-0.099	0.560
-736.039	-80.268	-0.299	0.101
-735.025	360.946	0.085	-0.171
-734.010	-44.954	-0.281	-0.141
-732.996	-200.000	0.013	0.144
-731.981	-67.558	-0.196	0.077
-730.966	-200.000	0.007	0.228
-729.952	105.578	0.225	-0.269
-728.937	800.000	-0.044	-0.149
-727.923	407.312	0.096	0.205
-726.908	-46.547	-0.358	-0.177
-725.894	503.571	0.111	-0.258
-724.879	-157.369	0.285	-0.017
-723.864	213.654	-0.177	-0.282
-722.850	-200.000	-0.011	-0.214
-721.835	353.654	0.144	-0.288
-720.821	-0.067	0.105	-0.075
-719.806	151.770	-0.104	-0.143
-718.791	-200.000	-0.028	-0.162
-717.777	800.000	0.097	0.293
-716.762	-137.868	0.179	0.020
-715.748	-196.155	0.413	0.003
-714.733	545.000	0.139	-0.334
-713.718	-200.000	-0.064	-0.399
-712.704	-19.198	-0.258	-0.162
-711.689	-141.727	-0.265	-0.027
-710.675	-89.967	0.416	-0.122
-709.660	-49.997	0.128	0.061
-708.645	-200.000	0.018	-0.192
-707.631	800.000	0.058	-0.244
-706.616	800.000	-0.017	0.059
-705.602	800.000	0.047	0.137
-704.587	10.812	0.363	-0.279
-703.572	-200.000	0.031	0.141
-702.558	-38.545	-0.261	-0.139
-701.543	18.373	-0.118	-0.095
-700.529	-58.798	0.330	-0.144
-699.514	-126.531	0.140	-0.021
-698.499	-128.358	0.030	-0.004
-697.485	4.940	-0.297	0.220
-696.470	98.449	0.257	0.298
-695.456	-4.291	-0.020	-0.014
-694.441	-142.959	0.248	0.024
-693.426	800.000	-0.031	-0.130
-692.412	-200.000	0.005	-0.222
-691.397	-200.000	-0.005	-0.062
-690.383	205.869	-0.155	-0.243
-689.368	213.200	-0.263	-0.418
-688.354	104.097	-0.205	-0.243
-687.339	-200.000	-0.042	0.290
-686.324	102.458	0.105	-0.124
-685.310	-30.522	-0.290	-0.165
-684.295	-136.478	0.236	-0.028
-683.281	-124.197	-0.144	0.023
-682.266	800.000	0.039	-0.111
-681.251	169.473	-0.227	-0.327
-680.237	123.252	-0.218	-0.275
-679.222	-30.864	0.066	0.037
-678.208	266.021	0.055	-0.098
-677.193	-72.894	-0.265	0.098
-676.178	156.678	-0.047	-0.066
-675.164	-200.000	-0.036	-0.266
-674.149	10.213	-0.009	0.007
-673.135	-200.000	-0.065	-0.362
-672.120	-77.102	0.251	-0.088
-671.105	800.000	0.085	0.344
-670.091	291.132	-0.041	-0.075
-669.076	632.140	0.075	0.192
-668.062	52.173	0.190	-0.183
-667.047	4.835	0.081	0.060
-666.032	6.417	0.234	-0.175
-665.018	-156.996	0.165	0.010
-664.003	-7.082	0.089	0.061
-662.989	800.000	-0.131	-0.388
-661.974	290.409	-0.097	0.178
-660.959	102.383	-0.174	-0.205
-659.945	-101.748	-0.057	0.014
-658.930	335.472	0.107	-0.210
-657.916	120.122	0.052	0.065
-656.901	-200.000	-0.007	0.206
-655.886	-200.000	0.035	-0.201
-654.872	77.808	0.112	-0.120
-653.857	-18.123	-0.155	-0.098
-652.843	-189.602	-0.109	0.001
-651.828	368.093	-0.135	-0.275
-650.814	-119.095	-0.188	0.033
-649.799	58.278	-0.109	0.107
-648.784	23.128	0.145	-0.120
-647.770	448.928	-0.043	-0.094
-646.755	248.140	-0.097	-0.164
-645.741	20.482	0.084	-0.068
-644.726	181.683	0.097	-0.143
-643.711	508.389	-0.045	-0.106
-642.697	277.258	0.160	0.286
-641.682	-69.496	0.185	-0.071
-640.668	800.000	0.045	0.170
-639.653	-200.000	0.013	-0.205
-638.638	-76.395	0.457	0.162
-637.624	126.756	0.139	-0.177
-636.609	520.457	0.026	-0.061
-635.595	268.980	-0.028	0.049
-634.580	156.496	0.208	0.288
-633.565	381.913	-0.034	-0.071
-632.551	800.000	0.056	-0.165
-631.536	-200.000	-0.022	-0.144
-630.522	-200.000	0.014	-0.074
-629.507	-200.000	-0.007	-0.299
-628.492	-14.233	-0.246	0.159
-627.478	-101.787	-0.102	-0.025
-626.463	-18.980	0.205	0.128
-625.449	-200.000	-0.012	0.197
-624.434	118.759	-0.162	0.201
-623.419	-128.612	0.096	-0.014
-622.405	-141.429	0.163	0.017
-621.390	800.000	0.025	0.096
-620.376	-87.859	-0.345	0.104
-619.361	-98.736	0.097	-0.025
-618.346	94.884	0.165	0.188
-617.332	-200.000	-0.007	0.084
-616.317	-39.389	0.243	0.128
-615.303	11.742	-0.119	0.092
-614.288	-200.000	0.022	-0.234
-613.273	-108.546	0.342	0.074
-612.259	164.676	-0.120	-0.170
-611.244	-92.090	0.033	0.009
-610.230	30.924	0.021	-0.018
-609.215	322.453	-0.214	-0.410
-608.201	-74.949	0.349	-0.126
-607.186	564.036	0.037	0.090
-606.171	800.000	0.040	0.164
-605.157	800.000	-0.126	0.388
-604.142	800.000	0.088	0.272
-603.128	800.000	-0.133	0.396
-602.113	-200.000	-0.084	-0.424
-601.098	45.620	-0.201	0.186
-600.084	-148.175	-0.192	-0.016
-599.069	107.765	0.018	0.021
-598.055	-118.055	-0.289	-0.052
-597.040	-152.709	0.289	0.021
-596.025	-130.404	-0.134	0.018
-595.011	-118.531	0.413	0.073
-593.996	-24.915	-0.157	0.094
-592.982	-200.000	0.050	-0.277
-591.967	652.502	-0.005	0.013
-590.952	284.405	-0.148	0.267
-589.938	205.440	0.108	0.169
-588.923	-59.121	0.074	0.032
-587.909	-99.887	0.241	0.061
-586.894	-85.909	-0.161	-0.050
-585.879	800.000	-0.088	-0.276
-584.865	-93.823	-0.219	-0.060
-583.850	800.000	-0.039	-0.130
-582.836	53.412	0.290	0.279
-581.821	-105.788	0.141	0.032
-580.806	-95.079	0.113	-0.031
-579.792	442.339	-0.034	0.074
-578.777	519.238	-0.039	-0.091
-577.763	138.406	0.168	0.222
-576.748	-52.103	-0.250	-0.116
-575.733	800.000	-0.063	-0.195
-574.719	-98.855	-0.462	-0.118
-573.704	159.468	0.242	0.337
-572.690	164.900	0.065	0.091
-571.675	23.356	-0.138	0.114
-570.661	-11.808	-0.151	-0.099
-569.646	800.000	-0.039	0.114
-568.631	-200.000	0.029	0.205
-567.617	800.000	0.065	0.256
-566.602	-41.339	0.111	0.057
-565.588	-174.750	-0.197	0.006
-564.573	158.083	-0.196	0.272
-563.558	-200.000	0.002	0.171
-562.544	236.064	-0.039	0.065
-561.529	433.097	0.077	-0.167
-560.515	335.316	0.170	0.330
-559.500	-88.782	0.073	-0.022
-558.485	201.009	0.087	-0.135
-557.471	36.478	-0.144	-0.128
-556.456	800.000	-0.043	0.152
-555.442	89.153	-0.102	0.113
-554.427	361.439	-0.158	0.317
-553.412	421.507	-0.040	0.086
-552.398	800.000	0.076	-0.322
-551.383	199.867	0.100	0.154
-550.369	-107.232	0.156	0.034
-549.354	-35.405	0.144	0.078
-548.339	-16.132	0.207	-0.132
-547.325	-158.274	0.078	0.005
-546.310	-200.000	0.007	-0.096
-545.296	133.448	-0.124	0.161
-544.281	564.193	0.142	0.344
-543.266	-200.000	0.008	-0.218
-542.252	279.649	-0.069	-0.123
-541.237	-24.104	-0.338	-0.202
-540.223	-56.258	-0.224	-0.100
-539.208	145.012	-0.042	-0.056
-538.193	-13.434	-0.053	-0.034
-537.179	-83.521	0.325	0.104
-536.164	-44.523	-0.113	-0.057
-535.150	-33.285	-0.086	0.048
-534.135	800.000	0.085	-0.322
-533.121	46.897	0.029	0.027
-532.106	-14.898	-0.284	0.182
-531.091	-58.836	-0.302	0.131
-530.077	-200.000	0.038	-0.217
-529.062	800.000	-0.054	-0.188
-528.048	-200.000	0.035	0.314
-527.033	-200.000	-0.021	0.104
-526.018	-14.873	0.383	-0.246
-525.004	800.000	-0.109	0.314
-523.989	640.411	-0.091	-0.233
-522.975	-200.000	-0.007	0.080
-521.960	251.498	-0.116	-0.198
-520.945	-200.000	-0.161	0.000
-519.931	-82.490	-0.132	0.043
-518.916	-66.282	0.336	0.134
-517.902	800.000	0.007	0.028
-516.887	-75.199	-0.239	0.085
-515.872	-37.549	-0.055	0.030
-514.858	318.298	-0.113	0.215
-513.843	-200.000	0.021	0.109
-512.829	-200.000	-0.017	0.105
-511.814	-200.000	-0.021	-0.197
-510.799	-75.569	-0.125	-0.044
-509.785	173.350	-0.232	0.335
-508.770	-174.364	-0.162	-0.005
-507.756	11.925	-0.152	0.117
-506.741	-84.707	-0.305	-0.096
-505.726	37.206	0.108	0.096
-504.712	-12.690	-0.083	0.054
-503.697	-69.774	0.206	0.079
-502.683	-125.066	-0.192	-0.029
-501.668	-200.000	-0.017	0.205
-500.653	221.945	-0.143	-0.230
-499.639	10.747	0.194	0.148
-498.624	-148.352	0.339	-0.028
-497.610	-63.548	-0.132	-0.054
-496.595	800.000	0.038	-0.122
-495.581	-200.000	-0.009	-0.102
-494.566	-191.453	0.183	-0.002
-493.551	203.120	-0.225	0.347
-492.537	326.603	0.100	0.192
-491.522	-107.321	0.363	-0.080
-490.508	800.000	0.079	-0.281
-489.493	11.297	0.155	0.119
-488.478	-146.640	0.230	-0.020
-487.464	-2.732	-0.088	-0.062
-486.449	800.000	0.072	-0.285
-485.435	94.600	-0.190	-0.216
-484.420	-200.000	-0.031	0.278
-483.405	40.689	-0.162	0.146
-482.391	65.699	0.235	0.237
-481.376	-127.656	-0.296	-0.043
-480.362	41.124	0.335	0.303
-479.347	6.405	-0.043	0.032
-478.332	-156.417	0.320	-0.020
-477.318	627.571	-0.021	-0.054
-476.303	-200.000	-0.055	0.246
-475.289	-200.000	0.052	0.489
-474.274	-60.025	-0.295	0.126
-473.259	-200.000	0.149	0.000
-472.245	-113.177	-0.165	-0.032
-471.230	-68.105	0.226	-0.088
-470.216	-121.318	-0.224	-0.037
-469.201	-39.027	0.107	0.056
-468.186	-2.403	0.196	-0.137
-467.172	-142.430	0.232	-0.023
-466.157	220.902	-0.189	0.303
-465.143	-13.458	0.213	-0.138
-464.128	-200.000	-0.044	-0.296
-463.113	157.629	0.173	-0.239
-462.099	-200.000	0.014	0.127
-461.084	-3.956	-0.166	-0.115
-460.070	81.099	-0.102	-0.110
-459.055	-94.264	0.108	0.030
-458.040	-84.272	0.210	-0.066
-457.026	-200.000	0.029	0.158
-456.011	800.000	0.050	-0.152
-454.997	-161.585	0.111	0.006
-453.982	-132.519	0.057	0.007
-452.968	405.585	0.098	-0.206
-451.953	127.065	0.133	0.168
-450.938	325.457	0.073	-0.138
-449.924	-200.000	0.015	-0.070
-448.909	800.000	0.048	-0.162
-447.895	-48.467	-0.064	0.031
-446.880	-79.306	0.364	-0.123
-445.865	-200.000	0.023	-0.196
-444.851	-109.292	0.118	-0.025
-443.836	-9.593	-0.122	0.081
-442.822	496.595	-0.181	-0.416
-441.807	380.815	0.081	0.166
-440.792	800.000	-0.082	0.287
-439.778	800.000	-0.073	-0.205
-438.763	-169.303	-0.324	0.012
-437.749	-86.325	0.258	0.079
-436.734	-137.197	-0.255	0.029
-435.719	-85.919	0.148	-0.046
-434.705	-91.085	-0.372	-0.106
-433.690	-130.010	0.173	0.024
-432.676	-60.317	-0.136	-0.058
-431.661	100.197	-0.239	-0.277
-430.646	138.771	-0.042	0.055
-429.632	-200.000	0.028	-0.123
-428.617	614.584	-0.060	-0.150
-427.603	-200.000	0.075	-0.436
-426.588	800.000	0.047	-0.167
-425.573	-97.698	0.476	0.123
-424.559	800.000	-0.069	-0.216
-423.544	-200.000	0.009	-0.070
-422.530	-19.750	-0.145	0.089
-421.515	-146.936	0.188	0.016
-420.500	-99.155	-0.234	-0.059
-419.486	-200.000	0.000	-0.051
-418.471	39.372	0.162	-0.144
-417.457	40.366	0.317	0.284
-416.442	8.443	0.286	0.215
-415.428	-57.475	-0.441	0.193
-414.413	6.442	-0.076	-0.057
-413.398	-90.549	-0.435	0.126
-412.384	-23.438	-0.127	0.076
-411.369	-200.000	-0.018	0.126
-410.355	10.236	0.113	-0.085
-409.340	161.408	0.256	0.357
-408.325	136.667	0.053	0.069
-407.311	-56.824	-0.034	0.015
-406.296	-200.000	-0.007	0.107
-405.282	800.000	-0.074	-0.256
-404.267	130.166	0.111	-0.141
-403.252	397.238	0.066	-0.137
-402.238	-64.070	0.315	0.128
-401.223	19.133	-0.282	-0.225
-400.209	9.216	-0.142	-0.107
-399.194	-200.000	0.038	0.289
-398.179	-0.636	-0.137	0.097
-397.165	-14.461	0.257	0.164
-396.150	-68.190	-0.201	0.078
-395.136	-59.246	0.140	-0.060
-394.121	272.977	-0.228	0.400
-393.106	62.251	-0.181	-0.180
-392.092	-58.468	-0.111	0.048
-391.077	454.956	0.083	-0.183
-390.063	286.814	-0.108	-0.195
-389.048	-15.377	0.089	-0.057
-388.033	-200.000	-0.011	-0.253
-387.019	800.000	0.028	-0.104
-386.004	-116.843	-0.454	-0.083
-384.990	-200.000	-0.032	-0.259
-383.975	-47.121	0.113	-0.055
-382.960	-51.307	-0.191	-0.089
-381.946	657.631	-0.094	-0.240
-380.931	11.298	-0.136	0.103
-379.917	-84.363	0.292	-0.092
-378.902	43.725	-0.211	-0.192
-377.888	166.696	-0.149	-0.210
-376.873	800.000	-0.031	0.111
-375.858	800.000	-0.037	0.151
-374.844	99.170	0.147	-0.169
-373.829	-163.583	-0.226	-0.011
-372.815	55.387	-0.201	0.194
-371.800	-99.699	0.189	0.047
-370.785	-199.794	0.220	-0.001
-369.771	800.000	0.061	-0.239
-368.756	117.656	-0.211	0.259
-367.742	-4.325	0.285	-0.196
-366.727	114.192	0.098	0.118
-365.712	113.271	0.127	0.153
-364.698	-200.000	0.028	0.139
-363.683	189.024	-0.152	-0.227
-362.669	-200.000	-0.018	-0.116
-361.654	125.464	-0.054	-0.068
-360.639	179.732	-0.097	-0.141
-359.625	-64.560	-0.112	-0.045
-358.610	800.000	0.057	-0.216
-357.596	-200.000	0.021	0.322
-356.581	146.237	-0.260	0.347
-355.566	773.158	-0.049	0.134
-354.552	1.758	0.097	-0.069
-353.537	711.965	-0.094	-0.247
-352.523	-129.653	0.180	0.025
-351.508	800.000	0.051	0.209
-350.493	-112.193	-0.101	0.020
-349.479	-78.399	-0.079	-0.027
-348.464	-200.000	-0.031	-0.440
-347.450	-31.067	-0.194	-0.109
-346.435	334.052	0.081	-0.155
-345.420	-74.271	-0.135	-0.049
-344.406	-125.582	-0.500	-0.075
-343.391	800.000	0.090	0.283
-342.377	-99.705	0.296	0.074
-341.362	800.000	-0.061	0.228
-340.348	-50.847	0.075	-0.035
-339.333	113.206	0.079	0.096
-338.318	-104.066	-0.310	-0.072
-337.304	-200.000	0.005	0.070
-336.289	92.715	-0.025	-0.028
-335.275	251.314	-0.221	0.373
-334.260	-96.189	-0.155	-0.041
-333.245	56.945	-0.196	0.190
-332.231	642.861	0.097	0.246
-331.216	-116.840	-0.210	-0.038
-330.202	39.271	0.080	0.071
-329.187	-23.759	-0.024	0.014
-328.172	-200.000	-0.018	-0.285
-327.158	2.484	0.221	-0.159
-326.143	-109.690	-0.159	0.033
-325.129	46.514	0.145	0.133
-324.114	69.545	0.095	0.097
-323.099	-200.000	0.012	-0.428
-322.085	48.128	-0.255	0.237
-321.070	-142.089	0.175	0.017
-320.056	52.432	0.160	0.152
-319.041	-128.210	-0.118	0.017
-318.026	-96.525	-0.120	0.032
-317.012	-26.227	0.248	-0.145
-315.997	-148.143	0.254	0.021
-314.983	-120.577	-0.250	-0.042
-313.968	-101.288	-0.040	-0.010
-312.953	251.562	0.172	-0.290
-311.939	800.000	-0.167	-0.488
-310.924	-200.000	-0.074	0.428
-309.910	45.556	-0.104	-0.096
-308.895	800.000	0.013	-0.037
-307.880	183.960	0.064	0.093
-306.866	631.455	0.043	0.108
-305.851	16.077	-0.228	-0.178
-304.837	-107.204	0.380	0.083
-303.822	-62.447	0.138	-0.057
-302.807	116.251	-0.026	-0.031
-301.793	800.000	0.075	-0.265
-300.778	124.176	-0.071	-0.088
-299.764	-5.763	-0.112	-0.076
-298.749	-200.000	0.008	0.141
-297.735	-39.535	-0.245	-0.127
-296.720	-21.308	0.337	-0.204
-295.705	-50.168	-0.051	0.024
-294.691	34.668	0.115	-0.100
-293.676	-88.550	-0.347	0.103
-292.662	-61.791	0.069	-0.028
-291.647	-95.746	0.188	0.050
-290.632	250.459	-0.134	-0.225
-289.618	304.177	-0.334	0.615
-288.603	225.627	0.061	0.098
-287.589	396.932	-0.133	0.275
-286.574	-50.076	-0.093	0.044
-285.559	3.970	-0.208	-0.151
-284.545	800.000	0.090	0.275
-283.530	-172.520	-0.272	-0.009
-282.516	-200.000	0.024	0.161
-281.501	-91.958	-0.299	-0.084
-280.486	69.296	-0.196	-0.200
-279.472	-60.645	0.302	-0.127
-278.457	115.085	-0.112	-0.136
-277.443	22.853	0.096	-0.078
-276.428	175.018	-0.182	0.262
-275.413	-200.000	0.004	0.179
-274.399	-141.286	0.131	-0.013
-273.384	656.840	0.085	-0.217
-272.370	-72.578	0.152	-0.055
-271.355	103.376	0.218	0.253
-270.340	-102.827	-0.290	0.068
-269.326	-200.000	-0.033	-0.275
-268.311	-200.000	-0.042	-0.267
-267.297	475.438	0.072	-0.161
-266.282	116.989	-0.101	-0.123
-265.267	-44.461	-0.231	-0.115
-264.253	-36.637	0.100	0.053
-263.238	179.615	0.154	0.223
-262.224	505.365	-0.129	-0.297
-261.209	-114.767	-0.347	0.066
-260.195	-200.000	-0.003	-0.094
-259.180	-71.782	0.338	0.125
-258.165	-93.756	0.368	-0.100
-257.151	392.854	-0.058	-0.119
-256.136	173.870	-0.063	0.091
-255.122	-169.846	0.161	0.006
-254.107	-69.128	0.165	-0.063
-253.092	124.395	-0.086	-0.107
-252.078	472.509	-0.138	0.308
-251.063	137.122	0.283	-0.366
-250.049	-146.889	0.373	0.032
-249.034	-46.549	-0.316	0.153
-248.019	-31.895	-0.298	0.166
-247.005	-74.971	0.364	-0.129
-245.990	-71.007	0.223	0.083
-244.976	0.038	0.046	0.032
-243.961	-200.000	-0.010	0.389
-242.946	194.837	0.005	0.008
-241.932	116.720	-0.177	0.215
-240.917	-34.879	-0.231	0.125
-239.903	-200.000	-0.061	0.335
-238.888	203.903	0.227	-0.348
-237.873	139.776	0.279	-0.364
-236.859	55.553	0.177	-0.169
-235.844	-200.000	-0.008	-0.087
-234.830	800.000	0.019	0.056
-233.815	-107.979	-0.047	0.010
-232.800	84.223	-0.165	-0.178
-231.786	-4.403	0.280	0.192
-230.771	-200.000	0.010	-0.065
-229.757	800.000	0.060	0.183
-228.742	248.539	-0.118	-0.198
-227.727	317.473	0.053	0.099
-226.713	210.708	0.122	-0.190
-225.698	656.299	-0.115	-0.293
-224.684	-89.687	-0.312	-0.090
-223.669	-200.000	0.023	-0.262
-222.655	800.000	0.095	-0.279
-221.640	-5.611	0.141	-0.096
-220.625	-48.160	0.305	-0.146
-219.611	4.874	-0.294	0.214
-218.596	-40.192	0.243	-0.125
-217.582	93.305	0.066	0.074
-216.567	-200.000	0.028	0.183
-215.552	-128.056	-0.190	-0.027
-214.538	-49.196	0.133	-0.063
-213.523	161.257	0.041	0.057
-212.509	-18.515	-0.214	0.132
-211.494	19.694	-0.269	-0.214
-210.479	-16.602	0.229	0.143
-209.465	-200.000	-0.067	0.293
-208.450	-200.000	0.033	0.229
-207.436	-200.000	-0.026	0.209
-206.421	95.229	0.161	-0.181
-205.406	114.656	-0.115	-0.138
-204.392	-200.000	-0.039	0.472
-203.377	87.469	0.137	0.150
-202.363	-20.582	0.086	0.052
-201.348	-151.407	0.290	-0.021
-200.333	-6.402	0.186	-0.125
-199.319	89.132	0.215	0.236
-198.304	193.970	-0.046	0.069
-197.290	-44.008	0.329	-0.163
-196.275	-30.122	-0.090	-0.050
-195.260	-148.018	0.112	-0.009
-194.246	19.063	-0.121	-0.096
-193.231	97.301	0.148	-0.168
-192.217	399.249	-0.082	-0.169
-191.202	-109.440	0.170	-0.036
-190.187	-200.000	-0.046	0.417
-189.173	63.496	0.168	-0.167
-188.158	-200.000	0.014	-0.100
-187.144	-140.454	0.205	0.021
-186.129	-200.000	0.038	-0.308
-185.114	-131.706	0.175	-0.023
-184.100	-7.659	-0.066	-0.044
-183.085	-143.141	-0.259	-0.025
-182.071	-105.799	0.192	-0.043
-181.056	-200.000	0.030	0.226
-180.042	9.964	-0.099	-0.075
-179.027	312.060	0.037	-0.068
-178.012	-19.212	-0.149	0.091
-176.998	155.912	-0.068	0.093
-175.983	800.000	0.055	0.209
-174.969	800.000	-0.036	0.122
-173.954	-117.936	-0.363	-0.064
-172.939	-155.793	-0.285	0.018
-171.925	117.540	-0.141	0.171
-170.910	45.600	-0.133	0.122
-169.896	-200.000	-0.035	-0.324
-168.881	313.305	-0.070	-0.130
-167.866	-200.000	0.080	0.426
-166.852	5.169	0.401	0.291
-165.837	52.476	0.058	0.054
-164.823	56.862	0.196	-0.188
-163.808	506.455	-0.074	-0.170
-162.793	-200.000	-0.001	-0.071
-161.779	281.557	0.115	0.203
-160.764	105.121	0.080	-0.093
-159.750	155.618	0.099	-0.135
-158.735	800.000	-0.162	-0.487
-157.720	-200.000	0.033	-0.154
-156.706	-56.625	-0.319	-0.140
-155.691	-21.848	0.375	-0.225
-154.677	160.118	-0.099	-0.136
-153.662	800.000	-0.049	-0.178
-152.647	44.736	-0.025	-0.023
-151.633	800.000	-0.126	0.408
-150.618	-9.939	0.256	-0.168
-149.604	162.844	0.075	-0.104
-148.589	-91.501	-0.432	-0.121
-147.574	-63.473	-0.289	-0.117
-146.560	-200.000	-0.029	-0.137
-145.545	149.811	0.201	-0.269
-144.531	8.196	-0.148	0.109
-143.516	24.704	0.016	0.013
-142.502	-61.038	-0.029	-0.012
-141.487	54.854	0.066	-0.063
-140.472	-48.062	-0.215	-0.102
-139.458	-200.000	-0.035	0.393
-138.443	132.685	-0.189	0.241
-137.429	800.000	0.070	0.240
-136.414	50.055	0.072	-0.067
-135.399	-113.501	0.387	0.075
-134.385	149.851	0.034	0.045
-133.370	-200.000	-0.022	0.108
-132.356	-121.557	-0.191	-0.031
-131.341	288.633	0.137	0.245
-130.326	-124.621	-0.241	0.037
-129.312	-112.644	0.080	0.016
-128.297	-14.869	0.170	-0.107
-127.283	31.181	0.162	0.137
-126.268	24.240	-0.096	-0.078
-125.253	82.151	0.108	0.115
-124.239	800.000	0.013	-0.036
-123.224	67.346	-0.181	0.182
-122.210	409.645	-0.026	0.055
-121.195	-200.000	-0.010	0.237
