DTS Sentinel unit serial number:	SN413079Multiplexer serial number:	ORYXHardware model number:	OX4-SRSoftware version number:	ORYX F/W v4.00 Oryx Data Collector v3.7.2.0data status	okinstallation	princeton_trtdifferential loss correction	single-endedforward channel	channel 2reverse channel	N/Adate	2019/09/13time	17:35:35forward acquisition time	60.00reverse acquisition time	0.00gamma	496.2192k internal	0.2314k external	0.2314temperature offset calibration	1.0215default loss term (dB/km)	0.3790temperature slope calibration	1.0000multiplexer offset coefficient	1.0000multiplexer slope coefficient	1.0000fibre end	0.00T internal ref (°C)	36.00T ext. ref 1 (°C)	5.39T ext. ref 2 (°C)	29.05length (m)	temperature (°C)	Stokes	anti-Stokes-747.200	251.548	-0.030	-0.052
-746.185	-191.212	0.200	-0.002
-745.171	-87.946	0.267	0.081
-744.156	-200.000	-0.025	0.336
-743.142	204.019	0.135	-0.212
-742.127	37.138	0.350	0.314
-741.112	-136.241	-0.141	0.017
-740.098	800.000	-0.044	0.148
-739.083	-98.945	-0.206	0.053
-738.069	457.417	-0.167	0.376
-737.054	135.679	0.067	0.088
-736.039	6.731	0.212	-0.160
-735.025	-200.000	-0.012	0.207
-734.010	-200.000	0.084	-0.485
-732.996	4.078	-0.152	-0.112
-731.981	-75.906	0.156	0.056
-730.966	-105.078	-0.252	0.058
-729.952	-139.236	-0.269	0.029
-728.937	-135.903	-0.372	0.044
-727.923	98.695	0.114	-0.134
-726.908	26.246	-0.164	0.139
-725.894	-40.132	-0.391	-0.206
-724.879	-200.000	-0.052	0.235
-723.864	-154.282	-0.143	-0.010
-722.850	110.815	0.099	0.120
-721.835	-200.000	0.000	-0.256
-720.821	-182.224	-0.287	-0.005
-719.806	-37.019	-0.127	0.069
-718.791	-200.000	-0.017	-0.097
-717.777	20.551	-0.089	0.073
-716.762	-97.626	-0.023	-0.006
-715.748	-200.000	-0.047	-0.233
-714.733	214.230	-0.232	-0.372
-713.718	-200.000	0.003	-0.070
-712.704	-78.302	0.360	-0.125
-711.689	221.350	-0.123	0.201
-710.675	-200.000	-0.031	-0.213
-709.660	35.238	0.053	-0.047
-708.645	-41.611	0.296	-0.154
-707.631	-95.842	-0.264	0.071
-706.616	246.704	0.051	-0.086
-705.602	541.371	0.127	-0.307
-704.587	-93.560	-0.429	-0.120
-703.572	34.273	0.224	-0.198
-702.558	151.596	0.152	0.209
-701.543	178.882	0.179	-0.264
-700.529	-1.652	-0.104	0.074
-699.514	135.574	0.101	0.133
-698.499	286.242	-0.113	-0.206
-697.485	-172.802	0.009	0.000
-696.470	270.572	0.207	0.369
-695.456	-200.000	0.054	0.299
-694.441	-56.813	-0.221	0.099
-693.426	-25.279	-0.213	0.127
-692.412	37.009	-0.339	-0.303
-691.397	254.403	-0.066	-0.114
-690.383	-89.628	0.158	-0.047
-689.368	-14.764	-0.187	-0.121
-688.354	-20.435	-0.051	-0.032
-687.339	-51.434	-0.201	-0.095
-686.324	-150.281	0.244	-0.019
-685.310	-66.303	-0.025	-0.010
-684.295	59.754	-0.288	-0.287
-683.281	9.468	0.330	-0.253
-682.266	-103.153	-0.363	0.087
-681.251	-68.845	0.106	0.042
-680.237	346.360	0.037	0.074
-679.222	16.027	0.304	0.242
-678.208	-200.000	0.008	0.067
-677.193	-40.921	-0.191	0.100
-676.178	-191.301	-0.322	0.003
-675.164	-79.483	-0.237	0.081
-674.149	-200.000	0.000	0.155
-673.135	45.639	0.247	0.230
-672.120	-95.200	-0.070	0.019
-671.105	-200.000	-0.065	0.323
-670.091	-38.306	-0.224	-0.120
-669.076	44.666	0.063	-0.058
-668.062	515.014	0.158	-0.373
-667.047	-200.000	-0.054	-0.417
-666.032	-10.907	-0.511	-0.341
-665.018	-89.931	-0.248	0.073
-664.003	-33.326	0.230	0.128
-662.989	-113.894	-0.306	0.060
-661.974	-90.589	0.114	-0.033
-660.959	12.062	-0.264	-0.205
-659.945	-171.869	-0.168	0.006
-658.930	-200.000	0.002	-0.043
-657.916	756.716	-0.091	0.249
-656.901	-130.789	-0.344	0.047
-655.886	-29.341	-0.079	0.046
-654.872	10.157	-0.196	0.151
-653.857	12.641	-0.287	0.224
-652.843	-74.413	-0.188	0.068
-651.828	-43.325	-0.031	0.016
-650.814	-200.000	0.062	-0.489
-649.799	-200.000	-0.053	-0.239
-648.784	-69.785	0.240	0.093
-647.770	-36.677	0.386	0.209
-646.755	-39.053	0.295	-0.156
-645.741	475.054	0.138	0.314
-644.726	-124.741	-0.366	-0.057
-643.711	-22.051	-0.022	-0.014
-642.697	219.273	-0.127	-0.205
-641.682	253.626	0.170	-0.294
-640.668	-84.747	-0.141	-0.045
-639.653	-99.591	-0.411	0.104
-638.638	-200.000	0.001	-0.146
-637.624	-66.763	-0.101	0.040
-636.609	800.000	-0.039	-0.158
-635.595	35.057	-0.113	-0.100
-634.580	-145.423	0.042	0.004
-633.565	-19.829	-0.235	0.146
-632.551	-98.405	-0.057	0.015
-631.536	52.711	-0.108	0.104
-630.522	-62.741	0.083	-0.035
-629.507	800.000	-0.082	-0.331
-628.492	-67.048	-0.244	0.097
-627.478	566.683	-0.088	0.216
-626.463	-78.928	0.161	-0.055
-625.449	-200.000	0.010	0.140
-624.434	-200.000	-0.049	-0.366
-623.419	14.546	0.152	-0.119
-622.405	-200.000	0.047	-0.230
-621.390	-200.000	-0.024	0.200
-620.376	-200.000	0.015	0.171
-619.361	-200.000	-0.023	0.293
-618.346	-35.102	-0.193	0.106
-617.332	77.496	-0.204	0.219
-616.317	800.000	0.096	0.289
-615.303	-1.901	0.230	-0.163
-614.288	618.912	0.082	-0.208
-613.273	476.914	-0.166	0.379
-612.259	-43.648	0.087	0.044
-611.244	82.179	-0.170	-0.186
-610.230	800.000	0.119	-0.473
-609.215	170.303	0.199	-0.286
-608.201	800.000	-0.089	0.300
-607.186	-23.782	-0.225	-0.136
-606.171	106.295	0.137	0.164
-605.157	49.147	-0.106	-0.101
-604.142	76.484	-0.457	0.488
-603.128	606.243	-0.093	-0.233
-602.113	800.000	0.007	0.021
-601.098	409.352	0.094	-0.201
-600.084	-105.607	0.162	-0.037
-599.069	10.943	-0.072	0.055
-598.055	128.753	0.110	0.141
-597.040	-200.000	-0.024	-0.173
-596.025	-142.456	-0.229	-0.023
-595.011	-200.000	0.022	-0.142
-593.996	-44.758	-0.133	-0.067
-592.982	93.226	-0.277	0.316
-591.967	-85.077	0.103	0.032
-590.952	100.723	-0.159	-0.186
-589.938	-188.137	0.599	-0.008
-588.923	182.676	-0.153	0.227
-587.909	-80.630	0.125	-0.042
-586.894	800.000	-0.123	-0.444
-585.879	80.876	-0.062	0.067
-584.865	-200.000	-0.036	-0.462
-583.850	-200.000	0.032	-0.245
-582.836	-155.025	-0.176	-0.012
-581.821	-200.000	0.016	-0.182
-580.806	107.116	-0.234	-0.280
-579.792	-177.855	0.319	0.008
-578.777	44.653	0.287	0.266
-577.763	-31.938	-0.245	-0.138
-576.748	609.084	0.099	-0.250
-575.733	-166.962	0.291	-0.012
-574.719	-200.000	0.019	-0.129
-573.704	-47.568	0.067	0.033
-572.690	-55.157	-0.209	0.095
-571.675	-181.146	-0.126	0.003
-570.661	-200.000	0.025	0.116
-569.646	800.000	-0.118	-0.519
-568.631	38.240	-0.078	-0.070
-567.617	-200.000	0.013	-0.069
-566.602	25.783	0.243	0.204
-565.588	-102.562	0.231	0.056
-564.573	-200.000	0.025	-0.115
-563.558	172.131	-0.038	-0.055
-562.544	-148.565	-0.414	0.034
-561.529	-195.926	0.146	-0.001
-560.515	-200.000	-0.033	-0.164
-559.500	-16.728	-0.380	-0.242
-558.485	30.331	-0.158	0.136
-557.471	-45.492	0.052	0.026
-556.456	-72.833	-0.291	-0.108
-555.442	-84.221	-0.158	0.050
-554.427	-200.000	-0.008	0.040
-553.412	-117.716	0.213	0.039
-552.398	47.806	0.178	-0.168
-551.383	-100.310	0.122	0.030
-550.369	7.483	0.129	-0.097
-549.354	80.122	0.417	0.451
-548.339	15.747	-0.108	-0.086
-547.325	-0.870	0.238	-0.170
-546.310	-81.875	0.190	-0.063
-545.296	800.000	0.051	0.153
-544.281	800.000	0.056	-0.196
-543.266	494.921	0.060	-0.138
-542.252	-119.309	0.126	-0.022
-541.237	170.932	0.065	0.093
-540.223	126.127	0.134	0.170
-539.208	-93.180	-0.237	-0.066
-538.193	44.524	-0.206	-0.190
-537.179	47.239	-0.314	0.294
-536.164	-96.597	0.199	0.053
-535.150	800.000	-0.064	-0.240
-534.135	-162.427	-0.457	-0.023
-533.121	12.024	-0.109	-0.084
-532.106	-200.000	0.019	0.232
-531.091	-200.000	-0.103	-0.490
-530.077	636.933	0.029	-0.075
-529.062	-168.487	-0.216	-0.008
-528.048	57.911	-0.226	-0.223
-527.033	800.000	-0.027	-0.086
-526.018	417.963	-0.118	0.254
-525.004	32.489	-0.279	0.243
-523.989	-200.000	-0.023	0.153
-522.975	-151.817	0.115	0.008
-521.960	-97.349	0.202	0.053
-520.945	-6.742	-0.219	0.150
-519.931	800.000	-0.033	-0.104
-518.916	303.620	-0.102	-0.191
-517.902	3.396	-0.105	-0.077
-516.887	-200.000	-0.020	0.150
-515.872	332.417	0.103	-0.199
-514.858	223.492	-0.040	0.065
-513.843	122.400	0.194	-0.243
-512.829	-74.747	-0.561	-0.203
-511.814	-81.726	-0.401	-0.132
-510.799	694.783	0.144	-0.379
-509.785	-17.495	-0.340	-0.215
-508.770	37.598	-0.124	-0.111
-507.756	-200.000	-0.015	-0.132
-506.741	-115.196	-0.108	-0.021
-505.726	123.993	-0.153	0.193
-504.712	-200.000	-0.029	-0.138
-503.697	-126.102	0.165	-0.025
-502.683	23.051	0.190	0.157
-501.668	-44.346	0.030	0.015
-500.653	-75.192	0.232	-0.083
-499.639	92.760	-0.153	0.174
-498.624	256.130	0.077	0.133
-497.610	800.000	-0.053	0.233
-496.595	-91.907	0.250	-0.071
-495.581	-88.984	0.108	-0.032
-494.566	39.636	0.154	0.139
-493.551	-97.420	0.279	0.073
-492.537	-36.241	-0.234	-0.127
-491.522	-20.995	-0.189	0.116
-490.508	-12.919	-0.453	-0.296
-489.493	755.790	0.073	0.198
-488.478	-72.656	-0.238	0.088
-487.464	208.635	0.182	-0.286
-486.449	29.141	-0.359	-0.305
-485.435	-45.630	0.265	-0.131
-484.420	48.792	0.104	0.097
-483.405	485.058	0.121	-0.276
-482.391	-194.449	-0.055	0.000
-481.376	560.342	-0.120	-0.292
-480.362	-162.072	0.273	0.014
-479.347	-75.644	0.167	0.059
-478.332	800.000	-0.056	0.170
-477.318	-158.466	-0.073	-0.004
-476.303	-102.292	0.073	0.017
-475.289	663.501	0.083	-0.215
-474.274	233.328	0.047	-0.077
-473.259	30.412	0.120	-0.103
-472.245	159.678	0.056	0.079
-471.230	-57.830	-0.325	-0.142
-470.216	-200.000	0.025	0.166
-469.201	-144.179	-0.091	-0.009
-468.186	800.000	-0.085	-0.271
-467.172	800.000	0.118	0.332
-466.157	800.000	0.053	-0.189
-465.143	-33.172	-0.194	-0.108
-464.128	-200.000	0.039	-0.219
-463.113	-119.495	-0.268	0.047
-462.099	-110.844	-0.064	-0.013
-461.084	112.540	-0.073	-0.089
-460.070	-200.000	-0.024	-0.145
-459.055	-108.783	0.190	0.041
-458.040	-104.047	0.323	0.075
-457.026	-20.201	0.098	-0.061
-456.011	-121.653	-0.189	0.031
-454.997	-99.684	0.242	-0.061
-453.982	65.117	0.186	0.189
-452.968	-159.069	-0.124	0.007
-451.953	243.737	0.129	0.217
-450.938	56.485	0.083	0.080
-449.924	-25.351	-0.163	0.097
-448.909	322.687	-0.082	-0.156
-447.895	-200.000	0.039	-0.467
-446.880	70.971	0.093	-0.097
-445.865	-107.391	-0.248	0.055
-444.851	13.364	0.387	0.300
-443.836	12.660	0.255	0.197
-442.822	675.562	-0.098	0.254
-441.807	265.727	0.111	0.194
-440.792	53.423	0.214	0.206
-439.778	314.909	-0.128	-0.241
-438.763	31.412	-0.087	0.075
-437.749	800.000	-0.038	0.155
-436.734	-200.000	0.018	-0.144
-435.719	-200.000	-0.005	0.068
-434.705	-115.881	0.336	0.063
-433.690	-200.000	0.006	-0.045
-432.676	-75.566	0.126	-0.045
-431.661	389.419	0.058	-0.120
-430.646	-4.291	-0.134	-0.093
-429.632	176.004	0.145	0.210
-428.617	-200.000	0.041	-0.312
-427.603	-151.874	0.382	0.028
-426.588	544.358	-0.108	0.259
-425.573	112.301	0.207	0.251
-424.559	-191.438	-0.302	-0.003
-423.544	103.963	0.191	-0.224
-422.530	800.000	0.092	0.263
-421.515	-200.000	-0.003	-0.424
-420.500	-200.000	-0.025	-0.156
-419.486	150.540	-0.013	-0.018
-418.471	800.000	0.107	0.372
-417.457	36.074	0.021	0.019
-416.442	153.562	-0.099	-0.135
-415.428	-200.000	0.003	0.299
-414.413	-53.289	0.184	0.084
-413.398	188.461	-0.124	0.186
-412.384	199.609	0.062	0.095
-411.369	36.282	0.138	-0.122
-410.355	-47.177	0.148	-0.072
-409.340	16.252	0.243	-0.192
-408.325	-200.000	-0.029	0.218
-407.311	-200.000	-0.057	0.388
-406.296	32.021	0.153	-0.132
-405.282	-200.000	0.010	0.432
-404.267	223.688	0.158	0.254
-403.252	-200.000	0.044	0.237
-402.238	618.616	0.134	-0.338
-401.223	-200.000	0.039	0.226
-400.209	-200.000	0.042	0.000
-399.194	-84.457	-0.142	-0.045
-398.179	314.314	0.124	0.233
-397.165	-200.000	-0.057	0.322
-396.150	49.674	0.064	-0.060
-395.136	-42.463	0.507	0.258
-394.121	108.019	0.273	-0.325
-393.106	800.000	0.010	-0.034
-392.092	-147.182	0.041	0.003
-391.077	-200.000	0.032	0.189
-390.063	-118.527	-0.215	-0.038
-389.048	60.292	-0.295	-0.292
-388.033	-12.130	0.079	-0.051
-387.019	10.443	0.050	-0.038
-386.004	-23.983	0.037	0.022
-384.990	-200.000	0.056	0.306
-383.975	-88.512	0.161	0.048
-382.960	-103.798	-0.469	0.110
-381.946	-20.884	-0.276	0.169
-380.931	15.701	0.098	0.077
-379.917	472.171	0.150	0.338
-378.902	-200.000	0.017	0.209
-377.888	88.048	-0.213	-0.236
-376.873	-77.442	0.176	0.061
-375.858	-200.000	-0.008	-0.346
-374.844	2.183	0.250	0.181
-373.829	-200.000	0.028	0.211
-372.815	-200.000	-0.043	-0.335
-371.800	800.000	-0.024	0.087
-370.785	10.336	0.076	-0.058
-369.771	800.000	-0.032	0.111
-368.756	14.026	-0.062	-0.048
-367.742	-200.000	-0.061	-0.294
-366.727	81.048	0.237	0.256
-365.712	-200.000	-0.001	0.271
-364.698	-200.000	-0.043	0.211
-363.683	612.040	0.086	0.216
-362.669	-200.000	-0.011	-0.133
-361.654	57.975	0.067	-0.065
-360.639	426.198	-0.154	0.332
-359.625	-200.000	0.030	0.165
-358.610	-181.450	-0.304	-0.006
-357.596	20.933	-0.068	0.055
-356.581	-53.599	0.094	0.043
-355.566	213.787	0.135	-0.213
-354.552	-200.000	0.017	-0.151
-353.537	-80.885	0.188	0.062
-352.523	66.751	0.084	-0.086
-351.508	-70.106	-0.406	-0.154
-350.493	104.089	0.116	0.136
-349.479	-200.000	-0.004	-0.144
-348.464	-164.413	0.133	0.006
-347.450	56.391	0.134	-0.130
-346.435	84.523	0.135	-0.148
-345.420	58.235	0.109	-0.107
-344.406	85.567	-0.140	0.153
-343.391	-200.000	0.019	-0.100
-342.377	-19.392	-0.221	-0.137
-341.362	300.115	0.064	-0.119
-340.348	-200.000	-0.026	0.241
-339.333	-72.643	0.263	0.097
-338.318	-53.321	-0.275	-0.126
-337.304	-78.209	0.232	0.079
-336.289	-200.000	0.039	0.268
-335.275	-200.000	0.048	-0.502
-334.260	-148.551	0.184	-0.015
-333.245	-200.000	-0.004	0.500
-332.231	-7.734	0.255	-0.172
-331.216	-156.921	-0.442	0.027
-330.202	24.100	-0.105	0.086
-329.187	800.000	0.062	0.271
-328.172	55.905	-0.181	0.175
-327.158	135.723	-0.158	0.205
-326.143	-200.000	-0.171	0.000
-325.129	-140.378	-0.250	-0.026
-324.114	103.384	-0.276	0.323
-323.099	800.000	0.068	0.230
-322.085	269.613	-0.070	-0.123
-321.070	115.474	0.132	-0.161
-320.056	800.000	-0.067	0.276
-319.041	-69.037	0.036	-0.014
-318.026	-69.388	-0.314	-0.120
-317.012	-36.292	0.111	0.060
-315.997	-200.000	0.007	-0.119
-314.983	800.000	-0.090	-0.324
-313.968	18.705	0.239	0.191
-312.953	-54.970	0.060	0.027
-311.939	-70.099	-0.067	-0.025
-310.924	-52.648	-0.136	-0.063
-309.910	420.642	-0.100	-0.213
-308.895	254.629	-0.111	-0.190
-307.880	800.000	-0.078	0.248
-306.866	-98.387	-0.370	0.094
-305.851	-56.790	-0.222	0.098
-304.837	-200.000	-0.027	0.211
-303.822	-200.000	-0.017	0.414
-302.807	-38.932	0.146	-0.076
-301.793	306.909	-0.149	-0.276
-300.778	800.000	0.038	-0.118
-299.764	800.000	0.034	0.131
-298.749	-200.000	-0.014	0.153
-297.735	64.106	0.276	0.277
-296.720	310.489	-0.082	0.152
-295.705	427.328	-0.030	0.064
-294.691	-135.898	0.315	-0.037
-293.676	800.000	-0.077	-0.308
-292.662	335.123	0.152	-0.293
-291.647	-174.621	-0.418	-0.012
-290.632	-103.011	0.439	0.104
-289.618	304.473	-0.096	0.177
-288.603	800.000	0.069	0.264
-287.589	-135.918	0.319	-0.037
-286.574	113.155	0.160	0.193
-285.559	-149.089	0.297	0.024
-284.545	800.000	-0.067	-0.286
-283.530	-27.103	-0.256	0.149
-282.516	249.002	0.117	-0.197
-281.501	-200.000	-0.014	-0.129
-280.486	-85.593	-0.219	-0.068
-279.472	-200.000	0.022	-0.369
-278.457	-113.828	0.324	0.063
-277.443	-130.594	0.189	-0.025
-276.428	136.728	-0.053	0.069
-275.413	41.671	0.065	0.058
-274.399	-12.554	0.069	0.045
-273.384	800.000	-0.077	0.320
-272.370	35.723	0.209	0.183
-271.355	-125.190	-0.151	0.023
-270.340	180.305	-0.083	0.121
-269.326	800.000	-0.137	0.443
-268.311	-111.117	0.177	-0.036
-267.297	800.000	-0.078	-0.251
-266.282	-200.000	-0.056	0.313
-265.267	-152.156	-0.158	0.011
-264.253	36.012	-0.226	-0.198
-263.238	-44.785	0.116	-0.058
-262.224	409.027	0.097	0.204
-261.209	-200.000	-0.017	0.497
-260.195	23.216	0.121	0.099
-259.180	68.158	0.252	-0.256
-258.165	-200.000	-0.040	-0.350
-257.151	-28.649	-0.275	0.157
-256.136	-200.000	-0.068	0.371
-255.122	-87.869	0.038	-0.011
-254.107	800.000	-0.057	0.176
-253.092	800.000	-0.103	-0.417
-252.078	727.100	-0.084	0.224
-251.063	-200.000	-0.018	-0.428
-250.049	75.084	0.112	-0.117
-249.034	22.014	-0.073	0.059
-248.019	52.436	-0.078	-0.074
-247.005	-84.134	0.218	-0.069
-245.990	700.129	0.123	0.321
-244.976	-86.142	-0.185	-0.057
-243.961	-200.000	-0.014	-0.240
-242.946	-30.245	0.132	0.074
-241.932	-115.229	0.076	0.014
-240.917	-137.441	0.272	-0.031
-239.903	-59.594	-0.029	-0.013
-238.888	-86.658	0.305	-0.093
-237.873	-45.479	0.292	0.144
-236.859	-40.461	-0.188	0.097
-235.844	-103.858	-0.106	-0.025
-234.830	-200.000	-0.030	0.253
-233.815	800.000	0.044	0.137
-232.800	-90.396	-0.079	-0.023
-231.786	-70.777	0.039	-0.015
-230.771	281.276	-0.204	-0.363
-229.757	257.269	0.220	0.376
-228.742	-29.346	-0.250	-0.142
-227.727	57.898	0.049	0.048
-226.713	50.254	0.127	-0.120
-225.698	211.013	-0.087	0.136
-224.684	-164.128	-0.252	-0.012
-223.669	-40.414	0.176	0.091
-222.655	-51.985	0.081	-0.037
-221.640	-94.049	0.081	0.022
-220.625	-63.976	0.361	-0.147
-219.611	-49.077	-0.296	-0.141
-218.596	-53.545	0.431	-0.196
-217.582	699.708	0.245	-0.639
-216.567	-71.794	0.063	-0.023
-215.552	-185.987	0.593	-0.009
-214.538	24.533	0.042	0.034
-213.523	37.487	0.150	0.132
-212.509	-200.000	-0.054	-0.410
-211.494	46.447	-0.159	-0.146
-210.479	-37.921	0.196	0.104
-209.465	-145.829	-0.249	0.022
-208.450	3.304	-0.072	-0.052
-207.436	177.175	0.039	-0.056
-206.421	26.324	-0.026	0.022
-205.406	554.345	-0.081	0.193
-204.392	-20.841	-0.228	0.139
-203.377	-70.158	-0.239	-0.090
-202.363	305.781	-0.172	-0.317
-201.348	624.488	-0.063	-0.157
-200.333	-112.066	0.316	-0.063
-199.319	287.079	-0.125	-0.224
-198.304	-4.329	-0.070	0.048
-197.290	66.712	0.245	0.248
-196.275	-126.179	0.153	-0.023
-195.260	-200.000	-0.010	0.091
-194.246	-97.669	0.266	0.069
-193.231	-200.000	0.069	-0.413
-192.217	-36.750	0.147	-0.078
-191.202	-31.760	-0.205	0.114
-190.187	-130.915	-0.266	0.035
-189.173	37.174	-0.027	0.023
-188.158	75.243	0.220	0.230
-187.144	-44.735	0.232	0.115
-186.129	-200.000	0.007	-0.207
-185.114	-112.934	0.077	0.015
-184.100	19.701	-0.101	0.080
-183.085	255.114	0.071	-0.121
-182.071	-99.674	0.141	-0.035
-181.056	-3.324	-0.095	-0.065
-180.042	-200.000	0.029	0.198
-179.027	-200.000	0.004	0.213
-178.012	122.157	-0.022	-0.027
-176.998	-200.000	-0.034	0.506
-175.983	51.463	-0.100	0.094
-174.969	-154.008	-0.260	0.018
-173.954	63.622	-0.094	0.093
-172.939	800.000	0.024	0.070
-171.925	1.936	0.304	0.217
-170.910	800.000	-0.062	-0.184
-169.896	16.418	0.083	-0.065
-168.881	-62.447	0.113	0.046
-167.866	-200.000	-0.000	-0.063
-166.852	-200.000	-0.035	0.155
-165.837	-84.420	0.052	0.016
-164.823	-139.808	-0.311	-0.033
-163.808	5.131	-0.162	-0.118
-162.793	-200.000	0.025	-0.255
-161.779	502.002	-0.110	-0.252
-160.764	107.174	0.046	0.054
-159.750	-111.237	-0.231	-0.047
-158.735	154.234	-0.169	0.229
-157.720	-200.000	-0.033	-0.194
-156.706	-89.171	-0.253	-0.074
-155.691	-169.253	-0.259	0.009
-154.677	800.000	-0.151	0.426
-153.662	-35.846	0.031	0.016
-152.647	318.819	-0.084	-0.158
-151.633	800.000	-0.039	0.128
-150.618	36.892	-0.266	0.233
-149.604	-50.783	-0.178	0.083
-148.589	-27.255	-0.181	0.104
-147.574	321.293	-0.123	-0.231
-146.560	36.677	-0.054	0.048
-145.545	65.969	0.173	0.174
-144.531	-157.024	0.129	-0.008
-143.516	-28.187	0.133	0.076
-142.502	178.312	0.043	-0.062
-141.487	114.655	-0.071	0.086
-140.472	138.752	0.336	0.437
-139.458	182.951	-0.008	-0.011
-138.443	-140.744	-0.529	0.054
-137.429	186.923	-0.128	0.188
-136.414	-0.633	0.105	0.073
-135.399	-65.613	-0.521	-0.207
-134.385	-117.299	-0.138	-0.025
-133.370	-20.653	-0.245	0.149
-132.356	140.878	-0.048	-0.063
-131.341	-21.713	-0.185	-0.112
-130.326	-70.284	-0.292	0.110
-129.312	171.451	-0.180	0.256
-128.297	-50.840	0.319	-0.148
-127.283	-73.014	-0.347	0.126
-126.268	-155.461	0.217	0.014
-125.253	441.558	-0.111	0.241
-124.239	716.537	0.033	0.088
-123.224	800.000	-0.077	0.239
-122.210	-200.000	0.025	0.187
-121.195	46.139	-0.198	-0.182
