DTS Sentinel unit serial number:	SN413079Multiplexer serial number:	ORYXHardware model number:	OX4-SRSoftware version number:	ORYX F/W v4.00 Oryx Data Collector v3.7.2.0data status	okinstallation	princeton_trtdifferential loss correction	single-endedforward channel	channel 2reverse channel	N/Adate	2019/09/18time	07:47:35forward acquisition time	60.00reverse acquisition time	0.00gamma	496.2192k internal	0.2349k external	0.2349temperature offset calibration	0.9980default loss term (dB/km)	0.3790temperature slope calibration	1.0000multiplexer offset coefficient	1.0000multiplexer slope coefficient	1.0000fibre end	0.00T internal ref (°C)	23.33T ext. ref 1 (°C)	0.20T ext. ref 2 (°C)	18.77length (m)	temperature (°C)	Stokes	anti-Stokes-747.200	800.000	0.067	-0.203
-746.185	-200.000	-0.021	0.184
-745.171	-57.860	0.265	0.116
-744.156	-122.233	-0.266	0.043
-743.142	34.753	0.214	-0.187
-742.127	158.487	-0.278	-0.385
-741.112	-86.634	0.107	0.033
-740.098	-133.862	-0.191	0.024
-739.083	19.681	-0.044	0.035
-738.069	101.021	0.127	0.148
-737.054	-100.639	-0.192	-0.047
-736.039	184.921	0.189	-0.279
-735.025	-155.733	0.223	0.014
-734.010	157.793	-0.162	-0.224
-732.996	305.039	-0.167	0.309
-731.981	207.778	-0.224	-0.349
-730.966	-0.196	0.215	0.153
-729.952	-158.083	0.159	0.009
-728.937	800.000	-0.089	0.340
-727.923	-70.178	-0.345	0.131
-726.908	-200.000	-0.006	-0.076
-725.894	-200.000	-0.084	-0.373
-724.879	52.696	0.114	-0.108
-723.864	24.226	0.071	-0.058
-722.850	800.000	0.075	-0.277
-721.835	506.448	0.089	-0.206
-720.821	-200.000	0.004	-0.362
-719.806	-194.224	-0.424	-0.003
-718.791	-200.000	-0.026	-0.328
-717.777	-200.000	0.009	-0.112
-716.762	-83.223	-0.437	-0.140
-715.748	-50.713	0.269	0.126
-714.733	2.313	0.138	-0.099
-713.718	-70.867	-0.166	-0.063
-712.704	92.070	-0.186	-0.209
-711.689	96.123	-0.158	0.181
-710.675	-109.239	-0.272	0.058
-709.660	26.989	0.207	0.174
-708.645	-200.000	-0.042	-0.308
-707.631	-5.197	-0.253	0.174
-706.616	-78.664	-0.283	0.096
-705.602	-97.977	-0.073	0.019
-704.587	-200.000	-0.023	0.183
-703.572	568.164	0.172	-0.416
-702.558	33.952	-0.008	-0.007
-701.543	423.629	-0.085	-0.183
-700.529	-200.000	-0.057	-0.370
-699.514	189.084	0.037	0.055
-698.499	-70.938	-0.258	0.097
-697.485	69.357	0.154	-0.158
-696.470	462.504	0.033	-0.074
-695.456	-91.968	0.144	0.041
-694.441	800.000	0.060	0.220
-693.426	-200.000	0.022	0.283
-692.412	800.000	-0.090	-0.263
-691.397	37.040	-0.069	0.061
-690.383	-62.691	-0.239	-0.099
-689.368	-200.000	0.007	0.247
-688.354	-200.000	0.018	0.180
-687.339	-200.000	-0.002	-0.087
-686.324	-97.002	0.268	0.070
-685.310	76.417	0.222	-0.235
-684.295	800.000	-0.084	-0.318
-683.281	-200.000	0.021	-0.148
-682.266	-200.000	0.003	-0.188
-681.251	-129.332	0.133	0.018
-680.237	248.104	0.194	0.327
-679.222	211.650	-0.111	0.175
-678.208	-79.594	0.364	-0.122
-677.193	-31.285	-0.187	-0.105
-676.178	-52.592	0.131	0.060
-675.164	317.278	0.053	-0.099
-674.149	800.000	-0.056	0.221
-673.135	800.000	-0.052	-0.198
-672.120	-40.546	-0.153	-0.079
-671.105	278.818	0.283	-0.503
-670.091	143.628	-0.128	0.169
-669.076	1.706	0.059	0.042
-668.062	800.000	0.031	-0.124
-667.047	-125.374	0.351	-0.053
-666.032	62.301	-0.115	0.115
-665.018	167.249	-0.171	0.242
-664.003	241.963	-0.187	-0.312
-662.989	340.075	-0.113	0.219
-661.974	-200.000	-0.032	-0.498
-660.959	-170.388	-0.150	-0.005
-659.945	78.076	-0.221	0.234
-658.930	-200.000	0.005	-0.165
-657.916	34.034	0.210	-0.183
-656.901	32.103	-0.186	-0.160
-655.886	-200.000	0.016	0.109
-654.872	16.306	-0.142	0.111
-653.857	-200.000	-0.048	-0.312
-652.843	-30.550	0.175	-0.099
-651.828	504.520	0.205	-0.471
-650.814	-159.347	-0.191	0.011
-649.799	-41.925	0.115	-0.059
-648.784	-200.000	-0.006	0.115
-647.770	143.311	0.227	-0.301
-646.755	330.586	-0.044	0.085
-645.741	800.000	0.060	-0.261
-644.726	-132.678	-0.381	-0.049
-643.711	109.915	0.104	-0.124
-642.697	108.523	-0.210	0.249
-641.682	-143.797	-0.189	0.018
-640.668	-133.397	0.402	-0.050
-639.653	-200.000	-0.020	-0.255
-638.638	270.264	0.181	-0.316
-637.624	236.494	0.085	0.140
-636.609	9.445	-0.301	-0.227
-635.595	-40.195	0.170	0.088
-634.580	-200.000	-0.022	-0.112
-633.565	698.252	-0.072	-0.190
-632.551	-96.181	0.186	-0.049
-631.536	-77.300	-0.189	-0.066
-630.522	295.778	-0.109	-0.199
-629.507	-28.450	0.138	0.079
-628.492	-200.000	-0.004	0.201
-627.478	-136.384	-0.068	0.008
-626.463	351.889	-0.084	-0.166
-625.449	5.999	0.229	0.168
-624.434	-106.394	-0.283	0.063
-623.419	-200.000	0.011	-0.208
-622.405	800.000	0.035	0.132
-621.390	800.000	0.082	-0.304
-620.376	112.268	0.149	0.179
-619.361	339.097	-0.088	-0.170
-618.346	-200.000	-0.011	0.157
-617.332	-200.000	0.017	0.243
-616.317	-200.000	0.023	-0.124
-615.303	24.977	-0.047	0.039
-614.288	-200.000	0.014	-0.181
-613.273	-127.390	-0.215	-0.031
-612.259	-30.087	-0.056	-0.032
-611.244	-200.000	-0.003	-0.155
-610.230	-69.803	0.208	-0.079
-609.215	78.003	0.096	-0.102
-608.201	11.546	0.244	0.186
-607.186	5.795	-0.244	0.179
-606.171	11.118	0.110	0.084
-605.157	-86.398	0.056	-0.017
-604.142	-121.246	-0.302	-0.050
-603.128	-132.217	-0.332	-0.043
-602.113	-172.798	-0.271	0.008
-601.098	-200.000	0.089	0.427
-600.084	73.067	0.089	-0.093
-599.069	275.907	0.088	0.155
-598.055	800.000	-0.091	-0.305
-597.040	264.832	-0.034	-0.059
-596.025	-200.000	-0.012	-0.157
-595.011	103.858	-0.068	0.079
-593.996	115.189	-0.144	-0.175
-592.982	-46.880	0.243	-0.118
-591.967	800.000	0.059	0.237
-590.952	-167.431	-0.049	0.002
-589.938	355.164	-0.173	-0.343
-588.923	31.257	-0.231	-0.197
-587.909	-181.293	-0.255	0.005
-586.894	-200.000	-0.054	0.341
-585.879	-200.000	0.013	0.223
-584.865	-200.000	0.032	-0.285
-583.850	349.639	-0.180	0.354
-582.836	363.606	0.113	-0.226
-581.821	-46.739	0.378	-0.184
-580.806	117.609	0.135	-0.165
-579.792	-145.787	0.289	-0.026
-578.777	-200.000	0.008	0.169
-577.763	-200.000	0.034	-0.150
-576.748	204.715	0.127	0.195
-575.733	-9.074	-0.102	0.068
-574.719	70.950	0.326	-0.335
-573.704	40.042	-0.178	0.159
-572.690	-200.000	0.010	-0.322
-571.675	-57.237	-0.320	0.140
-570.661	-64.090	0.066	-0.027
-569.646	800.000	0.096	0.314
-568.631	79.125	-0.185	0.197
-567.617	-197.432	0.233	0.001
-566.602	239.849	-0.116	-0.191
-565.588	62.596	-0.269	-0.266
-564.573	473.450	0.083	0.185
-563.558	-83.912	-0.164	0.052
-562.544	-200.000	-0.031	-0.291
-561.529	-200.000	-0.050	-0.375
-560.515	98.013	0.196	0.224
-559.500	11.870	-0.455	-0.347
-558.485	272.297	-0.127	0.223
-557.471	-99.389	-0.286	0.071
-556.456	125.754	-0.187	-0.234
-555.442	-118.919	-0.327	0.057
-554.427	162.747	0.045	0.063
-553.412	249.031	-0.203	0.340
-552.398	-103.164	-0.058	0.014
-551.383	-99.757	-0.127	-0.031
-550.369	-10.807	0.220	-0.144
-549.354	13.557	-0.205	-0.158
-548.339	140.320	-0.148	0.194
-547.325	5.800	0.500	-0.367
-546.310	154.480	-0.086	-0.116
-545.296	-200.000	0.016	-0.145
-544.281	130.072	-0.114	-0.144
-543.266	800.000	-0.061	-0.189
-542.252	-127.616	-0.091	0.013
-541.237	800.000	0.055	0.177
-540.223	-33.629	0.073	-0.040
-539.208	-60.431	-0.376	0.158
-538.193	-43.794	0.033	-0.016
-537.179	-200.000	-0.033	0.246
-536.164	-200.000	0.079	0.353
-535.150	-176.221	-0.073	0.002
-534.135	110.089	0.122	-0.145
-533.121	58.300	0.129	-0.126
-532.106	-32.215	0.066	-0.036
-531.091	-188.201	0.215	-0.003
-530.077	-87.867	0.293	-0.087
-529.062	-200.000	-0.024	-0.430
-528.048	96.407	0.258	-0.292
-527.033	-101.057	0.007	0.002
-526.018	-200.000	-0.027	0.217
-525.004	-200.000	0.006	0.035
-523.989	150.012	-0.027	0.036
-522.975	-200.000	-0.004	-0.038
-521.960	-122.294	-0.162	-0.026
-520.945	-152.798	-0.341	0.024
-519.931	-58.840	-0.407	0.174
-518.916	118.521	0.059	-0.072
-517.902	800.000	-0.039	0.138
-516.887	-90.721	-0.294	0.084
-515.872	166.461	0.189	0.265
-514.858	153.117	0.155	-0.210
-513.843	-115.291	-0.060	-0.011
-512.829	373.222	0.032	-0.064
-511.814	-85.159	0.146	0.045
-510.799	-78.256	0.126	0.043
-509.785	-112.222	-0.375	0.074
-508.770	305.579	-0.041	0.076
-507.756	-150.227	-0.080	0.006
-506.741	550.629	-0.016	0.037
-505.726	201.926	0.084	0.129
-504.712	60.333	0.153	0.150
-503.697	46.198	-0.397	-0.364
-502.683	62.979	-0.080	0.079
-501.668	-67.105	0.290	-0.113
-500.653	254.474	0.058	-0.098
-499.639	267.762	0.186	-0.323
-498.624	-200.000	-0.005	0.272
-497.610	-162.827	-0.123	0.006
-496.595	-128.793	-0.338	-0.047
-495.581	374.629	-0.035	-0.070
-494.566	-200.000	0.017	0.243
-493.551	-97.727	0.105	-0.027
-492.537	44.136	-0.103	-0.093
-491.522	-200.000	-0.034	0.252
-490.508	-17.804	0.082	-0.051
-489.493	-77.416	0.460	0.158
-488.478	-200.000	0.028	-0.212
-487.464	-166.720	-0.171	0.007
-486.449	268.689	0.109	0.188
-485.435	-85.024	-0.036	-0.011
-484.420	-200.000	0.037	-0.524
-483.405	-200.000	0.017	-0.155
-482.391	-94.467	-0.069	0.018
-481.376	92.136	-0.033	-0.037
-480.362	444.267	-0.192	-0.416
-479.347	5.074	-0.389	-0.283
-478.332	8.299	0.287	-0.213
-477.318	-47.491	0.353	0.170
-476.303	-200.000	-0.019	0.200
-475.289	128.611	-0.094	-0.118
-474.274	-85.383	0.254	0.078
-473.259	800.000	-0.058	0.179
-472.245	-200.000	-0.050	-0.276
-471.230	179.915	-0.160	-0.231
-470.216	-32.132	0.233	0.129
-469.201	-1.723	0.370	0.258
-468.186	-118.917	0.201	0.035
-467.172	-111.160	-0.440	-0.089
-466.157	-160.242	0.244	0.013
-465.143	308.739	0.093	0.172
-464.128	155.134	0.040	-0.054
-463.113	-200.000	0.012	-0.135
-462.099	-131.488	0.211	-0.027
-461.084	432.823	-0.025	-0.054
-460.070	-47.704	-0.292	-0.140
-459.055	-109.004	-0.294	-0.062
-458.040	93.771	-0.161	-0.180
-457.026	295.765	0.087	-0.157
-456.011	-67.979	-0.158	0.061
-454.997	181.861	-0.061	0.089
-453.982	12.286	0.056	0.043
-452.968	-200.000	-0.040	-0.211
-451.953	-16.795	0.209	0.131
-450.938	138.475	-0.165	0.214
-449.924	-59.613	-0.015	-0.006
-448.909	-200.000	0.013	-0.178
-447.895	-92.237	0.162	-0.045
-446.880	-4.817	-0.329	0.224
-445.865	800.000	-0.023	0.088
-444.851	300.758	0.127	0.232
-443.836	-200.000	-0.001	-0.214
-442.822	-193.729	0.161	0.001
-441.807	26.568	-0.096	-0.079
-440.792	133.247	0.179	-0.229
-439.778	-142.024	-0.296	-0.029
-438.763	-177.517	0.326	0.008
-437.749	597.689	-0.174	0.426
-436.734	115.094	0.075	-0.090
-435.719	800.000	0.023	-0.093
-434.705	800.000	-0.066	0.252
-433.690	-6.959	-0.157	0.105
-432.676	800.000	-0.057	-0.236
-431.661	346.882	0.146	0.283
-430.646	336.117	-0.124	0.238
-429.632	-200.000	0.004	0.018
-428.617	87.083	-0.212	-0.231
-427.603	800.000	0.117	-0.324
-426.588	297.575	0.105	0.191
-425.573	113.226	-0.220	-0.264
-424.559	404.545	0.097	-0.202
-423.544	163.976	-0.230	-0.320
-422.530	-131.073	0.087	0.011
-421.515	-200.000	0.017	-0.326
-420.500	800.000	0.033	-0.112
-419.486	-68.184	-0.084	0.032
-418.471	327.584	0.076	0.144
-417.457	-35.082	0.257	-0.138
-416.442	-34.915	-0.183	0.098
-415.428	179.941	0.228	0.329
-414.413	-200.000	0.015	0.079
-413.398	-29.799	0.313	0.176
-412.384	406.554	-0.137	-0.284
-411.369	-200.000	0.015	0.191
-410.355	125.498	-0.122	-0.152
-409.340	-130.139	-0.120	0.016
-408.325	-200.000	-0.138	0.000
-407.311	206.256	-0.309	0.474
-406.296	-41.208	-0.184	-0.094
-405.282	800.000	0.082	0.236
-404.267	73.315	-0.143	-0.148
-403.252	-133.969	0.244	-0.030
-402.238	-93.126	-0.041	-0.011
-401.223	127.768	-0.102	0.127
-400.209	-152.905	0.358	0.025
-399.194	294.101	-0.081	-0.146
-398.179	-74.027	0.204	0.073
-397.165	187.830	-0.031	0.045
-396.150	26.389	0.134	0.110
-395.136	-200.000	0.017	0.095
-394.121	-200.000	0.025	0.125
-393.106	457.368	-0.015	0.033
-392.092	-31.808	0.185	0.102
-391.077	83.568	0.092	-0.099
-390.063	60.829	0.131	-0.128
-389.048	-79.838	-0.329	-0.109
-388.033	-49.269	0.354	0.167
-387.019	-45.563	0.119	-0.058
-386.004	-147.214	-0.321	-0.027
-384.990	35.942	0.246	-0.213
-383.975	-97.796	0.087	0.022
-382.960	-115.970	0.072	0.013
-381.946	-35.366	0.169	0.091
-380.931	-7.578	-0.193	0.129
-379.917	800.000	-0.042	0.121
-378.902	-66.118	0.220	-0.086
-377.888	-11.546	-0.231	0.150
-376.873	-87.209	-0.070	0.021
-375.858	-75.749	0.034	0.012
-374.844	-200.000	-0.038	0.265
-373.829	729.975	-0.041	-0.108
-372.815	204.576	-0.078	0.119
-371.800	-200.000	0.028	0.160
-370.785	711.024	-0.066	0.172
-369.771	87.384	0.123	0.134
-368.756	76.512	0.116	-0.121
-367.742	47.652	-0.296	-0.272
-366.727	31.539	-0.094	0.079
-365.712	2.527	-0.164	0.117
-364.698	-200.000	-0.021	-0.203
-363.683	-167.751	0.473	0.018
-362.669	-137.612	0.114	-0.013
-361.654	359.284	0.052	0.103
-360.639	11.261	-0.053	0.040
-359.625	-200.000	0.105	0.481
-358.610	-200.000	-0.033	0.325
-357.596	84.559	-0.242	-0.260
-356.581	88.351	0.240	0.262
-355.566	12.103	0.098	0.074
-354.552	214.134	0.162	0.253
-353.537	182.715	-0.011	0.015
-352.523	-94.821	0.208	-0.056
-351.508	187.931	0.098	0.144
-350.493	-161.286	0.070	-0.004
-349.479	-143.451	0.327	0.031
-348.464	438.597	0.030	0.064
-347.450	-200.000	0.029	-0.252
-346.435	511.320	0.131	-0.300
-345.420	-99.677	-0.212	-0.052
-344.406	-200.000	0.019	-0.197
-343.391	800.000	-0.068	0.198
-342.377	-2.696	0.437	0.301
-341.362	388.406	0.099	-0.201
-340.348	-187.276	0.264	0.004
-339.333	155.208	-0.033	-0.044
-338.318	180.427	-0.141	-0.203
-337.304	800.000	-0.034	0.147
-336.289	237.586	0.238	-0.387
-335.275	543.114	-0.038	0.089
-334.260	800.000	-0.038	0.105
-333.245	-200.000	-0.020	-0.110
-332.231	56.302	0.251	-0.240
-331.216	-200.000	-0.016	0.145
-330.202	75.045	0.142	-0.147
-329.187	228.916	0.203	-0.326
-328.172	40.263	0.115	-0.102
-327.158	103.351	-0.151	-0.174
-326.143	197.007	0.122	0.183
-325.129	179.575	-0.152	-0.219
-324.114	485.772	0.024	-0.054
-323.099	-200.000	-0.004	0.393
-322.085	-127.677	0.179	-0.025
-321.070	330.200	0.102	0.192
-320.056	136.320	-0.169	-0.217
-319.041	800.000	-0.056	-0.216
-318.026	-58.159	-0.448	0.192
-317.012	3.659	-0.111	0.080
-315.997	800.000	-0.046	-0.157
-314.983	59.473	0.244	0.236
-313.968	35.772	-0.221	-0.191
-312.953	581.135	0.036	-0.086
-311.939	148.080	0.135	0.179
-310.924	-107.833	0.282	-0.060
-309.910	24.792	-0.014	0.012
-308.895	441.527	0.171	0.367
-307.880	-129.830	-0.314	0.042
-306.866	47.757	-0.256	-0.234
-305.851	-36.270	0.186	-0.099
-304.837	116.178	-0.165	-0.198
-303.822	117.147	-0.137	0.165
-302.807	65.658	0.140	0.139
-301.793	569.572	-0.110	0.262
-300.778	800.000	-0.171	0.580
-299.764	47.687	0.152	-0.139
-298.749	20.396	0.238	-0.189
-297.735	-37.581	0.128	-0.067
-296.720	168.516	-0.101	-0.141
-295.705	-70.564	-0.159	0.059
-294.691	-13.561	-0.157	-0.100
-293.676	-81.025	-0.124	-0.040
-292.662	-97.763	-0.315	0.080
-291.647	469.104	0.103	-0.228
-290.632	800.000	-0.049	0.209
-289.618	-32.580	0.314	0.172
-288.603	210.704	0.174	0.269
-287.589	-182.042	0.110	0.002
-286.574	-200.000	-0.020	-0.245
-285.559	800.000	0.117	-0.364
-284.545	-200.000	0.004	0.036
-283.530	-200.000	-0.026	0.232
-282.516	-200.000	0.056	-0.289
-281.501	142.059	-0.156	-0.203
-280.486	519.294	-0.133	-0.306
-279.472	-156.468	-0.202	-0.012
-278.457	800.000	-0.077	-0.276
-277.443	111.737	0.180	0.213
-276.428	539.518	-0.038	0.088
-275.413	287.328	-0.106	-0.188
-274.399	-65.692	0.229	0.090
-273.384	-68.759	0.320	-0.121
-272.370	-116.428	-0.092	0.017
-271.355	-200.000	-0.035	0.187
-270.340	92.810	-0.123	-0.137
-269.326	-178.553	-0.382	-0.009
-268.311	22.009	-0.154	-0.123
-267.297	46.301	0.266	0.242
-266.282	800.000	0.054	0.155
-265.267	349.141	-0.126	-0.245
-264.253	800.000	0.032	-0.133
-263.238	-87.861	0.232	-0.068
-262.224	-34.205	-0.143	-0.077
-261.209	800.000	0.052	-0.143
-260.195	213.023	-0.194	-0.300
-259.180	-77.502	-0.500	-0.170
-258.165	79.457	-0.018	-0.019
-257.151	-43.650	-0.347	0.171
-256.136	-5.410	0.072	-0.049
-255.122	-124.009	0.118	-0.018
-254.107	-200.000	-0.025	0.133
-253.092	-200.000	-0.008	0.186
-252.078	-69.726	0.354	0.133
-251.063	-68.686	0.118	0.045
-250.049	-200.000	0.047	-0.483
-249.034	64.951	0.125	-0.124
-248.019	-124.985	-0.359	-0.054
-247.005	69.630	0.247	0.249
-245.990	217.025	-0.207	0.323
-244.976	259.889	-0.175	0.296
-243.961	275.314	0.226	0.393
-242.946	214.619	-0.075	0.116
-241.932	800.000	-0.030	-0.097
-240.917	88.680	-0.203	0.221
-239.903	-142.061	0.173	-0.017
-238.888	-13.883	-0.259	-0.164
-237.873	800.000	0.022	-0.065
-236.859	59.976	-0.267	-0.258
-235.844	-81.907	0.334	-0.107
-234.830	-200.000	-0.013	-0.075
-233.815	693.376	0.114	0.292
-232.800	800.000	0.080	0.311
-231.786	-96.646	-0.121	-0.031
-230.771	-39.889	0.154	0.079
-229.757	-200.000	-0.029	-0.130
-228.742	89.433	-0.142	0.156
-227.727	-200.000	-0.019	-0.156
-226.713	-50.834	0.225	-0.104
-225.698	-20.973	0.082	0.049
-224.684	-200.000	-0.042	0.329
-223.669	88.053	-0.084	0.091
-222.655	-160.911	-0.258	0.013
-221.640	800.000	0.041	0.113
-220.625	607.247	0.104	0.255
-219.611	-200.000	-0.011	0.069
-218.596	166.536	0.056	-0.078
-217.582	305.886	0.161	0.293
-216.567	-200.000	-0.059	-0.354
-215.552	352.817	0.012	-0.023
-214.538	-42.477	-0.203	0.101
-213.523	-75.030	-0.388	-0.136
-212.509	-152.166	-0.137	0.010
-211.494	93.692	-0.266	0.295
-210.479	-200.000	-0.011	0.074
-209.465	-200.000	-0.009	0.237
-208.450	362.493	-0.025	-0.050
-207.436	295.184	-0.226	0.405
-206.421	-200.000	0.060	0.292
-205.406	135.114	-0.040	0.051
-204.392	169.766	-0.102	0.143
-203.377	-35.550	-0.061	0.032
-202.363	31.629	0.310	0.261
-201.348	-52.474	-0.332	-0.150
-200.333	91.670	-0.033	0.036
-199.319	-200.000	-0.006	-0.194
-198.304	-200.000	0.001	-0.168
-197.290	-103.749	-0.249	0.057
-196.275	174.097	-0.323	-0.456
-195.260	800.000	0.050	-0.151
-194.246	-92.662	0.570	0.156
-193.231	-102.820	-0.082	0.019
-192.217	-200.000	0.047	0.241
-191.202	-77.140	-0.392	-0.133
-190.187	-103.442	0.438	0.101
-189.173	-69.548	0.073	-0.027
-188.158	459.104	0.053	0.115
-187.144	379.727	0.138	0.276
-186.129	-165.345	-0.286	0.012
-185.114	-196.241	0.218	-0.001
-184.100	800.000	-0.079	0.216
-183.085	800.000	-0.046	-0.130
-182.071	-200.000	0.011	0.213
-181.056	-200.000	0.066	-0.499
-180.042	90.223	0.273	-0.299
-179.027	-200.000	-0.004	0.444
-178.012	-110.179	0.407	-0.083
-176.998	153.914	0.237	0.318
-175.983	298.110	0.153	0.275
-174.969	275.304	0.094	0.163
-173.954	310.718	0.096	0.176
-172.939	-200.000	0.020	0.092
-171.925	-3.886	0.295	-0.200
-170.910	-200.000	0.008	-0.159
-169.896	85.114	-0.101	-0.108
-168.881	-129.055	0.175	0.024
-167.866	-143.294	-0.130	-0.012
-166.852	800.000	0.053	0.173
-165.837	76.370	0.161	0.166
-164.823	60.770	-0.102	-0.098
-163.808	67.151	-0.132	0.131
-162.793	460.506	-0.077	0.167
-161.779	115.045	0.048	0.058
-160.764	-200.000	-0.045	0.194
-159.750	-200.000	-0.011	-0.293
-158.735	164.164	-0.039	0.054
-157.720	51.820	0.321	0.298
-156.706	84.046	0.174	0.186
-155.691	-200.000	-0.004	-0.023
-154.677	83.760	0.252	-0.269
-153.662	387.586	-0.128	-0.258
-152.647	-63.341	0.151	-0.061
-151.633	-200.000	0.030	0.160
-150.618	800.000	0.029	-0.109
-149.604	-200.000	-0.116	0.611
-148.589	-68.410	0.163	0.062
-147.574	-200.000	-0.036	0.362
-146.560	116.768	-0.173	0.207
-145.545	-200.000	0.048	0.222
-144.531	-39.613	-0.056	-0.029
-143.516	-136.551	-0.084	0.009
-142.502	-66.939	-0.221	0.085
-141.487	-71.233	0.173	-0.063
-140.472	-138.175	0.211	-0.023
-139.458	-50.517	0.232	-0.107
-138.443	-34.743	-0.050	0.027
-137.429	573.454	-0.066	-0.157
-136.414	-200.000	0.001	-0.329
-135.399	-1.334	-0.044	0.031
-134.385	-52.667	0.134	0.060
-133.370	-81.941	0.303	0.097
-132.356	62.329	-0.217	0.211
-131.341	-200.000	0.016	0.075
-130.326	39.891	0.022	0.019
-129.312	-98.930	0.267	0.066
-128.297	9.526	0.133	0.098
-127.283	-200.000	-0.035	0.205
-126.268	622.542	-0.139	0.342
-125.253	687.044	0.135	-0.343
-124.239	35.049	-0.071	-0.060
-123.224	-181.162	-0.327	0.006
-122.210	115.368	-0.250	0.298
-121.195	250.735	0.015	0.024
