DTS Sentinel unit serial number:	SN413079Multiplexer serial number:	ORYXHardware model number:	OX4-SRSoftware version number:	ORYX F/W v4.00 Oryx Data Collector v3.7.2.0data status	okinstallation	princeton_trtdifferential loss correction	single-endedforward channel	channel 2reverse channel	N/Adate	2019/09/17time	08:35:35forward acquisition time	60.00reverse acquisition time	0.00gamma	496.2192k internal	0.2332k external	0.2332temperature offset calibration	0.9975default loss term (dB/km)	0.3790temperature slope calibration	1.0000multiplexer offset coefficient	1.0000multiplexer slope coefficient	1.0000fibre end	0.00T internal ref (°C)	27.62T ext. ref 1 (°C)	0.14T ext. ref 2 (°C)	23.18length (m)	temperature (°C)	Stokes	anti-Stokes-747.200	-174.769	-0.198	-0.006
-746.185	800.000	-0.105	0.353
-745.171	489.658	0.020	-0.047
-744.156	10.438	-0.186	-0.142
-743.142	21.598	0.172	0.141
-742.127	185.588	-0.194	0.290
-741.112	-200.000	0.034	-0.210
-740.098	800.000	0.021	0.080
-739.083	-200.000	0.017	-0.112
-738.069	-200.000	0.001	0.242
-737.054	-114.102	-0.176	0.034
-736.039	-83.540	0.081	0.026
-735.025	-98.174	-0.064	0.017
-734.010	-200.000	0.005	-0.078
-732.996	-12.098	0.080	0.053
-731.981	4.118	-0.262	-0.193
-730.966	324.446	-0.162	-0.311
-729.952	-59.452	-0.302	-0.130
-728.937	460.443	-0.036	0.080
-727.923	-200.000	0.010	0.129
-726.908	-38.733	-0.216	-0.115
-725.894	160.246	-0.122	0.171
-724.879	2.704	0.100	-0.073
-723.864	98.907	-0.082	-0.095
-722.850	800.000	-0.097	-0.296
-721.835	-119.600	-0.037	0.006
-720.821	-95.955	-0.056	0.015
-719.806	341.919	-0.064	-0.125
-718.791	90.110	-0.021	0.024
-717.777	723.705	0.039	-0.105
-716.762	-37.836	0.295	0.158
-715.748	63.847	-0.165	0.167
-714.733	11.777	-0.093	-0.072
-713.718	800.000	0.041	-0.122
-712.704	171.377	-0.122	-0.176
-711.689	-167.010	-0.090	-0.004
-710.675	112.821	-0.056	-0.069
-709.660	-101.104	0.171	-0.042
-708.645	-37.883	-0.206	0.110
-707.631	436.381	-0.039	-0.085
-706.616	63.203	-0.214	-0.215
-705.602	-158.638	-0.147	0.008
-704.587	-83.843	-0.168	0.054
-703.572	148.281	-0.227	-0.308
-702.558	800.000	0.029	-0.127
-701.543	112.955	-0.236	-0.287
-700.529	800.000	-0.021	0.064
-699.514	177.956	0.068	0.099
-698.499	543.387	0.030	0.073
-697.485	-158.162	-0.200	0.012
-696.470	-81.889	-0.149	0.049
-695.456	101.521	-0.157	0.184
-694.441	-36.689	0.156	0.084
-693.426	290.715	0.086	0.157
-692.412	-95.512	0.176	-0.047
-691.397	-126.279	-0.332	0.050
-690.383	1.489	0.136	-0.098
-689.368	243.114	0.073	-0.123
-688.354	-200.000	-0.034	-0.313
-687.339	512.976	-0.048	-0.113
-686.324	-62.854	0.313	-0.130
-685.310	24.060	-0.216	-0.179
-684.295	800.000	-0.022	0.078
-683.281	-101.301	-0.372	0.091
-682.266	-200.000	0.049	0.419
-681.251	-69.682	0.216	0.083
-680.237	-188.039	0.114	-0.001
-679.222	-147.956	-0.168	-0.014
-678.208	-200.000	0.031	0.148
-677.193	-115.574	-0.177	-0.033
-676.178	345.805	-0.101	-0.199
-675.164	-200.000	0.016	-0.144
-674.149	-182.729	-0.131	0.002
-673.135	-84.821	0.170	0.053
-672.120	800.000	0.072	0.233
-671.105	145.798	0.144	-0.193
-670.091	509.990	0.031	-0.073
-669.076	-125.330	-0.112	0.017
-668.062	800.000	0.093	-0.262
-667.047	-200.000	-0.031	-0.277
-666.032	-193.243	0.167	-0.001
-665.018	-48.346	0.324	0.157
-664.003	-200.000	0.020	0.144
-662.989	137.673	-0.287	0.377
-661.974	63.349	-0.040	0.040
-660.959	-164.629	-0.200	0.009
-659.945	186.577	0.242	0.361
-658.930	4.434	0.171	-0.125
-657.916	-200.000	0.033	-0.179
-656.901	-200.000	0.035	0.324
-655.886	766.175	0.052	-0.141
-654.872	266.670	-0.276	-0.484
-653.857	-200.000	-0.020	0.223
-652.843	354.981	-0.149	-0.296
-651.828	800.000	0.089	-0.374
-650.814	-200.000	-0.006	0.241
-649.799	112.747	-0.043	0.052
-648.784	83.020	0.068	0.075
-647.770	-101.335	-0.264	0.065
-646.755	-22.374	0.275	-0.167
-645.741	60.216	-0.156	0.154
-644.726	419.827	-0.057	0.121
-643.711	-90.572	0.087	-0.025
-642.697	86.836	-0.107	-0.118
-641.682	-32.540	-0.206	-0.115
-640.668	-145.571	0.357	-0.032
-639.653	204.580	-0.219	0.340
-638.638	-200.000	-0.219	-0.001
-637.624	800.000	0.024	0.086
-636.609	800.000	0.036	-0.135
-635.595	-147.075	-0.147	0.013
-634.580	143.592	0.082	0.109
-633.565	-84.831	-0.365	0.115
-632.551	266.608	0.088	0.155
-631.536	800.000	0.084	0.258
-630.522	-121.415	-0.270	-0.045
-629.507	21.474	0.134	-0.109
-628.492	-29.593	0.239	0.137
-627.478	-82.302	0.080	0.026
-626.463	-81.046	-0.148	0.049
-625.449	-200.000	0.034	0.253
-624.434	800.000	-0.080	-0.243
-623.419	-34.851	-0.201	-0.110
-622.405	-141.330	-0.173	-0.018
-621.390	-46.583	0.085	-0.042
-620.376	-200.000	-0.025	-0.145
-619.361	-145.145	0.491	-0.045
-618.346	27.366	-0.138	-0.116
-617.332	-122.515	-0.312	0.051
-616.317	11.077	-0.131	0.100
-615.303	800.000	0.043	0.158
-614.288	-134.060	-0.088	-0.011
-613.273	-200.000	-0.041	-0.194
-612.259	-200.000	0.022	-0.116
-611.244	-89.064	0.076	-0.023
-610.230	575.516	0.123	-0.301
-609.215	555.592	0.107	-0.257
-608.201	-4.026	-0.165	0.115
-607.186	-61.350	-0.164	-0.069
-606.171	800.000	0.024	-0.068
-605.157	-148.249	-0.290	0.024
-604.142	800.000	0.083	0.317
-603.128	60.288	0.205	-0.203
-602.113	150.538	-0.156	-0.212
-601.098	307.929	0.105	0.195
-600.084	-200.000	0.016	-0.070
-599.069	-177.655	0.348	-0.008
-598.055	-109.020	-0.395	-0.084
-597.040	-200.000	0.005	-0.282
-596.025	71.790	-0.159	-0.165
-595.011	-62.978	-0.171	-0.071
-593.996	800.000	-0.094	-0.344
-592.982	18.189	-0.422	-0.337
-591.967	64.959	0.147	0.149
-590.952	-97.229	0.211	-0.055
-589.938	800.000	-0.073	-0.269
-588.923	-0.182	0.017	-0.012
-587.909	280.368	0.061	-0.109
-586.894	-164.976	0.180	0.008
-585.879	262.702	-0.120	-0.208
-584.865	-200.000	0.026	0.260
-583.850	800.000	-0.089	-0.362
-582.836	-116.992	-0.168	-0.031
-581.821	128.477	0.101	0.129
-580.806	-200.000	0.067	-0.462
-579.792	800.000	0.123	-0.376
-578.777	-145.963	-0.411	-0.036
-577.763	800.000	0.101	0.373
-576.748	-97.012	-0.200	-0.052
-575.733	800.000	-0.030	-0.128
-574.719	132.052	0.103	-0.133
-573.704	210.793	-0.129	-0.203
-572.690	-52.830	0.184	-0.085
-571.675	-200.000	0.009	0.148
-570.661	-200.000	-0.039	-0.177
-569.646	-200.000	0.014	-0.420
-568.631	-49.258	0.089	-0.043
-567.617	-200.000	0.008	0.060
-566.602	800.000	0.041	0.158
-565.588	216.337	0.071	0.113
-564.573	-192.331	0.188	-0.002
-563.558	-134.847	0.285	-0.035
-562.544	-200.000	-0.021	-0.118
-561.529	-46.027	-0.163	0.080
-560.515	800.000	-0.112	-0.311
-559.500	-71.342	-0.187	-0.070
-558.485	-55.362	-0.429	-0.192
-557.471	62.263	0.160	-0.160
-556.456	3.072	-0.141	0.103
-555.442	-78.557	-0.324	-0.111
-554.427	-54.925	-0.313	0.141
-553.412	104.113	-0.102	0.120
-552.398	800.000	-0.021	-0.074
-551.383	-122.314	-0.232	-0.038
-550.369	-117.857	0.175	0.031
-549.354	-200.000	0.041	0.219
-548.339	-139.499	-0.163	0.017
-547.325	-200.000	-0.003	-0.397
-546.310	-61.644	0.128	0.054
-545.296	-14.856	0.020	0.013
-544.281	-133.735	-0.172	-0.021
-543.266	427.170	0.049	0.107
-542.252	-148.294	-0.354	-0.029
-541.237	113.786	0.106	-0.129
-540.223	-200.000	-0.012	-0.087
-539.208	363.120	0.103	0.206
-538.193	-82.570	-0.356	-0.115
-537.179	149.790	0.153	-0.207
-536.164	450.711	0.128	-0.281
-535.150	-56.812	0.037	0.016
-534.135	-110.176	0.140	-0.029
-533.121	64.137	-0.332	-0.333
-532.106	168.083	-0.072	0.102
-531.091	316.385	0.046	-0.087
-530.077	-200.000	-0.031	-0.181
-529.062	-200.000	-0.027	0.196
-528.048	-9.364	-0.115	-0.077
-527.033	405.893	0.075	-0.158
-526.018	-16.692	-0.119	-0.075
-525.004	421.671	0.259	0.554
-523.989	800.000	-0.045	0.151
-522.975	59.680	-0.234	-0.230
-521.960	-94.294	-0.174	0.047
-520.945	470.305	0.141	-0.315
-519.931	800.000	-0.045	-0.164
-518.916	-59.845	-0.105	0.045
-517.902	-111.495	0.190	-0.039
-516.887	-200.000	0.047	0.391
-515.872	30.439	0.077	-0.065
-514.858	-79.608	-0.346	-0.116
-513.843	35.358	-0.054	-0.047
-512.829	547.338	-0.101	0.242
-511.814	76.043	-0.083	0.087
-510.799	64.642	0.134	0.135
-509.785	-200.000	0.046	-0.268
-508.770	-130.231	-0.385	-0.052
-507.756	22.630	-0.168	0.137
-506.741	-31.621	0.093	0.052
-505.726	722.931	0.014	0.038
-504.712	-7.563	-0.154	0.104
-503.697	328.872	-0.077	0.147
-502.683	-200.000	-0.046	0.264
-501.668	156.040	-0.153	-0.211
-500.653	-200.000	-0.012	0.193
-499.639	-81.815	-0.201	0.066
-498.624	-115.276	0.103	0.019
-497.610	-119.601	0.222	-0.038
-496.595	-82.582	0.229	-0.074
-495.581	53.413	-0.051	0.049
-494.566	-200.000	-0.030	-0.185
-493.551	136.995	0.122	0.159
-492.537	-200.000	-0.014	-0.063
-491.522	76.669	0.046	-0.049
-490.508	-116.237	0.224	-0.041
-489.493	-127.331	-0.218	-0.032
-488.478	-186.094	0.181	-0.003
-487.464	-83.446	0.140	-0.045
-486.449	-32.200	0.094	0.053
-485.435	-89.007	0.213	0.063
-484.420	800.000	-0.036	-0.104
-483.405	-47.398	0.195	0.094
-482.391	-94.885	0.148	0.040
-481.376	284.528	0.015	0.026
-480.362	161.347	0.205	0.285
-479.347	58.917	0.044	0.043
-478.332	172.476	-0.157	-0.225
-477.318	-102.845	-0.114	-0.027
-476.303	636.435	-0.120	0.304
-475.289	-200.000	-0.042	-0.315
-474.274	118.728	-0.081	0.099
-473.259	-200.000	0.006	-0.169
-472.245	800.000	0.054	0.176
-471.230	-200.000	-0.062	-0.272
-470.216	56.501	0.020	0.020
-469.201	800.000	-0.074	0.213
-468.186	-166.738	-0.325	0.013
-467.172	-68.725	-0.243	-0.094
-466.157	536.595	0.106	0.250
-465.143	-38.952	-0.284	0.149
-464.128	-200.000	-0.005	0.021
-463.113	-108.534	0.487	-0.104
-462.099	172.281	-0.077	-0.110
-461.084	-78.546	0.207	-0.070
-460.070	800.000	0.066	0.183
-459.055	-142.180	-0.087	-0.009
-458.040	261.603	-0.074	0.128
-457.026	42.560	-0.171	0.155
-456.011	15.322	-0.260	0.203
-454.997	-126.880	-0.242	0.035
-453.982	119.359	0.162	0.200
-452.968	800.000	0.096	0.310
-451.953	-139.162	-0.320	-0.034
-450.938	-115.647	0.073	0.014
-449.924	148.934	-0.053	0.071
-448.909	213.558	-0.071	0.111
-447.895	44.831	-0.178	0.163
-446.880	-200.000	0.019	-0.321
-445.865	-200.000	-0.034	-0.279
-444.851	323.271	0.057	-0.107
-443.836	374.850	0.182	0.369
-442.822	-117.775	-0.188	-0.034
-441.807	-98.071	0.089	0.023
-440.792	-99.499	-0.257	-0.064
-439.778	117.757	0.144	0.177
-438.763	-162.530	0.221	-0.011
-437.749	-200.000	0.068	-0.349
-436.734	800.000	0.047	-0.184
-435.719	-11.822	-0.180	0.117
-434.705	-97.677	-0.182	0.047
-433.690	-200.000	0.017	-0.215
-432.676	-139.109	-0.251	-0.027
-431.661	-73.110	0.213	-0.078
-430.646	114.270	-0.051	-0.061
-429.632	137.800	-0.172	0.223
-428.617	171.118	0.208	0.296
-427.603	163.373	0.134	-0.188
-426.588	-127.265	-0.057	-0.008
-425.573	-200.000	0.002	-0.046
-424.559	91.228	-0.099	0.110
-423.544	800.000	-0.056	0.203
-422.530	-55.424	0.269	-0.120
-421.515	-65.929	0.165	-0.065
-420.500	800.000	0.059	0.176
-419.486	61.868	-0.157	0.155
-418.471	-109.348	-0.154	0.032
-417.457	-200.000	-0.004	0.240
-416.442	-79.222	-0.254	0.085
-415.428	195.636	-0.073	-0.110
-414.413	-141.029	0.295	0.030
-413.398	-64.772	0.167	0.067
-412.384	-62.622	-0.201	0.083
-411.369	-164.161	0.304	-0.014
-410.355	146.114	0.115	0.153
-409.340	121.223	-0.178	0.220
-408.325	-56.806	0.186	-0.082
-407.311	-108.145	-0.180	0.039
-406.296	-139.080	0.186	-0.020
-405.282	71.284	-0.144	0.148
-404.267	-200.000	-0.033	0.157
-403.252	262.268	0.163	0.281
-402.238	78.241	0.114	0.121
-401.223	279.121	0.232	0.411
-400.209	412.665	-0.016	0.034
-399.194	-133.954	0.257	0.032
-398.179	42.703	-0.202	0.183
-397.165	157.071	-0.115	-0.158
-396.150	-200.000	-0.030	-0.286
-395.136	-151.109	-0.153	-0.011
-394.121	55.275	0.174	-0.167
-393.106	329.072	-0.176	0.336
-392.092	-200.000	0.027	0.324
-391.077	-200.000	0.003	-0.050
-390.063	40.441	0.087	-0.077
-389.048	-200.000	-0.026	-0.177
-388.033	-56.050	0.115	0.051
-387.019	-120.281	0.212	0.036
-386.004	42.362	0.228	0.206
-384.990	800.000	-0.091	0.349
-383.975	36.774	0.161	0.141
-382.960	60.621	0.007	-0.007
-381.946	-15.575	-0.283	-0.179
-380.931	302.171	0.046	-0.084
-379.917	-123.864	0.048	0.008
-378.902	311.314	0.063	-0.118
-377.888	-69.592	0.211	0.080
-376.873	-200.000	-0.016	0.237
-375.858	-33.595	0.154	-0.084
-374.844	121.802	0.135	-0.167
-373.829	-26.951	-0.239	0.138
-372.815	800.000	0.058	0.188
-371.800	-200.000	0.061	0.268
-370.785	-37.107	-0.145	0.077
-369.771	-200.000	-0.005	0.308
-368.756	-24.267	0.299	-0.177
-367.742	261.467	-0.039	-0.068
-366.727	-56.121	-0.160	-0.071
-365.712	800.000	0.003	-0.010
-364.698	-200.000	0.054	0.351
-363.683	-200.000	-0.006	-0.192
-362.669	-55.109	-0.051	-0.023
-361.654	-132.724	-0.083	0.011
-360.639	-200.000	-0.317	0.000
-359.625	-100.433	0.288	-0.071
-358.610	48.273	-0.025	0.023
-357.596	-12.689	-0.130	-0.084
-356.581	555.365	0.051	0.122
-355.566	28.829	-0.127	-0.107
-354.552	44.984	-0.225	0.206
-353.537	7.491	0.196	-0.145
-352.523	800.000	-0.053	-0.151
-351.508	-137.374	0.256	-0.029
-350.493	-18.436	0.146	0.090
-349.479	-66.976	0.456	-0.178
-348.464	-10.611	0.295	0.193
-347.450	-119.072	0.233	-0.040
-346.435	29.931	-0.185	-0.156
-345.420	-110.857	0.098	0.020
-344.406	585.380	0.050	0.122
-343.391	800.000	0.033	-0.141
-342.377	718.799	0.042	-0.110
-341.362	92.894	0.089	0.099
-340.348	-165.827	-0.224	0.010
-339.333	-59.269	-0.141	0.060
-338.318	-77.277	0.327	0.113
-337.304	436.657	-0.145	-0.313
-336.289	-133.241	0.203	0.025
-335.275	-39.587	-0.249	-0.129
-334.260	217.708	-0.133	-0.210
-333.245	-119.226	0.279	-0.048
-332.231	-34.575	-0.135	-0.073
-331.216	330.009	0.067	0.127
-330.202	-103.964	-0.178	0.041
-329.187	335.756	0.053	0.101
-328.172	-119.700	0.244	0.042
-327.158	-157.984	0.216	-0.013
-326.143	232.660	0.394	-0.640
-325.129	95.283	-0.143	0.161
-324.114	800.000	-0.026	0.105
-323.099	-108.598	-0.212	-0.045
-322.085	171.575	0.151	0.215
-321.070	68.111	-0.076	0.077
-320.056	800.000	-0.051	0.178
-319.041	800.000	-0.083	-0.246
-318.026	169.827	-0.069	0.097
-317.012	-115.129	0.149	-0.028
-315.997	-148.523	-0.120	0.010
-314.983	2.098	-0.144	0.103
-313.968	-200.000	-0.007	0.100
-312.953	18.537	0.243	0.192
-311.939	-75.951	0.226	0.079
-310.924	-8.153	0.323	0.215
-309.910	-82.153	0.037	-0.012
-308.895	-119.013	0.320	0.055
-307.880	800.000	0.055	-0.199
-306.866	-104.599	0.117	0.027
-305.851	800.000	0.042	-0.116
-304.837	-200.000	-0.031	0.161
-303.822	-200.000	-0.028	0.173
-302.807	784.516	-0.086	0.232
-301.793	-54.670	-0.166	0.074
-300.778	-200.000	-0.004	0.348
-299.764	28.764	0.235	0.196
-298.749	-41.522	-0.279	0.142
-297.735	62.408	0.096	0.095
-296.720	363.695	0.087	0.172
-295.705	-175.824	0.214	0.006
-294.691	-124.244	0.139	-0.022
-293.676	307.268	-0.141	-0.260
-292.662	11.550	-0.266	0.201
-291.647	198.029	-0.103	-0.156
-290.632	-42.854	-0.209	0.105
-289.618	6.336	0.185	-0.135
-288.603	-42.706	0.135	0.068
-287.589	-200.000	0.004	0.051
-286.574	91.188	0.106	-0.117
-285.559	344.200	0.075	-0.145
-284.545	32.861	-0.093	0.079
-283.530	-158.329	0.137	0.008
-282.516	-200.000	-0.002	0.236
-281.501	-82.649	0.335	0.107
-280.486	800.000	0.067	0.201
-279.472	-20.928	0.054	-0.032
-278.457	-61.931	0.157	-0.065
-277.443	-43.590	-0.076	-0.038
-276.428	-200.000	-0.037	-0.228
-275.413	78.185	0.237	-0.250
-274.399	-50.923	0.216	0.100
-273.384	-33.428	0.137	-0.075
-272.370	-41.358	-0.166	-0.084
-271.355	-29.704	0.110	0.062
-270.340	800.000	0.071	-0.248
-269.326	-127.742	-0.146	0.021
-268.311	312.540	0.146	0.271
-267.297	19.697	0.057	0.046
-266.282	730.367	0.045	0.118
-265.267	-164.111	0.212	0.010
-264.253	-9.510	0.253	0.166
-263.238	15.156	-0.258	0.199
-262.224	-101.031	0.073	-0.018
-261.209	-60.585	0.419	-0.175
-260.195	11.557	-0.233	-0.177
-259.180	-200.000	0.031	-0.215
-258.165	800.000	-0.032	0.093
-257.151	510.215	-0.065	-0.149
-256.136	-168.699	0.199	0.007
-255.122	127.233	-0.128	0.161
-254.107	-56.736	-0.310	0.135
-253.092	20.929	-0.102	0.081
-252.078	800.000	0.034	0.097
-251.063	-200.000	-0.053	-0.370
-250.049	-32.816	-0.498	0.273
-249.034	800.000	0.045	-0.179
-248.019	42.470	0.237	0.213
-247.005	-200.000	0.022	0.220
-245.990	86.558	0.156	-0.170
-244.976	-153.882	0.072	-0.005
-243.961	312.362	0.136	-0.252
-242.946	-5.420	-0.375	-0.254
-241.932	-151.479	-0.154	-0.011
-240.917	-128.259	-0.244	0.034
-239.903	-5.012	0.096	-0.065
-238.888	-81.038	-0.186	-0.061
-237.873	-37.737	0.032	0.017
-236.859	326.485	0.132	0.249
-235.844	-200.000	0.021	0.093
-234.830	-100.355	-0.401	-0.098
-233.815	-200.000	-0.022	0.154
-232.800	800.000	-0.016	-0.051
-231.786	-200.000	-0.022	0.573
-230.771	-200.000	-0.013	0.272
-229.757	696.317	-0.093	0.240
-228.742	5.515	-0.156	-0.113
-227.727	-120.010	-0.161	0.027
-226.713	-88.042	-0.359	0.106
-225.698	-152.587	-0.341	0.024
-224.684	187.391	0.080	-0.118
-223.669	649.963	-0.036	0.092
-222.655	-200.000	0.002	0.110
-221.640	-80.411	-0.372	-0.122
-220.625	-8.756	0.266	-0.176
-219.611	38.683	-0.207	0.182
-218.596	59.529	-0.115	0.112
-217.582	34.517	-0.207	0.178
-216.567	-200.000	0.032	-0.186
-215.552	439.958	-0.118	-0.255
-214.538	800.000	0.048	-0.177
-213.523	474.085	-0.093	0.206
-212.509	800.000	0.062	-0.181
-211.494	-23.323	0.173	-0.103
-210.479	-200.000	0.004	0.153
-209.465	-117.821	0.439	0.078
-208.450	276.868	0.238	-0.417
-207.436	20.062	0.079	-0.063
-206.421	-101.790	0.263	0.063
-205.406	524.546	0.170	-0.394
-204.392	-77.217	0.009	-0.003
-203.377	-31.501	0.217	-0.120
-202.363	215.300	0.127	0.199
-201.348	-200.000	0.021	-0.290
-200.333	660.297	-0.127	-0.323
-199.319	2.718	0.262	0.187
-198.304	800.000	-0.111	0.344
-197.290	449.786	0.023	-0.051
-196.275	800.000	-0.065	-0.178
-195.260	800.000	0.044	0.134
-194.246	-200.000	-0.074	0.447
-193.231	-200.000	-0.003	0.028
-192.217	614.004	-0.087	0.213
-191.202	-39.461	0.297	0.153
-190.187	283.801	-0.077	0.136
-189.173	-200.000	0.015	-0.198
-188.158	0.340	-0.121	-0.085
-187.144	38.832	-0.020	0.018
-186.129	-200.000	0.009	-0.070
-185.114	124.493	-0.216	-0.267
-184.100	-200.000	0.035	0.179
-183.085	-6.108	0.104	-0.070
-182.071	-164.001	-0.106	-0.005
-181.056	800.000	0.039	-0.140
-180.042	719.917	-0.097	-0.255
-179.027	91.324	0.045	0.050
-178.012	3.469	-0.086	-0.062
-176.998	800.000	0.064	-0.226
-175.983	-58.681	0.269	0.115
-174.969	-29.763	-0.162	-0.091
-173.954	-114.125	-0.044	0.008
-172.939	236.154	0.071	-0.115
-171.925	800.000	-0.030	-0.087
-170.910	-41.129	-0.089	-0.045
-169.896	52.097	0.080	-0.075
-168.881	54.491	0.129	-0.122
-167.866	403.263	-0.174	-0.360
-166.852	3.844	0.265	-0.190
-165.837	65.644	0.175	-0.174
-164.823	20.909	0.077	-0.061
-163.808	-119.130	0.274	-0.047
-162.793	52.810	-0.207	0.194
-161.779	-200.000	0.004	0.339
-160.764	-90.020	0.123	-0.035
-159.750	-95.239	-0.087	-0.023
-158.735	341.010	0.215	-0.413
-157.720	-105.018	0.262	-0.059
-156.706	-143.740	0.070	0.007
-155.691	39.101	-0.087	0.077
-154.677	-109.656	0.355	0.073
-153.662	-200.000	-0.088	-0.393
-152.647	-118.293	-0.189	-0.033
-151.633	-109.749	0.064	-0.013
-150.618	-200.000	0.002	-0.264
-149.604	189.682	-0.070	0.103
-148.589	23.848	-0.060	0.048
-147.574	31.075	-0.103	-0.087
-146.560	178.627	-0.023	-0.033
-145.545	800.000	0.040	0.159
-144.531	249.478	0.169	-0.282
-143.516	-47.022	0.135	-0.065
-142.502	-107.364	0.042	-0.009
-141.487	129.040	0.119	0.149
-140.472	683.242	0.043	-0.110
-139.458	800.000	-0.023	0.085
-138.443	9.097	-0.133	-0.098
-137.429	-6.180	0.311	-0.209
-136.414	163.392	0.086	0.119
-135.399	-12.264	-0.175	0.112
-134.385	-88.484	-0.232	-0.068
-133.370	153.868	0.147	0.198
-132.356	-59.684	-0.040	0.017
-131.341	79.161	-0.073	0.077
-130.326	-200.000	-0.036	-0.260
-129.312	66.708	0.225	0.225
-128.297	-200.000	-0.008	0.125
-127.283	-60.873	-0.168	-0.070
-126.268	-131.792	0.240	0.031
-125.253	128.478	0.109	-0.136
-124.239	37.650	0.167	-0.145
-123.224	485.935	-0.134	-0.300
-122.210	399.095	0.128	-0.263
-121.195	-200.000	-0.022	0.108
