DTS Sentinel unit serial number:	SN413079Multiplexer serial number:	ORYXHardware model number:	OX4-SRSoftware version number:	ORYX F/W v4.00 Oryx Data Collector v3.7.2.0data status	okinstallation	princeton_trtdifferential loss correction	single-endedforward channel	channel 2reverse channel	N/Adate	2019/09/15time	08:15:34forward acquisition time	60.00reverse acquisition time	0.00gamma	496.2192k internal	0.2325k external	0.2325temperature offset calibration	1.0027default loss term (dB/km)	0.3790temperature slope calibration	1.0000multiplexer offset coefficient	1.0000multiplexer slope coefficient	1.0000fibre end	0.00T internal ref (°C)	31.11T ext. ref 1 (°C)	4.99T ext. ref 2 (°C)	28.12length (m)	temperature (°C)	Stokes	anti-Stokes-747.200	182.577	0.227	-0.337
-746.185	-200.000	0.058	0.405
-745.171	800.000	0.036	0.126
-744.156	-57.846	0.291	-0.129
-743.142	-29.515	0.092	0.053
-742.127	-80.504	0.161	0.054
-741.112	-65.396	0.167	-0.068
-740.098	-200.000	0.014	-0.256
-739.083	172.770	-0.012	0.017
-738.069	800.000	0.054	0.219
-737.054	773.151	0.109	0.301
-736.039	27.630	0.122	-0.103
-735.025	800.000	-0.034	0.124
-734.010	551.494	0.093	0.226
-732.996	0.530	-0.227	-0.164
-731.981	-164.264	-0.230	-0.011
-730.966	-73.695	0.302	-0.111
-729.952	183.265	0.120	-0.179
-728.937	-40.952	-0.071	0.037
-727.923	-104.609	-0.231	-0.054
-726.908	-200.000	0.032	-0.163
-725.894	-130.104	-0.675	-0.093
-724.879	25.771	0.059	0.050
-723.864	70.433	0.055	0.057
-722.850	-108.329	-0.553	-0.120
-721.835	-136.944	0.093	0.011
-720.821	-120.054	-0.239	0.041
-719.806	-200.000	0.039	-0.201
-718.791	12.807	-0.127	0.099
-717.777	262.670	0.132	0.231
-716.762	-200.000	-0.035	0.216
-715.748	-137.852	-0.293	-0.033
-714.733	363.784	-0.039	-0.078
-713.718	45.354	0.035	0.032
-712.704	108.255	0.225	-0.270
-711.689	-200.000	0.029	-0.149
-710.675	85.413	-0.292	-0.323
-709.660	390.722	-0.182	0.380
-708.645	-187.426	-0.145	0.002
-707.631	-172.601	-0.062	0.002
-706.616	-34.559	0.219	-0.121
-705.602	21.920	0.171	-0.140
-704.587	712.066	-0.123	-0.328
-703.572	50.339	0.071	-0.067
-702.558	-200.000	0.054	-0.402
-701.543	-23.633	0.315	0.190
-700.529	-88.761	0.059	-0.018
-699.514	-200.000	0.018	0.107
-698.499	-75.831	-0.246	-0.088
-697.485	-157.275	-0.452	-0.028
-696.470	-4.836	-0.231	-0.161
-695.456	-61.762	0.059	0.025
-694.441	-48.433	-0.100	-0.049
-693.426	26.079	-0.037	0.031
-692.412	-200.000	-0.018	0.225
-691.397	13.488	-0.088	-0.069
-690.383	337.940	0.220	-0.431
-689.368	364.439	-0.081	-0.164
-688.354	348.582	0.225	-0.447
-687.339	-0.775	-0.291	-0.208
-686.324	-34.354	-0.264	-0.146
-685.310	-153.270	0.211	-0.015
-684.295	-200.000	0.026	-0.270
-683.281	-200.000	0.039	-0.410
-682.266	800.000	-0.039	-0.145
-681.251	-200.000	0.006	-0.328
-680.237	110.826	0.159	-0.192
-679.222	348.949	-0.134	0.266
-678.208	-200.000	-0.012	0.108
-677.193	21.959	0.105	0.086
-676.178	-12.436	-0.141	-0.093
-675.164	-110.128	-0.190	0.040
-674.149	166.013	0.172	-0.245
-673.135	33.863	0.267	-0.234
-672.120	-168.831	-0.161	0.006
-671.105	-69.933	0.089	-0.034
-670.091	543.169	-0.023	-0.056
-669.076	8.652	-0.177	-0.134
-668.062	76.430	0.154	-0.165
-667.047	-200.000	0.011	0.181
-666.032	-200.000	-0.005	0.176
-665.018	800.000	0.035	-0.128
-664.003	-138.875	-0.083	0.009
-662.989	-0.169	0.153	-0.110
-661.974	-91.808	-0.045	-0.013
-660.959	-101.895	0.299	0.073
-659.945	800.000	0.023	-0.085
-658.930	-200.000	-0.013	-0.174
-657.916	-75.304	0.383	-0.138
-656.901	-131.957	-0.354	0.046
-655.886	-16.980	-0.230	0.146
-654.872	527.074	-0.082	0.193
-653.857	-129.148	0.129	0.018
-652.843	154.763	-0.121	0.167
-651.828	800.000	0.062	0.238
-650.814	-126.261	-0.078	-0.012
-649.799	-134.165	-0.083	0.010
-648.784	-33.184	-0.455	0.254
-647.770	800.000	-0.047	-0.143
-646.755	-200.000	0.015	-0.142
-645.741	-200.000	-0.001	-0.138
-644.726	-8.675	0.244	-0.165
-643.711	289.423	0.055	0.101
-642.697	267.255	0.051	0.090
-641.682	-131.213	0.040	0.005
-640.668	-88.115	0.062	-0.019
-639.653	76.009	0.120	0.128
-638.638	800.000	0.052	-0.150
-637.624	142.125	-0.278	-0.371
-636.609	127.230	-0.242	0.308
-635.595	-75.148	-0.357	-0.128
-634.580	-115.779	-0.177	-0.033
-633.565	168.155	-0.185	0.264
-632.551	133.014	-0.103	0.133
-631.536	214.442	-0.229	0.365
-630.522	-168.271	-0.305	-0.012
-629.507	113.439	0.027	0.033
-628.492	424.514	0.041	-0.088
-627.478	-127.927	0.153	0.022
-626.463	-88.365	-0.253	0.076
-625.449	-40.012	0.111	-0.058
-624.434	-28.613	0.300	-0.173
-623.419	129.890	0.291	0.374
-622.405	27.313	-0.220	-0.185
-621.390	-200.000	0.032	-0.159
-620.376	211.901	-0.079	-0.126
-619.361	-200.000	0.008	0.038
-618.346	94.184	-0.033	0.037
-617.332	8.274	-0.103	-0.078
-616.317	51.920	0.143	0.137
-615.303	204.422	-0.055	-0.085
-614.288	-163.307	-0.392	-0.019
-613.273	-12.807	0.139	-0.091
-612.259	334.826	0.052	-0.102
-611.244	-200.000	0.011	0.216
-610.230	109.362	-0.078	0.094
-609.215	-91.261	0.290	-0.083
-608.201	25.501	-0.337	0.281
-607.186	-200.000	0.015	0.207
-606.171	-63.634	0.338	0.139
-605.157	166.122	0.175	-0.249
-604.142	-49.249	0.195	0.093
-603.128	-105.866	0.290	0.066
-602.113	15.847	0.168	0.133
-601.098	-64.184	-0.141	-0.058
-600.084	283.321	0.191	0.345
-599.069	-200.000	0.065	-0.404
-598.055	800.000	-0.048	-0.144
-597.040	-132.671	0.297	-0.038
-596.025	800.000	-0.049	-0.147
-595.011	72.595	-0.162	-0.170
-593.996	-67.659	0.114	0.045
-592.982	-64.940	-0.244	0.099
-591.967	22.046	0.028	0.023
-590.952	162.565	0.094	0.132
-589.938	-121.716	-0.385	0.064
-588.923	800.000	-0.041	-0.127
-587.909	-133.538	-0.333	0.042
-586.894	62.929	-0.281	0.282
-585.879	-66.856	-0.190	0.075
-584.865	101.015	-0.251	0.293
-583.850	-200.000	-0.031	-0.172
-582.836	-200.000	-0.044	0.224
-581.821	800.000	-0.005	0.017
-580.806	-98.410	-0.293	-0.075
-579.792	111.641	0.128	0.154
-578.777	-200.000	-0.026	-0.186
-577.763	-109.228	0.190	-0.040
-576.748	42.713	0.122	0.112
-575.733	-200.000	-0.030	-0.267
-574.719	-15.986	0.122	-0.078
-573.704	39.189	0.281	-0.252
-572.690	-200.000	-0.024	0.151
-571.675	14.410	-0.152	0.119
-570.661	-50.887	-0.024	-0.011
-569.646	-200.000	-0.026	-0.148
-568.631	-3.783	-0.096	-0.067
-567.617	431.679	-0.012	-0.027
-566.602	346.043	0.205	-0.403
-565.588	191.957	-0.212	-0.321
-564.573	133.218	-0.134	-0.173
-563.558	-110.305	-0.117	-0.024
-562.544	-200.000	-0.047	0.247
-561.529	-126.949	0.046	-0.007
-560.515	-200.000	0.049	-0.371
-559.500	307.325	-0.028	0.053
-558.485	-200.000	0.087	-0.423
-557.471	800.000	0.080	-0.272
-556.456	-38.357	-0.310	-0.164
-555.442	130.331	-0.191	-0.246
-554.427	800.000	-0.064	-0.215
-553.412	363.327	-0.054	0.110
-552.398	21.996	0.201	0.164
-551.383	213.090	-0.071	0.113
-550.369	800.000	0.021	0.084
-549.354	278.092	0.099	0.177
-548.339	91.818	-0.164	0.185
-547.325	-53.714	0.217	0.099
-546.310	-90.293	0.421	-0.122
-545.296	195.162	-0.164	0.249
-544.281	-88.050	0.270	0.081
-543.266	-200.000	-0.001	0.030
-542.252	-200.000	-0.022	-0.359
-541.237	-77.000	0.434	-0.152
-540.223	69.292	-0.079	-0.081
-539.208	800.000	0.014	0.048
-538.193	395.057	0.083	-0.173
-537.179	800.000	-0.081	-0.333
-536.164	-133.850	-0.279	-0.035
-535.150	159.364	0.091	0.127
-534.135	253.378	0.127	0.217
-533.121	800.000	-0.056	0.157
-532.106	-16.888	-0.112	0.071
-531.091	21.693	-0.159	0.129
-530.077	736.579	-0.047	-0.125
-529.062	-200.000	0.077	-0.383
-528.048	322.297	-0.221	-0.421
-527.033	-51.854	-0.043	-0.020
-526.018	-200.000	0.038	-0.251
-525.004	-109.586	-0.077	-0.016
-523.989	-200.000	-0.018	0.240
-522.975	-200.000	0.033	0.231
-521.960	800.000	-0.035	0.121
-520.945	70.098	0.048	0.050
-519.931	29.785	-0.114	0.097
-518.916	-104.672	-0.139	-0.032
-517.902	-155.491	0.271	0.018
-516.887	-14.197	-0.243	0.156
-515.872	800.000	-0.021	0.084
-514.858	255.306	0.108	-0.185
-513.843	606.225	-0.043	0.106
-512.829	-121.880	0.173	-0.028
-511.814	-89.407	-0.059	-0.017
-510.799	-52.663	0.513	0.237
-509.785	106.175	0.109	-0.129
-508.770	214.356	0.055	0.087
-507.756	-158.971	0.233	0.013
-506.741	-33.809	0.219	0.121
-505.726	569.269	-0.115	-0.280
-504.712	-93.533	-0.575	0.159
-503.697	-52.633	-0.155	-0.071
-502.683	-17.312	0.219	-0.138
-501.668	-49.664	0.252	-0.120
-500.653	-200.000	-0.022	0.209
-499.639	18.548	0.166	-0.132
-498.624	-200.000	-0.043	-0.348
-497.610	-78.153	0.450	-0.155
-496.595	506.655	0.072	-0.167
-495.581	-32.914	-0.119	0.066
-494.566	-200.000	-0.013	0.218
-493.551	4.410	-0.074	-0.054
-492.537	-129.379	0.157	-0.022
-491.522	18.344	-0.197	0.157
-490.508	-32.961	0.203	-0.113
-489.493	-115.630	0.169	0.032
-488.478	354.586	-0.102	-0.202
-487.464	12.279	-0.036	0.028
-486.449	39.579	-0.223	0.200
-485.435	517.814	0.056	0.131
-484.420	-110.661	0.034	0.007
-483.405	-200.000	0.017	-0.119
-482.391	360.286	-0.196	-0.391
-481.376	-14.509	0.336	-0.216
-480.362	-93.611	-0.322	-0.089
-479.347	-51.538	0.102	0.048
-478.332	411.535	0.121	-0.256
-477.318	-87.226	-0.215	-0.065
-476.303	-79.723	-0.435	-0.146
-475.289	79.397	0.180	-0.192
-474.274	-133.053	0.271	-0.034
-473.259	-200.000	0.023	-0.370
-472.245	-102.031	0.222	-0.054
-471.230	80.491	-0.140	-0.150
-470.216	-200.000	0.026	-0.178
-469.201	-72.008	-0.225	0.083
-468.186	-200.000	-0.004	-0.106
-467.172	711.680	-0.120	-0.316
-466.157	800.000	-0.054	0.217
-465.143	800.000	-0.048	0.148
-464.128	-13.635	-0.085	-0.055
-463.113	-6.384	-0.359	0.244
-462.099	-126.445	0.164	0.024
-461.084	-113.949	-0.468	-0.091
-460.070	758.634	-0.092	-0.249
-459.055	296.311	-0.076	0.139
-458.040	710.447	0.068	-0.181
-457.026	800.000	0.038	-0.159
-456.011	264.136	-0.122	-0.212
-454.997	-138.350	0.198	-0.022
-453.982	-177.556	0.056	0.001
-452.968	-161.551	0.237	-0.012
-451.953	-101.613	0.191	0.046
-450.938	-100.377	0.266	0.066
-449.924	19.369	0.204	0.164
-448.909	-47.288	0.075	-0.036
-447.895	-35.971	0.248	0.134
-446.880	146.927	-0.168	0.225
-445.865	-20.751	-0.168	0.103
-444.851	-162.163	-0.192	-0.010
-443.836	89.935	-0.060	-0.067
-442.822	-7.214	0.371	0.251
-441.807	-108.962	0.145	-0.031
-440.792	300.957	-0.073	0.135
-439.778	-82.097	0.212	0.069
-438.763	-31.630	-0.213	-0.119
-437.749	-156.481	0.267	-0.017
-436.734	185.662	-0.204	0.302
-435.719	-59.445	0.080	0.034
-434.705	-200.000	-0.002	0.193
-433.690	-38.934	0.207	-0.109
-432.676	-200.000	-0.012	-0.080
-431.661	-200.000	-0.010	0.074
-430.646	25.417	-0.146	-0.121
-429.632	-83.972	-0.333	-0.105
-428.617	253.215	0.124	0.210
-427.603	800.000	0.059	0.197
-426.588	-200.000	0.044	-0.242
-425.573	-200.000	0.042	-0.266
-424.559	-61.300	0.146	0.061
-423.544	-43.731	-0.220	0.111
-422.530	3.424	0.241	-0.175
-421.515	159.605	0.114	-0.158
-420.500	113.981	0.096	0.116
-419.486	323.351	-0.070	0.134
-418.471	-4.985	0.207	0.142
-417.457	-70.396	0.064	-0.024
-416.442	109.710	-0.035	-0.042
-415.428	595.191	-0.055	-0.135
-414.413	39.106	-0.186	0.166
-413.398	-31.471	0.101	0.057
-412.384	536.990	0.125	0.297
-411.369	-49.909	-0.130	-0.061
-410.355	-43.330	-0.294	-0.148
-409.340	74.770	0.149	0.156
-408.325	-137.493	-0.390	-0.044
-407.311	-110.633	-0.192	-0.040
-406.296	-200.000	-0.021	0.196
-405.282	-61.744	-0.164	-0.068
-404.267	-66.519	0.260	-0.103
-403.252	-155.975	0.160	0.010
-402.238	-184.584	0.358	-0.006
-401.223	-200.000	0.022	0.256
-400.209	-193.927	-0.289	0.002
-399.194	-72.484	-0.231	0.085
-398.179	8.091	0.296	-0.221
-397.165	266.350	-0.098	-0.171
-396.150	-109.344	0.278	-0.059
-395.136	153.415	-0.123	-0.167
-394.121	-200.000	0.010	0.086
-393.106	127.645	-0.193	0.245
-392.092	333.059	-0.111	-0.213
-391.077	124.703	0.143	-0.179
-390.063	-150.371	-0.318	0.024
-389.048	63.812	-0.195	0.195
-388.033	-111.623	-0.121	-0.024
-387.019	257.654	0.005	-0.009
-386.004	7.211	0.073	0.054
-384.990	-148.498	0.281	0.023
-383.975	-200.000	-0.006	0.069
-382.960	36.273	-0.079	-0.069
-381.946	-38.236	-0.140	0.074
-380.931	-7.526	-0.085	0.057
-379.917	214.237	-0.168	-0.265
-378.902	321.384	-0.055	-0.103
-377.888	-103.253	-0.287	-0.067
-376.873	-54.101	0.390	0.176
-375.858	800.000	0.004	0.015
-374.844	-68.159	-0.337	-0.130
-373.829	-95.973	0.111	-0.029
-372.815	-92.844	-0.217	-0.060
-371.800	-139.775	-0.208	0.022
-370.785	-200.000	0.033	-0.189
-369.771	137.935	-0.135	-0.175
-368.756	800.000	0.094	0.363
-367.742	800.000	0.144	-0.523
-366.727	351.203	-0.133	-0.261
-365.712	93.597	-0.136	-0.154
-364.698	-135.977	-0.064	0.007
-363.683	173.400	-0.136	0.195
-362.669	27.557	0.226	0.189
-361.654	800.000	-0.118	0.340
-360.639	-35.902	0.289	0.156
-359.625	-108.555	0.328	-0.070
-358.610	228.918	-0.189	0.307
-357.596	800.000	-0.067	0.260
-356.581	800.000	0.039	-0.165
-355.566	-88.627	-0.163	-0.048
-354.552	-112.941	0.220	0.043
-353.537	-15.682	0.449	0.285
-352.523	19.461	0.203	0.162
-351.508	36.703	0.090	0.079
-350.493	-200.000	0.002	0.179
-349.479	-85.776	0.062	0.019
-348.464	800.000	-0.086	0.281
-347.450	-200.000	0.003	-0.161
-346.435	-82.463	-0.124	-0.040
-345.420	-62.066	-0.090	0.037
-344.406	-58.783	0.173	0.074
-343.391	100.404	-0.224	0.258
-342.377	-200.000	-0.030	-0.324
-341.362	-200.000	0.011	0.109
-340.348	153.198	0.228	-0.311
-339.333	-200.000	0.049	0.301
-338.318	-170.200	0.058	-0.002
-337.304	-101.046	-0.197	-0.048
-336.289	313.692	-0.086	0.160
-335.275	800.000	-0.056	0.206
-334.260	-133.696	0.130	-0.016
-333.245	-31.969	-0.076	0.042
-332.231	5.898	-0.168	0.123
-331.216	-97.440	-0.071	0.018
-330.202	-147.145	-0.337	-0.029
-329.187	-200.000	0.086	0.385
-328.172	101.748	0.094	0.108
-327.158	-7.183	-0.400	-0.269
-326.143	-190.181	-0.065	-0.001
-325.129	-9.690	0.285	0.189
-324.114	-200.000	0.008	0.112
-323.099	440.749	-0.030	0.065
-322.085	31.475	0.109	0.093
-321.070	-58.818	0.239	-0.103
-320.056	29.363	-0.242	-0.204
-319.041	-200.000	-0.014	-0.078
-318.026	-200.000	-0.045	0.346
-317.012	-200.000	-0.014	0.068
-315.997	-200.000	-0.015	0.201
-314.983	345.399	0.075	0.147
-313.968	-136.347	-0.285	0.033
-312.953	-200.000	-0.062	0.342
-311.939	45.763	0.099	0.091
-310.924	-200.000	-0.035	-0.402
-309.910	186.196	-0.173	-0.255
-308.895	-68.793	0.358	-0.137
-307.880	-62.938	0.098	0.040
-306.866	-61.970	-0.166	0.069
-305.851	121.430	-0.033	0.041
-304.837	237.740	-0.068	0.112
-303.822	-17.163	-0.240	0.150
-302.807	-200.000	0.010	-0.101
-301.793	-166.046	-0.113	0.005
-300.778	355.189	-0.077	-0.151
-299.764	-32.626	-0.103	-0.057
-298.749	-4.565	-0.116	0.079
-297.735	-37.370	0.160	0.085
-296.720	263.012	-0.139	-0.240
-295.705	-157.317	-0.146	-0.009
-294.691	261.030	-0.014	-0.023
-293.676	168.380	-0.089	-0.125
-292.662	145.213	0.138	0.183
-291.647	115.253	-0.120	0.146
-290.632	58.712	0.086	-0.084
-289.618	-53.229	-0.315	-0.143
-288.603	-165.529	0.286	0.012
-287.589	-95.149	-0.185	0.049
-286.574	162.712	0.222	-0.309
-285.559	-0.827	-0.103	-0.072
-284.545	180.017	-0.310	0.450
-283.530	-102.578	0.305	0.072
-282.516	-83.835	0.195	0.062
-281.501	-45.119	0.134	-0.066
-280.486	150.634	-0.151	-0.203
-279.472	-200.000	-0.072	-0.447
-278.457	74.158	-0.152	0.158
-277.443	-81.051	-0.475	-0.156
-276.428	255.790	-0.176	0.299
-275.413	-113.981	0.109	-0.021
-274.399	-82.060	-0.208	-0.067
-273.384	-141.301	-0.388	-0.039
-272.370	-64.980	0.118	0.047
-271.355	51.850	-0.280	0.264
-270.340	-82.892	-0.282	-0.090
-269.326	800.000	0.145	-0.444
-268.311	-63.060	0.397	-0.162
-267.297	-64.809	-0.202	-0.081
-266.282	800.000	-0.064	0.198
-265.267	-88.410	0.250	-0.074
-264.253	800.000	0.072	0.223
-263.238	-200.000	-0.004	-0.273
-262.224	-47.414	0.079	0.038
-261.209	-200.000	-0.022	0.231
-260.195	-67.708	-0.246	0.095
-259.180	-1.066	0.377	0.264
-258.165	15.486	0.177	-0.138
-257.151	320.357	-0.152	-0.286
-256.136	-151.455	-0.089	0.007
-255.122	-31.595	0.025	-0.014
-254.107	800.000	-0.035	-0.105
-253.092	84.144	-0.025	0.027
-252.078	-200.000	-0.020	0.248
-251.063	152.500	-0.070	-0.095
-250.049	-200.000	-0.012	0.107
-249.034	13.422	0.145	0.111
-248.019	212.606	0.203	-0.317
-247.005	-64.388	0.276	-0.111
-245.990	-45.683	0.122	-0.060
-244.976	212.903	0.146	0.229
-243.961	800.000	0.077	0.249
-242.946	-200.000	0.048	-0.338
-241.932	53.996	0.098	-0.093
-240.917	7.123	-0.081	0.060
-239.903	-142.683	0.658	-0.064
-238.888	769.498	-0.096	-0.259
-237.873	155.273	-0.109	0.149
-236.859	32.186	-0.260	0.222
-235.844	45.696	0.114	0.104
-234.830	800.000	0.121	-0.340
-233.815	-88.023	-0.130	0.039
-232.800	-200.000	-0.029	0.140
-231.786	277.656	0.182	0.320
-230.771	187.674	0.102	-0.150
-229.757	-125.707	-0.421	-0.063
-228.742	-112.809	0.226	-0.044
-227.727	-200.000	0.003	-0.427
-226.713	-200.000	-0.037	0.214
-225.698	362.225	0.036	0.072
-224.684	-68.948	0.114	-0.043
-223.669	349.314	-0.149	-0.291
-222.655	-72.474	0.234	-0.085
-221.640	-200.000	0.013	0.115
-220.625	-46.147	0.431	-0.210
-219.611	-52.638	0.050	-0.023
-218.596	-83.785	-0.103	0.032
-217.582	240.877	-0.053	0.087
-216.567	-21.910	-0.035	0.021
-215.552	-32.718	0.125	0.069
-214.538	-11.469	-0.159	0.103
-213.523	116.562	0.132	0.159
-212.509	597.692	-0.114	-0.280
-211.494	-200.000	0.010	0.299
-210.479	195.734	0.260	0.390
-209.465	-113.956	-0.262	-0.050
-208.450	-54.468	0.347	-0.156
-207.436	-200.000	0.023	0.172
-206.421	-200.000	0.052	-0.378
-205.406	-200.000	0.042	-0.361
-204.392	800.000	-0.118	0.386
-203.377	800.000	0.036	-0.116
-202.363	112.358	0.035	0.041
-201.348	800.000	0.065	-0.235
-200.333	105.010	-0.107	0.124
-199.319	-92.330	-0.080	-0.022
-198.304	800.000	0.065	0.178
-197.290	800.000	0.009	0.038
-196.275	800.000	-0.018	-0.050
-195.260	436.619	-0.160	0.343
-194.246	-200.000	0.014	0.116
-193.231	149.668	0.169	0.227
-192.217	-152.497	0.095	0.007
-191.202	-62.706	0.095	-0.039
-190.187	-115.824	-0.323	0.060
-189.173	-200.000	-0.031	0.479
-188.158	-88.442	0.156	0.046
-187.144	-200.000	0.007	0.205
-186.129	-200.000	0.083	0.362
-185.114	-67.134	-0.081	0.032
-184.100	800.000	-0.028	-0.111
-183.085	800.000	-0.047	-0.187
-182.071	-55.302	-0.186	-0.082
-181.056	55.995	0.133	0.127
-180.042	-182.895	0.375	-0.007
-179.027	800.000	-0.072	0.259
-178.012	115.879	-0.023	0.028
-176.998	58.799	-0.055	-0.053
-175.983	703.833	0.165	0.429
-174.969	-66.898	0.074	-0.029
-173.954	-79.007	0.341	-0.115
-172.939	-95.608	0.253	-0.067
-171.925	270.167	0.135	-0.235
-170.910	-200.000	-0.019	-0.151
-169.896	222.189	0.137	-0.217
-168.881	-42.390	0.168	-0.085
-167.866	-189.620	-0.167	-0.002
-166.852	-200.000	0.019	0.111
-165.837	-188.748	0.444	0.005
-164.823	324.414	0.117	-0.220
-163.808	26.262	0.265	0.218
-162.793	-60.449	-0.176	-0.074
-161.779	800.000	-0.058	0.222
-160.764	-55.326	0.165	-0.073
-159.750	-200.000	-0.023	-0.269
-158.735	335.468	-0.074	0.141
-157.720	216.890	0.170	0.266
-156.706	270.554	0.113	-0.196
-155.691	17.938	-0.252	0.198
-154.677	-200.000	-0.011	-0.301
-153.662	538.485	-0.015	0.036
-152.647	-89.244	-0.216	0.063
-151.633	50.711	0.192	0.180
-150.618	-200.000	-0.018	0.255
-149.604	29.865	0.046	-0.039
-148.589	93.465	-0.104	0.116
-147.574	800.000	0.068	0.284
-146.560	568.285	0.233	0.557
-145.545	78.855	-0.261	-0.276
-144.531	76.390	-0.194	-0.202
-143.516	-200.000	0.003	0.258
-142.502	-154.090	0.625	-0.042
-141.487	248.240	0.124	0.207
-140.472	-200.000	0.030	-0.167
-139.458	23.908	-0.230	-0.187
-138.443	214.873	-0.107	-0.168
-137.429	-200.000	-0.021	0.144
-136.414	331.278	-0.016	-0.031
-135.399	56.857	0.070	-0.067
-134.385	-59.668	-0.132	0.056
-133.370	-89.527	0.269	0.078
-132.356	-106.735	-0.439	-0.096
-131.341	-200.000	-0.018	-0.179
-130.326	83.504	-0.159	-0.170
-129.312	-40.589	0.180	0.092
-128.297	31.616	-0.256	0.217
-127.283	-200.000	-0.024	0.276
-126.268	-138.806	-0.246	-0.026
-125.253	422.421	-0.087	-0.184
-124.239	800.000	-0.084	-0.323
-123.224	116.253	-0.125	-0.151
-122.210	-128.122	-0.168	-0.024
