DTS Sentinel unit serial number:	SN413079Multiplexer serial number:	ORYXHardware model number:	OX4-SRSoftware version number:	ORYX F/W v4.00 Oryx Data Collector v3.7.2.0data status	okinstallation	princeton_trtdifferential loss correction	single-endedforward channel	channel 2reverse channel	N/Adate	2019/09/16time	17:19:35forward acquisition time	60.00reverse acquisition time	0.00gamma	496.2192k internal	0.2309k external	0.2309temperature offset calibration	0.9944default loss term (dB/km)	0.3790temperature slope calibration	1.0000multiplexer offset coefficient	1.0000multiplexer slope coefficient	1.0000fibre end	0.00T internal ref (°C)	38.78T ext. ref 1 (°C)	15.40T ext. ref 2 (°C)	32.83length (m)	temperature (°C)	Stokes	anti-Stokes-747.200	202.157	0.076	-0.120
-746.185	-19.041	0.204	-0.129
-745.171	758.197	-0.103	0.283
-744.156	57.451	-0.378	0.375
-743.142	669.046	0.077	0.201
-742.127	800.000	-0.061	0.205
-741.112	232.559	-0.126	-0.210
-740.098	299.047	0.051	0.095
-739.083	-88.410	0.158	0.048
-738.069	487.679	0.096	0.222
-737.054	-118.567	-0.303	-0.054
-736.039	40.098	0.181	0.165
-735.025	173.687	-0.152	0.223
-734.010	322.741	-0.125	-0.243
-732.996	-200.000	-0.026	-0.427
-731.981	-200.000	-0.014	-0.149
-730.966	-200.000	0.011	0.192
-729.952	-133.012	-0.421	-0.054
-728.937	-68.831	-0.142	0.056
-727.923	31.316	-0.151	-0.132
-726.908	-200.000	-0.012	-0.106
-725.894	-0.896	-0.279	-0.200
-724.879	28.346	-0.231	0.198
-723.864	800.000	0.081	-0.238
-722.850	37.531	0.349	-0.314
-721.835	-84.674	0.281	0.090
-720.821	-6.762	-0.169	0.117
-719.806	367.846	-0.185	-0.379
-718.791	-1.042	0.218	0.157
-717.777	-19.117	-0.279	-0.176
-716.762	800.000	0.097	-0.362
-715.748	-60.455	-0.141	-0.061
-714.733	-200.000	-0.019	-0.300
-713.718	93.014	-0.056	-0.064
-712.704	-70.079	-0.628	-0.242
-711.689	-166.769	0.069	0.003
-710.675	76.071	-0.157	-0.168
-709.660	-31.285	-0.215	-0.123
-708.645	25.197	-0.183	0.154
-707.631	-42.443	-0.087	0.045
-706.616	590.779	0.101	-0.253
-705.602	2.515	0.156	-0.114
-704.587	800.000	0.130	0.377
-703.572	-200.000	0.046	-0.228
-702.558	27.159	-0.166	0.141
-701.543	467.214	0.011	-0.025
-700.529	-33.090	0.255	0.143
-699.514	311.975	-0.056	-0.107
-698.499	-49.186	-0.168	-0.082
-697.485	-200.000	-0.002	0.057
-696.470	338.958	-0.032	-0.063
-695.456	4.164	0.175	0.130
-694.441	142.709	-0.027	0.036
-693.426	-109.590	0.193	0.041
-692.412	12.648	-0.099	-0.077
-691.397	109.532	0.245	-0.297
-690.383	-19.571	-0.332	-0.209
-689.368	161.286	0.195	0.276
-688.354	177.590	0.137	-0.203
-687.339	55.873	-0.221	0.217
-686.324	-99.716	-0.380	-0.097
-685.310	143.214	0.093	0.125
-684.295	342.708	-0.065	0.129
-683.281	140.148	-0.142	0.190
-682.266	-142.923	-0.178	-0.018
-681.251	-125.206	0.096	-0.015
-680.237	56.390	0.261	0.257
-679.222	-108.087	-0.143	-0.031
-678.208	-94.095	0.085	-0.024
-677.193	-200.000	-0.057	-0.300
-676.178	-200.000	-0.000	0.020
-675.164	-147.211	-0.367	-0.032
-674.149	-200.000	-0.021	-0.104
-673.135	-200.000	0.019	0.146
-672.120	-25.038	0.230	-0.138
-671.105	-137.271	0.146	0.017
-670.091	-135.704	-0.198	-0.024
-669.076	224.713	0.163	-0.266
-668.062	-145.670	0.257	-0.023
-667.047	800.000	0.063	0.220
-666.032	208.573	-0.266	-0.421
-665.018	-65.617	0.162	-0.066
-664.003	-68.395	-0.204	0.080
-662.989	593.390	-0.124	0.310
-661.974	25.242	-0.204	0.172
-660.959	-200.000	-0.014	-0.120
-659.945	-110.286	-0.208	-0.044
-658.930	-47.617	-0.101	0.050
-657.916	-200.000	-0.012	-0.228
-656.901	165.625	-0.047	0.068
-655.886	103.591	-0.084	-0.100
-654.872	-200.000	-0.044	-0.293
-653.857	-110.694	0.220	-0.046
-652.843	87.547	0.196	-0.220
-651.828	168.746	0.156	-0.226
-650.814	-200.000	0.008	-0.356
-649.799	5.524	0.122	-0.091
-648.784	657.401	-0.040	-0.103
-647.770	-128.883	-0.285	0.041
-646.755	442.508	0.054	-0.120
-645.741	-113.029	-0.141	-0.028
-644.726	24.297	-0.160	-0.134
-643.711	-200.000	0.083	-0.377
-642.697	-103.957	0.127	-0.030
-641.682	-37.113	0.090	-0.049
-640.668	414.535	-0.084	-0.181
-639.653	-151.994	-0.302	0.022
-638.638	464.685	0.174	-0.394
-637.624	800.000	0.011	0.031
-636.609	-135.921	0.191	0.023
-635.595	-200.000	-0.043	0.248
-634.580	-169.340	-0.158	0.006
-633.565	29.673	0.093	-0.080
-632.551	-38.290	-0.121	0.065
-631.536	-166.161	0.017	-0.001
-630.522	-200.000	0.012	-0.240
-629.507	-200.000	0.080	-0.372
-628.492	0.618	-0.221	0.160
-627.478	-30.700	0.168	0.096
-626.463	55.879	0.179	0.176
-625.449	800.000	0.034	0.114
-624.434	479.088	-0.046	0.105
-623.419	-13.754	-0.338	-0.221
-622.405	-200.000	-0.010	-0.075
-621.390	-200.000	0.063	0.281
-620.376	-130.845	-0.363	-0.049
-619.361	-7.143	0.096	-0.066
-618.346	9.016	-0.060	0.046
-617.332	16.711	0.142	-0.113
-616.317	800.000	-0.037	0.116
-615.303	65.379	-0.135	-0.138
-614.288	344.691	-0.089	0.176
-613.273	0.078	0.216	-0.156
-612.259	-200.000	-0.064	0.335
-611.244	-200.000	-0.025	0.221
-610.230	800.000	-0.048	-0.198
-609.215	509.131	0.166	0.389
-608.201	800.000	0.049	0.191
-607.186	-148.973	-0.100	-0.008
-606.171	11.209	-0.247	0.191
-605.157	-24.322	0.031	0.019
-604.142	788.611	0.046	-0.128
-603.128	-25.619	0.169	0.101
-602.113	41.877	0.155	0.142
-601.098	232.840	0.184	0.305
-600.084	-78.444	-0.065	-0.023
-599.069	-37.995	0.175	0.094
-598.055	74.876	-0.119	-0.126
-597.040	-200.000	-0.022	0.303
-596.025	-35.798	0.292	0.160
-595.011	686.859	-0.089	0.236
-593.996	-200.000	-0.005	-0.344
-592.982	-38.113	-0.098	0.052
-591.967	-189.644	-0.057	-0.001
-590.952	-140.091	0.154	0.016
-589.938	489.348	-0.056	0.128
-588.923	72.587	-0.087	0.091
-587.909	393.415	0.056	-0.118
-586.894	-200.000	0.012	-0.284
-585.879	-103.268	-0.319	-0.076
-584.865	-31.061	-0.162	0.092
-583.850	6.186	-0.239	-0.179
-582.836	-200.000	0.036	0.224
-581.821	-200.000	0.018	0.097
-580.806	-97.851	-0.127	-0.033
-579.792	-53.932	0.226	0.104
-578.777	286.289	-0.206	-0.375
-577.763	-200.000	0.015	0.090
-576.748	-200.000	-0.007	0.099
-575.733	-98.228	-0.066	-0.017
-574.719	-200.000	-0.053	-0.379
-573.704	-81.774	-0.059	0.019
-572.690	54.132	0.134	-0.130
-571.675	-141.252	-0.440	0.045
-570.661	800.000	-0.065	-0.228
-569.646	31.656	-0.132	-0.114
-568.631	13.546	-0.025	-0.019
-567.617	171.391	-0.081	-0.117
-566.602	-63.415	0.293	0.121
-565.588	-151.499	0.071	0.005
-564.573	15.390	-0.172	-0.136
-563.558	-200.000	0.014	-0.101
-562.544	74.432	-0.165	0.175
-561.529	155.545	0.087	-0.121
-560.515	-41.706	0.138	-0.072
-559.500	299.271	0.057	0.106
-558.485	-200.000	0.002	0.051
-557.471	186.255	0.121	-0.182
-556.456	-78.325	0.207	0.072
-555.442	-137.796	0.256	-0.029
-554.427	86.001	-0.126	0.140
-553.412	-47.956	0.238	-0.116
-552.398	-132.594	0.194	0.025
-551.383	54.354	-0.314	0.305
-550.369	800.000	0.072	0.278
-549.354	-200.000	-0.037	-0.289
-548.339	2.148	-0.166	-0.121
-547.325	7.911	-0.303	0.229
-546.310	578.823	-0.024	-0.059
-545.296	800.000	-0.078	0.237
-544.281	-93.927	0.315	-0.087
-543.266	-27.092	-0.170	0.100
-542.252	417.410	0.078	0.167
-541.237	178.708	0.029	0.043
-540.223	-114.954	-0.196	-0.038
-539.208	-197.832	-0.257	0.002
-538.193	108.675	0.070	-0.085
-537.179	800.000	0.080	0.282
-536.164	-79.468	-0.043	-0.015
-535.150	-105.414	-0.074	-0.017
-534.135	-200.000	-0.014	0.089
-533.121	-3.452	-0.019	0.014
-532.106	-130.505	0.151	-0.021
-531.091	-144.161	0.110	0.010
-530.077	-200.000	0.024	0.196
-529.062	800.000	-0.046	0.137
-528.048	-74.494	0.182	-0.066
-527.033	800.000	-0.073	-0.270
-526.018	-15.588	-0.178	0.115
-525.004	48.414	0.039	0.037
-523.989	-61.366	-0.364	0.154
-522.975	122.774	0.164	0.207
-521.960	-71.943	0.121	0.045
-520.945	53.287	-0.158	0.153
-519.931	13.125	0.086	0.067
-518.916	-200.000	-0.014	0.224
-517.902	120.710	-0.203	0.254
-516.887	-76.566	0.210	0.074
-515.872	-121.595	-0.153	0.026
-514.858	149.926	-0.145	-0.198
-513.843	-135.136	0.271	-0.033
-512.829	-200.000	-0.255	0.001
-511.814	56.640	-0.073	0.071
-510.799	-200.000	-0.011	0.103
-509.785	-56.287	-0.206	-0.092
-508.770	24.678	-0.172	-0.143
-507.756	-73.275	-0.302	-0.111
-506.741	800.000	0.049	0.141
-505.726	800.000	-0.124	-0.345
-504.712	-200.000	-0.051	-0.233
-503.697	781.412	0.050	-0.138
-502.683	35.848	0.308	-0.273
-501.668	-200.000	0.041	-0.333
-500.653	356.452	-0.212	0.426
-499.639	226.852	-0.171	-0.280
-498.624	-135.304	0.259	-0.031
-497.610	-104.859	0.013	-0.003
-496.595	-200.000	0.006	0.266
-495.581	-188.238	-0.119	0.002
-494.566	-200.000	-0.017	0.095
-493.551	283.355	-0.130	0.234
-492.537	800.000	0.066	-0.189
-491.522	35.353	0.018	-0.016
-490.508	80.481	0.282	0.306
-489.493	-200.000	0.057	0.423
-488.478	-197.254	0.315	0.002
-487.464	800.000	0.040	-0.111
-486.449	-200.000	-0.035	0.255
-485.435	-90.748	0.138	0.040
-484.420	160.618	0.199	0.279
-483.405	277.299	-0.060	0.108
-482.391	166.038	-0.109	0.155
-481.376	-78.820	-0.169	0.058
-480.362	-173.716	0.364	-0.011
-479.347	-200.000	0.044	0.251
-478.332	72.638	-0.009	-0.010
-477.318	179.627	0.265	-0.390
-476.303	-130.685	-0.293	0.040
-475.289	-46.060	-0.225	0.111
-474.274	-200.000	0.043	-0.329
-473.259	-200.000	0.003	-0.066
-472.245	141.902	0.059	-0.079
-471.230	-166.634	-0.291	-0.012
-470.216	-200.000	0.023	-0.139
-469.201	209.308	0.126	-0.198
-468.186	52.519	0.281	0.270
-467.172	-200.000	0.007	0.118
-466.157	-25.605	0.179	-0.106
-465.143	-200.000	-0.015	-0.066
-464.128	280.173	0.138	0.247
-463.113	-75.558	0.182	0.065
-462.099	-118.007	0.229	-0.041
-461.084	682.162	0.079	0.207
-460.070	-200.000	-0.030	-0.142
-459.055	63.831	0.063	0.064
-458.040	73.761	-0.025	-0.027
-457.026	800.000	-0.059	-0.222
-456.011	-200.000	-0.005	-0.102
-454.997	-112.317	0.329	0.066
-453.982	34.831	0.239	-0.210
-452.968	183.734	-0.082	0.121
-451.953	-200.000	0.060	-0.310
-450.938	-116.908	0.145	0.027
-449.924	-200.000	-0.042	0.347
-448.909	-16.931	-0.175	-0.111
-447.895	-200.000	-0.005	-0.259
-446.880	230.609	0.148	0.244
-445.865	-200.000	-0.009	-0.074
-444.851	145.377	-0.077	0.104
-443.836	-93.369	-0.280	0.078
-442.822	64.353	-0.088	-0.089
-441.807	287.805	-0.055	-0.101
-440.792	800.000	-0.063	-0.193
-439.778	36.381	0.142	-0.125
-438.763	-89.603	-0.222	0.065
-437.749	36.213	-0.088	-0.077
-436.734	31.566	-0.131	-0.113
-435.719	-5.983	-0.123	-0.084
-434.705	-154.812	-0.152	-0.010
-433.690	-64.558	-0.116	-0.047
-432.676	-24.994	-0.086	0.051
-431.661	169.106	0.083	0.119
-430.646	330.088	-0.102	0.198
-429.632	-20.971	-0.129	-0.079
-428.617	781.678	-0.106	0.291
-427.603	-58.127	0.228	-0.100
-426.588	596.771	-0.050	0.125
-425.573	-200.000	-0.025	-0.204
-424.559	-200.000	-0.014	-0.068
-423.544	-33.845	-0.096	0.053
-422.530	-121.135	-0.139	-0.023
-421.515	-200.000	0.021	0.278
-420.500	-200.000	-0.003	-0.320
-419.486	-3.113	0.220	0.154
-418.471	-151.620	-0.180	-0.013
-417.457	800.000	0.045	-0.196
-416.442	-41.174	0.595	0.308
-415.428	-74.319	-0.206	0.075
-414.413	654.649	0.074	-0.191
-413.398	-200.000	-0.010	-0.121
-412.384	-200.000	-0.014	-0.220
-411.369	800.000	0.044	0.192
-410.355	-176.593	-0.287	-0.007
-409.340	2.503	0.259	0.188
-408.325	-200.000	0.021	0.352
-407.311	-154.958	-0.075	-0.005
-406.296	8.731	0.315	-0.238
-405.282	-200.000	-0.003	0.072
-404.267	-156.750	-0.390	0.024
-403.252	-11.318	0.230	0.152
-402.238	274.619	-0.040	0.071
-401.223	-71.082	-0.226	0.085
-400.209	432.530	0.028	0.061
-399.194	-109.645	-0.074	-0.016
-398.179	-114.160	0.157	-0.030
-397.165	14.936	-0.146	-0.114
-396.150	-200.000	0.034	-0.184
-395.136	17.766	-0.221	-0.176
-394.121	-35.533	0.164	0.089
-393.106	221.728	0.127	-0.205
-392.092	711.536	0.050	-0.133
-391.077	800.000	-0.043	-0.153
-390.063	259.662	0.128	-0.221
-389.048	-198.717	0.226	0.001
-388.033	-200.000	-0.026	0.197
-387.019	-188.946	0.215	0.003
-386.004	-59.362	0.284	-0.122
-384.990	-200.000	0.034	0.230
-383.975	-69.633	-0.111	0.042
-382.960	125.225	-0.080	0.101
-381.946	118.637	-0.143	-0.177
-380.931	-68.302	-0.125	0.049
-379.917	800.000	-0.052	0.226
-378.902	-38.893	-0.339	0.179
-377.888	800.000	-0.035	0.132
-376.873	800.000	0.060	-0.178
-375.858	127.365	-0.070	-0.089
-374.844	-41.559	0.047	-0.024
-373.829	-129.541	-0.350	0.048
-372.815	-73.165	0.153	-0.056
-371.800	-200.000	-0.076	-0.350
-370.785	-84.138	-0.181	-0.058
-369.771	63.038	0.116	0.116
-368.756	53.611	0.129	0.124
-367.742	-200.000	-0.006	-0.178
-366.727	-200.000	0.038	-0.191
-365.712	387.295	-0.147	-0.304
-364.698	-200.000	-0.000	-0.233
-363.683	211.171	0.234	0.369
-362.669	374.843	-0.111	0.226
-361.654	-200.000	0.016	0.128
-360.639	18.901	0.137	-0.110
-359.625	-28.836	0.331	0.191
-358.610	-88.043	0.312	-0.094
-357.596	-200.000	0.021	-0.259
-356.581	800.000	-0.048	-0.191
-355.566	116.472	-0.177	-0.217
-354.552	-112.555	0.139	-0.028
-353.537	-174.784	-0.164	0.005
-352.523	-25.336	0.030	-0.018
-351.508	-200.000	-0.023	-0.230
-350.493	800.000	-0.035	0.100
-349.479	538.245	0.125	0.296
-348.464	562.803	0.125	0.302
-347.450	-8.624	0.153	0.103
-346.435	800.000	-0.072	0.239
-345.420	-32.775	-0.030	-0.017
-344.406	-78.831	-0.193	-0.066
-343.391	-78.480	-0.088	-0.030
-342.377	-200.000	-0.004	0.259
-341.362	28.720	-0.194	-0.165
-340.348	-200.000	0.003	-0.287
-339.333	200.502	-0.151	0.231
-338.318	273.365	-0.037	-0.066
-337.304	-64.936	-0.424	0.171
-336.289	269.301	0.036	-0.062
-335.275	155.133	0.114	-0.157
-334.260	800.000	0.026	0.092
-333.245	153.934	0.049	-0.067
-332.231	800.000	0.037	0.116
-331.216	-134.026	0.126	0.016
-330.202	2.028	0.194	0.140
-329.187	-123.749	-0.396	-0.063
-328.172	-78.540	-0.283	0.097
-327.158	-56.120	0.260	0.116
-326.143	52.520	-0.202	0.193
-325.129	800.000	0.061	-0.189
-324.114	-200.000	-0.004	-0.030
-323.099	600.064	-0.092	-0.228
-322.085	-186.320	0.293	0.004
-321.070	-176.832	0.136	0.003
-320.056	-14.422	0.044	-0.028
-319.041	-200.000	-0.020	-0.430
-318.026	800.000	0.127	-0.467
-317.012	800.000	-0.040	-0.116
-315.997	314.878	0.163	-0.307
-314.983	-32.463	-0.120	-0.067
-313.968	-19.512	-0.193	0.120
-312.953	-135.471	-0.223	-0.027
-311.939	108.620	-0.051	-0.061
-310.924	325.502	0.035	0.066
-309.910	800.000	0.104	0.320
-308.895	800.000	-0.086	-0.257
-307.880	193.596	-0.124	0.188
-306.866	369.506	-0.026	-0.052
-305.851	800.000	-0.044	-0.147
-304.837	580.991	-0.081	0.198
-303.822	89.911	-0.060	-0.067
-302.807	-100.800	0.259	-0.064
-301.793	-135.949	-0.385	-0.045
-300.778	-96.067	0.103	-0.027
-299.764	207.009	-0.187	0.290
-298.749	-103.990	-0.273	0.064
-297.735	-12.670	0.241	0.157
-296.720	-88.098	-0.282	0.084
-295.705	61.279	0.115	-0.114
-294.691	-200.000	0.004	0.273
-293.676	-6.391	-0.200	-0.136
-292.662	107.553	0.133	0.158
-291.647	121.906	0.143	0.179
-290.632	-131.524	0.114	-0.015
-289.618	-68.435	-0.332	-0.128
-288.603	800.000	0.062	0.214
-287.589	-15.458	0.074	0.047
-286.574	-82.500	0.113	0.037
-285.559	36.509	0.103	-0.091
-284.545	-200.000	-0.011	-0.384
-283.530	-48.101	-0.302	0.145
-282.516	-148.728	0.234	-0.019
-281.501	-200.000	0.005	0.148
-280.486	216.416	-0.099	-0.157
-279.472	800.000	-0.034	0.106
-278.457	800.000	0.043	-0.139
-277.443	800.000	-0.089	-0.305
-276.428	-200.000	-0.005	-0.066
-275.413	-57.944	0.191	-0.083
-274.399	0.948	0.108	0.077
-273.384	168.866	0.129	-0.184
-272.370	-20.471	0.116	-0.071
-271.355	115.563	0.156	0.191
-270.340	-67.093	-0.146	0.057
-269.326	800.000	-0.038	-0.149
-268.311	-13.967	0.129	0.083
-267.297	-5.071	0.194	0.133
-266.282	117.771	-0.206	-0.253
-265.267	-200.000	0.018	0.115
-264.253	-132.029	-0.122	0.016
-263.238	-200.000	-0.022	-0.400
-262.224	135.398	0.044	-0.058
-261.209	-157.338	-0.273	-0.016
-260.195	-65.065	-0.121	-0.049
-259.180	465.523	0.098	0.220
-258.165	-112.205	-0.204	0.041
-257.151	-128.877	0.486	0.068
-256.136	167.928	-0.121	0.172
-255.122	107.144	-0.207	-0.245
-254.107	-200.000	0.013	0.157
-253.092	97.070	0.057	-0.065
-252.078	-200.000	-0.013	0.158
-251.063	-42.462	-0.113	-0.058
-250.049	129.432	0.131	-0.167
-249.034	173.956	0.399	0.575
-248.019	800.000	-0.068	0.192
-247.005	41.200	-0.075	-0.067
-245.990	454.442	0.088	-0.194
-244.976	-200.000	0.006	-0.215
-243.961	-74.961	0.095	-0.034
-242.946	395.192	0.066	-0.136
-241.932	-33.376	-0.300	-0.165
-240.917	249.029	-0.080	0.135
-239.903	-114.603	0.581	0.111
-238.888	132.197	0.131	0.168
-237.873	88.617	-0.304	-0.337
-236.859	-12.087	-0.188	0.123
-235.844	-36.009	0.466	-0.251
-234.830	298.880	-0.233	-0.427
-233.815	800.000	0.037	0.130
-232.800	-200.000	0.034	0.220
-231.786	133.332	0.225	0.290
-230.771	-200.000	0.034	-0.253
-229.757	-101.628	-0.080	-0.019
-228.742	-172.686	0.178	0.006
-227.727	177.945	0.116	-0.169
-226.713	153.469	-0.052	0.071
-225.698	800.000	0.071	0.203
-224.684	316.634	0.122	0.229
-223.669	-71.142	0.052	-0.019
-222.655	479.704	0.094	-0.212
-221.640	82.515	0.155	0.167
-220.625	-63.958	0.225	0.091
-219.611	-200.000	-0.042	0.228
-218.596	-200.000	0.002	-0.052
-217.582	-111.419	-0.219	0.044
-216.567	110.383	-0.354	0.423
-215.552	716.494	-0.125	-0.331
-214.538	-84.077	0.302	0.095
-213.523	171.199	-0.090	-0.128
-212.509	-200.000	0.037	0.242
-211.494	-113.484	-0.216	-0.042
-210.479	-104.487	0.189	0.043
-209.465	-111.711	0.125	0.025
-208.450	-102.956	0.063	0.015
-207.436	-200.000	0.063	0.362
-206.421	208.811	-0.169	0.262
-205.406	-95.797	-0.117	-0.031
-204.392	800.000	-0.088	0.351
-203.377	-200.000	-0.008	0.046
-202.363	-126.929	-0.168	0.025
-201.348	-47.259	0.287	0.139
-200.333	-77.911	-0.256	0.088
-199.319	-139.767	0.225	0.024
-198.304	-200.000	0.011	-0.199
-197.290	501.027	-0.031	-0.071
-196.275	-200.000	0.014	0.084
-195.260	83.417	0.140	-0.152
-194.246	-37.045	-0.330	0.176
-193.231	76.437	-0.397	-0.418
-192.217	800.000	0.054	0.236
-191.202	-200.000	-0.036	-0.220
-190.187	-15.735	0.153	-0.097
-189.173	122.356	-0.260	-0.323
-188.158	-200.000	-0.020	-0.094
-187.144	-111.866	0.235	-0.047
-186.129	-126.703	0.442	0.065
-185.114	-97.647	-0.232	-0.060
-184.100	561.582	0.154	-0.369
-183.085	100.727	0.328	0.379
-182.071	149.347	0.101	0.136
-181.056	231.193	-0.071	0.116
-180.042	800.000	-0.143	-0.509
-179.027	211.892	-0.057	0.089
-178.012	800.000	-0.080	-0.240
-176.998	-73.138	0.348	0.127
-175.983	226.094	0.089	-0.144
-174.969	61.462	-0.200	0.198
-173.954	74.467	-0.103	0.108
-172.939	137.025	0.192	0.249
-171.925	2.866	0.142	-0.102
-170.910	-90.753	0.282	0.081
-169.896	365.541	0.116	-0.232
-168.881	-31.238	0.121	0.068
-167.866	16.100	-0.203	0.159
-166.852	-200.000	0.003	-0.111
-165.837	-200.000	-0.009	0.083
-164.823	492.948	0.115	-0.262
-163.808	385.960	0.135	-0.276
-162.793	2.625	0.077	0.055
-161.779	22.609	0.063	-0.051
-160.764	637.554	-0.117	0.295
-159.750	800.000	0.022	-0.093
-158.735	3.378	0.131	-0.094
-157.720	-200.000	-0.078	-0.403
-156.706	800.000	-0.118	0.327
-155.691	800.000	-0.055	0.171
-154.677	-116.132	0.088	-0.016
-153.662	25.779	-0.255	-0.211
-152.647	-180.910	0.399	-0.008
-151.633	-200.000	-0.057	-0.398
-150.618	-159.099	-0.053	0.003
-149.604	-200.000	0.001	0.114
-148.589	-67.907	0.080	-0.031
-147.574	87.758	0.098	0.108
-146.560	-8.558	-0.243	-0.162
-145.545	-35.723	0.097	0.052
-144.531	64.639	-0.182	0.183
-143.516	-200.000	0.005	-0.047
-142.502	800.000	0.073	-0.211
-141.487	238.833	-0.099	0.164
-140.472	-161.350	-0.141	-0.007
-139.458	-200.000	-0.063	0.288
-138.443	527.401	0.117	0.275
-137.429	181.140	-0.122	0.179
-136.414	-76.993	-0.274	0.095
-135.399	151.618	-0.131	0.176
-134.385	-116.112	-0.386	-0.071
-133.370	800.000	0.100	-0.407
-132.356	800.000	-0.025	-0.102
-131.341	717.652	0.132	-0.347
-130.326	-200.000	0.023	0.139
-129.312	800.000	0.051	0.217
-128.297	15.127	0.224	-0.174
-127.283	133.021	0.123	-0.157
-126.268	152.444	0.203	-0.275
-125.253	-49.734	0.127	0.060
-124.239	-29.742	-0.272	0.154
-123.224	71.815	0.162	0.167
-122.210	300.493	-0.086	-0.158
