DTS Sentinel unit serial number:	SN413079Multiplexer serial number:	ORYXHardware model number:	OX4-SRSoftware version number:	ORYX F/W v4.00 Oryx Data Collector v3.7.2.0data status	okinstallation	princeton_trtdifferential loss correction	single-endedforward channel	channel 2reverse channel	N/Adate	2019/09/18time	05:31:35forward acquisition time	60.00reverse acquisition time	0.00gamma	496.2192k internal	0.2348k external	0.2348temperature offset calibration	0.9987default loss term (dB/km)	0.3790temperature slope calibration	1.0000multiplexer offset coefficient	1.0000multiplexer slope coefficient	1.0000fibre end	0.00T internal ref (°C)	23.39T ext. ref 1 (°C)	0.19T ext. ref 2 (°C)	17.01length (m)	temperature (°C)	Stokes	anti-Stokes-747.200	123.562	0.086	-0.107
-746.185	176.707	0.202	0.293
-745.171	-145.100	0.239	-0.022
-744.156	-200.000	0.035	-0.169
-743.142	28.383	-0.091	0.077
-742.127	-52.593	-0.245	-0.113
-741.112	-96.787	0.253	0.067
-740.098	48.671	-0.249	0.233
-739.083	13.951	0.360	-0.280
-738.069	-77.247	-0.296	0.103
-737.054	208.993	-0.156	-0.244
-736.039	-154.169	-0.186	-0.013
-735.025	-101.985	0.134	-0.032
-734.010	-188.850	-0.044	-0.001
-732.996	430.516	-0.154	0.333
-731.981	-61.174	-0.187	0.079
-730.966	-66.441	0.306	0.121
-729.952	-123.030	0.345	0.055
-728.937	15.529	-0.377	0.296
-727.923	-6.017	-0.052	-0.035
-726.908	-200.000	0.005	-0.245
-725.894	-67.767	0.087	0.034
-724.879	106.352	0.175	-0.207
-723.864	-91.239	-0.218	0.062
-722.850	-122.413	-0.360	-0.058
-721.835	800.000	0.124	-0.358
-720.821	-200.000	-0.005	0.207
-719.806	-107.778	-0.297	-0.065
-718.791	800.000	0.068	-0.229
-717.777	125.440	0.090	0.113
-716.762	-29.230	0.113	0.065
-715.748	-36.305	0.063	-0.034
-714.733	111.956	0.246	-0.296
-713.718	388.270	0.068	-0.141
-712.704	125.008	0.074	-0.093
-711.689	32.925	0.335	0.290
-710.675	217.220	-0.166	-0.264
-709.660	-33.113	-0.153	0.085
-708.645	27.610	0.080	0.067
-707.631	-33.692	-0.263	-0.145
-706.616	459.556	0.045	-0.099
-705.602	800.000	-0.056	-0.225
-704.587	219.041	-0.218	-0.347
-703.572	66.423	-0.102	0.103
-702.558	42.794	-0.235	-0.213
-701.543	-60.044	0.187	-0.079
-700.529	142.510	-0.071	0.094
-699.514	89.293	0.121	0.134
-698.499	-78.687	0.062	0.021
-697.485	800.000	0.018	0.049
-696.470	-200.000	0.012	-0.208
-695.456	384.757	-0.093	-0.191
-694.441	362.231	-0.080	-0.159
-693.426	125.029	0.047	0.059
-692.412	-34.085	0.115	0.063
-691.397	-110.305	0.351	0.073
-690.383	-85.366	-0.227	-0.071
-689.368	435.006	-0.042	0.091
-688.354	30.833	0.237	-0.202
-687.339	416.903	-0.134	0.285
-686.324	800.000	0.129	0.518
-685.310	-19.780	0.279	-0.172
-684.295	-157.813	0.530	-0.031
-683.281	-84.524	-0.135	-0.042
-682.266	800.000	-0.062	-0.232
-681.251	471.448	-0.164	0.368
-680.237	47.764	0.244	-0.227
-679.222	68.716	0.261	-0.267
-678.208	32.178	-0.371	-0.319
-677.193	-200.000	0.011	-0.063
-676.178	548.854	-0.065	0.156
-675.164	570.955	-0.095	-0.231
-674.149	-200.000	-0.063	-0.336
-673.135	479.594	0.078	0.176
-672.120	800.000	0.031	-0.091
-671.105	-16.770	-0.120	0.076
-670.091	191.918	0.113	0.169
-669.076	-92.016	-0.140	-0.039
-668.062	212.729	0.075	0.118
-667.047	-159.378	-0.193	-0.011
-666.032	-136.015	-0.242	0.028
-665.018	-200.000	-0.016	0.071
-664.003	-48.891	0.097	0.046
-662.989	-68.026	-0.125	0.049
-661.974	-90.659	0.444	0.128
-660.959	19.024	-0.289	0.231
-659.945	-152.315	-0.228	-0.016
-658.930	-0.757	0.123	-0.087
-657.916	-200.000	0.000	-0.204
-656.901	-97.896	0.219	0.056
-655.886	518.513	0.089	0.208
-654.872	-200.000	0.006	0.258
-653.857	-200.000	-0.001	-0.074
-652.843	172.558	-0.105	0.150
-651.828	-179.610	-0.173	-0.004
-650.814	92.764	0.061	-0.068
-649.799	27.985	-0.123	-0.104
-648.784	-200.000	-0.020	0.173
-647.770	800.000	0.040	0.174
-646.755	41.998	-0.333	0.301
-645.741	-119.939	-0.132	0.023
-644.726	332.492	-0.117	0.225
-643.711	26.177	0.246	0.204
-642.697	-34.168	-0.135	0.074
-641.682	93.660	-0.234	0.264
-640.668	1.593	-0.114	0.081
-639.653	-80.847	-0.251	0.083
-638.638	59.086	0.137	0.134
-637.624	-200.000	0.049	0.250
-636.609	74.012	0.178	0.186
-635.595	-54.615	-0.253	0.114
-634.580	-84.675	-0.022	0.007
-633.565	800.000	-0.062	0.231
-632.551	-200.000	-0.006	-0.252
-631.536	8.579	0.167	-0.125
-630.522	217.089	0.080	-0.127
-629.507	41.232	0.054	-0.048
-628.492	262.382	0.180	-0.310
-627.478	-80.518	-0.213	0.071
-626.463	-200.000	0.020	-0.194
-625.449	-116.800	-0.262	-0.048
-624.434	-99.622	-0.153	-0.038
-623.419	-120.116	0.162	-0.027
-622.405	-200.000	0.007	-0.233
-621.390	-138.970	-0.077	0.008
-620.376	-44.921	0.292	-0.145
-619.361	-109.463	-0.154	-0.032
-618.346	76.658	0.250	-0.264
-617.332	81.626	0.229	-0.246
-616.317	-14.267	0.096	0.061
-615.303	26.089	0.186	0.155
-614.288	-118.744	-0.228	-0.040
-613.273	148.513	0.257	0.345
-612.259	-88.432	-0.251	0.074
-611.244	74.864	-0.111	0.116
-610.230	277.215	-0.106	0.188
-609.215	34.278	-0.134	0.116
-608.201	800.000	0.047	0.181
-607.186	129.194	0.292	-0.370
-606.171	-7.914	-0.234	-0.157
-605.157	-64.272	-0.150	-0.061
-604.142	-169.719	0.246	-0.009
-603.128	800.000	-0.053	-0.169
-602.113	-51.967	-0.212	0.098
-601.098	-36.184	0.257	0.138
-600.084	-68.367	-0.245	0.095
-599.069	-17.115	-0.382	-0.239
-598.055	421.964	0.048	0.102
-597.040	-33.389	-0.130	-0.072
-596.025	-200.000	-0.041	-0.459
-595.011	-139.283	0.202	-0.022
-593.996	108.366	-0.119	0.141
-592.982	-19.703	-0.143	-0.088
-591.967	-200.000	0.017	-0.132
-590.952	-200.000	-0.009	0.196
-589.938	-160.247	-0.145	-0.008
-588.923	249.369	0.229	-0.385
-587.909	55.318	-0.084	-0.081
-586.894	326.957	0.022	-0.043
-585.879	800.000	-0.017	0.066
-584.865	236.597	0.118	0.194
-583.850	-84.943	-0.186	-0.058
-582.836	119.358	-0.122	-0.150
-581.821	252.608	0.062	0.106
-580.806	105.965	0.179	-0.211
-579.792	800.000	-0.051	0.180
-578.777	800.000	-0.066	-0.263
-577.763	-89.873	-0.168	0.049
-576.748	-130.799	0.135	-0.018
-575.733	5.781	0.261	-0.191
-574.719	-200.000	-0.001	-0.191
-573.704	-29.435	0.066	0.037
-572.690	316.090	0.095	-0.179
-571.675	-200.000	0.003	-0.180
-570.661	-58.374	0.302	0.130
-569.646	-28.102	0.068	-0.039
-568.631	-200.000	0.005	0.243
-567.617	131.153	0.176	-0.225
-566.602	-59.956	-0.075	0.032
-565.588	564.255	0.019	-0.047
-564.573	-180.246	0.088	-0.002
-563.558	-90.043	-0.083	0.024
-562.544	61.970	-0.043	0.043
-561.529	155.253	-0.171	-0.233
-560.515	136.443	0.124	-0.161
-559.500	800.000	-0.078	-0.322
-558.485	208.098	0.122	0.188
-557.471	24.556	-0.219	-0.179
-556.456	-56.227	0.201	0.089
-555.442	269.797	-0.154	-0.269
-554.427	-200.000	-0.002	0.237
-553.412	88.140	0.108	-0.118
-552.398	-200.000	-0.018	0.227
-551.383	-7.986	0.101	-0.068
-550.369	0.314	-0.412	-0.292
-549.354	-2.872	0.278	-0.192
-548.339	225.012	-0.196	-0.315
-547.325	-106.747	0.203	-0.045
-546.310	-112.495	0.075	-0.015
-545.296	-45.339	0.464	0.228
-544.281	-87.236	-0.240	0.072
-543.266	-80.159	-0.301	-0.100
-542.252	-101.295	-0.179	-0.043
-541.237	74.268	-0.056	-0.059
-540.223	-69.234	0.135	0.051
-539.208	-54.132	-0.219	0.099
-538.193	71.300	0.023	-0.023
-537.179	32.593	-0.186	-0.159
-536.164	499.450	0.081	0.186
-535.150	-77.510	-0.096	0.033
-534.135	189.277	0.113	0.168
-533.121	-88.169	0.397	-0.118
-532.106	-74.114	0.074	0.027
-531.091	-30.795	-0.216	0.121
-530.077	-51.785	0.231	0.107
-529.062	-200.000	0.003	-0.085
-528.048	-141.602	-0.158	-0.016
-527.033	44.845	0.044	0.041
-526.018	-200.000	-0.025	-0.160
-525.004	800.000	0.074	0.265
-523.989	-84.739	-0.093	-0.029
-522.975	-5.538	-0.255	-0.173
-521.960	735.292	-0.057	-0.151
-520.945	35.260	-0.152	0.132
-519.931	-177.579	0.262	0.006
-518.916	-108.325	0.082	0.018
-517.902	-132.897	-0.255	0.032
-516.887	800.000	0.056	-0.226
-515.872	385.984	-0.163	0.333
-514.858	376.254	-0.183	0.371
-513.843	29.144	-0.243	0.204
-512.829	800.000	-0.034	0.111
-511.814	277.519	0.151	0.265
-510.799	1.148	0.071	0.051
-509.785	-200.000	-0.054	-0.444
-508.770	-200.000	0.058	0.546
-507.756	-20.711	0.255	-0.155
-506.741	126.766	0.075	-0.094
-505.726	-200.000	0.009	-0.409
-504.712	39.818	-0.205	0.182
-503.697	535.432	0.057	0.133
-502.683	241.054	0.052	-0.087
-501.668	-46.328	-0.268	-0.130
-500.653	47.133	-0.097	0.089
-499.639	92.716	-0.149	0.167
-498.624	-29.851	-0.098	0.055
-497.610	58.055	0.218	-0.212
-496.595	-200.000	-0.038	-0.284
-495.581	222.647	-0.094	-0.150
-494.566	652.873	0.149	0.378
-493.551	-169.718	0.106	0.004
-492.537	25.524	0.064	-0.053
-491.522	-200.000	-0.105	-0.547
-490.508	36.715	-0.216	0.189
-489.493	-200.000	-0.004	0.108
-488.478	-200.000	-0.019	0.365
-487.464	189.956	-0.020	-0.030
-486.449	-44.449	0.300	-0.148
-485.435	268.031	0.041	-0.071
-484.420	-200.000	-0.014	0.133
-483.405	-200.000	-0.011	-0.245
-482.391	-133.387	0.398	-0.049
-481.376	-178.958	0.182	-0.004
-480.362	179.935	0.145	-0.210
-479.347	193.626	0.228	0.341
-478.332	21.422	0.108	0.087
-477.318	-85.852	-0.115	-0.035
-476.303	12.807	-0.237	0.181
-475.289	128.461	0.076	-0.095
-474.274	479.848	-0.113	0.254
-473.259	-75.688	-0.321	0.113
-472.245	-200.000	-0.030	-0.303
-471.230	-104.818	0.168	0.038
-470.216	-35.140	-0.083	-0.045
-469.201	52.961	-0.334	-0.316
-468.186	-200.000	0.038	0.172
-467.172	800.000	-0.088	-0.257
-466.157	161.929	-0.103	-0.142
-465.143	211.221	-0.329	-0.511
-464.128	-30.579	0.098	0.055
-463.113	-35.939	-0.184	-0.099
-462.099	-200.000	-0.029	-0.203
-461.084	26.549	0.081	-0.067
-460.070	-14.480	0.211	0.134
-459.055	76.966	0.247	0.259
-458.040	-152.302	-0.282	0.020
-457.026	-44.669	-0.261	0.129
-456.011	18.783	-0.266	-0.211
-454.997	37.742	-0.166	0.145
-453.982	-63.495	0.103	-0.042
-452.968	209.568	0.136	0.211
-451.953	286.547	0.167	-0.298
-450.938	187.911	0.170	-0.251
-449.924	43.316	0.079	0.072
-448.909	-200.000	0.020	0.266
-447.895	-89.577	0.212	-0.061
-446.880	-123.987	-0.077	-0.012
-445.865	106.535	-0.245	-0.287
-444.851	182.850	0.097	-0.142
-443.836	163.932	0.031	0.043
-442.822	-122.347	0.256	-0.041
-441.807	312.086	-0.188	0.348
-440.792	-79.400	-0.148	-0.049
-439.778	-200.000	-0.018	0.089
-438.763	14.867	-0.196	0.152
-437.749	128.930	0.200	0.251
-436.734	-44.784	-0.062	-0.030
-435.719	433.438	-0.053	0.114
-434.705	-200.000	0.008	0.041
-433.690	-40.875	0.044	-0.022
-432.676	-200.000	0.008	-0.332
-431.661	-99.651	-0.227	-0.056
-430.646	267.578	-0.159	0.274
-429.632	45.154	0.076	0.069
-428.617	42.636	-0.110	0.099
-427.603	6.807	-0.129	0.095
-426.588	800.000	0.066	-0.197
-425.573	128.030	-0.161	-0.202
-424.559	-91.441	-0.212	0.060
-423.544	795.860	-0.120	0.325
-422.530	800.000	0.110	0.367
-421.515	-92.615	-0.269	0.074
-420.500	-25.820	0.129	0.075
-419.486	12.272	-0.185	-0.140
-418.471	526.553	-0.102	0.236
-417.457	318.765	0.032	-0.060
-416.442	800.000	-0.071	0.231
-415.428	-95.357	0.180	0.048
-414.413	-6.689	-0.211	0.141
-413.398	582.108	0.127	-0.307
-412.384	-153.176	0.079	0.005
-411.369	-169.458	-0.352	-0.013
-410.355	800.000	0.167	-0.492
-409.340	-175.990	0.134	-0.004
-408.325	-200.000	0.024	0.220
-407.311	-31.490	0.149	-0.083
-406.296	-200.000	-0.018	0.289
-405.282	-200.000	0.033	-0.339
-404.267	-112.175	-0.424	0.084
-403.252	5.043	0.116	0.084
-402.238	72.751	-0.142	0.146
-401.223	-104.712	0.285	0.065
-400.209	124.760	-0.215	-0.267
-399.194	150.797	-0.200	-0.268
-398.179	43.238	-0.190	0.171
-397.165	577.905	-0.081	0.195
-396.150	-112.938	0.303	0.059
-395.136	49.170	0.149	0.138
-394.121	631.383	0.112	-0.280
-393.106	259.055	0.124	-0.211
-392.092	-200.000	0.016	-0.291
-391.077	585.764	0.050	-0.121
-390.063	800.000	-0.033	-0.127
-389.048	-118.301	-0.117	0.021
-388.033	13.144	-0.271	-0.207
-387.019	278.538	-0.152	0.267
-386.004	-1.235	-0.194	-0.135
-384.990	61.862	0.179	0.175
-383.975	68.803	0.110	-0.111
-382.960	-200.000	0.026	0.196
-381.946	576.055	-0.023	0.054
-380.931	-156.012	0.016	-0.001
-379.917	386.907	0.123	0.250
-378.902	50.617	0.166	-0.155
-377.888	65.905	0.230	0.230
-376.873	106.690	-0.141	0.165
-375.858	-180.933	-0.376	-0.007
-374.844	-69.040	0.239	0.091
-373.829	496.598	-0.161	0.364
-372.815	55.472	-0.235	-0.224
-371.800	8.238	0.151	0.111
-370.785	-200.000	-0.026	0.155
-369.771	-170.306	0.204	0.007
-368.756	-133.718	0.363	-0.045
-367.742	57.534	-0.224	-0.215
-366.727	45.321	-0.166	0.150
-365.712	120.451	-0.082	0.101
-364.698	-15.567	-0.282	-0.177
-363.683	75.386	0.155	-0.161
-362.669	212.195	0.187	0.290
-361.654	-200.000	-0.075	-0.745
-360.639	-94.837	-0.070	0.019
-359.625	-19.995	0.448	0.272
-358.610	595.288	-0.157	-0.383
-357.596	-200.000	0.054	0.263
-356.581	36.037	0.256	-0.222
-355.566	-97.012	0.122	-0.031
-354.552	376.524	-0.198	0.399
-353.537	-68.708	0.112	-0.043
-352.523	63.272	-0.187	-0.185
-351.508	589.852	-0.117	0.284
-350.493	141.270	0.122	0.159
-349.479	800.000	-0.037	0.127
-348.464	-80.845	0.431	-0.141
-347.450	81.135	0.018	-0.019
-346.435	-54.254	-0.339	-0.151
-345.420	-15.546	0.070	-0.044
-344.406	-200.000	0.019	-0.147
-343.391	-200.000	-0.037	0.207
-342.377	318.075	0.091	-0.170
-341.362	406.609	0.076	-0.159
-340.348	500.863	-0.161	0.365
-339.333	483.652	0.127	-0.284
-338.318	-132.048	-0.542	-0.069
-337.304	234.582	0.155	-0.252
-336.289	6.297	-0.121	0.088
-335.275	31.520	0.044	0.037
-334.260	-200.000	-0.004	-0.019
-333.245	-200.000	-0.039	0.281
-332.231	-135.320	-0.160	-0.019
-331.216	-149.680	0.338	-0.026
-330.202	271.827	0.096	0.166
-329.187	31.449	0.317	-0.268
-328.172	800.000	0.021	-0.058
-327.158	261.338	0.096	-0.163
-326.143	800.000	0.039	-0.158
-325.129	130.637	-0.148	0.187
-324.114	-104.916	0.167	0.038
-323.099	496.950	0.101	-0.228
-322.085	284.682	0.081	-0.143
-321.070	-113.983	0.099	0.019
-320.056	18.551	0.184	0.145
-319.041	-66.781	0.054	0.021
-318.026	-162.472	-0.206	0.010
-317.012	435.999	-0.170	0.364
-315.997	-4.089	0.114	0.078
-314.983	-200.000	0.001	0.236
-313.968	-71.377	-0.193	0.071
-312.953	-96.010	0.464	-0.121
-311.939	252.340	0.066	0.110
-310.924	-147.247	0.005	0.000
-309.910	257.002	-0.217	-0.366
-308.895	-70.075	-0.094	-0.035
-307.880	-45.331	0.241	0.117
-306.866	729.930	-0.131	0.344
-305.851	-44.374	0.181	0.089
-304.837	82.253	-0.113	-0.120
-303.822	-200.000	0.009	-0.053
-302.807	-32.359	-0.191	0.105
-301.793	30.994	0.062	0.052
-300.778	-111.925	-0.133	-0.026
-299.764	-165.188	0.418	0.018
-298.749	369.035	-0.047	0.093
-297.735	-40.417	-0.067	-0.034
-296.720	491.741	-0.128	0.287
-295.705	800.000	0.026	0.094
-294.691	-178.103	-0.189	0.004
-293.676	-200.000	0.054	0.248
-292.662	-200.000	0.015	-0.082
-291.647	165.558	0.113	-0.157
-290.632	237.143	-0.171	0.278
-289.618	-200.000	-0.011	0.228
-288.603	-200.000	0.050	0.241
-287.589	-48.717	0.106	0.050
-286.574	103.931	0.071	0.082
-285.559	-67.151	0.073	0.028
-284.545	126.177	0.082	0.101
-283.530	-200.000	-0.010	-0.121
-282.516	-130.907	-0.352	-0.046
-281.501	94.955	0.123	0.137
-280.486	-49.021	0.331	-0.155
-279.472	212.775	0.100	-0.154
-278.457	-200.000	0.057	-0.273
-277.443	-17.032	0.180	0.111
-276.428	-56.323	0.155	-0.068
-275.413	404.318	-0.111	-0.230
-274.399	-200.000	0.053	-0.355
-273.384	-132.574	0.162	0.020
-272.370	-77.806	0.045	0.015
-271.355	-200.000	-0.002	-0.102
-270.340	14.318	0.067	-0.051
-269.326	-32.208	-0.268	-0.147
-268.311	126.986	-0.099	0.123
-267.297	800.000	-0.052	0.162
-266.282	-43.741	-0.118	0.058
-265.267	194.049	0.052	-0.078
-264.253	-200.000	-0.006	0.210
-263.238	-97.080	-0.191	-0.049
-262.224	800.000	0.048	-0.137
-261.209	-200.000	-0.014	0.146
-260.195	447.659	-0.005	0.012
-259.180	-172.789	0.250	-0.008
-258.165	22.846	-0.188	-0.151
-257.151	-200.000	-0.086	-0.434
-256.136	-200.000	-0.002	-0.190
-255.122	-188.179	-0.218	0.003
-254.107	-140.014	0.252	-0.026
-253.092	-107.727	0.146	-0.031
-252.078	-41.244	0.121	-0.061
-251.063	29.574	0.245	0.204
-250.049	-87.710	-0.208	0.062
-249.034	-200.000	-0.011	-0.322
-248.019	1.346	0.197	0.138
-247.005	15.673	0.073	0.056
-245.990	-200.000	-0.014	0.163
-244.976	189.077	0.114	-0.167
-243.961	-76.892	0.217	0.074
-242.946	1.744	-0.321	-0.227
-241.932	72.462	0.334	0.341
-240.917	-112.626	0.346	0.068
-239.903	13.361	0.146	0.111
-238.888	-67.672	0.255	0.098
-237.873	89.430	-0.046	-0.050
-236.859	-69.557	0.192	-0.072
-235.844	104.572	0.226	-0.261
-234.830	800.000	-0.020	0.063
-233.815	63.693	0.238	-0.234
-232.800	28.274	0.158	0.131
-231.786	-3.503	-0.061	-0.042
-230.771	101.459	0.187	-0.214
-229.757	-132.230	-0.239	0.030
-228.742	5.199	-0.333	0.240
-227.727	-200.000	0.001	-0.192
-226.713	150.020	0.061	-0.080
-225.698	99.588	-0.219	-0.248
-224.684	-48.350	0.206	-0.097
-223.669	322.552	0.243	0.454
-222.655	-121.258	-0.162	0.026
-221.640	71.747	-0.245	0.250
-220.625	195.419	-0.133	-0.198
-219.611	800.000	0.071	-0.235
-218.596	-200.000	-0.014	0.095
-217.582	-186.239	-0.164	0.002
-216.567	-61.925	0.190	0.078
-215.552	-200.000	-0.042	0.206
-214.538	-129.986	0.403	-0.054
-213.523	271.476	0.067	0.115
-212.509	-200.000	0.041	0.229
-211.494	33.222	0.186	-0.158
-210.479	31.422	0.083	-0.070
-209.465	-200.000	-0.064	0.353
-208.450	-40.301	-0.098	0.050
-207.436	76.013	-0.074	-0.076
-206.421	-15.953	0.271	0.168
-205.406	15.919	0.232	-0.179
-204.392	-63.143	0.292	-0.118
-203.377	-37.222	-0.115	-0.060
-202.363	-56.414	0.095	0.041
-201.348	245.754	-0.164	0.271
-200.333	-200.000	0.024	0.386
-199.319	333.807	-0.052	-0.098
-198.304	27.442	0.177	-0.146
-197.290	-10.130	-0.204	0.132
-196.275	800.000	0.066	0.268
-195.260	-79.515	0.228	-0.075
-194.246	318.153	0.078	0.144
-193.231	-200.000	-0.014	-0.150
-192.217	37.367	-0.201	-0.174
-191.202	718.224	0.047	-0.121
-190.187	-51.485	-0.268	-0.122
-189.173	585.562	-0.034	-0.082
-188.158	-6.821	0.183	0.122
-187.144	94.253	-0.158	0.175
-186.129	-200.000	-0.171	-0.001
-185.114	255.120	-0.102	0.172
-184.100	-22.610	-0.365	0.216
-183.085	-151.249	0.389	0.028
-182.071	230.886	-0.117	0.187
-181.056	-100.831	-0.181	-0.044
-180.042	-63.831	-0.328	0.131
-179.027	552.692	0.069	-0.163
-178.012	-92.896	-0.436	-0.119
-176.998	-200.000	0.011	0.249
-175.983	-53.649	-0.010	-0.004
-174.969	-83.749	-0.146	0.045
-173.954	318.800	0.044	-0.082
-172.939	-200.000	-0.005	-0.141
-171.925	-111.229	-0.260	-0.052
-170.910	-200.000	0.012	-0.285
-169.896	533.832	0.100	0.232
-168.881	58.459	0.065	0.063
-167.866	-6.413	0.212	-0.141
-166.852	55.638	0.153	-0.145
-165.837	216.872	-0.240	-0.373
-164.823	-200.000	0.005	0.263
-163.808	800.000	-0.078	0.321
-162.793	-200.000	0.013	0.087
-161.779	219.661	-0.016	0.025
-160.764	-200.000	-0.011	-0.285
-159.750	-127.120	0.201	0.029
-158.735	0.927	0.381	-0.267
-157.720	-102.213	0.301	0.071
-156.706	-200.000	0.025	0.198
-155.691	-200.000	0.007	-0.099
-154.677	30.415	-0.179	-0.150
-153.662	-99.013	-0.127	0.031
-152.647	49.809	-0.097	0.089
-151.633	261.284	-0.024	-0.041
-150.618	6.347	-0.212	-0.154
-149.604	-101.409	0.342	0.081
-148.589	335.717	0.025	0.048
-147.574	-38.598	-0.223	0.115
-146.560	736.805	-0.067	0.176
-145.545	-63.302	-0.063	-0.025
-144.531	-200.000	-0.012	0.179
-143.516	-143.519	0.388	0.036
-142.502	77.807	-0.212	0.220
-141.487	120.694	-0.020	-0.024
-140.472	-157.385	-0.442	-0.026
-139.458	-112.387	0.165	-0.032
-138.443	15.720	0.176	-0.135
-137.429	116.246	0.218	0.261
-136.414	-200.000	-0.084	-0.365
-135.399	8.839	0.280	-0.206
-134.385	-45.884	-0.073	-0.035
-133.370	601.871	-0.191	-0.463
-132.356	800.000	0.126	-0.506
-131.341	-95.630	-0.249	0.065
-130.326	-158.607	0.389	-0.022
-129.312	7.039	0.408	-0.297
-128.297	-12.600	0.385	0.245
-127.283	107.318	-0.094	0.109
-126.268	95.871	-0.146	0.163
-125.253	25.759	0.185	-0.150
-124.239	-105.082	0.059	-0.013
-123.224	8.431	-0.050	0.037
-122.210	10.311	0.386	0.286
-121.195	-200.000	0.062	0.265
-120.180	-200.000	0.002	-0.325
-119.166	-163.352	0.177	-0.008
