DTS Sentinel unit serial number:	SN413079Multiplexer serial number:	ORYXHardware model number:	OX4-SRSoftware version number:	ORYX F/W v4.00 Oryx Data Collector v3.7.2.0data status	okinstallation	princeton_trtdifferential loss correction	single-endedforward channel	channel 2reverse channel	N/Adate	2019/09/17time	18:55:35forward acquisition time	60.00reverse acquisition time	0.00gamma	496.2192k internal	0.2300k external	0.2300temperature offset calibration	0.9989default loss term (dB/km)	0.3790temperature slope calibration	1.0000multiplexer offset coefficient	1.0000multiplexer slope coefficient	1.0000fibre end	0.00T internal ref (°C)	41.22T ext. ref 1 (°C)	0.28T ext. ref 2 (°C)	30.02length (m)	temperature (°C)	Stokes	anti-Stokes-747.200	115.915	-0.093	0.116
-746.185	297.448	-0.059	0.110
-745.171	-85.042	0.373	0.119
-744.156	-145.905	0.116	-0.010
-743.142	150.119	0.082	-0.113
-742.127	719.651	-0.090	0.243
-741.112	-175.136	-0.484	-0.014
-740.098	-113.379	0.071	0.014
-739.083	-179.151	0.196	-0.004
-738.069	-200.000	0.077	0.420
-737.054	-49.899	-0.162	-0.078
-736.039	140.979	-0.077	-0.104
-735.025	-200.000	0.005	0.216
-734.010	44.263	-0.443	0.415
-732.996	800.000	0.073	0.263
-731.981	404.195	-0.157	0.338
-730.966	-157.349	0.440	-0.027
-729.952	-121.127	-0.349	-0.060
-728.937	-4.952	0.162	-0.114
-727.923	-11.165	-0.033	-0.022
-726.908	-59.032	0.056	0.025
-725.894	301.308	-0.175	-0.330
-724.879	228.721	0.051	0.085
-723.864	-200.000	-0.033	-0.152
-722.850	-200.000	-0.014	0.109
-721.835	-200.000	-0.052	0.263
-720.821	-200.000	0.029	0.219
-719.806	-32.872	-0.165	0.093
-718.791	-20.894	-0.147	0.092
-717.777	-147.219	0.275	-0.024
-716.762	6.071	-0.193	-0.146
-715.748	558.399	0.163	-0.402
-714.733	288.730	0.117	0.216
-713.718	182.544	0.089	0.133
-712.704	-200.000	-0.021	-0.357
-711.689	2.038	0.325	-0.239
-710.675	-58.857	0.064	0.028
-709.660	544.097	-0.141	0.344
-708.645	133.544	0.224	0.295
-707.631	278.213	0.123	-0.223
-706.616	800.000	0.073	-0.222
-705.602	70.124	-0.214	-0.225
-704.587	-103.927	0.129	-0.031
-703.572	-145.607	-0.174	0.016
-702.558	-116.074	-0.211	0.040
-701.543	340.916	0.174	-0.345
-700.529	-15.099	-0.365	0.238
-699.514	-200.000	0.040	-0.180
-698.499	-178.441	0.018	0.000
-697.485	-200.000	0.010	0.296
-696.470	8.494	-0.123	0.094
-695.456	343.817	0.103	0.205
-694.441	-152.806	-0.074	-0.005
-693.426	117.108	0.132	-0.166
-692.412	-109.310	-0.206	0.044
-691.397	433.829	-0.143	-0.316
-690.383	-84.672	-0.147	-0.047
-689.368	165.480	0.008	0.012
-688.354	84.787	-0.354	-0.395
-687.339	-128.710	0.187	-0.027
-686.324	167.125	0.158	-0.229
-685.310	720.675	0.015	0.041
-684.295	80.212	0.277	0.303
-683.281	-37.503	-0.018	-0.010
-682.266	-200.000	-0.008	-0.302
-681.251	800.000	-0.020	-0.084
-680.237	-200.000	-0.006	0.108
-679.222	197.143	-0.084	-0.130
-678.208	-200.000	0.002	-0.088
-677.193	-200.000	0.023	0.248
-676.178	110.626	-0.177	-0.217
-675.164	243.547	0.053	0.090
-674.149	-7.838	-0.245	-0.168
-673.135	-160.766	-0.224	-0.012
-672.120	-200.000	0.040	0.208
-671.105	181.326	0.179	-0.268
-670.091	-118.381	0.299	0.054
-669.076	38.065	-0.127	0.115
-668.062	-46.226	-0.148	0.074
-667.047	-200.000	0.054	0.278
-666.032	74.855	0.229	-0.245
-665.018	105.147	0.089	-0.107
-664.003	-97.981	-0.221	-0.058
-662.989	149.276	-0.123	0.169
-661.974	800.000	-0.083	0.361
-660.959	21.031	-0.297	0.245
-659.945	-70.331	-0.393	0.152
-658.930	-44.228	0.182	-0.093
-657.916	-200.000	-0.034	-0.310
-656.901	-139.704	-0.137	-0.015
-655.886	200.536	0.087	0.135
-654.872	-200.000	0.020	-0.161
-653.857	-12.250	0.172	0.114
-652.843	-77.851	-0.322	0.113
-651.828	-105.323	-0.321	-0.074
-650.814	-108.838	0.145	0.031
-649.799	310.957	0.276	0.526
-648.784	214.760	-0.090	0.146
-647.770	162.999	0.101	-0.144
-646.755	14.081	0.125	0.099
-645.741	-90.425	0.099	0.029
-644.726	-124.668	-0.185	0.029
-643.711	-46.747	-0.320	0.159
-642.697	-179.212	-0.167	-0.004
-641.682	-200.000	0.007	0.047
-640.668	576.325	-0.135	-0.336
-639.653	-29.107	0.311	-0.181
-638.638	-59.095	-0.153	0.067
-637.624	-78.287	-0.326	0.114
-636.609	8.107	-0.261	0.199
-635.595	-200.000	-0.006	-0.075
-634.580	247.393	0.184	-0.316
-633.565	-81.258	-0.192	-0.064
-632.551	318.406	-0.074	-0.142
-631.536	636.753	0.079	0.205
-630.522	7.381	0.115	-0.088
-629.507	-200.000	-0.005	-0.058
-628.492	-102.987	0.107	-0.026
-627.478	-200.000	0.386	-0.001
-626.463	-200.000	0.031	-0.210
-625.449	180.556	-0.063	0.094
-624.434	368.294	-0.071	0.146
-623.419	115.002	-0.125	-0.155
-622.405	80.799	-0.171	0.188
-621.390	-67.346	0.303	0.121
-620.376	-42.388	0.207	-0.107
-619.361	250.472	-0.179	-0.309
-618.346	121.769	-0.142	-0.180
-617.332	149.964	-0.231	0.318
-616.317	-109.215	-0.030	-0.006
-615.303	313.223	-0.105	-0.200
-614.288	-45.327	-0.162	0.082
-613.273	-91.903	-0.282	0.081
-612.259	-107.718	0.603	-0.134
-611.244	713.609	0.056	-0.151
-610.230	-200.000	-0.008	0.234
-609.215	88.784	0.227	0.257
-608.201	-200.000	0.002	0.210
-607.186	133.930	-0.149	0.195
-606.171	-139.234	-0.163	0.018
-605.157	98.134	0.166	0.194
-604.142	-7.284	0.194	-0.133
-603.128	-62.321	-0.123	0.052
-602.113	-200.000	-0.018	-0.250
-601.098	-36.544	0.289	0.157
-600.084	28.270	-0.265	-0.227
-599.069	-86.845	-0.046	-0.014
-598.055	340.169	0.139	0.275
-597.040	688.212	0.079	0.210
-596.025	58.422	-0.166	0.165
-595.011	-172.081	0.426	0.014
-593.996	3.256	0.237	0.175
-592.982	23.215	-0.266	0.221
-591.967	-200.000	-0.037	0.254
-590.952	46.920	-0.104	0.098
-589.938	-66.090	-0.298	0.120
-588.923	-132.856	-0.104	0.014
-587.909	172.021	0.223	-0.325
-586.894	657.175	-0.093	-0.242
-585.879	800.000	0.096	0.269
-584.865	3.990	-0.083	0.061
-583.850	17.705	-0.123	0.099
-582.836	-200.000	0.029	-0.136
-581.821	-6.711	0.130	-0.090
-580.806	-86.121	-0.423	-0.132
-579.792	-85.105	-0.281	-0.089
-578.777	-200.000	-0.013	-0.106
-577.763	16.343	-0.258	-0.207
-576.748	-150.807	-0.286	0.022
-575.733	-200.000	-0.029	0.150
-574.719	-200.000	0.039	-0.251
-573.704	-200.000	-0.002	-0.240
-572.690	-111.031	0.466	0.097
-571.675	756.806	0.135	-0.371
-570.661	92.061	0.326	0.372
-569.646	-106.347	-0.127	-0.029
-568.631	-59.029	0.058	-0.025
-567.617	-149.438	0.191	0.015
-566.602	298.494	0.114	0.213
-565.588	-200.000	0.045	-0.403
-564.573	-102.308	0.299	-0.073
-563.558	-76.155	-0.394	-0.141
-562.544	-79.499	-0.091	-0.031
-561.529	181.016	0.160	-0.238
-560.515	-200.000	-0.016	0.273
-559.500	-200.000	-0.071	0.363
-558.485	553.755	0.125	0.304
-557.471	800.000	-0.065	-0.273
-556.456	-98.185	0.299	-0.078
-555.442	800.000	0.149	0.436
-554.427	800.000	0.058	0.239
-553.412	332.022	-0.158	0.309
-552.398	433.653	0.077	-0.170
-551.383	-200.000	0.019	-0.225
-550.369	-92.799	-0.086	-0.024
-549.354	-115.306	0.241	-0.046
-548.339	281.358	-0.133	-0.241
-547.325	-200.000	-0.057	0.432
-546.310	-73.526	-0.263	0.097
-545.296	-148.442	-0.119	-0.010
-544.281	19.622	-0.283	0.231
-543.266	731.698	-0.050	-0.135
-542.252	-104.241	-0.105	-0.025
-541.237	800.000	-0.075	0.261
-540.223	800.000	-0.028	0.101
-539.208	-165.662	-0.117	-0.005
-538.193	145.289	0.123	-0.167
-537.179	107.471	0.153	-0.184
-536.164	-30.398	-0.126	-0.072
-535.150	800.000	-0.125	-0.367
-534.135	-148.030	0.338	-0.028
-533.121	78.730	-0.038	-0.041
-532.106	-121.560	0.216	-0.036
-531.091	-122.163	0.088	-0.015
-530.077	-107.529	0.071	0.016
-529.062	800.000	-0.146	-0.458
-528.048	-0.443	0.046	-0.033
-527.033	226.497	0.150	0.246
-526.018	203.532	0.159	0.249
-525.004	20.879	-0.041	0.034
-523.989	-155.245	0.297	0.020
-522.975	513.511	-0.142	0.335
-521.960	73.023	-0.019	-0.020
-520.945	78.339	0.307	0.331
-519.931	183.828	0.224	-0.334
-518.916	485.764	-0.145	-0.333
-517.902	800.000	-0.040	0.122
-516.887	-29.127	0.184	0.107
-515.872	75.416	0.155	0.166
-514.858	800.000	0.094	0.297
-513.843	119.543	-0.186	0.233
-512.829	6.901	0.102	0.077
-511.814	-200.000	-0.017	-0.121
-510.799	6.849	-0.173	-0.130
-509.785	204.877	-0.163	0.255
-508.770	174.713	0.117	0.171
-507.756	-156.726	0.369	0.023
-506.741	-45.464	-0.295	-0.148
-505.726	-200.000	0.043	0.329
-504.712	621.532	0.086	0.219
-503.697	305.421	0.126	0.236
-502.683	-43.371	-0.086	-0.044
-501.668	-200.000	-0.060	-0.437
-500.653	-65.289	-0.055	0.022
-499.639	-155.305	0.172	-0.011
-498.624	-29.156	0.198	-0.115
-497.610	83.227	-0.086	0.095
-496.595	258.629	-0.147	0.256
-495.581	-165.029	0.199	-0.009
-494.566	76.914	-0.072	0.078
-493.551	-114.785	-0.106	-0.020
-492.537	7.029	0.175	-0.132
-491.522	182.492	0.162	0.241
-490.508	9.638	-0.089	-0.068
-489.493	200.734	0.063	0.098
-488.478	-22.568	-0.188	0.115
-487.464	-66.620	0.372	0.149
-486.449	205.518	-0.181	-0.285
-485.435	125.263	-0.152	0.193
-484.420	103.123	0.147	-0.174
-483.405	800.000	0.060	0.168
-482.391	-200.000	-0.025	-0.313
-481.376	800.000	0.026	-0.082
-480.362	95.658	0.130	-0.149
-479.347	224.054	-0.103	-0.167
-478.332	-107.221	-0.159	-0.035
-477.318	532.190	0.073	-0.175
-476.303	-103.748	0.096	0.023
-475.289	-135.388	0.579	-0.070
-474.274	-89.538	0.312	0.092
-473.259	241.883	-0.104	0.175
-472.245	-200.000	0.019	-0.101
-471.230	-131.487	0.499	0.066
-470.216	800.000	0.050	-0.165
-469.201	-116.427	-0.330	0.061
-468.186	800.000	-0.044	0.130
-467.172	800.000	0.034	0.138
-466.157	65.793	-0.112	-0.115
-465.143	113.293	0.093	0.114
-464.128	506.242	-0.170	0.397
-463.113	46.593	-0.149	-0.140
-462.099	-130.943	0.115	-0.016
-461.084	-173.405	-0.127	-0.004
-460.070	-0.259	0.146	-0.105
-459.055	46.361	-0.184	0.172
-458.040	513.688	-0.111	0.262
-457.026	-200.000	0.002	-0.051
-456.011	-110.042	0.349	0.074
-454.997	517.574	-0.146	-0.345
-453.982	-196.615	0.102	0.001
-452.968	-102.204	0.466	0.113
-451.953	-200.000	-0.082	-0.714
-450.938	-58.079	-0.232	-0.102
-449.924	626.763	0.080	-0.204
-448.909	-72.509	-0.107	-0.040
-447.895	-8.268	0.411	0.279
-446.880	800.000	-0.108	-0.377
-445.865	615.487	-0.065	0.163
-444.851	-200.000	-0.033	-0.173
-443.836	-109.929	0.051	0.011
-442.822	104.050	0.047	0.056
-441.807	-71.510	-0.186	-0.070
-440.792	-158.089	0.420	-0.025
-439.778	-63.537	-0.447	-0.185
-438.763	-137.504	0.175	0.020
-437.749	149.098	-0.252	-0.344
-436.734	-200.000	-0.042	-0.532
-435.719	-0.497	-0.291	0.208
-434.705	-24.238	-0.128	0.077
-433.690	800.000	-0.063	0.267
-432.676	-4.133	-0.221	-0.155
-431.661	16.260	-0.240	0.190
-430.646	-200.000	-0.061	0.290
-429.632	-200.000	-0.002	0.228
-428.617	800.000	-0.036	-0.108
-427.603	-143.134	0.174	0.017
-426.588	-141.864	-0.435	0.044
-425.573	-200.000	-0.041	-0.242
-424.559	116.603	-0.010	-0.012
-423.544	800.000	-0.133	-0.389
-422.530	-200.000	-0.003	-0.055
-421.515	630.024	-0.051	0.130
-420.500	-106.341	0.117	0.026
-419.486	800.000	0.106	0.374
-418.471	-179.940	0.103	0.002
-417.457	248.593	0.074	0.127
-416.442	-123.811	-0.352	0.056
-415.428	-156.956	0.317	0.020
-414.413	-92.868	-0.353	-0.099
-413.398	-172.002	0.230	0.008
-412.384	800.000	0.084	-0.261
-411.369	477.036	-0.199	-0.453
-410.355	380.991	-0.068	-0.140
-409.340	-86.284	-0.356	-0.110
-408.325	-66.613	-0.197	0.079
-407.311	745.396	0.115	0.310
-406.296	-181.044	-0.200	-0.004
-405.282	328.920	-0.156	0.302
-404.267	48.781	-0.205	0.194
-403.252	800.000	-0.020	0.065
-402.238	365.502	0.038	-0.078
-401.223	21.723	-0.045	-0.037
-400.209	800.000	0.044	0.127
-399.194	175.431	0.152	-0.222
-398.179	446.822	-0.089	0.197
-397.165	-200.000	-0.007	-0.229
-396.150	5.622	0.117	0.087
-395.136	298.961	-0.191	-0.354
-394.121	289.403	0.142	0.259
-393.106	64.414	0.097	0.098
-392.092	-9.055	-0.218	0.147
-391.077	-133.229	0.225	0.029
-390.063	68.935	0.151	0.156
-389.048	408.186	0.077	0.164
-388.033	-16.657	-0.196	0.125
-387.019	250.358	-0.024	0.042
-386.004	-200.000	0.089	-0.460
-384.990	105.214	0.050	-0.060
-383.975	800.000	-0.075	0.259
-382.960	-200.000	0.003	0.125
-381.946	-103.947	-0.113	0.026
-380.931	-200.000	0.017	0.176
-379.917	-200.000	0.019	0.171
-378.902	68.596	-0.139	0.143
-377.888	28.849	-0.121	-0.103
-376.873	-48.344	0.154	-0.075
-375.858	-42.843	-0.324	-0.165
-374.844	-104.603	0.066	-0.015
-373.829	-113.604	0.129	-0.025
-372.815	800.000	-0.083	-0.230
-371.800	537.980	0.055	-0.132
-370.785	-109.975	0.315	-0.066
-369.771	75.214	0.074	0.079
-368.756	-131.595	0.123	0.016
-367.742	-172.606	0.244	0.008
-366.727	-154.129	0.045	0.003
-365.712	36.542	0.126	-0.112
-364.698	800.000	0.051	0.200
-363.683	444.209	0.144	0.318
-362.669	746.748	-0.031	-0.083
-361.654	-26.177	0.119	-0.070
-360.639	362.761	0.186	0.376
-359.625	800.000	0.035	0.111
-358.610	27.621	0.070	0.060
-357.596	377.064	-0.057	-0.117
-356.581	-126.663	0.136	-0.020
-355.566	-200.000	-0.019	0.211
-354.552	230.454	-0.266	0.437
-353.537	-200.000	-0.002	-0.180
-352.523	-51.916	0.328	-0.153
-351.508	-115.928	-0.048	-0.009
-350.493	23.159	-0.213	0.176
-349.479	70.975	0.120	0.125
-348.464	13.659	0.230	-0.179
-347.450	311.749	-0.189	-0.357
-346.435	275.488	0.214	0.381
-345.420	-200.000	-0.005	0.041
-344.406	751.364	-0.153	0.414
-343.391	-72.770	0.232	0.086
-342.377	-60.991	-0.221	0.094
-341.362	115.878	0.198	0.243
-340.348	-58.431	0.315	0.138
-339.333	-200.000	0.037	-0.164
-338.318	31.312	-0.099	-0.085
-337.304	-106.485	-0.191	0.043
-336.289	138.682	-0.107	0.141
-335.275	432.042	-0.204	-0.444
-334.260	-200.000	-0.038	-0.442
-333.245	-120.932	0.128	0.022
-332.231	-158.584	-0.556	0.032
-331.216	-34.614	-0.256	0.141
-330.202	-94.086	0.081	-0.022
-329.187	156.933	-0.236	0.327
-328.172	56.165	0.218	-0.212
-327.158	-56.796	-0.093	0.041
-326.143	-33.891	0.125	0.069
-325.129	11.241	-0.063	0.048
-324.114	268.747	0.128	-0.225
-323.099	87.142	0.113	0.125
-322.085	-52.632	-0.162	0.075
-321.070	-86.829	-0.286	-0.088
-320.056	-200.000	0.007	0.161
-319.041	-30.444	-0.125	-0.071
-318.026	685.037	0.152	-0.398
-317.012	-200.000	0.001	0.285
-315.997	-200.000	0.013	-0.081
-314.983	-82.428	-0.435	-0.142
-313.968	-23.947	-0.230	0.138
-312.953	11.781	0.200	-0.154
-311.939	-200.000	0.016	-0.096
-310.924	-177.180	-0.398	0.010
-309.910	800.000	-0.034	-0.128
-308.895	-126.463	-0.212	0.032
-307.880	800.000	0.090	0.317
-306.866	352.799	-0.221	-0.439
-305.851	800.000	0.037	0.103
-304.837	0.458	0.184	0.132
-303.822	-130.947	0.466	-0.062
-302.807	58.643	-0.163	-0.160
-301.793	110.603	0.117	0.141
-300.778	16.236	0.065	-0.052
-299.764	496.925	-0.029	0.067
-298.749	-200.000	-0.018	-0.184
-297.735	-182.057	0.246	-0.005
-296.720	-200.000	0.030	-0.240
-295.705	-101.096	-0.446	-0.110
-294.691	-200.000	-0.020	0.139
-293.676	197.713	0.231	0.354
-292.662	-46.696	-0.299	-0.147
-291.647	274.835	-0.148	-0.263
-290.632	800.000	0.021	-0.078
-289.618	-36.445	0.184	-0.099
-288.603	-70.378	-0.195	0.074
-287.589	103.919	0.089	-0.105
-286.574	800.000	0.053	0.200
-285.559	-200.000	-0.012	-0.114
-284.545	-43.670	0.179	-0.091
-283.530	800.000	-0.064	-0.233
-282.516	-94.752	0.167	0.045
-281.501	172.918	0.069	0.100
-280.486	-65.960	-0.234	0.094
-279.472	-130.554	-0.239	0.032
-278.457	-120.574	0.347	-0.059
-277.443	-175.910	-0.165	0.004
-276.428	-142.802	-0.108	0.011
-275.413	594.646	0.058	-0.144
-274.399	-31.064	0.232	0.131
-273.384	-200.000	0.038	0.232
-272.370	-200.000	-0.021	0.171
-271.355	36.847	0.023	0.021
-270.340	242.200	-0.068	0.114
-269.326	800.000	-0.086	0.273
-268.311	-109.167	-0.542	-0.115
-267.297	-117.565	0.177	-0.032
-266.282	-30.380	-0.111	-0.063
-265.267	-30.840	0.209	-0.118
-264.253	100.355	0.214	-0.249
-263.238	305.212	0.132	0.246
-262.224	800.000	0.031	-0.102
-261.209	156.173	-0.180	-0.248
-260.195	264.398	0.274	-0.477
-259.180	-181.977	0.136	-0.003
-258.165	-200.000	0.004	0.305
-257.151	-151.726	-0.172	-0.013
-256.136	204.310	0.126	-0.195
-255.122	284.386	0.171	0.307
-254.107	146.878	0.240	0.323
-253.092	329.031	0.157	0.301
-252.078	-147.090	0.335	0.029
-251.063	-21.949	-0.191	-0.116
-250.049	422.194	0.168	-0.362
-249.034	31.205	0.286	-0.246
-248.019	-141.867	0.034	-0.003
-247.005	-76.398	-0.082	-0.029
-245.990	-138.035	0.303	0.034
-244.976	98.299	0.110	0.127
-243.961	-200.000	0.012	-0.161
-242.946	-62.750	-0.112	0.046
-241.932	314.160	-0.047	-0.088
-240.917	-149.886	0.212	0.017
-239.903	282.962	0.211	0.380
-238.888	314.550	0.109	-0.205
-237.873	800.000	0.084	-0.244
-236.859	433.238	0.086	0.186
-235.844	709.361	0.036	0.094
-234.830	-132.318	-0.490	-0.063
-233.815	18.644	-0.171	-0.137
-232.800	451.869	-0.165	-0.365
-231.786	-79.777	-0.187	-0.063
-230.771	86.045	0.040	0.044
-229.757	114.689	0.127	0.155
-228.742	-200.000	0.022	-0.109
-227.727	-12.539	0.170	-0.111
-226.713	-158.160	0.359	-0.021
-225.698	800.000	0.098	-0.353
-224.684	166.599	0.040	0.057
-223.669	800.000	-0.026	-0.080
-222.655	-200.000	-0.059	-0.296
-221.640	-200.000	-0.038	0.172
-220.625	800.000	0.062	-0.257
-219.611	-116.763	0.164	0.030
-218.596	800.000	0.059	0.229
-217.582	-200.000	0.011	-0.125
-216.567	97.864	-0.274	-0.315
-215.552	-99.189	-0.091	-0.023
-214.538	-23.064	-0.112	0.068
-213.523	800.000	-0.039	0.141
-212.509	34.116	0.130	0.113
-211.494	-61.195	-0.061	-0.026
-210.479	-22.898	0.201	-0.121
-209.465	358.245	0.112	0.224
-208.450	206.935	-0.175	0.273
-207.436	-76.295	-0.373	0.131
-206.421	242.362	0.172	-0.288
-205.406	166.120	-0.084	0.119
-204.392	-64.803	0.101	0.041
-203.377	132.842	-0.157	-0.203
-202.363	65.547	0.210	-0.213
-201.348	-200.000	0.059	-0.436
-200.333	112.195	-0.266	-0.321
-199.319	-200.000	0.048	-0.336
-198.304	-200.000	-0.000	0.042
-197.290	-109.209	0.068	-0.014
-196.275	221.931	-0.172	0.276
-195.260	134.116	0.319	-0.413
-194.246	53.633	0.211	-0.202
-193.231	283.488	0.057	-0.103
-192.217	65.336	0.059	0.060
-191.202	177.149	0.094	-0.137
-190.187	-127.482	-0.187	0.027
-189.173	236.286	-0.009	-0.015
-188.158	-123.800	0.209	-0.033
-187.144	3.682	0.236	-0.172
-186.129	-15.735	-0.059	-0.038
-185.114	800.000	0.057	-0.208
-184.100	119.754	0.167	-0.207
-183.085	555.861	-0.079	-0.190
-182.071	-72.113	-0.229	0.085
-181.056	-78.486	-0.340	-0.116
-180.042	-10.043	0.018	-0.012
-179.027	221.468	0.074	-0.119
-178.012	-67.326	0.109	0.043
-176.998	251.468	0.073	0.124
-175.983	-200.000	0.004	0.074
-174.969	-151.130	-0.268	0.020
-173.954	9.661	-0.035	0.026
-172.939	25.820	0.042	0.035
-171.925	-72.176	-0.264	-0.098
-170.910	-68.833	-0.445	0.171
-169.896	-180.366	-0.353	-0.007
-168.881	-177.823	-0.143	-0.003
-167.866	-134.283	-0.112	0.014
-166.852	463.332	-0.066	0.147
-165.837	-200.000	-0.080	0.445
-164.823	462.974	-0.127	0.283
-163.808	-200.000	0.012	-0.148
-162.793	800.000	0.045	-0.181
-161.779	-135.180	-0.364	0.044
-160.764	-55.951	-0.192	-0.085
-159.750	48.353	0.444	0.414
-158.735	-153.905	-0.144	-0.010
-157.720	800.000	-0.068	0.210
-156.706	-149.362	0.146	0.012
-155.691	108.870	0.054	0.065
-154.677	800.000	-0.021	0.083
-153.662	222.192	-0.059	-0.095
-152.647	7.190	-0.040	-0.030
-151.633	212.410	-0.023	0.036
-150.618	-200.000	0.003	-0.298
-149.604	-80.743	0.294	-0.097
-148.589	-200.000	0.006	0.231
-147.574	800.000	0.107	-0.398
-146.560	83.330	-0.153	-0.166
-145.545	604.558	0.103	-0.255
-144.531	-5.799	0.141	0.096
-143.516	64.511	0.313	0.315
-142.502	98.034	0.085	0.097
-141.487	109.615	-0.083	-0.099
-140.472	-114.678	0.090	-0.017
-139.458	274.137	-0.132	0.232
-138.443	-42.593	0.457	0.232
-137.429	487.677	-0.065	0.147
-136.414	-63.507	0.127	-0.052
-135.399	-33.172	-0.361	-0.199
-134.385	159.842	0.083	-0.115
-133.370	-200.000	-0.004	0.097
-132.356	-103.549	0.006	0.001
-131.341	-116.580	0.214	0.039
-130.326	-200.000	0.014	0.279
-129.312	-159.627	-0.128	-0.007
-128.297	-67.396	0.417	0.163
-127.283	800.000	0.112	0.352
-126.268	-147.098	-0.133	-0.011
-125.253	-200.000	0.006	0.231
-124.239	-200.000	0.045	-0.202
-123.224	-56.457	0.119	0.053
-122.210	-3.397	0.053	-0.037
