DTS Sentinel unit serial number:	SN413079Multiplexer serial number:	ORYXHardware model number:	OX4-SRSoftware version number:	ORYX F/W v4.00 Oryx Data Collector v3.7.2.0data status	okinstallation	princeton_trtdifferential loss correction	single-endedforward channel	channel 2reverse channel	N/Adate	2019/09/12time	19:00:48forward acquisition time	15.00reverse acquisition time	0.00gamma	496.2192k internal	0.2324k external	0.2324temperature offset calibration	1.0142default loss term (dB/km)	0.3790temperature slope calibration	1.0000multiplexer offset coefficient	1.0000multiplexer slope coefficient	1.0000fibre end	0.00T internal ref (°C)	32.75T ext. ref 1 (°C)	3.04T ext. ref 2 (°C)	27.29length (m)	temperature (°C)	Stokes	anti-Stokes-747.200	-6.311	0.368	-0.253
-746.185	-105.015	-0.872	-0.202
-745.171	-16.311	0.133	0.085
-744.156	-27.308	-0.384	-0.225
-743.142	800.000	0.061	0.223
-742.127	-103.189	-1.649	0.394
-741.112	-32.411	-0.076	-0.043
-740.098	-113.453	-0.282	0.056
-739.083	-10.837	-0.777	-0.518
-738.069	394.024	0.056	0.117
-737.054	-97.327	-0.440	-0.116
-736.039	-108.335	-0.569	0.124
-735.025	-200.000	-0.024	0.235
-734.010	-100.119	-0.434	-0.109
-732.996	316.641	0.477	0.910
-731.981	705.123	0.173	-0.460
-730.966	129.585	-0.411	0.530
-729.952	800.000	-0.142	0.511
-728.937	286.710	0.292	-0.532
-727.923	794.085	0.086	-0.238
-726.908	800.000	0.472	-1.337
-725.894	192.702	-0.459	-0.699
-724.879	238.025	0.253	-0.423
-723.864	-132.084	0.542	0.071
-722.850	120.550	-0.345	0.432
-721.835	22.301	0.146	0.120
-720.821	-92.553	-0.526	-0.149
-719.806	-143.985	0.196	-0.019
-718.791	705.767	0.131	0.350
-717.777	-86.479	-0.917	0.284
-716.762	-50.133	0.769	-0.367
-715.748	-155.800	-0.869	-0.056
-714.733	166.856	-0.349	-0.500
-713.718	-200.000	-0.099	-0.606
-712.704	-164.333	0.370	-0.017
-711.689	-200.000	0.095	0.813
-710.675	800.000	0.277	-0.784
-709.660	237.355	0.249	-0.416
-708.645	156.394	-0.546	0.760
-707.631	175.415	-0.587	-0.857
-706.616	-126.525	-0.810	0.121
-705.602	5.044	0.724	0.537
-704.587	37.041	-1.182	-1.054
-703.572	-200.000	0.073	-1.033
-702.558	800.000	-0.223	-0.694
-701.543	-200.000	0.080	0.476
-700.529	82.244	-0.839	0.917
-699.514	-120.558	-0.500	0.085
-698.499	-21.992	-0.449	-0.275
-697.485	238.418	-0.161	-0.270
-696.470	195.585	-0.660	1.011
-695.456	-105.372	0.143	-0.033
-694.441	80.211	0.455	-0.493
-693.426	190.557	-0.256	-0.387
-692.412	404.467	0.394	-0.837
-691.397	-97.968	0.276	-0.072
-690.383	100.787	0.137	-0.160
-689.368	24.072	-0.545	0.453
-688.354	134.447	-0.531	0.694
-687.339	800.000	0.093	0.272
-686.324	-34.375	-0.270	-0.149
-685.310	-64.569	-1.005	0.411
-684.295	800.000	0.024	0.085
-683.281	548.802	0.193	-0.465
-682.266	356.567	0.239	0.480
-681.251	321.882	-0.368	0.706
-680.237	-200.000	0.040	-0.279
-679.222	16.285	-0.072	-0.057
-678.208	800.000	0.096	-0.368
-677.193	800.000	0.210	0.618
-676.178	800.000	0.269	0.945
-675.164	-200.000	0.013	0.359
-674.149	426.067	0.033	0.072
-673.135	-31.126	-0.194	0.110
-672.120	28.293	0.481	0.409
-671.105	-200.000	-0.077	0.538
-670.091	-2.639	-0.417	-0.294
-669.076	-200.000	-0.066	0.350
-668.062	440.286	0.285	-0.627
-667.047	-4.961	-0.377	0.261
-666.032	-5.759	0.536	0.369
-665.018	438.938	-0.163	-0.359
-664.003	-40.914	0.635	-0.330
-662.989	57.181	0.133	0.130
-661.974	-49.190	0.088	-0.042
-660.959	-153.773	0.582	-0.040
-659.945	-200.000	-0.093	0.466
-658.930	-73.765	0.102	0.037
-657.916	195.927	0.545	-0.834
-656.901	-200.000	0.125	-0.922
-655.886	-200.000	0.100	0.703
-654.872	-79.518	-0.410	-0.139
-653.857	158.786	0.305	-0.426
-652.843	403.905	0.182	0.386
-651.828	146.929	-0.294	0.398
-650.814	429.939	-0.236	0.513
-649.799	225.361	0.174	0.283
-648.784	-75.300	0.299	0.107
-647.770	319.317	-0.205	-0.390
-646.755	111.128	-0.663	0.803
-645.741	-125.678	-0.540	0.082
-644.726	25.832	0.454	0.380
-643.711	-115.722	0.764	0.144
-642.697	105.666	0.309	0.367
-641.682	-17.315	-0.236	-0.150
-640.668	-200.000	-0.021	-0.154
-639.653	-68.777	-0.446	0.173
-638.638	-200.000	0.039	0.660
-637.624	-147.782	-0.265	-0.022
-636.609	-130.189	-0.427	-0.058
-635.595	140.657	-0.053	-0.071
-634.580	-52.870	-0.498	-0.230
-633.565	-200.000	-0.009	-0.296
-632.551	98.295	0.775	-0.897
-631.536	56.558	-0.460	0.449
-630.522	-94.829	-0.403	-0.110
-629.507	297.636	0.311	-0.573
-628.492	-200.000	-0.106	-0.692
-627.478	800.000	0.066	-0.285
-626.463	-200.000	0.019	-0.599
-625.449	-51.199	-0.543	-0.256
-624.434	-100.887	-0.761	0.188
-623.419	-10.556	-0.195	-0.130
-622.405	-200.000	0.030	0.174
-621.390	-200.000	0.069	-0.628
-620.376	-141.766	-1.070	0.108
-619.361	800.000	0.147	0.430
-618.346	-57.420	-0.609	-0.268
-617.332	-98.907	0.402	0.103
-616.317	-200.000	-0.056	0.334
-615.303	164.140	0.147	0.208
-614.288	256.111	-0.071	0.123
-613.273	-200.000	0.021	-1.053
-612.259	-20.346	-0.728	0.450
-611.244	75.976	-0.193	-0.205
-610.230	-51.857	-0.364	-0.170
-609.215	504.940	0.251	-0.585
-608.201	-164.479	0.719	0.033
-607.186	-200.000	-0.110	-0.721
-606.171	167.759	-0.462	-0.660
-605.157	-45.219	0.516	-0.257
-604.142	-4.995	-0.301	-0.208
-603.128	608.157	0.202	-0.506
-602.113	390.540	-0.367	0.764
-601.098	-145.376	0.661	-0.060
-600.084	783.859	-0.200	-0.549
-599.069	567.586	-0.044	-0.107
-598.055	-67.376	-1.081	0.426
-597.040	-200.000	0.028	-0.355
-596.025	-2.052	0.891	0.628
-595.011	-200.000	0.090	0.486
-593.996	-56.291	-0.474	0.211
-592.982	53.153	-0.212	-0.204
-591.967	41.243	0.270	0.245
-590.952	-96.170	0.478	-0.127
-589.938	95.407	-0.646	0.739
-588.923	62.624	0.650	0.652
-587.909	-51.425	0.147	0.069
-586.894	81.468	0.381	-0.413
-585.879	-103.111	-0.206	0.049
-584.865	-200.000	0.066	-0.744
-583.850	-5.833	0.153	-0.105
-582.836	70.014	-0.174	0.180
-581.821	30.193	-0.523	-0.448
-580.806	-112.711	-0.299	-0.060
-579.792	-59.314	0.540	-0.233
-578.777	30.452	0.436	0.374
-577.763	318.778	0.334	-0.634
-576.748	206.641	0.389	-0.608
-575.733	228.476	0.457	-0.746
-574.719	122.721	0.121	-0.152
-573.704	146.597	0.242	0.325
-572.690	39.063	0.650	-0.583
-571.675	-200.000	-0.069	0.537
-570.661	-35.641	1.032	0.561
-569.646	-65.889	0.490	0.196
-568.631	-200.000	0.052	-0.395
-567.617	21.965	-0.658	-0.538
-566.602	-200.000	-0.056	-0.435
-565.588	-8.114	0.308	-0.208
-564.573	661.971	-0.143	0.370
-563.558	-152.332	-0.914	0.066
-562.544	-76.719	-0.219	-0.077
-561.529	427.392	0.206	-0.446
-560.515	800.000	-0.394	1.267
-559.500	54.577	-0.132	0.128
-558.485	-16.303	-0.262	0.167
-557.471	98.918	-0.127	0.147
-556.456	800.000	-0.085	0.361
-555.442	79.351	0.213	0.229
-554.427	-200.000	0.004	0.502
-553.412	-9.910	-0.131	0.087
-552.398	-104.558	0.205	0.047
-551.383	60.729	-0.122	-0.121
-550.369	-33.875	-0.076	-0.042
-549.354	-200.000	-0.032	-0.226
-548.339	65.251	-0.383	-0.388
-547.325	203.464	-0.230	-0.356
-546.310	18.240	-0.609	0.487
-545.296	800.000	-0.078	0.218
-544.281	-163.061	0.663	-0.032
-543.266	-54.391	-0.326	-0.148
-542.252	71.583	-0.329	-0.342
-541.237	-158.406	-0.213	-0.012
-540.223	71.932	0.302	0.314
-539.208	-200.000	-0.042	0.236
-538.193	-74.728	-0.269	-0.097
-537.179	35.033	0.503	-0.441
-536.164	-140.760	-0.896	0.093
-535.150	-113.669	-0.333	-0.065
-534.135	108.284	0.289	-0.345
-533.121	-10.387	-0.542	0.360
-532.106	-56.788	-1.054	-0.466
-531.091	299.600	-0.056	0.104
-530.077	-200.000	-0.079	-0.387
-529.062	447.815	0.275	-0.607
-528.048	11.581	0.615	-0.472
-527.033	-124.034	0.081	-0.013
-526.018	-104.460	-0.695	0.161
-525.004	-200.000	-0.038	-0.267
-523.989	-3.310	0.296	0.206
-522.975	800.000	0.042	-0.175
-521.960	2.774	0.327	0.237
-520.945	-86.782	0.482	0.147
-519.931	330.746	-0.158	-0.304
-518.916	-140.150	0.523	-0.055
-517.902	287.910	0.076	-0.138
-516.887	-200.000	0.004	-0.337
-515.872	-33.498	0.603	-0.333
-514.858	11.273	1.199	0.918
-513.843	-53.078	-0.325	0.150
-512.829	707.106	-0.117	-0.310
-511.814	112.432	-0.462	-0.559
-510.799	567.914	-0.147	-0.356
-509.785	368.645	-0.234	0.474
-508.770	-200.000	-0.032	-0.212
-507.756	-50.250	0.324	0.153
-506.741	-200.000	0.008	0.734
-505.726	125.167	-0.580	0.732
-504.712	4.769	-0.263	0.193
-503.697	-174.773	1.197	0.034
-502.683	100.197	-0.269	0.312
-501.668	-7.261	0.241	-0.164
-500.653	142.538	0.339	0.451
-499.639	107.527	0.389	0.462
-498.624	585.152	0.144	0.353
-497.610	-101.701	-1.454	-0.352
-496.595	-84.886	-0.256	-0.080
-495.581	-45.650	0.628	-0.310
-494.566	-48.530	-0.585	-0.281
-493.551	-118.541	0.447	0.079
-492.537	-200.000	-0.024	0.236
-491.522	-30.101	-0.205	0.116
-490.508	-70.119	-0.173	0.066
-489.493	30.604	0.469	0.401
-488.478	33.013	-0.376	-0.325
-487.464	800.000	-0.225	-0.818
-486.449	720.954	0.237	-0.631
-485.435	-16.790	0.636	0.402
-484.420	800.000	-0.257	-0.730
-483.405	-72.349	0.217	-0.080
-482.391	249.641	0.440	0.745
-481.376	-200.000	0.025	-0.447
-480.362	-200.000	0.104	-0.907
-479.347	67.202	-0.322	0.328
-478.332	800.000	0.070	0.216
-477.318	-29.582	1.079	-0.616
-476.303	498.550	0.163	0.375
-475.289	-101.672	0.698	-0.169
-474.274	59.852	0.566	0.558
-473.259	778.647	0.123	0.336
-472.245	-200.000	0.011	-0.152
-471.230	800.000	0.098	0.299
-470.216	167.797	0.262	0.373
-469.201	-4.935	0.447	0.307
-468.186	-76.419	-0.216	-0.076
-467.172	-89.256	-0.095	-0.028
-466.157	107.462	0.233	0.276
-465.143	328.923	-0.113	-0.217
-464.128	-84.717	0.116	0.037
-463.113	-200.000	0.028	-0.215
-462.099	-47.185	0.560	-0.273
-461.084	26.629	0.750	0.627
-460.070	-112.677	-0.884	0.176
-459.055	-95.475	0.383	0.103
-458.040	-39.769	-0.678	-0.354
-457.026	-200.000	0.133	0.754
-456.011	-175.638	0.586	0.016
-454.997	-43.080	0.071	-0.036
-453.982	-70.035	-0.380	0.144
-452.968	-113.408	-0.737	-0.144
-451.953	99.317	0.185	0.214
-450.938	-139.322	1.096	-0.118
-449.924	385.643	0.103	0.211
-448.909	105.457	-0.596	-0.702
-447.895	-41.767	0.437	-0.224
-446.880	-200.000	-0.214	1.009
-445.865	-200.000	0.005	0.533
-444.851	125.436	0.396	0.498
-443.836	-110.307	0.504	0.105
-442.822	17.097	-0.504	-0.398
-441.807	-114.109	0.238	-0.046
-440.792	11.192	0.739	0.564
-439.778	-41.634	-1.012	-0.519
-438.763	-200.000	-0.057	-0.409
-437.749	333.378	0.128	0.247
-436.734	74.968	0.456	0.479
-435.719	146.038	0.155	0.208
-434.705	106.760	0.192	-0.228
-433.690	266.461	0.247	0.430
-432.676	-24.113	-0.241	0.144
-431.661	-184.970	-0.525	-0.008
-430.646	175.622	-0.297	-0.429
-429.632	-114.312	0.175	-0.034
-428.617	135.890	0.307	-0.399
-427.603	17.267	-0.560	-0.443
-426.588	175.323	-0.280	0.404
-425.573	-178.170	0.804	0.019
-424.559	-8.167	-0.142	-0.096
-423.544	-27.562	-0.466	-0.270
-422.530	116.326	-0.260	0.318
-421.515	-200.000	0.063	0.838
-420.500	149.498	-0.387	-0.522
-419.486	800.000	-0.204	0.717
-418.471	732.703	0.089	0.238
-417.457	-29.896	0.219	-0.124
-416.442	800.000	-0.224	0.736
-415.428	68.827	-0.242	0.248
-414.413	33.240	-0.769	0.664
-413.398	-200.000	-0.005	0.729
-412.384	16.334	-0.910	0.716
-411.369	-59.577	0.474	-0.203
-410.355	30.720	0.520	0.443
-409.340	693.032	0.160	-0.418
-408.325	-200.000	0.008	-0.231
-407.311	-200.000	0.118	-0.545
-406.296	186.469	0.427	-0.633
-405.282	-38.883	0.240	-0.126
-404.267	286.703	-0.421	0.757
-403.252	85.265	-0.652	-0.713
-402.238	-34.509	-0.121	0.066
-401.223	-200.000	0.024	0.266
-400.209	337.492	0.295	0.572
-399.194	-159.926	-0.380	0.021
-398.179	153.106	-0.154	0.210
-397.165	240.814	-0.412	-0.684
-396.150	800.000	-0.161	-0.629
-395.136	-200.000	0.076	0.368
-394.121	-77.233	-0.935	-0.324
-393.106	-200.000	0.154	-0.846
-392.092	139.374	0.666	0.873
-391.077	83.035	-0.225	-0.244
-390.063	-16.467	-0.193	-0.122
-389.048	233.215	-0.281	0.460
-388.033	-27.467	0.773	0.447
-387.019	-11.844	-0.508	-0.332
-386.004	758.710	-0.104	-0.282
-384.990	800.000	-0.217	-0.783
-383.975	-200.000	-0.028	0.200
-382.960	44.480	-0.290	0.265
-381.946	-36.585	0.845	-0.452
-380.931	-87.723	0.629	-0.189
-379.917	-13.672	0.453	0.292
-378.902	-102.594	0.761	0.181
-377.888	-42.263	-0.298	-0.151
-376.873	215.589	0.061	0.097
-375.858	-162.669	-0.247	0.012
-374.844	-200.000	0.001	0.040
-373.829	348.446	0.165	0.323
-372.815	196.865	0.249	-0.377
-371.800	-200.000	0.014	-0.325
-370.785	-200.000	0.012	-0.234
-369.771	295.511	-0.265	-0.482
-368.756	-106.981	-0.286	-0.063
-367.742	-60.935	0.312	-0.131
-366.727	800.000	0.153	-0.438
-365.712	800.000	0.137	-0.532
-364.698	40.947	-0.370	0.332
-363.683	445.111	-0.270	-0.590
-362.669	-200.000	-0.120	0.593
-361.654	85.003	0.157	-0.171
-360.639	-86.666	-0.433	0.132
-359.625	154.547	-0.528	-0.720
-358.610	610.332	0.166	-0.413
-357.596	-200.000	0.243	-1.430
-356.581	-49.314	-0.543	0.258
-355.566	408.995	0.342	-0.719
-354.552	143.592	-0.253	-0.335
-353.537	-200.000	0.126	-0.652
-352.523	192.842	0.362	-0.544
-351.508	-80.407	0.437	0.145
-350.493	233.519	-0.367	-0.600
-349.479	103.406	-0.514	-0.600
-348.464	136.182	-0.512	-0.663
-347.450	-200.000	0.093	0.622
-346.435	-104.260	-0.345	-0.080
-345.420	23.461	0.480	0.392
-344.406	51.614	0.339	0.320
-343.391	-161.914	0.668	0.034
-342.377	-144.487	-0.794	-0.073
-341.362	349.152	-0.113	0.221
-340.348	-76.363	-0.358	-0.125
-339.333	534.841	-0.362	-0.852
-338.318	19.935	-0.663	0.531
-337.304	71.730	-0.238	0.246
-336.289	-200.000	0.116	-0.879
-335.275	-200.000	0.014	0.654
-334.260	2.775	0.752	0.542
-333.245	-136.384	-0.684	-0.079
-332.231	5.697	0.510	-0.375
-331.216	238.327	0.224	-0.369
-330.202	302.371	-0.254	-0.467
-329.187	165.272	0.382	0.536
-328.172	97.867	-0.350	-0.400
-327.158	167.873	0.448	-0.633
-326.143	-107.883	1.043	-0.225
-325.129	800.000	-0.115	-0.379
-324.114	-200.000	-0.129	-1.024
-323.099	339.842	0.256	-0.495
-322.085	198.962	0.142	-0.216
-321.070	800.000	-0.178	0.499
-320.056	133.923	0.645	-0.829
-319.041	14.606	0.358	-0.277
-318.026	191.063	0.219	-0.328
-317.012	-41.317	0.075	-0.038
-315.997	498.624	0.182	0.416
-314.983	92.739	0.072	0.081
-313.968	1.662	0.357	0.255
-312.953	223.125	-0.042	0.067
-311.939	-108.185	-0.582	-0.125
-310.924	800.000	-0.161	0.523
-309.910	427.277	0.039	-0.083
-308.895	-200.000	-0.011	0.177
-307.880	14.908	0.232	0.180
-306.866	49.421	0.122	0.114
-305.851	118.616	0.295	0.361
-304.837	50.597	-0.503	0.473
-303.822	35.588	0.293	-0.255
-302.807	49.528	-0.226	-0.212
-301.793	213.015	-0.029	-0.045
-300.778	642.004	0.081	0.206
-299.764	-200.000	-0.014	1.168
-298.749	113.892	-0.606	0.730
-297.735	620.005	-0.150	0.374
-296.720	-103.250	-0.936	0.219
-295.705	-20.039	0.802	-0.491
-294.691	135.403	0.435	0.561
-293.676	58.418	0.719	0.699
-292.662	240.966	0.390	0.646
-291.647	800.000	-0.041	-0.142
-290.632	-200.000	-0.131	0.758
-289.618	190.330	0.021	0.032
-288.603	-109.793	-0.681	-0.142
-287.589	-133.591	0.436	-0.054
-286.574	-78.195	-0.768	0.262
-285.559	-94.725	0.787	0.212
-284.545	-46.367	-0.900	0.438
-283.530	753.771	0.107	-0.287
-282.516	-10.541	0.370	0.243
-281.501	-84.548	-0.444	0.139
-280.486	4.098	-0.412	-0.299
-279.472	-200.000	0.060	-0.366
-278.457	800.000	0.147	0.443
-277.443	-97.774	-0.932	-0.239
-276.428	148.129	-0.567	0.757
-275.413	800.000	0.136	0.412
-274.399	74.093	0.391	0.407
-273.384	549.392	0.364	0.865
-272.370	-59.682	0.346	-0.147
-271.355	-26.533	-0.927	0.538
-270.340	-67.512	0.443	-0.172
-269.326	157.202	-0.153	-0.209
-268.311	-70.120	-0.172	0.065
-267.297	-19.492	-0.197	0.121
-266.282	2.279	-0.846	-0.606
-265.267	781.316	0.110	-0.299
-264.253	646.075	0.199	-0.505
-263.238	205.469	-0.227	-0.349
-262.224	-8.316	-0.380	-0.253
-261.209	49.813	-0.212	-0.198
-260.195	64.547	0.642	0.641
-259.180	769.337	-0.180	-0.485
-258.165	260.968	0.282	-0.483
-257.151	95.981	0.556	0.629
-256.136	122.695	0.716	0.887
-255.122	-200.000	-0.002	-0.040
-254.107	107.836	0.341	0.402
-253.092	800.000	-0.321	0.949
-252.078	-95.795	-0.370	-0.098
-251.063	-37.888	0.517	0.272
-250.049	-200.000	-0.093	0.521
-249.034	800.000	0.178	0.535
-248.019	-200.000	0.077	-0.754
-247.005	104.479	-0.396	-0.462
-245.990	-200.000	1.045	-0.002
-244.976	447.231	0.049	-0.106
-243.961	-200.000	-0.071	-0.318
-242.946	800.000	0.196	0.734
-241.932	464.101	0.066	-0.146
-240.917	-46.932	-0.887	0.429
-239.903	71.046	-0.295	-0.302
-238.888	154.428	-0.455	-0.619
-237.873	-200.000	-0.053	-0.415
-236.859	684.417	0.318	0.821
-235.844	-93.545	-0.380	0.104
-234.830	-62.890	-0.055	0.023
-233.815	-200.000	0.034	0.301
-232.800	-200.000	0.023	0.443
-231.786	800.000	0.142	0.404
-230.771	14.143	0.401	0.309
-229.757	81.445	0.825	-0.882
-228.742	-61.681	-0.269	-0.112
-227.727	-139.631	-0.175	-0.018
-226.713	-200.000	0.018	-0.140
-225.698	9.660	-0.141	0.105
-224.684	180.775	-0.100	0.145
-223.669	800.000	-0.339	0.989
-222.655	250.280	0.220	-0.370
-221.640	-200.000	-0.200	0.870
-220.625	176.953	0.176	0.254
-219.611	-34.892	0.592	-0.319
-218.596	399.721	-0.244	0.506
-217.582	-5.502	-0.195	-0.132
-216.567	478.267	0.167	-0.374
-215.552	-42.231	0.761	-0.384
-214.538	-200.000	-0.274	-1.418
-213.523	-81.436	-0.899	-0.292
-212.509	6.230	0.544	-0.399
-211.494	55.616	0.208	0.199
-210.479	-200.000	-0.100	0.827
-209.465	395.072	-0.200	-0.412
-208.450	-85.651	0.508	-0.156
-207.436	-56.724	-0.662	0.289
-206.421	484.773	0.281	-0.633
-205.406	800.000	-0.182	-0.532
-204.392	-20.630	-0.566	-0.343
-203.377	-200.000	-0.077	1.327
-202.363	-41.047	0.878	0.448
-201.348	-130.190	-0.485	-0.065
-200.333	-8.946	0.599	0.396
-199.319	800.000	-0.112	-0.435
-198.304	-82.204	0.137	0.044
-197.290	-132.037	-0.472	-0.061
-196.275	-20.199	-0.353	-0.215
-195.260	-86.121	1.030	0.314
-194.246	11.633	0.322	0.244
-193.231	-117.531	-0.641	0.114
-192.217	-82.277	0.571	-0.183
-191.202	-124.895	0.295	0.045
-190.187	-200.000	0.125	0.714
-189.173	-200.000	-0.035	0.957
-188.158	229.469	0.558	0.899
-187.144	238.679	-0.224	0.368
-186.129	-200.000	-0.010	-0.461
-185.114	-27.021	-0.577	0.332
-184.100	19.815	-0.618	0.491
-183.085	800.000	0.263	-0.970
-182.071	36.683	0.564	-0.492
-181.056	-174.496	-0.491	-0.014
-180.042	204.948	0.200	-0.306
-179.027	-167.158	-1.173	0.047
-178.012	-44.412	1.185	-0.586
-176.998	-95.100	-0.293	-0.078
-175.983	800.000	-0.186	0.536
-174.969	-71.872	-0.298	0.109
-173.954	480.813	0.012	0.027
-172.939	218.717	-0.095	0.150
-171.925	15.099	0.530	0.410
-170.910	220.852	-0.438	-0.694
-169.896	8.281	-0.576	-0.427
-168.881	-95.992	0.218	0.057
-167.866	-200.000	-0.005	0.178
-166.852	113.590	-0.160	-0.192
-165.837	712.635	-0.329	0.860
-164.823	415.540	-0.011	0.024
-163.808	-127.066	-0.358	0.052
-162.793	62.808	-0.598	0.590
-161.779	-112.567	0.747	-0.147
-160.764	-26.933	-0.613	-0.353
-159.750	-63.907	-0.508	-0.205
-158.735	800.000	0.180	0.590
-157.720	8.953	0.678	-0.505
-156.706	564.862	-0.061	0.147
-155.691	800.000	0.319	0.900
-154.677	83.568	0.994	-1.069
-153.662	800.000	0.239	-0.824
-152.647	555.325	-0.065	-0.155
-151.633	-200.000	-0.079	0.477
-150.618	262.548	0.244	-0.417
-149.604	19.739	-0.085	-0.068
-148.589	351.500	-0.344	0.672
-147.574	-200.000	-0.017	0.579
-146.560	-200.000	0.017	-0.598
-145.545	-75.527	-0.253	-0.089
-144.531	-200.000	0.007	0.557
-143.516	15.350	-0.042	-0.032
-142.502	-200.000	0.053	0.557
-141.487	-30.173	0.291	-0.163
-140.472	-69.062	-0.072	-0.027
-139.458	278.685	0.281	0.495
-138.443	7.568	0.843	0.622
-137.429	-75.071	-0.517	-0.182
-136.414	26.441	-0.365	-0.301
-135.399	-56.686	0.663	-0.289
-134.385	84.010	0.102	0.110
-133.370	-17.881	0.687	0.424
-132.356	-97.729	0.296	0.076
-131.341	81.322	-0.197	-0.210
-130.326	-38.572	0.734	0.382
-129.312	-19.309	-0.213	0.130
-128.297	-145.923	0.472	0.041
-127.283	93.313	-0.401	0.447
-126.268	231.168	-0.051	0.083
-125.253	-124.679	-1.084	-0.165
-124.239	519.224	0.041	0.095
-123.224	288.937	0.176	0.313
-122.210	-55.902	0.505	-0.222
-121.195	-18.684	-0.136	0.084
-120.180	-200.000	0.059	-0.545
