DTS Sentinel unit serial number:	SN413079Multiplexer serial number:	ORYXHardware model number:	OX4-SRSoftware version number:	ORYX F/W v4.00 Oryx Data Collector v3.7.2.0data status	okinstallation	princeton_trtdifferential loss correction	single-endedforward channel	channel 2reverse channel	N/Adate	2019/09/15time	12:11:34forward acquisition time	60.00reverse acquisition time	0.00gamma	496.2192k internal	0.2314k external	0.2314temperature offset calibration	1.0016default loss term (dB/km)	0.3790temperature slope calibration	1.0000multiplexer offset coefficient	1.0000multiplexer slope coefficient	1.0000fibre end	0.00T internal ref (°C)	34.56T ext. ref 1 (°C)	5.04T ext. ref 2 (°C)	31.22length (m)	temperature (°C)	Stokes	anti-Stokes-747.200	256.314	0.237	0.413
-746.185	-101.084	-0.251	0.062
-745.171	129.000	0.172	-0.223
-744.156	-15.312	-0.225	0.146
-743.142	800.000	-0.098	-0.368
-742.127	-200.000	-0.057	0.608
-741.112	16.599	-0.023	-0.018
-740.098	54.921	-0.129	0.126
-739.083	800.000	-0.064	0.267
-738.069	-175.371	0.087	-0.002
-737.054	800.000	0.150	-0.521
-736.039	-144.679	-0.268	-0.025
-735.025	-123.751	0.315	-0.051
-734.010	209.842	0.073	-0.116
-732.996	-29.188	-0.607	-0.353
-731.981	317.511	-0.023	-0.044
-730.966	-200.000	0.013	0.424
-729.952	-124.240	0.151	-0.024
-728.937	367.232	-0.068	-0.140
-727.923	154.858	-0.190	-0.264
-726.908	323.664	-0.257	0.497
-725.894	-71.454	-0.255	0.097
-724.879	800.000	0.065	-0.232
-723.864	-50.937	-0.293	-0.139
-722.850	37.090	-0.149	0.134
-721.835	-200.000	0.044	-0.403
-720.821	-54.745	-0.148	0.068
-719.806	132.497	-0.165	-0.216
-718.791	-114.717	0.395	0.076
-717.777	-68.744	-0.220	0.086
-716.762	40.822	-0.161	-0.147
-715.748	-200.000	0.017	-0.235
-714.733	-158.669	-0.437	0.025
-713.718	-200.000	-0.016	-0.250
-712.704	239.008	-0.177	-0.298
-711.689	695.437	-0.181	0.481
-710.675	24.085	-0.202	0.169
-709.660	-158.353	-0.130	0.008
-708.645	636.319	-0.077	0.198
-707.631	18.615	0.287	0.232
-706.616	-21.076	-0.130	-0.080
-705.602	399.677	-0.058	0.122
-704.587	-121.134	-0.184	-0.031
-703.572	-200.000	-0.045	-0.242
-702.558	115.921	-0.123	-0.152
-701.543	-200.000	-0.080	0.521
-700.529	800.000	-0.120	0.383
-699.514	256.410	0.202	-0.351
-698.499	-67.582	-0.322	-0.128
-697.485	-19.960	0.076	0.048
-696.470	82.859	-0.088	-0.097
-695.456	-110.618	0.248	0.052
-694.441	-200.000	-0.032	0.258
-693.426	-133.550	-0.155	0.020
-692.412	-72.183	-0.187	-0.070
-691.397	-117.156	-0.335	0.062
-690.383	42.791	-0.170	-0.157
-689.368	77.822	-0.384	-0.414
-688.354	-188.785	-0.148	0.002
-687.339	-36.378	0.146	-0.080
-686.324	771.074	-0.104	0.285
-685.310	-10.935	-0.212	0.142
-684.295	120.264	0.094	-0.118
-683.281	188.561	0.055	0.084
-682.266	-92.969	0.114	-0.032
-681.251	-200.000	0.005	0.310
-680.237	-126.711	0.157	0.023
-679.222	-57.694	-0.284	0.126
-678.208	222.574	-0.066	0.108
-677.193	-116.198	-0.181	0.034
-676.178	-143.912	0.072	0.007
-675.164	-194.490	-0.283	-0.002
-674.149	-164.892	0.317	-0.014
-673.135	397.423	0.048	0.102
-672.120	-69.297	0.041	-0.016
-671.105	-23.241	-0.273	-0.166
-670.091	316.622	0.190	-0.363
-669.076	-1.335	-0.154	0.110
-668.062	-200.000	0.048	-0.247
-667.047	196.632	-0.107	0.164
-666.032	-108.138	0.260	0.057
-665.018	-83.490	0.100	-0.032
-664.003	-65.254	-0.329	0.134
-662.989	93.763	0.086	0.098
-661.974	-200.000	0.032	-0.223
-660.959	488.013	-0.116	0.267
-659.945	-200.000	-0.019	0.135
-658.930	152.187	-0.109	-0.151
-657.916	-45.042	-0.237	-0.119
-656.901	-90.582	-0.330	-0.096
-655.886	-46.501	0.438	0.217
-654.872	-107.741	-0.025	0.005
-653.857	-48.519	-0.232	0.113
-652.843	-36.809	-0.322	-0.175
-651.828	-113.362	0.015	0.003
-650.814	-44.807	-0.168	-0.085
-649.799	46.393	0.213	-0.200
-648.784	800.000	0.046	-0.131
-647.770	210.890	-0.015	-0.023
-646.755	184.056	-0.090	0.135
-645.741	90.080	-0.069	-0.078
-644.726	-200.000	-0.015	-0.202
-643.711	-200.000	-0.011	-0.133
-642.697	61.012	0.248	0.248
-641.682	-3.008	0.301	-0.212
-640.668	44.595	-0.303	-0.281
-639.653	44.558	-0.154	-0.143
-638.638	-200.000	-0.064	-0.315
-637.624	800.000	-0.020	-0.086
-636.609	-200.000	-0.020	-0.138
-635.595	303.823	0.051	0.095
-634.580	504.581	-0.015	-0.034
-633.565	800.000	0.021	-0.065
-632.551	800.000	-0.066	-0.245
-631.536	130.602	-0.163	-0.210
-630.522	76.462	-0.103	0.110
-629.507	800.000	0.003	0.011
-628.492	29.501	0.110	-0.095
-627.478	332.280	0.012	0.023
-626.463	155.817	-0.102	0.142
-625.449	52.781	-0.183	-0.177
-624.434	-33.445	0.356	-0.199
-623.419	117.357	0.319	-0.396
-622.405	-200.000	0.003	-0.090
-621.390	-200.000	0.013	-0.094
-620.376	-82.934	-0.204	0.066
-619.361	-90.463	-0.141	0.041
-618.346	141.863	0.082	0.110
-617.332	-200.000	-0.005	-0.134
-616.317	-26.014	0.218	-0.129
-615.303	33.729	0.204	-0.179
-614.288	47.272	-0.053	0.049
-613.273	-200.000	-0.041	-0.258
-612.259	-61.809	-0.163	-0.069
-611.244	-31.513	-0.049	0.028
-610.230	-186.378	0.453	-0.007
-609.215	-200.000	-0.033	-0.319
-608.201	-158.869	0.329	-0.019
-607.186	-200.000	0.003	-0.044
-606.171	6.215	-0.107	0.080
-605.157	267.239	0.058	-0.102
-604.142	-142.734	-0.296	0.029
-603.128	198.214	0.133	-0.205
-602.113	364.854	0.218	-0.443
-601.098	-200.000	0.025	-0.458
-600.084	75.783	0.042	-0.045
-599.069	-50.950	-0.018	0.009
-598.055	-200.000	0.006	-0.353
-597.040	-200.000	0.024	-0.263
-596.025	270.951	-0.024	-0.042
-595.011	10.736	-0.359	-0.276
-593.996	273.817	-0.102	-0.181
-592.982	-7.363	-0.112	-0.076
-591.967	-3.698	-0.141	0.099
-590.952	178.626	0.186	0.274
-589.938	800.000	0.083	0.315
-588.923	752.473	-0.085	0.231
-587.909	-200.000	0.002	-0.099
-586.894	-134.667	0.197	0.024
-585.879	185.597	0.087	-0.131
-584.865	800.000	-0.028	-0.081
-583.850	-130.552	-0.154	0.021
-582.836	72.746	0.121	-0.127
-581.821	36.945	-0.256	-0.228
-580.806	-200.000	-0.017	0.295
-579.792	97.911	0.161	-0.187
-578.777	-200.000	-0.002	-0.044
-577.763	362.040	0.057	0.114
-576.748	99.249	0.072	0.084
-575.733	-53.610	0.349	0.161
-574.719	-104.432	0.136	-0.032
-573.704	164.639	0.076	-0.108
-572.690	16.619	-0.125	0.100
-571.675	244.888	-0.097	0.165
-570.661	212.412	0.085	-0.135
-569.646	26.297	-0.231	0.195
-568.631	-200.000	-0.000	0.122
-567.617	-100.758	-0.126	-0.031
-566.602	203.601	0.233	-0.363
-565.588	-200.000	-0.017	0.218
-564.573	-91.778	0.220	-0.063
-563.558	-21.524	0.274	0.168
-562.544	-142.945	-0.127	0.012
-561.529	109.221	0.247	-0.297
-560.515	20.737	0.107	-0.087
-559.500	14.408	-0.090	-0.071
-558.485	-200.000	-0.010	-0.062
-557.471	131.839	-0.129	-0.167
-556.456	-31.373	0.131	-0.074
-555.442	-137.694	0.204	-0.023
-554.427	-118.209	-0.167	0.030
-553.412	800.000	-0.012	0.048
-552.398	-33.080	-0.216	0.121
-551.383	-132.892	-0.232	-0.030
-550.369	-61.074	-0.170	-0.072
-549.354	-33.501	0.173	0.096
-548.339	237.241	-0.156	-0.259
-547.325	-200.000	0.017	-0.237
-546.310	339.782	-0.081	-0.160
-545.296	-23.600	-0.055	-0.033
-544.281	800.000	0.086	-0.302
-543.266	505.307	0.062	0.143
-542.252	198.350	0.136	0.209
-541.237	-48.146	-0.181	0.088
-540.223	800.000	-0.048	-0.174
-539.208	-51.090	-0.178	0.084
-538.193	-71.848	0.100	0.037
-537.179	-98.193	0.364	0.094
-536.164	800.000	0.054	0.197
-535.150	458.679	-0.052	0.117
-534.135	-63.279	-0.249	0.103
-533.121	-140.997	0.235	0.024
-532.106	-53.632	-0.162	0.074
-531.091	-136.835	-0.501	-0.058
-530.077	401.715	-0.172	0.364
-529.062	-8.282	0.221	-0.150
-528.048	-110.806	0.021	0.004
-527.033	159.735	0.212	0.297
-526.018	-148.703	-0.315	-0.026
-525.004	-200.000	0.029	-0.302
-523.989	55.717	0.082	0.080
-522.975	-65.052	-0.317	-0.129
-521.960	136.109	-0.114	0.150
-520.945	-200.000	-0.340	-0.000
-519.931	392.414	0.022	-0.046
-518.916	800.000	-0.017	-0.053
-517.902	-200.000	-0.019	0.321
-516.887	17.221	0.089	0.071
-515.872	-19.832	0.119	-0.074
-514.858	21.524	-0.147	0.120
-513.843	-121.123	-0.097	-0.016
-512.829	385.899	0.167	-0.346
-511.814	-74.399	-0.262	0.095
-510.799	-62.650	-0.271	0.113
-509.785	347.438	-0.127	0.250
-508.770	108.466	-0.030	0.036
-507.756	-151.836	-0.331	-0.024
-506.741	-33.796	-0.138	0.077
-505.726	45.178	-0.090	0.083
-504.712	-144.230	0.338	0.032
-503.697	148.473	0.185	0.250
-502.683	-129.090	-0.164	-0.023
-501.668	171.015	0.031	-0.044
-500.653	-160.817	-0.322	-0.017
-499.639	800.000	-0.058	-0.183
-498.624	156.176	0.089	0.124
-497.610	88.561	-0.283	0.316
-496.595	-177.518	0.347	-0.009
-495.581	-200.000	0.010	0.200
-494.566	479.762	0.145	0.329
-493.551	-200.000	-0.026	0.210
-492.537	-102.553	-0.426	0.102
-491.522	-47.749	0.197	-0.096
-490.508	-58.257	-0.106	-0.046
-489.493	41.605	-0.138	-0.126
-488.478	-200.000	-0.024	-0.310
-487.464	-114.524	-0.169	-0.033
-486.449	16.013	-0.257	0.204
-485.435	518.955	0.061	0.143
-484.420	800.000	0.070	0.200
-483.405	-23.233	-0.128	-0.077
-482.391	-53.786	0.226	-0.103
-481.376	-48.079	-0.229	0.111
-480.362	64.353	-0.160	0.161
-479.347	-63.122	-0.103	-0.043
-478.332	-44.885	-0.230	0.115
-477.318	287.587	0.122	-0.222
-476.303	-148.954	0.496	-0.040
-475.289	-97.472	-0.162	0.042
-474.274	-113.250	0.202	-0.040
-473.259	800.000	0.029	0.096
-472.245	69.947	-0.244	-0.252
-471.230	24.881	0.025	-0.021
-470.216	370.444	0.017	-0.034
-469.201	243.112	0.288	-0.485
-468.186	-101.456	0.143	-0.035
-467.172	273.994	0.106	0.188
-466.157	-200.000	-0.209	-0.001
-465.143	461.318	0.076	-0.170
-464.128	-50.197	-0.266	-0.126
-463.113	800.000	-0.069	-0.275
-462.099	-200.000	0.050	-0.240
-461.084	-139.154	0.186	-0.020
-460.070	-73.707	0.531	0.194
-459.055	159.576	-0.135	0.188
-458.040	800.000	-0.084	-0.273
-457.026	-166.344	0.459	-0.019
-456.011	800.000	-0.112	0.341
-454.997	11.604	0.052	0.040
-453.982	-40.607	0.253	-0.131
-452.968	101.222	-0.095	-0.111
-451.953	-135.974	0.236	-0.028
-450.938	-200.000	-0.062	0.292
-449.924	800.000	-0.011	0.038
-448.909	149.131	-0.133	0.180
-447.895	-200.000	0.005	-0.060
-446.880	-155.371	0.072	-0.005
-445.865	442.632	0.131	0.287
-444.851	99.291	-0.111	0.129
-443.836	218.833	-0.178	0.285
-442.822	800.000	0.177	0.616
-441.807	163.931	0.189	-0.267
-440.792	-200.000	0.005	-0.299
-439.778	800.000	0.056	-0.170
-438.763	28.470	0.084	0.071
-437.749	51.203	-0.221	0.210
-436.734	-200.000	-0.018	-0.220
-435.719	-160.292	0.566	-0.031
-434.705	-200.000	0.043	-0.286
-433.690	-186.356	-0.191	0.003
-432.676	-200.000	-0.012	0.209
-431.661	-102.657	-0.361	-0.086
-430.646	-200.000	0.006	0.037
-429.632	171.853	-0.222	0.319
-428.617	-178.600	-0.203	-0.005
-427.603	-95.199	0.113	0.030
-426.588	800.000	-0.080	0.259
-425.573	132.325	-0.027	0.035
-424.559	138.274	-0.186	-0.244
-423.544	228.261	0.228	-0.372
-422.530	-181.505	0.377	-0.007
-421.515	-105.473	-0.445	0.101
-420.500	257.752	-0.051	-0.087
-419.486	800.000	-0.063	0.268
-418.471	-110.247	0.172	-0.036
-417.457	228.089	0.192	-0.312
-416.442	-11.463	-0.118	-0.078
-415.428	223.703	0.060	0.097
-414.413	203.729	-0.148	-0.230
-413.398	104.329	-0.199	-0.235
-412.384	253.661	0.146	-0.250
-411.369	-200.000	-0.043	-0.397
-410.355	-20.675	0.259	0.159
-409.340	168.114	-0.090	-0.128
-408.325	-74.322	-0.179	-0.065
-407.311	-200.000	-0.017	0.088
-406.296	-140.513	-0.116	0.012
-405.282	-200.000	0.014	-0.090
-404.267	277.351	0.073	0.130
-403.252	-51.441	0.328	0.153
-402.238	-70.915	0.267	-0.101
-401.223	-165.305	-0.272	0.012
-400.209	11.097	0.105	-0.081
-399.194	151.131	-0.275	-0.375
-398.179	269.089	0.244	-0.428
-397.165	-53.900	-0.152	-0.069
-396.150	37.344	-0.156	-0.138
-395.136	-121.087	-0.125	-0.021
-394.121	-23.295	0.080	0.048
-393.106	-105.816	-0.394	-0.089
-392.092	-24.270	-0.169	0.101
-391.077	560.351	0.017	0.040
-390.063	800.000	-0.051	0.224
-389.048	282.700	0.337	0.604
-388.033	-118.263	0.119	-0.021
-387.019	-189.994	0.154	0.002
-386.004	125.159	-0.043	0.055
-384.990	-9.475	0.352	0.235
-383.975	-22.149	-0.181	-0.110
-382.960	-43.529	0.184	0.093
-381.946	-5.789	-0.073	-0.050
-380.931	800.000	0.061	0.192
-379.917	-71.866	-0.046	0.017
-378.902	297.703	-0.131	-0.241
-377.888	176.167	0.140	-0.203
-376.873	-72.611	0.043	0.016
-375.858	-89.219	-0.223	-0.066
-374.844	-172.141	0.123	0.004
-373.829	-200.000	-0.009	0.055
-372.815	-78.490	0.276	-0.095
-371.800	-20.472	0.140	0.086
-370.785	452.819	-0.062	-0.137
-369.771	-156.471	0.032	0.002
-368.756	582.954	-0.089	0.217
-367.742	800.000	0.049	0.145
-366.727	-200.000	-0.068	0.419
-365.712	128.419	0.131	0.166
-364.698	-89.732	0.083	-0.024
-363.683	40.526	-0.223	0.201
-362.669	105.996	0.235	0.278
-361.654	-200.000	-0.011	0.182
-360.639	-179.118	0.210	0.005
-359.625	-200.000	0.018	-0.150
-358.610	-125.058	-0.427	-0.065
-357.596	57.266	-0.075	0.073
-356.581	351.788	-0.053	-0.105
-355.566	-55.768	-0.260	-0.116
-354.552	-23.114	-0.191	-0.115
-353.537	432.126	-0.025	-0.055
-352.523	-44.638	-0.113	0.056
-351.508	-73.112	0.125	-0.046
-350.493	-140.415	0.289	0.030
-349.479	438.494	0.142	0.310
-348.464	214.663	0.079	0.125
-347.450	-130.751	0.076	-0.010
-346.435	64.205	-0.078	0.078
-345.420	143.189	-0.216	0.287
-344.406	494.916	0.121	0.278
-343.391	-106.935	0.129	0.029
-342.377	-14.346	-0.019	-0.012
-341.362	-116.473	0.031	-0.006
-340.348	569.639	0.035	-0.085
-339.333	291.723	-0.161	0.292
-338.318	-50.371	0.062	-0.029
-337.304	342.299	0.174	0.340
-336.289	-200.000	0.006	0.327
-335.275	351.753	0.030	-0.059
-334.260	-9.030	-0.194	-0.129
-333.245	419.693	-0.082	0.174
-332.231	254.946	0.038	0.064
-331.216	-46.911	0.161	0.079
-330.202	-156.003	0.353	0.022
-329.187	357.616	-0.045	-0.089
-328.172	5.747	0.078	0.058
-327.158	-188.557	-0.208	0.003
-326.143	56.642	0.088	-0.086
-325.129	800.000	0.071	0.248
-324.114	186.306	-0.031	-0.046
-323.099	28.617	0.274	0.231
-322.085	-94.572	0.378	-0.103
-321.070	800.000	-0.108	0.315
-320.056	366.034	0.111	-0.223
-319.041	-105.852	0.360	-0.081
-318.026	178.992	-0.053	0.078
-317.012	800.000	0.083	0.325
-315.997	-187.945	0.073	-0.001
-314.983	96.887	0.018	0.021
-313.968	-26.238	0.252	-0.148
-312.953	-200.000	0.012	-0.120
-311.939	5.223	-0.041	0.030
-310.924	-52.931	-0.420	-0.193
-309.910	-125.415	-0.217	-0.033
-308.895	100.269	-0.053	-0.062
-307.880	-51.086	0.181	0.085
-306.866	800.000	0.067	0.222
-305.851	-136.831	-0.207	-0.024
-304.837	-200.000	-0.013	0.267
-303.822	7.464	0.104	0.078
-302.807	3.502	-0.091	-0.066
-301.793	247.052	-0.066	-0.111
-300.778	122.828	-0.108	-0.134
-299.764	48.661	0.196	0.183
-298.749	800.000	-0.070	0.254
-297.735	800.000	0.044	-0.182
-296.720	-161.290	0.140	-0.007
-295.705	-84.752	-0.238	-0.075
-294.691	-126.928	-0.300	-0.044
-293.676	-126.816	-0.371	0.055
-292.662	559.751	0.056	0.134
-291.647	-37.601	-0.181	-0.096
-290.632	293.730	0.139	0.253
-289.618	167.805	0.183	-0.260
-288.603	456.993	-0.048	-0.107
-287.589	-136.762	0.121	0.014
-286.574	-61.746	-0.260	-0.108
-285.559	389.666	0.020	-0.042
-284.545	141.482	0.202	-0.266
-283.530	-98.280	0.098	0.025
-282.516	133.517	-0.247	0.319
-281.501	-96.130	0.250	0.066
-280.486	-24.577	0.217	-0.128
-279.472	19.221	-0.086	0.069
-278.457	800.000	-0.049	0.159
-277.443	-32.982	0.070	-0.039
-276.428	800.000	0.026	0.106
-275.413	66.635	0.175	0.177
-274.399	-152.718	-0.319	0.023
-273.384	-200.000	-0.004	-0.109
-272.370	800.000	-0.043	-0.140
-271.355	-127.485	0.337	0.049
-270.340	-19.210	-0.080	0.049
-269.326	-200.000	0.105	-0.473
-268.311	-200.000	0.036	-0.221
-267.297	2.466	0.080	-0.058
-266.282	800.000	0.097	0.288
-265.267	-120.907	-0.372	-0.062
-264.253	-38.214	0.237	-0.125
-263.238	31.213	0.205	0.175
-262.224	766.305	-0.089	-0.242
-261.209	16.007	0.133	-0.104
-260.195	471.563	-0.192	0.429
-259.180	-82.514	-0.164	-0.053
-258.165	319.782	0.191	-0.360
-257.151	308.699	0.057	0.107
-256.136	800.000	-0.058	0.204
-255.122	-200.000	-0.030	0.353
-254.107	-13.588	0.019	-0.012
-253.092	-63.390	-0.165	0.067
-252.078	135.628	0.260	0.336
-251.063	-39.828	-0.371	-0.193
-250.049	-17.442	-0.151	0.094
-249.034	-64.883	-0.240	0.096
-248.019	-199.181	0.129	-0.001
-247.005	-136.164	0.381	-0.044
-245.990	406.436	0.123	0.257
-244.976	340.690	-0.070	0.135
-243.961	189.533	0.074	0.110
-242.946	-156.640	-0.384	0.024
-241.932	525.275	0.047	0.110
-240.917	-32.730	0.226	0.125
-239.903	299.154	0.067	0.123
-238.888	-200.000	-0.016	0.277
-237.873	-106.315	0.210	-0.047
-236.859	67.259	0.062	0.063
-235.844	10.339	0.317	0.240
-234.830	-85.049	-0.244	0.076
-233.815	124.141	-0.124	-0.155
-232.800	153.107	-0.055	0.075
-231.786	-70.725	-0.176	0.066
-230.771	-200.000	0.015	0.127
-229.757	-143.987	0.250	0.023
-228.742	-200.000	0.008	-0.177
-227.727	-144.284	0.341	-0.032
-226.713	639.442	0.043	0.109
-225.698	7.918	0.141	0.105
-224.684	-200.000	0.012	0.173
-223.669	-176.388	-0.244	0.006
-222.655	327.657	0.155	-0.295
-221.640	800.000	-0.029	-0.082
-220.625	-200.000	0.015	0.103
-219.611	272.909	0.142	-0.248
-218.596	662.454	0.068	-0.174
-217.582	-150.342	-0.414	-0.032
-216.567	489.117	0.102	0.232
-215.552	-76.188	0.079	-0.028
-214.538	391.075	0.026	-0.053
-213.523	-88.583	0.093	0.027
-212.509	-58.078	-0.216	0.094
-211.494	-114.859	0.321	0.061
-210.479	-104.204	0.142	0.033
-209.465	245.971	0.069	-0.116
-208.450	-135.828	0.325	-0.038
-207.436	8.166	-0.216	0.161
-206.421	33.227	-0.104	-0.090
-205.406	385.720	-0.071	-0.145
-204.392	800.000	0.046	0.156
-203.377	-124.306	-0.260	0.040
-202.363	-129.219	-0.302	-0.042
-201.348	661.497	0.036	-0.091
-200.333	-70.173	0.183	0.069
-199.319	467.970	0.045	0.101
-198.304	-200.000	-0.051	0.320
-197.290	490.317	0.118	0.268
-196.275	-109.785	-0.073	0.015
-195.260	-15.001	-0.204	-0.130
-194.246	-22.483	-0.244	-0.146
-193.231	-74.937	0.278	0.099
-192.217	800.000	0.031	-0.129
-191.202	800.000	-0.019	0.057
-190.187	-200.000	0.020	-0.167
-189.173	800.000	-0.039	0.116
-188.158	-93.740	-0.270	-0.074
-187.144	-200.000	-0.039	0.218
-186.129	122.878	-0.286	0.356
-185.114	-41.903	0.124	0.063
-184.100	-200.000	0.007	0.062
-183.085	97.583	0.161	0.183
-182.071	800.000	-0.050	-0.151
-181.056	-200.000	0.038	-0.309
-180.042	-54.869	0.056	0.025
-179.027	344.209	-0.138	-0.267
-178.012	-28.678	-0.299	-0.171
-176.998	24.690	-0.185	0.152
-175.983	-82.509	0.282	0.091
-174.969	-200.000	-0.036	-0.251
-173.954	240.883	-0.043	-0.072
-172.939	185.563	0.054	-0.079
-171.925	800.000	-0.068	0.211
-170.910	41.085	0.224	-0.201
-169.896	-121.906	-0.135	0.022
-168.881	482.287	0.094	0.212
-167.866	314.434	0.097	0.181
-166.852	10.019	-0.097	-0.073
-165.837	-134.579	0.132	0.016
-164.823	63.108	0.229	-0.228
-163.808	731.674	0.053	-0.141
-162.793	12.957	-0.123	-0.094
-161.779	-91.345	-0.054	0.015
-160.764	-200.000	0.038	-0.182
-159.750	-94.971	-0.383	-0.103
-158.735	-67.831	-0.186	-0.072
-157.720	800.000	0.036	0.137
-156.706	-114.827	-0.410	-0.078
-155.691	-27.489	-0.206	0.119
-154.677	-123.197	0.256	-0.041
-153.662	109.881	0.171	-0.204
-152.647	-200.000	0.001	-0.076
-151.633	-59.159	-0.195	0.083
-150.618	-200.000	-0.010	0.406
-149.604	-200.000	0.048	0.295
-148.589	71.418	0.158	-0.162
-147.574	-51.361	-0.194	-0.090
-146.560	241.929	0.123	0.204
-145.545	-36.671	0.298	-0.159
-144.531	99.039	-0.065	0.074
-143.516	800.000	-0.110	0.334
-142.502	263.239	-0.157	-0.270
-141.487	800.000	-0.104	-0.328
-140.472	-7.008	-0.325	0.218
-139.458	-63.233	-0.095	0.039
-138.443	-19.342	-0.177	-0.109
-137.429	-200.000	0.012	0.142
-136.414	-200.000	0.032	0.330
-135.399	-65.157	0.029	-0.011
-134.385	76.732	-0.113	-0.119
-133.370	99.536	0.085	0.098
-132.356	-200.000	0.034	-0.287
-131.341	800.000	-0.129	0.382
-130.326	-7.600	0.139	-0.093
-129.312	256.368	0.052	-0.088
-128.297	-79.683	-0.149	0.050
-127.283	800.000	0.025	-0.089
-126.268	800.000	0.205	0.608
-125.253	-182.568	0.103	0.002
-124.239	506.341	0.053	-0.122
-123.224	-200.000	0.038	0.183
-122.210	-40.821	-0.127	-0.065
