DTS Sentinel unit serial number:	SN413079Multiplexer serial number:	ORYXHardware model number:	OX4-SRSoftware version number:	ORYX F/W v4.00 Oryx Data Collector v3.7.2.0data status	okinstallation	princeton_trtdifferential loss correction	single-endedforward channel	channel 2reverse channel	N/Adate	2019/09/15time	20:55:35forward acquisition time	60.00reverse acquisition time	0.00gamma	496.2192k internal	0.2332k external	0.2332temperature offset calibration	0.9939default loss term (dB/km)	0.3790temperature slope calibration	1.0000multiplexer offset coefficient	1.0000multiplexer slope coefficient	1.0000fibre end	0.00T internal ref (°C)	32.00T ext. ref 1 (°C)	8.03T ext. ref 2 (°C)	24.39length (m)	temperature (°C)	Stokes	anti-Stokes-747.200	283.610	0.208	0.377
-746.185	102.791	0.042	0.050
-745.171	403.264	-0.125	-0.266
-744.156	-200.000	-0.007	-0.043
-743.142	11.113	-0.060	0.046
-742.127	-50.457	-0.183	0.087
-741.112	673.096	0.098	0.256
-740.098	-1.694	0.170	0.121
-739.083	162.841	0.176	0.248
-738.069	-200.000	-0.037	0.327
-737.054	119.588	0.180	0.224
-736.039	176.670	-0.144	0.211
-735.025	243.271	0.063	0.106
-734.010	25.474	-0.288	0.241
-732.996	-75.441	0.081	0.029
-731.981	-158.950	-0.383	0.022
-730.966	627.026	0.072	0.184
-729.952	-7.822	0.105	0.071
-728.937	-200.000	0.027	-0.241
-727.923	-125.303	-0.148	0.023
-726.908	-159.018	-0.221	-0.013
-725.894	-67.688	0.215	0.085
-724.879	-156.258	-0.230	-0.015
-723.864	-97.010	0.046	0.012
-722.850	323.102	-0.134	-0.256
-721.835	69.645	-0.226	0.235
-720.821	-112.569	-0.128	0.026
-719.806	-38.092	-0.233	0.124
-718.791	37.764	-0.157	-0.140
-717.777	-38.481	-0.162	0.086
-716.762	92.337	0.020	0.023
-715.748	454.671	0.073	0.162
-714.733	-200.000	0.033	0.245
-713.718	161.332	-0.135	-0.190
-712.704	-200.000	-0.024	-0.334
-711.689	-200.000	-0.061	-0.490
-710.675	-54.426	-0.279	0.127
-709.660	94.891	0.240	0.274
-708.645	-77.736	-0.256	0.089
-707.631	28.637	0.354	-0.301
-706.616	501.144	0.150	-0.347
-705.602	76.888	-0.124	-0.132
-704.587	664.624	0.125	-0.324
-703.572	-22.001	-0.163	0.099
-702.558	185.484	0.035	-0.053
-701.543	-200.000	0.020	-0.110
-700.529	299.362	-0.142	0.263
-699.514	-200.000	0.016	-0.270
-698.499	-105.534	-0.278	-0.063
-697.485	178.537	0.148	-0.218
-696.470	-200.000	0.035	-0.400
-695.456	523.997	-0.020	-0.047
-694.441	435.510	-0.068	-0.149
-693.426	-27.564	-0.258	-0.151
-692.412	50.406	-0.162	-0.153
-691.397	-200.000	0.017	0.160
-690.383	-51.030	0.180	-0.085
-689.368	-166.896	-0.160	-0.007
-688.354	-84.854	-0.267	-0.084
-687.339	72.294	0.101	0.106
-686.324	75.669	-0.094	0.100
-685.310	800.000	-0.073	-0.301
-684.295	-21.467	-0.066	-0.041
-683.281	237.366	-0.077	0.129
-682.266	-20.375	0.085	0.052
-681.251	196.515	0.179	0.273
-680.237	-130.714	-0.197	-0.027
-679.222	31.733	0.338	-0.292
-678.208	-93.350	-0.167	-0.047
-677.193	-200.000	-0.000	-0.091
-676.178	427.985	0.221	0.479
-675.164	99.722	-0.203	-0.236
-674.149	34.547	-0.066	0.058
-673.135	-108.237	0.119	-0.026
-672.120	416.758	0.040	-0.087
-671.105	-200.000	-0.006	-0.065
-670.091	372.099	0.104	0.212
-669.076	-47.534	-0.323	0.157
-668.062	371.722	-0.114	-0.232
-667.047	33.768	0.072	-0.063
-666.032	-14.989	-0.181	-0.117
-665.018	-53.511	-0.258	-0.119
-664.003	-14.247	-0.223	-0.144
-662.989	-200.000	-0.001	-0.216
-661.974	-160.237	-0.161	-0.009
-660.959	57.899	-0.140	-0.137
-659.945	47.351	-0.143	-0.133
-658.930	41.363	0.156	0.142
-657.916	279.667	0.039	0.070
-656.901	-200.000	0.016	0.098
-655.886	800.000	-0.077	-0.316
-654.872	69.077	-0.110	-0.113
-653.857	55.173	0.175	-0.170
-652.843	35.919	0.129	0.114
-651.828	203.465	0.146	0.227
-650.814	-18.226	-0.376	-0.236
-649.799	57.989	-0.106	-0.104
-648.784	446.496	-0.078	-0.173
-647.770	408.647	-0.039	0.082
-646.755	-200.000	0.073	0.338
-645.741	800.000	0.045	0.148
-644.726	800.000	0.096	0.316
-643.711	-67.575	0.275	0.108
-642.697	-134.266	0.211	-0.026
-641.682	-29.519	-0.187	-0.107
-640.668	-172.387	0.184	-0.006
-639.653	-21.284	-0.187	0.115
-638.638	283.741	-0.098	-0.176
-637.624	298.639	0.089	0.164
-636.609	32.851	-0.146	0.127
-635.595	-20.693	-0.162	-0.100
-634.580	-77.479	-0.206	0.072
-633.565	285.049	-0.187	-0.337
-632.551	24.132	-0.172	-0.142
-631.536	-144.537	-0.098	0.009
-630.522	-90.232	0.196	-0.057
-629.507	-123.803	-0.261	-0.041
-628.492	50.499	-0.100	0.095
-627.478	70.953	0.156	-0.162
-626.463	-44.127	-0.081	0.041
-625.449	135.301	-0.034	-0.045
-624.434	-200.000	0.024	-0.307
-623.419	268.451	0.148	-0.259
-622.405	343.526	0.050	0.099
-621.390	-91.176	0.200	-0.057
-620.376	20.102	-0.211	0.170
-619.361	83.261	0.159	-0.173
-618.346	398.629	0.208	0.436
-617.332	-145.183	0.323	0.029
-616.317	65.329	-0.043	-0.043
-615.303	151.799	-0.104	0.141
-614.288	-134.835	-0.266	0.032
-613.273	99.248	-0.362	-0.419
-612.259	-119.761	0.117	-0.020
-611.244	-132.621	-0.102	0.013
-610.230	-97.266	-0.236	-0.062
-609.215	-200.000	0.042	-0.211
-608.201	398.321	-0.113	0.236
-607.186	-86.982	-0.138	-0.042
-606.171	47.329	0.067	0.063
-605.157	162.282	-0.052	-0.073
-604.142	800.000	0.042	-0.149
-603.128	761.809	-0.067	-0.182
-602.113	-92.598	-0.165	0.046
-601.098	-40.919	0.227	0.118
-600.084	-16.864	-0.460	0.291
-599.069	-53.313	0.347	-0.159
-598.055	1.889	-0.112	-0.081
-597.040	-125.108	-0.064	-0.010
-596.025	514.110	0.093	0.217
-595.011	-116.958	-0.265	-0.049
-593.996	691.019	0.122	-0.320
-592.982	767.233	-0.049	-0.133
-591.967	800.000	0.042	-0.125
-590.952	115.600	0.083	0.102
-589.938	-121.774	-0.175	0.029
-588.923	-24.996	-0.102	0.060
-587.909	-47.904	-0.120	-0.058
-586.894	-175.786	0.214	-0.006
-585.879	258.974	0.048	-0.083
-584.865	731.502	0.009	0.023
-583.850	77.986	0.039	0.041
-582.836	-38.441	-0.310	0.164
-581.821	179.457	0.194	0.284
-580.806	-56.137	-0.079	0.035
-579.792	239.282	-0.163	0.272
-578.777	366.589	0.067	-0.135
-577.763	184.606	0.101	-0.149
-576.748	-200.000	-0.017	0.328
-575.733	-200.000	-0.000	-0.239
-574.719	-200.000	-0.017	0.102
-573.704	-23.756	-0.124	-0.074
-572.690	-82.363	0.054	0.018
-571.675	252.182	0.211	0.360
-570.661	-200.000	0.023	0.165
-569.646	-200.000	-0.034	-0.192
-568.631	52.231	0.062	0.059
-567.617	293.952	-0.132	-0.241
-566.602	420.744	0.034	0.072
-565.588	13.142	0.022	-0.017
-564.573	-58.864	0.248	0.107
-563.558	-50.180	0.271	-0.128
-562.544	442.108	0.025	-0.055
-561.529	-200.000	-0.043	0.277
-560.515	-54.325	0.042	0.019
-559.500	-63.183	-0.202	-0.083
-558.485	-40.697	0.116	0.060
-557.471	160.146	-0.194	-0.271
-556.456	328.065	-0.092	0.177
-555.442	352.450	-0.171	-0.339
-554.427	-69.445	-0.065	0.025
-553.412	-200.000	0.005	0.271
-552.398	-90.956	0.459	-0.132
-551.383	-90.251	-0.090	0.026
-550.369	24.048	0.072	-0.059
-549.354	-200.000	-0.042	-0.300
-548.339	-172.624	0.139	0.004
-547.325	-142.348	-0.212	0.021
-546.310	159.557	0.032	-0.045
-545.296	-62.597	-0.110	0.046
-544.281	789.223	0.100	0.274
-543.266	-120.643	0.369	-0.062
-542.252	-14.831	-0.171	0.109
-541.237	-117.075	-0.243	-0.044
-540.223	-200.000	-0.031	0.214
-539.208	135.954	0.211	-0.274
-538.193	273.580	-0.217	0.382
-537.179	800.000	-0.074	-0.253
-536.164	4.836	-0.210	-0.154
-535.150	800.000	0.007	-0.028
-534.135	-200.000	0.018	0.182
-533.121	-200.000	0.012	-0.186
-532.106	-66.431	-0.230	-0.091
-531.091	800.000	0.043	-0.138
-530.077	53.772	0.099	0.095
-529.062	800.000	-0.079	0.252
-528.048	259.948	-0.058	-0.100
-527.033	65.592	0.208	0.210
-526.018	-49.326	-0.169	0.081
-525.004	-145.906	-0.185	0.016
-523.989	-48.566	-0.232	0.111
-522.975	-79.600	0.185	0.062
-521.960	9.924	0.154	0.117
-520.945	-84.258	0.104	-0.033
-519.931	102.020	-0.068	0.079
-518.916	172.320	-0.106	-0.152
-517.902	-200.000	-0.042	0.259
-516.887	800.000	0.016	0.047
-515.872	25.962	-0.245	0.204
-514.858	-79.531	-0.111	-0.037
-513.843	-173.723	0.301	0.009
-512.829	60.623	0.229	0.226
-511.814	360.155	0.029	0.058
-510.799	-32.359	-0.132	0.073
-509.785	-61.400	-0.430	-0.180
-508.770	-33.899	0.074	0.041
-507.756	35.122	0.049	-0.042
-506.741	200.448	-0.107	0.164
-505.726	72.097	-0.137	-0.142
-504.712	416.243	-0.041	0.086
-503.697	-64.687	0.245	0.099
-502.683	40.426	-0.076	-0.068
-501.668	29.600	-0.104	0.088
-500.653	-19.208	0.286	-0.177
-499.639	800.000	-0.035	0.098
-498.624	800.000	-0.062	0.176
-497.610	800.000	-0.061	0.219
-496.595	87.779	-0.031	-0.034
-495.581	296.541	-0.118	0.216
-494.566	73.036	-0.020	-0.021
-493.551	-115.846	-0.378	0.070
-492.537	86.454	-0.176	-0.193
-491.522	800.000	0.039	-0.129
-490.508	-78.616	0.317	0.108
-489.493	-18.925	0.057	0.036
-488.478	-30.296	0.094	-0.053
-487.464	-190.115	-0.353	0.004
-486.449	-200.000	-0.004	-0.101
-485.435	-200.000	0.001	-0.203
-484.420	455.465	0.044	-0.098
-483.405	104.788	-0.219	-0.257
-482.391	-166.683	0.088	0.004
-481.376	-132.184	0.195	0.025
-480.362	-84.738	-0.223	-0.070
-479.347	-42.829	0.218	0.110
-478.332	-200.000	-0.035	0.186
-477.318	510.293	0.072	-0.167
-476.303	-18.713	-0.154	0.096
-475.289	800.000	0.050	0.177
-474.274	-63.449	0.128	0.052
-473.259	-200.000	0.025	-0.275
-472.245	100.504	0.240	-0.278
-471.230	35.416	-0.293	0.256
-470.216	379.757	0.035	0.071
-469.201	-84.432	-0.179	0.056
-468.186	571.285	0.074	0.180
-467.172	68.622	-0.243	0.248
-466.157	132.648	0.124	-0.159
-465.143	800.000	0.043	-0.128
-464.128	-16.043	0.120	-0.076
-463.113	37.050	-0.139	0.122
-462.099	800.000	-0.139	-0.500
-461.084	-64.044	-0.317	0.129
-460.070	-52.227	-0.113	-0.052
-459.055	-9.049	0.090	0.060
-458.040	235.295	-0.062	-0.102
-457.026	-85.133	0.140	-0.043
-456.011	-200.000	0.066	0.337
-454.997	-62.007	-0.461	0.191
-453.982	-74.367	0.586	0.210
-452.968	-110.196	0.354	0.073
-451.953	127.514	0.068	0.086
-450.938	61.689	0.218	-0.216
-449.924	-77.008	-0.251	0.087
-448.909	-20.426	0.271	-0.166
-447.895	-118.203	-0.180	-0.032
-446.880	-141.594	-0.281	-0.028
-445.865	-185.952	0.228	-0.003
-444.851	-71.068	-0.351	0.131
-443.836	-200.000	0.017	0.124
-442.822	-200.000	-0.040	0.282
-441.807	437.410	0.088	0.191
-440.792	24.246	0.339	0.278
-439.778	-93.472	0.388	0.107
-438.763	-200.000	0.025	0.254
-437.749	800.000	-0.068	-0.243
-436.734	-56.832	0.116	0.051
-435.719	-10.940	-0.315	-0.207
-434.705	-21.967	-0.333	-0.201
-433.690	30.680	-0.164	-0.140
-432.676	401.388	0.127	-0.265
-431.661	361.482	0.095	0.189
-430.646	-152.420	0.252	0.018
-429.632	-132.228	0.032	-0.004
-428.617	-63.835	0.272	-0.111
-427.603	243.081	-0.144	0.240
-426.588	211.201	0.213	-0.333
-425.573	-200.000	-0.047	-0.430
-424.559	-200.000	0.019	0.229
-423.544	45.074	0.157	-0.144
-422.530	97.732	0.150	-0.171
-421.515	13.524	0.043	0.033
-420.500	-40.471	0.272	0.141
-419.486	-18.970	-0.163	0.101
-418.471	16.669	0.109	-0.086
-417.457	186.858	-0.203	-0.301
-416.442	-32.752	0.182	-0.100
-415.428	51.999	0.139	-0.132
-414.413	9.964	0.202	0.152
-413.398	7.620	-0.096	-0.071
-412.384	-93.983	-0.136	0.037
-411.369	273.950	-0.279	-0.491
-410.355	201.544	-0.104	-0.159
-409.340	44.130	-0.207	-0.188
-408.325	100.582	0.131	-0.151
-407.311	-30.491	0.124	-0.070
-406.296	800.000	-0.055	-0.227
-405.282	-200.000	0.001	0.347
-404.267	451.271	0.095	0.209
-403.252	-102.179	-0.087	0.021
-402.238	-119.020	0.236	-0.041
-401.223	342.545	-0.081	-0.158
-400.209	-72.035	-0.125	0.046
-399.194	-131.592	-0.328	-0.043
-398.179	370.448	0.006	-0.013
-397.165	-200.000	-0.005	0.230
-396.150	32.822	0.024	-0.020
-395.136	-102.693	-0.089	0.021
-394.121	800.000	-0.079	-0.291
-393.106	-20.482	-0.285	-0.174
-392.092	161.641	-0.061	0.085
-391.077	800.000	-0.065	0.200
-390.063	251.354	0.135	0.227
-389.048	205.261	0.132	-0.203
-388.033	243.394	-0.056	-0.093
-387.019	-3.828	0.351	-0.242
-386.004	56.141	-0.219	-0.211
-384.990	800.000	0.053	-0.191
-383.975	280.351	-0.040	-0.071
-382.960	800.000	0.090	-0.254
-381.946	-65.437	0.063	-0.025
-380.931	10.413	-0.212	-0.160
-379.917	-37.610	-0.411	-0.217
-378.902	-200.000	-0.005	-0.218
-377.888	-68.960	-0.426	-0.163
-376.873	-161.967	-0.105	-0.005
-375.858	-30.970	-0.368	0.206
-374.844	-67.055	0.279	0.109
-373.829	-15.734	0.161	-0.102
-372.815	429.380	-0.214	-0.459
-371.800	-65.707	0.261	-0.104
-370.785	-200.000	-0.034	0.173
-369.771	-13.722	0.070	0.045
-368.756	171.222	0.146	-0.208
-367.742	-136.400	-0.281	-0.032
-366.727	-37.041	0.351	0.186
-365.712	211.144	0.073	-0.114
-364.698	31.142	-0.248	0.211
-363.683	-200.000	0.027	-0.268
-362.669	155.553	-0.081	0.110
-361.654	-199.935	-0.190	0.001
-360.639	-200.000	-0.020	0.262
-359.625	-143.529	0.371	0.035
-358.610	-113.129	0.184	-0.036
-357.596	-61.619	-0.235	-0.098
-356.581	454.094	0.067	0.146
-355.566	519.499	-0.075	0.173
-354.552	-74.247	-0.249	0.089
-353.537	-118.879	0.250	-0.044
-352.523	-109.761	0.319	0.066
-351.508	-68.925	0.031	0.012
-350.493	-67.074	-0.351	0.137
-349.479	-134.350	0.069	0.008
-348.464	-200.000	0.024	-0.245
-347.450	-46.694	0.409	0.198
-346.435	-90.949	-0.405	0.115
-345.420	74.112	-0.214	0.223
-344.406	-200.000	-0.023	-0.214
-343.391	-65.700	0.063	0.025
-342.377	800.000	-0.085	0.272
-341.362	-3.333	-0.084	0.058
-340.348	-108.518	-0.030	0.006
-339.333	-52.383	-0.125	0.058
-338.318	-200.000	-0.008	-0.309
-337.304	262.674	0.095	-0.163
-336.289	196.235	-0.173	-0.260
-335.275	468.030	0.085	0.188
-334.260	-200.000	0.003	0.117
-333.245	-163.193	-0.099	-0.005
-332.231	38.121	0.043	0.038
-331.216	-200.000	0.022	0.513
-330.202	-200.000	0.094	0.564
-329.187	167.410	-0.123	0.173
-328.172	-96.275	-0.403	0.106
-327.158	800.000	-0.106	0.324
-326.143	-85.679	-0.140	0.043
-325.129	-171.228	-0.253	-0.008
-324.114	120.072	0.223	0.274
-323.099	-118.624	0.368	-0.064
-322.085	40.325	-0.235	-0.209
-321.070	228.184	0.035	0.057
-320.056	121.797	-0.043	-0.054
-319.041	61.024	0.428	-0.421
-318.026	-112.091	0.137	-0.027
-317.012	-25.190	0.089	-0.052
-315.997	499.866	0.110	0.252
-314.983	-131.306	0.134	-0.018
-313.968	287.629	-0.120	0.215
-312.953	690.703	-0.102	-0.263
-311.939	41.416	0.041	0.036
-310.924	64.502	0.138	0.137
-309.910	0.877	-0.106	-0.075
-308.895	154.931	0.081	0.111
-307.880	-171.532	0.147	-0.005
-306.866	514.000	-0.111	-0.255
-305.851	-53.537	-0.190	0.086
-304.837	800.000	0.082	0.245
-303.822	-21.810	0.320	-0.192
-302.807	-35.583	0.185	-0.099
-301.793	-19.062	0.100	-0.062
-300.778	-200.000	0.021	0.180
-299.764	390.601	-0.077	-0.158
-298.749	800.000	-0.053	-0.147
-297.735	-200.000	0.016	-0.089
-296.720	-47.055	-0.385	-0.186
-295.705	-46.510	-0.307	-0.149
-294.691	-200.000	0.034	0.267
-293.676	-200.000	0.017	-0.175
-292.662	29.220	-0.143	0.120
-291.647	30.147	-0.129	0.109
-290.632	89.256	0.055	0.060
-289.618	-36.580	-0.076	-0.040
-288.603	-200.000	0.021	0.196
-287.589	-0.601	0.210	-0.147
-286.574	-146.932	-0.241	-0.020
-285.559	-200.000	-0.025	0.307
-284.545	-34.968	-0.316	0.170
-283.530	347.665	0.114	0.222
-282.516	-153.548	0.156	-0.011
-281.501	461.191	0.077	0.170
-280.486	800.000	0.088	0.282
-279.472	-48.947	-0.298	0.141
-278.457	-125.803	0.139	-0.021
-277.443	-19.107	0.135	0.083
-276.428	800.000	0.047	-0.189
-275.413	-6.926	-0.206	-0.138
-274.399	-200.000	-0.026	-0.243
-273.384	-76.489	0.182	-0.063
-272.370	800.000	-0.056	0.180
-271.355	225.802	0.142	-0.227
-270.340	84.324	0.140	0.151
-269.326	52.432	-0.257	-0.242
-268.311	16.809	0.151	0.118
-267.297	-200.000	-0.022	0.314
-266.282	800.000	-0.030	-0.100
-265.267	-200.000	0.014	-0.205
-264.253	-200.000	-0.076	-0.511
-263.238	800.000	-0.094	-0.282
-262.224	-113.038	0.196	-0.038
-261.209	469.736	0.114	0.254
-260.195	-7.126	-0.297	0.199
-259.180	612.440	0.039	0.095
-258.165	800.000	0.024	0.071
-257.151	-200.000	-0.011	-0.195
-256.136	288.895	0.068	-0.121
-255.122	-200.000	0.000	-0.047
-254.107	-200.000	0.050	-0.379
-253.092	800.000	-0.119	-0.384
-252.078	800.000	0.050	-0.205
-251.063	11.153	0.214	0.162
-250.049	102.984	-0.252	0.291
-249.034	188.673	-0.212	0.313
-248.019	-200.000	0.003	-0.128
-247.005	-24.275	0.227	0.134
-245.990	-200.000	0.030	-0.228
-244.976	-200.000	-0.016	-0.174
-243.961	735.703	-0.060	-0.160
-242.946	-200.000	-0.019	-0.149
-241.932	-200.000	0.030	-0.288
-240.917	800.000	0.015	-0.061
-239.903	-200.000	-0.029	-0.220
-238.888	-50.506	-0.263	-0.122
-237.873	439.648	-0.116	-0.250
-236.859	800.000	0.017	-0.050
-235.844	-200.000	0.007	0.131
-234.830	-200.000	-0.026	-0.195
-233.815	-27.779	0.077	0.044
-232.800	57.557	0.055	-0.053
-231.786	-200.000	-0.013	-0.132
-230.771	33.993	0.372	0.320
-229.757	-111.458	-0.250	0.050
-228.742	154.908	0.022	0.030
-227.727	-200.000	0.016	0.140
-226.713	390.613	-0.064	-0.131
-225.698	-78.558	0.149	-0.050
-224.684	-34.029	0.289	0.157
-223.669	-200.000	-0.022	-0.185
-222.655	-123.101	0.215	-0.034
-221.640	168.102	-0.115	0.161
-220.625	800.000	-0.051	0.140
-219.611	33.520	0.242	-0.208
-218.596	-87.982	-0.175	-0.052
-217.582	247.402	-0.148	0.246
-216.567	800.000	-0.050	0.197
-215.552	-97.554	-0.119	-0.030
-214.538	741.255	-0.065	0.172
-213.523	-16.215	0.257	-0.161
-212.509	-200.000	-0.026	0.160
-211.494	-84.942	-0.242	0.075
-210.479	800.000	-0.026	0.085
-209.465	-143.065	0.251	-0.024
-208.450	-167.106	0.205	0.008
-207.436	-57.543	0.347	0.150
-206.421	-200.000	0.028	0.127
-205.406	266.197	0.111	0.192
-204.392	223.932	-0.112	0.179
-203.377	-200.000	0.029	-0.208
-202.363	0.538	0.141	0.100
-201.348	-200.000	-0.023	0.250
-200.333	112.765	0.217	0.259
-199.319	283.153	0.089	0.157
-198.304	-157.351	0.236	0.014
-197.290	26.147	-0.132	0.109
-196.275	800.000	0.084	0.346
-195.260	-84.926	-0.061	-0.019
-194.246	-12.948	0.171	-0.110
-193.231	177.378	-0.203	-0.292
-192.217	-200.000	-0.009	-0.271
-191.202	50.186	0.155	-0.144
-190.187	-34.839	0.460	-0.247
-189.173	77.545	0.103	0.108
-188.158	-37.412	-0.143	-0.075
-187.144	-89.117	0.237	-0.069
-186.129	800.000	0.118	0.396
-185.114	-113.962	-0.417	-0.080
-184.100	-200.000	0.037	-0.198
-183.085	43.655	-0.171	-0.154
-182.071	155.609	0.187	0.253
-181.056	4.407	0.105	-0.076
-180.042	70.563	0.201	0.205
-179.027	-200.000	-0.019	-0.202
-178.012	-98.234	-0.100	-0.025
-176.998	-200.000	-0.050	-0.224
-175.983	-18.483	-0.112	-0.069
-174.969	529.171	0.079	0.184
-173.954	87.576	0.107	-0.117
-172.939	-200.000	-0.008	-0.258
-171.925	-200.000	-0.010	-0.131
-170.910	-50.795	-0.080	0.037
-169.896	-57.997	-0.081	0.035
-168.881	-200.000	0.022	0.331
-167.866	197.416	0.137	-0.206
-166.852	-43.924	0.119	0.059
-165.837	181.522	0.062	-0.090
-164.823	-200.000	0.002	0.298
-163.808	278.374	-0.103	0.180
-162.793	-52.773	0.246	0.112
-161.779	-105.570	0.094	0.021
-160.764	-156.228	0.100	-0.006
-159.750	127.717	0.254	0.318
-158.735	-156.274	0.158	-0.010
-157.720	-200.000	0.042	0.231
-156.706	28.177	0.409	-0.340
-155.691	58.756	0.120	-0.116
-154.677	800.000	0.044	-0.142
-153.662	37.044	0.294	0.256
-152.647	-134.821	-0.088	-0.010
-151.633	743.582	-0.061	-0.160
-150.618	-83.366	-0.173	0.054
-149.604	-24.865	0.320	0.187
-148.589	800.000	0.070	0.229
-147.574	800.000	-0.059	0.162
-146.560	-200.000	0.006	0.054
-145.545	197.416	-0.042	0.063
-144.531	5.690	-0.303	0.220
-143.516	-200.000	-0.019	-0.411
-142.502	800.000	0.017	-0.061
-141.487	434.671	0.155	-0.332
-140.472	-200.000	0.000	0.073
-139.458	-63.651	-0.276	0.111
-138.443	800.000	0.083	0.323
-137.429	-116.868	0.148	-0.027
-136.414	-6.257	0.356	-0.239
-135.399	189.818	-0.059	0.088
-134.385	47.554	-0.185	-0.169
-133.370	380.444	-0.088	-0.178
-132.356	-200.000	0.007	-0.128
-131.341	-118.331	-0.196	-0.034
-130.326	-112.443	-0.220	-0.043
-129.312	94.161	0.191	0.213
-128.297	-93.593	0.296	-0.080
-127.283	800.000	0.015	-0.052
-126.268	40.753	-0.266	-0.236
-125.253	-200.000	0.003	0.204
-124.239	-128.163	-0.318	0.045
-123.224	800.000	0.094	0.313
-122.210	800.000	0.028	-0.081
-121.195	777.131	-0.063	0.168
