DTS Sentinel unit serial number:	SN413079Multiplexer serial number:	ORYXHardware model number:	OX4-SRSoftware version number:	ORYX F/W v4.00 Oryx Data Collector v3.7.2.0data status	okinstallation	princeton_trtdifferential loss correction	single-endedforward channel	channel 2reverse channel	N/Adate	2019/09/19time	05:43:35forward acquisition time	60.00reverse acquisition time	0.00gamma	496.2192k internal	0.2351k external	0.2351temperature offset calibration	1.0014default loss term (dB/km)	0.3790temperature slope calibration	1.0000multiplexer offset coefficient	1.0000multiplexer slope coefficient	1.0000fibre end	0.00T internal ref (°C)	19.28T ext. ref 1 (°C)	0.59T ext. ref 2 (°C)	12.80length (m)	temperature (°C)	Stokes	anti-Stokes-747.200	800.000	0.155	-0.430
-746.185	-124.867	0.068	0.011
-745.171	-200.000	-0.318	0.001
-744.156	-200.000	-0.027	0.399
-743.142	-127.997	-0.258	0.037
-742.127	23.306	-0.118	0.096
-741.112	70.070	0.270	0.278
-740.098	88.649	0.056	0.063
-739.083	97.461	-0.185	0.212
-738.069	400.006	0.110	0.231
-737.054	-58.924	-0.015	0.006
-736.039	41.487	-0.230	-0.208
-735.025	-82.630	0.339	0.110
-734.010	-101.493	0.213	-0.052
-732.996	129.070	-0.263	0.335
-731.981	540.463	0.094	0.224
-730.966	30.969	0.149	-0.127
-729.952	120.939	0.108	-0.134
-728.937	800.000	-0.085	-0.240
-727.923	-5.196	-0.044	-0.030
-726.908	-104.727	-0.270	-0.062
-725.894	74.622	-0.029	-0.030
-724.879	-200.000	-0.016	-0.241
-723.864	308.827	-0.106	-0.197
-722.850	-87.271	-0.096	0.029
-721.835	-200.000	-0.041	-0.277
-720.821	52.354	-0.180	0.171
-719.806	38.028	0.044	0.039
-718.791	-50.117	-0.023	-0.011
-717.777	348.055	-0.112	0.220
-716.762	-65.215	0.091	0.037
-715.748	800.000	-0.057	-0.180
-714.733	-200.000	-0.006	-0.169
-713.718	415.089	-0.083	-0.175
-712.704	-23.329	0.066	-0.040
-711.689	191.724	0.094	-0.141
-710.675	566.507	-0.094	-0.226
-709.660	-97.162	0.236	-0.062
-708.645	151.643	-0.082	-0.111
-707.631	-46.634	0.166	-0.081
-706.616	-96.989	0.271	0.071
-705.602	-48.614	-0.151	0.072
-704.587	-90.557	0.274	0.079
-703.572	-160.993	-0.192	0.010
-702.558	28.559	-0.127	0.107
-701.543	338.655	0.192	0.372
-700.529	-200.000	-0.051	0.416
-699.514	-9.756	0.232	-0.154
-698.499	-47.501	-0.236	-0.114
-697.485	-129.562	-0.302	-0.042
-696.470	-178.370	-0.086	-0.002
-695.456	308.243	0.174	-0.323
-694.441	-200.000	-0.027	-0.469
-693.426	281.549	-0.151	0.270
-692.412	275.794	-0.100	-0.177
-691.397	-102.595	0.307	0.073
-690.383	25.950	-0.452	0.376
-689.368	43.645	-0.104	-0.095
-688.354	-114.983	-0.227	0.043
-687.339	-127.671	-0.186	-0.027
-686.324	273.151	0.132	0.231
-685.310	1.228	0.290	0.207
-684.295	-51.628	-0.457	-0.212
-683.281	387.979	-0.056	0.116
-682.266	-77.022	0.103	-0.036
-681.251	-83.846	0.368	0.117
-680.237	-91.574	-0.311	0.088
-679.222	53.577	-0.196	-0.188
-678.208	-108.377	-0.261	-0.056
-677.193	0.769	-0.350	0.250
-676.178	271.957	0.138	0.243
-675.164	-51.669	-0.173	0.080
-674.149	800.000	0.088	-0.343
-673.135	800.000	-0.161	-0.474
-672.120	-162.915	-0.247	-0.012
-671.105	373.019	-0.103	-0.207
-670.091	138.100	0.065	0.085
-669.076	274.878	-0.049	0.086
-668.062	-142.053	-0.308	0.030
-667.047	-20.030	-0.091	0.056
-666.032	752.738	-0.121	0.325
-665.018	-41.249	0.051	-0.026
-664.003	159.689	-0.100	0.139
-662.989	-121.499	0.211	-0.035
-661.974	427.481	-0.079	0.169
-660.959	-140.988	-0.192	0.020
-659.945	209.973	0.165	0.258
-658.930	-22.383	-0.181	-0.109
-657.916	-56.838	-0.104	0.046
-656.901	-107.742	-0.051	-0.011
-655.886	226.677	0.194	-0.313
-654.872	-130.676	0.060	-0.008
-653.857	96.501	0.052	-0.059
-652.843	-125.291	0.109	0.017
-651.828	-200.000	-0.077	0.348
-650.814	126.466	0.208	-0.262
-649.799	15.095	-0.051	0.039
-648.784	85.868	0.241	-0.263
-647.770	403.371	-0.074	-0.155
-646.755	-34.918	-0.193	0.105
-645.741	-89.494	-0.315	-0.092
-644.726	44.067	0.273	0.249
-643.711	290.677	0.137	-0.247
-642.697	-190.705	-0.366	-0.004
-641.682	244.402	-0.004	0.006
-640.668	-101.060	-0.018	0.004
-639.653	-160.318	-0.142	0.008
-638.638	-200.000	0.041	-0.229
-637.624	90.705	-0.179	-0.199
-636.609	-23.989	0.095	-0.057
-635.595	-200.000	0.026	0.124
-634.580	-200.000	-0.013	-0.110
-633.565	-108.980	0.335	-0.071
-632.551	37.598	-0.223	-0.196
-631.536	-77.190	0.282	0.098
-630.522	54.382	-0.246	0.236
-629.507	377.916	-0.056	0.114
-628.492	-121.808	0.208	-0.034
-627.478	-62.272	0.415	0.172
-626.463	-191.908	0.048	-0.000
-625.449	119.435	0.252	-0.310
-624.434	-23.103	-0.168	-0.101
-623.419	159.071	-0.071	0.098
-622.405	-128.588	0.153	-0.022
-621.390	410.304	0.097	-0.205
-620.376	-200.000	-0.024	0.228
-619.361	800.000	0.127	-0.369
-618.346	384.276	-0.117	-0.239
-617.332	-200.000	0.049	0.246
-616.317	92.290	-0.145	-0.162
-615.303	-200.000	0.044	0.233
-614.288	-55.377	0.108	0.048
-613.273	-73.331	-0.456	0.166
-612.259	-200.000	-0.005	0.338
-611.244	-57.156	-0.229	0.100
-610.230	-200.000	0.033	-0.248
-609.215	209.076	-0.171	-0.266
-608.201	76.079	0.234	0.246
-607.186	23.316	-0.086	0.070
-606.171	224.973	-0.154	0.248
-605.157	-200.000	-0.035	-0.239
-604.142	388.859	0.128	-0.263
-603.128	32.403	-0.200	-0.171
-602.113	-9.595	0.111	-0.074
-601.098	-66.529	0.253	-0.100
-600.084	-133.184	0.565	-0.071
-599.069	-31.095	-0.257	-0.144
-598.055	467.091	0.168	0.374
-597.040	53.284	-0.184	-0.175
-596.025	-93.318	-0.419	-0.115
-595.011	182.108	-0.072	0.106
-593.996	-53.167	0.134	0.061
-592.982	800.000	-0.040	0.113
-591.967	31.708	0.354	0.302
-590.952	595.907	-0.040	-0.099
-589.938	-86.731	0.104	-0.032
-588.923	-91.422	-0.316	0.090
-587.909	800.000	0.075	0.208
-586.894	362.195	-0.121	-0.241
-585.879	145.450	0.063	0.084
-584.865	800.000	-0.048	-0.131
-583.850	-114.958	0.445	0.084
-582.836	-123.519	-0.224	-0.035
-581.821	449.384	-0.103	-0.224
-580.806	800.000	0.024	-0.097
-579.792	-35.477	0.231	-0.124
-578.777	51.720	0.085	0.080
-577.763	-67.516	-0.093	-0.036
-576.748	-200.000	-0.021	0.233
-575.733	58.689	0.086	-0.084
-574.719	-0.326	-0.297	0.209
-573.704	-68.330	0.279	0.107
-572.690	723.765	-0.068	-0.178
-571.675	-125.139	0.051	0.008
-570.661	43.252	0.185	-0.168
-569.646	575.062	-0.064	-0.156
-568.631	800.000	-0.111	0.316
-567.617	125.824	-0.140	-0.176
-566.602	78.318	0.103	-0.109
-565.588	-108.872	0.260	0.055
-564.573	-144.687	-0.209	-0.019
-563.558	-200.000	-0.034	0.148
-562.544	-104.180	0.425	-0.098
-561.529	-200.000	-0.005	-0.109
-560.515	102.788	0.161	0.187
-559.500	-200.000	0.021	-0.304
-558.485	-200.000	0.008	0.154
-557.471	-132.644	-0.189	-0.024
-556.456	463.112	0.121	-0.268
-555.442	800.000	-0.099	-0.319
-554.427	396.136	0.092	0.191
-553.412	800.000	-0.126	0.462
-552.398	79.482	0.186	0.197
-551.383	363.786	0.131	0.260
-550.369	173.146	0.035	-0.050
-549.354	159.986	-0.115	-0.159
-548.339	-42.461	-0.259	0.131
-547.325	111.473	-0.221	-0.264
-546.310	-105.942	0.268	-0.060
-545.296	-122.351	-0.300	0.048
-544.281	-104.535	-0.116	0.027
-543.266	-26.186	0.322	0.187
-542.252	51.837	-0.029	0.028
-541.237	98.915	-0.078	-0.089
-540.223	-200.000	-0.105	0.461
-539.208	76.950	0.193	0.203
-538.193	-83.974	-0.158	0.050
-537.179	-29.173	-0.162	-0.092
-536.164	-2.045	0.285	0.198
-535.150	800.000	0.033	0.119
-534.135	-117.071	0.490	0.088
-533.121	800.000	-0.043	0.145
-532.106	-22.586	-0.057	-0.034
-531.091	55.266	-0.257	-0.246
-530.077	-138.537	0.372	0.040
-529.062	165.220	-0.195	0.273
-528.048	-200.000	0.101	-0.000
-527.033	-36.807	0.040	-0.021
-526.018	146.344	-0.223	-0.296
-525.004	-160.381	-0.368	0.020
-523.989	-71.917	-0.089	0.033
-522.975	256.630	0.171	0.291
-521.960	135.478	-0.151	0.195
-520.945	335.743	0.114	-0.219
-519.931	-61.333	0.221	0.092
-518.916	-99.931	-0.240	-0.059
-517.902	4.508	0.355	0.258
-516.887	4.622	-0.162	0.118
-515.872	-141.589	0.262	-0.026
-514.858	-83.984	-0.239	0.075
-513.843	456.100	-0.062	0.135
-512.829	-12.019	0.270	-0.175
-511.814	-36.619	0.357	0.190
-510.799	-67.221	-0.177	0.069
-509.785	-200.000	0.001	-0.012
-508.770	-182.321	-0.298	0.005
-507.756	-81.297	-0.161	0.053
-506.741	800.000	-0.051	-0.145
-505.726	393.096	-0.127	0.262
-504.712	-21.780	0.279	0.168
-503.697	33.687	0.099	0.085
-502.683	-200.000	-0.000	0.099
-501.668	-200.000	0.026	0.135
-500.653	-13.750	0.356	0.228
-499.639	432.097	-0.116	-0.249
-498.624	-46.005	-0.157	0.076
-497.610	23.171	0.144	0.117
-496.595	800.000	0.049	-0.208
-495.581	800.000	-0.084	0.346
-494.566	-46.878	-0.200	-0.096
-493.551	346.954	-0.041	0.080
-492.537	497.091	0.133	-0.301
-491.522	-134.002	-0.099	0.012
-490.508	205.005	0.184	-0.282
-489.493	-110.033	-0.226	0.047
-488.478	800.000	0.054	-0.234
-487.464	-200.000	-0.009	0.628
-486.449	800.000	0.046	0.159
-485.435	-32.717	0.705	-0.387
-484.420	-200.000	-0.001	-0.243
-483.405	7.757	-0.093	-0.068
-482.391	-66.032	0.021	-0.008
-481.376	-200.000	-0.046	-0.218
-480.362	781.442	0.061	0.164
-479.347	-107.335	-0.153	-0.033
-478.332	40.202	0.287	-0.254
-477.318	-14.022	-0.204	0.130
-476.303	-200.000	-0.022	0.232
-475.289	800.000	0.017	0.071
-474.274	-200.000	0.034	0.187
-473.259	35.163	-0.334	-0.289
-472.245	502.095	0.026	-0.058
-471.230	-115.797	-0.393	0.073
-470.216	49.087	0.158	-0.146
-469.201	302.577	0.085	0.155
-468.186	478.510	0.067	0.150
-467.172	-45.966	0.159	-0.077
-466.157	7.624	-0.342	0.253
-465.143	219.767	-0.304	0.480
-464.128	48.315	0.083	0.076
-463.113	-54.929	0.301	0.134
-462.099	800.000	0.081	-0.310
-461.084	-31.163	0.331	-0.184
-460.070	-154.017	0.207	0.014
-459.055	109.884	-0.296	-0.350
-458.040	571.069	0.034	-0.083
-457.026	31.556	0.392	-0.332
-456.011	800.000	0.024	0.079
-454.997	-155.022	0.175	-0.011
-453.982	54.082	0.163	-0.155
-452.968	-48.372	-0.201	-0.096
-451.953	-162.297	-0.081	0.004
-450.938	306.226	0.067	0.124
-449.924	-98.198	0.140	-0.036
-448.909	-200.000	0.047	-0.323
-447.895	576.452	-0.108	0.259
-446.880	800.000	0.017	0.065
-445.865	-172.732	0.052	0.002
-444.851	100.983	0.193	0.221
-443.836	477.207	0.139	-0.309
-442.822	-200.000	0.041	-0.351
-441.807	244.748	0.077	0.127
-440.792	-31.813	0.177	-0.098
-439.778	628.572	0.065	0.162
-438.763	258.332	-0.129	0.220
-437.749	-9.707	-0.166	-0.109
-436.734	-200.000	0.002	0.058
-435.719	-128.224	0.244	0.034
-434.705	-52.327	0.215	-0.098
-433.690	161.062	0.135	-0.186
-432.676	800.000	-0.096	-0.289
-431.661	40.458	-0.184	-0.163
-430.646	-200.000	0.020	0.095
-429.632	-89.383	-0.255	0.074
-428.617	-200.000	-0.016	-0.439
-427.603	800.000	0.076	0.265
-426.588	-200.000	-0.005	-0.151
-425.573	103.082	-0.151	0.174
-424.559	-200.000	0.023	-0.101
-423.544	444.430	-0.110	-0.238
-422.530	117.542	0.199	0.241
-421.515	-96.609	-0.175	0.045
-420.500	-173.703	-0.225	-0.007
-419.486	-102.188	-0.239	-0.057
-418.471	-21.019	0.225	-0.136
-417.457	295.804	-0.164	-0.296
-416.442	54.240	-0.279	-0.264
-415.428	57.888	0.237	-0.228
-414.413	13.309	-0.240	-0.184
-413.398	-200.000	0.013	0.062
-412.384	169.735	-0.220	-0.310
-411.369	97.327	0.022	0.025
-410.355	21.538	0.073	-0.058
-409.340	-113.675	-0.337	-0.065
-408.325	222.936	0.109	-0.174
-407.311	344.038	0.064	0.124
-406.296	-200.000	0.023	-0.170
-405.282	-96.973	-0.068	0.018
-404.267	9.475	-0.111	0.083
-403.252	-200.000	-0.006	-0.200
-402.238	-148.288	-0.105	0.009
-401.223	-7.648	0.232	0.154
-400.209	-200.000	0.031	0.416
-399.194	16.334	0.053	0.041
-398.179	-200.000	-0.015	0.386
-397.165	800.000	0.049	0.173
-396.150	12.359	0.128	-0.097
-395.136	-110.044	-0.040	-0.008
-394.121	516.781	-0.065	0.150
-393.106	45.463	0.249	-0.226
-392.092	800.000	-0.043	-0.149
-391.077	800.000	0.072	-0.301
-390.063	367.918	-0.106	-0.210
-389.048	-139.993	0.287	-0.030
-388.033	261.923	-0.095	-0.163
-387.019	-59.933	0.195	0.082
-386.004	65.442	0.198	-0.197
-384.990	86.336	0.040	0.043
-383.975	800.000	0.117	0.355
-382.960	578.709	0.148	-0.357
-381.946	-53.821	-0.143	-0.064
-380.931	-108.861	-0.202	-0.042
-379.917	-57.035	0.221	-0.096
-378.902	-200.000	0.004	-0.112
-377.888	-48.622	-0.556	-0.263
-376.873	-73.447	-0.210	0.075
-375.858	-200.000	-0.001	-0.319
-374.844	41.164	-0.061	0.054
-373.829	332.794	-0.115	0.218
-372.815	95.239	0.141	0.158
-371.800	-6.744	0.067	-0.045
-370.785	-90.085	-0.126	0.036
-369.771	-200.000	0.034	0.329
-368.756	149.024	-0.166	0.221
-367.742	0.061	0.191	-0.134
-366.727	-200.000	0.027	0.133
-365.712	-94.624	-0.209	-0.056
-364.698	-200.000	-0.004	-0.104
-363.683	666.551	-0.097	0.245
-362.669	800.000	0.074	0.301
-361.654	150.786	0.188	-0.251
-360.639	782.158	-0.058	-0.156
-359.625	-200.000	0.044	0.385
-358.610	77.120	0.192	0.200
-357.596	107.102	0.195	0.228
-356.581	241.441	-0.117	0.192
-355.566	-39.602	-0.257	-0.132
-354.552	23.073	0.230	-0.186
-353.537	-35.815	-0.215	-0.114
-352.523	366.901	0.111	-0.220
-351.508	66.789	0.248	-0.248
-350.493	59.594	-0.196	0.190
-349.479	86.385	-0.058	-0.063
-348.464	-30.022	0.103	0.058
-347.450	-79.910	0.182	-0.060
-346.435	182.102	-0.109	0.157
-345.420	-138.787	-0.524	0.056
-344.406	266.060	0.112	-0.192
-343.391	-200.000	-0.053	0.281
-342.377	-20.691	-0.078	-0.047
-341.362	-200.000	0.011	-0.634
-340.348	-200.000	-0.002	-0.104
-339.333	-2.814	0.100	-0.069
-338.318	381.344	-0.135	-0.272
-337.304	652.730	-0.074	-0.185
-336.289	-87.255	-0.278	-0.083
-335.275	-200.000	-0.073	-0.393
-334.260	225.878	-0.162	-0.259
-333.245	-200.000	-0.078	-0.378
-332.231	-85.194	0.314	-0.096
-331.216	-54.135	0.085	-0.038
-330.202	-200.000	0.000	-0.036
-329.187	-200.000	0.005	0.166
-328.172	40.362	0.158	-0.140
-327.158	784.790	0.021	0.056
-326.143	153.018	-0.129	0.173
-325.129	71.629	0.159	-0.163
-324.114	71.076	0.047	0.048
-323.099	-0.086	0.085	-0.059
-322.085	-200.000	-0.037	0.423
-321.070	800.000	-0.031	0.128
-320.056	72.154	0.058	0.059
-319.041	-176.125	-0.204	0.005
-318.026	-107.044	-0.083	-0.018
-317.012	5.643	-0.230	-0.166
-315.997	91.874	-0.248	0.274
-314.983	22.245	0.061	-0.049
-313.968	96.796	0.029	0.033
-312.953	15.226	0.159	0.122
-311.939	800.000	0.050	-0.174
-310.924	-200.000	0.009	-0.290
-309.910	-44.327	-0.043	0.021
-308.895	-200.000	-0.029	-0.416
-307.880	271.624	0.085	0.147
-306.866	63.406	0.034	-0.033
-305.851	113.816	0.208	-0.248
-304.837	800.000	-0.049	-0.173
-303.822	-90.210	-0.111	-0.032
-302.807	-66.384	0.061	0.024
-301.793	-124.295	-0.194	0.030
-300.778	-22.933	0.145	-0.086
-299.764	-159.522	-0.318	0.017
-298.749	138.002	-0.048	-0.062
-297.735	-200.000	-0.090	0.394
-296.720	-79.911	0.022	0.007
-295.705	-109.969	0.201	0.041
-294.691	-82.960	0.152	0.048
-293.676	205.175	-0.125	0.191
-292.662	719.406	0.065	-0.170
-291.647	-120.776	-0.297	0.049
-290.632	-110.346	0.310	0.063
-289.618	-51.483	-0.291	-0.133
-288.603	-41.851	-0.146	-0.073
-287.589	-99.147	0.164	-0.041
-286.574	-18.041	-0.063	0.039
-285.559	112.678	-0.095	0.113
-284.545	504.515	0.108	0.244
-283.530	-138.331	-0.112	-0.012
-282.516	-200.000	0.014	0.310
-281.501	39.756	0.132	-0.116
-280.486	49.174	-0.169	-0.156
-279.472	-89.200	0.181	-0.052
-278.457	146.759	-0.069	-0.091
-277.443	130.135	0.049	0.062
-276.428	1.299	0.202	0.142
-275.413	-78.473	0.251	0.084
-274.399	800.000	0.081	0.247
-273.384	486.676	-0.154	0.345
-272.370	186.107	0.109	0.159
-271.355	800.000	-0.056	0.207
-270.340	-200.000	-0.016	-0.148
-269.326	-67.210	0.108	-0.042
-268.311	-200.000	-0.046	0.251
-267.297	85.358	-0.085	0.092
-266.282	297.988	0.103	0.185
-265.267	189.819	0.071	0.104
-264.253	20.044	0.184	-0.145
-263.238	-58.531	-0.389	-0.165
-262.224	-200.000	0.349	0.001
-261.209	-111.268	-0.202	0.040
-260.195	133.914	-0.066	0.083
-259.180	-154.860	0.136	-0.009
-258.165	103.043	0.125	0.144
-257.151	-150.423	-0.075	-0.006
-256.136	-171.776	0.261	0.008
-255.122	-77.011	-0.082	0.028
-254.107	-200.000	-0.062	-0.337
-253.092	301.860	0.078	0.141
-252.078	-149.468	-0.412	-0.032
-251.063	800.000	0.125	-0.502
-250.049	-127.703	-0.342	0.048
-249.034	-37.957	-0.273	-0.142
-248.019	800.000	-0.047	-0.142
-247.005	-103.897	-0.142	0.032
-245.990	263.264	-0.101	0.171
-244.976	-200.000	0.020	-0.199
-243.961	79.901	-0.359	0.377
-242.946	-200.000	-0.044	-0.262
-241.932	-200.000	0.037	0.335
-240.917	-147.587	-0.106	0.009
-239.903	-81.319	-0.177	-0.057
-238.888	-200.000	0.033	-0.215
-237.873	54.161	0.082	0.078
-236.859	-129.491	-0.235	0.032
-235.844	94.316	-0.036	-0.040
-234.830	-35.440	0.106	-0.056
-233.815	-79.481	0.065	-0.021
-232.800	-40.576	-0.125	-0.063
-231.786	-138.160	0.191	0.021
-230.771	-142.422	-0.125	-0.012
-229.757	150.283	-0.084	0.112
-228.742	486.596	0.161	0.358
-227.727	39.989	0.123	-0.108
-226.713	662.458	0.081	0.204
-225.698	-52.076	-0.321	0.146
-224.684	111.962	-0.095	0.112
-223.669	-37.934	0.272	0.141
-222.655	-160.052	-0.311	0.017
-221.640	450.457	0.031	0.067
-220.625	-80.181	-0.085	-0.028
-219.611	245.957	0.160	-0.264
-218.596	510.860	-0.052	0.119
-217.582	211.056	0.091	0.140
-216.567	59.067	0.211	0.203
-215.552	-170.517	0.198	0.007
-214.538	148.954	0.106	0.140
-213.523	-200.000	-0.041	-0.205
-212.509	-102.660	0.312	0.073
-211.494	-25.026	0.458	0.265
-210.479	-29.505	-0.270	-0.151
-209.465	-82.040	0.278	0.089
-208.450	-200.000	0.023	-0.220
-207.436	-200.000	-0.078	0.421
-206.421	-173.162	-0.070	-0.002
-205.406	9.399	-0.294	0.218
-204.392	-26.875	0.246	0.141
-203.377	-63.945	0.296	0.118
-202.363	136.313	-0.160	-0.204
-201.348	800.000	-0.028	0.109
-200.333	-200.000	0.063	0.311
-199.319	-200.000	0.022	0.269
-198.304	-200.000	-0.027	-0.166
-197.290	314.270	-0.048	-0.088
-196.275	734.755	0.153	-0.400
-195.260	-42.916	0.129	0.064
-194.246	800.000	-0.117	0.439
-193.231	-200.000	0.000	-0.023
-192.217	38.473	0.350	0.305
-191.202	243.361	-0.222	0.364
-190.187	-40.244	-0.214	-0.109
-189.173	-174.045	-0.148	0.004
-188.158	-200.000	-0.008	0.063
-187.144	170.717	-0.219	-0.306
-186.129	410.169	0.120	-0.249
-185.114	-128.842	-0.074	-0.010
-184.100	-200.000	-0.029	-0.265
-183.085	800.000	0.010	0.028
-182.071	-126.819	-0.239	-0.034
-181.056	800.000	0.080	0.336
-180.042	-71.739	0.371	0.135
-179.027	-106.525	-0.340	0.074
-178.012	256.642	0.060	-0.101
-176.998	-200.000	0.016	-0.130
-175.983	-200.000	0.187	0.000
-174.969	-32.178	-0.318	0.174
-173.954	482.172	-0.078	0.174
-172.939	383.715	0.122	-0.245
-171.925	768.330	0.103	0.273
-170.910	800.000	0.077	-0.273
-169.896	-4.353	-0.049	-0.033
-168.881	-154.800	-0.286	0.018
-167.866	-121.495	-0.100	0.016
-166.852	91.618	0.082	0.090
-165.837	71.131	-0.162	-0.164
-164.823	-119.266	-0.292	-0.050
-163.808	-58.491	0.111	-0.047
-162.793	183.483	-0.193	-0.278
-161.779	-200.000	-0.023	0.229
-160.764	364.472	-0.147	0.289
-159.750	67.839	-0.134	-0.134
-158.735	-74.472	0.152	-0.054
-157.720	-100.466	0.129	-0.031
-156.706	282.308	-0.132	0.231
-155.691	800.000	0.043	-0.132
-154.677	108.652	0.177	0.206
-153.662	-129.323	-0.151	0.020
-152.647	19.614	0.345	-0.271
-151.633	-147.614	0.065	-0.005
-150.618	-22.410	0.157	-0.093
-149.604	360.627	0.111	-0.217
-148.589	544.320	0.115	-0.268
-147.574	2.103	0.154	-0.108
-146.560	-141.359	0.187	0.018
-145.545	-108.294	-0.239	0.050
-144.531	-65.657	0.064	0.025
-143.516	691.252	-0.013	0.034
-142.502	15.855	-0.123	-0.094
-141.487	800.000	0.060	0.227
-140.472	-130.150	-0.118	0.016
-139.458	-110.376	-0.032	0.007
-138.443	-110.962	0.141	-0.028
-137.429	29.657	0.178	-0.148
-136.414	-3.104	0.246	0.167
-135.399	800.000	-0.057	-0.176
-134.385	55.605	-0.201	-0.190
-133.370	300.003	0.127	-0.228
-132.356	800.000	0.065	0.206
-131.341	58.691	-0.071	-0.068
-130.326	800.000	0.023	0.100
-129.312	500.728	-0.006	0.014
-128.297	-37.518	-0.356	-0.185
-127.283	-111.298	0.162	-0.032
-126.268	800.000	0.017	-0.048
-125.253	62.708	-0.214	-0.208
-124.239	30.371	0.057	0.048
-123.224	800.000	-0.111	-0.319
-122.210	-118.243	-0.192	0.033
-121.195	-103.745	-0.257	0.059
