DTS Sentinel unit serial number:	SN413079Multiplexer serial number:	ORYXHardware model number:	OX4-SRSoftware version number:	ORYX F/W v4.00 Oryx Data Collector v3.7.2.0data status	okinstallation	princeton_trtdifferential loss correction	single-endedforward channel	channel 2reverse channel	N/Adate	2019/09/11time	11:53:10forward acquisition time	60.00reverse acquisition time	0.00gamma	496.2192k internal	0.2300k external	0.2300temperature offset calibration	0.9967default loss term (dB/km)	0.3790temperature slope calibration	1.0000multiplexer offset coefficient	1.0000multiplexer slope coefficient	1.0000fibre end	0.00T internal ref (°C)	38.95T ext. ref 1 (°C)	0.17T ext. ref 2 (°C)	37.16length (m)	temperature (°C)	Stokes	anti-Stokes-747.200	139.459	0.259	0.348
-746.185	-70.242	-0.193	0.075
-745.171	-200.000	0.003	0.025
-744.156	33.847	0.170	-0.151
-743.142	-67.826	0.189	0.075
-742.127	544.797	0.103	0.252
-741.112	12.897	-0.302	-0.238
-740.098	-200.000	-0.004	0.117
-739.083	-16.068	0.193	0.125
-738.069	800.000	-0.043	0.189
-737.054	720.034	-0.010	-0.027
-736.039	-85.536	-0.476	0.151
-735.025	714.504	-0.110	0.298
-734.010	107.024	0.183	-0.221
-732.996	-200.000	-0.021	-0.226
-731.981	-90.394	-0.245	0.072
-730.966	-200.000	0.014	0.158
-729.952	-117.831	-0.216	-0.040
-728.937	-62.840	-0.185	-0.078
-727.923	93.292	-0.144	-0.166
-726.908	24.938	0.230	-0.195
-725.894	800.000	0.078	0.243
-724.879	-0.343	-0.087	-0.063
-723.864	337.386	0.051	-0.100
-722.850	-32.905	0.132	0.075
-721.835	453.738	0.138	0.311
-720.821	-126.329	-0.158	0.024
-719.806	-80.891	-0.195	0.066
-718.791	-200.000	0.023	0.159
-717.777	-104.752	-0.181	-0.042
-716.762	-5.757	-0.103	-0.072
-715.748	-200.000	0.006	-0.226
-714.733	244.476	0.019	-0.032
-713.718	-94.319	0.126	0.035
-712.704	5.334	0.286	-0.215
-711.689	800.000	-0.007	0.026
-710.675	254.080	-0.092	0.160
-709.660	101.050	0.071	-0.084
-708.645	-6.959	-0.110	-0.076
-707.631	501.936	-0.139	-0.327
-706.616	3.587	0.224	-0.166
-705.602	-37.048	0.070	0.038
-704.587	-200.000	-0.057	0.328
-703.572	-29.569	-0.273	0.159
-702.558	144.867	0.164	0.223
-701.543	-200.000	-0.027	-0.327
-700.529	800.000	0.145	-0.577
-699.514	-155.972	0.292	-0.019
-698.499	552.199	-0.034	0.083
-697.485	135.984	-0.094	-0.125
-696.470	800.000	-0.019	0.076
-695.456	10.810	-0.059	-0.046
-694.441	-200.000	-0.048	-0.233
-693.426	-89.309	0.250	0.075
-692.412	-110.983	-0.234	-0.049
-691.397	-6.819	-0.101	0.070
-690.383	50.667	0.155	-0.149
-689.368	-85.208	0.070	0.022
-688.354	800.000	0.042	0.150
-687.339	-200.000	0.019	-0.363
-686.324	-14.586	0.416	0.272
-685.310	130.393	0.187	0.243
-684.295	-200.000	-0.031	0.165
-683.281	295.528	0.132	0.247
-682.266	-8.615	-0.244	-0.167
-681.251	20.677	-0.125	-0.103
-680.237	-57.216	-0.422	0.189
-679.222	-129.530	-0.074	0.010
-678.208	308.371	0.057	-0.108
-677.193	-200.000	-0.041	-0.220
-676.178	-119.085	-0.144	0.026
-675.164	-66.404	-0.236	0.095
-674.149	659.424	0.106	-0.279
-673.135	-164.347	-0.190	0.009
-672.120	-110.154	-0.269	-0.057
-671.105	800.000	-0.071	0.223
-670.091	151.012	0.107	-0.148
-669.076	-200.000	-0.021	0.234
-668.062	800.000	0.117	-0.358
-667.047	-39.705	0.050	-0.026
-666.032	800.000	-0.085	0.363
-665.018	14.954	0.055	0.044
-664.003	510.456	0.138	0.327
-662.989	315.015	0.293	-0.561
-661.974	-158.774	0.281	-0.016
-660.959	-37.252	-0.137	-0.074
-659.945	-180.232	-0.346	0.007
-658.930	-200.000	0.049	0.333
-657.916	-123.366	-0.197	-0.032
-656.901	-92.753	0.222	0.063
-655.886	-40.847	-0.169	0.089
-654.872	38.122	0.098	-0.088
-653.857	99.623	0.133	-0.157
-652.843	800.000	-0.075	0.333
-651.828	-200.000	-0.034	0.286
-650.814	-157.243	-0.302	-0.019
-649.799	94.399	-0.246	-0.284
-648.784	-200.000	-0.015	-0.210
-647.770	-200.000	0.015	0.110
-646.755	11.410	-0.234	-0.182
-645.741	-47.961	-0.212	-0.104
-644.726	-15.797	0.119	-0.077
-643.711	-96.181	-0.234	0.063
-642.697	-122.171	-0.282	-0.047
-641.682	-200.000	-0.073	0.331
-640.668	94.076	-0.059	0.068
-639.653	-27.755	-0.116	0.068
-638.638	-200.000	0.080	-0.380
-637.624	-200.000	-0.020	0.137
-636.609	-200.000	-0.045	0.519
-635.595	-200.000	-0.005	-0.184
-634.580	287.594	-0.060	-0.110
-633.565	272.574	0.194	0.347
-632.551	108.956	-0.221	0.269
-631.536	99.529	0.089	0.105
-630.522	120.489	0.106	0.134
-629.507	-200.000	-0.055	-0.362
-628.492	21.871	0.223	0.184
-627.478	-200.000	-0.018	-0.369
-626.463	-200.000	-0.054	-0.279
-625.449	800.000	0.038	-0.126
-624.434	800.000	-0.048	-0.157
-623.419	151.594	-0.146	-0.202
-622.405	-200.000	0.053	-0.400
-621.390	3.250	-0.138	0.102
-620.376	-200.000	0.024	0.142
-619.361	536.105	0.150	-0.362
-618.346	569.092	0.091	-0.225
-617.332	110.242	-0.313	-0.382
-616.317	800.000	-0.035	0.127
-615.303	-131.001	0.151	0.020
-614.288	-41.279	0.147	0.077
-613.273	-124.158	-0.154	0.024
-612.259	139.662	0.116	0.155
-611.244	-75.320	0.291	0.105
-610.230	747.148	-0.091	-0.250
-609.215	-200.000	0.125	0.557
-608.201	24.619	-0.206	0.173
-607.186	-20.280	0.069	0.043
-606.171	282.685	-0.118	-0.214
-605.157	714.233	-0.057	-0.155
-604.142	-200.000	0.096	-0.533
-603.128	105.082	-0.252	-0.302
-602.113	220.099	0.197	0.320
-601.098	-128.495	-0.095	0.014
-600.084	-99.349	-0.232	0.059
-599.069	-39.602	0.135	0.072
-598.055	-112.087	-0.232	0.047
-597.040	-200.000	-0.026	0.155
-596.025	-30.111	0.080	-0.046
-595.011	-47.166	-0.116	0.057
-593.996	-176.170	0.147	-0.004
-592.982	-31.231	0.227	-0.129
-591.967	8.199	-0.261	0.199
-590.952	-106.618	0.101	-0.023
-589.938	-50.873	0.250	0.119
-588.923	-200.000	-0.029	0.333
-587.909	800.000	0.083	0.258
-586.894	129.047	-0.172	-0.222
-585.879	-117.306	0.126	0.023
-584.865	-127.201	-0.172	0.025
-583.850	49.707	0.115	-0.110
-582.836	743.353	0.063	0.172
-581.821	8.609	-0.225	0.172
-580.806	-200.000	-0.093	-0.507
-579.792	533.243	-0.124	-0.297
-578.777	156.721	-0.085	0.119
-577.763	-45.093	0.118	-0.059
-576.748	-73.387	0.262	-0.097
-575.733	-168.900	-0.100	0.004
-574.719	-200.000	-0.008	0.215
-573.704	-200.000	0.085	0.394
-572.690	398.489	-0.223	0.472
-571.675	-57.901	0.132	0.059
-570.661	8.167	0.049	-0.037
-569.646	-3.355	-0.192	-0.136
-568.631	-128.555	-0.045	-0.006
-567.617	-76.128	0.105	0.037
-566.602	-77.228	0.180	0.064
-565.588	-118.010	-0.102	-0.018
-564.573	514.041	0.056	-0.133
-563.558	800.000	-0.056	0.197
-562.544	52.730	-0.011	-0.011
-561.529	-200.000	-0.021	-0.157
-560.515	272.858	-0.041	0.074
-559.500	417.312	0.029	0.063
-558.485	-200.000	0.024	-0.202
-557.471	-200.000	0.011	0.067
-556.456	536.610	0.058	-0.139
-555.442	362.307	0.096	-0.195
-554.427	-200.000	-0.135	0.001
-553.412	-63.547	-0.058	0.024
-552.398	-122.648	-0.117	0.019
-551.383	637.875	-0.076	-0.197
-550.369	-200.000	0.022	0.228
-549.354	62.144	-0.232	0.234
-548.339	-136.992	-0.142	0.016
-547.325	201.854	0.126	-0.197
-546.310	-200.000	0.018	-0.182
-545.296	-200.000	0.010	0.098
-544.281	107.610	-0.100	-0.120
-543.266	467.347	0.112	0.255
-542.252	800.000	-0.030	-0.102
-541.237	-138.456	-0.115	-0.013
-540.223	-200.000	0.028	0.273
-539.208	508.633	0.171	0.403
-538.193	-24.829	-0.090	-0.054
-537.179	-81.449	-0.306	0.102
-536.164	-200.000	0.007	-0.125
-535.150	112.630	-0.021	-0.026
-534.135	126.574	-0.083	0.106
-533.121	-130.240	0.217	-0.030
-532.106	-200.000	-0.007	-0.293
-531.091	-123.352	0.187	0.030
-530.077	146.061	0.073	-0.099
-529.062	800.000	0.241	-0.684
-528.048	69.471	0.088	0.091
-527.033	-200.000	0.042	0.213
-526.018	-83.089	0.234	0.076
-525.004	-200.000	-0.042	-0.198
-523.989	-141.934	-0.269	0.027
-522.975	-200.000	0.106	-0.480
-521.960	-151.976	-0.465	-0.034
-520.945	-82.421	-0.140	0.046
-519.931	285.140	0.131	0.239
-518.916	-87.654	-0.342	-0.104
-517.902	800.000	0.125	-0.401
-516.887	34.663	0.219	-0.194
-515.872	20.544	0.375	0.306
-514.858	-143.882	-0.075	-0.007
-513.843	664.779	-0.071	0.184
-512.829	-133.372	-0.080	-0.010
-511.814	-176.444	-0.154	-0.004
-510.799	800.000	0.065	-0.259
-509.785	-157.489	-0.332	0.020
-508.770	800.000	-0.145	0.411
-507.756	-91.424	-0.410	0.118
-506.741	-91.815	0.364	0.104
-505.726	-121.181	-0.228	-0.039
-504.712	-18.601	-0.155	0.098
-503.697	-200.000	0.088	0.411
-502.683	295.403	-0.011	0.021
-501.668	-0.414	-0.176	-0.126
-500.653	136.092	-0.107	-0.141
-499.639	-40.234	-0.116	0.061
-498.624	229.438	0.070	-0.116
-497.610	-141.069	-0.295	0.031
-496.595	800.000	0.020	-0.071
-495.581	-111.640	-0.166	0.034
-494.566	-47.387	-0.204	-0.100
-493.551	447.551	-0.064	0.142
-492.537	173.595	-0.018	0.026
-491.522	-10.649	0.208	0.139
-490.508	211.952	-0.139	-0.222
-489.493	-124.923	0.179	0.028
-488.478	-35.235	0.312	0.172
-487.464	-82.487	0.167	0.055
-486.449	91.811	0.094	-0.107
-485.435	-200.000	0.033	0.199
-484.420	-35.426	-0.164	0.090
-483.405	34.227	0.131	-0.115
-482.391	404.542	-0.051	-0.107
-481.376	-57.188	0.131	-0.058
-480.362	90.548	0.042	0.048
-479.347	-25.961	0.175	-0.104
-478.332	-94.768	0.357	-0.098
-477.318	-147.071	-0.146	-0.013
-476.303	-200.000	-0.002	0.393
-475.289	-200.000	-0.019	-0.189
-474.274	-200.000	-0.048	-0.218
-473.259	800.000	0.029	-0.096
-472.245	395.778	0.158	0.333
-471.230	-91.079	0.076	0.022
-470.216	29.648	0.069	-0.060
-469.201	395.255	0.030	-0.063
-468.186	800.000	-0.045	0.187
-467.172	205.049	0.100	0.157
-466.157	-3.606	-0.104	-0.073
-465.143	-1.925	0.359	-0.255
-464.128	-59.336	0.221	0.096
-463.113	-67.192	-0.103	-0.041
-462.099	-200.000	-0.051	-0.224
-461.084	-59.194	-0.193	0.084
-460.070	-140.972	0.325	0.034
-459.055	-200.000	-0.028	0.272
-458.040	178.890	0.211	0.312
-457.026	-41.840	-0.193	-0.100
-456.011	-19.447	0.205	-0.128
-454.997	800.000	-0.022	-0.067
-453.982	-200.000	0.013	0.149
-452.968	-82.489	0.378	-0.124
-451.953	-71.277	-0.332	0.126
-450.938	-131.262	-0.151	-0.020
-449.924	120.888	0.106	-0.132
-448.909	-47.304	0.246	-0.121
-447.895	-136.948	-0.143	-0.017
-446.880	137.583	0.037	0.049
-445.865	-93.978	-0.355	-0.098
-444.851	-167.884	0.411	0.016
-443.836	624.438	0.021	-0.053
-442.822	-118.847	-0.267	0.047
-441.807	-75.195	-0.480	-0.173
-440.792	-75.302	-0.113	-0.041
-439.778	-200.000	-0.073	-0.331
-438.763	-113.237	0.250	0.050
-437.749	-200.000	0.018	-0.237
-436.734	-200.000	0.005	-0.054
-435.719	272.293	0.172	-0.305
-434.705	130.560	0.165	0.213
-433.690	198.455	-0.213	0.328
-432.676	-200.000	-0.005	-0.102
-431.661	70.705	0.132	-0.137
-430.646	209.398	-0.132	-0.208
-429.632	70.707	-0.188	0.196
-428.617	55.524	0.015	0.015
-427.603	-28.125	-0.084	0.049
-426.588	-70.697	-0.194	-0.074
-425.573	800.000	-0.051	-0.167
-424.559	13.836	0.210	0.165
-423.544	-200.000	-0.006	-0.063
-422.530	-49.633	-0.119	-0.057
-421.515	181.275	-0.164	0.243
-420.500	-157.322	0.058	0.004
-419.486	54.426	-0.016	-0.015
-418.471	-157.947	-0.023	-0.001
-417.457	-200.000	-0.002	0.079
-416.442	-200.000	0.042	-0.225
-415.428	265.079	0.043	-0.075
-414.413	153.839	-0.084	0.116
-413.398	800.000	0.065	-0.192
-412.384	-4.539	0.147	-0.102
-411.369	-200.000	-0.013	0.183
-410.355	-76.844	0.352	0.124
-409.340	-84.135	0.155	0.049
-408.325	86.073	-0.128	-0.142
-407.311	-129.096	-0.161	-0.023
-406.296	-66.597	0.147	-0.059
-405.282	-23.598	-0.009	-0.006
-404.267	800.000	-0.031	-0.104
-403.252	-17.578	0.205	-0.130
-402.238	35.770	-0.308	0.273
-401.223	276.872	0.254	0.455
-400.209	323.539	-0.072	0.139
-399.194	-200.000	-0.062	-0.310
-398.179	72.752	-0.181	0.190
-397.165	-115.103	0.300	0.057
-396.150	800.000	0.011	-0.032
-395.136	-200.000	0.033	-0.211
-394.121	120.698	-0.055	-0.069
-393.106	18.495	0.247	-0.198
-392.092	-128.521	0.292	0.042
-391.077	-150.415	0.183	-0.014
-390.063	-119.747	-0.168	0.029
-389.048	53.729	0.122	-0.118
-388.033	133.324	-0.166	-0.216
-387.019	-200.000	0.018	0.211
-386.004	-200.000	0.011	-0.381
-384.990	-200.000	0.032	0.276
-383.975	-128.710	-0.199	-0.028
-382.960	592.840	0.101	-0.252
-381.946	-200.000	0.009	0.273
-380.931	662.068	0.053	0.136
-379.917	800.000	-0.088	-0.330
-378.902	-58.808	-0.215	-0.093
-377.888	455.602	-0.111	-0.248
-376.873	101.316	0.083	0.097
-375.858	60.369	0.046	0.046
-374.844	-200.000	0.012	-0.125
-373.829	800.000	-0.048	-0.197
-372.815	31.866	-0.183	0.159
-371.800	-136.110	0.351	0.041
-370.785	36.922	0.123	-0.109
-369.771	-168.854	-0.220	-0.008
-368.756	179.237	0.167	-0.246
-367.742	-121.768	0.087	0.015
-366.727	-12.396	0.212	0.139
-365.712	-63.548	0.198	0.082
-364.698	23.939	-0.309	-0.256
-363.683	800.000	0.078	-0.245
-362.669	-91.730	-0.178	-0.051
-361.654	-200.000	-0.033	0.414
-360.639	-4.676	0.168	0.117
-359.625	215.509	-0.183	0.291
-358.610	42.054	-0.322	-0.294
-357.596	800.000	-0.057	0.239
-356.581	144.156	-0.047	0.063
-355.566	-116.922	-0.171	-0.031
-354.552	-153.848	-0.340	-0.023
-353.537	30.389	-0.447	-0.384
-352.523	-200.000	0.017	-0.108
-351.508	-200.000	-0.003	0.088
-350.493	53.075	0.088	0.084
-349.479	-12.837	-0.080	0.053
-348.464	800.000	-0.048	0.151
-347.450	28.420	0.122	0.104
-346.435	-101.170	-0.250	0.061
-345.420	403.226	0.052	-0.109
-344.406	-50.557	-0.166	0.078
-343.391	-200.000	0.294	-0.000
-342.377	-133.164	0.033	-0.004
-341.362	-21.972	0.260	-0.159
-340.348	-70.363	-0.385	-0.147
-339.333	166.258	0.011	-0.016
-338.318	-45.993	0.255	0.126
-337.304	-26.697	-0.139	0.081
-336.289	-200.000	-0.034	0.402
-335.275	-79.381	0.134	0.045
-334.260	181.061	0.083	0.123
-333.245	103.324	0.179	0.210
-332.231	-2.984	0.153	0.107
-331.216	255.984	0.230	-0.396
-330.202	306.887	-0.068	-0.127
-329.187	-125.439	0.282	-0.043
-328.172	-103.737	-0.111	0.026
-327.158	800.000	0.117	0.355
-326.143	-88.755	-0.165	-0.049
-325.129	-200.000	0.019	-0.242
-324.114	170.494	0.073	-0.105
-323.099	800.000	-0.054	0.163
-322.085	-64.134	0.273	-0.112
-321.070	227.419	-0.105	0.171
-320.056	800.000	0.039	-0.142
-319.041	129.324	0.099	-0.126
-318.026	-200.000	-0.010	-0.262
-317.012	-26.154	0.235	-0.139
-315.997	-20.879	0.058	0.036
-314.983	-168.746	-0.340	0.013
-313.968	22.076	-0.268	-0.219
-312.953	-200.000	0.087	0.461
-311.939	194.344	0.129	0.196
-310.924	-6.206	0.237	0.162
-309.910	-39.932	0.204	-0.107
-308.895	49.121	-0.170	-0.160
-307.880	-189.663	0.430	-0.005
-306.866	-39.678	0.046	0.024
-305.851	-200.000	0.042	-0.225
-304.837	141.179	0.093	-0.123
-303.822	-200.000	-0.017	-0.161
-302.807	342.274	0.133	-0.261
-301.793	-107.978	0.101	-0.022
-300.778	-106.081	-0.251	0.056
-299.764	-200.000	-0.004	0.353
-298.749	59.085	0.168	0.166
-297.735	-25.382	-0.060	-0.036
-296.720	-200.000	-0.014	0.243
-295.705	172.616	0.081	-0.116
-294.691	-165.557	0.465	0.020
-293.676	-139.004	0.221	0.024
-292.662	800.000	-0.050	-0.165
-291.647	-200.000	0.020	-0.192
-290.632	800.000	0.041	0.130
-289.618	-200.000	0.009	-0.123
-288.603	34.444	-0.226	0.197
-287.589	-35.692	0.323	0.175
-286.574	-117.267	0.278	0.051
-285.559	800.000	-0.016	0.061
-284.545	103.889	0.174	-0.205
-283.530	-105.299	-0.297	-0.068
-282.516	-158.221	-0.104	0.006
-281.501	-38.109	-0.130	-0.069
-280.486	269.793	0.063	-0.112
-279.472	671.656	0.089	0.230
-278.457	-200.000	0.002	-0.042
-277.443	-77.254	0.057	0.020
-276.428	-180.384	0.419	0.009
-275.413	-85.696	-0.178	0.055
-274.399	161.733	-0.309	0.434
-273.384	-98.620	-0.187	0.048
-272.370	-61.720	-0.340	0.142
-271.355	-42.916	0.390	0.198
-270.340	141.212	0.250	-0.331
-269.326	-89.311	0.295	-0.087
-268.311	-107.886	0.101	0.022
-267.297	748.684	-0.128	-0.345
-266.282	36.422	0.160	-0.141
-265.267	-171.365	0.135	-0.005
-264.253	-200.000	0.013	-0.151
-263.238	147.282	-0.133	0.180
-262.224	709.317	-0.134	0.355
-261.209	-200.000	-0.011	0.112
-260.195	-101.687	-0.291	-0.071
-259.180	-17.885	0.410	-0.257
-258.165	-45.022	0.065	0.032
-257.151	599.782	-0.182	0.452
-256.136	-200.000	0.030	-0.321
-255.122	378.880	0.061	0.124
-254.107	66.670	-0.143	0.146
-253.092	44.429	-0.216	-0.199
-252.078	-200.000	-0.048	-0.282
-251.063	243.422	0.133	-0.223
-250.049	-36.726	-0.130	-0.070
-249.034	20.489	-0.072	-0.058
-248.019	-47.008	-0.092	-0.045
-247.005	-200.000	0.005	0.059
-245.990	69.220	0.080	0.082
-244.976	-44.466	-0.111	0.056
-243.961	800.000	-0.085	0.237
-242.946	41.986	-0.083	0.076
-241.932	-200.000	-0.035	0.173
-240.917	210.176	-0.097	-0.152
-239.903	93.154	-0.096	0.108
-238.888	800.000	0.041	-0.129
-237.873	-74.129	0.294	-0.106
-236.859	-47.189	0.395	0.192
-235.844	-105.303	0.232	-0.053
-234.830	290.890	-0.195	0.354
-233.815	-200.000	0.011	0.429
-232.800	-37.722	0.379	0.201
-231.786	100.903	-0.059	-0.069
-230.771	-78.239	-0.155	-0.053
-229.757	800.000	-0.063	-0.194
-228.742	800.000	-0.050	0.207
-227.727	171.823	0.065	-0.093
-226.713	-85.993	0.309	-0.096
-225.698	-72.172	0.204	0.075
-224.684	-200.000	0.004	0.144
-223.669	-70.609	0.230	-0.087
-222.655	800.000	-0.045	0.196
-221.640	-75.976	-0.309	-0.109
-220.625	-68.859	-0.029	0.011
-219.611	14.389	-0.118	-0.092
-218.596	49.810	0.255	-0.240
-217.582	800.000	-0.049	0.140
-216.567	-145.004	0.404	-0.037
-215.552	9.453	0.227	-0.172
-214.538	-13.708	-0.269	-0.174
-213.523	-133.460	0.273	-0.034
-212.509	223.973	-0.101	0.162
-211.494	800.000	-0.079	0.307
-210.479	-118.326	0.416	0.074
-209.465	10.246	0.035	-0.026
-208.450	-144.942	-0.106	-0.010
-207.436	-101.234	0.338	-0.082
-206.421	800.000	-0.052	-0.173
-205.406	-1.603	0.154	-0.108
-204.392	-137.356	-0.192	-0.022
-203.377	548.872	0.083	0.199
-202.363	520.254	-0.058	0.136
-201.348	-113.729	-0.133	0.026
-200.333	66.933	-0.237	0.241
-199.319	306.982	0.050	0.093
-198.304	704.384	-0.061	0.162
-197.290	430.957	-0.086	-0.186
-196.275	-66.065	-0.251	-0.100
-195.260	107.562	-0.064	-0.076
-194.246	800.000	0.094	0.306
-193.231	-81.711	0.032	0.011
-192.217	-39.412	-0.245	-0.128
-191.202	289.185	-0.200	-0.362
-190.187	-106.176	-0.280	-0.063
-189.173	82.261	0.136	0.147
-188.158	-200.000	0.041	0.274
-187.144	47.892	-0.130	-0.121
-186.129	-88.647	0.010	0.003
-185.114	186.894	-0.233	-0.347
-184.100	-200.000	0.059	-0.295
-183.085	117.873	-0.073	0.089
-182.071	44.002	0.156	-0.143
-181.056	-176.975	-0.377	0.009
-180.042	-6.908	-0.325	-0.220
-179.027	49.386	-0.079	0.074
-178.012	71.717	-0.128	-0.133
-176.998	-60.916	-0.188	0.079
-175.983	-200.000	0.054	0.367
-174.969	24.375	0.077	-0.064
-173.954	-69.097	-0.220	0.084
-172.939	800.000	-0.127	-0.355
-171.925	-20.793	0.050	0.031
-170.910	-121.756	0.083	0.014
-169.896	-7.594	0.021	-0.014
-168.881	-200.000	0.069	0.426
-167.866	54.281	0.292	0.280
-166.852	-57.356	-0.075	-0.033
-165.837	138.747	-0.193	0.253
-164.823	-23.485	0.399	0.239
-163.808	-153.541	-0.197	0.014
-162.793	800.000	-0.018	0.064
-161.779	-49.104	-0.102	-0.049
-160.764	-200.000	-0.035	-0.188
-159.750	615.140	-0.099	-0.248
-158.735	800.000	0.041	-0.166
-157.720	800.000	-0.076	0.229
-156.706	-160.445	0.269	-0.014
-155.691	-139.317	-0.013	-0.001
-154.677	322.246	0.025	0.047
-153.662	14.067	0.206	0.160
-152.647	-200.000	-0.102	0.466
-151.633	125.064	-0.205	0.257
-150.618	-102.664	0.072	0.017
-149.604	-20.846	0.128	0.078
-148.589	635.125	0.070	0.176
-147.574	795.705	0.028	0.078
-146.560	-200.000	0.008	0.162
-145.545	-200.000	-0.041	0.384
-144.531	-102.242	0.223	-0.053
-143.516	-200.000	0.044	-0.299
-142.502	406.132	0.098	0.207
-141.487	-23.699	0.188	-0.112
-140.472	-200.000	0.018	-0.242
-139.458	-62.675	-0.070	-0.029
-138.443	226.543	-0.175	0.284
-137.429	-200.000	-0.024	-0.259
-136.414	596.926	0.090	-0.223
-135.399	-126.567	0.188	0.028
-134.385	111.770	-0.126	-0.151
-133.370	181.051	-0.082	0.120
-132.356	124.777	-0.191	0.239
-131.341	-140.789	0.163	0.017
-130.326	800.000	-0.061	-0.180
-129.312	800.000	-0.061	-0.216
-128.297	122.439	0.338	-0.420
-127.283	120.315	0.094	-0.116
-126.268	44.273	-0.212	-0.194
-125.253	-84.672	0.116	-0.036
-124.239	-27.045	-0.142	-0.082
-123.224	-81.310	-0.231	-0.076
-122.210	-200.000	0.031	0.177
