DTS Sentinel unit serial number:	SN413079Multiplexer serial number:	ORYXHardware model number:	OX4-SRSoftware version number:	ORYX F/W v4.00 Oryx Data Collector v3.7.2.0data status	okinstallation	princeton_trtdifferential loss correction	single-endedforward channel	channel 2reverse channel	N/Adate	2019/09/13time	07:31:35forward acquisition time	60.00reverse acquisition time	0.00gamma	496.2192k internal	0.2337k external	0.2337temperature offset calibration	1.0196default loss term (dB/km)	0.3790temperature slope calibration	1.0000multiplexer offset coefficient	1.0000multiplexer slope coefficient	1.0000fibre end	0.00T internal ref (°C)	26.23T ext. ref 1 (°C)	4.19T ext. ref 2 (°C)	22.06length (m)	temperature (°C)	Stokes	anti-Stokes-747.200	-91.035	-0.175	-0.050
-746.185	-200.000	0.021	0.114
-745.171	-109.865	0.081	0.017
-744.156	-200.000	0.083	0.444
-743.142	-58.835	-0.104	0.045
-742.127	290.517	0.242	0.441
-741.112	-200.000	-0.002	0.211
-740.098	135.620	0.091	0.119
-739.083	-105.843	0.201	0.046
-738.069	479.797	-0.008	0.018
-737.054	89.617	-0.294	0.329
-736.039	657.563	0.115	-0.296
-735.025	-39.517	-0.129	0.068
-734.010	-200.000	0.074	-0.421
-732.996	-200.000	-0.005	-0.407
-731.981	355.500	-0.081	-0.161
-730.966	-2.719	-0.187	-0.131
-729.952	13.408	-0.215	0.167
-728.937	159.531	-0.052	0.072
-727.923	-90.520	-0.445	0.129
-726.908	-200.000	0.018	-0.257
-725.894	-67.354	-0.435	-0.171
-724.879	-39.513	0.238	-0.125
-723.864	117.384	-0.068	-0.083
-722.850	-85.776	-0.177	-0.055
-721.835	382.647	-0.072	0.149
-720.821	230.509	-0.028	0.045
-719.806	36.776	0.292	-0.259
-718.791	-144.964	-0.300	0.027
-717.777	-157.904	-0.110	-0.007
-716.762	800.000	0.086	-0.277
-715.748	-44.812	0.231	0.116
-714.733	800.000	0.031	-0.113
-713.718	-52.359	-0.268	0.125
-712.704	237.095	-0.124	-0.206
-711.689	-200.000	-0.009	-0.069
-710.675	57.445	-0.203	0.199
-709.660	-24.567	0.040	-0.024
-708.645	-200.000	0.004	0.219
-707.631	200.500	-0.140	0.216
-706.616	-53.306	0.180	0.083
-705.602	140.128	-0.160	-0.212
-704.587	-172.518	-0.017	-0.001
-703.572	-111.635	0.282	0.057
-702.558	-13.850	-0.199	0.129
-701.543	-99.443	-0.133	-0.034
-700.529	308.261	0.110	-0.206
-699.514	-120.394	-0.156	-0.027
-698.499	24.329	-0.185	-0.153
-697.485	-121.134	0.201	0.034
-696.470	-152.168	-0.338	-0.025
-695.456	80.773	-0.294	-0.318
-694.441	109.794	0.119	-0.144
-693.426	304.849	-0.031	0.059
-692.412	-200.000	0.060	0.334
-691.397	85.840	-0.152	-0.168
-690.383	335.305	0.057	0.111
-689.368	-85.365	0.452	-0.141
-688.354	-93.169	0.152	-0.042
-687.339	-200.000	0.025	0.226
-686.324	-156.285	-0.449	0.028
-685.310	800.000	0.136	0.572
-684.295	-62.068	-0.121	-0.051
-683.281	-16.463	0.386	-0.245
-682.266	-3.737	0.121	0.084
-681.251	-200.000	0.084	0.430
-680.237	511.541	-0.015	-0.035
-679.222	-134.239	0.097	-0.012
-678.208	-61.331	0.136	-0.057
-677.193	-200.000	0.016	-0.135
-676.178	-123.314	-0.183	0.029
-675.164	486.467	-0.102	-0.234
-674.149	-200.000	-0.029	0.190
-673.135	-43.460	-0.396	-0.200
-672.120	-94.941	0.130	-0.035
-671.105	-121.357	-0.398	-0.066
-670.091	256.755	0.168	-0.288
-669.076	-137.174	-0.123	-0.014
-668.062	184.399	-0.092	0.136
-667.047	574.440	-0.166	0.406
-666.032	264.899	0.146	0.254
-665.018	83.652	0.073	-0.080
-664.003	800.000	-0.109	-0.374
-662.989	472.105	-0.044	-0.099
-661.974	769.082	-0.144	0.392
-660.959	-154.233	-0.165	-0.011
-659.945	-29.190	0.125	-0.072
-658.930	-129.481	0.163	0.023
-657.916	74.725	-0.324	0.341
-656.901	26.681	0.216	0.181
-655.886	142.094	-0.279	-0.370
-654.872	239.734	0.159	0.264
-653.857	-92.466	-0.140	-0.039
-652.843	-39.087	0.477	-0.251
-651.828	365.138	-0.045	-0.090
-650.814	-144.525	0.197	0.018
-649.799	84.538	0.176	-0.193
-648.784	800.000	-0.046	-0.151
-647.770	-200.000	-0.007	0.043
-646.755	-81.604	-0.189	0.062
-645.741	159.910	0.080	-0.111
-644.726	790.019	0.109	-0.301
-643.711	-30.203	0.077	0.044
-642.697	-132.531	0.213	-0.027
-641.682	787.094	0.121	-0.331
-640.668	139.507	-0.126	0.165
-639.653	683.552	0.084	-0.219
-638.638	-182.979	-0.324	-0.006
-637.624	-110.059	-0.213	-0.045
-636.609	171.799	0.030	-0.044
-635.595	-75.198	0.209	-0.075
-634.580	58.291	-0.144	0.141
-633.565	185.085	0.125	0.186
-632.551	-63.833	0.241	-0.098
-631.536	-55.696	-0.220	-0.099
-630.522	-172.522	0.164	-0.005
-629.507	66.531	-0.192	-0.196
-628.492	-200.000	-0.032	0.338
-627.478	153.901	0.166	-0.228
-626.463	-142.199	-0.326	-0.032
-625.449	800.000	-0.026	0.088
-624.434	313.322	-0.088	-0.165
-623.419	-101.374	0.042	0.010
-622.405	-200.000	-0.008	0.062
-621.390	-142.177	-0.135	0.013
-620.376	264.226	-0.043	0.075
-619.361	54.379	0.130	0.125
-618.346	-181.410	-0.401	0.008
-617.332	777.128	0.041	-0.111
-616.317	-200.000	0.070	-0.446
-615.303	125.409	-0.294	-0.371
-614.288	-163.757	0.329	0.015
-613.273	9.135	0.034	0.026
-612.259	-26.964	-0.201	0.117
-611.244	223.092	0.032	-0.051
-610.230	341.474	0.165	-0.321
-609.215	-19.882	-0.186	-0.115
-608.201	-200.000	0.047	0.238
-607.186	-76.705	-0.424	-0.148
-606.171	147.511	-0.219	-0.294
-605.157	-9.971	-0.243	-0.161
-604.142	67.708	0.141	-0.143
-603.128	-98.122	0.240	-0.062
-602.113	-200.000	-0.012	-0.071
-601.098	-53.459	0.057	0.026
-600.084	-200.000	-0.011	-0.242
-599.069	-86.504	-0.216	-0.066
-598.055	800.000	0.092	0.280
-597.040	-200.000	0.000	-0.221
-596.025	800.000	0.083	0.269
-595.011	50.724	0.216	0.204
-593.996	60.035	-0.241	0.238
-592.982	-200.000	-0.016	-0.173
-591.967	299.062	-0.122	-0.224
-590.952	-38.453	0.479	-0.253
-589.938	281.458	0.069	0.124
-588.923	-200.000	0.006	-0.392
-587.909	401.016	0.023	-0.048
-586.894	-15.624	-0.214	0.136
-585.879	-94.220	0.539	-0.147
-584.865	325.417	-0.109	-0.208
-583.850	800.000	-0.134	-0.405
-582.836	77.562	-0.146	-0.155
-581.821	39.366	0.015	0.013
-580.806	-200.000	0.326	0.001
-579.792	-182.139	-0.143	0.003
-578.777	121.701	0.035	-0.044
-577.763	-16.429	0.269	-0.170
-576.748	26.312	0.107	-0.090
-575.733	28.291	-0.343	0.289
-574.719	-170.320	-0.170	0.006
-573.704	-107.182	-0.163	-0.036
-572.690	800.000	0.125	0.410
-571.675	464.068	0.080	-0.178
-570.661	81.173	0.056	0.060
-569.646	-83.159	0.121	-0.039
-568.631	-90.144	0.146	0.042
-567.617	-200.000	-0.038	-0.337
-566.602	-200.000	0.060	-0.282
-565.588	-200.000	0.036	-0.198
-564.573	195.739	-0.113	-0.171
-563.558	-44.744	-0.278	-0.138
-562.544	-200.000	0.049	0.265
-561.529	-200.000	-0.006	-0.107
-560.515	-39.192	-0.165	-0.086
-559.500	-46.192	-0.247	-0.121
-558.485	-163.486	0.372	-0.018
-557.471	-51.793	0.047	0.022
-556.456	240.204	0.130	0.215
-555.442	-40.121	-0.218	-0.113
-554.427	325.989	-0.148	-0.283
-553.412	-200.000	-0.004	-0.281
-552.398	2.005	0.248	0.179
-551.383	-200.000	-0.028	0.285
-550.369	800.000	-0.030	0.120
-549.354	441.669	0.129	0.281
-548.339	12.422	0.189	0.145
-547.325	205.515	0.168	0.260
-546.310	-104.590	0.424	0.097
-545.296	800.000	0.104	-0.327
-544.281	-57.176	0.117	-0.051
-543.266	-200.000	-0.018	0.368
-542.252	83.417	0.242	0.262
-541.237	58.076	-0.021	-0.020
-540.223	131.039	0.220	-0.281
-539.208	415.219	0.036	0.076
-538.193	-24.485	-0.090	-0.053
-537.179	-74.309	0.172	-0.062
-536.164	-200.000	-0.004	0.242
-535.150	800.000	0.047	0.203
-534.135	-160.365	-0.038	-0.002
-533.121	-88.530	-0.398	0.118
-532.106	-52.740	-0.246	0.113
-531.091	-200.000	0.029	-0.299
-530.077	-137.878	-0.231	0.026
-529.062	-74.942	-0.160	0.057
-528.048	-36.609	0.048	-0.026
-527.033	-76.499	-0.078	0.027
-526.018	-140.982	-0.184	-0.019
-525.004	18.181	-0.239	0.190
-523.989	68.785	-0.072	0.074
-522.975	19.383	0.279	-0.223
-521.960	206.120	0.144	0.224
-520.945	238.921	0.113	0.186
-519.931	-200.000	0.076	-0.386
-518.916	-22.469	-0.041	0.025
-517.902	-13.663	-0.102	-0.066
-516.887	-200.000	-0.007	-0.278
-515.872	-69.449	-0.157	0.060
-514.858	-200.000	-0.008	0.155
-513.843	-131.822	-0.371	-0.048
-512.829	7.090	0.298	0.221
-511.814	-54.168	-0.230	-0.104
-510.799	311.818	0.105	0.195
-509.785	-53.009	0.115	0.053
-508.770	237.607	0.130	0.214
-507.756	-200.000	0.028	-0.330
-506.741	-70.949	-0.101	-0.038
-505.726	-200.000	-0.004	-0.149
-504.712	-129.053	-0.181	0.025
-503.697	-10.336	-0.213	0.141
-502.683	-12.526	-0.262	0.170
-501.668	-200.000	0.017	-0.422
-500.653	800.000	0.054	-0.162
-499.639	-86.810	0.279	0.085
-498.624	337.806	0.082	-0.158
-497.610	800.000	0.085	-0.243
-496.595	-105.939	0.345	-0.077
-495.581	-85.530	-0.384	0.119
-494.566	24.089	0.516	0.424
-493.551	-76.707	0.140	-0.049
-492.537	761.182	-0.031	0.084
-491.522	-47.388	0.140	-0.068
-490.508	-200.000	0.000	0.137
-489.493	223.052	-0.056	0.089
-488.478	292.716	-0.079	0.144
-487.464	800.000	0.118	-0.344
-486.449	-92.614	-0.252	0.070
-485.435	-115.394	0.042	0.008
-484.420	-92.657	-0.086	-0.024
-483.405	1.425	0.146	-0.104
-482.391	-181.636	-0.363	0.007
-481.376	75.110	-0.157	-0.164
-480.362	-107.653	-0.333	-0.072
-479.347	582.936	0.103	0.250
-478.332	800.000	-0.048	0.142
-477.318	800.000	0.044	0.173
-476.303	-200.000	-0.018	-0.562
-475.289	28.717	-0.184	0.155
-474.274	-138.706	-0.452	-0.049
-473.259	-68.047	0.031	0.012
-472.245	152.547	-0.067	0.091
-471.230	264.787	-0.235	-0.406
-470.216	-154.227	0.170	0.011
-469.201	-61.615	-0.029	0.012
-468.186	-43.397	-0.253	0.127
-467.172	307.421	0.081	-0.149
-466.157	-200.000	-0.072	-0.385
-465.143	-200.000	-0.019	0.098
-464.128	439.016	-0.107	-0.233
-463.113	800.000	0.128	-0.376
-462.099	-36.542	-0.155	-0.083
-461.084	102.006	-0.166	0.192
-460.070	-200.000	0.006	-0.178
-459.055	537.647	-0.074	-0.175
-458.040	-200.000	0.022	-0.181
-457.026	-73.601	0.249	0.090
-456.011	-5.170	0.208	0.142
-454.997	-164.973	0.237	-0.010
-453.982	800.000	-0.054	-0.197
-452.968	800.000	0.039	0.164
-451.953	56.517	0.226	-0.218
-450.938	128.125	-0.141	-0.177
-449.924	-3.857	0.263	0.181
-448.909	-7.243	0.195	0.131
-447.895	-56.564	0.055	0.024
-446.880	-40.631	0.056	-0.029
-445.865	800.000	0.062	0.262
-444.851	87.978	-0.077	-0.085
-443.836	223.500	0.048	-0.076
-442.822	-200.000	0.002	-0.212
-441.807	-200.000	0.014	0.105
-440.792	-156.901	-0.201	-0.012
-439.778	-82.148	-0.118	-0.038
-438.763	31.432	-0.111	-0.095
-437.749	47.057	0.082	0.076
-436.734	1.254	0.197	0.140
-435.719	-4.144	-0.258	0.177
-434.705	-92.861	0.073	0.020
-433.690	-200.000	-0.004	-0.173
-432.676	-169.297	-0.086	0.003
-431.661	320.515	0.082	0.155
-430.646	466.424	0.047	0.104
-429.632	46.615	-0.038	0.035
-428.617	-129.946	-0.118	-0.016
-427.603	-176.165	0.330	0.009
-426.588	-89.602	-0.187	-0.055
-425.573	-200.000	-0.049	0.225
-424.559	-135.613	0.382	0.045
-423.544	631.685	0.126	0.316
-422.530	-147.807	0.314	-0.026
-421.515	-94.381	0.223	-0.060
-420.500	225.746	-0.060	0.096
-419.486	436.978	-0.068	-0.147
-418.471	-147.048	0.193	0.016
-417.457	800.000	-0.027	0.075
-416.442	800.000	0.077	0.279
-415.428	175.482	0.212	-0.304
-414.413	0.783	-0.364	-0.258
-413.398	-199.480	-0.289	0.001
-412.384	-179.951	0.194	-0.004
-411.369	-200.000	-0.038	0.381
-410.355	311.643	-0.187	0.347
-409.340	305.412	0.070	-0.128
-408.325	800.000	-0.089	-0.283
-407.311	433.337	0.126	0.270
-406.296	-69.967	-0.185	0.070
-405.282	-74.651	0.166	0.059
-404.267	-200.000	-0.006	-0.138
-403.252	800.000	0.040	0.138
-402.238	175.788	0.212	-0.305
-401.223	-165.075	-0.378	0.017
-400.209	9.009	-0.134	-0.100
-399.194	-200.000	0.065	0.502
-398.179	248.496	0.140	-0.235
-397.165	245.182	-0.153	-0.255
-396.150	241.728	-0.024	0.039
-395.136	-200.000	0.315	-0.001
-394.121	-200.000	-0.036	-0.315
-393.106	32.656	-0.184	-0.158
-392.092	345.679	-0.093	0.182
-391.077	800.000	-0.105	-0.314
-390.063	-63.985	-0.348	-0.141
-389.048	-63.211	0.193	0.079
-388.033	403.887	0.093	-0.194
-387.019	702.602	-0.056	-0.146
-386.004	324.587	-0.074	0.139
-384.990	-6.382	-0.048	-0.032
-383.975	800.000	0.064	0.206
-382.960	-24.320	0.225	0.133
-381.946	-117.198	-0.216	-0.039
-380.931	-200.000	0.060	0.277
-379.917	140.349	-0.085	0.111
-378.902	-93.012	0.308	0.085
-377.888	688.635	-0.037	-0.095
-376.873	228.729	-0.125	-0.202
-375.858	-200.000	0.009	0.071
-374.844	147.037	-0.032	-0.042
-373.829	-112.004	-0.108	-0.022
-372.815	-46.716	0.185	0.090
-371.800	-41.458	-0.263	-0.134
-370.785	89.415	0.038	0.042
-369.771	800.000	0.033	0.135
-368.756	-62.729	-0.179	0.073
-367.742	-107.593	0.051	0.011
-366.727	-200.000	0.009	0.307
-365.712	-200.000	0.018	-0.271
-364.698	-85.223	-0.236	-0.073
-363.683	-200.000	0.001	0.006
-362.669	3.283	0.161	0.116
-361.654	233.475	0.249	0.405
-360.639	45.702	0.132	-0.121
-359.625	497.787	0.003	0.007
-358.610	217.363	-0.164	0.258
-357.596	501.904	-0.109	0.248
-356.581	-123.030	-0.031	-0.005
-355.566	-93.774	0.129	-0.035
-354.552	59.162	0.010	-0.009
-353.537	-200.000	0.025	0.308
-352.523	-58.248	0.140	0.060
-351.508	37.135	-0.188	-0.164
-350.493	238.461	0.151	-0.248
-349.479	-45.783	-0.161	0.079
-348.464	-35.401	0.011	0.006
-347.450	139.780	0.111	0.144
-346.435	85.052	-0.121	-0.132
-345.420	693.962	0.012	-0.031
-344.406	-200.000	-0.012	0.364
-343.391	13.139	0.044	0.034
-342.377	749.892	-0.041	0.109
-341.362	-200.000	0.002	0.145
-340.348	-73.134	-0.319	0.116
-339.333	84.388	0.102	-0.110
-338.318	0.106	-0.045	-0.032
-337.304	-57.111	-0.201	0.088
-336.289	-200.000	-0.008	-0.043
-335.275	-121.669	0.149	0.024
-334.260	-78.490	0.233	0.079
-333.245	345.382	-0.095	0.185
-332.231	200.946	-0.127	0.194
-331.216	-19.168	-0.106	-0.065
-330.202	42.876	-0.158	-0.143
-329.187	-141.336	-0.200	0.020
-328.172	-71.738	0.282	-0.104
-327.158	-27.914	-0.013	0.008
-326.143	-67.045	-0.207	0.081
-325.129	-141.113	-0.178	0.018
-324.114	-68.265	0.218	0.084
-323.099	-56.284	0.377	-0.165
-322.085	28.212	-0.100	-0.084
-321.070	-1.331	-0.077	0.054
-320.056	800.000	0.107	-0.456
-319.041	800.000	-0.040	-0.121
-318.026	-12.349	0.212	-0.137
-317.012	-80.288	-0.244	0.081
-315.997	-144.831	0.300	0.027
-314.983	-0.142	0.394	-0.277
-313.968	96.103	-0.210	0.237
-312.953	-120.756	-0.161	0.027
-311.939	719.945	-0.064	0.167
-310.924	331.916	-0.045	0.086
-309.910	37.439	-0.089	0.078
-308.895	82.387	0.090	0.096
-307.880	69.447	0.086	-0.087
-306.866	438.831	0.176	-0.380
-305.851	162.196	-0.042	0.059
-304.837	-73.492	-0.337	0.121
-303.822	-45.343	0.134	-0.066
-302.807	119.024	-0.151	0.184
-301.793	-200.000	0.015	0.147
-300.778	-112.243	0.055	0.011
-299.764	800.000	-0.018	0.063
-298.749	-107.908	0.061	-0.013
-297.735	-77.403	-0.318	0.109
-296.720	-134.202	-0.276	0.034
-295.705	-162.527	0.177	0.009
-294.691	-114.873	-0.164	0.031
-293.676	-160.514	0.185	-0.010
-292.662	-27.804	0.205	-0.117
-291.647	-200.000	0.031	-0.186
-290.632	-69.576	-0.216	0.081
-289.618	89.564	0.176	-0.194
-288.603	343.583	0.064	-0.124
-287.589	-118.090	0.288	-0.051
-286.574	800.000	-0.097	-0.311
-285.559	-130.550	0.188	0.025
-284.545	-200.000	0.061	0.343
-283.530	34.806	0.196	0.169
-282.516	-104.185	-0.451	-0.103
-281.501	277.187	0.084	-0.148
-280.486	-54.058	0.159	-0.071
-279.472	55.002	-0.259	0.246
-278.457	800.000	-0.049	0.176
-277.443	87.619	0.279	-0.304
-276.428	-105.457	0.134	-0.030
-275.413	800.000	-0.114	-0.342
-274.399	-16.014	0.191	-0.120
-273.384	-43.212	-0.094	0.047
-272.370	-132.321	-0.232	0.030
-271.355	-154.370	-0.201	-0.013
-270.340	-129.645	-0.392	0.053
-269.326	800.000	0.055	-0.202
-268.311	-122.584	0.100	-0.016
-267.297	-39.141	-0.300	0.155
-266.282	85.190	0.042	0.045
-265.267	0.913	0.236	-0.167
-264.253	-21.457	-0.116	-0.070
-263.238	0.029	0.127	-0.089
-262.224	118.061	-0.134	-0.163
-261.209	800.000	0.085	0.260
-260.195	30.582	0.313	0.264
-259.180	701.462	-0.071	0.185
-258.165	76.427	0.109	-0.114
-257.151	49.448	0.095	-0.088
-256.136	-16.263	-0.290	-0.181
-255.122	80.379	-0.151	-0.160
-254.107	-10.767	0.401	0.261
-253.092	146.446	0.100	-0.133
-252.078	800.000	-0.072	0.197
-251.063	-66.695	-0.263	-0.102
-250.049	-200.000	0.050	0.273
-249.034	83.512	-0.161	-0.173
-248.019	-127.528	0.268	-0.038
-247.005	-94.547	0.179	0.048
-245.990	-200.000	-0.001	0.103
-244.976	-200.000	-0.024	-0.215
-243.961	-200.000	0.011	0.224
-242.946	-156.980	0.219	0.013
-241.932	-81.772	-0.216	-0.070
-240.917	-144.841	-0.130	0.012
-239.903	-14.470	0.132	-0.083
-238.888	283.540	0.139	-0.245
-237.873	50.153	0.078	0.072
-236.859	-120.895	-0.256	0.042
-235.844	-31.656	0.246	-0.136
-234.830	-94.197	-0.125	-0.034
-233.815	212.538	-0.094	0.147
-232.800	-129.284	-0.246	0.034
-231.786	-111.795	0.158	0.031
-230.771	-77.128	-0.240	0.082
-229.757	187.632	0.152	0.224
-228.742	-200.000	-0.007	0.150
-227.727	-147.905	0.261	0.021
-226.713	-197.387	-0.073	0.000
-225.698	-89.692	0.126	0.036
-224.684	-101.516	0.187	-0.045
-223.669	-200.000	-0.011	-0.065
-222.655	316.203	0.102	-0.190
-221.640	127.513	0.195	0.243
-220.625	800.000	-0.077	-0.295
-219.611	14.362	-0.132	0.101
-218.596	139.263	0.201	0.260
-217.582	-85.265	0.307	0.094
-216.567	117.378	0.184	0.222
-215.552	-112.709	0.210	0.041
-214.538	-200.000	-0.006	-0.116
-213.523	-113.644	-0.178	-0.034
-212.509	-115.003	-0.209	0.039
-211.494	112.351	0.217	-0.258
-210.479	-91.593	0.184	-0.051
-209.465	229.920	0.198	0.318
-208.450	-134.556	-0.201	0.024
-207.436	-150.186	0.197	0.015
-206.421	117.534	-0.174	-0.210
-205.406	-200.000	-0.031	0.172
-204.392	-55.542	-0.370	-0.163
-203.377	-200.000	0.058	0.300
-202.363	117.596	0.145	-0.175
-201.348	-122.589	-0.245	0.039
-200.333	-89.982	0.137	0.039
-199.319	-85.344	-0.212	0.065
-198.304	-171.469	0.231	0.008
-197.290	-200.000	0.025	0.171
-196.275	40.665	0.280	-0.248
-195.260	160.409	0.187	0.256
-194.246	-26.148	0.300	0.173
-193.231	-27.472	-0.195	-0.112
-192.217	-79.666	0.210	-0.070
-191.202	24.382	0.197	0.160
-190.187	45.928	0.473	0.430
-189.173	-90.330	0.032	-0.009
-188.158	9.574	0.240	0.179
-187.144	-47.191	0.202	0.097
-186.129	176.874	0.034	0.049
-185.114	800.000	-0.151	-0.460
-184.100	-200.000	0.057	0.284
-183.085	-200.000	-0.003	-0.028
-182.071	104.288	-0.203	0.234
-181.056	800.000	-0.080	0.248
-180.042	-76.134	-0.036	0.013
-179.027	520.243	0.091	0.210
-178.012	-34.786	0.075	-0.040
-176.998	5.903	-0.197	0.143
-175.983	-59.631	-0.269	0.113
-174.969	524.059	-0.126	0.291
-173.954	-114.013	-0.181	0.034
-172.939	298.867	-0.085	0.154
-171.925	-185.370	-0.294	-0.004
-170.910	96.350	0.118	0.133
-169.896	-183.742	0.240	0.004
-168.881	463.483	-0.147	0.322
-167.866	-137.229	-0.424	0.047
-166.852	-200.000	-0.039	0.497
-165.837	293.553	0.067	0.120
-164.823	433.614	-0.104	0.222
-163.808	660.112	-0.131	0.331
-162.793	4.233	-0.289	-0.208
-161.779	-71.953	0.256	0.094
-160.764	57.147	-0.112	0.107
-159.750	26.214	-0.168	-0.138
-158.735	-200.000	-0.037	-0.314
-157.720	106.590	0.314	-0.366
-156.706	-200.000	-0.017	0.132
-155.691	163.396	-0.100	0.137
-154.677	-111.577	-0.138	0.027
-153.662	-200.000	0.002	-0.265
-152.647	-135.070	0.103	0.012
-151.633	-79.824	-0.333	0.110
-150.618	-164.739	0.380	0.017
-149.604	-200.000	0.007	0.122
-148.589	226.048	0.073	0.115
-147.574	79.399	0.241	0.254
-146.560	15.065	-0.098	0.075
-145.545	21.452	0.302	0.241
-144.531	2.537	-0.180	-0.128
-143.516	-62.491	0.293	-0.120
-142.502	567.009	-0.049	-0.116
-141.487	-200.000	0.012	-0.267
-140.472	-40.667	0.045	-0.023
-139.458	83.761	-0.129	-0.138
-138.443	-200.000	0.069	0.359
-137.429	-200.000	-0.055	0.266
-136.414	63.166	0.114	-0.112
-135.399	139.538	0.058	-0.075
-134.385	-109.934	0.127	-0.026
-133.370	-82.396	0.452	-0.144
-132.356	-99.730	0.157	-0.039
-131.341	96.461	-0.213	0.239
-130.326	800.000	0.038	0.108
-129.312	134.362	-0.191	-0.243
-128.297	-31.275	-0.247	0.136
-127.283	36.630	0.120	-0.104
-126.268	-17.679	-0.187	0.115
-125.253	471.680	0.063	0.140
-124.239	-27.734	-0.397	0.226
-123.224	-69.398	0.321	0.121
-122.210	-73.869	-0.390	0.139
-121.195	445.861	0.175	0.377
