DTS Sentinel unit serial number:	SN413079Multiplexer serial number:	ORYXHardware model number:	OX4-SRSoftware version number:	ORYX F/W v4.00 Oryx Data Collector v3.7.2.0data status	okinstallation	princeton_trtdifferential loss correction	single-endedforward channel	channel 2reverse channel	N/Adate	2019/09/18time	03:43:35forward acquisition time	60.00reverse acquisition time	0.00gamma	496.2192k internal	0.2349k external	0.2349temperature offset calibration	0.9981default loss term (dB/km)	0.3790temperature slope calibration	1.0000multiplexer offset coefficient	1.0000multiplexer slope coefficient	1.0000fibre end	0.00T internal ref (°C)	22.94T ext. ref 1 (°C)	0.17T ext. ref 2 (°C)	18.06length (m)	temperature (°C)	Stokes	anti-Stokes-747.200	158.716	0.159	0.220
-746.185	87.408	0.100	0.110
-745.171	227.515	0.044	0.071
-744.156	-188.169	0.313	-0.004
-743.142	-200.000	0.000	-0.007
-742.127	-200.000	-0.040	0.488
-741.112	-74.909	0.220	0.079
-740.098	800.000	-0.035	0.102
-739.083	800.000	-0.055	0.164
-738.069	-36.041	-0.118	-0.064
-737.054	-44.615	-0.113	0.056
-736.039	122.397	-0.232	-0.290
-735.025	-200.000	0.013	0.376
-734.010	54.090	-0.095	-0.092
-732.996	-107.632	-0.170	0.037
-731.981	82.581	-0.243	-0.263
-730.966	-153.358	-0.213	0.015
-729.952	45.182	-0.196	-0.180
-728.937	-200.000	-0.072	0.433
-727.923	800.000	-0.029	0.093
-726.908	-50.714	-0.190	-0.089
-725.894	-38.148	-0.006	-0.003
-724.879	-28.849	-0.261	-0.150
-723.864	800.000	-0.022	0.094
-722.850	-164.557	0.094	0.004
-721.835	-200.000	0.034	-0.173
-720.821	-89.849	-0.379	0.111
-719.806	273.271	0.062	-0.109
-718.791	220.767	0.160	-0.256
-717.777	206.749	0.115	-0.179
-716.762	-200.000	0.017	-0.380
-715.748	19.608	-0.206	-0.166
-714.733	58.944	-0.174	0.171
-713.718	800.000	0.021	0.069
-712.704	800.000	-0.054	0.178
-711.689	800.000	0.028	0.117
-710.675	800.000	0.022	-0.072
-709.660	529.254	0.070	0.165
-708.645	-63.556	-0.366	0.150
-707.631	-60.579	-0.213	0.090
-706.616	-68.265	0.153	-0.059
-705.602	-193.047	-0.364	-0.003
-704.587	800.000	-0.052	-0.146
-703.572	-200.000	0.002	-0.285
-702.558	126.332	-0.072	-0.090
-701.543	-200.000	-0.055	-0.298
-700.529	-200.000	-0.078	-0.434
-699.514	-200.000	-0.072	0.413
-698.499	800.000	0.164	-0.499
-697.485	273.469	-0.130	-0.230
-696.470	170.096	0.035	-0.050
-695.456	-200.000	-0.368	0.000
-694.441	-121.683	-0.173	-0.029
-693.426	-200.000	-0.023	-0.182
-692.412	-112.073	-0.409	-0.082
-691.397	119.822	0.239	-0.296
-690.383	-102.686	0.271	-0.064
-689.368	-200.000	-0.034	0.440
-688.354	-200.000	0.059	-0.373
-687.339	800.000	0.022	0.092
-686.324	81.117	-0.190	-0.205
-685.310	-54.214	-0.375	-0.170
-684.295	721.672	-0.071	-0.187
-683.281	-200.000	0.032	-0.425
-682.266	25.427	0.156	-0.129
-681.251	-65.141	0.156	-0.063
-680.237	113.503	-0.218	-0.263
-679.222	-106.287	-0.266	-0.059
-678.208	-200.000	0.007	0.115
-677.193	163.687	0.051	-0.072
-676.178	-127.759	0.226	-0.033
-675.164	-200.000	0.031	0.201
-674.149	-23.414	-0.164	-0.098
-673.135	-181.183	0.234	0.005
-672.120	43.978	0.256	-0.233
-671.105	86.143	-0.170	0.187
-670.091	-34.516	-0.094	0.051
-669.076	58.771	0.126	0.123
-668.062	-152.969	-0.278	0.020
-667.047	4.333	0.110	-0.080
-666.032	-200.000	0.030	0.131
-665.018	-200.000	0.018	-0.129
-664.003	0.141	-0.046	-0.033
-662.989	14.471	-0.335	0.260
-661.974	216.269	-0.050	0.078
-660.959	-86.056	-0.080	0.025
-659.945	177.916	-0.078	0.113
-658.930	-61.088	-0.082	-0.034
-657.916	-42.245	0.296	-0.151
-656.901	380.478	0.068	-0.139
-655.886	-200.000	0.023	0.105
-654.872	-108.158	0.145	-0.031
-653.857	-55.629	-0.276	0.123
-652.843	22.354	-0.058	0.047
-651.828	-53.016	-0.205	-0.094
-650.814	658.289	-0.059	0.151
-649.799	-93.001	-0.445	0.124
-648.784	-77.565	0.099	0.034
-647.770	-200.000	-0.066	-0.389
-646.755	22.856	0.279	-0.227
-645.741	604.727	0.067	-0.165
-644.726	800.000	-0.111	-0.431
-643.711	-43.198	-0.084	0.043
-642.697	-19.693	-0.079	-0.049
-641.682	-85.241	0.342	-0.106
-640.668	-74.074	-0.309	-0.111
-639.653	-72.784	0.107	0.039
-638.638	278.446	-0.107	0.189
-637.624	608.015	-0.129	-0.319
-636.609	1.780	0.195	0.140
-635.595	53.067	0.115	0.109
-634.580	-116.389	0.201	-0.037
-633.565	391.487	-0.103	-0.213
-632.551	-78.860	-0.118	-0.040
-631.536	187.309	0.193	0.286
-630.522	-66.402	-0.102	-0.040
-629.507	49.146	-0.098	0.092
-628.492	800.000	-0.083	0.246
-627.478	32.147	0.183	-0.157
-626.463	421.988	-0.033	0.069
-625.449	-200.000	0.053	-0.330
-624.434	7.809	-0.263	0.196
-623.419	256.836	0.093	-0.158
-622.405	-153.024	-0.206	0.014
-621.390	-200.000	-0.017	-0.279
-620.376	800.000	-0.074	0.287
-619.361	220.643	-0.112	-0.179
-618.346	800.000	0.031	-0.107
-617.332	82.601	0.155	0.167
-616.317	-148.418	-0.406	0.033
-615.303	-91.792	-0.119	0.034
-614.288	791.451	-0.092	-0.252
-613.273	800.000	0.036	-0.135
-612.259	-36.027	-0.265	0.142
-611.244	265.244	-0.174	-0.301
-610.230	328.724	-0.053	0.102
-609.215	-106.715	0.028	-0.006
-608.201	-200.000	-0.062	-0.275
-607.186	104.956	0.075	-0.088
-606.171	36.824	0.025	-0.022
-605.157	184.339	0.050	0.074
-604.142	-161.537	0.282	-0.014
-603.128	800.000	-0.081	0.257
-602.113	-35.316	0.381	-0.206
-601.098	674.182	-0.080	0.206
-600.084	-200.000	0.006	0.133
-599.069	-200.000	-0.071	0.444
-598.055	32.157	0.040	-0.034
-597.040	543.811	0.133	-0.315
-596.025	317.820	-0.041	0.078
-595.011	-121.836	-0.368	-0.060
-593.996	106.528	0.129	0.151
-592.982	145.621	-0.137	-0.182
-591.967	63.156	0.212	-0.211
-590.952	800.000	-0.047	-0.150
-589.938	800.000	-0.056	-0.216
-588.923	-200.000	0.065	-0.357
-587.909	800.000	-0.023	0.083
-586.894	-82.510	-0.149	-0.048
-585.879	462.033	0.101	-0.224
-584.865	-128.392	-0.287	-0.041
-583.850	-200.000	0.001	-0.105
-582.836	-200.000	-0.045	0.329
-581.821	633.122	0.106	-0.267
-580.806	-11.082	-0.184	-0.120
-579.792	-56.966	-0.271	-0.119
-578.777	-200.000	0.038	-0.213
-577.763	-200.000	-0.029	0.183
-576.748	800.000	-0.050	0.144
-575.733	16.333	0.277	0.217
-574.719	109.055	0.123	0.146
-573.704	-59.962	0.188	0.080
-572.690	-10.433	0.272	0.179
-571.675	73.635	-0.090	0.093
-570.661	-107.474	-0.177	0.039
-569.646	-108.177	-0.062	-0.013
-568.631	-14.306	0.141	0.090
-567.617	621.935	0.077	-0.192
-566.602	800.000	0.021	0.060
-565.588	16.038	-0.219	0.171
-564.573	-10.455	0.506	0.333
-563.558	-70.836	-0.138	0.052
-562.544	800.000	-0.075	0.238
-561.529	800.000	0.063	0.183
-560.515	-200.000	0.033	0.210
-559.500	96.145	0.133	0.151
-558.485	-83.692	-0.135	-0.043
-557.471	800.000	0.135	-0.378
-556.456	-200.000	0.084	-0.000
-555.442	-34.508	-0.320	-0.174
-554.427	-99.890	0.106	-0.026
-553.412	-82.670	0.156	-0.050
-552.398	81.177	-0.053	-0.057
-551.383	35.347	0.138	-0.120
-550.369	-200.000	0.018	-0.092
-549.354	-121.716	0.086	-0.014
-548.339	28.488	0.140	-0.117
-547.325	1.252	0.172	0.122
-546.310	-200.000	0.029	-0.228
-545.296	227.116	-0.096	0.155
-544.281	28.936	0.206	0.173
-543.266	32.869	0.051	-0.044
-542.252	-13.663	-0.112	0.072
-541.237	58.099	-0.225	-0.218
-540.223	-53.490	-0.242	0.110
-539.208	800.000	0.079	0.219
-538.193	424.718	-0.104	0.222
-537.179	-102.136	-0.318	-0.076
-536.164	358.537	0.003	-0.007
-535.150	145.092	-0.234	-0.311
-534.135	299.876	-0.062	-0.113
-533.121	800.000	-0.078	0.327
-532.106	-43.371	-0.131	0.066
-531.091	-29.413	0.241	-0.137
-530.077	-200.000	-0.017	0.149
-529.062	659.166	-0.106	0.271
-528.048	-110.081	0.030	-0.006
-527.033	-139.956	-0.302	-0.032
-526.018	23.605	0.194	0.158
-525.004	104.138	0.164	0.191
-523.989	34.459	-0.444	0.384
-522.975	83.091	0.203	0.218
-521.960	653.722	0.096	-0.243
-520.945	798.459	-0.120	-0.326
-519.931	-78.547	-0.137	0.046
-518.916	-21.587	-0.317	0.191
-517.902	160.298	0.126	0.174
-516.887	-200.000	0.018	0.332
-515.872	50.780	0.139	-0.130
-514.858	800.000	-0.029	0.083
-513.843	-19.321	-0.394	-0.242
-512.829	666.232	-0.128	0.327
-511.814	-200.000	-0.016	-0.151
-510.799	586.620	-0.120	-0.292
-509.785	28.315	0.477	0.399
-508.770	-112.398	-0.343	-0.068
-507.756	-127.738	-0.249	0.036
-506.741	47.697	0.167	0.154
-505.726	-38.866	0.131	-0.068
-504.712	-103.873	0.171	0.039
-503.697	82.719	-0.155	-0.167
-502.683	367.754	0.207	-0.414
-501.668	-44.447	-0.005	-0.002
-500.653	50.292	0.312	0.291
-499.639	-200.000	-0.007	-0.133
-498.624	-200.000	-0.042	-0.417
-497.610	-200.000	0.047	-0.288
-496.595	800.000	-0.058	-0.210
-495.581	-108.769	-0.133	-0.028
-494.566	-200.000	0.015	-0.307
-493.551	-91.186	0.348	0.099
-492.537	454.690	0.012	-0.027
-491.522	623.403	0.049	-0.122
-490.508	70.813	-0.071	-0.073
-489.493	58.188	-0.085	-0.082
-488.478	-200.000	0.005	0.101
-487.464	-104.418	-0.061	-0.014
-486.449	106.457	0.212	0.248
-485.435	780.196	0.077	0.208
-484.420	-30.285	0.256	0.144
-483.405	769.633	-0.068	-0.182
-482.391	197.493	-0.051	-0.078
-481.376	-34.786	-0.079	-0.043
-480.362	13.280	-0.064	0.049
-479.347	135.088	-0.234	0.301
-478.332	-69.947	0.283	0.107
-477.318	-7.100	0.090	-0.061
-476.303	800.000	0.037	-0.150
-475.289	154.888	0.056	0.076
-474.274	52.210	-0.165	0.155
-473.259	-5.822	0.212	-0.143
-472.245	137.753	0.100	0.130
-471.230	-103.611	-0.214	0.050
-470.216	-13.364	-0.084	0.054
-469.201	-200.000	-0.042	0.244
-468.186	-160.442	0.224	0.012
-467.172	-0.468	0.182	-0.128
-466.157	-116.860	0.121	0.022
-465.143	702.925	-0.055	-0.143
-464.128	98.753	-0.178	-0.203
-463.113	-200.000	0.016	-0.251
-462.099	-14.049	-0.148	-0.095
-461.084	-200.000	0.006	-0.174
-460.070	800.000	-0.045	-0.150
-459.055	75.665	0.190	-0.199
-458.040	227.885	-0.060	-0.096
-457.026	-177.052	-0.118	0.003
-456.011	666.939	0.047	0.119
-454.997	60.422	-0.101	0.099
-453.982	-200.000	0.010	-0.216
-452.968	187.537	0.045	-0.066
-451.953	15.862	-0.058	0.045
-450.938	-34.826	-0.203	-0.110
-449.924	330.138	-0.086	0.163
-448.909	-125.578	0.531	0.080
-447.895	226.372	-0.216	-0.346
-446.880	-81.522	0.267	0.087
-445.865	170.114	0.136	-0.192
-444.851	133.616	0.072	-0.091
-443.836	-200.000	-0.051	0.247
-442.822	116.467	-0.073	0.089
-441.807	279.319	-0.176	0.310
-440.792	-200.000	-0.004	0.065
-439.778	800.000	0.039	0.138
-438.763	-117.439	0.287	-0.051
-437.749	800.000	0.024	-0.078
-436.734	33.241	-0.050	-0.043
-435.719	800.000	-0.070	-0.244
-434.705	84.126	-0.230	0.247
-433.690	135.264	-0.099	-0.127
-432.676	-39.563	0.178	-0.092
-431.661	-39.179	-0.166	-0.086
-430.646	-27.559	0.165	-0.095
-429.632	-131.303	-0.227	-0.030
-428.617	800.000	-0.021	0.077
-427.603	168.170	-0.128	-0.180
-426.588	64.729	-0.050	-0.050
-425.573	-99.450	-0.393	-0.097
-424.559	-1.301	-0.206	-0.144
-423.544	800.000	-0.115	-0.416
-422.530	-200.000	-0.022	-0.153
-421.515	-75.999	-0.135	-0.047
-420.500	42.687	0.181	0.162
-419.486	-47.069	0.324	0.156
-418.471	-132.546	0.348	-0.044
-417.457	-62.321	0.336	0.138
-416.442	-200.000	0.062	0.366
-415.428	172.129	-0.018	0.026
-414.413	130.100	0.087	0.110
-413.398	-4.990	0.383	-0.260
-412.384	32.586	-0.110	-0.094
-411.369	800.000	0.054	0.191
-410.355	-158.751	-0.115	0.006
-409.340	161.219	-0.296	0.408
-408.325	74.850	0.196	0.203
-407.311	-16.466	-0.251	-0.157
-406.296	800.000	0.063	-0.251
-405.282	800.000	-0.037	0.115
-404.267	11.808	0.200	0.151
-403.252	800.000	-0.044	0.175
-402.238	14.545	0.237	-0.182
-401.223	-158.591	-0.175	-0.010
-400.209	800.000	-0.024	0.066
-399.194	67.083	0.084	-0.084
-398.179	-118.248	-0.524	-0.092
-397.165	621.492	-0.125	-0.311
-396.150	43.659	0.192	-0.173
-395.136	37.706	0.338	-0.296
-394.121	-91.867	-0.074	0.021
-393.106	-200.000	0.084	0.488
-392.092	-69.691	0.275	0.103
-391.077	-200.000	-0.027	-0.237
-390.063	-107.899	-0.365	0.078
-389.048	17.001	0.064	0.050
-388.033	-125.200	0.296	-0.045
-387.019	-200.000	0.011	0.092
-386.004	28.063	-0.337	0.280
-384.990	800.000	0.062	0.191
-383.975	232.628	-0.164	0.266
-382.960	128.937	0.216	0.271
-381.946	230.498	0.130	0.210
-380.931	1.709	-0.153	0.108
-379.917	-200.000	0.024	-0.273
-378.902	-74.423	0.159	-0.056
-377.888	136.181	0.115	0.147
-376.873	800.000	-0.032	0.128
-375.858	613.656	0.005	0.012
-374.844	-32.120	-0.219	0.121
-373.829	313.097	0.180	0.333
-372.815	-87.460	0.320	0.095
-371.800	-200.000	-0.014	0.130
-370.785	-58.055	-0.021	0.009
-369.771	-3.294	0.104	0.072
-368.756	32.299	0.200	0.170
-367.742	-200.000	-0.070	-0.313
-366.727	-98.396	-0.206	0.052
-365.712	117.559	0.124	0.150
-364.698	26.016	0.423	0.348
-363.683	-44.340	0.184	0.090
-362.669	-200.000	-0.006	0.061
-361.654	-132.776	-0.133	0.017
-360.639	-122.087	-0.153	0.025
-359.625	-200.000	-0.018	-0.182
-358.610	-151.015	0.140	0.010
-357.596	147.440	-0.080	-0.106
-356.581	111.792	-0.050	0.059
-355.566	-95.003	-0.076	0.020
-354.552	-156.327	-0.114	0.007
-353.537	64.149	0.022	-0.022
-352.523	-200.000	-0.039	0.191
-351.508	85.915	-0.269	-0.291
-350.493	-200.000	0.050	-0.231
-349.479	-40.389	-0.347	-0.177
-348.464	-73.538	-0.139	0.050
-347.450	-27.414	0.121	0.069
-346.435	-58.589	0.118	-0.050
-345.420	-200.000	0.011	-0.143
-344.406	15.379	0.161	0.124
-343.391	-169.528	-0.320	-0.011
-342.377	259.684	0.106	0.180
-341.362	-200.000	-0.028	0.178
-340.348	160.727	0.144	-0.197
-339.333	-200.000	-0.001	0.239
-338.318	-200.000	-0.046	0.209
-337.304	83.285	0.058	0.063
-336.289	-108.202	0.133	-0.028
-335.275	-200.000	0.015	-0.126
-334.260	800.000	-0.075	0.238
-333.245	-67.066	0.117	-0.045
-332.231	-32.009	0.211	0.116
-331.216	195.706	0.101	-0.151
-330.202	324.654	-0.157	-0.295
-329.187	-200.000	0.069	0.336
-328.172	-93.307	0.291	0.079
-327.158	-126.625	-0.219	0.032
-326.143	122.613	-0.216	0.265
-325.129	-20.084	-0.469	0.284
-324.114	-121.156	0.297	-0.049
-323.099	-200.000	-0.027	0.125
-322.085	467.416	-0.079	-0.174
-321.070	-200.000	-0.003	-0.309
-320.056	-77.042	-0.211	-0.072
-319.041	-37.900	0.154	-0.080
-318.026	-200.000	-0.021	-0.285
-317.012	412.676	0.098	-0.204
-315.997	-96.707	0.280	-0.072
-314.983	329.784	0.097	0.183
-313.968	-38.010	0.077	-0.040
-312.953	-139.939	-0.134	-0.014
-311.939	-165.422	0.446	0.019
-310.924	367.045	-0.094	0.186
-309.910	333.019	0.019	0.035
-308.895	800.000	0.065	0.182
-307.880	387.309	0.173	0.352
-306.866	-65.826	-0.074	0.029
-305.851	67.416	-0.189	-0.190
-304.837	-200.000	-0.007	0.156
-303.822	-40.938	-0.175	0.089
-302.807	-200.000	-0.004	0.127
-301.793	174.999	0.193	-0.274
-300.778	234.465	0.069	-0.111
-299.764	-200.000	-0.044	0.264
-298.749	800.000	-0.068	0.225
-297.735	-132.483	-0.381	0.048
-296.720	800.000	0.081	-0.240
-295.705	-104.654	-0.211	0.048
-294.691	-109.573	-0.102	0.021
-293.676	800.000	0.009	-0.034
-292.662	123.682	-0.151	-0.186
-291.647	-29.106	-0.046	-0.026
-290.632	-141.488	-0.081	-0.008
-289.618	-200.000	-0.031	-0.227
-288.603	-200.000	0.040	-0.260
-287.589	-129.631	-0.353	-0.048
-286.574	-200.000	-0.031	0.377
-285.559	-93.588	-0.159	0.043
-284.545	54.831	0.207	-0.196
-283.530	-124.341	0.278	0.043
-282.516	-91.531	0.379	-0.106
-281.501	800.000	-0.099	0.339
-280.486	-75.451	0.321	-0.112
-279.472	-124.716	-0.189	0.029
-278.457	-200.000	-0.039	-0.368
-277.443	800.000	0.051	0.142
-276.428	-200.000	-0.033	0.165
-275.413	-200.000	-0.016	0.211
-274.399	800.000	0.062	-0.230
-273.384	25.678	-0.242	-0.198
-272.370	-3.106	0.195	0.134
-271.355	-200.000	0.004	-0.083
-270.340	-79.574	-0.248	0.082
-269.326	-15.394	0.252	0.158
-268.311	800.000	-0.062	0.219
-267.297	29.752	0.106	-0.089
-266.282	194.355	0.060	0.089
-265.267	-100.357	0.108	-0.026
-264.253	800.000	-0.037	0.125
-263.238	594.800	-0.063	0.152
-262.224	220.572	0.110	0.173
-261.209	80.491	0.089	-0.094
-260.195	297.920	0.075	0.134
-259.180	40.505	0.051	0.045
-258.165	601.778	-0.103	-0.251
-257.151	191.370	-0.135	0.198
-256.136	2.816	-0.152	0.108
-255.122	327.570	-0.151	-0.284
-254.107	-122.029	-0.176	-0.028
-253.092	24.529	-0.159	-0.129
-252.078	79.027	-0.071	-0.074
-251.063	-128.006	0.146	-0.020
-250.049	-160.019	-0.088	0.005
-249.034	-119.166	-0.105	-0.018
-248.019	-10.299	-0.041	-0.027
-247.005	70.570	0.076	0.077
-245.990	-18.294	-0.161	0.099
-244.976	146.262	-0.202	-0.266
-243.961	-68.004	-0.204	0.078
-242.946	-29.338	0.121	-0.068
-241.932	-90.141	0.241	0.069
-240.917	-55.504	0.143	0.063
-239.903	-36.100	-0.211	0.112
-238.888	-112.010	0.171	0.034
-237.873	376.157	-0.163	0.326
-236.859	-29.087	-0.099	0.055
-235.844	-112.926	0.330	0.064
-234.830	-12.266	-0.380	0.244
-233.815	-68.341	0.228	-0.087
-232.800	-67.661	0.524	-0.201
-231.786	-15.538	-0.050	-0.031
-230.771	-200.000	-0.053	-0.243
-229.757	-1.462	-0.056	0.039
-228.742	800.000	0.038	0.106
-227.727	-97.459	0.145	-0.037
-226.713	42.780	0.173	-0.154
-225.698	-130.772	0.058	-0.008
-224.684	800.000	0.093	-0.353
-223.669	-42.695	-0.451	-0.225
-222.655	-139.750	-0.254	0.026
-221.640	110.036	0.068	-0.079
-220.625	-172.122	0.151	0.005
-219.611	800.000	-0.067	0.264
-218.596	-200.000	-0.042	-0.396
-217.582	30.859	-0.064	-0.053
-216.567	44.405	-0.176	-0.158
-215.552	-200.000	0.007	-0.046
-214.538	-145.887	0.094	-0.008
-213.523	131.465	0.082	-0.103
-212.509	47.476	0.197	0.180
-211.494	-200.000	0.041	0.227
-210.479	553.651	-0.066	0.156
-209.465	-163.349	-0.147	-0.007
-208.450	-57.067	0.121	0.052
-207.436	-157.189	0.062	0.004
-206.421	-165.805	0.163	0.007
-205.406	-200.000	-0.015	-0.144
-204.392	-37.084	0.230	-0.121
-203.377	234.800	0.260	-0.420
-202.363	-77.751	0.222	0.075
-201.348	416.392	0.110	0.230
-200.333	-200.000	-0.017	0.278
-199.319	-72.554	0.089	0.032
-198.304	-95.979	0.160	0.042
-197.290	-174.483	0.178	0.005
-196.275	-29.649	-0.340	-0.190
-195.260	-76.752	-0.076	0.026
-194.246	-69.470	0.177	0.066
-193.231	-30.787	0.185	0.102
-192.217	477.347	0.079	-0.176
-191.202	90.456	-0.254	0.278
-190.187	-95.973	-0.325	0.084
-189.173	229.425	0.083	-0.133
-188.158	-97.276	0.255	0.065
-187.144	124.277	0.112	0.137
-186.129	-117.817	-0.488	0.086
-185.114	50.793	0.098	0.091
-184.100	72.460	-0.222	0.226
-183.085	694.976	0.110	-0.283
-182.071	-4.601	0.279	-0.188
-181.056	97.647	0.084	0.095
-180.042	-170.140	-0.378	0.013
-179.027	189.439	-0.119	-0.174
-178.012	595.955	-0.022	0.053
-176.998	-200.000	0.024	-0.351
-175.983	-126.854	0.270	-0.039
-174.969	22.532	-0.203	0.162
-173.954	749.724	-0.025	0.065
-172.939	571.758	0.063	-0.151
-171.925	-200.000	-0.004	0.424
-170.910	-2.712	-0.045	0.031
-169.896	-200.000	0.022	-0.442
-168.881	-200.000	0.054	-0.288
-167.866	325.619	0.093	-0.174
-166.852	303.567	0.077	-0.139
-165.837	25.376	-0.163	-0.132
-164.823	155.695	-0.047	-0.063
-163.808	800.000	0.073	0.260
-162.793	231.438	-0.060	0.096
-161.779	800.000	0.032	-0.102
-160.764	-89.646	-0.414	0.119
-159.750	-200.000	-0.215	-0.001
-158.735	-59.187	-0.117	0.049
-157.720	-24.002	0.115	-0.067
-156.706	-200.000	0.010	-0.140
-155.691	-133.535	0.406	-0.050
-154.677	-200.000	0.008	0.195
-153.662	800.000	0.018	0.070
-152.647	-65.646	0.155	0.060
-151.633	34.627	-0.094	-0.080
-150.618	74.591	0.367	0.376
-149.604	30.816	-0.200	-0.167
-148.589	-26.553	-0.130	-0.075
-147.574	-22.565	0.041	0.024
-146.560	-103.513	-0.281	0.064
-145.545	-45.795	-0.139	-0.067
-144.531	16.974	0.073	-0.056
-143.516	594.421	0.103	0.248
-142.502	800.000	0.066	0.221
-141.487	-38.577	0.141	-0.073
-140.472	800.000	-0.065	-0.197
-139.458	-200.000	-0.033	-0.153
-138.443	-105.878	0.313	-0.069
-137.429	9.250	0.235	0.173
-136.414	-56.084	-0.229	0.100
-135.399	-120.145	-0.275	-0.046
-134.385	224.208	-0.124	-0.195
-133.370	-38.217	0.153	0.079
-132.356	527.486	-0.142	-0.326
-131.341	101.787	0.111	-0.126
-130.326	161.722	-0.124	-0.170
-129.312	16.768	-0.097	-0.075
-128.297	-142.326	0.211	0.020
-127.283	-38.073	-0.150	-0.078
-126.268	67.623	-0.119	0.119
-125.253	13.589	0.144	0.109
-124.239	72.299	-0.140	0.142
-123.224	800.000	0.053	-0.181
-122.210	64.918	-0.118	-0.116
-121.195	265.895	0.156	0.266
