DTS Sentinel unit serial number:	SN413079Multiplexer serial number:	ORYXHardware model number:	OX4-SRSoftware version number:	ORYX F/W v4.00 Oryx Data Collector v3.7.2.0data status	okinstallation	princeton_trtdifferential loss correction	single-endedforward channel	channel 2reverse channel	N/Adate	2019/09/16time	03:07:35forward acquisition time	60.00reverse acquisition time	0.00gamma	496.2192k internal	0.2334k external	0.2334temperature offset calibration	0.9970default loss term (dB/km)	0.3790temperature slope calibration	1.0000multiplexer offset coefficient	1.0000multiplexer slope coefficient	1.0000fibre end	0.00T internal ref (°C)	27.75T ext. ref 1 (°C)	10.45T ext. ref 2 (°C)	22.12length (m)	temperature (°C)	Stokes	anti-Stokes-747.200	5.853	-0.026	-0.019
-746.185	14.973	0.223	0.175
-745.171	800.000	0.023	0.076
-744.156	-200.000	0.014	0.075
-743.142	187.413	-0.052	-0.077
-742.127	388.416	-0.113	0.234
-741.112	-200.000	0.000	0.041
-740.098	339.915	-0.146	0.286
-739.083	-111.293	0.279	0.057
-738.069	31.533	-0.249	0.215
-737.054	-36.302	0.103	-0.056
-736.039	138.003	-0.247	-0.326
-735.025	269.729	0.138	-0.243
-734.010	-86.830	-0.181	-0.056
-732.996	109.688	-0.021	0.025
-731.981	-65.720	-0.119	-0.048
-730.966	-200.000	-0.010	0.210
-729.952	-94.511	0.154	-0.042
-728.937	-9.930	0.255	-0.170
-727.923	800.000	0.031	0.098
-726.908	800.000	0.058	-0.234
-725.894	-39.450	-0.576	-0.303
-724.879	-21.899	0.056	-0.034
-723.864	-56.352	0.263	0.117
-722.850	-159.601	-0.080	0.004
-721.835	-200.000	-0.007	-0.092
-720.821	408.661	-0.060	-0.128
-719.806	800.000	-0.042	0.153
-718.791	281.596	-0.110	-0.198
-717.777	6.635	0.100	-0.075
-716.762	-80.691	0.073	0.024
-715.748	5.259	0.062	0.046
-714.733	-80.162	-0.376	0.126
-713.718	-58.595	0.070	-0.031
-712.704	76.006	0.103	-0.109
-711.689	800.000	-0.090	0.360
-710.675	-136.336	0.110	-0.013
-709.660	-148.359	-0.381	-0.031
-708.645	800.000	-0.088	-0.319
-707.631	-126.905	-0.205	-0.030
-706.616	800.000	-0.095	0.368
-705.602	97.422	-0.175	-0.201
-704.587	160.893	-0.109	-0.153
-703.572	-116.787	0.218	0.040
-702.558	800.000	0.053	0.208
-701.543	30.648	0.085	0.073
-700.529	-200.000	0.008	-0.098
-699.514	-60.678	0.144	0.061
-698.499	-125.427	-0.137	0.021
-697.485	-88.118	0.234	-0.070
-696.470	800.000	-0.100	0.290
-695.456	-200.000	0.003	0.050
-694.441	-200.000	-0.097	0.481
-693.426	-8.361	0.022	-0.015
-692.412	-45.338	0.131	-0.065
-691.397	24.580	-0.154	-0.128
-690.383	221.551	0.100	-0.161
-689.368	-89.583	0.148	0.044
-688.354	-80.321	-0.224	0.075
-687.339	-200.000	-0.028	-0.230
-686.324	37.796	-0.219	-0.195
-685.310	800.000	-0.035	0.123
-684.295	605.973	0.038	-0.096
-683.281	-126.716	-0.151	0.022
-682.266	539.604	-0.063	-0.150
-681.251	-82.558	0.100	-0.032
-680.237	409.186	0.080	-0.169
-679.222	-82.606	-0.057	0.018
-678.208	800.000	-0.020	0.083
-677.193	-118.283	0.176	0.031
-676.178	424.610	0.023	-0.049
-675.164	-198.372	0.228	-0.001
-674.149	2.057	-0.049	0.035
-673.135	57.017	0.155	0.152
-672.120	-45.257	-0.279	0.139
-671.105	800.000	0.011	0.043
-670.091	-144.521	0.483	0.045
-669.076	-177.831	-0.288	-0.007
-668.062	138.770	-0.048	-0.063
-667.047	-57.649	-0.148	-0.065
-666.032	-131.978	0.389	-0.051
-665.018	88.414	-0.106	-0.118
-664.003	121.026	0.176	-0.219
-662.989	19.139	0.166	-0.133
-661.974	-21.866	-0.181	0.110
-660.959	51.021	-0.244	-0.232
-659.945	-129.435	-0.249	0.035
-658.930	-200.000	-0.039	0.229
-657.916	14.249	0.240	0.187
-656.901	-37.856	0.155	0.082
-655.886	800.000	0.090	-0.347
-654.872	-35.438	-0.152	-0.083
-653.857	106.819	0.069	-0.082
-652.843	-103.672	-0.256	-0.060
-651.828	-200.000	0.016	-0.119
-650.814	-154.142	-0.254	0.017
-649.799	-200.000	-0.025	-0.184
-648.784	800.000	-0.093	-0.297
-647.770	276.459	0.162	-0.288
-646.755	-66.811	-0.469	-0.186
-645.741	-58.789	0.246	-0.107
-644.726	-1.116	0.118	0.083
-643.711	486.656	-0.050	-0.114
-642.697	425.317	-0.044	0.094
-641.682	-200.000	-0.025	-0.223
-640.668	52.136	-0.113	0.108
-639.653	-22.032	0.185	-0.112
-638.638	800.000	0.116	0.365
-637.624	95.721	-0.272	0.311
-636.609	800.000	-0.051	-0.147
-635.595	3.573	0.120	-0.087
-634.580	169.336	-0.112	-0.160
-633.565	655.155	0.091	0.233
-632.551	35.684	-0.154	-0.136
-631.536	-49.952	-0.156	-0.074
-630.522	117.091	0.154	-0.189
-629.507	800.000	-0.063	0.200
-628.492	-200.000	-0.025	0.128
-627.478	-58.026	0.194	-0.085
-626.463	-94.235	0.245	-0.067
-625.449	-2.348	0.191	0.134
-624.434	-67.454	-0.088	0.035
-623.419	-51.153	-0.029	0.014
-622.405	7.586	0.168	-0.125
-621.390	33.269	0.181	0.157
-620.376	132.799	-0.010	-0.013
-619.361	-117.521	0.193	0.035
-618.346	437.238	0.083	-0.181
-617.332	186.572	-0.155	-0.231
-616.317	305.569	0.097	0.180
-615.303	-38.007	-0.150	-0.079
-614.288	-141.525	-0.179	-0.018
-613.273	-200.000	-0.029	-0.200
-612.259	-150.279	-0.369	0.028
-611.244	800.000	-0.018	-0.061
-610.230	-47.819	0.089	0.043
-609.215	800.000	-0.031	-0.116
-608.201	800.000	-0.077	-0.261
-607.186	122.999	-0.116	0.146
-606.171	-78.119	0.413	0.142
-605.157	348.582	0.047	0.093
-604.142	-110.365	0.234	0.049
-603.128	25.425	-0.156	0.129
-602.113	454.490	-0.064	0.142
-601.098	-7.648	-0.193	0.130
-600.084	-137.035	0.231	0.026
-599.069	-61.940	0.181	-0.075
-598.055	-52.083	0.312	-0.145
-597.040	40.931	0.132	0.119
-596.025	-37.392	-0.194	0.104
-595.011	800.000	-0.007	0.026
-593.996	-75.700	-0.192	0.068
-592.982	-134.550	0.033	0.004
-591.967	800.000	-0.010	-0.039
-590.952	-108.106	0.105	0.023
-589.938	-180.504	0.186	-0.004
-588.923	5.994	0.187	0.138
-587.909	236.039	-0.088	0.145
-586.894	33.573	0.188	-0.163
-585.879	-89.916	-0.163	0.047
-584.865	-176.060	0.124	-0.003
-583.850	686.960	0.028	0.074
-582.836	-200.000	0.017	-0.181
-581.821	-185.818	0.141	0.002
-580.806	800.000	0.079	0.290
-579.792	526.834	-0.051	-0.121
-578.777	153.291	0.199	-0.272
-577.763	-27.367	0.300	-0.175
-576.748	-200.000	-0.006	-0.195
-575.733	-34.617	-0.213	-0.116
-574.719	-103.237	-0.185	0.044
-573.704	-89.378	-0.150	-0.044
-572.690	513.555	-0.141	-0.329
-571.675	-200.000	-0.001	-0.108
-570.661	-149.215	0.262	-0.021
-569.646	211.853	-0.214	0.337
-568.631	-200.000	-0.008	-0.135
-567.617	-200.000	-0.019	0.316
-566.602	21.850	-0.165	0.134
-565.588	-200.000	0.066	-0.323
-564.573	-130.314	-0.179	-0.024
-563.558	-23.051	-0.394	-0.237
-562.544	-200.000	-0.013	0.066
-561.529	506.851	-0.104	-0.242
-560.515	800.000	-0.040	0.130
-559.500	800.000	-0.012	-0.036
-558.485	-127.797	-0.269	0.039
-557.471	-200.000	0.035	0.166
-556.456	88.962	0.170	-0.189
-555.442	-200.000	0.039	0.274
-554.427	800.000	0.087	0.281
-553.412	-200.000	-0.042	0.293
-552.398	-111.131	-0.128	-0.026
-551.383	-120.459	-0.299	0.051
-550.369	-200.000	0.007	-0.032
-549.354	-38.255	0.117	0.062
-548.339	31.435	-0.069	0.059
-547.325	-200.000	0.002	-0.103
-546.310	280.648	-0.054	-0.096
-545.296	-96.520	0.055	0.014
-544.281	28.517	0.135	0.114
-543.266	768.065	-0.127	-0.343
-542.252	1.982	-0.305	-0.219
-541.237	398.195	0.031	0.065
-540.223	-83.618	-0.211	0.067
-539.208	4.855	0.181	-0.133
-538.193	-79.123	-0.168	-0.057
-537.179	800.000	-0.099	0.350
-536.164	264.311	0.137	0.238
-535.150	32.806	-0.111	-0.095
-534.135	-107.363	0.275	-0.060
-533.121	29.911	-0.256	0.218
-532.106	-200.000	0.018	0.218
-531.091	-200.000	-0.081	-0.380
-530.077	175.231	0.261	-0.377
-529.062	44.444	0.199	-0.182
-528.048	98.749	-0.143	0.164
-527.033	-129.282	-0.249	0.035
-526.018	-32.670	-0.218	0.121
-525.004	434.271	0.080	-0.172
-523.989	56.809	0.131	-0.127
-522.975	800.000	0.099	-0.383
-521.960	-200.000	0.016	-0.272
-520.945	-67.470	-0.201	-0.079
-519.931	-200.000	-0.015	-0.227
-518.916	564.432	-0.058	0.140
-517.902	800.000	0.010	-0.031
-516.887	-56.948	-0.261	0.115
-515.872	-176.342	-0.389	-0.010
-514.858	-43.048	-0.237	-0.120
-513.843	95.802	0.090	-0.102
-512.829	-72.656	0.419	0.154
-511.814	24.799	0.086	-0.071
-510.799	102.530	0.178	0.207
-509.785	33.136	-0.056	0.048
-508.770	-11.402	-0.074	0.049
-507.756	196.264	-0.013	-0.019
-506.741	63.542	-0.077	-0.077
-505.726	-41.087	0.223	-0.115
-504.712	-44.078	-0.134	0.067
-503.697	800.000	0.084	-0.294
-502.683	-179.256	-0.234	-0.005
-501.668	206.640	0.071	0.111
-500.653	-14.553	0.106	-0.068
-499.639	253.279	0.090	0.153
-498.624	-30.785	-0.321	0.181
-497.610	16.375	-0.056	0.044
-496.595	-200.000	0.013	-0.124
-495.581	482.082	-0.109	-0.246
-494.566	172.534	0.160	-0.229
-493.551	186.117	-0.100	-0.148
-492.537	-127.574	-0.175	0.025
-491.522	-102.953	0.138	0.033
-490.508	-200.000	-0.003	-0.145
-489.493	279.733	-0.071	0.127
-488.478	-149.510	-0.126	0.010
-487.464	-46.655	0.192	0.094
-486.449	-200.000	-0.041	0.319
-485.435	-200.000	0.038	0.220
-484.420	351.096	-0.088	-0.173
-483.405	-169.650	-0.111	0.004
-482.391	98.225	-0.231	0.264
-481.376	69.418	-0.104	-0.106
-480.362	664.857	0.087	-0.224
-479.347	359.501	0.098	-0.195
-478.332	49.602	-0.103	0.097
-477.318	218.793	-0.067	0.106
-476.303	-54.376	-0.273	0.123
-475.289	-200.000	-0.006	-0.089
-474.274	-117.703	-0.028	-0.005
-473.259	150.708	0.011	0.015
-472.245	16.272	-0.134	-0.105
-471.230	-200.000	-0.012	0.089
-470.216	-200.000	-0.003	-0.202
-469.201	-35.709	-0.256	0.138
-468.186	16.836	0.081	0.064
-467.172	-44.859	0.326	-0.162
-466.157	-176.096	0.118	-0.003
-465.143	-34.469	-0.281	0.153
-464.128	-175.857	0.183	-0.005
-463.113	363.843	-0.204	-0.407
-462.099	-148.373	0.053	0.004
-461.084	5.845	-0.187	-0.137
-460.070	504.872	-0.125	0.287
-459.055	27.445	-0.074	-0.062
-458.040	-17.074	0.121	0.076
-457.026	-88.690	-0.580	0.171
-456.011	-85.834	-0.177	0.054
-454.997	97.817	-0.115	-0.131
-453.982	61.140	0.185	-0.182
-452.968	170.725	-0.106	0.150
-451.953	-69.313	-0.213	0.081
-450.938	-200.000	-0.012	0.083
-449.924	-161.890	0.171	0.009
-448.909	-58.728	-0.260	0.112
-447.895	10.251	0.216	-0.163
-446.880	67.434	-0.134	0.136
-445.865	170.699	0.105	0.150
-444.851	800.000	0.070	-0.213
-443.836	95.220	0.216	0.245
-442.822	-99.128	-0.199	0.050
-441.807	617.680	0.075	-0.186
-440.792	800.000	-0.045	0.131
-439.778	-200.000	-0.047	0.300
-438.763	-46.393	0.294	-0.144
-437.749	-200.000	0.023	-0.130
-436.734	-105.860	0.050	0.011
-435.719	67.383	0.079	0.080
-434.705	-200.000	-0.026	0.138
-433.690	-200.000	0.022	0.173
-432.676	-147.473	0.117	-0.010
-431.661	47.683	0.221	-0.204
-430.646	-74.536	0.336	0.120
-429.632	42.730	-0.152	-0.138
-428.617	-81.891	-0.443	0.144
-427.603	628.206	-0.076	0.192
-426.588	-200.000	0.057	0.291
-425.573	54.140	-0.054	-0.051
-424.559	-133.726	-0.181	0.022
-423.544	242.714	-0.124	-0.205
-422.530	-200.000	0.023	0.272
-421.515	746.485	0.048	0.128
-420.500	298.362	0.163	0.297
-419.486	-200.000	0.015	0.317
-418.471	792.068	-0.051	0.140
-417.457	-115.749	0.489	-0.091
-416.442	-43.825	-0.194	-0.097
-415.428	58.597	-0.152	-0.148
-414.413	-140.301	0.316	0.033
-413.398	58.080	-0.222	0.216
-412.384	-172.626	-0.427	0.013
-411.369	-2.689	0.286	0.199
-410.355	-118.065	-0.240	-0.043
-409.340	-27.187	0.172	-0.100
-408.325	800.000	0.058	-0.213
-407.311	287.363	0.126	0.225
-406.296	-46.208	0.432	-0.211
-405.282	278.859	0.075	0.133
-404.267	306.742	0.047	0.088
-403.252	800.000	-0.100	-0.371
-402.238	142.008	0.216	0.285
-401.223	800.000	-0.088	-0.353
-400.209	-49.637	0.151	0.071
-399.194	79.418	0.346	-0.368
-398.179	151.475	0.176	-0.237
-397.165	122.857	-0.155	-0.193
-396.150	-50.047	0.266	-0.125
-395.136	115.648	0.079	-0.095
-394.121	606.334	-0.181	0.447
-393.106	-11.511	-0.483	0.315
-392.092	-73.348	0.372	0.135
-391.077	5.130	-0.048	-0.035
-390.063	276.046	-0.134	0.235
-389.048	-2.671	0.029	-0.020
-388.033	-48.289	0.209	-0.100
-387.019	365.391	-0.046	0.092
-386.004	-118.511	0.063	-0.011
-384.990	-45.242	0.287	0.141
-383.975	729.943	0.092	-0.244
-382.960	27.216	-0.087	0.072
-381.946	534.761	0.041	-0.097
-380.931	89.216	0.148	-0.163
-379.917	-200.000	-0.003	-0.042
-378.902	-47.502	0.070	-0.033
-377.888	-9.557	-0.312	0.206
-376.873	77.104	0.137	-0.144
-375.858	800.000	-0.046	0.159
-374.844	34.801	-0.135	-0.117
-373.829	-200.000	0.070	-0.311
-372.815	800.000	0.073	-0.299
-371.800	34.713	-0.217	-0.188
-370.785	12.786	-0.070	-0.054
-369.771	-105.977	0.260	-0.058
-368.756	209.952	-0.092	0.143
-367.742	-200.000	0.029	0.197
-366.727	-92.527	-0.312	-0.087
-365.712	279.242	0.099	-0.175
-364.698	-154.056	-0.320	0.022
-363.683	800.000	-0.090	-0.290
-362.669	35.888	0.073	-0.063
-361.654	-194.053	-0.090	0.001
-360.639	428.648	0.155	0.332
-359.625	74.920	0.142	0.148
-358.610	161.477	0.109	0.151
-357.596	520.006	0.034	0.078
-356.581	52.912	-0.213	0.202
-355.566	-76.083	-0.214	-0.075
-354.552	-93.994	-0.095	-0.026
-353.537	46.515	0.217	0.199
-352.523	800.000	0.085	-0.240
-351.508	164.175	-0.104	-0.145
-350.493	109.729	0.183	0.217
-349.479	103.120	-0.084	-0.098
-348.464	-108.800	0.158	0.033
-347.450	800.000	-0.133	0.403
-346.435	173.878	0.147	0.210
-345.420	-144.354	-0.282	0.026
-344.406	-200.000	-0.009	0.350
-343.391	104.346	-0.025	0.029
-342.377	-126.233	-0.078	0.012
-341.362	-67.944	0.177	0.069
-340.348	242.953	-0.021	0.034
-339.333	-102.684	-0.108	-0.026
-338.318	-200.000	-0.051	0.317
-337.304	21.735	-0.107	-0.086
-336.289	325.882	0.008	-0.016
-335.275	-38.019	0.240	-0.126
-334.260	-36.898	-0.474	-0.251
-333.245	-200.000	-0.021	0.220
-332.231	800.000	0.026	-0.096
-331.216	-15.633	0.246	0.155
-330.202	138.308	-0.019	-0.024
-329.187	-73.876	-0.114	-0.041
-328.172	33.955	0.047	-0.041
-327.158	-200.000	-0.025	-0.328
-326.143	54.909	0.036	-0.035
-325.129	-77.083	0.258	-0.089
-324.114	-200.000	0.003	-0.190
-323.099	-176.005	0.227	-0.006
-322.085	419.412	-0.173	0.367
-321.070	8.324	-0.564	-0.419
-320.056	-148.162	0.158	0.013
-319.041	249.496	0.078	0.130
-318.026	-200.000	0.086	0.000
-317.012	800.000	-0.034	-0.109
-315.997	-68.344	0.254	0.097
-314.983	15.609	-0.229	0.178
-313.968	-200.000	-0.007	0.467
-312.953	-48.525	-0.271	0.129
-311.939	158.761	0.077	-0.106
-310.924	-27.297	-0.138	0.080
-309.910	338.492	0.024	-0.045
-308.895	591.623	0.068	-0.166
-307.880	800.000	-0.032	-0.121
-306.866	-77.019	0.145	0.050
-305.851	800.000	0.030	-0.108
-304.837	320.484	-0.115	-0.215
-303.822	406.287	0.054	0.113
-302.807	800.000	0.009	-0.034
-301.793	30.750	-0.055	0.046
-300.778	88.252	0.129	0.141
-299.764	228.272	-0.042	-0.067
-298.749	-7.923	-0.030	-0.020
-297.735	71.613	0.131	0.134
-296.720	800.000	-0.093	-0.347
-295.705	-89.183	0.257	0.075
-294.691	800.000	0.047	0.147
-293.676	-89.190	0.123	0.036
-292.662	-48.354	-0.108	-0.051
-291.647	800.000	0.073	0.293
-290.632	-89.999	-0.233	0.067
-289.618	-200.000	0.003	-0.058
-288.603	40.333	0.282	0.251
-287.589	-200.000	0.067	-0.308
-286.574	-200.000	0.029	-0.478
-285.559	146.775	-0.086	-0.114
-284.545	-200.000	-0.016	-0.112
-283.530	-200.000	0.059	0.273
-282.516	-200.000	-0.026	-0.284
-281.501	-11.678	-0.194	-0.126
-280.486	800.000	0.031	0.130
-279.472	800.000	0.017	0.070
-278.457	-151.174	0.299	0.022
-277.443	34.460	0.128	0.110
-276.428	-200.000	0.017	0.303
-275.413	-200.000	0.043	0.295
-274.399	800.000	0.134	-0.491
-273.384	304.014	-0.081	0.149
-272.370	482.229	0.043	0.096
-271.355	75.081	0.134	0.139
-270.340	800.000	0.093	0.394
-269.326	-53.737	0.234	-0.105
-268.311	359.546	0.077	-0.152
-267.297	23.880	0.260	-0.211
-266.282	40.857	0.074	-0.066
-265.267	548.534	0.077	-0.182
-264.253	62.322	-0.198	0.195
-263.238	-120.334	-0.311	0.052
-262.224	335.871	0.130	0.250
-261.209	-51.889	0.270	0.124
-260.195	-64.566	0.340	0.136
-259.180	34.176	-0.073	-0.063
-258.165	677.257	0.009	-0.022
-257.151	-21.186	0.251	0.151
-256.136	217.756	-0.119	-0.187
-255.122	800.000	0.013	0.058
-254.107	-132.314	-0.114	-0.015
-253.092	800.000	-0.041	0.113
-252.078	-62.662	-0.157	0.064
-251.063	-89.907	0.091	0.026
-250.049	110.230	0.106	0.126
-249.034	-140.116	0.331	0.034
-248.019	-51.087	-0.128	-0.059
-247.005	-124.438	0.042	0.006
-245.990	419.311	-0.109	0.230
-244.976	26.694	0.171	0.141
-243.961	140.822	0.090	-0.117
-242.946	-70.675	0.291	-0.109
-241.932	-142.705	0.230	0.022
-240.917	-132.011	-0.306	-0.039
-239.903	-178.301	-0.315	0.007
-238.888	197.379	0.099	-0.149
-237.873	172.774	-0.062	0.088
-236.859	-134.856	-0.226	-0.027
-235.844	-41.738	-0.101	-0.051
-234.830	153.132	0.196	-0.264
-233.815	18.015	-0.098	-0.077
-232.800	-200.000	-0.002	-0.074
-231.786	800.000	0.096	0.302
-230.771	-101.102	-0.237	0.057
-229.757	0.204	-0.191	0.134
-228.742	-3.530	-0.144	0.099
-227.727	-47.866	0.123	0.059
-226.713	615.174	-0.057	-0.140
-225.698	-120.963	-0.183	-0.030
-224.684	313.458	-0.020	0.037
-223.669	800.000	0.008	0.031
-222.655	-3.146	-0.065	-0.044
-221.640	39.320	0.297	0.262
-220.625	-74.384	-0.168	-0.060
-219.611	-157.338	0.130	0.008
-218.596	-143.411	-0.088	-0.008
-217.582	-200.000	0.029	-0.224
-216.567	123.208	0.281	-0.347
-215.552	-200.000	-0.028	0.402
-214.538	42.284	0.049	0.044
-213.523	-179.867	0.238	0.005
-212.509	-57.609	-0.167	-0.072
-211.494	800.000	0.067	0.246
-210.479	-200.000	0.031	-0.236
-209.465	800.000	0.146	-0.428
-208.450	21.942	0.193	-0.155
-207.436	230.885	0.083	0.134
-206.421	107.406	0.020	-0.023
-205.406	800.000	-0.068	-0.248
-204.392	800.000	-0.059	0.194
-203.377	-158.556	-0.146	-0.008
-202.363	-200.000	-0.004	0.172
-201.348	-9.479	0.252	-0.166
-200.333	-32.768	0.109	-0.060
-199.319	454.692	-0.116	-0.254
-198.304	-88.541	0.087	0.026
-197.290	-200.000	-0.095	0.419
-196.275	104.270	0.077	-0.089
-195.260	-200.000	0.002	0.057
-194.246	-178.624	-0.407	0.009
-193.231	413.186	0.074	-0.156
-192.217	-16.068	0.032	-0.020
-191.202	-14.662	-0.404	0.256
-190.187	713.565	0.081	-0.211
-189.173	-73.589	-0.211	-0.076
-188.158	-36.024	0.148	0.079
-187.144	-200.000	-0.011	-0.303
-186.129	-38.934	0.364	0.188
-185.114	-18.799	-0.298	0.183
-184.100	-200.000	0.004	-0.266
-183.085	-147.115	0.166	-0.014
-182.071	-16.079	-0.103	-0.065
-181.056	623.405	0.090	-0.223
-180.042	-2.984	0.227	0.156
-179.027	-200.000	-0.010	0.270
-178.012	-22.900	0.275	-0.163
-176.998	-200.000	0.025	0.248
-175.983	-52.645	-0.094	0.043
-174.969	-200.000	-0.073	0.325
-173.954	283.830	-0.036	-0.064
-172.939	-172.361	-0.194	0.006
-171.925	97.596	0.077	-0.086
-170.910	-54.348	-0.247	0.110
-169.896	114.781	0.378	-0.453
-168.881	800.000	0.107	-0.306
-167.866	-82.774	-0.244	0.077
-166.852	-78.986	0.203	-0.068
-165.837	-119.162	-0.263	0.045
-164.823	-113.229	0.348	0.067
-163.808	5.214	-0.369	0.268
-162.793	-97.571	0.263	0.067
-161.779	-105.424	-0.151	0.034
-160.764	380.238	0.133	0.268
-159.750	384.747	-0.036	0.073
-158.735	363.209	0.152	-0.301
-157.720	358.063	0.062	-0.121
-156.706	-200.000	0.020	0.155
-155.691	800.000	-0.177	0.523
-154.677	643.518	-0.082	-0.204
-153.662	-2.861	-0.136	-0.094
-152.647	800.000	-0.064	-0.228
-151.633	-200.000	0.017	-0.184
-150.618	800.000	-0.035	-0.130
-149.604	169.435	-0.222	-0.312
-148.589	-111.207	0.154	0.031
-147.574	172.540	-0.108	-0.153
-146.560	-31.136	0.322	-0.178
-145.545	800.000	-0.032	-0.120
-144.531	-69.108	-0.266	-0.101
-143.516	-80.577	-0.028	-0.009
-142.502	351.668	0.096	0.186
-141.487	-119.854	0.319	-0.054
-140.472	-154.655	-0.232	0.015
-139.458	-99.376	-0.314	0.078
-138.443	-200.000	-0.010	0.097
-137.429	-8.157	0.133	0.088
-136.414	-3.464	-0.099	-0.067
-135.399	792.829	-0.090	-0.242
-134.385	-200.000	-0.019	-0.184
-133.370	-58.496	-0.205	-0.087
-132.356	46.982	0.122	0.112
-131.341	201.023	0.180	-0.272
-130.326	516.693	0.140	0.321
-129.312	157.945	0.140	-0.190
-128.297	-200.000	0.008	0.064
-127.283	521.917	-0.122	-0.282
-126.268	-43.755	-0.130	-0.064
-125.253	-75.391	0.259	-0.090
-124.239	119.946	0.160	-0.194
-123.224	-200.000	0.022	0.096
-122.210	179.176	-0.107	0.153
-121.195	48.417	-0.216	-0.198
-120.180	-36.788	0.347	-0.183
