DTS Sentinel unit serial number:	SN413079Multiplexer serial number:	ORYXHardware model number:	OX4-SRSoftware version number:	ORYX F/W v4.00 Oryx Data Collector v3.7.2.0data status	okinstallation	princeton_trtdifferential loss correction	single-endedforward channel	channel 2reverse channel	N/Adate	2019/09/18time	23:03:35forward acquisition time	60.00reverse acquisition time	0.00gamma	496.2192k internal	0.2349k external	0.2349temperature offset calibration	1.0021default loss term (dB/km)	0.3790temperature slope calibration	1.0000multiplexer offset coefficient	1.0000multiplexer slope coefficient	1.0000fibre end	0.00T internal ref (°C)	24.00T ext. ref 1 (°C)	0.79T ext. ref 2 (°C)	17.89length (m)	temperature (°C)	Stokes	anti-Stokes-747.200	-5.336	0.115	-0.079
-746.185	-200.000	0.035	0.379
-745.171	138.182	0.049	-0.065
-744.156	-200.000	0.064	0.390
-743.142	638.295	0.084	-0.214
-742.127	-40.045	-0.295	0.153
-741.112	448.401	-0.146	-0.321
-740.098	157.096	-0.053	0.074
-739.083	-77.308	-0.084	0.029
-738.069	-200.000	0.013	0.128
-737.054	-94.027	-0.292	0.080
-736.039	-200.000	0.094	-0.573
-735.025	178.020	-0.232	0.338
-734.010	17.798	-0.417	-0.332
-732.996	40.078	0.088	-0.079
-731.981	800.000	0.078	0.291
-730.966	-56.254	-0.285	0.127
-729.952	800.000	0.016	-0.060
-728.937	-200.000	0.006	-0.326
-727.923	41.378	-0.085	-0.077
-726.908	81.428	-0.266	0.287
-725.894	482.854	-0.120	-0.272
-724.879	-200.000	-0.047	-0.309
-723.864	-50.586	0.333	0.157
-722.850	159.017	0.206	-0.286
-721.835	-200.000	-0.025	-0.162
-720.821	-142.551	-0.115	0.011
-719.806	57.100	-0.032	0.031
-718.791	800.000	-0.081	-0.235
-717.777	-200.000	0.019	0.176
-716.762	-79.032	0.201	0.068
-715.748	800.000	-0.105	0.296
-714.733	768.498	0.085	-0.231
-713.718	-109.882	-0.148	-0.031
-712.704	191.050	-0.166	-0.249
-711.689	-9.066	0.205	-0.137
-710.675	-119.925	-0.474	-0.081
-709.660	-142.719	0.265	0.026
-708.645	-161.484	-0.519	0.027
-707.631	800.000	0.056	0.243
-706.616	-163.486	0.080	0.004
-705.602	81.035	0.140	0.151
-704.587	-30.724	0.155	-0.088
-703.572	-98.391	0.126	-0.032
-702.558	-50.112	-0.191	-0.090
-701.543	677.734	0.050	-0.129
-700.529	143.450	0.145	-0.193
-699.514	59.551	0.026	0.026
-698.499	419.964	-0.082	-0.175
-697.485	800.000	0.026	-0.084
-696.470	-59.622	-0.166	-0.071
-695.456	-200.000	0.051	0.343
-694.441	-40.521	-0.287	-0.148
-693.426	-29.946	0.112	0.064
-692.412	800.000	-0.036	0.108
-691.397	800.000	0.054	-0.180
-690.383	202.277	0.022	0.034
-689.368	800.000	-0.006	0.027
-688.354	-49.280	0.349	-0.166
-687.339	43.545	-0.232	0.211
-686.324	-120.115	-0.291	0.050
-685.310	-39.229	-0.206	0.108
-684.295	251.796	0.157	-0.267
-683.281	126.706	0.106	-0.134
-682.266	197.098	0.065	0.099
-681.251	-200.000	-0.002	-0.130
-680.237	231.290	0.123	0.200
-679.222	-115.578	-0.174	-0.033
-678.208	800.000	-0.101	-0.283
-677.193	-200.000	-0.003	-0.256
-676.178	-71.928	-0.289	-0.107
-675.164	-139.527	0.357	-0.038
-674.149	800.000	-0.026	-0.108
-673.135	-13.922	-0.128	0.082
-672.120	-22.208	-0.171	0.103
-671.105	536.066	-0.036	-0.085
-670.091	355.376	-0.146	-0.290
-669.076	-61.297	0.161	0.068
-668.062	-71.916	-0.388	-0.144
-667.047	-200.000	-0.012	-0.354
-666.032	800.000	-0.069	-0.281
-665.018	740.941	-0.044	0.116
-664.003	-75.572	-0.188	-0.067
-662.989	-166.830	-0.327	-0.013
-661.974	800.000	0.027	-0.084
-660.959	-15.678	0.106	0.067
-659.945	-141.986	0.361	-0.036
-658.930	283.832	-0.165	-0.295
-657.916	225.665	0.083	-0.134
-656.901	-108.124	0.025	0.005
-655.886	-3.347	0.274	-0.190
-654.872	-24.571	0.137	-0.081
-653.857	210.392	0.082	0.128
-652.843	-200.000	-0.010	0.207
-651.828	-68.848	0.071	0.027
-650.814	163.643	-0.166	-0.232
-649.799	5.829	-0.040	0.029
-648.784	-69.358	-0.136	0.052
-647.770	-20.688	-0.282	0.172
-646.755	-200.000	0.054	0.427
-645.741	-50.088	-0.101	0.048
-644.726	8.020	0.205	-0.153
-643.711	74.549	0.149	0.156
-642.697	76.549	-0.210	0.222
-641.682	-62.920	-0.085	-0.035
-640.668	73.599	-0.025	0.026
-639.653	800.000	0.071	-0.272
-638.638	-200.000	-0.022	-0.243
-637.624	112.149	0.105	0.126
-636.609	800.000	-0.051	-0.154
-635.595	-99.852	0.198	-0.049
-634.580	184.265	-0.213	-0.313
-633.565	-200.000	0.005	-0.115
-632.551	-101.259	0.251	0.061
-631.536	-154.851	-0.376	-0.025
-630.522	-77.496	0.336	0.116
-629.507	83.809	0.080	-0.087
-628.492	-2.739	0.225	0.156
-627.478	12.896	-0.400	0.307
-626.463	26.911	0.165	-0.137
-625.449	-37.858	0.305	-0.161
-624.434	-200.000	-0.004	-0.028
-623.419	-100.449	-0.369	0.091
-622.405	-13.318	0.186	-0.120
-621.390	461.768	0.023	-0.051
-620.376	-200.000	-0.034	-0.446
-619.361	-61.548	0.314	-0.131
-618.346	-200.000	-0.005	-0.127
-617.332	-14.239	0.104	-0.066
-616.317	-200.000	0.043	0.243
-615.303	800.000	-0.114	0.319
-614.288	-106.838	0.096	-0.021
-613.273	-23.821	0.126	-0.075
-612.259	-200.000	0.040	-0.179
-611.244	261.913	0.235	-0.404
-610.230	537.236	-0.126	-0.298
-609.215	-123.052	0.270	-0.043
-608.201	133.114	-0.186	-0.239
-607.186	-77.063	0.032	0.011
-606.171	-86.113	0.083	-0.026
-605.157	-200.000	-0.011	0.068
-604.142	-120.193	0.145	0.025
-603.128	212.454	-0.083	-0.130
-602.113	-87.245	0.390	0.118
-601.098	-128.381	-0.043	-0.006
-600.084	-14.610	-0.122	0.078
-599.069	66.060	-0.142	0.143
-598.055	800.000	-0.146	0.473
-597.040	800.000	-0.093	-0.264
-596.025	121.018	0.105	0.129
-595.011	402.906	-0.142	-0.297
-593.996	800.000	0.008	-0.027
-592.982	186.426	0.089	0.131
-591.967	-94.117	-0.424	-0.115
-590.952	-91.312	-0.185	0.052
-589.938	184.275	0.088	-0.129
-588.923	-81.530	-0.139	-0.045
-587.909	-81.913	-0.212	-0.069
-586.894	80.988	-0.073	0.079
-585.879	-173.549	0.057	0.002
-584.865	-138.673	-0.167	-0.018
-583.850	800.000	-0.045	0.126
-582.836	116.611	-0.348	-0.424
-581.821	-46.267	0.163	0.080
-580.806	157.540	-0.060	-0.082
-579.792	33.533	0.193	0.167
-578.777	-200.000	0.056	0.434
-577.763	15.570	-0.216	0.168
-576.748	-5.647	-0.210	-0.143
-575.733	38.678	0.239	-0.212
-574.719	431.895	-0.106	0.228
-573.704	-100.427	-0.178	-0.044
-572.690	306.016	-0.180	0.333
-571.675	-49.405	-0.400	0.189
-570.661	51.759	-0.097	0.091
-569.646	-194.679	-0.220	0.002
-568.631	296.831	-0.048	-0.088
-567.617	57.396	0.197	-0.191
-566.602	30.023	-0.124	0.105
-565.588	-65.387	0.246	0.098
-564.573	-68.538	-0.558	-0.214
-563.558	85.345	0.086	0.093
-562.544	720.548	0.045	0.119
-561.529	450.287	0.048	0.104
-560.515	-99.383	0.290	-0.072
-559.500	51.721	0.010	0.010
-558.485	-89.232	-0.295	-0.086
-557.471	-200.000	-0.032	-0.142
-556.456	800.000	0.077	0.237
-555.442	379.299	0.120	-0.244
-554.427	-33.671	-0.106	0.058
-553.412	-200.000	-0.024	-0.260
-552.398	439.712	0.189	-0.410
-551.383	-137.512	-0.174	-0.019
-550.369	271.241	0.018	0.032
-549.354	800.000	-0.009	0.033
-548.339	284.614	-0.138	-0.247
-547.325	329.027	-0.164	-0.312
-546.310	-185.386	-0.101	-0.002
-545.296	279.505	0.133	0.234
-544.281	-128.403	0.208	0.029
-543.266	-41.093	-0.069	0.035
-542.252	83.553	-0.195	0.211
-541.237	-200.000	-0.015	-0.316
-540.223	0.806	0.080	0.057
-539.208	-44.660	0.038	-0.019
-538.193	107.375	-0.096	0.113
-537.179	-30.441	-0.164	0.092
-536.164	153.037	-0.104	0.141
-535.150	-200.000	0.016	0.206
-534.135	67.839	0.062	0.063
-533.121	6.148	0.215	0.158
-532.106	-200.000	0.010	-0.051
-531.091	277.772	0.125	0.220
-530.077	-28.501	-0.169	-0.096
-529.062	-129.420	-0.223	0.031
-528.048	734.718	0.123	-0.326
-527.033	495.942	0.043	-0.097
-526.018	-200.000	0.053	0.321
-525.004	-200.000	-0.024	0.219
-523.989	143.416	-0.014	0.018
-522.975	-111.372	0.175	0.035
-521.960	183.520	-0.061	0.090
-520.945	-47.272	0.230	0.111
-519.931	-200.000	0.029	-0.155
-518.916	-131.137	-0.113	0.015
-517.902	800.000	0.048	-0.154
-516.887	-84.343	-0.203	-0.064
-515.872	-97.171	0.056	-0.014
-514.858	-60.964	0.129	0.054
-513.843	66.901	-0.175	0.176
-512.829	-200.000	-0.018	-0.136
-511.814	-200.000	0.024	-0.120
-510.799	87.948	0.131	-0.144
-509.785	53.484	0.239	-0.226
-508.770	-140.729	-0.153	-0.016
-507.756	-71.695	0.308	-0.114
-506.741	106.844	0.144	0.169
-505.726	800.000	0.023	-0.098
-504.712	-200.000	0.006	-0.450
-503.697	768.285	-0.075	0.202
-502.683	-43.032	0.294	0.148
-501.668	-200.000	-0.059	-0.391
-500.653	95.665	-0.168	-0.190
-499.639	-100.872	0.178	0.043
-498.624	211.167	-0.135	0.210
-497.610	-200.000	0.000	0.204
-496.595	35.775	0.350	-0.304
-495.581	28.497	0.024	0.020
-494.566	-200.000	-0.004	0.089
-493.551	-1.222	-0.167	-0.117
-492.537	-93.334	-0.362	-0.099
-491.522	-182.840	0.347	0.006
-490.508	-16.833	-0.182	-0.114
-489.493	800.000	0.110	-0.425
-488.478	-33.363	0.265	0.145
-487.464	60.072	0.108	0.106
-486.449	-143.265	0.263	0.025
-485.435	-200.000	0.024	0.410
-484.420	183.283	-0.159	0.232
-483.405	-103.310	0.319	0.074
-482.391	-77.784	0.329	-0.112
-481.376	-200.000	0.032	0.158
-480.362	794.074	0.068	0.186
-479.347	405.481	0.112	-0.233
-478.332	-142.146	-0.084	-0.008
-477.318	-92.601	-0.298	0.083
-476.303	-200.000	0.025	-0.193
-475.289	297.421	-0.219	0.398
-474.274	-94.120	0.131	0.036
-473.259	-200.000	0.003	-0.114
-472.245	59.505	0.069	-0.067
-471.230	308.266	-0.194	0.358
-470.216	53.392	0.311	0.295
-469.201	-46.257	0.135	-0.066
-468.186	51.658	0.056	0.053
-467.172	-200.000	0.003	-0.019
-466.157	20.244	0.158	-0.126
-465.143	34.443	-0.219	-0.189
-464.128	-63.979	0.120	0.049
-463.113	-200.000	-0.018	-0.139
-462.099	-136.711	-0.376	0.043
-461.084	-200.000	0.034	-0.263
-460.070	-60.856	-0.135	-0.056
-459.055	-37.148	0.258	0.136
-458.040	-200.000	0.001	-0.266
-457.026	-17.150	0.202	0.126
-456.011	-85.171	0.248	0.076
-454.997	-200.000	0.036	0.186
-453.982	8.182	-0.233	0.173
-452.968	141.853	0.093	0.122
-451.953	-126.896	-0.465	0.068
-450.938	-105.907	0.308	0.068
-449.924	-200.000	-0.058	-0.343
-448.909	108.274	-0.179	-0.211
-447.895	-54.055	-0.482	-0.216
-446.880	11.328	0.064	-0.048
-445.865	-108.732	-0.387	0.082
-444.851	50.998	-0.093	-0.087
-443.836	-200.000	-0.033	-0.177
-442.822	800.000	0.109	-0.330
-441.807	-78.463	-0.320	0.108
-440.792	-200.000	-0.026	0.378
-439.778	-113.853	-0.334	0.064
-438.763	196.041	-0.051	-0.076
-437.749	74.509	0.214	-0.222
-436.734	40.050	0.187	-0.166
-435.719	-86.807	0.279	0.084
-434.705	-13.854	0.275	-0.175
-433.690	126.752	0.106	0.133
-432.676	-200.000	-0.012	-0.054
-431.661	-61.873	0.130	0.053
-430.646	-106.273	-0.221	-0.049
-429.632	-3.982	0.288	0.197
-428.617	800.000	-0.111	0.321
-427.603	330.060	0.132	0.251
-426.588	-34.551	-0.150	-0.081
-425.573	-200.000	-0.039	0.334
-424.559	94.335	-0.240	-0.269
-423.544	-200.000	0.002	-0.021
-422.530	271.882	0.050	-0.087
-421.515	231.504	-0.159	0.257
-420.500	33.872	-0.018	-0.015
-419.486	52.348	0.117	0.110
-418.471	800.000	0.028	-0.093
-417.457	-134.953	-0.215	-0.026
-416.442	57.942	0.361	-0.348
-415.428	-35.616	-0.351	-0.188
-414.413	-72.758	-0.250	-0.091
-413.398	-200.000	0.001	-0.144
-412.384	800.000	0.062	-0.174
-411.369	328.789	-0.010	0.019
-410.355	-84.235	0.333	-0.104
-409.340	800.000	0.058	0.204
-408.325	800.000	-0.131	0.392
-407.311	13.227	-0.166	0.127
-406.296	332.015	0.076	-0.145
-405.282	271.181	-0.141	0.245
-404.267	-116.028	-0.363	-0.067
-403.252	42.163	-0.107	-0.096
-402.238	-134.528	0.104	-0.013
-401.223	67.265	0.087	-0.088
-400.209	-133.558	-0.234	0.029
-399.194	7.072	0.134	0.099
-398.179	-200.000	-0.002	0.176
-397.165	317.909	0.055	-0.103
-396.150	-114.338	-0.228	-0.043
-395.136	123.467	-0.109	0.135
-394.121	110.266	-0.208	0.246
-393.106	11.521	-0.338	-0.256
-392.092	83.006	-0.114	-0.122
-391.077	90.170	0.158	0.174
-390.063	-200.000	0.049	0.236
-389.048	-200.000	0.019	0.196
-388.033	-200.000	-0.012	0.191
-387.019	270.769	-0.160	0.277
-386.004	800.000	0.115	0.401
-384.990	-11.681	-0.317	0.205
-383.975	-78.872	0.130	-0.043
-382.960	-200.000	-0.011	-0.316
-381.946	-11.018	0.332	0.216
-380.931	-168.705	-0.197	0.007
-379.917	1.565	0.430	0.305
-378.902	149.320	0.105	0.140
-377.888	-83.378	-0.253	-0.080
-376.873	-200.000	-0.008	-0.165
-375.858	-58.190	0.170	0.073
-374.844	800.000	0.116	-0.337
-373.829	-95.329	-0.010	0.003
-372.815	200.374	0.080	-0.122
-371.800	1.989	-0.155	-0.110
-370.785	161.938	0.113	-0.156
-369.771	-31.878	-0.046	0.025
-368.756	6.417	0.130	0.095
-367.742	-169.329	-0.228	0.008
-366.727	205.817	-0.034	-0.052
-365.712	-14.218	0.127	-0.080
-364.698	-133.964	-0.299	0.036
-363.683	-194.872	0.383	0.003
-362.669	-183.361	-0.290	0.005
-361.654	580.284	-0.087	-0.210
-360.639	-198.921	0.153	0.001
-359.625	-140.714	0.224	0.023
-358.610	34.738	-0.078	-0.067
-357.596	-200.000	-0.013	0.203
-356.581	-5.744	0.203	-0.137
-355.566	-145.010	-0.065	-0.006
-354.552	305.864	0.128	0.234
-353.537	-200.000	-0.009	-0.044
-352.523	285.482	-0.058	-0.102
-351.508	354.488	-0.210	-0.410
-350.493	-90.692	0.142	-0.040
-349.479	-139.446	-0.460	-0.048
-348.464	-72.581	0.115	0.042
-347.450	-18.161	0.062	-0.038
-346.435	258.712	-0.121	-0.205
-345.420	323.339	0.010	0.018
-344.406	-102.040	0.246	0.058
-343.391	-82.924	0.161	-0.051
-342.377	-200.000	-0.009	-0.115
-341.362	604.048	-0.174	0.426
-340.348	321.971	0.167	0.313
-339.333	-200.000	-0.016	-0.383
-338.318	-143.927	0.166	-0.015
-337.304	800.000	-0.148	-0.507
-336.289	-28.400	-0.046	0.026
-335.275	14.717	0.138	0.106
-334.260	71.010	-0.228	-0.232
-333.245	-100.358	-0.137	-0.033
-332.231	-122.406	-0.083	0.013
-331.216	-200.000	0.021	0.184
-330.202	-127.551	-0.090	0.013
-329.187	148.814	-0.191	-0.254
-328.172	-114.034	-0.077	-0.015
-327.158	-75.998	0.135	-0.047
-326.143	-185.445	-0.163	0.002
-325.129	31.053	-0.183	0.154
-324.114	285.342	0.161	0.285
-323.099	800.000	-0.032	0.101
-322.085	52.261	-0.035	0.033
-321.070	591.802	-0.078	-0.189
-320.056	167.943	0.064	0.089
-319.041	476.985	0.071	0.158
-318.026	148.981	0.225	0.298
-317.012	-79.511	0.046	-0.015
-315.997	-76.040	0.222	-0.077
-314.983	-19.944	0.063	0.038
-313.968	800.000	0.080	-0.318
-312.953	-135.775	0.146	-0.017
-311.939	-200.000	-0.044	0.366
-310.924	-111.669	0.160	-0.032
-309.910	-86.455	-0.504	0.152
-308.895	-132.840	0.332	0.042
-307.880	492.685	-0.065	-0.146
-306.866	-27.210	0.203	-0.116
-305.851	357.465	0.218	-0.427
-304.837	-200.000	0.020	0.137
-303.822	1.612	-0.149	-0.105
-302.807	-1.894	0.113	0.078
-301.793	-28.781	0.076	-0.043
-300.778	-200.000	0.095	-0.410
-299.764	-200.000	-0.002	-0.044
-298.749	800.000	0.065	-0.257
-297.735	499.495	0.071	0.161
-296.720	-88.184	-0.242	-0.071
-295.705	-128.668	0.182	-0.025
-294.691	195.307	-0.148	-0.221
-293.676	53.799	-0.067	-0.063
-292.662	-77.424	-0.064	0.022
-291.647	270.913	-0.168	0.290
-290.632	80.374	0.122	0.129
-289.618	268.909	0.327	-0.563
-288.603	0.881	0.073	0.051
-287.589	635.060	-0.091	0.226
-286.574	186.809	-0.193	0.282
-285.559	64.094	-0.355	0.351
-284.545	-105.630	-0.172	-0.038
-283.530	-155.066	0.354	-0.023
-282.516	92.286	-0.152	-0.168
-281.501	-176.962	0.286	0.007
-280.486	125.486	-0.044	0.055
-279.472	-200.000	0.005	0.160
-278.457	-63.754	0.374	0.150
-277.443	91.106	0.262	-0.288
-276.428	-200.000	-0.036	-0.176
-275.413	800.000	-0.122	0.353
-274.399	-70.315	0.154	0.057
-273.384	-178.058	-0.169	-0.004
-272.370	42.377	-0.161	0.143
-271.355	-102.421	0.280	-0.066
-270.340	32.833	-0.118	-0.100
-269.326	-200.000	-0.008	-0.279
-268.311	80.846	0.106	-0.112
-267.297	624.009	0.081	0.200
-266.282	-133.684	0.049	0.006
-265.267	21.034	-0.049	-0.039
-264.253	-150.330	0.319	0.024
-263.238	-92.647	0.110	0.030
-262.224	-144.543	-0.045	-0.004
-261.209	51.460	0.221	-0.206
-260.195	702.198	-0.078	-0.202
-259.180	-154.320	-0.300	-0.020
-258.165	-74.703	-0.046	-0.016
-257.151	-200.000	-0.013	-0.116
-256.136	-82.409	0.094	-0.030
-255.122	-95.467	-0.254	-0.067
-254.107	27.953	0.348	0.288
-253.092	139.237	-0.064	-0.083
-252.078	-35.954	0.139	0.074
-251.063	154.967	-0.116	0.156
-250.049	313.339	-0.085	-0.156
-249.034	-11.612	0.219	0.141
-248.019	350.271	-0.038	0.074
-247.005	62.203	0.349	0.341
-245.990	-38.887	0.181	0.093
-244.976	-69.085	-0.135	0.051
-243.961	-104.080	-0.259	0.059
-242.946	2.039	0.123	0.087
-241.932	-200.000	-0.017	0.323
-240.917	-78.706	0.192	-0.064
-239.903	-200.000	-0.048	0.208
-238.888	383.342	0.085	-0.172
-237.873	-109.363	0.106	-0.022
-236.859	98.402	0.220	-0.248
-235.844	-133.014	-0.271	-0.034
-234.830	-200.000	-0.076	-0.359
-233.815	-200.000	-0.062	0.278
-232.800	-108.553	0.222	-0.047
-231.786	800.000	-0.028	-0.108
-230.771	177.734	-0.143	-0.204
-229.757	-46.536	0.268	0.129
-228.742	800.000	0.086	-0.246
-227.727	-192.088	-0.226	-0.002
-226.713	2.683	0.254	0.180
-225.698	498.339	0.089	-0.201
-224.684	-26.137	0.103	-0.059
-223.669	-60.694	0.301	-0.125
-222.655	143.846	-0.122	0.159
-221.640	-200.000	-0.016	0.211
-220.625	205.337	-0.087	0.132
-219.611	800.000	0.080	0.288
-218.596	800.000	-0.060	0.164
-217.582	225.508	0.097	0.154
-216.567	800.000	0.037	-0.147
-215.552	-192.209	0.355	-0.003
-214.538	-200.000	0.006	0.151
-213.523	76.890	-0.270	-0.280
-212.509	-200.000	-0.059	0.270
-211.494	545.413	-0.133	-0.310
-210.479	-16.933	-0.086	0.053
-209.465	-200.000	0.025	-0.252
-208.450	-45.207	-0.028	0.013
-207.436	670.635	-0.120	0.304
-206.421	368.861	0.199	-0.393
-205.406	81.035	0.041	0.043
-204.392	-11.151	-0.247	-0.159
-203.377	84.824	-0.048	0.052
-202.363	40.972	0.082	0.072
-201.348	800.000	0.109	0.355
-200.333	-200.000	-0.053	0.318
-199.319	712.062	-0.067	-0.174
-198.304	-9.401	0.052	-0.034
-197.290	-98.391	-0.016	0.004
-196.275	-200.000	0.070	-0.461
-195.260	26.202	0.326	0.266
-194.246	800.000	0.015	0.048
-193.231	-127.720	0.338	0.048
-192.217	49.653	-0.218	0.201
-191.202	-200.000	-0.003	-0.239
-190.187	355.386	-0.173	-0.337
-189.173	-143.749	0.246	-0.023
-188.158	-31.047	0.222	0.122
-187.144	18.168	0.128	-0.100
-186.129	-79.444	0.280	0.093
-185.114	16.760	-0.204	0.157
-184.100	437.181	-0.131	0.279
-183.085	456.614	0.114	0.248
-182.071	-22.997	-0.279	0.164
-181.056	96.523	-0.100	-0.112
-180.042	48.398	-0.161	0.147
-179.027	-200.000	0.015	0.137
-178.012	6.553	-0.132	0.096
-176.998	-67.193	-0.286	-0.110
-175.983	-186.562	-0.282	-0.004
-174.969	-76.170	-0.297	0.102
-173.954	-171.622	-0.315	-0.010
-172.939	-200.000	-0.040	0.318
-171.925	800.000	0.090	-0.258
-170.910	-200.000	-0.001	-0.120
-169.896	-200.000	0.007	0.122
-168.881	-168.229	0.140	0.005
-167.866	-7.645	-0.060	0.040
-166.852	37.958	-0.161	-0.140
-165.837	800.000	0.047	-0.148
-164.823	122.849	-0.116	0.142
-163.808	-15.822	0.119	-0.074
-162.793	-200.000	0.000	0.119
-161.779	-129.869	-0.409	0.055
-160.764	-64.678	-0.184	0.073
-159.750	54.057	-0.306	-0.287
-158.735	-8.091	0.202	0.133
-157.720	-32.790	-0.099	0.054
-156.706	174.777	0.118	-0.167
-155.691	-200.000	-0.031	-0.206
-154.677	434.749	0.140	-0.297
-153.662	-90.087	0.387	0.110
-152.647	-200.000	-0.006	0.131
-151.633	-32.188	0.255	0.139
-150.618	747.830	0.057	0.151
-149.604	-66.391	-0.148	0.057
-148.589	-112.794	-0.493	-0.095
-147.574	-29.673	-0.138	-0.077
-146.560	16.642	-0.274	0.211
-145.545	-123.041	-0.219	0.034
-144.531	312.508	0.040	0.073
-143.516	-200.000	-0.025	0.117
-142.502	-37.375	0.337	0.176
-141.487	-200.000	-0.000	0.062
-140.472	377.223	-0.185	0.368
-139.458	800.000	0.045	0.152
-138.443	-62.650	0.082	0.033
-137.429	82.077	0.076	0.080
-136.414	-89.046	0.225	-0.065
-135.399	108.511	-0.122	0.142
-134.385	-200.000	-0.023	0.174
-133.370	-113.241	-0.202	0.039
-132.356	-45.823	0.125	0.060
-131.341	-127.788	-0.345	0.049
-130.326	295.364	0.070	0.124
-129.312	238.493	-0.125	0.202
-128.297	-200.000	0.018	0.299
-127.283	800.000	-0.104	0.369
-126.268	800.000	0.061	0.170
-125.253	142.027	-0.180	0.233
-124.239	256.804	-0.021	0.035
-123.224	-22.537	0.246	-0.145
-122.210	-20.731	0.144	0.086
-121.195	297.701	-0.092	-0.165
