DTS Sentinel unit serial number:	SN413079Multiplexer serial number:	ORYXHardware model number:	OX4-SRSoftware version number:	ORYX F/W v4.00 Oryx Data Collector v3.7.2.0data status	okinstallation	princeton_trtdifferential loss correction	single-endedforward channel	channel 2reverse channel	N/Adate	2019/09/16time	08:51:35forward acquisition time	60.00reverse acquisition time	0.00gamma	496.2192k internal	0.2325k external	0.2325temperature offset calibration	0.9971default loss term (dB/km)	0.3790temperature slope calibration	1.0000multiplexer offset coefficient	1.0000multiplexer slope coefficient	1.0000fibre end	0.00T internal ref (°C)	30.06T ext. ref 1 (°C)	12.02T ext. ref 2 (°C)	27.47length (m)	temperature (°C)	Stokes	anti-Stokes-747.200	27.590	-0.319	0.271
-746.185	81.934	0.210	0.229
-745.171	-64.458	0.300	-0.123
-744.156	-173.261	-0.251	0.008
-743.142	-102.661	0.106	-0.025
-742.127	-200.000	-0.014	0.586
-741.112	800.000	-0.086	-0.376
-740.098	-19.823	-0.059	0.036
-739.083	176.447	-0.082	0.120
-738.069	317.854	-0.095	0.181
-737.054	122.629	-0.081	0.103
-736.039	38.333	-0.507	0.455
-735.025	-95.866	0.191	0.051
-734.010	33.705	0.169	-0.149
-732.996	800.000	-0.037	0.121
-731.981	-1.708	0.213	0.151
-730.966	316.619	-0.129	-0.245
-729.952	-12.163	0.140	-0.092
-728.937	11.527	-0.070	0.054
-727.923	-16.732	-0.106	0.067
-726.908	-146.405	0.294	-0.026
-725.894	800.000	0.023	0.093
-724.879	-70.734	-0.241	-0.092
-723.864	-89.770	-0.148	0.044
-722.850	101.876	-0.097	-0.114
-721.835	41.151	-0.254	0.232
-720.821	-34.446	-0.036	-0.020
-719.806	-69.331	-0.161	-0.062
-718.791	-200.000	-0.005	-0.099
-717.777	2.237	-0.078	0.057
-716.762	67.460	-0.095	0.097
-715.748	-200.000	-0.163	0.001
-714.733	-200.000	0.007	-0.108
-713.718	-103.936	-0.227	0.053
-712.704	-200.000	-0.002	0.334
-711.689	264.536	0.116	-0.203
-710.675	232.807	-0.204	-0.338
-709.660	-144.650	0.329	0.031
-708.645	800.000	-0.082	-0.271
-707.631	193.383	0.157	-0.240
-706.616	295.883	0.030	-0.055
-705.602	23.439	-0.138	-0.114
-704.587	138.178	-0.182	0.241
-703.572	-4.200	-0.194	0.135
-702.558	131.980	0.170	0.221
-701.543	30.673	0.092	0.079
-700.529	130.058	-0.113	-0.146
-699.514	-107.728	0.182	-0.040
-698.499	-200.000	-0.008	-0.094
-697.485	177.078	0.102	0.150
-696.470	245.354	0.040	0.067
-695.456	-200.000	0.025	-0.157
-694.441	-97.531	0.502	-0.131
-693.426	41.391	0.211	-0.192
-692.412	111.469	0.036	-0.043
-691.397	-28.865	-0.164	-0.095
-690.383	-110.338	-0.244	-0.051
-689.368	-200.000	-0.010	0.235
-688.354	-20.264	0.090	-0.056
-687.339	-28.192	-0.212	-0.124
-686.324	-164.116	-0.461	0.021
-685.310	800.000	-0.129	0.361
-684.295	-37.446	-0.118	0.063
-683.281	349.921	-0.097	0.194
-682.266	137.307	-0.057	-0.075
-681.251	225.858	0.091	-0.149
-680.237	13.137	0.252	-0.197
-679.222	53.708	-0.144	0.139
-678.208	-102.915	-0.252	0.060
-677.193	-103.876	0.105	0.025
-676.178	-19.658	0.275	-0.171
-675.164	-132.511	-0.036	0.005
-674.149	800.000	-0.049	0.163
-673.135	-133.613	-0.070	-0.009
-672.120	48.494	0.166	-0.157
-671.105	-200.000	-0.047	0.264
-670.091	179.623	-0.046	0.068
-669.076	-100.589	-0.547	0.136
-668.062	216.700	0.125	0.200
-667.047	-200.000	0.055	-0.404
-666.032	120.948	-0.120	0.150
-665.018	800.000	0.051	-0.153
-664.003	-4.041	-0.155	0.108
-662.989	356.529	0.011	0.022
-661.974	-200.000	0.026	-0.387
-660.959	800.000	-0.083	-0.267
-659.945	127.929	-0.151	-0.193
-658.930	-136.539	-0.327	-0.038
-657.916	90.928	0.087	-0.098
-656.901	-36.553	0.010	-0.005
-655.886	-108.833	0.262	0.056
-654.872	-40.117	-0.237	0.124
-653.857	-200.000	-0.003	0.209
-652.843	-200.000	0.003	0.343
-651.828	-198.698	0.299	-0.002
-650.814	389.267	0.123	0.255
-649.799	-18.238	-0.346	-0.217
-648.784	253.696	0.052	-0.089
-647.770	-126.355	0.187	0.028
-646.755	-115.108	0.252	0.048
-645.741	-200.000	0.102	-0.497
-644.726	800.000	0.025	0.072
-643.711	-200.000	0.011	-0.054
-642.697	77.950	0.221	-0.237
-641.682	-44.452	0.330	-0.166
-640.668	16.517	-0.047	0.037
-639.653	-16.911	0.032	0.020
-638.638	-200.000	-0.001	-0.081
-637.624	148.415	-0.069	-0.094
-636.609	-23.128	0.071	0.043
-635.595	-75.378	-0.239	-0.085
-634.580	-116.410	0.177	0.033
-633.565	-200.000	0.043	0.271
-632.551	404.560	-0.230	0.487
-631.536	800.000	0.038	0.113
-630.522	-24.106	-0.208	0.125
-629.507	-106.983	-0.204	-0.045
-628.492	-200.000	0.020	-0.195
-627.478	-5.480	-0.095	-0.065
-626.463	7.637	-0.178	-0.134
-625.449	-97.304	-0.223	-0.058
-624.434	-9.046	-0.185	0.124
-623.419	-126.995	-0.224	-0.033
-622.405	-150.258	0.092	-0.007
-621.390	800.000	-0.144	0.412
-620.376	-4.140	0.249	-0.173
-619.361	-9.922	0.181	-0.121
-618.346	152.588	-0.138	0.189
-617.332	-111.456	0.199	-0.041
-616.317	-38.999	0.098	0.052
-615.303	800.000	0.066	0.229
-614.288	-73.495	-0.307	0.113
-613.273	-200.000	0.000	-0.112
-612.259	-2.973	-0.124	-0.087
-611.244	-200.000	0.031	-0.333
-610.230	-200.000	0.007	-0.117
-609.215	-200.000	0.070	0.507
-608.201	685.959	0.105	0.274
-607.186	45.343	-0.115	0.107
-606.171	-96.808	-0.147	0.039
-605.157	-141.424	-0.114	-0.012
-604.142	800.000	-0.053	0.224
-603.128	-101.186	-0.195	-0.048
-602.113	-200.000	0.029	-0.147
-601.098	-200.000	-0.013	-0.079
-600.084	-200.000	-0.009	0.095
-599.069	284.564	-0.211	0.380
-598.055	800.000	0.035	0.097
-597.040	-200.000	-0.099	-0.554
-596.025	-13.857	-0.153	-0.099
-595.011	-71.902	0.088	-0.033
-593.996	-200.000	-0.010	-0.205
-592.982	800.000	-0.088	-0.365
-591.967	243.067	0.103	0.174
-590.952	54.916	0.292	-0.283
-589.938	-131.167	-0.102	-0.014
-588.923	-94.945	-0.326	-0.088
-587.909	-141.893	0.157	-0.016
-586.894	-87.424	0.150	-0.046
-585.879	-1.576	0.136	-0.096
-584.865	-129.742	0.423	-0.058
-583.850	-79.775	0.182	-0.061
-582.836	800.000	-0.075	-0.298
-581.821	800.000	0.063	0.188
-580.806	-38.832	0.049	-0.026
-579.792	-13.014	0.080	0.052
-578.777	136.763	0.086	-0.112
-577.763	-56.579	-0.034	0.015
-576.748	-106.545	0.247	-0.055
-575.733	-200.000	0.007	0.270
-574.719	-200.000	0.005	-0.157
-573.704	-38.077	0.364	0.193
-572.690	-200.000	-0.046	-0.277
-571.675	800.000	-0.070	-0.231
-570.661	51.786	-0.121	-0.116
-569.646	-200.000	-0.013	-0.144
-568.631	-27.683	0.214	-0.124
-567.617	-200.000	-0.020	-0.149
-566.602	-200.000	-0.341	-0.000
-565.588	800.000	-0.058	-0.219
-564.573	-198.375	-0.162	-0.001
-563.558	-200.000	-0.022	-0.180
-562.544	-94.738	0.176	-0.048
-561.529	216.377	0.243	-0.388
-560.515	76.025	0.159	0.168
-559.500	-137.265	-0.378	0.043
-558.485	-2.759	-0.280	-0.196
-557.471	-81.051	-0.071	0.023
-556.456	-62.071	-0.145	0.061
-555.442	576.018	0.075	0.182
-554.427	41.312	0.303	-0.274
-553.412	109.081	0.142	-0.170
-552.398	-83.459	0.294	-0.094
-551.383	-81.271	-0.219	-0.072
-550.369	160.236	0.100	-0.139
-549.354	103.988	-0.111	0.131
-548.339	800.000	-0.065	-0.202
-547.325	-119.666	0.174	0.030
-546.310	40.496	0.263	0.237
-545.296	4.110	-0.151	0.111
-544.281	3.438	0.231	0.169
-543.266	800.000	-0.018	0.077
-542.252	193.057	0.195	0.295
-541.237	-200.000	-0.040	0.270
-540.223	104.454	0.251	-0.296
-539.208	156.766	-0.082	-0.114
-538.193	557.133	0.163	0.393
-537.179	-47.209	-0.252	-0.123
-536.164	71.566	0.173	0.179
-535.150	2.691	-0.172	0.125
-534.135	239.713	-0.055	0.092
-533.121	-29.459	-0.208	-0.119
-532.106	800.000	0.038	0.113
-531.091	492.232	-0.142	-0.325
-530.077	-60.262	-0.320	0.137
-529.062	47.243	-0.171	-0.159
-528.048	44.100	0.261	-0.240
-527.033	-46.744	-0.121	-0.059
-526.018	96.072	0.074	-0.085
-525.004	133.243	0.266	-0.344
-523.989	-139.956	-0.215	-0.023
-522.975	-200.000	-0.062	-0.364
-521.960	-117.714	-0.270	-0.049
-520.945	562.041	0.039	0.095
-519.931	-188.280	-0.172	0.002
-518.916	-200.000	0.006	0.122
-517.902	-46.571	-0.075	-0.037
-516.887	137.039	-0.099	0.129
-515.872	-146.671	0.324	-0.028
-514.858	-47.821	-0.256	-0.124
-513.843	-15.982	0.270	0.172
-512.829	-11.005	-0.319	0.210
-511.814	108.412	0.125	0.149
-510.799	138.761	0.105	0.138
-509.785	-173.005	-0.352	-0.011
-508.770	146.549	-0.023	-0.030
-507.756	363.942	-0.060	0.120
-506.741	38.263	-0.022	-0.020
-505.726	-40.296	-0.280	-0.145
-504.712	63.241	-0.183	-0.184
-503.697	-5.526	-0.185	0.127
-502.683	-68.505	0.011	-0.004
-501.668	800.000	-0.066	0.189
-500.653	-55.722	-0.090	0.040
-499.639	115.519	-0.202	-0.247
-498.624	-110.933	-0.109	-0.022
-497.610	-62.319	-0.183	-0.076
-496.595	296.110	-0.086	-0.157
-495.581	157.548	-0.067	-0.093
-494.566	-103.867	-0.138	-0.032
-493.551	-135.584	-0.249	0.030
-492.537	-34.860	-0.184	-0.101
-491.522	-137.263	0.210	0.024
-490.508	642.630	0.064	-0.164
-489.493	76.171	-0.127	0.135
-488.478	140.478	-0.203	-0.267
-487.464	-72.069	-0.175	0.065
-486.449	-38.459	0.457	0.242
-485.435	-198.255	0.212	-0.001
-484.420	-102.181	0.191	-0.046
-483.405	-200.000	-0.038	-0.177
-482.391	132.487	0.074	0.095
-481.376	-200.000	-0.003	0.077
-480.362	-163.977	0.358	-0.017
-479.347	166.855	-0.151	0.214
-478.332	800.000	-0.009	-0.031
-477.318	54.375	-0.147	-0.141
-476.303	-162.286	0.372	-0.019
-475.289	18.037	0.068	0.054
-474.274	-43.464	-0.092	-0.046
-473.259	-110.602	-0.100	-0.021
-472.245	-200.000	-0.229	0.000
-471.230	-65.521	-0.106	-0.042
-470.216	99.232	-0.132	-0.153
-469.201	204.729	-0.056	-0.087
-468.186	-54.843	0.311	0.140
-467.172	-200.000	0.002	0.049
-466.157	-200.000	-0.066	-0.346
-465.143	-200.000	-0.004	-0.091
-464.128	-99.936	0.070	-0.017
-463.113	-81.778	0.283	-0.092
-462.099	336.862	0.265	-0.513
-461.084	-200.000	0.009	0.090
-460.070	339.025	-0.120	0.233
-459.055	-200.000	-0.010	0.103
-458.040	-158.473	0.121	0.007
-457.026	212.142	-0.124	-0.194
-456.011	800.000	0.050	0.193
-454.997	-166.012	0.168	-0.007
-453.982	-95.744	-0.233	-0.062
-452.968	-102.267	-0.086	-0.021
-451.953	45.842	-0.061	-0.056
-450.938	231.107	0.186	-0.303
-449.924	-57.689	-0.236	-0.103
-448.909	53.410	-0.007	-0.006
-447.895	276.441	0.097	-0.171
-446.880	800.000	-0.038	0.157
-445.865	49.896	0.135	0.127
-444.851	-200.000	-0.023	-0.106
-443.836	-200.000	-0.019	0.130
-442.822	-200.000	0.004	0.340
-441.807	181.078	0.129	0.189
-440.792	-7.399	-0.210	-0.142
-439.778	-200.000	0.046	0.216
-438.763	104.690	-0.148	-0.173
-437.749	-200.000	-0.013	0.129
-436.734	171.202	-0.138	0.198
-435.719	-4.270	-0.131	0.091
-434.705	-81.688	-0.273	-0.089
-433.690	148.683	0.110	-0.148
-432.676	77.551	0.052	-0.056
-431.661	130.359	-0.246	0.314
-430.646	-200.000	0.022	0.365
-429.632	-0.948	-0.207	-0.146
-428.617	-200.000	0.003	-0.331
-427.603	374.390	-0.095	0.193
-426.588	-140.282	-0.235	-0.025
-425.573	-95.765	0.304	0.081
-424.559	144.604	-0.188	-0.250
-423.544	60.677	0.170	-0.168
-422.530	-112.445	0.170	-0.034
-421.515	800.000	0.111	0.413
-420.500	56.321	-0.279	-0.270
-419.486	800.000	-0.008	0.023
-418.471	111.047	0.080	0.096
-417.457	-10.855	-0.194	0.128
-416.442	179.787	0.135	0.197
-415.428	-135.468	0.171	-0.020
-414.413	-62.375	-0.425	-0.176
-413.398	800.000	0.033	-0.124
-412.384	-200.000	0.002	-0.163
-411.369	-200.000	-0.061	-0.438
-410.355	-159.283	0.479	-0.027
-409.340	-99.972	0.396	-0.098
-408.325	263.352	-0.057	0.099
-407.311	800.000	0.124	-0.385
-406.296	800.000	0.058	-0.221
-405.282	171.363	0.165	0.235
-404.267	-70.412	0.174	0.066
-403.252	201.085	-0.180	-0.276
-402.238	-27.551	-0.259	0.150
-401.223	-126.758	0.083	-0.012
-400.209	-123.752	-0.288	0.045
-399.194	70.048	0.095	-0.098
-398.179	-200.000	0.005	0.044
-397.165	-81.733	0.153	0.050
-396.150	800.000	-0.058	0.201
-395.136	-69.687	-0.154	0.059
-394.121	45.917	-0.212	-0.195
-393.106	9.967	-0.284	-0.215
-392.092	423.697	0.042	0.089
-391.077	162.100	-0.189	0.263
-390.063	-200.000	-0.056	-0.584
-389.048	241.967	0.088	-0.146
-388.033	-13.027	0.141	-0.091
-387.019	-132.056	0.141	0.018
-386.004	53.299	-0.124	-0.118
-384.990	-200.000	0.056	0.285
-383.975	-103.098	0.218	0.051
-382.960	-84.638	0.252	0.079
-381.946	64.379	0.214	0.214
-380.931	70.468	-0.153	-0.157
-379.917	-140.643	-0.097	-0.010
-378.902	-47.975	0.304	-0.146
-377.888	518.289	0.067	-0.157
-376.873	-86.395	-0.130	0.040
-375.858	800.000	0.024	-0.093
-374.844	-200.000	-0.012	0.147
-373.829	-13.295	-0.422	0.272
-372.815	15.146	-0.101	-0.079
-371.800	74.407	0.197	0.206
-370.785	-111.673	-0.257	-0.052
-369.771	-15.689	0.172	0.109
-368.756	-200.000	0.005	-0.051
-367.742	800.000	0.054	-0.183
-366.727	289.944	-0.090	-0.162
-365.712	-200.000	-0.006	-0.315
-364.698	57.851	-0.091	-0.088
-363.683	-107.784	-0.052	0.011
-362.669	-138.614	-0.234	-0.026
-361.654	800.000	-0.069	-0.281
-360.639	-72.050	-0.149	0.055
-359.625	-97.391	0.276	0.071
-358.610	-35.949	0.281	-0.151
-357.596	233.310	0.218	0.356
-356.581	-81.940	0.215	0.070
-355.566	311.997	0.115	0.214
-354.552	142.863	-0.066	-0.088
-353.537	-49.089	-0.096	-0.045
-352.523	-200.000	0.008	-0.062
-351.508	-89.627	0.289	0.084
-350.493	2.597	0.304	0.219
-349.479	-129.602	0.113	0.016
-348.464	800.000	-0.061	0.183
-347.450	800.000	-0.068	0.210
-346.435	19.569	0.106	-0.085
-345.420	73.758	-0.063	0.065
-344.406	-95.294	0.145	0.039
-343.391	-120.991	-0.217	0.036
-342.377	-200.000	0.027	0.210
-341.362	-34.063	-0.113	0.062
-340.348	-114.452	0.300	-0.057
-339.333	800.000	-0.059	-0.253
-338.318	55.632	-0.174	-0.168
-337.304	28.809	-0.233	0.196
-336.289	-200.000	0.011	-0.066
-335.275	-107.152	-0.321	-0.070
-334.260	-200.000	-0.015	0.068
-333.245	800.000	-0.052	-0.181
-332.231	-55.942	0.137	0.061
-331.216	-200.000	0.012	-0.082
-330.202	-200.000	0.079	-0.478
-329.187	-172.390	0.400	-0.013
-328.172	-200.000	-0.027	0.346
-327.158	716.141	-0.044	-0.117
-326.143	522.316	0.128	0.298
-325.129	94.425	-0.081	0.091
-324.114	74.060	-0.108	0.113
-323.099	-200.000	-0.065	0.542
-322.085	19.308	-0.075	0.060
-321.070	89.203	-0.063	-0.070
-320.056	800.000	0.080	-0.273
-319.041	85.707	-0.023	-0.025
-318.026	-45.216	0.109	0.054
-317.012	-141.816	-0.355	0.035
-315.997	192.081	-0.241	0.361
-314.983	102.747	0.164	0.190
-313.968	151.067	-0.229	-0.309
-312.953	-76.667	-0.247	-0.086
-311.939	80.977	-0.114	-0.122
-310.924	73.439	-0.187	0.194
-309.910	327.831	-0.028	-0.054
-308.895	-157.228	-0.267	-0.016
-307.880	800.000	0.106	0.422
-306.866	-200.000	0.000	-0.056
-305.851	170.830	-0.168	-0.238
-304.837	-19.286	-0.317	0.195
-303.822	65.650	0.185	0.186
-302.807	-200.000	-0.037	0.221
-301.793	-115.065	-0.574	-0.108
-300.778	264.630	0.285	-0.493
-299.764	-158.735	0.055	-0.003
-298.749	-122.625	0.175	0.028
-297.735	-68.825	0.122	-0.047
-296.720	105.085	-0.084	0.098
-295.705	110.629	0.123	0.147
-294.691	-146.859	-0.164	-0.014
-293.676	-75.980	0.464	-0.163
-292.662	-200.000	-0.034	-0.231
-291.647	-200.000	-0.012	0.155
-290.632	125.975	0.075	-0.095
-289.618	345.314	0.131	0.254
-288.603	-200.000	0.040	0.264
-287.589	285.485	0.174	-0.311
-286.574	-200.000	0.025	0.275
-285.559	-200.000	-0.034	0.280
-284.545	800.000	0.078	-0.309
-283.530	-8.846	-0.232	-0.154
-282.516	72.780	-0.114	0.118
-281.501	-113.079	-0.280	0.055
-280.486	-47.491	-0.192	-0.092
-279.472	-50.471	0.177	-0.083
-278.457	371.954	-0.098	-0.198
-277.443	-148.942	0.254	-0.020
-276.428	505.421	0.242	0.557
-275.413	-200.000	-0.008	0.132
-274.399	800.000	-0.087	-0.305
-273.384	247.011	-0.157	-0.262
-272.370	-24.918	0.157	-0.092
-271.355	-39.944	-0.160	-0.082
-270.340	-120.660	-0.131	0.022
-269.326	-200.000	-0.044	0.222
-268.311	226.078	0.126	-0.203
-267.297	800.000	-0.126	-0.372
-266.282	-200.000	-0.008	0.159
-265.267	15.195	0.257	-0.199
-264.253	-45.229	0.176	0.087
-263.238	288.451	0.115	-0.205
-262.224	-200.000	-0.014	0.222
-261.209	-143.693	0.144	0.014
-260.195	410.009	-0.068	0.143
-259.180	-28.366	-0.116	0.066
-258.165	800.000	0.064	-0.225
-257.151	145.065	-0.230	0.305
-256.136	59.251	-0.251	0.244
-255.122	-200.000	0.003	-0.039
-254.107	109.679	-0.051	0.061
-253.092	97.465	0.155	0.176
-252.078	-141.130	-0.265	-0.027
-251.063	136.141	-0.041	0.052
-250.049	60.442	-0.217	0.213
-249.034	-200.000	0.005	0.043
-248.019	800.000	-0.063	-0.174
-247.005	-20.747	-0.209	-0.127
-245.990	24.034	0.128	0.104
-244.976	68.856	0.172	0.175
-243.961	-77.420	-0.120	0.041
-242.946	-200.000	0.035	0.365
-241.932	-154.486	-0.164	-0.011
-240.917	74.363	0.104	0.108
-239.903	-200.000	-0.002	0.076
-238.888	37.178	0.384	0.337
-237.873	-24.419	-0.392	-0.231
-236.859	152.643	-0.160	0.216
-235.844	-38.569	-0.138	0.072
-234.830	-177.987	0.126	0.003
-233.815	-200.000	-0.022	0.363
-232.800	-192.191	-0.173	-0.002
-231.786	293.473	-0.170	-0.307
-230.771	276.937	-0.048	-0.084
-229.757	42.007	0.214	0.192
-228.742	420.804	0.105	-0.222
-227.727	148.785	0.107	-0.143
-226.713	-59.745	-0.105	-0.045
-225.698	97.759	0.162	0.184
-224.684	-200.000	-0.029	-0.176
-223.669	-159.290	0.351	-0.019
-222.655	268.722	-0.051	0.088
-221.640	-135.628	0.332	-0.039
-220.625	-200.000	-0.078	0.400
-219.611	-124.102	0.137	-0.021
-218.596	491.103	-0.165	-0.373
-217.582	800.000	0.050	-0.173
-216.567	-101.686	0.189	0.045
-215.552	281.439	0.215	0.381
-214.538	-200.000	0.017	-0.077
-213.523	144.768	0.062	0.082
-212.509	-59.658	0.231	0.098
-211.494	800.000	-0.007	0.021
-210.479	-6.657	-0.163	0.110
-209.465	-180.912	0.206	0.004
-208.450	29.724	0.089	0.075
-207.436	-116.006	-0.320	-0.059
-206.421	-102.727	0.181	0.043
-205.406	-58.903	0.273	0.117
-204.392	800.000	-0.068	-0.231
-203.377	-123.807	0.121	-0.019
-202.363	-200.000	0.032	0.353
-201.348	-200.000	-0.034	0.207
-200.333	-3.703	-0.058	0.039
-199.319	430.061	0.138	0.294
-198.304	23.924	-0.145	-0.118
-197.290	-200.000	0.005	0.212
-196.275	110.213	-0.133	0.157
-195.260	-109.651	0.243	-0.051
-194.246	-117.661	-0.142	0.025
-193.231	-119.083	0.290	-0.050
-192.217	-184.225	0.309	0.005
-191.202	389.097	0.195	0.399
-190.187	-89.355	-0.312	0.091
-189.173	-136.157	0.225	0.026
-188.158	-167.843	0.279	0.011
-187.144	800.000	-0.026	0.094
-186.129	-13.437	-0.256	-0.164
-185.114	90.372	0.317	-0.350
-184.100	-108.788	0.165	0.035
-183.085	-123.886	0.316	0.049
-182.071	-200.000	-0.066	0.460
-181.056	-36.404	0.404	-0.215
-180.042	-38.010	0.159	0.083
-179.027	90.078	0.148	0.163
-178.012	-111.441	0.254	0.051
-176.998	-64.454	-0.133	-0.053
-175.983	250.566	0.087	0.147
-174.969	676.102	0.148	-0.381
-173.954	590.409	-0.073	-0.178
-172.939	161.125	-0.171	-0.235
-171.925	-200.000	-0.011	0.081
-170.910	16.282	0.204	-0.159
-169.896	-94.718	0.157	0.042
-168.881	-163.346	-0.206	-0.010
-167.866	800.000	0.073	-0.222
-166.852	-166.363	0.159	-0.007
-165.837	800.000	0.065	-0.188
-164.823	-200.000	-0.000	0.033
-163.808	800.000	0.022	0.092
-162.793	15.810	0.164	0.127
-161.779	-130.499	-0.059	0.008
-160.764	114.831	-0.031	-0.037
-159.750	83.019	-0.235	-0.252
-158.735	-22.449	-0.261	0.156
-157.720	-38.354	-0.294	0.153
-156.706	-200.000	-0.057	0.422
-155.691	800.000	-0.057	0.164
-154.677	99.089	0.192	0.219
-153.662	5.223	-0.006	-0.005
-152.647	420.529	0.248	0.524
-151.633	270.536	-0.113	-0.197
-150.618	112.221	0.222	-0.264
-149.604	800.000	-0.057	-0.176
-148.589	-84.702	0.238	-0.074
-147.574	-43.482	-0.158	-0.078
-146.560	800.000	-0.080	0.255
-145.545	800.000	0.029	-0.080
-144.531	676.633	0.064	0.164
-143.516	-112.041	0.067	-0.013
-142.502	-53.650	-0.104	0.047
-141.487	287.763	-0.070	0.124
-140.472	371.497	0.062	-0.124
-139.458	-146.996	-0.161	0.014
-138.443	-75.941	-0.334	0.116
-137.429	-132.309	-0.095	-0.012
-136.414	-0.019	0.321	0.225
-135.399	166.568	0.128	0.178
-134.385	-82.805	-0.233	-0.074
-133.370	255.302	0.082	0.139
-132.356	-162.921	-0.259	0.012
-131.341	-23.009	-0.090	-0.053
-130.326	12.257	-0.191	-0.145
-129.312	68.093	0.300	-0.303
-128.297	90.340	-0.161	0.177
-127.283	61.373	-0.310	0.303
-126.268	46.198	-0.160	0.146
-125.253	165.809	0.088	-0.122
-124.239	323.349	-0.092	-0.172
-123.224	-52.661	0.087	-0.040
