DTS Sentinel unit serial number:	SN413079Multiplexer serial number:	ORYXHardware model number:	OX4-SRSoftware version number:	ORYX F/W v4.00 Oryx Data Collector v3.7.2.0data status	okinstallation	princeton_trtdifferential loss correction	single-endedforward channel	channel 2reverse channel	N/Adate	2019/09/14time	14:47:34forward acquisition time	60.00reverse acquisition time	0.00gamma	496.2192k internal	0.2301k external	0.2301temperature offset calibration	1.0135default loss term (dB/km)	0.3790temperature slope calibration	1.0000multiplexer offset coefficient	1.0000multiplexer slope coefficient	1.0000fibre end	0.00T internal ref (°C)	39.19T ext. ref 1 (°C)	4.95T ext. ref 2 (°C)	33.86length (m)	temperature (°C)	Stokes	anti-Stokes-747.200	-200.000	0.040	-0.365
-746.185	110.621	-0.288	0.352
-745.171	34.916	-0.026	0.023
-744.156	-164.748	-0.121	0.006
-743.142	800.000	-0.026	-0.096
-742.127	374.987	0.101	0.210
-741.112	800.000	0.013	0.043
-740.098	-200.000	0.051	0.596
-739.083	39.652	0.225	-0.206
-738.069	4.967	0.280	0.210
-737.054	8.483	-0.107	-0.082
-736.039	-200.000	0.015	0.164
-735.025	365.906	-0.133	0.273
-734.010	84.177	-0.275	0.307
-732.996	-74.151	-0.315	-0.116
-731.981	-200.000	0.014	0.198
-730.966	104.617	-0.263	0.315
-729.952	-95.040	-0.360	0.099
-728.937	62.286	-0.312	-0.317
-727.923	-16.827	0.066	-0.042
-726.908	42.601	-0.193	0.179
-725.894	-11.393	-0.251	0.168
-724.879	103.728	0.177	0.211
-723.864	-200.000	-0.030	0.300
-722.850	-116.869	-0.422	0.079
-721.835	-89.581	-0.250	0.075
-720.821	1.401	-0.173	0.127
-719.806	-26.714	-0.373	-0.222
-718.791	800.000	0.026	0.116
-717.777	468.183	0.101	-0.231
-716.762	-70.430	-0.285	-0.110
-715.748	-200.000	0.019	0.123
-714.733	-200.000	-0.005	-0.144
-713.718	-175.761	-0.306	-0.008
-712.704	75.733	-0.091	-0.098
-711.689	-105.448	-0.148	0.034
-710.675	-116.814	-0.354	-0.066
-709.660	713.678	0.042	-0.113
-708.645	-147.332	0.185	0.016
-707.631	-128.324	-0.159	-0.023
-706.616	-200.000	0.061	-0.298
-705.602	-77.771	-0.338	-0.119
-704.587	-50.759	-0.106	0.051
-703.572	84.047	0.147	-0.163
-702.558	111.906	-0.158	-0.194
-701.543	800.000	0.042	0.134
-700.529	-200.000	-0.023	0.332
-699.514	-200.000	0.005	0.025
-698.499	122.241	-0.170	-0.216
-697.485	-128.087	-0.412	-0.060
-696.470	-116.230	0.232	0.044
-695.456	-200.000	0.006	0.215
-694.441	-57.083	-0.323	-0.145
-693.426	124.090	0.251	-0.321
-692.412	-200.000	-0.013	-0.173
-691.397	298.893	-0.141	-0.264
-690.383	800.000	-0.087	-0.299
-689.368	800.000	0.104	-0.315
-688.354	800.000	0.037	-0.160
-687.339	-91.379	-0.158	-0.046
-686.324	160.644	-0.167	0.238
-685.310	-200.000	0.024	-0.123
-684.295	-18.447	-0.341	-0.217
-683.281	-165.143	-0.028	0.001
-682.266	121.968	0.127	-0.161
-681.251	-42.753	-0.276	0.143
-680.237	-63.703	0.191	0.079
-679.222	-161.152	-0.203	-0.011
-678.208	74.499	-0.199	0.213
-677.193	24.115	0.189	-0.159
-676.178	113.922	-0.109	-0.135
-675.164	4.350	-0.212	0.158
-674.149	-101.182	-0.329	0.082
-673.135	44.384	0.031	-0.029
-672.120	52.732	-0.300	-0.292
-671.105	-160.199	-0.215	0.012
-670.091	70.707	-0.192	-0.202
-669.076	-32.341	0.295	0.167
-668.062	-62.999	-0.244	-0.102
-667.047	55.583	-0.172	0.169
-666.032	-95.241	0.288	-0.079
-665.018	-200.000	-0.012	0.106
-664.003	-49.982	0.150	0.072
-662.989	-20.842	-0.100	-0.062
-661.974	461.455	-0.027	-0.062
-660.959	-75.377	-0.307	0.111
-659.945	135.198	-0.055	-0.073
-658.930	-200.000	0.051	0.499
-657.916	-18.017	-0.528	0.336
-656.901	95.291	0.353	0.409
-655.886	800.000	-0.094	0.299
-654.872	93.559	-0.116	0.134
-653.857	5.503	-0.173	0.130
-652.843	272.301	0.074	0.132
-651.828	208.880	-0.067	0.106
-650.814	-57.899	-0.254	-0.113
-649.799	9.630	-0.109	-0.084
-648.784	-183.703	-0.125	0.002
-647.770	-14.896	0.052	0.034
-646.755	-103.310	-0.140	-0.033
-645.741	212.762	0.022	0.035
-644.726	473.400	-0.041	-0.094
-643.711	-200.000	0.003	0.144
-642.697	-36.909	-0.282	0.154
-641.682	-200.000	-0.016	-0.096
-640.668	234.660	0.034	0.056
-639.653	42.780	-0.258	-0.238
-638.638	-70.922	0.066	0.025
-637.624	-200.000	0.018	0.162
-636.609	-200.000	0.027	0.401
-635.595	708.049	0.023	-0.063
-634.580	487.034	0.085	0.198
-633.565	-44.490	0.118	0.060
-632.551	-3.945	0.151	0.106
-631.536	-200.000	0.001	0.201
-630.522	744.809	-0.084	0.231
-629.507	800.000	0.049	-0.149
-628.492	145.285	0.108	0.147
-627.478	800.000	-0.059	-0.191
-626.463	-200.000	0.033	0.195
-625.449	-200.000	-0.004	0.172
-624.434	582.724	0.025	0.061
-623.419	-200.000	0.032	-0.221
-622.405	-77.661	0.218	0.077
-621.390	-200.000	-0.016	-0.195
-620.376	-200.000	-0.005	0.286
-619.361	-86.332	0.212	0.066
-618.346	800.000	0.114	0.329
-617.332	310.223	0.133	-0.253
-616.317	268.636	0.122	0.217
-615.303	-1.012	-0.067	-0.048
-614.288	-200.000	-0.202	-0.001
-613.273	-200.000	-0.051	0.344
-612.259	551.965	0.015	-0.036
-611.244	-78.443	-0.183	-0.064
-610.230	18.657	-0.254	-0.206
-609.215	305.384	-0.084	-0.159
-608.201	-184.458	0.230	0.004
-607.186	-68.481	-0.108	0.042
-606.171	-104.848	0.234	0.054
-605.157	-139.933	0.111	-0.012
-604.142	-200.000	0.053	0.296
-603.128	-149.012	-0.410	0.033
-602.113	-39.677	0.301	0.160
-601.098	-120.691	-0.175	-0.030
-600.084	-200.000	0.026	-0.149
-599.069	-168.009	-0.246	0.010
-598.055	-72.747	0.316	-0.118
-597.040	800.000	0.007	-0.020
-596.025	-13.720	-0.111	-0.073
-595.011	172.700	-0.000	0.001
-593.996	-87.773	0.372	-0.114
-592.982	199.782	-0.260	-0.404
-591.967	430.540	-0.066	-0.144
-590.952	99.875	-0.262	-0.308
-589.938	118.646	0.092	0.115
-588.923	152.015	0.057	-0.079
-587.909	-93.196	-0.255	0.072
-586.894	116.425	-0.055	-0.068
-585.879	5.841	-0.091	-0.068
-584.865	-24.187	0.273	-0.165
-583.850	800.000	0.069	-0.227
-582.836	426.911	0.038	-0.082
-581.821	800.000	0.065	-0.221
-580.806	23.543	-0.007	-0.006
-579.792	-115.230	-0.174	-0.033
-578.777	-200.000	0.011	-0.060
-577.763	800.000	-0.031	0.110
-576.748	800.000	-0.051	-0.196
-575.733	-61.114	0.204	0.087
-574.719	31.024	-0.128	-0.111
-573.704	112.308	-0.207	-0.253
-572.690	418.528	-0.114	0.248
-571.675	45.431	-0.032	0.030
-570.661	-73.049	-0.161	0.060
-569.646	197.972	-0.214	-0.331
-568.631	-117.670	0.304	-0.055
-567.617	-99.179	-0.301	0.077
-566.602	345.688	-0.108	-0.215
-565.588	-126.926	0.307	-0.046
-564.573	9.634	0.112	0.086
-563.558	416.381	-0.127	-0.275
-562.544	415.191	0.057	-0.122
-561.529	197.265	0.176	-0.272
-560.515	21.990	-0.243	-0.200
-559.500	-200.000	0.000	-0.104
-558.485	-127.777	-0.160	0.023
-557.471	-200.000	0.008	-0.067
-556.456	-200.000	0.022	-0.474
-555.442	383.473	-0.061	-0.126
-554.427	-79.227	-0.230	0.079
-553.412	145.682	0.037	-0.050
-552.398	-200.000	-0.007	0.187
-551.383	600.743	-0.069	-0.173
-550.369	800.000	-0.052	-0.205
-549.354	-39.413	-0.162	0.086
-548.339	-200.000	0.002	0.294
-547.325	800.000	0.052	0.215
-546.310	360.184	-0.013	-0.027
-545.296	-143.373	-0.079	-0.008
-544.281	183.452	0.139	-0.208
-543.266	127.624	0.097	-0.125
-542.252	396.308	0.141	0.297
-541.237	-61.193	0.178	-0.076
-540.223	-200.000	0.036	-0.288
-539.208	800.000	0.030	-0.093
-538.193	-137.239	0.131	0.015
-537.179	72.460	0.177	0.186
-536.164	800.000	-0.030	-0.088
-535.150	-32.108	0.075	0.042
-534.135	74.229	-0.268	-0.284
-533.121	-100.951	-0.137	0.034
-532.106	69.287	-0.098	0.102
-531.091	313.022	0.077	-0.146
-530.077	231.725	-0.141	0.234
-529.062	-58.557	-0.166	0.073
-528.048	-86.122	0.162	0.051
-527.033	-123.089	0.473	-0.077
-526.018	800.000	0.102	0.428
-525.004	56.612	-0.183	-0.180
-523.989	2.748	0.281	-0.206
-522.975	-109.025	0.328	0.071
-521.960	233.033	-0.246	0.409
-520.945	-200.000	0.043	0.456
-519.931	57.563	-0.150	-0.148
-518.916	46.395	0.145	-0.136
-517.902	-1.591	-0.053	-0.038
-516.887	-200.000	-0.022	0.099
-515.872	274.500	0.098	0.176
-514.858	-92.576	0.342	0.097
-513.843	565.456	0.112	0.274
-512.829	382.193	0.038	0.079
-511.814	-200.000	-0.030	-0.252
-510.799	26.068	0.157	-0.133
-509.785	162.207	-0.157	0.222
-508.770	800.000	0.046	-0.141
-507.756	-104.865	-0.326	0.076
-506.741	375.198	0.122	-0.252
-505.726	79.413	-0.133	0.144
-504.712	-139.260	0.218	-0.024
-503.697	101.086	0.114	0.134
-502.683	411.730	0.083	-0.177
-501.668	758.240	0.045	-0.124
-500.653	-124.320	-0.445	0.070
-499.639	66.381	0.210	-0.215
-498.624	-61.005	0.033	0.014
-497.610	-26.567	-0.223	0.132
-496.595	707.347	-0.157	0.418
-495.581	-39.643	0.032	0.017
-494.566	445.600	-0.178	-0.394
-493.551	-141.476	0.245	0.025
-492.537	144.269	0.250	-0.337
-491.522	-12.524	0.038	0.025
-490.508	-101.496	0.063	-0.015
-489.493	800.000	0.071	0.288
-488.478	505.880	-0.074	-0.174
-487.464	-200.000	-0.070	0.337
-486.449	-13.619	0.112	-0.074
-485.435	-81.808	-0.242	0.080
-484.420	-200.000	0.049	0.226
-483.405	800.000	0.098	0.288
-482.391	-81.492	0.372	0.124
-481.376	-3.843	0.067	-0.047
-480.362	-200.000	0.002	-0.046
-479.347	11.442	0.231	0.179
-478.332	607.821	0.032	-0.080
-477.318	-200.000	-0.039	-0.194
-476.303	91.077	-0.077	0.088
-475.289	5.495	-0.278	-0.207
-474.274	-25.396	-0.128	-0.077
-473.259	800.000	0.032	-0.135
-472.245	-124.751	0.479	0.075
-471.230	-200.000	-0.017	0.201
-470.216	-57.549	0.116	-0.051
-469.201	-57.362	-0.073	-0.033
-468.186	95.197	-0.149	0.172
-467.172	-51.417	0.456	-0.215
-466.157	8.477	0.096	-0.073
-465.143	107.278	-0.086	-0.103
-464.128	-161.631	0.197	0.010
-463.113	45.861	0.089	-0.083
-462.099	-13.004	-0.034	-0.022
-461.084	206.763	0.020	0.032
-460.070	409.174	-0.070	0.150
-459.055	-57.432	-0.211	0.093
-458.040	4.593	0.190	-0.141
-457.026	350.086	0.099	-0.197
-456.011	-200.000	0.009	-0.128
-454.997	76.508	-0.155	0.166
-453.982	-61.391	0.185	0.079
-452.968	138.712	0.035	0.046
-451.953	-10.216	0.152	-0.102
-450.938	117.576	-0.040	-0.050
-449.924	-62.386	0.299	-0.125
-448.909	7.873	-0.293	-0.221
-447.895	-63.947	0.077	0.032
-446.880	-200.000	-0.010	-0.256
-445.865	-83.470	-0.366	0.118
-444.851	179.498	-0.057	0.084
-443.836	-43.171	-0.140	0.071
-442.822	-98.794	0.230	0.059
-441.807	69.185	-0.086	0.089
-440.792	-200.000	-0.022	-0.159
-439.778	-179.536	0.179	0.004
-438.763	-183.647	0.108	0.002
-437.749	34.794	-0.025	-0.022
-436.734	-73.776	0.098	-0.036
-435.719	23.309	0.081	0.067
-434.705	209.395	-0.083	-0.131
-433.690	-165.003	-0.333	0.015
-432.676	148.410	0.131	0.179
-431.661	160.220	-0.110	-0.155
-430.646	680.813	-0.009	-0.023
-429.632	-200.000	0.010	0.259
-428.617	253.866	0.093	-0.159
-427.603	-79.432	-0.092	-0.031
-426.588	221.390	0.079	-0.128
-425.573	-200.000	-0.035	-0.207
-424.559	58.681	-0.194	-0.191
-423.544	-200.000	0.026	0.134
-422.530	2.539	-0.199	0.145
-421.515	-195.769	-0.238	0.002
-420.500	-73.674	-0.282	-0.103
-419.486	580.444	-0.027	-0.067
-418.471	63.972	-0.115	-0.117
-417.457	414.589	-0.198	-0.423
-416.442	-48.237	-0.082	0.040
-415.428	135.272	0.196	-0.257
-414.413	-160.703	-0.390	-0.021
-413.398	-64.082	0.140	0.058
-412.384	209.943	-0.123	0.194
-411.369	1.807	0.218	-0.158
-410.355	65.951	0.033	-0.034
-409.340	-137.361	-0.197	0.022
-408.325	55.764	-0.057	0.056
-407.311	-5.588	-0.165	-0.114
-406.296	-176.839	0.056	0.001
-405.282	-46.249	0.099	0.049
-404.267	47.366	0.249	0.233
-403.252	-63.247	0.192	0.080
-402.238	532.176	-0.111	0.265
-401.223	588.710	-0.051	0.126
-400.209	-82.342	-0.237	-0.077
-399.194	-118.939	-0.196	0.035
-398.179	-200.000	0.007	0.146
-397.165	1.633	0.100	-0.072
-396.150	-91.046	0.295	0.085
-395.136	291.294	-0.012	-0.023
-394.121	-16.152	0.084	0.054
-393.106	428.869	-0.142	-0.309
-392.092	-105.667	-0.234	0.053
-391.077	731.457	0.064	0.172
-390.063	255.528	0.064	-0.110
-389.048	-184.540	-0.077	-0.001
-388.033	57.740	-0.235	-0.231
-387.019	-8.677	-0.088	0.059
-386.004	-113.445	0.363	-0.072
-384.990	-200.000	-0.001	0.135
-383.975	200.174	0.234	-0.360
-382.960	254.639	-0.081	-0.139
-381.946	-86.231	-0.139	0.043
-380.931	-200.000	-0.018	-0.126
-379.917	-132.455	0.333	0.043
-378.902	-200.000	-0.006	-0.147
-377.888	-85.121	0.348	-0.109
-376.873	34.666	-0.268	0.236
-375.858	-200.000	-0.091	-0.496
-374.844	57.470	-0.154	0.151
-373.829	163.311	-0.138	0.195
-372.815	-33.743	0.104	-0.058
-371.800	9.700	-0.051	0.039
-370.785	-200.000	-0.010	0.132
-369.771	-56.126	0.165	-0.074
-368.756	800.000	-0.024	-0.069
-367.742	800.000	0.104	0.356
-366.727	-143.691	0.132	0.013
-365.712	-200.000	0.028	0.133
-364.698	-100.864	-0.346	-0.086
-363.683	-70.457	0.058	0.022
-362.669	-200.000	0.015	0.145
-361.654	-200.000	0.032	0.380
-360.639	247.013	-0.138	-0.234
-359.625	-200.000	0.016	0.279
-358.610	152.050	-0.152	0.208
-357.596	-99.340	0.131	0.033
-356.581	-63.759	-0.334	-0.137
-355.566	120.020	-0.084	-0.104
-354.552	-138.408	-0.053	0.006
-353.537	98.002	0.109	-0.126
-352.523	39.775	-0.078	0.070
-351.508	-46.789	0.084	-0.041
-350.493	522.548	0.015	-0.035
-349.479	-28.189	0.175	-0.102
-348.464	49.415	0.135	0.127
-347.450	-200.000	0.002	-0.194
-346.435	91.734	-0.246	-0.278
-345.420	64.445	-0.072	0.073
-344.406	-200.000	-0.014	0.102
-343.391	-55.295	0.143	0.064
-342.377	169.406	0.109	-0.156
-341.362	268.478	-0.085	0.150
-340.348	800.000	0.074	0.255
-339.333	-26.297	0.246	0.145
-338.318	-84.994	-0.252	-0.079
-337.304	168.137	0.141	-0.201
-336.289	-55.076	-0.154	-0.069
-335.275	120.587	-0.109	0.135
-334.260	-43.624	-0.100	-0.050
-333.245	50.848	-0.121	0.115
-332.231	-50.403	-0.162	0.077
-331.216	127.781	0.123	-0.157
-330.202	2.088	0.146	-0.106
-329.187	76.111	-0.201	-0.214
-328.172	646.096	-0.068	-0.175
-327.158	-71.053	0.257	-0.097
-326.143	-39.972	0.255	-0.133
-325.129	14.542	-0.165	0.129
-324.114	-25.245	0.239	0.142
-323.099	800.000	0.091	-0.308
-322.085	-16.460	0.045	0.029
-321.070	-6.759	0.045	0.031
-320.056	-200.000	-0.012	-0.207
-319.041	800.000	0.076	0.293
-318.026	8.257	0.084	-0.063
-317.012	506.078	0.079	-0.184
-315.997	-30.711	-0.540	0.306
-314.983	165.220	-0.125	-0.177
-313.968	-164.712	-0.189	0.009
-312.953	-200.000	0.034	0.182
-311.939	-96.735	-0.048	0.013
-310.924	800.000	-0.070	-0.210
-309.910	-6.718	-0.063	-0.043
-308.895	21.766	-0.154	0.126
-307.880	-10.996	-0.185	-0.122
-306.866	-74.072	0.285	-0.103
-305.851	800.000	-0.088	-0.320
-304.837	-49.459	0.128	0.061
-303.822	-13.348	-0.203	0.132
-302.807	-1.451	0.069	0.049
-301.793	-113.283	0.345	0.068
-300.778	-100.808	0.192	0.047
-299.764	212.890	0.218	-0.344
-298.749	-200.000	0.010	-0.190
-297.735	-76.027	-0.212	0.075
-296.720	-101.454	0.228	0.056
-295.705	-200.000	0.027	-0.148
-294.691	-181.962	-0.277	-0.005
-293.676	447.883	-0.120	0.265
-292.662	12.957	-0.229	0.178
-291.647	800.000	-0.020	-0.058
-290.632	-123.434	-0.217	0.035
-289.618	-104.427	0.089	0.021
-288.603	-139.018	-0.282	-0.031
-287.589	-67.947	0.438	-0.171
-286.574	-62.041	0.109	0.046
-285.559	570.931	-0.147	0.359
-284.545	634.728	-0.043	-0.110
-283.530	104.375	0.143	0.168
-282.516	800.000	-0.031	-0.090
-281.501	46.555	-0.026	0.024
-280.486	11.453	0.084	0.064
-279.472	-44.632	0.124	0.062
-278.457	143.736	0.178	-0.237
-277.443	-38.178	0.205	0.109
-276.428	176.287	0.040	-0.058
-275.413	488.102	-0.134	-0.306
-274.399	440.979	-0.062	0.136
-273.384	800.000	-0.052	-0.221
-272.370	800.000	0.066	0.197
-271.355	214.009	-0.112	-0.177
-270.340	-62.040	-0.190	0.079
-269.326	-200.000	0.007	0.240
-268.311	-200.000	0.012	0.091
-267.297	352.086	0.016	-0.031
-266.282	800.000	-0.049	0.145
-265.267	-200.000	-0.078	0.458
-264.253	-154.342	0.027	-0.002
-263.238	-200.000	-0.004	-0.250
-262.224	-100.986	-0.057	0.014
-261.209	-94.545	-0.228	-0.062
-260.195	800.000	-0.029	0.085
-259.180	-200.000	0.381	0.000
-258.165	-120.286	0.142	0.024
-257.151	63.644	-0.061	0.062
-256.136	-161.328	0.279	0.014
-255.122	8.286	-0.070	0.053
-254.107	-179.925	-0.226	0.005
-253.092	76.883	-0.158	0.168
-252.078	-98.641	-0.132	0.034
-251.063	-200.000	-0.045	-0.259
-250.049	223.533	0.019	-0.030
-249.034	-22.898	0.264	0.159
-248.019	231.747	0.147	0.240
-247.005	800.000	0.059	-0.217
-245.990	-123.782	-0.331	0.052
-244.976	-66.711	-0.164	0.065
-243.961	-163.658	0.087	0.004
-242.946	232.317	-0.097	0.159
-241.932	332.770	-0.130	0.252
-240.917	135.823	-0.150	-0.195
-239.903	70.529	-0.205	-0.212
-238.888	18.394	-0.044	0.035
-237.873	-39.779	0.136	-0.071
-236.859	536.770	0.147	0.348
-235.844	369.324	0.150	0.304
-234.830	56.035	0.106	-0.103
-233.815	172.500	-0.278	0.400
-232.800	-62.182	0.226	0.094
-231.786	289.162	0.084	0.151
-230.771	-142.251	0.357	0.035
-229.757	-200.000	-0.011	-0.052
-228.742	113.804	-0.239	-0.290
-227.727	-45.301	-0.072	0.036
-226.713	-17.682	0.046	0.029
-225.698	-200.000	0.051	0.266
-224.684	800.000	-0.055	0.168
-223.669	-19.443	0.074	0.046
-222.655	-147.320	0.277	0.024
-221.640	-64.701	0.261	0.106
-220.625	-54.842	-0.179	-0.081
-219.611	92.959	-0.105	0.118
-218.596	-124.590	-0.266	-0.041
-217.582	-194.513	0.325	-0.003
-216.567	228.468	0.053	-0.086
-215.552	-16.812	0.138	-0.087
-214.538	30.130	-0.270	0.230
-213.523	-79.521	0.149	0.050
-212.509	-200.000	0.018	0.311
-211.494	-70.945	0.173	-0.065
-210.479	394.090	0.101	-0.211
-209.465	-13.263	0.116	-0.075
-208.450	-105.833	0.129	-0.029
-207.436	30.823	0.341	0.291
-206.421	800.000	0.083	-0.312
-205.406	-200.000	-0.023	0.163
-204.392	-86.572	0.118	-0.036
-203.377	-200.000	-0.012	-0.111
-202.363	-51.077	-0.236	0.111
-201.348	-44.128	0.165	-0.083
-200.333	350.961	-0.139	0.275
-199.319	759.691	-0.081	0.220
-198.304	-200.000	0.070	0.348
-197.290	-200.000	-0.011	-0.198
-196.275	470.586	-0.152	0.340
-195.260	-16.619	-0.049	0.031
-194.246	209.752	0.061	0.095
-193.231	-47.631	-0.203	-0.098
-192.217	594.563	0.133	0.327
-191.202	-34.458	-0.092	-0.050
-190.187	-138.128	-0.224	0.025
-189.173	2.449	0.225	-0.163
-188.158	-156.710	0.102	-0.006
-187.144	-108.814	0.420	-0.090
-186.129	-2.678	-0.073	0.051
-185.114	-31.089	0.192	0.108
-184.100	-200.000	-0.013	0.192
-183.085	430.778	-0.106	0.228
-182.071	-1.526	0.068	-0.048
-181.056	-112.092	-0.399	-0.080
-180.042	97.082	-0.023	-0.027
-179.027	-200.000	-0.007	0.174
-178.012	22.830	-0.247	-0.202
-176.998	-200.000	-0.049	-0.354
-175.983	-31.923	-0.199	0.111
-174.969	-104.165	-0.105	0.024
-173.954	-200.000	-0.032	-0.414
-172.939	-120.168	0.220	0.037
-171.925	800.000	-0.032	0.118
-170.910	-129.916	0.205	-0.028
-169.896	765.010	-0.123	-0.333
-168.881	-155.634	0.159	0.010
-167.866	125.845	-0.275	0.346
-166.852	15.961	0.151	-0.118
-165.837	-200.000	-0.047	-0.261
-164.823	-110.215	-0.222	0.046
-163.808	-148.048	-0.155	-0.013
-162.793	101.529	-0.057	0.066
-161.779	152.529	0.216	0.295
-160.764	127.379	0.283	-0.358
-159.750	-48.045	0.223	-0.107
-158.735	-75.617	-0.232	-0.082
-157.720	-18.772	-0.070	0.043
-156.706	-40.669	-0.216	-0.111
-155.691	-200.000	-0.009	-0.143
-154.677	-200.000	0.004	0.211
-153.662	-200.000	-0.018	-0.256
-152.647	-68.885	0.057	-0.022
-151.633	404.903	0.110	0.230
-150.618	-200.000	0.002	0.032
-149.604	567.479	0.116	0.282
-148.589	-129.108	-0.076	-0.011
-147.574	-79.588	-0.186	-0.062
-146.560	59.084	-0.151	0.148
-145.545	-124.803	0.102	-0.016
-144.531	800.000	0.036	0.103
-143.516	-2.376	0.305	0.213
-142.502	-200.000	0.026	0.318
-141.487	-119.219	-0.328	0.057
-140.472	-168.647	0.324	-0.012
-139.458	519.163	-0.136	0.317
-138.443	800.000	0.018	0.069
-137.429	-200.000	0.008	-0.082
-136.414	1.539	0.420	0.301
-135.399	205.884	-0.154	-0.238
-134.385	800.000	0.052	-0.178
-133.370	0.283	0.100	-0.071
-132.356	-11.000	0.157	0.103
-131.341	77.845	0.265	-0.281
-130.326	16.376	0.112	-0.088
-129.312	-200.000	-0.025	-0.137
-128.297	-24.256	0.128	0.076
-127.283	81.650	-0.123	-0.132
-126.268	66.458	0.204	-0.206
-125.253	320.909	-0.208	0.394
-124.239	-200.000	-0.020	0.241
-123.224	800.000	0.117	0.419
-122.210	105.584	-0.109	-0.128
-121.195	-200.000	-0.014	-0.219
-120.180	311.742	-0.070	0.132
