DTS Sentinel unit serial number:	SN413079Multiplexer serial number:	ORYXHardware model number:	OX4-SRSoftware version number:	ORYX F/W v4.00 Oryx Data Collector v3.7.2.0data status	okinstallation	princeton_trtdifferential loss correction	single-endedforward channel	channel 2reverse channel	N/Adate	2019/09/13time	11:55:35forward acquisition time	60.00reverse acquisition time	0.00gamma	496.2192k internal	0.2316k external	0.2316temperature offset calibration	1.0214default loss term (dB/km)	0.3790temperature slope calibration	1.0000multiplexer offset coefficient	1.0000multiplexer slope coefficient	1.0000fibre end	0.00T internal ref (°C)	33.44T ext. ref 1 (°C)	4.59T ext. ref 2 (°C)	30.50length (m)	temperature (°C)	Stokes	anti-Stokes-747.200	102.461	-0.266	0.315
-746.185	63.746	0.242	0.246
-745.171	29.479	0.282	-0.243
-744.156	-200.000	0.009	0.337
-743.142	-200.000	0.004	-0.132
-742.127	458.672	-0.026	-0.058
-741.112	50.245	0.031	0.030
-740.098	51.535	0.055	-0.053
-739.083	-94.325	-0.062	0.017
-738.069	-103.717	0.272	0.065
-737.054	-161.964	0.292	-0.015
-736.039	800.000	0.059	0.178
-735.025	800.000	-0.078	0.288
-734.010	-88.214	0.066	-0.020
-732.996	-91.804	-0.223	-0.064
-731.981	-37.824	0.115	-0.062
-730.966	-132.035	-0.116	0.015
-729.952	-200.000	0.048	-0.302
-728.937	-155.650	0.342	-0.022
-727.923	139.217	0.231	0.307
-726.908	253.644	-0.074	-0.127
-725.894	-200.000	-0.005	-0.173
-724.879	-200.000	0.027	-0.180
-723.864	168.143	-0.108	-0.156
-722.850	-200.000	0.040	-0.484
-721.835	800.000	0.032	0.133
-720.821	423.684	0.026	0.057
-719.806	-162.146	-0.183	-0.009
-718.791	-200.000	-0.021	-0.234
-717.777	-109.855	0.280	0.060
-716.762	313.867	-0.063	-0.119
-715.748	800.000	0.031	-0.117
-714.733	-46.267	0.282	-0.140
-713.718	109.206	-0.062	0.075
-712.704	-111.558	0.284	0.058
-711.689	161.381	-0.152	0.215
-710.675	-19.343	0.086	-0.054
-709.660	800.000	-0.111	0.408
-708.645	-151.514	-0.061	-0.005
-707.631	75.202	-0.141	0.150
-706.616	-135.196	0.230	0.028
-705.602	-183.760	-0.110	-0.002
-704.587	602.981	-0.130	-0.326
-703.572	800.000	-0.043	-0.140
-702.558	800.000	-0.092	0.283
-701.543	-200.000	-0.008	-0.444
-700.529	-22.650	-0.364	-0.222
-699.514	355.409	0.104	-0.209
-698.499	73.387	-0.039	0.042
-697.485	39.163	-0.159	-0.144
-696.470	764.001	-0.135	-0.371
-695.456	357.116	-0.147	-0.297
-694.441	59.944	0.198	0.198
-693.426	-133.839	0.351	-0.044
-692.412	18.646	0.297	0.240
-691.397	-200.000	0.002	-0.104
-690.383	-123.206	0.295	-0.048
-689.368	-200.000	-0.035	-0.392
-688.354	26.981	0.155	-0.131
-687.339	-70.754	-0.221	-0.084
-686.324	-82.503	-0.276	-0.090
-685.310	-200.000	0.013	0.273
-684.295	800.000	-0.018	0.069
-683.281	-75.157	-0.393	-0.142
-682.266	-164.568	-0.172	0.008
-681.251	-200.000	-0.010	-0.105
-680.237	-200.000	0.026	0.147
-679.222	-8.502	0.212	0.144
-678.208	573.735	-0.137	0.339
-677.193	728.985	0.041	-0.111
-676.178	-85.718	0.057	0.018
-675.164	-4.726	0.057	-0.040
-674.149	108.278	0.135	0.162
-673.135	210.972	-0.142	-0.225
-672.120	-200.000	-0.011	-0.262
-671.105	-33.122	-0.097	0.054
-670.091	204.710	0.166	-0.261
-669.076	-26.969	0.108	0.064
-668.062	212.136	-0.199	-0.317
-667.047	101.552	0.148	-0.175
-666.032	800.000	0.105	0.337
-665.018	-141.900	0.158	0.016
-664.003	-200.000	-0.035	-0.251
-662.989	-76.888	-0.058	-0.021
-661.974	-80.803	0.161	0.054
-660.959	-3.523	0.057	0.040
-659.945	186.386	0.084	0.127
-658.930	-200.000	0.002	0.343
-657.916	-74.801	0.342	0.124
-656.901	-96.555	0.374	0.100
-655.886	-200.000	0.011	-0.217
-654.872	-53.312	-0.533	-0.246
-653.857	-87.730	-0.394	-0.120
-652.843	-95.029	-0.057	-0.016
-651.828	-1.806	0.144	-0.103
-650.814	-200.000	-0.055	-0.274
-649.799	-64.753	-0.370	-0.151
-648.784	-70.298	-0.136	0.052
-647.770	169.678	0.123	-0.177
-646.755	153.946	-0.177	0.245
-645.741	60.126	-0.107	-0.106
-644.726	249.012	0.050	0.085
-643.711	-200.000	0.131	0.595
-642.697	-112.346	0.309	0.062
-641.682	20.476	0.106	-0.086
-640.668	-18.137	0.170	0.107
-639.653	77.903	-0.133	0.143
-638.638	199.922	0.082	-0.126
-637.624	282.360	0.102	-0.185
-636.609	222.951	0.072	0.117
-635.595	-118.967	-0.127	-0.023
-634.580	800.000	-0.078	-0.231
-633.565	-75.900	-0.077	-0.027
-632.551	-58.070	-0.130	0.057
-631.536	800.000	-0.024	0.066
-630.522	-23.744	-0.191	0.115
-629.507	-200.000	-0.021	0.106
-628.492	-60.625	-0.145	0.062
-627.478	254.986	-0.086	0.148
-626.463	-146.881	-0.368	0.032
-625.449	84.807	-0.152	-0.168
-624.434	221.432	-0.121	-0.196
-623.419	800.000	0.061	-0.185
-622.405	11.699	-0.178	-0.138
-621.390	-29.401	-0.302	0.174
-620.376	-200.000	0.041	0.470
-619.361	-141.325	-0.179	-0.018
-618.346	177.904	0.174	-0.255
-617.332	800.000	-0.067	-0.189
-616.317	58.659	-0.149	-0.148
-615.303	171.416	-0.086	-0.125
-614.288	-3.025	0.422	-0.297
-613.273	554.545	0.080	-0.193
-612.259	-32.363	-0.152	0.085
-611.244	179.912	0.085	-0.125
-610.230	-36.348	0.086	-0.047
-609.215	0.281	0.127	-0.091
-608.201	93.845	-0.144	0.165
-607.186	204.052	-0.146	0.228
-606.171	-200.000	-0.032	-0.152
-605.157	-31.195	-0.136	0.077
-604.142	36.424	0.253	-0.224
-603.128	-47.876	-0.144	-0.070
-602.113	-139.480	-0.243	-0.026
-601.098	-140.346	0.097	0.010
-600.084	-162.726	-0.372	-0.018
-599.069	467.993	-0.052	-0.117
-598.055	800.000	-0.059	-0.202
-597.040	-80.302	0.140	-0.047
-596.025	-59.636	-0.197	0.085
-595.011	-200.000	-0.002	0.059
-593.996	-200.000	-0.055	0.255
-592.982	439.610	-0.123	-0.271
-591.967	-30.638	-0.140	0.080
-590.952	-149.998	-0.368	-0.029
-589.938	-38.354	0.056	-0.030
-588.923	-64.849	0.046	0.019
-587.909	118.539	-0.107	-0.133
-586.894	-75.357	-0.086	0.031
-585.879	-112.371	0.281	0.057
-584.865	-147.845	0.125	0.011
-583.850	-100.698	-0.290	0.072
-582.836	173.747	0.074	-0.107
-581.821	-200.000	0.016	0.266
-580.806	332.287	0.022	0.042
-579.792	399.352	0.038	0.080
-578.777	-200.000	-0.068	0.402
-577.763	281.536	0.058	-0.105
-576.748	-162.938	0.285	-0.014
-575.733	-179.370	-0.206	-0.005
-574.719	-200.000	-0.011	0.277
-573.704	-200.000	-0.015	0.230
-572.690	-125.971	-0.040	0.006
-571.675	-41.279	-0.221	-0.115
-570.661	-98.179	-0.029	0.008
-569.646	-138.717	-0.224	0.025
-568.631	-68.151	-0.214	-0.084
-567.617	-98.257	0.205	-0.053
-566.602	800.000	0.048	-0.161
-565.588	428.179	-0.260	-0.565
-564.573	-23.758	-0.294	-0.177
-563.558	-200.000	-0.026	0.115
-562.544	-129.165	0.310	-0.044
-561.529	-200.000	0.046	0.298
-560.515	800.000	-0.078	0.224
-559.500	528.398	-0.163	-0.387
-558.485	17.458	-0.348	0.278
-557.471	800.000	0.018	-0.061
-556.456	-90.497	-0.147	-0.043
-555.442	-57.893	0.211	-0.093
-554.427	-123.228	0.367	-0.059
-553.412	350.875	0.090	-0.179
-552.398	-200.000	-0.025	-0.446
-551.383	-66.030	-0.118	0.047
-550.369	-200.000	0.012	0.143
-549.354	-200.000	0.043	-0.234
-548.339	-91.342	0.147	-0.042
-547.325	261.063	-0.102	0.177
-546.310	800.000	-0.056	-0.174
-545.296	-116.383	0.353	-0.066
-544.281	-21.021	0.117	0.072
-543.266	800.000	0.093	0.343
-542.252	-19.938	-0.262	0.162
-541.237	800.000	-0.033	-0.128
-540.223	135.140	0.038	-0.050
-539.208	-120.344	-0.334	-0.057
-538.193	59.792	0.269	0.267
-537.179	11.116	0.230	-0.177
-536.164	-200.000	0.009	-0.066
-535.150	232.079	0.031	0.051
-534.135	-200.000	0.069	-0.444
-533.121	-39.854	-0.131	-0.069
-532.106	293.999	-0.067	-0.123
-531.091	-41.364	-0.293	-0.151
-530.077	-2.785	-0.176	-0.123
-529.062	73.452	-0.127	0.134
-528.048	-52.209	0.124	-0.058
-527.033	-132.268	0.170	-0.022
-526.018	-74.056	-0.208	-0.076
-525.004	-34.897	0.207	-0.114
-523.989	268.320	-0.299	-0.526
-522.975	230.136	0.143	0.235
-521.960	632.751	0.022	0.057
-520.945	-200.000	0.011	0.126
-519.931	800.000	-0.115	0.433
-518.916	57.350	-0.186	0.182
-517.902	196.251	0.191	0.291
-516.887	-6.614	-0.119	0.081
-515.872	-200.000	0.155	0.000
-514.858	-37.928	0.210	-0.112
-513.843	-200.000	0.014	0.291
-512.829	209.344	-0.078	-0.122
-511.814	-57.677	0.299	-0.131
-510.799	9.059	-0.141	-0.107
-509.785	-161.947	0.097	0.005
-508.770	-98.130	0.175	-0.045
-507.756	230.794	0.083	0.136
-506.741	800.000	0.129	-0.435
-505.726	800.000	-0.059	-0.194
-504.712	-117.522	-0.317	-0.058
-503.697	118.461	-0.123	-0.152
-502.683	-18.339	0.300	-0.188
-501.668	58.736	-0.048	0.047
-500.653	-53.473	0.282	-0.130
-499.639	-200.000	0.060	-0.406
-498.624	-42.778	0.297	-0.151
-497.610	-200.000	0.004	-0.106
-496.595	47.439	0.328	-0.306
-495.581	489.062	-0.151	-0.346
-494.566	1.714	0.157	-0.114
-493.551	-99.707	-0.124	-0.031
-492.537	-52.661	-0.085	0.039
-491.522	-96.033	0.124	-0.033
-490.508	-148.502	0.273	0.022
-489.493	-85.727	-0.144	0.045
-488.478	-42.314	-0.357	-0.183
-487.464	-125.805	-0.319	0.048
-486.449	9.672	-0.211	-0.160
-485.435	-118.947	-0.191	0.034
-484.420	-26.637	0.258	0.151
-483.405	325.943	0.128	0.246
-482.391	-200.000	0.031	-0.200
-481.376	-33.699	0.040	-0.022
-480.362	10.571	-0.062	-0.048
-479.347	-117.613	-0.178	-0.032
-478.332	118.100	0.163	0.202
-477.318	-12.249	-0.232	0.152
-476.303	751.640	-0.086	0.234
-475.289	24.344	-0.130	-0.108
-474.274	309.004	-0.134	0.250
-473.259	-160.885	0.127	0.007
-472.245	-126.621	-0.236	-0.035
-471.230	115.382	0.083	0.101
-470.216	48.028	0.168	-0.158
-469.201	-200.000	0.076	-0.379
-468.186	-60.356	-0.439	-0.187
-467.172	-10.600	0.142	0.094
-466.157	111.597	-0.154	-0.186
-465.143	324.302	0.045	-0.087
-464.128	-46.577	0.120	-0.059
-463.113	-84.919	0.234	-0.074
-462.099	-79.901	0.096	-0.032
-461.084	59.063	-0.132	-0.130
-460.070	-166.370	-0.182	-0.008
-459.055	231.071	0.065	0.106
-458.040	189.136	-0.060	-0.090
-457.026	25.640	0.144	-0.120
-456.011	244.162	0.116	0.195
-454.997	416.406	-0.079	-0.168
-453.982	-53.876	0.144	0.066
-452.968	800.000	-0.066	-0.257
-451.953	-200.000	0.043	0.366
-450.938	-200.000	-0.029	0.169
-449.924	-37.644	0.203	0.108
-448.909	-69.028	0.112	0.043
-447.895	-39.864	-0.213	-0.111
-446.880	-200.000	-0.021	-0.154
-445.865	756.431	0.069	0.188
-444.851	-7.651	-0.144	-0.097
-443.836	-94.003	-0.229	0.063
-442.822	-39.326	-0.090	0.047
-441.807	-153.281	-0.023	-0.002
-440.792	-87.839	0.044	-0.013
-439.778	-200.000	-0.001	-0.320
-438.763	548.201	0.113	-0.270
-437.749	-95.192	0.258	-0.070
-436.734	-84.706	0.387	-0.122
-435.719	-200.000	0.043	-0.279
-434.705	511.208	0.132	0.308
-433.690	-76.574	-0.223	0.078
-432.676	57.776	-0.116	0.113
-431.661	-112.412	0.263	0.053
-430.646	43.040	0.123	-0.112
-429.632	-200.000	-0.044	0.306
-428.617	-7.092	0.106	-0.072
-427.603	288.083	-0.229	-0.414
-426.588	-44.940	0.312	-0.155
-425.573	406.962	0.087	-0.184
-424.559	-98.673	-0.686	-0.175
-423.544	300.641	-0.225	0.415
-422.530	800.000	-0.089	0.315
-421.515	-130.934	-0.167	0.022
-420.500	646.060	-0.123	0.314
-419.486	-122.505	-0.185	-0.030
-418.471	-141.172	-0.123	-0.013
-417.457	7.165	0.251	-0.187
-416.442	-128.673	0.290	-0.041
-415.428	124.316	-0.075	-0.094
-414.413	-93.225	0.184	0.051
-413.398	447.367	-0.158	-0.347
-412.384	-24.470	0.208	-0.124
-411.369	30.814	0.302	0.259
-410.355	800.000	0.057	0.168
-409.340	-61.974	-0.071	-0.030
-408.325	-100.432	0.471	-0.117
-407.311	-75.423	-0.174	-0.062
-406.296	16.279	-0.247	0.194
-405.282	742.010	0.133	0.358
-404.267	-118.295	0.085	-0.015
-403.252	711.200	-0.059	-0.157
-402.238	219.120	-0.169	-0.270
-401.223	19.099	-0.062	-0.050
-400.209	-130.703	0.116	-0.016
-399.194	800.000	0.063	0.271
-398.179	342.745	0.036	-0.070
-397.165	194.974	0.080	0.121
-396.150	-200.000	0.003	0.125
-395.136	470.113	0.216	0.485
-394.121	-200.000	0.047	-0.291
-393.106	-26.447	-0.123	-0.072
-392.092	86.776	0.292	0.322
-391.077	100.198	0.093	0.108
-390.063	-162.836	-0.098	0.005
-389.048	-200.000	0.077	-0.000
-388.033	-144.027	0.279	0.026
-387.019	61.034	0.147	0.145
-386.004	101.694	-0.185	-0.215
-384.990	-200.000	0.014	0.155
-383.975	-58.687	-0.075	0.033
-382.960	162.413	0.088	-0.123
-381.946	10.306	-0.167	-0.127
-380.931	54.410	0.113	-0.108
-379.917	-200.000	-0.049	-0.511
-378.902	-56.786	0.107	0.047
-377.888	-146.567	-0.024	-0.002
-376.873	-76.326	0.095	0.033
-375.858	-200.000	0.114	0.553
-374.844	181.896	-0.074	0.109
-373.829	-64.059	0.117	-0.048
-372.815	-28.141	-0.019	0.011
-371.800	-120.991	0.096	-0.016
-370.785	35.450	-0.060	-0.053
-369.771	-103.273	-0.145	0.034
-368.756	-77.500	0.245	-0.085
-367.742	-154.088	-0.396	-0.027
-366.727	-13.476	0.151	-0.098
-365.712	163.147	-0.056	-0.078
-364.698	5.898	0.324	0.239
-363.683	-200.000	-0.017	0.096
-362.669	643.922	0.068	0.174
-361.654	-164.066	0.016	-0.001
-360.639	238.324	-0.023	-0.038
-359.625	-172.134	0.202	-0.007
-358.610	-200.000	-0.025	-0.254
-357.596	256.555	0.071	-0.122
-356.581	-110.217	0.114	0.024
-355.566	-19.553	-0.076	-0.047
-354.552	-161.599	0.400	-0.020
-353.537	-142.314	0.234	0.023
-352.523	-173.702	-0.345	0.010
-351.508	-5.850	0.373	0.254
-350.493	122.613	0.121	0.151
-349.479	348.490	-0.172	0.338
-348.464	71.047	0.155	-0.160
-347.450	-85.726	-0.141	0.044
-346.435	-71.235	-0.082	0.031
-345.420	352.213	0.088	0.174
-344.406	-55.773	0.318	-0.142
-343.391	800.000	-0.058	-0.238
-342.377	87.874	0.126	0.139
-341.362	800.000	0.105	-0.359
-340.348	188.508	-0.139	-0.208
-339.333	-70.225	0.158	0.060
-338.318	-200.000	0.047	-0.250
-337.304	-200.000	-0.002	-0.229
-336.289	800.000	-0.047	-0.146
-335.275	-88.009	-0.454	-0.136
-334.260	-200.000	-0.042	-0.377
-333.245	-80.245	0.093	0.031
-332.231	-200.000	-0.021	0.099
-331.216	156.246	0.144	0.197
-330.202	216.383	0.228	0.362
-329.187	-6.421	-0.182	0.123
-328.172	-23.536	0.085	-0.051
-327.158	103.702	0.210	-0.246
-326.143	-76.021	-0.195	0.069
-325.129	341.019	-0.051	-0.100
-324.114	-91.710	0.572	0.162
-323.099	-97.751	0.101	-0.026
-322.085	-90.698	-0.079	-0.023
-321.070	43.055	0.262	0.238
-320.056	350.309	-0.111	0.218
-319.041	800.000	-0.060	0.202
-318.026	126.821	0.073	0.092
-317.012	-109.179	0.327	0.069
-315.997	-65.642	0.464	0.185
-314.983	273.119	0.063	-0.111
-313.968	-99.511	-0.311	0.078
-312.953	52.435	0.127	-0.120
-311.939	255.218	0.024	-0.041
-310.924	-162.614	0.103	-0.005
-309.910	800.000	0.114	0.328
-308.895	442.413	-0.057	-0.124
-307.880	-19.189	-0.147	-0.091
-306.866	-92.344	-0.330	0.093
-305.851	800.000	0.049	0.142
-304.837	-25.794	0.294	-0.172
-303.822	-64.934	0.229	0.092
-302.807	800.000	-0.133	0.367
-301.793	-49.094	-0.233	0.111
-300.778	39.901	0.181	-0.161
-299.764	-56.381	-0.199	0.088
-298.749	-84.896	0.096	-0.030
-297.735	172.683	-0.045	0.065
-296.720	209.744	0.080	0.125
-295.705	-200.000	-0.009	-0.050
-294.691	22.916	-0.130	-0.106
-293.676	-200.000	-0.014	0.160
-292.662	-101.636	0.341	-0.082
-291.647	52.616	-0.196	-0.186
-290.632	-1.124	0.131	-0.092
-289.618	800.000	0.065	-0.215
-288.603	4.076	-0.078	-0.057
-287.589	800.000	-0.048	0.158
-286.574	-81.452	0.437	0.143
-285.559	231.434	-0.173	-0.282
-284.545	-200.000	0.003	0.256
-283.530	-95.992	-0.271	-0.072
-282.516	4.455	0.258	0.188
-281.501	-192.267	-0.106	-0.001
-280.486	-200.000	-0.045	0.211
-279.472	105.279	0.071	-0.083
-278.457	-103.561	-0.286	-0.067
-277.443	-147.837	-0.285	-0.024
-276.428	-151.929	0.236	-0.017
-275.413	800.000	0.044	-0.129
-274.399	264.923	-0.076	-0.131
-273.384	-85.971	0.545	0.168
-272.370	-8.515	-0.217	0.145
-271.355	800.000	-0.089	0.287
-270.340	343.557	0.055	0.108
-269.326	-153.671	0.148	0.010
-268.311	-16.055	0.253	-0.160
-267.297	-200.000	-0.006	0.062
-266.282	14.090	0.105	-0.081
-265.267	-11.150	-0.395	0.259
-264.253	800.000	-0.062	-0.219
-263.238	598.393	0.066	-0.162
-262.224	14.369	0.131	0.101
-261.209	306.850	0.031	0.058
-260.195	136.402	0.092	0.119
-259.180	370.787	0.046	0.092
-258.165	34.993	-0.264	0.230
-257.151	800.000	0.011	0.041
-256.136	-200.000	-0.012	-0.161
-255.122	-176.922	-0.312	-0.008
-254.107	9.171	-0.062	0.046
-253.092	-200.000	0.004	-0.135
-252.078	-82.278	-0.275	0.089
-251.063	-46.857	0.194	-0.094
-250.049	201.880	-0.130	0.199
-249.034	100.902	-0.025	0.029
-248.019	-132.863	0.088	-0.011
-247.005	272.909	0.056	0.098
-245.990	237.871	0.119	0.195
-244.976	-200.000	-0.010	-0.205
-243.961	8.276	-0.314	0.234
-242.946	2.364	-0.140	0.100
-241.932	-109.242	0.147	0.031
-240.917	43.587	0.141	-0.128
-239.903	800.000	-0.026	0.111
-238.888	269.525	0.178	0.311
-237.873	-60.459	-0.227	0.096
-236.859	76.530	0.024	0.025
-235.844	-139.038	0.099	-0.011
-234.830	-34.580	-0.112	-0.061
-233.815	628.811	-0.127	-0.320
-232.800	-119.533	-0.228	-0.039
-231.786	800.000	-0.026	0.106
-230.771	-47.319	0.134	0.065
-229.757	36.620	-0.193	0.169
-228.742	-97.218	-0.338	-0.088
-227.727	-49.602	-0.366	-0.173
-226.713	8.018	-0.186	-0.138
-225.698	-56.291	0.220	-0.097
-224.684	-200.000	-0.036	0.382
-223.669	800.000	-0.109	0.301
-222.655	225.619	-0.115	0.185
-221.640	-90.572	0.154	0.044
-220.625	233.537	0.148	0.242
-219.611	413.948	0.187	0.395
-218.596	800.000	-0.061	0.263
-217.582	347.687	-0.091	-0.177
-216.567	201.203	0.205	0.313
-215.552	45.543	0.106	0.097
-214.538	-35.629	-0.260	0.140
-213.523	800.000	-0.122	0.511
-212.509	49.448	-0.022	0.021
-211.494	-200.000	0.033	-0.317
-210.479	-77.199	-0.105	0.036
-209.465	106.704	-0.064	0.075
-208.450	110.293	-0.293	-0.349
-207.436	-84.829	-0.153	-0.048
-206.421	-101.058	0.074	-0.018
-205.406	-55.255	0.055	-0.025
-204.392	749.190	-0.027	-0.071
-203.377	-122.212	0.075	0.012
-202.363	-17.354	0.297	-0.186
-201.348	35.952	0.190	0.165
-200.333	691.121	-0.114	0.296
-199.319	-200.000	-0.007	-0.084
-198.304	78.813	0.005	-0.005
-197.290	800.000	-0.061	-0.241
-196.275	-200.000	-0.003	-0.115
-195.260	800.000	0.043	-0.142
-194.246	164.748	0.053	0.075
-193.231	-41.544	-0.306	-0.156
-192.217	44.521	-0.143	0.130
-191.202	800.000	-0.082	0.342
-190.187	-133.824	0.240	0.030
-189.173	422.361	-0.104	-0.221
-188.158	800.000	-0.149	-0.425
-187.144	670.158	-0.049	0.125
-186.129	162.405	-0.146	-0.202
-185.114	-93.164	-0.291	0.080
-184.100	-200.000	0.012	-0.070
-183.085	-200.000	-0.012	0.284
-182.071	7.668	-0.051	0.038
-181.056	-146.899	-0.336	-0.029
-180.042	-200.000	-0.037	0.204
-179.027	-127.052	-0.119	0.017
-178.012	71.880	0.081	0.083
-176.998	-107.583	0.285	0.062
-175.983	-27.733	0.267	-0.153
-174.969	-32.263	0.102	0.056
-173.954	800.000	-0.090	-0.251
-172.939	800.000	-0.047	-0.144
-171.925	-158.721	0.122	-0.007
-170.910	-77.144	0.305	-0.105
-169.896	153.270	0.123	0.167
-168.881	-76.930	-0.057	0.020
-167.866	100.540	-0.335	-0.385
-166.852	-178.996	0.218	-0.005
-165.837	-75.596	0.138	0.049
-164.823	-199.203	-0.249	-0.001
-163.808	130.861	0.170	0.216
-162.793	-200.000	0.005	0.205
-161.779	239.173	0.116	-0.191
-160.764	518.746	-0.058	0.134
-159.750	-82.144	-0.199	0.064
-158.735	-169.134	-0.165	-0.006
-157.720	-19.110	0.191	-0.117
-156.706	-56.243	0.307	0.135
-155.691	114.293	-0.149	0.180
-154.677	136.872	0.116	0.151
-153.662	-200.000	0.033	-0.158
-152.647	-100.560	0.170	-0.042
-151.633	-135.604	0.414	0.049
-150.618	-24.570	0.017	-0.010
-149.604	-200.000	-0.012	-0.108
-148.589	-52.249	-0.148	0.068
-147.574	-123.663	-0.195	0.031
-146.560	800.000	0.057	-0.214
-145.545	204.175	0.161	-0.246
-144.531	-200.000	-0.025	-0.129
-143.516	-28.713	0.288	0.164
-142.502	800.000	-0.094	-0.345
-141.487	649.718	0.128	-0.324
-140.472	472.229	-0.118	0.263
-139.458	-200.000	-0.020	0.408
-138.443	-75.984	-0.044	-0.016
-137.429	-200.000	-0.003	-0.049
-136.414	654.377	0.051	0.130
-135.399	87.195	-0.088	0.096
-134.385	-14.276	0.213	-0.136
-133.370	800.000	0.046	0.146
-132.356	-118.205	0.109	-0.019
-131.341	-98.641	-0.262	0.066
-130.326	148.697	0.309	0.413
-129.312	600.835	0.229	-0.561
-128.297	92.007	0.065	-0.072
-127.283	-200.000	-0.010	-0.095
-126.268	-39.601	-0.108	0.056
-125.253	566.096	0.172	0.412
-124.239	-132.796	0.299	0.038
-123.224	-98.185	0.149	-0.038
-122.210	-200.000	0.011	0.122
