DTS Sentinel unit serial number:	SN413079Multiplexer serial number:	ORYXHardware model number:	OX4-SRSoftware version number:	ORYX F/W v4.00 Oryx Data Collector v3.7.2.0data status	okinstallation	princeton_trtdifferential loss correction	single-endedforward channel	channel 2reverse channel	N/Adate	2019/09/18time	10:03:35forward acquisition time	60.00reverse acquisition time	0.00gamma	496.2192k internal	0.2334k external	0.2334temperature offset calibration	0.9980default loss term (dB/km)	0.3790temperature slope calibration	1.0000multiplexer offset coefficient	1.0000multiplexer slope coefficient	1.0000fibre end	0.00T internal ref (°C)	27.55T ext. ref 1 (°C)	0.32T ext. ref 2 (°C)	24.03length (m)	temperature (°C)	Stokes	anti-Stokes-747.200	800.000	0.059	0.191
-746.185	-63.330	-0.349	0.144
-745.171	103.344	0.130	-0.153
-744.156	193.866	-0.126	0.191
-743.142	-128.558	-0.139	0.020
-742.127	-200.000	-0.035	0.368
-741.112	1.833	-0.062	-0.045
-740.098	-200.000	-0.011	0.186
-739.083	-200.000	-0.019	0.430
-738.069	-33.277	0.105	0.058
-737.054	-54.204	0.093	0.043
-736.039	-103.841	0.166	-0.039
-735.025	800.000	0.090	0.262
-734.010	209.700	-0.167	-0.263
-732.996	-49.593	0.149	0.071
-731.981	-73.861	0.096	0.035
-730.966	-200.000	0.051	0.264
-729.952	-26.019	-0.462	-0.273
-728.937	-21.959	-0.151	-0.092
-727.923	800.000	-0.025	-0.072
-726.908	-128.715	-0.349	0.050
-725.894	-109.193	-0.223	-0.048
-724.879	-200.000	0.056	-0.276
-723.864	29.150	-0.209	-0.178
-722.850	302.323	0.146	-0.272
-721.835	-200.000	0.041	-0.191
-720.821	77.828	0.030	-0.032
-719.806	-65.351	-0.170	-0.069
-718.791	37.228	-0.086	0.076
-717.777	69.629	-0.227	-0.235
-716.762	800.000	0.050	0.148
-715.748	193.093	-0.140	0.212
-714.733	112.155	-0.064	0.078
-713.718	-172.077	-0.108	0.003
-712.704	-200.000	-0.002	-0.302
-711.689	-146.020	0.373	-0.033
-710.675	438.338	0.101	-0.220
-709.660	-49.089	-0.426	0.205
-708.645	800.000	-0.086	0.254
-707.631	-50.537	0.349	0.165
-706.616	412.168	0.072	-0.153
-705.602	46.963	-0.309	0.288
-704.587	-156.513	0.078	0.005
-703.572	-94.196	-0.310	0.085
-702.558	36.658	-0.142	-0.125
-701.543	207.223	0.051	0.080
-700.529	31.942	0.216	0.187
-699.514	-96.421	-0.015	-0.004
-698.499	575.795	-0.064	-0.156
-697.485	-63.926	-0.253	0.104
-696.470	22.655	0.022	-0.018
-695.456	-2.010	0.044	0.031
-694.441	557.728	-0.052	-0.125
-693.426	-74.964	-0.106	0.038
-692.412	174.614	-0.260	-0.377
-691.397	32.759	-0.177	-0.153
-690.383	677.299	-0.070	-0.182
-689.368	-152.160	-0.311	0.023
-688.354	-87.251	-0.122	-0.037
-687.339	-147.045	0.153	-0.013
-686.324	-132.783	0.389	-0.050
-685.310	438.137	-0.052	-0.115
-684.295	-26.807	-0.190	0.111
-683.281	27.855	0.062	-0.053
-682.266	-25.339	-0.154	-0.091
-681.251	768.346	-0.095	0.258
-680.237	543.640	0.066	-0.159
-679.222	317.280	-0.118	0.223
-678.208	-107.325	0.297	0.065
-677.193	86.369	-0.076	0.084
-676.178	-63.704	-0.272	-0.112
-675.164	-200.000	-0.024	-0.118
-674.149	-200.000	0.005	0.041
-673.135	591.828	-0.064	0.159
-672.120	63.040	-0.291	-0.292
-671.105	46.182	-0.119	-0.110
-670.091	-111.168	0.073	0.015
-669.076	-124.503	-0.202	0.032
-668.062	645.404	-0.055	-0.141
-667.047	-63.167	-0.184	0.076
-666.032	-73.185	0.130	0.048
-665.018	-98.535	0.130	-0.033
-664.003	800.000	0.075	0.298
-662.989	162.319	-0.073	-0.103
-661.974	-34.380	-0.275	-0.151
-660.959	-62.856	0.160	0.066
-659.945	-89.928	0.123	-0.036
-658.930	800.000	-0.113	0.373
-657.916	-200.000	-0.492	-0.002
-656.901	-54.811	-0.372	-0.168
-655.886	-10.512	0.075	-0.050
-654.872	-67.829	-0.298	-0.117
-653.857	-200.000	-0.020	-0.167
-652.843	-200.000	-0.023	0.248
-651.828	647.724	-0.030	-0.077
-650.814	-200.000	-0.009	-0.214
-649.799	-58.762	-0.483	-0.209
-648.784	-146.603	0.306	-0.027
-647.770	800.000	0.040	-0.124
-646.755	800.000	-0.032	0.110
-645.741	-200.000	-0.081	-0.458
-644.726	-113.355	-0.317	-0.062
-643.711	372.578	-0.214	-0.435
-642.697	-200.000	0.047	-0.553
-641.682	-200.000	0.006	0.136
-640.668	254.978	-0.095	-0.163
-639.653	10.771	-0.187	-0.143
-638.638	-133.390	0.084	0.011
-637.624	-155.280	0.271	0.018
-636.609	514.262	0.011	-0.026
-635.595	800.000	0.086	0.346
-634.580	800.000	-0.008	-0.031
-633.565	-35.666	0.103	-0.056
-632.551	-200.000	-0.018	-0.094
-631.536	-144.945	-0.330	-0.030
-630.522	43.824	0.140	0.128
-629.507	-200.000	-0.066	0.360
-628.492	-200.000	-0.024	-0.139
-627.478	41.793	0.112	-0.101
-626.463	-103.580	-0.187	-0.044
-625.449	530.918	-0.090	-0.214
-624.434	26.890	0.155	-0.130
-623.419	591.457	-0.122	-0.302
-622.405	800.000	0.026	0.110
-621.390	757.712	-0.098	0.265
-620.376	-4.362	-0.073	-0.050
-619.361	242.245	0.149	-0.249
-618.346	-102.508	-0.204	0.049
-617.332	-106.446	-0.252	-0.056
-616.317	-124.881	-0.261	-0.040
-615.303	800.000	-0.083	-0.240
-614.288	288.699	-0.062	-0.112
-613.273	32.831	0.165	0.143
-612.259	800.000	0.064	0.196
-611.244	191.570	-0.191	-0.287
-610.230	-153.928	0.077	0.005
-609.215	56.082	0.088	0.085
-608.201	163.451	0.185	0.259
-607.186	-200.000	-0.014	-0.065
-606.171	-200.000	-0.010	-0.081
-605.157	111.040	0.196	-0.236
-604.142	-33.491	-0.385	0.213
-603.128	274.474	-0.105	-0.185
-602.113	82.760	-0.318	0.345
-601.098	176.141	-0.084	-0.122
-600.084	-0.264	0.155	0.110
-599.069	-164.060	-0.218	-0.010
-598.055	-15.296	-0.201	0.128
-597.040	-122.812	-0.207	0.033
-596.025	-144.951	0.406	0.037
-595.011	763.804	0.117	-0.318
-593.996	-99.850	0.039	0.010
-592.982	-142.114	-0.249	0.025
-591.967	-200.000	0.009	0.101
-590.952	-77.998	-0.251	-0.086
-589.938	-57.745	0.227	0.099
-588.923	127.861	-0.112	-0.143
-587.909	328.112	-0.142	0.272
-586.894	-200.000	0.024	0.158
-585.879	38.340	-0.055	0.049
-584.865	-6.456	0.215	-0.147
-583.850	-134.520	-0.196	0.024
-582.836	-46.558	-0.067	0.033
-581.821	16.549	-0.278	0.219
-580.806	-200.000	0.013	-0.091
-579.792	-200.000	-0.020	-0.379
-578.777	274.790	-0.308	-0.545
-577.763	18.192	-0.356	-0.284
-576.748	-108.600	0.032	0.007
-575.733	-200.000	0.013	-0.128
-574.719	-59.384	-0.134	0.057
-573.704	392.234	0.107	-0.223
-572.690	-200.000	-0.025	0.180
-571.675	75.574	0.191	-0.202
-570.661	286.095	0.118	0.212
-569.646	-105.485	-0.286	0.065
-568.631	-200.000	-0.059	0.280
-567.617	87.744	0.153	0.169
-566.602	-174.100	0.096	0.003
-565.588	80.870	0.126	0.136
-564.573	-64.453	-0.283	0.115
-563.558	-122.899	-0.210	-0.034
-562.544	-200.000	-0.017	0.235
-561.529	-200.000	-0.002	0.290
-560.515	63.179	-0.293	0.293
-559.500	-37.143	0.225	-0.120
-558.485	-144.928	0.489	0.045
-557.471	-188.153	0.181	0.002
-556.456	-74.642	-0.157	0.056
-555.442	-18.973	0.217	0.135
-554.427	14.724	0.113	0.089
-553.412	-186.941	-0.219	-0.003
-552.398	-92.339	-0.385	-0.108
-551.383	-119.298	0.102	-0.018
-550.369	216.537	0.185	0.293
-549.354	-54.286	-0.130	0.059
-548.339	477.829	-0.133	0.300
-547.325	17.521	0.146	0.116
-546.310	-104.252	0.243	0.056
-545.296	-131.898	-0.095	0.012
-544.281	65.713	0.127	-0.129
-543.266	-200.000	0.005	0.057
-542.252	35.512	0.298	-0.261
-541.237	4.071	-0.082	-0.060
-540.223	800.000	-0.074	-0.315
-539.208	-76.610	-0.436	-0.152
-538.193	-45.067	0.312	0.155
-537.179	-67.715	0.173	0.068
-536.164	66.618	-0.268	-0.271
-535.150	40.764	0.200	0.180
-534.135	800.000	0.083	0.305
-533.121	-200.000	0.038	0.331
-532.106	-28.910	0.292	-0.167
-531.091	182.666	0.225	-0.330
-530.077	7.250	0.133	-0.099
-529.062	-200.000	-0.023	-0.192
-528.048	800.000	-0.028	-0.093
-527.033	-200.000	0.021	0.162
-526.018	-27.321	-0.271	-0.157
-525.004	-39.373	0.221	0.115
-523.989	-142.240	0.248	0.024
-522.975	-31.166	-0.132	-0.074
-521.960	37.855	0.026	0.023
-520.945	-3.152	0.208	-0.144
-519.931	-75.511	0.311	-0.110
-518.916	-200.000	0.023	-0.418
-517.902	-21.965	0.116	-0.070
-516.887	-200.000	0.049	-0.540
-515.872	309.926	-0.128	0.239
-514.858	261.504	-0.119	-0.205
-513.843	17.858	-0.128	0.102
-512.829	-200.000	-0.003	-0.147
-511.814	-200.000	-0.004	0.216
-510.799	-36.240	0.117	0.063
-509.785	38.852	0.099	-0.088
-508.770	-121.318	-0.389	-0.065
-507.756	24.393	-0.217	-0.179
-506.741	-76.832	-0.328	0.114
-505.726	-13.241	0.274	0.177
-504.712	153.120	0.032	-0.044
-503.697	1.348	-0.115	-0.082
-502.683	132.527	0.226	-0.290
-501.668	610.415	-0.059	-0.147
-500.653	-43.465	-0.365	-0.184
-499.639	3.118	0.113	-0.082
-498.624	556.336	-0.054	-0.130
-497.610	4.886	-0.237	0.173
-496.595	-91.074	0.038	-0.011
-495.581	-59.717	0.241	-0.103
-494.566	20.026	0.199	0.160
-493.551	-120.246	-0.163	-0.028
-492.537	800.000	0.026	0.097
-491.522	167.523	0.096	-0.136
-490.508	87.202	0.251	-0.277
-489.493	488.068	0.028	-0.064
-488.478	-8.724	-0.155	-0.104
-487.464	21.795	-0.069	0.056
-486.449	-176.400	-0.245	0.006
-485.435	800.000	0.078	0.283
-484.420	342.591	-0.053	-0.103
-483.405	-140.241	-0.411	0.043
-482.391	-88.437	0.363	-0.108
-481.376	-108.524	-0.221	-0.047
-480.362	20.557	0.064	0.052
-479.347	-112.688	-0.177	-0.035
-478.332	-108.817	-0.184	-0.039
-477.318	394.036	-0.106	0.219
-476.303	141.315	0.183	0.241
-475.289	22.151	0.060	-0.049
-474.274	223.029	0.073	0.118
-473.259	-200.000	0.030	0.175
-472.245	-70.930	-0.294	-0.110
-471.230	93.855	-0.083	0.093
-470.216	-184.614	-0.115	-0.002
-469.201	-58.592	-0.218	0.094
-468.186	800.000	-0.117	0.326
-467.172	647.468	0.153	0.389
-466.157	-200.000	-0.015	0.138
-465.143	-167.586	0.402	-0.016
-464.128	-71.173	0.237	-0.088
-463.113	-132.051	0.239	0.031
-462.099	-85.943	0.091	0.028
-461.084	-61.301	0.238	0.100
-460.070	-18.731	0.172	-0.107
-459.055	257.340	0.171	0.293
-458.040	-109.955	-0.327	0.068
-457.026	-200.000	0.040	-0.203
-456.011	354.091	0.054	-0.107
-454.997	271.039	0.031	0.054
-453.982	33.720	-0.193	-0.166
-452.968	151.092	-0.056	0.076
-451.953	-144.782	-0.131	-0.012
-450.938	-103.835	0.125	-0.029
-449.924	-61.499	-0.264	-0.110
-448.909	-74.799	-0.244	0.087
-447.895	-200.000	-0.005	-0.035
-446.880	-200.000	0.004	-0.119
-445.865	705.345	0.082	-0.216
-444.851	193.383	0.138	0.207
-443.836	195.133	0.169	-0.256
-442.822	-200.000	-0.094	0.504
-441.807	131.221	-0.057	-0.073
-440.792	-105.526	-0.159	-0.036
-439.778	-68.722	0.294	0.113
-438.763	-200.000	0.024	0.327
-437.749	-168.495	-0.264	0.010
-436.734	100.105	0.133	-0.153
-435.719	710.023	0.058	-0.153
-434.705	-200.000	-0.011	0.228
-433.690	126.615	-0.087	-0.109
-432.676	-200.000	0.050	-0.229
-431.661	13.953	0.256	0.198
-430.646	-78.997	-0.099	-0.033
-429.632	-174.284	-0.287	0.008
-428.617	162.219	-0.183	0.254
-427.603	-200.000	-0.009	-0.158
-426.588	96.043	0.218	0.247
-425.573	235.932	-0.134	0.220
-424.559	800.000	-0.143	-0.599
-423.544	26.094	-0.195	-0.161
-422.530	78.985	0.236	-0.251
-421.515	256.897	0.116	0.198
-420.500	-31.712	-0.168	-0.093
-419.486	-145.675	0.193	0.017
-418.471	800.000	-0.069	-0.214
-417.457	-200.000	0.011	-0.100
-416.442	-200.000	0.002	-0.066
-415.428	79.589	-0.043	-0.046
-414.413	107.374	0.029	-0.034
-413.398	-75.952	0.059	0.021
-412.384	477.140	0.056	-0.125
-411.369	224.432	0.048	-0.076
-410.355	-20.750	-0.118	-0.072
-409.340	5.866	0.194	-0.142
-408.325	640.667	-0.057	-0.143
-407.311	-3.047	0.121	0.084
-406.296	-161.138	0.215	-0.011
-405.282	721.924	0.015	0.041
-404.267	-116.250	0.212	-0.039
-403.252	-190.670	0.146	-0.002
-402.238	-93.598	-0.432	0.118
-401.223	324.680	0.192	0.364
-400.209	-114.623	-0.294	0.056
-399.194	270.558	0.230	0.401
-398.179	800.000	-0.078	0.269
-397.165	234.874	-0.079	-0.128
-396.150	800.000	0.108	-0.303
-395.136	114.483	0.204	-0.247
-394.121	-177.507	-0.221	-0.005
-393.106	800.000	-0.025	-0.079
-392.092	141.198	0.105	0.138
-391.077	122.681	0.314	-0.390
-390.063	618.733	0.019	0.046
-389.048	53.058	0.093	-0.088
-388.033	800.000	-0.127	0.397
-387.019	-53.460	-0.227	0.103
-386.004	-96.747	0.031	0.008
-384.990	-154.195	-0.253	-0.017
-383.975	-111.264	0.218	0.044
-382.960	12.019	0.108	-0.083
-381.946	-79.983	0.211	-0.070
-380.931	-69.980	-0.129	0.049
-379.917	626.155	0.038	-0.095
-378.902	800.000	0.090	-0.273
-377.888	92.393	0.145	0.162
-376.873	157.715	-0.072	-0.099
-375.858	29.456	0.194	-0.163
-374.844	-200.000	-0.066	0.349
-373.829	17.310	-0.055	0.043
-372.815	84.007	0.154	-0.167
-371.800	800.000	-0.131	0.421
-370.785	-200.000	-0.057	-0.295
-369.771	-165.719	0.114	0.005
-368.756	-67.252	-0.294	-0.115
-367.742	272.340	-0.085	-0.148
-366.727	76.365	-0.102	-0.107
-365.712	-119.720	0.144	-0.025
-364.698	573.161	-0.118	0.284
-363.683	147.252	-0.086	0.115
-362.669	262.630	-0.097	-0.167
-361.654	-151.627	0.230	-0.017
-360.639	-91.620	0.366	0.103
-359.625	108.107	-0.241	-0.284
-358.610	232.987	0.161	0.262
-357.596	124.612	-0.155	0.193
-356.581	172.053	0.101	-0.143
-355.566	71.756	-0.046	0.047
-354.552	-200.000	-0.003	0.027
-353.537	386.421	0.045	0.092
-352.523	800.000	-0.064	0.242
-351.508	42.628	0.115	0.103
-350.493	385.008	-0.100	0.204
-349.479	-70.189	-0.212	-0.080
-348.464	49.254	-0.148	-0.137
-347.450	-200.000	0.018	0.094
-346.435	-200.000	-0.062	0.379
-345.420	55.858	0.148	0.142
-344.406	-4.224	-0.540	-0.370
-343.391	-200.000	-0.025	0.153
-342.377	-200.000	-0.004	0.176
-341.362	-151.578	0.109	0.008
-340.348	12.668	0.295	-0.225
-339.333	-9.474	-0.147	0.097
-338.318	800.000	-0.136	-0.413
-337.304	-200.000	-0.036	0.168
-336.289	-81.858	0.145	0.047
-335.275	477.565	-0.088	-0.196
-334.260	800.000	0.083	-0.324
-333.245	610.450	-0.080	0.197
-332.231	-113.518	0.340	0.066
-331.216	-1.866	-0.048	-0.033
-330.202	-200.000	0.044	0.203
-329.187	-200.000	0.002	0.015
-328.172	-148.798	-0.057	0.005
-327.158	-169.462	-0.263	-0.010
-326.143	-200.000	-0.053	0.283
-325.129	320.765	-0.027	-0.051
-324.114	-77.626	0.228	-0.078
-323.099	330.745	0.177	-0.336
-322.085	236.919	-0.207	-0.339
-321.070	-200.000	-0.058	-0.437
-320.056	23.857	-0.145	-0.118
-319.041	4.081	0.201	-0.145
-318.026	139.667	0.060	-0.079
-317.012	59.725	0.123	0.120
-315.997	80.279	-0.051	0.054
-314.983	-200.000	-0.013	-0.313
-313.968	202.159	0.119	-0.182
-312.953	-2.794	-0.112	-0.077
-311.939	-31.991	0.172	-0.095
-310.924	-200.000	0.009	-0.214
-309.910	41.961	-0.242	0.217
-308.895	-62.207	-0.182	0.075
-307.880	253.646	-0.141	0.237
-306.866	-200.000	0.012	0.061
-305.851	121.512	-0.274	0.337
-304.837	-200.000	0.079	0.371
-303.822	-200.000	-0.033	0.362
-302.807	-200.000	-0.070	0.490
-301.793	77.561	-0.164	0.172
-300.778	-112.164	-0.324	-0.064
-299.764	213.865	0.122	0.191
-298.749	800.000	0.044	0.175
-297.735	-70.958	0.431	0.160
-296.720	-89.863	0.268	0.077
-295.705	17.174	-0.156	0.122
-294.691	16.463	0.294	0.230
-293.676	800.000	0.056	0.200
-292.662	93.146	0.183	0.204
-291.647	0.523	0.086	0.060
-290.632	-161.510	0.306	0.016
-289.618	256.084	0.072	-0.123
-288.603	406.201	0.136	0.284
-287.589	128.405	0.328	-0.412
-286.574	-90.013	-0.131	0.038
-285.559	340.147	-0.108	-0.208
-284.545	800.000	-0.045	-0.170
-283.530	60.108	0.349	0.341
-282.516	397.544	0.164	-0.338
-281.501	-16.624	-0.108	-0.068
-280.486	11.166	0.156	0.118
-279.472	-109.347	0.129	0.027
-278.457	-140.175	0.148	-0.015
-277.443	-200.000	-0.051	-0.322
-276.428	-103.998	-0.083	0.019
-275.413	-76.590	0.176	0.061
-274.399	729.650	-0.011	0.030
-273.384	98.292	-0.165	-0.187
-272.370	-4.248	0.466	-0.318
-271.355	800.000	0.080	0.343
-270.340	-37.885	-0.104	-0.055
-269.326	138.345	-0.108	0.139
-268.311	-28.831	-0.119	-0.067
-267.297	54.573	0.230	-0.219
-266.282	-7.667	0.369	-0.246
-265.267	-200.000	0.039	0.447
-264.253	800.000	-0.073	-0.283
-263.238	510.668	0.048	0.109
-262.224	32.878	-0.317	0.271
-261.209	143.403	0.047	-0.062
-260.195	-170.008	0.203	-0.007
-259.180	800.000	0.135	0.371
-258.165	266.349	0.131	0.226
-257.151	800.000	-0.109	-0.376
-256.136	-149.892	-0.438	0.034
-255.122	800.000	0.027	-0.103
-254.107	20.979	0.273	-0.218
-253.092	184.156	0.207	-0.302
-252.078	24.991	0.136	0.111
-251.063	-84.880	-0.083	0.026
-250.049	-24.986	-0.150	0.088
-249.034	-200.000	0.052	-0.294
-248.019	-200.000	0.011	-0.261
-247.005	38.493	-0.108	0.095
-245.990	-91.026	0.143	0.040
-244.976	21.186	0.186	-0.149
-243.961	-4.227	-0.207	0.141
-242.946	-200.000	-0.028	-0.199
-241.932	-77.220	-0.242	-0.083
-240.917	-109.429	-0.286	-0.060
-239.903	-15.058	0.183	-0.116
-238.888	-121.283	-0.094	0.016
-237.873	-29.242	-0.179	-0.101
-236.859	32.099	-0.113	0.096
-235.844	800.000	0.097	-0.296
-234.830	-14.970	-0.233	-0.147
-233.815	-67.549	-0.361	0.140
-232.800	-190.816	0.108	0.001
-231.786	10.560	-0.118	0.089
-230.771	594.136	-0.016	-0.040
-229.757	126.625	0.081	-0.101
-228.742	-9.205	-0.132	0.087
-227.727	141.795	0.111	0.144
-226.713	-72.753	-0.200	0.072
-225.698	-124.576	0.114	-0.017
-224.684	-151.094	0.051	-0.004
-223.669	-72.224	0.279	-0.102
-222.655	-31.949	-0.276	0.152
-221.640	76.979	0.110	-0.115
-220.625	-106.153	0.108	0.024
-219.611	-180.617	-0.324	-0.007
-218.596	77.691	0.167	-0.175
-217.582	35.901	0.419	0.363
-216.567	-164.058	0.167	-0.008
-215.552	-77.667	0.189	-0.064
-214.538	-111.121	0.416	-0.084
-213.523	-51.922	0.093	0.042
-212.509	-128.609	-0.157	0.022
-211.494	-200.000	0.030	-0.186
-210.479	-106.637	-0.279	-0.061
-209.465	172.324	0.113	-0.160
-208.450	800.000	-0.152	0.446
-207.436	-101.952	-0.222	-0.053
-206.421	-118.255	0.434	-0.076
-205.406	-200.000	-0.048	-0.280
-204.392	215.948	0.089	0.139
-203.377	-53.703	0.266	0.120
-202.363	-71.453	0.193	-0.071
-201.348	-52.352	0.247	-0.113
-200.333	218.583	-0.165	0.259
-199.319	-84.753	-0.144	-0.045
-198.304	-200.000	0.027	-0.501
-197.290	295.369	0.146	-0.263
-196.275	-20.238	0.074	-0.045
-195.260	-200.000	-0.036	0.381
-194.246	-70.002	-0.292	-0.110
-193.231	-200.000	-0.027	0.144
-192.217	2.536	0.167	0.119
-191.202	800.000	-0.086	0.250
-190.187	800.000	-0.097	0.279
-189.173	-200.000	0.010	-0.141
-188.158	-200.000	0.021	-0.152
-187.144	-191.469	0.117	0.001
-186.129	800.000	0.096	0.264
-185.114	-8.979	0.263	0.173
-184.100	800.000	-0.049	0.202
-183.085	-59.679	-0.276	-0.116
-182.071	526.036	-0.026	0.061
-181.056	-43.100	0.306	-0.153
-180.042	688.480	-0.054	0.139
-179.027	-58.975	-0.249	0.106
-178.012	800.000	-0.089	0.331
-176.998	662.854	0.115	0.292
-175.983	50.246	-0.019	-0.018
-174.969	633.323	0.100	0.250
-173.954	-120.156	-0.409	-0.069
-172.939	92.076	0.315	-0.349
-171.925	279.637	0.113	0.198
-170.910	147.178	-0.182	-0.241
-169.896	-88.941	0.258	-0.075
-168.881	-11.865	-0.141	-0.091
-167.866	-147.207	-0.040	0.003
-166.852	-200.000	-0.069	0.303
-165.837	-200.000	-0.014	-0.149
-164.823	171.140	-0.156	-0.220
-163.808	-157.227	-0.160	-0.010
-162.793	111.344	0.052	0.062
-161.779	674.483	0.147	0.374
-160.764	154.463	-0.093	0.125
-159.750	702.759	-0.053	0.138
-158.735	-200.000	0.020	0.167
-157.720	156.399	0.209	0.283
-156.706	800.000	-0.084	0.245
-155.691	-170.227	0.221	0.008
-154.677	8.690	-0.061	-0.045
-153.662	-2.524	-0.155	0.107
-152.647	-64.789	-0.251	-0.100
-151.633	-200.000	0.002	0.292
-150.618	267.506	0.179	0.308
-149.604	-200.000	0.000	0.072
-148.589	800.000	-0.073	0.258
-147.574	-200.000	0.022	-0.158
-146.560	800.000	-0.037	-0.151
-145.545	-89.538	-0.328	-0.095
-144.531	800.000	-0.026	-0.111
-143.516	-69.924	-0.287	-0.107
-142.502	800.000	-0.044	0.140
-141.487	9.686	-0.093	0.069
-140.472	800.000	-0.048	0.175
-139.458	-63.050	0.090	-0.036
-138.443	-88.615	-0.456	-0.133
-137.429	-47.176	-0.130	-0.062
-136.414	551.589	0.068	0.161
-135.399	518.501	0.087	-0.200
-134.385	-18.932	0.032	-0.019
-133.370	204.195	-0.113	0.171
-132.356	-107.882	0.122	0.026
-131.341	-117.130	-0.260	-0.046
-130.326	148.762	0.094	-0.125
-129.312	-117.347	-0.204	0.036
-128.297	200.217	0.072	0.109
-127.283	18.835	-0.418	0.328
-126.268	242.597	0.219	0.360
-125.253	-28.584	0.321	0.181
-124.239	-79.846	0.174	0.058
-123.224	-32.309	0.274	-0.150
-122.210	-1.486	-0.125	0.087
-121.195	-107.773	0.113	-0.024
