DTS Sentinel unit serial number:	SN413079Multiplexer serial number:	ORYXHardware model number:	OX4-SRSoftware version number:	ORYX F/W v4.00 Oryx Data Collector v3.7.2.0data status	okinstallation	princeton_trtdifferential loss correction	single-endedforward channel	channel 2reverse channel	N/Adate	2019/09/12time	09:25:11forward acquisition time	60.00reverse acquisition time	0.00gamma	496.2192k internal	0.2315k external	0.2315temperature offset calibration	1.0062default loss term (dB/km)	0.3790temperature slope calibration	1.0000multiplexer offset coefficient	1.0000multiplexer slope coefficient	1.0000fibre end	0.00T internal ref (°C)	35.27T ext. ref 1 (°C)	1.80T ext. ref 2 (°C)	33.71length (m)	temperature (°C)	Stokes	anti-Stokes-747.200	800.000	-0.076	0.282
-746.185	31.993	0.065	-0.056
-745.171	-200.000	-0.071	0.354
-744.156	-160.623	0.138	0.007
-743.142	5.765	0.292	0.219
-742.127	-200.000	0.052	0.320
-741.112	180.453	-0.121	-0.180
-740.098	-61.212	-0.182	-0.078
-739.083	107.718	0.243	-0.293
-738.069	800.000	-0.003	-0.009
-737.054	-113.078	0.066	-0.013
-736.039	-23.160	-0.149	-0.091
-735.025	8.916	0.316	-0.242
-734.010	69.773	-0.155	0.162
-732.996	800.000	-0.101	-0.333
-731.981	415.329	-0.142	-0.307
-730.966	-200.000	0.084	-0.465
-729.952	313.763	0.094	-0.180
-728.937	402.307	-0.141	-0.301
-727.923	260.913	0.095	-0.167
-726.908	-48.603	-0.200	-0.097
-725.894	367.877	-0.164	-0.336
-724.879	178.438	0.141	-0.208
-723.864	-68.629	-0.137	-0.054
-722.850	800.000	0.101	-0.380
-721.835	3.975	-0.084	0.062
-720.821	84.021	0.194	0.214
-719.806	-70.990	0.055	0.021
-718.791	-34.775	0.114	0.063
-717.777	800.000	-0.028	0.096
-716.762	-123.925	-0.319	-0.051
-715.748	-113.638	0.314	-0.062
-714.733	436.744	-0.013	0.030
-713.718	-125.534	-0.283	0.043
-712.704	-106.215	-0.239	-0.054
-711.689	124.029	-0.062	0.079
-710.675	-189.514	-0.322	0.004
-709.660	718.245	-0.116	-0.311
-708.645	-64.061	-0.350	-0.145
-707.631	-156.274	-0.224	-0.014
-706.616	-14.774	0.240	-0.156
-705.602	-200.000	0.011	-0.132
-704.587	800.000	-0.064	-0.185
-703.572	31.159	-0.178	-0.154
-702.558	-131.621	0.056	-0.007
-701.543	-200.000	-0.034	-0.152
-700.529	773.681	-0.102	-0.281
-699.514	-200.000	-0.037	0.222
-698.499	800.000	-0.033	-0.098
-697.485	-96.474	0.187	0.050
-696.470	9.365	-0.272	-0.208
-695.456	-200.000	-0.000	-0.072
-694.441	-200.000	0.029	0.137
-693.426	99.059	-0.051	0.060
-692.412	32.706	0.069	-0.060
-691.397	-200.000	-0.032	-0.209
-690.383	-200.000	-0.038	-0.173
-689.368	-53.168	-0.194	-0.090
-688.354	-125.391	0.242	0.037
-687.339	-168.110	-0.170	0.007
-686.324	-200.000	-0.097	-0.531
-685.310	470.483	0.075	-0.171
-684.295	800.000	0.110	-0.367
-683.281	-30.891	-0.187	-0.107
-682.266	796.320	0.051	-0.142
-681.251	-150.632	0.388	-0.030
-680.237	-104.684	-0.317	0.074
-679.222	-100.898	-0.272	-0.068
-678.208	703.653	0.119	-0.318
-677.193	-200.000	0.050	-0.237
-676.178	-85.813	0.079	-0.025
-675.164	367.865	0.110	0.224
-674.149	156.154	-0.354	0.493
-673.135	-200.000	-0.043	0.229
-672.120	161.347	0.076	-0.108
-671.105	-91.190	-0.344	0.100
-670.091	800.000	-0.055	0.169
-669.076	82.260	-0.071	0.078
-668.062	-44.851	0.333	0.168
-667.047	124.824	-0.151	-0.192
-666.032	800.000	0.100	-0.375
-665.018	221.230	0.163	-0.264
-664.003	-36.080	0.198	0.108
-662.989	147.520	-0.119	-0.162
-661.974	148.042	0.014	-0.019
-660.959	-12.560	0.268	0.177
-659.945	-200.000	-0.045	-0.240
-658.930	-80.889	-0.251	0.084
-657.916	-44.812	0.172	0.087
-656.901	112.631	0.266	-0.325
-655.886	-21.620	0.166	0.102
-654.872	370.363	-0.093	-0.189
-653.857	-163.499	0.051	0.002
-652.843	800.000	-0.051	-0.177
-651.828	-82.653	-0.039	-0.013
-650.814	-200.000	-0.024	-0.202
-649.799	800.000	0.037	-0.114
-648.784	-172.198	-0.379	-0.012
-647.770	800.000	0.103	0.302
-646.755	-200.000	-0.007	0.185
-645.741	668.399	-0.032	-0.083
-644.726	-200.000	-0.023	-0.489
-643.711	481.242	0.122	0.278
-642.697	-200.000	-0.037	0.342
-641.682	29.767	0.096	0.083
-640.668	45.369	-0.207	0.192
-639.653	-200.000	-0.021	0.315
-638.638	-129.607	-0.221	-0.031
-637.624	-120.243	-0.112	-0.019
-636.609	800.000	-0.062	0.208
-635.595	-200.000	0.021	-0.126
-634.580	618.080	-0.121	-0.308
-633.565	476.801	-0.129	0.294
-632.551	-95.033	0.243	0.066
-631.536	188.721	-0.050	0.075
-630.522	-102.271	0.239	-0.058
-629.507	-99.926	-0.196	-0.049
-628.492	800.000	0.085	-0.270
-627.478	215.849	-0.048	0.077
-626.463	-90.528	-0.217	-0.063
-625.449	-52.250	0.250	-0.117
-624.434	-200.000	0.063	0.454
-623.419	251.907	0.087	0.150
-622.405	-200.000	0.020	-0.239
-621.390	124.964	-0.381	-0.484
-620.376	-200.000	0.041	0.319
-619.361	38.115	0.123	0.110
-618.346	-109.595	0.118	-0.025
-617.332	800.000	0.064	0.207
-616.317	-200.000	-0.002	-0.123
-615.303	-115.533	-0.252	-0.048
-614.288	488.660	-0.139	0.320
-613.273	-82.529	-0.315	0.103
-612.259	1.840	0.104	0.075
-611.244	800.000	-0.084	-0.280
-610.230	39.718	-0.024	0.022
-609.215	-26.442	0.191	0.113
-608.201	216.903	-0.230	-0.369
-607.186	-145.473	-0.449	0.041
-606.171	-7.061	0.140	-0.095
-605.157	-200.000	-0.031	-0.211
-604.142	-168.648	-0.116	-0.004
-603.128	-134.446	-0.122	-0.015
-602.113	88.040	0.117	-0.131
-601.098	-9.858	0.357	-0.239
-600.084	-112.899	0.209	-0.042
-599.069	-97.733	-0.173	0.045
-598.055	-200.000	-0.040	-0.192
-597.040	561.681	-0.086	-0.209
-596.025	106.189	0.222	0.265
-595.011	180.671	-0.208	-0.307
-593.996	-3.830	-0.281	-0.197
-592.982	-90.279	-0.278	-0.081
-591.967	-88.838	0.163	-0.049
-590.952	-92.280	0.228	-0.065
-589.938	-174.824	-0.393	0.011
-588.923	-200.000	-0.026	0.153
-587.909	6.319	-0.141	-0.105
-586.894	800.000	-0.028	0.119
-585.879	-170.085	-0.241	0.009
-584.865	120.991	-0.209	-0.262
-583.850	112.735	-0.293	0.357
-582.836	-104.091	0.281	0.066
-581.821	29.181	0.048	-0.041
-580.806	-163.742	0.108	0.005
-579.792	-85.421	-0.128	-0.040
-578.777	800.000	-0.173	-0.518
-577.763	397.280	-0.050	-0.105
-576.748	758.738	-0.043	0.117
-575.733	100.538	-0.241	-0.282
-574.719	52.244	-0.122	-0.117
-573.704	66.318	0.053	0.054
-572.690	800.000	0.013	-0.047
-571.675	-53.014	0.301	0.140
-570.661	232.365	-0.052	0.086
-569.646	679.358	-0.073	0.191
-568.631	-64.524	0.104	0.042
-567.617	143.007	-0.176	0.235
-566.602	800.000	-0.089	-0.316
-565.588	-4.256	-0.034	-0.024
-564.573	-200.000	-0.000	-0.024
-563.558	-200.000	0.027	-0.133
-562.544	-123.217	-0.500	0.080
-561.529	800.000	0.022	0.095
-560.515	-128.310	0.383	-0.055
-559.500	183.317	-0.079	0.118
-558.485	-37.649	0.217	-0.116
-557.471	-68.518	0.157	-0.061
-556.456	800.000	0.058	-0.177
-555.442	-113.807	-0.309	0.061
-554.427	39.433	0.175	-0.158
-553.412	117.054	0.215	0.266
-552.398	-114.363	0.284	-0.055
-551.383	-138.580	0.246	0.027
-550.369	-44.393	0.156	-0.079
-549.354	3.587	0.100	-0.074
-548.339	-78.992	-0.124	-0.042
-547.325	77.514	0.314	-0.336
-546.310	-200.000	0.011	-0.174
-545.296	614.196	-0.144	-0.362
-544.281	14.961	0.088	-0.070
-543.266	-200.000	0.031	0.223
-542.252	-147.801	-0.105	-0.009
-541.237	7.374	0.141	0.106
-540.223	-62.591	-0.090	0.038
-539.208	-100.700	0.345	-0.086
-538.193	-200.000	-0.018	0.134
-537.179	164.879	-0.038	-0.053
-536.164	79.664	-0.071	-0.077
-535.150	-200.000	0.031	0.276
-534.135	-120.912	0.325	0.055
-533.121	800.000	-0.057	-0.163
-532.106	-50.077	-0.073	-0.035
-531.091	81.116	-0.159	0.172
-530.077	-53.682	0.039	-0.018
-529.062	461.203	-0.114	-0.254
-528.048	63.664	-0.247	0.249
-527.033	-200.000	-0.006	0.106
-526.018	106.101	-0.134	0.160
-525.004	66.475	-0.083	-0.085
-523.989	-55.662	-0.237	0.107
-522.975	-1.017	0.178	-0.126
-521.960	-83.491	-0.194	-0.063
-520.945	74.717	0.184	-0.194
-519.931	800.000	0.083	-0.336
-518.916	-19.206	-0.205	-0.128
-517.902	-122.015	-0.207	0.034
-516.887	45.177	-0.204	0.189
-515.872	140.836	0.086	-0.114
-514.858	-66.210	0.053	-0.021
-513.843	206.304	-0.170	-0.265
-512.829	-200.000	-0.059	-0.374
-511.814	258.376	-0.163	0.282
-510.799	800.000	0.142	0.403
-509.785	40.617	0.069	0.062
-508.770	116.700	0.156	0.192
-507.756	-200.000	0.003	0.569
-506.741	0.794	0.276	0.199
-505.726	405.531	0.171	0.362
-504.712	-128.052	-0.224	0.032
-503.697	242.528	-0.209	0.351
-502.683	-51.307	-0.051	0.024
-501.668	-200.000	0.001	-0.172
-500.653	-200.000	-0.003	0.422
-499.639	391.712	0.147	-0.307
-498.624	-115.508	-0.126	0.024
-497.610	117.090	-0.335	0.414
-496.595	5.917	-0.186	-0.138
-495.581	-133.886	-0.303	-0.038
-494.566	64.628	0.196	-0.198
-493.551	-133.208	0.271	0.034
-492.537	404.564	0.233	0.492
-491.522	-200.000	0.118	0.560
-490.508	-3.634	0.166	0.116
-489.493	-120.912	0.164	-0.028
-488.478	78.804	0.083	0.089
-487.464	107.336	-0.244	-0.291
-486.449	609.670	-0.159	-0.398
-485.435	14.692	0.275	-0.216
-484.420	-126.098	0.384	0.058
-483.405	-200.000	-0.022	-0.130
-482.391	-20.908	0.300	0.184
-481.376	426.779	-0.149	-0.322
-480.362	-189.348	0.178	0.002
-479.347	136.224	0.024	-0.032
-478.332	638.343	0.123	0.313
-477.318	-165.132	0.122	0.005
-476.303	603.289	-0.031	0.078
-475.289	33.870	0.164	-0.143
-474.274	-72.240	-0.121	0.045
-473.259	198.887	0.053	-0.082
-472.245	-81.474	0.169	-0.056
-471.230	-49.950	0.290	0.138
-470.216	256.240	-0.097	-0.167
-469.201	170.697	0.077	0.111
-468.186	-200.000	0.011	0.185
-467.172	448.327	-0.134	-0.295
-466.157	90.395	-0.276	-0.310
-465.143	-103.001	0.298	-0.071
-464.128	669.611	-0.051	0.132
-463.113	-19.179	0.083	-0.052
-462.099	278.339	-0.130	-0.233
-461.084	465.995	0.091	-0.204
-460.070	-200.000	-0.000	-0.512
-459.055	242.182	-0.025	-0.043
-458.040	-200.000	-0.037	-0.337
-457.026	59.147	0.011	0.011
-456.011	313.292	0.231	0.435
-454.997	-200.000	0.040	0.297
-453.982	364.299	0.054	-0.110
-452.968	-104.286	-0.250	-0.058
-451.953	480.517	0.046	0.105
-450.938	-200.000	-0.032	0.374
-449.924	-113.763	0.169	-0.033
-448.909	-23.925	0.415	0.248
-447.895	800.000	0.115	0.490
-446.880	262.834	0.132	0.230
-445.865	184.624	-0.158	-0.234
-444.851	78.874	0.165	-0.177
-443.836	-132.565	-0.317	0.041
-442.822	367.369	0.043	0.088
-441.807	-130.868	-0.458	0.061
-440.792	-181.027	-0.233	0.005
-439.778	410.428	0.106	0.225
-438.763	322.113	-0.066	0.125
-437.749	-21.983	-0.118	-0.072
-436.734	800.000	-0.103	-0.397
-435.719	-200.000	-0.026	-0.260
-434.705	-76.324	0.180	-0.063
-433.690	6.186	0.204	-0.151
-432.676	-200.000	0.006	0.032
-431.661	-200.000	-0.082	0.449
-430.646	-66.668	-0.119	-0.047
-429.632	57.363	0.137	0.133
-428.617	-200.000	0.020	-0.299
-427.603	24.934	0.069	0.057
-426.588	602.511	-0.136	0.338
-425.573	-127.139	0.165	-0.024
-424.559	539.436	0.048	0.114
-423.544	-48.795	-0.064	-0.031
-422.530	5.246	-0.083	-0.061
-421.515	-49.050	0.065	-0.031
-420.500	75.590	-0.162	-0.171
-419.486	-200.000	-0.015	-0.263
-418.471	-125.115	0.143	0.022
-417.457	-120.037	-0.077	-0.013
-416.442	-200.000	-0.027	0.372
-415.428	-132.686	-0.226	-0.029
-414.413	131.449	0.009	0.011
-413.398	-11.881	0.469	0.308
-412.384	716.678	-0.141	-0.373
-411.369	800.000	-0.081	0.283
-410.355	-2.182	-0.178	-0.125
-409.340	-26.417	0.056	0.033
-408.325	800.000	0.055	-0.216
-407.311	43.905	-0.205	0.188
-406.296	-90.754	-0.080	0.023
-405.282	31.066	-0.182	-0.156
-404.267	-136.417	-0.194	0.023
-403.252	-58.584	-0.328	-0.142
-402.238	3.584	0.254	-0.185
-401.223	800.000	-0.041	-0.159
-400.209	1.697	0.311	0.224
-399.194	-49.671	-0.329	-0.156
-398.179	-200.000	0.058	0.473
-397.165	-200.000	-0.001	-0.024
-396.150	-112.289	-0.502	-0.101
-395.136	114.729	0.097	-0.118
-394.121	34.338	0.063	-0.055
-393.106	2.739	-0.068	0.050
-392.092	264.413	-0.053	-0.093
-391.077	-200.000	0.014	0.279
-390.063	12.312	-0.092	0.071
-389.048	-200.000	-0.003	-0.128
-388.033	-134.537	-0.275	0.034
-387.019	800.000	-0.076	-0.333
-386.004	-200.000	-0.036	-0.376
-384.990	-200.000	-0.020	0.157
-383.975	-63.386	0.052	-0.021
-382.960	-94.195	0.306	0.084
-381.946	800.000	0.098	0.270
-380.931	335.553	0.144	0.279
-379.917	800.000	0.082	-0.296
-378.902	7.850	-0.175	-0.131
-377.888	-75.896	0.218	-0.077
-376.873	-200.000	-0.086	-0.425
-375.858	-200.000	0.047	-0.382
-374.844	-99.910	-0.191	0.048
-373.829	73.646	0.125	-0.130
-372.815	50.667	-0.022	-0.021
-371.800	-200.000	0.027	0.386
-370.785	-98.087	0.217	-0.056
-369.771	800.000	-0.052	0.153
-368.756	65.049	-0.167	-0.168
-367.742	515.884	0.101	-0.236
-366.727	-37.066	0.131	0.070
-365.712	-200.000	-0.011	0.113
-364.698	34.347	0.104	0.090
-363.683	-42.249	0.306	-0.156
-362.669	6.808	0.208	-0.155
-361.654	44.628	0.227	0.209
-360.639	58.691	0.075	0.074
-359.625	44.621	-0.204	0.187
-358.610	-200.000	-0.001	0.057
-357.596	-93.596	-0.254	-0.070
-356.581	-200.000	0.021	0.222
-355.566	-22.114	-0.138	-0.083
-354.552	-200.000	-0.019	0.200
-353.537	-78.018	0.061	-0.021
-352.523	-10.443	-0.115	0.076
-351.508	-200.000	-0.021	0.194
-350.493	45.004	0.131	-0.120
-349.479	-200.000	-0.063	0.559
-348.464	-102.203	-0.083	-0.020
-347.450	364.632	0.028	0.056
-346.435	-200.000	0.003	0.058
-345.420	115.857	-0.193	0.236
-344.406	82.363	0.115	-0.124
-343.391	-27.219	-0.468	-0.272
-342.377	-124.775	-0.218	0.034
-341.362	800.000	-0.095	-0.283
-340.348	-81.843	0.203	-0.066
-339.333	-76.532	0.242	-0.085
-338.318	247.910	-0.260	-0.438
-337.304	97.177	-0.064	-0.073
-336.289	11.122	-0.269	-0.206
-335.275	64.570	0.248	0.249
-334.260	-200.000	-0.015	0.556
-333.245	-200.000	0.063	0.307
-332.231	750.259	-0.042	0.112
-331.216	-70.036	-0.149	-0.057
-330.202	496.220	0.071	-0.163
-329.187	-66.479	0.207	0.082
-328.172	379.733	0.030	-0.062
-327.158	-112.958	0.206	-0.041
-326.143	487.991	-0.146	-0.331
-325.129	388.278	0.070	0.144
-324.114	800.000	0.057	-0.175
-323.099	800.000	-0.088	0.356
-322.085	-96.937	-0.234	0.061
-321.070	46.539	-0.120	-0.111
-320.056	433.453	0.108	-0.235
-319.041	68.515	-0.047	0.048
-318.026	-58.264	-0.103	0.045
-317.012	-94.070	-0.087	0.024
-315.997	-31.398	-0.170	0.096
-314.983	-45.123	0.140	-0.069
-313.968	-25.819	0.234	-0.137
-312.953	-200.000	0.032	-0.162
-311.939	190.584	0.025	0.038
-310.924	264.031	-0.065	-0.113
-309.910	-200.000	-0.038	0.193
-308.895	-78.457	-0.211	-0.072
-307.880	173.097	-0.097	0.140
-306.866	-200.000	0.043	0.204
-305.851	800.000	0.028	0.089
-304.837	-200.000	0.007	0.369
-303.822	800.000	0.078	0.224
-302.807	234.554	0.075	0.123
-301.793	-95.058	-0.246	-0.066
-300.778	-95.085	0.113	0.030
-299.764	-134.197	-0.042	-0.005
-298.749	243.361	-0.205	-0.343
-297.735	-200.000	0.030	0.000
-296.720	-200.000	-0.013	-0.144
-295.705	-200.000	0.007	-0.192
-294.691	42.319	-0.126	-0.114
-293.676	83.658	0.232	0.252
-292.662	351.539	0.090	0.178
-291.647	-33.309	0.123	-0.068
-290.632	-65.750	-0.168	-0.067
-289.618	-200.000	0.022	0.100
-288.603	800.000	-0.133	0.460
-287.589	-78.045	0.034	-0.012
-286.574	-58.004	-0.169	0.073
-285.559	115.736	0.076	-0.093
-284.545	-103.610	-0.033	0.008
-283.530	-139.447	0.057	0.006
-282.516	800.000	0.072	0.251
-281.501	-92.796	0.156	0.043
-280.486	86.074	0.149	0.163
-279.472	-28.354	0.371	0.213
-278.457	180.589	0.236	-0.345
-277.443	67.223	-0.141	-0.143
-276.428	386.774	-0.122	-0.250
-275.413	-96.024	-0.183	0.049
-274.399	-157.359	-0.211	-0.013
-273.384	128.889	0.059	-0.075
-272.370	-21.966	0.254	-0.154
-271.355	-65.333	0.169	0.067
-270.340	-200.000	-0.023	0.169
-269.326	800.000	-0.010	-0.039
-268.311	-159.453	-0.429	-0.024
-267.297	84.533	-0.173	-0.188
-266.282	-200.000	-0.004	-0.091
-265.267	19.688	0.124	-0.099
-264.253	212.188	0.109	-0.171
-263.238	408.558	-0.082	-0.173
-262.224	800.000	-0.097	-0.291
-261.209	130.786	0.227	0.290
-260.195	-200.000	-0.016	0.369
-259.180	-144.969	-0.516	-0.047
-258.165	-75.477	0.127	0.045
-257.151	53.286	-0.047	-0.045
-256.136	-32.802	0.178	-0.098
-255.122	62.640	-0.139	0.138
-254.107	-146.553	0.145	0.013
-253.092	365.961	0.040	0.079
-252.078	-200.000	-0.005	-0.163
-251.063	-67.567	-0.086	-0.033
-250.049	-145.038	0.186	-0.017
-249.034	661.519	0.162	-0.415
-248.019	-0.370	0.376	-0.265
-247.005	335.900	-0.121	0.233
-245.990	-143.847	-0.274	0.026
-244.976	140.237	0.055	-0.072
-243.961	-171.809	0.185	-0.006
-242.946	69.540	-0.165	-0.168
-241.932	800.000	0.067	-0.226
-240.917	-200.000	-0.020	0.122
-239.903	408.476	-0.044	-0.093
-238.888	-62.896	-0.159	0.065
-237.873	-200.000	0.022	-0.107
-236.859	21.786	0.125	-0.101
-235.844	-200.000	0.082	0.417
-234.830	-40.895	0.174	-0.090
-233.815	-88.890	0.279	-0.082
-232.800	-200.000	-0.038	0.280
-231.786	-91.217	-0.065	-0.018
-230.771	800.000	0.081	-0.259
-229.757	360.266	0.056	0.111
-228.742	-19.906	0.324	-0.199
-227.727	-200.000	-0.038	0.306
-226.713	101.137	0.244	0.282
-225.698	-200.000	0.046	-0.208
-224.684	-200.000	0.012	-0.278
-223.669	-200.000	-0.020	-0.161
-222.655	-200.000	0.025	-0.312
-221.640	373.393	0.088	0.178
-220.625	-83.160	-0.185	0.059
-219.611	25.866	0.126	-0.104
-218.596	-129.229	-0.246	0.034
-217.582	-200.000	0.022	0.188
-216.567	351.412	0.065	-0.128
-215.552	263.741	0.141	0.243
-214.538	483.061	-0.132	-0.299
-213.523	-92.031	-0.256	0.072
-212.509	800.000	-0.117	0.353
-211.494	-113.640	-0.277	-0.054
-210.479	-71.488	0.064	0.024
-209.465	-200.000	0.006	0.182
-208.450	128.639	0.070	0.088
-207.436	104.784	0.119	-0.139
-206.421	19.633	0.165	-0.132
-205.406	-8.103	0.038	-0.025
-204.392	-6.054	-0.225	-0.153
-203.377	32.156	-0.158	0.135
-202.363	-40.934	0.246	0.126
-201.348	-33.831	0.074	-0.040
-200.333	-18.562	-0.135	-0.084
-199.319	-77.948	0.232	0.079
-198.304	239.785	0.070	0.115
-197.290	-81.384	-0.145	-0.047
-196.275	-101.884	0.031	-0.008
-195.260	-141.774	0.265	0.026
-194.246	-26.396	0.148	0.086
-193.231	-100.685	0.479	-0.117
-192.217	87.867	-0.110	-0.121
-191.202	-61.821	-0.397	-0.165
-190.187	37.595	0.139	-0.122
-189.173	-107.508	-0.163	0.036
-188.158	-49.918	0.422	0.198
-187.144	-49.508	-0.160	-0.076
-186.129	71.636	0.137	-0.141
-185.114	513.374	0.143	0.331
-184.100	800.000	-0.034	-0.123
-183.085	214.735	0.041	0.065
-182.071	-27.543	0.152	-0.087
-181.056	90.563	0.097	-0.108
-180.042	-8.301	-0.088	0.059
-179.027	47.488	-0.164	0.151
-178.012	163.884	0.137	0.192
-176.998	196.330	0.263	-0.397
-175.983	-99.717	-0.222	-0.055
-174.969	-90.103	0.133	0.038
-173.954	96.458	0.238	0.270
-172.939	800.000	-0.009	-0.036
-171.925	-114.946	0.340	-0.064
-170.910	458.678	0.145	-0.320
-169.896	-41.157	-0.205	0.105
-168.881	-87.682	-0.184	0.055
-167.866	-200.000	0.018	0.194
-166.852	-200.000	-0.030	0.144
-165.837	243.588	0.164	-0.272
-164.823	-140.790	-0.227	-0.023
-163.808	-108.958	-0.256	0.054
-162.793	670.857	0.128	0.328
-161.779	416.722	0.029	0.061
-160.764	112.995	-0.075	-0.090
-159.750	356.724	-0.131	-0.258
-158.735	215.784	0.149	0.235
-157.720	110.686	-0.077	0.092
-156.706	-123.986	-0.020	-0.003
-155.691	800.000	-0.064	0.243
-154.677	587.257	0.101	-0.247
-153.662	-118.754	-0.128	0.022
-152.647	-133.341	0.290	0.036
-151.633	-180.794	0.193	0.004
-150.618	10.781	0.208	0.157
-149.604	44.120	0.050	-0.046
-148.589	-178.479	0.320	0.007
-147.574	-63.464	-0.096	-0.039
-146.560	-107.320	-0.052	-0.011
-145.545	194.148	-0.070	-0.105
-144.531	-63.576	-0.119	0.048
-143.516	179.737	-0.128	-0.185
-142.502	800.000	-0.054	0.153
-141.487	-122.102	-0.183	0.030
-140.472	114.483	0.088	0.106
-139.458	689.390	-0.040	-0.103
-138.443	205.175	0.141	-0.216
-137.429	-164.001	-0.081	0.004
-136.414	479.807	0.057	0.128
-135.399	361.094	-0.078	-0.154
-134.385	-200.000	-0.015	0.104
-133.370	800.000	-0.101	0.348
-132.356	-31.243	-0.282	0.157
-131.341	136.928	0.259	-0.335
-130.326	800.000	-0.057	0.189
-129.312	-200.000	0.042	0.380
-128.297	800.000	0.080	-0.258
-127.283	-61.498	-0.286	0.119
-126.268	-21.729	0.334	-0.201
-125.253	481.422	0.081	-0.183
-124.239	8.481	-0.174	-0.130
-123.224	78.346	0.039	-0.041
-122.210	612.120	0.076	0.187
