DTS Sentinel unit serial number:	SN413079Multiplexer serial number:	ORYXHardware model number:	OX4-SRSoftware version number:	ORYX F/W v4.00 Oryx Data Collector v3.7.2.0data status	okinstallation	princeton_trtdifferential loss correction	single-endedforward channel	channel 2reverse channel	N/Adate	2019/09/17time	16:59:35forward acquisition time	60.00reverse acquisition time	0.00gamma	496.2192k internal	0.2290k external	0.2290temperature offset calibration	0.9981default loss term (dB/km)	0.3790temperature slope calibration	1.0000multiplexer offset coefficient	1.0000multiplexer slope coefficient	1.0000fibre end	0.00T internal ref (°C)	42.50T ext. ref 1 (°C)	0.36T ext. ref 2 (°C)	39.06length (m)	temperature (°C)	Stokes	anti-Stokes-747.200	341.689	0.133	0.266
-746.185	-200.000	-0.008	-0.168
-745.171	140.414	-0.151	0.204
-744.156	229.027	0.191	0.319
-743.142	-81.757	-0.240	-0.081
-742.127	172.787	-0.120	0.177
-741.112	-200.000	0.004	0.166
-740.098	80.146	-0.149	0.164
-739.083	220.427	0.066	0.108
-738.069	-154.385	0.123	0.008
-737.054	800.000	0.021	0.085
-736.039	-78.897	0.225	0.079
-735.025	800.000	-0.033	0.144
-734.010	265.589	-0.133	0.237
-732.996	-37.695	-0.403	0.220
-731.981	-141.264	-0.191	0.020
-730.966	800.000	0.090	-0.368
-729.952	-119.579	-0.229	-0.041
-728.937	800.000	-0.095	0.345
-727.923	138.521	-0.141	0.190
-726.908	-141.383	-0.038	0.004
-725.894	-200.000	-0.011	0.164
-724.879	800.000	0.065	0.204
-723.864	723.258	-0.021	0.057
-722.850	-93.994	-0.157	0.044
-721.835	4.710	-0.074	0.056
-720.821	-61.647	-0.281	-0.121
-719.806	67.891	-0.080	0.084
-718.791	85.171	0.075	-0.084
-717.777	136.320	0.085	0.114
-716.762	758.905	-0.080	-0.223
-715.748	2.100	-0.167	0.123
-714.733	800.000	-0.035	-0.136
-713.718	-82.160	-0.173	-0.058
-712.704	203.790	-0.146	-0.231
-711.689	-109.522	0.318	-0.069
-710.675	-200.000	-0.008	0.127
-709.660	3.995	-0.172	0.129
-708.645	31.339	0.321	-0.282
-707.631	650.759	0.059	-0.156
-706.616	-7.891	0.048	-0.033
-705.602	126.014	0.090	0.117
-704.587	-168.587	0.041	-0.002
-703.572	176.246	-0.152	-0.225
-702.558	69.114	-0.210	-0.221
-701.543	-133.079	-0.089	-0.012
-700.529	-200.000	-0.041	0.191
-699.514	133.730	-0.113	-0.149
-698.499	-200.000	0.053	0.282
-697.485	-200.000	-0.005	0.031
-696.470	800.000	0.042	-0.143
-695.456	-25.641	0.011	0.007
-694.441	444.682	0.070	0.156
-693.426	768.220	0.060	0.166
-692.412	117.768	-0.144	0.181
-691.397	-63.005	-0.103	-0.044
-690.383	656.478	-0.092	-0.241
-689.368	-200.000	0.053	0.284
-688.354	6.656	0.239	0.181
-687.339	-112.668	-0.174	-0.035
-686.324	68.222	-0.133	-0.139
-685.310	-97.464	0.114	0.030
-684.295	-200.000	0.057	-0.290
-683.281	373.271	-0.084	-0.174
-682.266	259.021	-0.172	-0.303
-681.251	-49.923	0.254	0.123
-680.237	-148.724	0.160	0.013
-679.222	64.163	-0.058	-0.060
-678.208	800.000	-0.025	0.079
-677.193	-37.603	0.309	0.168
-676.178	67.543	-0.139	0.145
-675.164	629.529	-0.112	0.289
-674.149	404.079	0.177	0.381
-673.135	639.881	-0.118	0.307
-672.120	-200.000	-0.051	-0.256
-671.105	-62.501	-0.270	0.114
-670.091	-73.207	0.203	0.076
-669.076	-26.758	-0.079	0.047
-668.062	395.444	-0.133	0.282
-667.047	800.000	0.087	0.311
-666.032	-2.848	0.204	-0.146
-665.018	-142.477	0.287	0.029
-664.003	35.826	0.135	0.121
-662.989	-57.032	-0.149	0.067
-661.974	-200.000	-0.007	-0.127
-660.959	166.817	0.032	-0.046
-659.945	800.000	0.091	0.284
-658.930	-200.000	-0.015	-0.077
-657.916	800.000	-0.130	-0.461
-656.901	59.753	0.120	0.121
-655.886	103.353	-0.137	-0.165
-654.872	-112.603	-0.475	0.097
-653.857	-94.409	0.196	-0.055
-652.843	9.547	0.224	0.173
-651.828	-200.000	-0.032	-0.151
-650.814	218.094	-0.081	-0.133
-649.799	-200.000	0.000	0.155
-648.784	775.544	-0.018	0.050
-647.770	800.000	0.047	-0.160
-646.755	15.534	-0.274	0.220
-645.741	85.160	-0.156	0.175
-644.726	-49.879	0.189	0.092
-643.711	251.771	0.176	-0.305
-642.697	-151.087	-0.157	-0.012
-641.682	-85.451	-0.146	0.047
-640.668	204.664	0.248	-0.392
-639.653	-136.840	-0.169	0.020
-638.638	-200.000	0.007	0.224
-637.624	-99.103	0.366	0.095
-636.609	800.000	0.068	0.246
-635.595	644.984	0.047	0.121
-634.580	144.892	0.059	0.080
-633.565	-200.000	-0.035	0.161
-632.551	-165.317	0.251	-0.011
-631.536	-9.095	-0.375	-0.256
-630.522	-200.000	-0.042	0.271
-629.507	800.000	0.106	0.317
-628.492	45.756	0.277	0.261
-627.478	-200.000	-0.001	0.244
-626.463	800.000	-0.026	0.082
-625.449	-189.999	0.125	-0.001
-624.434	-44.182	-0.090	-0.046
-623.419	-200.000	-0.021	-0.176
-622.405	-147.894	-0.156	0.013
-621.390	617.842	0.011	0.028
-620.376	6.900	0.280	-0.213
-619.361	141.937	-0.126	-0.170
-618.346	-200.000	-0.020	0.122
-617.332	362.556	0.104	0.214
-616.317	-129.292	-0.134	0.019
-615.303	-200.000	-0.051	-0.274
-614.288	212.469	0.180	0.289
-613.273	800.000	0.077	0.221
-612.259	17.499	0.329	-0.267
-611.244	3.819	0.126	-0.093
-610.230	-200.000	-0.017	0.131
-609.215	-200.000	0.001	-0.007
-608.201	-66.643	0.158	0.064
-607.186	-45.537	0.207	0.104
-606.171	-200.000	0.005	-0.324
-605.157	-95.639	-0.349	-0.095
-604.142	-141.362	-0.168	-0.017
-603.128	306.772	-0.113	0.215
-602.113	-200.000	0.039	-0.266
-601.098	-198.382	0.168	-0.001
-600.084	540.731	-0.075	-0.181
-599.069	800.000	0.021	-0.086
-598.055	79.106	0.147	0.160
-597.040	-109.956	-0.031	0.007
-596.025	79.368	0.155	-0.169
-595.011	-162.420	-0.154	0.008
-593.996	-115.524	-0.198	-0.038
-592.982	-47.644	-0.073	-0.036
-591.967	-125.842	-0.269	0.041
-590.952	-98.925	0.159	-0.041
-589.938	-88.798	0.268	0.081
-588.923	-133.363	0.129	0.017
-587.909	513.486	0.064	-0.152
-586.894	-75.589	0.322	-0.117
-585.879	630.709	0.053	0.135
-584.865	-120.710	-0.220	-0.038
-583.850	-14.694	-0.041	0.027
-582.836	560.056	-0.030	-0.074
-581.821	800.000	-0.022	0.072
-580.806	52.268	0.160	0.155
-579.792	7.864	-0.221	-0.168
-578.777	146.604	0.196	0.268
-577.763	800.000	-0.012	0.038
-576.748	-48.415	-0.362	0.177
-575.733	88.173	0.282	-0.319
-574.719	-108.814	-0.259	-0.056
-573.704	55.536	0.130	0.128
-572.690	-200.000	0.022	0.164
-571.675	-16.481	0.042	-0.027
-570.661	-95.191	0.062	-0.017
-569.646	-83.895	-0.048	-0.016
-568.631	-122.486	-0.263	0.044
-567.617	-200.000	-0.003	0.078
-566.602	-200.000	-0.034	0.223
-565.588	800.000	-0.069	0.208
-564.573	-200.000	-0.006	-0.094
-563.558	185.417	0.223	-0.336
-562.544	-200.000	-0.026	-0.125
-561.529	800.000	-0.109	-0.404
-560.515	571.289	0.050	0.124
-559.500	-62.198	-0.153	0.065
-558.485	-155.679	-0.017	0.001
-557.471	-200.000	-0.000	-0.006
-556.456	306.205	0.085	0.160
-555.442	186.192	-0.184	-0.279
-554.427	800.000	-0.101	-0.358
-553.412	233.248	-0.028	-0.048
-552.398	-50.254	-0.208	-0.100
-551.383	-47.928	0.187	-0.092
-550.369	35.944	-0.236	0.211
-549.354	800.000	0.123	0.495
-548.339	309.674	0.121	0.230
-547.325	-7.763	-0.135	0.093
-546.310	137.151	-0.141	0.187
-545.296	529.751	-0.115	0.276
-544.281	-130.861	0.367	-0.050
-543.266	-29.480	-0.041	-0.024
-542.252	-200.000	0.030	0.556
-541.237	-144.041	0.084	0.008
-540.223	6.940	0.169	-0.128
-539.208	-200.000	-0.035	-0.170
-538.193	800.000	0.013	0.046
-537.179	800.000	-0.060	-0.187
-536.164	636.283	-0.066	0.170
-535.150	10.746	0.314	-0.244
-534.135	64.454	0.209	0.214
-533.121	307.461	-0.095	-0.180
-532.106	97.840	-0.152	0.178
-531.091	-92.593	-0.069	0.020
-530.077	-178.257	0.253	-0.006
-529.062	471.667	0.116	-0.264
-528.048	-59.271	0.145	0.063
-527.033	800.000	0.074	-0.253
-526.018	-25.554	-0.246	0.148
-525.004	-42.927	-0.140	0.072
-523.989	62.308	0.137	-0.139
-522.975	2.612	0.192	0.141
-521.960	-130.555	-0.366	-0.050
-520.945	-105.948	0.240	-0.055
-519.931	531.220	-0.094	-0.226
-518.916	-120.962	0.292	0.050
-517.902	800.000	-0.053	0.192
-516.887	135.710	0.104	-0.137
-515.872	-65.644	-0.252	0.103
-514.858	-154.330	0.028	-0.002
-513.843	414.691	-0.109	0.235
-512.829	-60.572	0.148	-0.064
-511.814	18.124	-0.264	0.214
-510.799	-200.000	0.007	-0.101
-509.785	-7.869	-0.305	0.209
-508.770	-7.558	-0.363	0.249
-507.756	-200.000	-0.007	0.114
-506.741	-143.285	0.087	0.008
-505.726	573.574	-0.129	0.319
-504.712	0.629	0.193	-0.140
-503.697	800.000	-0.139	0.400
-502.683	-147.878	-0.216	-0.018
-501.668	800.000	0.023	0.066
-500.653	458.716	-0.035	-0.080
-499.639	800.000	0.015	-0.045
-498.624	497.285	-0.037	0.086
-497.610	-42.136	0.058	0.030
-496.595	-95.125	0.106	-0.029
-495.581	-77.126	0.147	0.052
-494.566	-200.000	0.038	-0.400
-493.551	-16.167	-0.163	-0.105
-492.537	-32.912	-0.308	-0.174
-491.522	-146.094	-0.381	0.034
-490.508	-22.540	-0.107	-0.066
-489.493	283.288	-0.168	-0.307
-488.478	-18.255	-0.364	0.231
-487.464	-83.563	0.231	-0.075
-486.449	-25.668	-0.157	-0.094
-485.435	219.462	0.246	-0.398
-484.420	558.795	-0.030	0.073
-483.405	-128.222	0.350	-0.051
-482.391	-66.947	-0.337	0.135
-481.376	333.400	-0.129	0.253
-480.362	-200.000	0.033	0.219
-479.347	-200.000	-0.009	-0.244
-478.332	-93.065	0.331	-0.093
-477.318	-200.000	0.078	-0.380
-476.303	-198.725	0.103	-0.001
-475.289	405.466	0.143	-0.306
-474.274	-200.000	0.016	0.372
-473.259	-200.000	0.033	-0.267
-472.245	21.117	0.036	0.030
-471.230	-149.676	-0.308	0.025
-470.216	-72.780	-0.243	-0.091
-469.201	-39.968	0.354	0.187
-468.186	-144.314	-0.060	-0.006
-467.172	-51.205	-0.220	0.105
-466.157	-200.000	-0.010	-0.161
-465.143	258.958	0.069	-0.121
-464.128	121.690	0.129	0.162
-463.113	-30.619	-0.207	0.119
-462.099	41.363	0.309	0.283
-461.084	-144.218	-0.077	0.007
-460.070	131.743	0.063	-0.082
-459.055	389.390	-0.216	0.453
-458.040	660.013	0.060	-0.157
-457.026	-0.920	0.333	-0.239
-456.011	-200.000	-0.004	-0.092
-454.997	-184.775	0.199	-0.003
-453.982	-93.978	-0.255	-0.071
-452.968	-35.638	0.171	-0.094
-451.953	209.061	-0.135	-0.215
-450.938	-91.896	-0.348	0.100
-449.924	-68.327	-0.056	-0.022
-448.909	800.000	0.081	-0.331
-447.895	-119.107	0.037	-0.007
-446.880	105.687	0.269	-0.321
-445.865	0.374	0.086	0.062
-444.851	-140.262	-0.172	-0.018
-443.836	-43.892	-0.288	-0.146
-442.822	-59.967	-0.083	0.036
-441.807	-156.385	0.232	-0.015
-440.792	-165.440	-0.558	0.025
-439.778	800.000	-0.054	0.159
-438.763	-4.939	-0.133	-0.092
-437.749	52.075	0.258	0.249
-436.734	28.625	-0.332	-0.285
-435.719	-21.044	0.179	0.111
-434.705	101.903	-0.087	-0.102
-433.690	-200.000	-0.000	0.025
-432.676	800.000	0.072	-0.233
-431.661	-85.945	0.288	-0.090
-430.646	-200.000	-0.036	0.264
-429.632	61.160	-0.123	-0.123
-428.617	458.097	0.090	-0.202
-427.603	-118.472	0.231	0.041
-426.588	-105.520	-0.110	-0.025
-425.573	-78.666	-0.177	-0.061
-424.559	521.756	0.092	-0.218
-423.544	800.000	-0.014	0.044
-422.530	221.105	0.087	-0.141
-421.515	304.304	-0.028	-0.052
-420.500	65.983	0.071	0.073
-419.486	-200.000	-0.021	0.220
-418.471	-200.000	-0.010	-0.368
-417.457	-200.000	-0.040	0.242
-416.442	-200.000	0.003	0.018
-415.428	-7.319	-0.160	-0.110
-414.413	80.211	-0.246	-0.268
-413.398	800.000	0.033	0.116
-412.384	-67.593	-0.159	-0.063
-411.369	800.000	0.082	0.355
-410.355	-126.354	0.253	0.038
-409.340	800.000	-0.021	0.062
-408.325	115.384	0.083	-0.103
-407.311	-135.214	0.169	0.020
-406.296	131.968	-0.110	-0.143
-405.282	84.513	-0.071	-0.079
-404.267	-200.000	-0.042	-0.287
-403.252	-9.971	0.065	0.044
-402.238	153.868	0.209	-0.290
-401.223	-132.920	-0.217	0.028
-400.209	-40.989	-0.262	0.137
-399.194	-22.601	-0.293	-0.179
-398.179	-40.917	0.068	0.036
-397.165	314.972	0.131	-0.249
-396.150	109.551	-0.148	-0.179
-395.136	34.327	-0.037	0.033
-394.121	800.000	0.052	-0.229
-393.106	46.965	0.243	-0.228
-392.092	-151.325	0.180	-0.014
-391.077	-127.499	-0.294	-0.043
-390.063	-71.679	0.219	0.082
-389.048	-84.645	-0.132	-0.042
-388.033	-70.630	0.073	-0.028
-387.019	-28.989	-0.247	-0.143
-386.004	1.257	-0.067	0.049
-384.990	-200.000	-0.022	-0.263
-383.975	2.520	0.145	-0.106
-382.960	800.000	0.098	0.287
-381.946	-130.057	-0.356	-0.049
-380.931	-36.440	-0.179	-0.098
-379.917	114.944	-0.108	0.133
-378.902	800.000	0.106	-0.360
-377.888	54.883	-0.125	-0.122
-376.873	800.000	0.061	-0.219
-375.858	-44.376	-0.070	-0.035
-374.844	-85.649	-0.269	-0.084
-373.829	-200.000	-0.056	-0.313
-372.815	753.478	0.059	-0.161
-371.800	-89.667	-0.233	-0.069
-370.785	27.282	0.169	0.143
-369.771	-124.821	0.117	0.018
-368.756	18.880	-0.300	0.243
-367.742	664.243	0.056	0.145
-366.727	212.783	-0.053	-0.084
-365.712	-157.505	-0.148	0.009
-364.698	-27.356	0.174	0.102
-363.683	-55.964	0.339	-0.153
-362.669	-76.947	-0.170	-0.060
-361.654	-1.031	-0.079	-0.056
-360.639	-200.000	0.010	0.153
-359.625	13.059	0.304	0.237
-358.610	-200.000	0.012	-0.064
-357.596	-140.352	-0.236	-0.025
-356.581	452.625	-0.032	0.071
-355.566	-200.000	-0.017	0.211
-354.552	800.000	-0.065	0.187
-353.537	-61.114	0.112	0.048
-352.523	25.046	-0.136	0.113
-351.508	4.871	-0.177	0.132
-350.493	-130.412	-0.131	-0.018
-349.479	-121.533	0.158	0.026
-348.464	-200.000	0.285	-0.000
-347.450	490.439	0.051	0.117
-346.435	-96.547	-0.237	-0.063
-345.420	373.854	-0.092	0.189
-344.406	-68.378	-0.100	-0.039
-343.391	-144.222	0.234	-0.022
-342.377	-44.979	-0.106	-0.053
-341.362	-104.997	0.308	-0.071
-340.348	13.790	0.145	0.114
-339.333	-139.806	0.218	0.023
-338.318	177.063	-0.167	0.244
-337.304	800.000	-0.048	0.199
-336.289	409.000	-0.090	0.192
-335.275	-20.106	-0.288	-0.179
-334.260	273.338	-0.046	0.082
-333.245	-160.555	0.266	0.014
-332.231	55.791	-0.128	0.125
-331.216	-200.000	0.007	0.191
-330.202	96.788	-0.145	0.167
-329.187	-200.000	0.019	-0.170
-328.172	-23.879	-0.119	-0.072
-327.158	-0.876	-0.336	0.240
-326.143	-55.521	0.201	0.091
-325.129	-91.342	0.058	0.017
-324.114	249.782	-0.033	-0.056
-323.099	-200.000	0.016	-0.163
-322.085	-76.227	0.380	0.135
-321.070	-200.000	-0.049	-0.467
-320.056	18.853	0.263	-0.212
-319.041	-200.000	-0.018	0.206
-318.026	-128.380	-0.180	0.026
-317.012	-200.000	-0.021	0.321
-315.997	800.000	-0.031	-0.096
-314.983	-159.927	-0.181	0.010
-313.968	-106.022	0.250	0.057
-312.953	119.259	0.080	0.100
-311.939	-90.564	-0.206	0.060
-310.924	800.000	0.099	0.340
-309.910	-200.000	0.024	0.392
-308.895	800.000	-0.015	0.045
-307.880	-154.170	0.251	0.017
-306.866	41.484	0.078	0.071
-305.851	-70.717	0.268	0.102
-304.837	218.299	0.077	0.124
-303.822	-178.852	-0.298	-0.007
-302.807	-24.422	-0.154	0.093
-301.793	-17.274	-0.401	-0.254
-300.778	95.388	0.107	0.123
-299.764	-44.770	-0.232	-0.117
-298.749	-72.587	-0.304	-0.113
-297.735	-66.441	0.165	0.066
-296.720	212.012	0.145	0.230
-295.705	-61.833	0.145	0.061
-294.691	64.409	-0.143	0.145
-293.676	800.000	0.042	-0.118
-292.662	-96.179	-0.301	0.080
-291.647	-87.706	0.522	0.158
-290.632	800.000	-0.040	-0.132
-289.618	109.740	-0.083	-0.101
-288.603	-46.921	0.159	-0.078
-287.589	167.032	-0.100	-0.143
-286.574	800.000	0.042	-0.179
-285.559	-89.156	0.578	0.172
-284.545	68.548	-0.190	-0.196
-283.530	-4.875	-0.224	0.155
-282.516	-200.000	-0.002	0.159
-281.501	73.081	-0.188	0.198
-280.486	-105.586	-0.331	0.075
-279.472	-184.252	0.206	0.003
-278.457	-200.000	0.079	0.000
-277.443	80.051	-0.159	-0.172
-276.428	-33.093	0.306	0.171
-275.413	800.000	-0.022	0.085
-274.399	-44.005	-0.149	0.075
-273.384	-16.056	-0.132	0.084
-272.370	90.813	-0.137	-0.155
-271.355	-200.000	0.081	0.404
-270.340	84.007	-0.043	-0.048
-269.326	-88.949	0.416	0.124
-268.311	-38.418	0.321	-0.171
-267.297	174.318	0.096	-0.139
-266.282	-200.000	-0.020	-0.336
-265.267	198.547	-0.219	-0.337
-264.253	-51.355	0.069	-0.032
-263.238	108.054	-0.088	0.106
-262.224	758.126	-0.029	0.078
-261.209	-200.000	0.024	0.163
-260.195	194.386	-0.193	0.295
-259.180	-200.000	-0.037	-0.395
-258.165	53.715	0.107	-0.104
-257.151	-122.970	0.229	0.037
-256.136	-73.187	0.269	0.099
-255.122	-40.228	0.352	0.184
-254.107	140.168	0.185	0.245
-253.092	-24.639	-0.188	-0.112
-252.078	-85.466	0.233	-0.073
-251.063	800.000	-0.094	-0.296
-250.049	-137.729	0.085	-0.010
-249.034	323.621	-0.169	0.323
-248.019	-200.000	0.003	-0.538
-247.005	-200.000	-0.025	-0.131
-245.990	800.000	0.041	-0.176
-244.976	-200.000	0.040	-0.199
-243.961	27.432	0.111	0.094
-242.946	-170.728	-0.300	-0.010
-241.932	220.148	-0.270	-0.434
-240.917	800.000	0.104	-0.354
-239.903	544.829	-0.085	-0.204
-238.888	109.386	0.013	-0.016
-237.873	121.617	0.171	0.214
-236.859	-200.000	0.032	-0.328
-235.844	304.191	0.059	-0.109
-234.830	-159.386	0.360	-0.020
-233.815	-200.000	-0.028	0.351
-232.800	-129.709	0.064	-0.009
-231.786	-89.181	0.393	0.116
-230.771	800.000	0.037	0.116
-229.757	-14.082	-0.063	-0.041
-228.742	-56.584	0.148	0.066
-227.727	-76.469	0.218	0.077
-226.713	-111.924	-0.502	-0.102
-225.698	724.369	-0.014	0.036
-224.684	269.476	0.111	0.196
-223.669	-23.402	0.100	-0.061
-222.655	-69.907	-0.111	0.042
-221.640	-200.000	-0.008	0.574
-220.625	237.229	-0.074	0.124
-219.611	-96.758	0.261	-0.069
-218.596	-200.000	0.034	-0.163
-217.582	-12.571	0.196	-0.128
-216.567	4.180	-0.212	0.156
-215.552	131.941	0.053	-0.069
-214.538	111.509	0.089	-0.108
-213.523	-126.327	-0.113	-0.017
-212.509	-162.211	0.139	-0.007
-211.494	175.872	0.180	-0.263
-210.479	85.972	0.233	0.257
-209.465	562.929	0.148	0.360
-208.450	76.279	-0.151	0.160
-207.436	-200.000	0.032	-0.163
-206.421	-200.000	0.002	0.041
-205.406	-200.000	-0.038	0.382
-204.392	-184.579	-0.312	0.005
-203.377	-41.539	0.131	0.068
-202.363	212.073	0.014	-0.021
-201.348	-135.536	-0.473	0.056
-200.333	800.000	0.106	-0.412
-199.319	380.620	-0.093	0.190
-198.304	109.329	-0.196	0.235
-197.290	26.318	-0.165	-0.138
-196.275	-123.403	-0.308	0.049
-195.260	-90.488	0.245	0.071
-194.246	-189.131	0.162	0.002
-193.231	13.591	-0.044	0.034
-192.217	760.649	-0.132	0.360
-191.202	-119.592	0.141	-0.024
-190.187	322.742	-0.104	-0.198
-189.173	6.909	0.084	0.062
-188.158	-200.000	0.067	-0.303
-187.144	-85.085	0.310	-0.097
-186.129	-126.669	0.424	-0.063
-185.114	800.000	0.008	-0.034
-184.100	396.630	-0.061	-0.127
-183.085	34.139	-0.046	-0.040
-182.071	15.930	0.195	0.154
-181.056	-83.285	0.153	-0.049
-180.042	-129.933	-0.102	-0.014
-179.027	-44.449	0.178	-0.089
-178.012	242.350	-0.099	0.167
-176.998	-147.318	-0.224	0.019
-175.983	-200.000	0.015	0.255
-174.969	-200.000	0.002	-0.191
-173.954	59.547	-0.241	-0.238
-172.939	800.000	0.083	-0.283
-171.925	-93.821	-0.172	-0.047
-170.910	189.895	-0.112	-0.168
-169.896	59.017	-0.189	0.186
-168.881	-71.372	0.104	-0.039
-167.866	304.259	0.017	0.031
-166.852	496.834	-0.077	0.178
-165.837	-14.305	0.088	-0.057
-164.823	800.000	0.108	-0.308
-163.808	70.004	0.170	0.176
-162.793	-9.485	-0.170	-0.114
-161.779	-137.887	0.125	-0.014
-160.764	70.828	0.229	-0.238
-159.750	-9.500	-0.249	0.167
-158.735	319.672	0.073	-0.138
-157.720	-200.000	0.060	-0.396
-156.706	-96.133	-0.287	0.076
-155.691	-200.000	-0.046	0.330
-154.677	415.103	0.049	0.104
-153.662	-169.281	-0.197	-0.007
-152.647	-59.404	0.387	0.166
-151.633	48.460	0.159	-0.149
-150.618	-49.843	0.252	0.120
-149.604	4.975	-0.232	-0.171
-148.589	-63.752	-0.134	-0.055
-147.574	-200.000	0.064	0.383
-146.560	278.140	0.057	-0.101
-145.545	86.026	-0.261	-0.287
-144.531	-200.000	0.019	-0.182
-143.516	-43.656	0.197	-0.099
-142.502	-130.444	0.107	0.014
-141.487	171.525	0.072	-0.104
-140.472	-12.295	0.102	0.067
-139.458	-200.000	0.015	0.115
-138.443	-11.813	-0.124	0.082
-137.429	-104.247	-0.073	-0.017
-136.414	-121.912	0.254	0.042
-135.399	142.132	0.191	-0.253
-134.385	-20.600	0.061	-0.037
-133.370	-11.966	-0.173	-0.114
-132.356	6.028	0.099	0.074
-131.341	262.845	-0.066	-0.115
-130.326	-34.068	-0.212	-0.116
-129.312	83.089	0.110	0.119
-128.297	612.725	0.160	0.400
-127.283	-66.166	0.187	-0.074
-126.268	40.465	-0.108	-0.097
-125.253	-200.000	-0.040	0.320
-124.239	-49.744	-0.143	-0.068
-123.224	-200.000	0.014	-0.090
-122.210	-81.125	-0.192	0.064
-121.195	-107.596	0.332	-0.073
