DTS Sentinel unit serial number:	SN413079Multiplexer serial number:	ORYXHardware model number:	OX4-SRSoftware version number:	ORYX F/W v4.00 Oryx Data Collector v3.7.2.0data status	okinstallation	princeton_trtdifferential loss correction	single-endedforward channel	channel 2reverse channel	N/Adate	2019/09/18time	05:35:35forward acquisition time	60.00reverse acquisition time	0.00gamma	496.2192k internal	0.2348k external	0.2348temperature offset calibration	0.9986default loss term (dB/km)	0.3790temperature slope calibration	1.0000multiplexer offset coefficient	1.0000multiplexer slope coefficient	1.0000fibre end	0.00T internal ref (°C)	23.37T ext. ref 1 (°C)	0.19T ext. ref 2 (°C)	16.93length (m)	temperature (°C)	Stokes	anti-Stokes-747.200	800.000	0.070	0.285
-746.185	124.590	-0.116	0.145
-745.171	-115.099	-0.255	0.048
-744.156	-165.681	-0.279	0.012
-743.142	-97.688	0.381	0.099
-742.127	-200.000	0.034	0.505
-741.112	69.380	0.201	-0.207
-740.098	800.000	-0.090	0.312
-739.083	486.850	-0.214	0.488
-738.069	800.000	-0.038	0.149
-737.054	95.179	-0.243	0.276
-736.039	-123.729	-0.122	-0.019
-735.025	800.000	0.091	0.274
-734.010	182.719	-0.085	0.125
-732.996	267.038	-0.203	-0.355
-731.981	234.201	-0.145	0.238
-730.966	800.000	-0.108	0.402
-729.952	-200.000	-0.022	0.243
-728.937	439.699	-0.040	0.087
-727.923	-105.414	-0.061	-0.014
-726.908	-18.235	0.034	-0.021
-725.894	507.204	-0.046	-0.106
-724.879	780.445	0.112	-0.306
-723.864	-72.647	-0.047	-0.017
-722.850	-25.970	0.126	0.074
-721.835	-70.666	-0.300	-0.113
-720.821	-144.078	0.359	-0.034
-719.806	-67.895	0.169	0.066
-718.791	41.593	-0.112	0.102
-717.777	-50.325	0.067	0.032
-716.762	-200.000	0.046	-0.235
-715.748	-75.126	-0.237	-0.084
-714.733	116.973	0.108	0.133
-713.718	361.782	0.033	-0.066
-712.704	-200.000	-0.030	0.418
-711.689	205.000	-0.045	0.069
-710.675	-92.816	-0.130	0.036
-709.660	-68.720	0.130	-0.050
-708.645	-91.169	0.095	-0.027
-707.631	-126.174	-0.163	0.024
-706.616	-200.000	-0.011	-0.242
-705.602	-117.117	-0.297	0.054
-704.587	-119.754	-0.224	-0.038
-703.572	-200.000	0.016	0.240
-702.558	-108.174	0.215	-0.046
-701.543	210.298	-0.034	-0.053
-700.529	1.195	0.118	0.084
-699.514	370.494	0.079	-0.159
-698.499	-174.286	0.151	0.004
-697.485	193.195	-0.150	0.226
-696.470	-52.089	-0.265	-0.123
-695.456	32.629	-0.023	0.020
-694.441	408.925	0.050	-0.106
-693.426	-69.848	-0.450	-0.171
-692.412	800.000	-0.010	0.036
-691.397	-200.000	0.002	-0.019
-690.383	450.635	0.113	-0.248
-689.368	-44.644	-0.437	-0.217
-688.354	-200.000	-0.005	-0.172
-687.339	-88.088	-0.292	-0.087
-686.324	-200.000	-0.042	-0.558
-685.310	-27.542	0.310	0.179
-684.295	-129.494	-0.215	-0.030
-683.281	-27.004	-0.508	0.295
-682.266	800.000	-0.031	-0.086
-681.251	419.703	-0.010	0.021
-680.237	56.548	-0.313	-0.304
-679.222	800.000	-0.033	0.115
-678.208	-108.051	-0.334	0.072
-677.193	-14.646	0.245	0.157
-676.178	-132.803	-0.189	-0.024
-675.164	-200.000	0.008	0.161
-674.149	-75.648	0.113	0.040
-673.135	-200.000	0.026	0.117
-672.120	66.561	0.228	-0.231
-671.105	-66.419	0.235	0.093
-670.091	45.513	0.022	0.021
-669.076	173.444	-0.143	-0.205
-668.062	800.000	-0.051	0.206
-667.047	800.000	-0.127	-0.426
-666.032	-200.000	-0.007	-0.259
-665.018	800.000	0.071	0.282
-664.003	96.337	-0.292	0.333
-662.989	39.321	0.192	-0.171
-661.974	-4.624	-0.256	-0.176
-660.959	-24.311	-0.048	0.029
-659.945	24.679	-0.189	0.156
-658.930	-168.751	-0.369	-0.014
-657.916	-200.000	0.019	-0.220
-656.901	155.312	-0.082	0.112
-655.886	162.022	0.198	0.276
-654.872	800.000	-0.118	-0.423
-653.857	-115.653	-0.054	0.010
-652.843	-200.000	0.014	0.098
-651.828	-12.539	0.127	0.083
-650.814	800.000	-0.029	-0.110
-649.799	221.130	0.109	-0.174
-648.784	-103.366	-0.372	-0.087
-647.770	583.789	0.166	-0.406
-646.755	19.986	-0.056	0.045
-645.741	-174.987	-0.371	-0.010
-644.726	38.509	0.257	-0.228
-643.711	-91.261	-0.262	-0.075
-642.697	-69.728	0.179	0.068
-641.682	730.096	-0.143	0.381
-640.668	35.235	0.354	-0.309
-639.653	-68.253	-0.298	-0.115
-638.638	292.930	0.078	0.141
-637.624	-160.840	-0.075	0.004
-636.609	-20.348	0.077	-0.047
-635.595	1.829	0.342	0.245
-634.580	91.809	-0.042	0.047
-633.565	-33.507	-0.076	0.042
-632.551	-200.000	0.011	0.123
-631.536	101.214	-0.066	0.076
-630.522	-97.360	-0.240	0.062
-629.507	-59.717	0.416	0.177
-628.492	15.339	0.251	0.196
-627.478	19.351	0.046	0.037
-626.463	-200.000	-0.012	-0.052
-625.449	679.539	-0.105	-0.273
-624.434	769.071	-0.030	-0.081
-623.419	59.654	0.240	0.236
-622.405	-121.448	0.206	0.034
-621.390	800.000	-0.038	0.130
-620.376	-54.031	-0.442	0.200
-619.361	-96.151	0.163	-0.043
-618.346	191.437	0.098	0.147
-617.332	-119.741	0.176	-0.030
-616.317	128.106	-0.166	-0.210
-615.303	-145.446	0.092	-0.008
-614.288	-139.097	-0.087	0.009
-613.273	21.757	0.079	0.064
-612.259	-200.000	-0.053	-0.287
-611.244	800.000	-0.108	0.317
-610.230	60.419	-0.168	0.165
-609.215	263.771	0.046	-0.079
-608.201	800.000	0.086	-0.244
-607.186	-146.953	0.150	0.013
-606.171	9.542	-0.291	-0.219
-605.157	372.351	0.084	0.170
-604.142	356.926	-0.093	0.184
-603.128	250.645	0.166	-0.281
-602.113	-99.272	0.221	0.056
-601.098	-154.189	-0.394	0.026
-600.084	219.230	0.062	-0.098
-599.069	-64.067	-0.257	0.104
-598.055	9.446	0.315	0.237
-597.040	-74.816	-0.418	0.149
-596.025	-2.773	0.084	0.059
-595.011	-200.000	0.009	0.168
-593.996	-200.000	-0.063	0.282
-592.982	-119.479	-0.289	-0.050
-591.967	-80.606	0.062	0.021
-590.952	-81.137	-0.311	0.102
-589.938	-91.741	-0.374	0.106
-588.923	23.404	0.299	0.244
-587.909	-62.944	-0.107	0.044
-586.894	800.000	-0.051	-0.169
-585.879	-79.287	0.010	0.003
-584.865	129.262	-0.108	0.137
-583.850	800.000	0.059	-0.176
-582.836	-102.644	-0.230	-0.054
-581.821	95.576	-0.141	0.159
-580.806	288.384	-0.146	-0.262
-579.792	-77.373	0.120	-0.041
-578.777	-47.210	0.384	-0.186
-577.763	-174.439	-0.399	-0.011
-576.748	-127.989	-0.327	0.047
-575.733	-200.000	0.021	0.091
-574.719	97.839	-0.300	-0.343
-573.704	2.657	-0.127	0.091
-572.690	-92.365	-0.148	0.041
-571.675	42.450	0.128	-0.116
-570.661	800.000	-0.085	-0.282
-569.646	9.222	-0.218	-0.164
-568.631	89.497	-0.141	-0.156
-567.617	-20.105	-0.054	0.033
-566.602	-55.627	-0.134	-0.060
-565.588	17.139	-0.125	-0.098
-564.573	3.051	0.257	-0.185
-563.558	285.450	0.096	-0.172
-562.544	-134.464	0.208	0.025
-561.529	64.800	0.077	-0.077
-560.515	59.614	0.069	0.067
-559.500	-200.000	0.028	0.221
-558.485	-53.130	0.351	-0.160
-557.471	-145.771	-0.219	0.019
-556.456	800.000	0.081	-0.239
-555.442	6.426	0.182	0.134
-554.427	-39.967	-0.020	-0.010
-553.412	-125.841	0.087	-0.013
-552.398	-123.732	-0.350	0.055
-551.383	784.664	-0.030	0.081
-550.369	-29.719	0.200	0.113
-549.354	-55.389	-0.256	0.114
-548.339	-9.435	-0.123	-0.081
-547.325	20.313	0.100	0.080
-546.310	-200.000	0.016	0.138
-545.296	-83.740	-0.086	-0.027
-544.281	101.488	0.145	0.168
-543.266	-122.175	-0.133	-0.022
-542.252	-19.119	-0.102	0.063
-541.237	776.708	0.181	-0.490
-540.223	-153.878	0.329	0.022
-539.208	-15.768	0.323	0.204
-538.193	277.100	-0.129	0.228
-537.179	236.235	-0.051	-0.084
-536.164	-22.060	0.100	-0.060
-535.150	-54.582	0.262	0.118
-534.135	-75.546	0.127	0.045
-533.121	-184.176	-0.282	0.005
-532.106	-200.000	0.003	-0.226
-531.091	-74.140	0.328	-0.118
-530.077	659.008	-0.161	-0.410
-529.062	50.299	-0.125	-0.117
-528.048	-34.279	-0.074	0.040
-527.033	-200.000	0.011	-0.123
-526.018	87.291	-0.157	-0.172
-525.004	800.000	0.094	0.342
-523.989	141.764	-0.139	-0.183
-522.975	-200.000	-0.005	-0.240
-521.960	625.995	0.060	0.149
-520.945	-8.140	0.155	0.103
-519.931	-62.318	-0.178	0.073
-518.916	-103.468	0.368	0.086
-517.902	-66.498	0.098	-0.038
-516.887	97.563	0.117	-0.133
-515.872	-200.000	-0.157	0.000
-514.858	-200.000	0.003	0.058
-513.843	-124.517	0.162	0.025
-512.829	-107.908	-0.255	0.055
-511.814	-200.000	-0.008	-0.227
-510.799	-43.955	0.186	-0.092
-509.785	-88.253	-0.313	0.093
-508.770	800.000	0.032	0.110
-507.756	97.476	0.142	0.161
-506.741	62.472	-0.236	-0.233
-505.726	78.665	-0.242	0.256
-504.712	-200.000	-0.002	0.116
-503.697	-61.582	0.297	-0.123
-502.683	356.771	-0.183	0.361
-501.668	-14.207	0.077	-0.049
-500.653	-20.469	0.176	0.107
-499.639	72.945	0.256	0.264
-498.624	428.449	0.126	0.270
-497.610	665.145	0.102	0.260
-496.595	800.000	-0.033	0.098
-495.581	-135.909	-0.144	-0.017
-494.566	5.926	0.281	0.206
-493.551	700.832	-0.103	-0.267
-492.537	-100.799	-0.085	-0.021
-491.522	800.000	0.046	0.171
-490.508	-200.000	-0.001	0.144
-489.493	-147.836	0.080	0.007
-488.478	-121.331	-0.323	-0.053
-487.464	122.557	0.132	0.163
-486.449	6.165	-0.244	0.179
-485.435	55.207	0.112	0.107
-484.420	125.722	0.191	-0.239
-483.405	312.111	-0.200	0.371
-482.391	279.518	0.117	-0.207
-481.376	-0.565	0.170	0.119
-480.362	-200.000	0.021	-0.154
-479.347	800.000	-0.054	0.163
-478.332	-100.533	0.130	-0.032
-477.318	9.838	-0.344	0.258
-476.303	-80.177	0.238	-0.079
-475.289	313.352	-0.035	0.065
-474.274	-200.000	-0.006	-0.174
-473.259	205.102	0.134	0.205
-472.245	-49.576	-0.112	-0.053
-471.230	233.750	0.057	0.092
-470.216	-65.540	-0.473	0.187
-469.201	-85.561	0.145	0.045
-468.186	51.439	0.079	-0.074
-467.172	-102.368	-0.370	0.088
-466.157	-147.480	0.342	0.029
-465.143	-135.625	-0.149	-0.017
-464.128	800.000	0.152	0.415
-463.113	-200.000	0.005	0.048
-462.099	-108.810	-0.197	0.042
-461.084	108.583	0.275	0.325
-460.070	-200.000	0.006	0.233
-459.055	-122.352	-0.365	0.059
-458.040	122.339	-0.203	-0.250
-457.026	9.189	-0.139	-0.104
-456.011	-200.000	-0.059	0.425
-454.997	169.642	0.025	0.035
-453.982	376.116	0.177	-0.357
-452.968	-146.995	-0.067	-0.006
-451.953	-200.000	-0.019	-0.183
-450.938	-112.638	-0.384	-0.075
-449.924	-73.517	0.167	-0.060
-448.909	-74.592	0.185	-0.066
-447.895	-200.000	0.001	-0.212
-446.880	26.255	-0.333	-0.275
-445.865	-86.680	-0.180	0.054
-444.851	-155.827	0.274	-0.017
-443.836	-200.000	0.072	-0.405
-442.822	139.761	0.054	-0.071
-441.807	-188.834	-0.090	0.001
-440.792	21.464	-0.143	0.115
-439.778	-42.542	-0.144	-0.072
-438.763	-29.946	0.073	-0.041
-437.749	800.000	-0.070	-0.221
-436.734	-122.580	0.232	0.037
-435.719	-200.000	-0.039	0.192
-434.705	800.000	-0.041	0.137
-433.690	-200.000	-0.023	-0.245
-432.676	451.817	0.222	-0.483
-431.661	-76.991	0.382	0.132
-430.646	203.462	-0.179	0.273
-429.632	428.542	0.088	-0.188
-428.617	183.865	0.068	0.099
-427.603	98.694	0.134	-0.152
-426.588	88.298	0.095	-0.104
-425.573	201.432	0.083	-0.126
-424.559	-90.973	-0.096	-0.027
-423.544	-3.993	0.301	-0.206
-422.530	-200.000	-0.035	-0.360
-421.515	-4.743	-0.239	-0.163
-420.500	-53.795	0.272	0.123
-419.486	-7.810	0.198	0.132
-418.471	-170.704	0.233	0.008
-417.457	-68.996	0.114	-0.043
-416.442	618.845	0.105	0.261
-415.428	800.000	-0.024	-0.075
-414.413	-200.000	0.005	0.534
-413.398	492.184	0.075	0.170
-412.384	186.864	-0.082	0.121
-411.369	-40.402	0.216	-0.111
-410.355	-200.000	-0.021	0.306
-409.340	-168.343	-0.272	-0.010
-408.325	800.000	0.039	0.140
-407.311	219.356	0.133	-0.210
-406.296	45.342	-0.154	0.140
-405.282	-200.000	0.001	0.056
-404.267	523.805	-0.137	-0.318
-403.252	243.303	-0.059	0.097
-402.238	48.149	0.410	-0.378
-401.223	-39.703	-0.066	-0.034
-400.209	-130.529	-0.113	0.015
-399.194	-25.377	-0.043	-0.025
-398.179	-119.482	-0.205	0.035
-397.165	432.917	-0.085	-0.182
-396.150	127.492	0.084	-0.106
-395.136	83.852	-0.096	-0.103
-394.121	30.329	-0.194	-0.163
-393.106	-58.115	0.112	0.048
-392.092	134.190	0.124	-0.159
-391.077	-3.280	-0.181	-0.124
-390.063	16.217	0.036	-0.028
-389.048	19.290	-0.145	0.115
-388.033	-124.888	0.199	-0.030
-387.019	150.549	0.113	0.151
-386.004	42.245	-0.126	0.112
-384.990	-127.290	-0.220	0.032
-383.975	-200.000	-0.043	0.233
-382.960	-167.709	-0.100	0.004
-381.946	-110.480	0.415	-0.085
-380.931	-39.054	0.271	-0.140
-379.917	174.271	-0.174	0.248
-378.902	800.000	0.077	-0.241
-377.888	18.110	0.099	-0.078
-376.873	-200.000	0.020	-0.196
-375.858	800.000	0.071	0.299
-374.844	-200.000	0.072	-0.429
-373.829	-28.236	-0.049	0.028
-372.815	-178.260	-0.281	-0.006
-371.800	-70.128	0.124	-0.046
-370.785	-200.000	0.064	0.294
-369.771	190.721	0.188	0.278
-368.756	800.000	-0.030	0.115
-367.742	42.614	-0.098	-0.088
-366.727	38.223	0.193	0.169
-365.712	-118.558	0.165	-0.029
-364.698	758.615	-0.068	-0.182
-363.683	-200.000	0.022	-0.197
-362.669	-11.632	0.522	0.337
-361.654	-123.235	0.273	0.043
-360.639	-54.213	-0.093	0.041
-359.625	323.682	0.069	-0.129
-358.610	-200.000	0.021	0.154
-357.596	-41.506	-0.176	0.089
-356.581	-200.000	0.032	0.230
-355.566	509.027	-0.123	0.282
-354.552	-200.000	-0.027	0.130
-353.537	-200.000	-0.001	-0.009
-352.523	-11.217	-0.214	0.139
-351.508	800.000	0.044	-0.138
-350.493	-200.000	-0.012	0.065
-349.479	425.485	0.045	-0.096
-348.464	-40.310	0.411	-0.210
-347.450	-38.090	0.099	-0.052
-346.435	-86.368	0.237	0.072
-345.420	15.095	-0.114	-0.088
-344.406	-200.000	0.090	0.523
-343.391	3.893	0.267	-0.192
-342.377	23.057	-0.141	-0.113
-341.362	0.627	-0.098	0.069
-340.348	253.046	-0.208	-0.350
-339.333	255.408	0.180	-0.303
-338.318	43.814	0.313	-0.282
-337.304	-138.691	-0.358	0.038
-336.289	413.852	0.078	-0.163
-335.275	-130.330	-0.317	-0.042
-334.260	1.560	0.257	0.182
-333.245	800.000	0.121	-0.468
-332.231	73.233	0.116	0.120
-331.216	44.779	0.109	0.098
-330.202	800.000	0.071	-0.210
-329.187	-200.000	0.061	-0.343
-328.172	-156.293	-0.340	0.021
-327.158	-20.838	0.220	0.133
-326.143	702.304	-0.096	0.249
-325.129	-71.511	-0.283	-0.104
-324.114	-138.701	-0.405	-0.044
-323.099	800.000	0.056	-0.172
-322.085	-85.215	-0.233	-0.072
-321.070	260.985	-0.155	-0.264
-320.056	-200.000	0.043	0.245
-319.041	-49.988	-0.266	-0.124
-318.026	330.481	0.112	-0.212
-317.012	-46.858	-0.240	-0.115
-315.997	-55.417	-0.187	0.082
-314.983	-96.987	0.243	-0.063
-313.968	211.823	0.074	-0.114
-312.953	-49.990	0.084	-0.039
-311.939	198.022	0.109	0.163
-310.924	-103.471	0.369	0.085
-309.910	258.108	-0.053	0.089
-308.895	800.000	-0.024	0.097
-307.880	800.000	0.117	0.423
-306.866	-200.000	-0.004	0.099
-305.851	-144.408	0.034	-0.003
-304.837	143.633	0.249	-0.325
-303.822	-53.462	0.431	0.194
-302.807	123.530	0.120	-0.147
-301.793	-200.000	0.015	-0.223
-300.778	-19.230	0.181	-0.110
-299.764	-43.392	0.309	-0.153
-298.749	-150.355	0.219	0.017
-297.735	-200.000	0.011	-0.066
-296.720	-200.000	0.024	-0.231
-295.705	-132.336	-0.184	-0.023
-294.691	-141.768	-0.273	-0.027
-293.676	-189.477	0.334	-0.004
-292.662	-117.008	-0.299	0.054
-291.647	82.352	-0.223	0.237
-290.632	800.000	-0.073	-0.217
-289.618	-88.187	0.163	0.048
-288.603	-200.000	-0.023	-0.408
-287.589	-200.000	0.002	0.008
-286.574	-47.655	-0.209	0.100
-285.559	-35.836	-0.279	-0.148
-284.545	-200.000	0.004	0.066
-283.530	84.031	-0.289	0.310
-282.516	-112.676	-0.190	0.037
-281.501	136.209	0.035	-0.045
-280.486	-110.828	0.248	-0.050
-279.472	-116.381	-0.455	0.082
-278.457	-93.349	0.214	-0.058
-277.443	-23.943	-0.208	-0.122
-276.428	-167.111	-0.281	-0.011
-275.413	545.984	-0.085	-0.199
-274.399	285.104	-0.076	-0.134
-273.384	153.536	0.141	0.189
-272.370	-69.262	-0.217	0.082
-271.355	80.228	0.109	-0.115
-270.340	-96.810	0.244	0.063
-269.326	12.916	-0.320	-0.243
-268.311	-57.184	-0.082	-0.035
-267.297	800.000	-0.011	-0.045
-266.282	248.481	0.110	0.183
-265.267	-200.000	0.069	0.389
-264.253	800.000	0.119	-0.391
-263.238	-163.762	-0.360	-0.017
-262.224	93.767	0.267	0.297
-261.209	-142.523	0.282	-0.027
-260.195	-2.210	-0.178	0.123
-259.180	396.975	-0.127	-0.260
-258.165	-200.000	-0.050	0.296
-257.151	-200.000	-0.025	0.145
-256.136	228.265	0.136	-0.217
-255.122	-166.739	0.248	-0.010
-254.107	211.490	0.163	0.252
-253.092	-66.073	-0.177	-0.069
-252.078	-108.077	0.057	0.012
-251.063	51.880	-0.152	-0.142
-250.049	-114.465	-0.123	0.023
-249.034	571.773	-0.102	0.244
-248.019	-200.000	0.035	-0.253
-247.005	-200.000	0.152	0.001
-245.990	-90.937	-0.319	0.090
-244.976	347.236	0.146	-0.281
-243.961	50.046	0.251	0.232
-242.946	-81.889	0.159	-0.051
-241.932	-82.577	-0.191	0.061
-240.917	-100.256	-0.205	-0.050
-239.903	-62.311	0.115	-0.047
-238.888	-71.408	-0.237	-0.087
-237.873	-200.000	-0.042	0.202
-236.859	-200.000	0.030	0.237
-235.844	-81.746	0.440	-0.141
-234.830	333.850	-0.208	-0.394
-233.815	18.665	0.059	-0.046
-232.800	7.043	-0.208	0.152
-231.786	48.979	0.072	0.066
-230.771	-122.824	-0.219	0.035
-229.757	-12.356	0.427	0.274
-228.742	-88.379	-0.594	0.174
-227.727	-29.271	0.200	0.112
-226.713	562.810	-0.027	-0.065
-225.698	-83.948	-0.370	-0.115
-224.684	800.000	-0.018	-0.069
-223.669	54.867	0.086	-0.081
-222.655	-17.843	-0.258	-0.158
-221.640	694.686	-0.098	-0.251
-220.625	138.025	-0.072	0.092
-219.611	526.666	0.075	0.173
-218.596	-55.794	0.134	0.059
-217.582	800.000	0.021	-0.064
-216.567	84.413	0.214	-0.229
-215.552	-200.000	0.047	-0.350
-214.538	-200.000	-0.001	0.074
-213.523	19.122	-0.203	-0.159
-212.509	103.826	0.113	0.130
-211.494	-58.998	0.130	0.055
-210.479	16.796	-0.087	-0.067
-209.465	228.605	-0.210	-0.334
-208.450	800.000	0.109	0.350
-207.436	-134.536	-0.230	0.028
-206.421	-200.000	-0.017	-0.086
-205.406	280.398	0.144	0.252
-204.392	88.304	0.267	-0.290
-203.377	-54.326	0.266	-0.118
-202.363	341.765	0.117	0.223
-201.348	-161.059	-0.114	0.006
-200.333	91.079	-0.210	0.230
-199.319	256.527	-0.114	-0.191
-198.304	-200.000	0.010	0.096
-197.290	121.588	-0.131	-0.159
-196.275	-142.525	-0.310	-0.030
-195.260	305.145	0.156	0.284
-194.246	-159.554	0.679	-0.037
-193.231	66.060	0.057	-0.057
-192.217	82.733	0.124	0.132
-191.202	-200.000	-0.051	0.302
-190.187	-200.000	0.003	0.223
-189.173	800.000	-0.043	-0.156
-188.158	800.000	-0.099	-0.317
-187.144	321.705	-0.036	0.067
-186.129	166.878	0.058	-0.080
-185.114	-45.210	-0.012	-0.006
-184.100	-36.415	0.362	-0.191
-183.085	-61.829	0.193	0.079
-182.071	800.000	-0.081	0.226
-181.056	-54.909	0.075	-0.033
-180.042	-49.503	0.265	-0.123
-179.027	-200.000	0.025	0.148
-178.012	-33.475	-0.231	0.125
-176.998	14.843	0.141	0.108
-175.983	-200.000	0.030	0.364
-174.969	800.000	0.119	0.326
-173.954	60.575	-0.232	0.224
-172.939	97.325	-0.117	0.132
-171.925	-41.881	-0.167	-0.083
-170.910	-149.920	-0.131	-0.010
-169.896	-186.030	0.240	0.003
-168.881	-81.845	-0.150	0.048
-167.866	-200.000	-0.075	-0.329
-166.852	-200.000	0.049	0.282
-165.837	-83.791	0.120	0.037
-164.823	262.416	0.109	0.185
-163.808	5.240	0.153	-0.110
-162.793	478.372	0.011	-0.024
-161.779	-200.000	0.014	-0.144
-160.764	800.000	-0.099	-0.318
-159.750	195.309	0.058	0.086
-158.735	261.533	0.025	0.043
-157.720	-109.045	-0.270	0.056
-156.706	-94.784	-0.314	-0.083
-155.691	-135.636	0.442	-0.051
-154.677	254.695	-0.167	-0.279
-153.662	-18.847	-0.100	0.061
-152.647	4.991	0.040	0.028
-151.633	-133.599	-0.352	0.043
-150.618	-51.397	-0.216	-0.099
-149.604	88.112	-0.099	0.108
-148.589	-146.509	0.287	0.024
-147.574	-102.636	0.165	0.038
-146.560	-81.234	-0.164	0.053
-145.545	52.501	0.215	0.200
-144.531	800.000	-0.077	-0.326
-143.516	743.170	-0.063	-0.166
-142.502	691.986	0.059	0.151
-141.487	-152.188	-0.326	0.023
-140.472	-149.454	0.239	-0.018
-139.458	-28.994	0.183	-0.102
-138.443	-40.098	-0.245	0.124
-137.429	-123.033	-0.160	0.025
-136.414	-124.142	-0.224	-0.034
-135.399	-101.259	-0.082	-0.020
-134.385	800.000	0.179	0.708
-133.370	-79.423	-0.430	0.142
-132.356	-200.000	-0.029	0.290
-131.341	26.074	0.166	0.135
-130.326	-76.887	-0.111	-0.038
-129.312	215.463	0.092	0.142
-128.297	-200.000	0.000	-0.102
-127.283	19.742	0.094	-0.074
-126.268	-113.262	-0.209	0.040
-125.253	-100.852	-0.156	-0.037
-124.239	800.000	-0.065	-0.251
-123.224	-68.744	0.037	-0.014
-122.210	-71.059	-0.085	-0.031
-121.195	121.509	-0.090	-0.109
