DTS Sentinel unit serial number:	SN413079Multiplexer serial number:	ORYXHardware model number:	OX4-SRSoftware version number:	ORYX F/W v4.00 Oryx Data Collector v3.7.2.0data status	okinstallation	princeton_trtdifferential loss correction	single-endedforward channel	channel 2reverse channel	N/Adate	2019/09/14time	04:55:34forward acquisition time	60.00reverse acquisition time	0.00gamma	496.2192k internal	0.2336k external	0.2336temperature offset calibration	1.0130default loss term (dB/km)	0.3790temperature slope calibration	1.0000multiplexer offset coefficient	1.0000multiplexer slope coefficient	1.0000fibre end	0.00T internal ref (°C)	26.87T ext. ref 1 (°C)	3.37T ext. ref 2 (°C)	21.98length (m)	temperature (°C)	Stokes	anti-Stokes-747.200	164.629	-0.082	-0.116
-746.185	507.412	-0.108	0.252
-745.171	86.050	-0.237	0.261
-744.156	-59.300	-0.361	0.156
-743.142	508.787	-0.164	0.383
-742.127	-200.000	0.017	0.157
-741.112	91.912	0.196	0.222
-740.098	8.380	0.164	0.124
-739.083	800.000	0.042	-0.163
-738.069	800.000	0.036	0.133
-737.054	671.509	-0.039	0.102
-736.039	-100.945	0.111	0.027
-735.025	-169.486	-0.149	-0.005
-734.010	-70.655	0.096	-0.036
-732.996	495.244	-0.038	0.086
-731.981	-72.305	-0.206	0.076
-730.966	476.838	0.102	-0.231
-729.952	76.248	-0.183	-0.194
-728.937	800.000	-0.037	0.121
-727.923	-200.000	0.016	-0.174
-726.908	-200.000	0.008	0.168
-725.894	-103.818	0.258	-0.060
-724.879	-133.675	-0.281	-0.035
-723.864	-31.865	-0.217	0.122
-722.850	91.060	0.131	0.147
-721.835	-32.445	-0.176	0.099
-720.821	-38.204	-0.204	-0.109
-719.806	72.398	-0.182	0.190
-718.791	-81.433	-0.338	-0.111
-717.777	-200.000	-0.059	-0.528
-716.762	-8.462	-0.205	0.138
-715.748	146.574	-0.090	-0.122
-714.733	237.960	0.078	-0.130
-713.718	-200.000	0.049	-0.317
-712.704	-200.000	0.042	-0.228
-711.689	147.887	-0.131	0.177
-710.675	580.955	0.091	0.224
-709.660	78.720	0.177	0.190
-708.645	559.286	0.110	0.267
-707.631	83.413	0.358	-0.391
-706.616	-69.114	0.132	-0.051
-705.602	-200.000	0.012	0.229
-704.587	-200.000	-0.014	-0.260
-703.572	-7.589	0.213	-0.144
-702.558	-17.448	-0.124	0.078
-701.543	-200.000	0.027	-0.121
-700.529	156.236	0.184	-0.254
-699.514	-80.576	-0.240	0.080
-698.499	-15.219	-0.150	0.096
-697.485	-26.038	-0.570	-0.336
-696.470	-55.223	0.082	0.037
-695.456	51.133	-0.024	0.022
-694.441	-113.418	0.305	0.060
-693.426	800.000	0.047	0.192
-692.412	-200.000	0.008	0.100
-691.397	-200.000	0.012	0.301
-690.383	-200.000	0.014	-0.147
-689.368	-95.573	-0.355	-0.095
-688.354	800.000	0.078	-0.257
-687.339	-64.631	0.140	-0.057
-686.324	-42.664	-0.088	-0.045
-685.310	-129.751	-0.192	0.026
-684.295	97.533	-0.105	0.121
-683.281	-18.023	-0.225	0.141
-682.266	-10.949	-0.088	-0.058
-681.251	-25.687	-0.160	0.095
-680.237	-82.258	0.121	-0.040
-679.222	122.010	0.052	0.065
-678.208	-107.741	0.047	-0.010
-677.193	-65.178	-0.218	-0.088
-676.178	-200.000	-0.008	0.047
-675.164	123.864	0.299	-0.376
-674.149	246.671	-0.187	0.316
-673.135	-200.000	0.006	-0.153
-672.120	-55.370	-0.512	0.230
-671.105	-15.874	-0.055	-0.035
-670.091	21.302	-0.208	-0.169
-669.076	-163.008	0.207	-0.010
-668.062	-46.163	-0.065	-0.032
-667.047	157.214	-0.109	0.152
-666.032	800.000	0.061	-0.266
-665.018	-24.983	-0.087	0.052
-664.003	-65.786	-0.076	0.030
-662.989	-200.000	0.052	0.279
-661.974	54.586	-0.136	-0.131
-660.959	236.906	-0.018	-0.029
-659.945	70.890	-0.094	0.097
-658.930	-166.354	-0.189	-0.008
-657.916	800.000	-0.015	0.049
-656.901	322.697	0.143	-0.273
-655.886	138.300	-0.196	-0.257
-654.872	-200.000	-0.000	0.128
-653.857	300.470	0.097	0.180
-652.843	18.913	0.457	-0.367
-651.828	719.933	-0.158	-0.420
-650.814	-134.196	0.228	-0.028
-649.799	-200.000	0.010	-0.253
-648.784	346.309	0.037	-0.072
-647.770	144.671	0.042	0.056
-646.755	800.000	0.022	-0.071
-645.741	-14.354	-0.290	-0.187
-644.726	12.538	0.237	-0.183
-643.711	800.000	0.071	-0.297
-642.697	82.531	-0.097	-0.106
-641.682	800.000	-0.028	-0.090
-640.668	176.587	-0.121	0.175
-639.653	-68.792	-0.082	-0.032
-638.638	90.968	-0.230	-0.258
-637.624	240.818	0.044	0.073
-636.609	31.265	0.197	-0.169
-635.595	-121.122	0.115	-0.019
-634.580	-43.607	-0.227	0.115
-633.565	-129.216	0.155	-0.022
-632.551	-28.535	0.106	-0.061
-631.536	-101.397	0.374	0.091
-630.522	-125.215	-0.217	-0.033
-629.507	126.416	-0.153	0.193
-628.492	800.000	0.102	0.425
-627.478	-200.000	0.017	0.119
-626.463	-200.000	-0.026	-0.122
-625.449	-35.695	0.247	-0.134
-624.434	61.666	-0.253	-0.251
-623.419	37.315	-0.091	-0.081
-622.405	520.584	-0.098	0.229
-621.390	443.991	-0.027	0.060
-620.376	-43.587	0.139	0.070
-619.361	63.290	-0.076	-0.076
-618.346	-68.504	-0.350	-0.136
-617.332	39.628	-0.115	0.103
-616.317	-15.576	0.061	-0.039
-615.303	-89.706	-0.505	-0.148
-614.288	126.308	0.156	-0.197
-613.273	-57.268	-0.111	-0.049
-612.259	-7.774	-0.045	-0.031
-611.244	308.502	-0.184	0.344
-610.230	56.429	-0.215	-0.208
-609.215	729.977	-0.090	-0.240
-608.201	31.887	0.175	0.150
-607.186	317.377	-0.171	0.322
-606.171	353.427	0.129	0.256
-605.157	437.678	-0.099	-0.217
-604.142	-0.029	0.083	-0.059
-603.128	-117.995	0.263	-0.047
-602.113	-32.830	-0.211	-0.117
-601.098	-156.280	0.303	-0.019
-600.084	350.038	-0.111	-0.218
-599.069	252.490	0.112	-0.191
-598.055	800.000	0.070	0.231
-597.040	-75.940	-0.470	0.166
-596.025	-14.488	0.348	0.223
-595.011	800.000	-0.082	-0.312
-593.996	-136.897	0.257	-0.029
-592.982	3.717	0.463	-0.337
-591.967	-38.064	0.095	-0.051
-590.952	266.050	0.139	-0.241
-589.938	139.237	0.128	-0.168
-588.923	-88.334	0.100	-0.030
-587.909	-200.000	0.041	0.306
-586.894	-42.778	0.216	-0.110
-585.879	-200.000	0.036	-0.344
-584.865	-38.884	0.116	-0.061
-583.850	108.241	0.180	-0.214
-582.836	-66.945	-0.269	0.106
-581.821	4.432	0.040	-0.030
-580.806	-85.146	-0.146	-0.046
-579.792	592.177	-0.096	0.235
-578.777	-42.785	-0.235	-0.119
-577.763	-62.880	-0.198	-0.082
-576.748	-82.362	0.214	0.070
-575.733	324.704	0.209	0.399
-574.719	380.393	-0.076	0.155
-573.704	176.654	-0.122	-0.176
-572.690	-94.990	-0.091	0.025
-571.675	-132.956	0.368	-0.047
-570.661	-138.782	0.132	-0.014
-569.646	-176.430	0.457	-0.012
-568.631	3.415	-0.251	-0.182
-567.617	243.173	-0.042	0.070
-566.602	-37.742	-0.422	-0.224
-565.588	-146.205	0.182	0.016
-564.573	13.384	-0.207	-0.160
-563.558	-200.000	-0.002	-0.106
-562.544	-90.760	0.031	-0.009
-561.529	242.830	-0.206	0.344
-560.515	387.665	0.050	0.103
-559.500	-117.843	0.131	-0.023
-558.485	-200.000	0.023	-0.173
-557.471	-200.000	-0.043	-0.281
-556.456	-82.590	-0.210	-0.068
-555.442	195.979	0.015	0.022
-554.427	-39.042	0.071	-0.037
-553.412	-114.329	0.305	0.058
-552.398	63.649	0.176	0.176
-551.383	-31.851	0.235	-0.131
-550.369	111.373	0.187	0.225
-549.354	-125.184	-0.131	0.020
-548.339	-200.000	-0.008	-0.067
-547.325	-159.079	0.160	-0.009
-546.310	497.485	0.036	-0.083
-545.296	23.929	0.188	0.155
-544.281	-32.837	-0.117	-0.065
-543.266	144.574	0.150	0.200
-542.252	-68.570	0.112	0.043
-541.237	161.892	-0.040	-0.056
-540.223	-200.000	-0.003	-0.188
-539.208	-81.439	-0.282	-0.092
-538.193	211.285	-0.044	-0.069
-537.179	-26.068	-0.104	0.061
-536.164	-65.598	-0.161	0.065
-535.150	16.790	-0.096	0.076
-534.135	-200.000	0.006	-0.161
-533.121	-79.470	-0.335	-0.113
-532.106	-93.340	0.106	-0.029
-531.091	-2.240	0.160	-0.112
-530.077	17.217	0.413	-0.327
-529.062	-103.635	-0.144	0.034
-528.048	327.545	0.066	0.126
-527.033	215.329	-0.170	-0.269
-526.018	460.316	-0.117	0.258
-525.004	-113.775	0.092	0.018
-523.989	51.839	0.069	-0.065
-522.975	-200.000	0.010	0.129
-521.960	-46.316	0.076	0.037
-520.945	-116.966	-0.189	-0.034
-519.931	-122.645	0.140	-0.023
-518.916	119.172	0.045	0.055
-517.902	800.000	0.028	0.115
-516.887	204.994	-0.093	0.143
-515.872	-200.000	0.022	0.242
-514.858	-164.620	-0.308	-0.014
-513.843	75.753	0.143	-0.150
-512.829	-84.466	-0.110	-0.035
-511.814	-120.574	-0.413	0.070
-510.799	-75.279	0.089	0.032
-509.785	150.217	-0.130	-0.175
-508.770	-200.000	-0.002	-0.147
-507.756	-0.516	0.079	-0.056
-506.741	250.271	0.089	-0.150
-505.726	156.124	-0.106	-0.145
-504.712	800.000	-0.032	-0.136
-503.697	14.408	0.095	-0.074
-502.683	-79.434	-0.428	0.144
-501.668	40.267	0.124	0.111
-500.653	57.953	0.029	-0.029
-499.639	-129.376	0.222	-0.031
-498.624	-200.000	0.036	-0.316
-497.610	-138.595	-0.182	0.020
-496.595	-200.000	0.010	-0.248
-495.581	800.000	0.065	-0.209
-494.566	-200.000	-0.012	0.138
-493.551	23.484	0.223	-0.182
-492.537	-114.715	0.396	0.075
-491.522	298.018	0.063	0.115
-490.508	-200.000	0.036	-0.158
-489.493	800.000	-0.016	-0.065
-488.478	-200.000	-0.037	0.192
-487.464	-200.000	0.049	0.271
-486.449	-200.000	-0.001	-0.323
-485.435	-47.917	0.124	-0.059
-484.420	-118.121	0.446	-0.079
-483.405	-200.000	-0.005	-0.052
-482.391	-19.291	-0.485	0.299
-481.376	-186.104	0.253	-0.004
-480.362	-137.927	-0.266	0.030
-479.347	-117.657	-0.174	-0.031
-478.332	77.322	-0.198	0.209
-477.318	-178.174	-0.437	0.010
-476.303	70.723	-0.167	0.172
-475.289	-174.983	0.085	-0.002
-474.274	-95.592	0.476	-0.127
-473.259	7.490	0.147	0.109
-472.245	-51.307	-0.218	-0.101
-471.230	393.591	-0.066	0.136
-470.216	103.403	0.196	-0.228
-469.201	625.480	0.117	0.293
-468.186	-74.556	0.234	-0.084
-467.172	72.768	0.311	-0.323
-466.157	800.000	0.082	0.271
-465.143	-12.706	-0.190	0.123
-464.128	800.000	-0.063	-0.182
-463.113	-54.162	0.193	-0.087
-462.099	-200.000	-0.036	-0.292
-461.084	26.395	0.350	0.291
-460.070	222.975	-0.107	0.171
-459.055	53.824	-0.190	0.181
-458.040	-53.325	0.107	-0.049
-457.026	800.000	0.117	0.381
-456.011	291.726	0.137	-0.248
-454.997	-88.236	0.157	0.047
-453.982	-200.000	-0.041	-0.302
-452.968	42.305	-0.222	-0.200
-451.953	207.745	0.275	0.426
-450.938	-184.974	-0.122	-0.002
-449.924	-36.813	-0.448	0.239
-448.909	8.620	0.332	0.249
-447.895	93.384	-0.120	-0.134
-446.880	57.787	0.323	0.313
-445.865	12.834	0.137	0.105
-444.851	27.334	-0.045	0.038
-443.836	800.000	0.093	0.351
-442.822	800.000	0.057	-0.193
-441.807	77.095	0.193	-0.203
-440.792	-58.121	0.196	-0.085
-439.778	478.647	-0.074	-0.166
-438.763	152.012	0.057	-0.077
-437.749	36.625	0.052	0.046
-436.734	-160.336	-0.147	-0.008
-435.719	244.230	-0.115	-0.191
-434.705	-200.000	0.027	-0.361
-433.690	800.000	0.044	0.140
-432.676	-94.817	-0.319	0.086
-431.661	47.376	0.118	0.109
-430.646	277.289	-0.105	-0.184
-429.632	231.981	0.176	-0.286
-428.617	800.000	0.067	0.276
-427.603	-39.456	-0.195	0.102
-426.588	68.771	0.253	0.258
-425.573	-165.295	0.023	-0.001
-424.559	-51.455	-0.184	0.085
-423.544	705.525	0.079	-0.206
-422.530	800.000	-0.105	-0.340
-421.515	315.070	0.029	0.053
-420.500	-200.000	-0.019	0.114
-419.486	800.000	0.067	0.222
-418.471	610.768	-0.100	0.247
-417.457	68.037	0.241	-0.245
-416.442	-190.105	0.150	0.002
-415.428	800.000	-0.106	0.397
-414.413	333.786	-0.084	0.162
-413.398	456.192	-0.070	0.155
-412.384	-162.806	0.226	-0.011
-411.369	236.097	0.105	0.171
-410.355	80.276	-0.087	-0.092
-409.340	-200.000	-0.076	-0.437
-408.325	-140.729	-0.181	0.019
-407.311	-200.000	-0.030	-0.249
-406.296	-54.237	-0.541	-0.244
-405.282	293.274	-0.083	-0.151
-404.267	800.000	-0.022	-0.081
-403.252	113.531	-0.077	0.093
-402.238	175.841	0.116	-0.167
-401.223	210.136	-0.186	0.289
-400.209	-122.670	0.045	0.007
-399.194	-72.109	0.274	0.101
-398.179	317.195	-0.103	-0.192
-397.165	150.279	0.172	-0.231
-396.150	-11.160	0.281	0.183
-395.136	43.109	-0.112	0.102
-394.121	-200.000	-0.021	0.510
-393.106	-182.154	0.196	-0.004
-392.092	-2.068	0.116	-0.081
-391.077	550.346	-0.030	0.071
-390.063	-200.000	0.019	0.132
-389.048	495.487	0.034	0.077
-388.033	-19.949	0.182	-0.111
-387.019	-162.217	-0.134	-0.007
-386.004	-86.479	0.085	-0.026
-384.990	-171.405	-0.235	0.008
-383.975	-52.193	0.246	-0.113
-382.960	-200.000	-0.032	0.153
-381.946	-181.081	-0.428	0.008
-380.931	394.318	0.052	-0.107
-379.917	-2.891	-0.266	-0.184
-378.902	-61.992	-0.170	0.070
-377.888	800.000	0.045	0.184
-376.873	-59.202	-0.168	0.072
-375.858	-200.000	0.038	-0.260
-374.844	800.000	0.028	-0.092
-373.829	-32.477	0.240	-0.132
-372.815	-29.742	0.184	0.104
-371.800	-200.000	0.038	-0.352
-370.785	147.788	0.174	-0.232
-369.771	-200.000	0.036	0.212
-368.756	-200.000	-0.011	-0.217
-367.742	-151.582	-0.285	-0.021
-366.727	565.838	0.194	0.465
-365.712	94.295	0.121	0.136
-364.698	-88.840	-0.024	-0.007
-363.683	-200.000	0.018	0.148
-362.669	-200.000	-0.014	0.265
-361.654	683.298	0.116	-0.300
-360.639	800.000	-0.060	-0.253
-359.625	-109.602	-0.224	0.047
-358.610	366.943	0.083	-0.166
-357.596	-200.000	0.051	0.281
-356.581	50.093	-0.100	0.094
-355.566	-172.554	0.176	0.006
-354.552	74.587	0.297	0.309
-353.537	447.630	-0.118	-0.257
-352.523	-200.000	0.003	0.069
-351.508	-11.440	0.277	-0.180
-350.493	-61.599	-0.189	-0.078
-349.479	16.924	0.055	-0.043
-348.464	-113.342	-0.216	0.042
-347.450	-200.000	-0.059	-0.404
-346.435	-13.543	-0.223	0.143
-345.420	800.000	0.025	0.068
-344.406	-154.601	-0.327	0.022
-343.391	67.427	0.148	0.149
-342.377	135.063	-0.079	-0.101
-341.362	-86.964	0.136	0.041
-340.348	-107.847	0.197	0.042
-339.333	-33.705	-0.119	0.065
-338.318	-77.696	0.086	-0.029
-337.304	-68.617	0.097	0.037
-336.289	44.296	-0.071	-0.065
-335.275	-107.421	-0.276	0.060
-334.260	-129.467	0.222	-0.030
-333.245	-114.319	-0.268	-0.051
-332.231	-64.149	0.148	0.060
-331.216	-82.180	0.140	0.045
-330.202	-103.477	-0.173	-0.040
-329.187	277.554	-0.072	0.127
-328.172	-200.000	-0.013	0.071
-327.158	55.496	0.212	-0.203
-326.143	-145.992	0.081	-0.007
-325.129	-35.642	0.009	0.005
-324.114	-200.000	-0.007	0.121
-323.099	126.704	0.191	0.239
-322.085	72.441	0.114	-0.117
-321.070	16.366	0.275	0.214
-320.056	-200.000	-0.032	-0.220
-319.041	-74.743	-0.233	0.083
-318.026	35.528	0.124	0.108
-317.012	96.372	0.175	0.197
-315.997	-106.368	-0.502	0.111
-314.983	489.272	0.061	0.137
-313.968	448.363	0.007	-0.015
-312.953	62.784	-0.203	0.201
-311.939	5.741	0.198	0.145
-310.924	-48.606	0.084	0.040
-309.910	-82.763	-0.124	-0.040
-308.895	-66.723	0.167	-0.065
-307.880	305.264	-0.181	0.332
-306.866	-53.660	-0.304	0.137
-305.851	241.702	-0.150	0.248
-304.837	456.828	-0.047	0.104
-303.822	-119.226	-0.259	-0.045
-302.807	-104.273	0.151	-0.035
-301.793	-78.951	0.343	-0.115
-300.778	-200.000	0.011	-0.282
-299.764	63.729	-0.117	0.116
-298.749	83.939	-0.289	-0.311
-297.735	-200.000	-0.075	0.375
-296.720	-137.469	0.519	-0.058
-295.705	-80.126	-0.113	0.037
-294.691	192.910	0.123	0.184
-293.676	654.339	-0.199	-0.504
-292.662	25.522	-0.188	0.154
-291.647	-37.136	0.274	0.145
-290.632	147.262	0.120	0.159
-289.618	800.000	-0.050	-0.178
-288.603	-6.996	0.185	-0.124
-287.589	-41.679	-0.246	-0.125
-286.574	130.300	0.176	0.223
-285.559	-104.044	0.096	-0.022
-284.545	-91.312	0.067	-0.019
-283.530	-32.553	-0.284	0.156
-282.516	171.513	-0.162	0.230
-281.501	-200.000	-0.006	-0.059
-280.486	-67.500	-0.098	0.038
-279.472	800.000	-0.068	-0.279
-278.457	163.400	0.154	0.214
-277.443	800.000	-0.079	0.315
-276.428	-152.007	0.513	-0.037
-275.413	-179.686	-0.391	0.008
-274.399	-85.979	-0.096	0.029
-273.384	-97.711	0.165	0.042
-272.370	87.836	-0.314	0.343
-271.355	356.170	-0.015	-0.030
-270.340	800.000	0.059	0.186
-269.326	151.182	0.072	-0.096
-268.311	93.510	0.039	-0.044
-267.297	-79.803	0.059	-0.020
-266.282	-140.502	0.116	-0.012
-265.267	-27.764	-0.080	0.046
-264.253	-17.036	-0.321	0.200
-263.238	-200.000	-0.024	-0.113
-262.224	410.781	-0.151	-0.316
-261.209	-58.448	-0.270	0.115
-260.195	-200.000	0.028	0.204
-259.180	-29.572	-0.192	-0.108
-258.165	-53.502	0.316	-0.143
-257.151	-46.977	-0.164	0.079
-256.136	-9.100	0.165	0.109
-255.122	800.000	0.008	0.031
-254.107	-200.000	0.026	-0.223
-253.092	-200.000	-0.006	0.090
-252.078	440.542	-0.115	0.248
-251.063	11.690	0.192	-0.145
-250.049	16.646	0.192	0.149
-249.034	137.616	0.078	-0.101
-248.019	-165.260	-0.168	0.007
-247.005	-133.981	-0.277	0.034
-245.990	385.996	-0.077	-0.157
-244.976	-200.000	0.004	0.031
-243.961	-130.093	0.290	0.039
-242.946	-200.000	-0.077	0.379
-241.932	-125.955	-0.376	0.056
-240.917	12.111	0.121	0.092
-239.903	800.000	0.012	0.053
-238.888	-93.489	0.215	0.059
-237.873	32.554	-0.167	-0.142
-236.859	549.633	-0.025	-0.059
-235.844	-124.866	-0.132	-0.020
-234.830	-200.000	0.022	-0.155
-233.815	412.124	-0.041	-0.086
-232.800	-2.230	0.431	0.298
-231.786	800.000	-0.065	0.246
-230.771	-200.000	0.041	-0.321
-229.757	-42.832	0.109	0.055
-228.742	606.658	-0.056	0.138
-227.727	-200.000	0.025	0.131
-226.713	246.709	0.192	-0.318
-225.698	-0.976	-0.121	0.084
-224.684	41.562	0.025	-0.022
-223.669	-18.662	-0.030	-0.018
-222.655	10.223	-0.072	-0.054
-221.640	-56.168	-0.136	-0.060
-220.625	800.000	0.038	0.151
-219.611	-200.000	0.032	0.175
-218.596	27.792	-0.190	0.158
-217.582	-200.000	0.001	-0.230
-216.567	175.361	0.244	-0.348
-215.552	-93.953	0.050	-0.013
-214.538	262.860	-0.156	0.267
-213.523	-200.000	-0.017	0.083
-212.509	405.183	-0.056	0.117
-211.494	781.799	-0.106	-0.285
-210.479	-200.000	-0.007	0.140
-209.465	-13.620	0.240	0.153
-208.450	79.657	-0.083	0.088
-207.436	83.325	0.179	-0.192
-206.421	50.269	0.128	-0.119
-205.406	41.179	-0.418	0.371
-204.392	-200.000	0.048	-0.397
-203.377	-162.202	0.045	-0.002
-202.363	-200.000	0.066	0.362
-201.348	786.603	-0.028	-0.076
-200.333	800.000	-0.103	0.400
-199.319	110.808	0.036	0.043
-198.304	-161.231	0.228	-0.012
-197.290	-34.895	-0.050	-0.027
-196.275	40.103	-0.182	-0.160
-195.260	41.575	-0.099	0.089
-194.246	16.834	0.262	0.204
-193.231	22.826	-0.158	-0.127
-192.217	800.000	0.026	-0.100
-191.202	41.795	-0.180	0.161
-190.187	78.939	0.108	-0.114
-189.173	558.703	0.036	0.085
-188.158	-142.801	0.120	0.011
-187.144	-115.683	-0.295	-0.054
-186.129	-155.026	-0.465	0.030
-185.114	-91.448	0.237	0.067
-184.100	194.029	0.134	-0.199
-183.085	-115.891	-0.405	-0.074
-182.071	-196.256	0.604	-0.004
-181.056	-200.000	0.029	-0.203
-180.042	-200.000	-0.013	-0.281
-179.027	-100.432	-0.357	0.087
-178.012	-144.016	0.260	-0.024
-176.998	70.806	-0.142	0.144
-175.983	-8.222	0.043	-0.029
-174.969	-154.129	0.278	-0.019
-173.954	-200.000	-0.050	-0.241
-172.939	63.862	0.125	0.124
-171.925	-200.000	-0.044	-0.317
-170.910	-132.294	-0.047	-0.006
-169.896	71.338	-0.236	0.241
-168.881	-125.525	-0.166	0.025
-167.866	-177.334	0.278	0.007
-166.852	-188.961	-0.152	0.002
-165.837	-29.401	-0.316	-0.177
-164.823	261.302	0.189	-0.321
-163.808	514.244	0.126	0.290
-162.793	-117.408	-0.291	0.052
-161.779	107.654	-0.011	0.013
-160.764	-200.000	0.053	-0.240
-159.750	-64.256	-0.342	0.137
-158.735	-65.370	-0.111	-0.044
-157.720	191.157	0.071	-0.106
-156.706	84.978	-0.195	-0.210
-155.691	-80.936	-0.254	0.083
-154.677	-77.833	-0.147	-0.050
-153.662	-195.496	0.213	0.002
-152.647	-27.178	0.259	0.148
-151.633	800.000	0.075	0.248
-150.618	124.411	-0.249	-0.307
-149.604	264.303	0.039	0.066
-148.589	-200.000	-0.011	0.078
-147.574	97.740	0.030	0.033
-146.560	24.519	-0.137	-0.111
-145.545	-120.440	-0.248	0.041
-144.531	-45.492	0.151	-0.073
-143.516	-18.003	-0.106	-0.065
-142.502	-63.103	-0.208	0.084
-141.487	62.461	-0.121	-0.119
-140.472	-200.000	-0.070	0.303
-139.458	800.000	0.067	0.209
-138.443	800.000	0.018	0.052
-137.429	-97.921	0.293	-0.074
-136.414	800.000	-0.083	-0.259
-135.399	-88.926	0.297	0.086
-134.385	-67.916	0.182	-0.070
-133.370	670.299	-0.089	-0.227
-132.356	597.473	-0.086	0.208
-131.341	800.000	0.010	-0.033
-130.326	143.072	0.103	-0.134
-129.312	344.610	-0.183	-0.352
-128.297	86.017	-0.102	0.110
-127.283	-66.121	0.158	-0.062
-126.268	-127.627	0.071	-0.010
-125.253	220.652	-0.032	0.050
-124.239	-200.000	-0.009	0.167
-123.224	98.253	-0.094	-0.106
-122.210	-91.287	-0.121	0.034
-121.195	133.378	-0.066	-0.084
