DTS Sentinel unit serial number:	SN413079Multiplexer serial number:	ORYXHardware model number:	OX4-SRSoftware version number:	ORYX F/W v4.00 Oryx Data Collector v3.7.2.0data status	okinstallation	princeton_trtdifferential loss correction	single-endedforward channel	channel 2reverse channel	N/Adate	2019/09/17time	21:51:35forward acquisition time	60.00reverse acquisition time	0.00gamma	496.2192k internal	0.2342k external	0.2342temperature offset calibration	0.9983default loss term (dB/km)	0.3790temperature slope calibration	1.0000multiplexer offset coefficient	1.0000multiplexer slope coefficient	1.0000fibre end	0.00T internal ref (°C)	26.36T ext. ref 1 (°C)	0.18T ext. ref 2 (°C)	19.08length (m)	temperature (°C)	Stokes	anti-Stokes-747.200	157.615	-0.107	-0.148
-746.185	-200.000	0.032	0.354
-745.171	41.420	0.290	0.263
-744.156	800.000	0.087	0.271
-743.142	93.896	-0.201	0.228
-742.127	-110.414	0.078	-0.016
-741.112	284.967	0.193	0.348
-740.098	-44.173	-0.224	0.113
-739.083	221.117	0.067	0.107
-738.069	-200.000	-0.021	0.262
-737.054	-22.943	0.089	-0.054
-736.039	-79.029	-0.391	-0.133
-735.025	299.306	-0.041	0.076
-734.010	-60.945	-0.300	-0.127
-732.996	-154.660	-0.375	0.025
-731.981	-60.822	0.238	0.101
-730.966	-47.185	-0.342	-0.167
-729.952	607.098	0.152	-0.379
-728.937	575.591	0.089	0.217
-727.923	800.000	-0.124	0.384
-726.908	-94.525	-0.431	-0.117
-725.894	669.217	-0.072	0.187
-724.879	800.000	0.190	-0.676
-723.864	209.429	-0.060	-0.095
-722.850	-200.000	-0.259	0.000
-721.835	59.499	0.072	0.071
-720.821	47.146	-0.189	0.176
-719.806	-79.173	0.102	-0.034
-718.791	-57.985	-0.065	-0.028
-717.777	456.287	0.103	-0.230
-716.762	-161.338	-0.178	0.009
-715.748	72.458	-0.125	-0.131
-714.733	15.534	0.065	-0.051
-713.718	-73.820	-0.210	0.076
-712.704	-111.751	-0.264	0.054
-711.689	14.761	-0.021	0.016
-710.675	-97.688	-0.270	0.070
-709.660	414.206	0.166	0.353
-708.645	198.400	-0.077	0.117
-707.631	-89.750	-0.293	0.086
-706.616	94.046	-0.091	0.104
-705.602	-12.031	0.043	-0.028
-704.587	69.302	0.203	0.209
-703.572	-200.000	0.030	-0.233
-702.558	800.000	-0.120	0.448
-701.543	466.913	0.009	0.020
-700.529	800.000	-0.054	0.175
-699.514	-8.141	0.170	-0.115
-698.499	800.000	0.087	-0.363
-697.485	88.362	-0.166	-0.184
-696.470	337.108	-0.091	-0.178
-695.456	286.838	-0.101	-0.183
-694.441	-80.129	-0.165	-0.055
-693.426	-82.614	0.336	0.109
-692.412	-200.000	-0.019	-0.098
-691.397	800.000	-0.033	-0.105
-690.383	-200.000	-0.003	-0.138
-689.368	213.621	0.202	-0.319
-688.354	-200.000	-0.035	0.180
-687.339	208.546	0.160	-0.250
-686.324	-88.619	0.215	0.064
-685.310	-3.661	0.093	0.065
-684.295	-34.670	0.113	0.062
-683.281	-118.732	-0.037	0.007
-682.266	72.580	0.147	-0.154
-681.251	-118.069	0.239	0.043
-680.237	-126.829	-0.162	0.024
-679.222	265.626	0.152	-0.266
-678.208	800.000	0.051	-0.197
-677.193	192.711	0.263	-0.396
-676.178	-90.166	-0.010	0.003
-675.164	10.142	0.137	0.104
-674.149	800.000	-0.034	-0.126
-673.135	-200.000	0.001	0.293
-672.120	423.002	-0.046	0.099
-671.105	-5.795	-0.059	0.041
-670.091	-65.653	-0.300	-0.120
-669.076	-168.699	-0.151	-0.006
-668.062	-127.604	0.088	0.013
-667.047	428.674	-0.096	-0.207
-666.032	800.000	0.128	-0.366
-665.018	668.655	-0.074	-0.191
-664.003	10.194	-0.243	-0.184
-662.989	129.170	0.025	0.031
-661.974	356.900	0.085	-0.169
-660.959	-200.000	0.000	0.123
-659.945	393.164	0.020	0.041
-658.930	281.771	0.134	-0.239
-657.916	-82.546	0.444	0.144
-656.901	-37.493	-0.015	0.008
-655.886	187.863	0.165	-0.246
-654.872	-141.637	0.237	0.024
-653.857	-160.081	-0.184	0.010
-652.843	800.000	0.065	-0.263
-651.828	-93.444	-0.395	0.109
-650.814	97.667	-0.049	-0.056
-649.799	-160.468	0.131	0.007
-648.784	-20.500	0.291	0.179
-647.770	-39.092	-0.182	-0.095
-646.755	84.576	-0.049	0.053
-645.741	-4.433	0.098	-0.068
-644.726	108.700	-0.117	0.139
-643.711	150.197	-0.110	0.149
-642.697	51.513	0.059	0.056
-641.682	800.000	-0.148	0.416
-640.668	-14.212	0.052	0.033
-639.653	-181.425	-0.313	0.006
-638.638	131.645	-0.219	-0.281
-637.624	-158.889	0.079	0.004
-636.609	63.850	0.161	-0.162
-635.595	-50.627	0.207	0.097
-634.580	355.880	0.223	0.443
-633.565	-165.472	-0.319	-0.014
-632.551	-112.564	-0.260	-0.052
-631.536	-200.000	0.040	-0.401
-630.522	800.000	0.130	-0.472
-629.507	-200.000	-0.012	-0.083
-628.492	-62.860	0.288	0.119
-627.478	-200.000	0.000	-0.088
-626.463	-132.920	0.238	-0.030
-625.449	437.298	0.074	-0.161
-624.434	-71.826	-0.332	0.123
-623.419	-180.788	0.024	0.000
-622.405	-200.000	-0.000	0.006
-621.390	-156.268	-0.149	-0.009
-620.376	-34.462	0.265	-0.145
-619.361	-200.000	-0.006	0.043
-618.346	-122.002	0.038	-0.006
-617.332	-118.603	0.181	0.032
-616.317	800.000	-0.048	-0.177
-615.303	604.881	0.149	-0.369
-614.288	-13.287	0.285	0.184
-613.273	-115.098	-0.174	0.033
-612.259	-130.212	-0.122	0.017
-611.244	38.098	-0.166	0.147
-610.230	622.212	-0.061	0.154
-609.215	-200.000	0.024	0.290
-608.201	-200.000	0.007	0.175
-607.186	-98.071	-0.313	-0.080
-606.171	82.371	0.199	-0.215
-605.157	800.000	-0.088	0.247
-604.142	-85.393	-0.154	0.048
-603.128	800.000	-0.037	0.146
-602.113	25.056	0.099	-0.082
-601.098	-46.226	-0.068	-0.033
-600.084	65.103	0.220	-0.222
-599.069	-154.428	-0.064	-0.004
-598.055	-131.592	-0.343	-0.045
-597.040	53.841	0.185	-0.177
-596.025	118.525	-0.197	0.243
-595.011	-29.267	-0.108	-0.062
-593.996	135.772	0.050	0.065
-592.982	380.765	-0.189	-0.386
-591.967	713.982	-0.047	0.124
-590.952	683.309	0.168	0.436
-589.938	-110.472	0.073	-0.015
-588.923	37.895	-0.232	-0.205
-587.909	-200.000	0.003	0.071
-586.894	800.000	0.082	0.274
-585.879	-200.000	-0.007	0.094
-584.865	-123.079	-0.208	0.033
-583.850	-178.534	0.222	0.005
-582.836	-34.975	0.050	-0.027
-581.821	-110.124	-0.067	-0.014
-580.806	-200.000	0.072	0.386
-579.792	624.514	0.056	-0.139
-578.777	253.672	0.015	-0.026
-577.763	-163.649	-0.109	-0.005
-576.748	-200.000	-0.014	0.141
-575.733	-166.715	-0.114	-0.005
-574.719	110.646	0.126	0.151
-573.704	-123.361	-0.278	0.044
-572.690	548.111	0.064	-0.153
-571.675	8.749	0.372	-0.279
-570.661	800.000	0.075	-0.312
-569.646	-80.131	0.406	0.135
-568.631	197.113	-0.119	0.181
-567.617	161.343	0.176	0.245
-566.602	357.801	-0.143	-0.284
-565.588	50.514	-0.327	-0.308
-564.573	-16.162	0.114	-0.072
-563.558	33.261	-0.142	-0.123
-562.544	2.798	0.200	-0.145
-561.529	800.000	0.029	-0.114
-560.515	-39.644	0.228	-0.119
-559.500	-200.000	0.018	-0.136
-558.485	-152.794	0.262	-0.018
-557.471	-154.757	-0.199	-0.013
-556.456	216.657	0.088	0.139
-555.442	125.108	0.101	-0.126
-554.427	302.946	0.157	-0.290
-553.412	800.000	-0.043	-0.174
-552.398	-185.635	0.368	0.006
-551.383	-200.000	0.035	-0.170
-550.369	800.000	0.044	-0.138
-549.354	-200.000	0.059	-0.265
-548.339	800.000	0.048	-0.183
-547.325	123.724	-0.166	0.206
-546.310	-200.000	-0.002	0.164
-545.296	-25.192	-0.180	-0.106
-544.281	104.105	0.149	-0.175
-543.266	-9.287	-0.118	0.079
-542.252	83.997	-0.226	-0.246
-541.237	-60.915	0.094	0.040
-540.223	-49.257	0.141	-0.067
-539.208	304.560	-0.108	-0.200
-538.193	-122.006	0.137	-0.022
-537.179	632.875	0.123	0.309
-536.164	-131.103	0.275	0.036
-535.150	12.835	0.164	0.126
-534.135	530.201	-0.064	-0.149
-533.121	115.981	0.099	-0.120
-532.106	-80.230	0.140	-0.047
-531.091	50.841	-0.030	0.028
-530.077	45.326	-0.122	-0.112
-529.062	-76.048	0.246	0.087
-528.048	97.720	0.110	-0.125
-527.033	-22.417	-0.255	-0.153
-526.018	-52.201	0.162	0.074
-525.004	800.000	-0.088	0.282
-523.989	497.490	0.087	-0.199
-522.975	-85.275	-0.391	-0.121
-521.960	-52.571	0.161	-0.074
-520.945	179.331	-0.260	-0.378
-519.931	-8.680	0.394	0.263
-518.916	-6.107	-0.331	-0.225
-517.902	-37.271	-0.067	-0.036
-516.887	14.029	0.264	0.204
-515.872	-16.808	-0.141	0.089
-514.858	289.345	-0.185	-0.333
-513.843	246.056	0.100	-0.168
-512.829	-92.608	-0.180	0.050
-511.814	-100.034	0.183	0.045
-510.799	800.000	-0.072	-0.270
-509.785	-58.425	0.128	0.055
-508.770	122.696	-0.262	-0.325
-507.756	800.000	-0.045	-0.131
-506.741	800.000	0.092	-0.260
-505.726	-85.944	-0.080	0.025
-504.712	-41.778	-0.230	0.117
-503.697	-29.700	0.034	0.019
-502.683	800.000	-0.046	0.170
-501.668	-200.000	0.020	0.250
-500.653	-178.366	-0.028	0.001
-499.639	-38.372	-0.229	-0.120
-498.624	-62.046	0.226	-0.094
-497.610	-200.000	0.020	0.231
-496.595	-200.000	0.019	-0.087
-495.581	22.108	0.075	0.061
-494.566	-105.001	0.284	0.065
-493.551	-200.000	0.043	0.200
-492.537	-91.741	0.326	0.092
-491.522	800.000	-0.108	-0.300
-490.508	222.217	-0.038	-0.061
-489.493	-195.408	-0.047	0.000
-488.478	-8.896	0.139	-0.092
-487.464	-16.909	0.064	-0.040
-486.449	-200.000	0.020	-0.365
-485.435	-59.497	-0.145	0.062
-484.420	-99.118	-0.195	-0.049
-483.405	-200.000	0.010	-0.094
-482.391	-16.907	-0.087	-0.054
-481.376	-20.136	-0.239	-0.146
-480.362	800.000	0.120	0.405
-479.347	800.000	0.076	0.324
-478.332	6.105	-0.173	0.127
-477.318	-127.394	0.169	0.024
-476.303	-51.625	0.193	-0.089
-475.289	-128.147	-0.190	-0.027
-474.274	323.257	0.042	0.080
-473.259	-133.198	0.305	-0.038
-472.245	-128.250	-0.476	0.067
-471.230	519.865	-0.014	-0.033
-470.216	291.939	0.053	-0.096
-469.201	-33.924	-0.252	-0.137
-468.186	-200.000	0.044	0.283
-467.172	800.000	0.119	0.373
-466.157	-193.997	-0.263	-0.002
-465.143	-124.747	0.406	0.062
-464.128	147.035	-0.031	0.041
-463.113	800.000	-0.081	0.236
-462.099	-200.000	0.042	0.235
-461.084	-4.023	-0.143	0.098
-460.070	35.108	-0.139	-0.120
-459.055	391.659	0.025	-0.051
-458.040	6.597	-0.412	-0.304
-457.026	-109.895	0.234	-0.049
-456.011	27.245	0.280	-0.233
-454.997	-200.000	0.019	0.085
-453.982	638.021	0.076	-0.192
-452.968	191.411	-0.170	-0.253
-451.953	-200.000	0.064	0.393
-450.938	166.172	0.031	-0.043
-449.924	-144.491	-0.124	0.011
-448.909	111.476	-0.114	-0.136
-447.895	89.082	0.043	0.047
-446.880	-90.102	0.232	-0.067
-445.865	8.985	0.112	-0.084
-444.851	800.000	0.032	0.125
-443.836	-200.000	0.020	-0.087
-442.822	-109.946	-0.224	-0.047
-441.807	-32.257	-0.218	0.121
-440.792	-19.582	0.219	-0.134
-439.778	-98.060	-0.138	-0.035
-438.763	587.690	-0.127	0.309
-437.749	318.242	-0.078	0.145
-436.734	-28.381	0.141	0.080
-435.719	242.271	-0.122	0.202
-434.705	-13.308	-0.343	0.221
-433.690	140.108	0.162	-0.212
-432.676	-52.319	0.062	0.029
-431.661	-135.108	-0.334	-0.040
-430.646	31.839	-0.064	0.055
-429.632	-32.898	-0.067	0.037
-428.617	800.000	0.012	-0.050
-427.603	-95.964	-0.064	-0.017
-426.588	147.887	0.059	-0.079
-425.573	95.924	0.046	0.052
-424.559	-46.281	-0.176	-0.086
-423.544	81.531	-0.179	-0.192
-422.530	-200.000	-0.040	-0.546
-421.515	-65.454	0.244	-0.097
-420.500	800.000	0.051	-0.175
-419.486	103.513	0.040	0.047
-418.471	92.062	0.192	-0.214
-417.457	282.405	0.108	0.191
-416.442	-151.710	-0.024	-0.002
-415.428	-86.654	-0.452	-0.137
-414.413	-200.000	0.021	-0.116
-413.398	267.664	-0.112	-0.194
-412.384	-112.083	-0.196	0.039
-411.369	-95.874	-0.288	-0.076
-410.355	-82.937	-0.280	-0.089
-409.340	-200.000	-0.039	0.208
-408.325	-200.000	0.034	-0.294
-407.311	800.000	-0.033	-0.092
-406.296	-79.453	-0.298	0.100
-405.282	-112.165	-0.193	0.038
-404.267	-14.057	0.189	0.120
-403.252	-43.355	-0.119	0.060
-402.238	51.297	-0.189	-0.178
-401.223	-51.043	0.231	0.107
-400.209	205.530	0.074	0.114
-399.194	800.000	0.058	0.192
-398.179	-200.000	0.009	0.481
-397.165	-67.838	-0.201	0.078
-396.150	-30.960	-0.031	0.017
-395.136	77.465	0.117	0.123
-394.121	148.916	-0.109	0.146
-393.106	800.000	0.142	-0.397
-392.092	-41.965	0.220	0.111
-391.077	-200.000	0.023	0.390
-390.063	190.863	-0.045	0.067
-389.048	-200.000	-0.004	-0.027
-388.033	-200.000	-0.028	-0.379
-387.019	-98.261	-0.190	-0.048
-386.004	-60.049	0.076	0.032
-384.990	-200.000	0.052	0.545
-383.975	-11.605	-0.115	-0.075
-382.960	-127.140	-0.107	-0.016
-381.946	-65.345	-0.206	0.082
-380.931	442.145	0.057	0.124
-379.917	-66.478	-0.190	0.075
-378.902	800.000	-0.049	-0.192
-377.888	-200.000	0.031	-0.288
-376.873	-200.000	-0.032	-0.205
-375.858	-35.552	-0.169	-0.091
-374.844	107.537	0.302	-0.355
-373.829	-144.711	-0.155	-0.014
-372.815	78.600	0.149	-0.157
-371.800	800.000	0.061	-0.172
-370.785	-60.386	0.188	0.079
-369.771	-200.000	0.038	-0.288
-368.756	-112.329	0.307	-0.061
-367.742	-84.697	-0.523	0.162
-366.727	262.079	-0.122	0.209
-365.712	-162.439	0.328	0.016
-364.698	7.729	-0.095	-0.070
-363.683	-200.000	0.061	-0.404
-362.669	-62.676	-0.245	0.100
-361.654	249.126	0.137	0.229
-360.639	-96.425	0.047	0.012
-359.625	-200.000	0.031	0.155
-358.610	-132.123	0.293	-0.038
-357.596	190.162	0.176	0.261
-356.581	-68.366	0.210	-0.080
-355.566	-114.998	-0.091	-0.017
-354.552	100.519	-0.233	0.267
-353.537	173.788	0.189	-0.269
-352.523	-200.000	0.021	-0.347
-351.508	800.000	-0.094	0.288
-350.493	-200.000	0.042	-0.392
-349.479	-118.006	0.122	0.022
-348.464	-166.323	-0.066	0.003
-347.450	-57.843	-0.272	-0.117
-346.435	661.764	0.093	0.237
-345.420	229.719	0.063	0.101
-344.406	-119.089	0.389	-0.067
-343.391	800.000	0.131	-0.358
-342.377	208.230	0.088	0.136
-341.362	-39.148	0.146	0.076
-340.348	271.980	0.100	-0.174
-339.333	-52.383	-0.212	0.097
-338.318	392.594	0.062	-0.126
-337.304	57.521	-0.340	0.327
-336.289	-96.741	0.158	0.041
-335.275	290.777	-0.063	0.113
-334.260	737.591	-0.039	-0.104
-333.245	97.590	-0.154	-0.175
-332.231	26.601	0.142	0.117
-331.216	-200.000	-0.002	0.241
-330.202	284.732	-0.048	0.085
-329.187	-200.000	0.021	0.434
-328.172	216.800	0.198	0.311
-327.158	-200.000	-0.016	0.163
-326.143	12.435	0.034	0.026
-325.129	-8.231	0.370	0.246
-324.114	-200.000	0.009	-0.045
-323.099	0.701	-0.157	-0.111
-322.085	124.692	-0.207	0.257
-321.070	-70.016	-0.089	-0.033
-320.056	24.304	0.280	0.228
-319.041	537.901	-0.111	0.259
-318.026	-159.357	0.306	-0.017
-317.012	9.204	-0.174	-0.130
-315.997	137.930	-0.222	-0.287
-314.983	35.022	0.216	-0.186
-313.968	304.027	-0.065	-0.118
-312.953	39.930	0.017	-0.015
-311.939	-39.823	0.037	-0.019
-310.924	-40.841	-0.250	-0.127
-309.910	248.092	-0.069	0.115
-308.895	619.913	-0.033	-0.082
-307.880	-200.000	-0.003	-0.109
-306.866	800.000	-0.081	-0.234
-305.851	-35.546	0.161	0.086
-304.837	-200.000	-0.005	-0.273
-303.822	-144.293	0.242	0.022
-302.807	-200.000	-0.027	-0.511
-301.793	-144.357	0.144	-0.013
-300.778	177.938	0.199	0.286
-299.764	-74.584	-0.084	-0.030
-298.749	-125.703	-0.319	0.048
-297.735	-122.309	0.076	-0.012
-296.720	241.696	0.089	0.147
-295.705	135.952	0.062	0.080
-294.691	255.657	-0.118	0.200
-293.676	-121.921	0.319	-0.052
-292.662	-148.818	-0.423	0.034
-291.647	394.405	0.120	-0.246
-290.632	-135.587	0.153	0.018
-289.618	-159.713	0.143	0.008
-288.603	-200.000	0.019	-0.121
-287.589	-39.580	0.136	0.070
-286.574	159.641	-0.171	0.234
-285.559	39.771	0.125	0.110
-284.545	-200.000	-0.018	0.093
-283.530	316.386	-0.115	0.213
-282.516	-200.000	-0.045	0.440
-281.501	290.905	-0.239	0.427
-280.486	401.021	-0.052	-0.108
-279.472	269.460	0.253	-0.437
-278.457	-141.774	0.224	0.022
-277.443	-200.000	-0.006	-0.090
-276.428	-200.000	-0.015	0.102
-275.413	8.139	0.137	0.101
-274.399	800.000	0.063	0.172
-273.384	323.426	-0.112	0.210
-272.370	-200.000	-0.028	-0.224
-271.355	579.110	-0.076	-0.184
-270.340	248.542	-0.090	-0.150
-269.326	-81.088	-0.184	0.060
-268.311	17.568	-0.046	0.036
-267.297	800.000	-0.061	0.199
-266.282	-3.090	0.238	0.163
-265.267	134.887	-0.129	0.164
-264.253	-125.668	0.217	-0.032
-263.238	800.000	-0.092	-0.308
-262.224	23.116	-0.250	0.201
-261.209	2.033	0.250	0.177
-260.195	-200.000	-0.021	0.185
-259.180	627.904	0.046	0.114
-258.165	773.980	-0.124	0.332
-257.151	19.327	-0.141	0.112
-256.136	-92.265	-0.248	-0.069
-255.122	765.292	-0.105	-0.280
-254.107	-140.550	-0.255	-0.026
-253.092	-52.479	0.099	0.045
-252.078	-93.977	0.165	0.045
-251.063	-200.000	-0.012	0.271
-250.049	800.000	0.044	-0.148
-249.034	-25.837	0.286	-0.166
-248.019	-28.195	-0.347	0.197
-247.005	800.000	-0.042	0.171
-245.990	-200.000	0.031	-0.288
-244.976	800.000	-0.085	0.301
-243.961	38.403	-0.072	-0.063
-242.946	7.067	-0.127	-0.093
-241.932	-57.274	0.346	0.150
-240.917	-200.000	-0.011	-0.051
-239.903	-181.461	-0.219	0.004
-238.888	49.937	-0.104	-0.096
-237.873	157.059	0.171	-0.232
-236.859	-200.000	0.058	-0.328
-235.844	-16.157	-0.182	0.113
-234.830	-119.495	-0.214	-0.036
-233.815	-137.389	0.368	0.041
-232.800	24.505	-0.088	-0.072
-231.786	-106.142	-0.093	0.021
-230.771	-200.000	-0.004	0.087
-229.757	-158.791	0.197	-0.011
-228.742	66.361	-0.274	0.273
-227.727	60.961	-0.144	0.140
-226.713	-4.185	0.224	0.153
-225.698	-200.000	0.100	-0.614
-224.684	-64.463	0.353	-0.141
-223.669	659.129	-0.114	0.287
-222.655	578.908	-0.058	-0.139
-221.640	7.089	0.211	0.154
-220.625	-130.815	-0.214	-0.028
-219.611	109.450	-0.028	-0.033
-218.596	-31.797	0.248	-0.137
-217.582	174.705	0.269	0.382
-216.567	772.212	-0.179	0.478
-215.552	800.000	0.020	0.078
-214.538	-200.000	-0.000	0.081
-213.523	800.000	-0.060	-0.242
-212.509	76.101	-0.161	-0.167
-211.494	-19.266	0.404	-0.246
-210.479	447.268	-0.106	-0.229
-209.465	800.000	0.038	-0.129
-208.450	-61.040	-0.268	0.111
-207.436	-200.000	0.008	0.168
-206.421	-152.196	-0.160	-0.011
-205.406	-200.000	0.007	0.061
-204.392	-149.601	-0.193	-0.015
-203.377	800.000	0.109	-0.319
-202.363	-80.636	0.297	0.097
-201.348	95.831	-0.329	0.369
-200.333	800.000	0.028	0.113
-199.319	-127.936	-0.437	0.062
-198.304	-82.584	0.413	-0.131
-197.290	108.520	0.012	0.014
-196.275	791.358	0.031	-0.083
-195.260	-9.555	-0.096	0.063
-194.246	559.611	-0.162	0.382
-193.231	-56.267	-0.215	-0.094
-192.217	800.000	0.095	-0.283
-191.202	-200.000	-0.038	-0.186
-190.187	-179.980	-0.173	0.004
-189.173	125.785	0.273	0.338
-188.158	18.586	-0.121	0.095
-187.144	-0.949	0.242	0.168
-186.129	117.446	-0.269	-0.324
-185.114	-200.000	0.063	-0.409
-184.100	800.000	-0.115	0.320
-183.085	113.790	-0.274	0.326
-182.071	258.387	0.120	0.202
-181.056	-59.562	0.124	-0.052
-180.042	-200.000	0.011	-0.137
-179.027	257.817	-0.169	-0.285
-178.012	-181.550	0.065	0.001
-176.998	-101.765	0.131	-0.031
-175.983	43.132	-0.231	0.206
-174.969	64.108	0.272	0.268
-173.954	162.437	0.039	0.053
-172.939	164.734	-0.117	0.161
-171.925	-200.000	-0.062	0.307
-170.910	-167.910	0.167	0.006
-169.896	-200.000	-0.009	0.265
-168.881	92.564	0.047	-0.052
-167.866	225.851	-0.050	0.080
-166.852	243.101	0.027	-0.044
-165.837	800.000	-0.084	-0.339
-164.823	-200.000	-0.003	0.220
-163.808	-124.471	0.120	-0.018
-162.793	-200.000	0.013	-0.208
-161.779	82.807	-0.026	-0.028
-160.764	800.000	-0.032	-0.096
-159.750	-105.198	0.276	0.062
-158.735	800.000	-0.032	-0.109
-157.720	-50.490	0.258	-0.119
-156.706	90.796	0.363	0.398
-155.691	-200.000	-0.015	0.257
-154.677	-101.185	0.108	-0.026
-153.662	257.079	0.039	-0.066
-152.647	800.000	0.100	-0.393
-151.633	-81.055	0.148	-0.048
-150.618	-105.771	-0.322	0.071
-149.604	800.000	-0.136	0.395
-148.589	800.000	0.072	0.285
-147.574	-200.000	-0.014	-0.082
-146.560	-200.000	-0.038	-0.193
-145.545	-61.015	0.060	-0.025
-144.531	-85.859	0.325	0.098
-143.516	-112.335	0.101	0.020
-142.502	7.573	-0.258	-0.189
-141.487	29.821	0.119	-0.099
-140.472	-59.595	-0.106	0.045
-139.458	122.943	-0.164	0.201
-138.443	62.424	0.176	0.172
-137.429	484.551	0.115	0.256
-136.414	89.961	0.183	0.200
-135.399	342.062	-0.143	0.274
-134.385	5.517	0.099	0.072
-133.370	355.924	0.063	0.122
-132.356	-61.795	0.184	0.075
-131.341	-200.000	0.012	-0.136
-130.326	-65.355	0.391	-0.154
-129.312	10.264	-0.222	-0.165
-128.297	22.851	0.167	-0.134
-127.283	42.552	-0.332	-0.295
-126.268	-197.065	-0.219	0.001
-125.253	800.000	-0.097	-0.352
-124.239	-200.000	-0.012	-0.175
-123.224	692.525	-0.184	0.471
-122.210	23.310	0.278	0.224
-121.195	205.111	0.093	0.141
