DTS Sentinel unit serial number:	SN413079Multiplexer serial number:	ORYXHardware model number:	OX4-SRSoftware version number:	ORYX F/W v4.00 Oryx Data Collector v3.7.2.0data status	okinstallation	princeton_trtdifferential loss correction	single-endedforward channel	channel 2reverse channel	N/Adate	2019/09/12time	03:53:11forward acquisition time	60.00reverse acquisition time	0.00gamma	496.2192k internal	0.2326k external	0.2326temperature offset calibration	1.0095default loss term (dB/km)	0.3790temperature slope calibration	1.0000multiplexer offset coefficient	1.0000multiplexer slope coefficient	1.0000fibre end	0.00T internal ref (°C)	32.16T ext. ref 1 (°C)	2.14T ext. ref 2 (°C)	26.52length (m)	temperature (°C)	Stokes	anti-Stokes-747.200	-200.000	-0.051	0.343
-746.185	800.000	-0.075	0.225
-745.171	154.632	0.036	0.050
-744.156	-75.816	-0.167	0.060
-743.142	-136.040	0.110	0.013
-742.127	-200.000	0.030	0.202
-741.112	240.895	-0.086	-0.145
-740.098	800.000	-0.027	0.115
-739.083	115.174	-0.106	0.131
-738.069	800.000	-0.020	-0.081
-737.054	800.000	-0.087	0.327
-736.039	166.743	-0.042	0.059
-735.025	-73.431	-0.227	-0.084
-734.010	-57.960	0.235	0.103
-732.996	-72.391	-0.199	-0.074
-731.981	-122.583	0.172	0.028
-730.966	503.280	-0.124	-0.289
-729.952	-119.756	-0.271	-0.047
-728.937	-81.369	-0.110	-0.036
-727.923	124.063	0.127	-0.161
-726.908	154.128	0.070	-0.096
-725.894	-200.000	-0.009	0.070
-724.879	4.027	-0.163	-0.120
-723.864	800.000	-0.056	0.220
-722.850	154.019	-0.235	-0.325
-721.835	-36.204	-0.068	0.037
-720.821	-185.361	0.157	0.002
-719.806	-51.417	-0.105	0.049
-718.791	-83.803	0.151	-0.049
-717.777	580.379	0.096	-0.237
-716.762	-166.256	0.361	-0.015
-715.748	786.712	-0.098	0.271
-714.733	-200.000	-0.053	0.328
-713.718	-200.000	-0.014	0.259
-712.704	120.909	-0.018	0.023
-711.689	-98.906	-0.216	-0.055
-710.675	-125.612	-0.223	0.034
-709.660	220.595	-0.145	-0.235
-708.645	15.168	-0.195	0.154
-707.631	19.396	0.114	0.092
-706.616	-200.000	0.012	-0.160
-705.602	14.728	-0.082	-0.064
-704.587	-35.577	-0.214	-0.117
-703.572	-10.095	-0.160	-0.107
-702.558	-83.630	-0.122	-0.039
-701.543	630.680	-0.080	-0.204
-700.529	430.270	-0.061	-0.132
-699.514	-101.144	0.045	0.011
-698.499	-88.244	-0.353	0.107
-697.485	753.803	-0.033	-0.089
-696.470	-53.662	-0.140	0.064
-695.456	-54.577	0.070	-0.032
-694.441	-26.452	-0.163	0.096
-693.426	-125.412	-0.147	-0.023
-692.412	753.252	-0.026	-0.071
-691.397	147.382	0.226	0.306
-690.383	-36.907	-0.450	0.243
-689.368	-87.337	0.380	-0.116
-688.354	-112.926	0.195	-0.039
-687.339	-100.451	0.108	0.027
-686.324	800.000	0.026	0.082
-685.310	512.103	0.121	-0.283
-684.295	-200.000	-0.032	-0.300
-683.281	144.962	-0.157	0.212
-682.266	80.256	0.123	-0.134
-681.251	-91.911	0.253	-0.072
-680.237	-49.361	-0.203	0.097
-679.222	365.777	0.176	0.358
-678.208	-84.959	-0.297	-0.094
-677.193	137.364	0.108	0.142
-676.178	72.158	0.102	0.107
-675.164	161.916	-0.228	-0.321
-674.149	-172.634	-0.391	0.012
-673.135	146.599	-0.094	0.127
-672.120	-94.659	-0.432	0.118
-671.105	-200.000	-0.004	-0.035
-670.091	-29.531	-0.387	-0.222
-669.076	373.083	-0.030	-0.061
-668.062	131.320	0.102	0.132
-667.047	-200.000	-0.037	0.178
-666.032	538.733	0.090	0.216
-665.018	-61.339	-0.048	-0.020
-664.003	-200.000	0.046	-0.247
-662.989	-5.283	-0.160	-0.111
-661.974	-200.000	-0.005	-0.078
-660.959	266.265	0.093	-0.163
-659.945	194.817	0.320	-0.489
-658.930	-37.650	-0.260	-0.139
-657.916	193.909	-0.124	-0.189
-656.901	-13.290	-0.208	-0.135
-655.886	666.468	-0.010	0.025
-654.872	-200.000	-0.010	-0.112
-653.857	-59.570	-0.238	-0.103
-652.843	43.911	-0.275	-0.253
-651.828	-83.806	0.323	0.104
-650.814	127.287	0.097	0.124
-649.799	6.474	0.228	0.170
-648.784	413.894	-0.077	-0.165
-647.770	-200.000	0.002	0.139
-646.755	116.067	-0.072	0.089
-645.741	307.189	0.162	-0.303
-644.726	334.175	0.111	-0.216
-643.711	-122.388	0.199	-0.033
-642.697	-30.803	-0.251	0.142
-641.682	542.782	0.140	-0.336
-640.668	68.579	-0.025	-0.026
-639.653	-16.677	0.053	-0.033
-638.638	51.817	-0.261	0.250
-637.624	-65.489	-0.073	0.030
-636.609	-200.000	0.030	0.252
-635.595	-95.093	-0.271	0.073
-634.580	72.414	-0.239	0.250
-633.565	2.904	0.202	-0.147
-632.551	-53.850	-0.207	-0.095
-631.536	211.289	0.206	-0.326
-630.522	7.397	-0.263	0.198
-629.507	632.757	0.016	-0.040
-628.492	162.708	0.249	-0.350
-627.478	346.715	0.075	0.148
-626.463	27.519	0.236	0.199
-625.449	157.752	0.156	-0.218
-624.434	800.000	-0.015	-0.041
-623.419	800.000	0.103	-0.363
-622.405	221.345	-0.188	0.304
-621.390	-123.913	-0.228	-0.036
-620.376	-61.564	0.261	0.110
-619.361	-129.503	-0.182	-0.025
-618.346	-63.457	0.327	-0.135
-617.332	800.000	-0.119	-0.422
-616.317	-149.084	-0.213	0.017
-615.303	396.346	-0.109	-0.228
-614.288	219.258	0.102	-0.163
-613.273	-67.004	0.209	-0.083
-612.259	304.883	0.071	-0.132
-611.244	-187.239	-0.061	-0.001
-610.230	26.525	-0.222	0.187
-609.215	-200.000	-0.002	-0.076
-608.201	-125.727	0.108	0.016
-607.186	274.218	0.104	-0.184
-606.171	225.540	0.158	0.257
-605.157	85.540	-0.325	-0.358
-604.142	-192.137	0.041	0.000
-603.128	-18.293	-0.156	-0.098
-602.113	27.761	-0.133	0.112
-601.098	107.097	0.123	0.146
-600.084	-200.000	0.064	0.593
-599.069	-123.361	-0.372	0.060
-598.055	-200.000	0.015	0.268
-597.040	289.277	-0.035	0.064
-596.025	-48.074	0.286	-0.138
-595.011	-41.529	0.157	-0.081
-593.996	728.324	-0.056	0.149
-592.982	-92.510	0.126	0.036
-591.967	-41.919	-0.116	-0.059
-590.952	69.115	-0.097	0.100
-589.938	-23.178	0.198	-0.119
-588.923	-18.160	0.244	-0.153
-587.909	-41.097	-0.154	-0.079
-586.894	-8.077	-0.183	-0.124
-585.879	89.700	0.270	-0.302
-584.865	221.841	-0.208	0.336
-583.850	-200.000	-0.063	0.344
-582.836	343.699	0.168	-0.330
-581.821	-129.809	0.098	0.013
-580.806	800.000	-0.021	-0.058
-579.792	-97.485	-0.224	-0.058
-578.777	800.000	-0.121	0.415
-577.763	-200.000	-0.010	-0.416
-576.748	-32.715	-0.183	0.102
-575.733	800.000	-0.047	-0.162
-574.719	160.682	-0.145	0.203
-573.704	800.000	0.057	0.215
-572.690	-91.286	-0.273	0.078
-571.675	-0.736	0.103	0.073
-570.661	314.589	-0.055	0.104
-569.646	-165.584	-0.100	-0.004
-568.631	780.397	0.060	0.165
-567.617	62.039	0.181	-0.181
-566.602	-81.985	-0.087	-0.028
-565.588	-200.000	-0.032	-0.303
-564.573	186.539	0.120	-0.179
-563.558	-200.000	0.016	-0.227
-562.544	800.000	0.024	0.084
-561.529	-78.830	0.184	0.063
-560.515	-68.479	-0.290	-0.112
-559.500	59.937	0.195	0.193
-558.485	57.315	-0.163	-0.159
-557.471	42.111	0.058	-0.053
-556.456	508.214	-0.114	0.264
-555.442	3.428	0.270	-0.197
-554.427	-200.000	0.037	-0.253
-553.412	82.413	-0.143	0.156
-552.398	133.584	0.061	-0.079
-551.383	-133.296	-0.404	0.051
-550.369	-87.578	-0.472	-0.143
-549.354	471.700	-0.111	-0.250
-548.339	-185.032	-0.240	0.004
-547.325	-84.618	-0.386	0.122
-546.310	-200.000	-0.017	-0.315
-545.296	47.684	0.201	-0.188
-544.281	-148.476	-0.021	0.002
-543.266	-200.000	0.036	-0.262
-542.252	71.805	-0.173	0.180
-541.237	-97.172	0.200	-0.052
-540.223	-200.000	-0.006	0.072
-539.208	-200.000	0.007	0.146
-538.193	340.349	-0.238	-0.465
-537.179	141.335	0.187	0.247
-536.164	-200.000	-0.027	0.540
-535.150	157.784	-0.046	0.064
-534.135	46.092	-0.181	-0.167
-533.121	237.435	0.235	-0.389
-532.106	-200.000	0.062	-0.354
-531.091	63.624	0.267	0.269
-530.077	-61.042	0.088	0.037
-529.062	-200.000	0.001	0.044
-528.048	9.789	0.209	-0.159
-527.033	-47.936	0.288	-0.139
-526.018	181.355	-0.162	0.238
-525.004	800.000	-0.112	0.353
-523.989	-46.174	-0.192	-0.095
-522.975	403.570	0.214	-0.450
-521.960	-200.000	-0.025	-0.332
-520.945	-33.760	-0.395	0.218
-519.931	10.425	0.367	-0.279
-518.916	-67.815	-0.225	0.088
-517.902	-200.000	-0.058	-0.336
-516.887	-20.616	0.126	-0.077
-515.872	23.751	0.062	0.051
-514.858	-127.524	-0.259	-0.038
-513.843	94.583	-0.101	-0.114
-512.829	-41.909	-0.299	-0.153
-511.814	-200.000	0.028	0.266
-510.799	-200.000	0.004	0.214
-509.785	144.271	-0.149	-0.199
-508.770	67.049	0.111	0.113
-507.756	-114.301	0.277	-0.053
-506.741	-200.000	-0.021	0.099
-505.726	-200.000	0.035	0.397
-504.712	-200.000	0.028	0.240
-503.697	2.381	-0.270	0.195
-502.683	58.925	0.191	-0.188
-501.668	460.681	-0.261	-0.581
-500.653	-33.788	-0.610	-0.336
-499.639	800.000	-0.031	-0.086
-498.624	-200.000	0.011	0.160
-497.610	-200.000	-0.020	0.108
-496.595	253.115	0.076	-0.130
-495.581	0.099	0.133	0.094
-494.566	-3.531	-0.205	0.142
-493.551	-113.293	0.234	0.046
-492.537	-65.346	-0.216	-0.087
-491.522	-98.779	0.306	0.078
-490.508	-106.747	-0.129	-0.029
-489.493	377.798	0.113	0.231
-488.478	-200.000	-0.033	0.275
-487.464	-72.663	-0.359	-0.132
-486.449	-200.000	-0.000	0.063
-485.435	82.851	0.131	0.142
-484.420	181.236	0.061	0.089
-483.405	-200.000	-0.018	0.138
-482.391	-77.898	-0.141	-0.049
-481.376	-64.993	0.220	0.089
-480.362	-148.017	-0.198	0.016
-479.347	67.724	-0.076	-0.078
-478.332	475.914	-0.087	0.196
-477.318	800.000	0.043	-0.156
-476.303	-200.000	-0.031	-0.234
-475.289	168.225	-0.123	-0.174
-474.274	205.973	0.149	-0.231
-473.259	799.231	0.127	0.349
-472.245	274.299	0.039	0.070
-471.230	-30.869	-0.114	0.064
-470.216	800.000	-0.070	-0.268
-469.201	66.428	-0.067	-0.068
-468.186	-200.000	-0.024	-0.572
-467.172	-31.359	0.317	0.178
-466.157	411.501	-0.162	0.342
-465.143	800.000	-0.076	0.312
-464.128	7.135	0.151	0.112
-463.113	175.444	-0.092	0.133
-462.099	-200.000	-0.055	-0.363
-461.084	-200.000	0.000	-0.073
-460.070	-85.532	0.147	0.046
-459.055	800.000	-0.097	0.276
-458.040	146.723	0.155	0.207
-457.026	174.723	-0.272	0.393
-456.011	-82.825	-0.144	0.046
-454.997	74.069	0.187	-0.196
-453.982	50.821	0.310	-0.293
-452.968	-88.721	-0.078	-0.023
-451.953	800.000	-0.031	-0.125
-450.938	44.423	0.127	-0.117
-449.924	-71.684	-0.126	0.047
-448.909	29.947	0.193	0.164
-447.895	-8.602	0.178	0.119
-446.880	-117.878	0.510	0.091
-445.865	420.837	0.106	-0.226
-444.851	3.915	-0.218	-0.158
-443.836	-97.477	0.084	0.022
-442.822	-107.321	0.197	0.043
-441.807	-200.000	-0.018	0.092
-440.792	-123.109	-0.370	-0.059
-439.778	-27.464	0.262	-0.152
-438.763	19.409	0.187	-0.149
-437.749	10.820	-0.219	0.167
-436.734	88.233	-0.135	-0.149
-435.719	-61.484	0.178	-0.075
-434.705	-18.220	0.198	0.124
-433.690	-94.622	0.132	-0.036
-432.676	-200.000	-0.008	0.156
-431.661	-200.000	-0.014	-0.090
-430.646	93.471	0.253	0.285
-429.632	-98.739	0.263	0.067
-428.617	-200.000	-0.042	-0.273
-427.603	629.526	0.031	0.078
-426.588	113.073	-0.307	-0.371
-425.573	-31.188	-0.088	-0.049
-424.559	-2.301	0.250	0.174
-423.544	-120.830	0.201	-0.034
-422.530	800.000	-0.038	-0.107
-421.515	-154.209	-0.178	0.012
-420.500	-200.000	-0.004	0.059
-419.486	174.788	-0.169	0.243
-418.471	-75.924	0.054	-0.019
-417.457	-81.163	-0.107	-0.035
-416.442	-120.615	0.084	-0.014
-415.428	458.455	-0.035	-0.078
-414.413	25.897	-0.301	0.250
-413.398	-33.132	-0.152	0.084
-412.384	28.378	0.172	-0.144
-411.369	-200.000	-0.007	0.195
-410.355	800.000	0.055	0.224
-409.340	-111.319	0.250	0.051
-408.325	332.441	0.069	0.133
-407.311	430.208	-0.133	0.287
-406.296	-200.000	0.070	-0.333
-405.282	-18.700	-0.084	0.052
-404.267	77.084	-0.251	-0.266
-403.252	-35.748	0.178	0.096
-402.238	67.679	-0.091	-0.092
-401.223	-1.234	-0.126	-0.089
-400.209	800.000	-0.070	0.277
-399.194	12.680	-0.093	-0.071
-398.179	-62.215	-0.155	0.064
-397.165	-42.427	0.383	-0.194
-396.150	-114.170	-0.163	-0.031
-395.136	-23.231	0.215	-0.129
-394.121	-112.389	-0.159	0.032
-393.106	800.000	-0.017	0.070
-392.092	-84.690	0.128	-0.040
-391.077	-26.976	-0.209	-0.121
-390.063	-101.232	0.040	-0.010
-389.048	800.000	-0.073	0.208
-388.033	-200.000	-0.029	-0.465
-387.019	-10.310	-0.132	-0.087
-386.004	-91.209	0.168	0.048
-384.990	800.000	0.100	0.321
-383.975	-38.714	-0.130	0.068
-382.960	800.000	-0.053	0.170
-381.946	-151.226	-0.228	0.017
-380.931	-87.534	0.176	0.053
-379.917	-108.317	-0.319	0.068
-378.902	494.323	-0.084	-0.191
-377.888	800.000	0.052	0.201
-376.873	110.885	0.158	-0.189
-375.858	800.000	0.033	-0.141
-374.844	-58.133	-0.044	0.019
-373.829	314.237	0.080	0.150
-372.815	-200.000	-0.000	-0.043
-371.800	-200.000	0.006	0.047
-370.785	-100.697	0.080	-0.020
-369.771	800.000	-0.069	-0.300
-368.756	282.268	0.157	-0.280
-367.742	-200.000	-0.004	-0.210
-366.727	-200.000	-0.009	0.506
-365.712	-200.000	-0.010	-0.361
-364.698	28.705	-0.252	-0.212
-363.683	17.884	-0.178	0.141
-362.669	41.780	0.071	0.064
-361.654	31.589	0.193	0.165
-360.639	-46.092	0.216	0.106
-359.625	-129.443	-0.161	0.022
-358.610	428.398	-0.084	-0.181
-357.596	125.238	0.216	-0.271
-356.581	43.902	0.151	0.137
-355.566	415.699	-0.090	0.192
-354.552	3.031	0.143	0.103
-353.537	-120.568	0.280	-0.047
-352.523	1.536	-0.305	0.218
-351.508	-19.731	-0.145	0.089
-350.493	-200.000	0.007	-0.139
-349.479	-16.978	-0.141	0.088
-348.464	139.770	0.200	-0.262
-347.450	-82.709	-0.120	0.039
-346.435	800.000	0.050	0.164
-345.420	353.159	0.026	0.051
-344.406	77.268	0.061	0.064
-343.391	800.000	-0.079	-0.230
-342.377	-38.666	-0.238	-0.125
-341.362	-200.000	0.012	-0.205
-340.348	193.827	0.182	-0.274
-339.333	-191.218	0.315	-0.003
-338.318	-200.000	-0.015	-0.244
-337.304	0.676	-0.167	-0.119
-336.289	80.773	-0.243	0.260
-335.275	-158.541	0.216	0.012
-334.260	69.637	-0.237	-0.242
-333.245	800.000	-0.036	0.109
-332.231	-98.102	-0.365	0.093
-331.216	82.223	-0.228	0.245
-330.202	13.687	-0.085	-0.065
-329.187	106.352	0.088	-0.104
-328.172	-136.690	-0.308	0.035
-327.158	-133.186	0.247	0.031
-326.143	-200.000	-0.029	0.175
-325.129	99.076	0.240	0.275
-324.114	800.000	-0.063	-0.199
-323.099	-51.241	0.314	-0.146
-322.085	-200.000	0.036	-0.214
-321.070	-86.209	-0.075	0.023
-320.056	4.031	0.064	-0.047
-319.041	-151.259	-0.231	0.017
-318.026	14.281	0.200	0.155
-317.012	48.522	-0.300	0.279
-315.997	-5.369	0.383	0.261
-314.983	223.757	0.182	-0.291
-313.968	36.715	0.262	0.229
-312.953	-200.000	-0.041	-0.297
-311.939	281.927	0.118	0.210
-310.924	800.000	-0.091	0.365
-309.910	-140.764	-0.127	0.013
-308.895	-127.488	-0.064	0.009
-307.880	-200.000	0.018	-0.212
-306.866	-173.185	0.169	-0.005
-305.851	-200.000	0.077	0.398
-304.837	-200.000	-0.004	-0.019
-303.822	270.472	-0.051	0.089
-302.807	243.679	-0.103	-0.171
-301.793	136.070	-0.055	-0.070
-300.778	-6.633	0.318	-0.215
-299.764	8.216	0.083	-0.062
-298.749	-200.000	-0.216	0.000
-297.735	-200.000	0.006	-0.279
-296.720	-67.649	0.141	-0.055
-295.705	-82.197	-0.106	0.034
-294.691	-77.444	0.238	0.082
-293.676	126.752	-0.025	0.032
-292.662	33.614	-0.227	-0.195
-291.647	188.613	-0.205	0.304
-290.632	575.592	0.068	-0.165
-289.618	183.015	-0.106	-0.155
-288.603	-35.377	-0.329	0.177
-287.589	-119.714	-0.349	0.060
-286.574	800.000	0.042	0.159
-285.559	800.000	0.059	0.221
-284.545	-72.977	0.310	0.113
-283.530	-128.107	0.214	-0.030
-282.516	414.933	0.095	0.201
-281.501	-134.707	-0.082	0.010
-280.486	93.795	0.041	-0.046
-279.472	-44.774	-0.183	-0.091
-278.457	-147.060	-0.271	-0.023
-277.443	-0.152	0.172	-0.121
-276.428	800.000	0.037	0.107
-275.413	-41.899	0.047	-0.024
-274.399	-200.000	0.023	0.204
-273.384	-200.000	0.005	0.283
-272.370	8.731	0.066	0.049
-271.355	-200.000	-0.022	0.236
-270.340	18.299	-0.044	-0.035
-269.326	-110.288	0.211	0.043
-268.311	297.785	0.115	0.209
-267.297	-132.599	-0.405	0.051
-266.282	-166.270	-0.276	-0.012
-265.267	-20.059	-0.324	0.198
-264.253	538.834	-0.065	-0.152
-263.238	-142.404	0.103	0.010
-262.224	-10.081	0.148	-0.097
-261.209	800.000	-0.042	0.129
-260.195	-200.000	-0.019	0.287
-259.180	61.697	-0.069	-0.068
-258.165	99.932	-0.251	-0.288
-257.151	-46.762	-0.283	-0.137
-256.136	800.000	0.071	0.216
-255.122	-108.078	0.166	0.036
-254.107	-200.000	0.061	0.504
-253.092	-79.258	0.097	0.032
-252.078	239.996	0.185	-0.305
-251.063	800.000	0.047	0.175
-250.049	-109.911	0.205	-0.043
-249.034	5.380	0.268	0.195
-248.019	-72.541	0.191	0.070
-247.005	-84.499	-0.109	-0.034
-245.990	-66.028	0.189	-0.075
-244.976	-145.461	0.034	-0.003
-243.961	72.593	-0.262	0.271
-242.946	-80.063	0.178	-0.059
-241.932	-200.000	-0.013	0.076
-240.917	-85.409	0.437	0.135
-239.903	-200.000	-0.002	0.196
-238.888	-200.000	0.009	-0.075
-237.873	92.386	0.111	-0.124
-236.859	-135.200	-0.351	-0.042
-235.844	65.027	0.025	-0.025
-234.830	76.796	-0.139	-0.146
-233.815	4.709	0.416	-0.302
-232.800	800.000	-0.096	-0.372
-231.786	378.786	-0.056	0.114
-230.771	-200.000	-0.075	-0.329
-229.757	-15.687	0.061	-0.039
-228.742	-185.898	0.388	-0.006
-227.727	95.458	0.045	0.051
-226.713	-29.275	0.193	-0.109
-225.698	246.330	0.210	0.350
-224.684	-200.000	0.047	-0.249
-223.669	72.714	-0.147	0.152
-222.655	76.689	0.124	-0.130
-221.640	-72.915	-0.215	0.078
-220.625	-200.000	0.004	-0.153
-219.611	-200.000	0.029	-0.337
-218.596	130.502	0.337	-0.427
-217.582	164.096	0.042	0.058
-216.567	-52.004	0.108	0.050
-215.552	446.751	-0.135	-0.293
-214.538	800.000	-0.100	-0.361
-213.523	446.497	0.063	-0.137
-212.509	0.966	-0.159	0.113
-211.494	233.000	-0.191	0.310
-210.479	66.475	0.136	0.136
-209.465	-141.878	-0.256	0.025
-208.450	333.271	-0.239	0.456
-207.436	-200.000	0.047	0.273
-206.421	800.000	-0.058	-0.186
-205.406	800.000	0.035	0.145
-204.392	135.577	-0.036	0.046
-203.377	97.057	-0.066	0.075
-202.363	368.757	-0.153	0.306
-201.348	217.141	0.212	0.333
-200.333	-108.252	-0.366	-0.078
-199.319	-200.000	0.025	0.141
-198.304	-134.507	-0.281	0.034
-197.290	-109.366	0.056	0.012
-196.275	518.886	-0.063	-0.145
-195.260	51.124	0.120	0.112
-194.246	800.000	-0.059	0.176
-193.231	800.000	0.053	0.179
-192.217	179.584	-0.051	-0.074
-191.202	152.693	-0.241	0.326
-190.187	150.330	0.147	-0.196
-189.173	112.387	0.151	0.181
-188.158	47.923	0.271	-0.250
-187.144	-117.613	-0.151	0.027
-186.129	-29.489	-0.092	-0.052
-185.114	-200.000	-0.000	-0.033
-184.100	196.664	0.113	0.170
-183.085	-132.336	0.063	0.008
-182.071	309.972	0.210	0.389
-181.056	-73.682	0.098	0.035
-180.042	-109.895	0.266	-0.055
-179.027	22.543	0.189	-0.152
-178.012	-200.000	-0.029	0.155
-176.998	-80.882	0.253	-0.083
-175.983	800.000	0.084	-0.361
-174.969	70.816	-0.154	0.157
-173.954	319.191	0.104	-0.195
-172.939	326.171	-0.140	-0.264
-171.925	-200.000	0.018	0.365
-170.910	175.908	0.166	0.238
-169.896	-200.000	0.014	-0.209
-168.881	-102.664	0.068	0.016
-167.866	113.175	-0.159	0.190
-166.852	-133.905	-0.159	0.020
-165.837	-25.271	-0.339	0.198
-164.823	-105.274	0.248	0.056
-163.808	-200.000	-0.015	-0.301
-162.793	250.966	-0.143	-0.239
-161.779	370.276	-0.067	-0.133
-160.764	90.228	-0.042	-0.047
-159.750	26.091	0.374	-0.308
-158.735	-15.618	0.415	0.261
-157.720	-80.268	0.218	0.072
-156.706	-58.193	0.224	-0.096
-155.691	-103.989	-0.208	-0.048
-154.677	8.541	0.177	0.132
-153.662	-110.600	0.119	-0.024
-152.647	-42.850	-0.165	0.083
-151.633	-92.902	-0.089	0.024
-150.618	-138.588	0.243	-0.026
-149.604	-31.776	-0.278	-0.154
-148.589	103.203	0.013	0.015
-147.574	-80.906	0.151	0.049
-146.560	165.083	0.194	0.270
-145.545	197.228	0.190	0.286
-144.531	338.563	0.054	-0.104
-143.516	96.523	0.147	-0.166
-142.502	-200.000	0.030	0.212
-141.487	-48.917	0.273	0.129
-140.472	-200.000	0.042	0.192
-139.458	43.218	-0.162	-0.146
-138.443	-54.951	0.154	0.068
-137.429	800.000	0.065	0.239
-136.414	-19.054	-0.296	0.181
-135.399	-35.625	0.399	0.213
-134.385	567.589	-0.200	0.478
-133.370	68.638	0.211	0.213
-132.356	60.550	-0.052	-0.051
-131.341	29.986	-0.016	0.014
-130.326	776.619	-0.152	0.409
-129.312	-93.241	0.196	0.054
-128.297	-4.158	-0.103	0.070
-127.283	19.037	-0.177	0.139
-126.268	167.128	-0.021	-0.029
-125.253	291.065	0.055	-0.098
-124.239	-145.010	0.156	0.014
-123.224	213.603	0.100	0.155
-122.210	-200.000	0.016	0.135
-121.195	-92.426	-0.272	0.075
-120.180	-54.682	0.429	0.191
