DTS Sentinel unit serial number:	SN413079Multiplexer serial number:	ORYXHardware model number:	OX4-SRSoftware version number:	ORYX F/W v4.00 Oryx Data Collector v3.7.2.0data status	okinstallation	princeton_trtdifferential loss correction	single-endedforward channel	channel 2reverse channel	N/Adate	2019/09/17time	09:07:34forward acquisition time	60.00reverse acquisition time	0.00gamma	496.2192k internal	0.2331k external	0.2331temperature offset calibration	0.9971default loss term (dB/km)	0.3790temperature slope calibration	1.0000multiplexer offset coefficient	1.0000multiplexer slope coefficient	1.0000fibre end	0.00T internal ref (°C)	28.25T ext. ref 1 (°C)	0.15T ext. ref 2 (°C)	25.02length (m)	temperature (°C)	Stokes	anti-Stokes-747.200	-78.618	0.176	0.061
-746.185	800.000	0.041	-0.149
-745.171	800.000	-0.098	0.303
-744.156	204.554	-0.096	0.150
-743.142	800.000	0.071	0.238
-742.127	225.017	-0.094	-0.154
-741.112	-200.000	-0.013	-0.244
-740.098	800.000	0.005	-0.017
-739.083	800.000	0.059	0.234
-738.069	60.038	-0.139	0.138
-737.054	-110.661	-0.079	0.016
-736.039	154.360	-0.185	-0.256
-735.025	696.444	-0.092	0.243
-734.010	-200.000	-0.020	-0.147
-732.996	-15.400	-0.080	0.051
-731.981	-35.950	0.066	0.036
-730.966	-141.466	0.229	-0.023
-729.952	-10.262	-0.235	-0.157
-728.937	-31.640	-0.196	0.111
-727.923	-107.710	-0.174	-0.038
-726.908	221.814	0.193	-0.311
-725.894	-125.394	-0.328	-0.050
-724.879	-91.207	0.051	0.015
-723.864	-155.248	0.379	-0.025
-722.850	-82.048	0.106	0.035
-721.835	800.000	0.041	-0.166
-720.821	156.230	-0.056	-0.077
-719.806	-113.462	-0.252	-0.050
-718.791	-200.000	-0.008	0.072
-717.777	-112.207	0.185	-0.037
-716.762	665.859	-0.045	0.117
-715.748	96.289	0.014	0.017
-714.733	-200.000	-0.003	-0.083
-713.718	-200.000	0.036	-0.233
-712.704	-200.000	0.003	-0.158
-711.689	800.000	-0.050	-0.178
-710.675	771.013	0.039	-0.106
-709.660	-31.297	-0.184	0.104
-708.645	203.568	-0.034	-0.053
-707.631	-152.837	0.298	-0.021
-706.616	23.222	-0.345	-0.284
-705.602	-16.446	-0.289	0.184
-704.587	-77.194	0.236	0.083
-703.572	-55.388	-0.177	-0.080
-702.558	334.782	-0.053	-0.103
-701.543	800.000	-0.077	-0.261
-700.529	-4.990	0.154	0.107
-699.514	31.455	0.288	-0.248
-698.499	-200.000	-0.007	0.096
-697.485	-65.701	-0.434	-0.175
-696.470	-144.702	0.353	0.033
-695.456	36.989	0.437	-0.388
-694.441	165.336	-0.350	-0.497
-693.426	193.599	0.148	-0.225
-692.412	-47.243	-0.192	-0.094
-691.397	-200.000	0.010	-0.116
-690.383	-200.000	0.172	0.000
-689.368	-80.709	-0.169	0.056
-688.354	-200.000	0.011	-0.121
-687.339	-200.000	-0.008	0.049
-686.324	137.426	-0.123	-0.162
-685.310	-63.398	0.030	-0.013
-684.295	114.410	-0.064	0.078
-683.281	19.407	-0.115	0.093
-682.266	-200.000	0.089	-0.397
-681.251	-200.000	-0.026	-0.286
-680.237	-19.501	0.167	-0.104
-679.222	-15.539	0.131	0.084
-678.208	272.450	0.063	0.112
-677.193	174.540	-0.083	-0.121
-676.178	-124.037	0.425	0.067
-675.164	82.876	-0.148	-0.162
-674.149	1.671	0.058	-0.042
-673.135	800.000	-0.058	-0.231
-672.120	629.146	0.140	-0.354
-671.105	800.000	0.034	0.105
-670.091	-120.108	-0.088	0.015
-669.076	5.841	-0.090	0.067
-668.062	-14.449	-0.141	-0.091
-667.047	105.938	0.113	-0.134
-666.032	41.499	0.043	-0.039
-665.018	-77.126	-0.082	-0.029
-664.003	-144.882	-0.257	-0.024
-662.989	-200.000	-0.011	0.122
-661.974	-200.000	0.005	-0.207
-660.959	800.000	-0.078	-0.215
-659.945	-144.585	0.096	0.009
-658.930	-200.000	0.016	0.092
-657.916	-7.308	-0.233	0.159
-656.901	-55.943	0.093	-0.041
-655.886	64.902	-0.204	-0.206
-654.872	-200.000	-0.001	0.068
-653.857	10.223	-0.165	-0.126
-652.843	352.021	0.052	0.104
-651.828	-200.000	0.005	0.149
-650.814	45.748	-0.120	0.112
-649.799	144.175	-0.123	-0.165
-648.784	-200.000	0.020	-0.347
-647.770	-200.000	-0.029	0.161
-646.755	593.612	0.197	-0.488
-645.741	166.590	-0.290	-0.413
-644.726	-91.235	-0.232	0.067
-643.711	129.736	-0.158	0.203
-642.697	800.000	0.033	-0.093
-641.682	-94.843	-0.171	0.047
-640.668	164.108	-0.209	0.295
-639.653	-192.572	0.287	-0.003
-638.638	266.913	0.111	-0.195
-637.624	130.953	0.151	-0.195
-636.609	-156.337	0.127	0.008
-635.595	-188.564	-0.167	-0.002
-634.580	159.691	-0.176	-0.246
-633.565	-32.772	0.205	0.114
-632.551	-132.677	-0.334	0.043
-631.536	800.000	-0.026	0.105
-630.522	188.851	0.046	0.069
-629.507	-57.377	-0.188	-0.083
-628.492	-200.000	0.003	0.264
-627.478	512.463	-0.098	-0.229
-626.463	252.598	0.140	-0.240
-625.449	322.628	0.143	0.273
-624.434	-16.690	0.114	0.072
-623.419	758.699	-0.143	-0.389
-622.405	-199.396	-0.160	0.001
-621.390	-200.000	-0.011	0.216
-620.376	-200.000	0.035	0.186
-619.361	800.000	0.018	0.077
-618.346	165.684	-0.068	-0.097
-617.332	32.968	-0.135	-0.117
-616.317	81.246	-0.216	-0.234
-615.303	480.814	0.163	-0.370
-614.288	-137.624	-0.261	-0.029
-613.273	167.718	0.161	-0.229
-612.259	-8.018	-0.193	0.130
-611.244	-200.000	0.028	0.178
-610.230	-23.971	-0.055	-0.033
-609.215	436.575	0.030	0.066
-608.201	-200.000	0.000	-0.182
-607.186	-99.727	0.066	-0.017
-606.171	800.000	-0.125	-0.347
-605.157	-200.000	0.023	-0.123
-604.142	194.818	0.078	0.118
-603.128	-66.059	0.151	-0.061
-602.113	42.623	-0.231	0.210
-601.098	17.477	-0.076	-0.061
-600.084	208.012	-0.187	-0.293
-599.069	-128.785	-0.165	-0.023
-598.055	-200.000	-0.027	-0.291
-597.040	-13.055	-0.090	-0.059
-596.025	150.927	0.082	0.112
-595.011	254.186	-0.170	-0.292
-593.996	-200.000	0.018	-0.423
-592.982	114.830	0.305	-0.372
-591.967	-19.305	0.132	-0.082
-590.952	629.515	0.098	-0.248
-589.938	537.688	-0.047	-0.112
-588.923	-200.000	-0.003	0.155
-587.909	-200.000	-0.003	0.194
-586.894	-0.761	-0.411	-0.291
-585.879	-182.636	0.287	-0.005
-584.865	-122.688	0.146	0.024
-583.850	162.926	0.107	-0.150
-582.836	92.453	-0.069	0.078
-581.821	-114.318	-0.111	-0.021
-580.806	-94.648	-0.268	-0.073
-579.792	-200.000	0.027	0.161
-578.777	-200.000	0.016	0.341
-577.763	-200.000	0.045	-0.264
-576.748	-142.120	-0.134	-0.013
-575.733	-132.357	0.209	0.027
-574.719	-37.752	-0.364	-0.194
-573.704	800.000	0.141	-0.401
-572.690	-193.096	0.350	-0.003
-571.675	43.180	0.135	-0.124
-570.661	800.000	0.156	-0.546
-569.646	800.000	0.053	-0.163
-568.631	-42.066	-0.246	-0.126
-567.617	-57.200	0.172	0.076
-566.602	-29.109	-0.086	0.050
-565.588	220.364	-0.167	-0.267
-564.573	510.180	0.051	-0.118
-563.558	-200.000	0.071	-0.391
-562.544	-19.518	0.269	0.166
-561.529	62.117	0.112	0.111
-560.515	195.871	0.054	0.082
-559.500	31.596	0.176	-0.151
-558.485	-46.092	-0.168	-0.083
-557.471	-46.235	-0.066	0.033
-556.456	-35.654	0.022	0.012
-555.442	-200.000	-0.054	0.501
-554.427	-6.736	-0.162	-0.110
-553.412	-39.449	0.127	-0.066
-552.398	800.000	0.064	-0.230
-551.383	-5.375	0.193	0.132
-550.369	-40.997	-0.079	0.041
-549.354	-12.039	-0.409	0.268
-548.339	800.000	-0.028	0.115
-547.325	-168.871	0.365	-0.014
-546.310	-200.000	0.028	-0.170
-545.296	800.000	-0.099	0.346
-544.281	62.914	0.172	0.172
-543.266	-200.000	-0.019	-0.107
-542.252	-81.151	-0.024	0.008
-541.237	25.809	0.173	0.144
-540.223	479.034	0.073	0.165
-539.208	-39.696	-0.175	0.091
-538.193	242.279	0.071	0.119
-537.179	-72.748	-0.201	0.074
-536.164	436.066	-0.130	-0.283
-535.150	-200.000	0.057	0.325
-534.135	139.082	-0.143	-0.188
-533.121	-127.653	0.234	0.034
-532.106	800.000	-0.100	0.412
-531.091	-51.275	0.228	-0.106
-530.077	-81.362	-0.052	0.017
-529.062	-95.417	0.163	0.044
-528.048	-200.000	-0.055	-0.253
-527.033	-97.010	-0.380	0.099
-526.018	78.508	0.155	-0.166
-525.004	-25.742	0.176	-0.104
-523.989	242.107	0.155	-0.259
-522.975	-53.101	0.243	0.111
-521.960	800.000	-0.067	0.190
-520.945	-72.240	0.162	0.060
-519.931	800.000	-0.093	-0.372
-518.916	30.883	0.326	0.279
-517.902	161.548	0.149	-0.207
-516.887	-30.914	-0.151	0.085
-515.872	228.301	-0.086	0.140
-514.858	106.808	0.185	-0.220
-513.843	800.000	-0.085	0.273
-512.829	83.939	-0.152	-0.166
-511.814	21.111	0.095	-0.077
-510.799	-97.443	0.246	0.064
-509.785	714.332	-0.088	0.233
-508.770	-150.222	-0.434	0.033
-507.756	-200.000	-0.042	0.287
-506.741	-167.364	-0.168	-0.007
-505.726	140.398	0.161	0.212
-504.712	201.739	0.242	0.372
-503.697	23.073	-0.182	0.149
-502.683	544.242	-0.116	0.277
-501.668	-15.227	-0.357	-0.228
-500.653	102.970	-0.038	-0.044
-499.639	-102.847	0.363	-0.086
-498.624	53.552	0.128	0.122
-497.610	-200.000	0.044	0.293
-496.595	-42.861	0.111	-0.056
-495.581	-105.906	-0.092	-0.021
-494.566	-5.352	-0.206	0.141
-493.551	800.000	-0.063	0.182
-492.537	-29.233	-0.193	-0.110
-491.522	10.240	0.076	0.057
-490.508	87.092	-0.047	-0.052
-489.493	-109.314	-0.001	-0.000
-488.478	-200.000	0.015	-0.110
-487.464	-81.085	0.113	-0.037
-486.449	-64.072	0.158	0.064
-485.435	28.781	0.127	0.107
-484.420	-97.782	-0.167	0.043
-483.405	325.039	-0.067	0.128
-482.391	436.843	0.038	-0.081
-481.376	36.126	-0.130	0.114
-480.362	-49.549	-0.179	0.085
-479.347	-48.561	0.371	-0.178
-478.332	-200.000	0.031	-0.387
-477.318	197.908	-0.115	-0.175
-476.303	-200.000	0.014	-0.114
-475.289	79.223	-0.140	-0.149
-474.274	-200.000	-0.043	0.398
-473.259	2.945	0.264	-0.191
-472.245	-66.031	-0.149	0.059
-471.230	69.702	0.122	-0.125
-470.216	-129.089	0.177	-0.025
-469.201	111.424	0.050	0.060
-468.186	107.069	0.142	0.168
-467.172	130.630	0.149	-0.190
-466.157	641.490	-0.118	-0.299
-465.143	-97.398	0.180	0.047
-464.128	-113.260	-0.208	-0.041
-463.113	59.065	-0.105	-0.103
-462.099	-200.000	-0.006	0.282
-461.084	-200.000	-0.035	-0.301
-460.070	-87.381	0.030	0.009
-459.055	-200.000	0.001	0.228
-458.040	-200.000	-0.020	-0.282
-457.026	-182.163	-0.326	0.006
-456.011	-71.137	0.101	-0.038
-454.997	169.627	-0.083	-0.118
-453.982	293.431	0.057	0.103
-452.968	524.366	-0.070	0.163
-451.953	490.395	0.037	0.085
-450.938	-41.789	-0.376	-0.192
-449.924	-55.522	0.120	0.054
-448.909	161.915	-0.138	0.192
-447.895	-157.951	-0.184	0.011
-446.880	-200.000	0.028	0.140
-445.865	800.000	-0.154	-0.430
-444.851	103.930	-0.089	0.104
-443.836	120.784	-0.172	-0.213
-442.822	800.000	0.084	0.237
-441.807	800.000	-0.092	-0.281
-440.792	-4.740	-0.284	-0.195
-439.778	28.278	0.128	0.108
-438.763	35.698	0.101	0.088
-437.749	800.000	-0.042	-0.178
-436.734	74.708	0.168	-0.175
-435.719	800.000	0.131	0.378
-434.705	-71.946	0.196	0.073
-433.690	-114.176	-0.058	0.011
-432.676	51.954	-0.189	0.179
-431.661	-42.536	-0.173	0.088
-430.646	-172.222	0.232	-0.007
-429.632	6.518	0.110	-0.081
-428.617	-10.619	-0.138	0.091
-427.603	-200.000	-0.001	-0.063
-426.588	-200.000	-0.017	0.362
-425.573	319.330	0.104	0.196
-424.559	-72.336	-0.268	0.099
-423.544	700.030	0.110	-0.287
-422.530	0.873	0.152	0.108
-421.515	-200.000	-0.036	0.212
-420.500	-23.448	-0.123	0.074
-419.486	-200.000	-0.028	0.304
-418.471	800.000	0.122	0.340
-417.457	136.056	-0.206	0.267
-416.442	-62.715	-0.213	0.088
-415.428	-153.534	0.445	-0.031
-414.413	-99.388	0.328	-0.082
-413.398	2.932	0.174	-0.125
-412.384	-153.377	0.088	-0.006
-411.369	800.000	0.028	0.081
-410.355	-200.000	-0.003	0.182
-409.340	-200.000	0.003	0.045
-408.325	92.449	0.223	-0.249
-407.311	-121.166	0.012	-0.002
-406.296	-130.393	-0.176	-0.024
-405.282	-70.970	0.335	0.125
-404.267	-48.532	-0.156	0.074
-403.252	-200.000	-0.036	-0.233
-402.238	135.070	-0.209	-0.270
-401.223	90.836	0.124	0.138
-400.209	-200.000	0.042	0.263
-399.194	-30.254	0.181	-0.102
-398.179	-137.093	-0.281	0.032
-397.165	-61.321	-0.182	-0.076
-396.150	-146.582	0.258	0.022
-395.136	621.158	-0.073	0.182
-394.121	-200.000	0.022	-0.145
-393.106	399.028	0.122	-0.253
-392.092	519.502	-0.202	-0.471
-391.077	-87.123	-0.203	-0.061
-390.063	-3.124	0.159	0.110
-389.048	-50.553	0.116	0.054
-388.033	-200.000	0.017	0.154
-387.019	231.583	0.201	-0.327
-386.004	-200.000	0.022	0.252
-384.990	-200.000	-0.002	-0.105
-383.975	71.690	0.088	-0.090
-382.960	-22.020	0.251	0.151
-381.946	-197.771	-0.469	-0.003
-380.931	-91.992	0.119	0.033
-379.917	53.604	0.048	-0.046
-378.902	-200.000	-0.028	-0.311
-377.888	-200.000	-0.027	0.162
-376.873	270.962	0.112	-0.196
-375.858	18.866	0.220	0.175
-374.844	-18.337	-0.102	-0.063
-373.829	-48.461	-0.240	-0.115
-372.815	800.000	-0.129	-0.415
-371.800	48.844	-0.207	-0.193
-370.785	-168.817	-0.192	-0.007
-369.771	98.028	0.064	0.074
-368.756	-200.000	0.020	-0.156
-367.742	109.348	0.147	-0.175
-366.727	800.000	-0.087	-0.310
-365.712	-44.821	0.347	0.172
-364.698	201.557	0.035	0.053
-363.683	-107.743	0.121	0.026
-362.669	-85.188	0.296	-0.092
-361.654	40.296	-0.108	0.096
-360.639	-27.074	0.337	0.195
-359.625	-82.285	0.240	-0.077
-358.610	419.206	0.113	0.239
-357.596	-32.660	0.205	0.113
-356.581	-163.059	-0.206	0.010
-355.566	-24.476	0.510	-0.301
-354.552	329.415	0.166	0.316
-353.537	-133.528	-0.295	0.037
-352.523	-99.820	-0.237	-0.059
-351.508	-186.581	-0.137	0.002
-350.493	-86.766	0.043	-0.013
-349.479	13.829	-0.206	-0.159
-348.464	-69.507	-0.354	0.134
-347.450	-110.250	0.310	0.064
-346.435	-200.000	-0.058	0.368
-345.420	-81.339	-0.191	-0.062
-344.406	-200.000	0.000	0.030
-343.391	800.000	0.041	0.142
-342.377	-24.555	0.219	-0.129
-341.362	96.101	-0.098	-0.111
-340.348	-24.261	0.159	0.094
-339.333	63.843	-0.156	0.155
-338.318	176.807	-0.053	0.076
-337.304	-200.000	0.097	-0.567
-336.289	-52.080	-0.269	-0.124
-335.275	-200.000	-0.003	0.204
-334.260	3.003	-0.214	0.154
-333.245	-111.160	0.300	-0.061
-332.231	-52.988	0.218	-0.099
-331.216	-137.664	-0.212	-0.024
-330.202	800.000	-0.031	0.129
-329.187	-129.575	0.127	0.017
-328.172	-89.885	-0.293	0.085
-327.158	-155.212	0.259	0.017
-326.143	-5.378	0.246	0.167
-325.129	-107.708	-0.231	-0.050
-324.114	-81.036	-0.319	0.105
-323.099	137.441	0.140	-0.181
-322.085	31.340	-0.217	0.185
-321.070	800.000	0.098	-0.270
-320.056	-50.193	-0.210	-0.098
-319.041	-162.701	0.232	0.011
-318.026	-126.114	-0.215	0.032
-317.012	16.743	0.154	-0.121
-315.997	-36.352	0.142	0.076
-314.983	-96.691	0.212	0.055
-313.968	-50.853	-0.297	-0.138
-312.953	800.000	0.045	-0.138
-311.939	385.418	-0.074	-0.151
-310.924	-120.151	-0.186	-0.031
-309.910	113.687	0.178	0.214
-308.895	-89.328	-0.083	-0.024
-307.880	532.178	-0.104	0.243
-306.866	340.359	-0.007	-0.013
-305.851	800.000	0.079	-0.216
-304.837	-175.712	0.200	0.005
-303.822	59.216	-0.232	-0.226
-302.807	-119.250	-0.087	0.015
-301.793	153.158	-0.070	0.095
-300.778	-200.000	0.010	-0.070
-299.764	-143.224	-0.117	-0.011
-298.749	-128.532	0.148	0.021
-297.735	86.820	-0.098	0.107
-296.720	-51.691	-0.252	0.116
-295.705	-146.717	-0.105	-0.009
-294.691	800.000	-0.051	0.156
-293.676	169.736	-0.133	-0.187
-292.662	-20.892	0.170	0.103
-291.647	16.178	0.171	0.134
-290.632	58.534	-0.305	-0.296
-289.618	-63.775	0.007	0.003
-288.603	800.000	-0.068	0.290
-287.589	800.000	-0.107	-0.369
-286.574	284.220	-0.120	-0.213
-285.559	143.310	-0.067	0.088
-284.545	-39.247	-0.334	-0.174
-283.530	-200.000	-0.038	-0.238
-282.516	-8.675	0.120	-0.080
-281.501	-112.333	0.242	0.048
-280.486	-175.680	-0.167	-0.004
-279.472	-200.000	0.008	0.110
-278.457	51.931	0.135	-0.127
-277.443	-79.561	0.128	0.043
-276.428	-72.165	-0.171	0.063
-275.413	-200.000	0.006	-0.067
-274.399	6.011	-0.160	0.117
-273.384	-200.000	0.023	0.202
-272.370	800.000	-0.142	0.390
-271.355	-3.663	0.074	0.051
-270.340	-200.000	-0.012	0.503
-269.326	54.186	-0.233	-0.222
-268.311	-23.559	-0.153	0.091
-267.297	-9.188	0.124	0.082
-266.282	-134.968	-0.388	-0.046
-265.267	-19.992	-0.314	-0.191
-264.253	84.000	-0.178	-0.192
-263.238	-200.000	-0.013	0.128
-262.224	-29.697	-0.028	0.016
-261.209	-76.130	-0.174	0.061
-260.195	1.699	0.238	0.170
-259.180	-101.914	0.417	-0.099
-258.165	-200.000	-0.025	0.182
-257.151	-200.000	0.008	-0.122
-256.136	-102.650	0.298	-0.070
-255.122	-39.772	-0.099	0.051
-254.107	-200.000	-0.058	-0.403
-253.092	800.000	0.036	0.111
-252.078	337.097	-0.126	0.241
-251.063	-200.000	-0.063	-0.277
-250.049	-66.694	0.369	0.144
-249.034	-7.464	0.023	-0.015
-248.019	21.395	0.087	0.070
-247.005	-155.122	0.252	0.016
-245.990	155.204	-0.186	-0.252
-244.976	278.808	-0.128	-0.225
-243.961	-200.000	-0.046	-0.235
-242.946	-88.247	-0.272	0.080
-241.932	127.871	0.036	0.046
-240.917	-87.122	0.393	0.118
-239.903	668.121	0.094	0.241
-238.888	-153.200	-0.199	0.014
-237.873	800.000	0.088	0.329
-236.859	-200.000	0.019	-0.198
-235.844	800.000	-0.079	0.240
-234.830	67.315	-0.257	-0.259
-233.815	425.907	0.053	-0.113
-232.800	-200.000	-0.018	0.101
-231.786	15.795	0.245	0.190
-230.771	734.004	-0.157	0.414
-229.757	48.939	-0.031	0.029
-228.742	85.571	0.015	0.016
-227.727	800.000	-0.066	0.227
-226.713	53.099	-0.111	-0.105
-225.698	349.244	-0.051	-0.099
-224.684	60.241	-0.280	0.273
-223.669	16.763	-0.213	-0.166
-222.655	-200.000	0.010	0.099
-221.640	-96.750	-0.184	-0.048
-220.625	92.694	-0.161	-0.179
-219.611	-51.248	0.084	-0.039
-218.596	-200.000	0.007	-0.068
-217.582	197.233	0.209	0.314
-216.567	-93.942	-0.220	0.060
-215.552	800.000	0.065	0.179
-214.538	-82.946	0.117	-0.037
-213.523	-11.580	-0.146	0.095
-212.509	14.810	-0.118	-0.091
-211.494	-145.422	-0.266	-0.024
-210.479	-200.000	0.039	0.170
-209.465	-30.610	0.100	0.056
-208.450	37.034	-0.149	-0.130
-207.436	-200.000	-0.045	0.389
-206.421	-200.000	0.019	0.241
-205.406	-138.596	-0.080	0.009
-204.392	196.958	-0.099	0.149
-203.377	-200.000	-0.010	-0.129
-202.363	-84.903	-0.179	0.055
-201.348	-200.000	0.063	-0.415
-200.333	169.928	0.250	0.353
-199.319	91.947	0.311	0.345
-198.304	-86.610	0.468	0.141
-197.290	800.000	0.100	-0.272
-196.275	-17.156	0.214	0.133
-195.260	54.169	-0.232	-0.220
-194.246	-45.176	-0.360	0.176
-193.231	-46.500	0.229	-0.111
-192.217	-8.015	0.123	0.082
-191.202	-200.000	-0.010	-0.310
-190.187	-15.433	0.056	-0.035
-189.173	111.085	-0.087	0.103
-188.158	-97.887	-0.186	0.047
-187.144	-200.000	-0.052	-0.322
-186.129	-26.925	0.452	-0.260
-185.114	800.000	0.091	0.276
-184.100	-200.000	-0.020	0.195
-183.085	800.000	-0.020	-0.073
-182.071	-144.258	-0.157	-0.014
-181.056	800.000	-0.106	-0.308
-180.042	143.183	-0.060	-0.079
-179.027	800.000	0.103	0.405
-178.012	-5.512	0.060	-0.040
-176.998	-59.590	0.150	0.063
-175.983	-200.000	-0.044	-0.205
-174.969	-96.176	-0.070	0.018
-173.954	117.942	0.394	0.477
-172.939	134.572	0.126	0.160
-171.925	44.732	0.078	-0.071
-170.910	177.212	0.196	0.281
-169.896	610.967	-0.111	-0.274
-168.881	108.835	0.160	0.188
-167.866	169.949	0.394	0.555
-166.852	290.088	0.154	0.276
-165.837	-68.948	0.373	0.142
-164.823	206.521	0.219	0.336
-163.808	-200.000	0.023	-0.130
-162.793	335.943	0.031	-0.059
-161.779	800.000	-0.088	-0.261
-160.764	-30.110	0.323	-0.181
-159.750	-175.959	-0.337	-0.009
-158.735	362.554	-0.172	0.339
-157.720	-76.459	0.237	0.082
-156.706	127.749	-0.081	0.101
-155.691	-200.000	0.031	0.206
-154.677	-95.806	0.317	-0.083
-153.662	-200.000	-0.011	0.170
-152.647	15.810	0.129	-0.100
-151.633	-90.910	0.223	-0.063
-150.618	-59.905	0.124	-0.052
-149.604	-200.000	-0.010	-0.094
-148.589	500.554	-0.071	0.160
-147.574	-164.235	0.139	-0.006
-146.560	-200.000	-0.074	0.441
-145.545	260.743	0.129	-0.220
-144.531	-169.916	0.223	-0.008
-143.516	27.258	-0.196	-0.162
-142.502	-6.077	-0.102	-0.069
-141.487	-40.737	0.265	0.135
-140.472	35.165	0.059	0.051
-139.458	-23.829	-0.172	-0.101
-138.443	800.000	0.076	-0.293
-137.429	106.266	0.095	-0.110
-136.414	800.000	0.062	-0.222
-135.399	302.704	0.136	0.247
-134.385	-200.000	-0.029	-0.144
-133.370	-56.566	-0.068	-0.030
-132.356	59.597	0.147	-0.142
-131.341	-200.000	-0.009	0.197
-130.326	-200.000	-0.009	0.350
-129.312	-145.963	-0.060	-0.005
-128.297	-19.836	0.274	-0.166
-127.283	-200.000	0.022	-0.266
-126.268	-200.000	0.005	0.186
-125.253	79.273	-0.189	0.199
-124.239	-74.014	-0.281	0.100
-123.224	800.000	0.053	0.164
-122.210	-111.518	0.507	-0.101
-121.195	800.000	-0.027	0.105
