DTS Sentinel unit serial number:	SN413079Multiplexer serial number:	ORYXHardware model number:	OX4-SRSoftware version number:	ORYX F/W v4.00 Oryx Data Collector v3.7.2.0data status	okinstallation	princeton_trtdifferential loss correction	single-endedforward channel	channel 2reverse channel	N/Adate	2019/09/18time	08:59:35forward acquisition time	60.00reverse acquisition time	0.00gamma	496.2192k internal	0.2339k external	0.2339temperature offset calibration	0.9978default loss term (dB/km)	0.3790temperature slope calibration	1.0000multiplexer offset coefficient	1.0000multiplexer slope coefficient	1.0000fibre end	0.00T internal ref (°C)	25.06T ext. ref 1 (°C)	0.24T ext. ref 2 (°C)	21.69length (m)	temperature (°C)	Stokes	anti-Stokes-747.200	-200.000	-0.023	-0.109
-746.185	27.495	0.177	0.149
-745.171	194.529	0.034	-0.052
-744.156	484.145	0.141	0.322
-743.142	-139.739	0.471	0.050
-742.127	55.567	-0.274	0.266
-741.112	800.000	0.063	0.205
-740.098	171.820	-0.057	-0.082
-739.083	-200.000	-0.005	-0.192
-738.069	567.120	0.078	0.191
-737.054	800.000	0.136	0.489
-736.039	93.466	0.229	-0.260
-735.025	1.494	-0.074	0.054
-734.010	-200.000	0.007	-0.558
-732.996	800.000	-0.052	-0.227
-731.981	-14.219	-0.226	0.146
-730.966	-29.589	-0.105	-0.060
-729.952	406.385	0.086	-0.182
-728.937	-200.000	-0.032	-0.190
-727.923	-58.162	-0.089	-0.039
-726.908	800.000	0.020	-0.088
-725.894	-84.974	-0.316	0.099
-724.879	-188.412	0.156	0.002
-723.864	-81.321	-0.458	-0.151
-722.850	-200.000	-0.011	-0.053
-721.835	-200.000	-0.000	0.004
-720.821	730.551	0.055	-0.148
-719.806	222.529	-0.157	-0.253
-718.791	-200.000	0.060	-0.360
-717.777	453.498	-0.129	-0.287
-716.762	619.732	0.159	-0.400
-715.748	-200.000	0.010	-0.107
-714.733	114.013	-0.085	0.103
-713.718	-63.348	-0.192	0.079
-712.704	116.666	0.079	0.097
-711.689	229.079	0.026	0.043
-710.675	398.138	-0.059	0.123
-709.660	-200.000	-0.014	-0.067
-708.645	-5.609	-0.378	-0.260
-707.631	-200.000	0.030	-0.300
-706.616	800.000	-0.153	-0.450
-705.602	-200.000	0.059	0.341
-704.587	103.437	0.133	-0.156
-703.572	525.317	-0.034	-0.080
-702.558	-140.144	-0.143	-0.015
-701.543	120.769	0.137	0.171
-700.529	-107.605	-0.311	-0.068
-699.514	-132.547	-0.324	-0.042
-698.499	42.301	0.085	0.077
-697.485	-82.366	-0.304	-0.099
-696.470	375.480	0.111	-0.226
-695.456	30.260	-0.176	-0.150
-694.441	-148.955	-0.161	-0.013
-693.426	46.284	0.062	0.058
-692.412	131.760	0.051	-0.066
-691.397	-37.892	-0.500	0.266
-690.383	321.285	-0.100	0.190
-689.368	323.438	0.074	0.142
-688.354	-200.000	0.011	0.332
-687.339	-21.635	-0.185	0.113
-686.324	125.104	0.224	0.282
-685.310	5.647	-0.360	0.267
-684.295	-200.000	0.042	-0.191
-683.281	800.000	-0.078	0.275
-682.266	203.617	-0.127	-0.196
-681.251	139.421	-0.095	0.125
-680.237	-45.960	0.293	-0.145
-679.222	79.623	0.060	0.064
-678.208	-16.956	-0.123	-0.078
-677.193	551.691	-0.141	-0.339
-676.178	156.443	-0.121	-0.167
-675.164	-200.000	-0.056	-0.258
-674.149	-80.231	-0.124	0.042
-673.135	-46.302	0.202	0.099
-672.120	-181.818	0.172	0.003
-671.105	17.259	-0.278	0.221
-670.091	443.949	0.080	0.175
-669.076	-46.952	-0.286	-0.140
-668.062	116.476	0.027	0.033
-667.047	46.227	0.039	0.036
-666.032	-200.000	0.037	0.366
-665.018	208.545	0.032	-0.050
-664.003	-157.542	0.079	-0.005
-662.989	800.000	0.115	0.354
-661.974	-200.000	-0.041	-0.302
-660.959	660.787	0.102	0.263
-659.945	-56.041	-0.323	-0.144
-658.930	-115.284	0.049	0.009
-657.916	-127.537	-0.145	-0.021
-656.901	-200.000	0.012	-0.199
-655.886	266.815	0.131	0.229
-654.872	-137.461	0.366	-0.041
-653.857	266.734	0.152	-0.266
-652.843	-141.285	-0.222	0.023
-651.828	-12.377	-0.103	-0.067
-650.814	-24.259	0.195	-0.116
-649.799	800.000	-0.071	0.225
-648.784	-200.000	-0.002	-0.083
-647.770	47.632	-0.358	-0.334
-646.755	-94.179	-0.190	0.052
-645.741	499.725	-0.091	-0.210
-644.726	-200.000	-0.004	0.468
-643.711	-200.000	0.045	-0.417
-642.697	137.798	0.173	-0.226
-641.682	630.031	-0.054	0.136
-640.668	478.105	0.121	-0.273
-639.653	-84.073	0.171	-0.054
-638.638	28.691	-0.067	0.057
-637.624	-200.000	0.000	0.281
-636.609	-23.405	-0.392	0.235
-635.595	-124.750	-0.288	0.045
-634.580	104.059	-0.124	0.146
-633.565	-9.739	-0.374	0.249
-632.551	-15.458	0.147	-0.094
-631.536	-96.766	-0.120	-0.032
-630.522	94.206	-0.079	0.090
-629.507	-82.391	0.094	-0.031
-628.492	508.056	-0.204	-0.472
-627.478	-110.772	0.061	0.013
-626.463	-188.638	-0.529	0.007
-625.449	204.963	-0.091	-0.141
-624.434	689.148	-0.110	-0.286
-623.419	266.833	-0.086	0.150
-622.405	74.755	-0.082	-0.087
-621.390	117.036	0.181	-0.222
-620.376	-200.000	-0.010	-0.219
-619.361	795.451	0.080	-0.219
-618.346	-200.000	-0.064	-0.332
-617.332	800.000	0.128	0.487
-616.317	244.652	0.143	-0.239
-615.303	34.452	0.264	-0.230
-614.288	-128.003	-0.132	-0.019
-613.273	-200.000	-0.031	-0.238
-612.259	-142.275	0.253	-0.025
-611.244	-128.237	0.357	0.051
-610.230	198.820	-0.142	-0.217
-609.215	800.000	0.074	-0.288
-608.201	49.397	-0.276	0.259
-607.186	38.057	-0.161	0.143
-606.171	111.978	0.223	-0.269
-605.157	-0.811	-0.103	0.073
-604.142	-200.000	-0.041	-0.361
-603.128	-124.657	0.151	0.023
-602.113	-137.472	-0.246	0.028
-601.098	-104.856	0.085	0.019
-600.084	-83.019	0.147	0.047
-599.069	-52.633	0.144	-0.066
-598.055	-200.000	-0.006	-0.052
-597.040	315.682	-0.123	-0.232
-596.025	800.000	0.068	-0.235
-595.011	517.480	0.036	0.084
-593.996	800.000	0.019	0.076
-592.982	-124.631	-0.296	-0.046
-591.967	-43.562	-0.118	0.059
-590.952	-187.121	-0.323	-0.004
-589.938	-145.133	-0.242	0.022
-588.923	124.654	-0.255	-0.320
-587.909	-200.000	0.015	-0.112
-586.894	800.000	-0.087	-0.274
-585.879	4.909	-0.181	0.133
-584.865	-26.840	0.119	-0.069
-583.850	60.285	-0.073	-0.072
-582.836	-89.656	0.246	-0.072
-581.821	16.209	0.087	-0.068
-580.806	-36.416	0.425	-0.228
-579.792	-106.261	-0.040	-0.009
-578.777	479.955	0.093	0.210
-577.763	-63.543	0.375	-0.154
-576.748	20.630	-0.142	-0.115
-575.733	14.530	0.097	-0.075
-574.719	-86.724	-0.191	-0.058
-573.704	340.176	-0.105	0.205
-572.690	-166.660	0.205	0.008
-571.675	800.000	-0.065	0.248
-570.661	800.000	-0.027	-0.102
-569.646	602.009	-0.037	-0.093
-568.631	-200.000	-0.045	0.388
-567.617	800.000	-0.066	0.214
-566.602	637.940	-0.150	0.380
-565.588	-26.692	0.257	0.150
-564.573	-200.000	0.024	0.124
-563.558	120.611	-0.128	0.158
-562.544	800.000	-0.041	0.138
-561.529	-47.709	0.311	-0.150
-560.515	-200.000	0.006	-0.036
-559.500	-113.000	0.156	0.031
-558.485	-127.827	-0.370	0.053
-557.471	379.916	-0.023	0.047
-556.456	800.000	0.134	-0.392
-555.442	37.656	0.145	-0.128
-554.427	75.483	-0.061	0.064
-553.412	-148.994	0.081	-0.007
-552.398	2.686	0.093	0.067
-551.383	-51.519	-0.386	-0.180
-550.369	-102.401	-0.166	-0.040
-549.354	-107.929	0.059	0.013
-548.339	69.925	0.159	-0.164
-547.325	-85.948	0.217	0.067
-546.310	800.000	0.045	0.189
-545.296	-200.000	-0.032	0.371
-544.281	26.708	0.144	0.120
-543.266	-200.000	-0.020	-0.197
-542.252	-103.782	0.156	-0.036
-541.237	-200.000	-0.004	0.335
-540.223	800.000	-0.035	0.148
-539.208	-108.514	0.288	0.062
-538.193	-200.000	-0.031	-0.161
-537.179	469.801	0.093	-0.208
-536.164	-81.717	0.072	0.023
-535.150	141.398	-0.174	-0.229
-534.135	66.284	0.167	-0.169
-533.121	234.714	-0.111	-0.183
-532.106	154.049	-0.183	0.250
-531.091	-19.221	-0.196	0.121
-530.077	160.610	-0.041	0.056
-529.062	139.771	-0.274	-0.359
-528.048	116.659	-0.221	-0.270
-527.033	-66.109	0.163	-0.065
-526.018	204.292	0.206	0.317
-525.004	-200.000	-0.004	0.102
-523.989	-200.000	0.017	0.368
-522.975	19.047	-0.036	-0.029
-521.960	9.505	0.165	0.124
-520.945	800.000	0.072	-0.249
-519.931	338.436	-0.123	-0.239
-518.916	147.209	-0.119	0.159
-517.902	-143.549	0.227	0.022
-516.887	-134.185	-0.305	0.037
-515.872	-30.046	-0.323	0.183
-514.858	-46.676	0.206	-0.101
-513.843	65.601	0.140	0.141
-512.829	-137.253	-0.279	0.032
-511.814	139.226	0.155	0.203
-510.799	800.000	0.045	0.141
-509.785	77.593	0.202	0.214
-508.770	-136.601	0.162	0.019
-507.756	-200.000	0.008	-0.318
-506.741	60.612	-0.182	-0.179
-505.726	-162.890	-0.510	0.025
-504.712	131.509	0.035	-0.045
-503.697	15.822	0.156	0.122
-502.683	-200.000	0.008	-0.126
-501.668	266.426	-0.102	0.176
-500.653	746.063	-0.058	-0.156
-499.639	121.188	0.063	0.078
-498.624	-200.000	-0.037	-0.336
-497.610	-174.189	0.258	0.007
-496.595	-40.855	0.073	-0.037
-495.581	800.000	-0.030	-0.116
-494.566	-200.000	-0.009	0.151
-493.551	-200.000	0.025	0.173
-492.537	-95.772	-0.138	0.037
-491.522	800.000	-0.107	0.324
-490.508	264.409	-0.098	-0.170
-489.493	380.123	0.175	0.356
-488.478	-200.000	0.072	-0.638
-487.464	-77.568	0.394	-0.136
-486.449	81.204	0.098	-0.105
-485.435	-200.000	-0.012	-0.064
-484.420	90.935	-0.198	0.220
-483.405	-32.421	-0.108	0.060
-482.391	-124.856	0.420	0.064
-481.376	22.218	-0.244	-0.198
-480.362	193.631	-0.071	0.107
-479.347	88.133	0.236	0.260
-478.332	13.701	0.280	-0.216
-477.318	68.897	0.086	0.088
-476.303	-87.143	-0.189	0.057
-475.289	-99.468	-0.028	0.007
-474.274	-190.893	-0.157	-0.002
-473.259	-133.882	0.064	0.008
-472.245	-52.889	0.180	0.082
-471.230	-112.250	0.354	-0.070
-470.216	-107.187	0.111	0.024
-469.201	-200.000	0.006	-0.187
-468.186	800.000	0.058	-0.170
-467.172	-5.142	-0.378	0.258
-466.157	97.255	-0.169	0.192
-465.143	800.000	-0.055	-0.206
-464.128	231.934	-0.056	0.091
-463.113	106.350	-0.146	0.172
-462.099	526.161	-0.004	0.009
-461.084	-70.370	0.249	0.094
-460.070	-0.405	-0.294	-0.207
-459.055	63.030	-0.042	0.042
-458.040	-113.974	-0.153	0.029
-457.026	-82.861	0.370	0.118
-456.011	800.000	0.079	-0.223
-454.997	204.310	-0.215	-0.331
-453.982	-200.000	0.034	0.255
-452.968	-63.415	0.109	-0.044
-451.953	-200.000	0.021	-0.112
-450.938	13.877	-0.241	-0.186
-449.924	-114.061	-0.286	-0.055
-448.909	-55.208	0.033	0.015
-447.895	16.291	0.205	0.161
-446.880	53.638	-0.076	0.073
-445.865	800.000	-0.075	-0.233
-444.851	-170.808	-0.173	-0.006
-443.836	-156.133	0.232	0.015
-442.822	-200.000	0.020	-0.121
-441.807	-60.299	0.233	-0.098
-440.792	-200.000	0.006	0.128
-439.778	535.765	0.063	-0.148
-438.763	144.787	0.133	0.176
-437.749	86.486	0.143	-0.157
-436.734	-200.000	0.004	-0.041
-435.719	203.957	-0.082	0.126
-434.705	28.522	0.101	-0.085
-433.690	-200.000	-0.005	-0.153
-432.676	-96.680	0.184	0.048
-431.661	61.006	-0.070	-0.069
-430.646	-200.000	-0.077	-0.485
-429.632	-169.150	0.174	-0.006
-428.617	-39.328	-0.172	0.089
-427.603	179.904	0.123	0.179
-426.588	-127.877	0.009	0.001
-425.573	800.000	0.101	-0.280
-424.559	446.301	-0.067	0.147
-423.544	-86.194	0.130	0.040
-422.530	111.927	-0.140	0.167
-421.515	-3.925	0.216	-0.149
-420.500	290.182	-0.080	-0.144
-419.486	-142.230	-0.425	0.042
-418.471	-200.000	0.020	0.107
-417.457	-200.000	0.039	-0.315
-416.442	-200.000	0.012	-0.295
-415.428	-41.647	-0.306	-0.156
-414.413	208.625	0.173	-0.269
-413.398	-73.613	-0.135	0.049
-412.384	0.472	0.316	-0.224
-411.369	-200.000	-0.008	-0.237
-410.355	-200.000	0.001	-0.090
-409.340	49.092	0.194	-0.180
-408.325	-200.000	0.066	-0.388
-407.311	-85.526	0.102	-0.031
-406.296	-125.280	0.081	-0.012
-405.282	45.962	-0.107	0.098
-404.267	-200.000	-0.027	-0.125
-403.252	800.000	0.072	0.205
-402.238	17.554	-0.181	0.142
-401.223	-200.000	0.008	-0.040
-400.209	-200.000	-0.042	0.227
-399.194	753.025	0.092	0.245
-398.179	-124.063	-0.482	-0.075
-397.165	-15.297	0.042	0.026
-396.150	10.315	-0.163	0.123
-395.136	-200.000	-0.023	-0.212
-394.121	499.235	-0.162	-0.369
-393.106	70.950	-0.196	0.201
-392.092	557.113	0.042	-0.101
-391.077	-16.813	0.252	-0.158
-390.063	110.525	-0.092	-0.110
-389.048	367.466	-0.046	0.091
-388.033	14.241	-0.089	-0.069
-387.019	800.000	0.066	-0.190
-386.004	800.000	0.118	-0.359
-384.990	-200.000	0.006	0.250
-383.975	800.000	-0.060	0.229
-382.960	573.380	-0.075	0.180
-381.946	-140.948	-0.146	-0.015
-380.931	9.456	-0.200	-0.150
-379.917	-200.000	0.018	-0.269
-378.902	-56.430	0.103	-0.045
-377.888	120.265	0.114	-0.140
-376.873	301.695	0.079	0.144
-375.858	-200.000	0.017	-0.262
-374.844	-75.391	-0.143	0.050
-373.829	-32.821	0.107	0.059
-372.815	-146.971	-0.229	-0.019
-371.800	-53.048	0.191	-0.087
-370.785	310.951	-0.133	-0.247
-369.771	-95.459	-0.333	0.088
-368.756	-4.137	0.158	-0.108
-367.742	-67.134	0.346	-0.135
-366.727	160.353	0.098	0.135
-365.712	-200.000	-0.011	-0.253
-364.698	164.043	-0.017	-0.023
-363.683	4.346	-0.123	-0.089
-362.669	47.444	-0.077	0.071
-361.654	-200.000	0.081	0.572
-360.639	300.178	0.085	0.156
-359.625	-200.000	0.000	0.075
-358.610	-157.822	-0.276	-0.016
-357.596	-21.811	0.365	0.219
-356.581	-167.957	0.096	0.004
-355.566	56.674	-0.106	-0.102
-354.552	117.326	0.166	0.202
-353.537	-3.711	0.334	0.229
-352.523	79.999	-0.094	0.100
-351.508	-160.471	-0.219	0.012
-350.493	800.000	0.057	0.205
-349.479	-150.668	-0.203	0.015
-348.464	-2.138	0.273	-0.189
-347.450	-9.066	0.044	0.029
-346.435	62.477	0.147	0.145
-345.420	331.969	0.086	0.164
-344.406	-143.062	0.244	0.023
-343.391	-200.000	-0.008	0.164
-342.377	106.357	-0.094	0.110
-341.362	-82.986	-0.254	-0.081
-340.348	143.159	-0.137	0.180
-339.333	135.977	-0.074	0.095
-338.318	-200.000	-0.048	-0.252
-337.304	-117.921	0.194	-0.034
-336.289	-200.000	-0.023	0.352
-335.275	800.000	0.064	-0.242
-334.260	210.206	-0.192	0.298
-333.245	-70.632	0.157	0.059
-332.231	-104.850	0.475	0.108
-331.216	29.494	-0.074	0.062
-330.202	275.309	-0.176	0.308
-329.187	40.083	0.151	0.134
-328.172	800.000	0.032	0.116
-327.158	23.885	-0.138	-0.112
-326.143	800.000	-0.013	-0.046
-325.129	-129.656	-0.164	-0.022
-324.114	381.349	-0.077	-0.156
-323.099	47.808	0.320	0.295
-322.085	396.415	-0.204	0.421
-321.070	313.762	0.095	-0.176
-320.056	-135.695	0.309	0.036
-319.041	-151.284	0.008	-0.001
-318.026	294.050	-0.150	0.270
-317.012	320.377	-0.089	0.167
-315.997	-109.797	0.483	-0.100
-314.983	49.447	-0.166	-0.154
-313.968	33.704	-0.217	0.186
-312.953	-88.278	0.149	0.044
-311.939	230.872	-0.062	-0.100
-310.924	-66.124	0.161	0.063
-309.910	-44.208	0.085	-0.042
-308.895	23.325	0.281	0.227
-307.880	-138.838	0.203	0.022
-306.866	18.130	0.203	0.160
-305.851	340.722	0.038	-0.074
-304.837	-200.000	0.043	0.290
-303.822	-41.845	0.301	-0.152
-302.807	101.831	0.328	0.377
-301.793	232.722	0.059	-0.096
-300.778	145.587	-0.213	-0.282
-299.764	-114.120	0.446	-0.085
-298.749	-200.000	0.035	-0.250
-297.735	-76.848	0.253	-0.087
-296.720	-88.270	-0.229	-0.068
-295.705	-17.737	-0.054	-0.034
-294.691	800.000	-0.134	-0.431
-293.676	158.994	-0.135	-0.185
-292.662	-75.338	-0.563	0.198
-291.647	483.162	0.031	0.070
-290.632	-200.000	-0.031	0.136
-289.618	-123.826	0.231	-0.036
-288.603	-64.833	-0.362	-0.144
-287.589	-77.180	0.139	0.048
-286.574	2.031	0.048	0.034
-285.559	11.745	0.071	0.054
-284.545	-57.794	0.126	-0.054
-283.530	72.699	0.062	0.064
-282.516	25.926	-0.294	-0.242
-281.501	4.033	0.084	0.061
-280.486	317.769	-0.059	0.110
-279.472	-200.000	0.022	-0.152
-278.457	-200.000	0.013	-0.068
-277.443	-123.364	-0.021	0.003
-276.428	-151.210	0.213	-0.016
-275.413	-61.603	-0.163	0.067
-274.399	-67.691	-0.116	-0.045
-273.384	-37.974	0.076	0.040
-272.370	-88.400	-0.207	-0.061
-271.355	-128.988	0.296	-0.041
-270.340	-200.000	-0.001	-0.178
-269.326	-190.842	-0.399	0.004
-268.311	800.000	-0.053	0.185
-267.297	415.162	0.025	0.053
-266.282	106.869	-0.146	0.170
-265.267	800.000	0.078	0.223
-264.253	-200.000	-0.057	-0.258
-263.238	-200.000	0.013	-0.089
-262.224	-102.202	-0.418	0.099
-261.209	448.080	0.102	0.222
-260.195	-200.000	0.017	-0.081
-259.180	-200.000	0.046	0.385
-258.165	-27.777	0.189	0.108
-257.151	-74.237	0.045	0.016
-256.136	800.000	-0.050	0.145
-255.122	269.230	-0.132	0.228
-254.107	599.598	0.039	0.096
-253.092	-52.505	0.226	0.103
-252.078	6.386	-0.198	0.145
-251.063	-57.978	-0.137	-0.059
-250.049	-200.000	0.041	-0.508
-249.034	-100.524	0.096	0.023
-248.019	29.146	0.181	0.151
-247.005	-8.314	-0.237	-0.157
-245.990	-164.521	0.089	-0.004
-244.976	18.311	0.198	0.155
-243.961	-69.069	0.192	0.073
-242.946	247.035	-0.102	-0.169
-241.932	-46.892	0.218	0.105
-240.917	-47.374	-0.173	0.083
-239.903	-13.768	-0.105	0.067
-238.888	27.297	-0.173	0.143
-237.873	18.049	0.064	0.050
-236.859	-200.000	0.012	0.061
-235.844	20.986	-0.056	-0.045
-234.830	800.000	-0.044	0.124
-233.815	110.524	-0.147	0.173
-232.800	-115.545	0.218	-0.040
-231.786	702.497	0.024	-0.062
-230.771	-140.949	0.178	0.018
-229.757	741.058	0.110	0.292
-228.742	-113.898	0.326	-0.062
-227.727	27.093	0.074	-0.061
-226.713	-200.000	-0.013	0.152
-225.698	-46.494	-0.407	-0.196
-224.684	-149.617	0.061	0.005
-223.669	196.564	0.003	-0.004
-222.655	-105.594	-0.381	0.085
-221.640	41.085	0.202	-0.180
-220.625	74.701	0.251	0.260
-219.611	-159.806	-0.271	-0.015
-218.596	-23.926	-0.095	0.056
-217.582	-200.000	0.054	-0.238
-216.567	296.986	-0.169	0.305
-215.552	11.037	0.280	-0.210
-214.538	-113.479	-0.219	-0.042
-213.523	134.810	0.163	0.208
-212.509	208.159	-0.066	0.101
-211.494	42.442	0.158	0.141
-210.479	800.000	0.089	-0.283
-209.465	-95.132	-0.189	0.050
-208.450	52.185	0.112	-0.105
-207.436	45.387	0.160	-0.145
-206.421	800.000	-0.064	-0.242
-205.406	-21.321	-0.061	0.037
-204.392	-200.000	0.029	-0.203
-203.377	311.370	0.127	0.233
-202.363	-60.720	-0.217	-0.090
-201.348	-115.177	-0.091	0.017
-200.333	-111.023	-0.372	-0.075
-199.319	-93.755	0.065	0.018
-198.304	429.458	0.104	0.221
-197.290	-141.942	0.300	0.029
-196.275	-19.160	-0.114	-0.069
-195.260	-200.000	-0.026	-0.179
-194.246	-200.000	-0.017	0.252
-193.231	-200.000	-0.004	0.021
-192.217	-141.811	-0.068	-0.007
-191.202	461.228	0.093	-0.203
-190.187	169.345	0.031	0.044
-189.173	-63.992	-0.273	0.110
-188.158	-104.721	0.298	-0.067
-187.144	-134.891	-0.327	-0.039
-186.129	-74.135	-0.045	-0.016
-185.114	-200.000	0.006	0.062
-184.100	-79.279	-0.246	-0.082
-183.085	93.158	0.122	0.136
-182.071	-200.000	-0.048	0.238
-181.056	-200.000	-0.002	-0.158
-180.042	526.178	0.109	-0.253
-179.027	-200.000	0.020	0.088
-178.012	138.804	0.135	0.174
-176.998	63.836	0.165	0.163
-175.983	-42.624	-0.123	0.061
-174.969	-125.964	0.277	-0.041
-173.954	-106.582	0.162	-0.035
-172.939	-149.538	-0.160	-0.012
-171.925	-200.000	0.104	0.560
-170.910	57.690	0.062	-0.060
-169.896	80.925	-0.168	0.178
-168.881	-200.000	-0.020	0.147
-167.866	128.860	-0.099	0.124
-166.852	710.809	0.053	-0.138
-165.837	4.950	-0.110	0.079
-164.823	-200.000	-0.075	0.377
-163.808	-101.732	-0.251	-0.060
-162.793	-200.000	-0.042	0.344
-161.779	82.270	0.104	0.111
-160.764	-200.000	-0.020	-0.322
-159.750	241.170	0.110	-0.180
-158.735	800.000	0.086	0.265
-157.720	-122.546	0.240	-0.038
-156.706	-1.419	0.082	-0.057
-155.691	677.746	0.080	0.204
-154.677	308.800	-0.063	-0.115
-153.662	800.000	-0.021	-0.081
-152.647	-200.000	-0.006	-0.114
-151.633	-12.199	-0.265	0.170
-150.618	114.462	-0.080	0.095
-149.604	-127.162	0.212	-0.030
-148.589	-129.397	0.228	0.031
-147.574	-200.000	-0.016	0.219
-146.560	237.215	0.063	-0.102
-145.545	800.000	0.031	-0.122
-144.531	30.205	0.034	-0.028
-143.516	146.675	0.293	-0.386
-142.502	-153.996	0.236	0.016
-141.487	325.104	0.076	0.143
-140.472	-99.363	-0.224	0.055
-139.458	61.052	-0.188	0.183
-138.443	610.177	-0.053	0.129
-137.429	-112.296	0.145	-0.028
-136.414	80.076	0.262	0.276
-135.399	800.000	-0.013	0.052
-134.385	-116.472	-0.046	0.008
-133.370	-77.341	-0.071	-0.024
-132.356	260.153	-0.124	-0.209
-131.341	800.000	-0.107	0.369
-130.326	34.150	-0.269	0.230
-129.312	46.044	-0.357	0.324
-128.297	-200.000	0.016	0.121
-127.283	-200.000	0.005	0.114
-126.268	36.586	-0.264	0.228
-125.253	-68.206	-0.173	0.066
-124.239	-154.155	-0.452	0.030
-123.224	17.925	0.272	0.213
-122.210	58.735	0.035	-0.034
-121.195	-44.724	0.131	-0.064
