DTS Sentinel unit serial number:	SN413079Multiplexer serial number:	ORYXHardware model number:	OX4-SRSoftware version number:	ORYX F/W v4.00 Oryx Data Collector v3.7.2.0data status	okinstallation	princeton_trtdifferential loss correction	single-endedforward channel	channel 2reverse channel	N/Adate	2019/09/17time	07:03:34forward acquisition time	60.00reverse acquisition time	0.00gamma	496.2192k internal	0.2334k external	0.2334temperature offset calibration	0.9978default loss term (dB/km)	0.3790temperature slope calibration	1.0000multiplexer offset coefficient	1.0000multiplexer slope coefficient	1.0000fibre end	0.00T internal ref (°C)	27.47T ext. ref 1 (°C)	0.11T ext. ref 2 (°C)	21.08length (m)	temperature (°C)	Stokes	anti-Stokes-747.200	672.962	-0.072	0.188
-746.185	312.827	-0.227	-0.428
-745.171	-163.542	0.014	0.001
-744.156	-84.418	-0.169	0.054
-743.142	-122.985	0.272	-0.044
-742.127	-200.000	-0.009	0.343
-741.112	236.533	0.199	-0.331
-740.098	-200.000	-0.041	0.434
-739.083	-139.587	-0.066	0.007
-738.069	800.000	0.109	0.371
-737.054	-174.121	0.184	-0.005
-736.039	-83.665	-0.225	0.072
-735.025	-200.000	0.004	0.091
-734.010	264.020	0.177	-0.308
-732.996	-95.177	-0.398	0.108
-731.981	-168.781	0.867	0.033
-730.966	-200.000	-0.124	0.000
-729.952	-91.865	0.276	0.079
-728.937	411.307	0.109	-0.232
-727.923	-200.000	0.029	-0.272
-726.908	800.000	0.055	0.211
-725.894	-200.000	-0.028	0.187
-724.879	-80.405	-0.119	0.040
-723.864	-155.844	-0.082	-0.005
-722.850	-65.835	-0.312	-0.125
-721.835	-115.990	-0.379	0.071
-720.821	268.998	0.035	0.062
-719.806	-93.029	0.271	-0.076
-718.791	165.394	-0.121	-0.172
-717.777	691.291	-0.089	0.235
-716.762	575.935	-0.094	-0.232
-715.748	-200.000	-0.014	0.158
-714.733	800.000	-0.075	-0.236
-713.718	-110.880	-0.203	-0.042
-712.704	-135.943	-0.189	0.022
-711.689	340.702	-0.083	-0.162
-710.675	62.632	0.194	-0.195
-709.660	-200.000	-0.026	0.227
-708.645	223.302	0.093	0.151
-707.631	800.000	0.064	0.238
-706.616	-125.475	-0.265	-0.041
-705.602	409.848	0.081	-0.172
-704.587	168.900	-0.048	-0.069
-703.572	-200.000	0.010	-0.341
-702.558	114.487	-0.044	-0.054
-701.543	-58.210	0.196	-0.086
-700.529	245.180	-0.143	0.241
-699.514	740.926	-0.047	0.125
-698.499	-32.674	0.105	-0.059
-697.485	278.896	-0.163	0.291
-696.470	559.590	-0.057	0.137
-695.456	-119.845	0.403	-0.070
-694.441	800.000	0.021	0.075
-693.426	-137.074	-0.205	0.024
-692.412	42.959	0.062	-0.056
-691.397	-94.499	0.376	0.103
-690.383	33.671	-0.112	-0.098
-689.368	-200.000	-0.060	0.000
-688.354	515.121	-0.140	-0.327
-687.339	3.659	0.101	0.074
-686.324	-200.000	-0.011	-0.177
-685.310	-48.220	-0.222	-0.108
-684.295	363.075	-0.116	-0.235
-683.281	-3.751	-0.045	-0.031
-682.266	-135.453	0.120	-0.014
-681.251	-81.956	0.272	-0.089
-680.237	35.504	0.179	-0.157
-679.222	-48.522	-0.308	-0.148
-678.208	383.624	0.085	-0.176
-677.193	-27.369	0.104	-0.060
-676.178	-200.000	0.048	-0.385
-675.164	697.242	-0.033	0.088
-674.149	213.695	-0.145	-0.230
-673.135	-171.988	0.181	0.006
-672.120	64.940	-0.117	0.118
-671.105	419.673	-0.107	0.230
-670.091	-200.000	-0.056	-0.382
-669.076	128.216	-0.230	0.294
-668.062	-151.147	-0.099	-0.007
-667.047	151.558	0.109	-0.149
-666.032	69.798	-0.195	0.201
-665.018	-139.647	0.296	0.032
-664.003	508.688	-0.111	-0.259
-662.989	285.796	0.145	-0.262
-661.974	94.653	-0.144	-0.164
-660.959	800.000	-0.089	0.383
-659.945	27.265	-0.150	-0.127
-658.930	-67.331	-0.335	-0.132
-657.916	321.948	0.128	-0.243
-656.901	797.018	0.101	-0.279
-655.886	-77.822	-0.196	-0.068
-654.872	-60.495	-0.260	0.111
-653.857	-96.537	0.142	-0.037
-652.843	-62.830	-0.152	0.063
-651.828	-36.373	-0.107	0.058
-650.814	139.800	-0.155	-0.204
-649.799	-122.530	0.098	-0.016
-648.784	157.019	-0.042	0.058
-647.770	127.313	-0.148	-0.188
-646.755	340.945	-0.118	-0.230
-645.741	346.709	-0.152	0.300
-644.726	-200.000	0.025	0.122
-643.711	800.000	-0.087	0.261
-642.697	-93.384	-0.313	-0.087
-641.682	36.344	0.079	0.069
-640.668	70.248	-0.130	0.135
-639.653	380.698	-0.081	-0.166
-638.638	-156.459	0.096	-0.006
-637.624	-52.686	-0.242	-0.112
-636.609	120.220	-0.052	-0.064
-635.595	284.529	-0.165	-0.297
-634.580	-20.971	-0.065	0.040
-633.565	-200.000	-0.014	-0.235
-632.551	-37.941	-0.340	0.181
-631.536	-200.000	0.002	0.037
-630.522	340.585	0.150	-0.293
-629.507	800.000	-0.033	-0.096
-628.492	133.887	0.213	0.275
-627.478	-50.417	0.097	-0.046
-626.463	-27.080	0.144	0.084
-625.449	227.955	-0.122	-0.199
-624.434	-200.000	0.018	-0.195
-623.419	54.448	-0.281	-0.271
-622.405	83.564	-0.057	0.062
-621.390	-91.206	-0.119	0.034
-620.376	449.843	0.159	-0.350
-619.361	4.777	-0.186	-0.136
-618.346	-28.166	-0.443	-0.256
-617.332	-138.555	0.404	-0.044
-616.317	116.348	-0.272	0.333
-615.303	-78.457	0.333	-0.114
-614.288	-200.000	0.058	-0.306
-613.273	-101.861	-0.175	0.042
-612.259	528.617	0.093	-0.220
-611.244	-154.258	-0.236	-0.016
-610.230	584.969	-0.108	-0.266
-609.215	-200.000	-0.034	-0.229
-608.201	-200.000	0.017	0.280
-607.186	800.000	-0.087	-0.305
-606.171	-49.755	0.247	-0.117
-605.157	467.064	0.073	0.164
-604.142	48.401	0.045	0.042
-603.128	82.721	-0.066	0.072
-602.113	29.846	-0.150	-0.128
-601.098	-6.828	0.138	0.094
-600.084	800.000	0.094	0.342
-599.069	-63.258	-0.335	-0.138
-598.055	13.653	0.166	-0.129
-597.040	136.706	-0.058	0.076
-596.025	-26.815	0.086	0.050
-595.011	-200.000	-0.031	-0.170
-593.996	203.985	-0.061	-0.095
-592.982	102.694	-0.126	0.147
-591.967	-200.000	-0.006	-0.339
-590.952	-38.931	0.230	0.121
-589.938	-88.293	-0.219	0.065
-588.923	577.316	0.060	-0.147
-587.909	3.053	0.181	0.131
-586.894	32.243	0.040	-0.035
-585.879	-29.040	-0.171	-0.098
-584.865	43.303	0.293	-0.268
-583.850	-145.118	0.107	0.010
-582.836	-40.492	-0.012	0.006
-581.821	254.636	0.170	0.291
-580.806	151.699	0.169	-0.231
-579.792	-91.527	-0.442	0.126
-578.777	-128.688	0.140	-0.020
-577.763	-200.000	-0.011	0.052
-576.748	227.639	0.075	-0.122
-575.733	800.000	0.119	-0.373
-574.719	29.164	-0.208	-0.176
-573.704	-94.829	-0.192	0.052
-572.690	284.863	-0.146	0.262
-571.675	-200.000	-0.009	-0.185
-570.661	-2.109	-0.080	-0.056
-569.646	36.794	0.198	0.175
-568.631	-200.000	-0.002	-0.211
-567.617	424.231	0.070	-0.151
-566.602	-112.897	0.104	-0.021
-565.588	-200.000	0.011	0.248
-564.573	9.050	0.378	0.285
-563.558	229.354	0.095	-0.154
-562.544	136.475	-0.109	0.142
-561.529	46.458	-0.117	-0.108
-560.515	31.111	-0.104	-0.089
-559.500	-131.585	-0.147	-0.019
-558.485	454.635	0.105	-0.232
-557.471	756.446	0.052	-0.141
-556.456	658.252	-0.041	-0.104
-555.442	-160.538	-0.102	0.005
-554.427	778.180	-0.031	0.085
-553.412	-108.541	-0.120	-0.026
-552.398	126.414	-0.148	0.187
-551.383	-200.000	0.028	-0.245
-550.369	-18.220	0.375	-0.234
-549.354	439.425	-0.038	0.084
-548.339	-79.124	-0.283	0.096
-547.325	-114.497	0.190	0.036
-546.310	-94.459	-0.275	-0.075
-545.296	176.431	0.114	0.165
-544.281	-24.133	0.185	-0.110
-543.266	-200.000	-0.029	-0.330
-542.252	-200.000	-0.061	-0.335
-541.237	-155.931	-0.348	0.022
-540.223	-200.000	-0.009	-0.072
-539.208	-200.000	-0.079	-0.437
-538.193	-200.000	0.015	-0.074
-537.179	91.174	0.261	0.292
-536.164	-200.000	-0.016	0.158
-535.150	-200.000	-0.051	0.304
-534.135	-156.367	0.117	-0.007
-533.121	-154.554	-0.316	0.021
-532.106	24.068	0.230	-0.189
-531.091	127.160	-0.229	0.289
-530.077	-147.929	0.142	0.012
-529.062	-200.000	-0.050	0.218
-528.048	-200.000	-0.057	-0.371
-527.033	-200.000	-0.016	0.165
-526.018	800.000	-0.049	0.168
-525.004	-68.626	0.032	-0.012
-523.989	177.286	-0.201	-0.291
-522.975	-200.000	0.011	-0.224
-521.960	-134.879	0.098	0.012
-520.945	610.288	0.060	-0.150
-519.931	100.192	0.151	0.175
-518.916	800.000	-0.171	-0.488
-517.902	-93.570	-0.265	0.073
-516.887	23.650	0.193	0.158
-515.872	-200.000	-0.044	0.387
-514.858	198.471	0.070	0.107
-513.843	778.086	0.059	-0.162
-512.829	233.512	-0.080	0.131
-511.814	-57.077	-0.251	-0.110
-510.799	238.344	-0.145	0.240
-509.785	-200.000	-0.013	-0.129
-508.770	64.911	-0.175	-0.175
-507.756	-200.000	-0.033	-0.187
-506.741	-194.536	-0.174	-0.001
-505.726	-7.724	0.035	-0.024
-504.712	-45.876	0.085	-0.042
-503.697	169.507	-0.107	0.152
-502.683	-28.013	-0.035	0.020
-501.668	800.000	0.086	0.290
-500.653	175.849	0.097	0.140
-499.639	-200.000	0.047	0.495
-498.624	109.856	0.182	0.217
-497.610	-103.677	-0.240	0.056
-496.595	-10.438	-0.218	-0.144
-495.581	198.841	-0.193	0.294
-494.566	-29.636	-0.111	0.063
-493.551	325.525	-0.083	0.157
-492.537	-37.749	-0.196	-0.104
-491.522	-200.000	-0.060	-0.383
-490.508	-54.087	0.360	0.163
-489.493	-26.757	0.069	-0.040
-488.478	-124.943	0.115	-0.018
-487.464	-66.838	-0.060	0.024
-486.449	184.945	0.172	-0.254
-485.435	-33.984	-0.198	0.109
-484.420	468.433	0.090	0.201
-483.405	504.686	-0.042	-0.097
-482.391	245.931	0.090	-0.151
-481.376	44.322	-0.078	0.071
-480.362	800.000	0.037	-0.142
-479.347	-139.592	-0.197	0.021
-478.332	-200.000	0.015	-0.221
-477.318	636.853	-0.089	0.225
-476.303	36.312	0.078	-0.069
-475.289	-74.905	0.168	-0.060
-474.274	-84.789	0.178	-0.056
-473.259	-20.880	0.072	-0.044
-472.245	34.935	-0.002	-0.002
-471.230	194.109	0.397	0.599
-470.216	28.591	0.066	-0.056
-469.201	14.173	0.246	-0.190
-468.186	-200.000	-0.031	-0.385
-467.172	800.000	0.105	0.348
-466.157	-107.797	-0.458	0.099
-465.143	-103.428	-0.164	0.038
-464.128	-200.000	-0.048	0.248
-463.113	-2.832	0.161	-0.112
-462.099	-200.000	0.019	-0.430
-461.084	-200.000	-0.020	0.092
-460.070	-95.372	0.099	0.026
-459.055	211.462	-0.155	-0.243
-458.040	800.000	-0.134	-0.426
-457.026	86.954	-0.190	-0.209
-456.011	-200.000	-0.043	-0.218
-454.997	-99.900	-0.124	-0.031
-453.982	-72.332	-0.028	0.010
-452.968	396.883	0.184	0.383
-451.953	444.031	-0.129	0.281
-450.938	-37.960	-0.201	-0.106
-449.924	683.164	-0.074	-0.193
-448.909	-58.153	-0.226	0.098
-447.895	-200.000	0.020	-0.182
-446.880	-45.511	-0.188	0.092
-445.865	-20.872	-0.114	0.070
-444.851	-200.000	0.029	-0.480
-443.836	41.437	-0.186	0.168
-442.822	-200.000	-0.031	0.454
-441.807	-94.705	-0.167	0.045
-440.792	-200.000	0.005	0.303
-439.778	-31.599	0.271	0.151
-438.763	800.000	-0.035	-0.108
-437.749	-67.263	-0.177	0.069
-436.734	-200.000	0.000	-0.315
-435.719	800.000	0.042	0.160
-434.705	-200.000	-0.032	-0.291
-433.690	71.215	0.090	-0.092
-432.676	78.991	0.257	-0.274
-431.661	37.164	0.122	0.107
-430.646	-200.000	-0.017	-0.152
-429.632	-84.642	-0.283	0.089
-428.617	-68.345	0.163	0.063
-427.603	164.092	-0.156	0.218
-426.588	-28.449	0.272	0.156
-425.573	-151.338	0.136	0.010
-424.559	203.935	-0.060	0.092
-423.544	800.000	-0.090	-0.290
-422.530	-200.000	0.013	-0.261
-421.515	69.640	0.148	0.151
-420.500	-138.522	-0.021	-0.002
-419.486	122.487	0.142	-0.176
-418.471	-99.998	0.268	0.066
-417.457	800.000	-0.043	-0.161
-416.442	-200.000	-0.055	0.399
-415.428	-78.876	0.205	-0.069
-414.413	519.426	0.086	-0.199
-413.398	-109.778	0.436	-0.091
-412.384	167.674	0.125	0.176
-411.369	69.694	-0.142	-0.145
-410.355	800.000	0.033	-0.125
-409.340	-79.597	0.055	-0.018
-408.325	-200.000	-0.073	-0.481
-407.311	347.535	-0.165	-0.323
-406.296	-200.000	-0.020	-0.185
-405.282	800.000	0.071	0.275
-404.267	-200.000	0.055	0.281
-403.252	694.320	0.074	0.192
-402.238	-78.827	-0.039	0.013
-401.223	-146.012	0.312	-0.027
-400.209	800.000	-0.028	0.105
-399.194	84.210	0.124	-0.134
-398.179	68.330	-0.142	-0.144
-397.165	800.000	0.030	0.096
-396.150	51.395	0.345	-0.325
-395.136	41.574	0.264	-0.237
-394.121	-200.000	0.001	0.079
-393.106	800.000	0.132	0.462
-392.092	800.000	0.062	0.191
-391.077	-100.837	-0.248	0.060
-390.063	91.223	-0.207	-0.230
-389.048	-200.000	-0.026	-0.435
-388.033	393.305	-0.065	0.134
-387.019	70.173	0.098	0.100
-386.004	-107.566	0.234	0.051
-384.990	-42.992	-0.201	0.101
-383.975	-38.217	-0.097	0.051
-382.960	-61.138	0.223	-0.093
-381.946	-61.614	0.195	-0.081
-380.931	-200.000	-0.030	-0.204
-379.917	345.798	0.092	-0.178
-378.902	383.412	-0.041	-0.083
-377.888	51.987	-0.186	-0.176
-376.873	-67.217	0.280	0.109
-375.858	-200.000	-0.013	-0.149
-374.844	-73.842	-0.101	0.036
-373.829	-145.202	-0.270	0.024
-372.815	0.872	-0.204	0.145
-371.800	338.840	0.141	-0.273
-370.785	-134.987	-0.201	-0.024
-369.771	-105.953	0.430	0.096
-368.756	800.000	0.030	0.113
-367.742	134.602	0.118	-0.152
-366.727	800.000	0.072	0.302
-365.712	-32.803	0.383	0.211
-364.698	-115.895	-0.193	0.036
-363.683	-2.185	-0.033	-0.023
-362.669	-143.044	-0.365	0.035
-361.654	-108.019	-0.232	-0.050
-360.639	620.353	-0.040	0.099
-359.625	-58.528	-0.116	-0.050
-358.610	-43.752	-0.306	-0.153
-357.596	99.911	0.084	0.097
-356.581	-200.000	-0.064	-0.457
-355.566	-40.891	0.283	0.145
-354.552	-53.371	0.115	0.052
-353.537	20.330	-0.040	-0.032
-352.523	-200.000	0.017	0.351
-351.508	-62.313	-0.068	-0.028
-350.493	-200.000	0.021	0.200
-349.479	-200.000	0.046	0.227
-348.464	24.930	-0.213	0.175
-347.450	34.963	0.184	0.160
-346.435	800.000	-0.042	-0.137
-345.420	800.000	-0.084	0.332
-344.406	-200.000	0.019	0.116
-343.391	466.734	-0.189	-0.420
-342.377	12.696	0.155	-0.118
-341.362	-14.836	-0.331	0.210
-340.348	18.653	-0.194	0.154
-339.333	-200.000	0.014	-0.117
-338.318	-14.555	0.185	0.118
-337.304	112.445	0.193	0.231
-336.289	-200.000	-0.044	0.370
-335.275	-80.420	-0.155	-0.051
-334.260	5.099	0.321	0.234
-333.245	800.000	-0.059	-0.206
-332.231	-200.000	-0.083	-0.388
-331.216	-200.000	-0.022	-0.219
-330.202	-122.608	-0.481	0.077
-329.187	-156.430	0.335	0.021
-328.172	192.071	-0.050	-0.074
-327.158	-117.683	0.229	-0.041
-326.143	-15.244	0.219	-0.138
-325.129	-200.000	0.051	0.288
-324.114	141.487	0.049	-0.064
-323.099	202.873	0.136	0.208
-322.085	-112.400	-0.305	-0.060
-321.070	516.813	-0.051	-0.117
-320.056	702.370	-0.026	-0.068
-319.041	800.000	-0.088	-0.338
-318.026	157.912	-0.154	0.211
-317.012	61.523	0.164	-0.161
-315.997	-200.000	-0.035	0.187
-314.983	403.360	-0.075	-0.155
-313.968	800.000	-0.124	-0.345
-312.953	-200.000	-0.208	0.001
-311.939	-150.658	-0.537	0.040
-310.924	-14.426	0.251	0.160
-309.910	-133.026	-0.163	0.020
-308.895	-181.570	-0.181	-0.003
-307.880	2.031	-0.042	0.030
-306.866	800.000	-0.063	-0.239
-305.851	-37.910	-0.332	-0.174
-304.837	326.985	-0.083	0.157
-303.822	-99.571	0.377	-0.093
-302.807	-200.000	0.002	-0.194
-301.793	62.948	-0.060	-0.060
-300.778	-7.019	-0.215	0.144
-299.764	43.971	-0.076	-0.069
-298.749	-72.106	-0.162	0.060
-297.735	-46.429	-0.189	-0.092
-296.720	314.721	0.173	0.321
-295.705	601.200	0.095	0.232
-294.691	-110.416	0.304	0.062
-293.676	187.585	-0.079	-0.116
-292.662	-178.902	0.176	0.004
-291.647	-166.288	0.138	0.006
-290.632	-41.688	-0.263	0.133
-289.618	283.965	0.125	0.221
-288.603	-104.830	0.406	-0.092
-287.589	-200.000	-0.011	-0.193
-286.574	312.020	0.050	0.092
-285.559	-200.000	0.046	-0.270
-284.545	342.053	0.108	-0.209
-283.530	-40.501	-0.223	0.114
-282.516	800.000	-0.053	0.157
-281.501	56.948	0.103	0.099
-280.486	800.000	-0.032	-0.128
-279.472	-59.276	0.143	0.061
-278.457	-17.298	0.050	0.031
-277.443	-63.881	-0.150	0.061
-276.428	-200.000	-0.100	0.532
-275.413	-109.381	0.048	0.010
-274.399	94.418	0.092	0.103
-273.384	288.354	-0.158	-0.282
-272.370	-95.087	-0.024	-0.006
-271.355	-124.306	-0.145	0.022
-270.340	408.939	-0.171	0.358
-269.326	437.564	0.145	0.312
-268.311	0.803	-0.115	0.081
-267.297	117.072	-0.101	0.123
-266.282	128.075	-0.083	-0.105
-265.267	149.133	-0.145	0.194
-264.253	-60.411	-0.208	-0.087
-263.238	-131.592	0.293	-0.038
-262.224	316.938	0.058	-0.109
-261.209	41.516	-0.267	0.239
-260.195	126.598	-0.136	0.169
-259.180	-200.000	-0.024	0.281
-258.165	-19.669	0.338	0.206
-257.151	-135.417	-0.179	0.021
-256.136	-92.356	-0.342	-0.095
-255.122	-110.687	0.128	-0.026
-254.107	278.353	0.102	-0.179
-253.092	-181.911	0.187	0.004
-252.078	57.616	-0.056	-0.054
-251.063	-85.488	0.084	0.026
-250.049	172.757	-0.287	0.407
-249.034	109.639	0.030	0.035
-248.019	129.482	0.082	0.103
-247.005	118.800	-0.150	0.182
-245.990	46.325	0.273	-0.249
-244.976	-140.741	0.274	-0.028
-243.961	427.163	-0.117	0.248
-242.946	-12.160	0.104	-0.067
-241.932	-200.000	0.053	0.302
-240.917	26.471	-0.105	0.086
-239.903	800.000	-0.099	0.320
-238.888	308.083	0.142	-0.260
-237.873	545.354	-0.049	-0.116
-236.859	30.190	0.269	0.226
-235.844	-200.000	-0.004	-0.185
-234.830	38.220	0.066	-0.058
-233.815	-22.872	0.186	-0.111
-232.800	190.382	0.082	-0.121
-231.786	203.883	-0.198	0.302
-230.771	-200.000	0.069	0.306
-229.757	800.000	-0.118	-0.471
-228.742	-64.218	0.162	-0.065
-227.727	-200.000	-0.008	0.193
-226.713	-200.000	0.006	0.071
-225.698	-32.560	-0.316	0.173
-224.684	-35.694	0.160	0.086
-223.669	227.362	-0.080	-0.127
-222.655	4.010	0.180	0.130
-221.640	-192.567	-0.234	-0.002
-220.625	83.869	-0.079	0.085
-219.611	298.848	0.213	0.386
-218.596	-200.000	0.003	0.092
-217.582	800.000	-0.048	-0.189
-216.567	556.814	0.131	-0.311
-215.552	-56.743	-0.259	-0.113
-214.538	800.000	0.110	0.427
-213.523	294.234	0.199	-0.357
-212.509	139.346	0.095	-0.123
-211.494	-106.738	0.154	0.034
-210.479	-63.701	0.117	-0.047
-209.465	800.000	0.018	-0.060
-208.450	800.000	0.093	0.316
-207.436	171.373	0.141	-0.199
-206.421	-0.459	-0.341	-0.238
-205.406	-8.886	-0.078	0.052
-204.392	-42.437	-0.148	-0.074
-203.377	-97.206	0.073	0.019
-202.363	-82.441	0.432	0.138
-201.348	-166.087	0.126	0.005
-200.333	-200.000	-0.003	0.207
-199.319	329.237	-0.071	0.134
-198.304	-200.000	-0.035	-0.175
-197.290	-200.000	-0.009	0.110
-196.275	-147.719	0.257	0.021
-195.260	5.846	-0.050	-0.036
-194.246	-148.782	0.086	-0.007
-193.231	-200.000	-0.032	0.269
-192.217	-158.942	0.068	0.004
-191.202	-200.000	0.014	0.352
-190.187	-200.000	0.017	0.085
-189.173	-36.470	-0.130	-0.069
-188.158	-47.259	-0.383	0.184
-187.144	-73.094	0.071	-0.026
-186.129	228.194	-0.107	0.172
-185.114	-119.048	0.089	0.015
-184.100	-154.149	0.143	-0.010
-183.085	-200.000	0.002	0.153
-182.071	-81.465	0.094	-0.030
-181.056	34.291	0.157	0.134
-180.042	125.504	-0.024	-0.029
-179.027	107.752	0.147	0.172
-178.012	-169.798	0.097	-0.003
-176.998	-68.034	0.243	0.093
-175.983	-78.698	0.413	-0.139
-174.969	216.001	-0.139	-0.217
-173.954	-200.000	-0.039	-0.181
-172.939	-200.000	0.002	-0.208
-171.925	-28.108	0.174	0.099
-170.910	800.000	0.016	0.050
-169.896	177.056	0.152	0.218
-168.881	-200.000	0.015	0.122
-167.866	284.037	-0.072	-0.128
-166.852	90.847	-0.128	0.141
-165.837	-119.537	0.366	0.062
-164.823	796.758	-0.026	-0.070
-163.808	-31.191	0.189	-0.105
-162.793	-104.015	0.299	0.068
-161.779	-109.646	0.134	0.028
-160.764	-39.800	-0.223	0.114
-159.750	142.503	0.068	0.089
-158.735	-162.296	-0.053	-0.003
-157.720	182.470	0.115	-0.167
-156.706	102.458	-0.111	0.128
-155.691	283.906	0.050	0.088
-154.677	-161.816	0.414	-0.021
-153.662	-200.000	-0.029	-0.193
-152.647	-111.116	0.235	0.047
-151.633	-155.380	0.195	0.012
-150.618	15.155	-0.089	-0.069
-149.604	-121.030	0.119	0.020
-148.589	-110.853	0.319	0.064
-147.574	-136.643	0.456	-0.052
-146.560	-6.490	0.106	-0.071
-145.545	-200.000	0.023	0.103
-144.531	112.969	-0.235	-0.280
-143.516	800.000	0.065	0.207
-142.502	-38.990	0.267	0.138
-141.487	133.657	-0.107	-0.136
-140.472	-200.000	0.037	-0.305
-139.458	-200.000	0.030	0.143
-138.443	198.613	0.132	-0.198
-137.429	761.088	-0.103	0.274
-136.414	9.907	0.233	0.174
-135.399	36.904	-0.063	-0.055
-134.385	103.373	-0.176	-0.202
-133.370	0.353	-0.293	0.205
-132.356	150.246	-0.222	0.296
-131.341	-102.897	0.038	-0.009
-130.326	648.891	-0.119	-0.299
-129.312	-159.591	-0.220	0.012
-128.297	-175.011	0.280	0.008
-127.283	-32.656	0.243	-0.133
-126.268	-74.826	0.240	-0.084
-125.253	-61.346	0.129	0.053
-124.239	6.575	0.228	-0.166
-123.224	-200.000	-0.027	0.132
-122.210	540.354	0.112	-0.262
