DTS Sentinel unit serial number:	SN413079Multiplexer serial number:	ORYXHardware model number:	OX4-SRSoftware version number:	ORYX F/W v4.00 Oryx Data Collector v3.7.2.0data status	okinstallation	princeton_trtdifferential loss correction	single-endedforward channel	channel 2reverse channel	N/Adate	2019/09/18time	19:19:35forward acquisition time	60.00reverse acquisition time	0.00gamma	496.2192k internal	0.2325k external	0.2325temperature offset calibration	1.0038default loss term (dB/km)	0.3790temperature slope calibration	1.0000multiplexer offset coefficient	1.0000multiplexer slope coefficient	1.0000fibre end	0.00T internal ref (°C)	33.97T ext. ref 1 (°C)	1.14T ext. ref 2 (°C)	23.31length (m)	temperature (°C)	Stokes	anti-Stokes-747.200	155.710	0.033	0.045
-746.185	-200.000	0.072	0.357
-745.171	-200.000	-0.026	-0.154
-744.156	800.000	-0.134	0.388
-743.142	-66.583	-0.277	0.111
-742.127	92.337	-0.276	0.314
-741.112	-173.255	0.149	0.005
-740.098	91.328	-0.040	0.046
-739.083	-158.046	-0.177	0.011
-738.069	-96.202	-0.202	-0.054
-737.054	-102.797	0.213	0.051
-736.039	-200.000	0.002	-0.205
-735.025	-200.000	-0.012	0.140
-734.010	-84.884	-0.234	0.074
-732.996	-10.291	-0.536	-0.359
-731.981	470.599	-0.196	0.444
-730.966	-47.892	-0.135	0.066
-729.952	-200.000	-0.044	0.253
-728.937	-86.800	0.190	0.059
-727.923	-200.000	0.011	0.117
-726.908	1.591	-0.021	0.015
-725.894	-113.999	-0.247	-0.048
-724.879	192.437	-0.014	-0.022
-723.864	-12.840	0.105	0.069
-722.850	-106.923	-0.329	-0.074
-721.835	-89.146	0.252	-0.075
-720.821	-72.903	-0.286	0.106
-719.806	800.000	0.094	-0.339
-718.791	410.396	-0.069	0.147
-717.777	-200.000	-0.002	0.209
-716.762	-32.608	-0.258	-0.145
-715.748	-90.751	0.065	0.019
-714.733	-54.955	-0.364	-0.165
-713.718	-200.000	0.025	0.289
-712.704	100.355	-0.258	0.302
-711.689	-88.301	0.211	0.064
-710.675	69.159	-0.024	0.025
-709.660	383.392	0.051	0.106
-708.645	-200.000	0.007	0.052
-707.631	-65.949	-0.235	-0.095
-706.616	-200.000	0.003	-0.221
-705.602	-72.732	0.099	0.037
-704.587	-200.000	-0.052	0.333
-703.572	223.791	0.081	0.132
-702.558	281.769	-0.122	-0.220
-701.543	145.147	-0.120	0.162
-700.529	-124.903	-0.166	-0.026
-699.514	290.669	0.075	-0.137
-698.499	-200.000	0.032	-0.246
-697.485	-30.029	-0.254	0.145
-696.470	213.928	-0.120	-0.191
-695.456	420.210	-0.187	0.403
-694.441	101.729	-0.055	-0.065
-693.426	800.000	-0.044	0.148
-692.412	9.185	-0.343	0.261
-691.397	55.979	-0.177	-0.173
-690.383	136.713	0.170	-0.223
-689.368	-159.266	0.313	0.018
-688.354	-200.000	0.008	-0.143
-687.339	128.608	-0.093	-0.120
-686.324	-119.902	0.456	0.079
-685.310	725.018	0.099	-0.266
-684.295	2.638	-0.332	-0.243
-683.281	800.000	-0.123	-0.539
-682.266	14.514	-0.063	0.050
-681.251	-162.162	-0.270	-0.014
-680.237	363.111	-0.072	0.146
-679.222	27.223	0.065	-0.055
-678.208	-200.000	-0.031	0.264
-677.193	-200.000	0.042	0.248
-676.178	176.662	0.094	0.137
-675.164	720.023	-0.030	0.079
-674.149	800.000	-0.061	-0.188
-673.135	-167.817	-0.038	0.002
-672.120	-200.000	-0.014	-0.162
-671.105	293.063	-0.107	-0.196
-670.091	-200.000	0.036	0.177
-669.076	-94.776	0.086	0.023
-668.062	483.783	-0.178	0.408
-667.047	-200.000	0.011	0.390
-666.032	-96.504	-0.321	0.085
-665.018	-60.122	-0.045	-0.019
-664.003	-153.401	-0.136	0.009
-662.989	-175.406	-0.220	-0.006
-661.974	-141.266	0.199	-0.020
-660.959	-82.432	0.043	-0.014
-659.945	-155.068	0.021	-0.001
-658.930	800.000	-0.068	-0.205
-657.916	-9.526	-0.134	-0.090
-656.901	42.506	-0.102	-0.093
-655.886	-55.738	0.050	-0.022
-654.872	-107.372	-0.254	0.056
-653.857	39.918	0.023	0.021
-652.843	800.000	0.057	0.201
-651.828	143.212	0.136	0.182
-650.814	-200.000	-0.017	0.197
-649.799	-200.000	0.009	-0.092
-648.784	-104.603	0.119	0.028
-647.770	800.000	0.038	-0.106
-646.755	23.248	-0.267	-0.221
-645.741	-125.060	0.184	-0.028
-644.726	67.409	0.091	-0.093
-643.711	-16.777	0.214	0.136
-642.697	33.172	-0.012	-0.010
-641.682	25.548	-0.090	0.075
-640.668	-200.000	0.015	0.145
-639.653	77.160	-0.205	-0.219
-638.638	-188.872	-0.270	0.003
-637.624	58.810	0.230	0.227
-636.609	-25.686	0.180	0.107
-635.595	51.260	0.203	0.193
-634.580	-200.000	0.072	0.536
-633.565	800.000	0.056	0.215
-632.551	28.332	-0.101	-0.085
-631.536	229.207	-0.067	-0.109
-630.522	-200.000	0.018	-0.370
-629.507	283.560	-0.093	-0.168
-628.492	-26.895	0.157	0.092
-627.478	-200.000	0.029	0.345
-626.463	303.018	0.206	-0.384
-625.449	-124.526	0.085	-0.013
-624.434	-200.000	-0.025	-0.284
-623.419	-200.000	-0.013	-0.108
-622.405	800.000	-0.043	0.174
-621.390	335.853	-0.123	-0.240
-620.376	32.065	-0.057	-0.049
-619.361	-200.000	-0.077	-0.358
-618.346	61.645	0.054	-0.054
-617.332	7.854	0.055	-0.041
-616.317	-82.968	0.090	0.029
-615.303	194.719	0.243	-0.371
-614.288	210.509	0.134	-0.211
-613.273	-43.119	0.308	-0.157
-612.259	66.674	-0.140	0.143
-611.244	-31.146	0.094	0.053
-610.230	-200.000	0.005	0.350
-609.215	763.752	-0.027	-0.074
-608.201	-101.758	-0.082	0.020
-607.186	-193.436	-0.225	-0.002
-606.171	800.000	0.100	0.310
-605.157	-7.673	-0.268	0.182
-604.142	36.460	0.309	0.274
-603.128	-200.000	-0.010	0.133
-602.113	115.623	0.170	0.208
-601.098	233.246	-0.158	-0.260
-600.084	440.385	-0.102	-0.223
-599.069	-200.000	-0.028	0.180
-598.055	-79.993	0.387	-0.130
-597.040	800.000	0.067	0.193
-596.025	-126.997	-0.300	0.044
-595.011	-99.172	0.123	0.031
-593.996	510.444	-0.217	-0.506
-592.982	-200.000	0.041	0.309
-591.967	-69.239	0.255	0.098
-590.952	462.740	-0.120	0.268
-589.938	-180.267	-0.228	0.005
-588.923	5.820	-0.102	0.076
-587.909	-103.989	-0.276	0.065
-586.894	491.868	-0.145	-0.334
-585.879	237.467	0.210	0.348
-584.865	26.842	0.139	-0.117
-583.850	575.357	0.123	-0.301
-582.836	146.541	0.173	-0.232
-581.821	38.637	0.133	-0.119
-580.806	-13.910	-0.408	-0.265
-579.792	800.000	0.124	-0.351
-578.777	800.000	0.023	0.068
-577.763	-40.023	-0.304	0.159
-576.748	259.024	-0.152	0.263
-575.733	-45.882	-0.138	0.068
-574.719	130.819	0.177	-0.228
-573.704	37.456	0.123	0.109
-572.690	5.539	0.128	0.095
-571.675	-200.000	0.012	0.221
-570.661	64.540	0.132	-0.133
-569.646	-74.272	-0.143	0.052
-568.631	-16.695	-0.068	-0.043
-567.617	800.000	-0.061	0.266
-566.602	-48.906	-0.168	0.080
-565.588	-63.686	-0.250	-0.103
-564.573	800.000	-0.121	0.414
-563.558	-124.448	-0.279	0.044
-562.544	69.415	-0.023	0.023
-561.529	-47.319	0.155	0.075
-560.515	-99.800	-0.110	0.028
-559.500	-200.000	-0.023	-0.231
-558.485	61.598	-0.298	0.297
-557.471	-88.852	0.135	-0.040
-556.456	-200.000	-0.001	0.169
-555.442	26.942	-0.218	-0.183
-554.427	165.300	0.140	0.199
-553.412	33.537	-0.221	-0.193
-552.398	800.000	-0.039	-0.158
-551.383	-167.306	0.201	-0.008
-550.369	-1.553	0.069	-0.048
-549.354	368.132	0.076	0.154
-548.339	-200.000	-0.006	-0.091
-547.325	800.000	0.110	0.414
-546.310	-8.338	0.110	-0.074
-545.296	465.396	-0.128	0.286
-544.281	198.526	0.064	0.098
-543.266	125.061	0.196	-0.247
-542.252	-200.000	-0.050	0.314
-541.237	-200.000	0.001	-0.132
-540.223	14.016	0.143	-0.112
-539.208	621.436	0.030	-0.076
-538.193	300.859	0.167	-0.308
-537.179	-147.492	0.060	0.005
-536.164	-9.841	0.152	0.101
-535.150	-124.784	-0.092	0.014
-534.135	11.506	0.038	-0.029
-533.121	-188.502	0.223	-0.003
-532.106	224.835	0.262	-0.424
-531.091	800.000	-0.032	-0.093
-530.077	98.623	-0.072	0.083
-529.062	51.506	0.243	-0.231
-528.048	391.337	-0.237	-0.492
-527.033	48.826	0.328	-0.308
-526.018	292.918	-0.013	-0.023
-525.004	-194.212	-0.186	0.002
-523.989	200.455	0.050	-0.077
-522.975	800.000	-0.107	-0.380
-521.960	98.535	0.105	-0.121
-520.945	63.397	0.168	-0.168
-519.931	46.394	0.164	0.152
-518.916	-63.087	0.200	-0.083
-517.902	284.993	-0.029	-0.052
-516.887	-96.953	-0.210	-0.055
-515.872	223.069	-0.067	-0.108
-514.858	-200.000	-0.040	-0.259
-513.843	-102.764	0.287	0.068
-512.829	67.207	0.198	0.202
-511.814	41.645	0.020	-0.018
-510.799	27.067	-0.018	0.015
-509.785	273.535	-0.044	0.078
-508.770	-74.573	0.383	0.138
-507.756	26.651	-0.299	0.250
-506.741	-77.250	0.114	0.040
-505.726	487.843	-0.165	-0.377
-504.712	-82.982	0.244	0.079
-503.697	-200.000	-0.026	0.168
-502.683	505.703	-0.075	-0.175
-501.668	90.721	-0.084	0.094
-500.653	78.692	0.149	0.160
-499.639	-142.693	0.172	0.017
-498.624	-200.000	-0.028	-0.199
-497.610	-46.262	0.058	-0.029
-496.595	-8.143	0.216	0.146
-495.581	-163.193	0.356	-0.017
-494.566	800.000	0.011	0.044
-493.551	-29.747	-0.116	0.066
-492.537	-200.000	-0.009	-0.157
-491.522	-177.693	0.067	0.002
-490.508	-140.939	-0.233	0.024
-489.493	800.000	-0.046	-0.179
-488.478	283.525	-0.125	0.225
-487.464	-74.108	0.324	-0.117
-486.449	800.000	0.104	0.303
-485.435	57.560	0.151	0.147
-484.420	-68.201	0.241	-0.094
-483.405	-200.000	-0.022	-0.312
-482.391	-107.322	-0.211	0.046
-481.376	-147.855	-0.182	-0.015
-480.362	41.680	-0.344	-0.311
-479.347	-115.810	-0.196	-0.037
-478.332	-105.057	-0.109	0.025
-477.318	800.000	-0.046	0.156
-476.303	142.416	-0.234	-0.310
-475.289	-169.082	-0.351	0.013
-474.274	251.936	-0.102	0.173
-473.259	253.646	-0.088	0.150
-472.245	14.223	0.017	0.013
-471.230	-200.000	-0.009	0.218
-470.216	188.258	0.179	-0.267
-469.201	-159.833	-0.162	0.009
-468.186	3.126	-0.094	0.068
-467.172	-92.968	0.283	0.079
-466.157	-200.000	0.056	-0.250
-465.143	800.000	0.098	-0.358
-464.128	-200.000	0.031	-0.148
-463.113	-40.803	0.322	0.166
-462.099	-200.000	-0.022	-0.106
-461.084	800.000	-0.026	0.114
-460.070	-200.000	-0.002	0.239
-459.055	-150.745	0.166	0.013
-458.040	126.510	-0.236	0.299
-457.026	-0.644	-0.125	0.088
-456.011	-169.864	-0.302	-0.011
-454.997	-152.245	0.187	0.013
-453.982	800.000	-0.043	-0.147
-452.968	561.049	-0.127	0.307
-451.953	-200.000	0.005	0.424
-450.938	425.666	0.089	0.191
-449.924	79.177	-0.339	0.362
-448.909	-103.149	0.285	-0.067
-447.895	-200.000	0.021	-0.424
-446.880	42.719	0.175	-0.159
-445.865	-78.425	-0.077	-0.026
-444.851	407.691	0.018	0.037
-443.836	0.405	0.137	-0.098
-442.822	8.427	0.267	-0.201
-441.807	73.377	-0.064	-0.066
-440.792	-83.874	0.171	-0.054
-439.778	-3.936	-0.083	-0.058
-438.763	-165.542	0.141	-0.006
-437.749	781.478	0.148	0.404
-436.734	335.393	-0.082	-0.158
-435.719	-79.353	-0.114	0.038
-434.705	73.475	0.119	-0.125
-433.690	-18.570	0.173	-0.107
-432.676	-57.931	-0.082	0.036
-431.661	800.000	0.104	-0.307
-430.646	-30.943	0.143	0.081
-429.632	3.230	-0.033	-0.024
-428.617	530.061	0.085	0.201
-427.603	69.080	0.323	0.331
-426.588	-161.800	0.140	0.007
-425.573	281.181	0.203	-0.362
-424.559	48.045	-0.022	0.021
-423.544	-200.000	0.021	0.093
-422.530	199.554	-0.027	-0.041
-421.515	-170.546	-0.423	-0.015
-420.500	168.766	-0.148	0.210
-419.486	-200.000	-0.022	0.109
-418.471	0.752	-0.085	-0.061
-417.457	-71.955	0.110	0.041
-416.442	-200.000	-0.001	0.253
-415.428	-65.945	0.262	-0.104
-414.413	800.000	-0.038	-0.109
-413.398	29.527	0.271	-0.230
-412.384	-200.000	-0.104	0.487
-411.369	-49.752	-0.222	0.105
-410.355	-24.189	-0.299	-0.178
-409.340	800.000	-0.101	0.381
-408.325	571.598	-0.117	0.283
-407.311	800.000	0.074	0.255
-406.296	-83.666	0.258	-0.082
-405.282	-140.698	-0.033	-0.003
-404.267	-163.965	-0.108	0.005
-403.252	110.976	-0.080	0.096
-402.238	-87.606	-0.205	0.062
-401.223	122.748	-0.123	0.154
-400.209	-200.000	0.007	-0.264
-399.194	800.000	-0.050	0.146
-398.179	-94.487	-0.342	-0.093
-397.165	-115.499	0.084	0.016
-396.150	568.021	-0.209	-0.504
-395.136	-130.882	0.257	-0.034
-394.121	526.886	-0.065	-0.152
-393.106	107.021	-0.073	0.086
-392.092	-14.367	-0.130	-0.083
-391.077	800.000	0.049	0.147
-390.063	-200.000	0.036	-0.190
-389.048	64.202	0.242	-0.243
-388.033	-156.796	-0.226	-0.014
-387.019	9.796	0.069	0.052
-386.004	-98.560	0.192	-0.049
-384.990	-200.000	0.053	0.242
-383.975	-169.322	-0.360	0.013
-382.960	-200.000	0.010	-0.198
-381.946	93.950	-0.031	0.035
-380.931	-52.076	-0.391	-0.181
-379.917	-200.000	-0.039	-0.188
-378.902	20.008	0.127	0.102
-377.888	-78.692	0.027	0.009
-376.873	503.373	0.158	-0.362
-375.858	347.704	0.130	0.254
-374.844	-19.096	-0.396	0.245
-373.829	-200.000	-0.019	0.107
-372.815	-106.909	0.217	0.048
-371.800	-0.988	-0.119	-0.084
-370.785	800.000	-0.048	0.169
-369.771	84.212	0.270	0.293
-368.756	-50.048	0.056	0.026
-367.742	-122.232	0.412	0.067
-366.727	128.393	0.111	0.140
-365.712	-200.000	0.008	-0.169
-364.698	294.262	0.192	0.349
-363.683	38.530	-0.272	-0.241
-362.669	800.000	0.056	-0.175
-361.654	-200.000	-0.045	0.234
-360.639	83.240	-0.154	0.166
-359.625	46.040	-0.054	0.050
-358.610	131.664	-0.066	0.085
-357.596	-140.296	0.264	-0.027
-356.581	-200.000	-0.032	-0.205
-355.566	-200.000	-0.012	0.273
-354.552	800.000	0.067	-0.203
-353.537	800.000	0.079	0.260
-352.523	-127.510	0.263	0.038
-351.508	498.132	0.172	-0.393
-350.493	800.000	0.060	-0.230
-349.479	800.000	-0.140	0.421
-348.464	634.576	-0.158	0.399
-347.450	-15.051	0.235	0.149
-346.435	-200.000	0.010	-0.132
-345.420	658.281	0.123	-0.314
-344.406	800.000	-0.074	-0.231
-343.391	-40.399	0.085	0.044
-342.377	-200.000	-0.036	-0.272
-341.362	355.614	0.117	0.231
-340.348	516.986	-0.100	0.232
-339.333	263.076	0.060	-0.103
-338.318	-48.264	0.030	0.014
-337.304	-49.886	0.261	0.123
-336.289	-200.000	-0.019	0.152
-335.275	206.033	0.134	0.206
-334.260	47.225	-0.250	0.231
-333.245	-200.000	-0.033	0.155
-332.231	-69.368	-0.324	0.123
-331.216	2.002	0.142	-0.102
-330.202	76.231	-0.367	-0.385
-329.187	-91.999	0.457	-0.128
-328.172	721.633	0.060	0.157
-327.158	-123.129	-0.552	0.088
-326.143	-132.445	0.147	0.019
-325.129	11.718	-0.054	-0.041
-324.114	233.091	0.245	0.400
-323.099	44.967	-0.301	0.275
-322.085	800.000	0.044	-0.135
-321.070	-53.331	-0.161	-0.073
-320.056	-200.000	-0.028	-0.430
-319.041	168.673	0.146	-0.206
-318.026	-200.000	-0.009	0.286
-317.012	9.858	-0.206	0.155
-315.997	32.047	0.115	0.098
-314.983	-200.000	0.039	0.236
-313.968	253.871	-0.050	0.085
-312.953	800.000	0.041	0.142
-311.939	-6.170	-0.270	-0.183
-310.924	-15.123	0.067	-0.043
-309.910	582.300	0.065	0.159
-308.895	92.518	-0.268	-0.300
-307.880	-168.378	0.274	0.010
-306.866	84.142	-0.159	0.172
-305.851	87.933	-0.056	-0.062
-304.837	-200.000	0.033	-0.453
-303.822	-200.000	0.004	0.042
-302.807	800.000	-0.137	-0.381
-301.793	-200.000	-0.049	-0.471
-300.778	-200.000	-0.019	0.147
-299.764	218.717	0.087	0.139
-298.749	-87.915	0.167	0.050
-297.735	35.150	0.091	-0.079
-296.720	676.838	-0.020	-0.052
-295.705	385.864	-0.018	-0.037
-294.691	124.677	0.068	0.084
-293.676	136.491	0.029	0.037
-292.662	-200.000	0.036	0.162
-291.647	-70.982	0.326	-0.122
-290.632	-60.159	-0.073	-0.031
-289.618	-200.000	0.001	-0.047
-288.603	31.693	0.146	0.124
-287.589	-71.394	-0.135	0.050
-286.574	198.787	-0.128	0.195
-285.559	-200.000	0.040	0.182
-284.545	800.000	0.084	0.253
-283.530	-122.168	-0.282	-0.046
-282.516	-200.000	-0.058	-0.415
-281.501	6.988	-0.403	-0.298
-280.486	-187.110	0.231	-0.003
-279.472	-122.394	-0.252	-0.041
-278.457	-75.206	-0.243	-0.086
-277.443	111.517	0.059	0.070
-276.428	-200.000	-0.008	-0.079
-275.413	-144.211	0.221	-0.020
-274.399	287.706	0.051	0.091
-273.384	800.000	0.155	0.498
-272.370	-164.842	-0.445	-0.020
-271.355	-200.000	-0.003	0.084
-270.340	624.064	-0.098	0.245
-269.326	-19.062	-0.172	0.106
-268.311	-200.000	0.003	-0.046
-267.297	2.725	-0.069	-0.050
-266.282	336.136	0.048	0.092
-265.267	-10.216	0.041	-0.027
-264.253	181.556	-0.022	-0.032
-263.238	-200.000	-0.019	-0.144
-262.224	-200.000	-0.033	0.257
-261.209	-200.000	-0.032	0.354
-260.195	-200.000	0.001	-0.222
-259.180	-69.801	0.340	-0.129
-258.165	57.685	0.088	-0.085
-257.151	293.073	-0.049	0.088
-256.136	-200.000	0.031	0.255
-255.122	-47.650	-0.036	0.017
-254.107	44.008	-0.152	-0.138
-253.092	-141.992	-0.196	0.019
-252.078	-200.000	0.021	-0.291
-251.063	303.243	-0.082	-0.150
-250.049	-41.883	-0.107	0.054
-249.034	-96.455	-0.244	0.064
-248.019	62.556	-0.111	0.110
-247.005	-25.970	-0.373	0.217
-245.990	209.929	0.059	-0.091
-244.976	-51.063	0.140	-0.065
-243.961	-163.808	0.183	-0.008
-242.946	5.366	0.219	0.160
-241.932	278.879	0.121	-0.214
-240.917	-118.541	-0.382	-0.067
-239.903	-127.256	0.102	0.015
-238.888	275.805	0.061	-0.108
-237.873	-200.000	-0.002	-0.179
-236.859	-78.305	0.169	-0.057
-235.844	561.416	-0.015	0.037
-234.830	165.038	0.189	0.265
-233.815	-200.000	0.004	-0.240
-232.800	-149.593	-0.258	-0.020
-231.786	257.426	-0.140	0.238
-230.771	-48.032	0.257	0.123
-229.757	-200.000	0.009	-0.163
-228.742	14.210	0.144	0.111
-227.727	1.350	-0.183	0.130
-226.713	-44.247	0.240	0.119
-225.698	58.361	-0.059	-0.057
-224.684	-159.928	-0.071	-0.004
-223.669	-173.146	-0.131	0.004
-222.655	800.000	0.067	-0.271
-221.640	-80.828	0.179	0.059
-220.625	-65.582	0.312	0.124
-219.611	-161.518	-0.157	0.008
-218.596	-29.903	0.092	-0.052
-217.582	-83.856	-0.214	0.067
-216.567	258.551	-0.070	-0.120
-215.552	-200.000	-0.073	-0.350
-214.538	31.486	-0.144	-0.123
-213.523	362.169	-0.158	-0.314
-212.509	-146.907	0.264	0.022
-211.494	17.955	-0.029	-0.023
-210.479	124.213	-0.087	0.108
-209.465	-200.000	-0.010	0.191
-208.450	-43.154	-0.061	-0.030
-207.436	-25.330	-0.414	-0.242
-206.421	-200.000	-0.084	-0.408
-205.406	-200.000	0.025	-0.158
-204.392	-50.399	-0.284	-0.132
-203.377	254.611	-0.077	0.130
-202.363	-89.843	-0.316	-0.091
-201.348	-107.052	-0.287	0.063
-200.333	744.630	-0.065	-0.174
-199.319	334.143	-0.112	0.214
-198.304	123.943	0.168	0.209
-197.290	-48.670	0.393	-0.186
-196.275	800.000	0.116	-0.472
-195.260	212.383	-0.096	-0.149
-194.246	800.000	-0.052	-0.154
-193.231	-34.430	0.263	-0.142
-192.217	-139.368	0.278	-0.030
-191.202	111.570	-0.220	0.261
-190.187	-114.679	0.022	-0.004
-189.173	800.000	0.054	-0.181
-188.158	234.672	0.148	0.241
-187.144	-132.168	0.106	0.014
-186.129	-16.961	0.170	-0.106
-185.114	800.000	-0.071	-0.271
-184.100	-7.175	-0.128	0.086
-183.085	39.472	-0.067	0.059
-182.071	-156.703	0.116	-0.007
-181.056	29.890	0.507	0.426
-180.042	-92.862	0.246	0.068
-179.027	58.542	-0.125	0.121
-178.012	-130.471	-0.233	-0.031
-176.998	-125.135	-0.124	0.019
-175.983	-58.217	0.162	-0.070
-174.969	15.815	0.310	0.241
-173.954	70.250	-0.247	0.251
-172.939	-200.000	0.044	-0.240
-171.925	435.842	-0.060	-0.129
-170.910	-20.311	0.143	-0.087
-169.896	-26.903	-0.325	-0.188
-168.881	19.450	-0.047	0.037
-167.866	-66.378	-0.104	-0.041
-166.852	-126.807	-0.155	-0.023
-165.837	-164.875	-0.050	-0.002
-164.823	33.751	-0.129	-0.110
-163.808	62.511	-0.122	0.120
-162.793	-49.823	0.089	-0.042
-161.779	-167.244	0.148	-0.006
-160.764	-156.371	0.296	0.018
-159.750	-68.433	-0.376	0.144
-158.735	-122.832	-0.319	0.051
-157.720	-200.000	-0.022	-0.104
-156.706	-200.000	0.003	0.079
-155.691	-131.952	-0.159	-0.020
-154.677	-200.000	0.016	0.147
-153.662	-200.000	0.018	0.146
-152.647	665.244	-0.099	0.252
-151.633	-152.578	0.314	0.022
-150.618	-200.000	-0.021	-0.173
-149.604	113.716	0.043	-0.051
-148.589	326.998	0.110	0.209
-147.574	-51.835	0.098	-0.045
-146.560	193.604	-0.180	-0.269
-145.545	-200.000	0.037	0.165
-144.531	-200.000	0.034	0.326
-143.516	-200.000	-0.033	-0.159
-142.502	-33.893	-0.173	0.094
-141.487	42.826	-0.210	0.188
-140.472	21.581	-0.139	0.111
-139.458	-200.000	-0.035	-0.363
-138.443	339.648	-0.068	-0.130
-137.429	-38.117	0.106	-0.055
-136.414	-114.553	0.177	0.034
-135.399	21.555	-0.317	-0.254
-134.385	81.071	0.129	-0.137
-133.370	800.000	0.037	-0.134
-132.356	-116.039	0.296	-0.054
-131.341	214.977	0.025	0.038
-130.326	-29.506	-0.193	-0.109
-129.312	39.847	-0.208	-0.184
-128.297	-95.469	0.350	-0.093
-127.283	-52.234	-0.136	0.062
-126.268	-200.000	-0.010	-0.283
-125.253	-200.000	0.036	-0.234
-124.239	800.000	0.182	-0.584
-123.224	52.145	-0.124	-0.117
-122.210	-48.089	-0.128	-0.061
-121.195	-144.344	0.243	-0.022
