DTS Sentinel unit serial number:	SN413079Multiplexer serial number:	ORYXHardware model number:	OX4-SRSoftware version number:	ORYX F/W v4.00 Oryx Data Collector v3.7.2.0data status	okinstallation	princeton_trtdifferential loss correction	single-endedforward channel	channel 2reverse channel	N/Adate	2019/09/14time	03:31:35forward acquisition time	60.00reverse acquisition time	0.00gamma	496.2192k internal	0.2337k external	0.2337temperature offset calibration	1.0122default loss term (dB/km)	0.3790temperature slope calibration	1.0000multiplexer offset coefficient	1.0000multiplexer slope coefficient	1.0000fibre end	0.00T internal ref (°C)	26.62T ext. ref 1 (°C)	3.28T ext. ref 2 (°C)	21.56length (m)	temperature (°C)	Stokes	anti-Stokes-747.200	356.777	-0.156	-0.312
-746.185	800.000	0.026	-0.096
-745.171	427.165	0.082	-0.177
-744.156	-107.772	-0.377	0.083
-743.142	722.366	-0.070	-0.188
-742.127	-200.000	-0.006	-0.122
-741.112	-124.448	0.206	0.032
-740.098	-200.000	-0.055	0.310
-739.083	136.915	-0.149	-0.195
-738.069	-30.046	-0.117	0.067
-737.054	-102.447	0.293	0.070
-736.039	154.485	0.074	-0.102
-735.025	-132.152	0.180	-0.023
-734.010	10.317	0.162	0.124
-732.996	-200.000	-0.052	-0.238
-731.981	-101.517	-0.378	-0.092
-730.966	114.050	0.192	-0.234
-729.952	800.000	0.160	0.595
-728.937	179.518	0.076	0.111
-727.923	-200.000	0.017	0.157
-726.908	800.000	-0.018	-0.054
-725.894	-88.606	0.124	0.037
-724.879	-103.946	0.083	0.019
-723.864	34.507	-0.219	0.192
-722.850	345.179	0.037	-0.074
-721.835	-200.000	0.030	-0.158
-720.821	164.439	-0.077	-0.109
-719.806	150.347	0.082	0.112
-718.791	-44.523	0.250	0.126
-717.777	9.151	-0.126	0.095
-716.762	586.306	0.128	-0.315
-715.748	-39.505	0.105	-0.055
-714.733	800.000	0.041	-0.155
-713.718	59.419	0.221	-0.219
-712.704	-149.049	-0.385	-0.031
-711.689	800.000	-0.054	0.205
-710.675	-40.596	-0.301	-0.157
-709.660	132.666	-0.072	-0.093
-708.645	106.268	0.168	-0.200
-707.631	-200.000	-0.018	-0.316
-706.616	479.463	0.093	-0.211
-705.602	40.229	0.092	0.083
-704.587	800.000	0.028	0.092
-703.572	-200.000	-0.017	-0.096
-702.558	230.032	0.054	0.088
-701.543	26.462	0.168	0.141
-700.529	145.915	0.187	0.251
-699.514	-65.676	-0.253	0.102
-698.499	-58.710	-0.149	0.065
-697.485	18.064	-0.299	-0.239
-696.470	-103.837	0.072	-0.017
-695.456	55.037	-0.163	-0.158
-694.441	195.654	0.115	0.175
-693.426	-200.000	-0.038	0.284
-692.412	-93.746	-0.054	-0.015
-691.397	-200.000	-0.002	-0.022
-690.383	-54.229	-0.353	-0.161
-689.368	800.000	0.074	-0.224
-688.354	84.836	-0.299	-0.328
-687.339	247.986	0.146	0.247
-686.324	29.297	0.182	-0.154
-685.310	74.921	-0.215	0.227
-684.295	-200.000	-0.037	-0.302
-683.281	800.000	-0.094	-0.302
-682.266	-200.000	-0.016	-0.277
-681.251	800.000	0.055	0.155
-680.237	800.000	-0.063	-0.206
-679.222	-165.611	0.100	0.004
-678.208	-200.000	-0.020	-0.365
-677.193	-200.000	-0.010	0.142
-676.178	800.000	-0.069	-0.211
-675.164	26.799	0.064	-0.054
-674.149	51.078	0.213	0.202
-673.135	800.000	-0.007	-0.021
-672.120	-200.000	0.022	-0.412
-671.105	-158.836	-0.391	-0.022
-670.091	-68.542	0.121	-0.047
-669.076	-200.000	-0.042	0.262
-668.062	-78.253	-0.335	-0.115
-667.047	-200.000	-0.023	-0.102
-666.032	73.774	0.276	0.290
-665.018	-25.110	0.155	-0.092
-664.003	161.739	-0.219	0.306
-662.989	-200.000	-0.006	-0.055
-661.974	800.000	-0.079	-0.325
-660.959	455.022	0.069	-0.154
-659.945	-32.772	0.204	0.114
-658.930	57.989	0.079	0.078
-657.916	-35.996	0.124	0.067
-656.901	-200.000	0.022	-0.116
-655.886	53.254	-0.145	-0.139
-654.872	-82.861	-0.268	0.087
-653.857	354.647	-0.048	-0.096
-652.843	14.441	0.170	-0.133
-651.828	-200.000	-0.170	0.000
-650.814	16.705	0.373	0.295
-649.799	800.000	0.135	-0.433
-648.784	-200.000	0.028	0.146
-647.770	-162.992	0.218	-0.011
-646.755	120.350	-0.227	0.282
-645.741	122.472	-0.073	0.092
-644.726	27.727	0.314	-0.264
-643.711	-165.577	-0.251	0.011
-642.697	-32.099	-0.216	-0.121
-641.682	221.505	-0.100	0.161
-640.668	-43.242	-0.138	-0.070
-639.653	800.000	-0.060	-0.234
-638.638	39.065	0.096	-0.086
-637.624	-127.004	0.191	0.028
-636.609	-200.000	-0.005	0.047
-635.595	266.636	0.148	0.259
-634.580	303.360	0.103	0.192
-633.565	-22.679	0.133	0.080
-632.551	-38.125	0.126	0.067
-631.536	800.000	0.041	0.119
-630.522	-111.604	-0.243	0.049
-629.507	-200.000	-0.038	0.200
-628.492	227.920	-0.084	-0.137
-627.478	-66.473	0.114	-0.045
-626.463	24.046	0.197	0.162
-625.449	-94.524	-0.084	0.023
-624.434	-200.000	0.015	-0.172
-623.419	736.619	-0.132	0.354
-622.405	52.256	0.238	0.227
-621.390	-39.583	-0.127	-0.067
-620.376	-64.190	-0.225	0.092
-619.361	-104.683	0.221	0.051
-618.346	-97.436	-0.077	-0.020
-617.332	-200.000	0.007	0.113
-616.317	-27.166	-0.186	0.108
-615.303	800.000	0.022	0.089
-614.288	-200.000	-0.053	-0.290
-613.273	800.000	0.100	-0.359
-612.259	-101.623	0.404	0.098
-611.244	73.365	0.064	-0.067
-610.230	202.748	0.105	0.162
-609.215	158.958	0.073	-0.101
-608.201	-119.119	0.098	-0.017
-607.186	-8.567	-0.075	-0.050
-606.171	173.164	-0.256	0.369
-605.157	44.164	0.147	0.135
-604.142	391.125	0.106	-0.220
-603.128	-150.856	0.232	-0.018
-602.113	-81.139	-0.220	0.073
-601.098	-35.847	-0.117	-0.063
-600.084	-200.000	0.005	-0.244
-599.069	-65.040	-0.057	-0.023
-598.055	9.233	0.282	0.213
-597.040	45.007	0.167	-0.153
-596.025	-109.100	-0.278	-0.059
-595.011	-200.000	0.055	0.348
-593.996	52.082	0.223	-0.212
-592.982	91.420	0.216	-0.242
-591.967	561.181	0.095	0.230
-590.952	596.272	-0.056	0.139
-589.938	190.625	-0.107	-0.160
-588.923	7.824	0.168	0.126
-587.909	529.676	-0.056	-0.132
-586.894	41.678	0.078	-0.071
-585.879	-4.186	0.303	0.209
-584.865	-106.614	-0.291	-0.065
-583.850	800.000	0.042	0.125
-582.836	-105.183	-0.113	-0.026
-581.821	-78.004	-0.068	0.023
-580.806	570.921	-0.057	0.138
-579.792	800.000	-0.040	0.129
-578.777	298.910	-0.118	-0.217
-577.763	196.063	-0.095	-0.144
-576.748	457.927	0.092	-0.204
-575.733	-154.665	-0.167	-0.011
-574.719	-120.005	0.110	0.019
-573.704	391.913	-0.100	0.208
-572.690	-200.000	0.006	-0.054
-571.675	-200.000	0.025	-0.120
-570.661	142.750	0.040	-0.053
-569.646	-39.870	-0.234	-0.122
-568.631	-125.916	0.063	-0.009
-567.617	-25.197	0.230	-0.136
-566.602	71.372	-0.190	0.197
-565.588	-94.250	0.147	-0.040
-564.573	-125.574	0.270	0.041
-563.558	-200.000	0.004	-0.129
-562.544	2.895	-0.220	0.159
-561.529	9.998	-0.016	-0.012
-560.515	-200.000	0.018	-0.181
-559.500	800.000	0.031	0.100
-558.485	-5.976	-0.125	-0.085
-557.471	-200.000	-0.096	-0.429
-556.456	-200.000	-0.007	-0.359
-555.442	-200.000	-0.010	0.074
-554.427	800.000	0.115	0.423
-553.412	-200.000	-0.002	0.114
-552.398	-200.000	-0.020	-0.163
-551.383	351.084	-0.174	0.343
-550.369	-15.319	-0.186	0.119
-549.354	6.863	0.112	0.083
-548.339	440.625	0.057	-0.124
-547.325	-200.000	-0.019	-0.198
-546.310	-200.000	0.037	0.186
-545.296	-63.347	0.401	-0.165
-544.281	73.834	0.238	-0.249
-543.266	100.572	-0.093	-0.108
-542.252	281.725	-0.265	-0.473
-541.237	77.395	0.212	0.225
-540.223	-74.489	-0.256	-0.092
-539.208	116.365	-0.111	-0.135
-538.193	29.007	-0.255	-0.216
-537.179	110.012	-0.089	0.106
-536.164	-69.147	-0.287	-0.110
-535.150	-133.677	0.243	-0.030
-534.135	188.837	-0.080	-0.120
-533.121	-183.364	0.260	0.005
-532.106	800.000	-0.021	-0.079
-531.091	-200.000	-0.022	-0.340
-530.077	49.116	0.265	0.248
-529.062	46.253	-0.056	-0.052
-528.048	-26.455	-0.192	0.112
-527.033	527.154	-0.184	-0.431
-526.018	-24.831	0.122	-0.072
-525.004	-126.406	-0.258	0.038
-523.989	-115.583	0.178	0.033
-522.975	800.000	-0.010	-0.042
-521.960	-200.000	-0.009	0.206
-520.945	43.769	0.103	-0.094
-519.931	-200.000	-0.021	-0.105
-518.916	-32.664	0.261	-0.145
-517.902	-200.000	-0.015	-0.178
-516.887	403.805	0.152	-0.318
-515.872	800.000	-0.036	-0.133
-514.858	800.000	-0.086	-0.267
-513.843	414.726	0.039	0.084
-512.829	-47.801	-0.168	-0.081
-511.814	13.258	-0.180	-0.139
-510.799	-200.000	-0.023	0.265
-509.785	57.751	-0.185	-0.180
-508.770	26.705	0.127	-0.106
-507.756	-200.000	0.066	0.334
-506.741	101.062	0.145	-0.167
-505.726	-139.823	-0.656	0.069
-504.712	-200.000	0.004	0.187
-503.697	-51.341	-0.116	-0.054
-502.683	-52.669	-0.318	0.146
-501.668	96.143	0.326	0.371
-500.653	39.191	0.095	0.085
-499.639	357.702	0.059	0.118
-498.624	800.000	-0.058	0.208
-497.610	-71.033	0.114	-0.043
-496.595	631.297	-0.167	-0.421
-495.581	-33.806	-0.144	0.079
-494.566	7.716	-0.080	-0.059
-493.551	800.000	0.031	-0.110
-492.537	-68.676	0.135	0.052
-491.522	800.000	-0.088	0.297
-490.508	-109.020	-0.238	0.050
-489.493	-120.880	0.195	0.033
-488.478	62.648	0.273	-0.271
-487.464	-200.000	0.034	0.265
-486.449	-200.000	0.007	0.184
-485.435	-200.000	0.057	0.504
-484.420	308.213	-0.129	0.239
-483.405	-85.283	-0.051	-0.016
-482.391	-10.209	0.115	0.076
-481.376	-24.298	-0.148	0.088
-480.362	-8.213	-0.159	0.106
-479.347	-107.561	-0.124	-0.027
-478.332	538.032	0.045	0.107
-477.318	141.392	-0.179	-0.235
-476.303	249.672	0.135	0.227
-475.289	-200.000	0.025	-0.179
-474.274	34.616	-0.226	-0.196
-473.259	272.815	0.155	-0.271
-472.245	-94.126	0.087	-0.024
-471.230	800.000	-0.078	0.317
-470.216	-82.536	0.209	0.067
-469.201	221.464	-0.150	0.240
-468.186	219.597	-0.078	-0.125
-467.172	-184.740	-0.312	-0.005
-466.157	-200.000	-0.038	-0.202
-465.143	-33.631	-0.374	-0.205
-464.128	618.346	0.083	-0.208
-463.113	800.000	0.050	-0.193
-462.099	-51.963	-0.133	0.061
-461.084	171.277	-0.183	-0.260
-460.070	15.368	-0.074	-0.058
-459.055	-200.000	-0.012	-0.061
-458.040	800.000	0.054	-0.194
-457.026	487.919	-0.066	-0.151
-456.011	30.405	0.089	-0.075
-454.997	-15.389	-0.425	-0.269
-453.982	-21.111	0.336	-0.204
-452.968	800.000	0.032	-0.125
-451.953	92.603	-0.262	0.293
-450.938	-82.549	0.268	0.086
-449.924	183.058	-0.125	-0.183
-448.909	-122.725	-0.259	-0.042
-447.895	422.261	0.058	0.124
-446.880	191.879	0.038	-0.057
-445.865	202.625	-0.045	0.069
-444.851	-182.036	-0.416	0.008
-443.836	70.110	-0.176	-0.180
-442.822	162.285	0.193	0.268
-441.807	124.383	0.301	0.375
-440.792	149.645	0.137	-0.184
-439.778	-91.049	0.143	-0.041
-438.763	-107.204	0.141	-0.031
-437.749	-102.434	0.076	0.018
-436.734	164.651	0.260	0.364
-435.719	-10.103	0.117	0.077
-434.705	2.325	0.172	-0.124
-433.690	225.120	0.123	0.197
-432.676	169.894	0.121	-0.172
-431.661	-113.460	0.205	-0.040
-430.646	-200.000	0.045	0.284
-429.632	800.000	-0.103	-0.365
-428.617	60.599	-0.182	-0.179
-427.603	-51.462	0.093	-0.043
-426.588	-200.000	-0.044	0.218
-425.573	-200.000	0.015	-0.093
-424.559	0.415	-0.120	-0.085
-423.544	-200.000	0.084	0.465
-422.530	-90.606	-0.052	0.015
-421.515	75.688	0.204	0.214
-420.500	-27.305	0.040	-0.023
-419.486	-107.588	-0.148	-0.032
-418.471	90.244	-0.233	-0.258
-417.457	-111.585	-0.225	0.045
-416.442	-200.000	0.006	-0.123
-415.428	33.931	0.221	0.190
-414.413	69.417	-0.120	-0.123
-413.398	-200.000	-0.004	-0.175
-412.384	-200.000	0.011	0.122
-411.369	-71.253	-0.093	0.035
-410.355	-2.794	0.139	-0.096
-409.340	-75.368	-0.045	-0.016
-408.325	-121.704	-0.097	-0.016
-407.311	-113.646	-0.220	0.043
-406.296	578.193	-0.043	-0.105
-405.282	210.739	-0.010	0.015
-404.267	-122.577	0.113	-0.018
-403.252	-61.960	0.123	0.051
-402.238	-200.000	0.031	-0.333
-401.223	-194.244	-0.283	0.002
-400.209	-174.416	-0.038	-0.001
-399.194	-121.392	0.200	-0.033
-398.179	132.539	-0.244	-0.312
-397.165	164.080	-0.103	0.144
-396.150	-99.183	0.305	0.076
-395.136	179.855	0.202	0.292
-394.121	4.622	-0.268	-0.195
-393.106	-79.709	-0.202	0.068
-392.092	-2.211	0.239	-0.166
-391.077	20.744	0.277	-0.222
-390.063	-153.165	-0.086	-0.006
-389.048	800.000	-0.029	-0.099
-388.033	-200.000	-0.007	0.234
-387.019	124.291	-0.157	-0.195
-386.004	-103.200	-0.194	-0.045
-384.990	203.581	-0.163	-0.249
-383.975	91.205	-0.136	0.151
-382.960	-200.000	0.008	0.340
-381.946	800.000	0.055	0.196
-380.931	279.082	-0.139	0.245
-379.917	800.000	0.057	-0.212
-378.902	-85.631	-0.068	0.021
-377.888	24.023	0.275	-0.225
-376.873	-134.465	0.029	0.003
-375.858	-200.000	-0.026	0.137
-374.844	591.781	-0.043	-0.104
-373.829	-200.000	-0.073	0.453
-372.815	-35.976	0.058	0.031
-371.800	40.464	-0.058	0.051
-370.785	-200.000	-0.021	-0.167
-369.771	-13.107	-0.158	0.101
-368.756	16.243	-0.224	0.175
-367.742	-112.662	0.067	-0.013
-366.727	-56.996	0.125	-0.055
-365.712	206.851	0.094	-0.145
-364.698	-200.000	-0.103	-0.000
-363.683	591.675	-0.076	-0.185
-362.669	414.355	-0.038	0.079
-361.654	-128.140	-0.269	-0.038
-360.639	-18.803	0.225	0.139
-359.625	800.000	0.062	0.193
-358.610	198.797	0.231	0.349
-357.596	-146.972	-0.059	0.005
-356.581	-200.000	0.045	-0.348
-355.566	800.000	0.009	-0.034
-354.552	800.000	-0.075	-0.255
-353.537	170.103	0.057	0.080
-352.523	-137.516	-0.266	-0.030
-351.508	-200.000	-0.006	-0.117
-350.493	168.701	0.080	0.112
-349.479	-47.279	-0.157	-0.076
-348.464	294.223	-0.168	0.303
-347.450	457.150	-0.067	0.147
-346.435	-66.476	0.164	0.065
-345.420	-200.000	0.078	0.367
-344.406	-51.235	0.077	0.036
-343.391	-71.013	0.219	-0.082
-342.377	-49.922	0.314	0.147
-341.362	97.747	0.162	0.184
-340.348	252.704	0.032	0.054
-339.333	-200.000	-0.074	-0.325
-338.318	-93.655	-0.234	-0.064
-337.304	-75.067	0.009	0.003
-336.289	36.549	0.211	-0.184
-335.275	-98.294	-0.282	0.071
-334.260	-19.040	0.078	-0.048
-333.245	-200.000	0.060	0.283
-332.231	-168.214	-0.417	-0.016
-331.216	43.644	0.150	0.136
-330.202	-138.682	0.237	-0.026
-329.187	-108.517	-0.209	-0.044
-328.172	166.320	-0.063	-0.088
-327.158	-5.771	-0.201	-0.136
-326.143	-127.098	-0.037	-0.005
-325.129	-104.777	-0.192	0.044
-324.114	-200.000	-0.013	0.109
-323.099	576.212	0.086	-0.207
-322.085	-18.832	-0.175	-0.107
-321.070	-34.488	0.275	0.149
-320.056	800.000	0.018	0.069
-319.041	170.059	0.105	-0.148
-318.026	-20.193	-0.247	-0.150
-317.012	30.464	-0.119	-0.101
-315.997	157.375	0.080	-0.109
-314.983	8.701	-0.087	-0.065
-313.968	103.123	-0.129	-0.150
-312.953	451.403	-0.093	-0.203
-311.939	-200.000	0.009	-0.090
-310.924	-54.038	0.203	0.091
-309.910	268.833	-0.128	0.222
-308.895	-125.802	-0.220	-0.033
-307.880	15.660	0.235	0.183
-306.866	800.000	-0.100	-0.426
-305.851	800.000	0.040	0.162
-304.837	-200.000	-0.032	0.283
-303.822	57.877	0.081	0.079
-302.807	-86.086	-0.196	-0.060
-301.793	-55.970	-0.082	-0.036
-300.778	-98.599	0.227	-0.057
-299.764	-200.000	0.019	-0.120
-298.749	-200.000	-0.008	0.085
-297.735	498.584	-0.114	0.259
-296.720	420.028	-0.095	-0.201
-295.705	-100.775	0.156	0.038
-294.691	-20.689	0.336	0.204
-293.676	-108.608	-0.254	-0.054
-292.662	285.137	0.078	0.139
-291.647	-200.000	-0.051	-0.455
-290.632	-55.799	-0.187	0.083
-289.618	-146.856	-0.343	-0.029
-288.603	-197.097	0.430	-0.003
-287.589	-200.000	-0.011	-0.415
-286.574	24.108	-0.104	0.085
-285.559	-194.111	-0.190	0.002
-284.545	-157.538	-0.147	-0.009
-283.530	-22.462	-0.221	-0.132
-282.516	-52.832	0.393	-0.179
-281.501	122.380	0.173	-0.214
-280.486	-51.824	0.207	0.095
-279.472	417.825	0.046	0.097
-278.457	368.220	0.092	-0.184
-277.443	344.821	-0.071	-0.137
-276.428	431.215	-0.037	0.079
-275.413	800.000	-0.065	0.228
-274.399	111.341	-0.086	0.102
-273.384	-200.000	-0.038	-0.220
-272.370	-91.384	0.268	-0.075
-271.355	331.713	0.057	0.109
-270.340	598.187	-0.090	0.220
-269.326	310.181	-0.083	-0.153
-268.311	76.189	-0.246	0.256
-267.297	-2.764	0.300	0.207
-266.282	262.121	0.145	0.248
-265.267	-84.201	-0.097	-0.030
-264.253	-132.683	0.094	0.012
-263.238	-173.875	0.150	0.004
-262.224	114.342	0.188	-0.225
-261.209	0.263	-0.097	-0.068
-260.195	335.575	0.151	-0.289
-259.180	374.402	0.124	0.248
-258.165	40.820	0.191	0.170
-257.151	-200.000	-0.028	-0.159
-256.136	-114.898	-0.139	0.026
-255.122	-157.568	-0.223	-0.013
-254.107	399.389	0.050	-0.103
-253.092	800.000	0.021	-0.087
-252.078	23.649	-0.206	0.167
-251.063	-26.952	0.151	-0.087
-250.049	800.000	0.049	0.149
-249.034	482.111	0.071	0.158
-248.019	129.200	-0.157	0.197
-247.005	-46.713	-0.106	-0.051
-245.990	178.849	0.222	-0.319
-244.976	-109.716	0.165	-0.034
-243.961	-9.767	-0.053	-0.035
-242.946	91.616	0.228	-0.253
-241.932	-138.153	0.261	0.029
-240.917	800.000	0.064	-0.241
-239.903	-74.590	-0.333	0.118
-238.888	-92.371	0.024	0.007
-237.873	-200.000	-0.012	-0.247
-236.859	-200.000	0.011	-0.106
-235.844	-66.286	0.189	0.074
-234.830	245.756	-0.027	-0.044
-233.815	-200.000	-0.106	0.508
-232.800	419.678	-0.058	-0.123
-231.786	297.287	0.149	-0.270
-230.771	-170.121	-0.138	-0.005
-229.757	173.736	-0.125	0.178
-228.742	0.301	-0.272	0.191
-227.727	-17.356	-0.117	0.072
-226.713	133.812	0.150	0.191
-225.698	800.000	-0.079	0.256
-224.684	-200.000	0.016	0.096
-223.669	-70.912	0.211	0.078
-222.655	166.190	0.024	-0.033
-221.640	-119.331	-0.212	0.036
-220.625	82.251	-0.234	0.250
-219.611	24.441	-0.135	0.110
-218.596	800.000	0.072	0.282
-217.582	-200.000	0.013	0.197
-216.567	-124.310	-0.152	-0.023
-215.552	-116.386	0.291	-0.053
-214.538	-159.495	0.109	0.006
-213.523	-200.000	-0.036	-0.308
-212.509	-200.000	-0.007	0.329
-211.494	144.525	0.211	-0.277
-210.479	-60.467	0.154	0.064
-209.465	277.055	0.068	0.119
-208.450	71.965	-0.232	-0.238
-207.436	-190.899	0.210	0.002
-206.421	41.538	-0.149	-0.132
-205.406	622.393	-0.093	-0.230
-204.392	280.946	0.095	0.168
-203.377	18.944	0.104	-0.082
-202.363	-200.000	-0.003	0.142
-201.348	-200.000	0.038	-0.178
-200.333	-124.002	-0.343	0.053
-199.319	372.569	-0.021	0.043
-198.304	-58.286	-0.221	0.095
-197.290	421.992	0.051	-0.108
-196.275	113.015	0.166	-0.198
-195.260	-161.065	-0.258	0.013
-194.246	-45.721	0.018	0.009
-193.231	218.292	0.101	-0.158
-192.217	-71.471	0.241	-0.089
-191.202	-117.094	0.224	-0.040
-190.187	800.000	-0.072	0.238
-189.173	-200.000	-0.061	0.279
-188.158	-177.860	0.254	0.006
-187.144	-5.548	0.029	-0.019
-186.129	-137.201	-0.304	0.034
-185.114	-47.560	-0.112	0.054
-184.100	-140.318	0.332	-0.034
-183.085	-149.699	0.216	-0.017
-182.071	-10.444	-0.130	-0.085
-181.056	-134.337	0.319	-0.038
-180.042	-200.000	-0.023	0.175
-179.027	116.569	0.223	0.269
-178.012	-24.370	0.048	0.028
-176.998	130.079	-0.209	-0.262
-175.983	800.000	-0.059	-0.227
-174.969	57.223	-0.172	-0.165
-173.954	348.555	-0.154	-0.299
-172.939	162.167	-0.190	0.261
-171.925	112.708	0.139	0.165
-170.910	-200.000	0.007	-0.080
-169.896	435.453	0.072	0.154
-168.881	-80.598	0.177	0.058
-167.866	-41.291	0.249	-0.126
-166.852	-66.591	0.315	-0.123
-165.837	313.847	-0.094	0.174
-164.823	523.722	0.022	-0.051
-163.808	-79.877	0.153	-0.051
-162.793	8.835	0.172	-0.127
-161.779	-26.179	-0.175	0.101
-160.764	-138.621	-0.214	-0.023
-159.750	228.379	-0.087	0.139
-158.735	-48.271	-0.246	0.117
-157.720	-27.626	0.310	0.177
-156.706	353.272	0.160	0.312
-155.691	340.725	0.072	0.138
-154.677	217.776	0.278	0.434
-153.662	-125.416	-0.362	0.054
-152.647	35.403	0.215	0.185
-151.633	-172.628	0.386	0.012
-150.618	20.986	-0.040	-0.032
-149.604	-71.010	0.160	-0.059
-148.589	-200.000	-0.017	0.250
-147.574	102.636	0.106	0.121
-146.560	-183.790	0.226	-0.004
-145.545	800.000	-0.071	0.283
-144.531	-41.688	0.159	-0.080
-143.516	-56.289	-0.111	0.048
-142.502	117.674	0.152	-0.184
-141.487	543.335	-0.129	0.301
-140.472	171.819	-0.100	0.140
-139.458	212.031	0.137	0.212
-138.443	-200.000	-0.027	0.141
-137.429	-200.000	-0.034	-0.196
-136.414	-129.603	-0.092	-0.013
-135.399	173.623	-0.052	0.073
-134.385	85.259	-0.151	-0.163
-133.370	-188.423	0.270	0.003
-132.356	-123.525	-0.155	-0.024
-131.341	88.744	0.180	0.196
-130.326	-26.900	0.048	0.028
-129.312	80.814	-0.085	-0.090
-128.297	-29.866	0.058	-0.032
-127.283	-200.000	-0.025	-0.111
-126.268	224.465	-0.210	-0.332
-125.253	49.056	-0.067	-0.062
-124.239	447.796	0.123	0.266
-123.224	-146.312	-0.110	-0.009
-122.210	493.789	-0.088	-0.198
