DTS Sentinel unit serial number:	SN413079Multiplexer serial number:	ORYXHardware model number:	OX4-SRSoftware version number:	ORYX F/W v4.00 Oryx Data Collector v3.7.2.0data status	okinstallation	princeton_trtdifferential loss correction	single-endedforward channel	channel 2reverse channel	N/Adate	2019/09/11time	05:37:11forward acquisition time	60.00reverse acquisition time	0.00gamma	496.2192k internal	0.2329k external	0.2329temperature offset calibration	0.9939default loss term (dB/km)	0.3790temperature slope calibration	1.0000multiplexer offset coefficient	1.0000multiplexer slope coefficient	1.0000fibre end	0.00T internal ref (°C)	29.41T ext. ref 1 (°C)	-0.24T ext. ref 2 (°C)	23.39length (m)	temperature (°C)	Stokes	anti-Stokes-747.200	-200.000	0.032	0.177
-746.185	-98.816	0.091	0.023
-745.171	-200.000	-0.072	0.363
-744.156	-118.110	-0.070	-0.013
-743.142	378.823	-0.035	-0.071
-742.127	210.455	0.082	0.130
-741.112	-23.752	-0.064	-0.038
-740.098	800.000	-0.086	0.379
-739.083	-8.050	0.313	0.213
-738.069	10.571	-0.060	0.046
-737.054	132.062	-0.251	-0.325
-736.039	-104.555	-0.469	-0.109
-735.025	157.089	0.092	0.128
-734.010	-62.951	-0.317	0.132
-732.996	-200.000	0.004	0.160
-731.981	800.000	0.015	-0.057
-730.966	-25.939	-0.026	0.015
-729.952	-12.338	-0.132	0.087
-728.937	-18.236	-0.328	-0.207
-727.923	-200.000	-0.222	0.000
-726.908	328.246	-0.103	-0.199
-725.894	116.695	-0.070	-0.086
-724.879	-58.316	-0.157	-0.069
-723.864	500.864	0.048	-0.111
-722.850	-152.562	-0.276	-0.020
-721.835	-159.789	0.224	-0.012
-720.821	-61.237	-0.282	0.119
-719.806	485.352	0.112	-0.257
-718.791	-151.445	0.277	-0.021
-717.777	170.128	0.105	-0.151
-716.762	78.754	-0.241	-0.260
-715.748	4.079	-0.239	-0.176
-714.733	42.291	0.126	-0.115
-713.718	47.685	-0.265	-0.249
-712.704	-49.043	-0.197	0.095
-711.689	-200.000	-0.093	-0.511
-710.675	-200.000	-0.032	-0.244
-709.660	169.903	-0.095	-0.137
-708.645	138.849	0.154	0.204
-707.631	-105.102	0.262	-0.060
-706.616	7.522	0.078	-0.059
-705.602	800.000	0.091	0.310
-704.587	800.000	-0.042	0.182
-703.572	76.901	0.157	-0.168
-702.558	79.325	0.106	0.115
-701.543	8.895	-0.216	-0.164
-700.529	11.638	-0.059	0.046
-699.514	-200.000	0.016	-0.152
-698.499	-200.000	-0.001	-0.332
-697.485	-200.000	-0.124	-0.600
-696.470	125.079	0.114	0.144
-695.456	294.545	0.131	-0.241
-694.441	800.000	0.043	0.183
-693.426	137.210	0.163	0.215
-692.412	-200.000	-0.000	0.002
-691.397	233.486	-0.027	-0.044
-690.383	-35.553	-0.075	0.041
-689.368	328.200	-0.132	-0.254
-688.354	-84.187	0.201	-0.064
-687.339	-9.983	-0.034	-0.023
-686.324	800.000	0.083	-0.286
-685.310	800.000	0.026	-0.097
-684.295	800.000	-0.055	0.240
-683.281	-91.922	0.413	0.118
-682.266	566.171	0.136	0.331
-681.251	-200.000	-0.032	-0.214
-680.237	562.731	0.034	-0.083
-679.222	-39.194	0.073	-0.038
-678.208	155.813	-0.085	-0.117
-677.193	53.481	0.132	-0.127
-676.178	800.000	-0.056	0.240
-675.164	21.561	0.131	0.107
-674.149	-7.618	0.218	-0.148
-673.135	-59.591	0.071	0.031
-672.120	-200.000	0.024	-0.355
-671.105	-64.381	0.137	0.056
-670.091	0.660	-0.415	0.298
-669.076	-2.564	0.246	0.173
-668.062	399.521	0.068	0.143
-667.047	-0.150	-0.140	0.100
-666.032	-81.819	-0.323	0.106
-665.018	17.286	-0.044	-0.035
-664.003	-56.049	0.221	-0.099
-662.989	551.985	-0.105	-0.253
-661.974	-118.058	-0.150	0.027
-660.959	-200.000	-0.008	0.207
-659.945	-59.052	-0.356	0.154
-658.930	-108.181	-0.226	-0.049
-657.916	-81.974	-0.140	-0.046
-656.901	-200.000	-0.001	0.037
-655.886	-200.000	0.007	0.251
-654.872	597.404	-0.172	-0.429
-653.857	-200.000	0.003	-0.071
-652.843	800.000	0.032	-0.095
-651.828	-98.717	-0.400	0.102
-650.814	166.161	0.083	0.118
-649.799	800.000	0.025	0.086
-648.784	-48.837	-0.432	-0.208
-647.770	324.582	0.163	0.313
-646.755	-135.594	0.493	-0.059
-645.741	-103.832	-0.243	-0.057
-644.726	62.964	-0.144	0.145
-643.711	-200.000	-0.016	-0.076
-642.697	-158.688	0.461	-0.027
-641.682	-149.519	-0.204	0.016
-640.668	-200.000	-0.040	-0.199
-639.653	326.729	-0.030	-0.057
-638.638	-169.116	-0.483	0.018
-637.624	216.578	-0.146	0.234
-636.609	-49.153	-0.085	0.041
-635.595	-12.851	-0.031	0.020
-634.580	800.000	0.061	-0.210
-633.565	-140.013	-0.220	-0.023
-632.551	85.338	-0.301	-0.332
-631.536	-200.000	0.008	-0.259
-630.522	-151.170	0.224	-0.017
-629.507	-31.564	-0.232	-0.130
-628.492	562.318	-0.088	-0.213
-627.478	-200.000	-0.009	0.146
-626.463	-119.247	-0.153	-0.027
-625.449	110.410	-0.264	0.318
-624.434	-2.520	-0.098	0.068
-623.419	-103.840	-0.179	0.042
-622.405	94.616	0.189	-0.215
-621.390	-60.339	0.161	0.068
-620.376	-69.698	-0.268	0.103
-619.361	-41.800	0.057	-0.029
-618.346	133.676	0.242	-0.314
-617.332	-12.461	-0.230	0.151
-616.317	-153.337	-0.128	0.009
-615.303	474.755	-0.052	0.117
-614.288	-200.000	-0.011	-0.111
-613.273	800.000	-0.028	0.106
-612.259	-105.991	0.097	0.022
-611.244	143.587	-0.185	-0.247
-610.230	-7.733	-0.250	0.169
-609.215	-66.471	0.247	-0.098
-608.201	-200.000	-0.017	-0.243
-607.186	-200.000	-0.021	0.186
-606.171	251.559	-0.031	0.053
-605.157	14.195	0.201	-0.157
-604.142	-200.000	0.002	0.066
-603.128	60.128	-0.352	-0.349
-602.113	-100.816	0.179	0.044
-601.098	42.782	0.368	0.336
-600.084	180.569	-0.128	0.188
-599.069	-118.798	0.224	-0.039
-598.055	-200.000	0.000	-0.050
-597.040	-85.771	0.216	0.067
-596.025	800.000	0.009	0.032
-595.011	800.000	-0.016	0.067
-593.996	-76.640	-0.119	0.042
-592.982	800.000	-0.042	-0.144
-591.967	-104.740	0.283	-0.065
-590.952	-167.688	0.148	-0.006
-589.938	-200.000	-0.047	-0.312
-588.923	-122.428	0.153	0.025
-587.909	99.729	-0.037	0.043
-586.894	-200.000	-0.024	-0.358
-585.879	-200.000	0.065	0.425
-584.865	42.172	0.232	0.211
-583.850	546.729	0.101	0.242
-582.836	71.966	0.159	-0.166
-581.821	222.304	-0.042	-0.068
-580.806	800.000	-0.139	-0.411
-579.792	156.618	0.024	0.033
-578.777	-147.790	-0.072	0.006
-577.763	-59.471	-0.490	-0.211
-576.748	30.758	0.164	-0.141
-575.733	-83.109	0.250	0.081
-574.719	-53.135	0.188	-0.086
-573.704	666.582	-0.015	-0.039
-572.690	103.673	-0.132	-0.155
-571.675	168.338	0.112	-0.160
-570.661	800.000	-0.039	-0.121
-569.646	305.848	0.012	0.023
-568.631	-42.377	-0.281	-0.144
-567.617	65.994	-0.148	-0.150
-566.602	-89.304	0.232	0.068
-565.588	23.468	-0.271	0.223
-564.573	302.176	0.030	0.056
-563.558	-133.309	-0.232	-0.029
-562.544	-101.286	-0.310	0.076
-561.529	-62.414	-0.118	-0.049
-560.515	-168.480	-0.118	0.005
-559.500	-30.717	-0.058	-0.033
-558.485	-51.768	-0.139	-0.065
-557.471	-159.848	0.034	-0.002
-556.456	-1.945	-0.069	-0.048
-555.442	22.583	0.124	-0.102
-554.427	121.603	-0.108	-0.134
-553.412	-96.538	0.277	0.073
-552.398	303.470	0.114	0.212
-551.383	126.550	0.261	-0.330
-550.369	-103.339	-0.177	-0.042
-549.354	-106.014	-0.177	-0.040
-548.339	351.279	-0.219	-0.433
-547.325	-141.858	0.409	0.041
-546.310	-200.000	0.004	-0.116
-545.296	-200.000	0.013	0.106
-544.281	61.400	0.039	-0.039
-543.266	-134.501	-0.149	-0.018
-542.252	-16.307	-0.053	0.033
-541.237	-117.037	-0.167	-0.031
-540.223	-54.477	-0.071	0.032
-539.208	800.000	-0.073	0.242
-538.193	209.313	-0.131	-0.205
-537.179	800.000	-0.044	0.141
-536.164	-38.865	0.165	-0.087
-535.150	-200.000	-0.021	0.263
-534.135	-53.730	0.224	0.102
-533.121	-17.320	-0.251	0.158
-532.106	22.838	0.094	-0.077
-531.091	171.401	-0.125	-0.179
-530.077	220.673	0.101	0.161
-529.062	-2.467	0.103	-0.072
-528.048	-200.000	0.045	-0.203
-527.033	-58.632	-0.111	0.048
-526.018	-58.193	-0.319	0.139
-525.004	-80.727	0.221	0.074
-523.989	-125.861	0.241	-0.036
-522.975	-27.700	0.131	-0.076
-521.960	-200.000	0.004	-0.033
-520.945	-200.000	0.057	0.297
-519.931	15.543	-0.172	0.135
-518.916	-16.197	-0.266	-0.168
-517.902	390.577	-0.096	-0.200
-516.887	354.358	0.040	-0.079
-515.872	43.162	0.360	-0.328
-514.858	-146.023	0.312	0.028
-513.843	-192.465	-0.228	0.002
-512.829	102.844	-0.236	-0.275
-511.814	800.000	0.049	0.151
-510.799	112.382	0.175	0.211
-509.785	800.000	0.026	0.076
-508.770	120.928	-0.105	-0.130
-507.756	800.000	-0.073	0.223
-506.741	-147.274	0.309	-0.026
-505.726	-34.460	-0.296	0.162
-504.712	429.057	-0.017	-0.036
-503.697	-54.001	0.319	0.145
-502.683	-200.000	0.022	-0.112
-501.668	-122.031	0.255	0.042
-500.653	477.170	-0.094	0.212
-499.639	77.840	-0.074	0.079
-498.624	-200.000	-0.009	-0.080
-497.610	-62.128	-0.247	0.103
-496.595	-191.716	-0.131	-0.001
-495.581	800.000	0.089	0.278
-494.566	297.005	0.080	-0.146
-493.551	-51.034	-0.089	-0.042
-492.537	-83.393	-0.048	0.015
-491.522	-29.434	0.106	-0.061
-490.508	460.571	0.037	-0.081
-489.493	-27.124	0.029	0.017
-488.478	298.837	-0.205	-0.376
-487.464	-90.905	-0.129	0.037
-486.449	-110.390	-0.180	-0.037
-485.435	44.574	0.046	-0.042
-484.420	-6.819	-0.031	-0.021
-483.405	356.967	-0.012	0.024
-482.391	116.859	0.167	-0.205
-481.376	-115.288	0.116	-0.022
-480.362	800.000	0.083	0.305
-479.347	-84.153	0.198	-0.063
-478.332	41.248	0.008	-0.007
-477.318	-40.807	-0.392	0.202
-476.303	-200.000	-0.003	0.343
-475.289	-177.183	0.010	-0.000
-474.274	-114.653	0.053	-0.010
-473.259	81.255	0.070	-0.076
-472.245	-39.125	-0.219	0.115
-471.230	-141.627	-0.402	-0.040
-470.216	-17.572	0.226	-0.141
-469.201	-200.000	0.017	-0.198
-468.186	-162.883	0.293	-0.014
-467.172	-34.804	0.187	-0.102
-466.157	-55.662	0.142	-0.063
-465.143	-86.371	-0.293	-0.090
-464.128	390.887	0.066	0.137
-463.113	-149.316	0.120	0.010
-462.099	666.190	-0.064	-0.164
-461.084	518.032	0.058	-0.136
-460.070	147.422	-0.265	-0.356
-459.055	54.590	0.172	0.165
-458.040	712.646	-0.050	0.133
-457.026	0.623	0.222	0.158
-456.011	99.437	-0.331	0.382
-454.997	-126.614	-0.247	0.036
-453.982	-200.000	-0.003	-0.121
-452.968	-23.134	-0.204	-0.122
-451.953	-177.517	0.228	0.006
-450.938	-200.000	0.023	0.313
-449.924	2.176	-0.380	0.273
-448.909	-32.245	-0.206	0.115
-447.895	-0.742	0.171	0.121
-446.880	800.000	0.081	0.271
-445.865	-30.730	-0.313	0.176
-444.851	27.918	0.126	-0.106
-443.836	-119.427	-0.206	0.036
-442.822	-30.589	-0.144	-0.081
-441.807	800.000	-0.060	0.253
-440.792	-114.707	-0.072	-0.014
-439.778	800.000	0.028	0.077
-438.763	336.861	-0.186	-0.360
-437.749	67.473	0.136	-0.138
-436.734	-200.000	-0.001	-0.060
-435.719	100.730	-0.126	0.146
-434.705	-85.514	0.311	0.096
-433.690	-200.000	-0.046	-0.258
-432.676	-17.150	-0.217	0.136
-431.661	-75.778	-0.056	0.020
-430.646	-40.521	0.060	0.031
-429.632	-43.274	-0.186	0.094
-428.617	-182.081	0.282	-0.005
-427.603	-137.173	0.108	0.012
-426.588	26.298	0.384	-0.319
-425.573	-200.000	-0.046	-0.249
-424.559	197.721	-0.071	0.108
-423.544	187.202	0.175	0.259
-422.530	-115.224	-0.078	0.015
-421.515	155.679	-0.066	-0.091
-420.500	155.213	0.216	0.295
-419.486	-129.829	-0.187	0.026
-418.471	-47.006	-0.218	-0.106
-417.457	-86.228	0.182	-0.056
-416.442	-18.393	0.112	-0.070
-415.428	372.778	-0.104	-0.210
-414.413	-84.535	0.193	0.061
-413.398	678.468	-0.053	0.137
-412.384	-49.028	-0.122	-0.058
-411.369	-58.087	0.235	-0.102
-410.355	-53.485	-0.172	0.078
-409.340	-200.000	-0.002	-0.066
-408.325	-99.527	-0.255	0.064
-407.311	-49.603	-0.029	-0.014
-406.296	-27.246	0.175	-0.101
-405.282	-19.204	-0.117	0.072
-404.267	-200.000	-0.010	-0.047
-403.252	-200.000	-0.016	-0.182
-402.238	135.556	0.104	0.135
-401.223	34.704	-0.224	0.194
-400.209	-15.118	0.221	0.140
-399.194	401.377	0.075	-0.156
-398.179	29.071	-0.199	-0.167
-397.165	-77.207	0.575	0.199
-396.150	800.000	-0.034	0.110
-395.136	-112.563	0.383	-0.076
-394.121	-121.925	-0.271	-0.044
-393.106	41.508	0.165	0.148
-392.092	282.255	-0.037	0.067
-391.077	3.797	0.166	-0.120
-390.063	95.823	0.154	0.174
-389.048	336.178	0.154	0.297
-388.033	-200.000	-0.004	0.057
-387.019	-148.873	-0.102	0.008
-386.004	-31.259	-0.176	-0.098
-384.990	-157.414	-0.267	-0.016
-383.975	800.000	-0.034	-0.119
-382.960	39.326	-0.120	0.107
-381.946	800.000	0.009	-0.028
-380.931	-109.704	0.127	-0.027
-379.917	528.672	0.048	-0.111
-378.902	800.000	0.063	0.231
-377.888	-36.291	0.099	0.053
-376.873	-98.251	-0.202	-0.052
-375.858	239.932	0.057	-0.094
-374.844	250.910	-0.024	-0.040
-373.829	-43.607	-0.095	0.047
-372.815	-66.538	0.219	-0.086
-371.800	-121.477	-0.102	0.017
-370.785	-11.028	0.265	0.174
-369.771	17.131	0.205	-0.161
-368.756	-107.946	0.156	0.034
-367.742	-167.398	0.025	-0.001
-366.727	184.579	-0.113	-0.167
-365.712	-200.000	0.063	-0.334
-364.698	82.195	-0.116	-0.125
-363.683	-24.824	-0.047	-0.028
-362.669	31.619	0.077	-0.066
-361.654	-40.324	-0.171	0.088
-360.639	62.672	0.144	0.143
-359.625	-106.610	-0.346	-0.076
-358.610	800.000	-0.010	0.041
-357.596	-200.000	0.001	-0.063
-356.581	800.000	-0.066	-0.267
-355.566	-84.216	-0.190	0.060
-354.552	-142.132	-0.410	-0.040
-353.537	627.943	-0.103	0.257
-352.523	505.883	0.108	-0.247
-351.508	-200.000	0.042	0.256
-350.493	-86.028	-0.238	-0.073
-349.479	-104.444	-0.253	-0.058
-348.464	-200.000	0.011	0.075
-347.450	-81.536	0.276	0.090
-346.435	800.000	-0.036	-0.149
-345.420	49.704	0.204	0.190
-344.406	-183.259	0.054	0.001
-343.391	800.000	-0.033	-0.127
-342.377	-144.426	0.228	0.021
-341.362	728.505	-0.087	-0.231
-340.348	-35.254	0.162	-0.087
-339.333	-107.487	-0.175	0.038
-338.318	-66.145	-0.084	-0.033
-337.304	116.231	-0.095	0.116
-336.289	-21.213	0.116	-0.070
-335.275	-200.000	0.002	-0.008
-334.260	800.000	-0.069	0.192
-333.245	-139.624	-0.162	0.017
-332.231	53.880	-0.248	0.237
-331.216	58.107	-0.025	-0.025
-330.202	-163.222	0.099	-0.005
-329.187	-46.058	-0.141	0.069
-328.172	-200.000	-0.043	0.208
-327.158	-161.237	0.146	-0.008
-326.143	49.319	-0.188	-0.175
-325.129	225.877	-0.026	0.041
-324.114	-193.937	-0.275	0.002
-323.099	115.487	0.093	-0.113
-322.085	18.253	0.238	0.188
-321.070	41.331	-0.085	0.076
-320.056	52.961	-0.116	0.110
-319.041	-76.434	-0.037	-0.013
-318.026	-94.014	0.082	0.022
-317.012	-200.000	0.002	0.087
-315.997	615.610	-0.118	-0.293
-314.983	-200.000	-0.034	0.167
-313.968	-196.020	-0.227	-0.002
-312.953	-200.000	-0.025	-0.215
-311.939	378.827	-0.075	-0.152
-310.924	800.000	-0.072	-0.241
-309.910	-21.273	-0.225	-0.136
-308.895	322.600	0.048	0.090
-307.880	800.000	0.057	-0.242
-306.866	53.662	0.215	-0.204
-305.851	-61.946	-0.267	0.110
-304.837	18.013	-0.105	-0.083
-303.822	440.300	-0.008	0.016
-302.807	117.597	0.033	0.041
-301.793	-34.235	0.277	0.151
-300.778	-143.687	-0.302	0.028
-299.764	800.000	-0.107	-0.327
-298.749	34.275	0.221	0.191
-297.735	-145.789	-0.153	-0.013
-296.720	-8.970	-0.135	0.089
-295.705	-139.312	-0.267	0.028
-294.691	212.522	-0.056	-0.088
-293.676	-66.523	0.180	-0.071
-292.662	235.887	0.054	-0.089
-291.647	-136.383	0.307	0.035
-290.632	-78.002	0.114	-0.039
-289.618	-60.563	-0.160	-0.067
-288.603	-43.419	-0.331	0.165
-287.589	-80.333	-0.257	-0.085
-286.574	167.009	-0.114	-0.159
-285.559	-37.741	0.210	-0.110
-284.545	-66.608	0.265	0.104
-283.530	225.391	0.147	0.236
-282.516	-130.997	0.588	0.078
-281.501	800.000	0.052	0.166
-280.486	59.993	-0.211	0.207
-279.472	-200.000	0.002	-0.014
-278.457	800.000	-0.071	0.219
-277.443	131.676	0.165	0.210
-276.428	126.422	-0.162	-0.202
-275.413	106.209	0.116	0.136
-274.399	73.313	-0.154	-0.160
-273.384	-59.554	-0.190	0.081
-272.370	800.000	0.047	-0.133
-271.355	369.270	-0.043	0.087
-270.340	-63.493	-0.095	-0.038
-269.326	-64.612	0.318	-0.128
-268.311	-200.000	-0.002	0.161
-267.297	187.958	0.194	-0.287
-266.282	-49.920	-0.034	-0.016
-265.267	4.084	0.158	0.114
-264.253	-200.000	-0.010	0.064
-263.238	453.800	-0.048	-0.105
-262.224	-96.179	0.380	-0.100
-261.209	-125.473	-0.441	0.066
-260.195	-186.036	0.201	-0.003
-259.180	144.464	-0.132	0.174
-258.165	-74.632	-0.288	-0.102
-257.151	476.033	-0.063	-0.141
-256.136	-93.231	0.220	0.060
-255.122	-200.000	-0.028	0.154
-254.107	-200.000	-0.086	0.411
-253.092	-48.118	0.384	0.183
-252.078	-96.608	0.224	0.058
-251.063	-28.460	-0.249	0.142
-250.049	209.472	0.107	0.166
-249.034	-158.380	0.374	-0.021
-248.019	-162.145	0.238	0.012
-247.005	-200.000	-0.045	-0.247
-245.990	181.736	-0.053	-0.077
-244.976	-200.000	0.030	0.357
-243.961	-93.825	0.372	-0.101
-242.946	-36.967	0.104	-0.055
-241.932	37.629	0.136	-0.119
-240.917	-73.415	0.122	0.044
-239.903	169.290	0.037	0.053
-238.888	234.361	-0.129	-0.210
-237.873	800.000	-0.037	0.118
-236.859	800.000	-0.065	-0.228
-235.844	-148.298	0.191	0.015
-234.830	-125.192	0.174	-0.026
-233.815	-13.581	0.076	-0.049
-232.800	-22.657	-0.150	-0.089
-231.786	141.224	0.116	-0.151
-230.771	800.000	-0.026	0.086
-229.757	282.769	0.077	-0.137
-228.742	65.205	-0.193	0.193
-227.727	-200.000	0.000	0.036
-226.713	42.720	0.170	0.153
-225.698	773.130	-0.127	-0.341
-224.684	229.551	0.144	0.232
-223.669	-200.000	-0.004	0.104
-222.655	800.000	-0.102	0.399
-221.640	30.984	-0.116	-0.098
-220.625	-8.294	0.096	-0.063
-219.611	-105.326	0.415	-0.093
-218.596	151.680	-0.128	-0.172
-217.582	54.078	-0.096	-0.091
-216.567	-150.015	0.189	-0.015
-215.552	-123.924	-0.368	-0.057
-214.538	-44.368	-0.193	0.096
-213.523	3.798	0.188	-0.135
-212.509	3.320	0.253	0.182
-211.494	-200.000	0.039	0.280
-210.479	-87.115	-0.145	0.043
-209.465	-120.207	-0.191	0.032
-208.450	-62.178	0.240	0.099
-207.436	800.000	0.092	0.263
-206.421	-145.324	0.114	0.010
-205.406	800.000	-0.072	-0.239
-204.392	-163.530	0.099	0.005
-203.377	102.145	-0.169	0.195
-202.363	743.662	-0.083	-0.219
-201.348	17.393	-0.060	0.047
-200.333	-200.000	0.040	-0.180
-199.319	-40.607	0.197	0.101
-198.304	-6.413	-0.141	-0.095
-197.290	-200.000	0.042	0.253
-196.275	306.165	0.145	-0.267
-195.260	-200.000	-0.021	0.452
-194.246	556.435	0.097	0.231
-193.231	-200.000	0.034	0.185
-192.217	26.979	0.143	-0.118
-191.202	-200.000	0.068	0.301
-190.187	-43.167	0.367	-0.183
-189.173	-200.000	-0.005	-0.146
-188.158	-47.595	-0.063	0.030
-187.144	-120.032	-0.153	-0.026
-186.129	-90.200	0.027	0.008
-185.114	340.251	0.095	0.183
-184.100	800.000	0.066	0.202
-183.085	-63.749	0.142	0.058
-182.071	-200.000	-0.015	-0.100
-181.056	799.878	-0.095	-0.257
-180.042	-109.701	0.579	0.120
-179.027	-200.000	0.008	-0.147
-178.012	-200.000	-0.003	-0.123
-176.998	13.888	0.092	0.071
-175.983	-200.000	-0.025	-0.170
-174.969	800.000	-0.045	-0.179
-173.954	570.673	-0.109	0.260
-172.939	-107.153	0.418	-0.091
-171.925	15.477	0.166	-0.128
-170.910	800.000	0.100	0.393
-169.896	554.326	-0.213	0.504
-168.881	64.470	-0.176	-0.175
-167.866	656.794	-0.105	-0.265
-166.852	-132.541	0.296	-0.038
-165.837	30.770	-0.249	0.210
-164.823	-200.000	0.011	0.272
-163.808	76.458	0.216	0.225
-162.793	-200.000	0.017	-0.094
-161.779	525.620	0.074	0.172
-160.764	24.080	-0.173	-0.140
-159.750	-170.099	-0.105	-0.004
-158.735	22.386	0.233	-0.188
-157.720	37.496	0.257	0.225
-156.706	167.436	0.062	-0.087
-155.691	511.484	-0.087	-0.200
-154.677	800.000	0.005	-0.013
-153.662	105.635	-0.071	-0.083
-152.647	800.000	0.093	-0.264
-151.633	71.008	-0.177	-0.181
-150.618	149.494	-0.193	-0.257
-149.604	415.479	0.110	0.230
-148.589	17.794	0.141	-0.110
-147.574	-76.189	-0.107	0.037
-146.560	259.067	-0.131	-0.223
-145.545	35.597	0.090	0.078
-144.531	432.771	-0.086	0.184
-143.516	-185.592	-0.126	-0.002
-142.502	-95.859	0.167	0.044
-141.487	-200.000	0.003	-0.177
-140.472	800.000	-0.059	0.206
-139.458	532.859	-0.076	0.177
-138.443	160.528	-0.095	-0.130
-137.429	132.550	-0.096	-0.122
-136.414	-73.840	-0.216	-0.077
-135.399	-8.878	0.027	0.018
-134.385	-86.813	0.314	0.094
-133.370	397.304	0.092	-0.190
-132.356	2.403	-0.153	-0.109
-131.341	5.499	0.221	0.161
-130.326	-144.611	0.056	0.005
-129.312	111.016	0.364	0.431
-128.297	-6.827	-0.123	0.082
-127.283	45.765	0.094	-0.085
-126.268	-78.208	-0.166	0.056
-125.253	-74.894	0.062	-0.022
-124.239	-200.000	-0.258	0.000
-123.224	-200.000	0.028	-0.265
-122.210	-200.000	0.014	-0.164
