DTS Sentinel unit serial number:	SN413079Multiplexer serial number:	ORYXHardware model number:	OX4-SRSoftware version number:	ORYX F/W v4.00 Oryx Data Collector v3.7.2.0data status	okinstallation	princeton_trtdifferential loss correction	single-endedforward channel	channel 2reverse channel	N/Adate	2019/09/13time	13:55:35forward acquisition time	60.00reverse acquisition time	0.00gamma	496.2192k internal	0.2315k external	0.2315temperature offset calibration	1.0204default loss term (dB/km)	0.3790temperature slope calibration	1.0000multiplexer offset coefficient	1.0000multiplexer slope coefficient	1.0000fibre end	0.00T internal ref (°C)	35.19T ext. ref 1 (°C)	4.59T ext. ref 2 (°C)	31.45length (m)	temperature (°C)	Stokes	anti-Stokes-747.200	115.057	0.059	0.073
-746.185	800.000	-0.159	0.453
-745.171	12.166	0.141	0.110
-744.156	583.434	-0.184	0.459
-743.142	134.898	0.125	0.164
-742.127	-200.000	0.048	0.417
-741.112	800.000	-0.092	0.274
-740.098	435.596	0.138	0.304
-739.083	-32.340	0.144	-0.081
-738.069	-56.246	-0.176	-0.079
-737.054	282.376	-0.102	-0.186
-736.039	-57.910	-0.561	-0.248
-735.025	417.930	0.224	0.485
-734.010	-50.432	-0.700	-0.335
-732.996	-59.953	0.227	-0.098
-731.981	-99.242	-0.130	0.033
-730.966	-98.905	-0.140	-0.036
-729.952	155.980	-0.073	-0.102
-728.937	379.525	0.049	-0.102
-727.923	130.666	0.186	-0.242
-726.908	285.639	-0.100	-0.182
-725.894	-137.107	-0.282	0.033
-724.879	800.000	-0.102	-0.373
-723.864	213.492	0.233	-0.372
-722.850	118.225	0.209	0.261
-721.835	208.787	-0.128	0.203
-720.821	231.673	0.150	-0.249
-719.806	784.783	-0.039	0.109
-718.791	-200.000	-0.005	0.048
-717.777	422.884	0.080	0.174
-716.762	-164.883	0.257	-0.012
-715.748	-101.629	0.198	-0.049
-714.733	100.395	-0.058	0.068
-713.718	-78.278	0.070	-0.024
-712.704	322.504	-0.152	-0.293
-711.689	-200.000	0.018	-0.121
-710.675	-200.000	0.067	-0.397
-709.660	-165.568	-0.395	-0.017
-708.645	210.755	0.032	-0.051
-707.631	2.271	0.265	-0.194
-706.616	160.100	0.040	-0.057
-705.602	35.692	-0.195	-0.174
-704.587	497.909	0.059	-0.137
-703.572	8.716	-0.249	-0.190
-702.558	-50.222	0.212	-0.101
-701.543	206.009	-0.148	-0.233
-700.529	552.246	-0.037	-0.090
-699.514	800.000	0.065	0.237
-698.499	37.850	-0.181	0.163
-697.485	-18.816	-0.095	-0.060
-696.470	-120.863	0.249	-0.043
-695.456	34.672	0.104	-0.092
-694.441	195.755	0.104	0.161
-693.426	712.149	-0.057	0.154
-692.412	132.109	-0.064	0.083
-691.397	270.639	0.053	0.093
-690.383	279.967	-0.055	0.100
-689.368	800.000	-0.077	-0.255
-688.354	61.523	0.166	-0.167
-687.339	-31.139	-0.239	0.136
-686.324	-200.000	-0.067	-0.340
-685.310	-85.368	0.374	-0.118
-684.295	-124.028	0.183	-0.029
-683.281	-200.000	0.013	0.114
-682.266	800.000	-0.044	-0.158
-681.251	-166.187	-0.616	0.026
-680.237	511.408	-0.016	0.039
-679.222	-200.000	0.054	0.268
-678.208	134.584	-0.117	0.154
-677.193	-200.000	0.080	0.368
-676.178	518.846	-0.189	0.446
-675.164	800.000	-0.093	-0.329
-674.149	137.570	-0.172	-0.228
-673.135	800.000	0.031	0.107
-672.120	646.507	0.059	-0.152
-671.105	-100.932	0.129	0.032
-670.091	7.397	0.081	-0.062
-669.076	-40.733	0.150	0.078
-668.062	100.070	0.233	-0.273
-667.047	800.000	0.037	-0.130
-666.032	-89.375	-0.203	0.060
-665.018	549.254	0.102	-0.246
-664.003	-44.076	-0.101	0.051
-662.989	-2.121	0.376	-0.267
-661.974	800.000	-0.125	-0.391
-660.959	-120.643	0.248	0.042
-659.945	-28.019	0.119	0.069
-658.930	58.034	0.154	0.152
-657.916	-67.036	-0.183	0.073
-656.901	-76.227	0.265	-0.094
-655.886	-200.000	0.022	-0.127
-654.872	-72.292	-0.201	0.075
-653.857	358.341	-0.118	0.239
-652.843	108.672	0.320	0.386
-651.828	131.020	0.031	0.041
-650.814	290.692	0.120	-0.220
-649.799	89.413	-0.110	0.124
-648.784	-71.682	-0.136	-0.051
-647.770	-77.187	-0.201	-0.071
-646.755	-145.247	0.189	-0.017
-645.741	-130.764	-0.216	0.029
-644.726	-200.000	-0.023	0.241
-643.711	-200.000	0.049	0.264
-642.697	-160.357	-0.096	-0.005
-641.682	330.782	-0.166	-0.323
-640.668	359.897	0.057	-0.115
-639.653	-169.228	-0.105	-0.004
-638.638	-142.754	0.117	-0.011
-637.624	-34.009	-0.317	-0.176
-636.609	800.000	0.118	-0.412
-635.595	-200.000	0.019	0.210
-634.580	-109.381	-0.251	0.054
-633.565	-200.000	-0.001	-0.028
-632.551	220.052	-0.104	0.168
-631.536	-7.354	0.250	0.171
-630.522	-105.748	-0.045	0.010
-629.507	209.858	0.122	-0.193
-628.492	-125.408	-0.038	0.006
-627.478	-122.024	-0.525	-0.087
-626.463	-200.000	0.025	0.274
-625.449	-200.000	0.017	-0.100
-624.434	-29.242	0.234	0.135
-623.419	167.840	0.226	-0.324
-622.405	120.352	-0.113	-0.142
-621.390	14.232	0.024	-0.019
-620.376	533.638	0.130	-0.309
-619.361	-200.000	-0.049	-0.369
-618.346	94.990	-0.375	-0.430
-617.332	-200.000	-0.015	-0.098
-616.317	77.223	0.220	0.236
-615.303	-66.474	-0.111	0.044
-614.288	44.662	0.275	0.255
-613.273	800.000	0.091	-0.336
-612.259	-102.409	-0.205	-0.050
-611.244	405.446	-0.065	0.138
-610.230	181.223	-0.044	-0.065
-609.215	-28.065	0.279	0.162
-608.201	-109.583	-0.490	0.104
-607.186	-147.256	0.124	-0.011
-606.171	-200.000	0.017	-0.198
-605.157	-158.549	-0.259	-0.015
-604.142	-19.231	0.112	0.070
-603.128	37.050	0.058	0.052
-602.113	800.000	0.089	-0.263
-601.098	70.520	-0.322	0.336
-600.084	10.915	0.113	0.087
-599.069	121.160	-0.059	-0.074
-598.055	17.861	-0.050	0.040
-597.040	-200.000	-0.015	-0.296
-596.025	-200.000	0.031	-0.359
-595.011	-21.808	-0.056	-0.034
-593.996	-125.525	0.287	0.044
-592.982	687.299	0.100	0.264
-591.967	28.859	-0.089	0.076
-590.952	120.179	0.209	0.261
-589.938	-88.170	-0.201	-0.061
-588.923	165.652	-0.102	-0.145
-587.909	-200.000	0.036	0.162
-586.894	-56.737	0.064	-0.029
-585.879	355.534	-0.159	0.319
-584.865	800.000	0.011	0.044
-583.850	-46.396	-0.284	-0.140
-582.836	-109.630	0.253	0.054
-581.821	-60.403	-0.328	-0.141
-580.806	-200.000	0.046	-0.241
-579.792	18.237	-0.182	0.146
-578.777	772.031	0.183	-0.503
-577.763	-29.228	-0.159	-0.092
-576.748	166.913	0.219	-0.313
-575.733	-17.427	-0.035	-0.022
-574.719	21.859	-0.029	0.024
-573.704	45.764	-0.033	0.031
-572.690	-3.665	0.215	-0.150
-571.675	-45.373	0.166	0.083
-570.661	382.099	0.030	0.063
-569.646	800.000	0.044	-0.171
-568.631	450.652	-0.047	-0.104
-567.617	-6.621	-0.191	0.131
-566.602	-121.520	-0.318	-0.053
-565.588	-150.322	-0.052	-0.004
-564.573	56.940	-0.128	-0.126
-563.558	-80.424	0.177	-0.060
-562.544	127.438	0.267	0.341
-561.529	-64.600	0.211	-0.086
-560.515	38.209	-0.216	0.193
-559.500	27.146	0.144	-0.121
-558.485	67.506	0.086	0.088
-557.471	508.716	-0.206	-0.482
-556.456	-154.547	-0.302	0.020
-555.442	41.117	-0.161	-0.146
-554.427	-200.000	0.002	-0.373
-553.412	-136.553	0.209	-0.024
-552.398	128.334	-0.063	-0.081
-551.383	-200.000	0.017	0.245
-550.369	-102.488	0.508	-0.122
-549.354	303.435	-0.050	-0.093
-548.339	530.521	-0.105	0.249
-547.325	113.472	0.182	0.222
-546.310	-116.543	0.192	-0.036
-545.296	547.286	-0.021	-0.051
-544.281	146.957	0.140	0.189
-543.266	405.217	0.143	0.304
-542.252	210.061	-0.176	0.277
-541.237	800.000	0.077	-0.215
-540.223	216.131	0.112	-0.179
-539.208	275.800	0.099	0.177
-538.193	312.582	0.008	-0.016
-537.179	-78.357	0.333	0.115
-536.164	-200.000	0.008	-0.221
-535.150	293.442	0.086	0.158
-534.135	-74.855	-0.141	0.051
-533.121	-200.000	0.002	0.182
-532.106	51.452	0.074	-0.070
-531.091	-125.395	-0.290	0.044
-530.077	-40.900	-0.269	0.140
-529.062	-200.000	0.012	0.075
-528.048	-5.671	0.164	0.113
-527.033	-66.913	-0.196	0.078
-526.018	-41.213	0.119	0.062
-525.004	-200.000	-0.089	0.509
-523.989	-200.000	-0.038	-0.231
-522.975	494.460	0.026	-0.061
-521.960	725.169	-0.153	0.411
-520.945	-15.868	0.104	-0.067
-519.931	-200.000	-0.048	0.275
-518.916	-141.106	-0.280	0.029
-517.902	-92.478	0.212	0.060
-516.887	578.698	-0.053	-0.129
-515.872	189.876	-0.163	-0.246
-514.858	237.119	-0.144	0.239
-513.843	279.332	0.104	0.187
-512.829	-152.824	-0.445	0.032
-511.814	-200.000	-0.004	-0.285
-510.799	-83.983	0.236	-0.075
-509.785	261.572	0.043	-0.075
-508.770	-53.036	-0.260	-0.120
-507.756	68.708	0.110	-0.114
-506.741	-200.000	0.057	0.417
-505.726	-103.783	-0.302	-0.071
-504.712	-34.791	0.169	-0.093
-503.697	36.613	0.164	-0.145
-502.683	-82.308	-0.319	-0.104
-501.668	212.202	0.176	0.278
-500.653	-200.000	-0.027	-0.163
-499.639	-129.229	-0.138	-0.019
-498.624	130.293	0.110	-0.142
-497.610	800.000	-0.039	0.168
-496.595	-111.443	-0.071	-0.014
-495.581	-200.000	-0.015	0.132
-494.566	-91.558	0.126	0.036
-493.551	-41.740	-0.069	0.035
-492.537	800.000	0.052	0.157
-491.522	-156.986	-0.139	0.009
-490.508	-200.000	0.034	0.213
-489.493	309.053	-0.184	0.346
-488.478	-200.000	-0.017	-0.224
-487.464	276.455	-0.149	0.266
-486.449	139.523	-0.056	0.074
-485.435	-32.211	-0.025	0.014
-484.420	649.683	0.032	-0.082
-483.405	242.465	0.097	-0.163
-482.391	-200.000	0.010	0.374
-481.376	-160.967	0.193	0.010
-480.362	83.450	0.095	0.104
-479.347	-85.125	-0.134	-0.042
-478.332	33.887	-0.141	0.123
-477.318	-200.000	-0.000	0.312
-476.303	-27.054	0.165	-0.096
-475.289	-107.586	-0.113	-0.025
-474.274	127.471	0.208	0.265
-473.259	-200.000	-0.009	0.302
-472.245	-147.811	-0.199	0.017
-471.230	74.869	0.119	0.126
-470.216	-200.000	-0.017	-0.141
-469.201	381.393	-0.059	0.122
-468.186	-67.598	-0.397	-0.156
-467.172	-14.371	0.186	-0.120
-466.157	36.277	0.291	-0.257
-465.143	-52.816	-0.268	-0.124
-464.128	489.085	-0.077	0.176
-463.113	-157.760	0.198	0.012
-462.099	-61.265	-0.164	-0.069
-461.084	-96.589	-0.346	0.091
-460.070	-113.830	0.219	-0.043
-459.055	191.273	-0.067	0.101
-458.040	10.578	-0.129	-0.098
-457.026	-82.071	-0.433	0.142
-456.011	256.611	-0.048	0.083
-454.997	428.447	-0.106	0.229
-453.982	-95.943	-0.317	0.085
-452.968	560.685	0.126	-0.306
-451.953	-200.000	0.049	0.380
-450.938	-139.032	0.096	-0.010
-449.924	-200.000	0.013	-0.426
-448.909	-30.344	0.155	0.088
-447.895	-117.921	-0.424	-0.076
-446.880	-50.594	0.406	0.192
-445.865	71.932	-0.048	0.050
-444.851	-200.000	0.052	-0.263
-443.836	163.089	-0.160	-0.225
-442.822	800.000	0.127	0.451
-441.807	98.101	-0.185	-0.213
-440.792	-92.089	-0.160	0.045
-439.778	-122.144	0.193	-0.032
-438.763	46.302	-0.130	-0.120
-437.749	-79.879	-0.372	-0.125
-436.734	-52.672	-0.171	-0.079
-435.719	-8.598	-0.121	-0.081
-434.705	-145.075	-0.182	-0.017
-433.690	-200.000	0.002	0.113
-432.676	800.000	0.100	0.351
-431.661	45.247	0.246	-0.227
-430.646	25.825	0.007	0.005
-429.632	259.661	-0.012	0.020
-428.617	8.983	-0.042	-0.032
-427.603	-119.871	-0.481	0.083
-426.588	271.269	-0.224	-0.395
-425.573	123.630	-0.264	0.332
-424.559	59.325	0.088	-0.087
-423.544	-79.190	0.152	-0.052
-422.530	33.348	-0.194	-0.168
-421.515	13.297	0.097	0.075
-420.500	170.185	0.194	-0.277
-419.486	-16.961	0.428	-0.270
-418.471	-200.000	-0.004	-0.150
-417.457	-83.379	0.063	-0.020
-416.442	-34.161	-0.098	-0.054
-415.428	-28.004	-0.238	-0.138
-414.413	-29.683	0.128	-0.073
-413.398	436.172	-0.188	0.408
-412.384	-79.820	-0.292	-0.098
-411.369	64.006	-0.330	-0.332
-410.355	-48.251	0.221	-0.106
-409.340	-176.032	0.007	-0.000
-408.325	-8.868	0.096	0.064
-407.311	439.814	0.077	-0.169
-406.296	-65.792	0.143	-0.057
-405.282	109.681	-0.118	-0.142
-404.267	-46.852	-0.102	0.050
-403.252	-146.482	-0.138	-0.012
-402.238	231.260	0.178	0.292
-401.223	-200.000	-0.018	0.288
-400.209	-26.011	0.090	0.053
-399.194	-14.270	0.190	-0.122
-398.179	-186.757	-0.133	0.002
-397.165	-73.263	-0.214	-0.078
-396.150	-39.824	0.097	-0.051
-395.136	800.000	-0.106	0.336
-394.121	739.955	0.134	-0.360
-393.106	-139.653	0.265	-0.028
-392.092	-72.856	0.084	-0.031
-391.077	-33.159	-0.456	0.253
-390.063	187.724	-0.166	-0.247
-389.048	78.569	0.067	0.071
-388.033	178.850	-0.052	-0.076
-387.019	-4.002	-0.362	0.251
-386.004	-132.448	-0.365	0.047
-384.990	-42.074	0.068	0.035
-383.975	181.185	-0.213	0.312
-382.960	-200.000	-0.051	-0.298
-381.946	-45.874	0.183	0.090
-380.931	475.182	-0.105	0.238
-379.917	800.000	0.028	-0.093
-378.902	150.298	0.107	-0.145
-377.888	-128.286	-0.248	-0.035
-376.873	25.329	0.028	-0.024
-375.858	-155.533	0.329	0.021
-374.844	800.000	-0.078	0.334
-373.829	-200.000	0.019	0.180
-372.815	-200.000	-0.008	-0.173
-371.800	50.814	-0.222	-0.210
-370.785	-200.000	0.007	0.115
-369.771	241.434	-0.029	0.048
-368.756	-200.000	0.054	0.265
-367.742	334.313	-0.055	-0.107
-366.727	-92.152	0.096	-0.027
-365.712	-4.972	-0.099	-0.068
-364.698	-200.000	0.004	-0.179
-363.683	31.919	0.209	0.180
-362.669	800.000	-0.109	-0.306
-361.654	-200.000	0.007	0.194
-360.639	-149.481	0.032	-0.003
-359.625	-117.456	0.433	-0.078
-358.610	800.000	0.071	-0.246
-357.596	-159.766	-0.420	-0.023
-356.581	234.723	0.079	0.130
-355.566	37.477	-0.228	0.202
-354.552	-82.596	0.221	-0.071
-353.537	-114.432	0.197	0.038
-352.523	-48.223	0.126	-0.061
-351.508	-200.000	0.269	-0.001
-350.493	34.913	-0.100	-0.088
-349.479	-4.804	0.231	0.159
-348.464	55.438	-0.149	0.144
-347.450	-129.811	0.263	-0.036
-346.435	-117.836	0.390	-0.070
-345.420	-200.000	0.042	0.394
-344.406	-135.699	0.083	-0.010
-343.391	-104.521	0.081	0.019
-342.377	22.304	0.374	0.305
-341.362	236.938	-0.227	0.376
-340.348	-16.595	0.279	0.176
-339.333	112.458	-0.126	-0.152
-338.318	800.000	0.056	-0.166
-337.304	471.832	0.007	-0.015
-336.289	-200.000	0.060	0.271
-335.275	-200.000	-0.025	0.294
-334.260	-68.694	0.095	0.037
-333.245	-12.828	0.225	0.146
-332.231	395.869	0.162	-0.337
-331.216	-143.551	0.168	0.016
-330.202	-18.805	0.264	-0.164
-329.187	522.464	0.096	0.224
-328.172	800.000	-0.014	0.051
-327.158	481.373	0.108	-0.243
-326.143	-200.000	0.039	0.225
-325.129	-31.320	-0.105	0.059
-324.114	-200.000	-0.013	0.070
-323.099	322.989	-0.116	-0.220
-322.085	43.864	-0.083	0.075
-321.070	114.860	0.212	0.257
-320.056	-45.058	-0.303	0.150
-319.041	-67.583	0.008	-0.003
-318.026	-45.188	-0.272	-0.135
-317.012	466.928	-0.043	0.096
-315.997	14.089	0.389	0.302
-314.983	203.498	-0.083	-0.127
-313.968	7.564	-0.110	0.082
-312.953	49.339	-0.131	0.123
-311.939	-200.000	0.078	0.435
-310.924	800.000	0.044	-0.137
-309.910	-122.092	-0.225	-0.037
-308.895	-128.152	-0.233	0.033
-307.880	800.000	0.065	-0.278
-306.866	-119.757	-0.165	0.028
-305.851	-25.966	0.107	0.063
-304.837	474.537	0.169	-0.381
-303.822	447.302	-0.056	-0.122
-302.807	-200.000	-0.021	0.355
-301.793	800.000	0.062	-0.240
-300.778	-200.000	0.035	0.233
-299.764	81.567	0.078	-0.084
-298.749	153.317	-0.187	-0.255
-297.735	800.000	-0.080	-0.303
-296.720	30.619	-0.181	0.154
-295.705	-200.000	-0.101	0.509
-294.691	-121.472	0.302	0.050
-293.676	78.568	0.301	-0.321
-292.662	65.145	0.017	0.017
-291.647	-2.550	0.202	0.140
-290.632	-118.896	0.090	0.016
-289.618	227.634	0.061	0.099
-288.603	-65.586	0.191	0.076
-287.589	-101.153	-0.200	0.049
-286.574	204.982	0.100	-0.154
-285.559	800.000	0.170	0.598
-284.545	257.035	0.097	-0.166
-283.530	371.566	0.036	0.073
-282.516	-97.550	-0.258	-0.067
-281.501	-200.000	0.001	-0.385
-280.486	148.252	-0.211	0.284
-279.472	-124.702	0.016	-0.002
-278.457	-158.141	0.085	0.005
-277.443	19.238	0.321	-0.257
-276.428	348.017	0.116	-0.227
-275.413	-25.378	-0.132	-0.078
-274.399	800.000	0.089	-0.317
-273.384	-136.472	0.240	0.028
-272.370	97.617	-0.180	-0.206
-271.355	-99.034	0.230	-0.058
-270.340	76.468	0.188	0.198
-269.326	95.691	0.224	-0.255
-268.311	800.000	0.042	-0.167
-267.297	611.241	0.078	-0.194
-266.282	494.706	0.110	0.251
-265.267	92.439	-0.081	-0.091
-264.253	-74.194	-0.477	-0.171
-263.238	1.444	-0.341	-0.244
-262.224	208.859	0.190	-0.295
-261.209	57.590	0.257	-0.250
-260.195	-177.758	-0.015	-0.000
-259.180	-77.123	-0.100	-0.035
-258.165	-200.000	-0.034	-0.387
-257.151	-95.280	0.550	-0.147
-256.136	1.296	-0.196	0.140
-255.122	620.780	0.152	-0.380
-254.107	-31.297	0.236	-0.132
-253.092	126.696	0.113	0.143
-252.078	-125.208	0.139	0.021
-251.063	-0.168	0.409	-0.290
-250.049	800.000	0.058	-0.163
-249.034	114.089	0.162	0.195
-248.019	320.816	0.124	-0.235
-247.005	-200.000	0.033	-0.166
-245.990	800.000	-0.072	-0.223
-244.976	81.869	-0.168	-0.181
-243.961	-169.830	0.281	0.010
-242.946	-69.233	0.261	0.100
-241.932	6.544	-0.164	-0.121
-240.917	-51.093	-0.050	0.023
-239.903	-17.054	-0.339	-0.213
-238.888	-42.088	0.244	0.124
-237.873	-121.462	-0.064	0.011
-236.859	87.300	-0.237	0.260
-235.844	-57.344	0.168	0.074
-234.830	800.000	0.092	-0.329
-233.815	-138.493	0.219	-0.024
-232.800	-101.026	0.172	-0.042
-231.786	-200.000	-0.016	0.308
-230.771	266.831	0.133	0.232
-229.757	-38.838	0.282	0.147
-228.742	-200.000	0.019	-0.272
-227.727	-108.686	0.108	0.023
-226.713	-200.000	0.066	0.000
-225.698	237.762	-0.082	0.136
-224.684	-200.000	-0.047	0.454
-223.669	-69.135	0.264	0.101
-222.655	-4.309	0.220	0.151
-221.640	800.000	0.074	0.290
-220.625	123.703	-0.128	-0.160
-219.611	-124.820	0.160	0.025
-218.596	-121.343	-0.197	0.033
-217.582	-9.555	0.155	-0.103
-216.567	406.161	0.193	0.405
-215.552	-120.461	-0.227	-0.038
-214.538	-175.573	-0.206	-0.006
-213.523	-70.897	0.095	-0.036
-212.509	427.275	-0.008	0.017
-211.494	48.298	0.195	0.181
-210.479	26.078	0.176	0.146
-209.465	800.000	-0.045	0.147
-208.450	-200.000	-0.056	-0.397
-207.436	-9.949	0.066	0.044
-206.421	60.751	-0.195	0.192
-205.406	-37.335	-0.305	0.162
-204.392	44.384	0.151	-0.138
-203.377	-200.000	-0.046	0.207
-202.363	15.375	-0.202	0.157
-201.348	800.000	0.076	0.270
-200.333	254.575	-0.144	-0.244
-199.319	15.274	-0.133	-0.103
-198.304	-151.153	0.126	-0.009
-197.290	-200.000	0.071	-0.350
-196.275	117.136	0.091	0.111
-195.260	154.055	0.034	0.046
-194.246	-200.000	-0.017	-0.077
-193.231	-115.163	0.334	-0.063
-192.217	-200.000	0.016	-0.253
-191.202	77.285	-0.194	-0.205
-190.187	22.102	-0.035	0.029
-189.173	-200.000	-0.008	0.060
-188.158	213.887	-0.273	-0.429
-187.144	502.939	0.108	-0.248
-186.129	-148.238	0.406	0.033
-185.114	27.156	0.143	0.119
-184.100	-181.462	0.217	-0.004
-183.085	-35.444	-0.107	-0.058
-182.071	429.970	0.144	-0.309
-181.056	-160.400	-0.085	-0.005
-180.042	-200.000	-0.004	0.081
-179.027	9.998	0.302	-0.227
-178.012	-81.891	-0.359	0.116
-176.998	-64.073	0.100	-0.040
-175.983	129.089	-0.074	0.093
-174.969	-185.267	-0.209	0.003
-173.954	-21.910	0.197	0.119
-172.939	6.076	-0.102	-0.075
-171.925	182.989	0.083	0.121
-170.910	800.000	-0.059	0.231
-169.896	-20.117	-0.224	0.137
-168.881	125.098	-0.080	0.100
-167.866	-164.362	-0.359	0.016
-166.852	800.000	0.084	0.362
-165.837	-96.106	0.224	0.059
-164.823	180.269	-0.002	0.003
-163.808	-200.000	-0.024	0.177
-162.793	580.254	-0.019	-0.047
-161.779	800.000	0.007	-0.024
-160.764	-200.000	0.011	0.089
-159.750	-200.000	-0.016	0.266
-158.735	-200.000	0.013	0.078
-157.720	-131.543	0.302	0.039
-156.706	-73.537	-0.232	-0.084
-155.691	-55.797	-0.199	-0.088
-154.677	283.267	0.083	-0.147
-153.662	800.000	-0.087	0.275
-152.647	63.717	-0.429	-0.427
-151.633	117.462	-0.202	-0.246
-150.618	-42.049	0.222	0.113
-149.604	782.829	0.037	0.101
-148.589	-95.189	-0.222	0.059
-147.574	-105.543	0.320	-0.072
-146.560	-31.035	0.205	0.115
-145.545	-9.584	0.036	-0.024
-144.531	800.000	0.106	0.398
-143.516	-200.000	-0.026	-0.204
-142.502	-45.273	-0.174	0.085
-141.487	-200.000	0.004	0.129
-140.472	-182.894	0.130	0.002
-139.458	-54.442	0.256	-0.115
-138.443	41.891	-0.288	-0.258
-137.429	-200.000	0.002	-0.026
-136.414	210.913	0.102	-0.159
-135.399	35.530	-0.240	-0.208
-134.385	800.000	0.040	0.114
-133.370	-70.123	0.176	0.066
-132.356	-76.723	-0.292	0.101
-131.341	-46.048	0.091	-0.045
-130.326	-77.914	0.238	-0.081
-129.312	19.503	-0.275	-0.219
-128.297	-200.000	-0.007	-0.462
-127.283	800.000	-0.108	-0.343
-126.268	171.597	0.113	0.160
-125.253	-200.000	-0.021	-0.210
-124.239	-200.000	-0.016	0.188
-123.224	-141.415	-0.141	-0.014
-122.210	66.710	-0.287	-0.289
-121.195	-166.205	0.311	0.013
