DTS Sentinel unit serial number:	SN413079Multiplexer serial number:	ORYXHardware model number:	OX4-SRSoftware version number:	ORYX F/W v4.00 Oryx Data Collector v3.7.2.0data status	okinstallation	princeton_trtdifferential loss correction	single-endedforward channel	channel 2reverse channel	N/Adate	2019/09/18time	11:27:35forward acquisition time	60.00reverse acquisition time	0.00gamma	496.2192k internal	0.2325k external	0.2325temperature offset calibration	0.9987default loss term (dB/km)	0.3790temperature slope calibration	1.0000multiplexer offset coefficient	1.0000multiplexer slope coefficient	1.0000fibre end	0.00T internal ref (°C)	30.31T ext. ref 1 (°C)	0.43T ext. ref 2 (°C)	28.23length (m)	temperature (°C)	Stokes	anti-Stokes-747.200	-151.451	0.274	0.021
-746.185	-147.302	-0.127	-0.011
-745.171	128.102	-0.149	0.191
-744.156	390.345	0.070	0.146
-743.142	-200.000	-0.003	-0.127
-742.127	323.146	-0.154	-0.297
-741.112	25.954	-0.018	0.015
-740.098	-68.879	0.096	-0.037
-739.083	-23.442	-0.290	-0.176
-738.069	333.934	0.069	0.135
-737.054	92.754	-0.119	-0.135
-736.039	-39.205	-0.166	0.088
-735.025	-200.000	-0.044	-0.248
-734.010	715.424	-0.143	-0.382
-732.996	302.742	-0.088	-0.165
-731.981	-159.725	-0.209	0.012
-730.966	-200.000	-0.021	-0.246
-729.952	-10.559	0.135	-0.090
-728.937	800.000	0.084	-0.234
-727.923	-47.162	-0.362	-0.178
-726.908	800.000	0.030	-0.123
-725.894	447.253	-0.044	-0.097
-724.879	-107.285	-0.319	0.071
-723.864	-106.773	-0.124	0.028
-722.850	-58.026	-0.160	-0.070
-721.835	-45.921	-0.091	0.045
-720.821	228.048	0.096	-0.157
-719.806	3.128	0.213	0.156
-718.791	-200.000	-0.060	0.337
-717.777	-200.000	-0.018	-0.092
-716.762	95.868	-0.152	-0.175
-715.748	-200.000	0.025	-0.110
-714.733	57.964	0.233	-0.229
-713.718	-104.635	0.386	-0.090
-712.704	11.383	0.159	-0.123
-711.689	-200.000	-0.062	-0.437
-710.675	-57.164	-0.143	-0.063
-709.660	215.915	-0.128	-0.204
-708.645	458.931	0.144	-0.323
-707.631	0.475	-0.071	0.051
-706.616	79.751	-0.192	0.208
-705.602	35.516	-0.209	0.185
-704.587	-139.566	0.395	0.042
-703.572	-135.755	0.037	-0.004
-702.558	30.202	0.204	-0.176
-701.543	65.334	-0.161	0.164
-700.529	-21.617	0.166	-0.102
-699.514	800.000	0.079	0.242
-698.499	800.000	-0.060	-0.257
-697.485	-39.638	-0.459	0.242
-696.470	458.892	-0.062	-0.138
-695.456	144.168	-0.218	0.292
-694.441	45.651	-0.175	0.163
-693.426	87.677	0.117	0.130
-692.412	-200.000	-0.018	0.112
-691.397	800.000	-0.018	0.079
-690.383	-34.160	0.158	-0.087
-689.368	-49.527	0.164	0.079
-688.354	684.568	-0.084	0.221
-687.339	169.372	0.031	0.044
-686.324	800.000	-0.103	-0.394
-685.310	-200.000	-0.024	-0.225
-684.295	-108.344	-0.186	-0.040
-683.281	-200.000	-0.049	-0.239
-682.266	-103.883	-0.374	0.088
-681.251	-61.199	0.033	0.014
-680.237	-129.046	0.246	0.035
-679.222	191.566	-0.252	-0.383
-678.208	59.667	0.205	-0.204
-677.193	-21.970	-0.158	0.096
-676.178	-200.000	-0.014	0.084
-675.164	67.606	0.099	0.102
-674.149	455.460	-0.094	0.210
-673.135	800.000	0.083	-0.282
-672.120	-148.953	-0.170	0.014
-671.105	-67.341	0.156	0.062
-670.091	0.169	-0.222	0.160
-669.076	-200.000	-0.003	0.042
-668.062	442.388	0.154	-0.339
-667.047	4.764	0.011	0.008
-666.032	-73.109	-0.165	-0.061
-665.018	-24.657	0.097	0.058
-664.003	-99.258	-0.279	0.071
-662.989	-131.127	-0.041	-0.005
-661.974	0.465	0.090	-0.064
-660.959	9.678	-0.033	-0.025
-659.945	9.273	-0.104	0.079
-658.930	363.889	0.065	-0.132
-657.916	-177.823	-0.338	0.008
-656.901	-61.523	0.024	-0.010
-655.886	-130.447	0.143	0.019
-654.872	101.100	-0.170	0.199
-653.857	290.872	0.100	-0.182
-652.843	378.288	-0.177	-0.364
-651.828	-127.039	-0.447	0.066
-650.814	504.078	0.083	-0.192
-649.799	-200.000	0.013	-0.088
-648.784	-88.283	0.140	-0.042
-647.770	-160.557	-0.357	-0.019
-646.755	-200.000	-0.032	0.152
-645.741	568.413	0.153	0.374
-644.726	51.244	0.040	0.038
-643.711	17.360	0.078	0.062
-642.697	-90.909	-0.137	-0.040
-641.682	276.677	-0.029	0.051
-640.668	415.701	0.103	-0.220
-639.653	175.864	0.139	0.203
-638.638	152.899	0.111	0.153
-637.624	285.979	-0.107	-0.194
-636.609	95.518	-0.183	0.209
-635.595	-200.000	0.016	0.149
-634.580	-18.510	-0.162	-0.102
-633.565	-200.000	0.036	0.202
-632.551	-200.000	-0.012	-0.463
-631.536	106.805	-0.085	-0.101
-630.522	-59.090	0.032	0.014
-629.507	84.111	0.147	-0.161
-628.492	800.000	0.033	-0.099
-627.478	25.170	-0.243	0.203
-626.463	-115.739	-0.146	-0.027
-625.449	-93.242	-0.239	-0.067
-624.434	-200.000	-0.049	0.279
-623.419	-21.577	0.117	0.071
-622.405	-200.000	-0.014	-0.110
-621.390	-27.445	-0.085	0.050
-620.376	-200.000	-0.000	0.125
-619.361	-54.726	-0.186	-0.084
-618.346	41.839	-0.160	-0.145
-617.332	52.171	0.197	-0.188
-616.317	-200.000	-0.002	-0.052
-615.303	-200.000	0.012	-0.064
-614.288	63.790	0.202	-0.203
-613.273	-35.272	0.322	-0.176
-612.259	324.225	-0.136	0.261
-611.244	-105.349	-0.034	0.008
-610.230	-134.316	-0.225	0.028
-609.215	225.129	-0.105	0.170
-608.201	346.355	-0.197	0.389
-607.186	34.943	0.170	0.149
-606.171	-86.440	0.157	0.048
-605.157	800.000	-0.038	-0.109
-604.142	-16.197	-0.302	-0.193
-603.128	234.677	-0.082	-0.135
-602.113	148.803	0.103	-0.140
-601.098	416.792	-0.067	0.143
-600.084	800.000	0.155	-0.428
-599.069	-104.091	0.229	0.053
-598.055	-152.371	-0.129	-0.009
-597.040	-106.819	0.269	-0.060
-596.025	682.339	0.099	-0.259
-595.011	303.489	0.059	0.109
-593.996	-127.910	0.300	-0.043
-592.982	140.908	-0.119	0.158
-591.967	-200.000	-0.003	-0.021
-590.952	800.000	0.072	0.286
-589.938	105.208	0.076	0.090
-588.923	97.380	-0.226	-0.261
-587.909	266.472	0.065	0.114
-586.894	12.440	0.179	0.139
-585.879	-200.000	0.014	-0.240
-584.865	-65.736	-0.374	0.150
-583.850	-61.054	-0.225	-0.095
-582.836	800.000	0.126	-0.351
-581.821	-200.000	-0.048	-0.401
-580.806	-41.238	0.176	0.091
-579.792	161.580	-0.234	0.328
-578.777	-55.507	0.218	0.098
-577.763	-72.236	-0.248	-0.092
-576.748	-200.000	-0.001	-0.365
-575.733	-29.998	0.122	0.070
-574.719	67.001	-0.055	-0.056
-573.704	-26.548	-0.214	0.126
-572.690	231.731	-0.139	0.229
-571.675	-43.917	-0.204	-0.103
-570.661	303.395	0.059	-0.109
-569.646	-200.000	-0.039	0.243
-568.631	800.000	0.103	0.364
-567.617	16.115	-0.190	-0.150
-566.602	21.618	-0.457	-0.373
-565.588	398.403	0.067	-0.140
-564.573	-106.579	0.232	0.052
-563.558	41.375	0.102	-0.092
-562.544	15.858	-0.286	-0.225
-561.529	-200.000	0.001	0.212
-560.515	142.226	0.325	-0.432
-559.500	-200.000	-0.110	0.483
-558.485	753.365	-0.097	0.263
-557.471	171.492	-0.094	-0.135
-556.456	199.993	-0.278	0.428
-555.442	-176.600	0.188	-0.005
-554.427	53.869	0.188	0.181
-553.412	-30.182	0.125	-0.071
-552.398	349.781	0.183	0.362
-551.383	-200.000	-0.013	0.384
-550.369	800.000	-0.038	0.124
-549.354	10.117	-0.222	-0.169
-548.339	24.506	0.252	-0.209
-547.325	-125.239	-0.082	-0.013
-546.310	800.000	0.043	-0.191
-545.296	553.610	-0.082	-0.198
-544.281	800.000	0.061	0.224
-543.266	108.940	0.111	0.133
-542.252	-10.510	0.163	-0.108
-541.237	-19.184	0.191	-0.119
-540.223	13.600	-0.313	0.243
-539.208	-200.000	-0.006	0.283
-538.193	-200.000	0.025	-0.195
-537.179	-96.029	-0.135	-0.036
-536.164	-200.000	-0.024	-0.161
-535.150	800.000	0.137	-0.450
-534.135	79.809	0.113	-0.122
-533.121	357.919	0.077	0.154
-532.106	419.330	-0.061	0.130
-531.091	150.789	-0.227	0.308
-530.077	178.283	-0.327	0.478
-529.062	-90.673	-0.057	-0.017
-528.048	-79.225	-0.257	-0.087
-527.033	-138.860	-0.284	0.031
-526.018	-109.852	-0.110	-0.023
-525.004	-114.695	0.259	0.050
-523.989	-200.000	-0.005	0.086
-522.975	-72.074	0.189	-0.070
-521.960	-44.590	-0.100	-0.050
-520.945	63.246	-0.090	-0.090
-519.931	800.000	0.060	0.213
-518.916	-191.703	-0.368	-0.004
-517.902	94.471	-0.394	-0.447
-516.887	-9.672	-0.129	0.086
-515.872	36.208	0.065	0.057
-514.858	59.504	-0.225	0.222
-513.843	800.000	0.078	0.236
-512.829	800.000	-0.093	0.269
-511.814	39.139	0.102	-0.092
-510.799	800.000	-0.105	-0.370
-509.785	44.526	0.301	-0.277
-508.770	66.242	0.064	0.065
-507.756	-200.000	-0.016	0.151
-506.741	-200.000	0.000	-0.130
-505.726	-61.157	-0.108	-0.046
-504.712	22.002	-0.076	0.062
-503.697	63.594	-0.171	-0.172
-502.683	-110.126	0.047	-0.010
-501.668	-132.052	0.106	-0.014
-500.653	289.737	-0.132	0.239
-499.639	-140.743	0.022	-0.002
-498.624	434.151	0.037	0.080
-497.610	145.040	-0.211	0.282
-496.595	-167.339	0.050	-0.002
-495.581	800.000	0.026	-0.097
-494.566	110.216	-0.094	-0.113
-493.551	126.523	-0.089	0.113
-492.537	-112.116	-0.124	-0.025
-491.522	-35.200	-0.353	0.192
-490.508	-111.178	0.402	-0.082
-489.493	412.234	0.086	0.181
-488.478	-4.159	-0.170	-0.118
-487.464	44.586	0.049	-0.045
-486.449	-58.107	0.169	-0.074
-485.435	-65.262	0.300	0.121
-484.420	-200.000	0.048	0.456
-483.405	-200.000	0.015	-0.098
-482.391	-195.585	-0.580	0.004
-481.376	-81.269	0.114	0.038
-480.362	800.000	0.117	-0.342
-479.347	78.498	0.074	0.078
-478.332	-200.000	0.040	0.269
-477.318	128.240	0.256	-0.326
-476.303	161.661	0.147	-0.205
-475.289	-4.241	0.089	-0.062
-474.274	153.914	0.026	0.036
-473.259	-62.786	-0.447	0.185
-472.245	-148.041	-0.062	-0.005
-471.230	-200.000	-0.004	-0.422
-470.216	247.474	0.127	-0.213
-469.201	-72.233	-0.216	0.080
-468.186	191.536	-0.291	-0.438
-467.172	37.969	-0.124	-0.110
-466.157	15.581	0.149	0.117
-465.143	27.640	0.062	0.052
-464.128	-26.694	0.309	0.180
-463.113	-100.160	-0.549	-0.136
-462.099	-47.618	0.256	-0.124
-461.084	-165.022	-0.224	-0.010
-460.070	112.812	0.154	-0.186
-459.055	-200.000	-0.028	-0.267
-458.040	595.776	0.082	-0.203
-457.026	29.212	-0.452	0.383
-456.011	348.285	-0.102	0.201
-454.997	289.931	-0.068	-0.124
-453.982	-109.238	-0.202	-0.043
-452.968	-200.000	0.075	-0.393
-451.953	-73.203	0.128	-0.047
-450.938	482.060	-0.036	-0.081
-449.924	-200.000	0.007	-0.140
-448.909	139.032	-0.166	0.217
-447.895	-200.000	-0.022	0.303
-446.880	-185.600	-0.050	0.001
-445.865	62.324	0.178	-0.177
-444.851	196.280	0.054	-0.082
-443.836	283.410	-0.151	-0.270
-442.822	-73.906	0.145	0.053
-441.807	-137.501	0.098	-0.011
-440.792	800.000	-0.094	0.264
-439.778	454.764	-0.046	0.102
-438.763	-200.000	0.049	-0.311
-437.749	503.117	-0.098	0.226
-436.734	-37.111	-0.410	0.219
-435.719	-8.935	-0.208	-0.139
-434.705	-134.450	0.196	-0.024
-433.690	-40.767	0.151	0.078
-432.676	-162.012	-0.053	0.003
-431.661	-91.414	-0.083	0.024
-430.646	83.260	-0.177	-0.193
-429.632	642.003	-0.039	0.100
-428.617	111.302	-0.057	-0.068
-427.603	-138.164	0.150	0.017
-426.588	-130.300	-0.325	0.044
-425.573	5.976	0.059	0.043
-424.559	-5.409	0.320	-0.219
-423.544	-161.543	0.213	0.011
-422.530	800.000	-0.060	0.231
-421.515	-19.586	0.338	-0.209
-420.500	-200.000	-0.024	-0.528
-419.486	254.121	-0.049	0.083
-418.471	-116.693	0.151	-0.028
-417.457	486.050	0.060	-0.136
-416.442	-4.802	0.049	-0.034
-415.428	-40.833	-0.148	-0.076
-414.413	800.000	-0.065	-0.195
-413.398	-11.742	0.377	0.246
-412.384	108.938	0.159	0.189
-411.369	-104.598	0.007	-0.002
-410.355	16.955	-0.152	0.120
-409.340	-200.000	-0.037	0.243
-408.325	-200.000	-0.014	0.435
-407.311	-15.300	-0.336	-0.214
-406.296	-200.000	0.022	0.408
-405.282	-58.112	0.159	0.069
-404.267	-200.000	0.037	-0.282
-403.252	-200.000	0.008	0.049
-402.238	446.662	-0.087	-0.190
-401.223	-15.685	0.215	0.137
-400.209	214.970	-0.054	0.085
-399.194	-86.866	0.229	-0.070
-398.179	-83.455	0.331	-0.106
-397.165	-200.000	-0.017	0.132
-396.150	48.300	0.095	0.089
-395.136	-200.000	-0.005	-0.027
-394.121	234.465	-0.151	0.248
-393.106	-100.990	0.242	-0.059
-392.092	-95.106	0.213	-0.057
-391.077	-11.030	0.072	0.047
-390.063	156.726	-0.064	-0.088
-389.048	-200.000	0.001	-0.128
-388.033	14.578	0.043	0.034
-387.019	38.428	0.087	-0.077
-386.004	377.590	-0.083	0.170
-384.990	106.908	0.172	0.204
-383.975	-200.000	-0.009	0.282
-382.960	-86.990	-0.029	0.009
-381.946	-90.188	0.095	0.028
-380.931	308.806	-0.035	-0.065
-379.917	105.583	0.086	-0.101
-378.902	-200.000	-0.020	-0.175
-377.888	422.169	0.041	-0.087
-376.873	284.883	-0.032	-0.057
-375.858	-200.000	0.004	-0.318
-374.844	-75.754	-0.241	-0.085
-373.829	63.715	0.236	-0.236
-372.815	97.023	0.244	0.278
-371.800	-101.822	0.240	0.058
-370.785	75.171	-0.156	-0.163
-369.771	-200.000	-0.003	-0.040
-368.756	-200.000	-0.031	-0.222
-367.742	378.435	-0.060	0.123
-366.727	-78.420	-0.078	-0.027
-365.712	-68.023	-0.216	-0.084
-364.698	-160.770	0.196	0.010
-363.683	-18.371	0.181	-0.113
-362.669	-40.727	-0.104	-0.054
-361.654	-200.000	0.006	-0.310
-360.639	-95.570	0.130	-0.035
-359.625	800.000	-0.054	0.192
-358.610	100.687	0.097	0.112
-357.596	-200.000	0.007	-0.344
-356.581	-89.443	0.039	0.012
-355.566	-200.000	-0.014	0.066
-354.552	-42.510	0.173	0.088
-353.537	-200.000	0.023	-0.312
-352.523	-74.110	-0.218	-0.078
-351.508	800.000	-0.038	0.145
-350.493	16.943	-0.205	-0.162
-349.479	-145.735	-0.302	-0.027
-348.464	-131.541	0.074	0.010
-347.450	-107.010	0.133	-0.029
-346.435	237.302	-0.105	0.173
-345.420	-16.675	0.304	-0.191
-344.406	-66.790	0.230	-0.090
-343.391	-114.465	-0.320	0.061
-342.377	28.729	0.097	0.081
-341.362	800.000	0.082	0.249
-340.348	800.000	0.041	0.158
-339.333	178.527	0.088	-0.128
-338.318	-200.000	-0.002	-0.099
-337.304	-200.000	-0.001	-0.069
-336.289	123.142	-0.350	-0.435
-335.275	-200.000	0.001	0.052
-334.260	-192.766	0.173	-0.002
-333.245	55.794	-0.159	-0.153
-332.231	748.845	-0.062	0.167
-331.216	90.601	-0.150	0.167
-330.202	-92.704	0.303	0.084
-329.187	88.978	0.236	-0.261
-328.172	6.972	0.293	-0.217
-327.158	-46.369	-0.176	-0.086
-326.143	-84.543	0.213	0.067
-325.129	16.774	0.210	0.165
-324.114	-72.091	0.220	-0.081
-323.099	14.124	0.020	0.016
-322.085	148.287	-0.310	0.415
-321.070	218.866	0.247	-0.392
-320.056	-46.509	0.107	-0.052
-319.041	0.423	0.150	-0.107
-318.026	-108.806	0.249	0.053
-317.012	0.486	-0.190	-0.135
-315.997	800.000	0.024	-0.072
-314.983	-170.052	0.160	-0.006
-313.968	-200.000	-0.064	-0.317
-312.953	104.245	0.262	-0.306
-311.939	786.924	-0.166	0.452
-310.924	-200.000	-0.005	0.268
-309.910	8.162	0.234	-0.174
-308.895	-87.663	-0.225	0.067
-307.880	59.962	0.194	-0.190
-306.866	395.213	-0.071	0.147
-305.851	172.329	-0.279	0.399
-304.837	274.808	-0.078	0.136
-303.822	-200.000	0.101	-0.000
-302.807	-116.841	-0.156	-0.028
-301.793	-37.095	0.368	-0.195
-300.778	-63.155	-0.073	0.030
-299.764	-200.000	-0.038	0.328
-298.749	197.579	-0.168	-0.254
-297.735	18.593	0.259	0.205
-296.720	379.217	-0.210	0.427
-295.705	166.340	-0.137	0.193
-294.691	-12.895	0.132	-0.085
-293.676	800.000	0.047	0.139
-292.662	85.276	-0.110	-0.119
-291.647	35.798	0.318	0.277
-290.632	-148.843	-0.235	-0.019
-289.618	39.574	0.107	-0.095
-288.603	0.166	0.005	-0.004
-287.589	800.000	0.012	0.043
-286.574	179.970	-0.274	-0.398
-285.559	-59.522	0.201	-0.086
-284.545	800.000	0.030	0.092
-283.530	-115.660	-0.036	-0.007
-282.516	-74.959	0.061	-0.022
-281.501	800.000	0.033	-0.132
-280.486	436.719	0.046	0.100
-279.472	435.138	-0.141	-0.303
-278.457	800.000	-0.025	0.102
-277.443	-32.254	0.094	-0.052
-276.428	-122.128	0.465	-0.075
-275.413	132.323	0.073	-0.094
-274.399	-55.265	0.254	0.113
-273.384	-84.141	-0.076	-0.024
-272.370	592.125	-0.052	-0.126
-271.355	0.378	0.132	0.093
-270.340	41.268	-0.067	0.060
-269.326	-71.546	0.220	-0.081
-268.311	334.422	0.066	0.127
-267.297	15.344	0.093	-0.072
-266.282	-49.533	0.199	-0.094
-265.267	-200.000	-0.003	0.072
-264.253	800.000	0.032	0.114
-263.238	320.347	-0.084	0.158
-262.224	-129.375	-0.125	-0.017
-261.209	-21.971	-0.185	0.111
-260.195	-26.413	0.299	0.173
-259.180	534.449	-0.139	0.327
-258.165	-123.570	0.148	0.023
-257.151	800.000	0.034	-0.130
-256.136	-73.953	-0.231	-0.083
-255.122	144.591	0.076	-0.101
-254.107	-97.841	0.109	-0.028
-253.092	18.626	0.159	0.126
-252.078	-168.431	-0.200	0.008
-251.063	51.712	-0.194	-0.182
-250.049	800.000	0.053	-0.204
-249.034	645.466	-0.067	-0.170
-248.019	437.722	-0.150	-0.323
-247.005	13.886	-0.202	0.156
-245.990	133.621	0.172	0.221
-244.976	-88.824	0.358	0.105
-243.961	-125.022	0.061	-0.009
-242.946	-82.370	-0.071	0.023
-241.932	282.882	0.016	0.028
-240.917	-200.000	0.018	-0.229
-239.903	260.963	0.153	-0.262
-238.888	-67.588	0.062	0.024
-237.873	17.152	-0.332	0.261
-236.859	-99.192	-0.108	-0.027
-235.844	-135.308	0.270	0.032
-234.830	-83.615	-0.308	-0.098
-233.815	-93.785	0.282	-0.077
-232.800	298.522	-0.163	-0.296
-231.786	800.000	0.063	-0.266
-230.771	30.124	-0.235	0.198
-229.757	-5.838	-0.346	0.234
-228.742	132.791	0.198	0.253
-227.727	-200.000	-0.008	-0.218
-226.713	205.047	-0.207	-0.318
-225.698	360.032	-0.126	0.248
-224.684	-45.540	0.256	-0.125
-223.669	-200.000	-0.052	0.370
-222.655	7.561	0.200	-0.148
-221.640	7.621	0.397	-0.294
-220.625	-200.000	0.036	-0.264
-219.611	18.999	0.034	-0.027
-218.596	48.268	-0.007	0.007
-217.582	-89.101	0.169	0.049
-216.567	697.735	-0.030	0.078
-215.552	-165.385	0.123	-0.005
-214.538	-200.000	-0.013	-0.067
-213.523	-140.799	-0.096	0.010
-212.509	27.236	0.255	0.211
-211.494	617.137	0.052	0.130
-210.479	800.000	-0.075	0.232
-209.465	-22.063	0.390	0.234
-208.450	255.150	0.046	0.077
-207.436	-109.557	-0.325	-0.068
-206.421	22.385	0.154	-0.124
-205.406	-52.417	0.142	-0.065
-204.392	4.756	-0.510	0.370
-203.377	-200.000	0.052	0.314
-202.363	281.006	0.059	0.104
-201.348	-119.861	0.272	0.046
-200.333	-175.815	-0.458	-0.012
-199.319	341.472	-0.201	-0.387
-198.304	-200.000	-0.023	0.103
-197.290	16.300	-0.111	-0.087
-196.275	136.651	-0.162	-0.209
-195.260	-100.888	-0.250	0.061
-194.246	-172.221	0.297	0.009
-193.231	229.611	-0.019	-0.030
-192.217	-107.302	-0.146	0.032
-191.202	699.155	0.139	0.361
-190.187	-150.284	-0.202	0.015
-189.173	-200.000	0.014	-0.161
-188.158	-115.517	-0.340	-0.063
-187.144	60.301	0.209	0.204
-186.129	-27.582	0.143	-0.082
-185.114	-64.845	0.104	-0.042
-184.100	-79.314	-0.079	-0.027
-183.085	-200.000	0.038	-0.191
-182.071	-195.144	-0.270	-0.002
-181.056	161.803	0.251	0.346
-180.042	84.978	-0.061	0.066
-179.027	171.342	-0.061	-0.087
-178.012	-200.000	0.042	0.209
-176.998	-50.746	0.189	0.088
-175.983	78.709	0.211	0.223
-174.969	-38.101	0.318	-0.167
-173.954	-200.000	-0.001	-0.206
-172.939	139.307	-0.145	-0.189
-171.925	47.859	-0.167	0.154
-170.910	800.000	-0.057	0.178
-169.896	201.179	0.078	-0.118
-168.881	800.000	0.060	0.251
-167.866	135.362	-0.254	-0.326
-166.852	-68.677	-0.216	0.082
-165.837	-115.974	-0.273	-0.050
-164.823	300.318	-0.106	0.193
-163.808	800.000	-0.062	0.190
-162.793	632.279	0.060	-0.151
-161.779	-52.594	0.145	-0.066
-160.764	-165.102	-0.136	-0.006
-159.750	800.000	-0.112	0.308
-158.735	-182.132	0.145	0.003
-157.720	-58.105	0.254	0.109
-156.706	56.863	0.127	0.122
-155.691	46.171	0.198	-0.181
-154.677	311.198	-0.032	0.060
-153.662	105.782	-0.265	0.309
-152.647	641.008	0.032	-0.081
-151.633	155.984	0.039	0.054
-150.618	-58.216	0.293	-0.126
-149.604	170.527	0.125	-0.176
-148.589	-165.676	0.265	0.011
-147.574	-171.846	0.242	0.008
-146.560	-8.956	0.142	0.093
-145.545	-33.425	-0.248	-0.135
-144.531	274.353	0.193	0.337
-143.516	54.175	0.133	-0.126
-142.502	-200.000	-0.022	0.113
-141.487	-15.400	-0.166	0.104
-140.472	800.000	0.047	0.142
-139.458	5.765	-0.284	-0.207
-138.443	242.811	0.026	-0.043
-137.429	-149.481	-0.526	0.041
-136.414	-65.316	0.085	-0.034
-135.399	-14.587	-0.021	0.013
-134.385	-115.623	-0.117	-0.022
-133.370	77.836	-0.222	-0.233
-132.356	-200.000	0.079	0.396
-131.341	-60.045	0.204	-0.086
-130.326	-141.509	-0.018	-0.002
-129.312	51.696	0.109	-0.102
-128.297	-200.000	-0.002	-0.026
-127.283	85.585	-0.333	0.361
-126.268	527.722	0.087	-0.201
-125.253	292.626	-0.239	-0.429
-124.239	-200.000	0.023	0.139
-123.224	42.548	0.283	-0.254
-122.210	-46.681	-0.139	-0.067
-121.195	291.248	0.029	-0.051
