DTS Sentinel unit serial number:	SN413079Multiplexer serial number:	ORYXHardware model number:	OX4-SRSoftware version number:	ORYX F/W v4.00 Oryx Data Collector v3.7.2.0data status	okinstallation	princeton_trtdifferential loss correction	single-endedforward channel	channel 2reverse channel	N/Adate	2019/09/12time	19:29:48forward acquisition time	15.00reverse acquisition time	0.00gamma	496.2192k internal	0.2326k external	0.2326temperature offset calibration	1.0155default loss term (dB/km)	0.3790temperature slope calibration	1.0000multiplexer offset coefficient	1.0000multiplexer slope coefficient	1.0000fibre end	0.00T internal ref (°C)	32.25T ext. ref 1 (°C)	3.31T ext. ref 2 (°C)	26.77length (m)	temperature (°C)	Stokes	anti-Stokes-747.200	3.822	-0.485	-0.357
-746.185	1.865	-1.298	-0.944
-745.171	-57.265	0.443	-0.196
-744.156	-128.455	-0.308	-0.044
-743.142	-2.879	0.359	0.253
-742.127	-200.000	0.071	0.868
-741.112	800.000	0.146	0.560
-740.098	42.941	0.079	-0.073
-739.083	-167.465	-1.088	-0.044
-738.069	-64.825	0.622	0.254
-737.054	509.824	0.123	0.288
-736.039	-200.000	-0.048	0.413
-735.025	526.454	0.283	0.672
-734.010	-66.127	-0.201	-0.081
-732.996	-11.338	0.665	0.441
-731.981	31.673	0.296	0.257
-730.966	-85.007	-0.665	0.210
-729.952	-200.000	0.005	-0.272
-728.937	800.000	-0.066	0.229
-727.923	-155.571	-0.672	0.044
-726.908	7.570	0.833	0.628
-725.894	459.308	0.173	-0.389
-724.879	-119.988	-1.249	-0.216
-723.864	136.110	0.047	0.062
-722.850	-102.294	-0.152	-0.037
-721.835	-42.916	0.736	-0.377
-720.821	-18.394	-0.047	0.029
-719.806	-142.146	0.186	-0.019
-718.791	156.303	-0.239	0.333
-717.777	201.676	0.122	-0.189
-716.762	162.557	-0.435	-0.615
-715.748	800.000	-0.183	0.539
-714.733	273.392	0.276	-0.491
-713.718	-200.000	-0.011	-0.743
-712.704	-24.672	0.292	0.175
-711.689	105.335	-0.473	0.563
-710.675	-128.058	0.092	0.013
-709.660	66.955	0.298	-0.306
-708.645	710.289	0.021	0.055
-707.631	-32.125	0.264	0.149
-706.616	-200.000	0.032	0.260
-705.602	24.820	-0.366	0.306
-704.587	187.255	0.407	-0.611
-703.572	-194.772	-0.494	-0.004
-702.558	2.465	-0.426	-0.311
-701.543	-109.509	-0.862	-0.183
-700.529	-115.290	-0.210	0.040
-699.514	190.699	0.375	-0.567
-698.499	-89.910	-0.316	0.093
-697.485	216.353	-0.180	-0.288
-696.470	-20.815	-0.259	-0.160
-695.456	-156.085	-0.728	0.046
-694.441	29.336	0.197	-0.169
-693.426	-200.000	0.028	0.264
-692.412	-13.406	0.495	-0.323
-691.397	-200.000	-0.193	-1.028
-690.383	-84.527	0.432	0.137
-689.368	-42.661	0.250	0.128
-688.354	-158.811	0.699	0.040
-687.339	0.908	-0.183	-0.132
-686.324	-104.954	-0.435	0.100
-685.310	800.000	0.220	-0.659
-684.295	-145.125	0.473	-0.043
-683.281	155.646	-0.224	0.310
-682.266	163.607	-0.445	-0.629
-681.251	-92.580	0.851	-0.240
-680.237	54.196	-0.256	-0.248
-679.222	-120.620	-0.661	0.113
-678.208	-200.000	0.069	-0.418
-677.193	-200.000	0.066	-0.645
-676.178	-136.227	-0.282	-0.033
-675.164	-99.037	0.833	0.213
-674.149	-61.448	0.611	0.258
-673.135	-37.953	0.924	-0.494
-672.120	-200.000	-0.046	0.271
-671.105	-42.621	-0.620	-0.318
-670.091	21.394	-0.614	-0.502
-669.076	52.159	0.428	0.411
-668.062	-177.140	0.183	0.005
-667.047	-19.437	-0.477	-0.297
-666.032	253.645	0.479	-0.823
-665.018	800.000	0.061	0.229
-664.003	-116.680	0.080	0.015
-662.989	80.417	0.372	-0.403
-661.974	20.618	-0.267	0.217
-660.959	-12.683	0.647	-0.424
-659.945	-200.000	-0.070	0.666
-658.930	157.505	0.085	-0.119
-657.916	145.273	-0.214	0.288
-656.901	-58.492	1.222	0.533
-655.886	2.169	-0.389	-0.282
-654.872	-54.309	-0.491	-0.224
-653.857	243.492	0.559	0.943
-652.843	50.213	-0.516	0.490
-651.828	-11.486	0.562	0.372
-650.814	-140.785	0.468	0.049
-649.799	17.344	0.454	0.363
-648.784	-159.930	0.472	0.026
-647.770	-57.262	0.371	0.164
-646.755	134.080	-0.209	0.273
-645.741	-1.543	0.319	-0.226
-644.726	-72.612	-0.792	0.294
-643.711	-33.969	0.471	0.261
-642.697	-177.494	1.291	0.032
-641.682	713.298	0.143	-0.381
-640.668	-200.000	-0.135	-0.832
-639.653	-160.446	0.445	0.024
-638.638	-200.000	0.043	0.347
-637.624	-200.000	-0.014	0.210
-636.609	-200.000	0.165	-0.897
-635.595	726.987	-0.350	-0.939
-634.580	-96.290	0.604	-0.161
-633.565	640.810	0.157	-0.402
-632.551	-136.090	-0.559	0.066
-631.536	800.000	0.130	-0.505
-630.522	-105.400	0.188	0.043
-629.507	12.918	-0.328	-0.255
-628.492	124.987	-0.491	-0.621
-627.478	104.966	-0.569	-0.674
-626.463	-96.523	0.367	0.097
-625.449	135.549	0.180	0.235
-624.434	-200.000	-0.065	0.473
-623.419	-200.000	-0.006	-0.423
-622.405	-190.535	0.543	-0.006
-621.390	-51.550	0.165	-0.077
-620.376	-200.000	-0.011	0.826
-619.361	149.109	0.115	-0.157
-618.346	-152.884	0.399	-0.028
-617.332	-67.861	0.810	-0.318
-616.317	-66.768	0.326	0.129
-615.303	-200.000	-0.068	-0.348
-614.288	800.000	-0.137	0.425
-613.273	402.860	0.292	0.616
-612.259	800.000	-0.045	0.180
-611.244	-47.597	-0.575	0.280
-610.230	409.224	0.117	-0.248
-609.215	-117.008	0.123	0.023
-608.201	716.148	-0.167	-0.445
-607.186	-200.000	-0.017	0.506
-606.171	-200.000	-0.056	-0.402
-605.157	54.802	0.304	0.294
-604.142	48.111	0.604	-0.567
-603.128	-89.571	-0.512	0.151
-602.113	-60.663	-0.666	-0.283
-601.098	157.868	-0.589	-0.819
-600.084	17.403	-0.441	0.351
-599.069	27.180	0.780	-0.657
-598.055	143.794	-0.435	-0.581
-597.040	-93.506	0.089	-0.025
-596.025	-200.000	-0.003	-0.499
-595.011	254.237	-0.107	-0.183
-593.996	6.303	0.066	0.049
-592.982	-86.139	0.468	0.145
-591.967	-19.815	0.426	-0.264
-590.952	155.282	-0.256	0.354
-589.938	64.736	0.230	-0.232
-588.923	177.498	0.540	0.789
-587.909	45.035	-0.463	-0.428
-586.894	80.376	0.416	-0.449
-585.879	-90.622	0.465	0.135
-584.865	800.000	0.038	0.150
-583.850	-116.103	0.461	0.086
-582.836	41.425	0.481	-0.436
-581.821	143.473	-0.063	0.084
-580.806	80.533	-0.170	0.183
-579.792	-62.793	0.676	0.281
-578.777	245.759	-0.174	0.294
-577.763	-200.000	-0.056	-0.251
-576.748	-154.927	0.321	-0.021
-575.733	-11.811	-0.129	0.085
-574.719	30.050	-0.200	-0.171
-573.704	-46.767	-0.708	0.347
-572.690	-104.308	-0.476	-0.111
-571.675	-0.003	-0.264	-0.188
-570.661	-200.000	-0.097	0.669
-569.646	-113.807	-0.126	0.025
-568.631	193.110	0.467	0.708
-567.617	-150.857	0.987	-0.075
-566.602	-116.417	-0.655	0.121
-565.588	-139.506	0.465	0.050
-564.573	194.356	-0.284	0.432
-563.558	-200.000	-0.050	-0.495
-562.544	90.163	-0.633	-0.709
-561.529	58.308	0.535	-0.525
-560.515	60.701	-0.469	-0.466
-559.500	-156.629	-0.590	-0.037
-558.485	800.000	-0.137	-0.403
-557.471	95.891	0.225	-0.257
-556.456	800.000	-0.063	-0.254
-555.442	-76.958	0.561	0.196
-554.427	48.710	0.578	0.542
-553.412	734.188	0.234	-0.628
-552.398	49.013	-0.333	-0.314
-551.383	-200.000	-0.113	1.103
-550.369	-74.819	0.691	0.248
-549.354	-114.916	-0.960	0.183
-548.339	223.115	-0.238	0.385
-547.325	-97.383	-0.809	-0.211
-546.310	-161.965	-0.681	0.034
-545.296	412.940	-0.155	-0.330
-544.281	-110.244	-0.671	-0.140
-543.266	-200.000	0.023	0.216
-542.252	128.051	-0.710	0.903
-541.237	15.197	0.234	-0.183
-540.223	210.361	0.514	0.807
-539.208	508.083	0.181	-0.421
-538.193	-200.000	0.150	-0.909
-537.179	-144.704	0.504	-0.046
-536.164	33.167	-0.212	-0.184
-535.150	-141.969	-1.554	-0.155
-534.135	-200.000	-0.004	0.383
-533.121	-89.820	0.466	0.136
-532.106	-69.109	-0.226	0.087
-531.091	-124.849	-0.895	-0.138
-530.077	-179.762	0.602	-0.013
-529.062	-29.049	0.282	0.162
-528.048	800.000	-0.154	0.628
-527.033	34.569	0.592	-0.517
-526.018	-148.254	0.176	0.015
-525.004	-151.619	-0.312	-0.023
-523.989	69.330	0.069	0.071
-522.975	-110.981	0.977	0.201
-521.960	-61.139	-0.325	0.137
-520.945	31.413	0.355	0.305
-519.931	800.000	-0.176	0.662
-518.916	-7.819	0.589	0.398
-517.902	-72.156	0.443	-0.164
-516.887	-200.000	-0.116	-0.588
-515.872	-127.333	0.180	0.026
-514.858	-16.599	-0.615	0.390
-513.843	55.077	-0.361	0.348
-512.829	-61.288	0.877	-0.369
-511.814	-200.000	0.049	-0.425
-510.799	706.608	0.019	0.050
-509.785	89.355	0.566	-0.631
-508.770	107.912	-0.087	-0.103
-507.756	-107.357	-0.190	0.042
-506.741	-3.751	-0.347	-0.241
-505.726	514.492	0.313	0.731
-504.712	-88.951	0.898	0.266
-503.697	-200.000	-0.058	0.470
-502.683	-72.500	0.698	0.258
-501.668	31.724	-0.456	-0.392
-500.653	137.081	0.456	0.596
-499.639	800.000	0.145	0.419
-498.624	-104.567	-0.406	0.094
-497.610	800.000	0.148	0.623
-496.595	348.106	0.240	-0.474
-495.581	-200.000	0.006	-0.557
-494.566	144.228	-0.304	-0.405
-493.551	159.240	-0.537	0.746
-492.537	-191.297	0.250	-0.003
-491.522	-159.709	0.303	0.017
-490.508	172.979	-0.135	-0.194
-489.493	800.000	-0.063	0.260
-488.478	54.457	-0.594	0.572
-487.464	36.570	0.368	0.325
-486.449	131.288	0.493	0.633
-485.435	33.708	-0.465	0.404
-484.420	-73.947	0.390	-0.141
-483.405	800.000	0.186	-0.773
-482.391	-98.726	-0.252	0.064
-481.376	429.639	0.111	-0.239
-480.362	-40.062	0.678	0.353
-479.347	-144.235	0.508	0.047
-478.332	173.017	0.293	0.421
-477.318	117.753	-0.226	-0.278
-476.303	-6.189	-0.082	0.056
-475.289	352.905	0.260	0.515
-474.274	-200.000	-0.051	0.313
-473.259	-200.000	-0.031	-0.399
-472.245	-21.244	-0.171	0.104
-471.230	-52.225	-0.351	0.162
-470.216	26.199	-0.208	0.173
-469.201	800.000	0.022	0.071
-468.186	294.122	-0.312	0.568
-467.172	-200.000	0.029	-0.436
-466.157	183.880	0.192	0.283
-465.143	800.000	-0.076	0.278
-464.128	-56.218	-0.500	0.222
-463.113	-200.000	-0.001	-0.113
-462.099	-170.407	-0.653	-0.023
-461.084	113.235	0.157	-0.190
-460.070	276.201	0.195	-0.345
-459.055	800.000	-0.273	-0.876
-458.040	96.379	0.355	0.405
-457.026	-79.976	0.605	-0.203
-456.011	-174.900	-0.584	-0.016
-454.997	388.104	0.044	-0.091
-453.982	449.397	-0.214	0.471
-452.968	800.000	-0.162	0.545
-451.953	-73.160	-0.518	-0.189
-450.938	800.000	0.081	-0.278
-449.924	83.295	0.260	-0.282
-448.909	-59.798	0.686	-0.293
-447.895	39.210	-0.322	-0.288
-446.880	-68.902	-0.343	0.132
-445.865	123.101	0.386	0.482
-444.851	800.000	-0.088	-0.368
-443.836	-25.455	-0.240	0.142
-442.822	-74.554	-0.303	-0.109
-441.807	-200.000	0.007	-0.431
-440.792	104.781	0.236	0.277
-439.778	-53.595	0.127	-0.058
-438.763	178.519	-0.221	-0.322
-437.749	-200.000	0.094	-0.544
-436.734	-164.336	0.928	-0.042
-435.719	-200.000	-0.050	-0.233
-434.705	271.768	-0.459	-0.807
-433.690	-77.318	0.758	-0.263
-432.676	71.703	0.298	-0.309
-431.661	-16.494	-0.961	-0.607
-430.646	-9.916	0.178	-0.118
-429.632	-200.000	0.004	-0.107
-428.617	245.521	-0.413	-0.692
-427.603	90.249	-0.695	0.775
-426.588	-200.000	-0.083	-0.472
-425.573	-124.712	0.686	0.106
-424.559	18.229	-0.473	0.376
-423.544	-143.086	0.707	-0.068
-422.530	-21.297	-0.215	0.131
-421.515	-89.355	-0.401	0.118
-420.500	-200.000	-0.016	-0.291
-419.486	250.836	0.121	0.204
-418.471	-42.186	-0.474	-0.241
-417.457	-76.957	-0.394	0.137
-416.442	800.000	0.185	0.720
-415.428	-115.760	-0.588	-0.110
-414.413	-116.485	-1.158	0.213
-413.398	-200.000	0.059	-0.367
-412.384	-103.512	0.428	-0.100
-411.369	-200.000	-0.042	0.639
-410.355	-200.000	0.126	1.106
-409.340	15.843	-1.118	-0.876
-408.325	517.559	-0.224	-0.523
-407.311	-53.142	0.466	0.213
-406.296	800.000	-0.129	0.544
-405.282	-42.421	-0.236	-0.120
-404.267	-58.261	0.338	-0.146
-403.252	-87.425	-0.542	-0.164
-402.238	-59.995	0.120	0.051
-401.223	-169.823	-0.087	0.003
-400.209	-200.000	-0.036	0.445
-399.194	11.126	0.563	-0.428
-398.179	79.015	0.338	0.360
-397.165	-109.075	0.130	0.028
-396.150	506.451	-0.271	0.626
-395.136	-13.539	-0.062	0.040
-394.121	66.591	-0.326	-0.330
-393.106	-48.924	0.437	-0.209
-392.092	-105.604	0.688	-0.155
-391.077	3.107	-0.068	0.049
-390.063	14.795	0.231	0.180
-389.048	-200.000	0.000	-0.368
-388.033	-200.000	0.003	0.074
-387.019	326.020	-0.273	-0.519
-386.004	-96.541	0.158	0.042
-384.990	-140.742	-0.313	-0.032
-383.975	76.947	-0.891	0.941
-382.960	-31.697	0.778	-0.434
-381.946	-49.345	-0.658	0.312
-380.931	25.126	-0.528	-0.436
-379.917	407.089	0.259	-0.545
-378.902	-9.260	-0.336	0.224
-377.888	-200.000	-0.080	0.421
-376.873	-30.018	-0.606	0.343
-375.858	-78.249	0.948	0.324
-374.844	95.751	0.188	-0.213
-373.829	225.817	-0.189	0.304
-372.815	-163.814	0.162	-0.008
-371.800	-200.000	-0.044	-0.448
-370.785	-15.026	0.225	-0.143
-369.771	206.358	0.341	-0.527
-368.756	-200.000	-0.270	-1.297
-367.742	-200.000	0.046	0.368
-366.727	537.298	-0.078	0.185
-365.712	-5.148	-0.487	-0.333
-364.698	22.124	-0.029	-0.023
-363.683	-97.661	-0.889	0.229
-362.669	-130.714	0.492	0.066
-361.654	524.287	0.121	0.284
-360.639	-0.082	0.112	-0.079
-359.625	67.128	0.113	0.114
-358.610	-20.205	-0.472	0.289
-357.596	-106.290	0.150	0.033
-356.581	40.221	-0.298	-0.266
-355.566	493.222	-0.273	0.623
-354.552	800.000	0.186	-0.639
-353.537	-114.110	0.393	-0.076
-352.523	-0.359	-0.392	0.277
-351.508	-107.214	-0.656	-0.144
-350.493	-200.000	-0.155	0.989
-349.479	113.367	-0.415	0.500
-348.464	142.205	-0.641	-0.845
-347.450	70.976	0.201	-0.207
-346.435	-130.736	-1.248	0.167
-345.420	7.316	0.120	0.089
-344.406	-70.789	-0.622	-0.233
-343.391	208.123	-0.412	0.639
-342.377	-85.380	-0.150	0.046
-341.362	-110.177	-0.521	0.108
-340.348	-200.000	-0.082	-0.655
-339.333	-200.000	0.017	-0.477
-338.318	-101.434	-0.697	0.169
-337.304	232.865	0.711	1.160
-336.289	83.424	0.129	-0.140
-335.275	-53.780	0.491	-0.222
-334.260	-73.898	-0.709	-0.256
-333.245	48.715	0.393	0.366
-332.231	-54.903	0.281	-0.126
-331.216	800.000	-0.164	-0.641
-330.202	-167.233	-0.485	0.019
-329.187	-35.206	0.192	0.104
-328.172	-10.680	-0.564	-0.370
-327.158	-71.977	0.246	-0.091
-326.143	-73.803	0.336	-0.121
-325.129	-119.184	0.330	0.057
-324.114	704.994	0.019	0.050
-323.099	12.168	0.347	0.265
-322.085	237.116	-0.529	0.869
-321.070	-200.000	0.052	0.890
-320.056	-90.765	-0.855	-0.245
-319.041	-200.000	-0.133	-0.600
-318.026	105.301	0.544	0.637
-317.012	24.021	-0.120	-0.098
-315.997	-120.041	0.520	-0.088
-314.983	419.405	0.250	0.530
-313.968	-1.212	0.957	-0.671
-312.953	-17.043	-0.576	0.360
-311.939	261.209	0.413	0.710
-310.924	151.940	0.037	0.050
-309.910	271.552	-0.070	0.122
-308.895	270.773	-0.281	-0.491
-307.880	275.077	-0.134	0.236
-306.866	-200.000	-0.025	-0.184
-305.851	-18.578	0.618	-0.382
-304.837	-60.855	0.988	-0.415
-303.822	84.747	0.687	0.746
-302.807	167.849	-0.453	0.639
-301.793	142.689	-0.250	0.330
-300.778	74.046	0.523	-0.544
-299.764	800.000	0.049	0.153
-298.749	-200.000	0.088	0.429
-297.735	-112.220	1.056	-0.210
-296.720	-200.000	0.401	0.001
-295.705	-34.622	0.387	0.210
-294.691	800.000	-0.423	-1.502
-293.676	135.482	-0.545	0.703
-292.662	-200.000	-0.084	-0.651
-291.647	624.305	-0.163	0.406
-290.632	128.439	-0.416	0.525
-289.618	-68.880	-0.239	0.092
-288.603	205.339	0.203	0.312
-287.589	-45.829	-0.263	-0.129
-286.574	-11.924	0.515	0.335
-285.559	-140.384	0.165	0.017
-284.545	-63.656	-0.178	0.072
-283.530	491.916	-0.126	0.285
-282.516	62.180	-0.669	-0.661
-281.501	-200.000	-0.057	0.381
-280.486	-49.101	0.451	0.214
-279.472	-200.000	-0.020	0.399
-278.457	-200.000	0.078	-1.123
-277.443	404.135	-0.121	0.252
-276.428	-20.151	0.314	0.192
-275.413	-200.000	-0.079	0.434
-274.399	510.768	0.224	-0.516
-273.384	-67.381	-0.595	0.232
-272.370	127.215	-0.495	-0.622
-271.355	45.591	-0.471	0.431
-270.340	-58.719	-0.183	0.079
-269.326	-82.822	-0.860	-0.275
-268.311	49.042	-0.312	0.290
-267.297	-137.377	-0.190	-0.021
-266.282	-49.269	0.842	-0.398
-265.267	82.847	0.516	-0.556
-264.253	-26.412	-0.738	0.429
-263.238	-144.817	0.402	-0.036
-262.224	-200.000	-0.225	-0.995
-261.209	154.340	0.276	0.375
-260.195	-85.699	-0.497	-0.153
-259.180	762.243	-0.153	-0.410
-258.165	33.299	-0.281	0.241
-257.151	30.482	0.255	-0.215
-256.136	-67.133	0.176	0.069
-255.122	800.000	0.369	1.117
-254.107	321.427	0.312	0.587
-253.092	104.991	0.015	0.018
-252.078	-71.181	-0.352	-0.131
-251.063	-129.918	-0.069	0.009
-250.049	-7.369	-0.885	-0.593
-249.034	-40.712	0.181	0.093
-248.019	-200.000	-0.017	-0.146
-247.005	-100.309	-0.659	0.162
-245.990	-200.000	-0.002	-0.182
-244.976	-156.346	-0.462	-0.029
-243.961	-99.320	0.469	-0.117
-242.946	-200.000	0.095	-0.512
-241.932	-25.991	-0.587	0.342
-240.917	800.000	0.158	-0.593
-239.903	-32.642	0.162	0.089
-238.888	679.356	-0.201	-0.518
-237.873	164.845	0.569	-0.795
-236.859	-75.355	0.951	-0.335
-235.844	-200.000	0.064	0.329
-234.830	101.160	-0.248	0.285
-233.815	4.541	-0.577	-0.419
-232.800	-142.542	-0.610	0.059
-231.786	-53.347	-0.520	0.235
-230.771	-130.094	0.395	-0.053
-229.757	30.955	0.186	-0.158
-228.742	-191.547	0.876	-0.009
-227.727	-200.000	-0.063	0.421
-226.713	-5.032	0.533	0.363
-225.698	15.904	-0.752	-0.585
-224.684	-91.476	0.660	-0.186
-223.669	-40.982	-0.122	0.062
-222.655	-200.000	0.100	0.582
-221.640	255.083	-0.333	-0.564
-220.625	-42.476	-0.622	-0.314
-219.611	541.348	-0.229	0.540
-218.596	-200.000	0.056	0.246
-217.582	83.697	0.350	-0.377
-216.567	800.000	-0.123	-0.430
-215.552	-200.000	0.005	0.209
-214.538	-200.000	0.036	0.323
-213.523	-160.673	0.468	-0.025
-212.509	800.000	-0.116	0.336
-211.494	13.059	-0.396	0.303
-210.479	138.216	0.381	-0.494
-209.465	268.976	-0.262	-0.454
-208.450	-200.000	-0.160	0.769
-207.436	475.215	-0.327	0.730
-206.421	556.308	-0.364	0.867
-205.406	800.000	0.073	0.230
-204.392	66.225	0.470	0.471
-203.377	-99.917	0.782	0.193
-202.363	117.734	-0.377	0.458
-201.348	36.666	0.341	0.298
-200.333	36.874	-0.181	0.158
-199.319	709.415	0.222	-0.581
-198.304	406.323	-0.099	-0.206
-197.290	-33.978	-0.539	0.293
-196.275	-10.160	0.716	0.469
-195.260	800.000	-0.056	-0.197
-194.246	58.132	-0.307	-0.297
-193.231	-200.000	0.136	0.620
-192.217	-200.000	0.044	-0.725
-191.202	122.864	-0.403	-0.498
-190.187	-185.926	0.305	0.004
-189.173	56.254	0.242	-0.232
-188.158	-24.676	-0.406	0.238
-187.144	131.899	0.349	-0.443
-186.129	-124.391	-0.542	-0.083
-185.114	272.922	-0.312	-0.544
-184.100	-114.420	-0.173	-0.033
-183.085	267.330	-0.226	0.390
-182.071	-175.810	0.253	0.007
-181.056	-86.993	0.633	-0.190
-180.042	-162.637	1.031	0.050
-179.027	800.000	-0.054	0.183
-178.012	-82.287	-0.393	-0.126
-176.998	-148.509	0.476	-0.038
-175.983	-16.968	-0.370	0.231
-174.969	-200.000	-0.018	0.284
-173.954	473.094	-0.425	-0.945
-172.939	-10.622	0.197	-0.129
-171.925	800.000	-0.086	-0.309
-170.910	800.000	-0.153	0.507
-169.896	-200.000	0.051	0.378
-168.881	-200.000	0.131	0.664
-167.866	57.085	0.761	0.732
-166.852	-75.592	0.460	0.161
-165.837	-200.000	0.665	0.001
-164.823	-200.000	0.025	-0.590
-163.808	-75.914	0.640	-0.223
-162.793	296.710	0.165	-0.298
-161.779	-200.000	0.116	-0.647
-160.764	800.000	0.115	-0.410
-159.750	800.000	0.124	0.494
-158.735	12.019	-0.571	-0.433
-157.720	76.843	0.257	0.269
-156.706	-200.000	-0.041	0.754
-155.691	114.392	0.227	0.272
-154.677	86.478	0.567	-0.617
-153.662	-114.827	-0.183	0.034
-152.647	219.035	0.146	0.230
-151.633	60.544	-0.449	-0.438
-150.618	-112.273	0.885	0.175
-149.604	-64.470	-0.684	-0.274
-148.589	274.829	-0.373	-0.651
-147.574	-120.551	0.697	-0.117
-146.560	123.233	0.407	0.503
-145.545	342.864	-0.403	-0.778
-144.531	-24.673	0.455	-0.267
-143.516	66.754	0.601	-0.603
-142.502	40.924	0.334	-0.297
-141.487	-138.062	-0.347	-0.038
-140.472	467.974	-0.365	-0.808
-139.458	-200.000	0.081	-1.040
-138.443	800.000	0.227	0.655
-137.429	-200.000	-0.070	-1.704
-136.414	-37.914	0.539	-0.282
-135.399	12.763	-0.742	-0.564
-134.385	-200.000	-0.045	0.887
-133.370	61.063	0.240	0.234
-132.356	-200.000	-0.026	-0.354
-131.341	-92.616	0.178	-0.049
-130.326	8.407	-0.758	0.561
-129.312	-50.814	-0.544	0.252
-128.297	-86.801	-0.676	0.203
-127.283	-42.489	0.599	-0.300
-126.268	-33.862	0.768	-0.417
-125.253	-200.000	-0.124	0.544
-124.239	-117.895	-0.174	-0.031
-123.224	126.596	-0.130	0.163
-122.210	478.964	0.303	0.675
-121.195	-56.844	0.540	0.235
