DTS Sentinel unit serial number:	SN413079Multiplexer serial number:	ORYXHardware model number:	OX4-SRSoftware version number:	ORYX F/W v4.00 Oryx Data Collector v3.7.2.0data status	okinstallation	princeton_trtdifferential loss correction	single-endedforward channel	channel 2reverse channel	N/Adate	2019/09/12time	11:29:11forward acquisition time	60.00reverse acquisition time	0.00gamma	496.2192k internal	0.2302k external	0.2302temperature offset calibration	1.0073default loss term (dB/km)	0.3790temperature slope calibration	1.0000multiplexer offset coefficient	1.0000multiplexer slope coefficient	1.0000fibre end	0.00T internal ref (°C)	39.31T ext. ref 1 (°C)	1.97T ext. ref 2 (°C)	36.47length (m)	temperature (°C)	Stokes	anti-Stokes-747.200	-89.771	0.103	0.031
-746.185	-129.297	0.077	-0.011
-745.171	-200.000	0.028	0.379
-744.156	800.000	-0.131	0.553
-743.142	-72.921	-0.373	0.140
-742.127	287.113	-0.075	-0.139
-741.112	800.000	-0.084	0.309
-740.098	464.701	-0.083	0.190
-739.083	-53.258	-0.208	0.097
-738.069	769.301	-0.060	-0.167
-737.054	46.077	0.152	-0.144
-736.039	508.094	-0.079	-0.188
-735.025	-26.809	0.138	0.082
-734.010	800.000	-0.061	0.261
-732.996	733.841	-0.205	-0.559
-731.981	-62.663	-0.182	-0.077
-730.966	55.152	-0.259	-0.255
-729.952	320.727	-0.099	0.192
-728.937	-200.000	-0.029	-0.254
-727.923	217.941	-0.100	0.163
-726.908	48.746	-0.295	-0.281
-725.894	-61.843	0.305	0.130
-724.879	634.111	-0.093	-0.239
-723.864	268.773	0.092	0.165
-722.850	-129.832	-0.307	-0.043
-721.835	-133.008	-0.140	-0.018
-720.821	-109.738	0.194	-0.042
-719.806	494.285	-0.041	-0.096
-718.791	122.650	-0.169	-0.215
-717.777	-200.000	0.018	0.239
-716.762	-112.493	-0.357	0.073
-715.748	-74.682	-0.156	-0.057
-714.733	77.756	0.105	-0.114
-713.718	134.332	-0.224	0.295
-712.704	219.331	0.070	-0.114
-711.689	-200.000	0.005	-0.118
-710.675	31.284	0.158	-0.138
-709.660	-8.774	-0.188	0.128
-708.645	213.411	0.088	-0.141
-707.631	482.048	0.086	-0.198
-706.616	-132.077	0.230	0.030
-705.602	34.367	-0.089	-0.079
-704.587	-200.000	-0.027	-0.127
-703.572	3.585	0.049	0.036
-702.558	-67.775	-0.132	0.053
-701.543	263.917	0.028	0.049
-700.529	-77.124	-0.224	0.079
-699.514	84.905	-0.331	-0.368
-698.499	-200.000	-0.031	-0.163
-697.485	611.960	0.016	0.041
-696.470	190.067	-0.060	0.092
-695.456	46.032	0.032	0.030
-694.441	-74.454	0.042	-0.015
-693.426	85.137	-0.244	-0.272
-692.412	800.000	0.030	0.115
-691.397	-151.032	-0.556	0.043
-690.383	-29.931	0.066	0.038
-689.368	97.104	-0.141	0.164
-688.354	-122.534	-0.154	0.025
-687.339	141.781	0.172	0.232
-686.324	49.646	-0.142	0.136
-685.310	-125.683	-0.049	-0.008
-684.295	22.587	0.187	-0.156
-683.281	-129.057	-0.083	0.012
-682.266	-11.262	0.214	0.144
-681.251	-105.538	-0.097	0.022
-680.237	-200.000	-0.068	-0.596
-679.222	-12.451	0.397	-0.264
-678.208	41.304	-0.278	0.255
-677.193	-185.088	0.064	-0.001
-676.178	270.014	-0.090	-0.161
-675.164	128.430	-0.366	-0.474
-674.149	-107.564	0.080	0.018
-673.135	-25.450	-0.416	0.250
-672.120	116.907	0.111	-0.139
-671.105	-30.045	0.072	-0.042
-670.091	67.584	-0.105	-0.109
-669.076	438.130	0.114	0.252
-668.062	389.857	-0.113	-0.238
-667.047	-138.397	-0.482	0.054
-666.032	-8.693	-0.224	0.153
-665.018	-93.632	0.202	-0.057
-664.003	800.000	-0.083	0.254
-662.989	-87.491	-0.352	-0.108
-661.974	800.000	0.038	-0.148
-660.959	19.230	0.390	0.318
-659.945	-32.055	-0.159	-0.090
-658.930	-25.913	-0.053	-0.031
-657.916	-97.789	0.175	-0.046
-656.901	-71.220	0.314	0.120
-655.886	-170.201	0.185	-0.007
-654.872	-75.295	-0.267	0.097
-653.857	167.531	-0.084	-0.121
-652.843	369.830	0.128	0.264
-651.828	270.900	-0.226	-0.405
-650.814	29.199	0.088	-0.076
-649.799	-151.297	-0.132	-0.010
-648.784	288.509	-0.160	0.295
-647.770	-159.063	0.430	-0.025
-646.755	-83.489	-0.301	-0.098
-645.741	-112.896	0.016	0.003
-644.726	-64.421	0.179	-0.074
-643.711	283.281	0.234	-0.427
-642.697	406.776	-0.065	-0.140
-641.682	-59.492	0.135	-0.059
-640.668	194.886	-0.240	0.370
-639.653	-200.000	-0.030	-0.422
-638.638	-73.482	-0.483	0.179
-637.624	509.428	-0.101	-0.238
-636.609	298.035	-0.145	-0.270
-635.595	2.187	0.139	0.102
-634.580	-62.895	0.261	-0.110
-633.565	-189.776	-0.278	-0.003
-632.551	239.186	0.089	0.151
-631.536	119.527	-0.016	-0.020
-630.522	800.000	-0.061	-0.244
-629.507	278.016	0.093	-0.168
-628.492	-56.354	-0.133	-0.060
-627.478	744.765	0.057	-0.155
-626.463	-200.000	0.002	-0.194
-625.449	197.871	0.250	-0.387
-624.434	-200.000	-0.073	0.340
-623.419	-18.065	0.132	0.084
-622.405	800.000	0.103	0.360
-621.390	299.473	0.012	-0.022
-620.376	-200.000	-0.037	0.181
-619.361	800.000	0.074	0.211
-618.346	-54.727	-0.363	0.166
-617.332	-36.407	-0.063	-0.035
-616.317	118.913	-0.099	-0.125
-615.303	-62.500	0.076	-0.032
-614.288	449.650	-0.159	0.355
-613.273	143.953	-0.123	0.167
-612.259	-200.000	-0.006	0.052
-611.244	-80.554	-0.225	-0.076
-610.230	384.858	-0.039	0.082
-609.215	-60.927	-0.389	0.167
-608.201	186.426	-0.082	0.124
-607.186	-19.586	-0.248	-0.156
-606.171	-60.889	0.135	0.058
-605.157	-8.263	0.048	0.033
-604.142	-200.000	-0.013	-0.286
-603.128	-46.994	0.096	-0.047
-602.113	39.884	0.085	0.077
-601.098	-183.398	0.154	0.003
-600.084	800.000	0.122	-0.462
-599.069	84.718	-0.075	0.083
-598.055	-54.705	0.105	0.048
-597.040	-200.000	0.007	0.258
-596.025	477.302	0.120	0.275
-595.011	231.347	0.095	-0.157
-593.996	609.521	-0.058	-0.147
-592.982	800.000	-0.014	0.044
-591.967	-112.116	0.347	0.071
-590.952	-200.000	-0.005	0.035
-589.938	-5.178	0.132	0.092
-588.923	-84.221	-0.685	-0.220
-587.909	28.316	-0.258	0.221
-586.894	-35.759	0.182	0.100
-585.879	236.850	-0.087	-0.145
-584.865	-19.991	0.092	0.058
-583.850	37.279	-0.319	-0.286
-582.836	-3.605	0.272	0.191
-581.821	-148.738	0.332	-0.027
-580.806	268.587	-0.129	0.229
-579.792	-101.812	0.159	-0.039
-578.777	213.598	0.170	-0.272
-577.763	252.814	-0.119	0.205
-576.748	379.861	-0.065	-0.135
-575.733	52.661	0.152	0.147
-574.719	73.200	-0.049	0.052
-573.704	-107.295	-0.337	0.075
-572.690	-100.365	-0.141	-0.035
-571.675	680.143	-0.081	-0.213
-570.661	-153.469	0.350	-0.025
-569.646	89.033	-0.117	0.132
-568.631	96.981	-0.133	0.154
-567.617	-174.409	-0.215	0.006
-566.602	581.254	-0.083	-0.205
-565.588	-106.323	-0.140	0.032
-564.573	176.487	-0.197	0.289
-563.558	19.328	0.210	-0.170
-562.544	800.000	0.061	0.229
-561.529	-50.418	-0.271	-0.129
-560.515	-41.830	0.379	-0.197
-559.500	383.403	-0.178	-0.372
-558.485	-110.780	-0.215	0.045
-557.471	-31.675	0.231	-0.131
-556.456	-200.000	-0.010	0.231
-555.442	199.271	0.062	0.096
-554.427	153.378	-0.065	-0.090
-553.412	-165.221	0.109	-0.005
-552.398	114.061	-0.101	0.124
-551.383	-162.023	-0.029	-0.001
-550.369	-13.848	-0.122	-0.080
-549.354	-118.727	-0.340	0.061
-548.339	15.672	0.223	0.177
-547.325	12.732	0.200	-0.156
-546.310	-87.452	-0.302	-0.092
-545.296	-200.000	0.026	0.217
-544.281	255.768	0.089	-0.154
-543.266	17.110	0.036	0.029
-542.252	800.000	-0.061	0.264
-541.237	3.649	0.270	-0.199
-540.223	-61.246	-0.070	0.030
-539.208	39.036	-0.114	0.103
-538.193	-200.000	-0.025	0.285
-537.179	-52.447	0.288	-0.135
-536.164	282.547	-0.061	-0.111
-535.150	152.776	-0.054	0.075
-534.135	-200.000	0.063	0.307
-533.121	659.933	-0.058	0.152
-532.106	442.945	0.160	-0.355
-531.091	-200.000	-0.040	-0.193
-530.077	241.328	0.184	0.311
-529.062	-200.000	-0.033	0.148
-528.048	578.198	-0.174	0.429
-527.033	-55.691	-0.151	-0.068
-526.018	-200.000	0.002	-0.436
-525.004	606.060	0.128	-0.322
-523.989	379.584	-0.217	-0.448
-522.975	-32.603	0.024	-0.013
-521.960	19.041	-0.040	0.033
-520.945	-200.000	-0.018	-0.355
-519.931	800.000	0.016	-0.064
-518.916	89.061	-0.165	-0.186
-517.902	-200.000	0.026	-0.121
-516.887	417.260	-0.093	0.201
-515.872	800.000	0.037	0.128
-514.858	-200.000	-0.031	0.189
-513.843	-100.200	-0.230	-0.058
-512.829	-42.836	-0.196	-0.100
-511.814	-14.212	-0.123	-0.080
-510.799	140.056	-0.065	0.086
-509.785	-36.681	-0.363	0.197
-508.770	47.379	0.056	0.053
-507.756	94.720	0.065	-0.074
-506.741	-200.000	-0.020	-0.111
-505.726	-144.860	0.074	0.007
-504.712	-200.000	0.021	0.106
-503.697	-70.657	0.174	-0.066
-502.683	-158.952	0.245	-0.014
-501.668	-200.000	0.028	0.231
-500.653	-2.421	0.182	-0.129
-499.639	302.523	-0.159	-0.298
-498.624	-200.000	-0.054	0.266
-497.610	347.935	-0.071	-0.142
-496.595	-87.274	-0.034	0.011
-495.581	36.189	0.274	0.243
-494.566	24.579	-0.168	-0.140
-493.551	-200.000	0.002	-0.227
-492.537	164.231	-0.183	0.260
-491.522	328.517	0.247	-0.478
-490.508	800.000	-0.112	-0.352
-489.493	40.898	0.097	-0.088
-488.478	-138.738	0.238	0.026
-487.464	-200.000	0.012	-0.122
-486.449	-87.036	0.230	-0.071
-485.435	-200.000	0.018	0.111
-484.420	-200.000	0.007	0.100
-483.405	21.934	0.272	0.224
-482.391	204.958	-0.132	-0.206
-481.376	-16.285	0.054	-0.035
-480.362	-151.092	-0.166	-0.013
-479.347	-200.000	-0.000	0.170
-478.332	-14.607	0.239	-0.155
-477.318	-200.000	0.025	-0.255
-476.303	-51.205	-0.374	-0.177
-475.289	-3.846	-0.194	-0.136
-474.274	293.650	0.070	-0.130
-473.259	308.953	-0.173	0.325
-472.245	-78.327	-0.322	0.111
-471.230	-19.623	0.110	0.069
-470.216	-200.000	0.018	0.119
-469.201	-200.000	0.022	-0.143
-468.186	84.719	-0.214	-0.236
-467.172	800.000	0.023	-0.084
-466.157	48.027	-0.206	-0.194
-465.143	672.192	0.067	-0.174
-464.128	24.170	0.016	0.013
-463.113	68.719	0.123	0.127
-462.099	-170.394	0.362	0.013
-461.084	74.964	0.191	0.203
-460.070	-26.297	0.159	0.094
-459.055	-43.738	-0.423	0.215
-458.040	-200.000	-0.039	-0.502
-457.026	-170.484	-0.483	0.017
-456.011	-200.000	-0.021	-0.160
-454.997	-28.083	-0.096	0.056
-453.982	34.075	0.205	0.180
-452.968	-34.983	0.260	-0.143
-451.953	-144.560	0.275	-0.026
-450.938	-140.439	0.291	-0.031
-449.924	-79.606	0.021	-0.007
-448.909	-157.577	-0.154	-0.009
-447.895	800.000	-0.027	-0.113
-446.880	-163.064	0.086	0.004
-445.865	10.943	-0.084	0.064
-444.851	-129.852	0.087	0.012
-443.836	71.275	0.058	0.060
-442.822	-14.031	-0.305	-0.198
-441.807	10.086	0.103	0.079
-440.792	-16.479	-0.080	-0.051
-439.778	131.533	0.139	0.180
-438.763	800.000	0.069	0.257
-437.749	-200.000	-0.027	0.180
-436.734	-131.736	0.434	-0.057
-435.719	-200.000	-0.010	0.386
-434.705	543.071	-0.064	0.153
-433.690	-200.000	0.001	-0.024
-432.676	437.906	-0.033	-0.073
-431.661	800.000	-0.059	-0.212
-430.646	37.035	-0.168	0.149
-429.632	295.781	0.165	-0.303
-428.617	39.178	0.146	-0.132
-427.603	-102.414	0.234	0.056
-426.588	-6.236	0.405	0.278
-425.573	217.417	0.058	0.093
-424.559	-116.054	-0.094	0.018
-423.544	800.000	0.005	0.015
-422.530	-0.088	0.263	0.188
-421.515	-132.131	-0.348	0.045
-420.500	-78.366	0.130	0.045
-419.486	642.999	0.102	-0.262
-418.471	169.943	0.071	0.103
-417.457	-42.931	-0.093	-0.048
-416.442	-3.964	0.239	0.167
-415.428	-200.000	0.002	-0.138
-414.413	-95.829	0.341	-0.092
-413.398	-166.475	-0.036	0.002
-412.384	-200.000	0.004	-0.061
-411.369	-200.000	0.041	-0.213
-410.355	71.339	-0.195	0.203
-409.340	-200.000	-0.037	-0.238
-408.325	148.362	0.154	-0.209
-407.311	-24.165	0.228	-0.137
-406.296	-18.166	-0.084	0.053
-405.282	-17.477	-0.211	-0.133
-404.267	-3.540	0.132	0.092
-403.252	-200.000	0.008	0.039
-402.238	-24.833	-0.047	0.028
-401.223	254.117	-0.086	-0.148
-400.209	527.923	-0.127	-0.302
-399.194	-200.000	0.055	-0.375
-398.179	204.290	0.148	0.231
-397.165	-49.080	0.220	0.106
-396.150	355.990	-0.070	-0.139
-395.136	0.959	0.018	0.013
-394.121	-159.724	-0.175	0.010
-393.106	402.022	0.093	0.195
-392.092	800.000	-0.078	0.238
-391.077	-145.820	0.169	0.015
-390.063	-147.678	-0.199	0.017
-389.048	-187.162	-0.204	-0.003
-388.033	653.763	-0.036	-0.092
-387.019	-200.000	-0.041	-0.334
-386.004	-121.471	-0.187	-0.031
-384.990	-21.279	0.224	0.137
-383.975	445.862	-0.093	-0.206
-382.960	-200.000	-0.054	0.291
-381.946	-128.284	0.160	-0.023
-380.931	14.616	0.206	0.162
-379.917	48.581	0.150	-0.141
-378.902	346.455	0.101	0.199
-377.888	-200.000	0.006	-0.044
-376.873	800.000	0.028	-0.095
-375.858	4.497	0.159	0.117
-374.844	65.014	-0.194	0.196
-373.829	112.380	-0.045	0.055
-372.815	134.516	0.060	-0.079
-371.800	-200.000	0.010	0.166
-370.785	65.926	0.438	-0.446
-369.771	132.590	0.098	0.127
-368.756	-90.935	-0.251	0.073
-367.742	-27.961	-0.208	-0.121
-366.727	-66.318	0.142	0.057
-365.712	-200.000	0.015	-0.122
-364.698	-111.537	0.307	-0.063
-363.683	-86.234	0.300	0.093
-362.669	-126.402	0.327	0.049
-361.654	329.877	0.261	-0.504
-360.639	19.181	-0.173	-0.139
-359.625	69.679	0.172	-0.178
-358.610	-200.000	-0.015	0.189
-357.596	-78.801	0.171	0.059
-356.581	218.226	0.062	0.099
-355.566	52.539	-0.387	0.370
-354.552	800.000	0.089	-0.329
-353.537	57.709	-0.161	-0.158
-352.523	-33.216	-0.248	-0.138
-351.508	82.236	-0.094	-0.102
-350.493	334.961	0.088	0.172
-349.479	-13.161	0.204	0.133
-348.464	108.607	0.148	0.178
-347.450	-125.042	0.209	-0.032
-346.435	107.355	0.063	0.075
-345.420	-56.592	0.318	-0.141
-344.406	48.577	-0.291	-0.273
-343.391	-68.520	0.306	-0.119
-342.377	-57.500	0.485	-0.213
-341.362	-15.243	-0.400	-0.257
-340.348	19.114	0.057	0.046
-339.333	800.000	0.092	-0.350
-338.318	-177.297	0.384	0.010
-337.304	118.572	0.044	-0.055
-336.289	66.652	-0.358	-0.365
-335.275	324.848	-0.219	0.420
-334.260	800.000	-0.083	0.350
-333.245	-200.000	0.067	-0.328
-332.231	-26.217	-0.174	0.103
-331.216	308.401	0.099	0.185
-330.202	-200.000	0.056	0.344
-329.187	389.357	0.026	0.053
-328.172	-60.865	0.170	0.072
-327.158	116.578	0.155	0.191
-326.143	321.604	0.108	-0.206
-325.129	-48.762	0.191	-0.092
-324.114	364.962	-0.211	0.425
-323.099	-12.938	0.076	0.049
-322.085	91.172	0.218	-0.245
-321.070	-200.000	-0.005	0.044
-320.056	379.704	-0.171	0.351
-319.041	-200.000	0.025	0.116
-318.026	800.000	0.097	0.318
-317.012	717.090	-0.084	0.224
-315.997	-91.919	-0.312	0.089
-314.983	-200.000	-0.011	-0.113
-313.968	-125.272	-0.380	0.058
-312.953	16.454	-0.121	-0.096
-311.939	189.790	0.090	-0.135
-310.924	-95.636	0.268	0.072
-309.910	800.000	0.076	-0.261
-308.895	800.000	0.055	0.216
-307.880	-27.585	-0.120	-0.070
-306.866	-6.341	0.154	-0.105
-305.851	318.683	-0.173	0.328
-304.837	-15.538	-0.179	-0.115
-303.822	556.100	-0.074	0.178
-302.807	-200.000	-0.000	0.158
-301.793	43.238	0.303	-0.277
-300.778	-14.269	-0.162	-0.105
-299.764	-200.000	0.004	-0.039
-298.749	-61.861	0.160	0.067
-297.735	-33.608	-0.289	-0.160
-296.720	38.459	-0.453	0.405
-295.705	-8.574	-0.085	0.057
-294.691	47.643	0.118	-0.110
-293.676	-200.000	0.012	-0.123
-292.662	800.000	0.043	-0.147
-291.647	127.650	0.094	0.119
-290.632	-125.586	-0.047	0.007
-289.618	15.619	-0.273	-0.215
-288.603	-200.000	-0.028	0.297
-287.589	-1.823	-0.016	-0.011
-286.574	-161.667	-0.074	-0.004
-285.559	264.733	0.069	-0.120
-284.545	285.154	0.146	-0.264
-283.530	-76.106	0.039	-0.014
-282.516	-111.841	-0.317	-0.064
-281.501	-7.921	-0.087	-0.059
-280.486	192.240	-0.051	0.077
-279.472	193.239	-0.117	0.178
-278.457	-78.645	0.139	-0.047
-277.443	-116.219	-0.390	-0.072
-276.428	311.393	-0.162	-0.303
-275.413	-125.324	-0.205	0.031
-274.399	-4.477	0.284	0.197
-273.384	-200.000	-0.011	-0.144
-272.370	-200.000	-0.065	0.417
-271.355	638.183	0.038	-0.098
-270.340	-58.626	-0.279	0.121
-269.326	-90.441	0.089	-0.026
-268.311	-200.000	0.009	0.441
-267.297	800.000	-0.036	0.156
-266.282	-97.466	0.184	-0.048
-265.267	66.193	-0.183	0.186
-264.253	-20.364	0.274	-0.168
-263.238	269.038	0.119	-0.208
-262.224	-200.000	-0.016	0.220
-261.209	188.057	-0.164	0.245
-260.195	-92.461	-0.144	-0.040
-259.180	-21.708	-0.104	0.064
-258.165	800.000	0.007	-0.028
-257.151	-56.886	-0.239	-0.106
-256.136	-200.000	-0.031	0.274
-255.122	-9.343	0.242	0.161
-254.107	253.310	-0.109	0.186
-253.092	-10.283	-0.044	0.029
-252.078	26.933	0.314	-0.264
-251.063	-200.000	0.006	0.055
-250.049	122.668	-0.102	0.128
-249.034	437.861	-0.064	0.140
-248.019	168.792	-0.049	0.069
-247.005	123.226	-0.073	0.092
-245.990	-113.001	-0.128	-0.025
-244.976	-9.162	-0.272	0.182
-243.961	28.884	-0.050	-0.042
-242.946	-155.280	-0.420	-0.027
-241.932	800.000	-0.038	0.127
-240.917	575.791	0.057	-0.139
-239.903	-53.387	-0.236	0.108
-238.888	53.976	0.238	0.228
-237.873	-200.000	0.005	-0.319
-236.859	36.399	0.113	-0.100
-235.844	527.914	-0.066	-0.156
-234.830	408.998	-0.166	-0.351
-233.815	-200.000	-0.046	-0.411
-232.800	-121.191	0.262	-0.044
-231.786	800.000	0.035	-0.117
-230.771	-200.000	0.022	-0.164
-229.757	-200.000	0.009	0.150
-228.742	14.737	0.239	-0.186
-227.727	-9.718	-0.133	-0.089
-226.713	67.223	-0.102	-0.104
-225.698	-68.128	-0.101	-0.039
-224.684	-108.342	0.306	-0.066
-223.669	-200.000	0.071	-0.321
-222.655	45.136	0.142	0.131
-221.640	-200.000	0.027	0.597
-220.625	267.326	-0.024	0.042
-219.611	-55.174	0.066	-0.030
-218.596	-92.000	0.291	0.082
-217.582	800.000	-0.046	-0.170
-216.567	-200.000	-0.002	0.271
-215.552	-99.037	-0.246	-0.062
-214.538	144.698	-0.058	0.077
-213.523	-200.000	-0.002	0.165
-212.509	169.942	-0.109	0.156
-211.494	-200.000	-0.016	0.088
-210.479	5.440	0.073	0.054
-209.465	202.257	0.282	0.435
-208.450	-200.000	0.014	0.252
-207.436	-94.265	-0.140	0.038
-206.421	562.326	-0.056	-0.134
-205.406	-200.000	0.004	0.072
-204.392	185.207	-0.039	-0.057
-203.377	54.606	0.176	-0.169
-202.363	42.103	0.182	0.165
-201.348	27.372	-0.117	-0.098
-200.333	-126.602	-0.070	0.010
-199.319	369.346	0.081	0.164
-198.304	-200.000	-0.034	0.217
-197.290	-200.000	-0.011	-0.197
-196.275	178.974	0.124	0.181
-195.260	-200.000	0.075	0.546
-194.246	-77.753	0.163	-0.056
-193.231	-200.000	0.015	-0.510
-192.217	154.804	0.136	0.186
-191.202	48.997	-0.071	0.067
-190.187	-158.154	0.125	0.007
-189.173	-46.196	-0.069	-0.034
-188.158	-200.000	-0.018	-0.158
-187.144	-200.000	0.001	-0.083
-186.129	42.624	-0.026	0.023
-185.114	-192.652	-0.495	-0.005
-184.100	-200.000	0.011	0.149
-183.085	-200.000	-0.011	-0.342
-182.071	-53.856	0.201	0.091
-181.056	-200.000	0.020	0.135
-180.042	-200.000	-0.047	-0.220
-179.027	47.433	-0.051	-0.047
-178.012	-75.204	-0.145	-0.051
-176.998	-72.822	-0.118	-0.043
-175.983	704.693	0.034	0.090
-174.969	569.337	0.072	0.175
-173.954	291.484	0.064	0.116
-172.939	-114.240	-0.175	0.034
-171.925	106.741	0.146	-0.172
-170.910	-48.679	-0.383	0.183
-169.896	442.720	-0.126	0.274
-168.881	-200.000	0.044	-0.192
-167.866	-72.254	0.030	-0.011
-166.852	-116.595	0.123	-0.022
-165.837	114.920	-0.114	0.138
-164.823	23.357	0.218	-0.178
-163.808	-200.000	0.058	-0.257
-162.793	76.971	-0.104	-0.110
-161.779	37.353	0.380	0.336
-160.764	800.000	-0.056	0.172
-159.750	-113.399	0.301	0.059
-158.735	-200.000	0.006	-0.153
-157.720	-150.309	0.187	-0.014
-156.706	-146.839	-0.073	0.006
-155.691	800.000	0.022	-0.064
-154.677	-200.000	-0.017	0.162
-153.662	176.862	-0.088	0.128
-152.647	-85.675	-0.146	0.045
-151.633	-200.000	-0.002	-0.175
-150.618	70.485	-0.143	0.147
-149.604	118.621	0.040	-0.049
-148.589	369.828	-0.052	-0.106
-147.574	-200.000	0.069	-0.377
-146.560	-200.000	-0.028	-0.229
-145.545	-145.257	-0.122	0.011
-144.531	279.947	0.058	-0.103
-143.516	-41.664	-0.161	-0.082
-142.502	131.898	-0.057	0.073
-141.487	-200.000	0.029	-0.193
-140.472	-120.846	-0.305	0.051
-139.458	-27.882	0.202	0.116
-138.443	-121.903	-0.080	-0.013
-137.429	-200.000	0.000	-0.105
-136.414	-200.000	-0.054	-0.281
-135.399	-42.856	0.144	0.073
-134.385	-200.000	0.031	0.135
-133.370	-200.000	-0.048	0.250
-132.356	-152.412	0.353	0.025
-131.341	800.000	0.058	0.217
-130.326	800.000	-0.046	-0.182
-129.312	-200.000	-0.076	0.517
-128.297	-161.413	-0.252	0.013
-127.283	30.602	0.255	-0.217
-126.268	800.000	0.082	0.265
-125.253	139.999	-0.044	0.057
-124.239	215.367	-0.036	0.056
-123.224	-95.640	-0.277	-0.074
-122.210	-61.102	0.324	0.136
-121.195	-106.731	0.315	-0.070
