DTS Sentinel unit serial number:	SN413079Multiplexer serial number:	ORYXHardware model number:	OX4-SRSoftware version number:	ORYX F/W v4.00 Oryx Data Collector v3.7.2.0data status	okinstallation	princeton_trtdifferential loss correction	single-endedforward channel	channel 2reverse channel	N/Adate	2019/09/17time	23:31:35forward acquisition time	60.00reverse acquisition time	0.00gamma	496.2192k internal	0.2348k external	0.2348temperature offset calibration	0.9987default loss term (dB/km)	0.3790temperature slope calibration	1.0000multiplexer offset coefficient	1.0000multiplexer slope coefficient	1.0000fibre end	0.00T internal ref (°C)	24.25T ext. ref 1 (°C)	0.17T ext. ref 2 (°C)	17.53length (m)	temperature (°C)	Stokes	anti-Stokes-747.200	-113.424	0.259	0.051
-746.185	-200.000	-0.017	0.165
-745.171	-200.000	-0.011	-0.118
-744.156	-9.177	-0.261	0.175
-743.142	287.508	-0.120	0.217
-742.127	-192.281	-0.212	-0.002
-741.112	-200.000	0.015	0.162
-740.098	-134.274	-0.767	0.094
-739.083	800.000	0.105	-0.369
-738.069	-200.000	-0.010	0.185
-737.054	-44.821	0.442	0.220
-736.039	-190.187	-0.410	-0.005
-735.025	800.000	0.105	0.335
-734.010	23.816	-0.327	0.269
-732.996	800.000	0.061	-0.182
-731.981	178.034	0.015	-0.022
-730.966	-146.042	-0.191	-0.017
-729.952	280.902	0.138	-0.247
-728.937	-200.000	-0.109	-0.502
-727.923	-200.000	-0.025	-0.207
-726.908	800.000	-0.069	0.231
-725.894	-71.447	-0.020	0.007
-724.879	146.473	-0.055	0.074
-723.864	-23.057	0.179	-0.108
-722.850	246.296	0.073	-0.122
-721.835	-108.953	-0.177	-0.038
-720.821	-10.860	0.187	-0.123
-719.806	-115.990	-0.254	-0.047
-718.791	-153.443	-0.231	-0.016
-717.777	-164.251	-0.370	0.017
-716.762	267.257	0.058	0.102
-715.748	-150.934	-0.259	-0.020
-714.733	-123.545	-0.179	-0.028
-713.718	82.975	0.156	-0.169
-712.704	5.125	0.109	0.080
-711.689	7.672	0.195	0.146
-710.675	208.682	0.123	-0.192
-709.660	223.820	-0.088	-0.142
-708.645	-200.000	-0.007	0.044
-707.631	105.997	0.131	-0.155
-706.616	-84.790	0.123	-0.039
-705.602	-30.190	0.338	0.192
-704.587	143.804	-0.138	-0.183
-703.572	-13.999	-0.287	-0.185
-702.558	800.000	0.133	0.429
-701.543	410.194	-0.102	-0.216
-700.529	257.166	-0.253	-0.434
-699.514	800.000	-0.071	-0.209
-698.499	-200.000	-0.004	-0.225
-697.485	508.335	0.017	0.040
-696.470	130.164	-0.033	0.042
-695.456	211.169	-0.174	-0.272
-694.441	-123.708	-0.159	-0.025
-693.426	-48.051	0.360	0.174
-692.412	-170.764	0.236	-0.008
-691.397	-2.476	-0.068	0.047
-690.383	7.854	0.137	-0.103
-689.368	71.988	0.079	0.082
-688.354	-200.000	-0.022	0.235
-687.339	50.549	-0.226	-0.213
-686.324	-5.747	0.292	-0.200
-685.310	-200.000	0.020	0.104
-684.295	-148.501	0.176	-0.014
-683.281	-143.960	-0.102	0.010
-682.266	-3.943	-0.021	-0.014
-681.251	-188.431	0.029	0.000
-680.237	-1.781	0.203	-0.142
-679.222	11.957	0.121	-0.092
-678.208	15.683	-0.179	0.140
-677.193	-1.241	-0.106	0.074
-676.178	-200.000	0.059	-0.305
-675.164	114.398	-0.225	-0.273
-674.149	800.000	0.135	0.439
-673.135	-127.581	-0.074	-0.011
-672.120	36.892	-0.179	0.158
-671.105	800.000	0.088	-0.375
-670.091	-200.000	-0.030	-0.148
-669.076	-113.764	0.290	0.056
-668.062	575.925	0.053	-0.130
-667.047	216.535	0.225	0.357
-666.032	-15.491	-0.022	-0.014
-665.018	19.604	0.277	0.222
-664.003	-23.817	-0.192	-0.114
-662.989	-199.044	-0.345	-0.002
-661.974	-200.000	-0.038	0.183
-660.959	-60.370	-0.100	-0.042
-659.945	584.806	-0.057	-0.140
-658.930	-183.628	0.004	0.000
-657.916	-73.203	0.066	-0.024
-656.901	-200.000	0.008	0.277
-655.886	44.070	0.060	-0.055
-654.872	-57.392	-0.127	0.056
-653.857	183.283	0.279	0.410
-652.843	285.437	0.045	0.080
-651.828	87.453	-0.215	0.237
-650.814	-200.000	0.042	0.315
-649.799	-200.000	-0.251	0.000
-648.784	-200.000	-0.025	-0.541
-647.770	-200.000	-0.029	-0.190
-646.755	800.000	0.084	-0.278
-645.741	-87.586	0.288	-0.087
-644.726	71.007	-0.048	0.049
-643.711	-13.470	0.191	0.123
-642.697	-25.397	0.207	0.122
-641.682	-49.273	0.094	0.045
-640.668	42.401	0.239	0.216
-639.653	301.038	0.078	-0.143
-638.638	-144.115	-0.158	0.015
-637.624	134.805	-0.035	0.046
-636.609	755.434	0.097	-0.260
-635.595	-103.032	0.220	0.052
-634.580	196.707	-0.096	0.146
-633.565	-200.000	-0.001	-0.261
-632.551	756.683	-0.054	0.145
-631.536	-64.550	0.133	-0.054
-630.522	15.383	0.121	0.095
-629.507	108.664	-0.350	-0.416
-628.492	-71.017	0.338	0.127
-627.478	14.764	0.127	-0.099
-626.463	-200.000	-0.005	0.233
-625.449	542.839	-0.016	0.038
-624.434	-26.778	-0.213	-0.124
-623.419	-66.361	-0.144	-0.057
-622.405	379.029	-0.003	0.006
-621.390	-200.000	-0.030	-0.151
-620.376	-200.000	-0.042	-0.304
-619.361	-29.064	-0.056	-0.032
-618.346	248.216	-0.065	-0.110
-617.332	-200.000	-0.003	0.273
-616.317	-119.105	-0.128	-0.022
-615.303	-200.000	-0.005	0.092
-614.288	-115.454	0.205	-0.038
-613.273	800.000	-0.037	0.138
-612.259	800.000	0.043	-0.130
-611.244	-200.000	-0.057	-0.413
-610.230	107.217	0.208	0.246
-609.215	37.382	-0.236	0.208
-608.201	486.306	-0.031	-0.071
-607.186	800.000	0.038	-0.115
-606.171	601.280	0.166	-0.409
-605.157	-200.000	-0.002	-0.368
-604.142	205.598	0.328	0.507
-603.128	-200.000	-0.049	0.393
-602.113	-200.000	-0.058	0.307
-601.098	182.934	-0.018	0.026
-600.084	-78.873	0.180	0.061
-599.069	134.821	-0.190	0.244
-598.055	-98.641	-0.298	0.076
-597.040	-200.000	-0.040	0.232
-596.025	-5.203	-0.132	0.090
-595.011	800.000	-0.070	-0.232
-593.996	2.098	-0.196	0.140
-592.982	3.158	-0.186	-0.134
-591.967	-93.669	0.581	0.159
-590.952	399.153	0.113	0.235
-589.938	-38.195	-0.091	0.048
-588.923	65.674	-0.010	0.010
-587.909	100.782	-0.069	-0.080
-586.894	-151.656	0.379	0.028
-585.879	59.302	0.344	-0.336
-584.865	-68.455	-0.161	-0.062
-583.850	115.435	0.121	-0.147
-582.836	570.666	0.157	-0.380
-581.821	-132.628	0.270	-0.034
-580.806	664.457	-0.067	0.171
-579.792	-2.550	0.118	0.082
-578.777	-200.000	-0.021	0.189
-577.763	756.357	0.140	-0.376
-576.748	800.000	-0.061	0.169
-575.733	-200.000	-0.046	-0.353
-574.719	-66.439	-0.251	-0.099
-573.704	37.562	0.137	0.120
-572.690	-200.000	0.041	-0.391
-571.675	31.439	-0.139	-0.118
-570.661	-86.075	0.258	0.079
-569.646	179.943	-0.126	-0.184
-568.631	-151.110	0.313	0.023
-567.617	-77.971	-0.149	-0.051
-566.602	62.403	0.152	-0.150
-565.588	-16.983	-0.144	0.091
-564.573	-200.000	-0.039	-0.306
-563.558	22.763	0.114	0.093
-562.544	110.582	-0.315	0.376
-561.529	21.095	0.176	-0.142
-560.515	511.212	0.122	-0.281
-559.500	127.566	-0.210	-0.264
-558.485	-200.000	0.066	-0.303
-557.471	-200.000	-0.034	0.320
-556.456	-104.962	-0.150	0.034
-555.442	800.000	-0.055	-0.221
-554.427	-89.177	-0.295	0.087
-553.412	-60.041	-0.139	0.059
-552.398	234.847	-0.083	0.136
-551.383	-92.548	0.109	-0.030
-550.369	-119.714	0.185	0.032
-549.354	-183.992	-0.316	0.005
-548.339	-72.460	-0.282	-0.103
-547.325	800.000	0.116	0.354
-546.310	245.081	0.180	-0.301
-545.296	-115.694	0.106	0.020
-544.281	103.354	0.065	-0.076
-543.266	-200.000	-0.040	-0.237
-542.252	-200.000	0.014	0.069
-541.237	-69.864	0.291	0.110
-540.223	-82.588	-0.205	0.066
-539.208	800.000	-0.089	-0.251
-538.193	800.000	-0.077	-0.245
-537.179	139.265	-0.120	-0.156
-536.164	800.000	0.038	-0.106
-535.150	39.929	-0.021	0.019
-534.135	-114.639	0.192	-0.036
-533.121	63.642	-0.081	-0.081
-532.106	242.609	0.085	-0.140
-531.091	85.414	0.207	-0.225
-530.077	-136.179	-0.388	0.045
-529.062	-11.232	-0.204	-0.133
-528.048	-200.000	-0.009	-0.193
-527.033	-200.000	0.006	-0.088
-526.018	-89.187	0.156	-0.046
-525.004	-0.898	-0.269	-0.189
-523.989	81.970	0.295	-0.317
-522.975	674.066	-0.053	0.136
-521.960	376.368	-0.073	0.147
-520.945	-53.945	-0.063	-0.028
-519.931	43.784	-0.336	0.305
-518.916	-79.346	-0.176	0.059
-517.902	-63.383	0.293	0.119
-516.887	-73.007	0.220	0.080
-515.872	447.386	0.036	0.080
-514.858	52.233	0.168	-0.158
-513.843	8.578	-0.265	-0.197
-512.829	114.531	0.161	-0.194
-511.814	-60.629	0.144	-0.061
-510.799	-94.238	-0.166	0.045
-509.785	-103.319	0.135	0.031
-508.770	-10.434	-0.168	-0.110
-507.756	83.228	0.093	-0.100
-506.741	-63.172	-0.085	0.035
-505.726	206.332	0.171	0.264
-504.712	-27.097	-0.117	0.067
-503.697	-200.000	-0.012	-0.199
-502.683	42.530	-0.423	0.381
-501.668	191.003	-0.086	0.128
-500.653	-108.184	0.307	0.066
-499.639	62.325	0.206	0.203
-498.624	733.602	0.060	0.158
-497.610	428.626	0.170	0.364
-496.595	-101.754	0.128	-0.031
-495.581	-49.043	-0.116	0.055
-494.566	-200.000	0.028	-0.369
-493.551	334.270	0.152	0.291
-492.537	-64.411	0.173	-0.069
-491.522	378.566	0.088	-0.179
-490.508	-200.000	-0.005	0.164
-489.493	-200.000	0.000	0.094
-488.478	508.963	-0.087	-0.199
-487.464	-59.800	0.088	0.037
-486.449	429.204	0.074	0.159
-485.435	109.304	0.108	0.128
-484.420	-161.088	-0.311	-0.016
-483.405	-57.725	0.047	0.020
-482.391	8.268	-0.335	-0.249
-481.376	800.000	-0.041	-0.131
-480.362	-168.268	0.211	0.008
-479.347	55.413	-0.155	-0.149
-478.332	459.403	-0.023	0.052
-477.318	5.192	0.115	-0.084
-476.303	-33.578	0.057	-0.031
-475.289	4.839	0.227	-0.165
-474.274	-132.621	0.038	-0.005
-473.259	259.317	0.122	0.208
-472.245	116.501	-0.075	-0.091
-471.230	-14.291	-0.291	0.185
-470.216	-200.000	-0.024	-0.139
-469.201	-44.176	0.121	-0.060
-468.186	800.000	-0.099	-0.321
-467.172	7.416	0.406	-0.300
-466.157	-34.874	-0.293	-0.158
-465.143	167.614	0.094	0.132
-464.128	281.586	0.115	0.203
-463.113	409.266	-0.086	-0.181
-462.099	-20.261	0.398	0.242
-461.084	22.566	0.130	-0.105
-460.070	-200.000	-0.007	0.370
-459.055	695.201	-0.093	0.241
-458.040	-89.124	-0.243	0.071
-457.026	-200.000	0.028	0.280
-456.011	-200.000	-0.020	-0.115
-454.997	159.765	-0.152	-0.209
-453.982	-194.525	-0.197	0.002
-452.968	-56.860	0.568	0.248
-451.953	129.616	-0.153	-0.193
-450.938	153.542	-0.157	0.212
-449.924	22.452	0.113	-0.092
-448.909	103.081	0.143	-0.165
-447.895	-200.000	-0.051	-0.340
-446.880	607.489	0.114	0.282
-445.865	393.147	-0.113	0.233
-444.851	-200.000	0.008	0.058
-443.836	129.531	0.224	-0.283
-442.822	-99.375	0.273	-0.068
-441.807	307.894	-0.031	-0.057
-440.792	112.273	-0.081	-0.097
-439.778	800.000	-0.063	-0.221
-438.763	-67.641	0.057	-0.022
-437.749	-106.124	-0.212	0.047
-436.734	295.377	0.112	0.203
-435.719	800.000	0.130	-0.356
-434.705	-121.227	-0.282	0.047
-433.690	34.111	-0.307	0.264
-432.676	-173.693	0.205	-0.006
-431.661	-200.000	-0.018	0.209
-430.646	-181.217	-0.192	0.004
-429.632	-186.858	0.286	-0.004
-428.617	-86.212	0.121	0.037
-427.603	117.862	-0.055	-0.067
-426.588	-34.508	0.140	0.076
-425.573	-31.038	0.334	0.186
-424.559	25.301	-0.387	-0.317
-423.544	-200.000	-0.085	-0.422
-422.530	407.714	0.153	-0.319
-421.515	194.057	0.133	-0.199
-420.500	149.438	-0.141	0.188
-419.486	-20.961	0.143	0.087
-418.471	-4.157	-0.040	-0.027
-417.457	34.848	-0.066	0.057
-416.442	-200.000	-0.011	0.311
-415.428	-128.871	0.073	0.010
-414.413	-200.000	0.032	-0.214
-413.398	-200.000	0.020	-0.126
-412.384	-183.723	-0.241	0.004
-411.369	-200.000	-0.014	0.311
-410.355	350.267	-0.217	-0.423
-409.340	-131.663	-0.306	-0.040
-408.325	69.077	0.057	0.058
-407.311	-200.000	-0.019	0.171
-406.296	-200.000	-0.002	-0.027
-405.282	-52.938	-0.121	-0.055
-404.267	83.318	-0.084	-0.090
-403.252	194.831	-0.228	0.341
-402.238	-200.000	0.043	0.332
-401.223	65.439	-0.114	0.114
-400.209	-200.000	0.030	-0.410
-399.194	-28.235	-0.249	0.142
-398.179	-200.000	0.012	-0.118
-397.165	334.506	0.134	-0.256
-396.150	3.656	0.227	0.163
-395.136	-200.000	-0.013	-0.065
-394.121	23.633	0.050	0.041
-393.106	-62.839	0.438	0.179
-392.092	184.824	-0.201	-0.294
-391.077	-28.995	-0.364	-0.206
-390.063	-157.939	0.134	-0.008
-389.048	698.051	-0.062	-0.161
-388.033	-200.000	0.017	-0.371
-387.019	492.558	0.069	0.156
-386.004	-35.154	-0.258	-0.139
-384.990	-200.000	-0.033	0.258
-383.975	-165.948	0.150	-0.006
-382.960	800.000	0.106	-0.290
-381.946	-110.569	-0.139	-0.028
-380.931	299.036	0.067	-0.122
-379.917	-96.966	0.349	-0.090
-378.902	-2.709	0.232	-0.160
-377.888	-150.133	-0.308	-0.024
-376.873	284.108	-0.138	-0.244
-375.858	-65.500	0.143	-0.057
-374.844	-63.611	-0.123	-0.050
-373.829	-200.000	-0.014	0.086
-372.815	71.413	-0.176	-0.180
-371.800	800.000	-0.007	0.019
-370.785	-154.216	0.360	-0.024
-369.771	-117.329	-0.129	-0.023
-368.756	120.346	0.119	0.145
-367.742	-200.000	-0.033	-0.152
-366.727	140.340	-0.279	0.362
-365.712	189.702	0.078	-0.116
-364.698	100.567	0.052	0.059
-363.683	-100.865	-0.139	0.034
-362.669	0.705	0.232	0.163
-361.654	-142.958	-0.468	0.045
-360.639	-200.000	0.054	0.408
-359.625	-200.000	-0.004	-0.129
-358.610	68.930	0.133	0.135
-357.596	161.590	0.057	-0.079
-356.581	800.000	0.064	-0.220
-355.566	123.530	0.245	-0.302
-354.552	-7.253	-0.237	0.158
-353.537	92.464	0.085	-0.094
-352.523	-119.983	-0.122	-0.021
-351.508	-8.109	0.150	0.099
-350.493	800.000	-0.130	-0.487
-349.479	220.769	0.027	-0.042
-348.464	-177.240	-0.179	-0.004
-347.450	-108.105	-0.141	0.030
-346.435	-200.000	0.019	0.407
-345.420	800.000	0.062	0.196
-344.406	-38.083	-0.110	-0.058
-343.391	-200.000	0.019	-0.358
-342.377	390.738	-0.181	0.369
-341.362	-33.646	0.232	0.126
-340.348	-200.000	0.045	-0.420
-339.333	53.285	0.025	0.024
-338.318	-200.000	0.012	-0.196
-337.304	-135.199	0.160	0.019
-336.289	506.931	-0.078	-0.177
-335.275	-117.021	-0.138	-0.025
-334.260	-76.275	-0.109	0.038
-333.245	-200.000	0.037	-0.301
-332.231	-180.748	0.211	0.004
-331.216	800.000	-0.026	-0.087
-330.202	621.307	-0.069	0.170
-329.187	-154.646	-0.215	-0.014
-328.172	-151.151	-0.248	-0.018
-327.158	129.542	0.152	0.191
-326.143	397.356	-0.075	0.155
-325.129	40.887	-0.087	0.077
-324.114	24.232	0.166	0.134
-323.099	-58.128	-0.198	-0.085
-322.085	596.333	-0.144	-0.351
-321.070	-96.027	0.059	0.015
-320.056	542.580	0.249	0.584
-319.041	360.977	-0.024	-0.047
-318.026	59.330	-0.184	-0.178
-317.012	-200.000	-0.008	-0.143
-315.997	1.309	0.142	0.100
-314.983	218.893	0.164	0.257
-313.968	-10.938	-0.050	-0.032
-312.953	6.301	0.080	0.058
-311.939	271.921	0.057	0.099
-310.924	228.461	-0.147	-0.235
-309.910	21.061	-0.048	0.038
-308.895	-104.795	0.061	0.014
-307.880	76.881	0.204	0.213
-306.866	12.537	-0.196	0.149
-305.851	800.000	0.055	-0.227
-304.837	162.239	-0.100	0.137
-303.822	-200.000	-0.038	-0.270
-302.807	-109.596	-0.158	-0.033
-301.793	-30.556	0.173	0.096
-300.778	-124.604	-0.203	0.031
-299.764	-181.097	-0.163	-0.003
-298.749	-178.604	0.179	0.004
-297.735	88.079	0.118	-0.129
-296.720	-139.518	0.407	0.043
-295.705	248.492	-0.029	-0.049
-294.691	-200.000	-0.033	0.167
-293.676	-200.000	-0.012	0.088
-292.662	-99.670	-0.353	-0.087
-291.647	212.597	-0.118	-0.183
-290.632	-79.602	0.052	0.017
-289.618	-139.929	-0.108	-0.011
-288.603	408.428	0.084	-0.175
-287.589	-15.542	0.162	-0.102
-286.574	-6.797	-0.217	0.145
-285.559	133.956	-0.170	-0.216
-284.545	488.191	-0.023	0.052
-283.530	49.366	0.201	0.185
-282.516	800.000	-0.140	0.427
-281.501	-21.350	-0.367	0.220
-280.486	-76.080	0.100	0.035
-279.472	35.158	-0.092	0.079
-278.457	800.000	0.034	-0.095
-277.443	-200.000	0.014	0.141
-276.428	141.678	0.080	0.104
-275.413	-23.143	-0.338	-0.200
-274.399	800.000	-0.049	0.170
-273.384	-28.951	0.340	0.192
-272.370	58.103	-0.258	-0.248
-271.355	399.312	0.030	-0.063
-270.340	56.404	0.273	0.260
-269.326	-123.306	0.080	-0.013
-268.311	323.462	-0.015	-0.028
-267.297	-200.000	-0.057	0.373
-266.282	288.065	0.066	-0.117
-265.267	-200.000	-0.011	0.138
-264.253	121.432	0.041	0.050
-263.238	-105.261	0.178	0.040
-262.224	800.000	-0.046	-0.159
-261.209	800.000	-0.069	0.290
-260.195	-31.025	0.087	0.048
-259.180	-86.853	-0.368	0.110
-258.165	-101.303	-0.293	0.070
-257.151	165.890	-0.018	-0.025
-256.136	-136.156	0.362	0.042
-255.122	71.979	0.066	0.067
-254.107	-109.763	0.095	0.020
-253.092	124.578	0.039	0.048
-252.078	23.544	0.266	0.215
-251.063	-156.534	0.174	0.011
-250.049	72.376	0.067	-0.068
-249.034	80.601	0.135	0.142
-248.019	322.553	-0.053	0.099
-247.005	-163.955	-0.262	-0.012
-245.990	-76.083	-0.182	0.063
-244.976	-33.934	-0.197	0.106
-243.961	412.563	-0.093	0.194
-242.946	-72.599	0.145	-0.053
-241.932	20.008	-0.324	-0.256
-240.917	-6.256	0.123	0.082
-239.903	-44.461	-0.070	0.034
-238.888	800.000	-0.072	-0.242
-237.873	232.848	0.171	0.275
-236.859	174.059	0.082	-0.116
-235.844	-119.604	0.271	0.046
-234.830	-80.081	-0.100	0.033
-233.815	202.954	-0.199	-0.302
-232.800	156.385	0.121	0.164
-231.786	800.000	-0.161	0.516
-230.771	-56.322	0.390	-0.170
-229.757	800.000	-0.080	0.226
-228.742	305.703	0.076	0.138
-227.727	-200.000	-0.079	-0.503
-226.713	-167.572	-0.139	0.005
-225.698	682.678	-0.037	0.094
-224.684	-2.948	0.059	-0.040
-223.669	225.777	0.120	0.191
-222.655	76.165	0.118	0.122
-221.640	641.999	-0.107	0.268
-220.625	-168.900	0.240	-0.009
-219.611	-175.571	0.121	-0.003
-218.596	-200.000	-0.027	-0.352
-217.582	164.515	-0.130	0.180
-216.567	162.886	-0.180	0.248
-215.552	800.000	-0.007	-0.029
-214.538	800.000	-0.039	-0.115
-213.523	-69.259	-0.104	-0.039
-212.509	264.731	0.118	0.202
-211.494	-200.000	0.004	0.397
-210.479	314.792	0.078	-0.145
-209.465	-21.842	0.091	0.054
-208.450	-200.000	-0.009	-0.202
-207.436	-200.000	-0.044	0.229
-206.421	-138.949	-0.279	-0.030
-205.406	-56.134	0.417	-0.182
-204.392	-62.366	-0.237	0.097
-203.377	14.060	-0.341	0.260
-202.363	-71.537	0.172	0.063
-201.348	152.168	-0.138	0.185
-200.333	-192.472	-0.137	0.001
-199.319	800.000	0.078	-0.227
-198.304	-138.582	-0.088	-0.009
-197.290	-99.166	0.185	-0.046
-196.275	-200.000	-0.023	0.490
-195.260	21.022	-0.172	0.137
-194.246	151.301	0.104	-0.139
-193.231	-200.000	-0.025	0.232
-192.217	-28.569	0.131	0.074
-191.202	1.031	-0.119	0.083
-190.187	800.000	-0.131	0.400
-189.173	-97.206	-0.360	-0.092
-188.158	666.567	0.056	-0.142
-187.144	-200.000	-0.020	0.304
-186.129	-130.025	0.113	-0.015
-185.114	-132.599	0.399	-0.050
-184.100	338.682	0.082	-0.157
-183.085	161.271	0.166	-0.227
-182.071	-60.355	-0.034	-0.014
-181.056	800.000	0.069	0.236
-180.042	-54.852	-0.251	0.111
-179.027	-200.000	-0.021	-0.227
-178.012	469.812	-0.098	0.216
-176.998	144.436	-0.032	0.042
-175.983	-200.000	0.011	-0.114
-174.969	-200.000	-0.029	0.180
-173.954	-103.871	0.312	0.071
-172.939	139.995	-0.159	0.205
-171.925	-22.030	0.254	0.151
-170.910	-44.653	0.053	-0.026
-169.896	36.125	0.134	0.115
-168.881	-200.000	0.010	-0.200
-167.866	-5.039	-0.273	-0.184
-166.852	-200.000	-0.000	0.202
-165.837	800.000	0.080	0.222
-164.823	-200.000	0.004	-0.222
-163.808	-200.000	-0.031	0.274
-162.793	-90.244	-0.193	0.055
-161.779	-118.450	-0.221	0.038
-160.764	632.611	0.060	0.148
-159.750	11.797	0.060	0.045
-158.735	-39.574	-0.306	-0.156
-157.720	-15.074	0.187	-0.117
-156.706	800.000	-0.039	-0.132
-155.691	-2.582	0.148	-0.101
-154.677	-128.246	-0.059	0.008
-153.662	-113.879	-0.055	0.010
-152.647	688.715	0.015	0.039
-151.633	-51.406	0.095	0.043
-150.618	-147.969	0.120	-0.010
-149.604	-200.000	0.017	0.224
-148.589	482.861	-0.113	-0.251
-147.574	-24.243	0.313	0.182
-146.560	119.397	-0.067	-0.081
-145.545	19.151	-0.261	0.204
-144.531	-99.702	0.322	-0.079
-143.516	-200.000	-0.067	0.505
-142.502	-3.439	-0.349	-0.237
-141.487	128.481	0.052	-0.065
-140.472	-102.939	0.208	0.048
-139.458	-12.127	0.058	0.037
-138.443	307.266	-0.087	0.158
-137.429	800.000	0.054	0.163
-136.414	-122.911	0.068	-0.011
-135.399	88.355	-0.118	0.127
-134.385	-200.000	0.010	0.186
-133.370	690.296	-0.074	-0.188
-132.356	-200.000	-0.015	-0.429
-131.341	212.144	0.078	-0.120
-130.326	-101.900	-0.135	-0.032
-129.312	-83.773	0.229	0.071
-128.297	2.848	0.078	0.055
-127.283	46.221	-0.117	-0.105
-126.268	131.690	0.227	0.285
-125.253	86.399	0.166	0.178
-124.239	155.018	0.109	-0.147
-123.224	-200.000	-0.011	-0.232
-122.210	246.626	-0.028	0.046
