DTS Sentinel unit serial number:	SN413079Multiplexer serial number:	ORYXHardware model number:	OX4-SRSoftware version number:	ORYX F/W v4.00 Oryx Data Collector v3.7.2.0data status	okinstallation	princeton_trtdifferential loss correction	single-endedforward channel	channel 2reverse channel	N/Adate	2019/09/16time	03:51:35forward acquisition time	60.00reverse acquisition time	0.00gamma	496.2192k internal	0.2334k external	0.2334temperature offset calibration	0.9973default loss term (dB/km)	0.3790temperature slope calibration	1.0000multiplexer offset coefficient	1.0000multiplexer slope coefficient	1.0000fibre end	0.00T internal ref (°C)	27.55T ext. ref 1 (°C)	10.67T ext. ref 2 (°C)	21.63length (m)	temperature (°C)	Stokes	anti-Stokes-747.200	-200.000	-0.047	-0.292
-746.185	-87.813	-0.243	0.074
-745.171	800.000	-0.074	0.273
-744.156	800.000	0.055	0.201
-743.142	721.922	0.067	-0.180
-742.127	-200.000	0.059	0.476
-741.112	288.849	0.218	-0.397
-740.098	-101.922	0.126	0.031
-739.083	800.000	0.015	-0.048
-738.069	502.907	-0.128	0.297
-737.054	-67.296	-0.073	0.029
-736.039	267.782	-0.130	-0.228
-735.025	70.148	0.497	0.515
-734.010	-200.000	-0.245	0.000
-732.996	-28.409	-0.382	-0.221
-731.981	-200.000	-0.007	-0.161
-730.966	-43.989	0.131	-0.066
-729.952	-121.461	0.133	-0.022
-728.937	-12.127	-0.213	-0.140
-727.923	-200.000	0.056	0.338
-726.908	-110.637	-0.126	0.026
-725.894	-12.752	-0.423	-0.277
-724.879	1.074	0.022	-0.016
-723.864	107.469	-0.148	0.177
-722.850	642.218	0.047	-0.121
-721.835	-96.301	-0.273	0.072
-720.821	35.759	0.172	0.152
-719.806	126.136	0.139	-0.177
-718.791	-112.156	0.199	0.040
-717.777	3.080	0.445	0.325
-716.762	-58.668	0.080	0.035
-715.748	179.968	0.119	0.176
-714.733	424.728	0.145	-0.313
-713.718	-177.617	-0.126	0.003
-712.704	-200.000	0.023	0.366
-711.689	800.000	0.049	0.162
-710.675	35.660	-0.209	-0.185
-709.660	-200.000	-0.018	0.092
-708.645	-43.537	-0.410	0.208
-707.631	-139.269	0.090	0.010
-706.616	55.258	0.066	0.064
-705.602	-170.848	-0.275	0.009
-704.587	800.000	-0.007	0.022
-703.572	-24.669	-0.131	-0.078
-702.558	255.331	-0.053	-0.091
-701.543	800.000	0.021	-0.080
-700.529	-58.075	0.029	0.013
-699.514	800.000	0.121	0.474
-698.499	-88.201	-0.151	0.045
-697.485	-127.195	0.018	-0.003
-696.470	160.418	0.026	0.036
-695.456	138.768	-0.069	0.091
-694.441	311.761	0.244	0.459
-693.426	19.307	0.122	0.098
-692.412	-129.878	-0.347	0.048
-691.397	-19.845	0.116	0.072
-690.383	100.055	-0.159	0.184
-689.368	370.477	-0.120	-0.243
-688.354	36.027	-0.259	-0.229
-687.339	324.571	0.096	-0.184
-686.324	138.266	-0.047	-0.062
-685.310	-49.515	0.156	-0.075
-684.295	76.195	-0.073	-0.077
-683.281	-83.551	0.091	0.029
-682.266	-112.842	-0.141	-0.028
-681.251	-200.000	0.003	0.274
-680.237	-123.776	0.173	-0.027
-679.222	105.128	0.134	-0.159
-678.208	107.812	-0.329	0.393
-677.193	630.477	0.092	-0.234
-676.178	493.381	0.096	-0.221
-675.164	-163.192	0.088	0.004
-674.149	40.738	0.367	-0.331
-673.135	41.772	0.104	-0.095
-672.120	-81.725	0.077	0.025
-671.105	-24.871	0.306	0.182
-670.091	775.162	-0.039	0.106
-669.076	-189.684	-0.100	0.001
-668.062	-159.461	0.105	-0.006
-667.047	-200.000	0.029	0.234
-666.032	72.781	-0.197	-0.206
-665.018	-99.297	0.213	0.054
-664.003	-13.659	0.034	-0.022
-662.989	-200.000	-0.019	0.097
-661.974	107.984	-0.096	0.115
-660.959	30.892	0.219	0.188
-659.945	-79.850	-0.136	0.046
-658.930	-200.000	-0.053	-0.242
-657.916	-200.000	-0.039	-0.353
-656.901	-200.000	0.053	0.278
-655.886	-200.000	0.015	-0.331
-654.872	-102.488	-0.249	0.060
-653.857	800.000	-0.041	0.162
-652.843	-200.000	0.007	-0.125
-651.828	-150.347	-0.207	0.016
-650.814	-26.642	-0.139	0.081
-649.799	589.751	-0.034	0.085
-648.784	11.393	-0.236	0.181
-647.770	745.970	0.123	0.333
-646.755	692.069	0.082	-0.214
-645.741	328.392	0.085	-0.164
-644.726	305.183	0.135	0.251
-643.711	369.915	0.104	0.211
-642.697	-34.330	-0.250	0.137
-641.682	800.000	0.062	-0.211
-640.668	-200.000	-0.014	-0.144
-639.653	-173.697	0.152	-0.005
-638.638	-127.158	0.083	-0.012
-637.624	49.847	0.087	-0.082
-636.609	-200.000	-0.023	0.142
-635.595	61.305	-0.215	-0.213
-634.580	-98.671	-0.378	-0.096
-633.565	-125.704	-0.473	0.072
-632.551	-161.660	0.114	-0.006
-631.536	-151.312	0.090	0.007
-630.522	-80.752	-0.391	-0.130
-629.507	130.152	-0.194	-0.249
-628.492	-3.816	0.101	0.070
-627.478	-78.359	-0.102	-0.035
-626.463	61.018	-0.046	-0.046
-625.449	101.963	0.182	-0.213
-624.434	334.328	0.029	0.056
-623.419	153.216	-0.158	0.217
-622.405	109.911	0.274	-0.329
-621.390	7.184	0.086	-0.064
-620.376	800.000	-0.063	-0.206
-619.361	305.735	-0.086	0.160
-618.346	800.000	0.037	-0.127
-617.332	-23.179	0.242	0.146
-616.317	64.487	-0.034	-0.034
-615.303	489.705	-0.175	-0.400
-614.288	233.958	-0.099	-0.162
-613.273	-180.856	0.077	-0.002
-612.259	-116.649	-0.195	-0.036
-611.244	800.000	-0.137	0.416
-610.230	150.299	-0.188	0.255
-609.215	-111.223	-0.296	0.061
-608.201	-200.000	-0.072	0.340
-607.186	800.000	0.112	0.328
-606.171	-30.160	-0.224	-0.127
-605.157	118.099	0.064	0.079
-604.142	20.222	-0.203	0.164
-603.128	-76.044	-0.169	-0.060
-602.113	-168.287	0.228	-0.009
-601.098	291.801	-0.338	-0.615
-600.084	-121.434	0.488	0.081
-599.069	-76.970	0.321	0.112
-598.055	-200.000	-0.024	-0.216
-597.040	-200.000	0.027	0.350
-596.025	-28.640	0.131	0.075
-595.011	510.110	-0.125	0.291
-593.996	-177.528	-0.299	-0.007
-592.982	-12.579	0.273	-0.178
-591.967	-90.061	0.128	0.037
-590.952	-200.000	-0.040	-0.215
-589.938	110.333	-0.104	-0.125
-588.923	407.989	0.074	0.157
-587.909	-148.565	-0.101	0.008
-586.894	5.100	0.135	-0.099
-585.879	333.832	0.104	0.200
-584.865	-137.155	-0.342	0.039
-583.850	-117.226	0.100	-0.018
-582.836	350.137	-0.071	0.140
-581.821	13.189	-0.148	0.114
-580.806	-200.000	0.005	-0.143
-579.792	65.017	0.090	0.090
-578.777	800.000	0.016	-0.062
-577.763	-200.000	-0.008	0.109
-576.748	-153.277	-0.124	0.009
-575.733	521.421	0.164	-0.384
-574.719	299.131	0.061	-0.112
-573.704	205.619	-0.052	0.080
-572.690	800.000	0.078	-0.275
-571.675	-200.000	-0.014	-0.139
-570.661	392.497	-0.164	-0.341
-569.646	-143.256	0.112	0.011
-568.631	-14.152	-0.433	-0.279
-567.617	-200.000	-0.002	0.094
-566.602	74.895	-0.157	-0.165
-565.588	-58.592	0.307	-0.133
-564.573	-200.000	0.025	-0.123
-563.558	-77.153	-0.057	0.020
-562.544	65.990	-0.219	-0.222
-561.529	-94.847	-0.050	-0.014
-560.515	800.000	0.047	-0.173
-559.500	550.282	-0.088	-0.211
-558.485	-162.740	0.187	-0.009
-557.471	416.923	-0.013	0.029
-556.456	-200.000	0.016	0.359
-555.442	-77.747	0.138	-0.047
-554.427	-67.526	0.144	-0.056
-553.412	-47.845	0.228	-0.110
-552.398	273.771	0.074	0.130
-551.383	243.919	-0.158	-0.264
-550.369	25.467	-0.358	-0.297
-549.354	-200.000	-0.005	-0.171
-548.339	13.422	-0.149	0.115
-547.325	-88.614	-0.091	-0.027
-546.310	-107.514	-0.263	0.057
-545.296	-200.000	0.048	-0.325
-544.281	800.000	-0.017	-0.064
-543.266	4.924	-0.093	-0.068
-542.252	-31.082	-0.140	-0.079
-541.237	-200.000	-0.016	0.149
-540.223	219.100	-0.106	0.169
-539.208	178.380	0.211	-0.306
-538.193	-54.640	0.241	-0.108
-537.179	-1.844	-0.151	-0.106
-536.164	-110.041	0.043	-0.009
-535.150	-116.200	0.322	0.060
-534.135	36.037	0.074	-0.065
-533.121	-69.172	0.235	0.090
-532.106	800.000	0.078	0.238
-531.091	-23.331	-0.288	-0.173
-530.077	-4.116	-0.115	0.079
-529.062	800.000	-0.050	0.160
-528.048	-82.082	0.271	0.088
-527.033	162.391	0.025	-0.035
-526.018	-36.914	-0.241	-0.129
-525.004	-45.385	-0.218	0.108
-523.989	-200.000	-0.006	0.045
-522.975	800.000	-0.006	-0.021
-521.960	-144.943	-0.218	-0.020
-520.945	-169.834	-0.100	-0.004
-519.931	1.286	0.184	-0.132
-518.916	-43.987	-0.215	-0.108
-517.902	756.271	-0.126	-0.338
-516.887	-121.170	-0.064	-0.011
-515.872	356.317	0.090	0.178
-514.858	-97.786	-0.318	0.082
-513.843	635.946	0.110	0.279
-512.829	36.791	0.224	-0.197
-511.814	185.683	-0.101	0.149
-510.799	-69.379	-0.079	-0.030
-509.785	227.361	-0.179	-0.290
-508.770	-148.434	0.143	0.012
-507.756	-130.772	0.453	-0.061
-506.741	-41.388	-0.233	-0.119
-505.726	-200.000	0.002	0.101
-504.712	131.804	-0.065	0.083
-503.697	44.329	-0.207	-0.189
-502.683	51.719	0.067	0.063
-501.668	-72.324	-0.163	-0.060
-500.653	-91.525	0.287	0.082
-499.639	4.842	-0.235	0.172
-498.624	-113.136	0.253	0.050
-497.610	-126.160	-0.131	0.019
-496.595	-200.000	-0.002	0.026
-495.581	-123.053	0.375	0.060
-494.566	-87.975	-0.130	0.039
-493.551	140.113	-0.146	0.191
-492.537	-130.852	-0.495	0.066
-491.522	-66.312	0.242	-0.096
-490.508	351.341	0.180	-0.355
-489.493	54.210	0.133	-0.127
-488.478	78.524	0.125	0.133
-487.464	297.951	-0.080	0.146
-486.449	-39.263	-0.188	0.098
-485.435	-200.000	0.010	-0.100
-484.420	-77.447	0.139	0.048
-483.405	242.954	-0.029	0.049
-482.391	-200.000	0.021	-0.114
-481.376	-99.521	-0.077	0.019
-480.362	800.000	-0.099	-0.278
-479.347	3.871	-0.124	0.090
-478.332	13.546	-0.255	0.197
-477.318	-52.512	0.314	-0.144
-476.303	491.234	-0.075	0.172
-475.289	-200.000	0.001	0.134
-474.274	-200.000	0.031	-0.310
-473.259	288.703	0.195	-0.351
-472.245	521.836	0.017	-0.041
-471.230	-144.277	0.067	-0.006
-470.216	190.315	0.134	-0.200
-469.201	-74.443	0.083	-0.030
-468.186	-132.109	-0.131	0.017
-467.172	47.561	-0.061	-0.056
-466.157	-200.000	0.006	-0.077
-465.143	107.737	-0.062	-0.074
-464.128	113.264	-0.261	0.315
-463.113	-6.143	-0.169	0.115
-462.099	-54.877	0.039	-0.017
-461.084	800.000	0.133	-0.426
-460.070	219.049	0.083	-0.132
-459.055	-54.588	-0.290	0.130
-458.040	66.026	0.112	0.113
-457.026	800.000	0.037	-0.104
-456.011	-187.739	-0.395	0.005
-454.997	-51.298	-0.103	0.048
-453.982	-200.000	0.010	0.334
-452.968	269.525	-0.097	0.169
-451.953	-5.608	0.230	0.157
-450.938	254.667	-0.059	0.100
-449.924	214.750	0.174	-0.275
-448.909	-33.618	0.209	0.115
-447.895	234.941	0.033	0.054
-446.880	-103.671	-0.144	-0.033
-445.865	-149.523	-0.148	-0.012
-444.851	800.000	-0.186	-0.517
-443.836	281.945	0.137	-0.244
-442.822	182.067	-0.347	0.507
-441.807	-36.539	0.175	-0.093
-440.792	310.581	-0.206	0.383
-439.778	-103.674	-0.133	0.031
-438.763	-90.180	0.388	0.112
-437.749	559.061	-0.116	0.279
-436.734	-200.000	-0.003	0.074
-435.719	-200.000	0.058	-0.277
-434.705	130.786	0.059	-0.075
-433.690	19.157	0.086	-0.069
-432.676	163.417	0.077	0.108
-431.661	-1.194	0.149	0.105
-430.646	-137.247	-0.152	-0.017
-429.632	552.197	0.172	0.411
-428.617	-73.573	0.153	0.056
-427.603	-157.434	0.187	-0.011
-426.588	-147.833	-0.131	0.011
-425.573	173.472	0.078	-0.112
-424.559	-22.777	-0.179	0.107
-423.544	-133.651	-0.221	0.027
-422.530	-5.226	0.274	-0.187
-421.515	800.000	0.042	-0.152
-420.500	-73.128	0.254	0.092
-419.486	127.998	0.134	0.169
-418.471	-200.000	0.033	0.218
-417.457	-101.876	-0.295	0.071
-416.442	-200.000	0.014	-0.127
-415.428	-155.037	0.067	-0.004
-414.413	192.101	0.147	-0.220
-413.398	68.601	0.124	-0.126
-412.384	300.391	-0.076	0.140
-411.369	407.436	0.118	0.247
-410.355	595.726	-0.190	0.467
-409.340	13.042	-0.187	0.143
-408.325	308.604	-0.093	0.172
-407.311	-200.000	-0.009	-0.136
-406.296	11.829	0.186	0.141
-405.282	-200.000	0.098	0.505
-404.267	369.279	-0.114	0.228
-403.252	-200.000	-0.044	0.218
-402.238	-91.270	0.531	-0.151
-401.223	7.422	0.153	0.113
-400.209	-86.196	0.070	0.021
-399.194	518.715	-0.153	0.356
-398.179	-200.000	0.023	0.195
-397.165	454.461	-0.184	0.404
-396.150	-169.801	-0.110	0.004
-395.136	141.759	-0.020	0.026
-394.121	-66.381	0.180	0.071
-393.106	283.875	0.095	0.169
-392.092	280.611	-0.098	0.174
-391.077	-88.827	0.208	0.061
-390.063	54.850	0.151	0.144
-389.048	615.258	0.090	0.223
-388.033	-24.595	0.046	-0.027
-387.019	800.000	-0.120	-0.337
-386.004	-80.020	-0.266	0.088
-384.990	276.347	0.091	-0.160
-383.975	75.725	0.170	0.178
-382.960	-10.914	-0.158	-0.104
-381.946	-200.000	-0.049	-0.231
-380.931	-200.000	-0.016	-0.117
-379.917	415.971	0.044	0.093
-378.902	29.414	0.034	0.028
-377.888	-41.974	0.103	0.052
-376.873	-30.656	0.233	0.130
-375.858	297.407	-0.227	0.414
-374.844	-149.913	0.138	-0.011
-373.829	-120.615	0.273	0.046
-372.815	280.679	-0.203	-0.360
-371.800	131.217	-0.217	-0.277
-370.785	-111.397	-0.438	0.088
-369.771	5.472	-0.318	-0.233
-368.756	147.891	-0.021	-0.028
-367.742	-158.784	-0.250	-0.014
-366.727	-200.000	-0.029	-0.292
-365.712	388.521	-0.214	-0.438
-364.698	126.417	-0.217	-0.272
-363.683	-200.000	-0.015	0.162
-362.669	-78.199	-0.130	-0.044
-361.654	-63.673	-0.192	-0.078
-360.639	203.336	0.236	-0.361
-359.625	-79.312	-0.119	0.040
-358.610	16.783	0.339	0.266
-357.596	-200.000	-0.014	-0.168
-356.581	-131.315	0.360	-0.047
-355.566	447.138	-0.012	0.026
-354.552	504.242	0.075	-0.172
-353.537	-114.312	0.369	0.070
-352.523	800.000	-0.093	-0.298
-351.508	-200.000	-0.056	-0.279
-350.493	37.079	0.212	0.186
-349.479	-6.844	-0.111	-0.075
-348.464	-28.564	0.328	0.187
-347.450	139.813	0.045	0.058
-346.435	526.045	-0.099	0.231
-345.420	-11.844	-0.122	-0.079
-344.406	174.125	0.148	-0.212
-343.391	-133.517	-0.176	-0.022
-342.377	114.314	0.024	0.029
-341.362	-54.590	-0.227	-0.102
-340.348	-89.364	-0.224	0.065
-339.333	25.152	-0.164	0.134
-338.318	-71.628	0.207	-0.077
-337.304	800.000	-0.095	0.347
-336.289	-164.669	0.102	0.005
-335.275	-49.255	0.173	-0.082
-334.260	494.474	-0.203	0.460
-333.245	-200.000	-0.005	0.068
-332.231	-23.414	-0.262	0.155
-331.216	28.364	0.251	0.210
-330.202	800.000	0.048	0.179
-329.187	800.000	0.121	-0.367
-328.172	-80.011	-0.321	-0.107
-327.158	628.860	-0.049	0.121
-326.143	209.596	0.216	-0.334
-325.129	434.782	-0.046	-0.100
-324.114	-85.016	0.144	0.045
-323.099	-128.934	0.200	-0.028
-322.085	776.397	-0.078	0.212
-321.070	-143.042	0.334	0.032
-320.056	-109.714	-0.205	0.043
-319.041	146.007	0.173	0.230
-318.026	-200.000	-0.042	0.289
-317.012	-110.037	0.205	-0.042
-315.997	96.695	0.115	0.130
-314.983	800.000	-0.072	-0.258
-313.968	-118.928	0.212	-0.037
-312.953	-47.650	-0.158	0.076
-311.939	357.669	-0.080	0.157
-310.924	800.000	0.060	-0.197
-309.910	-158.204	0.155	-0.009
-308.895	-200.000	0.004	0.060
-307.880	-200.000	0.040	0.339
-306.866	-69.731	0.131	-0.049
-305.851	-112.474	-0.320	-0.063
-304.837	-200.000	0.002	-0.024
-303.822	11.068	0.151	0.114
-302.807	-200.000	0.024	-0.351
-301.793	66.541	-0.232	-0.233
-300.778	256.250	-0.162	-0.275
-299.764	466.624	0.040	0.087
-298.749	-133.047	0.056	-0.007
-297.735	32.920	-0.081	-0.069
-296.720	227.038	0.297	-0.476
-295.705	-76.184	0.231	-0.080
-294.691	-99.533	0.261	-0.065
-293.676	18.027	-0.041	-0.032
-292.662	-200.000	-0.057	-0.377
-291.647	-200.000	0.007	0.103
-290.632	-200.000	-0.060	-0.308
-289.618	610.541	-0.047	-0.117
-288.603	-121.369	-0.045	0.007
-287.589	-53.961	0.300	0.135
-286.574	730.494	-0.124	0.328
-285.559	29.829	0.076	-0.064
-284.545	40.722	0.305	0.271
-283.530	-200.000	0.014	-0.082
-282.516	-8.404	-0.110	0.073
-281.501	272.267	0.103	0.179
-280.486	-31.495	0.125	0.069
-279.472	-70.956	0.193	-0.072
-278.457	-7.880	0.183	-0.122
-277.443	65.909	0.052	0.052
-276.428	591.826	0.039	0.096
-275.413	-98.945	-0.201	-0.050
-274.399	332.099	-0.109	-0.208
-273.384	252.160	0.104	-0.176
-272.370	-86.991	-0.228	0.068
-271.355	32.172	0.157	-0.133
-270.340	304.205	-0.021	0.038
-269.326	-76.715	0.322	-0.111
-268.311	374.149	0.028	-0.056
-267.297	252.709	-0.190	0.319
-266.282	800.000	0.004	-0.013
-265.267	-123.135	-0.337	-0.053
-264.253	796.905	0.057	0.155
-263.238	65.033	0.071	0.071
-262.224	456.005	0.107	-0.234
-261.209	-80.564	0.286	-0.094
-260.195	-45.846	0.288	0.140
-259.180	-200.000	0.026	-0.120
-258.165	572.051	0.141	-0.339
-257.151	-112.366	-0.231	0.046
-256.136	-70.771	-0.121	0.045
-255.122	-200.000	-0.001	0.012
-254.107	-151.161	-0.091	0.007
-253.092	198.560	0.144	0.218
-252.078	-118.096	0.156	-0.027
-251.063	-53.124	0.173	0.078
-250.049	-67.260	0.272	0.105
-249.034	-20.652	-0.204	-0.124
-248.019	417.956	-0.120	0.254
-247.005	800.000	-0.021	0.070
-245.990	-200.000	0.057	-0.362
-244.976	-44.977	0.152	-0.074
-243.961	-126.736	0.101	0.015
-242.946	48.847	0.155	0.144
-241.932	245.989	0.109	0.181
-240.917	-124.514	-0.122	0.019
-239.903	374.930	-0.048	0.095
-238.888	-37.422	-0.191	0.100
-237.873	252.007	0.039	-0.065
-236.859	636.922	-0.031	-0.078
-235.844	-121.492	0.467	-0.076
-234.830	-200.000	-0.001	0.274
-233.815	-101.009	0.170	-0.041
-232.800	342.158	-0.027	0.052
-231.786	-200.000	0.008	-0.166
-230.771	137.177	0.190	0.245
-229.757	399.560	-0.094	-0.194
-228.742	-200.000	-0.023	0.227
-227.727	-200.000	0.015	0.120
-226.713	800.000	-0.103	-0.441
-225.698	-14.427	0.459	0.291
-224.684	130.784	-0.041	0.051
-223.669	71.917	-0.263	-0.269
-222.655	-87.298	0.110	-0.033
-221.640	390.419	-0.114	-0.232
-220.625	800.000	-0.032	0.090
-219.611	-200.000	0.023	-0.459
-218.596	65.523	-0.188	-0.188
-217.582	800.000	-0.028	0.108
-216.567	67.106	-0.121	-0.121
-215.552	-111.980	-0.322	-0.064
-214.538	-85.915	-0.239	-0.073
-213.523	-149.866	0.199	0.015
-212.509	-34.292	-0.212	-0.115
-211.494	25.587	0.235	0.193
-210.479	465.285	0.034	-0.075
-209.465	-94.209	0.201	0.054
-208.450	223.321	0.145	0.229
-207.436	-53.611	0.113	-0.051
-206.421	15.938	0.201	0.156
-205.406	800.000	0.062	0.263
-204.392	800.000	-0.017	-0.068
-203.377	800.000	0.017	0.070
-202.363	-138.442	-0.256	0.028
-201.348	144.678	0.060	0.079
-200.333	213.302	-0.172	-0.267
-199.319	696.539	-0.083	-0.214
-198.304	-200.000	0.029	-0.194
-197.290	219.106	0.141	0.221
-196.275	-12.804	0.186	-0.119
-195.260	-58.149	-0.312	0.134
-194.246	-8.043	0.223	-0.148
-193.231	-10.629	0.181	0.118
-192.217	269.572	-0.087	-0.150
-191.202	-200.000	0.070	0.351
-190.187	50.668	0.263	0.245
-189.173	-200.000	0.002	0.018
-188.158	-24.369	0.210	0.123
-187.144	-167.758	0.139	0.005
-186.129	-78.221	-0.171	0.058
-185.114	-200.000	0.030	-0.169
-184.100	-133.004	-0.066	-0.008
-183.085	-126.422	-0.129	0.019
-182.071	99.254	0.120	0.136
-181.056	-200.000	0.071	0.333
-180.042	-200.000	-0.016	0.218
-179.027	-20.969	-0.372	0.224
-178.012	-200.000	-0.021	-0.194
-176.998	434.863	-0.061	-0.131
-175.983	-117.381	-0.123	0.022
-174.969	-200.000	-0.027	0.278
-173.954	-116.165	0.432	-0.079
-172.939	141.060	0.099	0.129
-171.925	201.364	0.061	0.092
-170.910	-200.000	-0.004	-0.329
-169.896	-52.766	-0.264	-0.120
-168.881	800.000	-0.138	0.376
-167.866	800.000	-0.115	-0.386
-166.852	389.735	0.108	-0.219
-165.837	-39.408	-0.389	0.201
-164.823	-84.856	-0.263	0.081
-163.808	709.114	0.108	-0.281
-162.793	331.810	0.107	-0.203
-161.779	-35.771	-0.025	0.013
-160.764	58.742	-0.166	0.160
-159.750	-200.000	0.010	0.094
-158.735	-189.429	-0.148	0.002
-157.720	800.000	-0.055	0.196
-156.706	-9.933	-0.082	-0.054
-155.691	737.834	0.023	-0.061
-154.677	-81.580	-0.085	0.027
-153.662	-71.987	-0.115	-0.042
-152.647	800.000	0.125	0.464
-151.633	-53.519	0.189	-0.085
-150.618	-200.000	0.071	-0.417
-149.604	-56.469	0.196	-0.085
-148.589	2.710	-0.188	-0.134
-147.574	-34.223	0.320	0.173
-146.560	-69.924	-0.347	-0.130
-145.545	480.540	0.051	0.113
-144.531	-18.690	-0.196	0.120
-143.516	119.953	0.020	0.024
-142.502	-200.000	0.057	0.287
-141.487	-155.569	0.155	-0.010
-140.472	-200.000	0.070	0.478
-139.458	-200.000	0.038	-0.272
-138.443	91.054	-0.194	-0.213
-137.429	-108.249	0.169	0.036
-136.414	800.000	-0.041	0.135
-135.399	605.084	0.164	-0.400
-134.385	474.295	-0.143	0.316
-133.370	-200.000	0.013	-0.093
-132.356	721.464	-0.097	-0.253
-131.341	359.512	-0.215	-0.422
-130.326	-111.446	0.297	-0.059
-129.312	166.624	-0.059	0.081
-128.297	99.011	0.162	-0.183
-127.283	-31.915	0.374	-0.206
-126.268	-37.496	0.090	0.047
-125.253	-18.241	-0.230	0.141
-124.239	-200.000	-0.006	-0.095
-123.224	-200.000	-0.021	-0.373
-122.210	-139.653	-0.147	-0.015
-121.195	455.543	0.021	-0.045
