DTS Sentinel unit serial number:	SN413079Multiplexer serial number:	ORYXHardware model number:	OX4-SRSoftware version number:	ORYX F/W v4.00 Oryx Data Collector v3.7.2.0data status	okinstallation	princeton_trtdifferential loss correction	single-endedforward channel	channel 2reverse channel	N/Adate	2019/09/18time	00:35:35forward acquisition time	60.00reverse acquisition time	0.00gamma	496.2192k internal	0.2350k external	0.2350temperature offset calibration	0.9984default loss term (dB/km)	0.3790temperature slope calibration	1.0000multiplexer offset coefficient	1.0000multiplexer slope coefficient	1.0000fibre end	0.00T internal ref (°C)	23.50T ext. ref 1 (°C)	0.16T ext. ref 2 (°C)	17.17length (m)	temperature (°C)	Stokes	anti-Stokes-747.200	-23.465	0.397	0.238
-746.185	24.498	0.012	-0.010
-745.171	800.000	-0.100	-0.321
-744.156	330.817	-0.125	-0.241
-743.142	-70.153	0.190	0.072
-742.127	-35.116	-0.035	-0.019
-741.112	39.825	0.140	0.126
-740.098	-12.718	0.597	0.389
-739.083	-50.970	0.066	0.031
-738.069	45.106	-0.121	0.111
-737.054	99.273	-0.117	0.135
-736.039	512.684	-0.137	0.318
-735.025	-200.000	-0.037	0.185
-734.010	155.094	0.200	-0.275
-732.996	-56.213	-0.124	0.055
-731.981	800.000	-0.061	0.213
-730.966	-44.599	-0.181	-0.090
-729.952	299.497	0.119	-0.218
-728.937	-126.992	0.109	0.016
-727.923	-200.000	-0.004	-0.353
-726.908	-2.797	-0.461	-0.321
-725.894	-200.000	-0.014	-0.101
-724.879	-79.101	0.349	-0.118
-723.864	195.748	-0.123	-0.187
-722.850	-29.677	-0.233	0.133
-721.835	103.259	-0.211	0.246
-720.821	-121.833	-0.209	-0.034
-719.806	-53.209	-0.104	-0.048
-718.791	800.000	0.135	0.382
-717.777	-22.961	0.493	0.297
-716.762	-200.000	0.003	0.048
-715.748	-200.000	-0.007	0.268
-714.733	95.810	-0.153	0.174
-713.718	12.346	0.286	-0.220
-712.704	255.063	-0.129	-0.220
-711.689	13.211	0.191	0.148
-710.675	-10.232	-0.416	0.276
-709.660	20.205	-0.226	-0.182
-708.645	800.000	0.085	-0.345
-707.631	-34.992	0.237	0.129
-706.616	800.000	0.040	0.131
-705.602	-47.523	-0.252	-0.122
-704.587	-200.000	0.034	-0.336
-703.572	267.226	0.064	-0.112
-702.558	21.941	-0.236	0.191
-701.543	-126.095	-0.156	-0.023
-700.529	77.492	0.243	0.258
-699.514	-151.369	-0.206	-0.015
-698.499	-200.000	-0.039	-0.257
-697.485	-58.268	0.157	0.068
-696.470	-32.353	-0.268	-0.149
-695.456	-200.000	0.007	0.169
-694.441	-44.897	0.187	0.093
-693.426	-118.795	0.134	0.023
-692.412	-133.898	-0.074	0.009
-691.397	-62.590	0.110	0.045
-690.383	-104.360	0.285	0.066
-689.368	-13.907	-0.145	-0.094
-688.354	-110.538	0.144	0.030
-687.339	-145.043	0.248	0.023
-686.324	-109.730	0.099	-0.021
-685.310	139.451	-0.129	-0.169
-684.295	-200.000	-0.026	0.269
-683.281	-184.997	-0.302	0.005
-682.266	244.821	-0.039	-0.065
-681.251	-9.490	-0.077	-0.051
-680.237	-200.000	-0.011	0.175
-679.222	-200.000	0.017	-0.093
-678.208	800.000	0.091	-0.279
-677.193	414.223	0.048	-0.101
-676.178	800.000	-0.127	-0.421
-675.164	800.000	-0.035	-0.110
-674.149	-173.642	0.187	0.006
-673.135	-107.632	0.349	-0.076
-672.120	-200.000	0.000	-0.273
-671.105	-21.315	0.121	-0.074
-670.091	7.390	0.318	0.237
-669.076	-161.023	-0.407	-0.021
-668.062	-174.687	0.270	-0.008
-667.047	-200.000	0.008	-0.253
-666.032	-90.965	-0.347	-0.099
-665.018	-200.000	-0.042	-0.279
-664.003	237.061	0.044	-0.072
-662.989	-80.723	0.178	0.059
-661.974	-200.000	-0.027	-0.295
-660.959	800.000	-0.050	0.210
-659.945	280.528	0.118	0.210
-658.930	-78.932	-0.224	0.076
-657.916	-195.156	0.362	-0.003
-656.901	-73.583	0.234	-0.085
-655.886	800.000	-0.127	0.423
-654.872	141.300	-0.106	-0.139
-653.857	-200.000	-0.049	-0.277
-652.843	-59.370	-0.350	-0.150
-651.828	-200.000	0.327	-0.001
-650.814	-92.474	-0.265	-0.074
-649.799	-139.509	-0.376	0.040
-648.784	-11.390	0.135	0.088
-647.770	-109.832	-0.266	0.056
-646.755	-49.806	0.272	0.128
-645.741	800.000	0.036	-0.149
-644.726	-102.939	0.190	0.045
-643.711	-188.127	0.415	0.005
-642.697	-101.194	0.060	0.015
-641.682	25.482	0.153	-0.127
-640.668	758.112	-0.063	-0.169
-639.653	99.583	0.088	-0.101
-638.638	-100.599	-0.290	0.071
-637.624	607.856	0.137	-0.339
-636.609	-87.614	0.512	-0.154
-635.595	107.882	-0.127	-0.150
-634.580	-82.717	-0.340	-0.109
-633.565	-200.000	-0.004	0.282
-632.551	485.107	-0.126	-0.286
-631.536	628.410	-0.054	-0.135
-630.522	-18.349	-0.346	-0.215
-629.507	684.758	-0.060	-0.156
-628.492	81.480	0.249	0.267
-627.478	23.132	0.255	-0.208
-626.463	394.051	0.105	-0.218
-625.449	466.981	-0.076	0.170
-624.434	-18.621	0.139	0.086
-623.419	8.280	-0.220	-0.164
-622.405	-107.163	-0.223	0.049
-621.390	19.235	0.072	0.058
-620.376	17.139	-0.111	0.087
-619.361	46.742	-0.134	0.123
-618.346	-19.454	-0.057	0.035
-617.332	-200.000	0.016	0.147
-616.317	91.180	-0.218	-0.243
-615.303	12.742	0.081	-0.062
-614.288	-200.000	-0.007	-0.104
-613.273	696.597	-0.051	0.133
-612.259	-56.560	-0.159	0.070
-611.244	74.735	0.268	0.280
-610.230	-45.959	-0.104	-0.051
-609.215	-147.811	0.189	0.016
-608.201	-178.484	0.161	0.004
-607.186	-2.980	-0.292	0.203
-606.171	-57.281	-0.126	0.055
-605.157	-81.794	0.105	-0.034
-604.142	-90.441	0.121	-0.035
-603.128	-20.455	-0.357	0.218
-602.113	292.513	-0.052	0.094
-601.098	274.703	0.081	0.143
-600.084	-200.000	-0.062	-0.309
-599.069	-80.531	0.319	-0.105
-598.055	163.184	-0.050	-0.070
-597.040	-1.205	0.108	0.076
-596.025	0.816	-0.268	0.190
-595.011	800.000	-0.025	-0.094
-593.996	45.782	-0.071	0.065
-592.982	800.000	0.089	0.346
-591.967	800.000	-0.049	-0.146
-590.952	800.000	-0.086	-0.291
-589.938	-151.613	0.150	0.011
-588.923	-123.658	-0.482	-0.076
-587.909	800.000	0.022	-0.077
-586.894	-78.490	0.086	-0.029
-585.879	-108.513	0.113	0.024
-584.865	-200.000	0.003	-0.173
-583.850	1.532	-0.354	-0.253
-582.836	-12.275	0.020	0.013
-581.821	-50.015	0.254	-0.119
-580.806	-32.740	-0.043	-0.023
-579.792	193.962	-0.036	0.054
-578.777	29.923	-0.142	0.120
-577.763	-137.234	0.187	0.021
-576.748	-70.283	-0.590	0.222
-575.733	393.295	0.050	0.103
-574.719	184.894	0.097	-0.143
-573.704	-200.000	0.058	0.402
-572.690	509.659	-0.101	0.234
-571.675	-115.521	-0.085	0.016
-570.661	129.599	-0.109	-0.139
-569.646	800.000	0.072	-0.202
-568.631	92.285	-0.164	0.183
-567.617	263.646	0.158	0.272
-566.602	-42.615	0.159	0.080
-565.588	-200.000	-0.068	-0.329
-564.573	144.077	0.135	-0.179
-563.558	-99.441	0.282	0.070
-562.544	60.451	-0.075	0.074
-561.529	-200.000	-0.023	-0.263
-560.515	-30.013	0.193	-0.109
-559.500	-125.752	0.080	-0.012
-558.485	478.674	-0.061	0.137
-557.471	-122.954	-0.024	-0.004
-556.456	-200.000	0.015	-0.078
-555.442	-36.751	0.072	0.038
-554.427	4.254	-0.205	0.149
-553.412	800.000	-0.066	0.189
-552.398	-84.342	0.234	-0.073
-551.383	-169.613	-0.247	-0.009
-550.369	-200.000	-0.023	0.115
-549.354	90.779	0.113	0.126
-548.339	169.295	0.146	0.206
-547.325	83.574	0.036	-0.039
-546.310	617.852	-0.124	-0.309
-545.296	-22.020	0.176	0.106
-544.281	-200.000	-0.001	0.041
-543.266	15.228	0.057	-0.044
-542.252	-200.000	-0.032	-0.287
-541.237	6.994	-0.078	-0.057
-540.223	-52.582	-0.198	-0.091
-539.208	-68.503	-0.225	0.086
-538.193	-110.035	0.237	-0.049
-537.179	160.171	-0.055	0.076
-536.164	-134.521	0.363	-0.044
-535.150	-72.994	0.175	0.063
-534.135	-32.998	-0.081	0.045
-533.121	327.824	0.032	-0.061
-532.106	-73.921	-0.085	0.031
-531.091	58.511	-0.096	0.093
-530.077	-200.000	-0.020	-0.270
-529.062	137.888	0.138	-0.179
-528.048	-200.000	-0.061	-0.287
-527.033	800.000	0.089	-0.242
-526.018	417.026	0.042	-0.090
-525.004	226.613	0.161	0.258
-523.989	-34.235	-0.434	0.236
-522.975	-140.179	0.099	-0.010
-521.960	800.000	-0.081	0.307
-520.945	288.451	-0.155	-0.277
-519.931	-60.104	0.182	-0.077
-518.916	-73.004	0.367	0.133
-517.902	146.503	-0.141	-0.188
-516.887	-134.877	0.202	-0.024
-515.872	-10.790	-0.139	0.091
-514.858	9.159	0.163	0.122
-513.843	17.028	-0.379	-0.297
-512.829	-200.000	-0.060	0.288
-511.814	-80.658	0.177	-0.058
-510.799	227.081	0.079	-0.127
-509.785	31.089	-0.337	-0.286
-508.770	800.000	0.053	-0.182
-507.756	-66.985	0.169	-0.066
-506.741	198.815	-0.185	-0.280
-505.726	-68.192	0.194	-0.075
-504.712	223.024	-0.093	0.148
-503.697	-200.000	-0.055	0.264
-502.683	-74.643	-0.197	0.070
-501.668	-200.000	-0.060	-0.283
-500.653	-200.000	0.030	-0.324
-499.639	800.000	-0.120	-0.473
-498.624	800.000	0.145	0.435
-497.610	332.672	0.172	0.328
-496.595	178.684	0.045	0.065
-495.581	140.251	0.195	-0.254
-494.566	197.986	-0.264	-0.398
-493.551	116.495	0.075	-0.091
-492.537	-13.008	-0.380	-0.244
-491.522	-7.879	0.178	0.119
-490.508	-154.829	-0.223	-0.015
-489.493	271.252	-0.064	0.111
-488.478	-12.884	-0.292	0.188
-487.464	-187.394	0.252	0.003
-486.449	-103.323	-0.198	-0.046
-485.435	61.284	-0.304	-0.299
-484.420	-6.918	-0.166	0.112
-483.405	165.386	-0.173	-0.241
-482.391	-82.952	-0.316	0.101
-481.376	14.680	0.156	-0.121
-480.362	-79.834	0.264	0.088
-479.347	800.000	0.066	-0.233
-478.332	-14.537	-0.127	-0.081
-477.318	-200.000	0.008	0.045
-476.303	-200.000	0.024	0.205
-475.289	5.449	0.136	-0.099
-474.274	54.606	-0.119	-0.113
-473.259	-86.353	-0.270	0.082
-472.245	-200.000	0.005	0.063
-471.230	-112.891	-0.318	-0.062
-470.216	-24.129	0.177	0.105
-469.201	800.000	0.005	-0.020
-468.186	-200.000	0.022	0.159
-467.172	54.421	-0.053	0.051
-466.157	-200.000	0.024	-0.106
-465.143	-200.000	-0.010	-0.111
-464.128	-100.804	0.207	-0.050
-463.113	306.496	-0.074	0.136
-462.099	188.278	-0.111	0.164
-461.084	800.000	-0.030	0.090
-460.070	67.057	-0.044	-0.044
-459.055	-107.750	-0.189	-0.041
-458.040	-131.298	-0.250	0.033
-457.026	-153.185	0.347	0.024
-456.011	19.830	0.315	-0.250
-454.997	-15.676	0.090	-0.057
-453.982	-200.000	0.017	-0.108
-452.968	-129.842	0.117	-0.016
-451.953	-200.000	-0.030	-0.227
-450.938	88.769	-0.123	-0.135
-449.924	360.804	0.049	0.096
-448.909	-84.834	0.184	0.057
-447.895	28.119	-0.084	0.070
-446.880	-64.537	0.242	-0.097
-445.865	-57.930	-0.251	-0.108
-444.851	-152.245	-0.190	0.014
-443.836	-26.801	0.156	0.090
-442.822	166.326	0.177	-0.247
-441.807	800.000	0.060	0.207
-440.792	-15.758	-0.154	0.097
-439.778	-165.541	0.221	-0.010
-438.763	800.000	-0.071	-0.243
-437.749	-200.000	-0.015	0.167
-436.734	-169.442	0.034	-0.001
-435.719	34.359	0.053	0.046
-434.705	-82.753	0.443	0.141
-433.690	434.536	-0.083	0.178
-432.676	316.553	0.084	-0.156
-431.661	687.972	-0.038	0.099
-430.646	-119.075	0.344	0.059
-429.632	-68.127	-0.060	-0.023
-428.617	145.239	0.251	-0.331
-427.603	128.650	0.214	-0.269
-426.588	-151.339	-0.120	0.009
-425.573	166.940	-0.015	-0.021
-424.559	-17.608	0.206	-0.128
-423.544	-14.334	-0.205	0.130
-422.530	-76.220	0.017	0.006
-421.515	-116.019	-0.067	-0.012
-420.500	800.000	0.028	0.087
-419.486	-200.000	0.053	0.330
-418.471	105.901	0.062	-0.072
-417.457	-190.025	-0.041	-0.000
-416.442	182.639	-0.104	-0.151
-415.428	44.773	0.082	0.075
-414.413	158.244	0.191	0.261
-413.398	-2.919	-0.315	0.217
-412.384	-119.505	0.066	-0.011
-411.369	-200.000	-0.013	-0.204
-410.355	-152.691	-0.088	0.006
-409.340	-91.212	0.106	0.030
-408.325	-193.023	-0.145	0.001
-407.311	83.310	-0.138	-0.148
-406.296	-60.426	0.113	0.047
-405.282	800.000	0.048	0.137
-404.267	-200.000	-0.010	-0.302
-403.252	597.384	0.031	-0.076
-402.238	488.826	-0.068	-0.154
-401.223	-27.670	-0.349	0.200
-400.209	133.444	-0.046	0.058
-399.194	469.493	-0.049	-0.107
-398.179	-55.938	-0.131	-0.058
-397.165	141.695	0.106	-0.138
-396.150	85.993	-0.070	0.076
-395.136	28.809	-0.104	-0.087
-394.121	74.469	-0.394	0.408
-393.106	-200.000	-0.023	-0.161
-392.092	126.308	0.146	0.182
-391.077	-200.000	-0.077	-0.335
-390.063	-32.648	-0.336	-0.184
-389.048	40.148	0.151	-0.134
-388.033	-134.869	0.254	-0.030
-387.019	-127.635	-0.185	-0.026
-386.004	-165.604	-0.164	-0.007
-384.990	-200.000	-0.012	0.169
-383.975	44.691	0.137	-0.124
-382.960	18.289	-0.065	-0.051
-381.946	-123.174	-0.165	-0.026
-380.931	-200.000	-0.033	0.313
-379.917	242.369	-0.109	-0.179
-378.902	-200.000	-0.021	-0.215
-377.888	-76.946	-0.249	0.086
-376.873	-51.308	-0.115	0.053
-375.858	-60.694	-0.078	0.032
-374.844	4.318	-0.241	-0.173
-373.829	447.127	-0.069	0.149
-372.815	-200.000	0.007	0.232
-371.800	518.794	0.138	0.319
-370.785	236.962	0.146	0.238
-369.771	117.574	-0.258	0.313
-368.756	-200.000	0.009	-0.166
-367.742	-200.000	0.023	-0.341
-366.727	44.308	-0.170	-0.154
-365.712	-101.473	-0.192	0.046
-364.698	-200.000	0.035	-0.278
-363.683	47.535	0.021	-0.019
-362.669	-200.000	0.013	-0.333
-361.654	296.036	0.213	0.383
-360.639	-170.747	-0.228	-0.008
-359.625	-147.480	0.283	0.024
-358.610	-129.886	0.205	-0.028
-357.596	-102.695	0.068	-0.016
-356.581	259.282	-0.164	0.278
-355.566	-75.290	0.201	-0.070
-354.552	78.783	-0.214	0.225
-353.537	-130.104	0.369	0.049
-352.523	308.786	0.032	-0.059
-351.508	-105.595	-0.430	0.096
-350.493	310.062	0.181	0.333
-349.479	102.699	-0.175	-0.201
-348.464	97.592	0.063	0.071
-347.450	19.933	0.073	-0.058
-346.435	12.228	-0.108	0.082
-345.420	270.690	0.092	-0.160
-344.406	-85.644	0.249	0.076
-343.391	-200.000	0.019	0.305
-342.377	150.396	-0.095	-0.127
-341.362	204.458	-0.046	-0.070
-340.348	-23.296	-0.254	-0.150
-339.333	61.731	-0.225	-0.220
-338.318	-121.493	-0.255	0.042
-337.304	285.310	0.086	0.152
-336.289	-200.000	-0.035	-0.437
-335.275	800.000	0.033	0.105
-334.260	-37.607	0.202	-0.106
-333.245	678.376	-0.132	-0.337
-332.231	98.953	0.095	-0.108
-331.216	56.436	-0.302	0.289
-330.202	-127.948	0.240	0.034
-329.187	158.838	-0.071	0.096
-328.172	-200.000	0.008	0.170
-327.158	-136.481	-0.122	0.014
-326.143	-178.383	0.564	-0.013
-325.129	-200.000	-0.046	-0.227
-324.114	-20.056	0.225	-0.136
-323.099	52.697	0.148	-0.139
-322.085	-173.334	-0.114	0.003
-321.070	-25.116	0.138	-0.080
-320.056	116.463	0.099	0.119
-319.041	800.000	-0.048	0.168
-318.026	-140.636	0.050	0.005
-317.012	-49.502	0.267	0.125
-315.997	-200.000	-0.023	-0.112
-314.983	-97.845	-0.095	0.024
-313.968	40.971	0.194	-0.172
-312.953	-200.000	0.032	0.223
-311.939	82.814	0.016	-0.017
-310.924	-134.373	0.150	-0.018
-309.910	3.298	-0.285	-0.204
-308.895	789.946	0.094	0.254
-307.880	726.274	0.046	-0.121
-306.866	-53.361	-0.093	-0.042
-305.851	800.000	-0.011	0.035
-304.837	99.428	0.146	-0.166
-303.822	-38.563	-0.219	-0.114
-302.807	648.794	0.018	0.044
-301.793	-200.000	-0.012	0.171
-300.778	-200.000	-0.053	-0.328
-299.764	156.096	0.135	0.182
-298.749	-94.860	0.116	0.031
-297.735	-12.913	-0.147	0.094
-296.720	77.198	0.067	-0.070
-295.705	-43.589	0.144	0.071
-294.691	93.037	-0.152	0.169
-293.676	424.328	0.067	-0.141
-292.662	-153.771	0.367	-0.025
-291.647	-87.040	0.128	-0.038
-290.632	62.139	-0.183	-0.179
-289.618	-168.207	0.199	-0.008
-288.603	3.570	0.248	0.177
-287.589	-131.308	-0.374	0.049
-286.574	-200.000	-0.015	0.117
-285.559	-52.296	0.139	-0.063
-284.545	-117.520	-0.128	-0.023
-283.530	-200.000	-0.017	-0.118
-282.516	102.252	0.231	-0.264
-281.501	-117.906	-0.452	-0.079
-280.486	-46.571	0.138	0.066
-279.472	-2.677	-0.350	0.240
-278.457	149.991	-0.107	-0.142
-277.443	-200.000	0.009	0.044
-276.428	551.576	0.055	-0.130
-275.413	-200.000	-0.011	0.138
-274.399	-74.947	-0.157	0.055
-273.384	1.948	0.242	-0.171
-272.370	513.128	0.184	0.421
-271.355	-118.075	0.128	-0.022
-270.340	237.294	0.083	-0.134
-269.326	202.308	-0.099	-0.150
-268.311	-61.229	-0.208	0.086
-267.297	430.724	-0.048	-0.102
-266.282	183.077	-0.158	0.228
-265.267	-200.000	0.003	0.018
-264.253	-44.029	-0.253	-0.124
-263.238	-32.506	-0.135	0.074
-262.224	-55.170	0.258	0.114
-261.209	-200.000	-0.269	0.000
-260.195	8.155	0.304	-0.224
-259.180	30.644	-0.118	-0.099
-258.165	115.122	0.517	0.619
-257.151	395.978	0.211	0.432
-256.136	-41.792	-0.080	-0.040
-255.122	800.000	-0.059	-0.244
-254.107	-200.000	0.001	0.129
-253.092	-200.000	0.009	-0.042
-252.078	128.239	-0.091	0.114
-251.063	-75.492	0.273	0.095
-250.049	-156.137	0.448	-0.028
-249.034	74.216	0.121	0.125
-248.019	-16.543	-0.183	-0.113
-247.005	-75.496	0.099	-0.035
-245.990	182.990	-0.092	-0.133
-244.976	296.268	-0.174	-0.312
-243.961	-200.000	0.038	0.277
-242.946	188.256	0.122	0.179
-241.932	-200.000	-0.023	0.130
-240.917	-63.926	-0.028	0.011
-239.903	725.089	-0.109	-0.285
-238.888	215.032	0.252	-0.391
-237.873	-200.000	-0.023	-0.271
-236.859	-138.385	-0.019	0.002
-235.844	57.080	-0.165	-0.157
-234.830	-200.000	0.033	0.167
-233.815	-52.513	-0.431	0.195
-232.800	-30.304	0.089	0.050
-231.786	73.055	-0.161	0.164
-230.771	-200.000	0.036	-0.173
-229.757	-139.174	-0.157	0.017
-228.742	-31.716	0.227	0.125
-227.727	252.407	0.158	-0.264
-226.713	-122.632	-0.257	0.041
-225.698	800.000	-0.079	-0.298
-224.684	198.281	0.042	-0.063
-223.669	-200.000	-0.017	0.407
-222.655	-200.000	-0.013	0.208
-221.640	-1.606	0.072	-0.050
-220.625	119.789	0.061	0.074
-219.611	684.006	-0.011	-0.028
-218.596	31.471	0.175	0.147
-217.582	63.960	0.237	-0.233
-216.567	3.940	0.269	-0.193
-215.552	-200.000	0.065	0.469
-214.538	38.006	-0.088	-0.076
-213.523	10.109	0.221	-0.164
-212.509	-42.464	0.147	0.073
-211.494	132.939	-0.028	-0.035
-210.479	221.059	0.244	-0.382
-209.465	129.409	0.044	0.056
-208.450	800.000	-0.113	0.365
-207.436	-200.000	-0.004	0.186
-206.421	-161.881	-0.135	-0.007
-205.406	134.139	0.177	-0.224
-204.392	-65.657	-0.133	-0.052
-203.377	-49.588	-0.065	-0.030
-202.363	-102.616	0.225	0.053
-201.348	-158.230	-0.207	0.012
-200.333	115.438	0.254	0.304
-199.319	-60.885	-0.183	0.076
-198.304	-138.146	0.304	-0.033
-197.290	-75.441	0.016	0.006
-196.275	305.152	-0.100	-0.182
-195.260	-35.701	0.112	-0.059
-194.246	4.990	0.293	-0.211
-193.231	-95.277	-0.189	-0.050
-192.217	-92.181	0.129	0.036
-191.202	-44.895	0.252	0.123
-190.187	-93.511	-0.069	0.019
-189.173	275.513	-0.150	-0.259
-188.158	593.965	0.145	0.351
-187.144	-200.000	-0.025	0.296
-186.129	-92.582	0.317	-0.087
-185.114	40.377	-0.260	0.228
-184.100	-200.000	0.063	0.402
-183.085	231.429	0.100	0.161
-182.071	800.000	-0.110	-0.329
-181.056	10.643	-0.039	-0.029
-180.042	-175.669	0.062	0.002
-179.027	245.974	0.154	0.253
-178.012	18.754	0.374	0.292
-176.998	58.384	-0.020	-0.019
-175.983	800.000	-0.074	-0.204
-174.969	58.314	0.092	0.088
-173.954	-8.359	0.123	0.081
-172.939	-13.742	-0.044	0.028
-171.925	-35.880	-0.394	-0.208
-170.910	9.318	0.106	-0.079
-169.896	-17.470	0.529	0.325
-168.881	-89.785	-0.287	-0.082
-167.866	-200.000	-0.050	-0.256
-166.852	614.305	0.132	0.322
-165.837	-5.262	-0.487	-0.327
-164.823	-200.000	0.003	0.183
-163.808	-7.472	-0.160	0.105
-162.793	800.000	-0.102	0.413
-161.779	-200.000	-0.027	0.138
-160.764	-132.049	0.169	0.021
-159.750	252.805	-0.142	0.237
-158.735	-5.297	0.130	-0.087
-157.720	-111.847	-0.229	0.045
-156.706	116.307	-0.117	0.140
-155.691	800.000	0.123	0.497
-154.677	-175.080	0.385	-0.010
-153.662	249.017	-0.189	0.312
-152.647	734.534	-0.105	0.274
-151.633	146.117	-0.065	0.085
-150.618	-73.907	0.654	0.232
-149.604	-123.985	-0.134	0.021
-148.589	-3.447	-0.222	0.151
-147.574	-3.227	0.118	0.080
-146.560	-4.392	0.173	-0.117
-145.545	-185.464	-0.268	0.004
-144.531	99.852	0.152	-0.172
-143.516	-59.243	0.272	-0.114
-142.502	-76.622	0.221	-0.076
-141.487	800.000	0.044	0.183
-140.472	22.209	0.213	-0.170
-139.458	-200.000	-0.018	0.252
-138.443	800.000	-0.091	0.380
-137.429	182.719	0.100	-0.144
-136.414	-150.858	0.145	-0.011
-135.399	-200.000	0.008	0.059
-134.385	800.000	0.022	0.075
-133.370	800.000	0.080	0.267
-132.356	363.140	0.108	-0.212
-131.341	-200.000	0.018	0.100
-130.326	175.066	0.173	0.244
-129.312	-17.379	0.141	-0.087
-128.297	-11.532	-0.057	-0.037
-127.283	-32.961	0.046	-0.025
-126.268	-200.000	0.013	-0.264
-125.253	-37.339	0.134	-0.070
-124.239	-96.264	0.137	-0.035
-123.224	-25.738	0.280	0.161
-122.210	-200.000	-0.024	0.157
-121.195	-62.343	0.236	0.096
