DTS Sentinel unit serial number:	SN413079Multiplexer serial number:	ORYXHardware model number:	OX4-SRSoftware version number:	ORYX F/W v4.00 Oryx Data Collector v3.7.2.0data status	okinstallation	princeton_trtdifferential loss correction	single-endedforward channel	channel 2reverse channel	N/Adate	2019/09/14time	15:03:35forward acquisition time	60.00reverse acquisition time	0.00gamma	496.2192k internal	0.2302k external	0.2302temperature offset calibration	1.0144default loss term (dB/km)	0.3790temperature slope calibration	1.0000multiplexer offset coefficient	1.0000multiplexer slope coefficient	1.0000fibre end	0.00T internal ref (°C)	39.06T ext. ref 1 (°C)	5.08T ext. ref 2 (°C)	34.88length (m)	temperature (°C)	Stokes	anti-Stokes-747.200	311.906	-0.122	-0.233
-746.185	346.375	-0.145	0.291
-745.171	129.901	-0.106	-0.138
-744.156	26.657	0.556	0.474
-743.142	-94.799	0.198	0.055
-742.127	-80.224	-0.265	0.090
-741.112	-200.000	0.040	-0.245
-740.098	-200.000	0.031	0.299
-739.083	172.434	0.026	-0.038
-738.069	431.469	-0.108	0.239
-737.054	263.362	0.115	0.204
-736.039	-200.000	0.001	0.395
-735.025	-154.517	0.280	0.019
-734.010	139.087	0.086	-0.115
-732.996	-89.475	-0.153	-0.046
-731.981	131.248	-0.151	-0.197
-730.966	229.654	-0.090	-0.150
-729.952	-200.000	0.043	-0.221
-728.937	800.000	-0.055	-0.242
-727.923	1.557	-0.264	-0.194
-726.908	-48.269	0.104	-0.051
-725.894	-108.538	-0.146	0.032
-724.879	4.422	-0.110	-0.082
-723.864	-57.633	-0.082	-0.037
-722.850	-152.748	-0.288	0.021
-721.835	-123.691	0.384	0.062
-720.821	138.726	-0.092	0.123
-719.806	51.993	-0.142	0.138
-718.791	-109.335	0.128	0.028
-717.777	241.210	-0.013	0.022
-716.762	-163.706	-0.472	0.023
-715.748	-36.024	0.205	-0.113
-714.733	-167.168	-0.271	0.011
-713.718	-146.684	-0.183	0.016
-712.704	-128.574	0.206	0.030
-711.689	-1.312	-0.095	0.068
-710.675	99.624	-0.097	-0.114
-709.660	-94.112	-0.300	0.084
-708.645	-200.000	-0.025	0.180
-707.631	34.926	-0.110	-0.098
-706.616	-61.807	-0.359	-0.153
-705.602	-147.348	-0.011	-0.001
-704.587	-135.782	0.052	0.006
-703.572	-93.955	0.259	0.072
-702.558	543.483	0.122	-0.296
-701.543	-71.852	-0.169	-0.064
-700.529	-200.000	0.008	-0.314
-699.514	-10.939	-0.253	-0.170
-698.499	800.000	0.066	-0.241
-697.485	-15.573	-0.127	-0.082
-696.470	41.362	0.031	-0.029
-695.456	60.515	0.116	-0.117
-694.441	-32.326	0.084	-0.048
-693.426	800.000	-0.119	0.335
-692.412	-200.000	-0.019	0.162
-691.397	374.401	0.249	-0.515
-690.383	181.117	-0.116	0.174
-689.368	144.660	-0.107	0.145
-688.354	38.904	-0.125	-0.114
-687.339	-47.017	0.188	-0.093
-686.324	-40.322	-0.276	0.146
-685.310	-92.742	0.068	-0.019
-684.295	-200.000	-0.110	-0.555
-683.281	120.703	0.208	-0.262
-682.266	-112.625	0.116	0.024
-681.251	-74.831	0.264	0.096
-680.237	-200.000	0.008	-0.155
-679.222	-200.000	-0.016	-0.126
-678.208	-143.291	-0.278	-0.027
-677.193	-47.363	-0.217	-0.107
-676.178	314.188	-0.086	0.164
-675.164	-98.566	0.062	-0.016
-674.149	32.316	-0.131	-0.115
-673.135	144.695	0.046	0.063
-672.120	-139.905	-0.169	-0.018
-671.105	-17.955	-0.067	0.043
-670.091	-40.039	0.158	0.084
-669.076	-55.685	0.235	0.107
-668.062	-86.523	-0.223	-0.069
-667.047	-14.131	0.342	-0.224
-666.032	-200.000	-0.086	-0.414
-665.018	22.050	0.139	-0.115
-664.003	800.000	0.018	-0.068
-662.989	-103.533	-0.227	-0.054
-661.974	485.414	-0.079	0.182
-660.959	-200.000	0.005	0.030
-659.945	-200.000	-0.026	0.344
-658.930	-26.262	-0.506	0.302
-657.916	147.379	0.213	0.291
-656.901	-200.000	0.040	0.363
-655.886	545.971	-0.063	-0.153
-654.872	-38.992	0.196	0.105
-653.857	-200.000	0.016	-0.108
-652.843	62.468	-0.144	-0.146
-651.828	477.339	-0.134	-0.307
-650.814	1.584	-0.066	0.048
-649.799	370.847	-0.166	0.342
-648.784	168.495	0.041	0.060
-647.770	-11.928	0.154	-0.103
-646.755	-200.000	-0.254	0.001
-645.741	5.072	0.208	0.155
-644.726	-164.496	0.130	-0.006
-643.711	-200.000	0.058	-0.434
-642.697	-200.000	0.034	-0.228
-641.682	-200.000	-0.013	0.203
-640.668	-200.000	-0.039	0.299
-639.653	-45.843	0.440	0.220
-638.638	59.051	-0.088	0.088
-637.624	122.179	0.152	0.192
-636.609	217.912	-0.027	-0.043
-635.595	-38.796	0.151	0.081
-634.580	-157.671	-0.092	-0.006
-633.565	-200.000	-0.019	-0.463
-632.551	800.000	0.091	0.278
-631.536	-200.000	-0.058	0.317
-630.522	-15.041	-0.053	-0.034
-629.507	-101.356	-0.209	-0.052
-628.492	133.446	-0.160	0.209
-627.478	-200.000	-0.047	0.211
-626.463	29.404	0.151	-0.130
-625.449	-200.000	0.005	0.049
-624.434	-200.000	-0.010	-0.066
-623.419	-42.674	-0.235	0.121
-622.405	-75.361	-0.217	0.079
-621.390	92.759	0.374	0.429
-620.376	-21.193	0.071	-0.044
-619.361	51.319	-0.265	-0.255
-618.346	128.048	0.133	-0.172
-617.332	-0.718	0.250	-0.180
-616.317	-31.878	-0.284	0.161
-615.303	-118.081	0.259	-0.047
-614.288	-8.385	0.121	0.083
-613.273	159.087	-0.141	0.198
-612.259	-200.000	0.002	-0.140
-611.244	715.550	-0.153	-0.411
-610.230	-200.000	0.001	-0.321
-609.215	121.567	0.067	0.085
-608.201	-105.993	-0.232	0.053
-607.186	86.855	-0.220	-0.246
-606.171	-199.913	0.222	0.001
-605.157	-112.160	0.337	-0.069
-604.142	-98.415	-0.188	-0.049
-603.128	-200.000	0.031	-0.171
-602.113	-200.000	0.067	0.322
-601.098	-172.830	-0.279	0.009
-600.084	3.028	-0.115	0.085
-599.069	-104.503	0.310	0.073
-598.055	-125.013	0.151	0.024
-597.040	-200.000	-0.017	0.086
-596.025	-80.133	0.324	-0.110
-595.011	-141.817	0.224	0.023
-593.996	73.420	0.051	-0.054
-592.982	-75.652	0.378	0.136
-591.967	-31.436	-0.034	0.019
-590.952	-200.000	0.005	0.174
-589.938	-200.000	-0.006	-0.218
-588.923	-170.518	-0.352	-0.012
-587.909	43.786	-0.086	0.079
-586.894	-115.506	0.268	0.051
-585.879	-200.000	-0.003	-0.257
-584.865	534.090	-0.080	-0.191
-583.850	-3.253	-0.322	0.227
-582.836	-200.000	-0.026	-0.299
-581.821	52.011	-0.201	0.194
-580.806	80.856	0.137	0.149
-579.792	-200.000	0.012	-0.083
-578.777	-19.703	-0.356	-0.223
-577.763	800.000	-0.049	-0.189
-576.748	-128.778	0.183	0.026
-575.733	461.542	0.047	-0.107
-574.719	-23.700	-0.113	0.068
-573.704	220.796	0.137	-0.223
-572.690	800.000	-0.041	-0.137
-571.675	-200.000	-0.080	-0.372
-570.661	315.105	-0.009	-0.017
-569.646	-181.993	0.259	-0.005
-568.631	-15.458	-0.112	-0.073
-567.617	-12.200	-0.342	0.227
-566.602	-200.000	-0.003	-0.074
-565.588	-200.000	0.024	0.146
-564.573	530.681	-0.035	0.084
-563.558	635.326	-0.086	-0.221
-562.544	-123.862	0.319	-0.051
-561.529	-152.751	0.156	-0.011
-560.515	-98.584	-0.610	-0.157
-559.500	550.759	-0.073	-0.178
-558.485	653.273	-0.048	0.125
-557.471	19.099	0.022	-0.018
-556.456	800.000	-0.035	0.100
-555.442	244.567	0.219	-0.372
-554.427	800.000	0.069	-0.204
-553.412	35.220	0.244	-0.217
-552.398	-112.407	0.138	0.028
-551.383	356.180	-0.037	-0.074
-550.369	32.316	0.134	-0.117
-549.354	541.713	-0.112	0.270
-548.339	-200.000	-0.005	-0.068
-547.325	-200.000	0.009	0.203
-546.310	-102.362	-0.299	-0.072
-545.296	-8.050	0.113	0.077
-544.281	-200.000	0.029	-0.375
-543.266	-123.540	-0.232	0.037
-542.252	-200.000	-0.054	0.355
-541.237	10.827	0.095	-0.073
-540.223	-88.982	0.083	-0.025
-539.208	270.239	0.253	0.449
-538.193	-165.360	-0.135	0.006
-537.179	7.587	-0.073	-0.055
-536.164	664.302	-0.071	0.186
-535.150	418.806	0.094	0.202
-534.135	389.294	0.028	0.058
-533.121	380.035	0.007	0.014
-532.106	18.685	-0.126	-0.102
-531.091	14.976	0.158	-0.125
-530.077	800.000	0.070	0.196
-529.062	1.242	0.119	-0.086
-528.048	-54.303	-0.236	-0.108
-527.033	119.491	-0.106	-0.133
-526.018	-129.592	-0.115	-0.016
-525.004	5.157	0.151	0.112
-523.989	-78.431	-0.131	-0.045
-522.975	56.282	-0.146	-0.143
-521.960	48.933	0.089	0.085
-520.945	51.567	0.236	0.227
-519.931	95.738	-0.037	0.042
-518.916	216.073	-0.125	0.201
-517.902	800.000	-0.099	-0.294
-516.887	800.000	-0.093	-0.336
-515.872	-200.000	-0.016	-0.098
-514.858	-200.000	0.026	0.184
-513.843	-70.123	-0.076	0.029
-512.829	34.095	-0.028	0.025
-511.814	22.208	0.076	0.063
-510.799	-61.224	0.151	0.064
-509.785	-69.444	0.111	-0.043
-508.770	-200.000	-0.018	0.217
-507.756	-200.000	0.034	0.153
-506.741	-187.709	0.284	-0.004
-505.726	-102.831	-0.096	-0.023
-504.712	-141.160	0.221	-0.023
-503.697	70.429	0.215	-0.224
-502.683	-16.263	0.027	-0.017
-501.668	530.991	-0.122	-0.291
-500.653	-2.946	0.053	-0.037
-499.639	87.493	-0.130	0.145
-498.624	154.054	-0.128	0.177
-497.610	728.964	0.017	0.047
-496.595	66.867	0.283	0.291
-495.581	382.885	-0.181	-0.375
-494.566	90.770	0.207	-0.234
-493.551	-20.349	-0.218	-0.135
-492.537	-30.706	0.113	-0.065
-491.522	-200.000	0.013	0.159
-490.508	25.846	-0.094	0.079
-489.493	134.811	0.138	-0.181
-488.478	762.298	-0.089	-0.243
-487.464	190.243	0.276	0.417
-486.449	800.000	-0.022	0.079
-485.435	800.000	0.014	-0.056
-484.420	-134.262	0.021	0.003
-483.405	-66.798	0.094	0.037
-482.391	-200.000	0.001	-0.337
-481.376	-140.620	0.416	-0.043
-480.362	680.006	-0.021	0.056
-479.347	153.047	0.228	0.315
-478.332	-200.000	-0.041	0.246
-477.318	494.019	-0.114	0.263
-476.303	-200.000	-0.001	0.178
-475.289	-200.000	-0.024	-0.130
-474.274	-156.201	-0.027	0.002
-473.259	55.025	-0.207	-0.202
-472.245	110.022	0.080	-0.096
-471.230	-136.811	0.369	0.043
-470.216	137.745	0.118	-0.155
-469.201	-42.674	-0.143	0.073
-468.186	-99.766	0.173	0.044
-467.172	273.512	-0.075	0.134
-466.157	-179.810	0.079	0.002
-465.143	-135.992	-0.331	-0.039
-464.128	-200.000	0.002	0.099
-463.113	-13.439	0.148	-0.097
-462.099	800.000	-0.057	0.196
-461.084	90.184	-0.242	0.272
-460.070	138.016	0.027	0.036
-459.055	-46.621	0.337	-0.166
-458.040	-67.723	0.071	0.028
-457.026	783.591	-0.091	-0.251
-456.011	-200.000	0.034	-0.321
-454.997	-30.188	-0.144	0.082
-453.982	-200.000	-0.015	0.157
-452.968	-102.308	-0.274	-0.066
-451.953	-200.000	-0.007	-0.054
-450.938	-150.822	0.253	0.019
-449.924	402.772	-0.092	0.196
-448.909	85.259	-0.095	0.105
-447.895	46.617	-0.119	0.111
-446.880	13.977	0.168	0.131
-445.865	800.000	-0.032	-0.094
-444.851	-56.874	0.145	0.065
-443.836	370.826	0.099	-0.201
-442.822	800.000	0.025	0.080
-441.807	-91.440	0.469	-0.135
-440.792	206.235	0.228	-0.357
-439.778	58.061	-0.120	-0.119
-438.763	197.803	-0.058	0.089
-437.749	66.551	0.092	-0.094
-436.734	-133.161	-0.238	-0.030
-435.719	-108.624	0.169	0.037
-434.705	172.238	0.081	0.117
-433.690	55.596	-0.204	-0.198
-432.676	-128.745	-0.280	-0.040
-431.661	-107.016	-0.204	-0.045
-430.646	16.950	0.076	0.061
-429.632	506.345	-0.040	-0.093
-428.617	-200.000	-0.046	-0.243
-427.603	-123.914	-0.191	-0.030
-426.588	-69.233	-0.121	0.047
-425.573	-18.372	0.034	-0.021
-424.559	25.409	0.074	0.062
-423.544	-70.990	0.080	-0.030
-422.530	-130.989	-0.375	0.050
-421.515	75.007	-0.111	-0.118
-420.500	250.694	0.245	-0.419
-419.486	60.193	0.190	-0.190
-418.471	-200.000	-0.049	-0.344
-417.457	468.572	0.159	-0.358
-416.442	-119.420	-0.378	0.066
-415.428	310.841	-0.046	-0.086
-414.413	-187.262	-0.255	0.003
-413.398	-45.900	-0.200	0.099
-412.384	800.000	0.066	-0.192
-411.369	177.323	-0.120	-0.175
-410.355	-55.968	-0.353	0.158
-409.340	-157.598	0.248	-0.015
-408.325	-80.521	0.486	-0.163
-407.311	800.000	-0.053	-0.157
-406.296	-10.179	-0.083	0.056
-405.282	122.056	-0.084	-0.106
-404.267	566.511	-0.047	0.114
-403.252	156.125	-0.160	0.223
-402.238	-200.000	-0.021	-0.233
-401.223	800.000	0.055	0.171
-400.209	800.000	-0.095	0.273
-399.194	7.157	0.186	0.140
-398.179	86.903	0.225	0.249
-397.165	-40.609	-0.119	-0.062
-396.150	307.074	-0.048	-0.089
-395.136	62.419	-0.219	-0.220
-394.121	800.000	-0.046	-0.174
-393.106	58.219	-0.150	0.148
-392.092	-200.000	0.047	0.210
-391.077	238.269	-0.072	0.120
-390.063	40.049	-0.088	-0.079
-389.048	35.465	-0.187	-0.165
-388.033	13.091	-0.145	-0.113
-387.019	361.658	-0.133	0.268
-386.004	-11.065	0.068	-0.045
-384.990	-44.561	0.079	0.040
-383.975	-121.268	-0.316	-0.053
-382.960	268.773	0.046	-0.081
-381.946	-4.442	-0.311	-0.216
-380.931	-129.169	-0.142	0.020
-379.917	-93.234	-0.239	0.067
-378.902	-131.711	-0.120	0.016
-377.888	-68.539	0.070	0.027
-376.873	127.009	0.140	0.179
-375.858	-156.732	-0.214	0.013
-374.844	104.050	0.026	-0.031
-373.829	228.926	-0.071	0.117
-372.815	-30.148	-0.198	0.113
-371.800	41.853	0.136	-0.124
-370.785	317.030	0.064	-0.122
-369.771	-71.601	-0.305	-0.114
-368.756	97.190	0.259	0.299
-367.742	-175.933	0.315	-0.008
-366.727	-108.604	0.086	0.018
-365.712	-1.479	0.178	0.126
-364.698	-118.325	-0.330	-0.059
-363.683	-36.645	0.150	0.081
-362.669	-118.917	0.167	0.029
-361.654	66.550	0.271	-0.276
-360.639	-200.000	-0.050	-0.221
-359.625	522.607	-0.146	0.343
-358.610	81.055	-0.217	0.235
-357.596	157.925	0.221	-0.307
-356.581	-200.000	-0.025	-0.219
-355.566	-83.018	0.099	-0.032
-354.552	800.000	0.092	-0.262
-353.537	159.580	0.262	0.366
-352.523	650.774	0.129	-0.333
-351.508	158.752	0.217	-0.303
-350.493	-200.000	-0.083	0.411
-349.479	21.759	0.125	0.102
-348.464	800.000	0.055	0.166
-347.450	-106.916	0.232	0.052
-346.435	-5.174	0.326	-0.225
-345.420	-200.000	0.089	0.464
-344.406	-101.257	0.346	0.085
-343.391	-59.845	-0.224	0.096
-342.377	-8.891	0.289	-0.194
-341.362	-114.549	-0.340	0.065
-340.348	-131.851	0.059	-0.008
-339.333	-107.509	0.199	-0.044
-338.318	800.000	-0.057	-0.238
-337.304	71.822	0.052	0.054
-336.289	45.295	-0.171	-0.158
-335.275	-181.246	0.124	-0.002
-334.260	-200.000	-0.004	-0.047
-333.245	-200.000	-0.000	0.398
-332.231	77.506	0.244	-0.261
-331.216	-163.381	0.284	0.014
-330.202	681.232	-0.101	-0.265
-329.187	-200.000	-0.045	-0.377
-328.172	-185.456	-0.111	-0.002
-327.158	88.125	0.123	-0.137
-326.143	-106.351	0.096	0.021
-325.129	121.366	0.183	0.228
-324.114	16.743	0.042	0.033
-323.099	65.257	0.186	-0.188
-322.085	-101.531	0.145	0.035
-321.070	309.972	0.118	-0.222
-320.056	55.709	-0.124	0.120
-319.041	125.106	-0.130	-0.164
-318.026	-81.302	0.145	0.048
-317.012	106.379	0.093	-0.110
-315.997	259.469	0.168	0.291
-314.983	247.177	-0.096	-0.163
-313.968	-200.000	-0.017	-0.272
-312.953	778.937	-0.032	-0.087
-311.939	-200.000	0.061	0.299
-310.924	-200.000	-0.021	0.128
-309.910	-50.437	-0.092	0.043
-308.895	-200.000	0.026	-0.197
-307.880	-171.062	0.234	0.008
-306.866	800.000	0.051	0.178
-305.851	-189.417	-0.157	-0.002
-304.837	188.076	0.080	0.120
-303.822	-40.320	0.359	0.187
-302.807	652.961	0.051	-0.131
-301.793	-200.000	0.061	0.489
-300.778	63.785	-0.273	0.275
-299.764	46.788	0.135	0.126
-298.749	-200.000	0.009	0.060
-297.735	670.695	-0.056	-0.145
-296.720	800.000	0.058	-0.172
-295.705	346.196	-0.176	0.346
-294.691	184.742	-0.124	-0.185
-293.676	-200.000	-0.031	-0.171
-292.662	-20.645	0.114	-0.070
-291.647	774.530	-0.050	0.137
-290.632	-75.903	0.098	0.035
-289.618	-200.000	0.044	-0.458
-288.603	260.437	0.103	0.179
-287.589	49.791	-0.158	0.149
-286.574	134.795	-0.078	-0.101
-285.559	-200.000	-0.041	0.202
-284.545	800.000	0.078	0.253
-283.530	207.748	0.077	0.120
-282.516	800.000	-0.029	0.082
-281.501	800.000	-0.057	-0.182
-280.486	-200.000	0.004	0.192
-279.472	800.000	0.062	0.214
-278.457	-140.545	-0.197	-0.020
-277.443	263.171	-0.181	0.315
-276.428	478.565	-0.147	-0.333
-275.413	800.000	0.057	0.226
-274.399	45.804	-0.239	0.221
-273.384	306.840	0.069	-0.129
-272.370	-17.700	0.080	-0.050
-271.355	-120.862	-0.119	-0.020
-270.340	-16.948	0.188	-0.119
-269.326	229.270	0.105	-0.171
-268.311	-91.983	-0.010	-0.003
-267.297	472.230	0.083	0.186
-266.282	575.191	-0.059	-0.144
-265.267	601.102	-0.170	-0.423
-264.253	56.978	0.095	0.092
-263.238	-4.157	0.026	0.018
-262.224	18.096	0.081	-0.064
-261.209	-200.000	-0.002	0.057
-260.195	773.954	-0.053	0.145
-259.180	-131.178	-0.119	-0.016
-258.165	124.508	-0.021	0.026
-257.151	58.059	0.066	-0.065
-256.136	267.367	0.228	0.399
-255.122	298.573	-0.203	0.373
-254.107	-200.000	0.024	0.148
-253.092	97.955	-0.081	0.093
-252.078	-9.105	-0.306	0.204
-251.063	-44.898	-0.091	0.045
-250.049	-132.822	0.337	0.043
-249.034	-28.532	-0.305	-0.176
-248.019	50.707	-0.122	-0.115
-247.005	-123.953	-0.310	0.049
-245.990	-177.772	0.218	0.005
-244.976	460.097	0.122	0.273
-243.961	389.072	0.048	0.099
-242.946	800.000	-0.023	0.074
-241.932	213.194	0.094	0.149
-240.917	24.394	-0.175	0.145
-239.903	-7.889	-0.106	-0.071
-238.888	-131.685	-0.261	0.034
-237.873	-22.504	-0.109	0.066
-236.859	-66.480	-0.063	0.025
-235.844	-87.307	-0.255	0.077
-234.830	-77.216	0.328	0.114
-233.815	-74.447	0.544	-0.196
-232.800	61.441	0.272	0.270
-231.786	7.766	-0.117	-0.088
-230.771	-8.081	0.301	-0.203
-229.757	-85.941	0.229	-0.071
-228.742	7.731	-0.221	0.165
-227.727	-178.830	-0.199	0.005
-226.713	269.474	-0.109	-0.191
-225.698	-200.000	-0.024	-0.243
-224.684	-83.540	-0.133	-0.043
-223.669	57.980	-0.328	-0.321
-222.655	-109.252	0.255	-0.054
-221.640	114.290	0.089	0.108
-220.625	-75.147	-0.356	-0.127
-219.611	-200.000	0.016	-0.071
-218.596	-92.748	-0.232	-0.065
-217.582	191.999	-0.141	-0.212
-216.567	800.000	0.074	-0.278
-215.552	-70.162	0.058	0.022
-214.538	800.000	0.034	0.101
-213.523	35.171	-0.258	0.225
-212.509	-49.154	-0.270	-0.129
-211.494	-87.589	-0.074	0.022
-210.479	595.896	-0.155	0.384
-209.465	-200.000	0.001	0.023
-208.450	-106.173	-0.171	-0.038
-207.436	-200.000	0.008	-0.183
-206.421	83.648	0.190	-0.206
-205.406	-92.144	-0.164	-0.046
-204.392	-78.286	0.129	0.044
-203.377	159.378	-0.356	0.494
-202.363	-64.878	-0.419	0.169
-201.348	-26.415	-0.134	0.078
-200.333	-200.000	-0.027	-0.312
-199.319	669.435	0.045	-0.117
-198.304	-5.672	0.180	0.123
-197.290	-124.430	0.194	-0.030
-196.275	15.802	0.289	0.227
-195.260	175.244	-0.288	0.416
-194.246	-200.000	0.023	0.104
-193.231	-200.000	-0.002	0.182
-192.217	-45.727	0.363	-0.179
-191.202	12.223	0.086	0.066
-190.187	-128.654	0.017	0.002
-189.173	-200.000	-0.001	0.008
-188.158	800.000	-0.020	-0.058
-187.144	186.375	0.062	0.092
-186.129	336.945	-0.086	0.166
-185.114	81.969	-0.183	0.197
-184.100	-119.158	0.406	-0.071
-183.085	-36.456	-0.067	0.036
-182.071	158.300	-0.199	0.275
-181.056	716.655	0.147	0.388
-180.042	117.016	0.214	0.262
-179.027	113.598	0.285	0.345
-178.012	152.710	-0.194	0.264
-176.998	-134.384	-0.182	-0.022
-175.983	-144.251	0.181	0.017
-174.969	205.558	0.110	0.171
-173.954	800.000	0.108	-0.315
-172.939	-15.694	0.134	-0.085
-171.925	-12.596	-0.187	0.122
-170.910	800.000	0.115	-0.364
-169.896	-141.421	-0.098	0.010
-168.881	-16.571	-0.185	-0.117
-167.866	18.481	-0.239	0.190
-166.852	140.466	-0.159	0.209
-165.837	800.000	0.019	-0.060
-164.823	203.417	0.070	0.107
-163.808	700.465	-0.078	-0.205
-162.793	358.103	-0.239	-0.475
-161.779	225.835	-0.160	-0.259
-160.764	-108.523	0.362	-0.077
-159.750	8.950	-0.185	-0.139
-158.735	-105.121	-0.295	0.067
-157.720	800.000	-0.102	-0.282
-156.706	301.656	-0.131	-0.242
-155.691	30.972	0.139	-0.119
-154.677	-141.874	0.349	0.035
-153.662	322.318	0.068	0.130
-152.647	800.000	0.080	-0.239
-151.633	-65.928	-0.379	-0.151
-150.618	-114.867	-0.095	-0.018
-149.604	-200.000	0.030	0.236
-148.589	35.947	-0.239	0.209
-147.574	199.460	-0.107	-0.164
-146.560	-162.561	0.422	0.021
-145.545	-92.190	-0.196	-0.055
-144.531	-117.542	0.256	0.046
-143.516	145.776	-0.222	-0.296
-142.502	-150.057	0.030	-0.002
-141.487	214.093	-0.123	-0.194
-140.472	95.370	-0.070	0.080
-139.458	-88.998	0.332	-0.098
-138.443	228.790	-0.303	-0.492
-137.429	-154.315	0.205	0.014
-136.414	82.962	0.366	0.396
-135.399	605.771	0.030	-0.074
-134.385	-14.092	0.113	-0.073
-133.370	-65.291	0.266	0.107
-132.356	-200.000	-0.009	-0.093
-131.341	1.308	0.119	-0.085
-130.326	-141.597	-0.113	-0.011
-129.312	-63.178	0.193	-0.079
-128.297	11.237	0.040	0.031
-127.283	800.000	-0.051	-0.203
-126.268	-71.544	0.390	-0.145
-125.253	-200.000	-0.003	0.263
-124.239	-18.403	-0.144	-0.089
-123.224	-72.476	-0.381	0.140
-122.210	800.000	0.085	-0.237
-121.195	130.774	0.199	0.253
