DTS Sentinel unit serial number:	SN413079Multiplexer serial number:	ORYXHardware model number:	OX4-SRSoftware version number:	ORYX F/W v4.00 Oryx Data Collector v3.7.2.0data status	okinstallation	princeton_trtdifferential loss correction	single-endedforward channel	channel 2reverse channel	N/Adate	2019/09/11time	14:53:11forward acquisition time	60.00reverse acquisition time	0.00gamma	496.2192k internal	0.2288k external	0.2288temperature offset calibration	1.0012default loss term (dB/km)	0.3790temperature slope calibration	1.0000multiplexer offset coefficient	1.0000multiplexer slope coefficient	1.0000fibre end	0.00T internal ref (°C)	42.62T ext. ref 1 (°C)	0.91T ext. ref 2 (°C)	39.33length (m)	temperature (°C)	Stokes	anti-Stokes-747.200	228.144	0.168	-0.281
-746.185	201.701	-0.134	-0.212
-745.171	222.160	-0.117	0.193
-744.156	-63.727	0.344	0.145
-743.142	-172.102	0.383	0.013
-742.127	273.472	-0.171	0.310
-741.112	-200.000	0.037	-0.444
-740.098	-103.252	0.117	-0.028
-739.083	800.000	0.067	-0.246
-738.069	167.118	0.280	0.408
-737.054	295.884	0.193	-0.363
-736.039	-166.745	-0.358	-0.015
-735.025	-48.600	0.175	0.086
-734.010	-128.657	0.141	-0.020
-732.996	105.570	-0.130	0.157
-731.981	-99.770	-0.527	-0.135
-730.966	-200.000	-0.016	0.224
-729.952	-37.876	-0.173	-0.094
-728.937	-98.415	0.205	-0.054
-727.923	-200.000	0.036	-0.234
-726.908	0.058	-0.266	0.194
-725.894	6.863	-0.264	0.201
-724.879	756.271	0.209	-0.580
-723.864	-200.000	-0.006	-0.153
-722.850	19.698	-0.296	-0.244
-721.835	-200.000	-0.014	-0.180
-720.821	-107.089	-0.392	0.089
-719.806	-93.027	0.245	0.070
-718.791	82.994	-0.112	-0.124
-717.777	268.085	-0.168	-0.301
-716.762	-22.472	-0.464	-0.288
-715.748	-200.000	-0.051	-0.313
-714.733	45.983	0.099	-0.094
-713.718	-200.000	0.008	0.061
-712.704	183.585	0.088	-0.133
-711.689	-76.970	0.152	-0.054
-710.675	-200.000	-0.051	0.344
-709.660	-111.305	0.259	-0.054
-708.645	-54.152	0.213	-0.099
-707.631	174.739	-0.205	-0.304
-706.616	-95.047	0.270	0.075
-705.602	43.387	-0.161	-0.150
-704.587	-86.924	-0.208	0.065
-703.572	-200.000	-0.019	0.122
-702.558	-200.000	-0.044	0.253
-701.543	30.099	-0.126	0.110
-700.529	-74.824	0.042	-0.015
-699.514	88.414	-0.186	0.211
-698.499	-200.000	-0.024	0.193
-697.485	214.582	0.252	0.408
-696.470	62.165	-0.021	-0.021
-695.456	-88.449	0.223	-0.068
-694.441	153.619	-0.123	-0.173
-693.426	-200.000	0.032	-0.199
-692.412	16.038	0.044	-0.036
-691.397	75.422	0.171	-0.184
-690.383	-146.692	-0.243	-0.022
-689.368	-70.548	-0.200	-0.077
-688.354	-101.064	-0.216	-0.054
-687.339	274.742	0.105	0.191
-686.324	-51.437	0.356	-0.170
-685.310	-83.898	0.151	0.049
-684.295	-127.243	0.150	0.022
-683.281	800.000	0.072	0.284
-682.266	-200.000	-0.003	-0.201
-681.251	111.126	0.115	-0.142
-680.237	-128.762	0.174	0.025
-679.222	-129.175	0.166	-0.024
-678.208	-200.000	0.046	-0.274
-677.193	-118.043	-0.386	0.070
-676.178	-200.000	-0.051	-0.632
-675.164	-87.529	0.270	0.083
-674.149	355.578	0.079	-0.160
-673.135	11.469	0.456	-0.357
-672.120	-160.207	-0.084	-0.005
-671.105	800.000	-0.079	-0.328
-670.091	306.161	0.123	0.234
-669.076	11.549	-0.203	-0.159
-668.062	1.952	-0.176	0.129
-667.047	62.047	-0.139	-0.142
-666.032	52.167	-0.334	-0.325
-665.018	-57.025	0.335	0.151
-664.003	800.000	-0.062	-0.212
-662.989	-152.597	0.269	0.020
-661.974	-52.886	-0.153	-0.072
-660.959	-200.000	0.032	-0.343
-659.945	-40.931	-0.179	0.095
-658.930	63.616	0.092	0.095
-657.916	11.572	0.105	0.082
-656.901	76.970	0.136	0.148
-655.886	-128.110	-0.246	-0.036
-654.872	-200.000	0.001	-0.191
-653.857	-113.631	-0.326	0.065
-652.843	-200.000	-0.023	0.314
-651.828	-89.587	-0.047	0.014
-650.814	-24.235	0.388	-0.237
-649.799	113.771	-0.139	-0.172
-648.784	-200.000	0.017	0.109
-647.770	-200.000	0.045	-0.233
-646.755	800.000	0.074	-0.247
-645.741	241.832	0.106	-0.180
-644.726	556.012	-0.022	0.054
-643.711	-101.887	-0.057	-0.014
-642.697	101.272	0.184	0.219
-641.682	800.000	0.044	-0.144
-640.668	-43.069	-0.281	0.145
-639.653	297.210	0.172	-0.321
-638.638	136.573	0.241	-0.321
-637.624	3.530	0.380	-0.283
-636.609	-0.161	-0.226	-0.164
-635.595	35.381	0.136	0.122
-634.580	51.419	0.253	0.245
-633.565	1.164	0.028	0.021
-632.551	3.689	0.103	-0.077
-631.536	-135.637	0.126	-0.015
-630.522	6.463	-0.146	0.110
-629.507	114.567	0.068	-0.085
-628.492	-98.246	-0.275	0.072
-627.478	-200.000	-0.017	-0.141
-626.463	-200.000	-0.107	-0.515
-625.449	195.369	-0.145	-0.224
-624.434	-71.930	-0.435	-0.165
-623.419	160.139	-0.136	0.193
-622.405	170.311	0.168	0.245
-621.390	-91.788	-0.051	-0.015
-620.376	800.000	0.089	0.315
-619.361	103.291	-0.087	-0.104
-618.346	-147.395	0.209	0.018
-617.332	-22.366	-0.082	-0.051
-616.317	78.264	-0.285	0.311
-615.303	-130.971	0.286	-0.039
-614.288	800.000	0.053	-0.208
-613.273	800.000	-0.048	0.208
-612.259	-200.000	-0.022	-0.315
-611.244	-119.190	-0.037	-0.007
-610.230	-150.535	0.354	-0.028
-609.215	23.974	0.022	0.019
-608.201	114.879	-0.189	-0.235
-607.186	-194.471	0.065	0.001
-606.171	800.000	0.027	0.086
-605.157	-37.166	0.165	0.090
-604.142	-80.105	0.267	-0.091
-603.128	264.559	0.022	-0.039
-602.113	399.839	-0.055	-0.117
-601.098	800.000	0.004	0.015
-600.084	267.019	-0.198	0.352
-599.069	228.857	0.009	0.014
-598.055	21.476	-0.023	-0.019
-597.040	11.557	-0.160	-0.125
-596.025	-200.000	-0.003	-0.070
-595.011	380.749	0.109	0.227
-593.996	279.230	-0.155	0.281
-592.982	-75.319	0.289	-0.105
-591.967	370.828	0.081	-0.167
-590.952	800.000	-0.077	-0.264
-589.938	-200.000	-0.026	-0.203
-588.923	-149.105	0.152	0.012
-587.909	-200.000	-0.005	-0.139
-586.894	696.039	-0.058	-0.154
-585.879	354.710	-0.061	-0.124
-584.865	48.285	-0.121	0.115
-583.850	136.160	-0.064	0.085
-582.836	-23.733	-0.035	0.022
-581.821	-78.146	-0.109	0.038
-580.806	-200.000	0.006	0.039
-579.792	-69.698	0.299	0.116
-578.777	800.000	-0.078	0.283
-577.763	-48.588	-0.188	0.092
-576.748	-45.537	-0.056	-0.028
-575.733	334.012	0.043	0.085
-574.719	-4.345	0.079	-0.055
-573.704	-200.000	-0.034	-0.326
-572.690	520.722	0.123	0.293
-571.675	800.000	0.134	0.444
-570.661	-112.896	-0.166	-0.034
-569.646	25.667	-0.208	0.176
-568.631	114.115	0.276	0.342
-567.617	-33.565	-0.324	-0.182
-566.602	118.675	0.173	0.218
-565.588	800.000	-0.027	0.096
-564.573	128.734	0.202	-0.262
-563.558	-120.954	-0.031	-0.005
-562.544	415.430	-0.060	-0.130
-561.529	65.481	0.097	-0.100
-560.515	-0.663	-0.140	0.101
-559.500	-200.000	0.004	0.047
-558.485	-50.934	-0.218	-0.104
-557.471	156.366	-0.097	-0.136
-556.456	800.000	-0.049	0.169
-555.442	-138.814	0.194	-0.022
-554.427	-51.110	-0.326	-0.156
-553.412	-99.368	-0.132	0.034
-552.398	222.750	0.111	0.181
-551.383	-70.348	-0.345	0.133
-550.369	-200.000	-0.005	-0.099
-549.354	63.306	0.252	0.257
-548.339	104.928	-0.139	0.166
-547.325	-118.281	-0.277	0.050
-546.310	133.949	0.112	0.148
-545.296	-99.215	0.141	-0.036
-544.281	-200.000	0.009	0.125
-543.266	-200.000	0.007	0.074
-542.252	442.418	-0.081	0.181
-541.237	-36.243	-0.401	0.220
-540.223	137.106	0.061	-0.081
-539.208	280.902	-0.074	-0.134
-538.193	-10.491	-0.174	0.117
-537.179	-78.171	0.207	-0.073
-536.164	-146.969	0.216	-0.019
-535.150	-78.364	-0.082	-0.029
-534.135	-88.383	0.053	0.016
-533.121	-57.744	0.396	-0.176
-532.106	221.357	-0.145	-0.237
-531.091	282.617	0.045	-0.083
-530.077	-79.793	-0.406	-0.139
-529.062	21.955	0.289	-0.239
-528.048	325.306	0.070	0.136
-527.033	-79.730	-0.395	-0.135
-526.018	226.327	0.094	-0.155
-525.004	372.855	0.073	0.151
-523.989	-14.928	0.247	0.161
-522.975	-168.197	-0.062	-0.002
-521.960	-141.516	0.344	0.035
-520.945	-40.442	0.046	-0.024
-519.931	192.537	0.070	-0.108
-518.916	800.000	-0.019	0.072
-517.902	152.160	0.106	0.147
-516.887	191.612	0.172	-0.263
-515.872	-77.784	-0.120	0.042
-514.858	-108.510	-0.115	-0.025
-513.843	-83.728	0.364	-0.118
-512.829	130.066	-0.043	-0.056
-511.814	-32.058	0.193	-0.110
-510.799	748.982	-0.032	0.088
-509.785	-61.498	-0.222	0.095
-508.770	800.000	0.043	-0.140
-507.756	352.949	0.125	-0.252
-506.741	169.520	-0.268	-0.389
-505.726	-52.429	0.526	-0.247
-504.712	-200.000	-0.013	0.518
-503.697	717.715	0.092	-0.248
-502.683	432.071	-0.053	-0.116
-501.668	-127.731	-0.287	0.042
-500.653	-61.453	-0.035	-0.015
-499.639	-34.232	0.256	0.143
-498.624	-133.987	-0.196	-0.025
-497.610	-21.520	-0.134	-0.083
-496.595	129.166	0.153	-0.198
-495.581	800.000	0.097	-0.328
-494.566	45.607	-0.215	-0.201
-493.551	-200.000	0.143	-0.000
-492.537	-12.417	0.184	-0.122
-491.522	-102.585	-0.147	-0.036
-490.508	227.214	0.184	0.303
-489.493	-65.875	0.161	0.065
-488.478	-138.080	-0.349	0.039
-487.464	800.000	-0.027	-0.105
-486.449	250.802	0.080	-0.138
-485.435	117.567	-0.209	0.261
-484.420	-134.628	0.104	0.013
-483.405	-0.246	0.162	-0.117
-482.391	55.348	-0.049	-0.048
-481.376	5.275	0.119	0.089
-480.362	-121.164	-0.104	0.018
-479.347	61.097	0.240	-0.241
-478.332	-200.000	0.004	0.096
-477.318	-200.000	0.004	-0.167
-476.303	-200.000	0.054	-0.304
-475.289	404.706	0.093	-0.199
-474.274	-80.098	0.032	0.011
-473.259	-200.000	-0.005	-0.268
-472.245	216.575	-0.089	0.144
-471.230	104.697	0.093	0.112
-470.216	34.459	0.284	-0.251
-469.201	-200.000	-0.018	0.190
-468.186	11.461	-0.102	0.080
-467.172	344.359	-0.104	0.207
-466.157	800.000	0.157	0.479
-465.143	416.629	0.066	0.144
-464.128	70.495	0.177	-0.185
-463.113	10.317	-0.236	0.182
-462.099	-57.402	-0.236	0.105
-461.084	-200.000	-0.058	0.290
-460.070	-73.756	0.161	-0.059
-459.055	-200.000	-0.019	0.121
-458.040	-200.000	-0.094	0.524
-457.026	-89.824	0.108	-0.032
-456.011	119.611	0.078	-0.097
-454.997	800.000	-0.090	-0.290
-453.982	60.957	-0.134	0.135
-452.968	800.000	-0.015	0.044
-451.953	577.208	0.033	-0.082
-450.938	46.762	0.111	0.105
-449.924	28.044	0.055	-0.047
-448.909	272.169	-0.053	-0.094
-447.895	219.383	0.031	-0.051
-446.880	-98.046	-0.401	-0.105
-445.865	223.596	-0.133	0.218
-444.851	800.000	0.137	0.404
-443.836	-200.000	0.002	0.151
-442.822	72.018	-0.098	-0.103
-441.807	-49.540	-0.238	0.115
-440.792	-200.000	0.060	0.000
-439.778	0.461	-0.014	0.010
-438.763	29.245	0.230	-0.198
-437.749	-71.693	0.384	-0.145
-436.734	-105.025	-0.128	0.030
-435.719	320.922	-0.027	-0.051
-434.705	-105.392	-0.212	-0.049
-433.690	158.115	0.235	-0.330
-432.676	-18.686	0.181	-0.114
-431.661	-200.000	0.007	-0.083
-430.646	-98.666	-0.301	0.078
-429.632	-148.921	0.168	0.014
-428.617	-115.483	-0.068	-0.013
-427.603	-200.000	-0.003	0.110
-426.588	-200.000	0.020	-0.314
-425.573	-18.539	-0.164	-0.104
-424.559	81.168	0.051	0.056
-423.544	-166.848	-0.095	0.004
-422.530	-16.442	-0.202	0.130
-421.515	-200.000	-0.054	-0.379
-420.500	514.162	0.118	-0.279
-419.486	-200.000	-0.044	-0.358
-418.471	-85.622	-0.368	0.116
-417.457	-30.283	-0.129	-0.074
-416.442	5.168	0.190	0.142
-415.428	56.722	-0.071	-0.070
-414.413	101.113	-0.067	-0.079
-413.398	-200.000	0.073	0.326
-412.384	-84.439	0.303	-0.097
-411.369	-165.493	-0.179	-0.008
-410.355	-73.585	-0.369	0.136
-409.340	185.953	0.079	0.119
-408.325	-126.392	-0.154	-0.023
-407.311	-43.985	0.280	-0.142
-406.296	-200.000	0.009	0.108
-405.282	371.857	-0.123	0.253
-404.267	-82.582	-0.140	-0.046
-403.252	-200.000	-0.048	-0.326
-402.238	-200.000	-0.148	0.000
-401.223	453.417	-0.120	0.268
-400.209	800.000	0.031	-0.092
-399.194	-200.000	-0.007	0.237
-398.179	-99.661	0.227	0.058
-397.165	-200.000	0.043	0.238
-396.150	-200.000	0.001	-0.096
-395.136	-53.053	0.091	0.042
-394.121	24.511	-0.238	-0.200
-393.106	-98.233	0.283	0.074
-392.092	-200.000	-0.014	0.084
-391.077	-128.747	-0.225	0.032
-390.063	43.471	-0.258	0.238
-389.048	-77.749	0.093	-0.033
-388.033	-200.000	0.010	0.452
-387.019	-141.144	0.265	0.027
-386.004	-156.630	-0.335	0.021
-384.990	41.152	-0.164	0.150
-383.975	-117.504	0.131	-0.024
-382.960	-55.486	0.102	0.046
-381.946	718.248	0.028	-0.075
-380.931	-200.000	0.039	-0.407
-379.917	329.872	-0.138	0.268
-378.902	-200.000	0.044	0.224
-377.888	94.416	-0.092	-0.106
-376.873	-145.965	-0.241	0.022
-375.858	-95.444	-0.371	-0.101
-374.844	650.383	0.054	-0.139
-373.829	436.232	0.203	0.447
-372.815	-64.554	-0.072	-0.030
-371.800	-200.000	0.045	0.331
-370.785	-89.764	0.207	0.061
-369.771	800.000	0.079	-0.230
-368.756	98.538	0.168	-0.196
-367.742	55.176	-0.220	0.215
-366.727	128.154	-0.080	0.103
-365.712	-94.117	-0.146	-0.041
-364.698	35.087	0.137	-0.121
-363.683	159.440	0.284	-0.399
-362.669	-134.219	-0.229	-0.029
-361.654	-200.000	0.044	0.340
-360.639	-86.315	-0.121	-0.038
-359.625	-160.050	0.168	-0.009
-358.610	-144.648	0.227	-0.021
-357.596	-200.000	-0.049	-0.326
-356.581	-114.356	-0.346	0.067
-355.566	274.788	-0.142	-0.254
-354.552	800.000	0.062	0.227
-353.537	251.651	-0.095	-0.163
-352.523	-63.490	-0.381	-0.158
-351.508	40.904	-0.167	-0.152
-350.493	800.000	0.061	-0.230
-349.479	2.292	0.160	0.117
-348.464	-107.548	0.051	-0.011
-347.450	-9.134	-0.080	0.054
-346.435	1.732	0.238	-0.173
-345.420	257.788	0.081	-0.141
-344.406	31.110	0.125	-0.108
-343.391	-200.000	-0.002	0.193
-342.377	-56.121	0.107	-0.048
-341.362	168.463	-0.156	0.224
-340.348	-200.000	-0.049	-0.292
-339.333	800.000	0.063	-0.263
-338.318	127.482	0.148	-0.190
-337.304	-28.484	0.263	-0.153
-336.289	230.111	-0.165	0.273
-335.275	16.985	-0.165	-0.132
-334.260	800.000	-0.059	-0.237
-333.245	344.028	-0.037	0.073
-332.231	104.824	0.210	0.250
-331.216	-200.000	0.007	0.224
-330.202	-74.360	0.044	-0.016
-329.187	-107.953	0.228	0.050
-328.172	306.015	0.126	0.237
-327.158	720.020	-0.016	0.044
-326.143	436.176	-0.120	0.264
-325.129	-200.000	-0.023	0.110
-324.114	-158.092	0.061	-0.004
-323.099	180.243	0.228	-0.337
-322.085	-114.235	-0.331	0.064
-321.070	-7.301	-0.293	0.200
-320.056	91.613	0.196	-0.222
-319.041	-17.419	0.054	0.034
-318.026	-90.418	-0.169	-0.049
-317.012	-4.903	-0.082	0.057
-315.997	119.686	-0.214	0.267
-314.983	121.982	-0.099	0.125
-313.968	307.394	-0.044	0.083
-312.953	25.013	0.272	0.228
-311.939	800.000	0.060	-0.178
-310.924	191.185	-0.098	-0.149
-309.910	148.847	-0.101	0.138
-308.895	317.288	0.024	0.046
-307.880	-45.730	-0.337	0.168
-306.866	-106.449	0.137	0.031
-305.851	-52.821	-0.223	0.104
-304.837	63.335	0.030	0.030
-303.822	-120.907	0.146	0.025
-302.807	-115.977	-0.164	-0.031
-301.793	519.411	-0.102	-0.240
-300.778	166.131	-0.099	-0.141
-299.764	-49.422	-0.349	0.168
-298.749	-200.000	0.019	-0.139
-297.735	-96.987	0.130	-0.034
-296.720	-78.571	-0.201	-0.069
-295.705	-107.976	0.169	-0.037
-294.691	495.123	0.023	-0.054
-293.676	-48.170	0.385	0.187
-292.662	-143.302	0.405	-0.039
-291.647	-195.508	0.273	0.002
-290.632	-200.000	0.074	0.464
-289.618	-106.686	0.267	0.060
-288.603	-104.655	-0.172	0.040
-287.589	-200.000	0.031	0.152
-286.574	-78.517	0.247	-0.085
-285.559	-39.078	0.209	0.111
-284.545	-141.412	-0.245	-0.025
-283.530	61.459	-0.138	0.139
-282.516	-200.000	-0.030	0.178
-281.501	163.087	0.295	-0.417
-280.486	10.895	-0.112	-0.086
-279.472	-200.000	0.022	0.164
-278.457	-44.956	-0.205	0.103
-277.443	-200.000	-0.018	0.248
-276.428	-74.383	-0.101	0.037
-275.413	-86.801	0.130	0.040
-274.399	-51.825	-0.055	0.026
-273.384	-116.331	-0.304	-0.057
-272.370	-43.294	0.135	0.069
-271.355	-7.735	-0.093	0.064
-270.340	-34.781	-0.288	-0.159
-269.326	-29.479	-0.170	0.098
-268.311	204.419	0.124	-0.194
-267.297	-88.845	0.156	-0.046
-266.282	-97.262	-0.333	-0.087
-265.267	0.645	-0.179	0.129
-264.253	-200.000	0.059	-0.392
-263.238	800.000	0.050	-0.157
-262.224	96.624	0.202	-0.232
-261.209	-51.677	-0.201	0.094
-260.195	268.181	-0.116	0.205
-259.180	-46.634	0.114	-0.056
-258.165	198.279	0.245	0.377
-257.151	48.923	0.215	0.203
-256.136	-122.550	0.239	0.039
-255.122	201.716	-0.162	-0.252
-254.107	-69.795	-0.041	-0.016
-253.092	-58.325	-0.306	0.134
-252.078	-200.000	-0.009	0.133
-251.063	-21.513	-0.141	0.086
-250.049	-8.552	-0.063	-0.043
-249.034	-87.560	0.242	0.073
-248.019	4.613	-0.078	-0.057
-247.005	800.000	0.012	0.034
-245.990	123.118	-0.049	-0.061
-244.976	-200.000	-0.054	0.245
-243.961	18.186	-0.201	-0.161
-242.946	63.627	0.077	-0.078
-241.932	800.000	-0.046	0.140
-240.917	-200.000	-0.072	-0.334
-239.903	-52.861	0.239	0.111
-238.888	-171.835	-0.186	-0.006
-237.873	-200.000	-0.003	0.182
-236.859	-0.633	0.395	0.282
-235.844	-200.000	-0.009	0.339
-234.830	800.000	-0.089	0.386
-233.815	800.000	-0.103	-0.305
-232.800	-67.454	0.347	-0.137
-231.786	43.336	-0.237	-0.217
-230.771	-200.000	0.048	-0.289
-229.757	448.585	-0.182	0.403
-228.742	401.497	0.159	0.335
-227.727	49.983	-0.039	0.037
-226.713	-29.976	0.150	0.086
-225.698	1.967	0.067	0.048
-224.684	17.227	0.196	0.156
-223.669	-128.552	0.328	-0.047
-222.655	-78.012	-0.161	-0.056
-221.640	-175.068	-0.225	-0.006
-220.625	-11.197	0.127	-0.084
-219.611	106.549	0.157	-0.186
-218.596	-200.000	-0.013	-0.126
-217.582	442.607	-0.078	-0.172
-216.567	80.027	0.046	-0.050
-215.552	-137.865	-0.165	-0.019
-214.538	-52.842	-0.095	-0.044
-213.523	65.639	-0.174	-0.177
-212.509	481.760	0.068	0.154
-211.494	-105.010	0.156	0.036
-210.479	800.000	0.085	-0.255
-209.465	323.167	0.111	0.213
-208.450	106.526	-0.120	0.143
-207.436	262.573	0.175	-0.305
-206.421	-44.913	-0.165	-0.082
-205.406	-70.973	-0.105	0.040
-204.392	-168.252	0.250	-0.010
-203.377	20.201	-0.269	0.218
-202.363	-91.601	0.297	0.085
-201.348	-41.455	0.039	0.020
-200.333	-6.607	0.337	-0.230
-199.319	-200.000	-0.038	0.205
-198.304	357.204	-0.228	0.457
-197.290	-59.174	0.222	-0.096
-196.275	256.940	-0.045	0.078
-195.260	-124.165	0.242	-0.038
-194.246	101.026	0.189	0.220
-193.231	103.252	-0.177	0.208
-192.217	93.535	-0.219	0.249
-191.202	-3.780	0.267	0.186
-190.187	-136.300	-0.289	-0.034
-189.173	18.745	-0.041	-0.033
-188.158	144.411	-0.034	0.046
-187.144	-87.339	0.305	0.093
-186.129	-118.193	-0.087	0.016
-185.114	-69.798	-0.202	-0.077
-184.100	3.896	0.107	-0.078
-183.085	-200.000	-0.003	-0.047
-182.071	-113.816	0.167	0.033
-181.056	-78.025	-0.270	0.093
-180.042	-22.272	-0.325	0.198
-179.027	-177.062	0.150	-0.004
-178.012	800.000	-0.018	-0.066
-176.998	331.734	0.110	-0.212
-175.983	383.698	0.130	-0.269
-174.969	800.000	0.099	-0.312
-173.954	248.308	-0.189	-0.321
-172.939	-150.332	0.124	-0.010
-171.925	800.000	-0.069	0.196
-170.910	800.000	-0.092	0.359
-169.896	-59.206	-0.205	-0.089
-168.881	-200.000	0.049	0.248
-167.866	-200.000	0.076	-0.373
-166.852	74.134	-0.113	-0.119
-165.837	-200.000	0.087	-0.645
-164.823	800.000	-0.039	0.113
-163.808	-66.826	0.177	0.070
-162.793	124.958	0.035	0.044
-161.779	385.217	-0.069	0.142
-160.764	19.499	0.042	0.034
-159.750	-200.000	-0.068	-0.316
-158.735	143.364	-0.143	-0.191
-157.720	4.712	0.064	-0.047
-156.706	20.779	-0.272	0.221
-155.691	-200.000	-0.003	-0.050
-154.677	33.755	0.134	0.116
-153.662	-24.778	0.263	-0.157
-152.647	84.769	0.139	-0.152
-151.633	199.249	0.115	0.176
-150.618	6.613	0.179	0.133
-149.604	-57.469	-0.208	0.091
-148.589	555.866	-0.060	0.145
-147.574	800.000	0.067	-0.244
-146.560	-161.805	-0.133	0.007
-145.545	243.466	0.087	0.146
-144.531	103.254	-0.146	-0.172
-143.516	-200.000	-0.019	-0.540
-142.502	-200.000	0.037	0.301
-141.487	-200.000	0.022	0.437
-140.472	-173.858	0.347	-0.010
-139.458	-82.420	-0.487	-0.158
-138.443	800.000	-0.128	-0.393
-137.429	44.639	-0.127	-0.117
-136.414	800.000	-0.052	0.153
-135.399	800.000	-0.174	-0.482
-134.385	-4.386	0.203	0.140
-133.370	534.834	0.098	-0.233
-132.356	-56.938	0.182	-0.080
-131.341	232.022	-0.081	-0.133
-130.326	-110.253	0.250	0.052
-129.312	-117.217	0.300	-0.055
-128.297	-25.046	0.321	-0.191
-127.283	-200.000	0.054	-0.256
-126.268	228.161	-0.091	-0.148
-125.253	-200.000	-0.001	0.170
-124.239	61.235	-0.102	-0.101
-123.224	-145.039	0.025	-0.002
-122.210	251.521	0.109	0.185
-121.195	-200.000	0.017	-0.082
