DTS Sentinel unit serial number:	SN413079Multiplexer serial number:	ORYXHardware model number:	OX4-SRSoftware version number:	ORYX F/W v4.00 Oryx Data Collector v3.7.2.0data status	okinstallation	princeton_trtdifferential loss correction	single-endedforward channel	channel 2reverse channel	N/Adate	2019/09/12time	21:43:35forward acquisition time	60.00reverse acquisition time	0.00gamma	496.2192k internal	0.2329k external	0.2329temperature offset calibration	1.0171default loss term (dB/km)	0.3790temperature slope calibration	1.0000multiplexer offset coefficient	1.0000multiplexer slope coefficient	1.0000fibre end	0.00T internal ref (°C)	30.27T ext. ref 1 (°C)	3.71T ext. ref 2 (°C)	24.85length (m)	temperature (°C)	Stokes	anti-Stokes-747.200	193.165	-0.113	-0.172
-746.185	168.310	-0.121	-0.173
-745.171	-100.814	0.254	0.063
-744.156	-60.819	-0.120	-0.051
-743.142	-41.181	0.170	-0.088
-742.127	-200.000	0.030	0.422
-741.112	-137.723	-0.138	0.016
-740.098	800.000	-0.098	-0.338
-739.083	-200.000	0.019	-0.093
-738.069	1.037	0.560	0.404
-737.054	279.529	0.093	-0.167
-736.039	-143.675	0.091	-0.009
-735.025	15.271	0.232	-0.183
-734.010	800.000	-0.021	0.070
-732.996	432.661	-0.236	-0.516
-731.981	-173.362	-0.235	-0.007
-730.966	800.000	-0.071	0.247
-729.952	-120.850	0.025	0.004
-728.937	10.062	-0.106	0.081
-727.923	378.512	-0.119	-0.245
-726.908	-156.808	0.034	0.002
-725.894	220.734	-0.049	0.079
-724.879	-68.644	-0.324	-0.126
-723.864	-200.000	-0.024	0.176
-722.850	-81.443	-0.115	-0.038
-721.835	-52.374	-0.196	0.091
-720.821	-64.562	-0.024	0.010
-719.806	144.559	-0.241	-0.324
-718.791	16.280	-0.200	0.159
-717.777	-200.000	0.057	-0.533
-716.762	85.139	0.094	-0.103
-715.748	-200.000	0.043	0.364
-714.733	163.537	-0.218	-0.308
-713.718	-60.588	0.478	-0.204
-712.704	-200.000	0.075	0.490
-711.689	-137.679	-0.298	-0.034
-710.675	-49.972	0.268	0.128
-709.660	473.429	0.116	0.264
-708.645	90.590	-0.329	-0.371
-707.631	99.185	0.146	-0.169
-706.616	800.000	-0.058	-0.165
-705.602	75.841	-0.245	0.260
-704.587	218.714	0.186	-0.299
-703.572	697.562	-0.066	-0.175
-702.558	-74.989	0.115	0.041
-701.543	-51.674	-0.261	-0.122
-700.529	-142.407	-0.382	0.038
-699.514	800.000	0.098	-0.429
-698.499	-36.809	-0.169	0.091
-697.485	-122.225	-0.208	0.034
-696.470	-13.340	0.463	-0.302
-695.456	108.711	0.143	-0.171
-694.441	520.366	0.065	-0.154
-693.426	-7.400	-0.293	-0.199
-692.412	5.140	0.085	-0.063
-691.397	-134.914	-0.437	0.053
-690.383	22.796	0.139	-0.115
-689.368	-200.000	-0.021	0.156
-688.354	619.680	0.043	0.109
-687.339	258.081	0.223	0.386
-686.324	-2.779	0.121	0.085
-685.310	-64.323	-0.107	0.044
-684.295	-36.423	-0.398	-0.215
-683.281	-76.252	-0.217	-0.077
-682.266	-200.000	0.017	0.238
-681.251	-55.065	-0.290	0.131
-680.237	125.764	-0.039	0.050
-679.222	-38.825	-0.381	-0.202
-678.208	260.024	0.106	0.184
-677.193	-95.313	-0.322	-0.087
-676.178	800.000	0.066	0.184
-675.164	20.739	-0.244	-0.198
-674.149	800.000	-0.096	-0.379
-673.135	-200.000	0.056	0.333
-672.120	19.162	-0.140	0.112
-671.105	453.076	-0.104	-0.231
-670.091	-59.021	0.348	-0.151
-669.076	-154.816	-0.321	0.021
-668.062	-61.555	0.296	-0.125
-667.047	-96.256	0.280	-0.075
-666.032	800.000	0.010	-0.035
-665.018	54.394	-0.081	-0.078
-664.003	160.791	-0.171	0.240
-662.989	501.633	-0.080	-0.185
-661.974	0.654	-0.116	-0.084
-660.959	250.980	0.192	0.328
-659.945	-94.854	-0.108	-0.029
-658.930	95.758	-0.153	0.175
-657.916	-200.000	-0.006	0.148
-656.901	-200.000	-0.031	-0.254
-655.886	-200.000	0.005	-0.107
-654.872	-55.569	-0.202	-0.091
-653.857	402.575	-0.081	-0.171
-652.843	492.202	0.002	0.006
-651.828	204.498	-0.124	0.194
-650.814	205.589	0.212	-0.331
-649.799	-30.318	0.306	0.174
-648.784	-153.933	0.043	0.003
-647.770	800.000	-0.015	0.045
-646.755	-8.935	0.154	0.103
-645.741	800.000	0.032	0.139
-644.726	424.499	-0.071	-0.153
-643.711	-10.038	-0.306	0.204
-642.697	-19.720	-0.157	-0.097
-641.682	23.513	0.058	0.048
-640.668	-22.199	-0.022	-0.013
-639.653	391.120	0.053	0.111
-638.638	800.000	-0.081	-0.267
-637.624	128.580	0.145	-0.185
-636.609	67.940	0.163	-0.167
-635.595	188.546	-0.236	-0.354
-634.580	243.186	0.127	0.213
-633.565	278.413	-0.114	0.204
-632.551	800.000	0.090	0.302
-631.536	779.589	0.133	-0.364
-630.522	657.211	-0.046	-0.120
-629.507	16.758	0.322	-0.255
-628.492	-95.640	-0.202	-0.054
-627.478	-27.479	0.030	-0.017
-626.463	-200.000	-0.042	0.290
-625.449	82.889	-0.137	0.150
-624.434	-33.523	-0.279	-0.154
-623.419	-200.000	0.273	-0.001
-622.405	334.126	-0.079	0.153
-621.390	469.525	-0.061	-0.137
-620.376	278.849	-0.179	-0.320
-619.361	-66.525	0.278	0.111
-618.346	-96.096	0.097	-0.026
-617.332	78.592	0.136	-0.146
-616.317	-200.000	-0.052	-0.322
-615.303	-68.502	-0.219	-0.085
-614.288	424.326	0.105	0.226
-613.273	-35.012	-0.154	-0.084
-612.259	24.124	-0.214	-0.177
-611.244	152.563	0.140	-0.191
-610.230	347.109	0.196	0.388
-609.215	-78.298	0.142	0.049
-608.201	-200.000	0.024	0.158
-607.186	-39.082	-0.087	-0.046
-606.171	-67.037	0.103	0.041
-605.157	798.913	-0.049	0.137
-604.142	800.000	0.061	-0.262
-603.128	315.012	-0.239	-0.452
-602.113	500.143	-0.053	0.123
-601.098	-132.925	0.330	-0.042
-600.084	-200.000	0.030	0.145
-599.069	-48.555	0.072	-0.035
-598.055	330.936	0.228	-0.439
-597.040	-88.658	-0.152	0.045
-596.025	67.166	0.173	-0.177
-595.011	410.110	-0.046	-0.098
-593.996	-177.908	-0.275	-0.007
-592.982	-114.615	0.049	-0.009
-591.967	-18.776	0.196	0.122
-590.952	284.641	-0.080	0.145
-589.938	-200.000	0.008	-0.217
-588.923	91.078	0.198	0.223
-587.909	142.168	0.242	-0.322
-586.894	-111.194	0.160	-0.033
-585.879	-88.687	-0.263	-0.078
-584.865	-200.000	0.022	-0.156
-583.850	-171.869	0.219	-0.007
-582.836	263.280	-0.089	0.155
-581.821	-200.000	0.025	-0.117
-580.806	200.113	0.130	0.199
-579.792	-45.344	0.362	0.180
-578.777	20.662	-0.149	-0.121
-577.763	-119.131	-0.065	0.011
-576.748	-59.982	-0.235	-0.100
-575.733	122.750	-0.082	-0.103
-574.719	-125.695	0.063	-0.010
-573.704	-125.058	-0.178	0.027
-572.690	-91.590	-0.344	0.098
-571.675	-90.165	-0.264	-0.077
-570.661	-123.272	-0.340	-0.054
-569.646	19.027	-0.178	-0.143
-568.631	800.000	0.041	0.138
-567.617	155.873	0.025	-0.034
-566.602	800.000	-0.108	-0.456
-565.588	-200.000	-0.022	-0.179
-564.573	-200.000	-0.006	-0.158
-563.558	66.268	0.102	0.103
-562.544	601.661	0.024	0.059
-561.529	-200.000	0.018	-0.122
-560.515	-200.000	-0.034	0.160
-559.500	-17.433	0.282	-0.177
-558.485	549.531	0.205	-0.491
-557.471	-41.522	-0.062	0.032
-556.456	32.329	-0.395	-0.341
-555.442	-94.550	0.211	-0.057
-554.427	391.894	-0.023	-0.049
-553.412	-200.000	0.036	-0.169
-552.398	58.859	0.099	-0.098
-551.383	567.775	0.049	-0.118
-550.369	-200.000	-0.016	-0.189
-549.354	-200.000	-0.007	0.399
-548.339	-53.792	-0.151	-0.069
-547.325	31.318	-0.323	0.277
-546.310	9.613	0.298	0.226
-545.296	-75.113	0.136	-0.049
-544.281	-200.000	-0.062	0.496
-543.266	-90.072	-0.138	0.040
-542.252	32.843	-0.105	-0.090
-541.237	21.944	-0.201	0.164
-540.223	-184.064	-0.175	-0.003
-539.208	86.287	-0.100	-0.110
-538.193	65.975	0.224	-0.227
-537.179	-60.825	0.200	-0.085
-536.164	-200.000	0.026	-0.502
-535.150	-200.000	-0.057	0.371
-534.135	135.215	0.216	0.280
-533.121	34.160	-0.074	-0.065
-532.106	334.640	-0.181	-0.351
-531.091	-64.136	0.210	-0.086
-530.077	-1.768	-0.183	0.129
-529.062	233.388	-0.034	0.056
-528.048	203.287	-0.231	-0.358
-527.033	-104.032	0.119	-0.028
-526.018	-1.380	0.302	0.213
-525.004	-200.000	-0.040	0.287
-523.989	800.000	0.141	-0.546
-522.975	-85.870	0.080	0.025
-521.960	-200.000	0.027	-0.214
-520.945	26.994	-0.083	-0.069
-519.931	59.078	0.327	-0.321
-518.916	-17.739	-0.068	0.043
-517.902	-153.966	-0.160	0.011
-516.887	-103.072	0.212	0.050
-515.872	-76.528	-0.004	-0.001
-514.858	-56.339	0.375	0.166
-513.843	-7.519	-0.189	-0.128
-512.829	734.972	0.081	0.216
-511.814	-20.078	0.075	0.046
-510.799	71.091	-0.214	-0.222
-509.785	-18.521	0.056	0.035
-508.770	135.363	0.252	-0.327
-507.756	-101.477	0.091	-0.022
-506.741	-76.322	0.134	-0.047
-505.726	246.318	0.082	-0.138
-504.712	-200.000	-0.011	-0.199
-503.697	29.949	0.215	0.183
-502.683	-1.279	0.397	-0.279
-501.668	333.491	0.039	-0.076
-500.653	800.000	0.015	0.055
-499.639	388.840	-0.072	-0.150
-498.624	-200.000	-0.016	0.080
-497.610	113.132	0.189	0.229
-496.595	800.000	-0.023	-0.091
-495.581	-13.113	-0.113	0.073
-494.566	29.429	0.264	0.224
-493.551	-105.104	-0.222	-0.051
-492.537	-81.747	0.125	0.041
-491.522	268.464	-0.030	-0.052
-490.508	-55.424	-0.183	0.082
-489.493	-37.975	0.222	0.118
-488.478	-170.861	0.103	0.004
-487.464	6.723	-0.235	-0.175
-486.449	522.267	0.148	-0.345
-485.435	-138.107	-0.461	0.051
-484.420	-116.986	0.141	-0.026
-483.405	800.000	0.072	-0.295
-482.391	64.171	0.325	-0.327
-481.376	-90.556	0.097	-0.028
-480.362	800.000	0.029	-0.099
-479.347	-94.893	-0.125	0.034
-478.332	-200.000	-0.011	0.110
-477.318	69.644	-0.235	-0.242
-476.303	800.000	0.114	0.329
-475.289	800.000	-0.047	-0.200
-474.274	800.000	0.069	-0.234
-473.259	79.008	-0.107	0.114
-472.245	350.830	0.033	-0.064
-471.230	-200.000	0.022	0.307
-470.216	98.920	0.163	-0.188
-469.201	-200.000	0.035	-0.179
-468.186	-200.000	-0.003	-0.092
-467.172	800.000	-0.029	0.100
-466.157	113.839	0.043	0.053
-465.143	-112.618	-0.141	0.028
-464.128	-200.000	-0.038	-0.413
-463.113	271.773	-0.071	0.125
-462.099	800.000	-0.044	0.124
-461.084	24.659	0.101	0.083
-460.070	20.701	-0.376	0.303
-459.055	82.534	0.269	0.291
-458.040	-57.341	0.269	-0.118
-457.026	-200.000	0.040	0.220
-456.011	261.424	-0.181	0.311
-454.997	160.568	-0.046	-0.064
-453.982	800.000	0.028	0.092
-452.968	800.000	0.043	-0.136
-451.953	-34.059	0.242	0.133
-450.938	-97.764	-0.117	-0.030
-449.924	-200.000	0.006	-0.128
-448.909	-1.546	-0.033	0.023
-447.895	594.963	-0.045	-0.111
-446.880	137.797	-0.172	0.224
-445.865	-89.369	0.275	-0.081
-444.851	22.288	0.194	0.158
-443.836	-200.000	-0.007	0.198
-442.822	-114.565	0.197	-0.038
-441.807	17.481	0.113	-0.089
-440.792	13.364	0.273	-0.210
-439.778	-200.000	0.023	0.110
-438.763	155.061	0.045	-0.061
-437.749	-36.413	-0.241	-0.129
-436.734	800.000	0.042	0.143
-435.719	-182.304	-0.171	-0.003
-434.705	-36.244	-0.122	-0.066
-433.690	46.854	-0.206	0.191
-432.676	65.495	0.071	-0.072
-431.661	-96.452	0.263	0.069
-430.646	-200.000	-0.000	0.099
-429.632	800.000	-0.056	0.228
-428.617	-200.000	0.025	-0.254
-427.603	-95.206	0.151	0.040
-426.588	-52.242	-0.549	0.253
-425.573	109.419	-0.192	0.228
-424.559	238.502	0.198	-0.327
-423.544	-158.699	0.134	0.008
-422.530	28.707	-0.167	0.140
-421.515	-81.400	-0.062	-0.020
-420.500	-78.216	-0.193	0.066
-419.486	372.886	-0.136	-0.276
-418.471	-200.000	0.019	-0.185
-417.457	-200.000	-0.007	0.062
-416.442	-129.406	0.217	0.030
-415.428	689.590	0.053	-0.139
-414.413	-200.000	0.023	-0.209
-413.398	258.456	-0.018	0.031
-412.384	178.964	0.076	0.110
-411.369	-28.335	-0.064	0.037
-410.355	112.531	0.169	0.204
-409.340	-56.046	0.212	0.094
-408.325	-15.090	-0.024	-0.015
-407.311	-134.659	0.121	0.015
-406.296	-148.194	-0.081	-0.007
-405.282	55.500	0.053	-0.051
-404.267	9.412	-0.094	-0.071
-403.252	800.000	-0.090	0.299
-402.238	24.620	0.170	-0.140
-401.223	-3.819	-0.167	-0.115
-400.209	189.755	-0.119	0.177
-399.194	-129.319	-0.462	0.064
-398.179	800.000	-0.067	-0.246
-397.165	245.063	-0.033	-0.055
-396.150	-51.473	-0.359	0.167
-395.136	800.000	0.066	0.198
-394.121	149.370	0.170	-0.229
-393.106	800.000	-0.116	-0.416
-392.092	-178.741	-0.328	0.007
-391.077	-145.465	-0.250	0.022
-390.063	-173.729	0.142	0.004
-389.048	-200.000	-0.019	-0.194
-388.033	-121.512	-0.051	-0.008
-387.019	-0.637	-0.145	0.102
-386.004	83.245	0.249	0.269
-384.990	-76.896	0.012	-0.004
-383.975	-200.000	-0.035	0.157
-382.960	77.435	0.119	-0.126
-381.946	26.590	0.200	0.166
-380.931	25.776	0.250	0.207
-379.917	-200.000	-0.014	0.317
-378.902	-34.224	0.151	0.083
-377.888	-200.000	-0.070	-0.331
-376.873	-163.569	-0.140	-0.007
-375.858	527.705	-0.055	-0.129
-374.844	800.000	0.077	0.335
-373.829	-29.915	-0.150	0.085
-372.815	-193.048	0.273	-0.002
-371.800	-200.000	0.013	-0.157
-370.785	182.729	0.270	-0.396
-369.771	192.790	-0.098	0.147
-368.756	800.000	-0.057	-0.188
-367.742	50.246	-0.068	0.064
-366.727	-37.587	-0.307	-0.162
-365.712	114.308	-0.099	0.120
-364.698	-92.841	0.279	-0.077
-363.683	217.688	-0.122	0.193
-362.669	-52.359	-0.194	0.089
-361.654	660.623	0.052	0.134
-360.639	465.516	0.090	-0.201
-359.625	-70.886	0.157	-0.059
-358.610	3.413	0.110	-0.080
-357.596	136.892	0.187	-0.243
-356.581	-54.632	-0.147	-0.066
-355.566	-200.000	0.067	-0.401
-354.552	109.693	-0.156	-0.186
-353.537	700.361	-0.083	-0.218
-352.523	-14.848	0.095	0.060
-351.508	-41.559	-0.212	-0.108
-350.493	-200.000	-0.047	0.218
-349.479	63.075	-0.159	-0.158
-348.464	199.199	0.218	0.332
-347.450	-200.000	0.007	0.134
-346.435	800.000	0.121	0.385
-345.420	-47.306	-0.226	0.109
-344.406	800.000	0.053	-0.162
-343.391	132.303	0.012	0.015
-342.377	800.000	0.141	-0.451
-341.362	-65.083	0.174	0.069
-340.348	-134.130	0.412	-0.050
-339.333	-55.639	0.376	-0.167
-338.318	-200.000	0.016	-0.231
-337.304	-98.516	0.268	0.068
-336.289	-200.000	0.041	0.185
-335.275	-86.539	0.202	0.061
-334.260	-61.690	0.285	-0.118
-333.245	-118.079	-0.302	0.053
-332.231	113.667	0.050	-0.060
-331.216	47.973	0.086	0.080
-330.202	252.921	-0.051	0.086
-329.187	800.000	-0.036	0.155
-328.172	-200.000	0.066	0.425
-327.158	337.784	0.158	0.304
-326.143	-69.277	-0.339	0.129
-325.129	138.330	0.132	0.172
-324.114	95.765	-0.188	0.213
-323.099	419.755	0.122	0.258
-322.085	-200.000	-0.012	-0.091
-321.070	-32.084	0.238	0.132
-320.056	-91.535	-0.104	-0.029
-319.041	-200.000	0.023	0.170
-318.026	800.000	-0.125	0.530
-317.012	-151.523	-0.201	-0.015
-315.997	385.863	-0.097	-0.199
-314.983	-23.446	0.030	-0.018
-313.968	-83.149	0.083	-0.026
-312.953	-200.000	-0.020	0.431
-311.939	-48.708	0.254	0.121
-310.924	-135.392	0.154	-0.018
-309.910	91.344	-0.064	-0.071
-308.895	-78.843	-0.471	0.159
-307.880	-29.327	0.254	-0.144
-306.866	800.000	0.119	-0.345
-305.851	-28.968	0.275	0.156
-304.837	95.568	0.152	-0.171
-303.822	800.000	-0.037	0.108
-302.807	-124.379	-0.253	-0.039
-301.793	-200.000	0.023	0.218
-300.778	-156.092	0.174	0.011
-299.764	-52.178	0.139	0.064
-298.749	619.848	-0.072	0.178
-297.735	-70.803	0.311	-0.116
-296.720	-1.710	-0.217	-0.152
-295.705	-67.677	-0.063	0.024
-294.691	201.011	0.303	0.462
-293.676	-200.000	-0.016	-0.096
-292.662	-17.550	-0.034	-0.021
-291.647	-200.000	0.009	0.143
-290.632	-53.389	0.330	0.150
-289.618	-55.684	-0.193	-0.086
-288.603	100.442	0.083	-0.096
-287.589	162.154	-0.153	-0.212
-286.574	800.000	-0.020	-0.061
-285.559	-53.457	0.103	0.047
-284.545	115.050	-0.248	-0.300
-283.530	-200.000	-0.080	-0.414
-282.516	-18.447	0.241	-0.149
-281.501	473.816	-0.091	0.203
-280.486	-137.721	-0.102	-0.011
-279.472	73.782	0.140	0.145
-278.457	-200.000	0.007	0.125
-277.443	333.293	-0.140	-0.268
-276.428	-87.404	-0.301	0.090
-275.413	-117.947	-0.200	0.035
-274.399	800.000	0.065	0.180
-273.384	800.000	-0.109	0.460
-272.370	333.078	0.050	-0.095
-271.355	-139.520	-0.263	0.028
-270.340	475.496	0.101	0.226
-269.326	65.119	0.083	-0.083
-268.311	-37.275	0.289	0.153
-267.297	-70.001	0.343	0.129
-266.282	410.806	-0.101	0.211
-265.267	800.000	0.026	-0.102
-264.253	800.000	0.069	0.277
-263.238	-58.440	-0.116	-0.050
-262.224	137.587	-0.299	-0.387
-261.209	-118.885	-0.276	0.048
-260.195	-133.854	0.333	0.041
-259.180	-135.186	-0.095	-0.011
-258.165	153.156	-0.021	-0.029
-257.151	-27.809	-0.050	0.029
-256.136	800.000	-0.076	0.285
-255.122	99.624	-0.222	-0.254
-254.107	-200.000	-0.003	0.244
-253.092	-110.837	-0.228	-0.046
-252.078	-200.000	0.243	-0.001
-251.063	126.087	-0.260	0.325
-250.049	342.456	0.047	0.092
-249.034	-200.000	0.006	-0.294
-248.019	263.872	-0.235	0.404
-247.005	-120.653	-0.270	0.045
-245.990	-58.875	0.343	-0.146
-244.976	-200.000	-0.002	-0.109
-243.961	14.335	0.092	0.071
-242.946	-200.000	-0.041	0.509
-241.932	-200.000	-0.090	0.431
-240.917	-138.665	0.265	-0.029
-239.903	-200.000	0.004	0.104
-238.888	-160.699	-0.313	0.016
-237.873	609.306	-0.105	0.260
-236.859	-79.523	0.023	0.008
-235.844	-33.174	-0.143	0.078
-234.830	31.603	0.054	0.046
-233.815	-200.000	-0.058	-0.292
-232.800	-85.124	-0.086	-0.026
-231.786	451.557	-0.068	0.149
-230.771	345.029	-0.125	0.242
-229.757	-83.199	0.243	0.077
-228.742	800.000	-0.118	0.354
-227.727	280.612	-0.064	-0.113
-226.713	-200.000	-0.008	-0.132
-225.698	73.483	0.051	-0.053
-224.684	-150.220	0.393	-0.030
-223.669	-200.000	0.027	0.155
-222.655	-153.554	-0.020	-0.001
-221.640	-89.041	-0.254	-0.074
-220.625	-4.268	-0.107	0.073
-219.611	61.727	0.158	-0.155
-218.596	8.380	0.106	0.079
-217.582	443.386	-0.059	0.127
-216.567	-96.225	-0.302	0.079
-215.552	214.225	-0.218	-0.341
-214.538	-122.334	-0.315	-0.051
-213.523	-116.020	0.058	0.011
-212.509	21.323	-0.132	-0.106
-211.494	142.393	-0.192	0.252
-210.479	63.214	-0.024	-0.024
-209.465	-200.000	-0.013	0.068
-208.450	-27.230	-0.270	-0.155
-207.436	-48.570	0.245	0.116
-206.421	-74.048	-0.176	-0.063
-205.406	-200.000	-0.007	0.157
-204.392	100.165	0.303	0.347
-203.377	262.087	0.187	0.319
-202.363	-200.000	-0.262	0.000
-201.348	46.210	-0.105	-0.096
-200.333	-200.000	-0.018	0.174
-199.319	15.279	0.113	0.088
-198.304	-110.242	0.071	-0.015
-197.290	-163.025	-0.127	-0.006
-196.275	-8.385	-0.114	-0.076
-195.260	-157.087	-0.172	-0.010
-194.246	724.894	-0.073	-0.191
-193.231	-200.000	0.027	0.182
-192.217	800.000	-0.039	-0.119
-191.202	800.000	-0.010	0.033
-190.187	-142.469	0.289	0.028
-189.173	-200.000	-0.007	-0.510
-188.158	211.610	0.066	0.102
-187.144	-82.236	-0.056	0.018
-186.129	-138.338	-0.202	-0.022
-185.114	-87.059	-0.182	-0.055
-184.100	-23.439	-0.121	-0.071
-183.085	-46.764	-0.257	0.124
-182.071	48.378	0.091	-0.084
-181.056	-86.270	-0.307	-0.093
-180.042	88.791	0.250	0.274
-179.027	800.000	-0.100	-0.368
-178.012	800.000	-0.034	0.136
-176.998	800.000	0.108	-0.344
-175.983	120.150	-0.186	-0.228
-174.969	-12.899	0.199	-0.128
-173.954	-144.192	0.098	0.009
-172.939	-125.511	0.294	-0.044
-171.925	-151.612	0.184	-0.013
-170.910	186.040	0.200	0.293
-169.896	800.000	0.071	0.257
-168.881	166.236	-0.135	0.189
-167.866	142.586	-0.104	0.136
-166.852	-168.949	-0.090	0.003
-165.837	-7.078	-0.248	-0.166
-164.823	-200.000	-0.003	0.156
-163.808	-192.930	-0.278	0.002
-162.793	-200.000	0.023	-0.201
-161.779	-118.669	-0.184	0.032
-160.764	300.242	0.083	0.151
-159.750	-74.006	0.207	-0.074
-158.735	-200.000	-0.013	-0.172
-157.720	800.000	-0.099	-0.348
-156.706	32.550	-0.080	0.068
-155.691	-200.000	-0.030	0.173
-154.677	-200.000	-0.005	0.120
-153.662	13.862	-0.170	-0.130
-152.647	14.689	0.158	-0.122
-151.633	93.768	-0.124	0.138
-150.618	657.385	0.065	0.164
-149.604	-200.000	-0.004	-0.047
-148.589	44.953	0.221	-0.200
-147.574	800.000	0.031	0.089
-146.560	71.954	-0.222	0.227
-145.545	76.568	-0.055	-0.058
-144.531	504.795	0.131	0.298
-143.516	-200.000	0.012	0.122
-142.502	-4.369	-0.149	-0.102
-141.487	-162.428	-0.215	0.010
-140.472	-14.676	-0.575	0.363
-139.458	-200.000	-0.015	-0.071
-138.443	104.725	-0.148	-0.172
-137.429	-200.000	0.068	0.328
-136.414	-80.329	0.484	-0.159
-135.399	150.675	-0.157	-0.210
-134.385	-107.950	0.203	0.043
-133.370	637.464	0.022	-0.054
-132.356	314.316	0.028	-0.051
-131.341	-200.000	-0.001	0.168
-130.326	-32.204	-0.161	0.089
-129.312	800.000	0.079	-0.262
-128.297	-94.382	0.207	0.056
-127.283	112.486	-0.076	0.091
-126.268	-200.000	0.008	-0.111
-125.253	10.688	-0.149	-0.112
-124.239	20.661	0.333	-0.265
-123.224	-175.047	-0.150	0.004
-122.210	-86.028	0.124	-0.038
