DTS Sentinel unit serial number:	SN413079Multiplexer serial number:	ORYXHardware model number:	OX4-SRSoftware version number:	ORYX F/W v4.00 Oryx Data Collector v3.7.2.0data status	okinstallation	princeton_trtdifferential loss correction	single-endedforward channel	channel 2reverse channel	N/Adate	2019/09/12time	15:05:10forward acquisition time	60.00reverse acquisition time	0.00gamma	496.2192k internal	0.2299k external	0.2299temperature offset calibration	1.0090default loss term (dB/km)	0.3790temperature slope calibration	1.0000multiplexer offset coefficient	1.0000multiplexer slope coefficient	1.0000fibre end	0.00T internal ref (°C)	40.50T ext. ref 1 (°C)	2.37T ext. ref 2 (°C)	37.22length (m)	temperature (°C)	Stokes	anti-Stokes-747.200	265.955	-0.090	0.161
-746.185	-1.057	0.131	-0.095
-745.171	-143.891	-0.115	0.011
-744.156	31.441	0.302	0.265
-743.142	-174.436	-0.249	-0.007
-742.127	-72.899	-0.323	0.121
-741.112	-29.550	0.195	0.114
-740.098	-107.218	0.211	0.047
-739.083	7.764	-0.143	0.109
-738.069	800.000	-0.117	0.423
-737.054	451.208	-0.038	-0.086
-736.039	800.000	-0.076	-0.223
-735.025	-200.000	0.003	0.228
-734.010	-106.401	-0.149	-0.034
-732.996	-46.977	-0.090	-0.045
-731.981	-168.589	-0.337	-0.013
-730.966	240.453	0.157	-0.266
-729.952	-200.000	-0.056	0.302
-728.937	-59.498	0.110	0.048
-727.923	19.262	-0.112	0.092
-726.908	33.730	-0.031	0.028
-725.894	182.156	0.094	0.141
-724.879	210.816	-0.100	-0.160
-723.864	-129.503	-0.196	0.028
-722.850	28.397	0.068	0.059
-721.835	8.190	0.274	0.210
-720.821	18.720	-0.356	-0.291
-719.806	4.872	-0.185	-0.139
-718.791	81.130	-0.161	0.177
-717.777	-152.471	-0.131	0.010
-716.762	-65.998	-0.258	-0.105
-715.748	800.000	-0.129	0.479
-714.733	16.308	-0.059	-0.048
-713.718	-54.074	0.129	-0.060
-712.704	349.827	-0.061	0.124
-711.689	-71.229	0.233	-0.089
-710.675	-119.934	-0.115	0.020
-709.660	-7.329	-0.093	-0.064
-708.645	35.846	0.191	-0.171
-707.631	-64.449	-0.126	0.052
-706.616	-3.390	0.219	0.155
-705.602	-200.000	0.044	-0.341
-704.587	-131.166	-0.380	-0.051
-703.572	-200.000	-0.060	0.486
-702.558	778.974	-0.125	0.348
-701.543	-200.000	0.050	-0.328
-700.529	-25.764	-0.130	0.078
-699.514	-165.959	-0.188	-0.008
-698.499	-200.000	0.027	0.285
-697.485	67.281	-0.182	0.189
-696.470	219.282	-0.051	0.083
-695.456	-200.000	0.001	-0.328
-694.441	-46.905	-0.132	0.066
-693.426	-200.000	0.035	-0.167
-692.412	-109.948	-0.132	-0.028
-691.397	-70.402	-0.389	0.150
-690.383	-107.389	0.163	-0.037
-689.368	-81.214	-0.236	-0.079
-688.354	-19.142	0.179	0.113
-687.339	-18.206	-0.225	-0.143
-686.324	-197.146	-0.505	-0.003
-685.310	-155.684	-0.285	0.019
-684.295	-200.000	-0.054	0.260
-683.281	-37.731	0.028	-0.015
-682.266	-78.478	0.127	0.044
-681.251	-200.000	0.007	-0.149
-680.237	37.122	-0.246	-0.222
-679.222	-144.542	-0.082	-0.008
-678.208	-64.078	-0.126	-0.053
-677.193	800.000	-0.041	0.158
-676.178	-5.595	-0.160	0.112
-675.164	-200.000	-0.003	-0.106
-674.149	-197.378	-0.321	0.002
-673.135	-171.584	-0.156	-0.005
-672.120	788.531	0.050	-0.140
-671.105	199.420	-0.200	0.313
-670.091	-200.000	-0.021	-0.116
-669.076	-134.483	-0.416	-0.052
-668.062	62.267	0.329	-0.334
-667.047	-200.000	0.015	0.097
-666.032	-48.187	0.056	0.027
-665.018	26.267	-0.112	0.095
-664.003	-77.092	-0.217	0.077
-662.989	-11.999	0.161	0.108
-661.974	-103.682	-0.267	0.064
-660.959	-109.010	-0.043	-0.009
-659.945	298.964	0.142	0.266
-658.930	-97.547	-0.214	-0.057
-657.916	-51.279	-0.322	-0.153
-656.901	417.725	-0.200	-0.435
-655.886	258.410	-0.118	-0.207
-654.872	138.431	-0.230	0.308
-653.857	621.836	-0.092	0.237
-652.843	-200.000	0.030	-0.209
-651.828	-124.587	0.094	0.015
-650.814	-102.973	0.051	0.012
-649.799	800.000	0.073	0.285
-648.784	-136.476	-0.195	-0.023
-647.770	-200.000	-0.037	-0.253
-646.755	-111.875	-0.090	0.018
-645.741	-7.385	-0.217	0.149
-644.726	-47.734	-0.097	-0.048
-643.711	-119.820	-0.051	0.009
-642.697	-102.261	0.210	-0.051
-641.682	800.000	-0.063	-0.218
-640.668	42.945	-0.312	0.289
-639.653	-114.705	-0.097	-0.019
-638.638	-200.000	-0.025	-0.172
-637.624	39.688	0.098	0.089
-636.609	-115.673	-0.259	-0.049
-635.595	261.309	0.125	0.220
-634.580	-26.045	0.108	-0.064
-633.565	800.000	0.058	0.231
-632.551	-81.901	-0.164	-0.054
-631.536	-70.887	-0.194	-0.074
-630.522	65.780	-0.058	0.060
-629.507	-0.833	-0.240	0.173
-628.492	-200.000	0.026	-0.363
-627.478	126.698	-0.153	0.197
-626.463	135.522	0.084	0.111
-625.449	58.202	0.112	0.112
-624.434	87.987	-0.053	-0.060
-623.419	-200.000	-0.012	0.119
-622.405	19.637	-0.144	0.118
-621.390	-68.927	0.046	-0.018
-620.376	-73.378	-0.344	0.128
-619.361	-133.679	0.146	0.019
-618.346	-200.000	0.089	-0.411
-617.332	81.437	0.358	-0.393
-616.317	-200.000	0.031	-0.171
-615.303	-200.000	0.007	-0.046
-614.288	23.495	0.220	0.184
-613.273	-106.732	0.416	-0.094
-612.259	-104.370	0.380	-0.089
-611.244	96.241	0.219	-0.254
-610.230	-49.104	0.124	-0.060
-609.215	79.520	0.208	0.226
-608.201	-25.577	-0.068	-0.041
-607.186	90.391	0.262	0.297
-606.171	-160.329	-0.428	0.023
-605.157	79.400	-0.211	-0.230
-604.142	-200.000	0.049	0.230
-603.128	-200.000	-0.056	-0.305
-602.113	800.000	0.130	-0.373
-601.098	-13.177	-0.110	-0.072
-600.084	-200.000	-0.012	0.100
-599.069	329.012	-0.096	0.188
-598.055	-200.000	-0.016	-0.121
-597.040	25.442	0.073	0.061
-596.025	-96.879	-0.223	0.059
-595.011	800.000	-0.121	-0.420
-593.996	-19.501	0.269	-0.169
-592.982	99.763	-0.017	-0.020
-591.967	-10.653	-0.252	-0.169
-590.952	72.620	0.206	0.218
-589.938	20.023	0.048	0.039
-588.923	-200.000	-0.016	-0.121
-587.909	241.389	0.031	0.052
-586.894	800.000	0.042	0.139
-585.879	139.447	0.139	0.185
-584.865	-82.868	0.375	0.123
-583.850	316.419	-0.177	-0.340
-582.836	800.000	-0.097	0.293
-581.821	446.274	-0.155	0.344
-580.806	-165.793	0.269	-0.012
-579.792	218.890	-0.038	0.062
-578.777	-200.000	0.011	-0.241
-577.763	147.347	0.039	-0.053
-576.748	-200.000	-0.022	0.287
-575.733	-98.898	0.087	-0.022
-574.719	7.691	-0.085	0.065
-573.704	21.057	-0.319	0.262
-572.690	409.620	0.126	-0.270
-571.675	222.355	-0.035	-0.056
-570.661	27.449	-0.259	-0.221
-569.646	30.891	0.260	-0.226
-568.631	800.000	-0.102	-0.417
-567.617	529.827	0.108	0.259
-566.602	49.533	-0.070	0.067
-565.588	-200.000	-0.031	0.140
-564.573	42.994	0.070	-0.065
-563.558	-37.719	0.242	-0.131
-562.544	-200.000	0.025	-0.241
-561.529	193.886	0.155	-0.238
-560.515	649.655	-0.088	-0.229
-559.500	67.673	0.049	-0.050
-558.485	-123.150	0.214	-0.035
-557.471	800.000	-0.034	0.139
-556.456	800.000	0.118	0.346
-555.442	60.396	-0.275	0.276
-554.427	-200.000	-0.099	-0.000
-553.412	-84.186	-0.288	0.092
-552.398	-152.087	0.048	0.004
-551.383	-200.000	0.024	0.506
-550.369	-100.814	0.311	-0.078
-549.354	-200.000	0.003	0.212
-548.339	322.404	0.093	0.179
-547.325	-144.135	-0.302	0.029
-546.310	-42.719	-0.129	0.066
-545.296	-25.145	0.151	-0.090
-544.281	142.176	-0.040	0.054
-543.266	-77.180	-0.056	-0.020
-542.252	100.288	0.147	0.172
-541.237	-200.000	0.006	-0.147
-540.223	171.286	-0.025	0.037
-539.208	-33.452	0.091	-0.051
-538.193	97.852	-0.129	-0.150
-537.179	-74.643	0.331	-0.121
-536.164	-59.446	-0.252	-0.110
-535.150	-51.741	-0.078	0.037
-534.135	800.000	0.036	-0.134
-533.121	-77.317	0.262	0.092
-532.106	120.472	-0.267	0.335
-531.091	284.090	0.129	-0.236
-530.077	117.183	0.135	-0.168
-529.062	-200.000	0.046	-0.236
-528.048	303.827	0.075	0.141
-527.033	-40.734	0.264	-0.138
-526.018	-200.000	-0.136	0.000
-525.004	-1.171	0.204	0.146
-523.989	-94.618	-0.378	-0.104
-522.975	-200.000	0.021	0.226
-521.960	-103.925	-0.427	-0.101
-520.945	-80.368	0.090	-0.030
-519.931	800.000	0.043	-0.140
-518.916	189.611	0.197	0.299
-517.902	710.866	0.046	-0.122
-516.887	-200.000	0.086	0.388
-515.872	218.361	-0.227	0.367
-514.858	800.000	-0.106	0.302
-513.843	-42.092	0.134	0.069
-512.829	1.182	0.043	0.031
-511.814	-75.835	-0.422	-0.151
-510.799	-25.030	0.272	-0.163
-509.785	-200.000	0.014	-0.122
-508.770	346.081	-0.080	0.159
-507.756	96.196	0.073	-0.085
-506.741	-200.000	-0.017	0.243
-505.726	-37.525	-0.251	-0.136
-504.712	-83.797	-0.201	-0.065
-503.697	-22.663	-0.145	-0.089
-502.683	-154.889	0.146	0.010
-501.668	-92.770	0.295	-0.084
-500.653	-38.940	-0.277	-0.148
-499.639	-14.414	0.348	0.226
-498.624	-139.738	0.188	-0.020
-497.610	30.654	0.123	-0.106
-496.595	-153.329	-0.336	-0.024
-495.581	765.096	-0.030	0.083
-494.566	472.987	0.163	0.371
-493.551	-72.219	0.351	-0.132
-492.537	284.753	0.158	0.287
-491.522	-200.000	-0.042	-0.315
-490.508	747.459	0.123	-0.336
-489.493	65.587	-0.118	0.120
-488.478	-157.285	0.302	-0.018
-487.464	274.498	0.212	-0.379
-486.449	-56.798	-0.319	0.142
-485.435	295.433	-0.055	-0.102
-484.420	83.761	0.128	0.141
-483.405	-59.620	-0.118	0.051
-482.391	800.000	-0.040	0.115
-481.376	100.447	-0.216	-0.253
-480.362	262.957	-0.088	-0.154
-479.347	-200.000	0.070	0.368
-478.332	-8.240	-0.161	0.110
-477.318	182.639	-0.289	0.431
-476.303	57.740	-0.199	-0.197
-475.289	-17.166	-0.054	0.035
-474.274	-143.941	0.339	-0.032
-473.259	-69.200	0.241	-0.094
-472.245	800.000	-0.038	-0.158
-471.230	706.766	-0.079	-0.210
-470.216	-200.000	0.055	-0.416
-469.201	-79.935	-0.205	-0.070
-468.186	10.927	-0.200	0.154
-467.172	-94.702	0.339	0.093
-466.157	40.058	-0.339	-0.308
-465.143	-59.338	0.272	0.118
-464.128	236.797	0.020	-0.033
-463.113	-84.283	-0.496	0.158
-462.099	-48.127	0.491	0.239
-461.084	-200.000	-0.006	-0.235
-460.070	-51.295	-0.547	0.258
-459.055	636.292	-0.098	0.250
-458.040	33.867	0.038	0.033
-457.026	-200.000	-0.036	0.215
-456.011	352.165	-0.106	0.212
-454.997	-200.000	-0.016	0.073
-453.982	800.000	0.065	-0.241
-452.968	129.659	-0.150	-0.193
-451.953	33.316	-0.058	0.051
-450.938	-15.399	-0.125	0.081
-449.924	-15.875	0.089	-0.057
-448.909	91.891	-0.204	-0.231
-447.895	-200.000	-0.040	-0.259
-446.880	-200.000	-0.028	0.185
-445.865	400.802	-0.046	0.098
-444.851	389.153	0.177	0.370
-443.836	-49.503	0.070	0.034
-442.822	-136.458	-0.601	0.070
-441.807	-146.168	0.199	-0.018
-440.792	800.000	0.124	-0.365
-439.778	675.693	0.188	-0.492
-438.763	-51.011	-0.382	-0.181
-437.749	-63.689	0.097	0.040
-436.734	362.994	0.091	0.183
-435.719	-96.257	-0.173	-0.046
-434.705	-23.735	-0.052	0.031
-433.690	555.694	0.135	0.328
-432.676	-33.260	0.216	0.121
-431.661	-10.360	-0.200	0.133
-430.646	175.098	-0.061	0.090
-429.632	-200.000	-0.006	0.120
-428.617	-93.994	-0.274	-0.076
-427.603	407.255	0.052	-0.111
-426.588	743.307	0.155	-0.421
-425.573	309.706	0.054	-0.103
-424.559	-200.000	0.045	0.347
-423.544	-148.719	-0.143	0.012
-422.530	-95.389	0.190	-0.051
-421.515	208.631	0.156	-0.246
-420.500	800.000	-0.074	-0.238
-419.486	429.689	-0.079	0.172
-418.471	652.905	-0.058	-0.150
-417.457	679.500	-0.078	-0.206
-416.442	800.000	0.087	0.256
-415.428	-200.000	0.019	-0.211
-414.413	49.292	0.177	-0.168
-413.398	-30.054	-0.088	0.051
-412.384	-128.928	-0.267	-0.038
-411.369	-4.624	0.529	-0.368
-410.355	163.821	0.208	-0.295
-409.340	-200.000	-0.031	0.381
-408.325	-17.066	-0.198	0.126
-407.311	304.346	-0.112	0.210
-406.296	800.000	-0.069	0.300
-405.282	50.753	0.377	-0.359
-404.267	-99.971	-0.332	0.083
-403.252	-182.359	-0.074	-0.001
-402.238	-200.000	-0.001	-0.263
-401.223	428.966	-0.104	-0.226
-400.209	99.709	0.141	-0.165
-399.194	666.316	-0.022	-0.057
-398.179	-131.420	0.252	-0.034
-397.165	-200.000	-0.010	0.056
-396.150	-200.000	-0.006	-0.159
-395.136	244.537	0.257	-0.435
-394.121	-134.293	-0.147	0.018
-393.106	92.160	0.055	0.063
-392.092	-132.362	0.181	0.024
-391.077	-200.000	-0.009	-0.091
-390.063	-148.753	0.379	0.031
-389.048	442.985	-0.081	0.179
-388.033	138.966	-0.164	-0.217
-387.019	41.314	0.141	-0.128
-386.004	-41.005	0.243	0.126
-384.990	-124.629	-0.228	-0.036
-383.975	-182.953	-0.130	0.002
-382.960	800.000	-0.040	-0.167
-381.946	-180.361	-0.175	0.004
-380.931	31.891	0.279	0.242
-379.917	100.832	-0.115	0.134
-378.902	-143.633	-0.306	-0.029
-377.888	-200.000	-0.018	0.205
-376.873	-200.000	-0.049	0.266
-375.858	-1.133	-0.223	-0.159
-374.844	-200.000	0.009	-0.045
-373.829	635.929	0.102	-0.261
-372.815	-200.000	0.023	-0.114
-371.800	18.410	-0.280	-0.225
-370.785	800.000	0.050	0.216
-369.771	-200.000	0.071	0.398
-368.756	-99.045	0.166	-0.042
-367.742	-200.000	0.026	-0.123
-366.727	10.237	0.159	-0.121
-365.712	-123.936	-0.238	0.038
-364.698	298.736	0.054	0.100
-363.683	132.992	0.102	-0.132
-362.669	203.822	-0.099	-0.154
-361.654	-41.251	0.293	0.152
-360.639	112.423	0.222	-0.270
-359.625	800.000	-0.028	-0.105
-358.610	-138.379	0.054	0.006
-357.596	42.703	0.116	0.106
-356.581	-103.107	0.278	-0.066
-355.566	-36.637	-0.160	0.087
-354.552	-50.909	0.131	-0.062
-353.537	-148.055	-0.264	-0.022
-352.523	154.643	0.186	-0.257
-351.508	-200.000	-0.004	-0.165
-350.493	-200.000	0.017	-0.283
-349.479	89.542	-0.215	0.241
-348.464	-200.000	0.014	0.423
-347.450	-2.537	-0.239	-0.168
-346.435	-200.000	-0.075	-0.386
-345.420	1.486	-0.158	-0.115
-344.406	-166.615	0.361	0.015
-343.391	636.906	0.134	-0.342
-342.377	-200.000	-0.014	-0.158
-341.362	-68.636	-0.200	0.078
-340.348	-200.000	0.074	0.439
-339.333	50.365	-0.121	-0.115
-338.318	-58.262	0.062	-0.027
-337.304	800.000	-0.048	-0.196
-336.289	104.550	-0.074	-0.088
-335.275	-88.688	0.356	0.106
-334.260	800.000	0.077	-0.226
-333.245	-122.684	-0.017	0.003
-332.231	11.419	-0.174	0.134
-331.216	800.000	0.056	0.188
-330.202	506.566	0.141	-0.328
-329.187	147.632	0.062	-0.084
-328.172	-104.962	-0.143	-0.033
-327.158	323.308	-0.060	0.114
-326.143	581.664	-0.027	-0.066
-325.129	-200.000	-0.008	-0.079
-324.114	133.219	0.051	-0.066
-323.099	-38.081	-0.116	0.062
-322.085	-122.591	-0.151	-0.025
-321.070	44.798	0.171	0.158
-320.056	74.646	0.239	0.253
-319.041	-127.052	-0.076	-0.011
-318.026	-75.083	-0.241	-0.086
-317.012	-55.105	-0.353	-0.159
-315.997	-174.875	-0.146	0.004
-314.983	-200.000	0.004	0.077
-313.968	-200.000	-0.023	0.177
-312.953	-51.731	0.344	-0.161
-311.939	-3.426	-0.223	-0.156
-310.924	27.602	0.178	0.150
-309.910	35.139	-0.225	-0.198
-308.895	-200.000	0.006	0.032
-307.880	-192.704	-0.107	0.001
-306.866	53.421	0.097	-0.094
-305.851	-200.000	-0.079	0.357
-304.837	-91.512	0.122	0.035
-303.822	-200.000	-0.024	-0.226
-302.807	76.880	-0.375	-0.400
-301.793	-30.766	0.080	-0.046
-300.778	200.286	0.091	0.140
-299.764	19.115	0.272	0.219
-298.749	-126.145	0.236	0.035
-297.735	800.000	-0.038	-0.128
-296.720	-75.326	0.453	-0.162
-295.705	800.000	-0.037	0.146
-294.691	-108.591	0.243	0.052
-293.676	230.700	-0.170	-0.279
-292.662	-200.000	0.026	0.321
-291.647	660.158	0.061	-0.157
-290.632	332.455	-0.068	0.131
-289.618	-101.495	-0.344	-0.084
-288.603	-146.481	-0.294	-0.026
-287.589	-200.000	0.066	-0.374
-286.574	-90.646	0.135	-0.039
-285.559	98.793	-0.181	-0.209
-284.545	78.285	-0.079	0.084
-283.530	76.837	-0.189	-0.201
-282.516	133.065	0.126	0.163
-281.501	800.000	-0.156	-0.459
-280.486	-197.332	-0.146	-0.001
-279.472	162.441	-0.105	0.147
-278.457	112.633	-0.370	0.449
-277.443	-13.020	-0.145	0.095
-276.428	64.228	-0.249	0.251
-275.413	296.077	-0.076	0.139
-274.399	-114.298	0.216	0.042
-273.384	-200.000	0.037	-0.259
-272.370	-159.841	0.194	0.011
-271.355	-200.000	-0.006	0.313
-270.340	-72.173	-0.147	-0.055
-269.326	246.513	-0.172	-0.291
-268.311	156.258	0.132	0.182
-267.297	200.146	0.168	0.258
-266.282	265.649	0.098	0.172
-265.267	-42.910	-0.049	-0.025
-264.253	-200.000	0.016	0.502
-263.238	-27.657	-0.188	0.109
-262.224	-200.000	0.045	-0.197
-261.209	108.969	-0.078	-0.094
-260.195	80.960	-0.079	-0.085
-259.180	9.112	0.149	-0.112
-258.165	800.000	0.142	-0.616
-257.151	492.317	-0.074	0.169
-256.136	-200.000	-0.003	-0.371
-255.122	85.475	-0.054	-0.059
-254.107	3.843	-0.051	0.037
-253.092	78.742	0.086	0.092
-252.078	800.000	0.049	0.148
-251.063	50.664	-0.157	-0.149
-250.049	258.797	0.038	0.065
-249.034	-105.512	-0.042	-0.010
-248.019	9.676	-0.136	0.103
-247.005	38.193	0.311	0.277
-245.990	282.150	0.143	-0.256
-244.976	-50.740	-0.145	0.068
-243.961	-16.120	0.211	0.134
-242.946	304.429	-0.198	-0.367
-241.932	-24.359	0.162	-0.097
-240.917	292.549	0.028	0.051
-239.903	-200.000	-0.012	0.112
-238.888	-61.941	-0.119	0.050
-237.873	24.270	-0.093	-0.077
-236.859	64.694	-0.136	-0.137
-235.844	800.000	-0.007	0.024
-234.830	-200.000	-0.012	0.297
-233.815	45.162	0.165	-0.152
-232.800	-59.908	-0.338	-0.144
-231.786	800.000	0.050	-0.195
-230.771	-88.221	-0.099	0.030
-229.757	128.824	-0.184	0.235
-228.742	-32.860	-0.138	-0.077
-227.727	-200.000	0.009	-0.197
-226.713	-200.000	0.020	0.382
-225.698	139.282	-0.162	0.214
-224.684	-93.370	0.121	-0.033
-223.669	-26.990	-0.288	0.168
-222.655	-23.025	0.156	0.094
-221.640	221.685	0.092	0.148
-220.625	-53.903	0.204	0.093
-219.611	800.000	0.048	0.204
-218.596	-200.000	0.008	0.270
-217.582	17.371	0.268	0.212
-216.567	5.157	-0.265	0.195
-215.552	-178.091	0.189	-0.004
-214.538	-140.644	-0.271	-0.028
-213.523	25.085	-0.231	-0.191
-212.509	120.728	-0.069	-0.085
-211.494	49.795	-0.085	-0.080
-210.479	60.649	0.093	0.092
-209.465	-56.677	0.258	0.114
-208.450	-59.847	-0.312	0.133
-207.436	-73.349	0.112	-0.041
-206.421	161.763	-0.171	0.240
-205.406	26.224	-0.134	0.112
-204.392	-106.111	0.319	0.072
-203.377	-200.000	-0.012	-0.239
-202.363	-200.000	-0.032	-0.146
-201.348	-200.000	-0.002	0.284
-200.333	46.121	-0.069	-0.064
-199.319	271.675	0.089	-0.156
-198.304	-200.000	0.030	0.250
-197.290	-134.441	0.191	0.023
-196.275	800.000	-0.003	-0.009
-195.260	373.447	-0.074	0.150
-194.246	-200.000	0.048	0.404
-193.231	-200.000	0.000	-0.143
-192.217	85.677	0.059	-0.064
-191.202	554.423	-0.158	0.379
-190.187	111.303	-0.100	0.121
-189.173	-200.000	0.050	0.353
-188.158	-113.879	-0.116	-0.023
-187.144	-44.198	-0.094	0.047
-186.129	-10.965	0.193	0.127
-185.114	44.028	-0.175	-0.160
-184.100	-200.000	-0.020	0.152
-183.085	253.202	0.168	-0.286
-182.071	274.679	0.289	0.511
-181.056	-106.847	-0.201	-0.045
-180.042	644.271	0.060	0.152
-179.027	710.107	-0.038	0.101
-178.012	-200.000	-0.008	-0.223
-176.998	-7.739	0.151	-0.102
-175.983	59.941	0.043	0.043
-174.969	156.123	-0.150	0.206
-173.954	800.000	-0.068	-0.212
-172.939	-58.497	0.227	0.098
-171.925	12.624	0.290	0.224
-170.910	-12.065	-0.137	-0.090
-169.896	-107.695	0.126	-0.027
-168.881	98.671	0.256	-0.294
-167.866	550.268	-0.060	-0.144
-166.852	-96.314	0.085	-0.022
-165.837	-85.489	0.508	-0.158
-164.823	-88.169	0.201	-0.060
-163.808	-26.880	-0.058	-0.034
-162.793	77.741	0.020	0.021
-161.779	-20.812	0.164	0.100
-160.764	-27.003	0.251	0.146
-159.750	-31.915	-0.213	-0.119
-158.735	66.317	-0.025	0.025
-157.720	493.446	0.177	0.405
-156.706	-177.371	0.321	-0.008
-155.691	-165.935	0.176	0.008
-154.677	13.787	-0.178	0.138
-153.662	426.480	-0.145	0.312
-152.647	83.037	0.152	-0.165
-151.633	320.983	0.088	-0.167
-150.618	275.421	-0.200	0.353
-149.604	229.131	0.207	-0.337
-148.589	200.309	-0.108	0.165
-147.574	-52.644	-0.293	-0.135
-146.560	5.307	-0.094	-0.069
-145.545	135.305	-0.111	0.143
-144.531	800.000	0.045	0.124
-143.516	-94.567	-0.261	0.071
-142.502	-30.103	0.323	-0.183
-141.487	-42.420	-0.157	-0.080
-140.472	-200.000	0.013	-0.179
-139.458	800.000	0.013	-0.053
-138.443	35.901	0.149	-0.131
-137.429	-58.474	0.117	-0.051
-136.414	-12.880	-0.181	0.117
-135.399	127.972	0.207	0.262
-134.385	13.923	0.034	-0.026
-133.370	-72.482	0.283	0.104
-132.356	-200.000	0.022	-0.255
-131.341	18.713	-0.152	0.121
-130.326	800.000	-0.038	0.163
-129.312	243.411	0.012	0.020
-128.297	-200.000	0.056	0.271
-127.283	-55.540	-0.347	-0.155
-126.268	-95.610	0.154	-0.041
-125.253	308.104	-0.047	-0.087
-124.239	83.575	0.368	0.399
-123.224	-145.693	-0.351	0.031
-122.210	152.497	-0.160	0.218
-121.195	-12.550	-0.189	0.123
