DTS Sentinel unit serial number:	SN413079Multiplexer serial number:	ORYXHardware model number:	OX4-SRSoftware version number:	ORYX F/W v4.00 Oryx Data Collector v3.7.2.0data status	okinstallation	princeton_trtdifferential loss correction	single-endedforward channel	channel 2reverse channel	N/Adate	2019/09/12time	08:21:11forward acquisition time	60.00reverse acquisition time	0.00gamma	496.2192k internal	0.2319k external	0.2319temperature offset calibration	1.0062default loss term (dB/km)	0.3790temperature slope calibration	1.0000multiplexer offset coefficient	1.0000multiplexer slope coefficient	1.0000fibre end	0.00T internal ref (°C)	33.50T ext. ref 1 (°C)	1.70T ext. ref 2 (°C)	30.14length (m)	temperature (°C)	Stokes	anti-Stokes-747.200	-200.000	-0.009	0.049
-746.185	85.335	0.112	0.124
-745.171	-200.000	-0.002	-0.020
-744.156	-40.480	0.448	0.236
-743.142	131.040	-0.147	0.190
-742.127	7.070	-0.024	0.018
-741.112	-76.779	0.186	-0.066
-740.098	-76.565	-0.107	0.038
-739.083	-21.262	0.199	-0.123
-738.069	-98.006	-0.111	0.029
-737.054	-35.467	0.196	-0.108
-736.039	128.050	-0.357	0.460
-735.025	-15.160	0.266	0.172
-734.010	101.896	-0.189	-0.223
-732.996	-52.520	-0.056	-0.026
-731.981	800.000	-0.068	0.269
-730.966	-110.790	-0.094	-0.020
-729.952	800.000	-0.066	0.198
-728.937	-28.691	-0.186	-0.108
-727.923	63.422	-0.141	-0.143
-726.908	273.923	-0.143	-0.256
-725.894	531.455	0.089	-0.213
-724.879	-182.774	0.148	0.003
-723.864	-73.683	0.253	-0.093
-722.850	235.874	0.044	-0.074
-721.835	-17.714	-0.172	-0.109
-720.821	-200.000	0.002	0.243
-719.806	-46.567	-0.142	-0.071
-718.791	-131.397	0.160	0.021
-717.777	-33.209	-0.215	0.120
-716.762	126.874	0.173	-0.221
-715.748	218.795	-0.157	-0.254
-714.733	-200.000	-0.015	0.128
-713.718	-31.141	-0.071	-0.040
-712.704	17.063	0.011	0.009
-711.689	400.375	0.039	0.082
-710.675	800.000	-0.044	-0.127
-709.660	13.446	0.139	0.109
-708.645	-200.000	-0.011	-0.129
-707.631	-132.264	-0.141	0.018
-706.616	-200.000	0.023	-0.173
-705.602	12.725	-0.233	0.182
-704.587	160.301	0.056	-0.079
-703.572	27.318	0.172	0.146
-702.558	800.000	0.047	-0.152
-701.543	-42.439	0.397	-0.205
-700.529	39.550	0.233	0.211
-699.514	-90.195	0.101	0.030
-698.499	206.061	0.101	-0.159
-697.485	-200.000	0.003	0.037
-696.470	-29.984	-0.180	0.104
-695.456	-90.502	-0.333	0.097
-694.441	27.411	0.246	0.209
-693.426	51.655	0.158	0.152
-692.412	-3.058	0.155	-0.109
-691.397	-116.757	0.179	0.033
-690.383	-8.483	0.041	0.028
-689.368	-28.169	0.153	0.089
-688.354	222.767	-0.197	-0.320
-687.339	-91.475	0.299	0.086
-686.324	-13.006	0.316	0.207
-685.310	722.436	-0.041	-0.110
-684.295	-200.000	-0.050	-0.441
-683.281	264.157	0.092	-0.162
-682.266	-81.647	-0.218	-0.072
-681.251	-200.000	-0.027	-0.208
-680.237	-145.919	0.220	-0.020
-679.222	17.955	0.043	-0.034
-678.208	200.209	0.107	-0.165
-677.193	-91.499	-0.139	0.040
-676.178	800.000	-0.082	-0.343
-675.164	75.962	0.156	0.166
-674.149	-200.000	-0.125	-0.738
-673.135	800.000	0.088	0.315
-672.120	800.000	-0.086	0.371
-671.105	800.000	-0.096	0.420
-670.091	-63.237	-0.309	-0.129
-669.076	-51.998	0.017	-0.008
-668.062	-200.000	0.001	-0.252
-667.047	-95.234	0.378	0.103
-666.032	800.000	-0.131	-0.462
-665.018	-74.298	0.209	0.076
-664.003	329.421	0.248	-0.480
-662.989	-200.000	0.008	-0.140
-661.974	-200.000	0.015	-0.144
-660.959	-200.000	0.017	-0.270
-659.945	-200.000	0.001	-0.167
-658.930	-200.000	0.032	0.328
-657.916	-197.809	-0.336	-0.002
-656.901	-200.000	-0.010	-0.238
-655.886	56.549	-0.249	-0.244
-654.872	172.008	0.129	0.186
-653.857	-119.760	-0.257	-0.045
-652.843	-93.846	0.204	-0.057
-651.828	-45.673	0.239	0.119
-650.814	-68.833	-0.615	0.240
-649.799	-200.000	0.064	-0.352
-648.784	-14.539	-0.114	0.074
-647.770	800.000	-0.077	-0.242
-646.755	-30.887	-0.258	-0.147
-645.741	320.799	0.089	-0.171
-644.726	-7.471	0.341	-0.232
-643.711	-126.321	-0.416	0.063
-642.697	800.000	0.038	0.125
-641.682	105.886	-0.125	-0.150
-640.668	37.085	0.060	0.053
-639.653	659.983	-0.119	-0.309
-638.638	36.465	-0.236	-0.209
-637.624	-79.198	-0.190	0.065
-636.609	-2.030	0.198	-0.140
-635.595	-43.987	0.324	-0.164
-634.580	-138.690	-0.557	-0.061
-633.565	54.369	-0.116	-0.112
-632.551	-61.036	-0.278	0.118
-631.536	-200.000	-0.040	0.327
-630.522	-126.037	-0.291	-0.044
-629.507	800.000	-0.043	-0.161
-628.492	-200.000	0.005	-0.299
-627.478	-53.245	-0.333	-0.154
-626.463	421.819	0.104	-0.224
-625.449	-71.601	0.197	0.074
-624.434	-200.000	-0.031	-0.271
-623.419	-22.550	0.203	-0.124
-622.405	-59.308	0.279	0.121
-621.390	7.565	-0.046	-0.035
-620.376	-44.780	0.223	-0.112
-619.361	150.242	-0.083	0.113
-618.346	-2.175	-0.013	0.009
-617.332	800.000	0.045	-0.137
-616.317	338.092	-0.069	0.135
-615.303	21.061	-0.215	-0.176
-614.288	303.058	0.057	0.106
-613.273	-112.911	0.085	-0.017
-612.259	180.135	0.145	0.215
-611.244	32.341	-0.202	0.176
-610.230	386.233	-0.208	-0.432
-609.215	-46.621	-0.117	0.058
-608.201	202.872	0.039	0.060
-607.186	-200.000	-0.004	-0.320
-606.171	800.000	0.136	0.461
-605.157	-48.424	-0.128	0.062
-604.142	-200.000	-0.046	0.457
-603.128	-107.134	0.034	-0.008
-602.113	-200.000	-0.029	0.150
-601.098	60.627	-0.152	-0.152
-600.084	-61.400	0.353	0.149
-599.069	-74.660	0.168	0.061
-598.055	24.109	-0.271	-0.225
-597.040	-31.529	0.053	0.030
-596.025	86.189	-0.102	0.113
-595.011	800.000	-0.050	-0.193
-593.996	66.869	0.292	0.299
-592.982	-49.440	0.341	-0.164
-591.967	182.213	-0.255	0.378
-590.952	30.431	0.323	0.277
-589.938	14.377	0.101	-0.080
-588.923	584.160	-0.094	0.232
-587.909	300.119	0.100	-0.186
-586.894	35.065	-0.062	0.055
-585.879	800.000	0.099	-0.283
-584.865	-20.181	0.348	0.215
-583.850	800.000	0.087	0.243
-582.836	-84.628	0.259	0.082
-581.821	63.179	-0.112	-0.112
-580.806	800.000	0.096	-0.311
-579.792	-200.000	-0.029	-0.344
-578.777	-200.000	0.015	0.289
-577.763	186.766	-0.160	0.239
-576.748	-200.000	0.011	0.296
-575.733	-200.000	0.044	-0.510
-574.719	800.000	0.045	-0.171
-573.704	800.000	-0.066	-0.235
-572.690	12.265	-0.081	0.063
-571.675	92.417	-0.264	-0.299
-570.661	-124.709	-0.186	-0.029
-569.646	-200.000	-0.040	0.220
-568.631	-99.228	0.252	-0.064
-567.617	-200.000	0.017	0.252
-566.602	-53.659	-0.195	0.089
-565.588	-101.757	0.062	-0.015
-564.573	750.926	0.126	-0.341
-563.558	89.107	-0.018	0.020
-562.544	800.000	-0.054	0.176
-561.529	210.048	-0.209	-0.329
-560.515	-200.000	0.011	-0.187
-559.500	-20.486	-0.173	-0.107
-558.485	-52.687	0.107	0.049
-557.471	22.872	-0.312	0.257
-556.456	19.113	-0.362	0.291
-555.442	146.881	-0.044	-0.059
-554.427	179.774	-0.095	0.139
-553.412	251.456	-0.144	-0.246
-552.398	27.707	-0.135	0.114
-551.383	11.310	-0.362	0.279
-550.369	-12.599	0.262	-0.172
-549.354	108.946	0.327	0.393
-548.339	338.925	-0.175	-0.342
-547.325	-50.020	0.110	0.052
-546.310	76.285	0.104	0.111
-545.296	-200.000	0.015	-0.158
-544.281	125.207	0.236	-0.299
-543.266	-146.895	-0.139	0.012
-542.252	-179.001	0.163	-0.004
-541.237	350.520	0.085	-0.169
-540.223	128.584	0.179	-0.229
-539.208	270.799	-0.107	-0.188
-538.193	-103.123	-0.402	0.096
-537.179	-66.687	0.257	-0.102
-536.164	-24.216	-0.099	-0.059
-535.150	345.385	0.045	-0.089
-534.135	174.178	0.264	0.383
-533.121	217.243	0.118	-0.189
-532.106	47.838	-0.247	0.231
-531.091	-23.467	-0.448	0.270
-530.077	-164.407	-0.236	-0.011
-529.062	-141.075	-0.215	-0.022
-528.048	239.068	-0.203	-0.338
-527.033	343.290	0.166	0.326
-526.018	-130.346	0.168	0.023
-525.004	46.520	-0.222	-0.206
-523.989	-200.000	-0.028	-0.133
-522.975	-153.530	-0.068	0.005
-521.960	-60.046	-0.327	-0.140
-520.945	569.098	-0.155	-0.378
-519.931	-65.681	0.126	-0.051
-518.916	800.000	0.012	-0.053
-517.902	32.943	-0.251	-0.218
-516.887	800.000	0.153	0.482
-515.872	-127.224	0.107	-0.016
-514.858	165.399	0.199	0.282
-513.843	46.461	0.150	0.139
-512.829	800.000	-0.122	-0.367
-511.814	800.000	0.069	0.235
-510.799	409.955	0.070	0.149
-509.785	120.434	-0.364	-0.454
-508.770	737.443	-0.083	0.223
-507.756	1.753	-0.031	0.023
-506.741	20.500	0.275	0.223
-505.726	-38.895	-0.344	0.182
-504.712	564.829	-0.110	-0.266
-503.697	-200.000	-0.000	-0.188
-502.683	800.000	0.060	0.217
-501.668	-200.000	-0.013	-0.377
-500.653	68.004	0.120	0.123
-499.639	0.245	-0.100	-0.071
-498.624	800.000	-0.064	-0.243
-497.610	-200.000	0.027	-0.153
-496.595	800.000	-0.039	-0.112
-495.581	-141.151	-0.155	-0.016
-494.566	-200.000	0.013	-0.059
-493.551	-25.100	-0.169	0.100
-492.537	-200.000	-0.031	0.249
-491.522	-200.000	0.003	0.131
-490.508	146.677	0.155	0.209
-489.493	-66.755	0.395	-0.157
-488.478	800.000	-0.111	0.484
-487.464	257.147	-0.059	0.101
-486.449	-129.885	-0.380	0.052
-485.435	-108.656	0.170	-0.036
-484.420	237.181	-0.018	-0.030
-483.405	800.000	0.023	-0.075
-482.391	-200.000	0.000	0.064
-481.376	-92.369	-0.087	-0.025
-480.362	-200.000	0.015	-0.082
-479.347	-122.701	-0.121	-0.020
-478.332	264.662	0.043	0.076
-477.318	5.148	0.077	0.057
-476.303	-200.000	-0.051	0.269
-475.289	10.992	-0.245	0.188
-474.274	800.000	0.092	-0.343
-473.259	-200.000	0.065	0.333
-472.245	800.000	-0.044	-0.144
-471.230	-200.000	-0.021	-0.124
-470.216	82.342	0.020	0.021
-469.201	-52.932	-0.288	-0.133
-468.186	-140.182	0.347	0.036
-467.172	624.690	0.092	0.232
-466.157	279.186	0.212	-0.378
-465.143	-200.000	-0.036	0.182
-464.128	451.309	0.085	-0.189
-463.113	-200.000	0.009	-0.370
-462.099	800.000	0.024	0.103
-461.084	17.497	-0.141	0.112
-460.070	226.416	-0.075	-0.122
-459.055	416.791	-0.034	-0.072
-458.040	800.000	-0.027	-0.097
-457.026	4.592	0.108	-0.079
-456.011	800.000	-0.071	0.216
-454.997	8.156	-0.100	-0.075
-453.982	102.736	0.127	-0.149
-452.968	63.321	0.148	-0.148
-451.953	-124.260	-0.275	-0.043
-450.938	340.225	0.101	-0.197
-449.924	800.000	-0.115	-0.426
-448.909	-63.494	0.356	-0.146
-447.895	-74.537	-0.220	-0.079
-446.880	-47.971	0.084	0.041
-445.865	124.024	0.112	0.141
-444.851	-17.388	0.188	-0.118
-443.836	-76.140	0.290	-0.102
-442.822	-200.000	0.002	0.061
-441.807	-28.201	-0.182	-0.105
-440.792	-41.230	0.108	-0.056
-439.778	-104.893	0.226	-0.052
-438.763	800.000	-0.060	0.173
-437.749	96.342	0.289	0.330
-436.734	182.253	0.081	-0.119
-435.719	-84.918	0.257	0.081
-434.705	345.543	-0.141	-0.277
-433.690	405.060	0.200	-0.421
-432.676	-9.504	-0.158	0.105
-431.661	-56.000	-0.180	0.080
-430.646	7.328	0.147	0.109
-429.632	-200.000	-0.078	-0.365
-428.617	48.455	-0.102	-0.096
-427.603	314.096	-0.065	-0.122
-426.588	-200.000	0.038	-0.264
-425.573	-54.787	0.157	-0.071
-424.559	-148.566	0.115	0.009
-423.544	59.554	-0.135	-0.133
-422.530	25.314	0.156	-0.129
-421.515	-200.000	-0.048	-0.218
-420.500	-200.000	0.069	0.480
-419.486	-105.315	-0.190	0.043
-418.471	-41.287	-0.031	0.016
-417.457	-76.712	-0.073	-0.026
-416.442	528.459	-0.182	-0.430
-415.428	49.057	-0.126	0.118
-414.413	-68.169	0.214	0.083
-413.398	223.805	0.127	0.204
-412.384	427.372	-0.159	0.343
-411.369	-92.881	0.103	0.029
-410.355	17.300	0.259	-0.205
-409.340	-200.000	0.013	-0.264
-408.325	-55.412	0.256	-0.114
-407.311	800.000	0.119	0.327
-406.296	-200.000	-0.022	0.209
-405.282	-153.584	0.252	-0.017
-404.267	52.392	0.243	0.232
-403.252	800.000	-0.097	-0.269
-402.238	-200.000	0.012	0.123
-401.223	800.000	-0.092	-0.287
-400.209	-135.584	0.316	0.038
-399.194	99.953	-0.111	0.128
-398.179	-200.000	-0.003	0.252
-397.165	-55.335	-0.218	-0.098
-396.150	0.390	0.152	-0.108
-395.136	-70.334	-0.238	0.090
-394.121	-200.000	-0.013	-0.395
-393.106	-200.000	-0.056	0.442
-392.092	-114.369	-0.393	0.076
-391.077	487.832	0.030	0.069
-390.063	23.310	-0.152	-0.124
-389.048	-130.839	-0.149	-0.020
-388.033	444.072	-0.143	0.313
-387.019	-116.309	-0.165	-0.031
-386.004	-200.000	-0.008	0.101
-384.990	363.204	0.144	0.289
-383.975	66.788	0.312	0.317
-382.960	106.867	-0.045	0.054
-381.946	161.921	0.164	-0.229
-380.931	-42.126	0.412	0.210
-379.917	-198.067	-0.433	0.003
-378.902	-48.241	-0.029	-0.014
-377.888	-155.565	-0.170	-0.011
-376.873	-167.317	-0.214	-0.009
-375.858	28.252	0.251	-0.211
-374.844	-75.198	0.254	-0.091
-373.829	-147.855	-0.233	-0.019
-372.815	194.167	-0.028	0.042
-371.800	-142.448	0.307	-0.030
-370.785	360.238	-0.079	0.157
-369.771	111.892	0.070	0.084
-368.756	147.999	0.173	-0.233
-367.742	800.000	0.016	-0.053
-366.727	175.563	0.074	0.107
-365.712	10.630	0.398	0.302
-364.698	-60.477	-0.051	-0.022
-363.683	-200.000	-0.025	0.273
-362.669	-133.747	-0.389	-0.048
-361.654	393.643	-0.111	0.230
-360.639	-65.029	0.288	0.116
-359.625	-200.000	-0.020	-0.346
-358.610	-25.594	0.220	0.130
-357.596	-200.000	0.026	-0.000
-356.581	-25.300	0.042	0.025
-355.566	145.994	-0.117	0.157
-354.552	-200.000	0.006	-0.123
-353.537	-200.000	0.005	0.217
-352.523	-157.105	0.122	0.007
-351.508	-80.423	0.154	-0.051
-350.493	384.935	0.042	0.085
-349.479	20.216	0.128	-0.103
-348.464	-93.439	0.129	0.036
-347.450	-54.024	-0.225	0.102
-346.435	149.937	-0.064	0.086
-345.420	-110.217	0.230	0.048
-344.406	488.455	-0.141	0.321
-343.391	-200.000	-0.020	0.159
-342.377	0.787	-0.359	0.256
-341.362	31.142	-0.144	0.123
-340.348	-13.271	-0.018	0.012
-339.333	-95.126	-0.178	0.048
-338.318	177.268	-0.050	-0.072
-337.304	-138.816	0.141	0.015
-336.289	-52.357	0.150	0.069
-335.275	318.213	0.175	0.330
-334.260	-193.537	-0.244	-0.002
-333.245	-200.000	0.004	-0.131
-332.231	-200.000	-0.012	0.297
-331.216	125.010	-0.100	-0.126
-330.202	-200.000	-0.070	-0.331
-329.187	-200.000	0.011	-0.412
-328.172	-14.379	0.112	-0.072
-327.158	19.146	-0.217	0.173
-326.143	-181.914	0.330	-0.006
-325.129	-200.000	-0.003	0.059
-324.114	56.876	-0.130	0.126
-323.099	354.060	-0.092	-0.181
-322.085	-37.443	-0.237	-0.126
-321.070	-40.075	0.261	-0.135
-320.056	-53.361	0.285	-0.130
-319.041	-36.845	-0.169	0.090
-318.026	203.108	-0.126	-0.194
-317.012	-200.000	0.002	-0.147
-315.997	800.000	0.084	0.364
-314.983	182.418	-0.162	0.238
-313.968	-200.000	0.001	0.039
-312.953	19.073	-0.396	-0.316
-311.939	-3.138	-0.191	0.132
-310.924	-136.014	0.599	0.070
-309.910	-90.782	0.104	0.030
-308.895	38.915	0.007	-0.006
-307.880	111.805	-0.235	-0.282
-306.866	370.640	-0.092	0.186
-305.851	551.848	-0.026	-0.061
-304.837	-45.960	-0.107	0.053
-303.822	-81.625	-0.080	0.026
-302.807	-13.122	-0.239	0.154
-301.793	-200.000	0.029	-0.297
-300.778	-99.829	-0.098	0.024
-299.764	-20.046	0.292	0.179
-298.749	-200.000	0.010	0.308
-297.735	-5.083	0.301	0.206
-296.720	800.000	0.079	0.259
-295.705	-200.000	0.015	0.336
-294.691	800.000	-0.016	0.045
-293.676	147.750	-0.134	0.179
-292.662	432.835	-0.063	0.137
-291.647	-19.262	-0.147	0.091
-290.632	-148.611	0.328	0.027
-289.618	-124.890	-0.400	-0.061
-288.603	-53.766	0.333	0.151
-287.589	220.682	-0.179	-0.286
-286.574	-143.037	0.227	-0.022
-285.559	244.869	0.231	0.387
-284.545	-40.127	0.354	0.183
-283.530	573.869	-0.079	-0.192
-282.516	311.964	-0.101	-0.188
-281.501	-144.375	0.432	0.040
-280.486	-161.915	-0.181	0.009
-279.472	-30.460	-0.067	-0.038
-278.457	351.242	0.091	0.178
-277.443	148.972	0.131	0.177
-276.428	-83.724	0.223	-0.071
-275.413	-200.000	-0.011	-0.173
-274.399	37.999	-0.201	-0.178
-273.384	144.441	-0.153	-0.204
-272.370	245.304	0.120	-0.201
-271.355	219.934	-0.065	0.103
-270.340	-200.000	0.044	-0.376
-269.326	-45.654	0.197	-0.097
-268.311	800.000	0.085	-0.351
-267.297	-99.261	0.049	-0.012
-266.282	74.499	0.145	-0.151
-265.267	-200.000	0.017	0.239
-264.253	-56.603	-0.500	-0.220
-263.238	-145.933	0.206	-0.018
-262.224	-8.912	0.113	-0.075
-261.209	-83.448	-0.075	-0.024
-260.195	-46.299	-0.116	0.057
-259.180	13.034	0.424	-0.326
-258.165	800.000	0.031	0.136
-257.151	60.926	0.169	-0.166
-256.136	14.201	-0.039	-0.031
-255.122	358.222	0.105	0.209
-254.107	800.000	-0.105	-0.382
-253.092	-200.000	-0.034	-0.455
-252.078	-100.107	0.320	-0.079
-251.063	-200.000	0.054	-0.303
-250.049	463.653	-0.178	0.394
-249.034	-121.796	-0.218	-0.036
-248.019	-200.000	0.027	0.245
-247.005	-75.495	0.078	0.028
-245.990	-200.000	-0.015	-0.200
-244.976	-179.993	-0.204	-0.004
-243.961	41.320	-0.249	-0.223
-242.946	-200.000	0.021	-0.228
-241.932	-106.101	0.158	-0.035
-240.917	201.188	-0.083	0.126
-239.903	95.098	0.221	-0.249
-238.888	136.701	-0.167	-0.216
-237.873	-200.000	0.051	-0.493
-236.859	800.000	0.012	-0.040
-235.844	-27.360	-0.168	0.097
-234.830	-200.000	-0.009	0.176
-233.815	-75.408	0.414	0.146
-232.800	124.300	-0.152	0.190
-231.786	800.000	0.145	0.574
-230.771	-162.284	-0.264	0.013
-229.757	800.000	0.048	-0.161
-228.742	198.026	0.172	-0.261
-227.727	-61.560	-0.411	0.171
-226.713	-67.437	0.453	0.176
-225.698	74.308	-0.265	0.276
-224.684	128.394	-0.074	-0.093
-223.669	61.539	0.201	0.198
-222.655	-134.227	0.254	0.031
-221.640	-139.188	-0.167	0.018
-220.625	522.053	0.106	-0.246
-219.611	728.321	0.121	0.321
-218.596	-200.000	-0.010	-0.263
-217.582	158.232	-0.107	0.147
-216.567	337.927	-0.070	-0.135
-215.552	-133.493	-0.154	0.019
-214.538	800.000	-0.023	-0.091
-213.523	209.854	-0.017	0.026
-212.509	216.516	-0.030	-0.047
-211.494	-133.888	0.224	0.028
-210.479	-54.428	-0.269	-0.121
-209.465	72.105	0.162	0.167
-208.450	-131.820	-0.238	0.031
-207.436	-67.527	0.117	-0.045
-206.421	3.100	0.354	-0.255
-205.406	126.118	-0.329	0.412
-204.392	800.000	0.041	-0.127
-203.377	-200.000	0.068	-0.410
-202.363	114.863	0.055	-0.067
-201.348	-200.000	0.005	0.130
-200.333	-73.189	0.094	-0.034
-199.319	-9.641	-0.388	0.256
-198.304	-200.000	0.067	-0.296
-197.290	-200.000	-0.058	0.252
-196.275	179.545	-0.114	0.165
-195.260	-60.370	-0.240	-0.101
-194.246	89.944	0.191	0.211
-193.231	-154.426	0.255	0.017
-192.217	800.000	0.029	0.094
-191.202	8.687	0.196	0.146
-190.187	120.241	-0.274	0.337
-189.173	-78.480	-0.248	0.084
-188.158	487.590	0.108	0.243
-187.144	-55.422	0.120	0.053
-186.129	20.390	0.064	-0.051
-185.114	729.363	0.129	-0.342
-184.100	-92.765	0.169	0.047
-183.085	-122.111	-0.194	-0.032
-182.071	104.465	-0.067	0.078
-181.056	-57.268	0.361	-0.157
-180.042	-14.473	0.289	-0.184
-179.027	-168.853	-0.244	0.009
-178.012	800.000	0.048	0.188
-176.998	203.713	0.105	-0.161
-175.983	-200.000	0.025	0.343
-174.969	93.982	0.061	0.069
-173.954	87.425	0.204	0.223
-172.939	-73.224	0.095	0.034
-171.925	54.593	-0.287	-0.274
-170.910	-200.000	-0.003	-0.142
-169.896	-40.515	0.013	0.007
-168.881	148.137	0.071	0.095
-167.866	444.521	0.096	0.207
-166.852	-136.763	-0.402	0.046
-165.837	-200.000	-0.124	0.619
-164.823	-200.000	-0.003	0.162
-163.808	-40.946	0.122	-0.063
-162.793	800.000	0.063	0.239
-161.779	73.956	-0.062	-0.064
-160.764	-44.655	0.137	-0.068
-159.750	-40.300	0.136	0.070
-158.735	684.427	0.029	-0.074
-157.720	800.000	0.090	-0.252
-156.706	800.000	-0.049	0.167
-155.691	-19.664	0.369	0.226
-154.677	800.000	0.065	0.243
-153.662	-98.220	-0.084	-0.021
-152.647	-67.721	-0.322	0.124
-151.633	35.022	-0.317	0.275
-150.618	-22.776	0.234	0.140
-149.604	-144.513	0.345	0.032
-148.589	-2.152	0.434	0.301
-147.574	20.850	-0.150	-0.120
-146.560	29.399	0.159	-0.133
-145.545	-200.000	0.096	-0.495
-144.531	-200.000	-0.045	-0.299
-143.516	-63.345	-0.248	0.101
-142.502	-122.008	-0.066	-0.011
-141.487	161.122	0.127	0.176
-140.472	130.042	0.249	-0.315
-139.458	-3.131	0.063	-0.043
-138.443	-7.494	-0.057	-0.038
-137.429	-118.562	-0.163	-0.028
-136.414	800.000	0.075	-0.217
-135.399	-133.805	-0.113	0.014
-134.385	-200.000	-0.000	0.061
-133.370	330.351	0.094	0.178
-132.356	-80.688	0.137	0.045
-131.341	66.864	-0.170	-0.171
-130.326	-93.452	-0.439	0.120
-129.312	-11.712	-0.176	0.114
-128.297	133.513	-0.074	0.094
-127.283	13.074	-0.124	0.095
-126.268	-103.419	0.428	-0.100
-125.253	-140.656	0.333	0.034
-124.239	-9.426	-0.241	0.159
-123.224	-200.000	-0.013	0.276
-122.210	-50.276	0.290	0.135
-121.195	174.305	-0.321	-0.459
-120.180	-200.000	-0.016	0.079
