DTS Sentinel unit serial number:	SN413079Multiplexer serial number:	ORYXHardware model number:	OX4-SRSoftware version number:	ORYX F/W v4.00 Oryx Data Collector v3.7.2.0data status	okinstallation	princeton_trtdifferential loss correction	single-endedforward channel	channel 2reverse channel	N/Adate	2019/09/13time	11:03:35forward acquisition time	60.00reverse acquisition time	0.00gamma	496.2192k internal	0.2322k external	0.2322temperature offset calibration	1.0192default loss term (dB/km)	0.3790temperature slope calibration	1.0000multiplexer offset coefficient	1.0000multiplexer slope coefficient	1.0000fibre end	0.00T internal ref (°C)	31.92T ext. ref 1 (°C)	4.66T ext. ref 2 (°C)	28.97length (m)	temperature (°C)	Stokes	anti-Stokes-747.200	-36.296	0.088	0.048
-746.185	-200.000	-0.025	0.264
-745.171	-200.000	0.037	0.339
-744.156	300.593	-0.064	0.119
-743.142	-40.612	-0.219	0.115
-742.127	800.000	0.064	0.192
-741.112	22.755	-0.086	0.071
-740.098	800.000	-0.029	0.086
-739.083	-152.878	0.277	-0.020
-738.069	-130.437	0.027	-0.004
-737.054	-174.300	0.267	0.008
-736.039	-157.618	-0.408	-0.025
-735.025	-200.000	0.011	0.217
-734.010	-63.703	-0.174	-0.072
-732.996	325.754	-0.027	0.051
-731.981	800.000	0.034	-0.147
-730.966	100.731	-0.154	0.181
-729.952	-137.254	-0.137	-0.016
-728.937	-200.000	0.430	-0.001
-727.923	-200.000	-0.056	-0.248
-726.908	-200.000	-0.037	-0.282
-725.894	89.814	0.108	0.121
-724.879	19.387	-0.285	-0.231
-723.864	-61.190	-0.125	-0.053
-722.850	224.599	0.017	-0.028
-721.835	-67.432	0.127	0.050
-720.821	177.372	-0.047	-0.069
-719.806	34.628	-0.208	0.183
-718.791	548.680	0.040	0.096
-717.777	-45.264	0.213	-0.107
-716.762	-44.486	-0.210	-0.106
-715.748	172.831	0.063	0.091
-714.733	-94.974	-0.244	0.067
-713.718	-42.539	-0.057	-0.029
-712.704	-126.119	-0.189	-0.029
-711.689	108.750	-0.074	0.089
-710.675	-200.000	0.033	-0.157
-709.660	-56.023	0.106	0.048
-708.645	-200.000	0.050	-0.328
-707.631	-200.000	0.025	0.187
-706.616	-103.039	-0.171	0.041
-705.602	-9.644	-0.173	0.116
-704.587	800.000	-0.049	-0.193
-703.572	46.318	0.084	-0.079
-702.558	-64.444	0.310	-0.127
-701.543	70.075	-0.206	0.214
-700.529	165.842	-0.152	0.217
-699.514	-200.000	-0.006	-0.190
-698.499	428.679	0.046	-0.100
-697.485	-200.000	-0.001	-0.125
-696.470	-200.000	-0.044	-0.238
-695.456	800.000	0.084	-0.325
-694.441	293.702	-0.069	-0.127
-693.426	228.449	-0.148	-0.244
-692.412	-200.000	-0.026	-0.143
-691.397	685.705	0.097	0.255
-690.383	800.000	0.090	-0.298
-689.368	-80.923	0.179	-0.060
-688.354	800.000	0.086	-0.251
-687.339	800.000	0.053	-0.195
-686.324	-2.428	-0.065	0.046
-685.310	51.310	0.044	0.042
-684.295	-50.936	0.406	0.192
-683.281	262.199	-0.150	0.263
-682.266	229.092	-0.232	-0.382
-681.251	261.336	0.173	0.302
-680.237	580.626	0.044	-0.109
-679.222	-80.475	0.255	0.086
-678.208	19.738	0.132	0.107
-677.193	9.911	0.219	-0.167
-676.178	-128.328	-0.438	-0.063
-675.164	-68.306	0.309	-0.121
-674.149	202.936	0.094	0.147
-673.135	-17.421	0.033	0.021
-672.120	30.218	0.119	-0.102
-671.105	800.000	-0.064	-0.251
-670.091	597.487	-0.091	-0.227
-669.076	-85.962	-0.096	-0.030
-668.062	348.088	-0.083	0.166
-667.047	1.164	0.093	-0.067
-666.032	-67.879	0.252	0.099
-665.018	-22.756	0.169	0.103
-664.003	-94.346	-0.042	-0.012
-662.989	-200.000	0.003	-0.026
-661.974	-56.813	0.213	0.095
-660.959	800.000	-0.149	-0.583
-659.945	-200.000	-0.034	0.358
-658.930	-16.447	0.055	-0.035
-657.916	-122.383	-0.102	-0.017
-656.901	18.124	0.308	-0.247
-655.886	-200.000	0.019	0.417
-654.872	-200.000	-0.044	-0.196
-653.857	-12.430	-0.131	0.086
-652.843	127.166	-0.072	-0.092
-651.828	24.973	0.207	-0.173
-650.814	-181.432	-0.188	0.004
-649.799	-200.000	-0.002	-0.312
-648.784	800.000	0.070	-0.296
-647.770	-122.570	-0.305	0.050
-646.755	-70.492	-0.283	0.108
-645.741	-200.000	0.043	-0.231
-644.726	41.874	-0.151	0.138
-643.711	-160.325	0.376	0.020
-642.697	240.617	-0.060	-0.100
-641.682	-200.000	0.056	0.260
-640.668	193.526	0.098	-0.150
-639.653	163.088	0.144	0.203
-638.638	-194.196	-0.307	0.003
-637.624	245.208	-0.154	-0.260
-636.609	-200.000	0.051	0.325
-635.595	357.405	0.142	0.285
-634.580	-200.000	0.039	0.175
-633.565	13.034	0.253	-0.197
-632.551	-9.177	0.287	0.193
-631.536	705.225	-0.059	0.155
-630.522	106.977	-0.093	-0.111
-629.507	-124.081	-0.236	0.037
-628.492	140.863	0.096	-0.128
-627.478	-200.000	0.005	0.045
-626.463	701.760	-0.075	0.199
-625.449	104.690	0.154	-0.183
-624.434	800.000	-0.064	0.189
-623.419	82.244	0.077	-0.084
-622.405	800.000	0.035	-0.133
-621.390	27.575	0.143	0.121
-620.376	131.670	0.270	0.349
-619.361	-200.000	-0.021	-0.241
-618.346	-200.000	0.026	-0.264
-617.332	461.263	-0.138	-0.309
-616.317	800.000	-0.077	0.237
-615.303	-52.884	0.385	-0.178
-614.288	280.767	0.181	-0.325
-613.273	-200.000	-0.027	0.285
-612.259	-200.000	-0.013	-0.121
-611.244	11.461	-0.097	0.075
-610.230	-88.657	-0.247	0.074
-609.215	207.467	-0.121	0.190
-608.201	-16.522	-0.587	0.374
-607.186	-82.450	0.093	0.030
-606.171	-60.479	0.293	-0.125
-605.157	-104.556	-0.091	0.021
-604.142	473.399	0.091	-0.205
-603.128	-200.000	0.011	0.128
-602.113	251.266	0.065	-0.110
-601.098	800.000	-0.017	0.056
-600.084	9.488	-0.265	-0.202
-599.069	72.154	0.106	-0.111
-598.055	144.628	0.137	-0.184
-597.040	64.837	-0.066	-0.067
-596.025	196.981	-0.104	-0.160
-595.011	-73.540	-0.305	-0.112
-593.996	-200.000	-0.049	-0.356
-592.982	14.788	0.241	-0.189
-591.967	95.689	-0.084	0.097
-590.952	1.708	-0.092	-0.067
-589.938	800.000	-0.058	-0.220
-588.923	30.564	0.171	0.147
-587.909	-130.514	0.124	-0.017
-586.894	50.859	-0.100	0.095
-585.879	64.632	-0.153	-0.155
-584.865	-200.000	0.042	0.231
-583.850	127.427	0.212	0.270
-582.836	583.691	-0.114	-0.280
-581.821	83.413	-0.153	-0.168
-580.806	-62.804	0.150	0.062
-579.792	-111.057	0.396	-0.082
-578.777	800.000	0.107	0.302
-577.763	200.498	-0.144	0.222
-576.748	62.399	-0.146	0.146
-575.733	-200.000	0.037	-0.268
-574.719	521.121	-0.109	0.257
-573.704	157.991	0.113	0.158
-572.690	-200.000	0.032	-0.153
-571.675	-200.000	0.022	-0.278
-570.661	646.448	0.076	0.195
-569.646	8.014	-0.214	0.161
-568.631	118.882	0.106	0.132
-567.617	566.476	0.148	-0.361
-566.602	-113.724	0.288	0.056
-565.588	-0.749	-0.195	-0.139
-564.573	12.289	-0.097	0.075
-563.558	-131.772	0.070	0.009
-562.544	42.349	0.229	0.209
-561.529	800.000	0.039	0.169
-560.515	-65.543	-0.327	-0.132
-559.500	8.623	-0.194	-0.146
-558.485	254.816	0.074	0.128
-557.471	800.000	-0.047	0.204
-556.456	11.416	-0.466	0.358
-555.442	27.670	-0.189	-0.159
-554.427	-200.000	-0.049	0.282
-553.412	-154.456	-0.175	0.012
-552.398	-57.210	0.173	-0.076
-551.383	-44.705	-0.116	-0.058
-550.369	130.411	0.171	-0.219
-549.354	-200.000	-0.074	-0.348
-548.339	40.228	0.074	0.067
-547.325	-126.695	0.179	0.027
-546.310	-200.000	0.069	-0.367
-545.296	-43.481	0.145	-0.074
-544.281	54.082	0.083	0.080
-543.266	58.002	-0.201	-0.198
-542.252	-174.379	-0.234	0.007
-541.237	-187.359	0.209	0.003
-540.223	-200.000	0.008	0.206
-539.208	-47.608	-0.292	0.142
-538.193	-200.000	-0.016	-0.108
-537.179	147.385	0.071	0.096
-536.164	265.333	0.070	0.122
-535.150	800.000	0.046	0.148
-534.135	-36.976	-0.160	-0.086
-533.121	256.947	0.074	0.127
-532.106	409.792	0.067	-0.142
-531.091	-200.000	0.034	-0.183
-530.077	-104.126	0.441	-0.103
-529.062	-200.000	-0.011	-0.246
-528.048	-51.467	-0.165	0.077
-527.033	59.282	-0.310	0.306
-526.018	103.805	0.190	0.223
-525.004	-22.260	-0.248	-0.150
-523.989	29.572	0.112	-0.096
-522.975	-53.317	-0.295	0.135
-521.960	-55.955	-0.052	0.023
-520.945	-49.058	0.085	0.041
-519.931	33.079	0.144	-0.125
-518.916	406.205	-0.023	0.049
-517.902	68.450	-0.186	0.191
-516.887	257.176	0.038	0.066
-515.872	-77.603	0.363	0.126
-514.858	-103.717	-0.231	0.054
-513.843	2.761	-0.056	-0.041
-512.829	-200.000	-0.017	-0.204
-511.814	-109.545	-0.050	-0.011
-510.799	-119.841	0.219	-0.038
-509.785	-49.801	-0.110	-0.052
-508.770	77.691	-0.346	0.368
-507.756	-62.437	0.088	-0.037
-506.741	-111.759	0.171	0.035
-505.726	169.387	-0.062	0.088
-504.712	-18.000	0.087	0.055
-503.697	392.241	-0.241	-0.500
-502.683	-200.000	-0.038	-0.340
-501.668	9.963	-0.030	0.023
-500.653	633.847	0.086	-0.219
-499.639	800.000	0.102	-0.406
-498.624	3.498	-0.361	-0.263
-497.610	-98.214	-0.168	0.043
-496.595	57.578	0.119	-0.116
-495.581	-59.156	-0.214	-0.092
-494.566	800.000	0.076	-0.290
-493.551	246.961	-0.034	0.057
-492.537	146.365	0.142	0.191
-491.522	85.810	-0.226	-0.248
-490.508	313.284	-0.110	-0.206
-489.493	-200.000	0.024	0.146
-488.478	24.050	-0.245	-0.202
-487.464	800.000	-0.098	-0.271
-486.449	800.000	0.044	-0.128
-485.435	800.000	-0.121	0.374
-484.420	-41.189	0.370	0.191
-483.405	119.909	0.218	0.271
-482.391	800.000	0.045	0.158
-481.376	-109.944	0.260	0.054
-480.362	139.381	-0.134	-0.177
-479.347	-46.857	-0.096	-0.047
-478.332	800.000	-0.068	-0.195
-477.318	-55.196	0.319	0.143
-476.303	636.474	0.102	0.259
-475.289	-157.274	-0.227	0.014
-474.274	-200.000	-0.061	-0.292
-473.259	-58.435	0.132	-0.057
-472.245	-200.000	-0.010	-0.238
-471.230	-46.260	-0.091	-0.045
-470.216	84.575	-0.227	0.249
-469.201	372.768	-0.133	-0.269
-468.186	-68.320	-0.162	0.063
-467.172	800.000	-0.068	0.204
-466.157	7.969	0.281	0.211
-465.143	-61.433	-0.355	-0.149
-464.128	-200.000	0.036	0.188
-463.113	-200.000	-0.021	0.213
-462.099	165.035	0.062	-0.087
-461.084	-101.051	-0.265	0.065
-460.070	-200.000	0.064	0.380
-459.055	179.457	0.138	0.202
-458.040	484.913	-0.044	-0.100
-457.026	-45.260	0.106	0.052
-456.011	-86.671	-0.171	0.052
-454.997	72.801	0.065	0.068
-453.982	516.736	0.041	0.096
-452.968	-200.000	0.040	-0.378
-451.953	530.577	0.153	-0.362
-450.938	37.480	-0.169	-0.149
-449.924	170.638	0.023	-0.033
-448.909	-200.000	-0.005	-0.267
-447.895	162.531	-0.098	-0.137
-446.880	-200.000	-0.262	-0.001
-445.865	-43.041	0.061	-0.031
-444.851	-66.323	-0.139	0.055
-443.836	-35.452	-0.234	-0.127
-442.822	241.509	-0.065	-0.108
-441.807	271.915	-0.153	-0.269
-440.792	-126.007	0.353	0.053
-439.778	-200.000	0.002	0.053
-438.763	800.000	0.134	0.417
-437.749	-200.000	-0.015	0.236
-436.734	-10.162	0.150	0.100
-435.719	-160.188	0.379	0.020
-434.705	-32.547	0.149	0.083
-433.690	-127.945	-0.290	-0.042
-432.676	172.976	0.246	-0.353
-431.661	-200.000	-0.017	-0.129
-430.646	-131.544	0.425	0.056
-429.632	-75.192	0.297	0.106
-428.617	36.142	0.079	-0.069
-427.603	63.878	-0.198	0.198
-426.588	-58.462	0.202	0.088
-425.573	-200.000	-0.004	0.181
-424.559	-1.108	-0.328	-0.231
-423.544	-200.000	-0.001	-0.324
-422.530	-134.433	0.366	0.045
-421.515	95.139	-0.049	-0.056
-420.500	251.282	0.092	-0.157
-419.486	81.104	-0.127	0.137
-418.471	334.238	0.132	-0.256
-417.457	231.333	-0.105	-0.172
-416.442	-57.308	-0.090	-0.039
-415.428	12.305	0.119	-0.091
-414.413	33.435	0.018	-0.016
-413.398	-41.483	0.245	0.126
-412.384	-163.496	0.046	0.002
-411.369	800.000	0.059	0.164
-410.355	618.254	-0.082	0.205
-409.340	18.977	-0.501	0.400
-408.325	-200.000	-0.022	-0.121
-407.311	800.000	0.058	0.224
-406.296	443.926	0.039	0.086
-405.282	-200.000	0.055	-0.249
-404.267	13.135	0.230	-0.177
-403.252	-10.009	-0.152	0.101
-402.238	177.273	-0.189	-0.275
-401.223	198.214	-0.078	-0.119
-400.209	-188.000	-0.213	-0.003
-399.194	800.000	0.036	0.139
-398.179	-46.599	-0.210	0.103
-397.165	-200.000	-0.011	0.076
-396.150	58.404	-0.098	0.096
-395.136	-9.846	0.137	0.091
-394.121	-200.000	-0.006	0.133
-393.106	7.075	0.222	-0.165
-392.092	44.267	-0.036	0.033
-391.077	-13.057	-0.175	0.113
-390.063	143.547	0.110	-0.146
-389.048	-200.000	0.013	-0.134
-388.033	-74.504	0.212	-0.076
-387.019	12.994	0.204	0.158
-386.004	-200.000	0.022	0.130
-384.990	-200.000	0.010	0.192
-383.975	-163.862	0.187	0.009
-382.960	-78.141	0.529	0.181
-381.946	17.003	-0.306	0.242
-380.931	-155.616	-0.169	-0.011
-379.917	-73.010	-0.062	0.022
-378.902	-93.915	0.155	0.042
-377.888	154.105	-0.172	-0.234
-376.873	-123.291	-0.073	0.012
-375.858	-59.070	-0.088	0.038
-374.844	-107.869	0.434	-0.094
-373.829	-200.000	-0.022	-0.334
-372.815	526.570	0.078	0.183
-371.800	441.022	-0.012	-0.027
-370.785	-127.850	-0.270	0.039
-369.771	24.904	-0.266	0.220
-368.756	-200.000	-0.031	-0.329
-367.742	-51.472	-0.194	0.090
-366.727	139.026	-0.239	0.313
-365.712	-148.769	-0.358	-0.029
-364.698	-200.000	0.017	-0.240
-363.683	-98.429	-0.059	-0.015
-362.669	272.075	0.140	-0.246
-361.654	119.212	-0.094	-0.116
-360.639	174.905	0.058	0.084
-359.625	253.745	0.139	0.236
-358.610	-74.101	-0.226	0.082
-357.596	-109.523	0.226	-0.047
-356.581	-81.426	-0.403	0.132
-355.566	202.628	0.035	0.054
-354.552	-101.757	0.206	0.050
-353.537	-20.084	-0.240	0.148
-352.523	-118.482	0.086	-0.015
-351.508	800.000	0.132	-0.366
-350.493	-200.000	-0.026	-0.218
-349.479	-200.000	0.000	0.354
-348.464	72.355	-0.146	0.151
-347.450	-80.950	0.097	-0.032
-346.435	-84.863	0.328	0.103
-345.420	-28.746	0.116	0.066
-344.406	13.217	0.079	0.061
-343.391	-4.054	0.092	-0.064
-342.377	-186.015	0.132	-0.002
-341.362	36.572	0.116	0.101
-340.348	43.597	0.183	-0.167
-339.333	-200.000	0.003	-0.041
-338.318	-124.671	0.222	0.034
-337.304	-138.402	0.254	-0.028
-336.289	800.000	0.010	0.031
-335.275	64.273	-0.175	-0.176
-334.260	184.400	0.104	0.153
-333.245	65.165	0.243	-0.245
-332.231	-200.000	0.046	0.353
-331.216	12.654	-0.226	-0.174
-330.202	-47.496	0.065	-0.031
-329.187	-149.386	-0.027	-0.002
-328.172	-100.454	-0.097	0.024
-327.158	95.080	-0.186	-0.211
-326.143	-119.656	0.311	-0.053
-325.129	8.121	0.157	0.117
-324.114	800.000	-0.042	0.134
-323.099	-73.743	-0.219	-0.079
-322.085	268.464	-0.132	-0.230
-321.070	-122.655	0.309	0.050
-320.056	800.000	0.036	0.131
-319.041	220.503	-0.102	-0.162
-318.026	-200.000	-0.016	-0.479
-317.012	-10.209	0.328	0.217
-315.997	233.042	0.137	0.224
-314.983	62.471	0.023	-0.022
-313.968	64.554	0.131	0.132
-312.953	800.000	-0.044	0.181
-311.939	-200.000	0.069	0.394
-310.924	94.687	-0.168	0.190
-309.910	33.583	0.237	0.205
-308.895	399.366	0.133	-0.276
-307.880	800.000	0.040	0.131
-306.866	-53.586	-0.091	-0.041
-305.851	-77.025	0.442	-0.153
-304.837	-59.872	0.085	0.036
-303.822	42.009	-0.044	-0.039
-302.807	-200.000	-0.013	0.107
-301.793	-40.546	0.152	-0.078
-300.778	-125.709	0.117	0.018
-299.764	-138.625	-0.199	-0.022
-298.749	-200.000	-0.012	-0.118
-297.735	-67.250	-0.386	-0.151
-296.720	-95.962	-0.209	0.055
-295.705	-70.447	-0.353	-0.133
-294.691	66.266	-0.095	0.096
-293.676	-200.000	0.034	-0.167
-292.662	9.349	0.233	-0.175
-291.647	-67.208	-0.288	-0.112
-290.632	58.466	-0.322	0.314
-289.618	-82.211	-0.417	0.135
-288.603	-200.000	-0.015	0.093
-287.589	800.000	-0.087	-0.314
-286.574	148.851	0.132	-0.177
-285.559	-188.381	0.428	-0.005
-284.545	114.626	-0.053	0.065
-283.530	-116.074	-0.197	0.036
-282.516	95.880	0.098	0.111
-281.501	-200.000	-0.008	-0.291
-280.486	800.000	-0.054	0.222
-279.472	-200.000	-0.079	0.378
-278.457	113.368	-0.296	0.356
-277.443	-20.633	0.319	0.194
-276.428	-39.415	0.127	0.066
-275.413	-25.096	-0.026	-0.015
-274.399	800.000	-0.050	0.184
-273.384	-44.500	0.110	-0.054
-272.370	-45.298	-0.148	-0.073
-271.355	110.673	0.175	-0.209
-270.340	-200.000	-0.119	-0.569
-269.326	-175.056	0.097	-0.003
-268.311	106.277	-0.122	-0.144
-267.297	-24.450	-0.124	-0.073
-266.282	316.655	0.025	0.048
-265.267	366.421	-0.173	-0.347
-264.253	-56.619	0.135	-0.059
-263.238	-155.917	0.297	0.019
-262.224	75.927	-0.105	-0.110
-261.209	800.000	0.067	-0.272
-260.195	-200.000	-0.039	-0.205
-259.180	-22.832	0.108	0.065
-258.165	-21.093	-0.103	-0.062
-257.151	34.731	-0.164	0.142
-256.136	800.000	-0.067	-0.250
-255.122	21.108	0.288	0.232
-254.107	407.388	0.036	-0.076
-253.092	23.344	-0.122	-0.099
-252.078	-60.382	0.158	0.066
-251.063	134.346	0.137	-0.176
-250.049	-145.572	0.066	-0.006
-249.034	277.042	-0.100	-0.176
-248.019	29.885	-0.003	-0.002
-247.005	19.819	0.092	0.074
-245.990	170.571	0.076	-0.108
-244.976	-117.920	0.294	0.052
-243.961	281.236	-0.077	-0.136
-242.946	-103.239	0.148	0.035
-241.932	-96.515	0.227	0.059
-240.917	800.000	0.027	-0.104
-239.903	-58.158	-0.505	-0.218
-238.888	-31.849	-0.143	-0.079
-237.873	-200.000	0.016	-0.112
-236.859	-200.000	-0.004	0.102
-235.844	-40.686	-0.311	-0.160
-234.830	-91.677	0.383	0.108
-233.815	-94.966	0.190	0.051
-232.800	-80.818	-0.327	-0.107
-231.786	-55.703	0.167	0.074
-230.771	-133.542	0.236	0.029
-229.757	-34.780	-0.106	-0.057
-228.742	175.158	-0.127	0.182
-227.727	-62.528	-0.275	0.113
-226.713	57.202	0.234	0.226
-225.698	-59.842	-0.108	0.046
-224.684	-6.979	0.065	-0.043
-223.669	-200.000	0.003	-0.013
-222.655	23.673	-0.121	-0.099
-221.640	109.297	0.290	-0.343
-220.625	800.000	-0.109	-0.410
-219.611	661.376	0.072	-0.185
-218.596	-94.825	0.175	0.047
-217.582	-200.000	0.028	-0.399
-216.567	-174.106	0.098	-0.003
-215.552	-200.000	-0.049	0.392
-214.538	-128.776	-0.168	0.023
-213.523	306.552	-0.092	-0.170
-212.509	15.628	-0.279	0.217
-211.494	-94.999	0.251	0.067
-210.479	137.016	-0.234	-0.302
-209.465	487.148	0.081	-0.183
-208.450	105.365	0.062	0.072
-207.436	85.432	-0.100	0.109
-206.421	194.315	0.046	0.069
-205.406	-42.072	0.149	0.075
-204.392	-169.089	-0.222	-0.008
-203.377	301.743	0.095	0.173
-202.363	-91.612	0.212	0.060
-201.348	518.212	-0.151	0.350
-200.333	100.140	0.180	0.207
-199.319	-200.000	-0.014	-0.124
-198.304	55.266	-0.102	0.098
-197.290	107.059	0.228	-0.267
-196.275	149.536	0.048	0.064
-195.260	99.899	-0.045	0.052
-194.246	-18.636	0.055	0.034
-193.231	-200.000	0.004	-0.142
-192.217	-63.783	0.353	-0.143
-191.202	800.000	0.066	0.203
-190.187	-200.000	-0.000	-0.139
-189.173	-200.000	-0.094	0.427
-188.158	-200.000	-0.005	0.285
-187.144	-151.094	-0.129	0.010
-186.129	-38.942	0.211	0.110
-185.114	10.645	-0.071	0.054
-184.100	800.000	-0.092	0.281
-183.085	-183.674	0.189	0.003
-182.071	-200.000	0.053	0.309
-181.056	584.957	-0.082	0.198
-180.042	-200.000	0.021	0.238
-179.027	4.412	-0.243	-0.176
-178.012	-88.580	-0.213	-0.063
-176.998	-12.845	-0.139	-0.089
-175.983	6.874	-0.156	0.115
-174.969	-179.169	0.253	0.006
-173.954	439.226	0.149	0.321
-172.939	-46.061	0.144	0.070
-171.925	17.450	-0.233	0.183
-170.910	49.397	0.318	0.295
-169.896	-57.114	-0.316	0.137
-168.881	-89.306	-0.322	0.094
-167.866	-36.442	0.059	-0.031
-166.852	-200.000	-0.034	0.218
-165.837	-200.000	-0.018	-0.424
-164.823	-94.438	-0.134	0.036
-163.808	-116.447	0.453	-0.083
-162.793	-200.000	0.034	0.261
-161.779	-0.088	0.127	0.090
-160.764	520.283	-0.045	0.105
-159.750	244.951	-0.107	-0.178
-158.735	126.472	0.049	-0.062
-157.720	800.000	-0.139	0.457
-156.706	109.588	-0.131	-0.155
-155.691	-200.000	-0.024	-0.252
-154.677	-67.115	0.122	-0.048
-153.662	52.078	-0.073	-0.069
-152.647	372.005	-0.098	0.196
-151.633	294.011	-0.237	0.427
-150.618	-149.468	-0.435	-0.034
-149.604	180.509	0.208	0.301
-148.589	8.771	-0.268	-0.199
-147.574	-126.022	-0.521	-0.077
-146.560	-97.491	0.191	0.049
-145.545	-200.000	0.030	0.230
-144.531	-200.000	0.003	0.152
-143.516	520.666	0.032	-0.075
-142.502	57.309	-0.108	-0.104
-141.487	-200.000	-0.005	0.040
-140.472	-62.560	-0.309	0.127
-139.458	-200.000	-0.054	-0.282
-138.443	551.679	0.119	-0.283
-137.429	-36.551	-0.393	-0.209
-136.414	800.000	-0.129	0.355
-135.399	-200.000	-0.009	0.184
-134.385	-99.392	-0.344	-0.086
-133.370	-43.397	0.191	-0.095
-132.356	130.563	0.119	0.150
-131.341	-200.000	0.005	0.102
-130.326	6.170	0.180	0.132
-129.312	-160.725	0.304	-0.016
-128.297	330.215	-0.034	0.064
-127.283	800.000	0.085	-0.361
-126.268	143.390	0.123	-0.161
-125.253	36.026	-0.264	0.230
-124.239	119.400	-0.247	-0.302
-123.224	-200.000	0.041	-0.192
-122.210	-105.483	-0.283	-0.063
-121.195	-200.000	0.020	-0.149
-120.180	496.886	0.080	-0.181
