DTS Sentinel unit serial number:	SN413079Multiplexer serial number:	ORYXHardware model number:	OX4-SRSoftware version number:	ORYX F/W v4.00 Oryx Data Collector v3.7.2.0data status	okinstallation	princeton_trtdifferential loss correction	single-endedforward channel	channel 2reverse channel	N/Adate	2019/09/12time	20:07:49forward acquisition time	15.00reverse acquisition time	0.00gamma	496.2192k internal	0.2328k external	0.2328temperature offset calibration	1.0141default loss term (dB/km)	0.3790temperature slope calibration	1.0000multiplexer offset coefficient	1.0000multiplexer slope coefficient	1.0000fibre end	0.00T internal ref (°C)	31.69T ext. ref 1 (°C)	3.45T ext. ref 2 (°C)	26.35length (m)	temperature (°C)	Stokes	anti-Stokes-747.200	-17.306	1.017	-0.646
-746.185	58.128	-0.416	0.411
-745.171	89.765	0.317	0.357
-744.156	100.180	-0.190	0.222
-743.142	-45.144	-0.397	0.199
-742.127	-44.151	0.505	0.256
-741.112	-200.000	-0.007	-0.423
-740.098	50.425	0.417	0.397
-739.083	-57.676	0.637	0.281
-738.069	-100.870	0.742	-0.184
-737.054	57.859	0.654	0.644
-736.039	124.155	-0.303	-0.383
-735.025	-84.611	0.206	0.066
-734.010	-138.133	-0.473	-0.053
-732.996	-139.135	-0.305	-0.033
-731.981	-78.615	-0.611	0.210
-730.966	194.317	0.245	0.373
-729.952	100.341	-0.375	0.438
-728.937	800.000	0.088	0.380
-727.923	428.452	-0.154	-0.335
-726.908	-200.000	-0.062	-0.340
-725.894	-200.000	-0.038	-0.201
-724.879	-14.784	-0.288	-0.186
-723.864	-112.559	-0.379	0.076
-722.850	-37.609	-0.472	-0.253
-721.835	-123.804	-0.551	-0.088
-720.821	800.000	-0.047	-0.162
-719.806	-73.146	-0.279	-0.103
-718.791	-35.867	0.488	-0.266
-717.777	-106.963	-0.628	-0.140
-716.762	-200.000	0.086	-0.532
-715.748	-200.000	-0.012	-0.198
-714.733	-36.830	0.315	-0.170
-713.718	714.425	-0.265	-0.708
-712.704	-65.479	0.456	-0.184
-711.689	-64.018	0.658	0.270
-710.675	-200.000	0.037	0.515
-709.660	463.055	-0.354	-0.795
-708.645	-138.673	0.379	-0.042
-707.631	140.575	-0.123	0.164
-706.616	-145.924	-0.489	0.044
-705.602	-200.000	0.025	-0.124
-704.587	303.659	-0.484	0.903
-703.572	-200.000	0.028	0.869
-702.558	555.984	0.230	-0.557
-701.543	-131.739	0.553	0.073
-700.529	-2.188	0.744	0.526
-699.514	-92.268	-0.647	-0.184
-698.499	-200.000	-0.030	-0.328
-697.485	-1.066	-0.565	0.402
-696.470	-131.748	0.282	0.037
-695.456	-41.897	0.518	0.267
-694.441	-58.278	-0.275	0.120
-693.426	189.977	-0.515	-0.777
-692.412	800.000	0.269	-0.998
-691.397	-154.442	0.474	0.032
-690.383	-2.544	-0.394	0.278
-689.368	797.913	0.221	0.612
-688.354	131.799	-0.370	-0.478
-687.339	84.053	0.127	0.140
-686.324	-200.000	0.084	-0.407
-685.310	-97.502	0.419	0.110
-684.295	-128.985	-0.954	0.134
-683.281	756.353	0.187	-0.508
-682.266	-136.384	-0.245	0.029
-681.251	800.000	0.233	0.685
-680.237	311.324	-0.388	-0.732
-679.222	-81.205	-0.281	0.093
-678.208	-14.844	0.380	0.245
-677.193	-26.664	0.662	-0.389
-676.178	800.000	0.106	-0.423
-675.164	30.242	0.471	-0.404
-674.149	-155.606	-0.827	-0.053
-673.135	149.274	-0.593	-0.806
-672.120	-200.000	0.035	-0.232
-671.105	12.400	-0.347	0.268
-670.091	23.282	0.140	0.116
-669.076	-29.925	-0.330	0.189
-668.062	-200.000	0.023	-0.445
-667.047	-42.596	-0.137	-0.070
-666.032	-136.920	0.534	0.062
-665.018	-37.560	-0.779	-0.417
-664.003	-200.000	0.071	0.340
-662.989	63.925	-0.619	-0.625
-661.974	-91.672	0.099	-0.028
-660.959	-21.587	0.463	-0.284
-659.945	455.944	0.095	-0.211
-658.930	6.376	-0.386	-0.288
-657.916	5.066	-0.866	0.640
-656.901	272.989	0.323	0.573
-655.886	-200.000	0.028	0.660
-654.872	800.000	-0.187	0.727
-653.857	-29.279	0.423	0.243
-652.843	-200.000	-0.049	-0.237
-651.828	398.336	0.114	-0.240
-650.814	-200.000	-0.098	-0.569
-649.799	6.624	0.068	-0.051
-648.784	123.055	-0.397	-0.499
-647.770	800.000	0.082	0.271
-646.755	201.382	0.609	-0.942
-645.741	82.798	-0.593	-0.647
-644.726	316.796	-0.346	0.657
-643.711	266.865	0.289	-0.508
-642.697	181.324	0.185	-0.273
-641.682	58.800	-0.627	0.618
-640.668	-141.365	-0.308	0.031
-639.653	-54.455	-0.574	0.261
-638.638	-136.227	-1.239	0.145
-637.624	-200.000	-0.115	-0.968
-636.609	-91.503	0.203	0.058
-635.595	121.041	0.170	0.213
-634.580	-93.371	0.522	0.145
-633.565	99.618	0.319	-0.370
-632.551	-81.743	0.407	-0.134
-631.536	-152.804	0.528	0.038
-630.522	41.253	0.323	0.293
-629.507	3.211	-0.475	-0.347
-628.492	-200.000	0.007	-0.352
-627.478	-200.000	-0.008	-0.615
-626.463	184.929	-0.379	0.564
-625.449	-200.000	0.045	0.661
-624.434	-127.948	-0.934	0.135
-623.419	54.093	0.237	0.229
-622.405	287.584	0.368	-0.667
-621.390	-13.112	0.445	0.290
-620.376	377.969	-0.355	-0.728
-619.361	-121.385	-0.510	0.085
-618.346	-72.973	-0.196	0.072
-617.332	-64.103	-0.482	0.197
-616.317	173.966	0.056	-0.081
-615.303	-200.000	-0.049	-0.278
-614.288	138.756	0.187	0.247
-613.273	-11.813	0.560	-0.369
-612.259	28.924	-0.557	-0.473
-611.244	-94.564	-0.275	-0.075
-610.230	-127.451	-0.309	0.045
-609.215	74.224	0.297	0.313
-608.201	426.072	-0.171	0.369
-607.186	-200.000	0.166	-0.841
-606.171	-200.000	0.001	0.423
-605.157	-114.905	-0.264	0.050
-604.142	-200.000	-0.060	-0.832
-603.128	680.238	-0.085	0.221
-602.113	-34.303	0.471	-0.259
-601.098	101.954	0.813	0.951
-600.084	-63.833	0.148	0.061
-599.069	-100.708	0.142	-0.035
-598.055	282.944	-0.191	0.344
-597.040	-82.090	-0.795	-0.260
-596.025	226.407	-0.331	-0.539
-595.011	-35.968	0.541	0.293
-593.996	-59.593	-0.525	0.226
-592.982	800.000	-0.161	0.524
-591.967	-200.000	-0.045	0.764
-590.952	-46.190	0.481	0.237
-589.938	-172.118	0.376	0.012
-588.923	-56.515	-0.311	-0.138
-587.909	-101.249	-0.327	0.080
-586.894	34.810	-0.358	-0.313
-585.879	-196.676	-0.968	0.006
-584.865	-134.991	0.397	-0.048
-583.850	-200.000	-0.371	-0.002
-582.836	-42.572	0.591	-0.301
-581.821	133.326	-0.543	-0.702
-580.806	436.923	-0.312	0.681
-579.792	-87.208	1.271	-0.387
-578.777	-116.339	-1.029	0.191
-577.763	124.343	-0.457	-0.575
-576.748	137.303	0.385	0.504
-575.733	-200.000	0.063	0.459
-574.719	4.814	-0.666	-0.490
-573.704	-122.500	0.288	0.047
-572.690	-200.000	0.021	0.309
-571.675	-200.000	-0.001	0.354
-570.661	252.081	0.093	-0.159
-569.646	-141.011	0.443	-0.045
-568.631	86.738	0.287	-0.317
-567.617	800.000	-0.325	0.908
-566.602	-200.000	0.113	-0.844
-565.588	217.725	0.391	0.625
-564.573	-94.460	0.257	-0.070
-563.558	800.000	-0.121	-0.515
-562.544	-200.000	0.002	-0.316
-561.529	800.000	0.089	0.257
-560.515	-1.352	0.612	0.432
-559.500	518.673	0.168	0.394
-558.485	-200.000	-0.058	-0.758
-557.471	392.857	-0.425	-0.885
-556.456	-146.172	-0.196	-0.017
-555.442	-103.995	0.366	0.085
-554.427	49.883	0.230	0.217
-553.412	236.198	-0.203	0.335
-552.398	21.000	0.377	-0.306
-551.383	-200.000	-0.031	-0.685
-550.369	-29.433	0.302	0.172
-549.354	343.354	0.217	0.425
-548.339	-9.372	-0.298	-0.199
-547.325	-51.367	-0.508	-0.238
-546.310	-20.102	-0.359	0.222
-545.296	-108.343	0.522	-0.113
-544.281	800.000	0.107	0.423
-543.266	157.804	-0.277	0.383
-542.252	-27.396	-0.437	-0.254
-541.237	-9.279	0.473	0.316
-540.223	-4.399	-0.281	-0.194
-539.208	282.142	0.284	-0.509
-538.193	3.422	-0.555	-0.404
-537.179	-23.754	-0.239	-0.143
-536.164	438.220	0.224	0.488
-535.150	800.000	0.046	0.178
-534.135	-5.899	0.167	-0.114
-533.121	-200.000	-0.082	-0.379
-532.106	215.175	0.303	0.480
-531.091	-154.488	-0.410	0.027
-530.077	141.731	-0.077	0.101
-529.062	449.491	0.213	0.470
-528.048	-133.151	-0.581	0.073
-527.033	-102.631	-0.764	-0.182
-526.018	144.836	0.642	-0.858
-525.004	-29.462	-0.343	0.196
-523.989	155.563	-0.302	-0.415
-522.975	4.755	0.336	0.246
-521.960	-63.915	0.706	0.288
-520.945	271.647	0.516	-0.908
-519.931	32.273	-1.015	-0.875
-518.916	-53.806	-0.709	0.323
-517.902	130.816	-0.315	0.403
-516.887	86.527	0.394	-0.434
-515.872	-43.981	-0.490	-0.246
-514.858	-127.625	0.640	0.093
-513.843	-200.000	0.048	0.280
-512.829	-106.526	0.652	0.145
-511.814	129.559	0.264	0.337
-510.799	290.622	0.112	-0.203
-509.785	-84.092	-0.150	-0.048
-508.770	800.000	-0.318	1.016
-507.756	-97.525	-0.605	0.157
-506.741	83.600	0.541	-0.589
-505.726	-138.341	-0.284	0.031
-504.712	44.853	0.496	-0.455
-503.697	-200.000	0.030	0.376
-502.683	53.499	0.324	-0.310
-501.668	585.360	-0.088	0.215
-500.653	9.397	0.470	0.355
-499.639	-33.613	-0.589	-0.325
-498.624	-41.327	0.317	-0.163
-497.610	-200.000	0.152	-0.765
-496.595	375.966	-0.218	0.444
-495.581	97.365	-0.211	-0.242
-494.566	14.078	0.568	-0.442
-493.551	0.138	-0.107	0.076
-492.537	800.000	0.171	0.477
-491.522	125.348	0.098	0.124
-490.508	-200.000	-0.088	0.462
-489.493	213.658	0.183	0.288
-488.478	-200.000	-0.082	0.607
-487.464	-59.684	-0.935	0.400
-486.449	-142.938	-0.772	0.075
-485.435	-200.000	-0.043	-0.552
-484.420	-84.230	-0.408	-0.129
-483.405	199.456	0.404	0.618
-482.391	-200.000	-0.038	0.402
-481.376	-85.691	-0.209	-0.065
-480.362	-80.655	0.541	0.180
-479.347	641.451	-0.225	0.573
-478.332	257.730	0.283	0.485
-477.318	-200.000	0.206	1.002
-476.303	-109.380	0.537	-0.113
-475.289	800.000	0.114	0.455
-474.274	-83.646	0.343	0.109
-473.259	-191.843	1.119	-0.011
-472.245	-200.000	0.000	-0.041
-471.230	-141.786	-0.838	0.084
-470.216	46.954	-0.283	-0.262
-469.201	-44.270	0.318	-0.159
-468.186	425.205	0.292	0.627
-467.172	194.397	-0.069	0.104
-466.157	291.201	0.189	0.343
-465.143	-39.357	0.632	-0.330
-464.128	-200.000	0.032	-0.627
-463.113	583.346	-0.275	0.674
-462.099	-200.000	0.024	0.201
-461.084	-128.330	-0.593	0.084
-460.070	0.255	0.550	0.391
-459.055	-97.924	0.213	-0.055
-458.040	800.000	0.180	0.564
-457.026	-144.188	-0.372	-0.035
-456.011	428.890	0.118	-0.254
-454.997	-136.767	0.596	-0.068
-453.982	36.750	-0.866	-0.762
-452.968	-39.173	-0.604	0.316
-451.953	-17.289	-0.499	-0.313
-450.938	-166.461	0.615	-0.026
-449.924	10.700	0.338	0.257
-448.909	14.200	-0.769	0.597
-447.895	-50.772	0.255	-0.120
-446.880	-45.307	0.482	0.238
-445.865	60.209	-0.224	0.221
-444.851	25.503	0.146	0.121
-443.836	-14.264	0.398	0.255
-442.822	-200.000	-0.020	0.095
-441.807	137.881	0.180	-0.235
-440.792	40.017	0.408	0.365
-439.778	-200.000	0.034	0.287
-438.763	-49.476	0.678	0.322
-437.749	-200.000	0.081	-0.547
-436.734	-108.457	0.689	-0.148
-435.719	-144.955	-0.539	-0.049
-434.705	-56.304	0.306	0.136
-433.690	105.404	-0.236	-0.278
-432.676	-19.677	-0.917	-0.564
-431.661	-32.364	0.617	0.342
-430.646	346.497	-0.342	-0.669
-429.632	-200.000	-0.019	0.470
-428.617	800.000	0.012	0.045
-427.603	-35.888	1.101	-0.593
-426.588	241.561	-0.532	-0.885
-425.573	-200.000	0.121	-0.613
-424.559	130.862	0.412	0.526
-423.544	-67.746	-0.396	-0.154
-422.530	800.000	-0.114	-0.421
-421.515	800.000	-0.190	-0.664
-420.500	800.000	-0.208	-0.620
-419.486	613.151	0.151	-0.375
-418.471	82.529	-0.267	0.289
-417.457	-148.024	0.671	0.055
-416.442	-8.469	0.075	0.050
-415.428	-138.470	-0.744	-0.081
-414.413	-26.048	0.269	-0.157
-413.398	23.211	-0.349	-0.285
-412.384	-89.787	-0.337	-0.098
-411.369	147.663	-0.464	-0.622
-410.355	44.159	0.257	0.234
-409.340	-71.625	-0.463	-0.172
-408.325	-107.116	0.651	-0.143
-407.311	-121.782	-0.211	-0.035
-406.296	15.465	0.405	0.317
-405.282	-200.000	-0.074	0.378
-404.267	140.370	-0.244	0.320
-403.252	-149.773	0.448	0.035
-402.238	139.182	-0.248	0.324
-401.223	-170.929	1.023	-0.035
-400.209	94.135	0.079	-0.089
-399.194	-24.147	0.548	0.325
-398.179	9.421	0.196	-0.148
-397.165	-20.502	0.137	0.084
-396.150	-200.000	-0.033	0.420
-395.136	-34.373	0.363	0.198
-394.121	130.227	-0.251	0.319
-393.106	307.871	0.335	0.621
-392.092	38.015	0.311	0.275
-391.077	800.000	0.072	-0.201
-390.063	-200.000	-0.017	0.284
-389.048	-107.769	0.368	-0.080
-388.033	-14.006	-0.368	-0.236
-387.019	275.524	-0.147	-0.259
-386.004	-173.223	0.470	-0.014
-384.990	81.439	-0.170	-0.183
-383.975	295.871	0.118	-0.215
-382.960	-109.602	-0.640	-0.134
-381.946	-86.654	-0.690	0.210
-380.931	101.685	0.822	0.953
-379.917	-200.000	0.112	-0.511
-378.902	294.958	-0.278	-0.504
-377.888	-200.000	0.075	0.458
-376.873	-147.829	-0.252	0.021
-375.858	-200.000	-0.014	0.587
-374.844	-200.000	-0.035	0.166
-373.829	-40.426	-0.485	0.250
-372.815	-52.247	-0.882	0.406
-371.800	-200.000	-0.043	0.692
-370.785	-200.000	0.028	0.368
-369.771	110.229	-0.389	-0.463
-368.756	-52.943	-0.404	0.185
-367.742	-5.394	-0.255	0.174
-366.727	800.000	-0.192	-0.832
-365.712	-200.000	0.012	-0.287
-364.698	-76.779	0.237	-0.082
-363.683	-200.000	0.085	-0.510
-362.669	-172.900	-0.220	0.007
-361.654	-200.000	-0.055	0.263
-360.639	187.757	0.047	-0.070
-359.625	80.901	-0.505	-0.540
-358.610	-187.564	-0.810	-0.011
-357.596	-47.722	-0.314	0.151
-356.581	-22.636	0.150	-0.090
-355.566	101.040	0.285	-0.329
-354.552	188.612	-0.178	0.264
-353.537	200.275	0.098	-0.150
-352.523	32.666	-0.242	-0.208
-351.508	178.009	-0.220	0.318
-350.493	-200.000	0.133	1.123
-349.479	-200.000	-0.001	0.122
-348.464	9.181	0.276	-0.207
-347.450	167.383	-0.271	-0.382
-346.435	-108.127	0.523	0.112
-345.420	-200.000	-0.055	-0.247
-344.406	-200.000	0.019	0.345
-343.391	-7.085	-0.346	0.233
-342.377	471.094	-0.113	-0.253
-341.362	290.768	0.554	-1.000
-340.348	-70.751	-0.485	0.182
-339.333	-86.821	-0.556	0.168
-338.318	-51.647	0.906	-0.419
-337.304	-176.191	0.980	-0.026
-336.289	-133.956	0.390	-0.048
-335.275	-108.588	-1.128	-0.240
-334.260	800.000	0.079	-0.293
-333.245	10.841	0.238	0.181
-332.231	-200.000	0.135	0.942
-331.216	260.377	-0.523	0.897
-330.202	11.480	1.242	0.944
-329.187	251.914	-0.593	-1.001
-328.172	569.408	-0.233	0.562
-327.158	136.350	0.178	0.230
-326.143	-70.597	-0.501	0.188
-325.129	-119.728	0.170	0.029
-324.114	353.410	0.356	-0.700
-323.099	-200.000	0.001	-0.197
-322.085	109.304	-0.520	0.617
-321.070	-106.076	0.571	-0.127
-320.056	-95.585	-0.288	0.077
-319.041	-57.649	0.649	0.282
-318.026	-132.506	0.687	0.088
-317.012	-32.858	-0.148	-0.082
-315.997	517.226	0.197	-0.457
-314.983	800.000	0.111	-0.345
-313.968	161.848	-0.291	-0.404
-312.953	481.266	-0.308	-0.692
-311.939	233.972	-0.221	0.360
-310.924	101.377	-0.528	0.610
-309.910	303.976	-0.212	0.389
-308.895	-190.199	1.029	-0.011
-307.880	-97.828	-0.265	0.068
-306.866	800.000	0.160	-0.530
-305.851	-33.079	-0.529	-0.290
-304.837	-200.000	-0.043	-0.261
-303.822	110.761	0.524	0.624
-302.807	-67.844	-0.493	-0.191
-301.793	106.023	-0.340	-0.399
-300.778	-71.541	-0.457	0.169
-299.764	-118.629	-0.171	-0.030
-298.749	38.159	-0.273	-0.240
-297.735	-200.000	-0.013	-0.742
-296.720	800.000	-0.053	-0.190
-295.705	-200.000	0.004	0.064
-294.691	-5.062	0.440	0.300
-293.676	-134.971	0.135	0.016
-292.662	-25.337	0.892	0.522
-291.647	-148.026	-0.221	-0.018
-290.632	-135.536	0.636	0.075
-289.618	800.000	0.106	-0.402
-288.603	609.676	0.232	-0.573
-287.589	-200.000	0.202	-0.960
-286.574	-71.228	0.447	0.166
-285.559	-11.451	0.252	-0.164
-284.545	-79.925	-0.264	0.088
-283.530	66.501	0.152	0.153
-282.516	59.905	0.482	-0.471
-281.501	-33.197	0.339	0.186
-280.486	-14.912	-0.249	-0.158
-279.472	-61.281	-0.752	0.313
-278.457	549.007	0.292	-0.691
-277.443	-87.861	-1.086	0.323
-276.428	-200.000	0.113	-0.966
-275.413	71.353	-0.312	0.320
-274.399	346.818	-0.108	-0.211
-273.384	157.432	0.298	0.408
-272.370	-200.000	0.036	0.417
-271.355	50.582	0.936	-0.876
-270.340	-47.620	-1.023	-0.491
-269.326	-200.000	0.040	0.374
-268.311	-6.361	-0.294	0.198
-267.297	-89.085	-0.775	-0.227
-266.282	122.582	-0.085	0.105
-265.267	-40.557	0.237	0.122
-264.253	-100.344	-0.557	0.137
-263.238	800.000	-0.116	0.385
-262.224	142.806	0.236	0.310
-261.209	-200.000	-0.042	0.649
-260.195	-98.847	0.276	0.069
-259.180	25.249	0.429	-0.352
-258.165	-164.109	0.335	0.015
-257.151	-200.000	0.134	-0.786
-256.136	-72.323	0.714	0.261
-255.122	-200.000	-0.254	-1.269
-254.107	-144.521	0.440	0.040
-253.092	800.000	0.257	-0.785
-252.078	-51.833	0.820	0.377
-251.063	327.758	0.599	1.137
-250.049	414.958	-0.151	0.317
-249.034	68.741	-0.245	0.249
-248.019	-70.427	-0.131	-0.049
-247.005	2.732	-0.749	0.537
-245.990	-71.822	0.807	0.297
-244.976	59.042	0.219	0.213
-243.961	11.564	0.410	0.310
-242.946	-1.858	0.729	0.507
-241.932	-5.416	0.363	0.246
-240.917	75.838	-0.495	-0.517
-239.903	47.220	0.587	0.540
-238.888	213.599	-0.349	0.546
-237.873	46.510	-0.643	-0.589
-236.859	248.173	0.179	0.299
-235.844	-136.168	-0.199	0.023
-234.830	-113.067	-0.063	0.012
-233.815	-20.144	-0.585	-0.356
-232.800	-173.058	-0.304	-0.009
-231.786	55.161	-0.411	-0.393
-230.771	167.345	-0.292	0.410
-229.757	26.542	-0.300	-0.248
-228.742	88.549	-0.323	-0.354
-227.727	345.752	-0.074	-0.144
-226.713	-140.490	0.860	0.088
-225.698	800.000	-0.293	0.866
-224.684	558.537	-0.287	0.683
-223.669	-93.517	0.686	-0.187
-222.655	37.671	-0.121	0.106
-221.640	-0.750	0.207	0.145
-220.625	-200.000	0.136	-0.597
-219.611	434.358	0.084	-0.179
-218.596	800.000	0.063	-0.266
-217.582	-130.125	-0.196	-0.026
-216.567	-94.895	0.680	0.182
-215.552	129.051	-0.443	-0.558
-214.538	-8.805	0.428	0.283
-213.523	-200.000	-0.057	-0.462
-212.509	-113.424	-0.786	0.152
-211.494	-85.725	-0.729	-0.223
-210.479	48.720	-0.100	0.093
-209.465	201.315	-0.172	-0.261
-208.450	800.000	-0.146	0.534
-207.436	-1.025	-0.643	0.449
-206.421	3.593	0.287	-0.206
-205.406	-50.269	0.191	-0.089
-204.392	-14.679	-0.318	-0.201
-203.377	457.331	-0.212	-0.464
-202.363	-138.234	-0.975	-0.107
-201.348	290.677	0.337	-0.605
-200.333	250.570	-0.087	-0.145
-199.319	-140.088	-0.611	0.063
-198.304	97.250	-0.345	-0.391
-197.290	379.086	0.398	-0.804
-196.275	88.605	0.256	-0.280
-195.260	520.260	0.236	0.545
-194.246	-13.471	-0.336	-0.215
-193.231	800.000	-0.337	1.016
-192.217	-109.431	0.401	0.084
-191.202	-108.720	0.885	-0.187
-190.187	-14.619	0.208	-0.132
-189.173	-131.555	0.772	0.100
-188.158	-13.573	-0.452	0.288
-187.144	12.620	0.268	-0.204
-186.129	-108.442	0.057	0.012
-185.114	-200.000	-0.270	1.291
-184.100	-80.201	-0.754	-0.249
-183.085	-200.000	-0.022	-0.676
-182.071	-120.538	0.370	-0.062
-181.056	-200.000	0.124	0.719
-180.042	52.646	0.809	0.761
-179.027	17.188	-0.436	-0.341
-178.012	195.816	-0.275	0.413
-176.998	-91.399	0.356	-0.100
-175.983	-143.014	0.438	-0.042
-174.969	110.790	0.398	0.472
-173.954	-126.370	-0.231	0.034
-172.939	-163.743	0.649	0.030
-171.925	680.128	0.092	0.237
-170.910	800.000	-0.114	0.457
-169.896	-200.000	0.105	-0.869
-168.881	-85.288	-0.294	0.090
-167.866	99.068	-0.258	-0.293
-166.852	-200.000	-0.045	-0.246
-165.837	29.228	-0.136	0.113
-164.823	-13.254	-0.501	0.321
-163.808	-200.000	0.029	0.434
-162.793	800.000	0.170	-0.532
-161.779	-120.251	-0.396	0.067
-160.764	-0.339	0.797	-0.558
-159.750	-112.610	0.803	-0.157
-158.735	-11.759	0.101	0.065
-157.720	-131.616	-0.610	-0.079
-156.706	-200.000	0.051	0.781
-155.691	-200.000	-0.008	-0.862
-154.677	130.814	-0.231	0.292
-153.662	-200.000	-0.110	-0.825
-152.647	-27.050	0.413	0.237
-151.633	-200.000	0.083	-0.387
-150.618	-0.660	0.330	-0.230
-149.604	679.502	0.182	0.465
-148.589	20.769	0.735	0.586
-147.574	385.443	-0.395	-0.803
-146.560	398.486	0.172	-0.353
-145.545	800.000	-0.107	0.326
-144.531	-200.000	0.031	0.963
-143.516	138.217	0.428	-0.552
-142.502	230.102	0.449	-0.722
-141.487	42.601	0.723	-0.647
-140.472	246.806	-0.201	-0.334
-139.458	-200.000	-0.052	-0.304
-138.443	589.032	-0.439	-1.063
-137.429	-142.077	0.372	0.036
-136.414	-48.233	-1.006	-0.478
-135.399	-122.157	0.582	0.094
-134.385	13.486	0.616	-0.470
-133.370	322.598	0.169	0.318
-132.356	-99.809	-0.396	-0.098
-131.341	-192.752	-0.606	-0.005
-130.326	-58.907	1.020	0.434
-129.312	191.119	-0.642	-0.950
-128.297	-116.203	-0.710	0.130
-127.283	-0.222	-0.424	0.296
-126.268	-39.609	0.657	0.338
-125.253	518.713	0.287	-0.662
-124.239	-124.323	0.276	-0.042
-123.224	-11.567	-0.685	-0.443
-122.210	40.723	-0.588	-0.522
-121.195	-70.070	-0.540	-0.202
