DTS Sentinel unit serial number:	SN413079Multiplexer serial number:	ORYXHardware model number:	OX4-SRSoftware version number:	ORYX F/W v4.00 Oryx Data Collector v3.7.2.0data status	okinstallation	princeton_trtdifferential loss correction	single-endedforward channel	channel 2reverse channel	N/Adate	2019/09/18time	17:15:34forward acquisition time	60.00reverse acquisition time	0.00gamma	496.2192k internal	0.2300k external	0.2300temperature offset calibration	1.0015default loss term (dB/km)	0.3790temperature slope calibration	1.0000multiplexer offset coefficient	1.0000multiplexer slope coefficient	1.0000fibre end	0.00T internal ref (°C)	39.84T ext. ref 1 (°C)	0.89T ext. ref 2 (°C)	35.82length (m)	temperature (°C)	Stokes	anti-Stokes-747.200	-200.000	-0.039	-0.453
-746.185	-81.091	0.212	0.072
-745.171	800.000	0.055	0.216
-744.156	284.163	-0.178	0.326
-743.142	-200.000	-0.018	0.311
-742.127	-127.078	0.152	0.023
-741.112	574.949	-0.066	0.165
-740.098	247.250	0.007	0.012
-739.083	71.756	0.145	0.154
-738.069	321.397	-0.080	0.156
-737.054	-115.704	-0.261	-0.050
-736.039	-115.975	-0.500	0.095
-735.025	34.776	0.054	0.048
-734.010	-47.472	-0.356	0.177
-732.996	72.139	-0.051	-0.054
-731.981	564.978	-0.049	-0.120
-730.966	-200.000	0.031	-0.312
-729.952	-139.611	0.185	-0.020
-728.937	-79.016	-0.391	-0.136
-727.923	674.912	-0.053	0.140
-726.908	-31.384	-0.237	-0.136
-725.894	-22.824	-0.099	-0.061
-724.879	570.837	-0.079	0.196
-723.864	-116.676	0.320	-0.060
-722.850	-94.815	-0.221	-0.061
-721.835	2.148	0.108	0.080
-720.821	-62.798	-0.374	0.158
-719.806	800.000	0.073	0.269
-718.791	-160.577	-0.282	-0.015
-717.777	-167.908	-0.342	0.014
-716.762	190.932	0.063	0.097
-715.748	-200.000	0.007	0.227
-714.733	103.137	0.105	0.126
-713.718	323.299	0.108	0.209
-712.704	-200.000	0.010	-0.247
-711.689	-100.191	-0.231	0.059
-710.675	156.852	-0.123	-0.173
-709.660	-107.929	0.322	0.071
-708.645	-200.000	-0.007	-0.113
-707.631	-200.000	0.005	-0.107
-706.616	-89.108	0.211	0.064
-705.602	-200.000	-0.005	-0.050
-704.587	185.161	-0.039	0.059
-703.572	-5.593	0.328	-0.229
-702.558	305.563	-0.100	-0.189
-701.543	65.659	0.104	-0.107
-700.529	43.157	-0.180	-0.168
-699.514	261.054	-0.192	0.339
-698.499	267.326	0.212	0.377
-697.485	68.437	0.156	0.163
-696.470	-59.374	-0.169	-0.074
-695.456	414.068	-0.116	0.250
-694.441	-139.691	-0.198	-0.021
-693.426	75.312	-0.084	0.090
-692.412	-83.300	0.036	0.012
-691.397	81.977	-0.205	-0.226
-690.383	800.000	0.018	-0.059
-689.368	-16.437	0.120	0.078
-688.354	-95.495	-0.182	-0.050
-687.339	-200.000	-0.012	0.066
-686.324	155.374	-0.114	-0.159
-685.310	-68.089	0.348	0.138
-684.295	-200.000	0.093	-0.426
-683.281	800.000	0.080	-0.269
-682.266	-200.000	-0.002	0.145
-681.251	-125.545	0.141	0.022
-680.237	-200.000	-0.094	0.428
-679.222	-115.977	-0.105	-0.020
-678.208	-16.508	-0.089	0.057
-677.193	-78.974	-0.210	0.073
-676.178	610.124	-0.041	-0.103
-675.164	-200.000	0.051	0.385
-674.149	-161.490	-0.258	-0.014
-673.135	-84.221	0.141	0.046
-672.120	-200.000	-0.019	-0.142
-671.105	800.000	0.046	0.175
-670.091	-200.000	-0.008	-0.132
-669.076	-200.000	0.016	-0.165
-668.062	-175.421	0.276	0.008
-667.047	-59.338	0.262	0.115
-666.032	-145.474	0.209	0.019
-665.018	-83.514	-0.034	0.011
-664.003	-18.415	0.157	0.099
-662.989	68.833	0.098	-0.102
-661.974	156.736	0.097	-0.137
-660.959	-182.919	-0.184	-0.003
-659.945	-94.296	0.157	-0.044
-658.930	-200.000	-0.004	-0.279
-657.916	800.000	-0.086	-0.372
-656.901	-83.702	0.293	0.095
-655.886	-111.595	0.163	-0.034
-654.872	10.648	0.074	-0.057
-653.857	15.892	0.199	-0.159
-652.843	-200.000	-0.038	-0.432
-651.828	414.100	0.083	0.181
-650.814	-66.017	0.329	0.134
-649.799	-123.944	-0.272	-0.043
-648.784	-32.618	0.076	0.043
-647.770	-200.000	-0.014	-0.248
-646.755	-200.000	-0.059	-0.281
-645.741	-154.320	-0.214	0.015
-644.726	335.689	-0.104	-0.206
-643.711	800.000	-0.106	-0.325
-642.697	-115.194	0.029	-0.006
-641.682	85.101	-0.124	0.138
-640.668	-97.302	0.168	0.044
-639.653	393.905	0.153	-0.324
-638.638	-100.362	0.173	-0.044
-637.624	227.499	0.123	-0.204
-636.609	-19.711	-0.323	-0.203
-635.595	-200.000	-0.016	0.256
-634.580	800.000	-0.045	0.181
-633.565	-12.046	0.172	0.114
-632.551	107.166	-0.273	0.330
-631.536	-47.554	-0.139	-0.069
-630.522	168.183	-0.113	0.163
-629.507	-200.000	0.046	0.308
-628.492	613.728	-0.041	0.105
-627.478	-153.829	0.122	-0.008
-626.463	379.236	-0.081	-0.169
-625.449	-55.089	-0.151	-0.069
-624.434	-33.076	0.267	0.150
-623.419	-200.000	0.016	-0.145
-622.405	320.547	-0.153	-0.294
-621.390	22.079	-0.105	-0.087
-620.376	-129.329	0.343	-0.048
-619.361	800.000	0.081	0.329
-618.346	800.000	0.076	-0.247
-617.332	-200.000	-0.014	0.153
-616.317	-88.507	0.343	-0.104
-615.303	-200.000	0.019	-0.180
-614.288	-73.814	-0.374	-0.138
-613.273	800.000	0.015	0.064
-612.259	45.812	0.299	0.280
-611.244	2.242	0.244	-0.179
-610.230	96.973	-0.104	-0.121
-609.215	3.708	0.399	0.295
-608.201	800.000	-0.024	0.082
-607.186	78.456	-0.203	-0.220
-606.171	-200.000	0.006	-0.030
-605.157	-200.000	-0.034	0.187
-604.142	-94.726	0.212	-0.059
-603.128	-70.001	0.088	0.034
-602.113	-114.876	0.046	0.009
-601.098	232.499	-0.250	0.416
-600.084	-41.111	-0.205	-0.107
-599.069	-58.420	-0.143	-0.063
-598.055	-7.487	-0.157	-0.107
-597.040	34.125	-0.153	-0.135
-596.025	-45.188	-0.253	-0.128
-595.011	800.000	-0.032	0.097
-593.996	76.513	-0.209	0.225
-592.982	738.437	-0.021	-0.057
-591.967	-200.000	-0.021	-0.143
-590.952	800.000	-0.103	-0.378
-589.938	668.467	0.066	-0.174
-588.923	-200.000	-0.030	-0.134
-587.909	-118.536	-0.264	-0.047
-586.894	-200.000	-0.027	0.133
-585.879	-51.745	-0.363	-0.171
-584.865	233.140	0.094	-0.156
-583.850	353.168	-0.111	-0.222
-582.836	14.132	-0.102	0.081
-581.821	-200.000	-0.003	-0.129
-580.806	5.580	-0.188	-0.141
-579.792	93.928	0.115	-0.133
-578.777	-162.330	0.098	-0.005
-577.763	-16.738	-0.363	0.233
-576.748	-66.136	0.116	0.047
-575.733	-178.028	0.311	-0.008
-574.719	-118.040	-0.103	-0.019
-573.704	-167.624	-0.274	0.011
-572.690	56.491	-0.228	0.225
-571.675	-190.530	-0.304	0.003
-570.661	421.478	-0.077	0.168
-569.646	195.331	0.075	-0.116
-568.631	800.000	-0.103	-0.437
-567.617	68.082	-0.253	-0.263
-566.602	391.638	0.156	-0.328
-565.588	-102.786	-0.255	0.062
-564.573	303.440	0.111	-0.209
-563.558	640.935	-0.011	-0.027
-562.544	-200.000	-0.005	-0.058
-561.529	194.883	0.178	0.274
-560.515	-25.959	-0.207	0.123
-559.500	69.479	0.230	-0.239
-558.485	800.000	0.060	-0.229
-557.471	-62.839	0.176	-0.074
-556.456	-69.282	-0.135	0.052
-555.442	128.013	-0.025	0.032
-554.427	663.293	0.082	0.213
-553.412	-149.723	0.219	0.017
-552.398	217.032	-0.141	0.227
-551.383	-178.720	-0.284	0.007
-550.369	129.196	0.190	0.245
-549.354	82.203	-0.083	-0.092
-548.339	719.303	-0.158	-0.424
-547.325	619.382	-0.114	-0.290
-546.310	38.897	0.215	-0.194
-545.296	110.758	0.108	0.131
-544.281	118.654	0.290	-0.363
-543.266	-78.857	-0.450	-0.155
-542.252	-200.000	0.018	0.107
-541.237	800.000	-0.112	0.349
-540.223	-68.292	-0.071	-0.028
-539.208	88.513	0.327	-0.367
-538.193	-187.745	-0.238	-0.003
-537.179	-200.000	-0.045	0.282
-536.164	179.206	-0.090	0.134
-535.150	-95.862	0.056	0.015
-534.135	-28.487	-0.238	-0.139
-533.121	530.167	-0.109	0.260
-532.106	0.758	0.131	0.095
-531.091	-200.000	-0.033	-0.170
-530.077	152.255	-0.059	-0.081
-529.062	325.317	-0.079	0.152
-528.048	-119.800	-0.130	0.023
-527.033	-50.203	-0.089	0.043
-526.018	-200.000	0.042	0.188
-525.004	46.384	0.252	-0.237
-523.989	-127.605	-0.254	-0.037
-522.975	-37.272	-0.162	-0.087
-521.960	91.623	-0.111	-0.126
-520.945	-115.015	-0.067	0.013
-519.931	-145.325	0.165	0.015
-518.916	-13.360	-0.223	0.146
-517.902	32.131	0.169	0.148
-516.887	-200.000	-0.007	0.182
-515.872	800.000	0.075	0.325
-514.858	-55.373	-0.416	-0.189
-513.843	199.407	-0.200	-0.311
-512.829	-200.000	-0.012	0.122
-511.814	37.132	0.187	0.167
-510.799	315.129	0.079	0.151
-509.785	-200.000	-0.018	-0.127
-508.770	-93.730	0.041	-0.012
-507.756	742.589	-0.062	-0.170
-506.741	407.502	0.140	-0.299
-505.726	17.801	0.164	-0.132
-504.712	-100.420	0.302	-0.076
-503.697	-12.384	-0.340	-0.224
-502.683	15.620	0.338	-0.268
-501.668	-157.038	0.116	-0.007
-500.653	-127.111	-0.534	-0.079
-499.639	101.871	0.237	-0.280
-498.624	-141.751	0.239	0.024
-497.610	134.096	-0.098	0.129
-496.595	56.004	-0.278	-0.273
-495.581	-146.841	-0.166	0.014
-494.566	-5.042	0.139	-0.097
-493.551	-165.833	0.216	-0.009
-492.537	-66.871	0.410	0.164
-491.522	128.054	0.140	0.180
-490.508	-200.000	0.045	0.000
-489.493	257.137	0.059	0.102
-488.478	110.544	-0.131	0.159
-487.464	473.455	0.136	-0.309
-486.449	-113.637	0.342	0.068
-485.435	-44.609	0.317	0.160
-484.420	-60.286	0.044	-0.019
-483.405	-200.000	0.003	-0.025
-482.391	-22.381	-0.167	0.102
-481.376	54.183	-0.205	0.200
-480.362	250.674	-0.287	0.492
-479.347	42.618	0.187	0.172
-478.332	800.000	-0.040	0.141
-477.318	26.498	-0.398	0.336
-476.303	37.025	0.157	-0.140
-475.289	213.849	-0.049	0.078
-474.274	37.512	0.041	0.037
-473.259	-46.825	0.112	0.055
-472.245	264.863	-0.103	-0.182
-471.230	-71.809	-0.301	-0.113
-470.216	-46.944	0.239	-0.118
-469.201	22.779	-0.075	-0.062
-468.186	143.323	0.061	-0.081
-467.172	-95.383	-0.103	0.028
-466.157	1.027	0.004	0.003
-465.143	-34.193	0.170	-0.094
-464.128	-23.547	0.320	-0.194
-463.113	-184.374	-0.047	-0.001
-462.099	2.593	-0.106	0.077
-461.084	583.096	0.046	0.115
-460.070	-127.509	0.280	-0.041
-459.055	235.206	-0.140	0.233
-458.040	58.912	-0.185	0.183
-457.026	418.854	-0.087	0.188
-456.011	44.005	-0.254	0.234
-454.997	-47.870	0.111	0.054
-453.982	-65.944	-0.018	0.007
-452.968	-146.242	0.281	0.025
-451.953	800.000	-0.067	0.219
-450.938	-44.838	0.068	0.034
-449.924	16.724	0.294	-0.234
-448.909	800.000	-0.142	0.406
-447.895	-66.048	0.394	-0.159
-446.880	800.000	-0.182	-0.594
-445.865	41.062	0.166	-0.151
-444.851	102.410	-0.259	0.305
-443.836	34.465	0.145	0.128
-442.822	800.000	0.011	-0.039
-441.807	-38.126	-0.150	0.080
-440.792	-129.147	0.473	0.067
-439.778	-190.289	0.474	0.005
-438.763	-28.800	0.208	0.121
-437.749	123.298	0.099	-0.125
-436.734	60.028	0.095	-0.094
-435.719	13.634	0.267	0.209
-434.705	-118.300	-0.357	0.064
-433.690	-102.383	0.180	-0.044
-432.676	800.000	-0.015	0.048
-431.661	-66.876	-0.302	-0.120
-430.646	509.642	-0.032	-0.075
-429.632	223.459	-0.241	0.392
-428.617	120.557	-0.123	0.154
-427.603	78.934	-0.309	0.334
-426.588	601.839	-0.036	-0.091
-425.573	-119.077	0.433	0.076
-424.559	55.704	-0.040	0.039
-423.544	-22.517	-0.237	-0.145
-422.530	-200.000	0.025	0.252
-421.515	-200.000	0.061	0.296
-420.500	-200.000	0.007	-0.237
-419.486	-170.533	0.172	-0.006
-418.471	-49.354	0.123	-0.059
-417.457	-88.119	0.064	-0.019
-416.442	-200.000	-0.008	-0.397
-415.428	-20.122	0.287	0.178
-414.413	269.048	0.134	-0.237
-413.398	-200.000	-0.024	0.121
-412.384	-45.942	0.286	0.142
-411.369	-130.539	0.258	0.035
-410.355	75.750	-0.214	0.228
-409.340	40.418	0.040	0.036
-408.325	-200.000	0.014	0.093
-407.311	98.844	0.025	0.029
-406.296	46.204	-0.070	-0.065
-405.282	123.086	-0.211	-0.266
-404.267	-55.874	-0.340	0.153
-403.252	800.000	0.056	-0.204
-402.238	788.776	0.041	0.113
-401.223	800.000	0.037	-0.107
-400.209	-200.000	-0.015	-0.146
-399.194	-104.723	-0.509	-0.118
-398.179	-181.776	0.274	0.005
-397.165	51.771	0.135	-0.130
-396.150	-63.886	0.470	0.193
-395.136	-200.000	0.033	0.194
-394.121	21.263	0.110	-0.090
-393.106	-64.451	-0.320	-0.131
-392.092	800.000	0.039	-0.155
-391.077	435.482	0.070	0.152
-390.063	-200.000	-0.004	0.139
-389.048	268.275	0.195	0.343
-388.033	-46.758	0.423	-0.208
-387.019	358.779	0.160	-0.321
-386.004	33.529	0.221	0.193
-384.990	-200.000	-0.008	-0.261
-383.975	-200.000	-0.055	-0.294
-382.960	59.390	0.312	-0.309
-381.946	220.174	0.214	0.345
-380.931	20.873	0.354	0.289
-379.917	-132.556	0.211	0.027
-378.902	-51.298	0.219	0.103
-377.888	150.789	-0.046	-0.063
-376.873	-141.874	-0.248	0.025
-375.858	-76.299	0.424	0.150
-374.844	263.205	0.240	0.419
-373.829	67.468	-0.093	0.096
-372.815	800.000	0.037	-0.117
-371.800	-96.565	-0.153	0.041
-370.785	34.547	-0.075	-0.066
-369.771	800.000	0.063	0.271
-368.756	-200.000	-0.052	-0.286
-367.742	-101.440	0.191	-0.047
-366.727	119.552	0.160	0.200
-365.712	-200.000	-0.051	0.372
-364.698	13.785	0.083	-0.065
-363.683	-68.911	0.157	-0.061
-362.669	104.041	0.176	0.208
-361.654	-5.631	0.255	-0.176
-360.639	106.206	-0.171	0.204
-359.625	352.102	-0.066	-0.132
-358.610	458.488	0.078	-0.173
-357.596	-50.995	-0.284	-0.134
-356.581	800.000	0.124	-0.458
-355.566	-104.686	0.391	-0.090
-354.552	800.000	-0.015	-0.048
-353.537	-42.544	0.123	-0.063
-352.523	-200.000	0.007	-0.298
-351.508	-200.000	-0.048	-0.258
-350.493	-173.145	0.369	-0.011
-349.479	-126.348	0.140	0.021
-348.464	-200.000	0.025	0.128
-347.450	335.306	-0.077	0.150
-346.435	-200.000	-0.006	0.039
-345.420	-68.172	-0.078	0.031
-344.406	-200.000	0.021	0.098
-343.391	-200.000	-0.011	-0.470
-342.377	-109.950	0.053	0.011
-341.362	-200.000	0.007	-0.161
-340.348	260.035	0.062	-0.108
-339.333	-52.080	-0.188	-0.088
-338.318	-54.184	-0.067	0.031
-337.304	-61.238	-0.202	-0.085
-336.289	6.908	-0.326	-0.244
-335.275	-200.000	0.046	-0.319
-334.260	-65.273	-0.251	0.102
-333.245	613.667	0.072	0.180
-332.231	-47.027	0.109	0.053
-331.216	-200.000	-0.017	-0.466
-330.202	649.533	0.033	-0.084
-329.187	286.328	-0.026	0.048
-328.172	694.195	-0.044	-0.115
-327.158	236.349	0.113	0.187
-326.143	110.081	-0.203	0.244
-325.129	-70.078	0.136	-0.052
-324.114	-200.000	-0.060	-0.331
-323.099	403.372	0.106	-0.223
-322.085	-200.000	-0.007	0.043
-321.070	800.000	0.136	0.423
-320.056	-3.993	0.069	0.048
-319.041	-106.689	0.248	0.055
-318.026	33.001	-0.044	0.039
-317.012	-200.000	-0.022	0.174
-315.997	107.859	-0.123	-0.147
-314.983	135.175	-0.048	0.062
-313.968	-40.528	-0.173	0.090
-312.953	-36.636	0.409	0.221
-311.939	-200.000	-0.024	0.130
-310.924	-147.847	0.249	0.021
-309.910	-41.279	0.102	0.053
-308.895	-95.301	-0.253	0.068
-307.880	-59.300	-0.090	0.039
-306.866	155.289	0.110	0.152
-305.851	208.706	-0.035	-0.055
-304.837	390.662	-0.053	-0.111
-303.822	780.303	0.113	-0.311
-302.807	239.096	-0.174	-0.291
-301.793	-141.592	-0.143	0.014
-300.778	-117.699	-0.142	-0.026
-299.764	-87.524	-0.189	0.057
-298.749	-45.685	-0.010	-0.005
-297.735	-200.000	0.021	-0.185
-296.720	20.558	0.325	-0.264
-295.705	198.655	-0.029	-0.045
-294.691	-143.942	-0.210	0.020
-293.676	147.087	-0.049	0.066
-292.662	-160.140	0.227	-0.012
-291.647	-104.867	-0.028	0.006
-290.632	-32.918	0.087	-0.049
-289.618	-143.932	-0.117	-0.011
-288.603	-200.000	0.057	0.283
-287.589	70.962	0.249	0.258
-286.574	97.885	-0.036	0.042
-285.559	-2.419	-0.126	-0.088
-284.545	198.707	-0.136	-0.209
-283.530	800.000	-0.052	0.196
-282.516	-200.000	0.059	0.357
-281.501	166.953	-0.081	0.115
-280.486	-135.225	-0.269	0.032
-279.472	30.863	-0.063	-0.054
-278.457	451.421	-0.069	0.153
-277.443	-192.772	-0.188	-0.002
-276.428	-59.094	-0.160	0.069
-275.413	170.778	-0.063	-0.091
-274.399	360.063	-0.117	0.235
-273.384	68.798	0.105	0.108
-272.370	-159.284	-0.521	-0.029
-271.355	-104.316	0.094	-0.022
-270.340	-38.621	-0.214	0.113
-269.326	346.711	0.017	0.034
-268.311	-152.256	-0.244	-0.018
-267.297	17.114	0.047	0.037
-266.282	-200.000	0.068	0.381
-265.267	-200.000	0.081	-0.455
-264.253	-163.690	-0.234	-0.011
-263.238	165.737	0.199	0.282
-262.224	-20.367	0.293	0.181
-261.209	-200.000	0.050	0.234
-260.195	0.775	-0.143	0.103
-259.180	-200.000	0.026	0.220
-258.165	-30.273	0.299	0.170
-257.151	-200.000	-0.029	0.166
-256.136	799.231	0.081	-0.225
-255.122	50.955	0.087	0.082
-254.107	154.896	-0.082	-0.113
-253.092	305.806	-0.070	0.130
-252.078	173.764	-0.151	0.218
-251.063	-81.132	0.221	0.073
-250.049	681.121	-0.113	0.293
-249.034	-16.476	-0.139	0.088
-248.019	172.217	0.068	-0.097
-247.005	-186.368	0.272	0.004
-245.990	386.040	-0.123	-0.255
-244.976	60.238	-0.182	-0.181
-243.961	-200.000	-0.068	-0.377
-242.946	631.723	-0.019	-0.048
-241.932	-58.695	0.298	0.129
-240.917	800.000	0.157	-0.478
-239.903	54.827	-0.191	-0.185
-238.888	800.000	-0.081	0.292
-237.873	86.328	-0.076	-0.084
-236.859	-12.414	0.345	-0.225
-235.844	-200.000	0.054	0.523
-234.830	-31.450	0.091	0.051
-233.815	-200.000	-0.037	-0.180
-232.800	-126.671	-0.052	-0.008
-231.786	345.587	-0.214	-0.420
-230.771	534.393	-0.087	0.206
-229.757	-102.880	0.258	0.061
-228.742	19.917	-0.149	-0.120
-227.727	-200.000	-0.000	-0.325
-226.713	-200.000	0.011	-0.398
-225.698	-200.000	0.014	-0.167
-224.684	520.629	0.161	-0.377
-223.669	214.669	-0.199	-0.316
-222.655	-82.156	-0.285	-0.093
-221.640	-93.306	-0.131	0.036
-220.625	18.545	-0.042	0.034
-219.611	-127.896	0.525	-0.076
-218.596	156.081	-0.062	-0.086
-217.582	-37.243	0.282	0.151
-216.567	6.142	0.172	0.128
-215.552	199.331	0.088	0.135
-214.538	800.000	-0.008	-0.027
-213.523	-27.761	0.143	0.083
-212.509	-117.620	0.181	0.033
-211.494	68.245	-0.058	-0.060
-210.479	-120.348	0.106	0.018
-209.465	472.767	-0.106	0.238
-208.450	103.177	0.062	-0.072
-207.436	-98.119	-0.269	0.069
-206.421	463.947	-0.037	0.083
-205.406	-58.734	-0.061	0.026
-204.392	-200.000	-0.035	-0.170
-203.377	60.456	-0.091	-0.090
-202.363	-75.442	0.085	-0.030
-201.348	-56.354	0.061	0.027
-200.333	-55.559	-0.115	-0.051
-199.319	250.668	-0.089	-0.151
-198.304	-114.814	0.258	0.049
-197.290	-200.000	0.013	0.077
-196.275	536.188	-0.190	0.451
-195.260	800.000	0.044	0.135
-194.246	371.971	0.030	0.061
-193.231	422.520	0.060	0.128
-192.217	-43.716	0.067	-0.034
-191.202	764.126	-0.043	-0.117
-190.187	264.693	0.212	0.368
-189.173	-200.000	0.028	-0.168
-188.158	174.567	-0.172	-0.248
-187.144	-52.640	-0.376	-0.173
-186.129	-31.484	-0.200	0.112
-185.114	-200.000	0.088	-0.409
-184.100	247.938	-0.070	0.118
-183.085	121.941	-0.047	0.058
-182.071	541.013	-0.119	0.283
-181.056	-54.734	0.357	0.161
-180.042	-114.368	-0.126	-0.024
-179.027	77.761	-0.168	0.179
-178.012	15.879	-0.185	0.145
-176.998	-130.449	-0.458	-0.062
-175.983	40.949	-0.171	-0.154
-174.969	129.911	0.058	-0.074
-173.954	-200.000	0.084	0.451
-172.939	660.186	0.083	0.214
-171.925	-200.000	0.034	0.321
-170.910	185.723	-0.150	0.222
-169.896	329.613	-0.123	-0.236
-168.881	-126.948	0.198	-0.029
-167.866	622.074	0.068	0.171
-166.852	-200.000	-0.000	0.042
-165.837	-2.001	-0.239	-0.167
-164.823	-168.384	-0.026	0.001
-163.808	-200.000	-0.050	0.362
-162.793	800.000	0.101	0.281
-161.779	470.517	0.146	0.328
-160.764	-60.121	-0.180	-0.077
-159.750	-97.082	0.133	-0.035
-158.735	306.895	-0.114	0.211
-157.720	-61.823	0.113	0.047
-156.706	-47.713	0.056	0.027
-155.691	28.820	0.133	-0.113
-154.677	-200.000	0.004	-0.084
-153.662	5.726	-0.335	-0.247
-152.647	70.995	-0.177	-0.183
-151.633	194.343	-0.232	0.350
-150.618	-200.000	-0.018	0.138
-149.604	222.801	0.071	0.114
-148.589	242.406	-0.182	0.303
-147.574	240.290	-0.097	0.160
-146.560	-14.197	0.352	0.226
-145.545	-62.804	0.340	0.140
-144.531	-200.000	0.084	0.392
-143.516	-200.000	-0.018	0.138
-142.502	595.253	-0.099	-0.244
-141.487	-37.237	0.169	-0.090
-140.472	170.478	-0.123	0.175
-139.458	-136.492	-0.142	-0.016
-138.443	-200.000	-0.045	0.340
-137.429	-79.249	0.054	0.018
-136.414	-200.000	0.031	0.233
-135.399	-200.000	0.044	0.194
-134.385	41.695	-0.099	-0.089
-133.370	-93.639	-0.255	0.070
-132.356	-0.604	-0.041	0.029
-131.341	-102.182	0.084	0.020
-130.326	800.000	-0.063	-0.205
-129.312	-200.000	0.022	0.127
-128.297	-200.000	0.011	0.059
-127.283	236.982	-0.121	-0.200
-126.268	-7.438	-0.196	-0.132
-125.253	-200.000	0.019	0.142
-124.239	-200.000	0.024	0.314
-123.224	-1.453	-0.031	-0.022
-122.210	-61.720	0.121	-0.051
-121.195	-49.729	-0.256	-0.121
