DTS Sentinel unit serial number:	SN413079Multiplexer serial number:	ORYXHardware model number:	OX4-SRSoftware version number:	ORYX F/W v4.00 Oryx Data Collector v3.7.2.0data status	okinstallation	princeton_trtdifferential loss correction	single-endedforward channel	channel 2reverse channel	N/Adate	2019/09/15time	10:51:35forward acquisition time	60.00reverse acquisition time	0.00gamma	496.2192k internal	0.2316k external	0.2316temperature offset calibration	1.0015default loss term (dB/km)	0.3790temperature slope calibration	1.0000multiplexer offset coefficient	1.0000multiplexer slope coefficient	1.0000fibre end	0.00T internal ref (°C)	34.25T ext. ref 1 (°C)	5.01T ext. ref 2 (°C)	29.79length (m)	temperature (°C)	Stokes	anti-Stokes-747.200	-9.444	-0.035	0.024
-746.185	144.721	-0.185	0.250
-745.171	-149.236	-0.296	0.024
-744.156	-26.655	-0.147	0.087
-743.142	296.758	-0.118	0.220
-742.127	10.828	0.310	0.240
-741.112	66.292	-0.008	-0.009
-740.098	-117.419	-0.438	-0.080
-739.083	-120.524	0.237	-0.041
-738.069	-200.000	-0.039	0.271
-737.054	800.000	0.116	0.343
-736.039	-200.000	0.014	-0.366
-735.025	-200.000	0.034	0.151
-734.010	-96.212	-0.158	-0.043
-732.996	113.192	-0.109	-0.134
-731.981	459.647	0.113	-0.254
-730.966	277.017	0.130	0.234
-729.952	454.988	-0.123	0.275
-728.937	94.351	0.219	0.252
-727.923	-91.494	-0.062	0.018
-726.908	71.382	-0.240	0.253
-725.894	-126.571	-0.290	-0.044
-724.879	-175.668	0.172	-0.005
-723.864	-18.076	-0.174	-0.110
-722.850	438.796	-0.139	-0.308
-721.835	156.844	0.301	-0.421
-720.821	-100.026	-0.470	-0.119
-719.806	-147.494	-0.011	0.001
-718.791	-4.625	-0.340	0.238
-717.777	178.472	0.064	0.094
-716.762	3.857	-0.282	-0.208
-715.748	-172.353	0.091	-0.003
-714.733	-30.093	0.095	-0.054
-713.718	800.000	0.057	-0.185
-712.704	-200.000	-0.005	0.125
-711.689	297.284	0.074	-0.138
-710.675	-200.000	-0.007	0.141
-709.660	-25.115	0.186	-0.111
-708.645	-200.000	0.015	0.216
-707.631	-80.698	0.353	0.119
-706.616	-200.000	0.017	0.084
-705.602	98.611	-0.070	0.082
-704.587	147.991	-0.199	0.271
-703.572	-200.000	0.030	0.267
-702.558	-200.000	0.003	-0.144
-701.543	-200.000	0.041	-0.433
-700.529	-167.503	0.509	-0.021
-699.514	304.978	-0.178	0.335
-698.499	-200.000	0.003	-0.136
-697.485	145.623	0.086	-0.117
-696.470	44.968	-0.204	-0.190
-695.456	800.000	0.074	-0.210
-694.441	-99.914	0.344	0.087
-693.426	-88.601	0.103	-0.031
-692.412	-88.553	-0.121	-0.036
-691.397	-200.000	-0.026	0.339
-690.383	258.247	0.078	0.135
-689.368	63.461	0.232	-0.235
-688.354	-164.751	-0.426	-0.019
-687.339	-76.349	0.118	-0.042
-686.324	800.000	0.031	-0.097
-685.310	-74.448	-0.244	-0.089
-684.295	9.340	-0.301	0.230
-683.281	-121.603	0.182	0.030
-682.266	52.785	0.086	0.083
-681.251	645.121	0.051	0.130
-680.237	-75.456	-0.102	0.037
-679.222	-158.807	-0.275	-0.016
-678.208	73.336	0.177	0.187
-677.193	-88.297	-0.180	-0.054
-676.178	800.000	-0.053	-0.148
-675.164	-200.000	0.037	-0.283
-674.149	-83.796	0.247	-0.080
-673.135	71.238	-0.143	-0.150
-672.120	-200.000	-0.067	0.299
-671.105	-137.993	0.172	-0.019
-670.091	650.406	0.021	0.055
-669.076	334.415	0.071	-0.139
-668.062	-113.612	-0.175	-0.035
-667.047	-200.000	0.002	-0.175
-666.032	-24.633	0.080	-0.048
-665.018	-141.515	-0.241	-0.025
-664.003	-75.959	0.146	-0.052
-662.989	263.719	0.211	-0.370
-661.974	509.492	-0.041	0.097
-660.959	-21.726	0.209	0.129
-659.945	-31.459	-0.225	0.128
-658.930	800.000	0.036	0.114
-657.916	-136.674	-0.159	-0.019
-656.901	800.000	0.108	0.305
-655.886	75.577	0.239	-0.255
-654.872	-47.954	-0.154	-0.075
-653.857	23.554	-0.229	-0.190
-652.843	-200.000	-0.008	0.167
-651.828	-169.066	-0.431	0.016
-650.814	-171.688	-0.139	0.005
-649.799	-41.532	0.168	-0.087
-648.784	-21.511	-0.280	0.173
-647.770	-132.449	-0.466	-0.061
-646.755	-40.684	0.337	0.176
-645.741	800.000	0.054	0.192
-644.726	-1.681	-0.212	-0.151
-643.711	-10.858	-0.358	-0.239
-642.697	-118.554	-0.389	0.069
-641.682	-77.073	-0.159	-0.056
-640.668	9.423	-0.160	0.122
-639.653	216.219	0.100	0.160
-638.638	-200.000	0.014	0.067
-637.624	-122.484	-0.282	0.046
-636.609	-23.938	-0.085	0.051
-635.595	0.191	0.109	-0.078
-634.580	-80.900	0.118	-0.039
-633.565	-69.469	-0.270	-0.104
-632.551	90.284	0.113	-0.127
-631.536	362.101	-0.089	0.180
-630.522	62.372	0.132	-0.133
-629.507	-16.499	0.041	0.026
-628.492	27.092	0.202	-0.171
-627.478	-200.000	-0.024	-0.359
-626.463	800.000	-0.030	-0.119
-625.449	235.098	-0.076	0.126
-624.434	-44.384	-0.150	-0.076
-623.419	-163.691	-0.043	-0.002
-622.405	407.576	0.067	-0.142
-621.390	-108.570	0.344	-0.075
-620.376	-172.227	0.224	-0.007
-619.361	800.000	0.023	0.087
-618.346	800.000	-0.059	-0.175
-617.332	-105.468	-0.221	0.051
-616.317	-36.948	-0.049	0.027
-615.303	800.000	-0.007	-0.023
-614.288	800.000	-0.127	-0.356
-613.273	10.352	0.288	-0.221
-612.259	-81.721	-0.329	-0.109
-611.244	-200.000	-0.013	0.114
-610.230	709.414	0.065	-0.174
-609.215	-71.484	0.294	-0.111
-608.201	167.866	-0.093	-0.133
-607.186	9.797	0.060	0.046
-606.171	-74.009	-0.237	-0.087
-605.157	521.942	-0.061	0.144
-604.142	116.750	-0.140	-0.173
-603.128	-200.000	-0.060	-0.322
-602.113	155.361	0.101	-0.140
-601.098	800.000	-0.097	-0.329
-600.084	-132.245	-0.330	-0.043
-599.069	-68.887	-0.221	-0.086
-598.055	-33.719	-0.112	-0.062
-597.040	131.125	-0.155	0.201
-596.025	154.896	-0.131	0.182
-595.011	-200.000	-0.016	0.232
-593.996	-54.455	-0.123	-0.056
-592.982	800.000	-0.033	-0.103
-591.967	-148.201	0.223	-0.019
-590.952	626.084	0.105	-0.267
-589.938	-32.519	0.257	-0.144
-588.923	-119.893	-0.121	-0.021
-587.909	4.406	0.220	0.163
-586.894	-37.044	0.150	-0.081
-585.879	-13.315	0.286	0.187
-584.865	85.510	0.214	-0.237
-583.850	-25.313	-0.130	-0.078
-582.836	-61.739	0.326	0.138
-581.821	-27.591	-0.299	-0.175
-580.806	-18.045	-0.277	-0.175
-579.792	-51.245	0.466	-0.220
-578.777	217.151	0.095	0.152
-577.763	-106.162	0.416	-0.094
-576.748	-77.802	-0.209	0.073
-575.733	-43.857	-0.365	-0.185
-574.719	-173.301	-0.355	0.011
-573.704	-106.414	0.451	-0.101
-572.690	-75.369	0.078	0.028
-571.675	296.038	-0.142	-0.262
-570.661	800.000	-0.066	0.193
-569.646	-200.000	-0.012	0.272
-568.631	-200.000	-0.007	-0.069
-567.617	-124.295	-0.055	-0.009
-566.602	-83.889	0.274	0.088
-565.588	-200.000	0.048	0.262
-564.573	-200.000	0.022	0.202
-563.558	-200.000	0.000	-0.298
-562.544	-114.759	-0.247	0.048
-561.529	-172.165	-0.239	0.008
-560.515	-200.000	0.032	-0.179
-559.500	50.753	-0.182	0.174
-558.485	800.000	0.075	-0.212
-557.471	-50.974	-0.305	-0.144
-556.456	215.110	0.053	0.084
-555.442	-200.000	-0.040	0.271
-554.427	92.985	0.126	-0.143
-553.412	3.723	0.129	0.095
-552.398	-14.187	-0.106	-0.069
-551.383	-87.698	0.196	0.060
-550.369	-72.757	-0.087	-0.032
-549.354	43.367	0.073	0.067
-548.339	347.299	-0.218	-0.431
-547.325	255.132	-0.054	-0.093
-546.310	-84.982	0.216	0.068
-545.296	180.323	-0.100	-0.148
-544.281	3.639	0.280	0.206
-543.266	15.114	0.354	0.279
-542.252	91.949	-0.171	0.193
-541.237	800.000	-0.043	0.151
-540.223	9.041	-0.273	0.207
-539.208	-142.612	-0.189	0.019
-538.193	-200.000	-0.010	-0.274
-537.179	95.053	-0.139	-0.159
-536.164	139.972	-0.209	0.277
-535.150	-66.206	0.206	0.083
-534.135	-98.714	-0.250	-0.064
-533.121	-200.000	0.074	0.000
-532.106	-16.756	0.255	-0.162
-531.091	-154.206	-0.380	-0.026
-530.077	-131.925	-0.244	0.032
-529.062	-126.293	0.116	-0.017
-528.048	800.000	0.045	0.138
-527.033	-161.754	0.275	-0.014
-526.018	-106.510	-0.053	-0.012
-525.004	702.583	-0.137	0.363
-523.989	173.364	-0.109	0.158
-522.975	19.190	-0.189	0.152
-521.960	800.000	-0.060	-0.257
-520.945	800.000	0.106	-0.298
-519.931	109.145	-0.141	-0.169
-518.916	-200.000	-0.066	-0.381
-517.902	-84.379	-0.286	-0.091
-516.887	-62.898	-0.169	-0.070
-515.872	-35.507	-0.116	0.063
-514.858	800.000	-0.038	-0.113
-513.843	-200.000	0.079	-0.474
-512.829	-165.201	-0.093	-0.004
-511.814	146.524	0.082	0.110
-510.799	106.177	0.160	0.190
-509.785	-12.539	-0.083	0.054
-508.770	113.205	0.177	0.216
-507.756	171.235	-0.117	0.168
-506.741	-98.769	0.018	-0.005
-505.726	-31.084	0.129	0.073
-504.712	-55.267	0.399	-0.180
-503.697	123.487	-0.125	0.157
-502.683	-200.000	0.064	-0.386
-501.668	50.821	0.043	-0.041
-500.653	94.041	-0.133	0.151
-499.639	322.576	-0.112	-0.213
-498.624	-57.630	-0.350	0.154
-497.610	155.276	0.123	0.170
-496.595	-89.320	-0.201	-0.059
-495.581	172.791	-0.119	0.172
-494.566	277.457	0.098	0.175
-493.551	-117.855	0.070	0.013
-492.537	-69.821	0.068	-0.026
-491.522	-200.000	0.027	0.164
-490.508	-95.279	-0.246	-0.066
-489.493	117.938	-0.124	-0.154
-488.478	-74.702	-0.258	0.093
-487.464	23.939	0.047	0.039
-486.449	800.000	-0.067	0.229
-485.435	-1.420	-0.218	0.154
-484.420	14.985	-0.069	0.054
-483.405	-101.938	0.463	-0.112
-482.391	-200.000	-0.008	0.237
-481.376	800.000	-0.110	0.351
-480.362	-200.000	-0.018	-0.142
-479.347	-41.366	-0.264	0.136
-478.332	-72.518	0.035	0.013
-477.318	130.493	0.227	0.291
-476.303	-200.000	0.005	0.393
-475.289	303.936	0.026	-0.047
-474.274	-154.468	0.161	-0.011
-473.259	414.912	0.088	-0.189
-472.245	800.000	0.084	-0.324
-471.230	800.000	0.058	-0.233
-470.216	-200.000	0.025	-0.252
-469.201	339.126	0.087	0.170
-468.186	77.085	-0.108	-0.115
-467.172	800.000	-0.065	0.226
-466.157	-55.742	0.211	-0.095
-465.143	-5.244	0.087	-0.060
-464.128	127.553	-0.173	0.220
-463.113	-59.843	-0.256	-0.110
-462.099	-81.170	-0.111	0.037
-461.084	-200.000	0.012	0.103
-460.070	517.860	-0.043	0.100
-459.055	-111.525	-0.153	-0.031
-458.040	-200.000	0.008	0.179
-457.026	15.850	-0.051	-0.040
-456.011	-85.039	-0.135	0.042
-454.997	-200.000	0.042	-0.188
-453.982	-70.965	-0.144	-0.054
-452.968	-38.898	-0.082	0.043
-451.953	103.265	0.061	0.072
-450.938	204.905	-0.211	0.328
-449.924	-130.846	-0.138	-0.019
-448.909	-102.059	-0.055	0.013
-447.895	-62.128	-0.470	-0.196
-446.880	-80.292	0.362	0.121
-445.865	-155.268	-0.363	0.024
-444.851	280.962	-0.052	-0.093
-443.836	95.175	0.056	0.064
-442.822	-132.508	0.261	-0.034
-441.807	0.781	-0.037	0.026
-440.792	594.506	-0.146	-0.362
-439.778	800.000	-0.059	0.236
-438.763	64.177	-0.091	-0.092
-437.749	129.601	0.066	-0.084
-436.734	135.346	0.145	-0.189
-435.719	42.272	0.039	-0.035
-434.705	-133.001	0.141	-0.018
-433.690	-123.788	-0.216	-0.034
-432.676	15.701	-0.282	-0.222
-431.661	-200.000	-0.016	-0.264
-430.646	175.791	0.019	0.027
-429.632	294.280	-0.064	-0.116
-428.617	381.279	-0.140	0.288
-427.603	-17.242	-0.227	-0.143
-426.588	-15.044	0.390	0.250
-425.573	-142.760	-0.105	0.010
-424.559	-200.000	0.014	0.072
-423.544	-200.000	-0.026	-0.142
-422.530	424.360	0.119	-0.256
-421.515	88.517	0.056	-0.063
-420.500	-157.069	-0.267	-0.016
-419.486	71.092	0.176	0.182
-418.471	226.290	0.130	0.211
-417.457	-200.000	-0.017	0.139
-416.442	41.470	0.233	0.211
-415.428	5.099	-0.066	0.049
-414.413	5.016	0.106	0.078
-413.398	389.379	0.108	0.223
-412.384	360.298	0.177	0.355
-411.369	-67.104	0.087	-0.034
-410.355	133.284	-0.171	-0.221
-409.340	800.000	0.120	0.338
-408.325	-29.131	0.235	-0.135
-407.311	68.977	-0.101	0.104
-406.296	601.897	-0.058	-0.145
-405.282	-200.000	-0.142	-0.000
-404.267	-136.228	0.026	0.003
-403.252	284.138	-0.065	0.118
-402.238	-84.836	-0.232	0.073
-401.223	-140.623	-0.278	-0.029
-400.209	-60.633	-0.182	0.077
-399.194	-200.000	0.010	-0.047
-398.179	-121.504	0.511	0.085
-397.165	-135.029	0.050	-0.006
-396.150	-200.000	0.047	-0.255
-395.136	-200.000	0.033	0.186
-394.121	-200.000	0.019	-0.156
-393.106	53.236	-0.152	-0.146
-392.092	-32.408	0.209	-0.116
-391.077	282.494	0.171	0.306
-390.063	72.661	0.111	-0.115
-389.048	86.470	-0.257	0.283
-388.033	-72.348	0.203	0.075
-387.019	-56.227	0.268	-0.119
-386.004	448.873	-0.084	-0.184
-384.990	263.569	0.088	-0.153
-383.975	-0.983	0.231	-0.163
-382.960	-157.848	0.178	-0.011
-381.946	800.000	-0.048	-0.144
-380.931	-30.960	-0.238	0.134
-379.917	20.638	-0.075	-0.061
-378.902	275.580	0.196	-0.347
-377.888	-135.252	-0.271	0.032
-376.873	-59.633	0.144	-0.062
-375.858	-70.041	0.141	0.054
-374.844	-117.825	0.336	0.060
-373.829	-200.000	-0.009	0.126
-372.815	-200.000	0.014	0.169
-371.800	662.433	-0.036	-0.093
-370.785	136.454	-0.190	-0.248
-369.771	-200.000	0.073	0.461
-368.756	407.491	0.141	-0.298
-367.742	-35.027	-0.138	-0.075
-366.727	-200.000	0.169	0.000
-365.712	-6.572	-0.193	0.131
-364.698	-183.393	0.306	-0.005
-363.683	482.711	-0.140	0.318
-362.669	678.216	-0.041	-0.106
-361.654	-54.530	0.300	-0.136
-360.639	339.504	0.078	0.152
-359.625	17.494	-0.101	0.080
-358.610	-200.000	0.016	0.104
-357.596	-84.645	0.097	-0.030
-356.581	-121.297	-0.179	-0.030
-355.566	800.000	-0.070	-0.221
-354.552	48.138	-0.145	0.135
-353.537	84.917	0.187	-0.204
-352.523	-78.413	0.320	-0.109
-351.508	371.004	0.066	0.134
-350.493	-2.200	0.172	0.120
-349.479	55.709	0.077	-0.074
-348.464	291.505	0.232	0.421
-347.450	-124.087	0.061	-0.010
-346.435	-157.606	-0.359	0.021
-345.420	-125.752	0.069	-0.010
-344.406	800.000	-0.053	0.210
-343.391	-137.937	0.416	0.046
-342.377	-82.676	-0.156	0.050
-341.362	-200.000	-0.008	-0.164
-340.348	47.608	-0.246	-0.229
-339.333	91.880	0.138	0.155
-338.318	6.028	-0.336	0.248
-337.304	366.325	0.074	0.148
-336.289	-64.176	0.100	-0.041
-335.275	60.690	-0.256	-0.253
-334.260	-22.361	0.094	0.057
-333.245	441.715	-0.156	-0.341
-332.231	39.816	0.291	0.260
-331.216	-130.571	0.051	-0.007
-330.202	-200.000	0.032	-0.461
-329.187	-200.000	-0.020	0.100
-328.172	403.954	-0.062	0.129
-327.158	44.680	0.257	-0.235
-326.143	107.380	0.156	-0.185
-325.129	634.608	-0.032	-0.081
-324.114	-200.000	0.009	0.134
-323.099	-93.796	0.363	0.100
-322.085	-10.266	-0.316	0.209
-321.070	-1.362	-0.110	-0.078
-320.056	-82.549	0.262	0.085
-319.041	472.235	-0.037	0.082
-318.026	405.147	0.021	0.044
-317.012	-71.485	0.325	0.121
-315.997	-200.000	-0.015	0.104
-314.983	-143.791	0.313	-0.029
-313.968	-150.623	0.342	0.026
-312.953	-99.510	0.119	-0.030
-311.939	-200.000	-0.014	0.116
-310.924	87.787	-0.044	-0.048
-309.910	-38.856	0.244	-0.128
-308.895	-200.000	-0.034	0.225
-307.880	-200.000	0.027	0.126
-306.866	-109.247	-0.064	0.014
-305.851	20.612	-0.095	-0.076
-304.837	-200.000	0.010	0.208
-303.822	-200.000	0.055	-0.276
-302.807	-132.137	-0.167	0.022
-301.793	18.176	-0.322	-0.256
-300.778	84.941	0.243	-0.265
-299.764	160.766	0.147	-0.205
-298.749	-83.243	-0.389	0.125
-297.735	56.761	0.008	-0.008
-296.720	-4.079	0.334	0.231
-295.705	-139.949	-0.019	0.002
-294.691	-181.666	-0.075	-0.001
-293.676	75.558	-0.099	-0.104
-292.662	800.000	-0.136	0.389
-291.647	800.000	-0.068	0.231
-290.632	28.474	0.040	-0.033
-289.618	2.940	-0.359	0.259
-288.603	-200.000	0.021	-0.130
-287.589	800.000	0.139	-0.405
-286.574	800.000	0.081	0.348
-285.559	276.724	0.040	-0.072
-284.545	-134.687	-0.125	0.015
-283.530	264.850	0.111	0.192
-282.516	-127.245	0.269	-0.039
-281.501	800.000	0.061	0.258
-280.486	-200.000	-0.072	0.439
-279.472	800.000	0.042	-0.123
-278.457	-99.818	-0.327	-0.081
-277.443	-73.898	0.048	0.017
-276.428	-112.459	0.241	0.048
-275.413	296.798	-0.025	-0.045
-274.399	-32.084	0.148	-0.082
-273.384	93.693	-0.316	-0.356
-272.370	-55.576	-0.255	0.114
-271.355	-13.632	0.293	-0.189
-270.340	-200.000	-0.007	0.291
-269.326	-200.000	0.000	0.017
-268.311	88.179	0.041	0.045
-267.297	-115.360	-0.124	0.023
-266.282	-160.167	0.519	-0.028
-265.267	-20.190	0.161	0.098
-264.253	-8.801	0.179	-0.119
-263.238	283.928	-0.179	0.320
-262.224	166.420	-0.161	-0.227
-261.209	239.598	-0.010	-0.017
-260.195	269.611	-0.163	-0.285
-259.180	-111.707	0.436	0.088
-258.165	-165.761	-0.299	0.013
-257.151	-22.180	-0.139	-0.084
-256.136	-200.000	-0.054	-0.277
-255.122	-95.314	0.175	0.047
-254.107	-158.266	-0.148	-0.009
-253.092	52.877	0.176	-0.167
-252.078	-200.000	0.006	0.226
-251.063	-144.563	-0.281	-0.026
-250.049	-93.582	0.530	0.146
-249.034	800.000	-0.062	-0.206
-248.019	37.145	-0.129	0.114
-247.005	-22.755	-0.119	0.071
-245.990	800.000	0.086	-0.333
-244.976	800.000	0.064	0.196
-243.961	-103.003	0.327	0.077
-242.946	-71.236	-0.054	-0.020
-241.932	85.210	0.115	-0.125
-240.917	-200.000	-0.019	-0.234
-239.903	26.417	-0.127	0.105
-238.888	-100.805	-0.077	-0.019
-237.873	145.953	0.143	0.190
-236.859	110.779	-0.110	0.132
-235.844	681.473	-0.037	-0.096
-234.830	-200.000	-0.063	0.307
-233.815	7.198	0.157	-0.116
-232.800	-56.425	-0.223	-0.098
-231.786	800.000	-0.042	-0.120
-230.771	-92.669	0.208	0.058
-229.757	193.677	0.071	0.107
-228.742	-53.729	0.197	0.089
-227.727	-117.924	-0.251	0.045
-226.713	-30.811	0.298	-0.167
-225.698	-93.689	-0.237	0.065
-224.684	1.152	-0.343	0.244
-223.669	-200.000	-0.006	-0.082
-222.655	-110.565	-0.125	-0.026
-221.640	107.281	0.074	0.087
-220.625	800.000	-0.076	0.278
-219.611	129.383	0.256	0.325
-218.596	593.688	-0.100	0.244
-217.582	154.866	0.034	0.046
-216.567	-169.507	0.298	-0.011
-215.552	-200.000	0.015	0.186
-214.538	166.303	0.123	-0.172
-213.523	-111.083	0.150	0.030
-212.509	-200.000	-0.056	-0.265
-211.494	-200.000	0.053	-0.276
-210.479	763.024	-0.044	-0.120
-209.465	-67.472	-0.247	-0.096
-208.450	-75.049	0.455	0.162
-207.436	126.992	-0.147	0.185
-206.421	-200.000	-0.005	0.219
-205.406	125.212	-0.190	0.237
-204.392	-57.183	0.289	0.126
-203.377	298.936	0.037	-0.067
-202.363	481.057	-0.040	-0.090
-201.348	211.444	0.150	0.234
-200.333	269.364	0.029	-0.050
-199.319	-162.531	-0.319	0.016
-198.304	-34.702	-0.167	-0.090
-197.290	96.482	-0.006	0.007
-196.275	-131.785	-0.164	0.021
-195.260	-93.153	-0.314	0.087
-194.246	213.834	-0.054	0.085
-193.231	78.741	0.083	-0.088
-192.217	25.958	0.155	-0.128
-191.202	-200.000	-0.013	0.075
-190.187	25.301	-0.111	0.091
-189.173	74.937	-0.132	0.138
-188.158	-200.000	-0.043	-0.288
-187.144	-104.393	-0.160	-0.037
-186.129	319.194	0.187	0.351
-185.114	-123.690	0.176	-0.028
-184.100	414.635	-0.050	-0.106
-183.085	800.000	-0.111	-0.308
-182.071	-152.545	-0.277	0.020
-181.056	800.000	0.067	-0.271
-180.042	-118.630	0.440	-0.077
-179.027	382.714	0.169	-0.344
-178.012	-200.000	0.012	0.085
-176.998	28.905	0.231	0.194
-175.983	-200.000	-0.044	-0.388
-174.969	35.424	-0.238	-0.207
-173.954	718.591	0.096	0.253
-172.939	160.651	-0.248	0.343
-171.925	323.362	0.165	-0.312
-170.910	-48.408	0.451	-0.215
-169.896	691.672	-0.047	0.122
-168.881	800.000	0.050	0.149
-167.866	-84.534	0.181	-0.057
-166.852	-104.060	-0.174	-0.040
-165.837	-76.876	-0.183	0.063
-164.823	84.866	0.076	-0.083
-163.808	-85.434	0.234	0.072
-162.793	579.888	-0.119	-0.290
-161.779	-200.000	0.014	0.070
-160.764	54.804	-0.240	0.229
-159.750	-42.794	0.382	-0.192
-158.735	172.568	0.086	-0.122
-157.720	800.000	-0.108	0.389
-156.706	-122.081	0.206	-0.033
-155.691	63.136	0.206	0.205
-154.677	-165.706	-0.296	0.013
-153.662	-100.487	0.491	-0.120
-152.647	-77.023	-0.142	0.049
-151.633	800.000	-0.054	-0.163
-150.618	800.000	0.040	-0.157
-149.604	66.903	-0.189	-0.191
-148.589	-27.603	0.040	0.023
-147.574	14.523	0.386	0.298
-146.560	615.911	-0.092	0.229
-145.545	227.723	0.100	0.162
-144.531	38.115	-0.150	0.132
-143.516	-106.443	0.081	0.018
-142.502	-29.286	-0.165	-0.093
-141.487	34.816	-0.294	0.255
-140.472	405.318	-0.165	0.344
-139.458	10.896	0.201	-0.152
-138.443	208.950	-0.169	0.262
-137.429	214.509	-0.198	-0.310
-136.414	252.391	0.013	-0.023
-135.399	-200.000	-0.004	-0.150
-134.385	-98.428	-0.346	0.088
-133.370	316.837	-0.084	-0.158
-132.356	-200.000	-0.048	0.242
-131.341	-200.000	0.010	0.232
-130.326	-29.227	-0.054	0.031
-129.312	-29.212	0.148	0.084
-128.297	800.000	-0.057	0.191
-127.283	316.737	0.058	-0.108
-126.268	100.192	-0.004	0.005
-125.253	-126.131	0.107	-0.016
-124.239	-200.000	0.050	0.295
-123.224	2.529	0.300	0.215
-122.210	-76.084	-0.350	0.122
-121.195	-20.000	0.069	0.042
