DTS Sentinel unit serial number:	SN413079Multiplexer serial number:	ORYXHardware model number:	OX4-SRSoftware version number:	ORYX F/W v4.00 Oryx Data Collector v3.7.2.0data status	okinstallation	princeton_trtdifferential loss correction	single-endedforward channel	channel 2reverse channel	N/Adate	2019/09/18time	13:51:35forward acquisition time	60.00reverse acquisition time	0.00gamma	496.2192k internal	0.2319k external	0.2319temperature offset calibration	0.9998default loss term (dB/km)	0.3790temperature slope calibration	1.0000multiplexer offset coefficient	1.0000multiplexer slope coefficient	1.0000fibre end	0.00T internal ref (°C)	34.53T ext. ref 1 (°C)	0.65T ext. ref 2 (°C)	29.93length (m)	temperature (°C)	Stokes	anti-Stokes-747.200	-37.735	-0.075	0.040
-746.185	216.179	0.309	0.497
-745.171	573.331	-0.221	0.545
-744.156	800.000	0.034	-0.108
-743.142	-35.401	0.085	-0.047
-742.127	129.559	-0.203	0.263
-741.112	709.854	-0.181	-0.484
-740.098	46.098	0.066	0.062
-739.083	-200.000	0.000	0.458
-738.069	-47.567	-0.068	0.034
-737.054	-200.000	-0.420	-0.001
-736.039	-111.025	0.266	0.055
-735.025	800.000	0.065	0.195
-734.010	21.538	-0.267	-0.219
-732.996	-76.972	0.218	0.077
-731.981	-200.000	0.013	0.128
-730.966	-85.771	0.171	-0.054
-729.952	800.000	-0.098	0.383
-728.937	199.460	-0.217	-0.337
-727.923	800.000	-0.032	-0.092
-726.908	235.585	-0.047	0.079
-725.894	36.673	-0.110	-0.098
-724.879	31.801	-0.343	-0.298
-723.864	-129.511	-0.142	-0.020
-722.850	344.573	0.060	0.119
-721.835	-14.170	0.118	-0.077
-720.821	800.000	-0.008	-0.030
-719.806	55.749	0.179	-0.175
-718.791	-46.670	-0.271	0.134
-717.777	-45.924	0.207	-0.103
-716.762	800.000	-0.091	-0.265
-715.748	59.735	-0.136	-0.136
-714.733	-74.361	0.154	-0.056
-713.718	305.072	0.058	-0.109
-712.704	425.463	-0.142	-0.310
-711.689	786.600	0.123	-0.340
-710.675	6.244	-0.171	-0.128
-709.660	-73.353	-0.281	-0.104
-708.645	-162.228	0.180	0.009
-707.631	-31.226	-0.054	-0.031
-706.616	-200.000	0.055	-0.249
-705.602	-118.501	-0.233	0.042
-704.587	15.924	0.053	0.042
-703.572	-200.000	0.010	0.076
-702.558	-117.897	-0.142	-0.026
-701.543	-184.903	0.649	-0.010
-700.529	131.392	0.167	0.217
-699.514	-200.000	-0.012	0.421
-698.499	-19.895	0.276	-0.172
-697.485	-131.436	-0.147	-0.020
-696.470	-74.625	0.088	0.032
-695.456	-17.478	-0.307	0.195
-694.441	10.710	-0.065	-0.050
-693.426	800.000	-0.024	-0.100
-692.412	311.634	-0.088	-0.167
-691.397	173.204	0.118	0.172
-690.383	-16.695	0.073	0.047
-689.368	563.300	0.182	-0.445
-688.354	-200.000	-0.022	0.157
-687.339	-200.000	0.006	-0.038
-686.324	-94.031	0.253	-0.070
-685.310	-71.748	0.320	0.120
-684.295	800.000	-0.081	-0.331
-683.281	-7.285	-0.194	-0.133
-682.266	800.000	0.083	-0.277
-681.251	470.336	0.149	-0.337
-680.237	22.432	0.127	0.105
-679.222	230.830	-0.062	0.103
-678.208	424.458	-0.105	0.227
-677.193	525.699	-0.085	0.202
-676.178	80.170	-0.202	0.219
-675.164	475.455	-0.065	0.149
-674.149	68.818	0.041	0.042
-673.135	-200.000	0.033	0.235
-672.120	-18.310	-0.114	0.072
-671.105	-200.000	0.063	0.354
-670.091	178.302	-0.067	-0.099
-669.076	-122.258	0.240	-0.040
-668.062	-38.927	-0.107	0.057
-667.047	-143.500	0.164	0.016
-666.032	376.746	-0.074	-0.153
-665.018	110.754	0.133	-0.161
-664.003	-7.413	0.315	0.215
-662.989	41.225	-0.095	-0.087
-661.974	-160.218	-0.409	0.022
-660.959	-37.985	-0.139	0.075
-659.945	800.000	0.066	0.286
-658.930	4.788	-0.280	-0.208
-657.916	-200.000	-0.020	-0.203
-656.901	-176.334	0.203	-0.005
-655.886	-114.731	-0.206	-0.040
-654.872	-6.567	0.036	-0.025
-653.857	-133.764	-0.012	-0.001
-652.843	-16.150	-0.169	-0.108
-651.828	-200.000	0.029	0.360
-650.814	-100.711	-0.197	-0.049
-649.799	-69.433	-0.264	0.102
-648.784	205.368	-0.093	0.145
-647.770	145.664	0.049	0.066
-646.755	-102.805	0.207	0.050
-645.741	-10.583	0.201	0.134
-644.726	-105.044	0.307	0.071
-643.711	-200.000	-0.038	-0.286
-642.697	-58.675	-0.291	-0.127
-641.682	66.402	-0.120	-0.123
-640.668	43.643	-0.149	0.137
-639.653	327.680	0.142	-0.274
-638.638	-36.232	-0.185	-0.100
-637.624	121.868	-0.084	-0.106
-636.609	-71.824	0.157	0.059
-635.595	778.508	0.039	-0.107
-634.580	589.386	0.019	0.047
-633.565	-99.140	0.279	-0.071
-632.551	-99.744	-0.319	-0.080
-631.536	-45.396	0.132	0.066
-630.522	-162.043	-0.214	0.011
-629.507	-8.611	0.166	0.112
-628.492	800.000	-0.080	-0.294
-627.478	347.680	-0.132	-0.262
-626.463	-112.077	0.251	0.051
-625.449	38.599	-0.185	-0.166
-624.434	246.043	0.073	-0.124
-623.419	-200.000	0.007	-0.170
-622.405	-91.575	0.071	0.021
-621.390	-3.929	0.240	0.168
-620.376	-200.000	0.013	0.107
-619.361	-200.000	0.043	-0.235
-618.346	-58.120	0.210	-0.092
-617.332	-64.063	-0.086	-0.035
-616.317	32.174	0.265	0.230
-615.303	374.696	-0.122	0.250
-614.288	122.756	-0.203	0.256
-613.273	-200.000	0.006	0.140
-612.259	-200.000	0.022	0.217
-611.244	-67.007	-0.164	0.065
-610.230	89.586	0.080	-0.090
-609.215	61.767	-0.274	0.274
-608.201	-200.000	-0.013	0.260
-607.186	237.536	-0.073	-0.122
-606.171	-144.744	0.061	0.006
-605.157	413.967	0.026	-0.056
-604.142	565.193	0.114	-0.279
-603.128	318.660	0.148	0.282
-602.113	-138.173	0.316	-0.035
-601.098	-171.290	0.223	-0.008
-600.084	-21.054	0.196	0.120
-599.069	-93.947	-0.279	-0.077
-598.055	-8.475	0.205	-0.138
-597.040	38.871	-0.149	-0.134
-596.025	-200.000	-0.009	-0.098
-595.011	-200.000	-0.062	-0.283
-593.996	-150.698	0.124	0.010
-592.982	43.050	0.066	-0.061
-591.967	-68.126	-0.270	-0.106
-590.952	800.000	-0.056	-0.189
-589.938	-106.950	0.091	-0.020
-588.923	274.444	-0.227	0.405
-587.909	-200.000	0.007	-0.145
-586.894	55.449	-0.285	-0.277
-585.879	-200.000	-0.022	-0.247
-584.865	-200.000	0.015	0.267
-583.850	800.000	0.129	-0.406
-582.836	-99.459	0.522	-0.132
-581.821	800.000	0.049	-0.204
-580.806	-200.000	-0.007	-0.151
-579.792	-128.083	0.103	-0.015
-578.777	-193.422	-0.047	-0.000
-577.763	32.819	0.262	-0.228
-576.748	-133.337	-0.377	-0.048
-575.733	90.758	0.140	0.157
-574.719	-25.043	0.214	-0.128
-573.704	800.000	-0.114	0.379
-572.690	156.641	0.282	-0.392
-571.675	-200.000	-0.027	-0.182
-570.661	800.000	0.028	0.079
-569.646	50.585	-0.137	-0.130
-568.631	274.545	0.116	0.206
-567.617	-200.000	-0.006	-0.202
-566.602	520.789	0.136	0.321
-565.588	-129.760	-0.135	0.019
-564.573	43.814	-0.061	-0.056
-563.558	-92.994	0.281	0.079
-562.544	-200.000	-0.025	0.210
-561.529	-20.511	0.103	0.064
-560.515	-57.496	-0.218	0.096
-559.500	-53.909	0.177	0.081
-558.485	621.454	0.036	0.091
-557.471	-156.820	-0.286	-0.018
-556.456	327.537	0.107	-0.206
-555.442	109.001	-0.270	0.325
-554.427	197.636	0.136	-0.208
-553.412	-200.000	-0.043	0.402
-552.398	-14.183	-0.132	0.085
-551.383	73.074	0.107	0.112
-550.369	15.758	-0.079	0.063
-549.354	-65.711	-0.268	0.108
-548.339	6.291	-0.157	0.117
-547.325	21.893	-0.197	0.161
-546.310	22.607	-0.159	0.131
-545.296	21.662	0.190	-0.155
-544.281	246.410	-0.093	0.158
-543.266	176.191	0.221	0.322
-542.252	36.096	0.220	0.194
-541.237	-69.931	0.409	-0.156
-540.223	96.744	-0.198	-0.227
-539.208	-200.000	0.007	0.514
-538.193	-77.328	-0.199	0.069
-537.179	-120.399	-0.370	-0.063
-536.164	134.864	-0.096	0.126
-535.150	-3.958	-0.142	-0.099
-534.135	287.603	-0.117	-0.212
-533.121	-1.911	0.291	-0.205
-532.106	734.948	-0.046	0.123
-531.091	87.590	-0.237	0.263
-530.077	619.309	0.058	0.145
-529.062	-169.832	0.083	0.003
-528.048	-177.685	0.127	-0.003
-527.033	-200.000	0.002	0.245
-526.018	440.179	-0.187	0.411
-525.004	-21.653	0.081	0.050
-523.989	259.235	-0.115	0.200
-522.975	-162.804	0.155	0.008
-521.960	25.067	0.107	-0.089
-520.945	800.000	0.135	-0.523
-519.931	-151.482	-0.285	-0.021
-518.916	54.300	0.164	0.159
-517.902	-46.132	-0.416	-0.205
-516.887	578.866	0.149	-0.367
-515.872	800.000	-0.187	-0.533
-514.858	264.923	0.073	-0.127
-513.843	800.000	-0.094	-0.283
-512.829	-13.097	0.262	0.171
-511.814	-47.034	0.118	0.058
-510.799	-103.129	0.328	0.078
-509.785	24.148	0.149	-0.123
-508.770	-200.000	-0.040	-0.479
-507.756	-126.814	-0.343	0.051
-506.741	147.227	-0.133	0.180
-505.726	288.245	-0.129	-0.234
-504.712	37.456	-0.256	0.228
-503.697	-148.379	-0.253	0.021
-502.683	-170.853	-0.156	0.005
-501.668	12.441	0.217	-0.167
-500.653	-91.960	0.116	-0.033
-499.639	-141.653	-0.210	-0.021
-498.624	228.817	-0.046	0.075
-497.610	-200.000	-0.007	-0.317
-496.595	352.334	0.030	0.060
-495.581	-65.838	0.130	0.052
-494.566	-200.000	0.012	0.144
-493.551	-113.521	-0.179	-0.035
-492.537	-16.242	-0.135	-0.086
-491.522	545.611	-0.099	0.237
-490.508	345.694	-0.036	0.071
-489.493	-134.831	-0.226	-0.027
-488.478	-200.000	0.013	-0.117
-487.464	17.790	-0.298	-0.237
-486.449	-200.000	0.035	0.322
-485.435	-119.850	-0.230	0.040
-484.420	-72.671	0.262	-0.097
-483.405	-8.141	-0.256	0.173
-482.391	2.735	0.136	-0.099
-481.376	1.068	0.232	0.167
-480.362	-69.421	-0.121	0.046
-479.347	-200.000	-0.006	0.197
-478.332	-52.206	-0.273	-0.127
-477.318	592.805	-0.039	-0.096
-476.303	-200.000	0.002	0.067
-475.289	35.171	0.147	-0.129
-474.274	-183.070	0.325	-0.006
-473.259	70.040	-0.026	0.027
-472.245	153.011	0.143	-0.196
-471.230	-148.232	-0.232	0.019
-470.216	424.403	-0.175	0.377
-469.201	-128.083	-0.143	0.021
-468.186	790.765	0.042	-0.116
-467.172	107.342	0.254	0.302
-466.157	-21.036	-0.137	-0.084
-465.143	-175.328	0.161	-0.004
-464.128	-25.892	0.251	0.148
-463.113	364.624	-0.112	0.226
-462.099	-45.116	0.392	0.195
-461.084	312.977	0.066	-0.124
-460.070	-129.324	-0.293	-0.041
-459.055	168.347	0.108	-0.154
-458.040	-200.000	-0.003	0.102
-457.026	-2.772	-0.099	-0.069
-456.011	-200.000	-0.038	-0.266
-454.997	-60.352	-0.117	-0.050
-453.982	-153.532	-0.316	0.022
-452.968	-94.127	0.253	-0.069
-451.953	218.128	0.055	0.089
-450.938	-61.291	-0.311	0.131
-449.924	-38.856	-0.141	-0.074
-448.909	-67.313	-0.196	0.077
-447.895	198.958	0.158	-0.242
-446.880	-26.137	0.052	-0.031
-445.865	92.718	0.242	-0.273
-444.851	476.950	-0.064	0.144
-443.836	140.100	0.112	0.147
-442.822	163.064	-0.114	0.160
-441.807	23.048	-0.262	-0.215
-440.792	161.288	-0.121	0.169
-439.778	-41.383	0.164	0.085
-438.763	-13.630	0.301	0.195
-437.749	-138.278	0.274	0.030
-436.734	146.494	0.114	0.154
-435.719	-49.692	-0.157	0.075
-434.705	68.273	-0.145	-0.149
-433.690	-120.599	0.277	-0.047
-432.676	-63.969	0.133	-0.054
-431.661	3.454	0.160	0.116
-430.646	-72.664	-0.285	0.105
-429.632	-87.201	0.138	0.042
-428.617	-117.578	0.046	0.008
-427.603	-26.883	-0.281	0.164
-426.588	-28.741	0.304	0.175
-425.573	-139.649	-0.269	-0.029
-424.559	279.822	-0.144	-0.257
-423.544	17.104	0.259	-0.205
-422.530	18.151	0.087	-0.069
-421.515	-117.337	0.091	0.017
-420.500	-200.000	-0.013	0.225
-419.486	-78.185	-0.351	-0.120
-418.471	800.000	0.081	0.228
-417.457	665.484	0.098	-0.254
-416.442	-3.036	0.317	-0.221
-415.428	800.000	-0.063	0.264
-414.413	29.923	-0.174	-0.148
-413.398	493.132	-0.111	0.254
-412.384	138.884	0.164	0.215
-411.369	402.364	-0.173	-0.363
-410.355	800.000	-0.029	-0.111
-409.340	72.671	-0.069	-0.072
-408.325	197.472	-0.077	-0.117
-407.311	158.811	0.048	-0.067
-406.296	-44.676	0.246	-0.123
-405.282	-135.866	0.151	-0.018
-404.267	-3.365	-0.203	0.141
-403.252	-83.104	0.202	0.065
-402.238	1.337	-0.136	0.097
-401.223	215.244	0.116	0.184
-400.209	445.635	-0.032	-0.070
-399.194	164.699	-0.158	-0.222
-398.179	-75.199	-0.155	-0.055
-397.165	-200.000	-0.026	-0.211
-396.150	28.690	-0.093	-0.078
-395.136	85.907	-0.069	0.076
-394.121	-117.428	-0.284	0.051
-393.106	-82.465	0.158	-0.051
-392.092	-200.000	-0.010	0.045
-391.077	215.143	-0.088	-0.139
-390.063	-200.000	0.015	-0.086
-389.048	-121.470	-0.105	-0.017
-388.033	388.598	0.108	0.223
-387.019	800.000	-0.066	0.220
-386.004	30.635	0.096	0.082
-384.990	-111.415	0.252	-0.051
-383.975	534.956	-0.067	-0.157
-382.960	-19.757	-0.134	-0.083
-381.946	72.151	-0.227	0.236
-380.931	-200.000	-0.033	0.181
-379.917	0.205	0.213	0.151
-378.902	-133.227	-0.302	0.038
-377.888	31.196	-0.178	0.153
-376.873	-200.000	-0.009	-0.142
-375.858	50.791	-0.057	0.053
-374.844	-91.238	-0.518	-0.148
-373.829	-200.000	0.024	0.162
-372.815	-123.481	0.394	0.063
-371.800	29.253	-0.241	0.204
-370.785	301.682	0.077	-0.141
-369.771	10.440	0.220	-0.167
-368.756	359.550	0.052	-0.104
-367.742	-77.225	-0.182	0.063
-366.727	800.000	-0.074	-0.284
-365.712	73.937	0.158	-0.165
-364.698	-200.000	0.003	-0.076
-363.683	14.237	0.196	0.153
-362.669	-100.736	0.362	0.089
-361.654	400.067	0.163	0.341
-360.639	800.000	0.043	0.184
-359.625	-200.000	0.022	0.356
-358.610	7.679	-0.307	0.229
-357.596	-97.909	0.106	0.027
-356.581	-44.140	-0.351	-0.175
-355.566	-5.547	-0.101	-0.069
-354.552	705.933	0.106	0.278
-353.537	-131.602	0.157	-0.021
-352.523	-101.321	-0.215	-0.052
-351.508	600.110	0.049	0.121
-350.493	209.316	-0.047	0.073
-349.479	-33.531	0.146	0.081
-348.464	-56.845	-0.127	-0.056
-347.450	-200.000	0.005	0.075
-346.435	-147.986	0.090	0.007
-345.420	-52.414	0.074	0.034
-344.406	60.859	0.174	0.172
-343.391	-117.989	0.313	0.056
-342.377	-35.898	0.150	0.081
-341.362	-9.618	0.082	-0.054
-340.348	-200.000	0.014	0.239
-339.333	800.000	0.056	-0.196
-338.318	100.776	-0.097	-0.112
-337.304	-200.000	0.029	-0.274
-336.289	-18.229	-0.484	-0.301
-335.275	-72.977	-0.266	-0.097
-334.260	325.112	-0.107	0.203
-333.245	-200.000	0.020	0.265
-332.231	-200.000	-0.008	0.281
-331.216	397.237	-0.123	-0.256
-330.202	-118.897	0.245	0.043
-329.187	-200.000	-0.036	-0.258
-328.172	107.570	0.095	0.112
-327.158	-200.000	0.023	0.480
-326.143	378.166	0.112	-0.228
-325.129	573.439	0.126	-0.306
-324.114	800.000	-0.081	-0.286
-323.099	-173.670	-0.104	-0.003
-322.085	800.000	-0.138	-0.441
-321.070	-200.000	0.003	0.018
-320.056	-200.000	-0.061	-0.296
-319.041	800.000	0.007	0.023
-318.026	800.000	-0.060	-0.179
-317.012	14.462	0.368	-0.285
-315.997	-200.000	-0.025	-0.391
-314.983	-39.871	0.206	0.107
-313.968	606.679	0.125	0.311
-312.953	13.671	-0.233	0.180
-311.939	-111.606	-0.149	-0.030
-310.924	-200.000	-0.210	-0.000
-309.910	-93.455	-0.228	0.063
-308.895	165.092	0.130	-0.183
-307.880	7.409	-0.325	0.242
-306.866	-128.245	-0.281	0.040
-305.851	-114.817	-0.286	-0.054
-304.837	-0.931	0.203	0.143
-303.822	310.888	-0.095	0.177
-302.807	789.586	0.078	-0.212
-301.793	-111.989	-0.093	0.019
-300.778	762.228	-0.114	-0.308
-299.764	-88.698	-0.206	-0.061
-298.749	21.055	0.244	-0.197
-297.735	59.163	-0.319	0.312
-296.720	189.415	0.029	0.043
-295.705	-74.492	0.182	0.065
-294.691	1.462	-0.272	-0.195
-293.676	800.000	0.010	0.041
-292.662	800.000	0.041	-0.152
-291.647	800.000	0.055	-0.163
-290.632	455.849	0.039	0.087
-289.618	-58.410	0.235	0.101
-288.603	5.824	-0.199	-0.147
-287.589	-200.000	-0.038	-0.165
-286.574	-200.000	-0.035	0.201
-285.559	800.000	0.060	-0.172
-284.545	-200.000	0.029	-0.412
-283.530	100.651	0.093	-0.107
-282.516	-75.351	-0.181	0.064
-281.501	-30.061	0.042	0.024
-280.486	-112.663	0.188	-0.037
-279.472	-180.264	0.251	0.005
-278.457	-193.592	0.083	-0.001
-277.443	737.384	-0.110	0.293
-276.428	530.365	0.111	0.261
-275.413	53.478	-0.098	0.093
-274.399	197.453	-0.212	-0.322
-273.384	-52.488	-0.175	0.080
-272.370	-60.681	-0.053	0.022
-271.355	484.101	0.061	0.138
-270.340	-55.612	0.063	0.028
-269.326	800.000	-0.038	0.137
-268.311	-27.228	-0.168	-0.097
-267.297	-13.602	-0.195	-0.126
-266.282	-53.313	0.171	0.078
-265.267	73.482	-0.119	0.124
-264.253	239.536	0.124	0.205
-263.238	203.856	-0.243	0.373
-262.224	613.700	0.015	0.037
-261.209	-15.425	-0.149	0.094
-260.195	800.000	0.044	0.144
-259.180	16.349	0.170	-0.133
-258.165	-200.000	0.006	-0.044
-257.151	-200.000	0.027	0.153
-256.136	147.925	0.053	-0.071
-255.122	-200.000	0.010	0.071
-254.107	-80.832	0.079	-0.026
-253.092	-180.192	0.127	-0.003
-252.078	106.110	0.110	-0.129
-251.063	-37.281	-0.157	-0.083
-250.049	42.974	0.279	-0.252
-249.034	800.000	0.098	-0.275
-248.019	800.000	-0.047	-0.130
-247.005	-22.069	-0.353	0.213
-245.990	-200.000	0.073	0.343
-244.976	66.160	-0.179	-0.180
-243.961	-123.268	0.438	0.070
-242.946	-19.166	-0.318	-0.196
-241.932	134.218	0.245	-0.315
-240.917	-83.342	0.190	0.060
-239.903	800.000	0.080	0.299
-238.888	-200.000	0.018	-0.094
-237.873	-63.831	0.198	-0.080
-236.859	-200.000	-0.086	-0.474
-235.844	14.472	0.307	-0.238
-234.830	47.075	0.166	-0.153
-233.815	-123.866	-0.186	0.029
-232.800	459.131	-0.092	-0.203
-231.786	-200.000	-0.021	0.463
-230.771	-65.217	-0.036	-0.014
-229.757	690.500	0.088	-0.228
-228.742	-70.915	0.540	0.202
-227.727	800.000	0.058	-0.230
-226.713	-145.155	-0.262	-0.024
-225.698	-200.000	0.016	0.457
-224.684	158.460	0.154	0.211
-223.669	-200.000	-0.004	0.051
-222.655	-71.329	0.148	-0.055
-221.640	479.053	0.065	-0.146
-220.625	565.445	-0.083	0.199
-219.611	-83.256	0.127	0.041
-218.596	261.328	-0.125	-0.214
-217.582	800.000	0.049	-0.167
-216.567	237.420	0.089	-0.147
-215.552	-49.649	0.273	-0.129
-214.538	364.785	0.060	-0.119
-213.523	-200.000	-0.071	0.349
-212.509	800.000	0.083	0.295
-211.494	6.681	0.246	0.181
-210.479	-200.000	0.094	-0.449
-209.465	-97.573	-0.227	0.058
-208.450	-200.000	0.023	0.247
-207.436	-200.000	0.033	0.203
-206.421	-48.968	0.296	-0.140
-205.406	-126.934	0.453	-0.066
-204.392	-200.000	-0.001	0.355
-203.377	800.000	0.020	-0.085
-202.363	-200.000	0.044	0.316
-201.348	3.827	-0.214	0.155
-200.333	155.433	0.364	-0.496
-199.319	119.987	-0.256	-0.314
-198.304	-38.139	-0.208	0.109
-197.290	800.000	0.060	0.197
-196.275	-74.277	0.400	0.143
-195.260	800.000	-0.118	-0.348
-194.246	96.421	0.206	-0.233
-193.231	355.624	-0.094	0.185
-192.217	360.501	-0.107	0.211
-191.202	-151.473	-0.129	-0.009
-190.187	282.806	-0.119	-0.211
-189.173	-19.270	0.513	-0.315
-188.158	-200.000	-0.002	-0.315
-187.144	800.000	-0.122	0.355
-186.129	-193.953	0.177	-0.001
-185.114	130.749	0.070	-0.089
-184.100	-10.856	-0.280	-0.183
-183.085	728.145	0.067	-0.176
-182.071	-184.075	-0.224	-0.004
-181.056	-73.881	0.128	0.046
-180.042	-47.599	-0.224	0.108
-179.027	255.132	-0.102	-0.172
-178.012	-200.000	0.018	-0.317
-176.998	-101.793	0.079	0.019
-175.983	-200.000	0.085	0.401
-174.969	92.963	-0.108	0.121
-173.954	90.071	0.294	0.326
-172.939	350.311	0.149	0.292
-171.925	19.063	-0.128	0.102
-170.910	-190.298	-0.133	-0.001
-169.896	74.544	0.036	0.037
-168.881	-200.000	0.015	0.149
-167.866	601.279	0.120	0.294
-166.852	-116.883	0.320	-0.058
-165.837	8.527	0.324	0.241
-164.823	77.486	-0.134	-0.141
-163.808	-17.550	-0.135	-0.084
-162.793	800.000	-0.031	-0.103
-161.779	11.706	-0.126	0.095
-160.764	-200.000	-0.029	-0.158
-159.750	-200.000	-0.014	0.138
-158.735	-65.683	0.186	0.074
-157.720	-43.336	-0.237	0.118
-156.706	-52.170	0.072	0.033
-155.691	83.529	-0.141	0.152
-154.677	410.166	0.046	-0.097
-153.662	21.134	-0.301	-0.241
-152.647	-105.320	-0.086	0.019
-151.633	130.757	-0.187	-0.237
-150.618	-21.951	0.347	0.209
-149.604	800.000	0.060	-0.184
-148.589	-57.757	0.079	-0.034
-147.574	800.000	0.070	-0.247
-146.560	55.721	0.221	0.212
-145.545	-36.861	0.121	-0.064
-144.531	1.127	-0.138	0.098
-143.516	21.124	0.281	0.225
-142.502	-200.000	0.009	0.157
-141.487	-27.225	-0.191	0.110
-140.472	-200.000	-0.009	-0.060
-139.458	800.000	0.098	-0.302
-138.443	463.905	0.092	0.202
-137.429	-145.944	-0.488	-0.043
-136.414	800.000	-0.072	-0.268
-135.399	233.312	0.125	0.204
-134.385	-43.463	0.132	0.066
-133.370	-6.957	0.318	0.214
-132.356	-44.818	-0.109	-0.054
-131.341	-52.436	0.080	0.036
-130.326	270.593	0.187	0.326
-129.312	-47.306	-0.225	0.108
-128.297	17.109	0.206	0.161
-127.283	240.763	0.027	0.044
-126.268	200.128	-0.114	0.173
-125.253	-200.000	0.025	-0.152
-124.239	18.467	-0.136	-0.108
-123.224	-200.000	0.011	-0.155
-122.210	-200.000	0.014	-0.286
-121.195	-4.935	0.351	0.239
-120.180	77.633	-0.178	-0.187
