DTS Sentinel unit serial number:	SN413079Multiplexer serial number:	ORYXHardware model number:	OX4-SRSoftware version number:	ORYX F/W v4.00 Oryx Data Collector v3.7.2.0data status	okinstallation	princeton_trtdifferential loss correction	single-endedforward channel	channel 2reverse channel	N/Adate	2019/09/15time	21:47:34forward acquisition time	60.00reverse acquisition time	0.00gamma	496.2192k internal	0.2334k external	0.2334temperature offset calibration	0.9943default loss term (dB/km)	0.3790temperature slope calibration	1.0000multiplexer offset coefficient	1.0000multiplexer slope coefficient	1.0000fibre end	0.00T internal ref (°C)	30.20T ext. ref 1 (°C)	8.44T ext. ref 2 (°C)	23.42length (m)	temperature (°C)	Stokes	anti-Stokes-747.200	89.381	-0.133	0.149
-746.185	800.000	-0.101	0.292
-745.171	66.500	-0.211	0.215
-744.156	-74.217	-0.204	0.074
-743.142	800.000	-0.033	0.096
-742.127	-59.350	-0.116	0.050
-741.112	-142.441	0.191	0.019
-740.098	-54.271	-0.344	-0.157
-739.083	-200.000	0.005	-0.156
-738.069	-75.595	-0.315	-0.112
-737.054	-101.816	0.187	0.045
-736.039	-63.338	-0.490	0.203
-735.025	-200.000	-0.003	-0.058
-734.010	755.618	0.136	-0.370
-732.996	106.109	-0.217	0.259
-731.981	-138.679	0.128	-0.014
-730.966	450.314	0.054	0.120
-729.952	220.982	-0.087	0.140
-728.937	-89.891	0.052	-0.015
-727.923	168.754	0.152	-0.218
-726.908	-27.366	-0.440	-0.257
-725.894	-200.000	0.012	0.082
-724.879	274.478	0.092	0.163
-723.864	-72.020	-0.295	-0.110
-722.850	247.672	-0.150	-0.255
-721.835	-115.043	0.202	0.039
-720.821	711.942	0.038	0.100
-719.806	-57.322	0.187	-0.082
-718.791	800.000	0.067	0.272
-717.777	800.000	-0.016	-0.065
-716.762	64.131	-0.114	-0.115
-715.748	386.688	0.077	-0.159
-714.733	-17.710	-0.097	0.061
-713.718	-91.220	0.212	-0.061
-712.704	293.197	0.128	0.234
-711.689	-200.000	-0.002	0.023
-710.675	-100.599	-0.180	0.045
-709.660	-200.000	-0.015	0.146
-708.645	164.837	0.116	0.164
-707.631	108.634	-0.290	0.348
-706.616	-4.328	-0.205	0.142
-705.602	435.419	0.023	0.051
-704.587	-98.349	0.157	0.040
-703.572	-134.021	-0.049	0.006
-702.558	437.415	0.049	-0.107
-701.543	-14.995	-0.186	-0.120
-700.529	-0.757	0.317	-0.225
-699.514	28.794	-0.380	-0.323
-698.499	109.299	-0.107	-0.128
-697.485	-200.000	0.010	0.180
-696.470	-16.808	-0.249	0.158
-695.456	47.155	-0.059	0.055
-694.441	-91.101	0.181	0.052
-693.426	-171.168	0.240	-0.008
-692.412	-8.858	-0.131	0.088
-691.397	-59.238	-0.108	-0.047
-690.383	-128.999	0.171	-0.024
-689.368	472.770	-0.111	-0.250
-688.354	-200.000	0.010	0.047
-687.339	26.783	-0.315	-0.265
-686.324	-38.874	-0.318	-0.168
-685.310	-133.779	0.265	-0.033
-684.295	-70.291	0.088	0.033
-683.281	800.000	-0.045	-0.152
-682.266	55.619	-0.140	-0.136
-681.251	-93.469	-0.217	-0.060
-680.237	-79.881	-0.518	-0.175
-679.222	800.000	0.093	0.384
-678.208	14.709	0.189	-0.148
-677.193	76.351	-0.066	0.071
-676.178	-121.064	0.083	0.014
-675.164	-200.000	0.010	0.072
-674.149	-57.613	-0.395	-0.174
-673.135	98.921	0.159	-0.184
-672.120	105.276	0.066	-0.078
-671.105	119.409	-0.082	-0.101
-670.091	-144.668	0.060	-0.006
-669.076	-172.463	0.069	-0.002
-668.062	800.000	-0.095	-0.283
-667.047	-65.483	-0.313	-0.126
-666.032	-147.035	0.229	0.020
-665.018	-200.000	-0.043	0.239
-664.003	-181.162	-0.087	0.002
-662.989	-71.892	0.071	-0.026
-661.974	82.071	0.277	0.301
-660.959	4.657	-0.111	-0.082
-659.945	-44.500	-0.122	0.061
-658.930	3.455	0.074	-0.054
-657.916	-200.000	-0.013	0.133
-656.901	-200.000	-0.010	-0.047
-655.886	22.848	0.252	-0.207
-654.872	-55.177	-0.136	-0.061
-653.857	-26.957	0.176	0.103
-652.843	-116.522	0.151	0.028
-651.828	-200.000	-0.015	-0.091
-650.814	-22.468	-0.233	-0.141
-649.799	-30.972	-0.295	-0.167
-648.784	399.008	-0.171	-0.358
-647.770	-89.022	0.180	0.053
-646.755	-154.374	0.368	-0.025
-645.741	-200.000	0.046	-0.267
-644.726	-184.957	0.311	0.005
-643.711	-142.395	0.252	-0.025
-642.697	-18.105	0.096	-0.060
-641.682	-116.635	-0.092	0.017
-640.668	82.326	-0.304	0.330
-639.653	-155.718	-0.279	0.018
-638.638	-117.801	0.464	0.083
-637.624	73.012	-0.184	0.193
-636.609	-17.467	-0.241	-0.152
-635.595	166.234	0.064	0.091
-634.580	-200.000	-0.013	0.057
-633.565	162.414	-0.087	0.122
-632.551	176.831	-0.311	-0.453
-631.536	71.918	-0.030	0.031
-630.522	-200.000	-0.027	-0.262
-629.507	-200.000	0.097	-0.573
-628.492	-200.000	0.006	-0.216
-627.478	-118.662	0.316	0.056
-626.463	-200.000	0.290	-0.001
-625.449	-160.279	-0.317	-0.017
-624.434	-13.109	0.088	-0.057
-623.419	60.774	-0.272	0.270
-622.405	-200.000	-0.013	-0.307
-621.390	800.000	0.084	0.273
-620.376	121.545	-0.109	-0.136
-619.361	-78.598	0.227	0.078
-618.346	-200.000	0.014	0.161
-617.332	-70.619	-0.133	-0.050
-616.317	657.239	-0.040	-0.102
-615.303	-141.973	0.176	-0.018
-614.288	46.303	0.294	0.273
-613.273	-200.000	0.025	0.143
-612.259	411.792	0.113	0.239
-611.244	-65.236	0.263	-0.106
-610.230	-68.968	0.072	0.028
-609.215	-58.165	-0.244	-0.106
-608.201	-80.409	-0.120	0.040
-607.186	59.370	-0.120	-0.118
-606.171	-200.000	0.004	0.228
-605.157	142.892	0.177	0.235
-604.142	319.794	0.199	0.378
-603.128	-98.940	-0.246	0.062
-602.113	163.283	-0.200	-0.282
-601.098	800.000	0.048	0.174
-600.084	800.000	-0.040	-0.168
-599.069	-39.371	-0.249	0.131
-598.055	304.317	-0.094	-0.174
-597.040	-104.890	-0.210	0.048
-596.025	127.566	-0.099	-0.125
-595.011	-200.000	0.028	-0.278
-593.996	154.078	0.105	-0.144
-592.982	800.000	0.023	0.078
-591.967	-200.000	-0.022	-0.154
-590.952	208.935	0.101	0.157
-589.938	-102.435	-0.210	0.050
-588.923	-200.000	-0.023	0.264
-587.909	-140.049	-0.159	0.017
-586.894	16.457	-0.189	-0.149
-585.879	42.846	0.139	-0.126
-584.865	-25.839	0.333	0.196
-583.850	-200.000	0.022	-0.118
-582.836	195.767	-0.129	0.195
-581.821	800.000	-0.060	-0.175
-580.806	152.220	-0.201	-0.273
-579.792	-80.904	-0.352	0.117
-578.777	-99.973	-0.411	-0.103
-577.763	38.387	-0.236	0.210
-576.748	415.029	0.080	-0.170
-575.733	22.938	0.109	-0.089
-574.719	800.000	-0.020	0.084
-573.704	-45.660	0.260	-0.128
-572.690	147.038	0.067	-0.090
-571.675	-200.000	-0.256	-0.001
-570.661	3.983	-0.243	-0.177
-569.646	-169.259	-0.125	0.005
-568.631	-200.000	-0.026	0.340
-567.617	-73.483	-0.120	-0.044
-566.602	-192.303	0.210	-0.002
-565.588	71.177	0.031	0.033
-564.573	-51.907	-0.016	-0.007
-563.558	-43.381	0.171	0.086
-562.544	800.000	-0.127	0.419
-561.529	87.566	0.081	0.090
-560.515	375.035	0.135	-0.275
-559.500	222.999	-0.096	-0.155
-558.485	-59.560	-0.365	0.157
-557.471	-46.121	-0.096	0.047
-556.456	394.618	-0.117	0.243
-555.442	587.345	0.080	0.197
-554.427	-125.659	-0.051	-0.008
-553.412	147.330	-0.071	-0.095
-552.398	800.000	0.177	0.492
-551.383	5.869	-0.269	0.199
-550.369	649.765	-0.054	0.137
-549.354	77.538	0.212	0.225
-548.339	308.294	-0.081	-0.151
-547.325	324.374	-0.066	0.126
-546.310	71.103	-0.071	0.073
-545.296	-200.000	0.004	-0.189
-544.281	800.000	0.120	-0.352
-543.266	-73.898	0.298	-0.108
-542.252	-200.000	0.001	-0.077
-541.237	-131.750	0.171	-0.022
-540.223	178.628	0.171	-0.249
-539.208	36.262	-0.147	0.129
-538.193	-200.000	0.020	0.276
-537.179	-169.702	0.145	0.005
-536.164	-175.031	-0.099	0.003
-535.150	211.719	0.169	0.266
-534.135	-111.697	-0.209	0.042
-533.121	19.733	0.552	0.443
-532.106	154.415	-0.249	-0.340
-531.091	47.180	0.172	0.160
-530.077	120.877	0.204	-0.253
-529.062	105.715	-0.087	0.102
-528.048	-113.609	-0.035	0.007
-527.033	-200.000	0.035	-0.185
-526.018	135.860	-0.186	0.242
-525.004	-48.012	-0.150	-0.072
-523.989	147.121	0.196	-0.263
-522.975	800.000	0.048	-0.184
-521.960	800.000	-0.066	0.197
-520.945	318.586	-0.158	0.298
-519.931	-200.000	-0.013	-0.111
-518.916	-115.828	-0.304	-0.057
-517.902	51.441	-0.027	0.025
-516.887	-200.000	-0.002	0.024
-515.872	53.984	0.173	-0.166
-514.858	-200.000	-0.047	0.216
-513.843	-200.000	-0.010	0.095
-512.829	12.140	-0.035	0.027
-511.814	23.752	-0.106	-0.087
-510.799	466.638	0.059	0.131
-509.785	-77.732	-0.097	-0.033
-508.770	266.279	0.136	0.236
-507.756	-134.116	0.164	-0.020
-506.741	800.000	0.074	-0.215
-505.726	-121.793	0.212	0.035
-504.712	-78.493	-0.259	0.088
-503.697	800.000	-0.040	0.169
-502.683	-79.126	0.121	0.041
-501.668	563.760	-0.069	-0.166
-500.653	-137.488	-0.165	0.019
-499.639	-200.000	0.008	0.079
-498.624	-183.389	-0.118	-0.002
-497.610	-71.635	-0.041	-0.015
-496.595	17.381	-0.133	-0.105
-495.581	269.025	-0.066	-0.115
-494.566	-1.867	0.207	0.145
-493.551	251.359	-0.122	-0.207
-492.537	-200.000	-0.003	-0.204
-491.522	570.366	0.112	-0.271
-490.508	-134.868	-0.088	0.011
-489.493	-200.000	0.044	-0.263
-488.478	714.421	-0.040	-0.106
-487.464	92.321	0.146	-0.163
-486.449	-48.468	0.202	-0.097
-485.435	66.792	0.045	0.046
-484.420	319.729	-0.100	0.189
-483.405	194.589	-0.126	-0.190
-482.391	-162.775	0.054	-0.003
-481.376	114.680	0.055	-0.066
-480.362	-200.000	0.011	0.160
-479.347	-200.000	-0.011	-0.275
-478.332	168.258	-0.163	-0.230
-477.318	-116.528	0.300	0.055
-476.303	114.149	0.054	-0.065
-475.289	-19.889	-0.015	0.009
-474.274	-67.983	-0.096	-0.037
-473.259	198.016	-0.176	0.267
-472.245	-135.626	0.223	-0.026
-471.230	-54.338	0.198	-0.089
-470.216	141.120	-0.101	0.133
-469.201	-30.765	-0.178	-0.100
-468.186	-60.791	-0.211	-0.089
-467.172	325.279	-0.078	0.149
-466.157	-27.627	0.225	0.130
-465.143	60.141	0.229	0.225
-464.128	-41.617	-0.178	-0.091
-463.113	-53.262	-0.088	0.040
-462.099	-29.953	0.119	-0.067
-461.084	-65.500	-0.274	0.109
-460.070	63.954	-0.170	-0.170
-459.055	123.178	0.130	0.162
-458.040	192.704	0.180	0.270
-457.026	-148.760	0.078	0.006
-456.011	-82.755	-0.287	0.092
-454.997	-111.676	-0.351	-0.071
-453.982	150.850	-0.122	-0.165
-452.968	509.572	-0.056	0.130
-451.953	-149.806	-0.152	-0.012
-450.938	139.046	0.157	0.205
-449.924	114.017	0.176	0.213
-448.909	-9.641	-0.169	0.112
-447.895	19.662	-0.092	-0.074
-446.880	575.575	0.150	-0.364
-445.865	-74.652	-0.179	0.064
-444.851	72.121	0.055	-0.057
-443.836	800.000	0.036	-0.098
-442.822	-19.211	-0.210	0.130
-441.807	-52.371	0.291	0.134
-440.792	-200.000	0.044	0.216
-439.778	-34.288	-0.358	0.195
-438.763	356.876	0.028	0.055
-437.749	-200.000	-0.054	-0.282
-436.734	204.658	-0.134	0.206
-435.719	268.986	-0.126	0.220
-434.705	665.419	0.094	0.240
-433.690	-200.000	0.003	-0.266
-432.676	421.695	0.091	-0.194
-431.661	800.000	-0.010	-0.028
-430.646	-103.130	-0.227	0.053
-429.632	46.773	-0.198	-0.183
-428.617	-200.000	0.036	-0.422
-427.603	800.000	-0.053	-0.218
-426.588	206.092	0.149	0.231
-425.573	-86.376	-0.095	0.029
-424.559	-200.000	0.051	0.418
-423.544	66.066	0.130	0.131
-422.530	-44.903	0.033	0.017
-421.515	-38.827	-0.169	0.088
-420.500	550.115	-0.135	0.321
-419.486	-177.367	-0.205	-0.005
-418.471	-90.899	0.295	0.084
-417.457	-200.000	-0.014	-0.297
-416.442	-89.997	-0.165	-0.048
-415.428	585.523	-0.150	0.365
-414.413	-77.313	0.271	0.093
-413.398	593.414	0.093	0.227
-412.384	800.000	-0.023	0.083
-411.369	800.000	-0.053	-0.206
-410.355	-59.866	-0.204	0.087
-409.340	-10.535	0.181	0.119
-408.325	-121.614	0.280	0.046
-407.311	521.376	0.216	-0.503
-406.296	-140.104	-0.148	-0.015
-405.282	7.137	-0.118	-0.088
-404.267	-47.286	-0.301	-0.145
-403.252	62.450	0.030	-0.030
-402.238	241.495	-0.140	0.232
-401.223	-75.066	-0.083	0.029
-400.209	37.778	0.062	0.055
-399.194	-132.020	-0.206	0.027
-398.179	-200.000	0.022	-0.155
-397.165	800.000	-0.108	0.302
-396.150	-16.561	0.271	0.170
-395.136	-121.412	0.170	0.028
-394.121	53.655	0.056	0.053
-393.106	-129.829	0.208	-0.028
-392.092	-97.574	0.231	-0.059
-391.077	118.283	-0.033	-0.040
-390.063	-33.155	-0.267	-0.147
-389.048	800.000	-0.083	0.295
-388.033	-200.000	-0.053	-0.458
-387.019	800.000	-0.046	0.173
-386.004	131.215	-0.151	-0.193
-384.990	-169.382	-0.469	0.017
-383.975	761.448	-0.107	-0.289
-382.960	170.159	0.263	-0.372
-381.946	-90.311	0.353	0.102
-380.931	23.582	0.189	0.155
-379.917	-89.478	0.203	-0.059
-378.902	497.626	0.116	-0.264
-377.888	757.537	-0.041	-0.110
-376.873	-109.768	-0.084	0.018
-375.858	-51.746	-0.270	-0.125
-374.844	-200.000	0.007	-0.067
-373.829	-200.000	0.020	-0.172
-372.815	148.250	0.059	-0.078
-371.800	192.299	-0.076	-0.113
-370.785	51.260	0.161	-0.152
-369.771	730.619	0.129	-0.342
-368.756	-24.900	0.235	0.138
-367.742	-105.947	-0.235	-0.052
-366.727	800.000	0.070	-0.229
-365.712	271.801	0.030	0.053
-364.698	-71.349	-0.085	0.032
-363.683	333.462	0.061	-0.117
-362.669	-74.475	-0.284	0.101
-361.654	-0.857	-0.323	-0.227
-360.639	-153.163	-0.120	0.008
-359.625	4.197	0.187	0.135
-358.610	-28.817	-0.115	-0.065
-357.596	-35.466	-0.087	-0.047
-356.581	-124.188	0.194	-0.030
-355.566	32.178	0.103	0.088
-354.552	627.477	-0.119	0.297
-353.537	-158.504	0.133	-0.008
-352.523	-50.778	-0.049	-0.023
-351.508	800.000	-0.128	0.399
-350.493	-200.000	0.017	0.279
-349.479	-200.000	-0.042	-0.198
-348.464	263.274	-0.067	-0.115
-347.450	-8.703	0.163	-0.108
-346.435	-30.521	-0.064	-0.036
-345.420	-121.747	0.224	0.037
-344.406	351.816	0.094	0.185
-343.391	5.945	0.124	-0.091
-342.377	243.764	0.118	0.196
-341.362	-1.774	0.239	-0.167
-340.348	98.522	0.150	-0.171
-339.333	-1.383	0.049	0.034
-338.318	80.602	-0.176	-0.188
-337.304	137.381	-0.077	0.099
-336.289	800.000	-0.091	-0.316
-335.275	51.734	0.048	0.045
-334.260	-32.495	0.099	-0.055
-333.245	736.242	-0.034	0.091
-332.231	52.694	0.205	0.194
-331.216	800.000	0.027	0.080
-330.202	78.721	0.191	0.202
-329.187	-159.644	0.302	-0.017
-328.172	29.234	-0.158	0.133
-327.158	-112.649	0.423	-0.083
-326.143	800.000	-0.057	0.248
-325.129	-200.000	-0.010	-0.210
-324.114	503.254	-0.066	0.152
-323.099	-200.000	-0.057	-0.305
-322.085	75.990	-0.103	0.108
-321.070	146.836	0.032	-0.043
-320.056	-81.491	0.038	-0.012
-319.041	800.000	0.051	0.204
-318.026	-74.251	0.078	-0.028
-317.012	37.987	0.145	-0.128
-315.997	-30.544	-0.021	-0.012
-314.983	49.896	0.196	-0.182
-313.968	20.145	0.287	0.229
-312.953	140.160	0.250	0.326
-311.939	-200.000	0.020	0.091
-310.924	-101.496	0.282	0.068
-309.910	-19.820	-0.146	0.089
-308.895	-200.000	-0.048	0.000
-307.880	-153.794	0.479	-0.032
-306.866	800.000	0.008	-0.031
-305.851	65.475	0.109	-0.109
-304.837	-139.999	0.055	0.006
-303.822	281.347	-0.053	0.094
-302.807	599.342	-0.105	-0.258
-301.793	-200.000	-0.025	0.157
-300.778	8.012	0.305	-0.226
-299.764	506.247	0.152	-0.348
-298.749	-71.968	-0.198	-0.073
-297.735	-169.122	-0.327	-0.012
-296.720	-32.227	0.370	0.204
-295.705	229.260	0.183	0.295
-294.691	-154.218	-0.356	-0.024
-293.676	800.000	0.057	0.196
-292.662	-107.933	-0.100	-0.021
-291.647	-49.936	-0.142	0.066
-290.632	64.521	0.010	-0.010
-289.618	33.765	-0.058	0.050
-288.603	86.230	0.271	-0.295
-287.589	-200.000	-0.040	0.380
-286.574	-22.687	0.186	0.111
-285.559	-120.970	-0.221	-0.037
-284.545	-200.000	-0.030	-0.242
-283.530	-200.000	0.015	-0.225
-282.516	-47.001	-0.264	-0.127
-281.501	-200.000	-0.112	-0.520
-280.486	86.612	0.102	0.111
-279.472	-85.389	-0.073	-0.023
-278.457	272.172	0.052	-0.090
-277.443	40.893	0.250	-0.222
-276.428	465.544	0.023	-0.052
-275.413	102.676	0.225	-0.260
-274.399	800.000	0.102	0.293
-273.384	435.411	0.071	-0.153
-272.370	91.761	-0.173	-0.192
-271.355	-200.000	0.021	-0.159
-270.340	137.752	0.149	0.192
-269.326	53.929	-0.073	-0.069
-268.311	-200.000	0.008	-0.200
-267.297	-82.580	0.383	0.123
-266.282	461.609	0.083	-0.182
-265.267	-200.000	0.011	0.146
-264.253	-200.000	0.069	-0.436
-263.238	800.000	0.023	-0.075
-262.224	114.162	0.215	0.258
-261.209	-35.362	-0.069	0.037
-260.195	-200.000	-0.005	-0.048
-259.180	12.065	0.184	0.140
-258.165	-97.155	-0.413	0.106
-257.151	-129.051	-0.246	-0.034
-256.136	-155.806	-0.050	-0.003
-255.122	361.087	0.076	0.151
-254.107	33.684	-0.190	-0.163
-253.092	455.480	0.077	0.168
-252.078	115.007	-0.080	-0.097
-251.063	-200.000	-0.089	-0.487
-250.049	11.318	-0.085	-0.064
-249.034	242.100	-0.218	-0.359
-248.019	-1.379	-0.234	0.163
-247.005	-81.851	-0.248	-0.080
-245.990	305.674	0.185	0.340
-244.976	154.562	0.110	0.148
-243.961	-112.219	0.204	-0.040
-242.946	103.857	-0.150	0.174
-241.932	58.379	-0.237	-0.229
-240.917	-39.729	0.249	0.128
-239.903	-14.605	0.266	0.168
-238.888	-16.303	-0.277	-0.173
-237.873	101.219	0.100	0.114
-236.859	138.859	0.199	0.257
-235.844	175.677	-0.086	0.123
-234.830	800.000	-0.034	0.111
-233.815	82.735	0.199	0.213
-232.800	-105.071	-0.254	-0.057
-231.786	800.000	-0.097	0.415
-230.771	-5.765	0.169	0.114
-229.757	800.000	0.129	-0.370
-228.742	-110.078	0.252	0.052
-227.727	800.000	0.073	0.292
-226.713	-71.105	0.202	-0.075
-225.698	116.684	-0.239	-0.289
-224.684	800.000	-0.145	-0.488
-223.669	56.043	-0.063	0.060
-222.655	190.344	-0.059	-0.087
-221.640	-200.000	-0.025	0.231
-220.625	2.526	0.312	-0.223
-219.611	-110.102	-0.194	-0.040
-218.596	705.845	0.154	-0.402
-217.582	-28.970	0.186	0.105
-216.567	21.708	-0.305	-0.245
-215.552	-97.043	0.324	0.083
-214.538	-140.013	-0.137	0.014
-213.523	800.000	0.078	-0.227
-212.509	117.978	-0.271	0.328
-211.494	460.315	0.045	0.098
-210.479	120.498	0.195	0.238
-209.465	-200.000	0.033	0.153
-208.450	-35.850	0.356	-0.189
-207.436	-200.000	0.092	0.000
-206.421	-200.000	0.045	0.256
-205.406	-38.025	0.044	0.023
-204.392	-33.671	-0.214	-0.116
-203.377	80.291	0.264	-0.280
-202.363	2.253	0.029	-0.020
-201.348	403.549	-0.031	0.065
-200.333	42.993	0.387	0.347
-199.319	-88.030	-0.377	0.111
-198.304	58.037	-0.223	-0.215
-197.290	518.252	0.095	0.219
-196.275	3.988	-0.150	0.108
-195.260	343.172	0.167	-0.322
-194.246	-24.621	0.243	0.142
-193.231	74.804	0.154	0.159
-192.217	-33.922	-0.401	0.217
-191.202	-130.661	-0.297	0.039
-190.187	-26.487	0.067	0.039
-189.173	-20.537	0.179	0.108
-188.158	37.623	0.244	0.213
-187.144	-163.700	-0.014	-0.001
-186.129	-51.439	0.019	0.009
-185.114	-158.359	-0.388	-0.022
-184.100	-21.319	-0.264	-0.159
-183.085	83.385	0.334	0.358
-182.071	60.385	0.253	0.246
-181.056	-167.440	-0.442	-0.017
-180.042	-109.899	-0.148	-0.031
-179.027	428.988	-0.124	-0.264
-178.012	63.146	0.338	-0.333
-176.998	29.433	-0.322	-0.269
-175.983	11.023	0.212	0.159
-174.969	-11.609	0.157	0.102
-173.954	-44.392	-0.101	-0.050
-172.939	-99.348	-0.245	-0.061
-171.925	107.803	-0.305	-0.357
-170.910	-33.325	0.252	0.137
-169.896	-64.530	0.277	0.111
-168.881	597.472	-0.092	-0.224
-167.866	57.716	0.095	-0.091
-166.852	27.456	-0.147	0.121
-165.837	-19.047	0.090	-0.055
-164.823	159.383	-0.042	0.057
-163.808	-108.298	-0.215	0.046
-162.793	395.894	0.103	0.211
-161.779	108.816	-0.092	0.108
-160.764	213.165	-0.070	-0.108
-159.750	-112.486	-0.206	0.040
-158.735	-200.000	-0.061	0.357
-157.720	800.000	-0.046	-0.137
-156.706	-89.774	0.298	0.086
-155.691	17.322	0.304	0.237
-154.677	-173.438	-0.267	-0.008
-153.662	391.003	-0.054	-0.110
-152.647	-61.314	-0.156	0.065
-151.633	718.765	-0.036	0.095
-150.618	101.649	-0.130	-0.149
-149.604	-200.000	-0.021	0.163
-148.589	176.965	0.177	-0.253
-147.574	-145.040	0.194	0.017
-146.560	-39.827	0.154	-0.079
-145.545	-8.074	-0.505	-0.335
-144.531	317.675	0.090	-0.167
-143.516	-120.630	-0.254	-0.042
-142.502	11.867	-0.055	-0.041
-141.487	-200.000	0.058	-0.342
-140.472	10.673	0.367	-0.275
-139.458	39.064	-0.217	0.191
-138.443	189.591	-0.155	-0.228
-137.429	800.000	0.052	-0.201
-136.414	43.225	-0.161	0.144
-135.399	-200.000	0.051	-0.390
-134.385	181.924	-0.177	-0.256
-133.370	-70.361	0.321	-0.120
-132.356	-106.999	0.135	0.029
-131.341	-200.000	0.027	-0.150
-130.326	257.889	-0.073	0.123
-129.312	342.454	0.035	-0.067
-128.297	-11.471	0.240	0.155
-127.283	46.536	0.086	0.078
-126.268	140.507	-0.113	0.146
-125.253	-71.930	-0.210	-0.077
-124.239	-35.024	0.408	-0.218
-123.224	136.762	-0.022	0.028
-122.210	96.531	-0.008	0.009
-121.195	735.947	0.064	-0.169
