DTS Sentinel unit serial number:	SN413079Multiplexer serial number:	ORYXHardware model number:	OX4-SRSoftware version number:	ORYX F/W v4.00 Oryx Data Collector v3.7.2.0data status	okinstallation	princeton_trtdifferential loss correction	single-endedforward channel	channel 2reverse channel	N/Adate	2019/09/16time	06:23:34forward acquisition time	60.00reverse acquisition time	0.00gamma	496.2192k internal	0.2334k external	0.2334temperature offset calibration	0.9982default loss term (dB/km)	0.3790temperature slope calibration	1.0000multiplexer offset coefficient	1.0000multiplexer slope coefficient	1.0000fibre end	0.00T internal ref (°C)	27.41T ext. ref 1 (°C)	11.35T ext. ref 2 (°C)	21.64length (m)	temperature (°C)	Stokes	anti-Stokes-747.200	800.000	-0.098	-0.278
-746.185	71.777	-0.107	0.112
-745.171	-114.966	-0.182	-0.035
-744.156	43.501	-0.208	0.191
-743.142	40.790	0.074	0.067
-742.127	-200.000	-0.017	0.183
-741.112	49.568	0.218	0.206
-740.098	800.000	-0.092	0.300
-739.083	-40.637	0.330	0.172
-738.069	-133.136	-0.193	0.025
-737.054	800.000	0.037	0.124
-736.039	-113.331	-0.051	0.010
-735.025	10.151	0.162	-0.124
-734.010	74.858	-0.228	-0.241
-732.996	800.000	-0.047	0.165
-731.981	-200.000	0.041	-0.338
-730.966	0.416	0.091	-0.065
-729.952	800.000	0.022	-0.086
-728.937	-82.013	-0.158	0.052
-727.923	-200.000	0.018	0.236
-726.908	37.260	-0.205	-0.182
-725.894	-112.259	0.297	-0.060
-724.879	-58.503	-0.168	-0.073
-723.864	128.971	0.075	-0.096
-722.850	-24.046	0.185	0.111
-721.835	-97.431	0.147	-0.038
-720.821	800.000	0.109	0.391
-719.806	-55.046	0.270	-0.122
-718.791	-72.101	-0.202	-0.075
-717.777	496.246	0.105	0.244
-716.762	-192.333	-0.171	0.002
-715.748	800.000	0.109	-0.330
-714.733	-145.315	-0.101	-0.009
-713.718	118.655	0.210	-0.260
-712.704	-89.995	0.174	0.051
-711.689	-200.000	-0.007	0.059
-710.675	-160.420	0.284	-0.015
-709.660	-200.000	-0.018	-0.255
-708.645	218.146	0.066	0.105
-707.631	800.000	-0.053	-0.178
-706.616	93.719	0.116	0.132
-705.602	389.986	-0.123	-0.257
-704.587	800.000	0.099	0.362
-703.572	177.537	-0.135	-0.197
-702.558	197.132	-0.137	0.210
-701.543	-200.000	0.020	0.107
-700.529	318.953	0.125	0.238
-699.514	-146.537	0.126	0.011
-698.499	-128.482	-0.037	-0.005
-697.485	-14.779	-0.068	-0.044
-696.470	-143.398	0.385	-0.037
-695.456	50.230	0.037	0.035
-694.441	-200.000	0.014	-0.125
-693.426	68.874	0.311	-0.320
-692.412	32.276	-0.162	0.140
-691.397	-200.000	-0.005	0.115
-690.383	-200.000	-0.006	-0.062
-689.368	-84.226	-0.029	0.009
-688.354	-4.917	0.073	0.051
-687.339	42.274	-0.120	-0.110
-686.324	219.292	-0.032	-0.051
-685.310	50.023	-0.112	0.106
-684.295	-200.000	0.009	-0.178
-683.281	548.432	-0.044	-0.105
-682.266	-58.953	-0.285	0.123
-681.251	10.724	0.200	-0.153
-680.237	-102.964	0.159	-0.038
-679.222	-134.244	-0.277	0.034
-678.208	9.886	0.188	-0.143
-677.193	-200.000	0.002	0.023
-676.178	64.788	-0.316	-0.319
-675.164	688.376	0.077	-0.201
-674.149	150.457	0.019	-0.026
-673.135	145.412	0.200	-0.268
-672.120	26.696	0.079	-0.066
-671.105	438.920	0.106	0.232
-670.091	800.000	-0.138	-0.452
-669.076	754.694	0.084	-0.228
-668.062	74.112	-0.093	0.098
-667.047	59.851	-0.140	-0.139
-666.032	-200.000	-0.022	0.163
-665.018	-54.520	0.292	-0.132
-664.003	-32.504	0.351	0.196
-662.989	46.599	-0.123	-0.114
-661.974	-200.000	0.019	-0.097
-660.959	55.844	0.157	0.152
-659.945	-49.592	0.125	0.060
-658.930	185.955	-0.060	-0.089
-657.916	11.906	0.084	-0.064
-656.901	110.401	-0.092	-0.111
-655.886	-52.552	-0.234	0.109
-654.872	-11.294	0.186	0.123
-653.857	257.215	0.060	-0.103
-652.843	-132.375	-0.318	0.041
-651.828	-200.000	0.003	0.354
-650.814	292.196	-0.141	-0.257
-649.799	24.245	0.046	0.038
-648.784	-7.842	-0.152	-0.103
-647.770	56.767	-0.072	-0.071
-646.755	41.238	0.317	-0.287
-645.741	-200.000	0.059	-0.260
-644.726	-47.474	0.284	-0.138
-643.711	-116.351	-0.169	-0.031
-642.697	74.764	0.277	-0.292
-641.682	202.206	-0.166	-0.256
-640.668	-12.082	-0.330	0.216
-639.653	216.428	-0.161	-0.256
-638.638	-113.212	-0.356	-0.070
-637.624	-200.000	-0.037	-0.180
-636.609	-65.249	0.309	-0.124
-635.595	332.058	-0.079	0.153
-634.580	800.000	0.017	-0.046
-633.565	-117.840	0.207	0.037
-632.551	132.780	-0.148	0.191
-631.536	9.427	-0.165	0.125
-630.522	159.140	0.239	0.332
-629.507	-171.304	-0.301	-0.010
-628.492	119.012	-0.093	0.115
-627.478	-81.091	-0.051	0.017
-626.463	-200.000	0.024	-0.163
-625.449	-160.983	-0.313	-0.016
-624.434	-200.000	-0.013	-0.164
-623.419	-43.596	-0.108	-0.055
-622.405	-97.025	0.268	0.070
-621.390	657.531	-0.036	0.092
-620.376	-27.533	-0.173	-0.101
-619.361	23.398	-0.188	0.155
-618.346	9.442	-0.396	-0.300
-617.332	352.844	0.142	-0.281
-616.317	-43.554	0.096	-0.048
-615.303	-125.589	-0.112	0.017
-614.288	-200.000	0.016	-0.111
-613.273	91.182	-0.083	-0.094
-612.259	-200.000	0.031	0.407
-611.244	-200.000	0.002	0.175
-610.230	316.495	-0.061	0.116
-609.215	249.993	0.044	0.074
-608.201	-149.278	0.067	0.005
-607.186	-52.197	0.214	0.099
-606.171	-74.311	-0.228	-0.082
-605.157	170.046	-0.105	-0.150
-604.142	31.551	-0.288	-0.248
-603.128	180.366	0.145	-0.213
-602.113	800.000	0.068	0.288
-601.098	-5.896	0.246	-0.168
-600.084	-57.397	0.088	0.038
-599.069	73.756	0.075	0.079
-598.055	-146.126	-0.306	-0.027
-597.040	800.000	-0.064	-0.263
-596.025	-7.805	0.160	-0.108
-595.011	-119.985	-0.347	0.060
-593.996	-114.642	-0.388	0.074
-592.982	-200.000	0.007	0.117
-591.967	-18.650	0.257	0.160
-590.952	195.638	-0.009	0.013
-589.938	-13.880	0.106	0.069
-588.923	-33.286	0.355	0.196
-587.909	123.474	0.108	-0.136
-586.894	20.184	-0.333	0.268
-585.879	-124.760	0.388	-0.060
-584.865	28.330	-0.114	0.097
-583.850	109.675	-0.066	0.079
-582.836	-71.403	0.079	-0.030
-581.821	-65.104	-0.307	0.124
-580.806	-86.996	-0.137	0.042
-579.792	800.000	0.044	-0.147
-578.777	79.616	0.167	-0.179
-577.763	-172.400	-0.426	0.014
-576.748	117.131	-0.166	-0.204
-575.733	230.336	-0.234	-0.383
-574.719	232.623	0.069	-0.113
-573.704	-151.631	0.125	0.009
-572.690	324.620	0.046	0.088
-571.675	-58.726	0.206	0.089
-570.661	-126.655	-0.205	0.030
-569.646	-29.822	-0.124	0.071
-568.631	-60.738	0.300	0.127
-567.617	31.183	0.053	0.045
-566.602	-100.623	-0.137	-0.034
-565.588	62.448	-0.045	-0.045
-564.573	271.566	-0.144	0.254
-563.558	69.116	-0.100	0.103
-562.544	511.829	0.156	0.363
-561.529	-200.000	0.014	0.152
-560.515	27.329	0.175	0.147
-559.500	118.675	-0.091	-0.113
-558.485	-183.877	0.246	0.004
-557.471	288.967	0.040	-0.073
-556.456	382.271	0.095	0.194
-555.442	-85.435	-0.384	0.119
-554.427	-200.000	0.063	0.340
-553.412	-200.000	-0.013	0.086
-552.398	-60.146	-0.367	-0.156
-551.383	-91.122	0.330	0.094
-550.369	-75.334	-0.116	0.041
-549.354	390.820	-0.121	-0.251
-548.339	104.269	0.070	0.082
-547.325	-120.284	-0.398	0.068
-546.310	100.116	-0.077	-0.089
-545.296	36.562	0.196	0.173
-544.281	-200.000	0.012	-0.123
-543.266	800.000	0.061	-0.248
-542.252	-124.904	0.190	-0.029
-541.237	-129.340	0.247	-0.034
-540.223	95.285	0.289	0.329
-539.208	454.855	0.142	-0.314
-538.193	396.404	0.100	0.208
-537.179	414.034	-0.112	-0.238
-536.164	-200.000	0.005	-0.048
-535.150	256.395	0.104	0.177
-534.135	34.914	-0.174	-0.151
-533.121	-168.981	0.073	0.003
-532.106	-95.944	0.111	-0.029
-531.091	15.335	0.246	-0.192
-530.077	132.920	0.144	-0.185
-529.062	53.737	0.184	0.176
-528.048	732.852	0.092	0.246
-527.033	85.552	-0.074	-0.080
-526.018	-200.000	0.001	-0.460
-525.004	-51.907	0.083	-0.039
-523.989	-200.000	0.006	0.300
-522.975	368.843	-0.041	-0.084
-521.960	31.848	0.166	-0.142
-520.945	164.318	0.131	-0.184
-519.931	-7.607	-0.142	0.095
-518.916	-95.817	0.192	0.051
-517.902	79.209	-0.094	0.100
-516.887	91.741	0.159	-0.178
-515.872	-22.001	-0.141	0.086
-514.858	-200.000	0.001	0.264
-513.843	-143.652	-0.328	-0.031
-512.829	-94.625	0.248	0.067
-511.814	-15.460	0.411	0.262
-510.799	-23.505	-0.144	0.086
-509.785	-200.000	-0.004	-0.233
-508.770	-17.565	0.328	-0.205
-507.756	-113.805	0.099	-0.019
-506.741	-189.945	0.169	-0.002
-505.726	800.000	0.067	-0.240
-504.712	-144.377	0.091	-0.008
-503.697	-200.000	0.050	-0.351
-502.683	328.623	-0.082	0.156
-501.668	800.000	-0.061	0.192
-500.653	11.026	-0.111	0.084
-499.639	649.066	0.118	-0.301
-498.624	0.719	0.192	-0.137
-497.610	407.703	-0.143	-0.300
-496.595	-119.355	0.043	-0.007
-495.581	-173.083	0.155	-0.005
-494.566	11.608	-0.060	-0.046
-493.551	-147.281	-0.154	0.013
-492.537	-96.755	-0.149	0.039
-491.522	54.639	0.345	-0.331
-490.508	-170.675	-0.359	0.012
-489.493	800.000	-0.106	-0.308
-488.478	-105.008	0.219	0.050
-487.464	800.000	-0.058	-0.160
-486.449	800.000	-0.039	-0.143
-485.435	-1.391	0.156	0.109
-484.420	27.716	0.252	0.211
-483.405	-128.461	0.205	-0.029
-482.391	-62.808	0.313	0.129
-481.376	-51.323	-0.304	0.141
-480.362	30.570	-0.219	-0.186
-479.347	3.387	-0.167	-0.121
-478.332	277.329	0.097	-0.172
-477.318	-200.000	0.029	-0.162
-476.303	-142.235	0.284	-0.028
-475.289	366.901	-0.131	0.263
-474.274	2.514	0.229	-0.165
-473.259	-117.010	0.292	-0.053
-472.245	-200.000	0.022	0.113
-471.230	670.436	-0.095	-0.245
-470.216	-146.607	0.232	0.020
-469.201	183.697	0.023	-0.034
-468.186	-200.000	-0.003	-0.029
-467.172	-170.611	-0.409	-0.014
-466.157	800.000	0.046	0.183
-465.143	678.969	-0.072	-0.187
-464.128	100.841	-0.090	-0.103
-463.113	85.889	0.092	-0.101
-462.099	22.577	-0.163	0.133
-461.084	-50.331	0.171	-0.080
-460.070	-64.917	-0.253	-0.102
-459.055	800.000	0.124	-0.433
-458.040	24.604	-0.170	0.140
-457.026	-86.595	-0.240	0.073
-456.011	47.497	-0.115	-0.107
-454.997	-62.264	0.164	-0.068
-453.982	-111.730	0.354	0.071
-452.968	536.799	0.079	0.186
-451.953	223.602	0.065	-0.105
-450.938	176.571	0.042	0.061
-449.924	-112.497	-0.316	0.063
-448.909	-200.000	0.008	-0.105
-447.895	59.529	-0.200	0.196
-446.880	3.030	-0.303	0.219
-445.865	-200.000	0.006	0.081
-444.851	3.142	-0.107	-0.077
-443.836	-5.817	-0.302	-0.205
-442.822	119.490	0.109	-0.134
-441.807	-13.040	0.115	0.074
-440.792	27.282	0.240	-0.200
-439.778	-149.853	-0.188	-0.015
-438.763	-111.363	0.463	0.094
-437.749	100.647	-0.242	-0.279
-436.734	417.887	0.176	-0.374
-435.719	-8.184	-0.213	0.142
-434.705	462.716	-0.063	0.140
-433.690	17.620	-0.056	0.044
-432.676	0.725	0.177	0.126
-431.661	-45.661	-0.288	-0.142
-430.646	-200.000	0.005	-0.090
-429.632	33.924	-0.272	-0.235
-428.617	557.197	-0.019	-0.045
-427.603	434.581	0.067	0.145
-426.588	-93.998	0.418	-0.114
-425.573	-98.275	-0.135	0.034
-424.559	-25.196	0.147	0.086
-423.544	-30.939	-0.122	0.068
-422.530	-28.806	-0.168	0.096
-421.515	-132.373	-0.198	0.025
-420.500	-200.000	-0.024	0.189
-419.486	-200.000	0.005	-0.126
-418.471	-106.819	-0.095	0.021
-417.457	800.000	-0.095	-0.308
-416.442	204.809	0.070	-0.108
-415.428	26.763	0.051	-0.042
-414.413	-51.286	0.152	-0.070
-413.398	-99.545	-0.234	0.058
-412.384	-86.816	-0.023	-0.007
-411.369	-61.023	-0.116	-0.048
-410.355	-71.960	-0.131	0.048
-409.340	-185.450	-0.174	-0.003
-408.325	-200.000	-0.072	-0.437
-407.311	45.440	0.148	0.135
-406.296	316.060	-0.127	0.238
-405.282	775.619	0.125	0.339
-404.267	481.553	-0.162	0.364
-403.252	255.457	0.191	-0.325
-402.238	-159.407	0.236	-0.013
-401.223	-50.028	0.198	0.093
-400.209	-169.541	-0.090	-0.003
-399.194	-103.104	0.364	-0.086
-398.179	-35.983	0.319	0.171
-397.165	-133.813	-0.160	0.020
-396.150	8.193	0.121	-0.090
-395.136	116.324	0.262	0.318
-394.121	150.226	-0.138	-0.185
-393.106	-29.600	-0.217	0.123
-392.092	-28.501	0.239	-0.136
-391.077	-105.440	-0.135	0.030
-390.063	-50.756	-0.224	-0.104
-389.048	-200.000	0.004	0.039
-388.033	-200.000	0.022	-0.113
-387.019	-176.218	0.127	0.003
-386.004	-58.307	-0.434	0.187
-384.990	571.937	0.176	-0.424
-383.975	44.572	0.443	0.403
-382.960	-8.943	0.257	-0.170
-381.946	-63.882	-0.081	-0.033
-380.931	319.693	0.155	-0.291
-379.917	800.000	0.045	-0.130
-378.902	2.673	-0.325	0.234
-377.888	52.945	0.108	-0.102
-376.873	800.000	0.062	-0.203
-375.858	-93.565	-0.158	-0.043
-374.844	800.000	-0.114	0.330
-373.829	39.203	0.313	-0.278
-372.815	56.303	-0.079	-0.076
-371.800	293.427	-0.075	-0.136
-370.785	-166.873	0.270	0.011
-369.771	126.367	-0.055	-0.069
-368.756	-197.328	0.256	-0.002
-367.742	-200.000	-0.002	-0.157
-366.727	-200.000	0.013	-0.056
-365.712	-27.550	0.207	-0.119
-364.698	135.830	0.110	-0.142
-363.683	-200.000	0.015	0.216
-362.669	-200.000	0.035	0.390
-361.654	-158.000	0.244	-0.014
-360.639	14.621	0.075	0.058
-359.625	-200.000	0.065	-0.354
-358.610	81.745	-0.106	-0.113
-357.596	118.231	0.108	-0.132
-356.581	206.729	-0.311	0.480
-355.566	-127.077	0.369	0.054
-354.552	18.866	-0.157	-0.124
-353.537	-79.634	-0.167	-0.056
-352.523	-24.461	-0.202	0.119
-351.508	-33.600	-0.056	-0.030
-350.493	124.776	-0.176	0.220
-349.479	-92.826	0.305	-0.085
-348.464	103.783	0.104	0.121
-347.450	-200.000	0.009	-0.051
-346.435	17.544	0.370	0.291
-345.420	230.467	0.148	-0.239
-344.406	-200.000	-0.009	-0.158
-343.391	-200.000	0.002	-0.163
-342.377	79.584	0.317	-0.336
-341.362	400.371	0.109	0.226
-340.348	-60.684	-0.443	-0.186
-339.333	135.118	0.129	0.166
-338.318	-200.000	-0.016	-0.376
-337.304	63.506	-0.188	-0.187
-336.289	-200.000	-0.009	-0.164
-335.275	109.491	0.154	-0.183
-334.260	11.058	-0.308	0.233
-333.245	800.000	-0.012	-0.049
-332.231	774.515	0.039	-0.105
-331.216	800.000	-0.038	0.155
-330.202	800.000	0.037	0.115
-329.187	107.503	-0.127	-0.149
-328.172	800.000	-0.058	0.220
-327.158	-200.000	0.027	0.307
-326.143	36.368	-0.079	0.069
-325.129	-158.663	-0.478	0.027
-324.114	800.000	-0.098	0.277
-323.099	-200.000	-0.025	-0.309
-322.085	82.401	0.213	0.229
-321.070	124.568	0.058	0.072
-320.056	-126.166	-0.276	0.041
-319.041	-66.867	-0.152	-0.059
-318.026	64.479	0.142	-0.141
-317.012	332.750	-0.111	0.212
-315.997	379.222	0.028	0.056
-314.983	25.290	0.200	0.164
-313.968	-88.543	0.248	0.073
-312.953	21.162	-0.114	0.092
-311.939	119.411	-0.088	-0.108
-310.924	152.394	0.061	0.082
-309.910	-200.000	0.022	-0.208
-308.895	-200.000	-0.008	0.149
-307.880	-124.822	0.264	0.040
-306.866	727.244	-0.067	0.177
-305.851	172.873	-0.073	-0.104
-304.837	-91.936	-0.223	0.062
-303.822	-147.911	-0.246	-0.020
-302.807	-129.368	0.089	-0.012
-301.793	-200.000	-0.025	-0.434
-300.778	-21.927	0.215	-0.129
-299.764	285.200	0.157	0.280
-298.749	800.000	-0.057	0.237
-297.735	58.508	0.175	0.170
-296.720	-200.000	0.021	-0.145
-295.705	-200.000	-0.001	0.213
-294.691	145.615	0.201	-0.266
-293.676	-68.965	-0.290	-0.110
-292.662	48.151	-0.158	0.146
-291.647	-57.680	-0.166	-0.072
-290.632	-89.154	-0.177	0.052
-289.618	-139.977	-0.485	-0.051
-288.603	-200.000	0.013	0.096
-287.589	-117.538	0.136	0.024
-286.574	-200.000	0.009	0.161
-285.559	800.000	0.084	0.251
-284.545	245.059	-0.145	0.240
-283.530	-68.844	0.233	-0.089
-282.516	36.047	0.290	-0.252
-281.501	-108.874	-0.218	0.046
-280.486	-169.674	-0.273	0.010
-279.472	-131.528	0.227	0.030
-278.457	-62.570	0.061	0.025
-277.443	800.000	-0.053	-0.177
-276.428	139.824	-0.050	0.065
-275.413	-67.528	-0.165	-0.064
-274.399	-33.182	-0.043	-0.023
-273.384	587.849	-0.076	-0.185
-272.370	352.547	-0.059	-0.116
-271.355	7.234	-0.153	-0.112
-270.340	190.928	0.222	0.330
-269.326	-195.313	-0.297	-0.002
-268.311	30.095	-0.211	-0.178
-267.297	336.717	0.019	-0.037
-266.282	-23.605	-0.338	-0.200
-265.267	-95.113	0.074	-0.020
-264.253	132.741	-0.100	0.127
-263.238	-43.047	-0.274	-0.137
-262.224	800.000	-0.035	0.098
-261.209	-200.000	0.011	0.191
-260.195	-200.000	0.029	0.245
-259.180	-19.528	0.254	0.155
-258.165	-53.143	-0.161	-0.073
-257.151	204.954	0.192	0.294
-256.136	-95.156	-0.024	0.007
-255.122	-141.105	0.113	-0.011
-254.107	-174.607	-0.127	-0.004
-253.092	-56.776	-0.391	0.171
-252.078	285.601	-0.116	0.206
-251.063	800.000	0.057	-0.159
-250.049	200.045	-0.103	0.156
-249.034	-8.015	0.051	0.034
-248.019	-200.000	-0.009	0.162
-247.005	-71.555	0.106	0.039
-245.990	534.061	0.100	0.234
-244.976	800.000	-0.062	0.195
-243.961	52.336	0.104	0.098
-242.946	-1.455	0.079	0.055
-241.932	425.154	-0.088	-0.187
-240.917	-200.000	0.025	0.134
-239.903	362.490	-0.043	-0.086
-238.888	-184.897	0.278	0.004
-237.873	-88.161	0.383	0.113
-236.859	-144.280	0.319	-0.029
-235.844	-159.091	-0.104	-0.006
-234.830	133.217	-0.027	-0.034
-233.815	-91.547	-0.092	-0.026
-232.800	53.809	0.155	0.147
-231.786	-84.272	0.181	0.056
-230.771	496.652	0.023	0.053
-229.757	-142.114	0.058	0.006
-228.742	107.876	-0.067	-0.078
-227.727	-200.000	-0.059	0.281
-226.713	-68.759	0.165	-0.063
-225.698	441.695	-0.037	0.079
-224.684	-200.000	0.002	0.041
-223.669	103.058	0.197	0.228
-222.655	14.662	-0.098	-0.076
-221.640	288.639	0.261	-0.465
-220.625	-133.450	0.275	-0.034
-219.611	361.149	-0.092	0.182
-218.596	-4.848	0.124	-0.084
-217.582	62.812	0.178	0.175
-216.567	-200.000	0.078	0.387
-215.552	-200.000	0.019	0.175
-214.538	365.443	-0.059	-0.117
-213.523	126.867	-0.206	0.257
-212.509	-200.000	-0.032	0.142
-211.494	98.250	0.121	0.137
-210.479	-200.000	0.002	-0.124
-209.465	21.255	-0.090	-0.072
-208.450	-75.863	0.317	0.110
-207.436	61.598	-0.190	0.186
-206.421	-53.640	-0.235	-0.106
-205.406	800.000	0.022	0.082
-204.392	-125.200	-0.421	0.064
-203.377	-200.000	0.016	0.099
-202.363	-200.000	-0.013	-0.108
-201.348	136.000	-0.280	0.360
-200.333	-200.000	0.008	0.109
-199.319	48.074	-0.274	-0.252
-198.304	-200.000	0.041	0.176
-197.290	-50.929	0.251	0.116
-196.275	18.638	-0.273	-0.215
-195.260	-122.727	0.203	-0.032
-194.246	-73.883	0.382	0.136
-193.231	-41.347	0.360	0.183
-192.217	97.189	0.103	-0.116
-191.202	-108.447	0.064	-0.014
-190.187	214.334	-0.052	0.081
-189.173	354.655	-0.147	-0.287
-188.158	-17.936	0.219	0.135
-187.144	-150.552	-0.414	0.031
-186.129	86.201	-0.145	-0.157
-185.114	683.513	0.065	-0.167
-184.100	446.182	-0.124	-0.269
-183.085	486.234	0.078	0.174
-182.071	375.871	-0.074	0.148
-181.056	-158.821	0.306	0.017
-180.042	21.660	-0.221	-0.177
-179.027	-61.190	-0.231	0.096
-178.012	-173.954	-0.086	-0.002
-176.998	48.169	0.141	-0.130
-175.983	337.504	-0.167	0.320
-174.969	312.712	-0.075	0.138
-173.954	6.332	0.139	-0.101
-172.939	361.692	-0.136	0.269
-171.925	-200.000	0.013	0.205
-170.910	800.000	-0.084	-0.233
-169.896	-197.343	0.402	-0.002
-168.881	-99.787	-0.301	-0.074
-167.866	-4.236	-0.159	-0.108
-166.852	50.474	-0.252	0.235
-165.837	72.620	-0.095	-0.097
-164.823	73.041	-0.043	-0.044
-163.808	-40.979	-0.241	-0.122
-162.793	-87.607	0.329	0.098
-161.779	-30.608	0.180	0.100
-160.764	-155.057	0.136	0.009
-159.750	33.277	0.224	0.191
-158.735	570.209	-0.121	-0.289
-157.720	800.000	0.023	-0.096
-156.706	595.934	-0.075	-0.183
-155.691	800.000	0.095	0.300
-154.677	54.740	-0.253	0.239
-153.662	-100.600	0.308	-0.075
-152.647	72.001	-0.113	0.115
-151.633	22.071	-0.151	-0.121
-150.618	-200.000	0.040	0.343
-149.604	800.000	0.059	-0.232
-148.589	45.042	0.286	-0.259
-147.574	800.000	-0.060	0.186
-146.560	370.650	-0.199	0.396
-145.545	-161.750	-0.327	0.016
-144.531	-200.000	-0.007	0.099
-143.516	138.696	-0.177	0.228
-142.502	-75.827	0.093	-0.032
-141.487	298.360	0.091	-0.165
-140.472	-200.000	-0.031	0.415
-139.458	-121.980	-0.067	0.011
-138.443	215.451	0.157	0.244
-137.429	-200.000	-0.031	-0.291
-136.414	-200.000	0.007	0.142
-135.399	9.612	0.183	0.136
-134.385	-152.289	-0.291	-0.021
-133.370	-10.382	-0.129	0.084
-132.356	120.584	-0.201	-0.245
-131.341	-200.000	-0.047	-0.000
-130.326	-89.942	-0.257	-0.074
-129.312	44.738	0.169	0.153
-128.297	-200.000	0.001	0.117
-127.283	-7.218	0.238	-0.158
-126.268	91.409	-0.164	-0.180
-125.253	737.461	0.178	0.468
-124.239	-200.000	-0.002	-0.216
-123.224	800.000	0.041	0.153
-122.210	-41.101	-0.279	0.141
-121.195	-35.327	-0.159	-0.085
-120.180	-28.932	-0.166	0.093
