DTS Sentinel unit serial number:	SN413079Multiplexer serial number:	ORYXHardware model number:	OX4-SRSoftware version number:	ORYX F/W v4.00 Oryx Data Collector v3.7.2.0data status	okinstallation	princeton_trtdifferential loss correction	single-endedforward channel	channel 2reverse channel	N/Adate	2019/09/16time	10:59:35forward acquisition time	60.00reverse acquisition time	0.00gamma	496.2192k internal	0.2315k external	0.2315temperature offset calibration	0.9957default loss term (dB/km)	0.3790temperature slope calibration	1.0000multiplexer offset coefficient	1.0000multiplexer slope coefficient	1.0000fibre end	0.00T internal ref (°C)	36.78T ext. ref 1 (°C)	12.76T ext. ref 2 (°C)	34.29length (m)	temperature (°C)	Stokes	anti-Stokes-747.200	105.869	0.195	0.233
-746.185	675.213	0.076	-0.199
-745.171	-120.054	-0.242	0.042
-744.156	-58.715	-0.181	0.079
-743.142	800.000	0.051	-0.162
-742.127	800.000	0.162	0.549
-741.112	-40.782	0.150	0.079
-740.098	131.885	0.175	0.228
-739.083	23.409	-0.152	0.127
-738.069	-16.276	-0.246	0.158
-737.054	52.340	-0.133	0.128
-736.039	-11.264	-0.246	-0.164
-735.025	-138.562	0.209	0.023
-734.010	464.673	-0.111	0.252
-732.996	-7.726	-0.196	-0.134
-731.981	122.778	-0.149	0.188
-730.966	-117.217	0.035	0.006
-729.952	191.896	0.113	-0.172
-728.937	47.428	0.076	0.072
-727.923	115.473	-0.180	0.222
-726.908	-23.742	-0.222	-0.135
-725.894	-1.858	-0.228	-0.162
-724.879	96.025	0.107	-0.123
-723.864	-200.000	-0.026	-0.173
-722.850	108.998	-0.190	-0.230
-721.835	66.948	-0.135	0.139
-720.821	-200.000	-0.025	-0.222
-719.806	-41.626	-0.114	-0.059
-718.791	-126.920	-0.115	0.017
-717.777	-200.000	-0.005	0.167
-716.762	541.300	0.022	0.053
-715.748	-200.000	0.017	0.136
-714.733	-77.794	-0.184	-0.064
-713.718	-123.881	0.289	-0.046
-712.704	407.614	0.030	-0.064
-711.689	-130.811	0.304	0.041
-710.675	-200.000	0.018	0.234
-709.660	-166.177	0.271	-0.012
-708.645	-107.393	0.372	0.083
-707.631	5.309	-0.498	-0.371
-706.616	-142.029	0.232	0.023
-705.602	188.192	0.007	0.011
-704.587	800.000	0.071	0.241
-703.572	55.575	-0.181	0.177
-702.558	800.000	-0.023	-0.080
-701.543	-86.619	-0.201	-0.062
-700.529	-200.000	0.001	-0.119
-699.514	-11.625	0.135	-0.090
-698.499	-110.925	0.261	0.054
-697.485	563.173	-0.110	0.269
-696.470	68.125	-0.191	-0.197
-695.456	509.398	-0.017	0.040
-694.441	375.925	-0.220	-0.454
-693.426	143.663	-0.151	-0.203
-692.412	-200.000	-0.057	-0.427
-691.397	534.383	-0.156	0.373
-690.383	279.724	0.109	-0.198
-689.368	800.000	0.035	-0.107
-688.354	-2.117	0.269	0.191
-687.339	64.634	-0.232	-0.237
-686.324	-39.606	-0.184	0.098
-685.310	558.789	-0.147	0.359
-684.295	-200.000	0.020	0.094
-683.281	-200.000	-0.073	-0.539
-682.266	-167.249	-0.197	-0.008
-681.251	376.561	0.089	-0.184
-680.237	-114.220	-0.303	-0.059
-679.222	-82.229	0.140	0.046
-678.208	-200.000	-0.076	-0.355
-677.193	71.020	0.103	0.108
-676.178	-200.000	0.062	0.299
-675.164	-195.822	0.250	-0.002
-674.149	-200.000	0.001	-0.045
-673.135	-81.025	0.364	0.122
-672.120	161.539	0.151	-0.214
-671.105	-67.343	-0.149	-0.059
-670.091	800.000	-0.017	-0.059
-669.076	317.717	-0.094	0.179
-668.062	-139.487	0.164	0.018
-667.047	574.632	-0.075	0.184
-666.032	190.523	-0.101	-0.153
-665.018	-32.911	-0.227	0.128
-664.003	-120.749	-0.032	-0.005
-662.989	84.085	-0.226	0.249
-661.974	800.000	-0.031	-0.088
-660.959	-77.975	-0.465	0.162
-659.945	747.389	0.105	0.286
-658.930	-159.962	-0.252	0.014
-657.916	-75.477	-0.107	0.038
-656.901	401.098	0.067	-0.143
-655.886	80.416	0.234	0.255
-654.872	-54.313	0.152	-0.070
-653.857	-200.000	0.053	-0.241
-652.843	165.912	0.181	0.259
-651.828	-47.788	-0.147	-0.072
-650.814	800.000	0.119	-0.358
-649.799	252.357	-0.152	-0.262
-648.784	385.599	0.166	0.347
-647.770	499.352	-0.046	0.107
-646.755	293.387	-0.024	-0.044
-645.741	-54.454	0.140	0.064
-644.726	736.694	-0.105	0.283
-643.711	-116.028	-0.129	0.024
-642.697	50.120	-0.286	0.272
-641.682	-8.144	0.221	-0.151
-640.668	-51.480	0.103	-0.049
-639.653	-76.579	0.201	-0.071
-638.638	176.096	-0.135	0.198
-637.624	800.000	-0.050	-0.212
-636.609	800.000	0.114	0.375
-635.595	274.934	-0.047	-0.084
-634.580	-85.703	-0.251	0.079
-633.565	152.063	-0.040	-0.055
-632.551	147.697	0.092	-0.125
-631.536	52.361	0.224	-0.216
-630.522	-105.890	0.133	-0.030
-629.507	-17.417	-0.137	-0.087
-628.492	-178.214	-0.237	0.006
-627.478	71.232	0.191	-0.200
-626.463	-200.000	0.008	0.328
-625.449	-179.012	0.172	-0.004
-624.434	-138.905	-0.180	-0.020
-623.419	62.843	-0.210	0.212
-622.405	800.000	0.051	-0.203
-621.390	-36.384	0.171	0.093
-620.376	-45.630	0.286	-0.143
-619.361	800.000	0.036	-0.125
-618.346	-150.774	0.095	-0.007
-617.332	-2.069	0.116	-0.082
-616.317	-24.456	-0.229	0.138
-615.303	98.247	0.087	0.101
-614.288	-200.000	-0.014	-0.082
-613.273	1.844	-0.176	-0.128
-612.259	10.361	-0.148	-0.114
-611.244	-200.000	0.020	-0.312
-610.230	4.631	-0.043	0.032
-609.215	-101.507	0.294	-0.072
-608.201	-94.521	-0.189	0.052
-607.186	-107.108	-0.158	-0.035
-606.171	-11.002	-0.265	0.176
-605.157	222.875	-0.102	0.166
-604.142	63.639	-0.216	0.219
-603.128	-200.000	-0.002	0.071
-602.113	88.119	-0.102	0.115
-601.098	131.091	-0.112	-0.146
-600.084	800.000	-0.018	0.067
-599.069	800.000	-0.084	0.251
-598.055	294.653	0.100	-0.185
-597.040	579.472	-0.137	-0.337
-596.025	582.852	0.086	0.213
-595.011	-119.426	0.077	0.013
-593.996	50.879	-0.168	0.161
-592.982	-96.500	0.223	-0.059
-591.967	103.846	0.135	-0.160
-590.952	-125.341	-0.242	0.037
-589.938	-83.842	-0.331	-0.106
-588.923	315.666	0.224	0.426
-587.909	800.000	-0.037	-0.139
-586.894	314.085	0.064	-0.121
-585.879	-58.619	-0.198	-0.087
-584.865	-119.903	-0.205	-0.036
-583.850	155.848	0.124	-0.172
-582.836	-82.845	0.206	0.067
-581.821	64.459	0.144	-0.146
-580.806	-41.387	-0.135	-0.070
-579.792	304.514	0.253	-0.474
-578.777	316.844	-0.174	-0.331
-577.763	-190.642	0.314	0.003
-576.748	68.329	-0.308	-0.318
-575.733	78.810	-0.101	0.109
-574.719	-116.432	0.149	-0.028
-573.704	800.000	-0.053	0.200
-572.690	122.726	-0.142	-0.179
-571.675	-200.000	0.002	0.267
-570.661	-36.689	0.281	0.152
-569.646	-62.656	-0.319	0.133
-568.631	159.558	-0.154	-0.216
-567.617	-70.940	-0.136	-0.051
-566.602	48.720	-0.064	-0.061
-565.588	-116.460	-0.015	-0.003
-564.573	652.110	0.081	0.210
-563.558	-64.464	0.288	0.118
-562.544	-151.670	0.432	0.032
-561.529	-73.250	0.121	-0.045
-560.515	-132.094	0.248	0.032
-559.500	25.403	-0.092	-0.077
-558.485	36.008	0.113	0.100
-557.471	-176.671	0.282	0.007
-556.456	-134.915	-0.111	0.013
-555.442	117.863	0.142	-0.176
-554.427	264.734	0.043	0.075
-553.412	-200.000	0.033	-0.233
-552.398	-65.023	0.175	0.071
-551.383	-172.627	0.065	0.002
-550.369	800.000	0.052	0.165
-549.354	493.925	-0.142	-0.328
-548.339	-29.235	-0.204	-0.118
-547.325	151.965	-0.228	0.312
-546.310	-3.577	-0.167	0.117
-545.296	-11.954	-0.152	-0.100
-544.281	6.639	0.219	-0.164
-543.266	48.457	0.105	0.099
-542.252	-103.896	0.146	-0.034
-541.237	-162.798	-0.131	-0.006
-540.223	-200.000	0.045	-0.331
-539.208	-142.697	-0.065	0.006
-538.193	-79.394	-0.236	0.080
-537.179	-59.195	0.113	-0.049
-536.164	800.000	0.128	0.361
-535.150	-200.000	-0.013	0.221
-534.135	7.032	-0.107	-0.081
-533.121	-55.169	-0.027	0.012
-532.106	223.439	0.127	-0.205
-531.091	-59.567	0.029	-0.012
-530.077	72.186	-0.316	0.330
-529.062	103.306	0.048	0.057
-528.048	-170.725	-0.181	-0.006
-527.033	343.410	-0.032	0.062
-526.018	38.307	-0.169	0.152
-525.004	-94.600	0.175	0.048
-523.989	67.394	-0.203	-0.208
-522.975	128.019	0.055	-0.071
-521.960	-200.000	0.029	-0.142
-520.945	27.153	-0.284	-0.239
-519.931	-92.419	-0.328	-0.093
-518.916	800.000	-0.067	-0.230
-517.902	-200.000	-0.075	-0.434
-516.887	24.079	-0.069	-0.057
-515.872	800.000	0.059	0.175
-514.858	800.000	0.163	-0.481
-513.843	-56.811	-0.276	-0.123
-512.829	367.616	-0.035	-0.071
-511.814	584.536	0.156	0.384
-510.799	75.444	-0.115	0.122
-509.785	39.279	-0.033	0.030
-508.770	-5.421	-0.104	-0.072
-507.756	1.807	-0.089	0.065
-506.741	-71.484	0.215	-0.081
-505.726	-39.418	-0.526	0.277
-504.712	-39.627	0.244	0.128
-503.697	-121.057	0.249	0.042
-502.683	-200.000	-0.040	0.194
-501.668	371.293	-0.095	0.194
-500.653	77.429	-0.176	-0.188
-499.639	287.213	-0.075	-0.136
-498.624	333.884	-0.147	-0.286
-497.610	-200.000	-0.020	-0.139
-496.595	-200.000	0.037	0.173
-495.581	234.498	0.136	-0.225
-494.566	216.575	-0.075	-0.120
-493.551	40.323	0.119	0.108
-492.537	337.728	-0.213	-0.416
-491.522	-15.343	0.341	0.219
-490.508	46.921	0.159	-0.148
-489.493	241.310	0.100	0.168
-488.478	-200.000	-0.059	-0.280
-487.464	42.883	0.153	-0.140
-486.449	-70.588	0.441	-0.168
-485.435	85.579	-0.203	-0.223
-484.420	97.973	0.164	-0.189
-483.405	-115.804	0.118	0.022
-482.391	86.756	0.042	0.046
-481.376	166.188	-0.027	0.039
-480.362	-29.088	0.488	0.281
-479.347	-200.000	-0.007	0.109
-478.332	146.956	-0.158	0.213
-477.318	-107.500	0.294	-0.065
-476.303	-70.024	0.152	-0.058
-475.289	112.691	-0.020	0.024
-474.274	2.000	0.142	-0.103
-473.259	-143.679	-0.333	-0.032
-472.245	-73.772	0.230	-0.084
-471.230	365.123	-0.163	-0.329
-470.216	-28.980	-0.098	0.057
-469.201	449.883	0.078	-0.173
-468.186	-200.000	-0.022	-0.103
-467.172	125.115	0.212	0.268
-466.157	278.969	0.038	0.069
-465.143	-156.934	0.402	-0.025
-464.128	-115.719	0.148	0.028
-463.113	253.892	0.176	-0.301
-462.099	-38.275	-0.132	0.070
-461.084	-11.049	-0.096	-0.064
-460.070	-5.185	-0.188	0.130
-459.055	57.968	-0.165	0.162
-458.040	-129.477	-0.301	0.042
-457.026	-50.767	-0.164	-0.078
-456.011	-164.375	-0.084	0.004
-454.997	-124.688	0.104	0.016
-453.982	-67.827	0.091	0.036
-452.968	-67.706	0.094	-0.037
-451.953	-200.000	0.025	0.144
-450.938	206.341	0.286	-0.446
-449.924	-156.686	-0.136	0.008
-448.909	-48.481	0.522	-0.252
-447.895	-200.000	-0.014	0.086
-446.880	96.624	0.242	0.278
-445.865	-71.991	-0.139	0.052
-444.851	800.000	-0.105	-0.437
-443.836	-200.000	-0.299	-0.000
-442.822	-104.720	-0.282	0.065
-441.807	-148.709	0.132	-0.011
-440.792	-82.233	-0.194	-0.063
-439.778	360.438	0.062	0.124
-438.763	-200.000	-0.056	-0.295
-437.749	-73.143	0.077	0.028
-436.734	503.839	0.154	0.356
-435.719	-47.620	-0.227	0.110
-434.705	-62.624	0.134	0.055
-433.690	-33.364	-0.283	0.157
-432.676	395.481	-0.039	-0.081
-431.661	16.243	0.180	0.142
-430.646	-93.844	0.375	0.103
-429.632	-110.446	0.134	-0.028
-428.617	31.746	-0.076	0.065
-427.603	-121.149	-0.153	-0.026
-426.588	-200.000	-0.018	-0.201
-425.573	24.750	-0.167	-0.138
-424.559	-59.487	-0.085	0.036
-423.544	-83.811	-0.030	0.010
-422.530	48.131	0.157	0.147
-421.515	-200.000	-0.010	-0.218
-420.500	-91.295	0.219	-0.063
-419.486	-6.182	-0.253	-0.173
-418.471	288.582	-0.303	-0.548
-417.457	-87.633	0.104	-0.031
-416.442	337.659	0.072	0.140
-415.428	-151.119	0.168	0.013
-414.413	4.085	-0.107	0.078
-413.398	63.741	-0.226	0.227
-412.384	-200.000	-0.049	0.233
-411.369	800.000	-0.034	0.133
-410.355	800.000	0.073	-0.207
-409.340	45.783	0.196	0.181
-408.325	677.967	-0.129	0.335
-407.311	-70.490	0.217	0.082
-406.296	-110.228	-0.166	0.035
-405.282	316.302	0.061	0.115
-404.267	141.598	-0.028	0.037
-403.252	-34.177	-0.095	0.052
-402.238	800.000	0.035	-0.141
-401.223	-200.000	0.103	-0.556
-400.209	258.059	-0.131	-0.225
-399.194	-7.908	-0.203	-0.137
-398.179	-65.936	0.318	-0.127
-397.165	375.750	0.148	0.302
-396.150	182.111	0.071	-0.105
-395.136	97.392	-0.011	-0.013
-394.121	-200.000	0.023	0.152
-393.106	76.286	-0.192	-0.203
-392.092	-200.000	0.037	0.163
-391.077	19.148	-0.092	0.074
-390.063	-4.050	-0.061	0.042
-389.048	0.389	-0.134	-0.096
-388.033	-90.443	0.033	0.010
-387.019	-200.000	-0.017	-0.147
-386.004	-200.000	0.053	-0.285
-384.990	-200.000	-0.022	-0.388
-383.975	-94.740	-0.203	0.055
-382.960	-153.544	0.358	0.025
-381.946	41.443	0.080	0.073
-380.931	66.637	-0.262	-0.266
-379.917	78.596	0.091	-0.097
-378.902	800.000	-0.126	0.369
-377.888	-30.920	-0.039	0.022
-376.873	-74.173	0.177	0.064
-375.858	800.000	0.071	-0.225
-374.844	-200.000	0.000	0.053
-373.829	59.696	-0.329	0.325
-372.815	-94.219	-0.090	-0.025
-371.800	227.032	-0.088	-0.143
-370.785	-7.730	-0.140	0.094
-369.771	179.415	0.258	0.377
-368.756	-200.000	0.043	-0.263
-367.742	800.000	-0.069	-0.285
-366.727	-55.998	0.334	-0.149
-365.712	-116.684	0.182	0.033
-364.698	337.176	0.087	0.169
-363.683	-87.833	0.156	-0.047
-362.669	-108.014	0.154	-0.033
-361.654	86.273	0.182	0.200
-360.639	-200.000	0.075	0.353
-359.625	-41.743	0.482	0.247
-358.610	191.359	0.148	0.223
-357.596	-52.590	-0.164	-0.076
-356.581	-65.466	0.068	0.027
-355.566	-111.492	-0.235	-0.048
-354.552	-126.228	0.317	-0.047
-353.537	800.000	-0.039	-0.144
-352.523	-135.800	0.168	-0.020
-351.508	-19.969	0.198	-0.122
-350.493	14.946	0.245	-0.192
-349.479	-106.170	-0.183	-0.041
-348.464	82.154	-0.114	-0.123
-347.450	198.216	-0.103	0.156
-346.435	-200.000	-0.009	-0.235
-345.420	212.546	-0.174	-0.273
-344.406	-165.770	-0.232	-0.010
-343.391	1.033	-0.167	0.119
-342.377	202.198	-0.061	0.094
-341.362	-200.000	0.022	0.335
-340.348	-111.944	0.124	0.025
-339.333	439.352	0.085	-0.185
-338.318	208.861	-0.157	-0.245
-337.304	-34.742	0.239	0.130
-336.289	489.965	0.142	-0.325
-335.275	-97.931	-0.032	0.008
-334.260	800.000	0.094	-0.329
-333.245	-150.025	-0.233	0.018
-332.231	-200.000	-0.035	-0.170
-331.216	-200.000	-0.062	-0.312
-330.202	-4.840	-0.110	-0.075
-329.187	-11.223	-0.079	-0.052
-328.172	23.294	0.187	-0.153
-327.158	-112.683	-0.105	0.021
-326.143	172.800	0.081	-0.117
-325.129	497.781	0.135	0.310
-324.114	-52.346	-0.526	0.243
-323.099	461.553	-0.041	-0.092
-322.085	-200.000	0.049	0.490
-321.070	-88.491	-0.236	0.070
-320.056	-200.000	0.008	-0.070
-319.041	-23.442	0.205	0.122
-318.026	-200.000	-0.007	0.089
-317.012	362.480	-0.142	0.284
-315.997	67.673	0.238	-0.242
-314.983	-154.060	-0.119	-0.008
-313.968	209.775	-0.060	0.094
-312.953	-200.000	-0.006	0.065
-311.939	45.202	0.173	-0.159
-310.924	58.512	-0.063	-0.061
-309.910	-8.242	0.178	-0.120
-308.895	-126.568	0.159	0.024
-307.880	-200.000	-0.025	0.419
-306.866	-130.395	-0.250	0.034
-305.851	233.035	0.142	-0.233
-304.837	-150.678	0.081	-0.006
-303.822	0.095	-0.016	0.011
-302.807	-200.000	-0.013	0.243
-301.793	26.280	-0.181	0.151
-300.778	-52.916	-0.045	0.021
-299.764	-14.469	0.100	-0.064
-298.749	-53.082	0.241	-0.110
-297.735	-200.000	0.007	-0.192
-296.720	104.220	0.184	-0.216
-295.705	10.838	0.039	0.030
-294.691	-76.284	0.473	0.166
-293.676	800.000	0.053	0.224
-292.662	-89.203	0.184	0.054
-291.647	-119.275	-0.453	0.079
-290.632	13.938	-0.171	0.132
-289.618	-26.772	0.278	-0.162
-288.603	-200.000	-0.022	-0.195
-287.589	78.198	-0.318	-0.338
-286.574	124.365	-0.257	0.322
-285.559	86.531	0.087	0.095
-284.545	32.957	-0.301	0.259
-283.530	-200.000	0.013	-0.064
-282.516	195.321	0.122	-0.184
-281.501	-125.470	0.212	0.032
-280.486	800.000	-0.061	-0.234
-279.472	120.436	0.269	0.332
-278.457	105.844	0.133	0.157
-277.443	144.804	0.076	-0.101
-276.428	727.520	-0.068	0.180
-275.413	-178.372	0.347	-0.008
-274.399	78.671	0.176	-0.187
-273.384	-110.858	0.012	-0.003
-272.370	-70.083	-0.182	-0.069
-271.355	-18.763	0.244	-0.151
-270.340	-183.086	0.141	0.002
-269.326	-92.787	-0.013	0.004
-268.311	-93.905	-0.130	-0.036
-267.297	113.186	-0.166	0.201
-266.282	-200.000	0.017	-0.174
-265.267	102.357	-0.088	-0.102
-264.253	-74.582	-0.206	-0.074
-263.238	-200.000	-0.007	-0.201
-262.224	-16.584	0.215	-0.135
-261.209	-7.975	-0.302	-0.202
-260.195	440.640	-0.226	-0.491
-259.180	31.589	-0.086	-0.074
-258.165	-48.215	0.185	0.089
-257.151	68.713	-0.079	-0.081
-256.136	-62.551	-0.131	-0.054
-255.122	-136.035	0.121	-0.014
-254.107	-200.000	-0.016	0.268
-253.092	-200.000	0.021	-0.145
-252.078	-200.000	0.005	-0.062
-251.063	71.384	-0.017	0.017
-250.049	800.000	-0.124	0.367
-249.034	102.485	0.091	-0.106
-248.019	-200.000	0.008	0.230
-247.005	175.555	0.053	0.076
-245.990	-143.630	-0.579	-0.055
-244.976	-125.279	-0.282	0.043
-243.961	-42.077	0.234	0.119
-242.946	800.000	0.133	0.374
-241.932	72.312	-0.302	0.313
-240.917	-126.357	0.329	0.049
-239.903	-35.983	0.252	0.136
-238.888	440.650	0.047	0.103
-237.873	770.169	0.081	0.220
-236.859	28.097	-0.246	-0.207
-235.844	-200.000	0.008	0.133
-234.830	-179.103	0.448	-0.010
-233.815	800.000	0.033	-0.101
-232.800	72.451	-0.308	-0.319
-231.786	-7.085	0.006	-0.004
-230.771	-80.352	-0.229	0.076
-229.757	703.076	0.103	0.268
-228.742	800.000	-0.041	-0.114
-227.727	800.000	0.050	0.158
-226.713	-200.000	-0.018	0.208
-225.698	171.050	0.148	0.210
-224.684	99.130	0.073	0.084
-223.669	396.315	-0.072	0.149
-222.655	-30.583	-0.055	0.031
-221.640	-40.200	-0.205	0.106
-220.625	24.509	0.204	-0.168
-219.611	49.069	-0.397	0.370
-218.596	-22.089	-0.027	0.016
-217.582	-148.908	0.163	0.013
-216.567	84.129	-0.014	-0.015
-215.552	557.950	0.145	-0.348
-214.538	36.038	-0.065	0.057
-213.523	-87.190	0.165	0.050
-212.509	-48.164	0.140	0.067
-211.494	101.739	0.079	0.092
-210.479	-24.083	0.318	0.189
-209.465	-200.000	-0.123	0.000
-208.450	-43.984	-0.121	-0.061
-207.436	-171.241	0.117	-0.004
-206.421	800.000	0.037	-0.121
-205.406	-200.000	-0.040	0.198
-204.392	527.892	-0.170	0.399
-203.377	252.186	0.199	0.337
-202.363	-86.558	-0.059	-0.018
-201.348	-79.664	0.071	0.024
-200.333	-200.000	0.025	0.241
-199.319	-119.070	0.210	0.036
-198.304	95.840	0.126	0.143
-197.290	115.222	-0.138	-0.167
-196.275	-27.370	0.265	0.153
-195.260	49.021	0.206	0.192
-194.246	-200.000	-0.004	0.092
-193.231	48.564	-0.133	-0.124
-192.217	138.885	-0.073	0.095
-191.202	48.522	-0.100	0.093
-190.187	132.006	0.180	0.229
-189.173	-131.711	0.093	-0.012
-188.158	-200.000	0.077	-0.425
-187.144	-3.879	0.206	0.141
-186.129	40.750	-0.138	0.124
-185.114	-158.428	-0.156	-0.009
-184.100	-56.910	-0.250	-0.109
-183.085	800.000	-0.053	0.161
-182.071	-200.000	0.011	0.057
-181.056	-33.943	-0.211	-0.115
-180.042	-200.000	-0.055	0.341
-179.027	-8.816	0.068	0.045
-178.012	-200.000	-0.089	0.452
-176.998	-92.215	-0.032	0.009
-175.983	81.634	-0.173	0.186
-174.969	66.639	-0.175	-0.176
-173.954	92.803	0.032	-0.035
-172.939	-142.964	0.049	0.005
-171.925	83.799	-0.069	-0.075
-170.910	-107.508	-0.183	-0.040
-169.896	344.924	0.020	-0.040
-168.881	377.475	-0.201	-0.407
-167.866	800.000	0.063	0.264
-166.852	27.233	-0.205	0.171
-165.837	9.821	0.124	0.094
-164.823	100.648	-0.126	0.145
-163.808	203.464	0.145	-0.222
-162.793	85.882	0.086	-0.093
-161.779	-150.934	-0.449	-0.034
-160.764	-9.245	0.123	-0.081
-159.750	800.000	-0.048	0.148
-158.735	121.559	-0.064	-0.079
-157.720	800.000	0.115	-0.320
-156.706	-200.000	-0.002	0.096
-155.691	-200.000	0.011	0.056
-154.677	-162.021	-0.194	-0.010
-153.662	-152.181	-0.258	0.019
-152.647	-108.461	-0.100	-0.021
-151.633	-69.554	0.149	0.057
-150.618	-185.263	-0.172	0.003
-149.604	-135.259	-0.217	0.026
-148.589	109.137	0.150	0.178
-147.574	8.644	0.024	-0.018
-146.560	-96.238	-0.132	-0.035
-145.545	746.523	-0.081	0.215
-144.531	-91.148	0.132	-0.037
-143.516	333.119	0.056	-0.106
-142.502	334.505	-0.301	0.577
-141.487	309.248	-0.109	0.201
-140.472	89.489	0.132	0.145
-139.458	717.281	0.060	0.158
-138.443	-146.403	0.160	-0.014
-137.429	-35.492	-0.133	-0.071
-136.414	-200.000	-0.011	0.182
-135.399	-33.895	-0.123	0.067
-134.385	59.900	0.116	0.114
-133.370	-158.318	-0.201	0.012
-132.356	-200.000	-0.001	-0.064
-131.341	61.696	-0.153	0.151
-130.326	192.364	0.163	0.243
-129.312	-126.497	0.251	0.037
-128.297	715.682	-0.073	0.192
-127.283	-116.241	0.215	-0.040
-126.268	109.854	0.092	-0.109
-125.253	192.715	-0.116	-0.173
-124.239	26.967	-0.320	-0.266
-123.224	-200.000	-0.074	0.323
-122.210	-200.000	-0.013	-0.082
-121.195	5.525	-0.216	-0.158
-120.180	736.647	0.076	0.202
