DTS Sentinel unit serial number:	SN413079Multiplexer serial number:	ORYXHardware model number:	OX4-SRSoftware version number:	ORYX F/W v4.00 Oryx Data Collector v3.7.2.0data status	okinstallation	princeton_trtdifferential loss correction	single-endedforward channel	channel 2reverse channel	N/Adate	2019/09/15time	00:03:35forward acquisition time	60.00reverse acquisition time	0.00gamma	496.2192k internal	0.2324k external	0.2324temperature offset calibration	1.0043default loss term (dB/km)	0.3790temperature slope calibration	1.0000multiplexer offset coefficient	1.0000multiplexer slope coefficient	1.0000fibre end	0.00T internal ref (°C)	32.20T ext. ref 1 (°C)	4.58T ext. ref 2 (°C)	27.20length (m)	temperature (°C)	Stokes	anti-Stokes-747.200	-86.011	0.048	-0.015
-746.185	-128.590	0.239	-0.034
-745.171	306.649	-0.071	-0.133
-744.156	-96.657	-0.292	-0.078
-743.142	750.817	-0.100	0.274
-742.127	72.234	-0.175	0.184
-741.112	-177.154	-0.336	0.008
-740.098	88.082	-0.063	0.070
-739.083	-170.335	-0.260	0.009
-738.069	800.000	0.116	0.344
-737.054	19.547	0.146	0.118
-736.039	-200.000	-0.024	-0.163
-735.025	-31.430	-0.110	-0.062
-734.010	236.751	0.034	-0.057
-732.996	-31.633	-0.180	0.102
-731.981	32.309	-0.132	0.115
-730.966	299.382	-0.136	-0.253
-729.952	-43.125	-0.173	0.088
-728.937	-100.402	-0.184	-0.046
-727.923	-200.000	0.009	0.245
-726.908	-127.902	-0.342	0.050
-725.894	181.789	-0.161	-0.239
-724.879	800.000	-0.050	-0.193
-723.864	800.000	0.036	-0.107
-722.850	-200.000	-0.182	0.000
-721.835	-30.366	-0.434	0.248
-720.821	199.167	-0.064	-0.098
-719.806	-200.000	0.014	0.097
-718.791	800.000	-0.082	0.233
-717.777	-83.705	-0.239	0.077
-716.762	-89.486	0.280	-0.083
-715.748	-200.000	0.008	-0.294
-714.733	63.169	-0.077	-0.077
-713.718	800.000	-0.070	-0.262
-712.704	-200.000	-0.024	0.132
-711.689	69.815	-0.181	-0.188
-710.675	-144.022	-0.254	0.024
-709.660	-86.310	0.262	-0.081
-708.645	-19.215	-0.238	0.149
-707.631	-200.000	0.028	0.172
-706.616	-200.000	0.030	-0.334
-705.602	800.000	-0.046	-0.191
-704.587	226.362	-0.128	0.210
-703.572	223.386	0.103	-0.167
-702.558	-200.000	0.030	-0.232
-701.543	-17.798	0.260	0.164
-700.529	-2.360	0.121	-0.086
-699.514	80.796	0.057	-0.062
-698.499	-200.000	0.032	-0.188
-697.485	-149.111	-0.230	-0.019
-696.470	-147.416	-0.183	0.016
-695.456	800.000	-0.049	-0.143
-694.441	-64.871	0.288	-0.117
-693.426	-14.962	0.198	-0.128
-692.412	313.069	0.123	-0.232
-691.397	-58.293	-0.435	-0.191
-690.383	-200.000	-0.077	0.502
-689.368	55.357	-0.226	-0.220
-688.354	123.791	0.111	-0.141
-687.339	-92.582	-0.151	0.043
-686.324	-200.000	-0.007	-0.358
-685.310	-200.000	0.012	-0.163
-684.295	170.225	0.106	0.153
-683.281	378.717	0.159	0.327
-682.266	-200.000	0.041	0.228
-681.251	37.331	0.155	-0.139
-680.237	800.000	0.096	-0.368
-679.222	-105.223	-0.249	-0.057
-678.208	-168.168	-0.148	-0.006
-677.193	100.944	0.045	-0.053
-676.178	-100.150	-0.468	-0.117
-675.164	4.414	0.279	-0.206
-674.149	-149.629	0.136	-0.011
-673.135	500.990	-0.086	-0.201
-672.120	-200.000	0.015	0.078
-671.105	-200.000	0.023	-0.137
-670.091	-43.135	0.114	-0.058
-669.076	800.000	-0.027	-0.093
-668.062	133.997	-0.193	-0.251
-667.047	21.900	-0.060	0.049
-666.032	108.384	-0.074	0.089
-665.018	-38.167	-0.043	-0.023
-664.003	-75.846	-0.248	0.088
-662.989	-182.185	0.215	-0.004
-661.974	-200.000	-0.034	-0.189
-660.959	781.624	-0.169	-0.465
-659.945	224.253	-0.133	-0.217
-658.930	50.776	-0.095	0.091
-657.916	186.934	0.055	-0.083
-656.901	-4.984	0.126	-0.088
-655.886	16.963	0.070	-0.056
-654.872	596.824	0.110	0.275
-653.857	-120.014	-0.297	0.051
-652.843	-59.731	0.057	-0.025
-651.828	50.004	0.127	-0.120
-650.814	-200.000	0.010	0.226
-649.799	-62.102	-0.218	-0.091
-648.784	-113.681	-0.274	0.054
-647.770	4.686	-0.307	0.227
-646.755	-62.808	0.222	0.092
-645.741	-200.000	-0.006	0.150
-644.726	406.160	-0.153	-0.325
-643.711	569.497	0.113	-0.276
-642.697	-3.012	0.172	-0.121
-641.682	-69.726	0.274	-0.105
-640.668	191.370	0.089	-0.135
-639.653	-200.000	0.003	0.279
-638.638	106.349	-0.199	0.238
-637.624	-58.971	-0.103	-0.045
-636.609	800.000	0.068	0.201
-635.595	-200.000	0.058	0.400
-634.580	-88.692	0.090	-0.027
-633.565	185.658	0.331	0.495
-632.551	664.026	0.088	-0.229
-631.536	-200.000	0.030	0.200
-630.522	-149.522	-0.096	0.008
-629.507	-78.794	-0.139	0.048
-628.492	-80.026	0.036	0.012
-627.478	-16.458	-0.329	-0.210
-626.463	-79.633	0.106	-0.036
-625.449	259.887	-0.040	0.070
-624.434	-116.414	-0.241	-0.045
-623.419	148.819	-0.099	0.134
-622.405	-200.000	-0.103	-0.000
-621.390	-87.972	-0.175	0.053
-620.376	-200.000	-0.057	0.365
-619.361	460.198	0.225	0.503
-618.346	-200.000	0.005	0.056
-617.332	-56.445	-0.255	0.114
-616.317	80.950	-0.240	0.260
-615.303	-135.912	-0.070	0.008
-614.288	-179.493	-0.205	-0.005
-613.273	-89.420	0.036	0.011
-612.259	118.651	-0.016	0.020
-611.244	800.000	0.111	0.385
-610.230	247.708	0.081	-0.137
-609.215	800.000	-0.055	-0.157
-608.201	248.359	-0.146	0.248
-607.186	-169.383	-0.382	0.014
-606.171	282.200	0.058	0.105
-605.157	262.995	0.134	0.234
-604.142	118.136	-0.022	0.028
-603.128	121.512	0.168	-0.210
-602.113	-200.000	0.053	-0.357
-601.098	138.301	-0.094	0.124
-600.084	-110.943	-0.070	0.014
-599.069	-6.412	0.339	0.232
-598.055	-8.442	0.121	0.081
-597.040	-134.704	-0.281	-0.034
-596.025	800.000	0.026	-0.074
-595.011	-200.000	-0.031	0.211
-593.996	50.519	-0.203	0.193
-592.982	382.200	0.067	0.138
-591.967	366.828	-0.039	0.080
-590.952	-77.219	0.311	0.109
-589.938	77.885	0.205	-0.219
-588.923	-95.333	-0.306	-0.083
-587.909	540.654	0.091	0.218
-586.894	-153.163	0.145	-0.010
-585.879	44.929	-0.213	-0.197
-584.865	-200.000	-0.037	0.349
-583.850	-200.000	0.007	-0.088
-582.836	113.738	-0.039	0.047
-581.821	-200.000	0.028	-0.190
-580.806	-89.804	0.032	-0.009
-579.792	-200.000	-0.004	-0.184
-578.777	-200.000	0.043	-0.253
-577.763	30.581	0.296	0.254
-576.748	-86.742	0.210	-0.064
-575.733	413.087	-0.118	-0.252
-574.719	-147.824	0.097	-0.008
-573.704	150.125	-0.304	-0.414
-572.690	-10.148	-0.138	0.092
-571.675	29.596	-0.192	0.164
-570.661	9.611	0.240	-0.183
-569.646	-92.198	-0.201	-0.057
-568.631	126.630	-0.093	0.118
-567.617	97.725	-0.125	-0.144
-566.602	-200.000	-0.005	-0.155
-565.588	302.155	-0.237	-0.439
-564.573	186.006	0.202	-0.301
-563.558	63.609	0.153	0.154
-562.544	800.000	0.043	0.160
-561.529	53.300	0.236	-0.226
-560.515	93.836	0.227	0.258
-559.500	-111.644	0.186	0.038
-558.485	-101.826	0.070	0.017
-557.471	-200.000	0.011	0.228
-556.456	-5.518	-0.398	-0.273
-555.442	-200.000	0.008	0.218
-554.427	122.153	0.081	0.101
-553.412	800.000	0.020	0.071
-552.398	123.504	-0.201	-0.252
-551.383	-104.169	0.255	-0.059
-550.369	-200.000	0.015	-0.128
-549.354	-200.000	-0.010	0.448
-548.339	-55.908	0.291	-0.130
-547.325	240.064	-0.120	-0.200
-546.310	-200.000	-0.014	0.109
-545.296	-24.739	0.205	-0.122
-544.281	-111.001	-0.311	-0.064
-543.266	223.879	0.056	-0.091
-542.252	41.704	0.267	0.242
-541.237	227.018	-0.051	-0.083
-540.223	-109.235	-0.213	0.045
-539.208	30.913	0.206	-0.176
-538.193	-104.836	-0.193	-0.044
-537.179	800.000	0.046	0.183
-536.164	-145.153	-0.435	-0.040
-535.150	-200.000	0.020	0.120
-534.135	-114.836	-0.410	-0.078
-533.121	120.334	0.224	-0.279
-532.106	-36.473	0.128	0.069
-531.091	-88.499	0.151	-0.045
-530.077	266.727	0.115	0.202
-529.062	-76.230	-0.360	-0.127
-528.048	47.391	-0.143	-0.133
-527.033	-200.000	0.018	0.145
-526.018	-105.789	0.258	0.058
-525.004	-32.450	0.280	0.156
-523.989	-46.849	0.046	-0.023
-522.975	-125.174	-0.298	-0.046
-521.960	-169.152	-0.155	-0.006
-520.945	-185.644	-0.232	0.004
-519.931	118.026	-0.148	-0.183
-518.916	84.985	-0.238	-0.261
-517.902	-41.934	0.103	0.053
-516.887	26.457	-0.306	0.256
-515.872	-117.591	-0.412	0.074
-514.858	44.296	-0.204	0.187
-513.843	122.740	0.312	-0.390
-512.829	-141.276	0.164	-0.017
-511.814	-49.658	-0.236	-0.113
-510.799	476.284	0.066	0.150
-509.785	-78.231	-0.197	-0.068
-508.770	800.000	0.027	0.083
-507.756	650.137	0.107	0.275
-506.741	-39.435	0.180	0.094
-505.726	-61.379	-0.143	0.060
-504.712	-58.360	0.310	-0.135
-503.697	-200.000	-0.061	-0.360
-502.683	174.437	-0.108	-0.155
-501.668	-146.187	0.351	0.031
-500.653	72.448	-0.368	-0.384
-499.639	245.036	-0.172	-0.288
-498.624	800.000	-0.049	-0.157
-497.610	-72.527	-0.089	0.033
-496.595	-113.646	-0.211	-0.041
-495.581	-200.000	0.004	-0.094
-494.566	17.830	-0.171	-0.136
-493.551	800.000	-0.061	0.168
-492.537	37.502	-0.198	0.176
-491.522	800.000	0.103	0.359
-490.508	-76.102	-0.098	0.034
-489.493	-111.805	0.403	0.082
-488.478	-152.652	0.061	-0.004
-487.464	-200.000	0.021	-0.168
-486.449	-200.000	-0.007	-0.331
-485.435	-38.344	0.070	-0.037
-484.420	189.649	-0.122	-0.183
-483.405	214.464	0.079	-0.124
-482.391	-70.438	-0.347	-0.131
-481.376	23.015	-0.153	-0.125
-480.362	66.874	0.167	0.170
-479.347	102.368	0.217	-0.253
-478.332	-62.473	-0.093	-0.039
-477.318	-200.000	0.016	-0.189
-476.303	56.121	0.166	-0.161
-475.289	160.886	0.153	0.214
-474.274	-107.814	0.034	0.007
-473.259	501.055	-0.077	0.177
-472.245	-6.758	-0.227	0.154
-471.230	153.668	0.120	0.164
-470.216	-37.438	0.306	-0.163
-469.201	-200.000	0.094	0.461
-468.186	-200.000	-0.007	0.111
-467.172	-99.346	-0.254	0.064
-466.157	-200.000	0.008	0.046
-465.143	-53.609	-0.102	-0.046
-464.128	-109.827	-0.225	0.047
-463.113	7.039	0.115	0.086
-462.099	-26.953	-0.317	0.185
-461.084	46.082	0.191	0.177
-460.070	-147.993	-0.390	-0.032
-459.055	-78.302	-0.049	-0.017
-458.040	800.000	0.076	0.219
-457.026	-6.385	-0.216	0.147
-456.011	-93.755	0.055	-0.015
-454.997	29.272	0.285	0.241
-453.982	-200.000	0.001	0.201
-452.968	-6.585	0.207	-0.141
-451.953	54.141	-0.102	0.098
-450.938	68.454	0.067	-0.069
-449.924	-81.813	0.131	-0.043
-448.909	-89.917	0.350	-0.102
-447.895	138.117	0.092	0.120
-446.880	-36.446	0.116	-0.062
-445.865	-19.894	-0.082	0.051
-444.851	-42.542	0.219	0.111
-443.836	140.594	-0.098	0.129
-442.822	-200.000	-0.009	-0.082
-441.807	800.000	0.137	0.382
-440.792	800.000	-0.102	-0.363
-439.778	-51.144	-0.268	-0.126
-438.763	151.681	0.100	0.136
-437.749	800.000	0.043	-0.165
-436.734	-200.000	-0.001	-0.129
-435.719	-59.177	0.354	0.152
-434.705	592.683	0.109	0.269
-433.690	317.530	-0.089	0.168
-432.676	37.251	-0.226	-0.200
-431.661	117.737	0.177	0.217
-430.646	-96.847	0.166	-0.044
-429.632	-43.377	0.311	0.157
-428.617	-180.397	-0.315	0.007
-427.603	-4.310	0.219	0.151
-426.588	-200.000	-0.001	0.166
-425.573	-52.965	0.155	-0.071
-424.559	152.271	-0.243	-0.330
-423.544	484.875	-0.107	0.243
-422.530	-200.000	-0.004	-0.130
-421.515	22.721	-0.152	-0.124
-420.500	-200.000	-0.046	0.209
-419.486	38.936	-0.105	-0.094
-418.471	-150.614	0.218	-0.017
-417.457	-200.000	0.087	0.397
-416.442	496.988	-0.097	-0.222
-415.428	220.254	-0.088	0.140
-414.413	800.000	0.039	-0.134
-413.398	-111.822	0.152	-0.031
-412.384	58.068	-0.215	-0.210
-411.369	139.212	0.103	-0.135
-410.355	85.333	-0.292	0.319
-409.340	262.245	-0.039	0.068
-408.325	-72.837	-0.122	-0.045
-407.311	91.795	-0.239	0.268
-406.296	-200.000	0.064	0.297
-405.282	-200.000	-0.008	-0.233
-404.267	-9.006	0.180	0.120
-403.252	124.870	-0.155	-0.194
-402.238	-76.437	0.316	-0.111
-401.223	165.464	0.085	0.119
-400.209	-64.756	-0.219	-0.088
-399.194	-40.757	0.185	-0.095
-398.179	314.371	0.037	-0.069
-397.165	131.760	-0.260	-0.333
-396.150	-114.041	-0.251	-0.048
-395.136	-200.000	-0.055	0.306
-394.121	-70.314	-0.191	-0.072
-393.106	-59.703	-0.190	-0.081
-392.092	142.778	0.108	-0.144
-391.077	-78.514	-0.277	-0.095
-390.063	146.930	-0.142	0.190
-389.048	19.209	-0.231	0.184
-388.033	280.884	-0.100	0.178
-387.019	2.412	-0.277	-0.200
-386.004	-33.634	-0.239	-0.131
-384.990	30.900	-0.141	-0.120
-383.975	-40.248	-0.228	-0.118
-382.960	-200.000	0.079	-0.352
-381.946	-59.702	0.210	0.090
-380.931	-99.158	-0.073	-0.018
-379.917	-151.385	-0.110	-0.008
-378.902	-200.000	0.014	-0.187
-377.888	-200.000	0.038	-0.349
-376.873	-148.127	0.304	0.025
-375.858	-16.395	0.329	0.207
-374.844	-39.438	-0.016	-0.009
-373.829	800.000	0.029	0.087
-372.815	800.000	-0.099	0.318
-371.800	734.585	-0.093	0.247
-370.785	-200.000	-0.002	0.113
-369.771	-134.900	0.378	-0.046
-368.756	-200.000	0.032	0.248
-367.742	800.000	0.060	0.178
-366.727	-200.000	-0.021	0.094
-365.712	-100.138	0.257	-0.064
-364.698	306.804	-0.158	0.293
-363.683	-200.000	0.042	0.266
-362.669	-200.000	-0.044	-0.294
-361.654	-72.841	0.151	0.055
-360.639	-134.306	0.480	-0.059
-359.625	-200.000	0.040	-0.285
-358.610	-57.504	-0.351	-0.153
-357.596	-64.272	0.241	-0.098
-356.581	-76.563	0.379	-0.132
-355.566	-200.000	-0.014	-0.591
-354.552	-103.523	0.359	-0.084
-353.537	738.100	0.030	-0.080
-352.523	800.000	0.043	-0.161
-351.508	339.113	0.087	0.168
-350.493	-65.564	-0.367	0.147
-349.479	246.010	0.173	-0.290
-348.464	-200.000	0.023	0.105
-347.450	144.827	-0.238	0.316
-346.435	-200.000	-0.010	0.381
-345.420	133.838	0.174	0.223
-344.406	38.828	0.151	-0.134
-343.391	18.224	0.067	0.053
-342.377	-125.426	-0.173	-0.026
-341.362	418.623	0.146	0.310
-340.348	78.378	0.168	-0.178
-339.333	-177.818	0.292	0.007
-338.318	-200.000	0.035	0.226
-337.304	127.413	0.031	-0.039
-336.289	427.569	0.140	0.301
-335.275	45.706	-0.122	0.112
-334.260	-200.000	0.042	0.239
-333.245	800.000	0.123	0.364
-332.231	7.082	0.165	0.122
-331.216	-33.654	-0.085	0.047
-330.202	388.160	-0.122	-0.251
-329.187	629.410	0.119	-0.299
-328.172	795.273	-0.033	0.091
-327.158	764.210	-0.088	0.237
-326.143	800.000	0.032	0.091
-325.129	56.686	0.260	-0.252
-324.114	114.493	0.254	-0.307
-323.099	-100.085	0.110	-0.027
-322.085	-48.289	-0.253	-0.121
-321.070	-29.940	0.045	0.025
-320.056	-189.175	0.133	0.002
-319.041	22.391	-0.219	0.178
-318.026	-5.375	-0.265	0.181
-317.012	-153.234	-0.019	0.001
-315.997	-200.000	-0.009	0.096
-314.983	-147.461	-0.703	-0.059
-313.968	343.040	0.121	-0.236
-312.953	800.000	-0.041	-0.170
-311.939	133.845	-0.238	-0.306
-310.924	800.000	-0.054	0.205
-309.910	592.668	0.105	0.256
-308.895	-200.000	0.032	0.252
-307.880	-200.000	0.020	0.088
-306.866	800.000	0.007	-0.023
-305.851	88.919	-0.030	-0.034
-304.837	-157.620	0.313	0.019
-303.822	-200.000	0.036	-0.229
-302.807	205.329	-0.145	0.223
-301.793	-184.864	-0.032	-0.000
-300.778	787.285	-0.054	0.148
-299.764	800.000	0.171	0.581
-298.749	-83.425	-0.272	-0.086
-297.735	-200.000	-0.463	-0.002
-296.720	-200.000	0.054	-0.463
-295.705	-72.108	0.153	-0.056
-294.691	741.803	-0.081	-0.217
-293.676	-200.000	0.007	-0.129
-292.662	-92.677	-0.147	0.041
-291.647	-1.082	0.042	0.030
-290.632	162.320	-0.045	-0.062
-289.618	800.000	0.032	-0.130
-288.603	72.067	-0.269	-0.277
-287.589	-51.367	0.474	-0.220
-286.574	-200.000	-0.015	-0.197
-285.559	-92.875	-0.343	-0.095
-284.545	229.998	0.113	-0.183
-283.530	5.086	0.192	-0.140
-282.516	20.907	0.121	-0.097
-281.501	61.337	-0.177	0.174
-280.486	301.369	0.138	0.253
-279.472	0.468	0.207	0.147
-278.457	96.506	-0.166	-0.188
-277.443	134.246	-0.158	-0.203
-276.428	-200.000	-0.008	0.145
-275.413	800.000	0.059	0.194
-274.399	640.973	0.202	-0.510
-273.384	-120.305	-0.335	-0.057
-272.370	14.379	0.062	0.048
-271.355	47.822	0.225	0.209
-270.340	-79.752	0.164	-0.055
-269.326	49.654	0.144	-0.135
-268.311	-32.047	-0.034	-0.019
-267.297	800.000	-0.023	0.075
-266.282	-128.138	0.193	0.027
-265.267	-200.000	0.003	0.044
-264.253	166.396	0.081	-0.113
-263.238	22.497	0.218	0.176
-262.224	294.199	0.145	0.263
-261.209	112.414	-0.053	0.063
-260.195	139.711	-0.155	-0.203
-259.180	-121.867	0.183	-0.030
-258.165	-200.000	-0.073	0.417
-257.151	21.093	-0.090	0.072
-256.136	358.575	0.068	0.135
-255.122	-200.000	0.063	-0.412
-254.107	800.000	0.035	-0.152
-253.092	122.592	0.207	-0.257
-252.078	-200.000	0.026	-0.365
-251.063	28.863	-0.136	0.114
-250.049	800.000	0.059	0.223
-249.034	8.033	-0.416	0.309
-248.019	-106.352	-0.236	-0.052
-247.005	-200.000	0.007	-0.064
-245.990	72.977	0.119	0.123
-244.976	-200.000	-0.009	0.240
-243.961	63.291	0.168	-0.167
-242.946	800.000	-0.041	0.152
-241.932	-79.141	-0.317	0.107
-240.917	-200.000	0.007	-0.106
-239.903	-120.801	0.390	0.065
-238.888	-23.926	-0.023	-0.014
-237.873	210.357	0.128	-0.199
-236.859	-78.056	0.072	0.024
-235.844	-28.539	0.065	0.037
-234.830	-200.000	0.044	0.196
-233.815	-60.928	-0.435	-0.182
-232.800	10.003	0.261	-0.196
-231.786	114.831	0.315	0.380
-230.771	153.183	0.214	0.290
-229.757	-200.000	0.002	-0.128
-228.742	44.277	-0.240	-0.218
-227.727	21.649	0.022	-0.017
-226.713	800.000	0.106	-0.328
-225.698	-200.000	-0.019	0.145
-224.684	297.293	0.113	0.206
-223.669	-10.437	-0.059	-0.039
-222.655	-62.181	0.090	0.037
-221.640	-58.466	-0.284	-0.122
-220.625	-200.000	-0.021	-0.133
-219.611	-200.000	0.034	0.235
-218.596	-83.487	0.106	-0.034
-217.582	-200.000	0.008	-0.244
-216.567	800.000	0.074	-0.273
-215.552	0.310	0.304	-0.214
-214.538	-200.000	0.054	-0.271
-213.523	-200.000	-0.005	-0.331
-212.509	-107.071	-0.079	-0.017
-211.494	363.940	0.100	-0.199
-210.479	800.000	-0.053	-0.213
-209.465	800.000	0.130	-0.394
-208.450	-117.531	0.159	0.028
-207.436	-84.025	-0.223	0.070
-206.421	195.852	0.156	-0.235
-205.406	-103.144	0.097	0.023
-204.392	-175.770	0.058	-0.002
-203.377	561.075	-0.056	0.134
-202.363	336.189	0.039	0.075
-201.348	521.572	0.026	-0.060
-200.333	-83.370	0.209	0.066
-199.319	-55.573	0.220	0.097
-198.304	778.328	0.176	0.475
-197.290	8.598	-0.314	0.233
-196.275	107.751	-0.263	-0.309
-195.260	70.723	-0.317	0.324
-194.246	572.649	-0.088	0.212
-193.231	-200.000	0.016	-0.339
-192.217	-106.383	-0.203	-0.045
-191.202	14.760	-0.276	-0.213
-190.187	800.000	0.110	-0.318
-189.173	-117.182	-0.087	0.016
-188.158	-122.701	0.261	0.042
-187.144	-98.404	0.135	0.034
-186.129	-71.041	0.242	0.090
-185.114	-2.350	-0.076	0.053
-184.100	-73.179	0.364	-0.132
-183.085	5.635	0.116	0.085
-182.071	-200.000	-0.004	-0.047
-181.056	-148.595	-0.213	-0.017
-180.042	-200.000	0.034	0.231
-179.027	-160.041	0.143	0.008
-178.012	278.106	0.148	0.261
-176.998	800.000	-0.013	0.051
-175.983	517.294	0.056	-0.129
-174.969	29.256	0.307	-0.257
-173.954	145.891	-0.076	-0.101
-172.939	800.000	-0.033	-0.137
-171.925	-29.250	-0.074	0.042
-170.910	-200.000	-0.014	0.088
-169.896	-200.000	-0.031	-0.208
-168.881	-99.397	0.107	-0.027
-167.866	-126.699	0.435	0.064
-166.852	119.957	-0.071	-0.087
-165.837	-92.403	0.201	0.056
-164.823	270.694	-0.159	-0.277
-163.808	476.925	-0.149	0.333
-162.793	-200.000	-0.040	-0.174
-161.779	-125.106	0.310	0.047
-160.764	127.866	0.066	0.083
-159.750	221.528	-0.043	-0.068
-158.735	-200.000	0.010	0.256
-157.720	395.425	-0.152	-0.312
-156.706	-35.660	-0.050	0.027
-155.691	10.259	-0.176	-0.132
-154.677	-200.000	-0.034	-0.288
-153.662	579.638	0.005	-0.011
-152.647	-27.202	-0.356	-0.205
-151.633	197.418	0.022	-0.032
-150.618	-200.000	0.028	-0.252
-149.604	-67.329	-0.192	-0.075
-148.589	-127.613	0.338	0.048
-147.574	-114.985	-0.203	-0.038
-146.560	-91.241	-0.166	0.047
-145.545	-136.343	-0.246	0.028
-144.531	216.014	0.187	-0.293
-143.516	-89.924	0.401	0.116
-142.502	168.756	-0.070	0.099
-141.487	163.065	-0.035	0.049
-140.472	-17.094	0.070	0.043
-139.458	82.426	-0.204	-0.218
-138.443	-120.477	-0.464	-0.078
-137.429	-200.000	0.042	-0.183
-136.414	46.943	0.191	-0.175
-135.399	264.471	0.185	-0.318
-134.385	800.000	0.073	-0.303
-133.370	-200.000	-0.019	0.163
-132.356	-126.123	0.112	-0.017
-131.341	-18.456	-0.099	-0.061
-130.326	800.000	0.132	0.380
-129.312	-200.000	-0.004	0.198
-128.297	-99.629	-0.202	0.050
-127.283	-200.000	0.024	-0.307
-126.268	66.275	0.264	-0.264
-125.253	-200.000	0.004	0.105
-124.239	-200.000	-0.188	0.001
-123.224	-200.000	0.130	-0.668
-122.210	-36.375	-0.138	0.073
