DTS Sentinel unit serial number:	SN413079Multiplexer serial number:	ORYXHardware model number:	OX4-SRSoftware version number:	ORYX F/W v4.00 Oryx Data Collector v3.7.2.0data status	okinstallation	princeton_trtdifferential loss correction	single-endedforward channel	channel 2reverse channel	N/Adate	2019/09/17time	19:51:35forward acquisition time	60.00reverse acquisition time	0.00gamma	496.2192k internal	0.2326k external	0.2326temperature offset calibration	0.9988default loss term (dB/km)	0.3790temperature slope calibration	1.0000multiplexer offset coefficient	1.0000multiplexer slope coefficient	1.0000fibre end	0.00T internal ref (°C)	34.16T ext. ref 1 (°C)	0.24T ext. ref 2 (°C)	23.50length (m)	temperature (°C)	Stokes	anti-Stokes-747.200	346.302	0.145	0.288
-746.185	219.570	-0.078	-0.126
-745.171	61.321	-0.280	0.281
-744.156	-200.000	-0.020	0.244
-743.142	-119.562	-0.444	-0.078
-742.127	45.195	0.151	-0.140
-741.112	84.637	0.267	0.294
-740.098	-200.000	0.060	0.317
-739.083	-107.843	-0.262	0.058
-738.069	-18.269	0.087	0.055
-737.054	216.728	0.043	-0.068
-736.039	800.000	-0.119	0.363
-735.025	-65.462	0.416	0.169
-734.010	-40.489	-0.124	-0.065
-732.996	84.007	-0.123	0.135
-731.981	132.510	0.002	0.003
-730.966	-200.000	-0.030	0.245
-729.952	800.000	0.117	-0.336
-728.937	726.676	0.056	0.151
-727.923	-164.102	0.152	0.007
-726.908	-151.178	-0.243	0.018
-725.894	199.523	0.184	-0.285
-724.879	-200.000	0.021	0.149
-723.864	59.246	0.086	-0.085
-722.850	-200.000	-0.016	-0.154
-721.835	-112.814	0.119	-0.024
-720.821	190.903	0.138	-0.209
-719.806	-174.305	0.251	-0.007
-718.791	-75.118	-0.312	0.112
-717.777	422.541	0.179	-0.387
-716.762	-200.000	0.013	-0.108
-715.748	-151.267	-0.183	0.014
-714.733	140.554	0.012	-0.016
-713.718	344.037	-0.126	0.250
-712.704	47.858	-0.123	-0.116
-711.689	-160.192	-0.190	0.010
-710.675	93.355	-0.106	0.121
-709.660	-40.261	-0.179	0.094
-708.645	-168.077	0.163	-0.006
-707.631	-200.000	0.036	-0.220
-706.616	118.097	0.239	-0.296
-705.602	101.195	-0.056	-0.066
-704.587	-200.000	-0.010	-0.158
-703.572	108.993	-0.040	0.048
-702.558	-89.113	-0.350	-0.104
-701.543	-200.000	0.052	0.305
-700.529	-200.000	0.008	-0.183
-699.514	800.000	-0.097	0.274
-698.499	137.480	-0.079	0.104
-697.485	-57.816	-0.352	0.155
-696.470	-38.811	-0.094	-0.050
-695.456	65.826	0.062	-0.064
-694.441	-60.246	0.193	0.083
-693.426	800.000	0.030	0.084
-692.412	138.162	0.076	0.100
-691.397	-120.985	-0.347	-0.059
-690.383	-200.000	0.076	-0.336
-689.368	-55.647	0.352	0.159
-688.354	224.358	0.049	-0.079
-687.339	154.785	-0.072	-0.100
-686.324	-24.841	-0.101	-0.060
-685.310	135.774	0.195	-0.255
-684.295	169.193	-0.174	-0.250
-683.281	800.000	-0.004	-0.018
-682.266	-69.163	-0.100	-0.039
-681.251	-7.491	-0.480	-0.327
-680.237	800.000	0.072	-0.289
-679.222	400.515	0.218	-0.459
-678.208	447.396	-0.011	0.024
-677.193	-21.766	-0.130	0.079
-676.178	-76.103	0.248	0.088
-675.164	-13.647	-0.204	-0.133
-674.149	57.457	-0.153	-0.150
-673.135	-200.000	-0.005	-0.081
-672.120	105.798	-0.053	-0.063
-671.105	115.508	-0.299	-0.368
-670.091	-200.000	0.006	-0.380
-669.076	102.669	-0.245	0.288
-668.062	-1.971	-0.195	-0.138
-667.047	-106.933	0.086	0.019
-666.032	800.000	-0.035	0.144
-665.018	800.000	-0.041	0.144
-664.003	-2.060	0.139	-0.098
-662.989	-200.000	0.007	-0.403
-661.974	-57.842	-0.412	-0.181
-660.959	85.364	-0.152	-0.167
-659.945	-86.391	0.269	0.083
-658.930	88.617	-0.137	0.153
-657.916	12.866	-0.213	-0.165
-656.901	-39.145	-0.123	0.065
-655.886	761.536	0.056	0.152
-654.872	199.398	-0.217	-0.334
-653.857	-200.000	0.021	-0.096
-652.843	215.148	-0.171	-0.273
-651.828	800.000	0.054	-0.189
-650.814	452.181	0.062	-0.137
-649.799	118.463	-0.220	0.273
-648.784	-200.000	-0.053	0.328
-647.770	-64.855	-0.070	-0.028
-646.755	-200.000	0.024	0.168
-645.741	800.000	0.016	-0.069
-644.726	715.442	0.041	0.110
-643.711	137.121	0.116	0.152
-642.697	-117.441	0.263	-0.048
-641.682	-25.171	0.037	0.022
-640.668	52.796	0.064	0.061
-639.653	50.603	0.135	0.128
-638.638	701.074	0.030	0.080
-637.624	70.388	0.156	0.162
-636.609	-44.873	-0.287	-0.144
-635.595	176.778	0.204	-0.297
-634.580	-200.000	0.056	-0.353
-633.565	800.000	0.017	0.052
-632.551	543.496	0.007	0.017
-631.536	254.328	0.109	-0.188
-630.522	-129.634	0.199	0.028
-629.507	-166.122	0.164	-0.007
-628.492	106.762	0.191	-0.227
-627.478	-78.463	-0.198	-0.068
-626.463	627.093	0.040	-0.103
-625.449	-200.000	-0.008	0.390
-624.434	-88.244	-0.273	0.082
-623.419	599.407	-0.062	-0.153
-622.405	-200.000	0.054	0.272
-621.390	-200.000	0.097	0.460
-620.376	-92.222	0.311	-0.088
-619.361	397.199	0.075	-0.158
-618.346	-50.649	-0.221	0.104
-617.332	47.806	0.091	-0.085
-616.317	620.635	-0.140	-0.353
-615.303	-139.238	-0.218	-0.024
-614.288	-200.000	0.006	-0.080
-613.273	800.000	0.042	-0.157
-612.259	87.640	-0.080	-0.089
-611.244	515.982	-0.176	0.414
-610.230	-93.015	-0.140	0.039
-609.215	-99.828	-0.274	-0.069
-608.201	-200.000	-0.095	0.000
-607.186	-200.000	-0.020	-0.284
-606.171	509.965	0.063	-0.148
-605.157	-101.168	0.554	-0.136
-604.142	-200.000	-0.022	-0.129
-603.128	-47.465	-0.213	0.104
-602.113	142.626	-0.108	0.144
-601.098	-66.722	0.286	0.113
-600.084	-19.404	-0.178	-0.111
-599.069	646.335	-0.151	-0.386
-598.055	-175.265	-0.208	0.006
-597.040	-177.489	0.309	-0.008
-596.025	287.472	-0.080	-0.146
-595.011	175.304	-0.071	0.103
-593.996	-82.898	0.045	-0.015
-592.982	506.385	0.153	-0.356
-591.967	-200.000	-0.052	-0.268
-590.952	162.817	-0.079	0.111
-589.938	-153.946	-0.354	-0.024
-588.923	-200.000	0.010	-0.358
-587.909	365.610	-0.020	-0.041
-586.894	-200.000	0.045	0.278
-585.879	800.000	0.066	0.207
-584.865	75.886	-0.179	-0.189
-583.850	287.561	0.170	-0.309
-582.836	-83.529	-0.203	-0.065
-581.821	160.289	0.158	0.221
-580.806	67.066	0.163	-0.166
-579.792	-72.916	0.102	0.038
-578.777	-61.084	-0.090	0.038
-577.763	435.674	0.030	-0.066
-576.748	-200.000	0.230	-0.000
-575.733	763.607	-0.073	0.200
-574.719	-200.000	-0.006	-0.157
-573.704	56.710	0.156	0.152
-572.690	-38.086	0.173	0.092
-571.675	13.224	-0.104	0.081
-570.661	-107.964	-0.108	-0.024
-569.646	-44.938	0.093	0.046
-568.631	227.843	0.270	-0.440
-567.617	601.246	0.139	-0.345
-566.602	-72.262	-0.087	0.032
-565.588	-83.654	-0.223	-0.071
-564.573	-86.140	-0.081	0.025
-563.558	-145.399	0.198	0.018
-562.544	267.450	0.089	0.155
-561.529	-5.063	0.238	0.164
-560.515	-98.762	0.087	0.022
-559.500	8.607	0.308	-0.232
-558.485	-104.376	-0.145	-0.034
-557.471	-200.000	-0.063	0.562
-556.456	-105.700	-0.137	0.031
-555.442	374.207	0.143	-0.292
-554.427	-200.000	-0.066	-0.325
-553.412	-200.000	0.038	-0.250
-552.398	-200.000	0.019	-0.177
-551.383	-29.196	-0.137	-0.079
-550.369	274.048	-0.176	0.312
-549.354	-119.274	-0.441	0.077
-548.339	-200.000	0.038	0.196
-547.325	53.137	0.112	-0.107
-546.310	58.087	-0.174	-0.171
-545.296	112.899	0.092	-0.111
-544.281	-167.027	-0.297	0.012
-543.266	-200.000	0.008	-0.060
-542.252	-200.000	0.022	-0.173
-541.237	-104.753	-0.228	0.052
-540.223	235.464	0.133	-0.219
-539.208	800.000	0.040	-0.113
-538.193	214.266	0.148	-0.235
-537.179	7.392	-0.079	0.059
-536.164	371.442	-0.098	-0.198
-535.150	100.100	-0.042	-0.048
-534.135	-78.360	-0.082	-0.028
-533.121	396.918	0.037	0.077
-532.106	597.479	-0.148	0.366
-531.091	548.801	-0.099	0.237
-530.077	-25.220	0.236	-0.140
-529.062	800.000	0.127	-0.366
-528.048	-50.749	0.042	-0.020
-527.033	-81.226	-0.194	0.064
-526.018	-200.000	0.024	-0.303
-525.004	732.104	-0.165	-0.441
-523.989	-24.709	0.074	-0.044
-522.975	-107.087	-0.388	-0.086
-521.960	-17.702	-0.340	0.213
-520.945	800.000	-0.025	0.093
-519.931	198.896	0.063	0.096
-518.916	260.991	0.085	-0.148
-517.902	176.250	0.156	-0.227
-516.887	30.536	-0.134	-0.114
-515.872	-200.000	0.096	-0.454
-514.858	-92.902	-0.403	-0.113
-513.843	-200.000	-0.007	-0.213
-512.829	49.426	-0.190	-0.178
-511.814	-79.970	0.167	0.056
-510.799	172.964	0.088	-0.127
-509.785	4.602	-0.193	-0.141
-508.770	192.732	-0.139	0.210
-507.756	800.000	-0.004	-0.014
-506.741	153.304	0.272	-0.372
-505.726	73.440	-0.050	0.053
-504.712	177.303	-0.108	0.157
-503.697	206.431	0.056	0.088
-502.683	-200.000	-0.058	-0.310
-501.668	192.946	-0.067	-0.101
-500.653	-66.842	0.107	0.042
-499.639	-200.000	-0.014	0.130
-498.624	-44.301	-0.258	0.129
-497.610	269.456	0.169	0.296
-496.595	-124.318	-0.239	0.037
-495.581	657.527	-0.045	-0.116
-494.566	-154.615	0.155	0.010
-493.551	475.704	-0.060	0.135
-492.537	-44.340	0.216	-0.108
-491.522	-200.000	0.038	0.388
-490.508	176.377	-0.138	0.201
-489.493	-10.673	-0.098	0.065
-488.478	-200.000	-0.002	-0.221
-487.464	518.922	0.116	0.271
-486.449	-160.493	-0.350	-0.019
-485.435	-86.645	-0.231	0.071
-484.420	-200.000	0.027	-0.298
-483.405	-200.000	0.004	0.280
-482.391	23.911	-0.354	0.291
-481.376	-33.803	0.161	0.089
-480.362	-200.000	-0.235	0.000
-479.347	-200.000	0.035	-0.202
-478.332	-97.943	-0.140	0.036
-477.318	800.000	-0.058	-0.229
-476.303	458.448	0.128	0.284
-475.289	-118.487	-0.325	-0.057
-474.274	-58.824	0.157	0.068
-473.259	84.154	-0.207	-0.225
-472.245	104.931	-0.275	0.324
-471.230	-26.390	0.360	0.211
-470.216	409.953	0.021	-0.044
-469.201	44.834	0.148	-0.136
-468.186	132.258	-0.099	-0.127
-467.172	252.534	0.071	0.121
-466.157	-106.418	0.145	0.032
-465.143	239.595	-0.081	-0.134
-464.128	-46.017	-0.062	0.031
-463.113	757.432	0.038	0.102
-462.099	-200.000	-0.035	-0.196
-461.084	800.000	0.043	0.178
-460.070	-145.699	-0.299	-0.027
-459.055	22.424	0.172	-0.140
-458.040	633.366	0.085	-0.215
-457.026	-22.863	0.079	0.048
-456.011	194.523	0.183	-0.276
-454.997	278.671	-0.137	-0.244
-453.982	-200.000	0.089	-0.502
-452.968	299.770	-0.056	-0.103
-451.953	-200.000	0.047	-0.352
-450.938	-200.000	-0.041	-0.546
-449.924	800.000	-0.028	0.117
-448.909	95.046	0.342	0.388
-447.895	279.536	-0.111	0.198
-446.880	201.797	0.136	0.209
-445.865	25.790	-0.215	-0.179
-444.851	-45.452	0.044	-0.022
-443.836	-154.122	-0.136	0.009
-442.822	12.241	-0.069	0.053
-441.807	-83.835	0.342	-0.109
-440.792	-28.736	-0.119	-0.068
-439.778	-200.000	0.052	-0.322
-438.763	-200.000	-0.016	-0.339
-437.749	188.886	-0.068	0.102
-436.734	800.000	0.053	-0.169
-435.719	-200.000	0.014	0.153
-434.705	-140.811	-0.143	0.015
-433.690	-114.437	0.362	-0.069
-432.676	-91.786	0.201	-0.057
-431.661	-132.975	-0.182	0.023
-430.646	-143.633	-0.229	-0.022
-429.632	-9.917	0.295	-0.195
-428.617	2.533	0.227	-0.164
-427.603	-88.272	-0.206	0.062
-426.588	-200.000	-0.027	-0.136
-425.573	-33.434	-0.230	0.127
-424.559	42.036	-0.160	0.144
-423.544	-184.480	-0.268	-0.004
-422.530	-132.042	0.277	0.036
-421.515	-39.489	0.186	-0.097
-420.500	12.467	-0.252	0.193
-419.486	-101.502	-0.204	0.050
-418.471	-200.000	0.031	-0.397
-417.457	54.891	0.097	-0.094
-416.442	9.140	0.065	0.049
-415.428	17.822	0.096	-0.076
-414.413	-55.625	-0.205	-0.091
-413.398	-37.375	0.133	-0.071
-412.384	-143.270	-0.279	0.027
-411.369	-20.666	0.129	0.079
-410.355	38.130	0.261	0.231
-409.340	44.066	-0.135	0.123
-408.325	-175.589	0.401	0.011
-407.311	-200.000	-0.015	0.080
-406.296	342.604	0.097	0.188
-405.282	15.450	-0.202	-0.158
-404.267	-44.505	0.219	-0.109
-403.252	393.073	-0.189	0.392
-402.238	76.643	0.152	0.161
-401.223	-65.215	-0.149	0.060
-400.209	66.006	-0.093	-0.094
-399.194	-159.710	0.248	0.014
-398.179	-200.000	-0.018	0.230
-397.165	800.000	-0.013	-0.054
-396.150	91.517	-0.149	-0.167
-395.136	800.000	-0.075	0.319
-394.121	800.000	-0.051	-0.176
-393.106	-200.000	0.019	-0.186
-392.092	27.479	0.248	-0.207
-391.077	-177.350	-0.409	0.010
-390.063	195.195	-0.118	0.178
-389.048	-119.249	0.478	-0.083
-388.033	-200.000	-0.009	0.084
-387.019	546.104	0.071	-0.168
-386.004	198.350	-0.066	0.101
-384.990	140.856	-0.084	0.110
-383.975	-48.813	0.075	0.036
-382.960	-200.000	0.008	0.233
-381.946	93.928	0.111	-0.125
-380.931	-116.400	-0.154	-0.028
-379.917	-85.580	0.204	-0.063
-378.902	-96.821	0.312	0.081
-377.888	-103.520	0.149	0.035
-376.873	-200.000	-0.034	0.219
-375.858	65.589	0.244	0.246
-374.844	124.843	-0.061	0.077
-373.829	-200.000	0.021	-0.138
-372.815	-200.000	0.021	-0.200
-371.800	-90.680	-0.246	-0.070
-370.785	-146.241	0.178	0.016
-369.771	111.648	-0.140	0.167
-368.756	-75.307	-0.022	-0.008
-367.742	123.305	0.056	0.070
-366.727	800.000	0.059	0.166
-365.712	800.000	-0.054	0.149
-364.698	-200.000	-0.008	-0.275
-363.683	-111.620	-0.242	0.049
-362.669	-30.804	0.053	-0.030
-361.654	562.848	0.063	-0.151
-360.639	800.000	0.059	-0.163
-359.625	48.127	-0.182	-0.169
-358.610	-90.722	0.075	-0.022
-357.596	253.745	0.120	-0.203
-356.581	10.890	0.165	0.125
-355.566	-120.006	-0.360	-0.061
-354.552	800.000	0.061	-0.177
-353.537	37.214	0.186	-0.164
-352.523	-159.042	-0.208	0.012
-351.508	184.512	0.071	-0.104
-350.493	248.371	-0.156	0.261
-349.479	35.340	-0.256	0.223
-348.464	-28.220	0.090	0.052
-347.450	800.000	0.037	-0.133
-346.435	-200.000	-0.054	-0.370
-345.420	-50.983	-0.207	0.097
-344.406	485.511	-0.062	0.140
-343.391	-200.000	-0.010	-0.068
-342.377	444.412	0.070	0.152
-341.362	191.537	0.124	0.185
-340.348	-200.000	0.032	0.221
-339.333	441.893	-0.066	0.144
-338.318	-3.166	-0.076	0.053
-337.304	617.355	0.092	-0.230
-336.289	459.928	0.077	0.170
-335.275	-40.774	-0.169	-0.087
-334.260	727.043	-0.038	0.101
-333.245	-49.208	0.201	-0.095
-332.231	321.055	0.118	-0.222
-331.216	123.492	0.182	0.227
-330.202	-200.000	0.029	-0.170
-329.187	222.885	0.140	-0.224
-328.172	800.000	0.023	0.100
-327.158	-200.000	0.049	0.377
-326.143	-74.160	0.317	-0.114
-325.129	-19.711	0.147	-0.090
-324.114	-91.502	0.200	-0.057
-323.099	-95.198	0.112	0.030
-322.085	243.994	0.021	-0.035
-321.070	-200.000	0.015	0.366
-320.056	-200.000	0.018	0.133
-319.041	-200.000	0.031	0.157
-318.026	-95.954	0.174	-0.046
-317.012	-81.489	-0.175	0.057
-315.997	90.335	0.065	0.072
-314.983	-200.000	0.002	0.080
-313.968	48.298	0.162	-0.150
-312.953	504.538	-0.091	-0.208
-311.939	-67.975	0.191	-0.074
-310.924	-200.000	0.016	-0.143
-309.910	263.483	0.069	0.118
-308.895	201.771	-0.344	0.526
-307.880	621.053	-0.079	0.197
-306.866	97.506	0.226	-0.257
-305.851	-200.000	-0.013	0.223
-304.837	5.717	-0.054	-0.040
-303.822	-130.619	0.176	0.024
-302.807	-122.828	0.111	0.018
-301.793	-107.027	0.303	0.066
-300.778	-152.772	-0.485	-0.034
-299.764	-129.718	-0.088	-0.012
-298.749	98.597	0.132	0.151
-297.735	-200.000	0.026	0.361
-296.720	32.370	0.159	0.136
-295.705	342.652	0.083	0.161
-294.691	-129.354	-0.339	-0.047
-293.676	107.228	0.108	0.127
-292.662	-200.000	0.008	0.208
-291.647	-200.000	-0.004	-0.434
-290.632	13.658	-0.282	0.217
-289.618	475.926	-0.080	0.178
-288.603	-39.409	0.195	-0.102
-287.589	-140.685	0.127	0.013
-286.574	-81.668	-0.405	-0.132
-285.559	400.287	0.125	0.259
-284.545	60.593	-0.162	0.159
-283.530	-200.000	-0.082	0.390
-282.516	-107.402	0.111	-0.024
-281.501	800.000	0.034	0.139
-280.486	-200.000	0.057	0.267
-279.472	-116.934	-0.356	0.064
-278.457	14.508	0.150	0.116
-277.443	800.000	0.011	-0.034
-276.428	-200.000	-0.002	0.158
-275.413	-200.000	0.026	-0.168
-274.399	269.380	-0.180	0.312
-273.384	-27.697	0.155	-0.089
-272.370	-162.039	-0.277	-0.014
-271.355	1.672	-0.081	-0.058
-270.340	-36.611	0.208	0.111
-269.326	0.190	-0.126	0.089
-268.311	-27.037	0.122	0.071
-267.297	448.708	-0.115	0.252
-266.282	-200.000	-0.043	-0.210
-265.267	800.000	0.132	0.434
-264.253	75.550	0.312	0.326
-263.238	-200.000	-0.017	0.162
-262.224	800.000	-0.043	-0.138
-261.209	-200.000	0.004	-0.146
-260.195	-130.177	-0.275	-0.037
-259.180	263.429	0.219	0.377
-258.165	56.912	-0.170	-0.164
-257.151	-106.508	0.177	0.039
-256.136	106.073	-0.228	0.267
-255.122	-149.876	0.254	-0.020
-254.107	8.811	-0.187	0.139
-253.092	-109.878	0.074	-0.015
-252.078	-200.000	-0.049	-0.406
-251.063	112.923	-0.115	0.138
-250.049	450.228	0.059	0.128
-249.034	223.476	0.262	0.418
-248.019	-200.000	-0.044	0.218
-247.005	800.000	-0.054	-0.176
-245.990	257.990	-0.166	0.284
-244.976	-106.809	-0.132	0.029
-243.961	152.868	0.133	0.180
-242.946	134.340	0.156	-0.200
-241.932	-41.401	-0.221	0.112
-240.917	68.828	-0.216	0.219
-239.903	-112.286	-0.222	-0.044
-238.888	-82.309	-0.245	-0.079
-237.873	520.863	0.043	-0.099
-236.859	-25.215	0.247	-0.145
-235.844	44.139	0.374	-0.339
-234.830	298.204	0.077	-0.141
-233.815	95.907	0.112	-0.126
-232.800	-103.448	0.016	-0.004
-231.786	-81.050	-0.070	-0.023
-230.771	-200.000	-0.009	-0.095
-229.757	85.415	-0.074	0.080
-228.742	-200.000	0.006	-0.049
-227.727	-147.955	0.451	-0.037
-226.713	-81.236	0.055	-0.018
-225.698	800.000	0.039	0.140
-224.684	-64.096	-0.195	0.079
-223.669	-19.836	0.231	0.141
-222.655	-200.000	0.031	-0.360
-221.640	-112.787	0.271	-0.053
-220.625	800.000	-0.030	0.093
-219.611	142.294	0.233	0.306
-218.596	-187.623	0.219	-0.003
-217.582	182.674	-0.132	-0.192
-216.567	-60.511	-0.312	-0.131
-215.552	-200.000	-0.011	0.137
-214.538	800.000	0.053	-0.152
-213.523	-75.654	-0.088	0.031
-212.509	-100.446	0.096	0.023
-211.494	41.651	0.142	-0.127
-210.479	98.380	0.344	0.392
-209.465	432.803	-0.041	-0.088
-208.450	18.632	-0.230	-0.181
-207.436	19.644	-0.104	0.083
-206.421	-40.522	-0.107	-0.055
-205.406	800.000	-0.167	-0.490
-204.392	-200.000	0.037	0.227
-203.377	800.000	-0.009	-0.028
-202.363	-12.732	-0.077	-0.049
-201.348	-27.164	0.134	0.077
-200.333	-200.000	-0.004	0.263
-199.319	-53.046	0.239	0.108
-198.304	-181.905	-0.211	0.004
-197.290	436.097	0.126	0.270
-196.275	-47.931	0.501	0.239
-195.260	-113.233	-0.379	0.074
-194.246	-134.650	-0.062	-0.007
-193.231	-200.000	0.009	0.114
-192.217	-154.694	0.298	0.020
-191.202	94.990	-0.299	0.336
-190.187	-51.899	0.146	0.067
-189.173	-149.389	0.210	0.016
-188.158	-200.000	0.008	0.060
-187.144	800.000	-0.038	-0.140
-186.129	-19.982	-0.199	-0.121
-185.114	-200.000	0.016	-0.227
-184.100	-200.000	-0.008	0.051
-183.085	-66.953	-0.326	-0.127
-182.071	148.014	-0.021	0.028
-181.056	111.664	-0.038	0.045
-180.042	-47.256	0.256	-0.123
-179.027	33.387	0.154	-0.132
-178.012	396.742	0.090	-0.186
-176.998	146.147	0.024	-0.032
-175.983	-47.008	0.085	-0.041
-174.969	11.381	0.179	0.135
-173.954	-200.000	0.051	-0.239
-172.939	-108.876	-0.106	-0.022
-171.925	-200.000	-0.027	0.164
-170.910	-113.533	0.407	0.079
-169.896	50.793	0.117	0.109
-168.881	-200.000	-0.010	0.119
-167.866	438.530	0.057	0.123
-166.852	217.798	0.124	-0.195
-165.837	31.651	-0.111	0.094
-164.823	-200.000	-0.007	-0.061
-163.808	-160.631	0.261	-0.014
-162.793	-191.034	-0.176	-0.002
-161.779	-200.000	-0.013	-0.261
-160.764	23.711	-0.062	-0.051
-159.750	109.644	-0.105	0.124
-158.735	-16.165	-0.188	0.117
-157.720	-98.401	-0.195	-0.049
-156.706	-192.972	-0.299	0.003
-155.691	82.960	-0.267	0.286
-154.677	-125.851	-0.065	-0.010
-153.662	17.548	-0.176	0.138
-152.647	360.359	-0.111	-0.220
-151.633	388.532	-0.081	-0.165
-150.618	-36.992	0.178	-0.094
-149.604	-4.406	-0.112	-0.076
-148.589	15.310	0.273	0.211
-147.574	-50.063	0.251	-0.117
-146.560	-91.328	-0.077	-0.022
-145.545	23.220	0.080	0.065
-144.531	-155.389	0.025	0.002
-143.516	-83.285	-0.207	-0.066
-142.502	-9.687	0.130	0.086
-141.487	800.000	0.114	-0.413
-140.472	-109.463	0.126	-0.026
-139.458	-12.362	0.327	-0.211
-138.443	-200.000	0.063	-0.506
-137.429	-52.930	0.142	-0.064
-136.414	-200.000	-0.002	0.076
-135.399	-166.248	0.163	0.007
-134.385	800.000	-0.018	0.056
-133.370	800.000	-0.088	0.309
-132.356	9.061	0.138	-0.102
-131.341	115.400	-0.102	-0.122
-130.326	-166.133	0.231	-0.010
-129.312	-125.841	0.420	-0.062
-128.297	74.192	0.053	0.055
-127.283	-76.787	0.015	0.005
-126.268	-43.043	-0.051	0.025
-125.253	-113.030	0.163	0.032
-124.239	-93.133	0.069	-0.019
-123.224	168.609	-0.145	-0.204
-122.210	-68.603	0.299	-0.114
