DTS Sentinel unit serial number:	SN413079Multiplexer serial number:	ORYXHardware model number:	OX4-SRSoftware version number:	ORYX F/W v4.00 Oryx Data Collector v3.7.2.0data status	okinstallation	princeton_trtdifferential loss correction	single-endedforward channel	channel 2reverse channel	N/Adate	2019/09/14time	06:31:35forward acquisition time	60.00reverse acquisition time	0.00gamma	496.2192k internal	0.2337k external	0.2337temperature offset calibration	1.0132default loss term (dB/km)	0.3790temperature slope calibration	1.0000multiplexer offset coefficient	1.0000multiplexer slope coefficient	1.0000fibre end	0.00T internal ref (°C)	26.44T ext. ref 1 (°C)	3.42T ext. ref 2 (°C)	20.40length (m)	temperature (°C)	Stokes	anti-Stokes-747.200	223.712	-0.188	0.304
-746.185	361.797	0.111	0.224
-745.171	197.011	-0.134	-0.206
-744.156	-122.340	0.215	-0.035
-743.142	-200.000	0.007	-0.046
-742.127	-200.000	-0.006	0.029
-741.112	221.667	-0.143	-0.230
-740.098	-200.000	-0.023	0.364
-739.083	169.970	0.030	0.044
-738.069	704.116	0.054	0.143
-737.054	-200.000	0.006	-0.090
-736.039	-73.403	-0.191	-0.070
-735.025	231.757	0.075	-0.123
-734.010	-61.837	-0.127	-0.053
-732.996	-22.801	-0.236	0.143
-731.981	674.255	-0.036	-0.094
-730.966	-166.090	-0.277	-0.012
-729.952	225.987	-0.047	0.076
-728.937	77.713	-0.211	-0.226
-727.923	-173.014	-0.193	-0.006
-726.908	-88.506	0.147	0.044
-725.894	-134.751	-0.313	-0.038
-724.879	800.000	0.082	0.249
-723.864	-59.821	-0.201	-0.086
-722.850	47.306	0.248	-0.232
-721.835	206.295	-0.125	0.195
-720.821	-99.430	-0.329	0.083
-719.806	209.784	0.060	-0.094
-718.791	-200.000	0.008	-0.308
-717.777	-72.494	0.083	-0.031
-716.762	335.089	-0.149	0.290
-715.748	-200.000	0.021	0.219
-714.733	-200.000	0.005	-0.050
-713.718	-75.759	-0.025	0.009
-712.704	279.797	-0.228	-0.409
-711.689	-200.000	0.003	-0.371
-710.675	212.506	-0.251	-0.397
-709.660	800.000	0.077	-0.331
-708.645	800.000	-0.081	0.230
-707.631	143.147	0.155	0.206
-706.616	-162.714	-0.298	-0.015
-705.602	-200.000	0.009	-0.115
-704.587	-26.260	-0.374	0.220
-703.572	82.453	-0.168	-0.182
-702.558	-9.784	-0.308	-0.206
-701.543	800.000	0.043	-0.156
-700.529	145.396	0.233	0.312
-699.514	44.030	-0.278	0.255
-698.499	75.400	0.307	0.325
-697.485	-136.087	-0.224	-0.026
-696.470	-63.225	-0.373	-0.154
-695.456	-200.000	-0.030	-0.371
-694.441	-200.000	-0.011	-0.199
-693.426	-12.003	0.121	-0.079
-692.412	-200.000	-0.024	0.223
-691.397	294.129	-0.036	0.065
-690.383	-35.263	0.257	-0.140
-689.368	800.000	0.136	-0.523
-688.354	39.081	-0.231	-0.207
-687.339	629.256	-0.076	-0.193
-686.324	76.918	0.126	-0.134
-685.310	-78.143	-0.190	-0.065
-684.295	-145.644	-0.387	-0.035
-683.281	-200.000	0.017	-0.356
-682.266	379.224	-0.085	0.175
-681.251	151.947	0.122	-0.167
-680.237	4.773	0.037	-0.027
-679.222	800.000	0.018	-0.067
-678.208	-200.000	-0.021	-0.159
-677.193	-127.615	0.088	0.013
-676.178	75.680	0.121	0.128
-675.164	-105.168	-0.392	0.090
-674.149	197.089	-0.104	0.159
-673.135	-161.705	-0.137	-0.007
-672.120	-41.623	-0.280	-0.144
-671.105	54.683	0.084	0.081
-670.091	81.242	0.129	0.140
-669.076	198.755	0.145	0.223
-668.062	-200.000	0.039	0.193
-667.047	78.993	0.152	0.163
-666.032	-68.033	-0.554	0.216
-665.018	-195.996	0.310	0.002
-664.003	-200.000	0.027	0.497
-662.989	340.993	-0.053	-0.104
-661.974	-134.644	-0.133	0.016
-660.959	199.824	-0.137	0.211
-659.945	12.792	0.201	0.155
-658.930	-200.000	-0.078	-0.380
-657.916	15.443	-0.177	-0.139
-656.901	-200.000	0.030	0.210
-655.886	147.356	-0.150	-0.202
-654.872	-107.032	0.377	-0.083
-653.857	25.669	0.198	-0.165
-652.843	-200.000	-0.006	0.114
-651.828	8.121	-0.217	-0.163
-650.814	-3.048	-0.413	-0.288
-649.799	-200.000	-0.014	0.103
-648.784	24.517	-0.057	0.047
-647.770	54.138	0.270	-0.260
-646.755	-53.250	0.447	-0.205
-645.741	-200.000	-0.007	-0.258
-644.726	-124.707	-0.298	0.046
-643.711	-200.000	-0.005	-0.121
-642.697	-87.595	-0.105	-0.032
-641.682	-200.000	0.020	0.123
-640.668	282.831	-0.184	-0.330
-639.653	276.110	0.146	0.258
-638.638	484.816	-0.111	-0.253
-637.624	-51.778	0.094	0.044
-636.609	-181.124	0.102	0.002
-635.595	122.109	-0.193	0.241
-634.580	-130.573	-0.242	-0.033
-633.565	6.028	-0.210	-0.155
-632.551	42.451	0.234	0.213
-631.536	-200.000	0.042	0.306
-630.522	34.433	-0.285	0.249
-629.507	-40.760	-0.265	0.137
-628.492	-125.307	-0.272	-0.042
-627.478	47.150	-0.090	0.083
-626.463	-200.000	-0.015	-0.120
-625.449	-200.000	-0.013	-0.216
-624.434	-200.000	-0.034	0.213
-623.419	206.627	-0.161	0.250
-622.405	342.704	0.040	0.077
-621.390	-191.514	0.213	0.002
-620.376	-200.000	0.040	0.286
-619.361	-126.662	-0.185	0.027
-618.346	334.418	-0.184	-0.355
-617.332	101.644	0.183	0.213
-616.317	17.182	-0.064	0.050
-615.303	-200.000	0.075	-0.438
-614.288	800.000	0.037	0.130
-613.273	39.240	0.428	-0.382
-612.259	96.201	-0.192	0.220
-611.244	217.160	0.138	0.219
-610.230	-126.306	-0.046	0.007
-609.215	33.990	-0.274	0.238
-608.201	134.064	0.145	-0.188
-607.186	-88.984	-0.286	0.085
-606.171	-57.016	-0.133	-0.058
-605.157	800.000	0.065	-0.220
-604.142	206.502	0.238	-0.370
-603.128	-143.412	0.334	-0.032
-602.113	664.500	0.075	-0.192
-601.098	-200.000	-0.011	-0.188
-600.084	-63.894	0.173	-0.071
-599.069	195.697	-0.141	0.214
-598.055	173.407	0.195	0.281
-597.040	-49.580	-0.137	0.065
-596.025	-200.000	-0.017	-0.107
-595.011	-200.000	-0.025	0.109
-593.996	-200.000	-0.023	0.208
-592.982	-106.711	0.206	0.046
-591.967	11.610	-0.376	-0.288
-590.952	-200.000	-0.014	0.094
-589.938	181.338	-0.189	-0.277
-588.923	38.656	-0.091	0.081
-587.909	511.215	-0.072	-0.166
-586.894	-142.215	0.432	-0.043
-585.879	800.000	-0.068	0.216
-584.865	62.855	0.077	-0.077
-583.850	250.793	-0.060	-0.101
-582.836	184.106	-0.152	-0.225
-581.821	-54.290	-0.126	-0.057
-580.806	608.414	0.079	-0.196
-579.792	179.444	0.373	-0.545
-578.777	176.577	-0.114	0.165
-577.763	-24.276	-0.092	-0.055
-576.748	-12.619	0.181	0.118
-575.733	-200.000	0.042	-0.297
-574.719	-177.748	0.231	0.006
-573.704	247.727	0.104	-0.175
-572.690	-200.000	-0.092	-0.482
-571.675	-200.000	0.038	0.204
-570.661	-22.968	-0.157	0.094
-569.646	-200.000	-0.029	0.208
-568.631	115.199	-0.108	-0.131
-567.617	173.050	-0.085	-0.123
-566.602	-200.000	0.035	-0.333
-565.588	-101.586	-0.061	-0.015
-564.573	-68.580	0.255	-0.098
-563.558	-150.261	-0.282	-0.022
-562.544	7.225	-0.224	-0.167
-561.529	-200.000	-0.020	-0.158
-560.515	-18.217	-0.162	-0.101
-559.500	-112.699	-0.140	-0.028
-558.485	-5.832	0.201	-0.137
-557.471	681.980	-0.126	0.327
-556.456	800.000	-0.060	-0.203
-555.442	77.842	0.121	0.128
-554.427	50.617	-0.229	-0.216
-553.412	731.003	0.072	-0.191
-552.398	-38.657	-0.146	0.077
-551.383	-200.000	0.049	0.314
-550.369	-27.443	-0.161	-0.093
-549.354	18.197	0.248	-0.197
-548.339	-48.054	0.218	-0.105
-547.325	-56.705	0.245	0.108
-546.310	240.800	-0.152	0.253
-545.296	-200.000	0.003	0.044
-544.281	-200.000	-0.049	-0.302
-543.266	24.658	0.261	-0.215
-542.252	-47.479	-0.195	0.095
-541.237	351.115	-0.127	0.251
-540.223	97.450	-0.089	-0.101
-539.208	800.000	0.022	-0.074
-538.193	-200.000	0.000	-0.115
-537.179	-200.000	0.023	-0.353
-536.164	8.345	0.204	0.152
-535.150	-125.075	0.156	0.024
-534.135	-184.061	-0.184	-0.003
-533.121	800.000	0.021	0.066
-532.106	-136.066	-0.474	-0.055
-531.091	109.758	-0.261	-0.311
-530.077	-135.007	0.324	-0.039
-529.062	139.838	-0.064	0.084
-528.048	128.304	0.048	0.061
-527.033	765.573	0.094	0.255
-526.018	-38.564	0.324	-0.171
-525.004	191.275	0.054	0.081
-523.989	171.383	-0.072	0.103
-522.975	20.593	0.293	-0.236
-521.960	-200.000	-0.032	-0.150
-520.945	271.017	-0.065	0.113
-519.931	-63.057	0.161	0.066
-518.916	800.000	-0.102	0.397
-517.902	-8.506	0.245	-0.164
-516.887	-200.000	0.058	0.276
-515.872	-64.163	0.062	-0.025
-514.858	132.364	0.277	0.355
-513.843	-192.990	0.240	0.002
-512.829	-50.285	0.187	0.088
-511.814	592.574	0.091	-0.223
-510.799	-67.469	0.173	-0.067
-509.785	-1.420	0.139	0.098
-508.770	-200.000	-0.004	0.020
-507.756	-200.000	-0.004	0.165
-506.741	-200.000	-0.019	0.407
-505.726	-4.465	0.281	-0.193
-504.712	125.276	-0.087	0.109
-503.697	634.244	-0.138	-0.348
-502.683	371.679	0.074	0.149
-501.668	-200.000	0.081	0.400
-500.653	444.730	-0.016	-0.035
-499.639	-73.399	-0.329	0.120
-498.624	113.804	-0.201	0.243
-497.610	-40.922	0.195	0.100
-496.595	128.169	-0.134	0.170
-495.581	135.680	0.090	-0.116
-494.566	800.000	0.045	0.141
-493.551	681.374	0.048	-0.124
-492.537	-154.287	-0.314	0.021
-491.522	287.181	0.081	-0.145
-490.508	125.427	0.078	-0.098
-489.493	22.376	-0.401	0.326
-488.478	800.000	0.019	-0.078
-487.464	103.165	-0.232	0.270
-486.449	-86.633	-0.163	-0.050
-485.435	-110.471	-0.344	0.071
-484.420	57.963	0.165	-0.160
-483.405	-200.000	0.001	0.183
-482.391	40.155	0.231	0.206
-481.376	-5.043	-0.074	0.051
-480.362	-32.784	-0.151	0.083
-479.347	-200.000	-0.021	-0.171
-478.332	-22.986	-0.143	-0.086
-477.318	302.689	-0.071	0.130
-476.303	571.624	0.270	0.654
-475.289	-4.116	-0.231	0.159
-474.274	-94.250	0.549	-0.149
-473.259	308.292	-0.072	0.133
-472.245	-200.000	0.003	0.270
-471.230	-200.000	0.040	0.185
-470.216	-174.018	-0.088	-0.003
-469.201	-44.460	-0.338	0.168
-468.186	800.000	0.106	-0.315
-467.172	800.000	0.085	0.271
-466.157	-200.000	-0.223	-0.000
-465.143	-61.598	-0.093	-0.039
-464.128	-200.000	0.048	-0.429
-463.113	-144.726	-0.137	0.013
-462.099	-138.739	0.239	0.026
-461.084	227.785	0.099	-0.161
-460.070	771.808	0.082	-0.222
-459.055	143.022	-0.170	-0.224
-458.040	-200.000	-0.055	-0.250
-457.026	-79.918	0.243	-0.081
-456.011	6.096	0.095	-0.070
-454.997	800.000	-0.070	-0.295
-453.982	400.677	0.085	0.177
-452.968	-51.098	0.147	0.069
-451.953	-97.922	-0.440	-0.113
-450.938	99.310	-0.294	-0.337
-449.924	35.452	0.298	-0.260
-448.909	51.539	-0.159	-0.150
-447.895	-111.386	0.372	0.075
-446.880	731.304	-0.096	0.256
-445.865	-93.941	-0.289	-0.079
-444.851	8.946	-0.209	0.156
-443.836	-200.000	0.050	0.227
-442.822	34.554	-0.043	-0.038
-441.807	-114.473	0.109	0.021
-440.792	222.635	0.129	0.207
-439.778	-200.000	-0.004	-0.204
-438.763	178.499	0.072	0.104
-437.749	487.330	0.025	-0.056
-436.734	51.877	-0.272	0.257
-435.719	-88.690	-0.077	0.023
-434.705	499.045	0.100	-0.229
-433.690	800.000	0.058	-0.194
-432.676	-200.000	0.041	-0.181
-431.661	-126.294	0.156	-0.023
-430.646	21.736	-0.204	-0.165
-429.632	97.962	0.048	-0.055
-428.617	36.494	0.173	0.152
-427.603	-43.605	-0.257	0.128
-426.588	800.000	0.059	0.218
-425.573	-145.049	-0.384	0.035
-424.559	-107.434	0.163	-0.036
-423.544	-154.217	-0.129	-0.009
-422.530	474.622	0.025	-0.056
-421.515	79.284	-0.093	-0.099
-420.500	14.130	0.188	-0.145
-419.486	18.190	0.073	0.058
-418.471	-200.000	-0.020	-0.138
-417.457	-200.000	-0.039	0.268
-416.442	719.800	0.081	0.214
-415.428	27.952	-0.463	0.387
-414.413	601.791	-0.132	-0.324
-413.398	800.000	0.045	-0.180
-412.384	463.689	-0.024	0.054
-411.369	-123.599	0.303	0.048
-410.355	-100.662	-0.130	-0.032
-409.340	-171.081	-0.129	-0.004
-408.325	-87.216	0.093	-0.028
-407.311	-127.287	-0.424	-0.061
-406.296	247.868	0.063	-0.106
-405.282	-200.000	0.003	-0.212
-404.267	-143.212	0.256	0.024
-403.252	-138.125	0.290	-0.032
-402.238	-32.826	-0.291	-0.160
-401.223	299.919	0.114	-0.207
-400.209	19.133	0.223	-0.177
-399.194	-46.852	0.080	0.039
-398.179	93.918	-0.176	0.198
-397.165	-200.000	-0.066	-0.300
-396.150	426.761	0.043	0.092
-395.136	467.795	-0.091	0.203
-394.121	800.000	-0.046	0.157
-393.106	36.504	-0.319	0.279
-392.092	-60.006	-0.116	0.049
-391.077	449.110	0.058	0.126
-390.063	450.413	-0.136	0.296
-389.048	-200.000	0.031	0.229
-388.033	196.987	-0.079	-0.119
-387.019	-25.164	-0.189	-0.111
-386.004	-41.683	0.622	-0.316
-384.990	580.721	0.017	-0.040
-383.975	-115.156	0.221	0.041
-382.960	32.716	-0.239	-0.205
-381.946	-8.410	0.229	-0.152
-380.931	-148.555	0.129	-0.010
-379.917	-129.530	0.142	0.020
-378.902	518.963	-0.044	-0.101
-377.888	287.486	-0.049	-0.088
-376.873	742.260	-0.074	0.198
-375.858	114.746	-0.090	0.108
-374.844	-200.000	0.050	-0.269
-373.829	648.618	0.062	0.156
-372.815	-46.784	-0.161	0.078
-371.800	195.486	0.095	-0.144
-370.785	202.111	0.048	0.073
-369.771	15.911	-0.267	0.208
-368.756	-200.000	-0.009	-0.170
-367.742	-14.252	0.102	0.065
-366.727	-200.000	-0.072	-0.472
-365.712	202.281	-0.139	-0.213
-364.698	800.000	-0.028	-0.107
-363.683	507.603	-0.054	-0.124
-362.669	-1.419	-0.070	-0.049
-361.654	800.000	0.039	0.163
-360.639	-72.695	0.335	-0.122
-359.625	127.233	-0.242	-0.303
-358.610	-40.654	-0.202	0.104
-357.596	800.000	0.047	-0.191
-356.581	800.000	-0.032	-0.113
-355.566	800.000	0.066	-0.237
-354.552	29.181	-0.308	0.258
-353.537	-131.871	-0.242	-0.031
-352.523	-78.116	0.141	-0.048
-351.508	-152.485	-0.116	0.008
-350.493	47.680	-0.071	0.065
-349.479	28.618	-0.149	0.125
-348.464	-64.003	0.397	-0.160
-347.450	-29.947	0.035	0.020
-346.435	-38.242	0.023	0.012
-345.420	-47.217	-0.155	-0.075
-344.406	-140.088	0.217	0.023
-343.391	-127.566	0.398	0.057
-342.377	1.848	0.402	0.287
-341.362	-117.520	-0.006	0.001
-340.348	-46.496	-0.282	0.137
-339.333	-200.000	0.014	-0.108
-338.318	-18.951	-0.327	0.201
-337.304	-200.000	-0.004	0.164
-336.289	800.000	0.167	-0.465
-335.275	800.000	0.066	-0.189
-334.260	-137.742	0.213	-0.024
-333.245	212.595	0.089	-0.138
-332.231	-49.807	-0.279	-0.131
-331.216	116.928	-0.015	0.018
-330.202	-200.000	0.011	0.109
-329.187	-144.191	-0.243	0.022
-328.172	715.247	0.077	-0.202
-327.158	220.099	-0.032	-0.050
-326.143	114.347	-0.150	0.181
-325.129	-46.864	-0.212	0.102
-324.114	58.397	0.128	-0.124
-323.099	-58.496	-0.227	-0.097
-322.085	-112.539	0.064	0.013
-321.070	-200.000	0.009	-0.073
-320.056	4.745	-0.157	0.114
-319.041	11.425	0.062	-0.047
-318.026	785.683	0.034	-0.091
-317.012	-200.000	-0.017	0.128
-315.997	82.996	-0.154	0.166
-314.983	800.000	-0.064	-0.209
-313.968	-93.730	-0.194	0.053
-312.953	57.689	-0.128	-0.124
-311.939	159.016	0.109	0.150
-310.924	103.007	0.114	0.132
-309.910	-144.799	-0.101	0.009
-308.895	94.083	0.101	-0.113
-307.880	-51.866	-0.500	-0.229
-306.866	128.386	0.186	0.233
-305.851	800.000	0.117	0.484
-304.837	-126.126	0.398	-0.059
-303.822	-150.285	-0.162	-0.012
-302.807	-101.830	0.010	-0.002
-301.793	-200.000	0.016	-0.247
-300.778	800.000	-0.038	0.157
-299.764	112.401	-0.201	-0.240
-298.749	-106.561	0.106	0.023
-297.735	-22.514	0.248	-0.148
-296.720	-200.000	0.015	-0.085
-295.705	301.755	-0.030	0.055
-294.691	707.553	0.056	0.147
-293.676	213.495	-0.044	-0.069
-292.662	238.253	0.221	-0.362
-291.647	120.090	-0.212	0.260
-290.632	177.090	-0.068	0.097
-289.618	18.913	0.163	-0.129
-288.603	23.963	0.254	0.206
-287.589	-200.000	-0.013	-0.091
-286.574	-105.079	-0.071	0.016
-285.559	-142.245	-0.283	0.028
-284.545	-200.000	0.027	0.228
-283.530	351.501	0.057	-0.110
-282.516	-153.491	-0.192	-0.013
-281.501	800.000	-0.071	0.293
-280.486	-80.037	0.312	0.103
-279.472	-171.949	0.346	0.011
-278.457	-15.255	0.196	0.124
-277.443	28.000	0.125	-0.104
-276.428	800.000	0.015	0.061
-275.413	509.739	0.022	-0.051
-274.399	147.727	-0.239	-0.317
-273.384	118.023	-0.160	0.195
-272.370	-14.127	-0.070	-0.044
-271.355	-109.929	-0.247	-0.051
-270.340	362.332	-0.057	-0.113
-269.326	-23.783	0.156	0.092
-268.311	193.391	0.232	0.346
-267.297	-19.012	0.132	-0.081
-266.282	387.077	-0.141	-0.287
-265.267	-200.000	-0.042	0.369
-264.253	-33.260	-0.131	0.071
-263.238	162.272	-0.247	-0.341
-262.224	-111.986	0.352	-0.070
-261.209	-88.943	-0.112	0.033
-260.195	39.433	0.220	-0.194
-259.180	313.725	0.044	-0.081
-258.165	800.000	0.043	0.122
-257.151	134.072	0.092	0.118
-256.136	695.683	-0.075	0.194
-255.122	800.000	-0.095	0.356
-254.107	-157.414	-0.247	-0.015
-253.092	-82.158	0.162	0.052
-252.078	69.824	-0.191	0.194
-251.063	47.241	0.064	-0.059
-250.049	-78.159	-0.183	0.062
-249.034	234.290	0.227	0.368
-248.019	-200.000	0.031	-0.229
-247.005	-123.461	0.219	-0.034
-245.990	-21.653	-0.090	0.054
-244.976	-94.358	0.377	-0.101
-243.961	84.290	0.169	-0.182
-242.946	-200.000	0.019	0.742
-241.932	-7.649	-0.204	0.136
-240.917	101.684	0.179	-0.205
-239.903	225.116	-0.034	-0.054
-238.888	24.784	-0.165	-0.134
-237.873	81.993	-0.192	0.204
-236.859	-129.274	-0.108	0.015
-235.844	484.757	0.029	0.064
-234.830	-200.000	-0.024	-0.390
-233.815	-172.170	-0.100	0.003
-232.800	-63.742	-0.194	0.078
-231.786	-77.624	0.238	0.081
-230.771	614.715	-0.068	0.167
-229.757	190.173	-0.127	-0.187
-228.742	-113.121	0.405	-0.079
-227.727	-200.000	-0.027	0.215
-226.713	-200.000	0.041	-0.285
-225.698	82.327	-0.093	-0.099
-224.684	46.423	0.187	0.171
-223.669	35.886	-0.108	-0.093
-222.655	-59.825	0.105	0.044
-221.640	25.851	0.289	0.237
-220.625	800.000	0.066	0.208
-219.611	-100.952	0.082	0.020
-218.596	176.468	0.043	-0.062
-217.582	82.229	-0.089	-0.095
-216.567	-200.000	-0.050	-0.348
-215.552	-15.594	0.307	0.193
-214.538	800.000	0.029	0.116
-213.523	-97.392	-0.054	-0.014
-212.509	-199.537	-0.241	-0.001
-211.494	-21.278	-0.329	0.198
-210.479	-89.453	-0.174	-0.050
-209.465	800.000	0.084	0.256
-208.450	-200.000	0.008	-0.084
-207.436	483.031	-0.072	0.161
-206.421	108.472	0.103	0.121
-205.406	-119.361	0.409	0.070
-204.392	-172.090	-0.204	0.006
-203.377	-17.549	-0.296	0.183
-202.363	-59.332	-0.241	0.102
-201.348	-177.938	0.282	-0.007
-200.333	-40.963	0.368	-0.187
-199.319	-53.552	-0.041	0.018
-198.304	-8.265	-0.150	-0.099
-197.290	-90.029	0.102	0.029
-196.275	-18.192	-0.104	0.064
-195.260	-2.320	-0.165	0.114
-194.246	262.783	-0.058	-0.099
-193.231	79.224	-0.210	-0.221
-192.217	-138.991	0.147	0.016
-191.202	-92.672	0.509	-0.140
-190.187	-200.000	0.005	-0.230
-189.173	107.095	-0.179	0.209
-188.158	800.000	-0.048	0.187
-187.144	-4.562	-0.153	-0.104
-186.129	8.243	-0.056	-0.042
-185.114	-82.389	-0.235	-0.075
-184.100	800.000	-0.100	0.276
-183.085	-133.306	0.347	0.043
-182.071	-200.000	-0.026	0.234
-181.056	430.120	0.043	0.092
-180.042	429.833	0.161	-0.342
-179.027	800.000	-0.072	0.257
-178.012	-167.819	0.572	-0.022
-176.998	-52.679	-0.093	-0.042
-175.983	-55.211	0.320	0.141
-174.969	-154.126	-0.309	-0.021
-173.954	-84.271	0.104	0.032
-172.939	-112.056	0.295	0.058
-171.925	221.002	-0.131	0.207
-170.910	800.000	-0.083	0.309
-169.896	23.305	0.096	-0.077
-168.881	-62.306	-0.145	0.059
-167.866	-145.348	0.153	-0.014
-166.852	118.557	0.123	-0.149
-165.837	99.165	-0.188	-0.214
-164.823	147.917	0.055	-0.073
-163.808	800.000	-0.050	0.149
-162.793	32.184	0.168	0.143
-161.779	-77.972	-0.293	0.099
-160.764	800.000	-0.043	0.129
-159.750	432.775	0.072	-0.154
-158.735	-146.724	-0.410	-0.035
-157.720	-32.055	0.387	-0.212
-156.706	-165.374	0.205	-0.009
-155.691	-200.000	0.020	-0.156
-154.677	-189.673	0.243	0.003
-153.662	800.000	0.139	0.488
-152.647	-151.556	0.211	0.015
-151.633	-43.818	-0.052	0.025
-150.618	-2.173	-0.086	0.059
-149.604	-135.544	0.301	0.035
-148.589	-200.000	0.045	-0.221
-147.574	4.893	0.252	0.182
-146.560	-200.000	-0.002	0.052
-145.545	83.788	0.241	-0.258
-144.531	-200.000	-0.010	-0.081
-143.516	51.465	-0.103	-0.096
-142.502	679.407	-0.102	0.262
-141.487	135.512	-0.076	0.097
-140.472	800.000	0.106	-0.349
-139.458	25.629	-0.350	-0.286
-138.443	800.000	0.013	0.051
-137.429	-96.270	-0.277	-0.072
-136.414	-56.921	-0.114	-0.050
-135.399	17.791	0.153	0.119
-134.385	-200.000	-0.037	-0.296
-133.370	-51.672	0.069	-0.031
-132.356	-200.000	0.021	0.339
-131.341	305.008	0.120	-0.219
-130.326	171.881	0.083	0.117
-129.312	-200.000	0.092	-0.409
-128.297	-6.379	0.384	-0.256
-127.283	-200.000	0.027	0.128
-126.268	-3.607	-0.163	0.111
-125.253	95.545	0.220	0.246
-124.239	12.042	0.111	-0.084
-123.224	-73.494	0.250	-0.089
-122.210	463.851	-0.050	0.108
-121.195	224.858	0.156	-0.247
