DTS Sentinel unit serial number:	SN413079Multiplexer serial number:	ORYXHardware model number:	OX4-SRSoftware version number:	ORYX F/W v4.00 Oryx Data Collector v3.7.2.0data status	okinstallation	princeton_trtdifferential loss correction	single-endedforward channel	channel 2reverse channel	N/Adate	2019/09/13time	21:23:35forward acquisition time	60.00reverse acquisition time	0.00gamma	496.2192k internal	0.2334k external	0.2334temperature offset calibration	1.0122default loss term (dB/km)	0.3790temperature slope calibration	1.0000multiplexer offset coefficient	1.0000multiplexer slope coefficient	1.0000fibre end	0.00T internal ref (°C)	28.37T ext. ref 1 (°C)	3.12T ext. ref 2 (°C)	22.93length (m)	temperature (°C)	Stokes	anti-Stokes-747.200	-200.000	0.003	-0.259
-746.185	800.000	0.126	0.550
-745.171	-200.000	-0.049	0.309
-744.156	-63.442	-0.325	-0.134
-743.142	-100.366	0.401	-0.100
-742.127	333.911	0.186	0.361
-741.112	-24.124	-0.284	0.170
-740.098	14.734	-0.197	0.155
-739.083	97.704	-0.076	0.087
-738.069	-167.329	0.179	0.007
-737.054	35.688	0.375	-0.331
-736.039	-200.000	-0.067	-0.448
-735.025	-134.191	0.404	-0.050
-734.010	800.000	-0.149	-0.442
-732.996	800.000	0.040	0.143
-731.981	-73.790	0.054	-0.020
-730.966	-32.026	-0.165	-0.093
-729.952	509.143	-0.064	0.150
-728.937	1.218	-0.079	-0.057
-727.923	-153.290	-0.131	0.009
-726.908	-167.835	-0.309	-0.012
-725.894	54.363	-0.198	-0.191
-724.879	209.311	0.049	-0.077
-723.864	271.038	0.089	-0.157
-722.850	54.269	0.058	-0.056
-721.835	800.000	-0.044	-0.192
-720.821	-124.861	-0.111	-0.017
-719.806	107.193	-0.237	-0.283
-718.791	81.533	0.128	-0.139
-717.777	16.357	-0.133	-0.105
-716.762	-200.000	-0.013	-0.185
-715.748	492.253	0.007	0.016
-714.733	-9.312	-0.155	-0.104
-713.718	-107.019	0.414	0.092
-712.704	-115.051	0.238	0.045
-711.689	459.075	0.130	-0.291
-710.675	-200.000	-0.007	-0.175
-709.660	-85.175	-0.332	-0.104
-708.645	-200.000	0.049	0.240
-707.631	-67.875	0.143	0.056
-706.616	-200.000	0.008	-0.336
-705.602	-4.962	-0.100	-0.069
-704.587	-86.279	0.144	0.045
-703.572	-28.180	-0.049	0.028
-702.558	-54.957	0.317	-0.143
-701.543	233.744	-0.082	-0.135
-700.529	773.226	0.102	0.279
-699.514	-154.206	-0.271	0.018
-698.499	495.428	0.088	-0.202
-697.485	43.487	-0.255	-0.234
-696.470	-126.898	0.225	-0.033
-695.456	104.542	-0.154	-0.182
-694.441	146.388	0.089	-0.120
-693.426	800.000	-0.083	0.261
-692.412	800.000	0.052	0.207
-691.397	-46.173	0.200	-0.099
-690.383	-184.402	0.167	0.003
-689.368	800.000	-0.073	0.209
-688.354	-145.748	0.233	0.021
-687.339	-114.907	0.019	0.004
-686.324	-174.927	-0.182	-0.005
-685.310	-30.288	0.193	0.110
-684.295	-162.403	-0.139	-0.007
-683.281	-119.795	0.363	0.063
-682.266	-1.181	-0.081	0.057
-681.251	-74.763	-0.409	-0.147
-680.237	67.424	0.134	-0.137
-679.222	51.136	0.034	0.033
-678.208	-200.000	-0.044	-0.480
-677.193	800.000	-0.107	-0.369
-676.178	-167.428	0.349	-0.014
-675.164	-35.479	-0.068	0.037
-674.149	-200.000	0.013	-0.318
-673.135	-200.000	0.043	-0.243
-672.120	398.917	-0.120	-0.251
-671.105	136.642	-0.096	-0.126
-670.091	-135.174	0.229	-0.028
-669.076	45.356	-0.190	-0.176
-668.062	-72.311	-0.241	0.089
-667.047	-72.267	0.168	-0.062
-666.032	-82.571	0.123	-0.040
-665.018	314.058	-0.040	-0.075
-664.003	-7.152	-0.128	-0.087
-662.989	-200.000	0.023	0.122
-661.974	-53.580	-0.100	-0.046
-660.959	118.592	0.105	-0.130
-659.945	800.000	0.051	0.202
-658.930	-81.656	0.296	-0.097
-657.916	34.606	-0.228	-0.200
-656.901	-200.000	-0.040	-0.469
-655.886	-200.000	0.071	0.355
-654.872	-79.116	-0.084	-0.029
-653.857	-65.657	-0.486	0.195
-652.843	30.562	-0.280	-0.240
-651.828	-2.847	-0.101	0.071
-650.814	84.313	-0.202	-0.221
-649.799	-200.000	-0.056	0.314
-648.784	316.401	0.093	0.176
-647.770	85.660	-0.304	-0.335
-646.755	-124.732	0.296	-0.046
-645.741	53.778	-0.143	-0.137
-644.726	44.539	-0.098	0.090
-643.711	-26.044	0.461	0.272
-642.697	26.537	-0.177	0.148
-641.682	-144.287	-0.080	-0.007
-640.668	-25.623	0.220	0.130
-639.653	110.310	0.149	-0.180
-638.638	800.000	0.058	0.193
-637.624	61.579	-0.250	0.249
-636.609	33.374	-0.370	-0.321
-635.595	-21.667	-0.170	0.104
-634.580	214.124	-0.283	0.448
-633.565	-112.246	0.160	-0.032
-632.551	34.460	-0.067	0.058
-631.536	115.929	0.248	0.303
-630.522	-72.253	-0.109	0.040
-629.507	-67.527	-0.100	0.039
-628.492	-88.055	0.179	-0.054
-627.478	51.567	0.294	0.279
-626.463	-35.085	-0.152	0.083
-625.449	-91.029	0.379	0.109
-624.434	-31.237	-0.236	0.133
-623.419	-170.850	-0.318	0.011
-622.405	-57.771	0.129	-0.056
-621.390	800.000	0.025	0.097
-620.376	111.161	-0.107	-0.129
-619.361	-200.000	-0.005	-0.117
-618.346	800.000	-0.089	-0.380
-617.332	-29.066	0.092	0.053
-616.317	34.184	-0.140	-0.122
-615.303	-142.517	0.400	-0.039
-614.288	-99.759	0.182	0.046
-613.273	-200.000	0.008	0.326
-612.259	456.371	0.103	0.228
-611.244	-108.523	-0.191	-0.041
-610.230	-200.000	0.014	-0.152
-609.215	-200.000	0.013	0.068
-608.201	-27.524	0.114	-0.066
-607.186	490.676	-0.131	-0.301
-606.171	-181.756	0.287	-0.006
-605.157	137.512	-0.095	-0.125
-604.142	-200.000	-0.021	-0.153
-603.128	-200.000	-0.031	-0.196
-602.113	-200.000	-0.002	0.347
-601.098	241.672	-0.071	0.118
-600.084	800.000	-0.085	-0.293
-599.069	36.124	0.209	-0.184
-598.055	-1.114	0.176	-0.124
-597.040	225.499	-0.052	-0.085
-596.025	-21.420	-0.290	-0.177
-595.011	334.949	-0.031	0.060
-593.996	0.399	0.290	-0.207
-592.982	-99.806	-0.356	0.089
-591.967	-200.000	-0.033	-0.282
-590.952	-129.354	0.080	-0.011
-589.938	-68.174	-0.342	-0.133
-588.923	800.000	-0.034	-0.143
-587.909	-35.360	0.177	-0.096
-586.894	-200.000	-0.009	0.103
-585.879	-65.813	-0.097	-0.039
-584.865	-52.663	-0.336	0.155
-583.850	156.017	-0.091	-0.125
-582.836	-200.000	-0.003	-0.215
-581.821	-139.176	-0.196	-0.021
-580.806	-200.000	-0.014	-0.109
-579.792	300.765	0.063	-0.115
-578.777	-2.932	-0.128	0.089
-577.763	-73.469	0.188	0.068
-576.748	800.000	-0.081	0.226
-575.733	579.967	-0.049	0.121
-574.719	-128.042	-0.286	-0.041
-573.704	-200.000	0.036	0.280
-572.690	-139.695	0.121	0.013
-571.675	741.411	0.114	-0.306
-570.661	-37.295	0.101	0.054
-569.646	-120.023	-0.362	0.062
-568.631	80.345	-0.056	0.060
-567.617	11.798	-0.260	-0.200
-566.602	148.198	0.099	0.134
-565.588	195.531	0.140	0.213
-564.573	-69.500	0.091	0.035
-563.558	-160.353	0.116	0.006
-562.544	21.585	-0.189	0.154
-561.529	527.469	0.093	0.218
-560.515	-200.000	0.103	-0.505
-559.500	454.574	-0.065	-0.144
-558.485	234.070	-0.036	-0.059
-557.471	-142.922	0.381	0.037
-556.456	144.417	-0.301	0.401
-555.442	800.000	0.054	-0.164
-554.427	-156.323	0.374	0.023
-553.412	-200.000	0.010	-0.249
-552.398	190.666	0.092	0.138
-551.383	-152.137	-0.121	-0.009
-550.369	-200.000	-0.004	0.143
-549.354	-57.300	-0.300	0.132
-548.339	-8.072	0.075	-0.050
-547.325	353.759	0.049	0.097
-546.310	-200.000	-0.013	-0.339
-545.296	369.199	0.145	-0.292
-544.281	-115.393	-0.072	-0.014
-543.266	549.379	-0.168	-0.401
-542.252	157.299	0.101	-0.139
-541.237	-200.000	-0.044	0.291
-540.223	299.713	0.006	-0.011
-539.208	-200.000	0.008	-0.238
-538.193	-200.000	0.075	-0.331
-537.179	-60.929	0.237	0.100
-536.164	-88.945	-0.210	-0.062
-535.150	182.625	0.072	0.107
-534.135	380.625	-0.085	-0.174
-533.121	515.591	-0.137	-0.319
-532.106	21.343	0.177	-0.144
-531.091	800.000	-0.019	-0.072
-530.077	520.281	-0.172	-0.401
-529.062	795.322	0.095	0.259
-528.048	-23.182	0.202	-0.121
-527.033	-44.260	0.270	0.135
-526.018	-149.157	-0.525	-0.042
-525.004	107.201	0.036	0.043
-523.989	-63.808	-0.203	-0.083
-522.975	-82.888	-0.069	0.022
-521.960	-68.418	-0.097	0.038
-520.945	-97.374	-0.152	0.039
-519.931	181.167	-0.149	0.218
-518.916	-142.693	-0.293	-0.029
-517.902	-70.488	-0.179	-0.068
-516.887	-200.000	0.367	-0.002
-515.872	31.357	-0.121	-0.104
-514.858	19.324	-0.137	0.110
-513.843	149.760	0.294	-0.397
-512.829	-98.650	-0.190	-0.048
-511.814	-200.000	-0.022	-0.113
-510.799	234.612	0.062	0.101
-509.785	-166.767	0.200	-0.008
-508.770	-200.000	0.030	-0.171
-507.756	-57.737	0.138	-0.060
-506.741	-17.385	-0.319	0.200
-505.726	418.722	-0.146	0.311
-504.712	-143.778	-0.200	-0.019
-503.697	283.375	-0.061	0.110
-502.683	173.736	-0.082	-0.117
-501.668	-32.713	-0.134	-0.074
-500.653	-200.000	0.000	-0.159
-499.639	178.871	0.246	0.358
-498.624	800.000	-0.104	0.304
-497.610	-141.212	-0.322	-0.033
-496.595	-120.480	0.134	0.023
-495.581	106.651	-0.033	-0.039
-494.566	225.464	-0.140	0.226
-493.551	756.204	0.087	0.234
-492.537	-26.663	0.097	0.056
-491.522	4.673	0.127	-0.093
-490.508	-52.640	-0.231	0.106
-489.493	-200.000	0.040	-0.308
-488.478	-113.796	0.393	-0.076
-487.464	-150.487	0.411	0.031
-486.449	309.833	-0.039	-0.073
-485.435	800.000	-0.037	-0.120
-484.420	-200.000	0.005	-0.076
-483.405	43.993	0.247	-0.225
-482.391	147.497	0.097	0.130
-481.376	800.000	-0.056	-0.175
-480.362	146.637	-0.098	0.131
-479.347	274.454	0.044	-0.077
-478.332	-200.000	-0.004	-0.246
-477.318	-104.751	0.192	0.044
-476.303	207.799	-0.104	0.161
-475.289	-149.003	-0.066	-0.005
-474.274	-132.380	0.494	0.063
-473.259	-137.825	0.328	-0.037
-472.245	73.518	-0.148	0.154
-471.230	-25.667	-0.243	0.142
-470.216	155.460	-0.182	-0.250
-469.201	131.865	0.116	0.148
-468.186	-37.473	0.373	0.198
-467.172	-113.881	-0.245	0.047
-466.157	165.475	0.123	-0.173
-465.143	-119.501	-0.171	-0.029
-464.128	-200.000	-0.024	0.231
-463.113	-92.873	-0.304	0.084
-462.099	-200.000	0.018	-0.437
-461.084	-28.396	-0.192	0.110
-460.070	-200.000	-0.006	0.478
-459.055	178.428	-0.141	0.204
-458.040	800.000	0.077	0.238
-457.026	532.335	-0.052	0.122
-456.011	-51.414	-0.172	0.080
-454.997	-40.069	0.410	-0.212
-453.982	-200.000	0.000	-0.330
-452.968	-200.000	-0.040	-0.310
-451.953	-200.000	0.017	-0.210
-450.938	-96.267	0.124	-0.033
-449.924	-17.274	0.017	0.011
-448.909	800.000	-0.014	-0.060
-447.895	-100.433	-0.059	-0.015
-446.880	262.450	0.101	-0.174
-445.865	-200.000	-0.013	0.175
-444.851	75.233	-0.097	-0.102
-443.836	381.998	-0.082	-0.167
-442.822	800.000	0.073	0.239
-441.807	35.552	0.022	0.020
-440.792	-200.000	-0.026	0.270
-439.778	127.678	0.230	0.290
-438.763	-200.000	-0.058	-0.259
-437.749	-108.231	-0.160	0.034
-436.734	800.000	-0.052	-0.211
-435.719	-95.636	-0.222	0.059
-434.705	116.922	-0.120	-0.146
-433.690	-200.000	0.006	0.118
-432.676	-29.712	-0.059	0.033
-431.661	1.545	-0.209	0.149
-430.646	-7.354	0.121	0.082
-429.632	-200.000	0.037	-0.174
-428.617	-42.904	-0.119	0.060
-427.603	476.873	-0.127	-0.284
-426.588	217.670	0.056	-0.089
-425.573	800.000	-0.044	-0.154
-424.559	-200.000	-0.005	0.283
-423.544	-61.141	-0.168	-0.070
-422.530	-160.592	0.357	0.019
-421.515	274.741	0.047	0.082
-420.500	136.392	0.107	0.138
-419.486	-32.464	-0.251	-0.139
-418.471	426.470	-0.120	-0.257
-417.457	-72.467	-0.202	0.074
-416.442	102.832	-0.164	-0.191
-415.428	-200.000	-0.034	0.220
-414.413	248.018	0.178	0.298
-413.398	320.751	-0.137	0.258
-412.384	110.047	0.082	0.098
-411.369	654.101	-0.101	0.256
-410.355	-106.771	-0.161	0.036
-409.340	206.081	-0.058	-0.089
-408.325	-74.676	0.288	0.103
-407.311	49.934	-0.117	0.110
-406.296	630.833	-0.042	-0.106
-405.282	-200.000	0.000	0.145
-404.267	130.177	0.029	-0.036
-403.252	-148.884	-0.179	0.014
-402.238	800.000	-0.047	-0.153
-401.223	415.313	0.029	0.062
-400.209	15.206	-0.191	0.148
-399.194	593.638	0.064	0.157
-398.179	111.771	-0.130	0.155
-397.165	-37.987	0.057	0.030
-396.150	74.621	0.232	0.241
-395.136	107.371	-0.045	0.053
-394.121	620.187	0.047	-0.118
-393.106	-76.101	0.134	0.047
-392.092	267.728	-0.143	-0.249
-391.077	-200.000	-0.014	-0.170
-390.063	-53.218	0.167	0.076
-389.048	339.604	-0.100	-0.193
-388.033	95.429	0.107	-0.121
-387.019	11.193	-0.223	0.169
-386.004	800.000	0.062	0.225
-384.990	216.172	0.229	0.361
-383.975	13.442	0.128	0.098
-382.960	-200.000	0.016	-0.284
-381.946	15.029	-0.071	-0.055
-380.931	-106.270	-0.245	0.054
-379.917	12.584	0.197	-0.150
-378.902	-200.000	-0.005	-0.157
-377.888	129.777	-0.102	-0.130
-376.873	-23.297	0.148	0.088
-375.858	-156.392	-0.183	0.011
-374.844	57.298	-0.124	-0.120
-373.829	116.651	-0.151	-0.183
-372.815	-16.969	-0.335	0.209
-371.800	-74.130	-0.209	0.075
-370.785	-200.000	0.011	-0.052
-369.771	-10.361	-0.172	0.113
-368.756	112.001	-0.047	0.056
-367.742	72.790	0.009	-0.009
-366.727	-200.000	-0.009	0.290
-365.712	4.909	0.097	0.071
-364.698	-87.174	0.286	-0.086
-363.683	36.203	-0.095	0.083
-362.669	4.179	0.335	-0.243
-361.654	563.004	0.027	0.065
-360.639	515.538	0.056	0.130
-359.625	-154.828	0.384	-0.025
-358.610	800.000	0.041	-0.127
-357.596	277.556	-0.126	-0.222
-356.581	-162.439	0.054	0.003
-355.566	-176.643	-0.231	-0.006
-354.552	143.932	0.092	0.122
-353.537	800.000	0.103	0.406
-352.523	563.990	-0.050	0.120
-351.508	-109.256	0.118	-0.025
-350.493	-16.202	0.283	-0.178
-349.479	-200.000	-0.003	0.311
-348.464	357.699	0.044	0.087
-347.450	800.000	0.089	0.332
-346.435	800.000	0.088	-0.298
-345.420	-62.467	-0.185	0.076
-344.406	-154.471	0.217	0.014
-343.391	-109.349	-0.269	-0.056
-342.377	-200.000	0.005	-0.113
-341.362	71.790	0.052	0.053
-340.348	-109.830	0.017	-0.004
-339.333	800.000	0.032	-0.093
-338.318	-84.857	-0.123	0.038
-337.304	307.579	0.246	-0.454
-336.289	155.797	0.179	-0.245
-335.275	-200.000	-0.014	0.150
-334.260	307.010	-0.122	0.225
-333.245	54.532	-0.108	0.103
-332.231	-200.000	-0.013	-0.148
-331.216	-132.115	0.243	-0.031
-330.202	-162.259	0.274	-0.014
-329.187	14.389	-0.217	-0.168
-328.172	-200.000	-0.042	-0.228
-327.158	140.329	-0.111	-0.145
-326.143	-200.000	-0.019	-0.201
-325.129	44.807	-0.159	0.145
-324.114	-166.148	0.102	0.004
-323.099	-93.332	-0.199	-0.055
-322.085	-200.000	0.025	-0.316
-321.070	154.996	-0.022	0.030
-320.056	42.750	0.098	-0.089
-319.041	-200.000	-0.014	-0.132
-318.026	24.522	-0.244	0.200
-317.012	800.000	0.045	0.128
-315.997	322.622	-0.023	-0.044
-314.983	-0.699	-0.118	-0.083
-313.968	-200.000	-0.006	-0.027
-312.953	131.967	0.102	-0.130
-311.939	67.654	0.278	-0.280
-310.924	800.000	0.052	0.159
-309.910	-140.306	0.310	0.032
-308.895	-200.000	0.024	-0.355
-307.880	8.187	0.158	-0.117
-306.866	180.610	-0.086	0.124
-305.851	-63.955	-0.070	-0.028
-304.837	129.408	-0.146	0.184
-303.822	800.000	-0.113	0.385
-302.807	-150.075	-0.084	0.006
-301.793	80.731	-0.034	0.037
-300.778	-53.774	-0.127	0.057
-299.764	-200.000	0.096	-0.443
-298.749	180.862	-0.117	-0.169
-297.735	470.730	0.062	-0.137
-296.720	-89.751	-0.493	0.143
-295.705	-120.374	-0.262	0.044
-294.691	38.007	0.278	0.244
-293.676	-178.630	-0.293	0.007
-292.662	-113.688	0.149	0.029
-291.647	-85.169	-0.200	0.062
-290.632	-13.987	0.248	0.158
-289.618	41.764	0.143	0.128
-288.603	19.820	-0.096	0.076
-287.589	-127.922	-0.065	0.009
-286.574	-23.055	-0.073	0.044
-285.559	-143.688	-0.182	0.017
-284.545	-200.000	-0.016	0.143
-283.530	-200.000	-0.023	0.117
-282.516	-200.000	0.003	-0.236
-281.501	-50.556	-0.384	0.179
-280.486	-117.352	0.331	-0.059
-279.472	114.293	0.145	0.174
-278.457	-200.000	-0.007	-0.194
-277.443	536.107	0.064	0.149
-276.428	583.169	0.073	-0.177
-275.413	800.000	-0.083	0.238
-274.399	-8.689	-0.301	-0.199
-273.384	-90.202	-0.107	0.031
-272.370	-35.764	-0.113	-0.060
-271.355	23.033	0.333	-0.269
-270.340	203.514	0.144	0.220
-269.326	-51.384	0.147	0.068
-268.311	-88.259	-0.197	-0.058
-267.297	112.067	0.223	0.266
-266.282	-104.324	0.126	-0.029
-265.267	-92.073	0.363	0.101
-264.253	-200.000	0.008	-0.158
-263.238	304.899	0.035	-0.063
-262.224	13.709	0.147	0.112
-261.209	-89.316	-0.071	0.021
-260.195	-88.776	0.163	-0.048
-259.180	174.464	0.025	-0.036
-258.165	-200.000	0.054	0.283
-257.151	-33.063	0.347	0.190
-256.136	20.003	0.101	0.080
-255.122	-200.000	-0.042	-0.197
-254.107	-137.272	-0.276	0.031
-253.092	-167.163	0.267	0.011
-252.078	336.943	-0.085	-0.162
-251.063	9.170	0.044	-0.033
-250.049	-167.890	-0.159	-0.006
-249.034	800.000	-0.074	0.205
-248.019	800.000	-0.070	-0.283
-247.005	338.664	-0.071	-0.136
-245.990	-66.462	0.096	0.038
-244.976	-19.544	-0.344	-0.210
-243.961	555.431	0.060	-0.142
-242.946	467.026	0.081	0.180
-241.932	140.561	-0.090	-0.117
-240.917	-200.000	0.021	-0.162
-239.903	-146.037	0.243	-0.021
-238.888	-49.295	0.196	-0.092
-237.873	-200.000	0.017	0.236
-236.859	-120.637	-0.075	0.013
-235.844	-176.775	0.305	0.008
-234.830	-92.996	-0.406	-0.111
-233.815	480.093	0.142	0.318
-232.800	-158.405	0.172	-0.010
-231.786	-200.000	0.014	0.184
-230.771	67.318	-0.092	0.092
-229.757	-200.000	-0.058	-0.549
-228.742	33.683	0.165	0.141
-227.727	-200.000	0.031	0.143
-226.713	159.855	0.177	-0.243
-225.698	-51.937	0.296	-0.135
-224.684	800.000	0.052	0.222
-223.669	9.517	0.189	0.141
-222.655	75.000	0.095	-0.098
-221.640	300.273	0.117	0.213
-220.625	135.506	0.054	-0.070
-219.611	307.800	-0.097	0.179
-218.596	-105.136	-0.183	0.041
-217.582	-200.000	-0.012	0.088
-216.567	800.000	0.055	0.165
-215.552	800.000	-0.064	0.228
-214.538	-59.212	-0.079	-0.033
-213.523	-93.683	-0.186	-0.051
-212.509	96.116	-0.297	0.334
-211.494	258.060	-0.089	-0.150
-210.479	61.538	-0.112	-0.109
-209.465	-200.000	0.010	0.175
-208.450	-22.678	0.205	0.122
-207.436	-200.000	0.017	0.126
-206.421	-18.537	-0.115	0.071
-205.406	433.893	0.149	-0.320
-204.392	-110.380	0.338	0.069
-203.377	-200.000	-0.052	-0.238
-202.363	-181.401	-0.153	0.003
-201.348	800.000	0.068	0.195
-200.333	-75.686	0.127	-0.045
-199.319	601.586	-0.062	-0.151
-198.304	-58.797	-0.208	-0.089
-197.290	-112.253	0.375	0.074
-196.275	651.669	0.046	0.116
-195.260	-200.000	0.013	0.358
-194.246	-63.382	-0.251	0.101
-193.231	-14.171	-0.233	-0.148
-192.217	95.289	0.181	0.203
-191.202	-200.000	0.039	-0.298
-190.187	-41.952	0.281	0.142
-189.173	-200.000	0.023	0.138
-188.158	-46.241	-0.281	-0.136
-187.144	-24.492	-0.309	-0.181
-186.129	247.615	0.113	-0.187
-185.114	-123.624	0.082	-0.013
-184.100	-0.045	0.072	-0.051
-183.085	18.573	0.116	0.091
-182.071	-150.301	0.059	-0.004
-181.056	800.000	0.088	0.253
-180.042	800.000	0.028	-0.080
-179.027	-200.000	0.014	-0.097
-178.012	147.525	0.109	-0.145
-176.998	-105.097	-0.264	0.059
-175.983	-121.373	0.292	0.048
-174.969	-140.257	0.109	0.011
-173.954	-200.000	0.041	-0.394
-172.939	-133.177	0.122	0.015
-171.925	800.000	0.020	-0.070
-170.910	800.000	0.068	0.287
-169.896	-200.000	-0.000	0.042
-168.881	-135.655	0.345	-0.040
-167.866	-76.617	0.188	0.065
-166.852	-200.000	-0.051	0.283
-165.837	2.799	-0.157	-0.112
-164.823	36.418	-0.129	-0.112
-163.808	-66.318	-0.124	0.049
-162.793	590.196	0.052	-0.125
-161.779	-32.212	0.248	0.136
-160.764	-134.124	0.258	-0.031
-159.750	-200.000	-0.002	-0.095
-158.735	-200.000	0.027	-0.144
-157.720	-15.962	-0.201	0.126
-156.706	2.447	-0.175	-0.124
-155.691	-200.000	-0.011	-0.152
-154.677	195.729	0.030	-0.045
-153.662	-178.668	-0.243	0.005
-152.647	-99.947	0.144	0.035
-151.633	-71.185	0.153	-0.056
-150.618	-55.224	0.156	0.069
-149.604	57.393	0.173	-0.166
-148.589	-95.872	-0.083	-0.022
-147.574	-200.000	-0.013	-0.126
-146.560	226.051	-0.057	0.091
-145.545	628.456	0.069	-0.172
-144.531	800.000	0.071	0.281
-143.516	-125.458	0.318	-0.047
-142.502	149.051	-0.122	0.162
-141.487	-116.399	-0.114	0.021
-140.472	800.000	0.052	-0.218
-139.458	309.741	-0.068	-0.125
-138.443	102.605	0.215	0.247
-137.429	-163.836	-0.301	-0.014
-136.414	70.701	-0.086	0.087
-135.399	-200.000	0.000	-0.360
-134.385	216.431	-0.132	-0.206
-133.370	405.822	0.080	-0.165
-132.356	-200.000	-0.009	0.251
-131.341	-200.000	0.046	0.253
-130.326	265.021	0.168	0.287
-129.312	87.494	-0.154	-0.167
-128.297	-67.627	-0.324	-0.125
-127.283	91.491	-0.215	0.236
-126.268	-72.073	0.076	-0.028
-125.253	-200.000	0.002	-0.095
-124.239	-61.654	0.040	0.016
-123.224	-106.750	0.123	0.027
-122.210	66.204	-0.107	-0.106
