DTS Sentinel unit serial number:	SN413079Multiplexer serial number:	ORYXHardware model number:	OX4-SRSoftware version number:	ORYX F/W v4.00 Oryx Data Collector v3.7.2.0data status	okinstallation	princeton_trtdifferential loss correction	single-endedforward channel	channel 2reverse channel	N/Adate	2019/09/11time	18:05:10forward acquisition time	60.00reverse acquisition time	0.00gamma	496.2192k internal	0.2285k external	0.2285temperature offset calibration	1.0027default loss term (dB/km)	0.3790temperature slope calibration	1.0000multiplexer offset coefficient	1.0000multiplexer slope coefficient	1.0000fibre end	0.00T internal ref (°C)	44.03T ext. ref 1 (°C)	1.16T ext. ref 2 (°C)	38.99length (m)	temperature (°C)	Stokes	anti-Stokes-747.200	-200.000	-0.033	-0.161
-746.185	-71.981	-0.322	0.123
-745.171	-142.622	-0.302	-0.030
-744.156	674.818	0.107	0.284
-743.142	420.196	0.079	0.175
-742.127	-200.000	-0.055	0.370
-741.112	-167.363	0.299	-0.012
-740.098	-98.205	0.121	0.032
-739.083	-200.000	0.017	0.079
-738.069	-138.147	-0.241	-0.027
-737.054	511.819	0.082	-0.197
-736.039	656.811	-0.144	-0.381
-735.025	2.051	0.212	0.157
-734.010	-73.999	-0.397	0.148
-732.996	311.305	-0.119	-0.228
-731.981	-200.000	-0.047	-0.285
-730.966	44.618	-0.309	0.292
-729.952	-70.267	-0.132	0.051
-728.937	536.119	-0.073	0.178
-727.923	9.047	0.166	0.129
-726.908	13.383	0.107	0.085
-725.894	-27.722	-0.338	-0.201
-724.879	-200.000	-0.001	0.148
-723.864	-27.248	-0.263	0.157
-722.850	234.491	-0.076	-0.129
-721.835	-200.000	0.011	-0.147
-720.821	377.636	-0.150	-0.315
-719.806	-157.636	-0.339	-0.021
-718.791	278.342	-0.136	-0.248
-717.777	264.261	-0.134	-0.240
-716.762	800.000	-0.054	-0.193
-715.748	-29.765	0.142	-0.083
-714.733	-2.165	-0.061	-0.044
-713.718	-200.000	-0.077	-0.395
-712.704	-57.059	0.224	-0.101
-711.689	122.870	0.077	-0.099
-710.675	121.862	0.159	-0.204
-709.660	-29.404	-0.099	0.058
-708.645	-200.000	-0.016	0.318
-707.631	-200.000	-0.067	-0.308
-706.616	99.860	0.095	-0.112
-705.602	93.890	-0.174	-0.203
-704.587	54.380	-0.309	-0.305
-703.572	-22.201	0.079	0.049
-702.558	258.940	0.166	0.294
-701.543	-67.466	-0.122	-0.049
-700.529	-200.000	-0.061	-0.279
-699.514	200.767	-0.313	-0.493
-698.499	244.183	-0.015	-0.025
-697.485	4.999	-0.237	0.179
-696.470	485.091	-0.131	0.306
-695.456	106.547	0.108	-0.131
-694.441	-11.005	-0.066	-0.044
-693.426	36.859	0.105	-0.095
-692.412	259.619	-0.214	0.379
-691.397	21.094	-0.105	0.087
-690.383	-44.164	-0.462	-0.237
-689.368	34.613	0.046	-0.041
-688.354	223.205	-0.077	0.128
-687.339	-9.011	-0.310	0.213
-686.324	266.731	0.118	0.212
-685.310	-55.774	-0.306	-0.140
-684.295	35.804	0.133	0.119
-683.281	-42.359	-0.359	0.188
-682.266	-58.191	-0.116	0.052
-681.251	165.761	-0.113	-0.164
-680.237	102.009	-0.118	0.141
-679.222	-14.862	-0.173	-0.114
-678.208	-47.442	-0.217	-0.108
-677.193	-86.881	-0.272	-0.085
-676.178	800.000	-0.051	-0.220
-675.164	147.326	-0.148	-0.203
-674.149	-200.000	0.043	-0.284
-673.135	-102.948	0.108	0.026
-672.120	-200.000	-0.029	-0.289
-671.105	23.684	0.212	0.178
-670.091	-76.020	0.401	0.145
-669.076	-200.000	-0.028	-0.330
-668.062	-143.224	-0.199	-0.020
-667.047	800.000	0.086	-0.246
-666.032	71.552	-0.131	-0.139
-665.018	-51.619	0.072	0.035
-664.003	-200.000	0.010	0.059
-662.989	53.337	0.100	0.098
-661.974	-102.657	0.210	0.051
-660.959	-131.229	-0.157	-0.021
-659.945	-49.036	0.126	0.062
-658.930	-200.000	0.017	-0.142
-657.916	-106.435	0.227	-0.052
-656.901	800.000	-0.102	-0.398
-655.886	0.163	-0.097	0.071
-654.872	-80.055	0.268	-0.092
-653.857	-143.692	0.375	0.036
-652.843	325.985	-0.073	-0.143
-651.828	19.176	-0.245	0.201
-650.814	119.290	0.046	-0.058
-649.799	95.082	-0.129	0.150
-648.784	-200.000	-0.012	0.076
-647.770	-31.954	0.179	0.103
-646.755	800.000	0.056	-0.174
-645.741	36.170	-0.156	0.140
-644.726	-36.582	0.191	0.105
-643.711	-180.840	-0.398	0.008
-642.697	111.351	0.146	-0.180
-641.682	34.295	-0.200	-0.178
-640.668	99.531	-0.218	0.258
-639.653	13.810	0.152	0.121
-638.638	523.631	0.110	-0.265
-637.624	187.122	-0.090	0.137
-636.609	-200.000	0.014	0.111
-635.595	-132.535	-0.378	-0.050
-634.580	6.478	-0.149	0.114
-633.565	112.032	-0.241	-0.297
-632.551	-200.000	0.009	-0.117
-631.536	-200.000	0.120	-0.000
-630.522	-160.660	0.221	0.012
-629.507	-125.714	-0.136	0.021
-628.492	511.095	0.033	-0.078
-627.478	-34.003	-0.056	0.031
-626.463	-200.000	0.001	0.014
-625.449	-35.803	-0.119	-0.066
-624.434	-200.000	0.013	0.132
-623.419	-60.038	0.348	-0.152
-622.405	36.804	-0.325	-0.294
-621.390	-99.431	0.177	0.046
-620.376	243.112	0.173	0.296
-619.361	-60.918	-0.256	0.111
-618.346	-200.000	0.039	0.179
-617.332	65.063	-0.152	0.157
-616.317	-200.000	-0.023	-0.127
-615.303	-120.285	-0.503	0.088
-614.288	457.006	0.099	-0.224
-613.273	203.229	0.124	-0.196
-612.259	53.196	0.190	-0.186
-611.244	113.657	-0.145	-0.179
-610.230	800.000	-0.050	-0.188
-609.215	73.402	-0.347	-0.371
-608.201	203.485	-0.059	0.094
-607.186	-90.709	0.229	-0.068
-606.171	-200.000	-0.096	-0.440
-605.157	-130.190	0.135	0.019
-604.142	-6.004	-0.205	0.143
-603.128	98.072	-0.162	0.191
-602.113	-15.503	0.099	-0.064
-601.098	-39.035	0.113	0.061
-600.084	-200.000	0.059	-0.301
-599.069	-200.000	0.016	-0.444
-598.055	152.186	0.059	0.082
-597.040	-158.227	0.223	0.013
-596.025	224.626	0.085	-0.140
-595.011	388.980	-0.160	-0.338
-593.996	-200.000	0.016	0.236
-592.982	5.527	0.264	-0.199
-591.967	-85.148	-0.152	-0.048
-590.952	-136.355	0.254	-0.030
-589.938	-102.626	0.245	0.060
-588.923	-3.415	-0.236	0.167
-587.909	-183.484	-0.202	-0.004
-586.894	-200.000	0.064	0.312
-585.879	-157.866	0.108	0.007
-584.865	-139.002	-0.192	-0.021
-583.850	-50.614	0.236	0.113
-582.836	800.000	0.120	-0.486
-581.821	-101.883	-0.198	-0.049
-580.806	-34.140	0.079	0.044
-579.792	-200.000	-0.048	-0.257
-578.777	124.188	0.172	-0.220
-577.763	-111.586	0.007	-0.001
-576.748	-126.646	0.185	-0.028
-575.733	266.795	-0.049	-0.087
-574.719	-200.000	0.035	0.196
-573.704	-36.308	-0.222	-0.122
-572.690	384.230	-0.128	-0.269
-571.675	575.826	-0.136	0.339
-570.661	-200.000	-0.010	-0.065
-569.646	342.189	0.017	0.033
-568.631	-113.045	0.214	-0.043
-567.617	156.029	-0.115	0.162
-566.602	17.561	0.116	0.094
-565.588	0.917	-0.203	0.148
-564.573	27.307	0.054	-0.046
-563.558	183.447	0.049	0.075
-562.544	800.000	-0.011	-0.048
-561.529	-171.397	0.196	0.007
-560.515	341.718	0.033	-0.065
-559.500	-200.000	-0.027	0.388
-558.485	-121.894	-0.082	0.014
-557.471	-142.472	-0.444	0.044
-556.456	-6.638	-0.080	-0.055
-555.442	414.311	0.104	0.226
-554.427	64.935	-0.163	0.168
-553.412	-87.223	-0.275	-0.085
-552.398	-69.001	-0.216	0.085
-551.383	800.000	0.057	0.172
-550.369	196.102	0.060	-0.093
-549.354	-72.607	0.245	-0.092
-548.339	-81.335	-0.157	0.053
-547.325	354.827	0.157	0.318
-546.310	-200.000	-0.005	0.197
-545.296	-200.000	-0.004	0.138
-544.281	-113.494	0.038	-0.008
-543.266	-165.123	-0.050	-0.002
-542.252	1.646	-0.141	-0.103
-541.237	-91.599	-0.355	0.103
-540.223	639.575	-0.108	-0.279
-539.208	-65.310	-0.294	0.120
-538.193	4.222	0.097	0.073
-537.179	-200.000	-0.015	-0.264
-536.164	129.228	-0.353	0.459
-535.150	160.416	0.147	0.209
-534.135	-147.397	-0.281	-0.024
-533.121	27.684	-0.153	-0.131
-532.106	-108.175	0.207	-0.046
-531.091	-107.502	0.246	-0.055
-530.077	-140.662	0.068	0.007
-529.062	-200.000	0.008	-0.152
-528.048	205.123	-0.041	-0.065
-527.033	202.335	0.025	-0.039
-526.018	-200.000	-0.010	-0.099
-525.004	800.000	-0.030	-0.121
-523.989	125.422	-0.075	0.096
-522.975	-75.159	-0.251	-0.091
-521.960	100.002	-0.163	-0.192
-520.945	-136.459	-0.399	-0.047
-519.931	-129.500	-0.449	-0.063
-518.916	-200.000	0.024	0.214
-517.902	-75.391	0.243	0.088
-516.887	-200.000	-0.037	0.327
-515.872	124.149	0.113	-0.145
-514.858	25.991	0.158	-0.134
-513.843	-98.565	-0.318	0.083
-512.829	-87.223	-0.353	-0.109
-511.814	-31.676	-0.125	-0.072
-510.799	800.000	0.127	-0.381
-509.785	197.439	0.098	0.152
-508.770	35.449	-0.143	0.128
-507.756	-27.846	0.322	0.190
-506.741	-82.670	-0.075	-0.025
-505.726	-127.928	0.125	-0.018
-504.712	-86.618	-0.103	-0.032
-503.697	-25.741	0.160	0.096
-502.683	-59.253	0.332	-0.145
-501.668	-200.000	-0.074	-0.375
-500.653	-3.970	0.116	-0.082
-499.639	50.728	-0.201	-0.193
-498.624	-42.938	0.144	-0.074
-497.610	-93.497	0.086	-0.024
-496.595	-200.000	-0.006	0.068
-495.581	44.166	0.246	0.230
-494.566	120.898	0.176	-0.222
-493.551	125.062	0.225	-0.289
-492.537	149.202	0.154	0.212
-491.522	218.488	-0.046	0.075
-490.508	143.061	-0.082	-0.110
-489.493	474.165	0.067	0.153
-488.478	-98.890	-0.081	-0.021
-487.464	-200.000	0.045	0.273
-486.449	-92.301	0.113	-0.032
-485.435	74.427	0.259	0.276
-484.420	-46.973	0.117	-0.058
-483.405	-200.000	-0.035	-0.364
-482.391	-96.635	0.145	-0.039
-481.376	-51.286	0.201	-0.095
-480.362	-200.000	0.007	0.080
-479.347	-49.717	-0.088	-0.042
-478.332	277.855	-0.105	-0.191
-477.318	-95.484	0.049	0.013
-476.303	47.557	-0.068	-0.065
-475.289	-104.148	-0.202	0.048
-474.274	183.927	-0.096	-0.144
-473.259	77.464	0.136	0.147
-472.245	100.450	0.146	-0.172
-471.230	-200.000	0.022	0.347
-470.216	336.188	0.143	-0.281
-469.201	92.117	-0.199	-0.228
-468.186	162.447	0.052	-0.074
-467.172	532.614	-0.028	-0.067
-466.157	-200.000	-0.002	0.176
-465.143	666.863	-0.066	0.173
-464.128	-200.000	-0.024	0.152
-463.113	186.513	-0.019	-0.028
-462.099	-103.546	-0.263	0.063
-461.084	-113.225	0.061	0.012
-460.070	22.999	0.145	0.120
-459.055	-22.318	0.077	0.047
-458.040	800.000	0.082	0.346
-457.026	-176.944	-0.413	-0.011
-456.011	-26.885	0.184	-0.109
-454.997	-153.818	-0.460	0.032
-453.982	-127.873	0.370	0.054
-452.968	800.000	0.048	-0.194
-451.953	-20.520	-0.044	-0.028
-450.938	-200.000	0.008	0.177
-449.924	-60.180	0.350	0.152
-448.909	-200.000	-0.007	-0.280
-447.895	-200.000	0.035	-0.620
-446.880	-20.118	-0.126	-0.079
-445.865	-90.781	0.164	0.048
-444.851	-200.000	0.203	0.000
-443.836	-8.105	0.171	0.117
-442.822	367.301	-0.129	0.264
-441.807	-200.000	0.053	0.245
-440.792	-81.519	-0.292	0.098
-439.778	-119.513	-0.234	-0.041
-438.763	246.132	-0.233	0.398
-437.749	800.000	0.086	-0.257
-436.734	17.842	-0.068	0.055
-435.719	800.000	-0.081	-0.322
-434.705	-25.166	0.320	-0.193
-433.690	-200.000	0.045	-0.255
-432.676	-57.410	0.173	0.077
-431.661	674.748	-0.139	0.367
-430.646	85.931	-0.134	-0.150
-429.632	-50.760	-0.101	-0.048
-428.617	342.589	0.135	-0.267
-427.603	-92.351	-0.298	0.085
-426.588	-102.673	-0.320	0.077
-425.573	214.182	-0.169	0.272
-424.559	-66.225	-0.189	-0.076
-423.544	353.284	-0.007	-0.014
-422.530	800.000	0.030	-0.124
-421.515	800.000	-0.093	0.260
-420.500	-200.000	0.018	0.237
-419.486	218.592	-0.029	-0.048
-418.471	-47.233	-0.182	-0.090
-417.457	-173.180	0.144	-0.004
-416.442	188.712	0.289	0.438
-415.428	-200.000	-0.057	0.319
-414.413	381.595	0.110	-0.229
-413.398	-142.933	0.093	0.009
-412.384	-200.000	-0.010	-0.148
-411.369	-103.646	-0.226	0.054
-410.355	-86.581	-0.193	-0.060
-409.340	157.653	-0.065	0.091
-408.325	-200.000	0.016	-0.116
-407.311	-7.274	-0.281	-0.193
-406.296	-159.618	-0.170	-0.010
-405.282	148.933	-0.024	-0.033
-404.267	-159.808	0.153	-0.009
-403.252	177.546	0.163	-0.241
-402.238	-22.517	-0.361	0.221
-401.223	409.884	0.078	-0.168
-400.209	-169.033	-0.042	0.002
-399.194	-82.987	0.238	-0.078
-398.179	-94.464	0.346	0.095
-397.165	800.000	0.023	-0.093
-396.150	-140.201	0.171	0.018
-395.136	158.071	-0.060	0.084
-394.121	-130.573	0.120	-0.016
-393.106	544.480	-0.048	-0.115
-392.092	52.165	0.153	0.148
-391.077	-107.194	-0.478	0.107
-390.063	133.312	0.180	0.236
-389.048	53.632	-0.245	0.238
-388.033	-83.379	-0.323	-0.105
-387.019	-97.044	0.169	-0.045
-386.004	-148.890	0.215	0.018
-384.990	-100.081	0.159	-0.040
-383.975	-152.221	-0.451	0.033
-382.960	224.843	-0.087	-0.143
-381.946	170.231	0.038	-0.056
-380.931	800.000	0.050	0.218
-379.917	49.944	-0.253	0.241
-378.902	739.720	-0.123	-0.333
-377.888	279.539	-0.119	-0.215
-376.873	172.567	-0.076	0.110
-375.858	142.634	0.200	-0.269
-374.844	-100.591	-0.166	-0.041
-373.829	32.945	-0.126	-0.111
-372.815	-120.784	0.215	-0.037
-371.800	-134.129	-0.421	-0.053
-370.785	52.462	0.286	-0.276
-369.771	-96.164	0.109	-0.029
-368.756	-19.589	0.460	0.288
-367.742	800.000	0.093	0.276
-366.727	26.851	-0.137	0.116
-365.712	715.661	0.059	-0.159
-364.698	-27.606	0.294	0.173
-363.683	-144.916	0.209	0.019
-362.669	-110.354	-0.380	0.080
-361.654	746.361	0.114	0.312
-360.639	800.000	-0.060	0.194
-359.625	274.685	-0.049	0.087
-358.610	258.456	-0.127	0.222
-357.596	34.653	-0.176	0.156
-356.581	-200.000	-0.040	0.196
-355.566	-119.638	-0.237	-0.041
-354.552	-200.000	0.040	-0.209
-353.537	800.000	0.057	0.237
-352.523	-44.631	-0.280	0.142
-351.508	230.567	0.073	0.122
-350.493	1.913	0.342	-0.249
-349.479	800.000	-0.087	-0.338
-348.464	2.206	0.221	0.161
-347.450	232.461	-0.076	0.126
-346.435	84.998	0.312	0.346
-345.420	-200.000	-0.009	0.262
-344.406	-110.198	-0.243	0.051
-343.391	-10.281	-0.172	-0.115
-342.377	-200.000	0.015	-0.147
-341.362	223.020	-0.047	-0.077
-340.348	257.833	0.012	0.021
-339.333	-83.448	-0.153	0.050
-338.318	800.000	-0.106	0.411
-337.304	-200.000	-0.032	0.331
-336.289	307.459	-0.177	0.333
-335.275	-200.000	-0.038	-0.287
-334.260	23.871	0.262	-0.219
-333.245	392.666	-0.031	-0.065
-332.231	369.629	-0.034	-0.070
-331.216	-43.200	-0.231	-0.118
-330.202	485.848	0.020	-0.047
-329.187	2.851	0.490	0.359
-328.172	109.332	-0.077	-0.093
-327.158	-188.766	0.244	-0.003
-326.143	-55.609	-0.227	0.103
-325.129	-117.194	-0.070	0.013
-324.114	800.000	0.090	0.320
-323.099	-68.108	0.172	0.068
-322.085	115.335	0.137	0.169
-321.070	-200.000	0.005	0.180
-320.056	800.000	-0.024	0.069
-319.041	547.108	0.100	-0.241
-318.026	-200.000	0.039	-0.245
-317.012	-89.510	-0.328	0.097
-315.997	112.462	-0.034	0.041
-314.983	97.386	0.171	0.199
-313.968	52.809	-0.309	-0.298
-312.953	101.906	-0.221	-0.261
-311.939	138.646	0.167	-0.222
-310.924	-18.182	0.240	-0.152
-309.910	62.600	0.134	0.136
-308.895	212.640	-0.074	0.118
-307.880	-44.306	-0.139	-0.070
-306.866	-109.255	0.275	0.059
-305.851	-23.947	-0.470	-0.284
-304.837	-83.938	0.209	0.067
-303.822	38.623	-0.283	-0.255
-302.807	-89.719	0.453	0.134
-301.793	-79.701	-0.007	-0.003
-300.778	333.625	-0.122	-0.239
-299.764	320.621	-0.101	0.194
-298.749	67.700	-0.191	0.197
-297.735	-15.863	0.350	-0.225
-296.720	-54.093	0.193	-0.088
-295.705	-100.271	0.374	0.094
-294.691	4.919	0.089	-0.066
-293.676	-200.000	-0.041	-0.368
-292.662	-26.413	-0.099	-0.058
-291.647	-60.197	-0.186	0.080
-290.632	64.475	0.250	-0.254
-289.618	-51.111	0.093	0.044
-288.603	-200.000	-0.009	-0.179
-287.589	327.818	-0.063	-0.122
-286.574	-93.910	0.168	0.047
-285.559	25.192	-0.306	0.256
-284.545	-10.756	0.056	-0.037
-283.530	128.713	0.137	-0.176
-282.516	-200.000	0.002	0.147
-281.501	-151.007	-0.435	0.033
-280.486	45.352	-0.034	0.032
-279.472	-31.574	0.007	0.004
-278.457	-73.457	0.209	0.077
-277.443	15.648	0.088	0.070
-276.428	-123.023	0.385	0.062
-275.413	-200.000	-0.064	0.402
-274.399	-200.000	-0.011	-0.536
-273.384	-39.552	0.234	0.123
-272.370	141.585	-0.080	-0.107
-271.355	34.771	-0.123	0.109
-270.340	-200.000	0.043	0.280
-269.326	-39.296	0.227	0.120
-268.311	73.456	-0.277	0.293
-267.297	800.000	-0.079	0.324
-266.282	-200.000	-0.001	0.169
-265.267	-34.875	-0.293	0.161
-264.253	-200.000	-0.011	-0.168
-263.238	-170.628	0.233	0.008
-262.224	-138.596	0.177	0.020
-261.209	-64.971	-0.054	0.022
-260.195	137.870	0.219	0.289
-259.180	100.115	-0.164	-0.191
-258.165	-165.158	0.091	-0.004
-257.151	271.079	0.127	0.226
-256.136	70.336	-0.014	-0.014
-255.122	198.478	0.109	0.168
-254.107	160.831	-0.267	0.375
-253.092	661.392	-0.140	0.364
-252.078	59.568	-0.042	0.042
-251.063	489.618	0.074	-0.170
-250.049	-156.576	0.260	0.016
-249.034	-200.000	0.024	0.123
-248.019	-75.552	0.071	0.025
-247.005	316.102	-0.077	-0.146
-245.990	800.000	-0.153	0.668
-244.976	-79.261	0.216	0.074
-243.961	143.216	-0.127	0.170
-242.946	6.993	0.089	-0.067
-241.932	59.566	0.100	0.099
-240.917	56.197	-0.143	0.140
-239.903	374.810	0.176	-0.360
-238.888	-31.954	0.158	0.089
-237.873	221.752	-0.062	0.101
-236.859	-147.798	-0.284	-0.024
-235.844	188.552	-0.143	-0.216
-234.830	571.333	0.076	-0.186
-233.815	223.426	0.088	0.142
-232.800	-200.000	0.009	-0.276
-231.786	-200.000	0.026	-0.317
-230.771	-61.966	-0.049	-0.020
-229.757	336.714	0.063	0.122
-228.742	-200.000	0.013	-0.210
-227.727	-200.000	-0.020	-0.190
-226.713	39.101	0.177	-0.159
-225.698	-163.616	0.273	-0.013
-224.684	-114.856	-0.289	-0.055
-223.669	-43.478	0.103	-0.052
-222.655	-127.611	-0.133	0.019
-221.640	800.000	0.025	0.076
-220.625	-200.000	0.002	-0.374
-219.611	-113.613	0.121	0.024
-218.596	-121.389	0.433	0.072
-217.582	-167.148	0.165	-0.007
-216.567	-167.255	0.208	0.008
-215.552	-150.991	-0.099	0.008
-214.538	196.756	-0.171	0.262
-213.523	477.585	-0.020	0.045
-212.509	-124.420	0.207	0.032
-211.494	800.000	0.011	-0.043
-210.479	-35.397	-0.199	-0.109
-209.465	668.022	-0.068	-0.178
-208.450	502.632	0.057	-0.134
-207.436	170.292	0.135	-0.195
-206.421	51.383	0.212	-0.203
-205.406	-78.327	-0.252	-0.087
-204.392	-200.000	0.018	0.157
-203.377	101.620	-0.113	-0.132
-202.363	363.617	0.170	-0.343
-201.348	8.902	0.255	0.193
-200.333	-95.342	-0.066	-0.018
-199.319	800.000	0.158	-0.461
-198.304	-200.000	-0.014	-0.133
-197.290	-45.216	-0.092	-0.046
-196.275	-200.000	-0.022	-0.250
-195.260	-118.740	0.406	-0.072
-194.246	-33.062	0.066	0.037
-193.231	-60.554	0.098	0.042
-192.217	-118.531	0.210	-0.037
-191.202	-42.663	0.113	-0.058
-190.187	-200.000	0.000	0.002
-189.173	24.011	0.052	0.043
-188.158	409.169	-0.082	0.174
-187.144	-200.000	-0.022	-0.266
-186.129	-200.000	-0.022	0.394
-185.114	100.251	-0.330	0.384
-184.100	128.734	0.038	0.048
-183.085	347.506	0.099	0.196
-182.071	133.088	0.196	0.254
-181.056	-151.793	-0.093	-0.007
-180.042	-200.000	-0.050	0.233
-179.027	255.090	0.091	0.157
-178.012	-200.000	0.015	0.089
-176.998	-46.265	0.112	0.055
-175.983	384.913	0.022	-0.047
-174.969	800.000	0.046	-0.192
-173.954	-152.382	-0.379	0.027
-172.939	-100.612	-0.112	-0.028
-171.925	627.943	0.036	-0.090
-170.910	-107.453	0.346	-0.076
-169.896	242.931	0.099	-0.167
-168.881	-200.000	0.014	-0.257
-167.866	-200.000	-0.074	-0.388
-166.852	-167.291	-0.528	-0.021
-165.837	-200.000	0.006	0.034
-164.823	571.564	0.129	-0.314
-163.808	58.869	0.041	-0.040
-162.793	-177.029	0.121	0.003
-161.779	-6.000	0.194	0.133
-160.764	800.000	0.062	0.260
-159.750	-200.000	0.014	-0.174
-158.735	63.036	-0.062	0.062
-157.720	-41.890	0.093	0.048
-156.706	-200.000	-0.056	0.449
-155.691	-200.000	0.005	-0.047
-154.677	-64.987	0.442	-0.179
-153.662	-181.709	0.061	0.001
-152.647	-200.000	0.039	-0.173
-151.633	789.538	0.108	-0.297
-150.618	-80.189	0.259	0.087
-149.604	-64.557	0.074	0.030
-148.589	-200.000	-0.030	-0.144
-147.574	-18.354	-0.241	0.151
-146.560	-187.812	-0.075	0.001
-145.545	-70.075	-0.435	-0.166
-144.531	-200.000	0.008	0.260
-143.516	-200.000	-0.013	0.250
-142.502	-200.000	0.016	0.137
-141.487	711.892	0.066	0.175
-140.472	-149.367	0.291	0.023
-139.458	800.000	-0.087	0.307
-138.443	800.000	-0.074	0.276
-137.429	153.805	0.204	0.280
-136.414	-65.940	0.284	0.114
-135.399	100.589	0.366	0.426
-134.385	-108.000	0.175	0.038
-133.370	-128.606	-0.167	0.024
-132.356	391.577	-0.266	0.553
-131.341	800.000	0.043	-0.133
-130.326	-80.944	-0.355	0.118
-129.312	-103.338	0.167	-0.039
-128.297	-51.256	0.230	0.108
-127.283	-38.392	-0.190	-0.101
-126.268	-93.286	0.138	0.038
-125.253	280.899	-0.040	-0.071
-124.239	-195.894	-0.221	0.002
-123.224	-200.000	0.013	-0.248
-122.210	128.158	0.171	-0.218
