DTS Sentinel unit serial number:	SN413079Multiplexer serial number:	ORYXHardware model number:	OX4-SRSoftware version number:	ORYX F/W v4.00 Oryx Data Collector v3.7.2.0data status	okinstallation	princeton_trtdifferential loss correction	single-endedforward channel	channel 2reverse channel	N/Adate	2019/09/18time	15:51:35forward acquisition time	60.00reverse acquisition time	0.00gamma	496.2192k internal	0.2310k external	0.2310temperature offset calibration	1.0004default loss term (dB/km)	0.3790temperature slope calibration	1.0000multiplexer offset coefficient	1.0000multiplexer slope coefficient	1.0000fibre end	0.00T internal ref (°C)	36.72T ext. ref 1 (°C)	0.80T ext. ref 2 (°C)	35.35length (m)	temperature (°C)	Stokes	anti-Stokes-747.200	-55.748	0.207	0.094
-746.185	520.686	-0.165	0.393
-745.171	-200.000	0.002	0.187
-744.156	542.395	0.052	0.125
-743.142	800.000	0.179	-0.538
-742.127	751.576	-0.100	-0.275
-741.112	54.133	-0.159	0.155
-740.098	-105.141	0.179	-0.041
-739.083	65.028	0.328	0.337
-738.069	-200.000	0.013	0.114
-737.054	324.061	-0.171	0.332
-736.039	-65.809	-0.299	0.122
-735.025	-96.053	0.174	0.047
-734.010	-200.000	0.002	-0.209
-732.996	800.000	0.068	-0.215
-731.981	-95.146	0.246	0.067
-730.966	-48.556	-0.131	0.064
-729.952	155.715	-0.078	0.109
-728.937	-162.386	-0.197	0.010
-727.923	615.642	-0.117	0.298
-726.908	-190.043	-0.042	-0.000
-725.894	159.367	-0.087	-0.124
-724.879	485.458	0.034	-0.079
-723.864	74.038	-0.258	-0.274
-722.850	48.047	0.354	-0.336
-721.835	-200.000	-0.037	-0.176
-720.821	250.480	-0.075	-0.129
-719.806	423.405	-0.068	0.149
-718.791	572.834	-0.071	-0.176
-717.777	682.508	-0.164	-0.435
-716.762	-82.794	-0.175	0.057
-715.748	220.998	0.136	-0.221
-714.733	329.534	-0.092	0.179
-713.718	-200.000	0.012	0.061
-712.704	-2.032	-0.307	0.219
-711.689	-0.956	-0.265	-0.190
-710.675	-6.168	-0.363	-0.252
-709.660	-80.951	-0.295	-0.099
-708.645	-105.703	-0.282	-0.065
-707.631	-16.357	0.056	-0.036
-706.616	-47.911	0.386	-0.189
-705.602	86.140	0.168	-0.187
-704.587	356.613	0.033	0.066
-703.572	67.908	-0.167	-0.174
-702.558	47.139	-0.146	-0.138
-701.543	357.883	-0.170	-0.344
-700.529	-87.119	0.114	-0.035
-699.514	165.850	0.057	-0.082
-698.499	-183.786	0.139	-0.002
-697.485	67.897	-0.080	-0.083
-696.470	-200.000	0.006	0.096
-695.456	-112.639	-0.261	-0.053
-694.441	-132.921	0.063	-0.008
-693.426	-21.758	0.121	-0.075
-692.412	800.000	-0.036	-0.150
-691.397	-200.000	-0.010	0.135
-690.383	-200.000	0.038	-0.288
-689.368	-200.000	0.033	-0.199
-688.354	800.000	-0.062	-0.190
-687.339	-65.309	0.157	-0.064
-686.324	8.351	0.126	0.096
-685.310	800.000	0.059	0.236
-684.295	800.000	-0.026	0.091
-683.281	311.254	0.122	0.231
-682.266	339.997	0.154	0.305
-681.251	112.043	0.100	0.122
-680.237	5.123	0.135	0.101
-679.222	512.939	-0.092	0.217
-678.208	65.473	-0.096	0.098
-677.193	130.772	0.049	0.063
-676.178	-136.180	-0.175	0.021
-675.164	181.361	-0.324	0.482
-674.149	79.567	0.116	0.126
-673.135	207.036	-0.174	-0.274
-672.120	-200.000	-0.014	-0.226
-671.105	-58.919	0.128	-0.056
-670.091	309.727	0.135	0.256
-669.076	31.481	-0.052	-0.045
-668.062	262.761	0.101	-0.177
-667.047	800.000	-0.037	-0.163
-666.032	195.375	-0.087	-0.133
-665.018	-58.910	0.308	-0.135
-664.003	-11.217	-0.130	0.086
-662.989	-111.198	0.189	0.039
-661.974	486.164	-0.129	-0.297
-660.959	-23.063	0.122	0.075
-659.945	-200.000	0.236	0.000
-658.930	-200.000	0.063	-0.465
-657.916	16.006	-0.224	-0.179
-656.901	-72.477	-0.302	0.113
-655.886	29.947	-0.112	-0.096
-654.872	255.491	-0.154	-0.267
-653.857	800.000	-0.082	-0.329
-652.843	-30.181	-0.242	-0.139
-651.828	635.409	0.035	0.091
-650.814	65.664	-0.224	-0.230
-649.799	130.347	0.150	0.194
-648.784	298.365	0.055	0.102
-647.770	530.327	0.079	0.189
-646.755	-200.000	0.041	-0.246
-645.741	-200.000	-0.014	-0.406
-644.726	24.933	0.343	0.288
-643.711	-69.634	-0.089	-0.035
-642.697	-121.405	-0.085	0.014
-641.682	48.376	-0.312	-0.296
-640.668	-29.804	-0.496	-0.286
-639.653	107.057	-0.141	0.169
-638.638	647.754	0.059	0.154
-637.624	86.324	-0.054	0.060
-636.609	23.738	0.113	-0.094
-635.595	-23.742	-0.116	-0.070
-634.580	800.000	-0.022	0.065
-633.565	-135.377	-0.143	0.017
-632.551	89.838	0.098	0.110
-631.536	-200.000	-0.029	0.260
-630.522	800.000	0.110	-0.309
-629.507	-9.125	0.082	0.055
-628.492	333.312	0.113	0.221
-627.478	-40.728	0.159	0.083
-626.463	218.219	-0.202	0.325
-625.449	295.099	-0.077	-0.142
-624.434	248.395	-0.064	0.110
-623.419	-37.089	0.308	-0.167
-622.405	-113.418	0.221	0.044
-621.390	-91.153	-0.109	-0.032
-620.376	94.052	0.199	0.229
-619.361	111.260	0.061	0.075
-618.346	122.501	0.057	-0.073
-617.332	191.784	-0.311	-0.473
-616.317	70.238	0.220	-0.230
-615.303	800.000	0.080	0.337
-614.288	-77.767	-0.086	0.030
-613.273	-130.879	-0.353	-0.048
-612.259	-119.464	-0.187	-0.033
-611.244	372.879	0.146	-0.299
-610.230	514.446	-0.210	0.495
-609.215	261.650	0.038	-0.067
-608.201	309.134	0.157	0.296
-607.186	88.730	-0.140	0.157
-606.171	-110.563	0.244	0.051
-605.157	209.218	0.082	0.129
-604.142	800.000	0.059	-0.261
-603.128	432.620	0.103	0.225
-602.113	107.131	-0.257	-0.308
-601.098	-3.120	-0.112	0.079
-600.084	800.000	-0.063	0.242
-599.069	-12.552	-0.358	-0.236
-598.055	800.000	0.156	-0.489
-597.040	-200.000	-0.005	-0.175
-596.025	-200.000	0.003	0.083
-595.011	45.621	-0.057	0.053
-593.996	-73.441	0.187	0.069
-592.982	-200.000	0.039	0.185
-591.967	467.989	-0.046	0.104
-590.952	315.366	0.102	0.195
-589.938	800.000	0.025	-0.080
-588.923	349.401	-0.092	0.183
-587.909	-49.420	0.214	0.103
-586.894	169.880	0.084	0.121
-585.879	-31.058	-0.041	-0.023
-584.865	800.000	-0.125	0.363
-583.850	-74.198	-0.276	-0.101
-582.836	-200.000	0.011	-0.343
-581.821	140.864	-0.163	0.218
-580.806	-18.824	0.120	0.075
-579.792	98.162	0.201	0.234
-578.777	72.406	-0.184	0.194
-577.763	-200.000	-0.051	-0.306
-576.748	800.000	-0.085	-0.268
-575.733	-114.981	-0.082	0.016
-574.719	225.745	-0.015	-0.024
-573.704	396.537	-0.079	-0.167
-572.690	37.967	-0.299	-0.268
-571.675	153.243	-0.257	0.355
-570.661	-71.833	-0.249	-0.094
-569.646	-13.364	0.294	-0.192
-568.631	233.360	-0.065	-0.108
-567.617	-200.000	0.005	-0.328
-566.602	61.273	0.102	-0.102
-565.588	-198.060	0.237	-0.001
-564.573	343.231	0.125	0.247
-563.558	305.835	-0.076	-0.142
-562.544	754.951	-0.068	-0.185
-561.529	-28.896	-0.037	0.021
-560.515	-200.000	-0.005	0.113
-559.500	-49.693	0.259	-0.124
-558.485	-149.036	0.304	-0.025
-557.471	-200.000	0.014	0.255
-556.456	-49.556	-0.359	0.172
-555.442	37.308	-0.077	-0.068
-554.427	98.317	-0.111	-0.129
-553.412	-137.211	0.277	0.032
-552.398	122.727	0.158	-0.199
-551.383	-113.181	-0.197	0.039
-550.369	-172.245	0.171	-0.006
-549.354	41.379	0.224	-0.204
-548.339	319.972	-0.173	0.330
-547.325	-200.000	0.025	-0.286
-546.310	64.049	0.232	-0.235
-545.296	51.228	0.252	-0.241
-544.281	-82.634	0.319	0.104
-543.266	-37.901	-0.229	-0.123
-542.252	-200.000	-0.041	-0.295
-541.237	-200.000	0.024	-0.114
-540.223	534.948	-0.061	0.145
-539.208	331.504	-0.099	0.192
-538.193	42.091	0.074	-0.068
-537.179	58.910	-0.017	-0.016
-536.164	453.521	0.087	-0.194
-535.150	500.309	-0.062	0.145
-534.135	190.764	0.190	-0.288
-533.121	120.163	0.088	-0.110
-532.106	42.738	0.138	0.127
-531.091	175.076	-0.102	-0.149
-530.077	800.000	-0.017	0.052
-529.062	122.325	0.082	0.103
-528.048	-200.000	-0.030	0.162
-527.033	-200.000	0.017	0.340
-526.018	-200.000	0.040	-0.177
-525.004	311.786	0.109	0.206
-523.989	-31.032	-0.157	0.089
-522.975	-200.000	-0.019	0.373
-521.960	-172.203	-0.290	-0.009
-520.945	331.371	-0.017	0.033
-519.931	418.560	0.047	0.101
-518.916	-115.136	-0.156	-0.030
-517.902	-200.000	0.004	0.120
-516.887	-200.000	-0.002	0.117
-515.872	41.985	-0.378	0.345
-514.858	800.000	0.058	-0.174
-513.843	-68.021	0.433	-0.170
-512.829	-200.000	0.029	-0.143
-511.814	800.000	-0.049	0.160
-510.799	1.149	0.403	0.291
-509.785	179.646	-0.124	0.183
-508.770	-200.000	-0.016	-0.088
-507.756	36.469	-0.044	-0.039
-506.741	-16.717	-0.153	-0.098
-505.726	56.274	0.248	-0.243
-504.712	-113.359	0.135	0.027
-503.697	-115.230	-0.302	-0.057
-502.683	-124.402	0.171	0.027
-501.668	-118.048	-0.148	-0.027
-500.653	15.377	0.108	-0.085
-499.639	-12.759	0.164	0.108
-498.624	-107.819	-0.097	0.021
-497.610	-200.000	0.021	0.129
-496.595	302.932	-0.028	-0.052
-495.581	800.000	0.031	-0.111
-494.566	800.000	-0.076	-0.218
-493.551	360.907	0.144	0.290
-492.537	-31.472	-0.059	-0.034
-491.522	-53.156	0.446	-0.206
-490.508	-83.800	-0.190	-0.061
-489.493	138.794	0.142	-0.187
-488.478	-129.880	0.053	0.007
-487.464	-46.892	-0.264	-0.130
-486.449	800.000	0.075	0.221
-485.435	-132.264	-0.192	-0.025
-484.420	-144.481	-0.171	-0.016
-483.405	88.201	-0.116	0.129
-482.391	-32.957	0.279	0.156
-481.376	120.860	0.098	-0.123
-480.362	-200.000	0.014	-0.118
-479.347	78.834	-0.250	0.269
-478.332	-32.917	-0.135	0.076
-477.318	35.537	-0.180	0.159
-476.303	-200.000	-0.020	-0.101
-475.289	296.103	-0.033	0.061
-474.274	577.128	-0.093	-0.228
-473.259	-200.000	0.010	-0.074
-472.245	-200.000	-0.005	0.224
-471.230	800.000	-0.144	0.479
-470.216	-39.025	0.141	-0.074
-469.201	-92.633	0.305	0.086
-468.186	-6.101	-0.154	-0.106
-467.172	75.517	-0.064	0.068
-466.157	-5.445	-0.309	-0.213
-465.143	-200.000	0.005	0.224
-464.128	56.577	0.288	-0.282
-463.113	800.000	0.057	-0.164
-462.099	800.000	-0.046	-0.148
-461.084	160.193	0.241	-0.338
-460.070	3.168	0.205	0.150
-459.055	346.549	0.149	-0.295
-458.040	-5.548	0.041	0.028
-457.026	800.000	-0.053	0.234
-456.011	-129.624	0.257	-0.036
-454.997	800.000	0.066	-0.196
-453.982	-20.686	-0.178	0.110
-452.968	-200.000	0.013	-0.301
-451.953	800.000	-0.025	0.074
-450.938	-200.000	-0.010	0.080
-449.924	-47.039	-0.193	0.095
-448.909	800.000	-0.039	0.116
-447.895	-61.750	0.026	-0.011
-446.880	580.300	0.040	-0.098
-445.865	93.765	-0.091	0.104
-444.851	-139.802	0.086	0.009
-443.836	172.405	-0.065	-0.094
-442.822	41.138	-0.221	-0.200
-441.807	-126.562	-0.106	0.016
-440.792	27.577	0.467	-0.395
-439.778	-143.646	0.038	-0.004
-438.763	-120.621	0.423	-0.072
-437.749	-103.753	0.105	0.025
-436.734	-136.340	-0.373	0.044
-435.719	800.000	0.047	-0.203
-434.705	3.809	-0.040	-0.029
-433.690	42.514	0.167	-0.152
-432.676	-90.560	-0.119	0.035
-431.661	47.722	-0.154	-0.144
-430.646	56.402	-0.140	-0.136
-429.632	211.924	0.162	0.256
-428.617	126.153	-0.110	0.139
-427.603	192.047	0.096	0.146
-426.588	100.336	0.222	0.258
-425.573	800.000	-0.066	0.232
-424.559	-65.221	-0.223	0.090
-423.544	635.721	0.055	0.139
-422.530	58.960	0.107	0.105
-421.515	-86.099	0.150	0.047
-420.500	-63.370	-0.122	0.050
-419.486	370.768	-0.112	0.228
-418.471	578.106	0.091	0.223
-417.457	-68.721	0.262	-0.102
-416.442	800.000	0.032	0.096
-415.428	-200.000	-0.021	-0.165
-414.413	-200.000	-0.012	-0.119
-413.398	741.965	-0.146	-0.394
-412.384	-41.404	-0.191	-0.099
-411.369	42.555	0.132	-0.120
-410.355	-200.000	0.012	0.183
-409.340	-106.185	-0.206	-0.046
-408.325	22.622	-0.282	-0.231
-407.311	-30.230	0.166	0.094
-406.296	165.874	0.119	-0.168
-405.282	-74.150	-0.124	0.045
-404.267	-39.238	0.107	0.056
-403.252	800.000	-0.054	-0.226
-402.238	800.000	-0.024	-0.093
-401.223	-137.568	-0.367	-0.041
-400.209	-29.026	-0.085	0.049
-399.194	-200.000	-0.018	0.165
-398.179	171.307	-0.070	-0.101
-397.165	-200.000	0.001	-0.076
-396.150	130.483	-0.091	0.116
-395.136	233.148	0.040	-0.066
-394.121	12.414	-0.104	-0.080
-393.106	800.000	0.027	-0.096
-392.092	-200.000	-0.007	0.056
-391.077	800.000	0.079	0.235
-390.063	-1.986	0.203	0.143
-389.048	216.565	0.077	0.122
-388.033	158.887	0.044	-0.061
-387.019	-88.893	0.218	-0.065
-386.004	477.958	-0.055	-0.125
-384.990	-122.340	0.135	0.022
-383.975	89.872	-0.061	-0.068
-382.960	136.127	0.080	-0.104
-381.946	-68.502	0.250	0.097
-380.931	18.269	0.017	0.014
-379.917	-200.000	-0.023	-0.119
-378.902	35.287	-0.172	-0.151
-377.888	800.000	-0.118	0.360
-376.873	399.094	0.071	0.149
-375.858	-134.848	-0.257	0.031
-374.844	619.719	-0.090	0.227
-373.829	-48.776	0.361	0.173
-372.815	-19.613	0.153	0.095
-371.800	800.000	-0.036	-0.143
-370.785	97.985	-0.134	-0.154
-369.771	78.298	-0.176	0.188
-368.756	-200.000	-0.030	0.145
-367.742	-160.339	0.127	-0.007
-366.727	-93.668	0.251	-0.069
-365.712	-200.000	0.012	-0.497
-364.698	-51.758	0.165	-0.077
-363.683	31.580	-0.125	-0.107
-362.669	-200.000	-0.048	0.259
-361.654	-186.165	0.469	-0.007
-360.639	29.232	0.147	0.125
-359.625	-98.848	-0.079	-0.020
-358.610	-64.088	-0.178	0.073
-357.596	17.100	0.155	-0.123
-356.581	647.344	-0.081	0.207
-355.566	-5.661	0.177	0.121
-354.552	-117.640	0.479	0.086
-353.537	227.596	-0.151	-0.245
-352.523	-182.043	0.114	0.002
-351.508	108.693	-0.073	0.088
-350.493	273.040	-0.131	-0.231
-349.479	37.385	0.023	-0.020
-348.464	73.918	-0.139	0.146
-347.450	-140.489	0.273	-0.028
-346.435	262.783	-0.099	0.171
-345.420	50.988	-0.263	-0.249
-344.406	8.735	0.100	0.075
-343.391	-200.000	0.001	-0.036
-342.377	-200.000	0.013	0.064
-341.362	-66.536	-0.377	-0.149
-340.348	-73.057	0.187	-0.069
-339.333	-48.483	-0.161	0.077
-338.318	-47.554	0.059	0.029
-337.304	-65.806	0.313	0.125
-336.289	-95.597	-0.097	-0.026
-335.275	-66.183	0.318	0.127
-334.260	-84.465	-0.222	0.070
-333.245	800.000	0.082	0.308
-332.231	656.233	0.121	0.312
-331.216	-200.000	-0.011	0.199
-330.202	-99.800	0.172	-0.043
-329.187	-52.906	-0.374	0.172
-328.172	239.643	-0.040	-0.066
-327.158	36.196	0.032	0.028
-326.143	-200.000	0.064	-0.297
-325.129	800.000	0.047	0.147
-324.114	265.925	0.183	0.319
-323.099	-38.473	-0.084	0.044
-322.085	-38.391	-0.329	-0.174
-321.070	521.025	0.079	-0.185
-320.056	-96.035	0.029	0.008
-319.041	-200.000	0.012	0.056
-318.026	800.000	-0.068	-0.209
-317.012	52.737	-0.171	-0.163
-315.997	0.942	-0.136	-0.097
-314.983	93.115	0.220	-0.249
-313.968	-20.428	-0.090	0.056
-312.953	-179.643	-0.227	-0.005
-311.939	-200.000	0.033	0.380
-310.924	800.000	0.056	0.182
-309.910	800.000	-0.073	0.218
-308.895	185.607	0.132	-0.196
-307.880	31.850	-0.126	-0.108
-306.866	-200.000	-0.007	-0.264
-305.851	-58.325	-0.157	0.068
-304.837	-14.672	-0.121	0.077
-303.822	-52.191	-0.306	-0.142
-302.807	48.258	0.267	-0.249
-301.793	-34.083	-0.247	-0.135
-300.778	8.428	0.131	-0.099
-299.764	391.658	-0.103	0.215
-298.749	28.231	-0.113	0.095
-297.735	311.783	-0.054	-0.102
-296.720	-28.276	0.300	-0.173
-295.705	-200.000	0.067	-0.419
-294.691	2.968	0.346	-0.251
-293.676	-166.259	0.326	0.014
-292.662	793.855	-0.034	0.092
-291.647	30.853	-0.167	-0.142
-290.632	-11.742	0.272	-0.178
-289.618	-200.000	-0.000	-0.062
-288.603	-183.380	0.019	-0.000
-287.589	4.776	0.082	-0.060
-286.574	-200.000	0.020	-0.307
-285.559	-88.442	-0.221	0.066
-284.545	89.836	0.136	0.151
-283.530	736.919	-0.057	-0.151
-282.516	-145.789	0.101	-0.009
-281.501	-200.000	0.005	0.370
-280.486	130.350	-0.105	-0.134
-279.472	-115.509	-0.178	-0.033
-278.457	-200.000	-0.050	-0.241
-277.443	108.981	0.069	-0.082
-276.428	-200.000	-0.035	0.204
-275.413	322.790	-0.305	0.579
-274.399	-117.531	-0.095	-0.017
-273.384	256.361	0.110	-0.189
-272.370	-31.403	-0.447	0.251
-271.355	-200.000	0.001	0.260
-270.340	-68.866	0.074	-0.028
-269.326	-200.000	-0.018	0.171
-268.311	139.312	0.094	0.123
-267.297	-157.220	0.131	0.008
-266.282	389.299	-0.127	0.263
-265.267	148.883	0.196	0.264
-264.253	-138.166	-0.248	-0.027
-263.238	800.000	0.073	0.238
-262.224	-127.728	-0.138	0.020
-261.209	34.856	-0.109	0.095
-260.195	-44.972	-0.161	-0.080
-259.180	-200.000	-0.014	-0.286
-258.165	-153.159	0.014	0.001
-257.151	24.550	0.099	-0.082
-256.136	-200.000	-0.005	0.338
-255.122	-200.000	-0.017	-0.307
-254.107	-200.000	-0.104	0.542
-253.092	-123.785	-0.372	0.059
-252.078	682.288	-0.076	0.197
-251.063	-179.262	0.110	0.002
-250.049	-200.000	0.007	0.140
-249.034	57.805	0.105	0.102
-248.019	61.201	-0.193	0.191
-247.005	43.123	-0.229	0.208
-245.990	-70.294	-0.319	0.121
-244.976	484.956	0.084	-0.192
-243.961	37.179	0.056	0.050
-242.946	-54.312	-0.403	-0.182
-241.932	-200.000	-0.007	-0.076
-240.917	-38.029	-0.369	0.195
-239.903	329.816	0.101	-0.193
-238.888	-122.225	-0.143	0.023
-237.873	-58.824	0.126	-0.054
-236.859	-121.026	0.214	0.036
-235.844	-33.543	0.294	0.162
-234.830	220.123	0.265	-0.423
-233.815	-71.341	0.405	-0.151
-232.800	-114.872	-0.243	-0.046
-231.786	-5.529	0.137	-0.093
-230.771	282.496	-0.118	0.210
-229.757	279.240	0.048	-0.086
-228.742	575.718	-0.033	-0.081
-227.727	800.000	0.037	-0.140
-226.713	-92.702	0.390	0.109
-225.698	800.000	0.059	0.210
-224.684	563.145	0.089	0.215
-223.669	-93.358	0.308	-0.085
-222.655	-76.252	0.063	-0.022
-221.640	334.134	-0.096	-0.184
-220.625	22.763	0.107	-0.088
-219.611	-8.605	0.107	0.072
-218.596	800.000	0.086	-0.314
-217.582	-200.000	0.009	0.115
-216.567	-129.518	-0.500	-0.069
-215.552	-13.131	-0.353	0.228
-214.538	-159.940	0.203	-0.011
-213.523	-94.014	-0.091	0.025
-212.509	-27.352	-0.173	-0.100
-211.494	629.102	0.136	-0.343
-210.479	573.035	-0.175	-0.425
-209.465	215.402	0.053	-0.084
-208.450	800.000	0.027	0.092
-207.436	-59.059	0.047	-0.020
-206.421	-200.000	-0.026	-0.266
-205.406	-76.006	0.107	0.038
-204.392	67.022	0.146	0.148
-203.377	282.372	-0.008	0.015
-202.363	102.566	-0.195	-0.227
-201.348	179.650	-0.080	-0.116
-200.333	-86.116	0.149	-0.046
-199.319	800.000	-0.016	0.054
-198.304	-200.000	-0.005	-0.116
-197.290	377.655	-0.060	0.121
-196.275	-123.807	0.298	0.047
-195.260	200.975	0.082	0.126
-194.246	-5.225	-0.134	-0.091
-193.231	45.554	0.068	-0.062
-192.217	-140.722	0.077	0.008
-191.202	-13.694	0.370	0.238
-190.187	157.764	-0.078	-0.107
-189.173	191.720	-0.248	-0.372
-188.158	-80.192	0.240	-0.080
-187.144	20.311	-0.258	-0.207
-186.129	-82.855	0.251	-0.081
-185.114	-200.000	-0.007	0.047
-184.100	657.195	0.113	-0.290
-183.085	621.116	0.130	0.326
-182.071	347.213	-0.224	0.439
-181.056	232.442	-0.021	0.034
-180.042	800.000	-0.043	0.182
-179.027	152.474	-0.057	0.077
-178.012	-200.000	0.015	0.206
-176.998	107.557	0.152	0.179
-175.983	-136.212	-0.210	-0.024
-174.969	44.235	0.068	-0.062
-173.954	-200.000	0.004	0.066
-172.939	69.006	-0.128	-0.130
-171.925	-165.447	0.101	0.004
-170.910	297.017	-0.077	-0.141
-169.896	-126.647	-0.453	-0.067
-168.881	800.000	0.042	-0.161
-167.866	1.412	-0.189	-0.135
-166.852	-111.352	-0.246	0.050
-165.837	262.232	0.189	0.326
-164.823	307.218	-0.100	-0.185
-163.808	541.456	-0.017	0.041
-162.793	106.333	0.130	0.153
-161.779	107.916	0.094	-0.111
-160.764	-100.811	-0.050	-0.012
-159.750	-31.774	-0.148	-0.083
-158.735	-19.236	-0.096	-0.059
-157.720	322.471	0.024	-0.044
-156.706	16.769	0.351	0.276
-155.691	-200.000	-0.004	-0.150
-154.677	306.648	0.091	0.169
-153.662	10.639	-0.087	0.066
-152.647	800.000	0.047	-0.178
-151.633	-200.000	-0.014	-0.201
-150.618	-59.990	0.187	-0.079
-149.604	-56.052	-0.064	-0.028
-148.589	717.926	-0.071	0.187
-147.574	265.100	0.051	0.088
-146.560	-144.974	-0.131	-0.012
-145.545	-81.415	-0.380	0.124
-144.531	124.997	0.065	0.082
-143.516	-98.817	-0.352	-0.089
-142.502	-71.803	0.187	0.069
-141.487	-134.286	-0.348	0.042
-140.472	-68.079	-0.042	-0.016
-139.458	-84.828	0.119	0.037
-138.443	-96.810	-0.017	0.004
-137.429	89.533	-0.210	-0.233
-136.414	344.133	-0.113	-0.219
-135.399	-10.236	0.203	0.133
-134.385	-200.000	0.014	-0.179
-133.370	264.065	-0.335	-0.578
-132.356	-43.580	0.405	0.203
-131.341	54.723	-0.048	-0.046
-130.326	-3.189	0.183	-0.126
-129.312	-130.979	0.196	0.026
-128.297	-200.000	-0.054	0.278
-127.283	-200.000	0.033	-0.287
-126.268	-200.000	0.074	0.363
-125.253	800.000	-0.128	-0.363
-124.239	735.991	-0.107	-0.285
-123.224	86.873	0.093	-0.101
-122.210	-200.000	-0.000	0.149
-121.195	123.260	0.095	-0.118
-120.180	-141.629	0.298	0.030
