DTS Sentinel unit serial number:	SN413079Multiplexer serial number:	ORYXHardware model number:	OX4-SRSoftware version number:	ORYX F/W v4.00 Oryx Data Collector v3.7.2.0data status	okinstallation	princeton_trtdifferential loss correction	single-endedforward channel	channel 2reverse channel	N/Adate	2019/09/14time	07:03:35forward acquisition time	60.00reverse acquisition time	0.00gamma	496.2192k internal	0.2339k external	0.2339temperature offset calibration	1.0133default loss term (dB/km)	0.3790temperature slope calibration	1.0000multiplexer offset coefficient	1.0000multiplexer slope coefficient	1.0000fibre end	0.00T internal ref (°C)	26.20T ext. ref 1 (°C)	3.44T ext. ref 2 (°C)	20.97length (m)	temperature (°C)	Stokes	anti-Stokes-747.200	-49.952	0.128	-0.061
-746.185	175.761	0.189	0.275
-745.171	-20.825	0.122	0.075
-744.156	-150.615	0.280	0.021
-743.142	280.126	0.221	0.396
-742.127	-81.906	-0.449	0.147
-741.112	-104.459	0.219	0.051
-740.098	-67.348	-0.342	0.135
-739.083	-200.000	-0.036	0.245
-738.069	-25.037	0.142	0.084
-737.054	104.408	0.229	-0.270
-736.039	155.542	0.096	0.132
-735.025	84.748	0.113	0.124
-734.010	-200.000	-0.024	-0.295
-732.996	43.474	-0.215	-0.197
-731.981	75.760	-0.279	-0.295
-730.966	-94.471	-0.148	-0.041
-729.952	-172.723	-0.427	-0.013
-728.937	-150.288	0.182	-0.014
-727.923	-200.000	0.023	-0.119
-726.908	-112.714	-0.275	-0.055
-725.894	-18.402	-0.204	-0.127
-724.879	-200.000	-0.031	0.181
-723.864	-151.763	-0.359	-0.026
-722.850	800.000	-0.023	-0.098
-721.835	-103.366	0.182	0.043
-720.821	-129.448	-0.469	0.065
-719.806	47.137	-0.042	0.039
-718.791	-200.000	0.006	0.121
-717.777	189.810	-0.085	0.127
-716.762	-200.000	0.089	0.395
-715.748	782.524	0.028	0.077
-714.733	-31.634	0.184	-0.104
-713.718	-41.930	0.079	-0.041
-712.704	235.376	-0.226	0.375
-711.689	-200.000	0.016	-0.171
-710.675	-27.615	0.150	0.087
-709.660	207.584	-0.036	-0.056
-708.645	-19.216	-0.253	0.157
-707.631	800.000	0.050	-0.217
-706.616	-200.000	-0.027	-0.173
-705.602	-161.319	0.204	-0.011
-704.587	1.777	-0.137	0.099
-703.572	-36.382	0.178	-0.096
-702.558	44.843	-0.275	0.254
-701.543	153.430	0.128	0.176
-700.529	-65.920	0.330	-0.132
-699.514	-117.184	0.281	0.051
-698.499	409.934	-0.037	0.079
-697.485	-200.000	0.006	-0.152
-696.470	800.000	0.020	-0.063
-695.456	-148.872	-0.149	0.012
-694.441	800.000	0.073	-0.212
-693.426	30.155	0.143	0.122
-692.412	515.951	0.078	0.182
-691.397	800.000	0.036	0.137
-690.383	-171.027	-0.306	-0.010
-689.368	-200.000	-0.015	-0.400
-688.354	2.377	0.342	0.247
-687.339	92.745	0.124	-0.140
-686.324	42.333	0.098	-0.089
-685.310	-200.000	-0.086	-0.394
-684.295	165.400	0.299	0.423
-683.281	-93.877	0.289	0.080
-682.266	29.702	-0.138	-0.118
-681.251	23.162	0.069	0.057
-680.237	800.000	0.027	0.103
-679.222	161.370	-0.178	-0.249
-678.208	27.273	0.050	-0.042
-677.193	0.493	-0.147	-0.105
-676.178	75.576	-0.241	-0.255
-675.164	800.000	-0.019	-0.080
-674.149	112.174	-0.195	-0.236
-673.135	-19.673	0.293	0.182
-672.120	283.896	-0.083	-0.150
-671.105	336.357	-0.156	-0.303
-670.091	-200.000	0.007	-0.039
-669.076	-162.123	0.320	-0.016
-668.062	63.065	0.284	-0.284
-667.047	800.000	-0.077	-0.218
-666.032	-12.143	0.125	-0.082
-665.018	-74.180	-0.111	-0.040
-664.003	-37.718	0.181	-0.097
-662.989	27.807	-0.110	-0.093
-661.974	392.881	-0.123	0.257
-660.959	-121.839	-0.095	-0.016
-659.945	128.474	-0.237	-0.302
-658.930	-32.977	-0.051	-0.028
-657.916	43.530	0.121	0.110
-656.901	-97.264	-0.082	0.021
-655.886	-100.952	0.028	-0.007
-654.872	-68.792	-0.101	-0.039
-653.857	-103.447	0.283	-0.067
-652.843	52.861	-0.229	-0.219
-651.828	14.378	0.105	0.082
-650.814	491.889	-0.118	-0.269
-649.799	50.599	-0.058	-0.054
-648.784	119.314	0.121	-0.149
-647.770	800.000	-0.032	-0.115
-646.755	80.906	-0.087	-0.094
-645.741	97.061	0.200	0.229
-644.726	-95.670	-0.123	-0.033
-643.711	-45.064	0.181	0.090
-642.697	-37.096	0.145	-0.077
-641.682	-200.000	0.050	-0.290
-640.668	149.123	-0.153	0.206
-639.653	-90.387	-0.135	0.039
-638.638	-147.073	0.171	0.015
-637.624	800.000	0.100	-0.361
-636.609	378.177	0.152	0.311
-635.595	-109.519	-0.177	0.037
-634.580	-135.924	-0.297	0.035
-633.565	-200.000	-0.001	-0.350
-632.551	-24.607	-0.272	-0.162
-631.536	-80.677	-0.084	-0.028
-630.522	-200.000	0.053	0.236
-629.507	144.890	-0.077	0.103
-628.492	-200.000	0.017	0.106
-627.478	-200.000	-0.012	0.320
-626.463	518.691	-0.215	-0.503
-625.449	800.000	0.116	-0.337
-624.434	-200.000	0.058	-0.354
-623.419	800.000	-0.067	0.257
-622.405	-200.000	-0.004	-0.134
-621.390	-155.338	-0.362	-0.023
-620.376	-63.321	0.038	-0.016
-619.361	-103.577	0.320	-0.075
-618.346	681.877	-0.109	0.283
-617.332	800.000	0.042	-0.168
-616.317	-110.841	-0.328	0.067
-615.303	-136.045	0.314	0.037
-614.288	-63.740	0.101	0.041
-613.273	292.220	-0.115	0.208
-612.259	-101.541	-0.204	-0.050
-611.244	800.000	0.074	-0.228
-610.230	-168.781	0.537	-0.020
-609.215	-85.632	0.044	-0.014
-608.201	-74.568	-0.465	0.167
-607.186	6.968	0.156	0.116
-606.171	-121.468	-0.040	0.007
-605.157	-155.396	-0.301	-0.019
-604.142	-200.000	0.148	0.001
-603.128	-200.000	0.023	-0.121
-602.113	-84.575	0.072	-0.023
-601.098	-35.559	-0.358	-0.194
-600.084	-200.000	-0.014	-0.201
-599.069	111.158	-0.184	0.221
-598.055	104.948	-0.150	-0.176
-597.040	-118.145	-0.167	0.030
-596.025	365.965	0.174	0.350
-595.011	-163.153	0.281	-0.014
-593.996	-200.000	0.045	-0.268
-592.982	-52.165	0.150	-0.069
-591.967	-47.928	0.232	0.112
-590.952	-130.078	-0.278	-0.038
-589.938	90.692	-0.229	-0.256
-588.923	-165.911	-0.268	-0.011
-587.909	107.181	0.147	0.174
-586.894	5.918	-0.253	-0.186
-585.879	52.978	-0.132	0.126
-584.865	800.000	0.031	-0.104
-583.850	800.000	-0.048	0.193
-582.836	232.698	0.073	-0.120
-581.821	-29.007	-0.236	-0.135
-580.806	-69.660	0.319	-0.122
-579.792	-19.551	0.076	0.047
-578.777	-200.000	-0.020	-0.170
-577.763	545.345	-0.191	-0.454
-576.748	-178.150	-0.253	-0.006
-575.733	-117.990	0.292	0.052
-574.719	49.041	0.169	0.158
-573.704	375.314	-0.093	-0.189
-572.690	225.158	0.135	0.217
-571.675	296.998	0.112	-0.205
-570.661	6.322	-0.170	-0.126
-569.646	800.000	0.022	0.093
-568.631	50.813	0.178	-0.168
-567.617	-129.514	-0.112	-0.015
-566.602	-89.862	0.266	-0.077
-565.588	-169.331	0.237	0.009
-564.573	-15.405	-0.037	0.024
-563.558	294.659	0.143	-0.260
-562.544	-117.823	-0.169	-0.030
-561.529	456.136	-0.120	-0.266
-560.515	34.741	-0.108	0.094
-559.500	-200.000	-0.067	0.412
-558.485	-194.777	0.227	0.002
-557.471	90.367	-0.174	0.194
-556.456	96.607	0.164	0.187
-555.442	-36.986	-0.193	0.103
-554.427	460.161	-0.098	0.217
-553.412	-200.000	-0.034	-0.230
-552.398	229.172	0.147	0.239
-551.383	256.942	0.094	0.160
-550.369	-30.801	-0.131	0.074
-549.354	34.207	-0.127	0.110
-548.339	40.508	0.227	0.203
-547.325	-58.624	0.069	0.030
-546.310	800.000	-0.099	-0.377
-545.296	-67.582	0.077	0.030
-544.281	223.976	-0.089	-0.143
-543.266	-126.621	0.139	-0.021
-542.252	-68.329	0.087	-0.034
-541.237	-56.064	0.318	-0.141
-540.223	-70.244	0.129	0.049
-539.208	169.703	0.038	-0.054
-538.193	-57.520	-0.182	-0.080
-537.179	-200.000	0.022	0.162
-536.164	-14.412	-0.107	0.069
-535.150	-200.000	-0.004	-0.070
-534.135	800.000	0.091	0.263
-533.121	229.017	-0.068	0.111
-532.106	382.332	0.253	0.517
-531.091	-79.543	-0.380	0.128
-530.077	82.838	-0.262	-0.283
-529.062	324.750	-0.204	-0.387
-528.048	-200.000	0.006	0.238
-527.033	-200.000	0.001	0.305
-526.018	-61.654	0.450	0.188
-525.004	-183.117	-0.122	0.002
-523.989	-200.000	-0.006	0.050
-522.975	-65.391	-0.164	-0.066
-521.960	260.209	0.233	-0.401
-520.945	-65.343	-0.149	-0.060
-519.931	-48.413	-0.137	-0.066
-518.916	800.000	0.057	-0.172
-517.902	-142.527	0.243	-0.024
-516.887	-175.140	0.438	-0.012
-515.872	-200.000	-0.011	0.307
-514.858	8.370	-0.075	0.056
-513.843	249.149	0.082	0.138
-512.829	-100.674	-0.340	-0.083
-511.814	110.663	-0.139	0.166
-510.799	-200.000	-0.000	-0.139
-509.785	174.932	0.100	-0.144
-508.770	-168.650	0.281	0.011
-507.756	-191.591	0.121	-0.001
-506.741	-133.774	-0.432	-0.053
-505.726	630.327	0.032	-0.079
-504.712	183.001	0.099	-0.146
-503.697	591.677	-0.011	0.028
-502.683	-124.191	0.125	-0.019
-501.668	-200.000	-0.055	-0.487
-500.653	-113.590	0.226	-0.044
-499.639	-52.671	0.310	0.142
-498.624	-99.255	-0.257	-0.065
-497.610	341.489	-0.144	0.279
-496.595	-200.000	0.024	0.114
-495.581	-172.234	-0.387	-0.012
-494.566	112.155	-0.113	-0.136
-493.551	800.000	-0.043	-0.122
-492.537	-112.064	0.144	-0.029
-491.522	800.000	0.046	0.169
-490.508	47.635	-0.172	0.159
-489.493	29.205	0.107	-0.090
-488.478	-61.211	0.203	0.085
-487.464	-200.000	0.022	0.100
-486.449	-200.000	0.014	0.213
-485.435	198.917	0.102	-0.155
-484.420	10.599	0.303	0.229
-483.405	-81.775	-0.388	-0.126
-482.391	-93.767	0.264	0.072
-481.376	-113.512	0.301	-0.058
-480.362	-135.963	0.167	0.020
-479.347	181.721	-0.042	0.061
-478.332	45.734	-0.198	0.182
-477.318	-128.249	0.089	-0.013
-476.303	-107.144	0.267	0.058
-475.289	-200.000	-0.041	-0.441
-474.274	-117.791	-0.022	-0.004
-473.259	-62.097	-0.199	0.083
-472.245	-92.461	0.150	-0.042
-471.230	-85.169	0.238	-0.074
-470.216	78.388	0.037	-0.039
-469.201	800.000	0.023	-0.071
-468.186	-109.412	0.234	-0.049
-467.172	-200.000	-0.016	-0.112
-466.157	280.628	0.091	0.162
-465.143	-28.081	-0.351	0.202
-464.128	173.640	-0.177	0.253
-463.113	311.643	-0.135	0.251
-462.099	800.000	-0.114	-0.366
-461.084	-200.000	0.043	0.210
-460.070	341.244	0.146	0.283
-459.055	-90.923	0.160	-0.046
-458.040	79.552	-0.088	0.093
-457.026	-49.130	-0.069	-0.033
-456.011	-26.089	0.471	0.275
-454.997	569.058	0.063	-0.153
-453.982	575.726	-0.072	-0.173
-452.968	22.144	0.199	0.161
-451.953	-129.799	-0.343	-0.047
-450.938	-200.000	0.027	0.135
-449.924	114.995	0.171	-0.207
-448.909	21.902	-0.173	-0.140
-447.895	-4.560	0.245	0.168
-446.880	37.086	0.114	-0.100
-445.865	-200.000	0.004	-0.351
-444.851	19.075	-0.118	-0.094
-443.836	-200.000	-0.051	0.250
-442.822	-200.000	-0.061	-0.271
-441.807	5.278	0.093	0.068
-440.792	103.061	0.194	0.225
-439.778	-25.781	-0.299	-0.174
-438.763	193.731	0.111	-0.166
-437.749	-200.000	0.008	-0.042
-436.734	-200.000	0.044	0.000
-435.719	184.303	-0.113	0.166
-434.705	53.815	0.247	0.235
-433.690	-59.122	-0.179	-0.077
-432.676	-200.000	-0.003	0.153
-431.661	36.338	0.094	-0.082
-430.646	110.976	-0.224	-0.268
-429.632	-78.292	-0.146	0.050
-428.617	-200.000	-0.019	0.159
-427.603	-200.000	0.008	-0.085
-426.588	62.793	0.182	0.181
-425.573	66.465	-0.256	0.258
-424.559	-42.623	0.101	0.051
-423.544	15.558	-0.140	0.109
-422.530	-114.231	-0.201	-0.038
-421.515	-125.871	-0.066	0.010
-420.500	800.000	-0.046	0.132
-419.486	-86.887	0.219	0.066
-418.471	-200.000	0.014	-0.382
-417.457	800.000	-0.042	0.134
-416.442	-200.000	-0.035	-0.378
-415.428	82.044	-0.073	-0.078
-414.413	-2.132	-0.039	-0.027
-413.398	249.920	0.038	0.064
-412.384	38.732	-0.209	0.184
-411.369	205.712	0.163	0.251
-410.355	-200.000	0.062	0.452
-409.340	534.487	-0.126	-0.297
-408.325	-200.000	-0.027	0.129
-407.311	-40.636	-0.130	-0.067
-406.296	-19.185	0.169	-0.104
-405.282	144.324	0.195	-0.258
-404.267	-200.000	0.015	0.217
-403.252	331.868	0.039	-0.075
-402.238	-28.939	-0.080	-0.046
-401.223	64.587	0.076	0.076
-400.209	-18.899	-0.271	-0.167
-399.194	144.611	-0.022	0.029
-398.179	-13.707	-0.111	0.071
-397.165	155.563	-0.084	0.114
-396.150	-90.074	-0.214	0.062
-395.136	-137.739	-0.074	-0.008
-394.121	-134.131	0.227	-0.028
-393.106	-93.676	0.155	0.042
-392.092	-200.000	0.063	-0.307
-391.077	-200.000	-0.022	0.138
-390.063	-127.996	-0.212	-0.030
-389.048	-26.829	-0.268	-0.155
-388.033	261.630	-0.077	-0.132
-387.019	138.351	0.043	-0.056
-386.004	-33.815	0.111	-0.060
-384.990	-200.000	0.022	-0.161
-383.975	-26.852	0.089	-0.051
-382.960	-120.537	0.540	0.091
-381.946	20.985	-0.217	0.174
-380.931	789.746	0.101	-0.274
-379.917	-200.000	0.001	-0.045
-378.902	-103.140	-0.279	-0.065
-377.888	800.000	-0.066	0.195
-376.873	315.831	-0.087	0.161
-375.858	-69.941	0.278	0.105
-374.844	-200.000	0.017	-0.257
-373.829	-101.293	0.075	-0.018
-372.815	48.485	0.036	0.034
-371.800	40.331	-0.159	-0.141
-370.785	-125.058	-0.160	-0.024
-369.771	-117.055	0.206	0.037
-368.756	-200.000	0.044	0.388
-367.742	-99.321	-0.224	-0.056
-366.727	-40.573	-0.171	0.088
-365.712	-113.278	-0.140	0.027
-364.698	203.198	-0.163	-0.249
-363.683	253.818	0.097	0.164
-362.669	-200.000	0.027	-0.227
-361.654	-13.478	-0.266	-0.170
-360.639	-90.319	0.148	0.042
-359.625	-152.250	0.449	-0.032
-358.610	-46.604	0.179	-0.087
-357.596	53.174	-0.272	0.257
-356.581	-200.000	0.068	-0.510
-355.566	-52.832	-0.157	-0.072
-354.552	320.751	0.255	0.478
-353.537	-174.388	0.204	-0.006
-352.523	391.701	-0.081	-0.167
-351.508	30.408	-0.081	0.069
-350.493	-97.820	-0.122	0.031
-349.479	-130.824	-0.161	0.021
-348.464	-120.116	-0.183	0.031
-347.450	-158.776	0.132	-0.007
-346.435	-200.000	-0.009	-0.092
-345.420	800.000	-0.022	-0.061
-344.406	-24.384	0.227	0.134
-343.391	800.000	0.036	-0.137
-342.377	-62.871	-0.202	0.083
-341.362	-185.728	0.559	0.008
-340.348	-115.961	-0.176	-0.032
-339.333	530.936	-0.066	-0.155
-338.318	459.305	-0.111	-0.244
-337.304	137.785	0.196	-0.253
-336.289	29.482	-0.245	0.205
-335.275	25.529	-0.345	-0.284
-334.260	519.192	0.068	-0.157
-333.245	-52.053	0.277	0.127
-332.231	-9.190	-0.063	-0.041
-331.216	-129.692	-0.090	0.012
-330.202	-107.030	-0.087	-0.019
-329.187	198.450	0.098	0.148
-328.172	65.693	0.074	0.073
-327.158	35.267	0.207	-0.179
-326.143	-141.903	-0.147	-0.014
-325.129	800.000	-0.059	-0.162
-324.114	299.111	-0.066	0.119
-323.099	-200.000	0.077	0.407
-322.085	-200.000	0.006	0.269
-321.070	-200.000	0.008	-0.045
-320.056	-140.090	-0.324	0.034
-319.041	-106.234	0.224	0.050
-318.026	6.426	-0.202	0.148
-317.012	-121.270	0.300	-0.049
-315.997	-120.293	-0.235	0.040
-314.983	-65.471	-0.088	0.035
-313.968	-132.756	-0.277	-0.035
-312.953	-108.784	-0.158	0.033
-311.939	262.126	-0.118	-0.203
-310.924	-200.000	0.031	-0.237
-309.910	49.043	0.266	0.246
-308.895	453.235	-0.041	-0.090
-307.880	415.190	-0.061	0.128
-306.866	123.986	-0.089	-0.111
-305.851	-158.443	0.126	0.007
-304.837	217.402	0.123	-0.193
-303.822	292.665	0.078	0.140
-302.807	71.045	0.156	0.160
-301.793	800.000	-0.045	0.175
-300.778	403.901	0.017	-0.034
-299.764	-154.241	0.369	-0.025
-298.749	166.754	-0.076	-0.106
-297.735	800.000	0.099	-0.403
-296.720	800.000	0.084	0.249
-295.705	-189.322	0.313	-0.004
-294.691	-90.599	-0.093	0.026
-293.676	272.232	-0.029	-0.051
-292.662	5.334	0.180	0.131
-291.647	-138.075	-0.289	-0.032
-290.632	-53.481	-0.194	-0.088
-289.618	-22.069	-0.046	0.028
-288.603	-51.908	0.184	-0.085
-287.589	800.000	0.078	-0.314
-286.574	-75.013	-0.077	0.027
-285.559	-100.371	-0.056	-0.014
-284.545	-71.242	0.075	0.028
-283.530	-51.725	0.068	-0.031
-282.516	-63.562	-0.520	-0.210
-281.501	-166.019	0.182	-0.008
-280.486	800.000	-0.062	-0.225
-279.472	-40.239	-0.073	-0.038
-278.457	226.380	0.222	0.355
-277.443	118.229	-0.225	0.274
-276.428	337.971	0.162	0.311
-275.413	-83.033	-0.114	-0.036
-274.399	182.427	0.051	0.073
-273.384	-183.465	0.108	-0.002
-272.370	-24.330	-0.248	0.146
-271.355	800.000	0.011	0.037
-270.340	161.718	-0.129	0.178
-269.326	78.437	-0.160	-0.168
-268.311	104.023	0.128	-0.148
-267.297	425.302	0.086	-0.181
-266.282	-200.000	0.017	-0.132
-265.267	-63.309	0.320	-0.130
-264.253	150.247	-0.201	-0.269
-263.238	-67.573	-0.119	-0.046
-262.224	33.579	0.165	0.141
-261.209	800.000	-0.027	-0.078
-260.195	-58.634	-0.231	-0.098
-259.180	-200.000	0.026	-0.225
-258.165	800.000	0.067	-0.209
-257.151	-95.961	-0.188	-0.049
-256.136	-200.000	0.037	-0.172
-255.122	-78.597	0.171	0.057
-254.107	372.827	0.196	0.393
-253.092	-136.752	-0.324	0.037
-252.078	-200.000	0.020	0.090
-251.063	346.455	0.114	0.222
-250.049	-3.423	-0.227	-0.156
-249.034	-104.304	0.100	-0.023
-248.019	49.603	-0.188	0.175
-247.005	-200.000	0.021	-0.091
-245.990	-200.000	0.053	0.237
-244.976	-200.000	0.001	0.118
-243.961	-200.000	-0.005	-0.165
-242.946	-200.000	0.029	-0.127
-241.932	-200.000	-0.007	0.119
-240.917	15.161	-0.348	-0.268
-239.903	-60.546	0.296	-0.124
-238.888	-169.771	0.015	0.001
-237.873	-27.202	-0.086	0.049
-236.859	-112.304	-0.058	0.011
-235.844	17.723	-0.268	0.210
-234.830	-174.284	0.060	-0.002
-233.815	69.412	-0.207	-0.209
-232.800	800.000	0.042	-0.135
-231.786	-41.463	-0.156	0.079
-230.771	-3.257	0.220	0.151
-229.757	271.986	-0.142	0.246
-228.742	132.039	-0.281	0.355
-227.727	-172.795	0.285	0.009
-226.713	16.286	0.118	0.091
-225.698	106.652	-0.110	0.129
-224.684	-200.000	-0.084	0.435
-223.669	116.347	-0.085	0.102
-222.655	-129.127	0.123	0.017
-221.640	-104.123	0.193	-0.044
-220.625	39.427	-0.252	-0.221
-219.611	72.183	-0.196	-0.201
-218.596	-58.547	0.041	0.017
-217.582	109.883	0.199	0.235
-216.567	800.000	0.043	0.171
-215.552	-125.818	-0.318	-0.047
-214.538	95.484	-0.275	-0.308
-213.523	47.721	-0.288	0.264
-212.509	12.592	0.214	0.162
-211.494	25.333	0.026	-0.021
-210.479	-51.432	-0.126	-0.058
-209.465	599.562	0.184	-0.450
-208.450	-21.290	0.112	-0.067
-207.436	-97.300	-0.276	-0.071
-206.421	-130.220	0.131	0.018
-205.406	-20.219	-0.099	-0.060
-204.392	-185.736	0.266	-0.004
-203.377	-75.587	0.127	-0.044
-202.363	-200.000	-0.019	0.085
-201.348	-171.894	-0.398	0.013
-200.333	800.000	-0.069	0.243
-199.319	7.002	-0.136	-0.100
-198.304	14.248	0.268	0.205
-197.290	153.741	0.264	-0.355
-196.275	800.000	-0.056	-0.231
-195.260	-103.346	-0.001	0.000
-194.246	127.329	-0.096	-0.119
-193.231	-137.543	0.242	-0.027
-192.217	-34.181	0.065	0.035
-191.202	93.079	0.111	0.123
-190.187	601.296	0.081	0.197
-189.173	800.000	-0.076	0.225
-188.158	-71.268	0.082	-0.030
-187.144	68.983	-0.191	-0.193
-186.129	-152.648	-0.156	0.011
-185.114	27.072	0.130	-0.107
-184.100	30.524	0.110	-0.092
-183.085	-200.000	0.028	0.297
-182.071	-161.709	0.005	0.000
-181.056	21.757	0.268	-0.214
-180.042	-135.911	0.306	0.035
-179.027	-94.361	0.049	-0.013
-178.012	-22.158	0.250	0.149
-176.998	-76.272	-0.329	0.114
-175.983	-55.695	-0.107	-0.047
-174.969	-189.441	-0.040	-0.000
-173.954	-16.273	0.075	0.047
-172.939	800.000	0.031	-0.128
-171.925	101.436	0.209	-0.238
-170.910	-200.000	0.024	0.360
-169.896	-31.190	-0.261	0.144
-168.881	-200.000	0.002	-0.257
-167.866	230.455	0.079	-0.127
-166.852	194.287	0.042	0.063
-165.837	346.183	0.120	0.231
-164.823	-1.112	0.192	0.133
-163.808	-103.970	0.094	-0.021
-162.793	57.883	0.151	0.144
-161.779	-167.865	0.333	0.013
-160.764	-170.934	0.137	0.005
-159.750	-149.675	-0.326	0.025
-158.735	41.465	-0.089	0.079
-157.720	-42.600	-0.045	-0.022
-156.706	-77.520	-0.108	0.037
-155.691	-44.538	0.201	-0.099
-154.677	-30.080	-0.286	0.160
-153.662	108.253	0.175	0.205
-152.647	768.929	0.135	0.360
-151.633	-53.486	0.266	0.119
-150.618	395.541	0.090	0.185
-149.604	218.545	0.089	-0.139
-148.589	-200.000	0.044	0.286
-147.574	-200.000	0.018	-0.131
-146.560	-200.000	-0.009	0.284
-145.545	29.769	-0.105	-0.087
-144.531	800.000	0.108	0.328
-143.516	-161.173	0.472	-0.024
-142.502	-30.532	-0.463	0.257
-141.487	-44.755	0.144	0.070
-140.472	171.097	0.101	0.142
-139.458	-200.000	0.017	0.208
-138.443	77.272	0.192	0.200
-137.429	800.000	0.046	-0.196
-136.414	103.465	0.069	-0.079
-135.399	260.283	0.072	0.122
-134.385	-94.472	-0.279	-0.075
-133.370	128.342	-0.036	0.044
-132.356	322.296	-0.089	-0.167
-131.341	-171.978	0.212	0.007
-130.326	-200.000	0.016	0.220
-129.312	-200.000	-0.043	0.290
-128.297	603.600	-0.045	-0.110
-127.283	35.670	-0.081	0.069
-126.268	-200.000	0.090	0.457
-125.253	-116.515	-0.289	-0.052
-124.239	800.000	0.126	-0.347
-123.224	20.168	-0.076	0.060
-122.210	-108.428	-0.234	0.049
