DTS Sentinel unit serial number:	SN413079Multiplexer serial number:	ORYXHardware model number:	OX4-SRSoftware version number:	ORYX F/W v4.00 Oryx Data Collector v3.7.2.0data status	okinstallation	princeton_trtdifferential loss correction	single-endedforward channel	channel 2reverse channel	N/Adate	2019/09/11time	12:37:11forward acquisition time	60.00reverse acquisition time	0.00gamma	496.2192k internal	0.2296k external	0.2296temperature offset calibration	0.9963default loss term (dB/km)	0.3790temperature slope calibration	1.0000multiplexer offset coefficient	1.0000multiplexer slope coefficient	1.0000fibre end	0.00T internal ref (°C)	40.75T ext. ref 1 (°C)	0.21T ext. ref 2 (°C)	38.29length (m)	temperature (°C)	Stokes	anti-Stokes-747.200	89.481	-0.140	0.160
-746.185	199.379	0.173	0.271
-745.171	-106.226	-0.246	-0.056
-744.156	800.000	-0.017	-0.065
-743.142	-200.000	-0.038	0.340
-742.127	-181.278	-0.226	0.005
-741.112	-200.000	0.026	0.187
-740.098	-10.247	-0.188	0.128
-739.083	27.134	-0.093	-0.080
-738.069	31.518	-0.291	0.255
-737.054	-200.000	0.004	0.113
-736.039	-200.000	0.018	0.122
-735.025	49.375	0.104	-0.100
-734.010	-200.000	0.043	0.329
-732.996	-89.196	-0.230	0.069
-731.981	42.891	-0.226	-0.210
-730.966	-200.000	-0.011	0.296
-729.952	-123.471	0.552	-0.090
-728.937	-0.177	0.063	0.046
-727.923	-184.684	-0.269	0.004
-726.908	-200.000	-0.043	-0.213
-725.894	446.051	-0.085	0.190
-724.879	679.009	-0.051	-0.136
-723.864	800.000	0.053	-0.202
-722.850	-86.214	-0.204	0.064
-721.835	-70.383	0.222	-0.086
-720.821	-200.000	0.025	-0.216
-719.806	192.723	0.012	0.019
-718.791	-0.035	0.088	0.064
-717.777	-55.638	0.233	0.106
-716.762	-200.000	0.002	0.144
-715.748	-200.000	0.029	-0.322
-714.733	-97.669	-0.229	-0.060
-713.718	202.597	-0.129	-0.203
-712.704	-59.683	-0.135	0.059
-711.689	230.158	-0.177	-0.295
-710.675	-6.857	-0.242	-0.168
-709.660	-38.428	0.335	-0.181
-708.645	-50.494	0.068	-0.033
-707.631	92.674	0.396	-0.456
-706.616	420.782	0.093	-0.202
-705.602	-161.186	-0.066	0.004
-704.587	-134.299	0.444	-0.056
-703.572	-130.345	-0.626	0.087
-702.558	633.998	-0.159	-0.411
-701.543	-27.713	-0.332	-0.196
-700.529	149.275	0.112	-0.155
-699.514	-73.046	0.269	-0.101
-698.499	-142.642	0.242	-0.024
-697.485	-124.329	-0.078	-0.012
-696.470	-102.134	0.155	0.038
-695.456	-101.067	-0.295	0.074
-694.441	-200.000	0.024	0.197
-693.426	800.000	-0.008	0.031
-692.412	800.000	-0.055	-0.165
-691.397	-115.108	-0.081	0.016
-690.383	-123.558	0.352	-0.057
-689.368	-55.780	0.148	0.067
-688.354	-200.000	0.025	-0.175
-687.339	-87.182	0.281	-0.087
-686.324	-58.913	0.228	0.101
-685.310	800.000	0.053	0.166
-684.295	-43.172	0.146	-0.075
-683.281	400.716	-0.139	-0.297
-682.266	184.817	-0.108	-0.164
-681.251	800.000	-0.032	0.091
-680.237	-200.000	0.035	-0.455
-679.222	39.957	-0.225	-0.206
-678.208	-119.737	0.219	0.038
-677.193	-124.556	-0.255	-0.040
-676.178	76.297	-0.174	0.187
-675.164	-9.475	0.153	0.104
-674.149	791.075	0.022	0.062
-673.135	-200.000	-0.020	-0.342
-672.120	29.181	-0.095	-0.082
-671.105	800.000	0.074	-0.213
-670.091	4.378	0.026	-0.020
-669.076	160.953	0.135	0.192
-668.062	-8.514	-0.077	-0.053
-667.047	-200.000	-0.036	-0.200
-666.032	-200.000	0.000	0.027
-665.018	-39.431	0.350	0.187
-664.003	-116.416	-0.217	-0.041
-662.989	-200.000	0.034	0.214
-661.974	-200.000	0.112	0.000
-660.959	-200.000	-0.034	0.163
-659.945	800.000	0.036	-0.139
-658.930	140.832	0.053	-0.071
-657.916	-82.896	0.259	0.085
-656.901	101.908	0.241	-0.286
-655.886	800.000	0.061	0.206
-654.872	29.625	-0.088	-0.076
-653.857	45.412	0.171	-0.160
-652.843	-89.439	-0.052	0.016
-651.828	16.595	0.136	-0.110
-650.814	-83.981	-0.162	0.052
-649.799	800.000	0.045	0.130
-648.784	800.000	0.073	-0.228
-647.770	-169.146	-0.135	-0.005
-646.755	690.525	0.159	-0.423
-645.741	-70.481	0.071	-0.027
-644.726	110.921	-0.179	0.220
-643.711	-200.000	0.077	-0.349
-642.697	-200.000	-0.022	-0.245
-641.682	-30.821	0.243	-0.140
-640.668	-74.430	0.273	0.100
-639.653	59.412	0.251	-0.252
-638.638	438.015	-0.087	0.193
-637.624	32.095	-0.021	-0.018
-636.609	800.000	0.088	-0.309
-635.595	6.583	-0.215	0.163
-634.580	-200.000	-0.013	0.291
-633.565	222.523	0.072	-0.118
-632.551	61.532	0.064	-0.064
-631.536	-132.219	-0.351	0.046
-630.522	350.997	0.155	-0.312
-629.507	-63.459	0.237	0.099
-628.492	215.673	0.063	0.102
-627.478	41.075	0.045	-0.041
-626.463	440.638	-0.012	-0.026
-625.449	-84.995	-0.032	0.010
-624.434	-15.235	0.379	0.247
-623.419	800.000	0.033	-0.132
-622.405	120.223	0.113	0.143
-621.390	-85.600	0.245	-0.078
-620.376	-166.982	-0.299	0.012
-619.361	800.000	0.046	-0.148
-618.346	800.000	-0.066	-0.287
-617.332	-42.201	-0.224	0.117
-616.317	-85.722	0.380	-0.120
-615.303	124.600	-0.173	0.221
-614.288	-9.824	-0.070	-0.048
-613.273	-90.284	0.205	-0.060
-612.259	-200.000	0.007	-0.101
-611.244	-200.000	-0.001	0.038
-610.230	800.000	-0.036	-0.103
-609.215	178.788	-0.189	-0.280
-608.201	44.424	-0.119	-0.111
-607.186	-21.778	-0.446	-0.276
-606.171	-170.676	-0.240	0.008
-605.157	52.220	-0.168	-0.163
-604.142	-71.963	0.305	-0.115
-603.128	229.607	0.097	0.161
-602.113	-114.521	0.132	0.026
-601.098	-58.414	-0.395	-0.175
-600.084	800.000	0.161	0.574
-599.069	150.729	0.122	0.168
-598.055	-200.000	0.011	-0.137
-597.040	-47.180	-0.136	-0.068
-596.025	394.120	-0.032	-0.067
-595.011	152.474	0.163	0.227
-593.996	-200.000	0.023	0.209
-592.982	114.454	-0.135	0.167
-591.967	-151.750	0.289	-0.022
-590.952	344.856	0.128	0.255
-589.938	-200.000	0.022	0.139
-588.923	481.267	-0.100	-0.231
-587.909	-134.659	0.235	0.029
-586.894	86.141	0.169	-0.189
-585.879	800.000	-0.014	0.060
-584.865	-200.000	0.037	0.262
-583.850	-72.152	-0.135	0.051
-582.836	455.517	-0.086	0.194
-581.821	-1.899	0.231	0.165
-580.806	-125.279	0.307	-0.048
-579.792	-82.201	-0.127	0.042
-578.777	-34.689	-0.213	0.118
-577.763	-188.210	-0.187	-0.002
-576.748	27.559	-0.176	0.150
-575.733	-64.863	-0.082	0.033
-574.719	-8.160	-0.277	0.190
-573.704	-200.000	0.017	0.097
-572.690	800.000	-0.030	-0.103
-571.675	-200.000	-0.042	-0.287
-570.661	170.766	-0.112	-0.163
-569.646	-145.753	-0.188	0.017
-568.631	-88.679	-0.109	-0.033
-567.617	234.526	0.040	-0.067
-566.602	-111.697	0.112	-0.023
-565.588	491.851	0.084	-0.196
-564.573	726.859	-0.092	-0.248
-563.558	68.354	-0.212	-0.221
-562.544	10.363	-0.178	0.137
-561.529	369.238	-0.170	-0.350
-560.515	-200.000	0.032	0.296
-559.500	-200.000	-0.021	0.107
-558.485	-200.000	-0.008	-0.145
-557.471	-183.391	-0.284	0.005
-556.456	112.571	-0.024	0.029
-555.442	142.657	0.186	-0.250
-554.427	-127.361	0.246	0.036
-553.412	-88.466	0.041	-0.012
-552.398	-138.129	0.312	-0.035
-551.383	8.825	-0.214	-0.164
-550.369	197.548	-0.010	-0.015
-549.354	-86.346	0.158	-0.049
-548.339	-168.681	-0.106	0.004
-547.325	-122.031	0.130	0.022
-546.310	-117.621	0.227	-0.041
-545.296	673.964	-0.094	0.248
-544.281	-182.886	-0.289	-0.005
-543.266	800.000	-0.024	0.085
-542.252	-200.000	0.020	-0.158
-541.237	15.958	0.030	0.024
-540.223	-200.000	0.015	-0.257
-539.208	204.045	-0.190	-0.299
-538.193	-200.000	-0.019	-0.202
-537.179	-159.167	0.336	-0.019
-536.164	276.196	-0.183	-0.330
-535.150	176.018	0.059	-0.086
-534.135	91.778	0.048	0.055
-533.121	-200.000	-0.000	-0.090
-532.106	800.000	0.141	-0.512
-531.091	-200.000	-0.011	-0.139
-530.077	-151.565	0.054	0.004
-529.062	-35.129	-0.285	0.158
-528.048	-128.346	-0.462	-0.067
-527.033	-74.257	-0.108	-0.040
-526.018	169.327	-0.155	-0.224
-525.004	-110.154	0.051	0.011
-523.989	-200.000	0.004	0.106
-522.975	-86.201	0.229	0.071
-521.960	-56.157	-0.142	-0.064
-520.945	-99.680	0.203	-0.052
-519.931	-147.616	0.165	-0.014
-518.916	12.277	0.111	0.086
-517.902	46.979	-0.227	0.214
-516.887	74.375	-0.037	0.039
-515.872	800.000	-0.158	0.456
-514.858	-200.000	-0.149	0.663
-513.843	1.663	-0.195	-0.142
-512.829	-109.579	0.241	-0.052
-511.814	12.384	-0.069	0.054
-510.799	800.000	0.039	-0.131
-509.785	723.284	-0.072	0.195
-508.770	166.153	-0.020	-0.029
-507.756	107.110	0.075	-0.090
-506.741	-99.912	0.386	-0.098
-505.726	522.098	-0.095	0.226
-504.712	-126.831	0.098	-0.015
-503.697	-85.855	0.305	-0.096
-502.683	-75.824	0.088	0.032
-501.668	-200.000	0.023	-0.229
-500.653	53.596	-0.095	-0.092
-499.639	545.116	-0.227	0.548
-498.624	247.224	0.127	0.217
-497.610	39.542	0.195	-0.177
-496.595	67.800	-0.099	0.103
-495.581	-71.864	-0.238	0.090
-494.566	8.849	-0.280	0.214
-493.551	71.334	0.165	0.174
-492.537	87.394	-0.098	-0.109
-491.522	-200.000	0.031	-0.269
-490.508	4.637	-0.068	-0.051
-489.493	-185.076	-0.305	0.005
-488.478	-140.817	0.165	-0.017
-487.464	-200.000	-0.009	0.081
-486.449	-125.153	0.188	0.029
-485.435	-61.204	-0.114	0.048
-484.420	-139.147	-0.083	-0.009
-483.405	-144.033	-0.316	-0.030
-482.391	-200.000	-0.011	0.124
-481.376	-69.878	-0.267	-0.103
-480.362	-36.181	-0.098	0.054
-479.347	-106.357	-0.331	-0.075
-478.332	800.000	0.125	0.372
-477.318	800.000	0.027	0.119
-476.303	113.332	-0.074	-0.090
-475.289	16.204	0.061	0.049
-474.274	-200.000	-0.048	-0.298
-473.259	-200.000	0.007	-0.064
-472.245	12.626	0.307	0.239
-471.230	-65.930	0.359	0.145
-470.216	-200.000	-0.003	-0.048
-469.201	166.984	-0.227	-0.326
-468.186	28.844	0.302	-0.259
-467.172	-43.692	-0.168	0.085
-466.157	420.951	0.045	-0.098
-465.143	60.999	-0.342	-0.343
-464.128	-55.108	-0.189	0.086
-463.113	-200.000	0.035	0.198
-462.099	175.583	-0.047	-0.068
-461.084	425.937	-0.073	-0.158
-460.070	-12.263	-0.237	0.157
-459.055	-200.000	-0.054	0.407
-458.040	-122.177	0.054	0.009
-457.026	703.057	-0.090	0.240
-456.011	209.529	-0.076	0.120
-454.997	-104.275	0.048	-0.011
-453.982	-102.577	-0.170	-0.041
-452.968	-200.000	-0.010	-0.355
-451.953	90.187	0.242	0.273
-450.938	-141.515	-0.166	-0.017
-449.924	30.714	0.232	0.201
-448.909	101.149	-0.088	-0.103
-447.895	-86.575	-0.258	0.080
-446.880	-109.156	-0.098	0.021
-445.865	-30.277	0.426	0.244
-444.851	-200.000	-0.096	-0.427
-443.836	-200.000	-0.007	0.134
-442.822	-200.000	0.012	0.082
-441.807	489.940	0.069	-0.160
-440.792	295.433	0.263	-0.487
-439.778	800.000	-0.011	-0.032
-438.763	30.365	-0.106	0.091
-437.749	129.601	-0.062	0.080
-436.734	-200.000	-0.015	-0.072
-435.719	110.490	-0.015	0.019
-434.705	-200.000	-0.012	0.065
-433.690	447.991	0.066	0.147
-432.676	-17.619	0.140	0.089
-431.661	800.000	-0.025	-0.093
-430.646	1.284	-0.179	0.130
-429.632	-200.000	-0.008	-0.255
-428.617	217.953	-0.010	-0.016
-427.603	131.948	-0.180	-0.234
-426.588	28.348	0.233	-0.199
-425.573	345.250	0.025	-0.049
-424.559	233.999	0.218	-0.363
-423.544	800.000	0.080	0.247
-422.530	-109.542	0.168	-0.036
-421.515	-132.834	0.430	-0.055
-420.500	-55.765	0.139	0.063
-419.486	-200.000	0.084	-0.402
-418.471	73.991	0.108	-0.114
-417.457	-106.634	0.087	-0.020
-416.442	-200.000	0.045	-0.209
-415.428	8.003	-0.333	0.252
-414.413	241.607	0.080	-0.135
-413.398	-200.000	0.002	-0.240
-412.384	-57.132	-0.222	-0.099
-411.369	90.767	-0.121	0.137
-410.355	80.433	-0.212	0.230
-409.340	-97.962	0.268	-0.070
-408.325	196.036	-0.180	-0.277
-407.311	786.374	-0.047	0.131
-406.296	128.027	0.206	0.264
-405.282	49.131	-0.142	-0.135
-404.267	-86.492	0.376	-0.116
-403.252	-200.000	0.011	0.095
-402.238	-200.000	0.068	0.393
-401.223	-136.515	0.131	-0.015
-400.209	199.710	-0.184	-0.285
-399.194	-19.972	0.006	0.004
-398.179	252.834	0.063	0.109
-397.165	581.797	0.056	0.137
-396.150	157.354	-0.101	0.141
-395.136	-126.903	-0.214	-0.032
-394.121	-123.947	0.323	0.051
-393.106	-164.063	-0.234	0.011
-392.092	-65.265	0.120	0.049
-391.077	88.280	-0.289	0.323
-390.063	-17.441	-0.237	0.150
-389.048	-82.318	0.311	0.102
-388.033	34.567	-0.140	-0.123
-387.019	-108.908	-0.235	0.051
-386.004	241.523	-0.117	-0.197
-384.990	-52.381	-0.040	0.019
-383.975	112.194	-0.013	-0.016
-382.960	80.958	0.065	-0.071
-381.946	-43.991	-0.108	-0.055
-380.931	58.810	-0.299	-0.296
-379.917	-200.000	-0.012	0.117
-378.902	800.000	-0.012	0.035
-377.888	-53.517	0.382	0.176
-376.873	19.998	-0.266	-0.216
-375.858	370.475	0.146	-0.298
-374.844	-71.121	-0.090	0.034
-373.829	-95.343	0.225	0.061
-372.815	27.257	0.163	0.138
-371.800	-200.000	0.024	-0.148
-370.785	-93.758	-0.105	-0.029
-369.771	53.205	0.061	-0.059
-368.756	0.573	0.160	-0.115
-367.742	-22.130	0.128	0.078
-366.727	-200.000	-0.001	-0.025
-365.712	3.067	0.142	-0.104
-364.698	-114.288	0.294	-0.057
-363.683	112.082	-0.212	0.257
-362.669	-81.054	-0.429	-0.143
-361.654	-106.349	0.230	0.052
-360.639	370.888	-0.144	-0.295
-359.625	800.000	-0.071	-0.227
-358.610	-200.000	-0.040	0.273
-357.596	195.602	-0.226	0.345
-356.581	-50.505	0.025	-0.012
-355.566	484.411	0.129	0.296
-354.552	-200.000	-0.020	0.162
-353.537	-33.966	0.291	0.161
-352.523	74.998	0.084	-0.089
-351.508	-152.699	-0.123	0.009
-350.493	34.538	-0.310	-0.272
-349.479	-68.433	0.197	-0.077
-348.464	-200.000	0.025	0.413
-347.450	-84.189	-0.224	0.072
-346.435	-77.114	0.093	-0.033
-345.420	147.031	-0.119	0.161
-344.406	-36.161	0.265	0.144
-343.391	191.632	0.087	-0.132
-342.377	800.000	0.011	-0.033
-341.362	409.328	-0.082	-0.175
-340.348	-200.000	-0.009	-0.268
-339.333	-63.799	-0.148	-0.061
-338.318	188.932	-0.070	0.105
-337.304	-148.718	0.141	0.011
-336.289	118.245	0.076	0.095
-335.275	51.205	-0.111	0.106
-334.260	-200.000	-0.007	0.234
-333.245	393.023	-0.068	-0.141
-332.231	-80.470	0.251	0.084
-331.216	-133.684	-0.044	0.006
-330.202	79.659	-0.083	-0.090
-329.187	800.000	-0.091	-0.303
-328.172	488.820	-0.105	0.240
-327.158	30.128	0.233	0.200
-326.143	45.207	-0.309	0.287
-325.129	-200.000	0.030	0.150
-324.114	-89.710	0.154	-0.045
-323.099	-81.511	0.153	-0.051
-322.085	51.363	0.005	0.004
-321.070	-200.000	-0.005	0.133
-320.056	-2.813	0.123	0.087
-319.041	72.430	-0.152	0.160
-318.026	365.932	-0.089	0.180
-317.012	-39.937	0.284	0.149
-315.997	109.819	-0.252	0.304
-314.983	800.000	-0.018	-0.065
-313.968	-170.400	0.090	-0.003
-312.953	30.267	0.192	-0.165
-311.939	800.000	-0.109	-0.377
-310.924	800.000	0.044	-0.173
-309.910	87.804	-0.220	-0.245
-308.895	60.089	-0.171	0.169
-307.880	800.000	0.050	-0.188
-306.866	5.469	0.078	-0.058
-305.851	274.248	0.042	0.074
-304.837	256.573	-0.092	-0.158
-303.822	800.000	-0.039	0.152
-302.807	-92.453	-0.196	0.055
-301.793	-148.318	-0.100	0.008
-300.778	-178.445	0.378	-0.009
-299.764	-2.698	0.182	0.128
-298.749	22.030	-0.366	-0.300
-297.735	-109.383	0.084	0.018
-296.720	-136.868	0.399	0.046
-295.705	78.155	0.351	0.376
-294.691	120.544	-0.320	0.399
-293.676	-141.809	0.087	0.009
-292.662	492.904	0.040	-0.092
-291.647	85.920	-0.213	0.236
-290.632	-135.718	-0.264	-0.031
-289.618	-91.933	-0.543	-0.154
-288.603	-129.457	0.191	-0.027
-287.589	76.152	0.026	-0.028
-286.574	-63.676	0.417	0.172
-285.559	-61.524	-0.117	0.050
-284.545	-200.000	-0.005	0.181
-283.530	302.647	-0.146	-0.270
-282.516	56.844	0.043	0.042
-281.501	-89.730	0.200	0.059
-280.486	-200.000	-0.060	0.355
-279.472	-200.000	0.036	-0.381
-278.457	-149.493	-0.236	0.019
-277.443	800.000	0.067	0.240
-276.428	-88.351	-0.129	-0.039
-275.413	-10.194	0.070	0.047
-274.399	-124.642	0.089	-0.014
-273.384	-200.000	-0.573	-0.002
-272.370	171.203	0.099	-0.143
-271.355	-117.586	-0.372	-0.067
-270.340	220.830	0.151	-0.244
-269.326	-84.897	-0.214	-0.067
-268.311	-200.000	-0.004	-0.170
-267.297	-152.663	-0.343	-0.025
-266.282	-66.241	-0.049	0.020
-265.267	-200.000	-0.016	0.097
-264.253	-90.205	0.177	-0.052
-263.238	-123.105	-0.283	0.046
-262.224	275.009	-0.071	-0.125
-261.209	46.926	0.112	0.105
-260.195	462.527	0.070	0.157
-259.180	41.707	0.149	-0.135
-258.165	-200.000	0.002	0.013
-257.151	759.750	-0.065	0.177
-256.136	3.999	0.263	-0.193
-255.122	28.599	0.162	0.138
-254.107	-109.361	0.270	0.057
-253.092	-112.315	-0.334	-0.067
-252.078	-153.846	-0.250	-0.017
-251.063	-163.204	0.139	-0.007
-250.049	-200.000	-0.023	0.150
-249.034	-146.567	0.065	-0.006
-248.019	278.998	0.208	-0.371
-247.005	-200.000	-0.020	0.444
-245.990	14.890	0.131	-0.103
-244.976	800.000	0.037	-0.125
-243.961	496.965	0.016	-0.036
-242.946	462.589	0.052	-0.116
-241.932	16.342	0.129	0.102
-240.917	-116.918	0.168	-0.031
-239.903	800.000	-0.036	-0.150
-238.888	571.586	0.150	-0.366
-237.873	91.964	0.266	-0.300
-236.859	20.539	0.212	-0.171
-235.844	20.822	-0.186	0.151
-234.830	211.860	-0.078	-0.123
-233.815	19.439	0.100	0.080
-232.800	-55.566	-0.077	-0.034
-231.786	-200.000	-0.031	0.240
-230.771	-200.000	-0.003	-0.224
-229.757	9.126	0.356	0.269
-228.742	-42.185	0.109	-0.056
-227.727	800.000	0.086	-0.306
-226.713	-124.427	-0.443	0.069
-225.698	124.920	-0.105	-0.133
-224.684	-86.554	-0.127	0.039
-223.669	15.427	-0.069	0.054
-222.655	-200.000	-0.018	0.182
-221.640	386.724	-0.041	0.085
-220.625	-32.105	0.185	0.104
-219.611	-75.327	-0.359	0.128
-218.596	-95.112	0.035	-0.009
-217.582	144.710	-0.148	0.199
-216.567	-14.060	0.156	-0.101
-215.552	116.959	0.173	0.212
-214.538	-58.289	-0.120	0.052
-213.523	201.323	0.135	-0.207
-212.509	-126.392	-0.321	0.048
-211.494	177.290	-0.299	0.435
-210.479	15.404	0.010	0.008
-209.465	135.094	-0.023	-0.029
-208.450	296.411	0.196	-0.359
-207.436	119.078	-0.098	0.121
-206.421	-22.968	0.103	-0.062
-205.406	-200.000	0.014	0.239
-204.392	482.493	0.219	0.499
-203.377	-81.219	-0.120	0.040
-202.363	529.853	-0.007	-0.016
-201.348	-200.000	0.037	-0.397
-200.333	-200.000	0.014	0.252
-199.319	340.397	-0.096	0.188
-198.304	-200.000	0.007	-0.253
-197.290	800.000	-0.020	0.076
-196.275	-166.134	-0.113	-0.005
-195.260	-60.669	0.022	0.009
-194.246	31.932	-0.122	0.105
-193.231	-77.203	0.349	0.122
-192.217	240.684	0.180	-0.300
-191.202	-28.318	0.436	-0.252
-190.187	-120.321	-0.372	0.063
-189.173	800.000	-0.073	0.298
-188.158	-200.000	-0.010	0.234
-187.144	-23.048	-0.130	0.078
-186.129	61.185	0.306	-0.304
-185.114	-200.000	0.039	0.194
-184.100	-26.642	-0.076	-0.044
-183.085	-146.362	0.269	0.024
-182.071	800.000	0.058	0.208
-181.056	598.213	0.018	-0.045
-180.042	800.000	0.081	0.324
-179.027	291.118	0.157	0.286
-178.012	800.000	0.027	-0.116
-176.998	236.866	0.120	-0.199
-175.983	-90.451	-0.178	-0.052
-174.969	-200.000	-0.022	0.114
-173.954	-63.369	0.162	0.066
-172.939	4.047	-0.136	-0.100
-171.925	-162.750	-0.178	0.009
-170.910	-200.000	0.061	0.330
-169.896	-152.270	0.463	-0.033
-168.881	-200.000	0.023	-0.127
-167.866	568.342	0.071	-0.173
-166.852	-15.697	0.159	-0.101
-165.837	491.509	0.052	-0.118
-164.823	-200.000	0.009	0.138
-163.808	-88.111	0.150	0.045
-162.793	-67.405	-0.178	-0.070
-161.779	-90.455	-0.111	-0.032
-160.764	-200.000	0.023	0.151
-159.750	200.921	-0.165	-0.253
-158.735	-200.000	-0.017	0.431
-157.720	-74.480	-0.204	0.073
-156.706	-47.144	0.440	0.214
-155.691	800.000	0.105	-0.310
-154.677	-126.215	-0.097	0.014
-153.662	-29.828	-0.298	-0.170
-152.647	716.981	0.065	-0.173
-151.633	-117.510	0.491	0.089
-150.618	128.751	-0.152	0.193
-149.604	-200.000	0.025	0.126
-148.589	-129.139	-0.453	0.063
-147.574	356.204	0.086	-0.170
-146.560	800.000	0.074	0.234
-145.545	-101.694	0.126	0.031
-144.531	181.018	0.018	-0.027
-143.516	-12.383	-0.157	0.102
-142.502	242.617	-0.063	-0.105
-141.487	-200.000	-0.029	0.217
-140.472	-200.000	-0.099	0.446
-139.458	408.827	0.066	0.139
-138.443	0.901	0.142	0.101
-137.429	34.148	0.107	-0.093
-136.414	-200.000	-0.064	0.375
-135.399	-100.760	-0.190	-0.047
-134.385	481.639	0.100	-0.227
-133.370	800.000	-0.029	-0.107
-132.356	-200.000	0.004	0.028
-131.341	-200.000	-0.012	-0.058
-130.326	-86.386	0.138	-0.042
-129.312	-200.000	-0.016	-0.271
-128.297	288.460	0.236	0.426
-127.283	-200.000	0.001	-0.092
-126.268	488.628	0.022	-0.049
-125.253	-85.455	-0.370	-0.115
-124.239	526.192	0.055	0.130
-123.224	220.696	0.122	-0.196
-122.210	271.778	0.052	0.092
-121.195	-81.243	0.087	-0.029
