DTS Sentinel unit serial number:	SN413079Multiplexer serial number:	ORYXHardware model number:	OX4-SRSoftware version number:	ORYX F/W v4.00 Oryx Data Collector v3.7.2.0data status	okinstallation	princeton_trtdifferential loss correction	single-endedforward channel	channel 2reverse channel	N/Adate	2019/09/15time	04:07:35forward acquisition time	60.00reverse acquisition time	0.00gamma	496.2192k internal	0.2325k external	0.2325temperature offset calibration	1.0029default loss term (dB/km)	0.3790temperature slope calibration	1.0000multiplexer offset coefficient	1.0000multiplexer slope coefficient	1.0000fibre end	0.00T internal ref (°C)	30.94T ext. ref 1 (°C)	4.63T ext. ref 2 (°C)	25.84length (m)	temperature (°C)	Stokes	anti-Stokes-747.200	-138.434	-0.086	-0.010
-746.185	-0.172	-0.285	-0.205
-745.171	-200.000	-0.029	-0.290
-744.156	156.491	0.168	-0.233
-743.142	328.643	0.123	-0.238
-742.127	-200.000	0.018	0.120
-741.112	538.850	0.172	-0.412
-740.098	-200.000	-0.001	0.018
-739.083	228.370	-0.073	-0.121
-738.069	-115.282	0.163	0.031
-737.054	363.312	0.075	0.153
-736.039	-139.244	-0.168	0.018
-735.025	-3.146	0.241	-0.170
-734.010	513.546	-0.066	-0.155
-732.996	-195.704	-0.130	0.001
-731.981	18.665	-0.039	-0.031
-730.966	800.000	-0.024	-0.094
-729.952	567.428	-0.202	-0.494
-728.937	-158.344	0.212	-0.012
-727.923	31.355	-0.149	0.129
-726.908	313.488	-0.101	0.191
-725.894	76.289	0.035	0.037
-724.879	-200.000	0.008	0.189
-723.864	144.506	-0.120	0.162
-722.850	800.000	-0.033	-0.108
-721.835	-200.000	-0.002	-0.150
-720.821	26.306	-0.263	0.222
-719.806	-200.000	0.065	0.358
-718.791	649.795	0.121	-0.313
-717.777	-16.929	0.261	-0.166
-716.762	338.629	-0.096	-0.188
-715.748	-141.043	-0.253	-0.026
-714.733	-200.000	-0.024	0.308
-713.718	-54.336	0.369	-0.169
-712.704	-62.713	0.233	-0.098
-711.689	-78.451	-0.302	-0.104
-710.675	-67.112	0.185	-0.073
-709.660	248.477	0.119	-0.203
-708.645	57.592	0.039	0.039
-707.631	-200.000	0.000	0.088
-706.616	-200.000	0.015	-0.118
-705.602	574.019	-0.073	0.180
-704.587	578.899	0.066	-0.163
-703.572	277.661	-0.167	0.300
-702.558	-63.688	0.186	-0.077
-701.543	34.697	-0.039	-0.035
-700.529	290.039	0.101	-0.185
-699.514	770.381	-0.067	-0.183
-698.499	-200.000	-0.009	0.353
-697.485	557.968	-0.032	-0.078
-696.470	-77.609	-0.149	0.052
-695.456	-145.860	-0.040	-0.004
-694.441	800.000	-0.015	-0.060
-693.426	81.226	0.208	0.226
-692.412	146.726	-0.147	0.199
-691.397	263.881	-0.090	-0.158
-690.383	51.988	-0.127	0.122
-689.368	192.640	0.172	-0.261
-688.354	-200.000	0.006	-0.310
-687.339	609.668	-0.073	-0.184
-686.324	34.036	-0.218	0.191
-685.310	28.219	0.086	0.073
-684.295	-37.787	-0.186	0.100
-683.281	107.999	0.154	0.185
-682.266	136.771	-0.214	-0.281
-681.251	-200.000	0.005	0.159
-680.237	59.520	0.167	-0.165
-679.222	190.934	-0.036	-0.055
-678.208	-91.702	-0.068	0.019
-677.193	113.098	0.172	-0.210
-676.178	673.907	-0.068	0.178
-675.164	-0.461	-0.255	0.183
-674.149	-98.310	0.263	-0.068
-673.135	-177.022	0.070	0.002
-672.120	-106.183	0.127	-0.029
-671.105	75.935	0.132	0.140
-670.091	-18.700	-0.235	-0.147
-669.076	33.243	-0.394	-0.344
-668.062	800.000	0.200	-0.579
-667.047	-200.000	-0.058	-0.283
-666.032	-98.885	0.508	-0.130
-665.018	583.441	-0.039	0.096
-664.003	397.343	-0.066	0.138
-662.989	-50.174	0.059	0.028
-661.974	-200.000	0.008	-0.103
-660.959	334.985	0.154	0.299
-659.945	-132.241	-0.201	0.026
-658.930	205.727	0.116	0.181
-657.916	-44.505	-0.159	0.080
-656.901	-200.000	0.006	0.112
-655.886	-200.000	-0.033	-0.322
-654.872	121.724	-0.171	-0.214
-653.857	539.847	-0.058	-0.138
-652.843	236.932	-0.030	-0.051
-651.828	-200.000	0.012	-0.165
-650.814	0.269	-0.164	-0.117
-649.799	-89.851	-0.076	-0.022
-648.784	-27.008	0.081	0.048
-647.770	-10.464	0.328	0.218
-646.755	-95.918	-0.127	0.034
-645.741	-96.856	0.043	0.011
-644.726	-200.000	0.016	-0.220
-643.711	-10.794	0.201	0.133
-642.697	134.208	0.092	0.120
-641.682	800.000	0.037	0.135
-640.668	800.000	0.065	-0.182
-639.653	106.935	-0.171	0.204
-638.638	250.868	-0.070	-0.119
-637.624	119.894	-0.036	0.044
-636.609	-112.633	0.126	-0.025
-635.595	-200.000	0.039	0.195
-634.580	-28.033	0.231	0.134
-633.565	-16.107	0.316	0.202
-632.551	-146.464	-0.124	0.011
-631.536	10.582	-0.144	0.111
-630.522	-42.019	-0.351	-0.180
-629.507	184.349	0.090	-0.134
-628.492	78.310	0.067	0.072
-627.478	-5.765	-0.294	0.202
-626.463	800.000	-0.080	0.265
-625.449	496.552	-0.092	0.212
-624.434	-106.098	0.330	-0.074
-623.419	-43.513	-0.275	-0.139
-622.405	-200.000	0.017	0.105
-621.390	-200.000	-0.153	-0.001
-620.376	800.000	-0.056	-0.221
-619.361	160.428	-0.064	-0.090
-618.346	-95.619	0.072	0.019
-617.332	-77.623	-0.282	0.098
-616.317	800.000	0.022	-0.096
-615.303	157.796	-0.129	0.180
-614.288	-200.000	-0.041	-0.220
-613.273	800.000	0.132	0.382
-612.259	-119.496	0.154	-0.027
-611.244	-138.839	-0.109	-0.012
-610.230	4.303	0.062	0.046
-609.215	-106.397	0.110	-0.025
-608.201	800.000	0.023	0.083
-607.186	-39.789	0.112	-0.059
-606.171	319.245	0.153	0.291
-605.157	-109.078	0.049	0.010
-604.142	-12.416	-0.304	0.199
-603.128	-18.427	0.042	-0.026
-602.113	-31.557	-0.147	0.083
-601.098	800.000	0.041	-0.174
-600.084	-158.232	0.354	0.021
-599.069	-75.477	0.241	0.086
-598.055	-200.000	-0.000	-0.047
-597.040	132.211	0.129	0.167
-596.025	106.361	-0.178	0.211
-595.011	218.600	-0.193	-0.309
-593.996	15.034	0.084	-0.066
-592.982	-109.612	0.397	-0.084
-591.967	112.260	0.071	-0.086
-590.952	37.163	0.266	0.236
-589.938	154.210	-0.268	0.369
-588.923	-200.000	0.014	0.073
-587.909	-200.000	0.012	-0.178
-586.894	164.946	-0.087	-0.123
-585.879	544.460	-0.126	-0.301
-584.865	-200.000	-0.007	-0.226
-583.850	650.310	-0.086	0.222
-582.836	-200.000	0.035	0.208
-581.821	-200.000	0.055	0.278
-580.806	-24.052	-0.064	0.038
-579.792	-98.734	-0.170	-0.043
-578.777	-20.080	0.306	0.189
-577.763	-87.749	-0.088	-0.027
-576.748	-108.360	-0.083	-0.018
-575.733	-185.411	-0.155	-0.002
-574.719	-200.000	-0.038	-0.245
-573.704	-52.732	0.187	0.086
-572.690	800.000	0.092	-0.256
-571.675	736.159	-0.054	-0.145
-570.661	-121.368	0.024	-0.004
-569.646	-115.995	0.201	-0.038
-568.631	-139.506	-0.286	-0.031
-567.617	800.000	0.058	0.170
-566.602	-68.113	0.100	-0.039
-565.588	396.795	0.177	-0.370
-564.573	362.689	-0.121	0.244
-563.558	19.834	0.041	-0.033
-562.544	6.969	-0.141	0.105
-561.529	-60.981	0.037	-0.016
-560.515	56.308	0.188	-0.182
-559.500	-200.000	-0.001	-0.359
-558.485	449.354	-0.101	0.222
-557.471	-200.000	0.014	-0.135
-556.456	-21.417	-0.096	-0.059
-555.442	-34.023	-0.076	-0.042
-554.427	158.522	0.057	0.079
-553.412	174.600	0.119	-0.172
-552.398	-2.261	-0.249	-0.175
-551.383	-69.887	-0.252	0.096
-550.369	39.849	0.065	0.058
-549.354	6.597	-0.061	-0.046
-548.339	-200.000	0.000	0.115
-547.325	1.424	-0.164	-0.118
-546.310	71.950	0.273	-0.284
-545.296	-200.000	-0.005	0.081
-544.281	135.847	-0.128	0.167
-543.266	-200.000	0.065	0.432
-542.252	3.744	0.151	0.111
-541.237	800.000	0.060	-0.233
-540.223	-200.000	0.005	0.113
-539.208	166.097	-0.020	-0.028
-538.193	-62.573	0.239	0.099
-537.179	24.409	-0.290	-0.240
-536.164	-129.543	0.201	0.028
-535.150	-200.000	-0.032	0.172
-534.135	-118.195	-0.062	-0.011
-533.121	-200.000	0.024	-0.413
-532.106	-104.455	-0.116	-0.027
-531.091	56.670	-0.231	0.225
-530.077	-200.000	0.010	-0.231
-529.062	127.999	-0.166	0.211
-528.048	-94.487	0.218	-0.059
-527.033	105.741	-0.041	-0.049
-526.018	53.611	-0.249	0.239
-525.004	7.580	0.147	0.110
-523.989	-200.000	-0.039	0.233
-522.975	800.000	-0.029	0.105
-521.960	-200.000	-0.015	0.082
-520.945	115.512	-0.326	0.399
-519.931	-112.234	0.078	-0.016
-518.916	-7.365	0.220	0.149
-517.902	-53.946	-0.215	0.098
-516.887	800.000	-0.145	0.428
-515.872	301.647	-0.065	0.120
-514.858	-84.701	0.147	-0.046
-513.843	135.802	0.084	0.110
-512.829	-138.036	0.196	0.022
-511.814	129.483	0.079	-0.101
-510.799	155.783	0.164	0.226
-509.785	-200.000	0.051	-0.560
-508.770	800.000	-0.088	-0.257
-507.756	-128.144	-0.326	-0.047
-506.741	-200.000	0.009	0.087
-505.726	-98.740	-0.146	0.037
-504.712	-38.472	0.182	-0.096
-503.697	-126.944	0.132	-0.019
-502.683	-200.000	-0.014	0.118
-501.668	800.000	-0.070	0.205
-500.653	-94.264	0.143	0.039
-499.639	119.434	-0.092	-0.114
-498.624	-149.681	-0.269	0.021
-497.610	84.124	-0.191	0.208
-496.595	59.337	0.162	0.159
-495.581	515.207	-0.097	-0.226
-494.566	-20.168	-0.073	-0.045
-493.551	-200.000	-0.009	0.157
-492.537	-3.830	0.119	0.083
-491.522	285.891	-0.107	-0.193
-490.508	55.629	0.389	-0.377
-489.493	-170.616	-0.194	0.007
-488.478	-200.000	-0.008	0.195
-487.464	555.313	-0.010	-0.025
-486.449	643.404	0.172	0.438
-485.435	-6.903	0.239	-0.162
-484.420	-200.000	-0.000	0.373
-483.405	-198.970	0.228	0.001
-482.391	41.968	-0.047	-0.043
-481.376	-54.990	-0.238	-0.107
-480.362	66.325	0.320	-0.325
-479.347	-140.019	-0.126	-0.013
-478.332	403.656	-0.157	0.329
-477.318	264.338	0.117	0.203
-476.303	-200.000	0.019	0.164
-475.289	-23.090	0.133	-0.080
-474.274	407.369	-0.157	-0.332
-473.259	-200.000	0.002	0.404
-472.245	377.823	-0.038	-0.077
-471.230	92.178	0.197	0.221
-470.216	89.598	0.072	-0.080
-469.201	-140.644	-0.104	-0.011
-468.186	110.146	-0.253	0.303
-467.172	-62.356	-0.199	-0.083
-466.157	-23.424	-0.042	0.025
-465.143	800.000	-0.079	0.270
-464.128	50.238	0.240	-0.227
-463.113	-175.259	-0.175	0.005
-462.099	48.483	-0.188	0.176
-461.084	478.918	-0.039	-0.088
-460.070	-74.540	0.115	0.041
-459.055	800.000	-0.080	0.258
-458.040	-200.000	-0.009	0.189
-457.026	-200.000	-0.004	-0.090
-456.011	1.101	0.111	0.080
-454.997	-200.000	0.027	-0.200
-453.982	755.699	-0.106	-0.286
-452.968	-101.419	-0.387	-0.094
-451.953	247.480	0.215	-0.363
-450.938	76.251	-0.090	-0.095
-449.924	615.341	-0.123	0.307
-448.909	-128.916	-0.069	-0.010
-447.895	-200.000	0.000	0.017
-446.880	-8.462	0.183	0.123
-445.865	-200.000	0.025	-0.126
-444.851	21.976	-0.099	0.080
-443.836	-9.559	-0.167	0.111
-442.822	800.000	-0.078	-0.231
-441.807	453.075	0.113	-0.249
-440.792	-142.088	0.149	-0.015
-439.778	-13.921	-0.032	0.021
-438.763	58.684	-0.156	-0.153
-437.749	-186.588	-0.461	0.007
-436.734	175.859	0.143	-0.206
-435.719	14.626	-0.212	-0.165
-434.705	-25.464	-0.266	-0.157
-433.690	-156.094	-0.224	0.014
-432.676	-200.000	-0.005	0.045
-431.661	69.995	-0.226	0.232
-430.646	-88.685	-0.152	0.045
-429.632	-124.886	-0.215	0.033
-428.617	-120.104	0.168	0.029
-427.603	-32.510	-0.252	-0.140
-426.588	-90.513	0.159	0.046
-425.573	265.991	0.196	0.340
-424.559	800.000	0.019	0.058
-423.544	167.564	-0.197	-0.279
-422.530	6.480	0.436	0.323
-421.515	-97.747	-0.132	0.034
-420.500	-94.149	0.126	0.034
-419.486	-125.596	-0.336	0.051
-418.471	-3.368	-0.051	0.036
-417.457	-9.008	-0.283	0.188
-416.442	-144.265	0.267	0.025
-415.428	-133.975	-0.239	0.030
-414.413	-75.179	0.179	-0.064
-413.398	800.000	-0.076	-0.312
-412.384	800.000	0.048	0.159
-411.369	-200.000	0.007	0.221
-410.355	2.611	0.189	0.136
-409.340	-200.000	0.034	-0.222
-408.325	395.659	0.077	0.161
-407.311	-32.116	-0.089	0.050
-406.296	641.530	0.038	0.097
-405.282	126.122	0.076	0.095
-404.267	-64.150	-0.436	0.177
-403.252	800.000	0.085	-0.310
-402.238	794.915	0.151	-0.415
-401.223	642.419	0.132	-0.335
-400.209	43.787	-0.328	0.299
-399.194	-49.511	0.081	0.039
-398.179	-200.000	-0.010	-0.388
-397.165	-108.609	-0.126	-0.027
-396.150	-200.000	-0.064	-0.351
-395.136	-120.417	0.116	-0.020
-394.121	-200.000	0.027	-0.239
-393.106	-200.000	0.044	-0.224
-392.092	92.027	0.143	0.160
-391.077	39.718	0.040	-0.036
-390.063	81.903	-0.141	0.152
-389.048	-23.407	-0.096	-0.057
-388.033	-186.109	0.146	0.002
-387.019	-200.000	-0.015	-0.244
-386.004	800.000	0.048	-0.207
-384.990	341.451	-0.174	-0.338
-383.975	94.061	0.184	0.207
-382.960	-21.925	0.244	0.147
-381.946	800.000	-0.072	-0.232
-380.931	800.000	0.155	0.481
-379.917	-127.224	-0.151	-0.022
-378.902	96.732	0.030	-0.034
-377.888	-137.951	-0.245	-0.027
-376.873	-113.766	0.319	-0.062
-375.858	-79.339	-0.107	-0.036
-374.844	-79.407	-0.118	-0.040
-373.829	257.077	-0.033	-0.056
-372.815	800.000	-0.039	0.152
-371.800	-99.786	-0.379	0.094
-370.785	-54.810	-0.229	0.103
-369.771	785.721	0.106	0.288
-368.756	-84.591	0.264	0.083
-367.742	-200.000	0.017	-0.107
-366.727	-75.220	0.382	0.136
-365.712	431.110	-0.042	-0.091
-364.698	-52.783	0.295	0.135
-363.683	-34.591	0.247	-0.134
-362.669	565.139	0.070	-0.169
-361.654	713.505	0.112	-0.294
-360.639	800.000	-0.047	-0.137
-359.625	149.113	0.187	0.251
-358.610	800.000	0.033	-0.093
-357.596	-67.487	-0.071	-0.028
-356.581	-130.629	0.250	-0.034
-355.566	-66.350	-0.167	0.066
-354.552	-139.446	-0.581	-0.062
-353.537	646.634	0.212	-0.537
-352.523	226.035	-0.070	0.113
-351.508	5.581	0.241	-0.177
-350.493	367.855	0.181	-0.363
-349.479	186.395	-0.134	0.198
-348.464	-55.577	-0.385	0.171
-347.450	-53.766	-0.294	0.133
-346.435	0.434	-0.165	-0.117
-345.420	6.633	0.146	-0.108
-344.406	-92.878	0.383	-0.106
-343.391	59.647	0.181	-0.178
-342.377	-104.102	0.095	0.022
-341.362	-27.275	-0.084	-0.049
-340.348	-200.000	-0.013	-0.103
-339.333	-28.314	0.256	-0.147
-338.318	-200.000	-0.001	-0.121
-337.304	40.476	0.063	-0.056
-336.289	-200.000	0.017	-0.132
-335.275	-156.323	0.111	0.007
-334.260	800.000	-0.082	-0.244
-333.245	20.284	0.022	-0.018
-332.231	132.820	-0.098	0.126
-331.216	204.833	-0.199	0.307
-330.202	-120.844	0.257	0.043
-329.187	230.149	-0.168	0.273
-328.172	-84.476	0.047	-0.015
-327.158	579.629	-0.050	0.122
-326.143	198.967	-0.233	0.354
-325.129	23.372	0.253	-0.206
-324.114	116.424	-0.189	0.230
-323.099	-94.964	0.342	0.092
-322.085	21.954	0.221	0.179
-321.070	-57.775	0.160	0.069
-320.056	800.000	-0.023	0.062
-319.041	-22.786	-0.175	-0.105
-318.026	18.079	0.102	-0.080
-317.012	-129.416	-0.349	-0.048
-315.997	-124.241	0.250	-0.039
-314.983	800.000	0.023	-0.073
-313.968	598.378	0.044	0.108
-312.953	260.331	0.115	-0.197
-311.939	-200.000	-0.032	-0.142
-310.924	170.030	0.087	-0.123
-309.910	-56.152	0.267	0.118
-308.895	8.116	0.208	-0.155
-307.880	232.341	-0.129	-0.210
-306.866	78.577	0.302	-0.320
-305.851	-21.397	-0.157	0.095
-304.837	39.115	-0.091	0.080
-303.822	-53.001	0.134	0.061
-302.807	-28.302	-0.179	0.103
-301.793	-96.362	-0.233	0.061
-300.778	-46.760	0.233	-0.113
-299.764	212.815	0.075	-0.117
-298.749	-32.259	-0.419	-0.232
-297.735	-110.853	0.213	-0.043
-296.720	283.540	0.094	0.167
-295.705	-200.000	-0.043	0.371
-294.691	-14.364	-0.081	-0.052
-293.676	-77.130	0.094	-0.032
-292.662	-81.971	0.077	-0.025
-291.647	145.371	-0.249	-0.331
-290.632	-92.073	-0.264	0.074
-289.618	-192.978	0.101	-0.001
-288.603	-82.675	-0.228	0.073
-287.589	-200.000	-0.004	-0.195
-286.574	374.818	-0.041	0.084
-285.559	298.203	0.061	-0.111
-284.545	-55.096	0.280	0.125
-283.530	463.248	0.102	0.226
-282.516	157.331	-0.204	0.279
-281.501	-75.892	-0.153	-0.054
-280.486	800.000	0.144	0.474
-279.472	28.878	0.127	0.106
-278.457	-111.698	-0.059	-0.012
-277.443	-200.000	-0.033	-0.511
-276.428	13.932	-0.300	-0.231
-275.413	-200.000	-0.003	-0.111
-274.399	-200.000	0.011	-0.137
-273.384	-200.000	-0.003	-0.105
-272.370	-99.285	0.392	0.098
-271.355	-200.000	-0.025	0.459
-270.340	-22.310	-0.206	0.124
-269.326	518.138	-0.094	0.219
-268.311	-90.843	0.112	0.032
-267.297	-200.000	0.002	-0.133
-266.282	800.000	0.069	0.231
-265.267	61.079	0.210	-0.207
-264.253	34.251	-0.251	-0.217
-263.238	55.275	0.036	0.034
-262.224	-113.887	0.138	0.027
-261.209	-54.884	-0.116	-0.052
-260.195	12.495	-0.294	0.225
-259.180	631.143	-0.143	0.357
-258.165	1.929	-0.051	-0.036
-257.151	-200.000	0.019	0.172
-256.136	3.342	-0.101	-0.073
-255.122	-122.845	-0.356	0.057
-254.107	6.213	-0.161	0.118
-253.092	-200.000	-0.002	0.280
-252.078	-28.747	0.260	0.148
-251.063	124.028	-0.157	0.195
-250.049	48.412	-0.125	-0.116
-249.034	-45.505	-0.187	-0.092
-248.019	-145.434	-0.374	0.033
-247.005	-178.071	0.309	0.007
-245.990	-12.971	-0.246	0.158
-244.976	58.361	0.175	-0.170
-243.961	-133.447	0.342	0.042
-242.946	491.461	-0.114	-0.259
-241.932	-200.000	0.004	0.069
-240.917	-117.987	-0.186	0.033
-239.903	800.000	-0.076	-0.308
-238.888	-200.000	-0.020	-0.171
-237.873	-185.102	-0.092	-0.001
-236.859	-91.186	-0.136	-0.038
-235.844	-149.426	0.190	-0.015
-234.830	-200.000	0.032	-0.290
-233.815	-58.959	-0.319	-0.136
-232.800	-51.854	0.269	0.124
-231.786	-108.258	0.075	0.016
-230.771	800.000	0.035	0.097
-229.757	615.343	0.005	0.013
-228.742	-81.194	-0.132	0.043
-227.727	-200.000	0.024	-0.223
-226.713	-125.089	0.158	0.024
-225.698	-101.403	0.310	-0.075
-224.684	-49.124	-0.329	-0.156
-223.669	-200.000	0.010	0.245
-222.655	-117.693	-0.127	0.023
-221.640	191.854	-0.160	0.238
-220.625	800.000	-0.056	0.157
-219.611	-139.662	0.182	0.019
-218.596	-22.518	0.239	-0.143
-217.582	-129.607	-0.200	0.027
-216.567	-26.324	0.087	0.050
-215.552	-200.000	0.001	0.090
-214.538	-132.613	-0.186	0.024
-213.523	-0.592	-0.224	-0.157
-212.509	208.421	-0.133	-0.205
-211.494	800.000	-0.036	0.140
-210.479	-36.133	0.276	-0.147
-209.465	144.574	-0.110	-0.145
-208.450	299.359	0.183	-0.332
-207.436	183.622	-0.106	-0.155
-206.421	-200.000	-0.015	-0.108
-205.406	38.680	0.203	0.179
-204.392	69.802	-0.099	-0.100
-203.377	-44.927	0.305	0.150
-202.363	317.456	-0.084	0.157
-201.348	-79.683	0.155	0.052
-200.333	-200.000	-0.039	-0.196
-199.319	37.986	0.058	-0.051
-198.304	800.000	0.053	0.166
-197.290	27.178	0.137	-0.114
-196.275	-118.245	0.071	-0.012
-195.260	-73.027	0.181	0.066
-194.246	504.825	0.027	-0.062
-193.231	148.512	-0.137	-0.183
-192.217	-42.308	0.374	0.189
-191.202	274.992	-0.173	-0.303
-190.187	508.824	0.100	0.230
-189.173	-200.000	0.015	-0.229
-188.158	-200.000	0.074	-0.338
-187.144	-40.236	0.226	-0.116
-186.129	-171.789	-0.087	0.003
-185.114	-109.001	0.147	-0.031
-184.100	-87.690	0.454	0.135
-183.085	800.000	0.061	-0.234
-182.071	-66.087	-0.072	-0.028
-181.056	800.000	0.044	-0.131
-180.042	-39.043	0.123	0.064
-179.027	-200.000	-0.011	-0.063
-178.012	162.384	0.153	-0.211
-176.998	43.055	-0.191	-0.172
-175.983	79.178	0.044	-0.046
-174.969	402.503	0.106	-0.219
-173.954	12.964	0.252	-0.192
-172.939	-36.726	0.134	0.071
-171.925	128.216	0.148	0.186
-170.910	-200.000	0.012	-0.205
-169.896	517.381	-0.060	-0.139
-168.881	800.000	0.115	-0.423
-167.866	-85.553	-0.315	-0.097
-166.852	-200.000	0.026	-0.278
-165.837	800.000	-0.067	0.218
-164.823	230.611	0.243	0.392
-163.808	800.000	0.024	-0.097
-162.793	800.000	0.049	-0.147
-161.779	-200.000	-0.037	0.242
-160.764	266.579	0.057	0.098
-159.750	219.141	-0.054	0.084
-158.735	-51.414	0.010	-0.005
-157.720	106.364	-0.142	0.166
-156.706	19.549	-0.139	0.110
-155.691	-80.746	0.411	0.135
-154.677	-6.629	-0.076	0.051
-153.662	-170.542	-0.112	0.004
-152.647	20.779	-0.174	0.139
-151.633	-91.700	0.067	-0.019
-150.618	42.931	0.239	0.214
-149.604	-65.834	0.312	0.123
-148.589	800.000	0.045	0.177
-147.574	-81.314	-0.249	-0.081
-146.560	100.617	0.128	-0.147
-145.545	-73.585	-0.237	-0.085
-144.531	-102.037	0.030	-0.007
-143.516	-184.573	-0.168	-0.003
-142.502	33.758	-0.161	-0.138
-141.487	372.281	0.076	-0.152
-140.472	-170.141	-0.248	0.009
-139.458	12.546	0.171	-0.130
-138.443	-9.476	-0.252	0.165
-137.429	-112.077	-0.129	-0.026
-136.414	67.327	-0.149	-0.150
-135.399	-66.653	-0.044	-0.017
-134.385	217.518	0.125	-0.196
-133.370	-93.011	-0.043	-0.012
-132.356	-200.000	0.011	-0.066
-131.341	224.515	-0.109	-0.174
-130.326	-56.234	-0.397	0.174
-129.312	-200.000	-0.089	0.523
-128.297	800.000	-0.045	0.152
-127.283	-115.732	-0.070	-0.013
-126.268	-59.411	-0.158	0.067
-125.253	432.752	-0.139	-0.296
-124.239	156.636	-0.178	-0.242
-123.224	-62.570	0.183	0.075
-122.210	621.247	-0.078	0.193
-121.195	590.361	-0.132	0.320
