DTS Sentinel unit serial number:	SN413079Multiplexer serial number:	ORYXHardware model number:	OX4-SRSoftware version number:	ORYX F/W v4.00 Oryx Data Collector v3.7.2.0data status	okinstallation	princeton_trtdifferential loss correction	single-endedforward channel	channel 2reverse channel	N/Adate	2019/09/14time	16:19:34forward acquisition time	60.00reverse acquisition time	0.00gamma	496.2192k internal	0.2308k external	0.2308temperature offset calibration	1.0130default loss term (dB/km)	0.3790temperature slope calibration	1.0000multiplexer offset coefficient	1.0000multiplexer slope coefficient	1.0000fibre end	0.00T internal ref (°C)	38.19T ext. ref 1 (°C)	5.07T ext. ref 2 (°C)	32.76length (m)	temperature (°C)	Stokes	anti-Stokes-747.200	126.229	-0.040	0.051
-746.185	-200.000	0.003	0.094
-745.171	-200.000	-0.041	-0.416
-744.156	-195.716	0.165	0.001
-743.142	-200.000	-0.027	0.191
-742.127	-22.092	-0.166	-0.102
-741.112	-84.694	0.065	-0.021
-740.098	342.807	0.064	0.127
-739.083	119.130	-0.045	0.056
-738.069	89.996	0.099	0.112
-737.054	-131.109	-0.262	0.035
-736.039	-15.261	0.048	-0.031
-735.025	4.885	-0.098	-0.073
-734.010	-18.378	0.199	-0.127
-732.996	-60.452	-0.220	-0.095
-731.981	-200.000	-0.015	-0.162
-730.966	38.702	0.088	-0.080
-729.952	-18.905	-0.223	-0.141
-728.937	95.357	-0.094	0.109
-727.923	-20.369	0.132	-0.083
-726.908	140.299	-0.105	0.141
-725.894	-98.576	0.207	-0.054
-724.879	-200.000	0.016	-0.435
-723.864	-200.000	-0.001	0.014
-722.850	380.194	0.127	-0.264
-721.835	303.434	0.179	0.337
-720.821	272.634	0.038	-0.067
-719.806	35.850	0.090	-0.080
-718.791	-134.360	0.102	0.013
-717.777	264.790	0.159	0.282
-716.762	10.979	-0.054	-0.042
-715.748	-200.000	0.016	0.101
-714.733	4.098	-0.295	-0.219
-713.718	-20.437	0.211	0.132
-712.704	800.000	-0.056	-0.234
-711.689	119.009	-0.167	-0.210
-710.675	80.218	0.034	0.037
-709.660	300.318	0.063	0.118
-708.645	45.458	0.116	0.108
-707.631	-200.000	0.021	-0.097
-706.616	42.352	-0.076	0.070
-705.602	799.397	0.082	-0.230
-704.587	74.116	-0.209	0.223
-703.572	-200.000	0.015	0.132
-702.558	800.000	-0.112	-0.366
-701.543	-18.341	-0.429	-0.272
-700.529	-42.112	-0.370	0.192
-699.514	-137.154	0.196	-0.023
-698.499	-11.107	-0.094	-0.063
-697.485	-200.000	0.008	-0.328
-696.470	800.000	0.024	-0.101
-695.456	-82.684	0.256	-0.084
-694.441	-200.000	-0.013	0.152
-693.426	-200.000	-0.024	-0.126
-692.412	-88.071	-0.310	0.094
-691.397	-200.000	-0.017	-0.383
-690.383	224.062	-0.055	-0.091
-689.368	-11.077	-0.159	0.107
-688.354	340.864	-0.060	-0.120
-687.339	46.663	0.124	0.117
-686.324	94.020	-0.147	-0.169
-685.310	-163.432	0.197	0.010
-684.295	-200.000	0.043	-0.277
-683.281	110.076	0.009	0.011
-682.266	-200.000	0.014	-0.268
-681.251	-15.985	0.030	0.019
-680.237	-141.944	0.286	0.029
-679.222	-192.000	0.043	-0.000
-678.208	-177.288	-0.178	0.004
-677.193	-43.748	0.301	0.154
-676.178	-104.815	-0.125	-0.029
-675.164	-19.445	-0.227	-0.142
-674.149	-200.000	0.015	0.107
-673.135	-200.000	-0.045	0.243
-672.120	-4.873	-0.049	0.034
-671.105	256.701	-0.097	-0.168
-670.091	655.300	0.083	-0.216
-669.076	-200.000	-0.016	-0.360
-668.062	-200.000	-0.055	0.371
-667.047	-147.369	-0.128	0.011
-666.032	229.313	0.185	-0.306
-665.018	800.000	-0.009	-0.033
-664.003	-200.000	-0.000	-0.118
-662.989	-197.381	-0.191	0.001
-661.974	259.514	-0.165	-0.289
-660.959	24.166	-0.104	0.087
-659.945	-15.731	-0.086	-0.055
-658.930	-35.065	-0.175	0.096
-657.916	91.369	-0.336	-0.382
-656.901	13.579	0.180	0.142
-655.886	800.000	-0.096	0.272
-654.872	-107.118	-0.463	-0.103
-653.857	176.292	-0.107	0.158
-652.843	-44.310	0.153	0.078
-651.828	-169.779	0.333	-0.012
-650.814	-55.338	0.268	0.122
-649.799	-200.000	-0.059	-0.416
-648.784	-25.296	-0.126	0.076
-647.770	134.755	-0.195	-0.257
-646.755	-155.926	0.104	0.007
-645.741	-82.294	0.349	-0.115
-644.726	29.503	-0.257	-0.221
-643.711	-3.481	0.265	-0.187
-642.697	178.078	-0.115	0.170
-641.682	-200.000	0.030	0.267
-640.668	-200.000	0.043	-0.287
-639.653	-138.861	-0.219	-0.024
-638.638	100.919	0.156	0.184
-637.624	303.118	-0.258	0.484
-636.609	83.691	0.118	-0.131
-635.595	-25.801	-0.244	-0.146
-634.580	24.650	-0.157	-0.132
-633.565	31.963	-0.056	0.049
-632.551	-101.032	-0.204	-0.051
-631.536	-85.176	0.284	-0.090
-630.522	-137.789	0.070	0.008
-629.507	54.073	0.200	0.195
-628.492	-195.937	-0.348	-0.002
-627.478	465.755	-0.077	-0.175
-626.463	183.449	-0.106	0.158
-625.449	-10.521	-0.196	-0.132
-624.434	14.463	-0.181	0.143
-623.419	32.173	0.167	-0.146
-622.405	133.248	0.072	0.094
-621.390	-29.157	0.085	-0.049
-620.376	-63.998	-0.153	-0.063
-619.361	77.245	0.090	-0.097
-618.346	670.475	0.065	0.170
-617.332	-200.000	0.011	-0.276
-616.317	-43.652	-0.085	-0.043
-615.303	-200.000	0.016	0.322
-614.288	-153.037	-0.121	0.009
-613.273	-11.494	0.063	0.042
-612.259	-200.000	0.012	0.220
-611.244	-51.892	0.224	-0.106
-610.230	280.431	-0.125	0.225
-609.215	18.836	-0.139	0.113
-608.201	-126.948	-0.090	0.013
-607.186	-188.100	-0.173	0.002
-606.171	1.963	-0.144	0.105
-605.157	-200.000	-0.008	-0.187
-604.142	41.330	0.328	0.300
-603.128	-71.673	0.162	0.061
-602.113	667.378	-0.067	0.176
-601.098	55.964	0.062	0.061
-600.084	68.368	0.142	0.147
-599.069	-52.572	0.398	-0.186
-598.055	717.379	0.106	-0.285
-597.040	-200.000	-0.002	0.069
-596.025	-70.208	-0.181	-0.069
-595.011	800.000	0.078	0.277
-593.996	-200.000	0.017	0.148
-592.982	-200.000	-0.062	-0.330
-591.967	87.099	0.095	-0.106
-590.952	-200.000	0.024	-0.384
-589.938	-114.544	-0.438	-0.085
-588.923	-200.000	-0.039	0.275
-587.909	336.706	0.152	-0.298
-586.894	800.000	0.061	-0.209
-585.879	800.000	0.066	0.271
-584.865	68.863	-0.160	0.166
-583.850	-146.536	-0.243	-0.021
-582.836	-200.000	-0.009	0.060
-581.821	647.496	-0.123	-0.317
-580.806	-6.013	-0.096	0.066
-579.792	-132.119	0.143	0.019
-578.777	383.773	0.074	0.155
-577.763	67.604	-0.103	0.106
-576.748	-74.216	0.114	-0.042
-575.733	72.334	-0.314	-0.330
-574.719	-200.000	-0.035	-0.211
-573.704	50.278	0.229	-0.218
-572.690	800.000	-0.023	0.097
-571.675	-58.801	-0.120	0.052
-570.661	-196.480	0.263	0.002
-569.646	160.258	0.296	-0.417
-568.631	265.669	0.057	-0.100
-567.617	-43.658	0.194	0.099
-566.602	194.754	0.170	0.261
-565.588	-200.000	0.040	0.242
-564.573	800.000	0.079	0.247
-563.558	-11.013	0.101	0.067
-562.544	19.230	-0.119	-0.096
-561.529	450.020	-0.112	0.250
-560.515	-15.810	0.114	-0.074
-559.500	-133.129	-0.061	0.008
-558.485	-149.633	-0.117	-0.009
-557.471	-59.604	0.211	-0.091
-556.456	-200.000	0.032	-0.141
-555.442	-200.000	0.045	-0.259
-554.427	-200.000	-0.008	-0.202
-553.412	-56.726	0.356	-0.159
-552.398	-200.000	-0.007	0.060
-551.383	127.709	-0.270	-0.346
-550.369	-75.250	0.028	0.010
-549.354	-73.839	-0.317	0.116
-548.339	218.534	0.073	0.117
-547.325	-200.000	-0.002	-0.190
-546.310	-4.544	0.082	0.057
-545.296	800.000	-0.093	-0.371
-544.281	-67.273	-0.209	-0.083
-543.266	800.000	-0.038	0.129
-542.252	800.000	0.094	0.327
-541.237	-200.000	-0.016	-0.225
-540.223	126.086	0.149	-0.190
-539.208	50.666	0.119	0.114
-538.193	-70.532	-0.082	0.031
-537.179	-143.145	0.250	-0.024
-536.164	537.953	0.094	-0.225
-535.150	654.240	-0.051	-0.133
-534.135	567.321	0.063	-0.154
-533.121	-117.033	-0.240	0.044
-532.106	800.000	0.050	0.149
-531.091	132.994	0.074	0.097
-530.077	-51.018	0.437	-0.207
-529.062	-61.668	-0.164	-0.069
-528.048	-117.294	-0.022	-0.004
-527.033	-200.000	0.025	-0.413
-526.018	-46.032	-0.072	-0.036
-525.004	94.415	-0.073	-0.084
-523.989	-200.000	-0.019	-0.405
-522.975	120.235	0.162	-0.203
-521.960	-102.563	0.180	-0.043
-520.945	-91.994	0.073	0.021
-519.931	-59.708	0.134	0.058
-518.916	19.842	0.204	0.166
-517.902	-98.606	-0.576	0.148
-516.887	-90.262	0.354	-0.104
-515.872	478.146	-0.039	0.089
-514.858	213.993	0.034	-0.055
-513.843	-152.115	-0.026	-0.002
-512.829	-200.000	0.037	0.205
-511.814	-84.629	-0.138	0.044
-510.799	-85.300	-0.094	-0.029
-509.785	43.554	0.196	0.180
-508.770	238.970	-0.202	-0.339
-507.756	120.849	-0.226	0.283
-506.741	-125.414	0.308	0.047
-505.726	267.368	0.130	0.230
-504.712	-126.278	-0.078	0.012
-503.697	-200.000	-0.056	-0.335
-502.683	-71.879	0.172	-0.064
-501.668	495.458	-0.038	-0.088
-500.653	-114.997	-0.236	0.045
-499.639	506.726	-0.077	0.180
-498.624	390.461	-0.120	0.251
-497.610	224.055	-0.220	-0.358
-496.595	-118.201	-0.350	0.063
-495.581	-200.000	0.035	-0.179
-494.566	-200.000	-0.030	-0.182
-493.551	165.247	-0.074	0.105
-492.537	800.000	-0.101	0.415
-491.522	-33.076	-0.225	-0.126
-490.508	-32.017	-0.313	-0.176
-489.493	-99.009	-0.161	-0.041
-488.478	139.665	0.155	0.206
-487.464	-111.548	-0.044	0.009
-486.449	-18.530	0.269	0.169
-485.435	124.451	-0.099	-0.126
-484.420	-40.645	0.271	0.141
-483.405	578.354	-0.115	-0.284
-482.391	-137.041	0.331	-0.038
-481.376	-103.311	0.114	-0.027
-480.362	-2.653	-0.173	0.122
-479.347	-200.000	0.046	0.300
-478.332	158.960	0.083	0.116
-477.318	78.726	-0.104	0.112
-476.303	52.221	-0.196	0.188
-475.289	326.060	0.072	0.139
-474.274	204.389	0.058	-0.091
-473.259	-62.889	-0.248	-0.103
-472.245	-21.707	-0.419	0.257
-471.230	149.019	-0.124	0.169
-470.216	174.143	0.079	-0.114
-469.201	-200.000	-0.039	-0.298
-468.186	-200.000	0.239	0.001
-467.172	-46.815	0.128	0.063
-466.157	9.090	0.233	0.177
-465.143	449.287	-0.080	0.178
-464.128	11.648	-0.060	0.047
-463.113	-72.166	-0.126	0.047
-462.099	-154.512	0.159	0.011
-461.084	800.000	-0.074	-0.212
-460.070	-200.000	-0.037	0.194
-459.055	800.000	-0.055	-0.159
-458.040	800.000	-0.021	0.065
-457.026	-188.043	0.139	0.002
-456.011	-93.016	-0.153	-0.043
-454.997	-3.093	0.099	0.069
-453.982	178.638	0.192	0.282
-452.968	482.909	-0.227	0.519
-451.953	-76.402	0.090	0.032
-450.938	-69.561	-0.229	-0.088
-449.924	-200.000	-0.040	-0.226
-448.909	800.000	-0.070	0.230
-447.895	-160.194	0.117	-0.006
-446.880	-200.000	0.010	0.204
-445.865	33.784	-0.045	-0.040
-444.851	14.185	-0.026	-0.020
-443.836	634.624	-0.065	0.164
-442.822	30.351	0.099	0.085
-441.807	-200.000	0.041	0.268
-440.792	-200.000	0.021	0.442
-439.778	173.569	-0.102	0.147
-438.763	428.946	0.092	0.199
-437.749	490.298	-0.031	0.071
-436.734	-200.000	-0.021	0.306
-435.719	405.040	0.025	0.053
-434.705	696.018	0.087	-0.229
-433.690	-200.000	-0.044	0.195
-432.676	-15.057	0.142	0.092
-431.661	-102.906	-0.214	-0.051
-430.646	-200.000	-0.009	-0.084
-429.632	-152.602	-0.291	-0.021
-428.617	-72.283	0.200	0.074
-427.603	102.333	0.069	0.081
-426.588	800.000	0.059	0.224
-425.573	800.000	0.054	0.150
-424.559	-8.485	0.316	0.213
-423.544	-40.359	-0.048	0.025
-422.530	94.762	-0.139	-0.159
-421.515	-73.356	-0.202	-0.074
-420.500	-100.879	0.180	0.044
-419.486	302.576	-0.034	-0.063
-418.471	-133.971	-0.272	0.034
-417.457	-95.821	-0.283	0.076
-416.442	-176.811	-0.436	-0.011
-415.428	-95.407	-0.072	-0.019
-414.413	800.000	0.076	-0.261
-413.398	-40.356	-0.127	0.066
-412.384	-200.000	-0.023	-0.191
-411.369	141.391	-0.100	0.133
-410.355	-37.609	-0.210	0.112
-409.340	410.579	-0.216	0.459
-408.325	800.000	0.071	-0.226
-407.311	-40.382	-0.174	-0.091
-406.296	-94.697	-0.195	0.053
-405.282	180.724	-0.050	0.074
-404.267	-143.140	-0.137	0.013
-403.252	-1.160	0.215	0.152
-402.238	800.000	0.041	-0.163
-401.223	11.033	-0.119	-0.091
-400.209	-123.932	-0.069	0.011
-399.194	504.292	-0.021	0.049
-398.179	-171.808	-0.168	0.006
-397.165	800.000	-0.050	0.146
-396.150	77.354	0.175	-0.187
-395.136	399.823	-0.052	0.109
-394.121	27.702	-0.297	-0.251
-393.106	-50.707	-0.119	0.056
-392.092	-4.639	-0.151	-0.105
-391.077	-113.465	-0.161	0.032
-390.063	256.992	0.121	0.209
-389.048	-50.939	0.148	-0.070
-388.033	-24.174	0.254	0.152
-387.019	800.000	-0.038	-0.141
-386.004	-101.729	0.240	0.058
-384.990	-200.000	0.020	-0.271
-383.975	-144.750	-0.200	0.018
-382.960	273.996	-0.102	0.181
-381.946	-200.000	-0.013	-0.273
-380.931	-88.890	0.100	-0.030
-379.917	481.801	0.050	0.115
-378.902	-166.718	-0.287	0.012
-377.888	-120.491	0.361	-0.061
-376.873	-174.343	0.245	-0.007
-375.858	-91.946	-0.032	0.009
-374.844	179.446	-0.081	0.119
-373.829	-95.370	0.262	0.070
-372.815	-132.292	0.189	0.024
-371.800	800.000	0.077	-0.222
-370.785	800.000	0.060	0.189
-369.771	800.000	-0.108	0.358
-368.756	215.254	-0.220	0.350
-367.742	-200.000	-0.033	0.563
-366.727	-4.657	-0.254	0.176
-365.712	-68.709	0.309	0.120
-364.698	800.000	-0.051	-0.175
-363.683	-200.000	0.017	-0.387
-362.669	81.334	-0.227	0.246
-361.654	-5.824	-0.259	0.178
-360.639	-200.000	0.002	0.064
-359.625	-16.011	-0.222	0.141
-358.610	11.623	-0.168	-0.129
-357.596	146.419	0.043	0.058
-356.581	-103.580	-0.097	-0.023
-355.566	-200.000	0.046	-0.212
-354.552	-200.000	-0.011	-0.146
-353.537	-80.990	-0.070	0.023
-352.523	-200.000	-0.096	0.434
-351.508	800.000	-0.021	-0.071
-350.493	-45.344	0.270	-0.134
-349.479	168.340	-0.115	0.165
-348.464	268.086	-0.106	-0.185
-347.450	31.572	-0.067	0.057
-346.435	-33.114	0.376	0.209
-345.420	-61.184	-0.358	-0.151
-344.406	380.105	-0.189	0.388
-343.391	227.751	-0.121	0.197
-342.377	-200.000	0.011	0.129
-341.362	-143.437	-0.096	0.009
-340.348	-30.028	0.311	-0.177
-339.333	111.915	0.247	-0.298
-338.318	63.055	-0.116	-0.116
-337.304	800.000	0.090	-0.329
-336.289	-16.598	-0.121	-0.077
-335.275	442.887	-0.091	0.201
-334.260	800.000	-0.068	-0.199
-333.245	607.158	0.069	-0.171
-332.231	-200.000	-0.004	-0.024
-331.216	-200.000	0.054	-0.242
-330.202	-93.216	0.124	0.035
-329.187	-70.056	0.199	0.076
-328.172	-25.864	0.129	0.076
-327.158	42.539	-0.108	0.098
-326.143	415.704	-0.071	-0.152
-325.129	-200.000	0.000	-0.003
-324.114	-11.414	-0.086	0.057
-323.099	-120.072	0.471	0.081
-322.085	-200.000	-0.082	-0.446
-321.070	-200.000	-0.001	-0.075
-320.056	0.517	-0.033	-0.024
-319.041	516.187	0.058	-0.134
-318.026	800.000	0.038	0.162
-317.012	-50.914	-0.204	0.096
-315.997	-200.000	-0.006	0.187
-314.983	244.190	0.079	-0.132
-313.968	361.970	0.297	-0.596
-312.953	265.506	0.064	-0.112
-311.939	88.685	-0.094	0.105
-310.924	709.695	0.025	-0.066
-309.910	31.708	-0.103	0.088
-308.895	229.320	0.158	0.257
-307.880	-124.538	-0.249	-0.039
-306.866	-200.000	0.007	0.202
-305.851	291.777	0.030	-0.055
-304.837	182.998	0.076	0.111
-303.822	-28.350	-0.162	0.093
-302.807	633.130	-0.021	0.053
-301.793	-62.244	0.251	0.105
-300.778	195.905	-0.158	-0.240
-299.764	800.000	-0.062	-0.222
-298.749	-28.388	0.546	-0.315
-297.735	197.741	0.166	0.254
-296.720	-76.947	-0.126	-0.044
-295.705	4.970	-0.189	-0.139
-294.691	-134.364	-0.068	-0.008
-293.676	-74.283	-0.281	0.102
-292.662	-135.756	0.112	0.013
-291.647	-200.000	-0.048	0.217
-290.632	-79.886	-0.384	0.129
-289.618	15.498	0.005	-0.004
-288.603	-166.984	-0.411	0.017
-287.589	106.959	0.136	-0.161
-286.574	800.000	-0.044	-0.155
-285.559	431.869	0.029	-0.063
-284.545	107.189	-0.126	0.149
-283.530	800.000	0.043	0.148
-282.516	-45.789	0.175	0.086
-281.501	-200.000	-0.000	-0.044
-280.486	-200.000	-0.010	0.128
-279.472	-147.887	0.326	-0.027
-278.457	-93.242	0.132	-0.037
-277.443	-192.428	0.203	-0.002
-276.428	258.409	-0.118	-0.203
-275.413	145.351	0.236	0.316
-274.399	-14.016	0.113	0.073
-273.384	46.613	0.101	-0.093
-272.370	-200.000	-0.068	0.363
-271.355	-200.000	-0.007	0.263
-270.340	800.000	0.136	0.444
-269.326	86.307	-0.143	-0.157
-268.311	796.894	-0.077	0.211
-267.297	-100.967	-0.048	0.012
-266.282	-64.465	-0.193	-0.078
-265.267	47.389	0.027	-0.025
-264.253	122.736	0.125	-0.156
-263.238	127.808	-0.044	0.056
-262.224	66.906	0.175	-0.177
-261.209	4.680	0.156	-0.114
-260.195	744.233	0.094	-0.252
-259.180	167.542	-0.092	0.130
-258.165	-200.000	0.081	-0.420
-257.151	141.342	0.095	-0.125
-256.136	-85.545	-0.297	0.092
-255.122	-51.715	0.265	-0.123
-254.107	79.546	-0.421	-0.451
-253.092	800.000	0.040	0.149
-252.078	-70.998	-0.038	0.014
-251.063	8.466	0.263	-0.197
-250.049	182.027	-0.068	-0.100
-249.034	-200.000	-0.050	-0.376
-248.019	-116.961	-0.134	-0.024
-247.005	-200.000	-0.011	0.332
-245.990	-114.790	-0.468	0.089
-244.976	800.000	0.027	-0.110
-243.961	-150.293	-0.268	-0.021
-242.946	73.331	0.276	-0.288
-241.932	16.474	0.221	-0.174
-240.917	-141.073	0.306	0.031
-239.903	621.288	0.072	0.182
-238.888	-84.493	-0.219	0.069
-237.873	-111.717	-0.283	-0.057
-236.859	-42.681	-0.109	-0.055
-235.844	21.620	-0.075	-0.061
-234.830	646.274	0.067	0.169
-233.815	-200.000	0.003	0.055
-232.800	157.153	0.080	0.111
-231.786	-122.839	0.355	-0.057
-230.771	2.523	0.148	-0.106
-229.757	19.115	0.341	0.272
-228.742	-168.303	0.192	-0.007
-227.727	-200.000	-0.013	0.264
-226.713	-200.000	-0.004	0.110
-225.698	-93.189	0.178	-0.049
-224.684	226.145	0.122	-0.197
-223.669	-200.000	-0.040	0.258
-222.655	-115.294	0.471	0.089
-221.640	63.261	0.184	0.184
-220.625	203.070	0.046	-0.071
-219.611	11.536	-0.150	-0.114
-218.596	-67.327	0.233	-0.091
-217.582	46.968	0.083	-0.077
-216.567	-116.517	0.152	0.028
-215.552	346.713	0.111	-0.218
-214.538	-109.214	0.133	-0.028
-213.523	107.762	0.111	0.132
-212.509	-117.963	0.355	0.063
-211.494	458.864	0.018	0.039
-210.479	-200.000	0.011	-0.321
-209.465	800.000	-0.109	0.315
-208.450	59.366	0.130	-0.128
-207.436	-200.000	0.069	0.317
-206.421	800.000	-0.005	-0.023
-205.406	180.458	0.058	-0.085
-204.392	-123.177	-0.265	-0.042
-203.377	-200.000	0.031	0.275
-202.363	26.627	-0.106	0.088
-201.348	-96.344	0.136	0.036
-200.333	98.802	-0.190	-0.219
-199.319	46.901	0.117	-0.109
-198.304	283.966	-0.055	-0.099
-197.290	-110.200	-0.178	0.037
-196.275	800.000	-0.033	0.142
-195.260	800.000	-0.032	-0.108
-194.246	-37.014	-0.442	0.236
-193.231	51.149	-0.253	0.238
-192.217	-200.000	-0.043	-0.368
-191.202	-200.000	0.001	-0.351
-190.187	155.797	-0.058	0.079
-189.173	-117.460	-0.066	-0.012
-188.158	200.053	-0.057	-0.087
-187.144	-200.000	0.017	-0.086
-186.129	800.000	-0.063	-0.215
-185.114	37.950	0.167	-0.148
-184.100	-121.191	0.224	0.037
-183.085	-29.210	-0.075	0.043
-182.071	144.732	-0.130	-0.172
-181.056	-146.464	0.356	0.031
-180.042	-114.181	0.205	-0.039
-179.027	-60.231	-0.394	-0.167
-178.012	-101.951	0.084	-0.020
-176.998	35.919	0.262	-0.229
-175.983	-147.373	0.485	-0.041
-174.969	-92.911	0.158	-0.044
-173.954	228.724	-0.218	-0.353
-172.939	-200.000	-0.091	-0.429
-171.925	-91.465	0.365	0.104
-170.910	180.715	0.086	0.126
-169.896	-200.000	0.045	-0.352
-168.881	-72.293	-0.078	-0.029
-167.866	-200.000	0.079	0.361
-166.852	-113.983	0.149	0.029
-165.837	602.515	0.183	-0.452
-164.823	761.281	0.092	-0.249
-163.808	-200.000	0.046	0.218
-162.793	-200.000	-0.035	0.321
-161.779	38.656	-0.240	-0.213
-160.764	-200.000	0.063	0.507
-159.750	-17.111	-0.336	0.211
-158.735	65.538	0.145	-0.146
-157.720	240.393	0.198	-0.329
-156.706	-174.787	-0.359	-0.010
-155.691	65.117	0.054	0.054
-154.677	186.103	0.027	0.040
-153.662	-200.000	0.042	-0.288
-152.647	155.273	0.146	0.199
-151.633	171.955	0.041	0.058
-150.618	-200.000	-0.005	-0.137
-149.604	72.952	-0.050	-0.052
-148.589	-100.617	-0.174	-0.043
-147.574	-113.321	0.272	0.053
-146.560	37.898	-0.025	0.022
-145.545	-30.908	0.211	0.118
-144.531	110.035	-0.119	0.142
-143.516	34.010	0.073	0.063
-142.502	580.150	-0.070	0.170
-141.487	34.241	0.126	0.109
-140.472	8.157	-0.163	0.121
-139.458	232.025	0.198	-0.323
-138.443	-128.426	0.331	-0.047
-137.429	77.370	-0.116	0.123
-136.414	86.379	-0.330	0.361
-135.399	-200.000	0.031	0.382
-134.385	-200.000	-0.016	-0.089
-133.370	193.148	-0.097	0.146
-132.356	-200.000	-0.002	0.409
-131.341	800.000	-0.007	0.026
-130.326	81.331	-0.164	0.176
-129.312	-60.455	-0.108	0.046
-128.297	-200.000	-0.029	0.180
-127.283	-69.583	-0.273	-0.104
-126.268	392.270	0.116	0.239
-125.253	-200.000	0.034	0.180
-124.239	-184.580	0.149	0.002
-123.224	-200.000	-0.019	-0.197
-122.210	-200.000	0.020	-0.171
