DTS Sentinel unit serial number:	SN413079Multiplexer serial number:	ORYXHardware model number:	OX4-SRSoftware version number:	ORYX F/W v4.00 Oryx Data Collector v3.7.2.0data status	okinstallation	princeton_trtdifferential loss correction	single-endedforward channel	channel 2reverse channel	N/Adate	2019/09/16time	02:31:34forward acquisition time	60.00reverse acquisition time	0.00gamma	496.2192k internal	0.2335k external	0.2335temperature offset calibration	0.9970default loss term (dB/km)	0.3790temperature slope calibration	1.0000multiplexer offset coefficient	1.0000multiplexer slope coefficient	1.0000fibre end	0.00T internal ref (°C)	27.67T ext. ref 1 (°C)	10.28T ext. ref 2 (°C)	22.62length (m)	temperature (°C)	Stokes	anti-Stokes-747.200	-200.000	-0.044	-0.258
-746.185	273.933	-0.135	0.240
-745.171	-39.863	-0.197	-0.103
-744.156	102.839	-0.173	0.204
-743.142	2.819	-0.279	0.203
-742.127	-51.400	0.218	0.103
-741.112	-55.037	0.043	0.020
-740.098	-142.471	-0.250	-0.025
-739.083	-26.692	0.173	-0.102
-738.069	-119.275	-0.212	0.037
-737.054	26.720	0.020	0.017
-736.039	-88.033	-0.259	-0.078
-735.025	46.534	0.070	0.066
-734.010	316.889	-0.039	-0.075
-732.996	32.346	-0.213	-0.185
-731.981	-183.815	-0.308	0.005
-730.966	-129.460	0.232	0.032
-729.952	631.732	-0.103	-0.261
-728.937	116.643	-0.136	-0.167
-727.923	319.044	0.104	-0.198
-726.908	-48.380	0.228	0.110
-725.894	-200.000	0.048	0.218
-724.879	202.683	-0.073	0.113
-723.864	-128.608	0.483	-0.069
-722.850	-104.047	0.203	-0.048
-721.835	-59.731	0.275	-0.118
-720.821	87.899	-0.277	0.308
-719.806	92.887	-0.129	-0.146
-718.791	800.000	-0.085	-0.347
-717.777	74.635	-0.101	0.106
-716.762	567.288	0.068	0.165
-715.748	308.290	-0.091	-0.171
-714.733	-31.677	0.201	0.114
-713.718	785.812	-0.030	-0.081
-712.704	-77.788	0.046	0.016
-711.689	-200.000	-0.001	0.065
-710.675	-28.995	0.190	-0.110
-709.660	-200.000	0.000	0.069
-708.645	482.497	-0.072	-0.165
-707.631	800.000	-0.031	0.115
-706.616	-200.000	-0.033	-0.331
-705.602	-25.752	-0.197	-0.116
-704.587	-99.134	0.158	-0.040
-703.572	-200.000	-0.045	-0.293
-702.558	-50.456	-0.216	-0.102
-701.543	406.022	-0.099	-0.209
-700.529	-62.818	-0.189	-0.079
-699.514	-82.817	-0.152	0.049
-698.499	-126.892	-0.306	-0.045
-697.485	188.482	-0.150	-0.224
-696.470	521.713	0.200	-0.472
-695.456	800.000	0.047	-0.203
-694.441	-200.000	0.049	-0.270
-693.426	-52.197	0.155	0.072
-692.412	800.000	0.030	-0.097
-691.397	800.000	0.032	0.135
-690.383	64.024	0.153	0.154
-689.368	-200.000	0.003	-0.125
-688.354	-34.639	0.260	0.142
-687.339	511.323	0.026	0.060
-686.324	-200.000	-0.005	0.268
-685.310	-34.467	-0.110	0.061
-684.295	-200.000	0.016	-0.407
-683.281	-71.363	0.055	0.021
-682.266	-104.719	-0.139	-0.032
-681.251	101.025	-0.141	0.165
-680.237	29.283	-0.100	-0.085
-679.222	-7.867	-0.231	-0.157
-678.208	-200.000	0.036	0.211
-677.193	-200.000	-0.001	0.278
-676.178	800.000	0.051	0.200
-675.164	162.718	-0.198	-0.279
-674.149	81.097	0.334	0.362
-673.135	-104.467	-0.099	-0.023
-672.120	-95.720	0.170	0.046
-671.105	69.240	0.077	-0.080
-670.091	-67.254	0.117	-0.046
-669.076	4.115	-0.268	0.197
-668.062	462.086	0.110	-0.247
-667.047	-89.524	0.379	-0.111
-666.032	-200.000	0.038	-0.234
-665.018	-86.289	0.152	-0.047
-664.003	246.622	-0.079	0.133
-662.989	800.000	-0.070	-0.225
-661.974	-41.576	0.269	0.139
-660.959	61.199	0.236	-0.235
-659.945	269.529	0.168	-0.295
-658.930	9.270	0.232	-0.176
-657.916	-81.063	0.242	0.080
-656.901	800.000	-0.051	0.205
-655.886	-1.644	0.032	0.022
-654.872	-200.000	0.021	0.103
-653.857	48.853	-0.049	0.046
-652.843	259.891	-0.151	0.262
-651.828	-158.400	0.216	-0.013
-650.814	-62.895	0.156	0.064
-649.799	-200.000	0.039	-0.221
-648.784	800.000	0.021	-0.066
-647.770	1.816	-0.185	0.134
-646.755	-1.454	-0.066	0.046
-645.741	800.000	-0.049	0.166
-644.726	-82.840	0.082	0.027
-643.711	-89.621	-0.196	0.057
-642.697	-95.454	-0.137	0.037
-641.682	-56.142	-0.094	-0.042
-640.668	-86.075	-0.235	-0.073
-639.653	18.431	0.030	0.024
-638.638	-146.652	-0.268	-0.023
-637.624	-200.000	-0.031	-0.228
-636.609	93.272	-0.135	-0.153
-635.595	14.368	0.304	0.237
-634.580	-40.965	-0.248	-0.129
-633.565	-52.302	0.274	0.127
-632.551	-189.532	-0.174	-0.002
-631.536	40.336	0.314	-0.283
-630.522	-200.000	-0.023	-0.327
-629.507	342.992	-0.044	-0.086
-628.492	-200.000	0.072	-0.354
-627.478	-129.512	0.081	0.011
-626.463	800.000	-0.023	0.080
-625.449	-6.651	-0.194	-0.132
-624.434	-85.843	0.040	-0.012
-623.419	-26.056	0.060	0.035
-622.405	278.490	-0.046	0.082
-621.390	-71.939	-0.346	-0.129
-620.376	-38.754	-0.292	0.154
-619.361	-47.916	-0.072	0.035
-618.346	-132.244	-0.628	-0.081
-617.332	-200.000	0.002	-0.145
-616.317	-200.000	-0.018	0.281
-615.303	800.000	-0.106	-0.298
-614.288	156.106	0.161	0.222
-613.273	800.000	0.098	0.281
-612.259	35.708	0.257	-0.225
-611.244	29.279	-0.089	0.076
-610.230	331.290	-0.021	0.040
-609.215	-200.000	-0.016	-0.219
-608.201	800.000	-0.047	0.186
-607.186	-126.010	-0.309	-0.046
-606.171	52.554	0.108	-0.103
-605.157	-132.365	-0.324	-0.042
-604.142	675.776	-0.124	0.322
-603.128	-200.000	-0.013	0.067
-602.113	516.981	0.046	-0.107
-601.098	26.554	0.303	-0.254
-600.084	44.116	0.147	-0.135
-599.069	0.016	-0.276	-0.196
-598.055	-132.876	0.564	0.072
-597.040	452.677	0.018	-0.040
-596.025	-23.656	0.155	-0.093
-595.011	19.012	-0.238	0.191
-593.996	235.068	0.114	0.189
-592.982	-88.854	-0.298	0.088
-591.967	121.474	-0.127	-0.158
-590.952	174.088	-0.108	-0.156
-589.938	-14.376	0.205	-0.132
-588.923	-1.310	0.287	-0.203
-587.909	-21.056	-0.047	0.029
-586.894	-172.240	0.414	0.013
-585.879	131.911	0.117	-0.151
-584.865	-200.000	-0.044	-0.285
-583.850	-200.000	-0.001	0.063
-582.836	36.589	-0.014	0.012
-581.821	-180.690	0.322	0.007
-580.806	-200.000	0.038	0.240
-579.792	-119.683	0.006	0.001
-578.777	162.738	-0.159	-0.222
-577.763	-137.959	-0.083	-0.009
-576.748	-170.813	0.106	0.004
-575.733	12.495	-0.189	0.145
-574.719	800.000	0.012	-0.049
-573.704	-41.733	0.299	0.153
-572.690	-200.000	0.047	0.242
-571.675	-124.770	0.221	0.034
-570.661	-200.000	-0.001	0.190
-569.646	590.859	-0.050	-0.123
-568.631	-146.555	0.356	0.031
-567.617	-31.823	0.213	-0.119
-566.602	78.343	0.117	-0.125
-565.588	628.453	0.017	-0.042
-564.573	-116.831	-0.184	0.034
-563.558	-142.718	0.284	-0.028
-562.544	800.000	-0.064	-0.271
-561.529	235.625	-0.118	0.195
-560.515	-130.632	-0.114	0.015
-559.500	-91.318	0.123	-0.035
-558.485	367.543	0.191	0.385
-557.471	130.339	-0.198	-0.253
-556.456	96.771	-0.042	0.048
-555.442	-125.462	-0.204	0.031
-554.427	262.353	0.038	-0.065
-553.412	-47.520	0.154	0.075
-552.398	-112.543	-0.428	-0.085
-551.383	-195.843	-0.242	-0.002
-550.369	417.897	0.168	0.357
-549.354	26.394	0.095	-0.080
-548.339	312.437	0.192	-0.359
-547.325	800.000	0.048	0.137
-546.310	233.442	-0.213	-0.349
-545.296	68.353	0.148	0.151
-544.281	600.462	-0.040	0.098
-543.266	-145.121	-0.186	0.017
-542.252	-92.454	-0.114	-0.032
-541.237	-167.471	0.302	0.012
-540.223	-113.994	-0.485	-0.094
-539.208	131.923	-0.182	-0.234
-538.193	-98.865	0.469	-0.119
-537.179	-109.707	0.231	0.049
-536.164	800.000	-0.046	-0.149
-535.150	-200.000	-0.047	-0.297
-534.135	-196.533	-0.186	0.001
-533.121	-160.870	0.388	-0.020
-532.106	-200.000	-0.079	-0.361
-531.091	-2.570	-0.265	0.185
-530.077	-38.672	-0.047	0.025
-529.062	126.040	-0.173	-0.217
-528.048	-161.230	0.027	-0.001
-527.033	503.108	0.050	0.115
-526.018	-111.608	-0.357	0.072
-525.004	524.186	0.043	0.100
-523.989	15.019	0.177	0.138
-522.975	250.023	0.147	-0.248
-521.960	271.219	0.157	0.276
-520.945	-71.013	-0.333	0.125
-519.931	-99.473	-0.379	-0.095
-518.916	148.214	0.160	0.215
-517.902	619.159	-0.119	-0.297
-516.887	-9.970	0.252	0.167
-515.872	-34.523	0.260	-0.142
-514.858	760.765	-0.144	0.390
-513.843	800.000	0.030	-0.083
-512.829	-105.491	-0.342	-0.077
-511.814	-139.817	0.231	0.024
-510.799	-27.245	-0.033	0.019
-509.785	-5.494	0.108	-0.074
-508.770	-91.809	0.048	0.014
-507.756	-153.429	-0.329	-0.023
-506.741	-135.956	0.353	0.041
-505.726	800.000	-0.067	0.248
-504.712	-130.627	-0.131	-0.018
-503.697	-200.000	-0.029	-0.136
-502.683	108.407	-0.279	-0.331
-501.668	-77.583	-0.207	-0.071
-500.653	220.950	-0.096	0.153
-499.639	410.843	-0.226	0.478
-498.624	25.235	0.069	-0.057
-497.610	-200.000	-0.021	-0.394
-496.595	10.565	0.197	0.150
-495.581	38.429	0.160	0.142
-494.566	249.390	-0.125	-0.211
-493.551	-17.878	0.296	-0.185
-492.537	-10.806	0.145	0.095
-491.522	554.896	-0.098	0.236
-490.508	-91.111	0.390	-0.111
-489.493	800.000	-0.022	-0.091
-488.478	-200.000	0.014	0.403
-487.464	100.518	-0.122	-0.140
-486.449	-78.044	-0.078	0.027
-485.435	-42.987	-0.232	-0.117
-484.420	-200.000	-0.042	-0.259
-483.405	98.822	0.182	-0.209
-482.391	-20.631	-0.283	0.173
-481.376	93.794	0.158	0.178
-480.362	467.665	-0.101	0.225
-479.347	64.251	0.095	0.095
-478.332	-31.918	0.158	-0.088
-477.318	-200.000	-0.041	0.462
-476.303	-200.000	0.069	-0.422
-475.289	-163.057	-0.239	0.011
-474.274	-112.874	-0.213	-0.042
-473.259	426.279	0.130	-0.278
-472.245	-200.000	0.061	-0.292
-471.230	91.852	-0.260	-0.291
-470.216	7.509	0.252	-0.187
-469.201	-59.829	0.053	0.023
-468.186	489.622	0.082	0.187
-467.172	-56.459	-0.110	-0.048
-466.157	-187.313	-0.423	0.006
-465.143	175.320	0.230	0.332
-464.128	-64.459	0.123	0.050
-463.113	-200.000	0.032	-0.201
-462.099	-8.829	-0.217	-0.144
-461.084	110.852	-0.113	0.135
-460.070	366.084	0.083	0.166
-459.055	101.785	-0.073	-0.084
-458.040	-66.092	0.054	0.021
-457.026	-44.423	-0.431	-0.214
-456.011	519.842	-0.096	0.225
-454.997	-79.422	0.084	0.028
-453.982	168.273	-0.225	0.318
-452.968	5.382	-0.247	0.181
-451.953	32.636	0.363	0.312
-450.938	-200.000	-0.002	-0.091
-449.924	-130.619	0.123	0.017
-448.909	-37.862	-0.241	-0.127
-447.895	215.944	-0.209	-0.330
-446.880	-200.000	-0.006	-0.233
-445.865	176.846	-0.091	-0.131
-444.851	283.296	0.224	-0.399
-443.836	800.000	-0.074	-0.213
-442.822	-69.473	-0.080	-0.030
-441.807	-28.152	0.195	0.112
-440.792	-200.000	-0.010	0.099
-439.778	-95.825	0.493	-0.131
-438.763	474.255	-0.087	0.195
-437.749	-130.708	-0.234	-0.031
-436.734	-120.261	0.222	-0.038
-435.719	-105.188	0.490	-0.111
-434.705	15.971	0.055	0.043
-433.690	39.790	0.286	-0.254
-432.676	120.861	0.229	0.283
-431.661	-96.276	-0.279	0.073
-430.646	-14.358	0.091	-0.058
-429.632	-33.244	-0.267	-0.147
-428.617	65.485	-0.102	-0.103
-427.603	-200.000	-0.036	0.311
-426.588	-38.101	-0.292	-0.154
-425.573	11.140	-0.226	-0.172
-424.559	800.000	0.046	-0.143
-423.544	-85.245	0.290	0.090
-422.530	-200.000	0.047	0.518
-421.515	33.233	-0.073	0.063
-420.500	-52.660	-0.276	0.127
-419.486	128.513	0.123	-0.156
-418.471	800.000	-0.018	0.051
-417.457	286.239	0.175	0.313
-416.442	39.622	0.020	0.018
-415.428	55.017	0.199	-0.191
-414.413	-17.281	0.165	-0.103
-413.398	152.517	0.130	-0.176
-412.384	-86.891	0.160	-0.048
-411.369	800.000	-0.079	-0.323
-410.355	-4.182	0.239	-0.164
-409.340	9.006	-0.262	-0.196
-408.325	646.138	-0.122	-0.309
-407.311	-56.145	0.346	0.153
-406.296	800.000	0.099	0.314
-405.282	136.386	-0.231	0.299
-404.267	800.000	-0.100	-0.391
-403.252	-93.176	0.213	-0.059
-402.238	-78.019	0.371	-0.127
-401.223	135.458	-0.164	-0.211
-400.209	-139.230	-0.209	-0.022
-399.194	-193.232	0.215	-0.002
-398.179	-71.782	0.206	0.076
-397.165	-200.000	-0.024	-0.267
-396.150	-75.241	-0.460	0.163
-395.136	-7.997	0.236	-0.158
-394.121	-139.641	0.130	-0.014
-393.106	112.873	0.065	-0.078
-392.092	240.130	-0.140	0.232
-391.077	38.224	-0.175	0.155
-390.063	221.794	0.162	0.258
-389.048	-200.000	0.020	0.132
-388.033	-42.455	-0.011	-0.005
-387.019	800.000	-0.070	0.284
-386.004	296.025	0.120	0.217
-384.990	1.858	0.175	0.125
-383.975	2.085	-0.183	-0.131
-382.960	490.961	0.132	0.300
-381.946	-200.000	0.044	0.358
-380.931	-104.595	0.307	-0.070
-379.917	-0.210	0.493	-0.348
-378.902	228.561	0.102	0.164
-377.888	800.000	-0.048	0.155
-376.873	-94.788	-0.248	0.067
-375.858	-200.000	0.000	-0.093
-374.844	702.998	-0.105	-0.275
-373.829	163.671	0.189	0.264
-372.815	26.184	-0.165	0.137
-371.800	36.382	-0.139	0.122
-370.785	800.000	0.004	-0.013
-369.771	800.000	-0.099	0.311
-368.756	-200.000	-0.057	0.473
-367.742	243.745	-0.106	0.176
-366.727	661.449	0.062	-0.158
-365.712	-142.024	0.368	-0.036
-364.698	-200.000	-0.031	-0.419
-363.683	-76.687	-0.155	0.054
-362.669	-200.000	-0.072	-0.331
-361.654	20.323	-0.169	-0.135
-360.639	-200.000	-0.051	-0.222
-359.625	-200.000	-0.017	-0.244
-358.610	50.210	0.146	0.137
-357.596	-27.928	-0.108	-0.062
-356.581	-28.761	-0.482	-0.275
-355.566	-118.950	0.205	-0.036
-354.552	-89.443	-0.094	0.027
-353.537	83.788	0.089	0.096
-352.523	-168.378	-0.079	0.003
-351.508	-176.714	0.074	-0.002
-350.493	-54.206	0.279	0.126
-349.479	620.217	-0.090	-0.224
-348.464	-82.901	0.144	-0.046
-347.450	554.410	-0.105	0.250
-346.435	-104.697	0.222	0.050
-345.420	291.694	0.213	0.384
-344.406	-114.876	0.353	-0.067
-343.391	504.292	0.153	-0.351
-342.377	-11.775	-0.235	0.152
-341.362	43.137	0.163	-0.147
-340.348	-200.000	-0.080	0.474
-339.333	301.067	0.142	0.260
-338.318	-178.068	-0.187	-0.004
-337.304	1.146	-0.110	-0.078
-336.289	183.937	0.110	0.161
-335.275	126.898	-0.069	-0.086
-334.260	-151.072	-0.232	0.017
-333.245	11.153	-0.090	0.068
-332.231	-148.440	0.146	-0.012
-331.216	80.072	-0.235	-0.250
-330.202	376.213	-0.084	-0.169
-329.187	-29.338	-0.150	0.085
-328.172	34.799	-0.024	0.021
-327.158	-118.671	0.178	0.031
-326.143	-84.694	0.391	-0.122
-325.129	-15.858	-0.193	0.121
-324.114	278.350	0.041	-0.073
-323.099	-69.612	-0.330	0.125
-322.085	107.018	-0.253	-0.297
-321.070	-38.492	0.119	0.062
-320.056	-200.000	-0.034	0.182
-319.041	-41.224	0.215	0.110
-318.026	-31.097	0.147	0.082
-317.012	56.355	0.061	0.058
-315.997	127.934	-0.260	-0.327
-314.983	744.868	-0.045	0.120
-313.968	-30.007	-0.158	0.089
-312.953	800.000	-0.010	-0.031
-311.939	1.119	-0.235	-0.166
-310.924	-200.000	0.005	-0.025
-309.910	57.439	-0.092	-0.088
-308.895	-167.444	0.174	0.007
-307.880	11.954	-0.176	0.133
-306.866	-200.000	-0.025	-0.236
-305.851	-102.699	-0.449	-0.106
-304.837	-90.336	-0.089	0.026
-303.822	130.605	0.110	-0.139
-302.807	-112.094	-0.398	-0.079
-301.793	-87.810	0.022	-0.006
-300.778	609.580	0.182	0.450
-299.764	-74.120	0.320	0.115
-298.749	107.226	-0.126	0.148
-297.735	301.070	-0.054	-0.098
-296.720	-200.000	-0.011	-0.144
-295.705	-45.712	0.251	0.123
-294.691	-28.591	0.154	0.088
-293.676	-200.000	0.018	-0.374
-292.662	61.438	-0.121	0.119
-291.647	-108.194	0.079	0.017
-290.632	-145.282	-0.095	0.009
-289.618	335.905	-0.130	0.249
-288.603	-129.609	0.318	0.043
-287.589	-200.000	-0.026	-0.175
-286.574	-200.000	-0.040	-0.486
-285.559	-200.000	-0.011	-0.101
-284.545	800.000	0.021	0.062
-283.530	800.000	-0.102	0.310
-282.516	-132.814	0.168	0.021
-281.501	-29.138	-0.060	0.034
-280.486	-200.000	-0.050	0.451
-279.472	-184.257	-0.067	0.001
-278.457	11.952	-0.162	-0.123
-277.443	800.000	0.030	0.097
-276.428	-96.808	-0.200	-0.052
-275.413	-154.173	-0.141	-0.009
-274.399	12.697	0.117	-0.089
-273.384	-55.751	-0.186	-0.082
-272.370	57.726	-0.269	0.260
-271.355	81.398	-0.137	-0.146
-270.340	-76.376	0.258	-0.090
-269.326	-106.948	-0.169	0.037
-268.311	-38.528	-0.204	-0.106
-267.297	176.288	-0.094	0.135
-266.282	0.423	-0.264	0.186
-265.267	-7.392	0.142	-0.095
-264.253	195.829	0.142	0.213
-263.238	-200.000	0.023	0.118
-262.224	-200.000	-0.446	-0.002
-261.209	-200.000	0.006	0.080
-260.195	76.538	-0.184	-0.192
-259.180	800.000	0.047	-0.150
-258.165	-187.612	0.154	-0.002
-257.151	-200.000	-0.004	-0.263
-256.136	800.000	0.044	-0.131
-255.122	480.820	-0.082	0.185
-254.107	-86.215	0.543	0.165
-253.092	-56.119	-0.131	-0.058
-252.078	-2.550	-0.114	0.079
-251.063	800.000	0.044	0.178
-250.049	-200.000	0.004	-0.028
-249.034	800.000	0.044	-0.130
-248.019	-200.000	0.063	0.324
-247.005	-200.000	-0.016	0.078
-245.990	83.514	-0.114	0.123
-244.976	38.787	-0.223	0.197
-243.961	-200.000	-0.013	-0.073
-242.946	-200.000	0.004	-0.212
-241.932	-124.941	-0.116	0.018
-240.917	-133.712	0.178	0.022
-239.903	320.366	0.033	0.062
-238.888	22.375	-0.093	0.075
-237.873	-142.030	0.270	-0.026
-236.859	-200.000	0.043	-0.361
-235.844	-51.944	0.319	0.146
-234.830	366.135	-0.195	0.387
-233.815	12.982	0.333	-0.254
-232.800	-181.420	-0.241	0.005
-231.786	219.142	0.036	0.056
-230.771	336.548	0.105	0.201
-229.757	-200.000	-0.076	0.330
-228.742	-200.000	-0.023	0.297
-227.727	-60.091	-0.166	-0.070
-226.713	-200.000	-0.005	-0.334
-225.698	-200.000	-0.041	-0.194
-224.684	-200.000	0.012	-0.284
-223.669	-200.000	-0.021	-0.156
-222.655	42.167	-0.140	-0.125
-221.640	67.150	0.032	0.032
-220.625	800.000	0.038	0.152
-219.611	746.458	-0.116	0.308
-218.596	-146.416	0.270	0.023
-217.582	5.059	0.289	-0.209
-216.567	-200.000	0.043	0.334
-215.552	-200.000	0.034	0.255
-214.538	800.000	-0.122	0.357
-213.523	-89.718	-0.245	0.071
-212.509	27.971	-0.268	-0.223
-211.494	493.224	-0.099	0.224
-210.479	117.521	-0.119	-0.144
-209.465	-200.000	0.026	0.289
-208.450	69.453	0.181	-0.184
-207.436	-101.760	-0.267	0.064
-206.421	-87.661	0.062	0.018
-205.406	42.791	-0.167	-0.150
-204.392	-60.625	0.347	0.145
-203.377	-200.000	0.019	-0.131
-202.363	-60.165	0.207	-0.087
-201.348	-200.000	0.047	-0.286
-200.333	50.715	0.277	0.258
-199.319	236.162	0.299	-0.487
-198.304	-119.585	0.031	0.005
-197.290	-100.761	-0.116	-0.028
-196.275	-130.118	-0.203	0.027
-195.260	-61.618	0.067	-0.028
-194.246	181.152	0.133	0.192
-193.231	-117.467	0.341	0.061
-192.217	-0.510	-0.214	-0.149
-191.202	68.009	0.094	-0.095
-190.187	32.909	-0.241	0.205
-189.173	127.421	0.199	-0.248
-188.158	-40.837	-0.120	0.061
-187.144	-26.483	0.028	0.016
-186.129	414.150	0.103	-0.215
-185.114	-200.000	-0.091	0.000
-184.100	800.000	0.101	-0.307
-183.085	-200.000	-0.059	-0.281
-182.071	-200.000	0.009	-0.071
-181.056	800.000	0.052	0.208
-180.042	800.000	-0.193	0.530
-179.027	-25.041	0.270	0.157
-178.012	-87.282	0.192	-0.057
-176.998	-200.000	0.027	-0.119
-175.983	800.000	0.063	-0.205
-174.969	-200.000	-0.002	-0.058
-173.954	149.095	0.151	0.200
-172.939	774.528	0.115	0.309
-171.925	-200.000	-0.000	-0.268
-170.910	34.522	-0.037	0.031
-169.896	-200.000	0.024	0.500
-168.881	55.218	0.152	0.144
-167.866	49.565	0.145	0.134
-166.852	-132.978	0.174	-0.022
-165.837	211.462	-0.096	0.149
-164.823	-17.153	0.145	-0.090
-163.808	-113.522	-0.272	-0.052
-162.793	-110.278	-0.274	0.056
-161.779	11.094	0.085	-0.064
-160.764	-130.255	0.430	-0.057
-159.750	77.205	0.269	-0.281
-158.735	-33.983	0.376	0.203
-157.720	-57.636	-0.243	0.105
-156.706	800.000	0.083	0.261
-155.691	87.675	0.143	0.156
-154.677	19.112	0.132	-0.104
-153.662	800.000	0.012	0.045
-152.647	246.428	-0.038	0.063
-151.633	-25.946	-0.217	0.126
-150.618	800.000	-0.045	-0.131
-149.604	352.330	0.096	0.187
-148.589	800.000	0.041	0.142
-147.574	538.203	0.036	-0.084
-146.560	2.842	0.165	0.118
-145.545	299.495	-0.057	0.104
-144.531	800.000	-0.037	0.133
-143.516	289.934	0.124	0.220
-142.502	-137.918	0.351	-0.038
-141.487	-51.052	0.277	-0.127
-140.472	14.450	0.247	0.189
-139.458	-200.000	0.015	0.342
-138.443	121.326	-0.033	-0.040
-137.429	679.603	0.104	0.267
-136.414	130.996	-0.117	0.147
-135.399	-20.800	0.080	0.048
-134.385	16.646	0.153	-0.119
-133.370	641.398	0.045	0.111
-132.356	58.875	0.172	-0.165
-131.341	201.483	0.255	-0.385
-130.326	-160.019	0.126	-0.007
-129.312	-169.390	0.356	0.013
-128.297	800.000	0.070	0.267
-127.283	181.004	0.169	-0.244
-126.268	3.384	0.131	-0.094
-125.253	-121.468	-0.101	-0.016
-124.239	800.000	0.041	-0.154
-123.224	-23.511	-0.356	-0.209
-122.210	114.470	0.119	0.142
-121.195	732.495	0.089	-0.233
