DTS Sentinel unit serial number:	SN413079Multiplexer serial number:	ORYXHardware model number:	OX4-SRSoftware version number:	ORYX F/W v4.00 Oryx Data Collector v3.7.2.0data status	okinstallation	princeton_trtdifferential loss correction	single-endedforward channel	channel 2reverse channel	N/Adate	2019/09/19time	04:19:34forward acquisition time	60.00reverse acquisition time	0.00gamma	496.2192k internal	0.2352k external	0.2352temperature offset calibration	1.0017default loss term (dB/km)	0.3790temperature slope calibration	1.0000multiplexer offset coefficient	1.0000multiplexer slope coefficient	1.0000fibre end	0.00T internal ref (°C)	20.25T ext. ref 1 (°C)	0.62T ext. ref 2 (°C)	13.58length (m)	temperature (°C)	Stokes	anti-Stokes-747.200	262.514	-0.090	0.155
-746.185	800.000	-0.066	-0.201
-745.171	-77.445	0.283	0.098
-744.156	526.466	0.051	-0.119
-743.142	255.437	0.155	-0.265
-742.127	202.920	-0.169	0.260
-741.112	-120.684	0.280	0.047
-740.098	-174.082	-0.172	0.005
-739.083	109.829	-0.073	-0.087
-738.069	-200.000	0.017	0.101
-737.054	32.278	0.265	-0.228
-736.039	-200.000	0.017	-0.177
-735.025	542.826	0.040	-0.095
-734.010	26.975	-0.206	0.172
-732.996	151.333	0.162	-0.220
-731.981	268.428	0.026	-0.045
-730.966	-200.000	0.055	-0.271
-729.952	-167.543	-0.146	-0.006
-728.937	126.035	0.102	-0.128
-727.923	27.758	-0.109	0.091
-726.908	800.000	-0.051	-0.223
-725.894	492.849	0.086	-0.198
-724.879	-177.277	-0.434	0.011
-723.864	199.587	-0.051	-0.078
-722.850	230.834	-0.029	0.048
-721.835	-16.884	-0.503	-0.317
-720.821	85.158	-0.062	-0.068
-719.806	-135.612	0.150	0.018
-718.791	-200.000	-0.064	-0.279
-717.777	-66.230	-0.261	-0.104
-716.762	-200.000	0.005	-0.171
-715.748	-45.656	-0.206	0.102
-714.733	475.366	0.078	0.176
-713.718	-140.826	0.033	-0.003
-712.704	-148.507	0.111	-0.009
-711.689	-99.495	0.333	-0.084
-710.675	126.557	0.056	0.071
-709.660	18.279	-0.067	-0.053
-708.645	156.968	0.200	0.276
-707.631	-4.597	-0.152	0.104
-706.616	180.990	0.100	-0.147
-705.602	783.086	-0.042	-0.115
-704.587	800.000	0.051	0.189
-703.572	69.162	-0.142	-0.145
-702.558	-124.882	0.112	-0.017
-701.543	94.612	-0.183	0.207
-700.529	41.804	-0.144	0.130
-699.514	416.936	-0.032	-0.068
-698.499	194.338	0.030	0.046
-697.485	-166.909	-0.014	0.001
-696.470	-200.000	-0.077	-0.446
-695.456	392.868	0.133	0.276
-694.441	307.432	0.048	-0.088
-693.426	800.000	0.058	-0.251
-692.412	-200.000	0.007	-0.179
-691.397	-96.169	-0.316	-0.084
-690.383	-159.607	-0.471	0.026
-689.368	-63.678	0.087	0.036
-688.354	645.901	0.069	-0.174
-687.339	44.407	0.090	0.082
-686.324	800.000	-0.091	0.368
-685.310	609.040	0.115	-0.285
-684.295	-200.000	-0.082	-0.388
-683.281	517.051	0.057	0.133
-682.266	-200.000	-0.038	0.217
-681.251	-107.177	0.295	0.065
-680.237	-200.000	0.008	-0.097
-679.222	-200.000	0.082	-0.486
-678.208	-87.077	-0.188	0.057
-677.193	-200.000	0.027	0.169
-676.178	-200.000	-0.002	-0.013
-675.164	25.198	-0.302	-0.250
-674.149	368.705	0.094	-0.188
-673.135	153.313	-0.199	-0.271
-672.120	31.507	-0.101	-0.086
-671.105	800.000	0.067	-0.261
-670.091	-50.836	0.193	-0.090
-669.076	107.388	0.118	-0.140
-668.062	800.000	-0.080	-0.346
-667.047	77.567	0.093	0.098
-666.032	122.378	0.134	-0.166
-665.018	-69.788	-0.105	0.040
-664.003	-18.096	0.187	0.117
-662.989	150.628	-0.222	-0.300
-661.974	556.585	-0.046	-0.109
-660.959	-179.460	-0.141	0.003
-659.945	-59.462	0.198	-0.084
-658.930	34.250	-0.086	-0.074
-657.916	-51.888	-0.087	-0.040
-656.901	-200.000	0.088	0.459
-655.886	384.944	0.113	-0.231
-654.872	294.588	-0.052	-0.095
-653.857	-200.000	0.024	0.194
-652.843	-23.920	0.079	-0.047
-651.828	-200.000	-0.019	0.149
-650.814	132.508	0.161	0.206
-649.799	263.392	-0.090	-0.156
-648.784	-140.315	-0.201	0.021
-647.770	666.771	-0.110	-0.283
-646.755	657.641	-0.217	-0.555
-645.741	142.780	-0.219	-0.289
-644.726	-180.677	0.308	-0.006
-643.711	-46.324	0.231	0.113
-642.697	81.111	-0.054	0.058
-641.682	-200.000	0.014	0.273
-640.668	443.508	0.153	0.333
-639.653	-57.048	0.151	0.066
-638.638	-47.783	0.307	-0.148
-637.624	22.629	0.016	0.013
-636.609	-174.142	0.328	-0.010
-635.595	-128.254	-0.146	0.021
-634.580	22.721	0.250	-0.204
-633.565	54.669	0.170	0.163
-632.551	-200.000	-0.011	-0.228
-631.536	-200.000	0.017	-0.091
-630.522	69.878	-0.110	-0.113
-629.507	-51.451	0.163	-0.076
-628.492	-200.000	0.017	-0.346
-627.478	214.199	-0.136	0.214
-626.463	-200.000	-0.001	0.299
-625.449	10.602	0.150	0.113
-624.434	230.362	-0.182	0.296
-623.419	89.590	0.032	-0.035
-622.405	-200.000	-0.023	0.111
-621.390	-137.511	0.133	-0.015
-620.376	-176.771	0.187	0.005
-619.361	800.000	-0.059	-0.176
-618.346	-200.000	-0.023	-0.450
-617.332	31.427	-0.197	0.168
-616.317	71.924	0.045	0.047
-615.303	-200.000	-0.000	0.136
-614.288	-200.000	-0.020	0.285
-613.273	-29.802	0.290	0.164
-612.259	619.468	-0.080	-0.199
-611.244	-126.248	-0.418	-0.062
-610.230	800.000	0.083	0.245
-609.215	799.120	-0.007	0.019
-608.201	-135.273	-0.307	-0.037
-607.186	-23.470	0.067	0.040
-606.171	-49.578	-0.255	-0.120
-605.157	800.000	-0.028	-0.118
-604.142	-150.899	0.064	-0.005
-603.128	-200.000	0.037	-0.214
-602.113	60.563	-0.231	-0.227
-601.098	436.062	-0.087	-0.188
-600.084	91.573	-0.178	-0.198
-599.069	-28.800	0.081	-0.046
-598.055	-120.465	0.241	-0.041
-597.040	8.307	-0.218	-0.162
-596.025	257.063	0.059	-0.100
-595.011	-200.000	-0.011	-0.054
-593.996	246.672	-0.141	-0.236
-592.982	-200.000	0.014	0.144
-591.967	242.325	-0.055	0.092
-590.952	-112.899	0.131	-0.026
-589.938	-99.674	-0.534	-0.133
-588.923	-119.956	-0.319	0.054
-587.909	432.369	-0.093	-0.199
-586.894	-44.006	-0.300	-0.150
-585.879	-112.328	-0.106	-0.021
-584.865	-200.000	-0.010	0.353
-583.850	50.075	0.087	-0.081
-582.836	-119.555	-0.274	-0.047
-581.821	64.628	0.042	0.042
-580.806	-20.489	0.059	0.036
-579.792	211.911	0.071	0.111
-578.777	-47.752	0.042	-0.020
-577.763	125.502	0.055	-0.069
-576.748	584.275	-0.094	-0.229
-575.733	270.346	0.177	-0.309
-574.719	190.620	-0.227	-0.339
-573.704	106.617	-0.198	-0.232
-572.690	-200.000	-0.021	0.249
-571.675	-200.000	-0.002	0.013
-570.661	-192.629	0.077	-0.001
-569.646	-121.358	-0.202	0.033
-568.631	134.173	-0.026	-0.033
-567.617	800.000	-0.069	0.199
-566.602	167.817	-0.021	-0.030
-565.588	312.724	0.158	0.294
-564.573	-83.262	0.136	0.043
-563.558	67.079	0.107	0.108
-562.544	156.565	0.035	0.048
-561.529	34.103	-0.093	-0.080
-560.515	-200.000	-0.022	-0.252
-559.500	-104.324	0.198	-0.046
-558.485	281.036	0.104	0.185
-557.471	-200.000	-0.026	-0.154
-556.456	-1.161	-0.232	0.163
-555.442	-2.127	-0.097	0.067
-554.427	-57.181	-0.118	-0.052
-553.412	205.679	0.050	-0.078
-552.398	69.418	-0.149	-0.151
-551.383	-33.413	0.224	-0.123
-550.369	800.000	0.106	-0.324
-549.354	-200.000	0.021	0.326
-548.339	157.461	-0.169	-0.231
-547.325	286.684	0.125	-0.223
-546.310	-200.000	-0.022	0.119
-545.296	231.462	0.103	-0.167
-544.281	-82.748	0.478	-0.153
-543.266	37.881	-0.066	-0.058
-542.252	-91.119	0.243	-0.069
-541.237	800.000	0.019	0.054
-540.223	800.000	0.099	-0.327
-539.208	-14.884	0.103	-0.065
-538.193	-68.299	0.326	-0.125
-537.179	-200.000	-0.020	0.099
-536.164	-45.219	0.212	-0.104
-535.150	-88.651	-0.188	0.055
-534.135	-61.099	0.230	-0.096
-533.121	-92.589	-0.272	0.076
-532.106	26.311	0.173	0.143
-531.091	16.533	-0.145	-0.114
-530.077	126.561	0.062	-0.077
-529.062	213.362	0.170	0.266
-528.048	800.000	-0.114	0.368
-527.033	343.529	-0.099	-0.192
-526.018	78.189	-0.155	-0.164
-525.004	128.005	0.114	0.144
-523.989	-27.126	0.439	0.253
-522.975	-100.191	-0.251	-0.062
-521.960	32.882	0.049	-0.042
-520.945	800.000	-0.063	0.235
-519.931	692.329	0.061	-0.159
-518.916	-89.225	0.106	-0.031
-517.902	-152.108	-0.335	0.024
-516.887	-98.049	-0.127	0.032
-515.872	-200.000	-0.007	-0.101
-514.858	-41.671	-0.154	-0.078
-513.843	-78.156	0.448	-0.152
-512.829	-89.495	-0.389	0.113
-511.814	-89.064	-0.229	-0.067
-510.799	-14.038	-0.025	-0.016
-509.785	-200.000	-0.001	-0.029
-508.770	-113.062	0.098	0.019
-507.756	-24.728	-0.111	0.065
-506.741	800.000	-0.060	-0.166
-505.726	156.961	-0.301	-0.411
-504.712	-200.000	-0.099	0.442
-503.697	-18.238	0.211	0.131
-502.683	-12.268	0.295	-0.190
-501.668	-200.000	-0.039	0.216
-500.653	15.511	-0.210	0.163
-499.639	-51.432	0.179	-0.083
-498.624	246.149	-0.129	-0.215
-497.610	-38.891	0.097	0.051
-496.595	-200.000	-0.007	0.506
-495.581	800.000	0.110	0.314
-494.566	187.263	-0.088	0.130
-493.551	243.609	0.063	-0.105
-492.537	361.480	0.076	0.150
-491.522	-102.514	-0.311	0.074
-490.508	97.921	0.164	-0.187
-489.493	24.947	-0.125	-0.103
-488.478	-200.000	0.006	0.034
-487.464	435.857	-0.088	-0.189
-486.449	-43.856	-0.137	0.068
-485.435	-100.217	0.210	-0.052
-484.420	189.941	-0.147	0.218
-483.405	-87.247	-0.120	-0.036
-482.391	645.754	-0.141	-0.356
-481.376	-46.149	0.231	-0.112
-480.362	800.000	-0.058	0.165
-479.347	-200.000	-0.002	0.364
-478.332	-135.730	-0.059	-0.007
-477.318	504.740	0.069	0.157
-476.303	157.653	0.150	-0.206
-475.289	-88.617	-0.092	0.027
-474.274	123.309	-0.082	0.102
-473.259	-89.298	-0.243	-0.071
-472.245	-8.068	-0.096	-0.064
-471.230	39.685	-0.337	0.298
-470.216	71.237	-0.142	0.145
-469.201	-54.634	0.385	-0.172
-468.186	-14.573	0.241	0.153
-467.172	3.045	-0.172	-0.124
-466.157	50.474	-0.133	-0.124
-465.143	405.539	-0.063	-0.132
-464.128	-200.000	-0.018	-0.172
-463.113	-140.830	0.249	-0.025
-462.099	594.996	-0.102	-0.249
-461.084	443.261	-0.030	-0.065
-460.070	-200.000	-0.045	0.438
-459.055	39.920	-0.158	-0.140
-458.040	-16.259	-0.079	-0.050
-457.026	-78.584	-0.046	-0.016
-456.011	-200.000	-0.005	0.175
-454.997	-200.000	0.036	0.160
-453.982	-126.134	0.313	0.046
-452.968	212.777	0.156	0.242
-451.953	-0.171	0.131	-0.092
-450.938	-120.975	-0.218	0.036
-449.924	-200.000	-0.035	-0.216
-448.909	181.785	-0.104	-0.152
-447.895	110.399	0.115	0.137
-446.880	-61.120	0.075	-0.031
-445.865	800.000	0.149	0.409
-444.851	-200.000	-0.010	0.135
-443.836	-36.650	-0.149	-0.079
-442.822	-200.000	-0.015	-0.121
-441.807	156.925	-0.133	-0.182
-440.792	-139.723	0.121	0.013
-439.778	7.033	-0.213	0.156
-438.763	-200.000	0.032	-0.252
-437.749	217.205	0.068	0.106
-436.734	308.000	0.100	0.184
-435.719	373.486	0.071	-0.143
-434.705	-200.000	-0.042	0.368
-433.690	224.751	-0.226	0.360
-432.676	296.647	0.119	0.214
-431.661	-58.915	0.174	-0.074
-430.646	140.029	0.136	0.176
-429.632	239.395	-0.115	0.188
-428.617	800.000	0.077	-0.247
-427.603	-33.306	-0.205	0.112
-426.588	-81.748	-0.064	-0.021
-425.573	329.518	0.144	0.273
-424.559	663.511	0.098	0.249
-423.544	651.669	-0.046	0.116
-422.530	-98.725	-0.284	0.071
-421.515	-55.437	0.304	-0.134
-420.500	-115.518	-0.217	0.040
-419.486	92.871	-0.172	0.192
-418.471	-149.518	0.213	0.017
-417.457	355.918	0.358	0.702
-416.442	53.494	0.242	0.229
-415.428	-82.598	0.033	-0.010
-414.413	-169.765	-0.210	0.007
-413.398	39.825	-0.331	-0.292
-412.384	308.792	-0.058	-0.107
-411.369	-55.385	0.188	-0.083
-410.355	170.061	-0.152	0.214
-409.340	-72.247	0.168	-0.061
-408.325	-87.385	-0.168	0.050
-407.311	118.773	0.096	0.117
-406.296	553.924	0.030	-0.070
-405.282	299.272	0.149	-0.270
-404.267	-13.965	-0.420	-0.267
-403.252	-89.179	0.025	0.007
-402.238	-72.033	-0.122	0.045
-401.223	-19.256	0.158	-0.097
-400.209	258.435	-0.186	-0.316
-399.194	50.895	0.035	0.033
-398.179	80.189	0.195	-0.206
-397.165	94.036	0.102	-0.114
-396.150	-200.000	0.075	0.000
-395.136	-139.107	-0.185	0.020
-394.121	8.597	0.027	-0.020
-393.106	-13.493	-0.190	-0.121
-392.092	-133.993	-0.284	0.035
-391.077	-29.240	-0.030	0.017
-390.063	-49.427	-0.214	0.100
-389.048	-104.278	-0.181	-0.041
-388.033	284.587	0.081	0.143
-387.019	-48.495	0.116	-0.055
-386.004	182.100	-0.148	-0.214
-384.990	-92.613	-0.207	0.057
-383.975	-58.950	0.490	-0.208
-382.960	511.322	0.048	-0.111
-381.946	-200.000	-0.014	0.108
-380.931	-149.581	0.039	-0.003
-379.917	-200.000	0.022	-0.244
-378.902	-200.000	0.002	-0.084
-377.888	67.144	0.246	-0.247
-376.873	-150.279	0.353	0.027
-375.858	13.074	0.235	0.179
-374.844	110.605	0.164	-0.194
-373.829	227.451	0.010	-0.017
-372.815	-200.000	-0.028	0.124
-371.800	90.858	-0.130	-0.143
-370.785	193.118	-0.021	-0.031
-369.771	696.346	-0.141	0.364
-368.756	800.000	-0.080	0.257
-367.742	800.000	0.037	-0.122
-366.727	-200.000	-0.000	-0.180
-365.712	156.013	0.088	-0.119
-364.698	800.000	0.052	-0.205
-363.683	-200.000	0.059	0.283
-362.669	800.000	-0.109	-0.333
-361.654	246.018	0.111	-0.184
-360.639	684.306	0.092	0.236
-359.625	-134.437	-0.485	-0.058
-358.610	-14.449	0.074	0.047
-357.596	-60.633	0.088	0.037
-356.581	-200.000	0.004	-0.163
-355.566	-32.308	0.055	0.030
-354.552	194.746	-0.070	0.104
-353.537	-171.419	0.338	-0.011
-352.523	800.000	0.058	0.209
-351.508	25.907	-0.043	-0.035
-350.493	5.139	0.187	-0.135
-349.479	749.258	0.111	-0.293
-348.464	-200.000	-0.027	-0.125
-347.450	437.376	0.041	0.088
-346.435	800.000	0.118	0.342
-345.420	-111.732	0.151	0.030
-344.406	100.349	0.102	0.116
-343.391	139.646	-0.097	0.125
-342.377	305.628	0.089	0.162
-341.362	34.678	0.262	0.225
-340.348	83.359	-0.089	0.095
-339.333	-51.753	0.310	0.142
-338.318	-200.000	0.014	0.145
-337.304	800.000	0.077	0.234
-336.289	626.661	0.166	-0.411
-335.275	-73.643	0.139	0.050
-334.260	295.168	0.044	0.080
-333.245	99.946	-0.281	-0.320
-332.231	-139.232	-0.108	0.011
-331.216	-77.036	0.165	-0.056
-330.202	215.219	-0.128	0.199
-329.187	54.839	0.157	-0.149
-328.172	-121.191	-0.193	0.032
-327.158	-200.000	-0.081	-0.518
-326.143	-121.808	0.195	-0.032
-325.129	-36.248	-0.403	-0.213
-324.114	-27.163	0.333	0.191
-323.099	-44.308	-0.341	-0.168
-322.085	12.133	-0.236	0.179
-321.070	-35.107	-0.425	0.227
-320.056	-99.495	-0.245	0.060
-319.041	103.105	0.084	0.096
-318.026	-107.254	0.036	0.008
-317.012	17.760	-0.128	0.100
-315.997	325.940	0.083	-0.156
-314.983	639.751	-0.170	0.423
-313.968	-200.000	-0.090	0.391
-312.953	63.329	-0.174	0.171
-311.939	1.812	-0.131	-0.093
-310.924	702.709	0.034	0.088
-309.910	-163.895	0.211	-0.010
-308.895	-200.000	-0.057	-0.253
-307.880	288.866	0.088	-0.156
-306.866	-200.000	0.060	0.309
-305.851	-79.390	0.350	0.116
-304.837	-101.649	-0.162	0.039
-303.822	-200.000	0.002	-0.060
-302.807	43.712	-0.086	0.077
-301.793	-200.000	0.015	-0.097
-300.778	-200.000	-0.249	-0.000
-299.764	203.314	-0.093	0.141
-298.749	-200.000	0.051	0.346
-297.735	800.000	0.040	-0.146
-296.720	-45.190	0.225	-0.110
-295.705	75.392	0.023	-0.024
-294.691	800.000	0.109	-0.352
-293.676	-71.357	-0.180	-0.066
-292.662	-137.367	-0.324	-0.036
-291.647	83.429	0.194	0.207
-290.632	315.585	-0.119	0.221
-289.618	80.409	-0.305	0.322
-288.603	-39.852	0.219	0.112
-287.589	-200.000	-0.025	-0.260
-286.574	215.445	0.124	0.192
-285.559	800.000	0.052	-0.178
-284.545	-95.569	0.258	-0.068
-283.530	197.071	-0.117	0.174
-282.516	55.200	-0.256	0.243
-281.501	-38.934	-0.201	-0.104
-280.486	-42.976	0.026	-0.013
-279.472	-200.000	-0.009	0.258
-278.457	-42.824	0.236	-0.118
-277.443	-106.335	-0.209	-0.046
-276.428	-63.981	-0.181	-0.073
-275.413	-200.000	-0.011	0.082
-274.399	800.000	-0.080	0.226
-273.384	-67.436	-0.126	0.048
-272.370	783.557	0.079	0.213
-271.355	66.204	0.124	-0.123
-270.340	73.989	-0.217	-0.223
-269.326	345.935	0.091	0.175
-268.311	-200.000	0.005	0.121
-267.297	305.336	0.122	-0.222
-266.282	-126.613	0.283	-0.041
-265.267	-61.484	-0.062	0.025
-264.253	-0.262	0.291	0.202
-263.238	-65.149	-0.132	-0.052
-262.224	-22.399	-0.273	0.162
-261.209	267.814	-0.075	0.128
-260.195	-51.473	0.315	0.144
-259.180	-19.056	0.270	0.165
-258.165	-200.000	0.054	0.290
-257.151	-30.857	-0.289	-0.160
-256.136	-85.845	-0.211	0.064
-255.122	-200.000	0.001	0.247
-254.107	35.586	0.155	0.134
-253.092	-104.154	-0.279	0.063
-252.078	-4.935	0.113	-0.076
-251.063	-19.247	0.110	0.067
-250.049	800.000	0.087	0.369
-249.034	60.595	-0.064	0.062
-248.019	800.000	0.065	-0.217
-247.005	125.987	-0.144	-0.178
-245.990	-70.108	-0.221	-0.082
-244.976	-80.185	0.278	-0.091
-243.961	-29.505	0.028	-0.015
-242.946	-2.096	-0.056	0.039
-241.932	91.582	0.076	-0.084
-240.917	-30.055	-0.166	0.092
-239.903	120.399	0.159	-0.193
-238.888	-200.000	-0.086	-0.470
-237.873	-61.944	-0.353	0.144
-236.859	-165.842	0.209	-0.009
-235.844	233.323	-0.192	0.308
-234.830	203.942	-0.089	0.134
-233.815	697.200	-0.141	-0.362
-232.800	-200.000	0.005	-0.113
-231.786	222.076	-0.141	-0.222
-230.771	-200.000	-0.019	-0.084
-229.757	-45.414	0.293	-0.142
-228.742	155.073	0.047	0.064
-227.727	-115.368	0.441	0.081
-226.713	408.102	0.096	0.199
-225.698	800.000	-0.107	0.362
-224.684	162.033	0.083	-0.114
-223.669	206.893	0.031	0.048
-222.655	-72.095	0.133	-0.048
-221.640	-200.000	-0.025	-0.115
-220.625	-200.000	-0.059	0.400
-219.611	-14.602	-0.120	0.076
-218.596	-3.398	-0.245	-0.167
-217.582	-39.053	-0.173	-0.089
-216.567	800.000	-0.059	0.187
-215.552	-44.819	0.164	0.080
-214.538	138.498	0.127	0.163
-213.523	-200.000	0.012	-0.142
-212.509	-146.214	-0.259	-0.022
-211.494	97.100	0.060	0.067
-210.479	345.796	0.053	-0.102
-209.465	104.687	-0.279	-0.321
-208.450	-124.580	0.124	0.019
-207.436	7.841	-0.177	0.129
-206.421	-151.348	0.395	0.029
-205.406	-200.000	0.055	0.239
-204.392	-9.032	-0.045	-0.029
-203.377	654.740	-0.011	0.028
-202.363	-79.292	0.134	0.044
-201.348	382.164	0.079	-0.159
-200.333	-192.052	0.249	0.002
-199.319	-123.091	-0.399	-0.063
-198.304	223.298	0.199	-0.313
-197.290	55.613	-0.118	0.112
-196.275	800.000	0.055	-0.168
-195.260	-200.000	0.001	0.019
-194.246	296.785	-0.067	-0.121
-193.231	355.427	0.080	0.155
-192.217	-19.648	-0.206	-0.124
-191.202	-200.000	0.038	-0.166
-190.187	181.925	-0.111	0.160
-189.173	-200.000	0.011	0.410
-188.158	800.000	-0.011	0.040
-187.144	-137.234	0.260	-0.029
-186.129	222.910	0.097	0.152
-185.114	-200.000	0.017	0.231
-184.100	49.895	-0.198	0.182
-183.085	-77.489	0.252	-0.085
-182.071	800.000	-0.085	0.239
-181.056	338.590	-0.072	-0.136
-180.042	205.027	0.019	-0.028
-179.027	-56.045	-0.083	-0.036
-178.012	-23.859	-0.311	-0.182
-176.998	-174.358	0.244	0.007
-175.983	-21.455	0.403	0.240
-174.969	-200.000	0.313	0.001
-173.954	-148.822	-0.460	-0.036
-172.939	-110.004	0.219	0.045
-171.925	119.195	0.257	-0.310
-170.910	790.657	0.025	-0.066
-169.896	-126.906	-0.197	-0.028
-168.881	-95.110	-0.214	0.056
-167.866	517.280	0.130	-0.296
-166.852	-90.524	-0.275	-0.078
-165.837	41.700	0.109	0.096
-164.823	22.302	-0.203	0.162
-163.808	-22.087	0.351	-0.208
-162.793	-23.253	0.065	0.038
-161.779	337.843	0.083	-0.157
-160.764	-200.000	-0.015	-0.213
-159.750	800.000	0.165	-0.503
-158.735	-69.796	0.211	-0.079
-157.720	69.966	0.048	0.048
-156.706	-200.000	-0.049	-0.230
-155.691	-169.331	0.567	-0.020
-154.677	648.468	0.067	-0.167
-153.662	-121.053	-0.138	0.023
-152.647	-126.401	0.266	-0.039
-151.633	800.000	0.046	-0.175
-150.618	-200.000	0.023	0.202
-149.604	128.498	0.069	-0.086
-148.589	-161.809	-0.233	-0.012
-147.574	-200.000	-0.003	0.137
-146.560	277.641	-0.032	0.056
-145.545	-200.000	0.022	-0.188
-144.531	201.164	0.091	0.136
-143.516	114.536	-0.204	-0.242
-142.502	389.277	0.022	-0.044
-141.487	-108.933	0.290	-0.060
-140.472	536.783	0.025	0.057
-139.458	288.260	-0.008	-0.014
-138.443	674.657	0.069	0.174
-137.429	78.060	-0.109	0.113
-136.414	-95.731	-0.170	-0.044
-135.399	88.365	0.451	0.488
-134.385	800.000	0.069	-0.233
-133.370	156.525	-0.197	0.265
-132.356	-92.982	0.129	0.035
-131.341	-49.411	0.108	-0.050
-130.326	800.000	0.077	-0.312
-129.312	800.000	0.050	0.155
-128.297	3.092	0.050	0.035
-127.283	-200.000	-0.025	-0.236
-126.268	20.555	0.274	-0.216
-125.253	800.000	0.097	0.276
-124.239	-155.238	-0.397	-0.025
-123.224	-123.661	-0.077	0.012
-122.210	108.990	0.067	-0.078
-121.195	-115.738	-0.280	0.051
