DTS Sentinel unit serial number:	SN413079Multiplexer serial number:	ORYXHardware model number:	OX4-SRSoftware version number:	ORYX F/W v4.00 Oryx Data Collector v3.7.2.0data status	okinstallation	princeton_trtdifferential loss correction	single-endedforward channel	channel 2reverse channel	N/Adate	2019/09/11time	19:45:10forward acquisition time	60.00reverse acquisition time	0.00gamma	496.2192k internal	0.2308k external	0.2308temperature offset calibration	1.0047default loss term (dB/km)	0.3790temperature slope calibration	1.0000multiplexer offset coefficient	1.0000multiplexer slope coefficient	1.0000fibre end	0.00T internal ref (°C)	39.56T ext. ref 1 (°C)	1.35T ext. ref 2 (°C)	32.44length (m)	temperature (°C)	Stokes	anti-Stokes-747.200	106.382	-0.059	-0.071
-746.185	87.368	-0.278	0.312
-745.171	-200.000	0.004	-0.034
-744.156	-200.000	-0.016	0.282
-743.142	-108.580	-0.101	-0.022
-742.127	392.579	-0.109	0.231
-741.112	-137.437	0.228	0.026
-740.098	-200.000	0.591	0.000
-739.083	-71.969	-0.115	0.044
-738.069	80.534	-0.087	0.095
-737.054	199.473	0.272	0.424
-736.039	-200.000	0.013	0.082
-735.025	-154.338	0.190	-0.013
-734.010	-200.000	0.000	-0.073
-732.996	-100.714	-0.513	0.129
-731.981	-118.342	-0.070	0.013
-730.966	184.047	-0.060	0.091
-729.952	-155.199	-0.089	0.006
-728.937	800.000	-0.107	-0.336
-727.923	-80.222	-0.240	0.082
-726.908	-58.792	0.089	0.039
-725.894	-200.000	-0.031	0.313
-724.879	-200.000	0.006	0.075
-723.864	-125.120	-0.037	-0.006
-722.850	-167.618	-0.432	0.017
-721.835	-200.000	0.005	0.025
-720.821	73.229	0.098	-0.104
-719.806	-11.708	-0.263	-0.175
-718.791	-117.255	-0.358	-0.066
-717.777	-200.000	-0.024	0.197
-716.762	-96.852	-0.218	0.058
-715.748	-155.688	0.255	-0.017
-714.733	-100.442	-0.182	-0.046
-713.718	14.160	0.061	0.048
-712.704	18.263	0.259	-0.210
-711.689	-200.000	0.055	-0.280
-710.675	530.967	0.081	-0.194
-709.660	342.631	0.074	-0.148
-708.645	445.345	0.032	-0.071
-707.631	-61.505	-0.073	0.031
-706.616	800.000	0.060	0.217
-705.602	800.000	0.047	-0.132
-704.587	247.745	-0.205	0.351
-703.572	-84.609	-0.175	-0.056
-702.558	19.398	-0.108	0.088
-701.543	-200.000	-0.020	-0.215
-700.529	800.000	-0.015	-0.048
-699.514	4.666	-0.346	0.258
-698.499	107.853	0.137	0.166
-697.485	111.211	-0.207	0.253
-696.470	261.943	-0.115	-0.202
-695.456	-117.054	-0.243	-0.045
-694.441	429.588	-0.088	0.193
-693.426	-162.532	0.340	0.017
-692.412	800.000	-0.058	-0.225
-691.397	417.737	-0.047	0.101
-690.383	-23.041	0.293	-0.179
-689.368	23.075	-0.192	-0.160
-688.354	800.000	-0.101	-0.399
-687.339	93.448	-0.177	-0.203
-686.324	202.195	-0.177	0.277
-685.310	403.717	-0.102	0.218
-684.295	-52.070	0.156	-0.074
-683.281	-42.628	0.250	0.129
-682.266	209.102	-0.067	-0.107
-681.251	-163.139	-0.176	0.009
-680.237	800.000	-0.070	0.308
-679.222	800.000	0.163	0.476
-678.208	-112.731	0.301	-0.061
-677.193	-141.475	0.304	-0.031
-676.178	58.454	0.186	0.185
-675.164	-99.054	0.440	0.113
-674.149	-154.196	-0.302	-0.021
-673.135	-200.000	0.043	-0.487
-672.120	-200.000	-0.013	-0.116
-671.105	-110.206	-0.044	-0.009
-670.091	-162.247	0.066	-0.003
-669.076	-33.456	-0.053	-0.030
-668.062	-200.000	-0.034	0.161
-667.047	419.231	0.101	0.220
-666.032	800.000	-0.015	0.065
-665.018	219.082	0.156	0.253
-664.003	676.857	0.066	-0.175
-662.989	-111.775	0.169	-0.035
-661.974	-36.151	-0.268	-0.147
-660.959	-85.473	-0.287	-0.091
-659.945	-89.103	0.061	0.018
-658.930	-27.661	0.053	0.031
-657.916	-86.123	0.450	0.141
-656.901	-92.112	0.270	-0.077
-655.886	-154.791	0.134	-0.009
-654.872	-200.000	0.040	0.233
-653.857	-25.235	-0.272	-0.163
-652.843	-40.151	0.185	-0.098
-651.828	429.685	0.028	0.061
-650.814	-57.790	0.258	0.114
-649.799	-109.785	-0.030	0.006
-648.784	-200.000	0.048	0.312
-647.770	-123.136	0.523	0.085
-646.755	-100.124	0.140	-0.035
-645.741	62.661	0.062	-0.063
-644.726	218.937	-0.040	-0.065
-643.711	-143.857	0.192	0.018
-642.697	-45.951	0.281	-0.140
-641.682	-2.028	0.164	0.116
-640.668	-158.271	0.156	-0.009
-639.653	-162.378	-0.170	0.009
-638.638	50.256	0.089	-0.085
-637.624	-27.712	-0.187	-0.110
-636.609	-39.361	0.061	0.032
-635.595	800.000	0.072	-0.206
-634.580	195.284	-0.075	-0.116
-633.565	-58.358	0.091	-0.040
-632.551	-63.830	0.446	-0.185
-631.536	-200.000	-0.139	-0.001
-630.522	-38.944	0.128	-0.068
-629.507	800.000	-0.037	-0.146
-628.492	228.559	0.105	-0.172
-627.478	-200.000	-0.019	-0.203
-626.463	800.000	0.099	0.353
-625.449	172.581	-0.158	-0.230
-624.434	50.568	-0.044	0.042
-623.419	-200.000	0.008	-0.150
-622.405	242.976	-0.014	-0.023
-621.390	-178.350	0.248	-0.006
-620.376	-66.991	-0.190	0.076
-619.361	51.528	-0.184	0.177
-618.346	318.914	0.121	0.231
-617.332	3.611	0.094	-0.069
-616.317	-200.000	-0.042	-0.387
-615.303	800.000	0.028	-0.106
-614.288	-94.390	-0.157	0.043
-613.273	382.501	0.047	-0.097
-612.259	144.727	-0.240	-0.325
-611.244	-158.802	0.150	-0.009
-610.230	800.000	-0.046	0.182
-609.215	92.133	-0.031	-0.035
-608.201	-5.843	-0.263	0.182
-607.186	-197.316	0.266	-0.002
-606.171	-200.000	0.037	-0.193
-605.157	735.245	-0.121	0.327
-604.142	324.251	0.042	0.081
-603.128	-87.424	0.313	-0.096
-602.113	-80.263	0.154	-0.052
-601.098	-67.151	-0.196	0.078
-600.084	207.733	0.227	0.358
-599.069	800.000	-0.043	-0.186
-598.055	434.346	0.136	-0.298
-597.040	-171.640	0.323	0.011
-596.025	-22.909	-0.150	-0.091
-595.011	800.000	0.024	-0.096
-593.996	-71.328	-0.342	-0.130
-592.982	117.522	-0.224	0.278
-591.967	-146.544	0.228	0.020
-590.952	800.000	0.032	-0.135
-589.938	-90.345	0.163	0.048
-588.923	379.630	0.060	0.123
-587.909	318.958	0.139	0.265
-586.894	-110.132	0.068	-0.014
-585.879	800.000	0.131	-0.378
-584.865	-200.000	-0.020	0.126
-583.850	-159.313	0.092	0.005
-582.836	51.293	-0.292	0.280
-581.821	285.820	-0.087	0.158
-580.806	-51.307	0.166	0.078
-579.792	113.095	-0.207	-0.253
-578.777	-97.363	0.201	-0.053
-577.763	-200.000	-0.017	0.152
-576.748	-134.997	-0.436	0.053
-575.733	-200.000	0.002	-0.075
-574.719	186.620	0.044	-0.066
-573.704	-127.013	-0.140	0.021
-572.690	-63.897	-0.182	-0.075
-571.675	-45.703	0.041	0.020
-570.661	-88.422	0.048	-0.014
-569.646	589.462	-0.053	-0.131
-568.631	144.143	0.205	0.275
-567.617	-65.000	0.347	-0.142
-566.602	103.543	-0.220	0.260
-565.588	311.090	0.105	-0.198
-564.573	70.896	-0.156	0.163
-563.558	171.906	0.058	-0.084
-562.544	127.468	-0.117	-0.150
-561.529	-136.547	-0.166	0.019
-560.515	-200.000	0.006	-0.454
-559.500	-137.998	0.281	-0.032
-558.485	170.928	0.058	0.083
-557.471	114.471	0.087	0.106
-556.456	-122.898	-0.081	-0.013
-555.442	-73.025	0.094	0.035
-554.427	-182.761	-0.085	-0.002
-553.412	800.000	-0.016	-0.051
-552.398	49.594	0.207	0.196
-551.383	143.758	0.098	-0.131
-550.369	-200.000	-0.018	-0.154
-549.354	181.661	-0.143	-0.212
-548.339	-200.000	-0.079	-0.366
-547.325	672.594	-0.084	0.220
-546.310	800.000	0.060	-0.178
-545.296	-183.964	0.175	0.003
-544.281	130.421	0.051	-0.066
-543.266	-60.759	-0.239	0.102
-542.252	800.000	-0.032	0.119
-541.237	122.138	0.090	0.113
-540.223	-130.947	-0.305	-0.041
-539.208	800.000	0.100	-0.293
-538.193	-82.860	0.157	0.051
-537.179	481.119	-0.078	0.177
-536.164	-200.000	-0.016	-0.280
-535.150	243.211	0.153	0.258
-534.135	-105.442	0.015	-0.003
-533.121	58.841	0.069	-0.069
-532.106	-61.180	-0.188	0.080
-531.091	800.000	0.037	0.117
-530.077	-107.966	-0.146	-0.032
-529.062	-178.864	-0.149	-0.003
-528.048	595.105	-0.065	0.162
-527.033	-200.000	-0.045	-0.253
-526.018	719.365	0.056	-0.149
-525.004	-6.418	-0.294	-0.202
-523.989	-200.000	0.017	-0.304
-522.975	380.912	-0.161	0.334
-521.960	-200.000	0.002	-0.036
-520.945	19.633	-0.160	-0.129
-519.931	-200.000	-0.005	-0.100
-518.916	-139.503	0.058	0.006
-517.902	-80.821	-0.197	-0.066
-516.887	-20.532	0.353	-0.218
-515.872	-71.409	0.180	-0.068
-514.858	-200.000	-0.020	-0.351
-513.843	-77.889	-0.097	0.034
-512.829	-200.000	-0.027	-0.249
-511.814	94.198	0.125	-0.143
-510.799	292.397	0.195	0.358
-509.785	71.179	0.224	-0.234
-508.770	800.000	0.041	0.114
-507.756	242.369	0.021	-0.036
-506.741	800.000	-0.040	0.117
-505.726	48.876	-0.262	0.248
-504.712	-176.520	0.194	-0.005
-503.697	190.992	-0.096	0.145
-502.683	-200.000	-0.012	0.248
-501.668	800.000	-0.056	-0.233
-500.653	-10.286	0.200	0.134
-499.639	145.196	0.159	0.215
-498.624	733.750	0.029	-0.078
-497.610	-106.325	-0.224	0.051
-496.595	-200.000	0.029	0.150
-495.581	-33.186	-0.230	-0.128
-494.566	-47.058	-0.344	-0.169
-493.551	69.223	-0.273	-0.282
-492.537	-200.000	0.017	-0.079
-491.522	61.609	0.212	-0.212
-490.508	462.800	-0.062	0.140
-489.493	800.000	-0.051	0.148
-488.478	-200.000	-0.004	0.246
-487.464	-17.898	-0.158	-0.100
-486.449	800.000	0.049	0.188
-485.435	-38.035	-0.040	0.021
-484.420	55.953	-0.060	-0.058
-483.405	182.791	-0.121	0.180
-482.391	91.758	0.162	0.183
-481.376	-200.000	-0.081	-0.366
-480.362	147.844	0.088	-0.120
-479.347	-57.899	0.081	0.036
-478.332	273.873	-0.065	0.115
-477.318	449.045	0.106	0.235
-476.303	-12.077	-0.175	-0.116
-475.289	-200.000	0.006	0.032
-474.274	-200.000	-0.008	-0.207
-473.259	-80.344	0.294	-0.099
-472.245	-15.688	-0.270	0.173
-471.230	-173.205	0.373	-0.011
-470.216	-50.752	-0.115	-0.054
-469.201	-200.000	0.017	-0.092
-468.186	-36.268	-0.162	-0.088
-467.172	-80.326	-0.146	0.049
-466.157	-200.000	0.004	0.025
-465.143	-200.000	0.021	-0.167
-464.128	-6.587	0.530	0.363
-463.113	182.112	-0.048	-0.072
-462.099	-78.660	-0.120	-0.041
-461.084	-200.000	-0.010	0.143
-460.070	-23.099	0.158	0.096
-459.055	-200.000	-0.001	0.116
-458.040	-30.479	0.096	-0.055
-457.026	-200.000	-0.001	-0.027
-456.011	-86.627	0.151	0.046
-454.997	119.789	-0.083	-0.103
-453.982	517.035	0.177	0.417
-452.968	127.773	0.197	0.251
-451.953	160.299	0.136	0.191
-450.938	70.302	-0.236	-0.245
-449.924	639.063	0.018	-0.046
-448.909	151.298	0.109	0.149
-447.895	-20.475	-0.078	0.048
-446.880	800.000	0.040	0.166
-445.865	-129.271	0.172	-0.024
-444.851	-138.966	0.194	-0.021
-443.836	-200.000	-0.007	-0.082
-442.822	339.683	0.104	-0.204
-441.807	-61.207	0.146	-0.062
-440.792	-200.000	0.057	-0.259
-439.778	-119.586	-0.203	0.035
-438.763	-200.000	-0.021	-0.217
-437.749	-153.249	0.114	-0.008
-436.734	-200.000	-0.089	0.413
-435.719	709.137	0.144	0.384
-434.705	-58.185	-0.319	-0.139
-433.690	800.000	-0.077	0.273
-432.676	-165.361	0.140	0.006
-431.661	1.089	0.263	0.190
-430.646	-200.000	-0.062	0.409
-429.632	334.295	0.052	-0.100
-428.617	320.436	-0.073	-0.140
-427.603	800.000	-0.052	-0.165
-426.588	141.669	-0.080	-0.106
-425.573	-99.504	0.096	0.024
-424.559	47.713	-0.104	0.097
-423.544	-200.000	0.057	-0.273
-422.530	-68.332	-0.449	-0.175
-421.515	800.000	-0.018	0.057
-420.500	-95.030	-0.322	0.087
-419.486	-200.000	-0.009	-0.275
-418.471	800.000	-0.107	-0.333
-417.457	512.461	-0.089	-0.209
-416.442	-200.000	-0.005	0.471
-415.428	419.256	0.085	0.182
-414.413	800.000	0.066	-0.185
-413.398	-200.000	-0.022	-0.167
-412.384	-200.000	-0.058	0.266
-411.369	-70.083	-0.177	0.067
-410.355	-47.503	-0.217	0.106
-409.340	-200.000	0.024	0.170
-408.325	-169.525	-0.269	-0.010
-407.311	800.000	-0.067	-0.240
-406.296	101.719	0.061	0.071
-405.282	-61.945	-0.386	-0.162
-404.267	224.870	-0.031	0.051
-403.252	-200.000	0.003	0.192
-402.238	217.233	-0.119	0.191
-401.223	134.659	-0.247	0.321
-400.209	800.000	-0.024	0.079
-399.194	800.000	-0.088	-0.320
-398.179	118.344	0.160	0.198
-397.165	-24.766	-0.191	0.114
-396.150	-134.948	0.120	-0.015
-395.136	800.000	-0.036	-0.156
-394.121	-200.000	0.004	-0.089
-393.106	-200.000	-0.008	-0.173
-392.092	-56.643	0.139	0.062
-391.077	-23.984	0.234	-0.140
-390.063	-200.000	0.063	0.324
-389.048	-163.163	-0.388	-0.019
-388.033	-200.000	-0.025	-0.124
-387.019	-166.846	0.266	-0.011
-386.004	69.491	0.070	-0.073
-384.990	58.991	0.066	0.066
-383.975	-200.000	0.013	0.088
-382.960	-5.370	-0.242	-0.166
-381.946	6.934	-0.211	0.157
-380.931	-98.842	0.220	0.056
-379.917	56.610	-0.114	0.111
-378.902	25.652	-0.224	-0.187
-377.888	800.000	-0.064	0.188
-376.873	800.000	0.100	-0.318
-375.858	63.845	0.242	-0.244
-374.844	-138.356	-0.312	0.035
-373.829	800.000	-0.071	0.304
-372.815	164.351	0.315	-0.445
-371.800	295.555	-0.186	-0.341
-370.785	-36.715	-0.244	-0.131
-369.771	157.320	-0.173	0.240
-368.756	133.377	-0.073	-0.094
-367.742	369.909	-0.224	0.454
-366.727	-200.000	0.053	0.386
-365.712	218.747	0.264	0.422
-364.698	-58.465	0.092	0.040
-363.683	-168.485	-0.111	0.004
-362.669	-104.879	-0.226	-0.052
-361.654	-200.000	0.030	0.317
-360.639	-47.956	-0.355	-0.172
-359.625	-200.000	-0.027	-0.130
-358.610	800.000	0.047	-0.199
-357.596	-200.000	0.019	-0.210
-356.581	-200.000	-0.050	0.353
-355.566	196.547	0.243	-0.370
-354.552	207.600	-0.043	-0.067
-353.537	800.000	-0.105	-0.319
-352.523	20.060	-0.155	-0.125
-351.508	-124.106	0.120	-0.019
-350.493	159.364	-0.156	0.217
-349.479	-84.693	0.232	0.073
-348.464	-116.708	-0.167	0.031
-347.450	572.788	0.076	-0.185
-346.435	-83.949	0.212	-0.067
-345.420	-50.527	0.414	-0.195
-344.406	64.964	0.236	-0.238
-343.391	-200.000	-0.001	0.056
-342.377	44.734	0.222	-0.204
-341.362	-31.140	-0.285	-0.161
-340.348	1.262	0.194	0.140
-339.333	50.838	0.130	-0.123
-338.318	800.000	0.078	0.281
-337.304	-200.000	-0.355	-0.001
-336.289	800.000	-0.067	0.223
-335.275	-109.636	0.249	0.053
-334.260	-200.000	-0.014	0.095
-333.245	147.335	0.145	0.195
-332.231	-115.515	-0.203	0.038
-331.216	-155.009	-0.166	-0.011
-330.202	117.927	0.091	0.112
-329.187	800.000	0.156	0.509
-328.172	156.154	-0.112	-0.155
-327.158	89.593	-0.115	0.129
-326.143	800.000	-0.053	-0.212
-325.129	269.023	0.179	-0.315
-324.114	-52.255	-0.344	-0.159
-323.099	398.452	-0.240	0.503
-322.085	-200.000	0.017	0.219
-321.070	-35.641	-0.202	-0.110
-320.056	800.000	0.097	-0.339
-319.041	509.696	-0.044	0.102
-318.026	800.000	-0.044	0.135
-317.012	180.355	0.207	0.303
-315.997	800.000	-0.051	-0.210
-314.983	11.353	-0.142	-0.109
-313.968	134.545	-0.193	-0.250
-312.953	333.013	-0.114	0.221
-311.939	208.798	0.065	0.101
-310.924	-94.703	-0.183	-0.050
-309.910	84.606	0.113	-0.124
-308.895	-26.047	0.219	-0.129
-307.880	-35.430	-0.163	-0.089
-306.866	70.846	0.223	-0.231
-305.851	269.398	-0.158	-0.277
-304.837	202.017	0.227	0.349
-303.822	599.122	-0.080	0.199
-302.807	202.158	-0.066	-0.102
-301.793	-82.733	-0.295	-0.095
-300.778	-120.892	0.214	0.036
-299.764	-157.892	-0.216	-0.013
-298.749	467.502	-0.103	-0.231
-297.735	-123.161	0.111	0.018
-296.720	327.862	-0.059	0.112
-295.705	-104.009	-0.261	0.061
-294.691	165.963	0.121	0.170
-293.676	47.480	-0.165	-0.153
-292.662	-70.738	-0.086	-0.032
-291.647	-200.000	0.014	-0.081
-290.632	800.000	-0.076	0.295
-289.618	-200.000	-0.037	0.195
-288.603	-200.000	0.044	-0.203
-287.589	-200.000	-0.248	-0.001
-286.574	-200.000	-0.008	0.123
-285.559	201.125	-0.059	0.090
-284.545	-200.000	0.030	0.373
-283.530	-200.000	-0.015	0.192
-282.516	800.000	-0.153	-0.460
-281.501	-99.054	0.221	0.056
-280.486	-200.000	-0.013	0.094
-279.472	690.658	0.047	0.123
-278.457	-200.000	0.015	0.251
-277.443	601.261	0.066	-0.164
-276.428	-74.203	0.229	-0.083
-275.413	-125.806	-0.115	-0.017
-274.399	272.957	0.197	-0.347
-273.384	95.579	-0.237	-0.270
-272.370	134.640	0.286	-0.371
-271.355	-146.665	0.407	-0.035
-270.340	151.248	-0.082	0.111
-269.326	-200.000	0.068	0.370
-268.311	-3.792	0.277	0.192
-267.297	164.912	0.163	-0.230
-266.282	-46.370	-0.052	-0.025
-265.267	-5.062	0.103	-0.071
-264.253	47.259	-0.084	-0.078
-263.238	-148.756	0.106	-0.009
-262.224	-138.665	-0.134	-0.015
-261.209	38.161	0.151	0.134
-260.195	-200.000	0.010	0.290
-259.180	-200.000	-0.029	-0.267
-258.165	-138.029	-0.250	-0.028
-257.151	-86.516	0.038	-0.012
-256.136	-83.673	0.116	-0.037
-255.122	776.068	-0.112	-0.304
-254.107	-171.288	-0.042	0.001
-253.092	67.445	-0.253	0.258
-252.078	-200.000	-0.018	-0.342
-251.063	-73.488	-0.200	-0.073
-250.049	-18.773	-0.062	-0.038
-249.034	-193.794	0.371	-0.003
-248.019	350.430	-0.030	0.060
-247.005	497.625	0.069	0.159
-245.990	-9.446	0.322	0.214
-244.976	-54.167	-0.403	-0.183
-243.961	-73.564	0.243	-0.088
-242.946	293.353	0.063	0.114
-241.932	-112.201	-0.156	-0.031
-240.917	800.000	0.060	-0.196
-239.903	308.108	0.088	-0.163
-238.888	57.473	0.198	0.192
-237.873	-93.473	-0.345	-0.095
-236.859	81.979	-0.040	-0.043
-235.844	15.387	0.107	0.084
-234.830	-58.229	0.231	0.100
-233.815	-63.727	-0.194	0.079
-232.800	40.589	-0.139	-0.124
-231.786	-26.193	0.050	0.029
-230.771	471.294	-0.099	0.223
-229.757	-39.594	0.278	-0.145
-228.742	-64.678	-0.142	0.057
-227.727	30.565	-0.279	-0.237
-226.713	-200.000	-0.057	0.386
-225.698	226.438	0.084	-0.135
-224.684	235.602	0.149	0.245
-223.669	-152.355	0.127	-0.009
-222.655	800.000	-0.087	0.309
-221.640	-86.065	0.197	-0.061
-220.625	-106.306	0.043	-0.009
-219.611	-200.000	0.062	0.360
-218.596	619.292	-0.055	0.136
-217.582	-130.126	0.682	-0.093
-216.567	-141.425	0.295	0.030
-215.552	52.321	0.259	0.246
-214.538	53.757	0.106	0.101
-213.523	-159.419	-0.063	-0.003
-212.509	-139.001	-0.069	-0.007
-211.494	-200.000	0.042	-0.217
-210.479	-5.193	0.313	0.214
-209.465	76.302	0.086	0.090
-208.450	-200.000	-0.015	0.269
-207.436	-69.392	0.128	-0.049
-206.421	-13.783	0.316	0.203
-205.406	22.037	0.083	-0.067
-204.392	213.958	-0.247	-0.389
-203.377	90.258	-0.158	-0.176
-202.363	-200.000	0.014	0.185
-201.348	93.269	0.187	0.211
-200.333	415.389	0.156	-0.332
-199.319	95.489	-0.265	-0.301
-198.304	133.397	-0.186	-0.239
-197.290	-37.701	0.108	-0.057
-196.275	-166.546	0.136	-0.006
-195.260	-169.234	-0.135	0.005
-194.246	-143.503	-0.238	0.023
-193.231	-200.000	-0.011	0.203
-192.217	43.309	0.364	0.331
-191.202	800.000	-0.070	0.224
-190.187	800.000	-0.063	0.226
-189.173	-200.000	-0.050	-0.288
-188.158	800.000	0.060	-0.196
-187.144	194.555	0.165	0.248
-186.129	-148.650	-0.068	-0.005
-185.114	-138.983	-0.218	0.024
-184.100	237.687	0.100	0.164
-183.085	96.306	0.122	-0.139
-182.071	496.374	-0.029	-0.066
-181.056	-5.298	0.054	0.037
-180.042	800.000	-0.086	-0.241
-179.027	688.476	-0.098	-0.254
-178.012	199.040	-0.074	0.112
-176.998	708.286	0.042	0.110
-175.983	-200.000	-0.020	0.155
-174.969	567.296	-0.013	0.032
-173.954	-200.000	0.154	0.001
-172.939	77.140	-0.176	-0.186
-171.925	-163.792	-0.363	-0.017
-170.910	-126.127	0.189	0.028
-169.896	357.699	0.085	0.169
-168.881	12.220	0.093	-0.071
-167.866	126.085	-0.144	-0.181
-166.852	268.938	-0.021	0.037
-165.837	-0.885	-0.121	0.085
-164.823	-90.168	-0.262	0.076
-163.808	273.039	0.154	-0.269
-162.793	164.265	-0.232	0.325
-161.779	38.180	-0.280	0.248
-160.764	323.766	-0.154	-0.291
-159.750	-200.000	0.032	0.145
-158.735	800.000	-0.105	0.315
-157.720	800.000	0.087	0.290
-156.706	800.000	-0.051	0.218
-155.691	-111.550	-0.243	-0.049
-154.677	8.108	0.259	-0.193
-153.662	800.000	0.065	-0.218
-152.647	-126.858	-0.109	0.016
-151.633	407.231	0.071	-0.150
-150.618	-200.000	-0.028	-0.125
-149.604	-200.000	-0.012	-0.178
-148.589	118.073	0.051	0.063
-147.574	-37.420	0.036	-0.019
-146.560	-39.166	0.261	0.136
-145.545	-41.196	-0.299	0.153
-144.531	800.000	0.021	0.071
-143.516	-200.000	-0.020	-0.349
-142.502	23.949	-0.083	-0.068
-141.487	-200.000	-0.006	-0.173
-140.472	-106.630	-0.082	0.018
-139.458	-141.157	-0.132	0.013
-138.443	-200.000	0.031	-0.177
-137.429	171.294	-0.163	0.232
-136.414	-196.379	0.469	-0.003
-135.399	638.053	0.015	-0.037
-134.385	-200.000	-0.032	-0.239
-133.370	88.083	0.177	0.195
-132.356	105.459	-0.082	0.096
-131.341	-99.724	0.327	0.081
-130.326	800.000	-0.069	0.248
-129.312	136.455	0.194	-0.251
-128.297	-100.220	-0.225	0.056
-127.283	68.365	-0.171	0.174
-126.268	-145.301	0.199	-0.018
-125.253	409.347	-0.077	-0.163
-124.239	19.356	0.212	-0.169
-123.224	174.758	0.258	-0.370
