DTS Sentinel unit serial number:	SN413079Multiplexer serial number:	ORYXHardware model number:	OX4-SRSoftware version number:	ORYX F/W v4.00 Oryx Data Collector v3.7.2.0data status	okinstallation	princeton_trtdifferential loss correction	single-endedforward channel	channel 2reverse channel	N/Adate	2019/09/19time	13:43:35forward acquisition time	60.00reverse acquisition time	0.00gamma	496.2192k internal	0.2325k external	0.2325temperature offset calibration	1.0020default loss term (dB/km)	0.3790temperature slope calibration	1.0000multiplexer offset coefficient	1.0000multiplexer slope coefficient	1.0000fibre end	0.00T internal ref (°C)	30.50T ext. ref 1 (°C)	0.98T ext. ref 2 (°C)	27.65length (m)	temperature (°C)	Stokes	anti-Stokes-747.200	-40.111	0.397	-0.209
-746.185	-131.137	-0.461	-0.062
-745.171	165.275	-0.043	0.061
-744.156	457.344	0.053	0.118
-743.142	800.000	0.078	0.268
-742.127	483.849	-0.083	0.192
-741.112	-34.689	-0.149	0.082
-740.098	-24.239	-0.276	0.166
-739.083	-157.653	0.239	-0.014
-738.069	-43.252	-0.169	-0.086
-737.054	-120.103	0.043	-0.007
-736.039	-103.965	-0.425	0.100
-735.025	127.710	-0.124	0.159
-734.010	167.513	-0.092	-0.131
-732.996	-158.323	-0.227	-0.013
-731.981	-153.253	-0.361	0.025
-730.966	20.003	0.184	0.149
-729.952	-200.000	0.004	0.086
-728.937	-200.000	-0.011	-0.070
-727.923	-200.000	-0.036	0.209
-726.908	-131.924	0.326	-0.043
-725.894	-73.623	-0.277	0.102
-724.879	-108.333	0.359	0.078
-723.864	34.349	-0.069	0.061
-722.850	290.849	-0.061	-0.112
-721.835	84.149	0.145	-0.159
-720.821	-103.690	-0.106	-0.025
-719.806	-48.502	0.137	-0.067
-718.791	-108.338	-0.495	-0.108
-717.777	800.000	-0.083	-0.306
-716.762	508.252	0.173	-0.406
-715.748	-67.813	-0.117	0.046
-714.733	800.000	-0.046	0.142
-713.718	3.543	0.028	0.020
-712.704	100.774	-0.092	-0.108
-711.689	-57.337	0.171	-0.076
-710.675	-142.658	-0.072	-0.007
-709.660	800.000	0.041	-0.130
-708.645	-200.000	0.010	0.254
-707.631	155.367	-0.113	0.156
-706.616	41.911	-0.129	-0.118
-705.602	-45.180	-0.215	-0.108
-704.587	-113.689	-0.260	-0.051
-703.572	-3.167	0.362	0.254
-702.558	-200.000	0.452	0.000
-701.543	800.000	-0.028	0.106
-700.529	-39.535	0.397	0.209
-699.514	0.323	0.099	-0.071
-698.499	800.000	0.083	-0.289
-697.485	234.571	-0.197	-0.327
-696.470	800.000	-0.034	-0.103
-695.456	-22.402	-0.313	0.191
-694.441	800.000	0.042	0.154
-693.426	-200.000	0.021	-0.459
-692.412	-54.312	0.085	0.039
-691.397	531.214	0.008	0.020
-690.383	-200.000	0.029	0.148
-689.368	24.385	0.149	0.124
-688.354	501.101	-0.157	-0.365
-687.339	0.098	-0.219	0.157
-686.324	-200.000	0.006	0.060
-685.310	118.142	-0.201	0.249
-684.295	389.323	-0.131	-0.274
-683.281	800.000	0.078	-0.281
-682.266	-65.941	-0.149	-0.060
-681.251	-18.744	-0.106	-0.066
-680.237	-1.625	0.326	-0.231
-679.222	-107.941	0.317	-0.069
-678.208	87.131	-0.105	0.117
-677.193	24.576	-0.269	0.224
-676.178	-90.358	-0.073	-0.021
-675.164	-177.219	-0.016	0.000
-674.149	-108.663	0.292	0.063
-673.135	-66.537	0.158	-0.063
-672.120	466.810	-0.147	-0.332
-671.105	-87.022	-0.247	-0.076
-670.091	-118.434	-0.039	-0.007
-669.076	565.063	-0.186	0.454
-668.062	-200.000	-0.041	0.282
-667.047	-8.800	-0.159	0.107
-666.032	-120.780	0.187	0.032
-665.018	56.121	-0.121	0.118
-664.003	-133.869	0.492	-0.062
-662.989	52.058	-0.179	-0.172
-661.974	15.903	0.021	-0.017
-660.959	-41.834	0.148	-0.076
-659.945	57.039	0.109	0.107
-658.930	-200.000	-0.003	0.098
-657.916	-46.219	-0.284	-0.140
-656.901	135.287	0.106	0.138
-655.886	487.330	-0.094	-0.216
-654.872	-98.449	-0.313	0.081
-653.857	-41.750	-0.253	0.131
-652.843	61.391	-0.124	-0.124
-651.828	51.046	-0.148	-0.142
-650.814	-200.000	0.040	0.189
-649.799	-28.390	-0.127	-0.074
-648.784	304.410	0.028	-0.052
-647.770	-200.000	-0.046	0.263
-646.755	-139.186	0.271	-0.029
-645.741	32.690	0.325	0.283
-644.726	-104.031	-0.259	-0.061
-643.711	800.000	0.101	-0.304
-642.697	68.081	-0.091	-0.094
-641.682	-200.000	-0.007	-0.229
-640.668	-69.461	-0.158	-0.061
-639.653	-52.166	0.173	-0.081
-638.638	-105.986	0.118	-0.027
-637.624	-106.304	-0.250	0.056
-636.609	-42.881	-0.043	-0.022
-635.595	34.477	0.104	-0.091
-634.580	155.660	-0.126	-0.175
-633.565	6.665	-0.197	-0.147
-632.551	28.236	0.205	0.174
-631.536	-182.613	-0.050	0.001
-630.522	60.319	0.195	-0.193
-629.507	30.170	0.185	0.159
-628.492	-107.237	0.310	-0.068
-627.478	292.180	0.058	-0.105
-626.463	-40.950	-0.207	-0.108
-625.449	-90.014	-0.190	-0.056
-624.434	-200.000	0.022	-0.206
-623.419	-34.098	0.029	-0.016
-622.405	-143.832	0.332	-0.032
-621.390	-148.367	0.097	-0.008
-620.376	632.620	-0.088	-0.223
-619.361	498.657	-0.209	0.483
-618.346	137.420	0.187	-0.246
-617.332	316.614	0.099	-0.188
-616.317	562.093	-0.017	0.041
-615.303	208.704	-0.116	0.182
-614.288	231.663	-0.211	0.347
-613.273	-200.000	-0.023	0.218
-612.259	-133.445	0.197	-0.025
-611.244	-101.826	0.147	-0.036
-610.230	-138.176	-0.429	0.048
-609.215	800.000	0.053	-0.185
-608.201	234.852	-0.208	-0.345
-607.186	-110.100	-0.133	0.028
-606.171	-151.754	0.190	0.014
-605.157	-33.099	0.285	-0.159
-604.142	344.262	0.062	-0.122
-603.128	-107.184	-0.176	-0.039
-602.113	-200.000	0.067	-0.301
-601.098	63.942	-0.123	-0.124
-600.084	56.115	-0.339	0.330
-599.069	-200.000	-0.077	-0.349
-598.055	-81.538	-0.023	-0.007
-597.040	-180.409	0.148	-0.003
-596.025	-199.753	-0.193	0.001
-595.011	180.082	-0.139	-0.205
-593.996	-145.675	0.295	-0.026
-592.982	-200.000	-0.003	-0.090
-591.967	-152.960	0.114	-0.008
-590.952	-59.762	0.304	-0.131
-589.938	280.638	-0.104	0.186
-588.923	-60.310	0.070	0.030
-587.909	-71.745	-0.304	-0.114
-586.894	-200.000	-0.063	-0.411
-585.879	-200.000	0.069	0.338
-584.865	462.033	0.036	-0.080
-583.850	125.124	-0.101	0.127
-582.836	-78.001	-0.142	0.049
-581.821	-92.963	0.288	-0.081
-580.806	-53.751	-0.177	-0.081
-579.792	-76.154	0.095	0.034
-578.777	800.000	-0.094	0.403
-577.763	562.215	0.064	-0.156
-576.748	-200.000	0.003	0.107
-575.733	-17.616	0.229	-0.144
-574.719	680.574	-0.120	0.314
-573.704	-200.000	-0.012	-0.213
-572.690	-119.800	0.162	0.028
-571.675	-173.067	0.189	-0.006
-570.661	557.379	0.066	-0.160
-569.646	-200.000	-0.011	-0.125
-568.631	-147.075	0.176	-0.015
-567.617	-197.160	-0.240	-0.002
-566.602	-108.447	0.146	-0.031
-565.588	292.527	0.135	-0.247
-564.573	95.384	-0.104	-0.118
-563.558	800.000	-0.041	-0.141
-562.544	-200.000	-0.047	0.323
-561.529	-14.802	0.198	-0.128
-560.515	-132.531	0.226	-0.029
-559.500	473.208	-0.072	-0.162
-558.485	-200.000	0.005	0.070
-557.471	102.320	-0.201	-0.235
-556.456	610.921	0.036	0.089
-555.442	-116.174	-0.211	0.039
-554.427	149.999	0.080	0.108
-553.412	-2.996	-0.221	0.155
-552.398	202.746	0.090	-0.140
-551.383	33.649	-0.325	-0.283
-550.369	503.122	-0.097	-0.225
-549.354	32.696	-0.201	0.174
-548.339	209.811	-0.048	0.076
-547.325	276.333	0.146	0.259
-546.310	-82.873	-0.296	-0.096
-545.296	-116.663	-0.283	-0.052
-544.281	82.698	-0.156	-0.170
-543.266	-13.110	0.141	-0.092
-542.252	6.038	-0.077	-0.057
-541.237	519.152	0.009	-0.022
-540.223	117.737	-0.155	-0.191
-539.208	-30.746	0.123	0.070
-538.193	-81.656	0.104	0.034
-537.179	70.026	0.064	-0.066
-536.164	800.000	0.103	-0.340
-535.150	418.361	0.106	-0.227
-534.135	-47.146	0.098	-0.048
-533.121	469.365	-0.064	0.144
-532.106	359.609	0.016	0.032
-531.091	5.757	0.270	0.200
-530.077	22.933	0.243	0.200
-529.062	800.000	0.024	-0.094
-528.048	-79.694	-0.204	0.069
-527.033	800.000	0.099	-0.335
-526.018	-200.000	0.010	-0.112
-525.004	-110.497	0.126	-0.026
-523.989	142.097	-0.142	-0.189
-522.975	-114.448	0.266	-0.051
-521.960	-49.958	-0.139	-0.066
-520.945	-54.081	-0.327	-0.149
-519.931	-200.000	0.012	-0.284
-518.916	-200.000	-0.309	0.000
-517.902	212.932	-0.094	-0.149
-516.887	537.206	0.022	0.053
-515.872	568.892	0.112	0.271
-514.858	-182.357	-0.267	-0.005
-513.843	-140.193	-0.287	-0.030
-512.829	-122.223	0.302	0.049
-511.814	98.407	0.145	0.167
-510.799	268.464	0.077	-0.136
-509.785	-74.343	-0.225	-0.081
-508.770	81.404	-0.222	-0.240
-507.756	-200.000	0.002	-0.184
-506.741	-200.000	0.027	0.161
-505.726	800.000	-0.026	-0.094
-504.712	96.395	-0.110	0.126
-503.697	-35.014	-0.259	0.141
-502.683	-200.000	-0.003	0.102
-501.668	-85.344	0.104	-0.032
-500.653	-39.253	0.133	-0.070
-499.639	-200.000	0.051	0.328
-498.624	-81.370	0.230	0.076
-497.610	-125.104	0.122	-0.019
-496.595	-99.027	-0.054	-0.014
-495.581	180.759	-0.148	-0.217
-494.566	100.883	0.168	-0.195
-493.551	421.388	0.063	-0.135
-492.537	-40.349	0.373	0.194
-491.522	-43.876	-0.141	-0.071
-490.508	-131.795	0.232	-0.030
-489.493	-200.000	0.004	0.039
-488.478	46.222	0.097	0.090
-487.464	210.438	-0.098	0.154
-486.449	271.026	0.123	0.217
-485.435	218.567	-0.172	0.274
-484.420	13.014	-0.128	-0.099
-483.405	159.479	-0.128	-0.178
-482.391	-81.474	0.239	0.079
-481.376	-183.110	0.295	0.005
-480.362	-6.073	0.138	-0.094
-479.347	371.286	-0.159	-0.321
-478.332	800.000	0.111	0.383
-477.318	-98.525	0.165	0.042
-476.303	258.144	0.191	-0.328
-475.289	-200.000	0.032	0.184
-474.274	-20.070	-0.334	0.206
-473.259	-186.979	-0.228	0.003
-472.245	-84.217	-0.137	0.043
-471.230	97.148	0.146	0.167
-470.216	-39.160	0.185	-0.097
-469.201	-103.464	-0.322	-0.076
-468.186	-14.310	0.116	-0.075
-467.172	-119.427	-0.105	0.018
-466.157	-200.000	0.033	-0.242
-465.143	-77.523	-0.120	0.042
-464.128	198.630	0.282	-0.431
-463.113	800.000	-0.032	-0.097
-462.099	87.884	0.109	0.121
-461.084	-94.112	0.199	0.054
-460.070	39.221	-0.368	-0.328
-459.055	-72.511	0.260	0.096
-458.040	-98.234	-0.135	0.035
-457.026	-200.000	0.026	-0.190
-456.011	-200.000	0.034	0.172
-454.997	-140.786	-0.260	0.027
-453.982	-187.233	0.245	-0.003
-452.968	-200.000	0.055	0.258
-451.953	9.896	-0.177	0.134
-450.938	-20.841	-0.265	0.162
-449.924	-19.390	-0.112	-0.069
-448.909	371.774	-0.073	0.147
-447.895	-162.389	-0.179	0.009
-446.880	22.535	0.241	0.197
-445.865	10.898	-0.172	-0.131
-444.851	539.564	-0.112	-0.266
-443.836	-109.073	0.202	0.043
-442.822	516.414	-0.039	-0.090
-441.807	-47.002	0.122	-0.060
-440.792	-200.000	-0.003	-0.159
-439.778	164.308	-0.068	0.096
-438.763	-34.079	-0.211	0.115
-437.749	-89.379	-0.062	0.018
-436.734	-34.265	0.177	0.097
-435.719	-62.665	-0.502	-0.208
-434.705	156.611	0.225	0.310
-433.690	-42.533	-0.094	-0.048
-432.676	800.000	0.120	-0.377
-431.661	800.000	-0.012	0.054
-430.646	519.136	-0.147	-0.343
-429.632	-163.510	-0.118	0.006
-428.617	-134.301	0.164	0.020
-427.603	-126.109	0.106	0.016
-426.588	52.956	-0.187	-0.178
-425.573	-200.000	-0.010	0.323
-424.559	242.894	0.135	-0.225
-423.544	-200.000	0.018	0.291
-422.530	800.000	-0.054	-0.231
-421.515	-58.093	0.253	-0.110
-420.500	-200.000	0.044	-0.217
-419.486	650.802	0.016	-0.042
-418.471	63.277	0.079	-0.079
-417.457	109.245	0.218	0.260
-416.442	-62.284	-0.205	-0.085
-415.428	-200.000	0.026	-0.161
-414.413	800.000	0.018	-0.069
-413.398	141.760	-0.114	0.151
-412.384	-51.164	0.518	-0.242
-411.369	298.068	-0.059	0.109
-410.355	-148.884	0.396	-0.032
-409.340	-61.654	-0.287	-0.120
-408.325	78.660	0.210	0.223
-407.311	311.662	0.034	-0.063
-406.296	24.652	-0.096	-0.079
-405.282	800.000	0.072	0.217
-404.267	75.689	0.056	0.059
-403.252	-200.000	0.058	0.412
-402.238	-105.681	-0.238	0.054
-401.223	-29.430	-0.234	-0.133
-400.209	263.384	-0.175	-0.303
-399.194	800.000	-0.080	0.247
-398.179	-93.953	-0.283	-0.077
-397.165	-200.000	-0.084	-0.612
-396.150	-139.719	0.125	-0.013
-395.136	-200.000	-0.073	-0.356
-394.121	-126.136	-0.309	-0.046
-393.106	-200.000	0.042	0.234
-392.092	-200.000	-0.123	0.620
-391.077	99.628	-0.393	0.453
-390.063	205.326	0.061	0.095
-389.048	-200.000	0.028	0.423
-388.033	39.549	-0.269	-0.240
-387.019	28.653	0.079	0.066
-386.004	-94.389	0.410	-0.111
-384.990	-123.806	-0.233	-0.037
-383.975	203.869	-0.124	0.191
-382.960	-91.303	0.319	-0.091
-381.946	-200.000	0.014	0.076
-380.931	-87.918	-0.227	-0.068
-379.917	-119.748	0.098	-0.017
-378.902	800.000	-0.105	0.355
-377.888	-140.328	0.364	-0.038
-376.873	-81.203	0.303	0.100
-375.858	1.652	-0.099	-0.071
-374.844	-62.154	-0.131	-0.054
-373.829	551.519	-0.126	0.301
-372.815	-100.350	-0.114	0.028
-371.800	-200.000	0.050	-0.267
-370.785	-200.000	-0.021	0.154
-369.771	169.132	-0.150	0.213
-368.756	800.000	0.020	-0.056
-367.742	207.608	0.110	-0.171
-366.727	92.123	-0.063	-0.070
-365.712	272.479	0.051	0.089
-364.698	76.919	0.256	-0.271
-363.683	5.590	0.279	-0.205
-362.669	55.676	-0.074	-0.071
-361.654	800.000	0.118	0.415
-360.639	295.796	0.013	-0.024
-359.625	800.000	-0.055	-0.205
-358.610	22.066	0.132	-0.107
-357.596	-183.373	0.241	0.004
-356.581	-70.972	-0.311	-0.116
-355.566	9.144	0.124	-0.093
-354.552	-169.543	-0.063	-0.002
-353.537	244.647	0.206	-0.344
-352.523	-81.666	-0.377	-0.123
-351.508	800.000	-0.066	-0.182
-350.493	155.534	-0.322	-0.441
-349.479	-200.000	-0.051	0.225
-348.464	-175.167	0.175	-0.005
-347.450	-119.148	-0.364	-0.063
-346.435	800.000	-0.033	0.102
-345.420	297.115	-0.083	-0.152
-344.406	309.090	0.031	0.057
-343.391	568.598	-0.143	-0.345
-342.377	-116.398	0.399	0.073
-341.362	-139.109	-0.253	-0.027
-340.348	800.000	0.064	-0.252
-339.333	-200.000	-0.034	0.242
-338.318	69.762	-0.085	-0.087
-337.304	-200.000	0.033	0.310
-336.289	-200.000	-0.029	0.130
-335.275	455.317	-0.122	0.269
-334.260	45.334	0.181	0.166
-333.245	-200.000	0.052	0.371
-332.231	347.673	0.139	0.272
-331.216	-108.632	-0.108	-0.023
-330.202	-91.001	-0.166	-0.047
-329.187	-200.000	0.017	0.083
-328.172	-137.369	-0.157	-0.018
-327.158	-66.420	-0.210	0.083
-326.143	224.614	0.126	-0.202
-325.129	-200.000	0.061	-0.340
-324.114	197.439	-0.205	0.311
-323.099	-48.980	-0.013	0.006
-322.085	-200.000	0.000	-0.071
-321.070	-13.923	-0.164	-0.105
-320.056	700.900	0.064	0.166
-319.041	-200.000	-0.011	-0.147
-318.026	-42.554	0.274	-0.139
-317.012	-88.678	0.451	0.133
-315.997	-121.585	0.210	0.035
-314.983	-200.000	0.021	-0.265
-313.968	-140.185	-0.116	-0.012
-312.953	-200.000	-0.024	0.112
-311.939	4.173	-0.106	-0.077
-310.924	-200.000	-0.005	-0.070
-309.910	-200.000	0.020	-0.113
-308.895	-140.364	0.151	0.016
-307.880	101.037	0.249	0.287
-306.866	-147.592	-0.240	-0.020
-305.851	104.025	0.120	-0.140
-304.837	40.520	0.206	0.184
-303.822	140.307	0.248	0.324
-302.807	-140.685	-0.149	0.015
-301.793	-100.153	-0.383	-0.095
-300.778	208.058	-0.137	-0.212
-299.764	-123.048	-0.074	0.012
-298.749	-42.370	-0.060	0.030
-297.735	623.983	0.045	-0.111
-296.720	800.000	-0.078	0.241
-295.705	800.000	-0.045	-0.176
-294.691	-26.851	-0.157	-0.091
-293.676	259.706	-0.073	0.124
-292.662	736.774	0.063	0.167
-291.647	-200.000	0.045	0.448
-290.632	-77.392	-0.319	-0.110
-289.618	132.854	0.156	-0.200
-288.603	800.000	0.043	0.165
-287.589	121.706	-0.080	-0.098
-286.574	-55.251	0.228	-0.102
-285.559	-174.086	0.350	-0.010
-284.545	371.483	-0.104	-0.210
-283.530	-200.000	-0.048	-0.486
-282.516	-200.000	0.001	0.021
-281.501	-157.847	-0.087	0.005
-280.486	307.532	-0.040	0.073
-279.472	-160.725	-0.337	-0.018
-278.457	400.942	-0.024	-0.050
-277.443	-25.880	0.197	-0.115
-276.428	-16.730	-0.371	-0.232
-275.413	800.000	0.098	-0.303
-274.399	249.319	0.071	0.119
-273.384	-54.111	0.102	0.046
-272.370	111.271	0.150	0.179
-271.355	-19.182	-0.033	0.020
-270.340	364.456	0.039	0.078
-269.326	-43.810	0.226	0.113
-268.311	-27.988	0.307	0.176
-267.297	182.753	-0.038	0.056
-266.282	57.880	-0.325	0.315
-265.267	-9.028	-0.221	0.147
-264.253	87.293	-0.071	0.078
-263.238	437.110	-0.119	0.256
-262.224	0.590	0.102	-0.072
-261.209	-176.447	0.234	-0.006
-260.195	9.050	-0.338	0.252
-259.180	513.146	0.127	0.294
-258.165	-200.000	0.009	0.389
-257.151	-37.531	0.119	0.063
-256.136	248.415	-0.231	0.387
-255.122	29.754	-0.109	0.092
-254.107	800.000	0.053	0.232
-253.092	582.987	-0.197	-0.479
-252.078	-43.915	0.406	-0.202
-251.063	471.936	0.100	0.223
-250.049	-45.857	-0.274	-0.134
-249.034	-74.106	-0.274	0.098
-248.019	-200.000	0.036	0.404
-247.005	281.948	0.262	0.465
-245.990	800.000	-0.071	0.237
-244.976	-104.642	-0.165	-0.038
-243.961	-95.488	-0.265	-0.070
-242.946	-147.096	0.197	-0.017
-241.932	-9.553	-0.222	0.147
-240.917	800.000	0.047	0.178
-239.903	36.602	-0.184	0.161
-238.888	-77.965	0.242	-0.082
-237.873	-74.391	0.349	-0.124
-236.859	-48.365	-0.100	0.048
-235.844	800.000	0.029	-0.105
-234.830	206.020	-0.125	0.192
-233.815	-29.807	-0.326	-0.184
-232.800	-200.000	0.004	0.034
-231.786	81.768	0.261	-0.280
-230.771	-71.779	-0.255	-0.094
-229.757	353.544	0.140	0.275
-228.742	800.000	0.053	0.228
-227.727	213.750	-0.125	0.196
-226.713	-68.414	-0.098	0.038
-225.698	-142.017	-0.284	-0.028
-224.684	-142.014	0.092	-0.009
-223.669	-62.747	0.036	0.015
-222.655	162.352	-0.206	-0.285
-221.640	-0.386	-0.176	-0.124
-220.625	-91.506	0.207	0.058
-219.611	30.659	0.167	0.141
-218.596	-136.252	-0.303	0.035
-217.582	142.011	0.277	-0.363
-216.567	-4.788	0.279	0.190
-215.552	24.130	-0.086	-0.070
-214.538	5.240	-0.134	-0.098
-213.523	-24.280	0.147	-0.087
-212.509	-135.410	-0.215	0.025
-211.494	20.682	-0.158	0.127
-210.479	202.200	0.010	0.016
-209.465	123.390	0.259	-0.321
-208.450	-27.720	0.244	-0.140
-207.436	211.602	0.123	0.191
-206.421	-200.000	0.043	0.239
-205.406	270.422	0.095	0.165
-204.392	800.000	0.041	0.127
-203.377	-61.721	0.160	-0.066
-202.363	83.259	0.308	-0.331
-201.348	252.713	0.176	-0.296
-200.333	37.295	-0.288	0.252
-199.319	-19.123	-0.155	-0.095
-198.304	561.880	-0.074	0.176
-197.290	-200.000	0.019	0.219
-196.275	101.999	0.197	-0.227
-195.260	800.000	-0.043	0.138
-194.246	6.100	-0.234	0.171
-193.231	-200.000	0.013	0.126
-192.217	-62.214	-0.315	-0.130
-191.202	29.108	0.243	0.203
-190.187	107.374	-0.294	0.346
-189.173	-85.103	0.200	-0.062
-188.158	-100.276	0.238	0.058
-187.144	-125.684	0.170	-0.025
-186.129	800.000	0.028	-0.103
-185.114	65.310	0.322	0.321
-184.100	-38.683	-0.127	-0.066
-183.085	-55.998	0.313	-0.138
-182.071	800.000	-0.078	-0.299
-181.056	-63.616	0.377	0.153
-180.042	-109.207	-0.198	-0.041
-179.027	-200.000	-0.117	0.000
-178.012	-10.181	0.316	0.207
-176.998	95.142	-0.153	0.172
-175.983	351.087	0.067	-0.130
-174.969	162.447	-0.115	0.159
-173.954	170.621	0.238	0.337
-172.939	65.449	0.071	-0.071
-171.925	317.030	-0.119	0.221
-170.910	377.853	-0.087	0.176
-169.896	800.000	-0.079	0.224
-168.881	1.124	0.130	0.092
-167.866	30.376	-0.090	-0.076
-166.852	215.211	0.255	-0.400
-165.837	-48.873	-0.069	-0.032
-164.823	-112.886	0.213	0.042
-163.808	-77.549	-0.106	-0.036
-162.793	-43.890	-0.199	0.099
-161.779	604.125	0.082	0.202
-160.764	65.792	0.121	0.121
-159.750	168.890	0.060	-0.085
-158.735	800.000	-0.011	0.032
-157.720	-200.000	-0.019	0.158
-156.706	158.702	0.138	0.188
-155.691	528.555	-0.076	0.178
-154.677	-57.182	-0.163	-0.071
-153.662	-82.300	0.355	0.114
-152.647	561.706	0.074	-0.176
-151.633	555.152	0.099	-0.234
-150.618	-99.825	0.343	0.085
-149.604	301.539	0.147	-0.268
-148.589	800.000	-0.043	0.166
-147.574	-34.202	-0.100	-0.054
-146.560	189.987	0.017	-0.026
-145.545	-85.228	-0.270	0.083
-144.531	354.571	-0.170	0.333
-143.516	394.935	0.049	0.100
-142.502	-200.000	-0.004	0.268
-141.487	-67.479	0.159	-0.061
-140.472	-200.000	0.057	0.448
-139.458	-58.541	-0.159	0.068
-138.443	116.101	0.175	0.211
-137.429	110.015	-0.169	-0.200
-136.414	-200.000	0.013	0.341
-135.399	-69.868	0.063	0.024
-134.385	-24.786	-0.235	-0.138
-133.370	30.170	0.034	0.029
-132.356	160.042	0.170	0.234
-131.341	-145.645	0.092	-0.008
-130.326	-200.000	0.010	-0.205
-129.312	72.019	0.284	-0.292
-128.297	-18.175	0.377	-0.232
-127.283	-34.589	-0.015	-0.008
-126.268	-91.089	-0.136	-0.038
-125.253	-35.838	-0.121	-0.064
-124.239	-200.000	0.014	-0.106
-123.224	-86.045	0.189	-0.057
-122.210	-119.569	-0.286	0.049
