DTS Sentinel unit serial number:	SN413079Multiplexer serial number:	ORYXHardware model number:	OX4-SRSoftware version number:	ORYX F/W v4.00 Oryx Data Collector v3.7.2.0data status	okinstallation	princeton_trtdifferential loss correction	single-endedforward channel	channel 2reverse channel	N/Adate	2019/09/18time	22:23:34forward acquisition time	60.00reverse acquisition time	0.00gamma	496.2192k internal	0.2349k external	0.2349temperature offset calibration	1.0022default loss term (dB/km)	0.3790temperature slope calibration	1.0000multiplexer offset coefficient	1.0000multiplexer slope coefficient	1.0000fibre end	0.00T internal ref (°C)	24.28T ext. ref 1 (°C)	0.80T ext. ref 2 (°C)	18.00length (m)	temperature (°C)	Stokes	anti-Stokes-747.200	329.897	0.105	-0.202
-746.185	200.419	-0.255	0.391
-745.171	-200.000	0.054	0.386
-744.156	-31.894	0.062	0.035
-743.142	-71.574	-0.188	0.070
-742.127	-62.834	-0.244	0.101
-741.112	-31.353	0.218	-0.122
-740.098	200.387	-0.308	0.472
-739.083	46.166	0.054	-0.050
-738.069	504.547	-0.169	-0.390
-737.054	-27.251	-0.133	0.077
-736.039	130.927	-0.207	0.266
-735.025	-72.727	0.249	-0.092
-734.010	61.645	0.203	0.201
-732.996	-80.042	-0.272	-0.091
-731.981	-123.020	0.172	0.028
-730.966	-70.800	-0.062	0.023
-729.952	-53.934	-0.320	0.145
-728.937	122.213	-0.128	-0.160
-727.923	800.000	-0.022	0.071
-726.908	67.651	-0.219	0.224
-725.894	-200.000	-0.081	-0.412
-724.879	606.824	0.197	-0.490
-723.864	-67.689	-0.235	-0.092
-722.850	118.449	0.202	-0.249
-721.835	800.000	0.045	-0.159
-720.821	92.998	0.074	-0.084
-719.806	-13.094	0.148	-0.096
-718.791	800.000	0.029	0.112
-717.777	497.453	-0.093	-0.215
-716.762	-85.688	0.266	0.083
-715.748	57.878	0.085	0.083
-714.733	-181.732	-0.391	-0.008
-713.718	760.689	0.071	-0.191
-712.704	-153.999	-0.196	-0.013
-711.689	185.079	-0.182	-0.269
-710.675	-69.349	-0.199	0.076
-709.660	-35.187	-0.105	0.057
-708.645	-74.695	-0.213	-0.076
-707.631	-81.777	0.312	-0.102
-706.616	465.852	-0.091	0.203
-705.602	624.532	0.112	-0.282
-704.587	-178.821	0.115	-0.003
-703.572	-78.625	-0.116	0.039
-702.558	22.353	0.233	-0.190
-701.543	209.425	0.044	0.068
-700.529	-38.715	0.056	0.030
-699.514	349.673	0.076	-0.150
-698.499	37.526	-0.106	-0.094
-697.485	-158.348	0.288	0.017
-696.470	-97.246	-0.480	0.125
-695.456	172.395	0.078	0.112
-694.441	-72.541	-0.342	-0.126
-693.426	-17.433	-0.192	0.120
-692.412	-13.077	0.377	-0.244
-691.397	84.747	-0.203	0.222
-690.383	-200.000	-0.016	-0.117
-689.368	-200.000	-0.044	-0.211
-688.354	-147.823	0.019	-0.002
-687.339	-200.000	0.060	-0.301
-686.324	-102.732	-0.434	0.103
-685.310	-175.479	-0.139	-0.004
-684.295	-200.000	0.016	-0.125
-683.281	-55.088	0.376	-0.169
-682.266	-138.738	-0.074	-0.008
-681.251	86.546	-0.242	0.266
-680.237	-200.000	0.121	0.000
-679.222	52.526	-0.050	0.048
-678.208	-200.000	0.062	-0.375
-677.193	-20.668	-0.207	-0.126
-676.178	-126.572	0.182	-0.027
-675.164	222.181	-0.054	0.087
-674.149	234.600	0.275	-0.452
-673.135	-200.000	0.000	0.074
-672.120	29.589	0.049	0.042
-671.105	-200.000	-0.001	0.015
-670.091	-32.836	-0.063	-0.035
-669.076	157.386	-0.226	-0.311
-668.062	-116.833	0.064	0.012
-667.047	-115.353	-0.317	0.060
-666.032	47.465	-0.231	0.214
-665.018	-200.000	0.064	-0.422
-664.003	-88.212	-0.187	-0.056
-662.989	-9.893	0.031	0.020
-661.974	32.689	0.091	-0.078
-660.959	-116.280	-0.383	-0.071
-659.945	800.000	0.065	0.182
-658.930	-167.939	-0.169	-0.007
-657.916	26.721	-0.148	-0.124
-656.901	-200.000	0.031	-0.204
-655.886	-200.000	0.002	-0.139
-654.872	-61.354	0.102	-0.043
-653.857	7.298	-0.100	0.074
-652.843	61.829	-0.162	-0.161
-651.828	-200.000	-0.065	-0.309
-650.814	-122.229	-0.286	-0.047
-649.799	-20.723	-0.342	-0.209
-648.784	236.129	0.097	-0.159
-647.770	-200.000	-0.017	0.126
-646.755	-130.044	0.131	0.018
-645.741	-200.000	0.042	-0.201
-644.726	-200.000	-0.027	-0.125
-643.711	-151.973	0.083	-0.006
-642.697	-200.000	0.030	0.147
-641.682	-120.499	0.210	-0.036
-640.668	-200.000	0.025	-0.244
-639.653	-200.000	-0.010	-0.082
-638.638	45.327	0.120	0.110
-637.624	82.605	0.066	0.071
-636.609	35.797	0.164	0.143
-635.595	169.086	0.192	-0.273
-634.580	-119.269	-0.153	-0.026
-633.565	-29.760	-0.222	0.126
-632.551	-33.272	-0.123	0.068
-631.536	-147.943	-0.170	-0.014
-630.522	-28.859	0.236	-0.135
-629.507	-115.362	0.217	0.041
-628.492	73.594	0.116	-0.121
-627.478	-200.000	0.002	-0.136
-626.463	-109.217	-0.210	0.044
-625.449	-200.000	0.027	-0.186
-624.434	-200.000	0.041	-0.292
-623.419	-119.695	-0.123	0.021
-622.405	176.781	0.160	0.232
-621.390	-98.419	-0.144	-0.037
-620.376	43.379	0.172	0.156
-619.361	-69.149	0.213	0.082
-618.346	-128.432	0.150	-0.021
-617.332	-16.340	-0.389	-0.246
-616.317	800.000	-0.055	-0.226
-615.303	-200.000	0.065	0.356
-614.288	326.981	-0.165	0.315
-613.273	-200.000	-0.032	-0.166
-612.259	-200.000	0.069	-0.342
-611.244	-200.000	0.034	-0.205
-610.230	159.745	-0.185	-0.256
-609.215	-200.000	0.012	-0.111
-608.201	118.647	-0.180	-0.221
-607.186	-127.116	0.277	0.040
-606.171	-104.505	0.247	-0.057
-605.157	192.038	-0.137	0.205
-604.142	187.985	-0.244	-0.362
-603.128	-200.000	-0.063	-0.320
-602.113	377.458	-0.132	-0.268
-601.098	-67.116	0.373	0.146
-600.084	267.521	-0.083	0.144
-599.069	24.801	-0.166	-0.137
-598.055	493.319	0.054	0.123
-597.040	800.000	-0.102	-0.350
-596.025	16.265	0.111	-0.087
-595.011	-200.000	-0.116	0.000
-593.996	642.720	-0.147	-0.372
-592.982	-21.461	0.029	-0.018
-591.967	-84.391	0.346	0.108
-590.952	800.000	-0.070	0.225
-589.938	61.291	0.194	0.192
-588.923	496.184	-0.043	0.097
-587.909	-52.508	0.228	0.104
-586.894	126.939	0.106	0.134
-585.879	-39.288	0.116	0.060
-584.865	3.760	-0.042	-0.031
-583.850	50.684	-0.089	-0.084
-582.836	424.200	0.093	0.199
-581.821	-200.000	0.051	-0.252
-580.806	-200.000	0.058	-0.255
-579.792	-200.000	0.002	0.096
-578.777	-200.000	0.032	-0.215
-577.763	222.109	0.051	0.082
-576.748	19.866	-0.136	-0.109
-575.733	-37.261	0.104	0.055
-574.719	-200.000	-0.025	-0.245
-573.704	-106.650	0.132	-0.029
-572.690	-106.494	-0.137	0.030
-571.675	-200.000	0.032	-0.140
-570.661	290.401	-0.084	-0.152
-569.646	-200.000	0.017	-0.256
-568.631	220.959	-0.095	-0.151
-567.617	800.000	-0.025	0.104
-566.602	800.000	0.124	-0.422
-565.588	-132.960	-0.149	0.019
-564.573	-200.000	-0.026	-0.155
-563.558	-95.224	-0.211	-0.056
-562.544	488.132	0.105	-0.237
-561.529	209.118	-0.202	0.313
-560.515	82.725	-0.043	-0.046
-559.500	90.172	0.269	0.298
-558.485	247.612	0.110	-0.184
-557.471	-58.066	0.034	0.015
-556.456	800.000	0.070	-0.244
-555.442	-153.944	0.137	-0.009
-554.427	800.000	-0.080	-0.247
-553.412	-143.581	0.443	-0.042
-552.398	93.748	0.072	-0.081
-551.383	458.063	-0.126	-0.277
-550.369	-62.769	0.403	0.166
-549.354	800.000	-0.042	-0.123
-548.339	800.000	0.027	-0.079
-547.325	-200.000	0.027	-0.215
-546.310	122.177	-0.279	-0.345
-545.296	29.363	0.047	-0.039
-544.281	-200.000	0.026	-0.149
-543.266	800.000	-0.061	0.242
-542.252	-146.584	0.118	0.010
-541.237	-200.000	0.044	0.275
-540.223	252.410	-0.196	0.331
-539.208	462.624	-0.068	-0.151
-538.193	156.466	-0.202	0.276
-537.179	-137.409	0.190	0.021
-536.164	-135.892	-0.288	-0.034
-535.150	-51.012	0.119	-0.055
-534.135	-50.033	-0.143	-0.067
-533.121	526.938	0.081	-0.190
-532.106	468.682	-0.099	0.220
-531.091	101.558	0.022	-0.025
-530.077	-200.000	-0.061	0.294
-529.062	21.969	-0.134	0.109
-528.048	135.452	0.158	0.203
-527.033	-200.000	-0.031	-0.463
-526.018	-65.952	0.229	-0.091
-525.004	-23.073	0.162	-0.097
-523.989	-88.571	-0.101	-0.030
-522.975	138.957	0.059	-0.076
-521.960	152.319	0.037	-0.049
-520.945	-72.031	-0.184	0.068
-519.931	466.207	0.080	-0.177
-518.916	-23.869	-0.231	-0.137
-517.902	196.003	-0.108	0.162
-516.887	-200.000	0.015	0.152
-515.872	172.120	-0.087	0.123
-514.858	58.064	0.169	-0.163
-513.843	472.797	0.086	0.192
-512.829	126.821	0.023	0.029
-511.814	387.139	0.071	-0.146
-510.799	152.765	0.241	0.326
-509.785	-98.022	-0.253	0.064
-508.770	759.381	-0.063	-0.168
-507.756	800.000	-0.028	-0.094
-506.741	-106.455	-0.445	-0.098
-505.726	-141.051	-0.184	-0.019
-504.712	29.951	-0.289	0.244
-503.697	-93.863	0.292	-0.080
-502.683	-200.000	0.045	-0.218
-501.668	-36.929	-0.278	0.148
-500.653	221.958	-0.125	-0.198
-499.639	800.000	0.041	-0.147
-498.624	-127.592	-0.156	0.022
-497.610	-90.860	0.246	-0.070
-496.595	-200.000	-0.035	0.227
-495.581	557.039	-0.084	0.200
-494.566	-152.786	0.282	-0.020
-493.551	-100.899	0.147	0.036
-492.537	-79.328	-0.415	0.139
-491.522	34.564	0.479	0.414
-490.508	-57.980	0.167	0.072
-489.493	800.000	-0.047	0.139
-488.478	-200.000	-0.026	0.263
-487.464	800.000	0.015	-0.059
-486.449	-200.000	0.001	-0.232
-485.435	175.006	-0.235	-0.336
-484.420	118.146	0.221	-0.270
-483.405	129.497	-0.145	0.183
-482.391	-5.799	-0.284	-0.193
-481.376	-200.000	0.012	0.225
-480.362	-58.263	0.198	-0.085
-479.347	-155.400	0.059	0.004
-478.332	477.167	-0.073	0.163
-477.318	286.625	0.211	-0.377
-476.303	-127.368	0.214	-0.031
-475.289	-22.792	0.152	0.091
-474.274	-200.000	0.002	0.025
-473.259	307.106	-0.208	-0.383
-472.245	60.076	0.163	-0.159
-471.230	-200.000	-0.004	-0.114
-470.216	-11.869	-0.057	-0.037
-469.201	-200.000	-0.022	0.224
-468.186	-110.395	0.193	-0.040
-467.172	27.412	-0.201	-0.167
-466.157	-147.612	-0.065	-0.005
-465.143	43.376	0.026	-0.024
-464.128	800.000	-0.098	-0.323
-463.113	-79.688	0.126	-0.042
-462.099	154.271	-0.221	-0.300
-461.084	6.514	-0.286	-0.210
-460.070	-123.637	-0.044	0.007
-459.055	-10.698	-0.187	0.122
-458.040	-172.755	-0.343	-0.011
-457.026	-145.631	0.323	0.029
-456.011	800.000	-0.008	0.026
-454.997	-200.000	0.013	0.249
-453.982	4.445	0.218	-0.158
-452.968	67.652	-0.075	-0.076
-451.953	-200.000	0.006	-0.047
-450.938	-200.000	-0.028	-0.231
-449.924	-83.875	-0.153	-0.048
-448.909	-200.000	0.019	0.270
-447.895	-142.112	-0.335	0.033
-446.880	-51.486	0.116	-0.053
-445.865	-4.774	0.092	0.063
-444.851	232.990	-0.261	0.424
-443.836	234.522	0.256	0.417
-442.822	38.864	0.132	0.117
-441.807	-119.378	-0.321	0.055
-440.792	-200.000	0.005	-0.326
-439.778	225.730	0.068	-0.109
-438.763	202.233	-0.122	0.185
-437.749	-132.657	0.264	0.033
-436.734	145.397	0.138	0.182
-435.719	313.145	-0.005	-0.010
-434.705	-110.128	-0.352	0.073
-433.690	25.950	-0.442	0.363
-432.676	30.281	0.344	0.290
-431.661	-200.000	-0.007	0.123
-430.646	-200.000	-0.077	-0.385
-429.632	186.807	-0.188	0.277
-428.617	-200.000	-0.019	0.270
-427.603	-118.680	-0.172	0.030
-426.588	-200.000	0.008	0.198
-425.573	-200.000	-0.000	0.008
-424.559	800.000	0.025	-0.074
-423.544	443.705	0.141	0.306
-422.530	-115.401	0.088	-0.016
-421.515	91.561	-0.263	-0.292
-420.500	-152.830	0.180	-0.013
-419.486	800.000	0.042	-0.150
-418.471	-96.308	0.135	-0.035
-417.457	800.000	-0.037	0.112
-416.442	599.949	0.116	-0.284
-415.428	-184.509	-0.449	-0.007
-414.413	-164.104	0.132	-0.006
-413.398	-23.974	0.331	0.195
-412.384	131.941	0.220	-0.279
-411.369	-111.403	-0.143	0.029
-410.355	-117.077	0.038	0.007
-409.340	-151.002	0.450	0.033
-408.325	219.870	-0.113	-0.178
-407.311	800.000	0.103	0.298
-406.296	1.633	0.051	0.036
-405.282	-174.909	-0.078	-0.002
-404.267	-3.248	-0.266	0.182
-403.252	-98.656	0.053	0.013
-402.238	-47.092	-0.176	0.085
-401.223	138.222	0.065	0.084
-400.209	208.686	-0.238	0.367
-399.194	205.672	0.102	0.157
-398.179	-200.000	0.019	-0.330
-397.165	18.008	-0.059	0.046
-396.150	-13.737	-0.073	-0.047
-395.136	46.815	-0.090	-0.083
-394.121	-65.716	0.185	0.073
-393.106	-183.333	0.065	-0.001
-392.092	-24.737	0.066	0.038
-391.077	334.094	0.033	-0.063
-390.063	-141.783	-0.334	0.033
-389.048	632.123	0.134	0.335
-388.033	-112.606	0.346	0.068
-387.019	277.310	-0.114	-0.200
-386.004	-69.224	-0.284	0.108
-384.990	318.888	0.076	0.142
-383.975	-15.341	0.201	0.127
-382.960	-179.634	0.315	-0.007
-381.946	-89.962	-0.272	-0.078
-380.931	163.113	-0.187	-0.259
-379.917	26.732	-0.036	0.030
-378.902	-132.722	-0.117	0.015
-377.888	800.000	-0.112	0.306
-376.873	-80.378	-0.169	-0.056
-375.858	-102.549	0.163	0.038
-374.844	-124.512	-0.239	-0.037
-373.829	168.013	0.180	-0.252
-372.815	-89.426	0.246	0.071
-371.800	-200.000	-0.168	0.000
-370.785	-147.158	0.313	0.026
-369.771	-115.623	-0.422	0.078
-368.756	-103.958	-0.131	0.030
-367.742	-120.179	-0.219	0.037
-366.727	-59.905	0.087	-0.037
-365.712	-200.000	0.026	0.123
-364.698	-200.000	0.001	-0.129
-363.683	-200.000	0.084	-0.383
-362.669	-22.142	-0.275	-0.164
-361.654	405.450	-0.061	0.127
-360.639	-84.041	-0.510	-0.159
-359.625	-152.055	0.239	0.017
-358.610	-200.000	-0.006	-0.112
-357.596	50.277	0.066	0.062
-356.581	18.169	-0.151	-0.119
-355.566	-200.000	0.034	0.257
-354.552	499.108	0.138	-0.313
-353.537	28.073	0.141	0.117
-352.523	-200.000	-0.012	0.268
-351.508	-46.961	-0.113	-0.055
-350.493	-116.677	-0.229	-0.041
-349.479	35.847	0.129	-0.111
-348.464	-154.489	0.078	-0.005
-347.450	-95.306	-0.163	-0.043
-346.435	-6.633	-0.270	0.181
-345.420	640.595	0.055	0.137
-344.406	124.846	0.017	0.021
-343.391	-24.984	0.148	0.086
-342.377	-200.000	0.006	-0.251
-341.362	-20.665	0.207	0.125
-340.348	332.217	-0.226	-0.428
-339.333	618.065	0.082	0.201
-338.318	800.000	0.028	-0.122
-337.304	-43.091	0.137	0.068
-336.289	268.643	0.029	0.050
-335.275	16.822	-0.058	-0.045
-334.260	-33.158	-0.227	0.124
-333.245	-132.962	0.194	0.024
-332.231	83.313	0.043	0.046
-331.216	-130.714	0.076	-0.010
-330.202	-37.254	0.064	0.034
-329.187	222.176	0.009	-0.014
-328.172	-197.185	-0.154	0.001
-327.158	5.849	0.076	-0.055
-326.143	-143.417	0.245	-0.023
-325.129	262.625	-0.029	0.049
-324.114	800.000	0.019	0.082
-323.099	800.000	0.080	-0.247
-322.085	-200.000	0.023	0.148
-321.070	241.711	-0.140	0.229
-320.056	-200.000	-0.036	0.205
-319.041	74.086	-0.101	0.104
-318.026	-85.897	0.148	0.045
-317.012	-84.234	-0.233	0.073
-315.997	-51.212	0.056	-0.026
-314.983	31.880	-0.201	0.170
-313.968	6.816	0.224	0.164
-312.953	-68.321	-0.171	0.065
-311.939	-123.636	0.145	-0.023
-310.924	-200.000	0.033	0.148
-309.910	-195.837	0.201	0.001
-308.895	-12.150	0.187	0.120
-307.880	800.000	-0.090	0.296
-306.866	633.145	-0.051	0.127
-305.851	14.088	0.045	-0.034
-304.837	-2.340	0.030	0.021
-303.822	-125.328	-0.104	0.016
-302.807	-97.541	-0.168	-0.043
-301.793	800.000	-0.054	-0.159
-300.778	-200.000	0.014	-0.092
-299.764	-75.693	-0.133	0.046
-298.749	800.000	0.057	0.181
-297.735	-98.092	0.281	0.071
-296.720	32.628	-0.053	-0.045
-295.705	800.000	-0.078	-0.323
-294.691	-55.555	-0.128	0.056
-293.676	704.577	-0.043	-0.111
-292.662	-157.194	-0.033	0.002
-291.647	25.765	0.143	-0.117
-290.632	-119.521	0.255	0.043
-289.618	-79.269	0.099	0.033
-288.603	-200.000	0.017	0.207
-287.589	143.730	0.233	-0.304
-286.574	435.919	0.094	-0.201
-285.559	-3.037	-0.186	0.127
-284.545	-200.000	-0.021	0.107
-283.530	-18.914	-0.332	0.203
-282.516	-25.300	-0.157	-0.091
-281.501	-86.891	-0.312	0.094
-280.486	261.188	-0.059	0.100
-279.472	14.073	-0.195	0.149
-278.457	0.197	0.118	0.082
-277.443	73.611	-0.171	0.176
-276.428	-163.671	0.133	0.006
-275.413	800.000	-0.069	0.249
-274.399	-113.552	0.170	0.033
-273.384	278.465	-0.179	0.313
-272.370	-200.000	0.010	0.323
-271.355	79.687	0.091	0.096
-270.340	-53.355	0.183	0.082
-269.326	-137.451	0.296	-0.033
-268.311	-102.644	-0.140	-0.033
-267.297	-200.000	-0.057	0.315
-266.282	3.336	0.204	0.146
-265.267	800.000	0.151	0.427
-264.253	800.000	0.074	-0.257
-263.238	-186.065	0.283	-0.004
-262.224	30.582	-0.070	-0.059
-261.209	-135.395	0.232	-0.027
-260.195	275.697	0.175	0.303
-259.180	-200.000	0.015	0.155
-258.165	-200.000	-0.020	-0.180
-257.151	532.544	-0.114	-0.263
-256.136	-85.344	-0.228	0.070
-255.122	-200.000	-0.008	-0.190
-254.107	13.865	-0.260	-0.198
-253.092	-55.759	0.214	-0.094
-252.078	-93.647	0.119	-0.032
-251.063	448.773	0.035	0.075
-250.049	29.913	0.447	-0.373
-249.034	-60.042	0.205	0.086
-248.019	306.747	-0.034	-0.063
-247.005	192.533	-0.136	0.200
-245.990	77.182	0.160	0.167
-244.976	800.000	0.032	0.119
-243.961	16.656	0.204	0.158
-242.946	-37.654	-0.293	0.153
-241.932	92.254	0.266	-0.293
-240.917	609.062	0.187	-0.457
-239.903	72.812	0.129	0.132
-238.888	-32.839	-0.024	-0.013
-237.873	-3.388	-0.159	0.109
-236.859	177.119	0.072	0.102
-235.844	-200.000	0.020	-0.111
-234.830	800.000	-0.056	-0.212
-233.815	267.873	0.135	0.232
-232.800	-64.222	-0.184	0.073
-231.786	-200.000	-0.007	-0.220
-230.771	8.192	-0.260	0.191
-229.757	28.966	0.274	0.228
-228.742	62.938	-0.143	0.140
-227.727	262.190	0.163	0.277
-226.713	-11.386	0.107	-0.069
-225.698	487.920	0.093	0.209
-224.684	17.282	0.129	0.100
-223.669	165.887	-0.219	0.303
-222.655	-200.000	-0.002	-0.104
-221.640	-60.746	-0.168	-0.070
-220.625	33.844	-0.203	0.173
-219.611	22.594	-0.172	-0.138
-218.596	-120.768	0.119	-0.020
-217.582	-200.000	0.004	-0.313
-216.567	800.000	-0.076	-0.243
-215.552	-126.217	-0.183	0.027
-214.538	-191.093	0.373	0.004
-213.523	-102.050	-0.172	0.041
-212.509	42.707	-0.126	-0.112
-211.494	-200.000	0.014	-0.104
-210.479	800.000	0.046	0.138
-209.465	-200.000	0.039	-0.191
-208.450	94.401	0.128	0.142
-207.436	-200.000	-0.016	-0.231
-206.421	-118.441	-0.085	0.015
-205.406	69.101	-0.098	-0.098
-204.392	-102.878	-0.120	-0.028
-203.377	-200.000	0.006	-0.061
-202.363	67.810	-0.215	-0.215
-201.348	-200.000	-0.035	-0.243
-200.333	7.659	0.113	-0.083
-199.319	-200.000	0.039	0.218
-198.304	-200.000	0.000	0.129
-197.290	112.610	0.161	0.191
-196.275	54.958	-0.123	0.116
-195.260	-125.089	-0.283	0.042
-194.246	-180.097	0.104	-0.002
-193.231	154.081	0.064	0.086
-192.217	-200.000	0.022	-0.196
-191.202	-51.272	-0.308	0.141
-190.187	-13.233	-0.031	0.020
-189.173	389.979	0.020	0.041
-188.158	794.682	0.088	-0.237
-187.144	271.948	0.044	0.075
-186.129	544.201	-0.090	0.210
-185.114	-200.000	-0.087	0.408
-184.100	469.779	-0.090	0.198
-183.085	-200.000	0.064	0.375
-182.071	-154.911	-0.268	0.017
-181.056	-200.000	-0.046	-0.406
-180.042	552.248	0.167	-0.391
-179.027	0.946	-0.317	-0.222
-178.012	-46.977	0.273	0.130
-176.998	800.000	0.029	-0.113
-175.983	-4.544	-0.284	-0.192
-174.969	-200.000	-0.017	-0.281
-173.954	162.843	0.198	0.271
-172.939	-53.032	0.101	0.045
-171.925	-200.000	0.031	0.274
-170.910	378.102	0.138	0.277
-169.896	-114.819	0.507	-0.094
-168.881	-200.000	0.040	-0.402
-167.866	-87.511	0.219	-0.065
-166.852	-14.335	0.099	0.062
-165.837	-112.321	0.112	-0.022
-164.823	200.262	-0.119	-0.178
-163.808	4.550	-0.123	0.088
-162.793	258.393	0.135	0.227
-161.779	-41.977	-0.165	0.082
-160.764	-12.474	0.230	0.147
-159.750	19.450	-0.120	0.094
-158.735	125.436	-0.148	-0.183
-157.720	-22.201	0.150	-0.089
-156.706	-118.531	0.286	-0.049
-155.691	373.403	0.087	0.173
-154.677	-119.600	-0.506	-0.086
-153.662	-16.840	0.070	0.043
-152.647	566.913	-0.021	0.050
-151.633	87.593	-0.203	0.220
-150.618	-13.429	0.096	0.061
-149.604	800.000	-0.097	-0.345
-148.589	286.100	0.078	0.138
-147.574	-200.000	-0.030	0.217
-146.560	-152.692	-0.154	0.011
-145.545	-200.000	-0.001	0.014
-144.531	-120.653	0.205	-0.034
-143.516	-13.010	-0.213	0.135
-142.502	-124.779	0.388	0.058
-141.487	-200.000	0.009	0.057
-140.472	225.744	0.163	0.258
-139.458	171.669	-0.041	0.057
-138.443	-55.414	-0.143	0.063
-137.429	-73.797	0.193	-0.069
-136.414	-75.783	0.344	0.119
-135.399	-41.668	0.147	-0.073
-134.385	11.407	0.148	0.110
-133.370	78.918	-0.168	0.175
-132.356	176.262	0.270	0.382
-131.341	-58.609	-0.251	-0.106
-130.326	800.000	-0.039	0.125
-129.312	-40.489	-0.282	-0.143
-128.297	123.334	-0.094	0.114
-127.283	-13.102	-0.426	0.270
-126.268	235.162	-0.060	-0.097
-125.253	169.376	0.243	0.338
-124.239	-200.000	-0.024	0.404
-123.224	91.465	-0.069	0.076
-122.210	331.220	0.083	0.155
-121.195	-10.195	0.351	0.227
