DTS Sentinel unit serial number:	SN413079Multiplexer serial number:	ORYXHardware model number:	OX4-SRSoftware version number:	ORYX F/W v4.00 Oryx Data Collector v3.7.2.0data status	okinstallation	princeton_trtdifferential loss correction	single-endedforward channel	channel 2reverse channel	N/Adate	2019/09/12time	18:24:49forward acquisition time	15.00reverse acquisition time	0.00gamma	496.2192k internal	0.2323k external	0.2323temperature offset calibration	1.0123default loss term (dB/km)	0.3790temperature slope calibration	1.0000multiplexer offset coefficient	1.0000multiplexer slope coefficient	1.0000fibre end	0.00T internal ref (°C)	33.37T ext. ref 1 (°C)	2.93T ext. ref 2 (°C)	28.00length (m)	temperature (°C)	Stokes	anti-Stokes-747.200	-103.032	0.644	0.154
-746.185	314.134	-0.179	0.339
-745.171	461.458	-0.100	-0.225
-744.156	312.812	0.080	-0.152
-743.142	141.094	-0.498	0.665
-742.127	-126.251	0.691	0.104
-741.112	113.369	0.572	0.701
-740.098	-200.000	-0.108	-0.597
-739.083	-34.365	0.698	-0.386
-738.069	-200.000	-0.024	0.676
-737.054	46.466	1.025	0.960
-736.039	-109.847	0.670	-0.142
-735.025	800.000	0.163	0.459
-734.010	689.056	-0.099	0.261
-732.996	202.429	0.554	0.863
-731.981	-200.000	-0.051	0.277
-730.966	38.004	-0.271	0.243
-729.952	-6.899	-0.364	-0.250
-728.937	-77.734	-0.242	0.084
-727.923	254.069	-0.391	-0.674
-726.908	-50.448	-0.192	-0.092
-725.894	314.227	-0.118	0.223
-724.879	-59.444	0.867	0.376
-723.864	78.188	0.806	-0.868
-722.850	117.057	-0.149	-0.184
-721.835	86.749	-0.823	-0.917
-720.821	-200.000	0.186	-1.760
-719.806	800.000	0.116	-0.326
-718.791	-21.832	-0.075	0.046
-717.777	-53.778	-0.552	-0.254
-716.762	126.485	0.256	0.327
-715.748	-197.253	0.565	0.004
-714.733	-102.797	-0.206	-0.049
-713.718	-104.397	-0.356	-0.083
-712.704	-8.342	-0.571	-0.388
-711.689	114.045	0.311	-0.382
-710.675	-200.000	-0.054	0.353
-709.660	-17.797	-0.569	0.360
-708.645	-200.000	0.016	-0.303
-707.631	-200.000	0.095	0.759
-706.616	800.000	0.154	-0.582
-705.602	-200.000	0.062	-0.437
-704.587	-113.051	0.180	-0.036
-703.572	453.393	-0.203	-0.453
-702.558	42.661	0.374	-0.343
-701.543	-108.179	0.392	-0.085
-700.529	-69.599	-0.391	0.151
-699.514	-81.795	-0.824	0.272
-698.499	44.476	-0.150	-0.139
-697.485	457.218	-0.165	-0.369
-696.470	-169.232	0.369	-0.014
-695.456	324.685	-0.147	0.282
-694.441	800.000	-0.321	0.986
-693.426	65.335	0.438	0.446
-692.412	18.947	-0.154	0.124
-691.397	-45.489	0.425	-0.212
-690.383	-138.298	-0.527	0.059
-689.368	-200.000	0.026	-0.413
-688.354	-149.131	-0.823	0.066
-687.339	48.961	0.484	-0.458
-686.324	-19.492	0.863	-0.539
-685.310	-75.492	0.332	-0.119
-684.295	800.000	0.051	-0.177
-683.281	-130.263	0.890	-0.122
-682.266	-8.791	-0.574	-0.388
-681.251	2.204	0.367	-0.267
-680.237	-141.032	0.676	0.070
-679.222	-60.072	-0.841	-0.362
-678.208	-22.817	0.206	-0.125
-677.193	214.426	0.449	0.715
-676.178	156.022	-0.216	-0.301
-675.164	-85.053	0.830	-0.262
-674.149	-172.193	0.359	-0.012
-673.135	-101.829	0.385	0.094
-672.120	-192.608	-0.337	-0.003
-671.105	-52.245	-1.331	0.621
-670.091	-158.530	0.725	-0.042
-669.076	-182.182	-0.358	-0.007
-668.062	-8.457	-0.404	0.273
-667.047	-164.868	-0.377	-0.017
-666.032	91.201	-0.123	0.139
-665.018	-87.526	0.809	-0.246
-664.003	-37.475	-0.279	0.150
-662.989	-200.000	0.144	-0.859
-661.974	-115.958	0.558	0.105
-660.959	-83.423	-0.572	-0.184
-659.945	101.951	0.148	0.174
-658.930	-31.307	0.120	0.068
-657.916	-124.323	-0.962	-0.151
-656.901	-92.642	1.049	-0.296
-655.886	582.607	0.436	-1.076
-654.872	262.551	-0.273	0.476
-653.857	114.668	0.271	0.332
-652.843	39.773	0.510	0.460
-651.828	-138.712	0.321	-0.035
-650.814	-33.080	-0.253	-0.141
-649.799	-200.000	0.060	-0.285
-648.784	51.485	-0.206	-0.197
-647.770	-115.673	-1.009	0.190
-646.755	-31.665	0.426	0.241
-645.741	491.666	0.098	-0.226
-644.726	-68.751	-0.291	0.113
-643.711	77.067	0.347	0.370
-642.697	-55.783	-0.464	0.208
-641.682	-1.755	-0.517	0.366
-640.668	123.228	-0.245	-0.309
-639.653	-103.197	-1.465	0.348
-638.638	-128.997	0.533	0.075
-637.624	-21.600	0.165	0.101
-636.609	-200.000	-0.134	0.626
-635.595	380.237	-0.149	-0.307
-634.580	-200.000	-0.047	-0.756
-633.565	-200.000	0.064	-0.485
-632.551	180.919	-0.346	0.511
-631.536	-200.000	-0.111	-0.717
-630.522	88.545	0.359	-0.401
-629.507	74.385	-0.334	0.353
-628.492	234.970	-0.345	0.572
-627.478	70.236	0.375	-0.389
-626.463	13.549	-0.430	-0.336
-625.449	-166.353	0.731	-0.031
-624.434	400.646	0.525	1.108
-623.419	-91.846	0.995	0.284
-622.405	9.669	0.483	0.368
-621.390	-1.813	0.228	0.162
-620.376	289.858	0.226	-0.412
-619.361	-200.000	0.048	0.617
-618.346	66.287	0.522	-0.533
-617.332	76.238	-0.278	-0.296
-616.317	270.171	0.239	-0.422
-615.303	16.806	0.425	-0.338
-614.288	350.054	-0.044	-0.088
-613.273	-147.157	1.117	-0.096
-612.259	-101.510	0.738	-0.180
-611.244	1.507	0.431	0.311
-610.230	70.779	-0.264	0.274
-609.215	-86.532	0.389	-0.120
-608.201	195.192	-0.285	-0.434
-607.186	-149.965	-0.712	-0.056
-606.171	-124.515	-0.359	-0.056
-605.157	102.830	0.231	0.272
-604.142	-200.000	0.090	0.436
-603.128	-59.512	0.213	0.092
-602.113	800.000	-0.215	-0.893
-601.098	293.511	0.647	-1.186
-600.084	800.000	0.188	0.740
-599.069	-200.000	0.091	0.610
-598.055	-54.418	0.888	0.404
-597.040	-200.000	0.005	-0.078
-596.025	695.779	0.048	0.127
-595.011	75.649	-0.115	-0.122
-593.996	49.786	-0.753	-0.712
-592.982	-88.045	-0.121	0.037
-591.967	-104.333	0.744	-0.173
-590.952	-200.000	-0.017	0.223
-589.938	-23.135	-0.725	-0.438
-588.923	-200.000	-0.136	-0.832
-587.909	-20.506	-0.240	-0.148
-586.894	202.428	0.057	0.088
-585.879	454.046	0.252	0.561
-584.865	260.440	-0.249	-0.433
-583.850	792.708	0.147	0.406
-582.836	-110.177	0.515	0.108
-581.821	-76.569	0.509	0.179
-580.806	-142.217	-0.329	0.033
-579.792	800.000	0.146	-0.428
-578.777	-149.056	0.758	-0.061
-577.763	-200.000	-0.027	0.496
-576.748	12.500	-0.507	0.392
-575.733	375.229	-0.108	-0.221
-574.719	128.923	-0.517	-0.661
-573.704	622.216	0.077	-0.194
-572.690	-200.000	0.038	0.982
-571.675	58.447	-0.255	-0.251
-570.661	-38.885	-0.656	-0.347
-569.646	-102.805	-1.070	-0.255
-568.631	-200.000	-0.056	0.788
-567.617	-21.425	-0.283	0.173
-566.602	-68.302	-0.314	-0.123
-565.588	-153.394	-0.711	-0.050
-564.573	158.632	0.147	0.204
-563.558	-174.597	-0.899	0.026
-562.544	800.000	0.500	1.446
-561.529	-200.000	-0.114	-0.646
-560.515	119.994	0.572	-0.711
-559.500	-141.448	0.485	0.049
-558.485	-78.612	-1.357	-0.465
-557.471	127.870	0.194	0.247
-556.456	-137.144	0.322	-0.037
-555.442	-99.588	-0.513	-0.129
-554.427	-12.747	1.072	-0.700
-553.412	-200.000	0.067	0.324
-552.398	-176.706	0.335	0.009
-551.383	329.293	-0.423	-0.815
-550.369	800.000	-0.319	-0.921
-549.354	-107.162	-0.274	-0.061
-548.339	-21.796	-0.304	-0.185
-547.325	800.000	-0.031	0.120
-546.310	800.000	-0.252	0.861
-545.296	178.192	0.308	-0.450
-544.281	-122.624	-0.702	0.114
-543.266	-200.000	0.030	-0.474
-542.252	800.000	0.153	0.607
-541.237	118.097	0.250	0.309
-540.223	-121.344	0.582	-0.097
-539.208	-200.000	-0.072	0.906
-538.193	-56.180	0.350	-0.156
-537.179	632.574	0.422	-1.070
-536.164	800.000	0.174	-0.489
-535.150	-200.000	-0.013	-0.094
-534.135	800.000	-0.098	0.389
-533.121	282.530	-0.176	0.316
-532.106	-33.354	-0.159	0.088
-531.091	704.664	-0.327	0.864
-530.077	241.398	-0.262	0.438
-529.062	-200.000	-0.027	-0.225
-528.048	-200.000	-0.109	-0.678
-527.033	800.000	-0.155	0.644
-526.018	164.681	0.266	-0.376
-525.004	-200.000	0.014	0.715
-523.989	-82.410	-0.809	0.263
-522.975	-200.000	0.058	0.866
-521.960	800.000	-0.098	0.328
-520.945	-6.828	-0.126	0.085
-519.931	276.996	0.180	-0.320
-518.916	88.769	0.874	0.973
-517.902	-3.046	1.062	0.742
-516.887	127.988	-0.444	0.565
-515.872	13.911	-0.628	0.489
-514.858	405.191	0.370	-0.780
-513.843	-200.000	-0.070	0.955
-512.829	26.512	-0.133	0.112
-511.814	-50.215	0.643	0.305
-510.799	-81.630	0.219	-0.072
-509.785	124.400	-0.420	0.528
-508.770	-19.930	0.102	-0.063
-507.756	244.478	0.595	-1.000
-506.741	187.836	0.210	-0.314
-505.726	800.000	-0.041	-0.138
-504.712	220.992	-0.407	0.654
-503.697	14.629	-0.211	0.165
-502.683	34.777	-0.106	0.092
-501.668	-127.702	0.254	0.037
-500.653	129.020	-0.919	-1.172
-499.639	138.407	-0.225	-0.295
-498.624	34.529	0.494	0.431
-497.610	-80.950	-0.598	-0.198
-496.595	800.000	-0.128	0.532
-495.581	-164.450	1.027	-0.047
-494.566	-56.770	0.141	0.062
-493.551	162.276	0.688	0.965
-492.537	161.362	0.236	-0.330
-491.522	800.000	-0.190	-0.634
-490.508	-200.000	0.054	-0.390
-489.493	-42.206	0.308	-0.157
-488.478	-151.703	0.354	-0.026
-487.464	56.261	-0.340	0.330
-486.449	-15.611	-0.599	-0.382
-485.435	-78.256	-0.721	-0.247
-484.420	-134.362	-0.246	-0.030
-483.405	-200.000	-0.009	0.558
-482.391	85.134	0.555	0.608
-481.376	-200.000	-0.041	0.229
-480.362	295.916	-0.250	0.459
-479.347	-39.085	0.813	0.427
-478.332	198.731	0.355	0.543
-477.318	19.418	0.736	0.591
-476.303	-146.607	0.284	-0.025
-475.289	-109.359	-0.565	0.120
-474.274	-107.579	0.439	-0.096
-473.259	800.000	0.184	0.710
-472.245	-127.708	-1.050	0.152
-471.230	3.055	0.275	0.199
-470.216	-167.737	-0.467	-0.018
-469.201	97.701	-0.636	0.730
-468.186	-200.000	-0.012	-0.663
-467.172	29.287	0.394	0.334
-466.157	557.753	0.170	-0.409
-465.143	31.413	0.320	0.274
-464.128	76.155	0.300	0.317
-463.113	440.725	-0.218	-0.476
-462.099	-94.008	-1.060	0.291
-461.084	-8.084	0.228	-0.153
-460.070	-76.086	0.255	-0.090
-459.055	18.262	-0.363	-0.289
-458.040	186.620	-0.378	0.562
-457.026	58.005	-0.189	-0.185
-456.011	55.946	-0.551	-0.533
-454.997	-120.287	0.932	0.159
-453.982	-35.116	-0.734	0.399
-452.968	800.000	0.240	1.029
-451.953	-32.879	-0.102	0.056
-450.938	-131.423	-0.200	-0.026
-449.924	-33.798	-0.246	-0.135
-448.909	117.531	0.518	-0.636
-447.895	800.000	-0.143	-0.507
-446.880	-16.842	-0.609	0.384
-445.865	-21.753	0.586	-0.356
-444.851	47.283	-0.417	0.388
-443.836	-108.439	0.548	-0.118
-442.822	800.000	-0.184	0.540
-441.807	94.355	-0.206	-0.234
-440.792	470.914	-0.313	-0.702
-439.778	-47.938	-0.489	-0.236
-438.763	-8.907	0.548	-0.366
-437.749	-200.000	0.016	0.280
-436.734	232.608	-0.098	-0.161
-435.719	-139.683	0.849	0.090
-434.705	158.208	0.336	-0.464
-433.690	129.149	-0.172	0.219
-432.676	-30.796	0.252	-0.142
-431.661	609.002	-0.035	0.088
-430.646	-11.670	-0.414	0.271
-429.632	-55.965	-0.240	0.107
-428.617	800.000	-0.161	-0.614
-427.603	447.605	-0.441	-0.969
-426.588	-86.858	-0.395	0.120
-425.573	19.229	0.329	-0.263
-424.559	228.632	0.488	-0.793
-423.544	425.333	0.258	0.553
-422.530	779.252	0.235	0.642
-421.515	-84.737	0.076	-0.024
-420.500	-200.000	-0.038	0.210
-419.486	800.000	0.218	0.739
-418.471	-200.000	-0.034	-0.315
-417.457	-30.161	-0.346	0.196
-416.442	21.402	-0.518	-0.420
-415.428	19.170	-0.327	-0.262
-414.413	-106.149	0.213	-0.048
-413.398	309.376	-0.172	-0.320
-412.384	211.851	0.266	0.417
-411.369	-24.744	-0.084	-0.050
-410.355	89.358	-0.662	-0.735
-409.340	-103.234	0.095	-0.022
-408.325	-119.839	-1.022	-0.175
-407.311	-129.884	0.798	0.109
-406.296	800.000	-0.253	0.826
-405.282	121.207	0.163	-0.202
-404.267	-43.301	-0.390	-0.196
-403.252	491.493	0.087	0.198
-402.238	-200.000	-0.037	-0.815
-401.223	-144.346	0.487	0.045
-400.209	-64.131	-0.779	-0.317
-399.194	-200.000	0.087	0.560
-398.179	-200.000	0.411	-0.001
-397.165	-116.352	0.257	-0.047
-396.150	-82.317	-0.404	-0.131
-395.136	-141.779	0.601	0.060
-394.121	-99.349	0.889	0.223
-393.106	-24.234	0.225	-0.134
-392.092	-98.132	-0.716	0.184
-391.077	-200.000	0.003	-0.592
-390.063	-136.747	-0.976	0.112
-389.048	-194.275	-0.698	-0.006
-388.033	757.386	0.108	0.292
-387.019	-199.929	-0.237	-0.001
-386.004	800.000	0.278	-0.870
-384.990	800.000	0.219	0.708
-383.975	667.584	0.029	0.074
-382.960	-142.047	0.284	-0.028
-381.946	144.784	0.413	0.549
-380.931	-200.000	-0.007	-0.724
-379.917	10.679	-0.518	0.393
-378.902	-79.730	0.452	-0.152
-377.888	-27.950	0.942	0.543
-376.873	-1.994	-0.343	-0.240
-375.858	-46.370	0.671	-0.328
-374.844	54.390	0.125	0.119
-373.829	-75.541	-1.029	0.364
-372.815	42.650	0.202	-0.183
-371.800	6.942	-0.545	-0.404
-370.785	-9.423	-0.279	0.185
-369.771	-117.863	-0.383	0.068
-368.756	-74.818	0.583	-0.208
-367.742	-5.726	-0.119	-0.081
-366.727	97.109	-0.810	-0.925
-365.712	42.759	0.306	-0.278
-364.698	-11.841	-0.409	-0.267
-363.683	3.553	0.362	0.262
-362.669	56.217	-0.586	0.566
-361.654	-200.000	-0.025	0.632
-360.639	223.830	0.491	0.789
-359.625	800.000	0.351	1.361
-358.610	-46.723	0.282	0.138
-357.596	-19.896	-0.287	0.177
-356.581	-200.000	0.066	-0.535
-355.566	29.815	0.464	-0.393
-354.552	-200.000	0.023	-0.434
-353.537	-15.889	1.209	-0.765
-352.523	138.794	-0.469	0.613
-351.508	-124.459	-0.089	0.014
-350.493	-90.015	-0.811	-0.235
-349.479	-61.033	-0.129	0.054
-348.464	-11.889	0.417	-0.272
-347.450	69.118	-0.228	-0.233
-346.435	-93.571	-0.255	0.070
-345.420	800.000	0.159	0.445
-344.406	257.628	-0.131	-0.224
-343.391	-200.000	-0.059	0.683
-342.377	-3.488	-0.860	0.594
-341.362	376.210	-0.095	-0.192
-340.348	-123.776	-0.233	-0.037
-339.333	161.077	0.116	0.161
-338.318	-31.095	-0.205	0.115
-337.304	-200.000	-0.059	-0.345
-336.289	322.043	0.104	0.197
-335.275	215.150	-0.151	-0.238
-334.260	-83.550	0.700	0.223
-333.245	-126.813	-0.335	0.049
-332.231	41.863	0.356	0.321
-331.216	-75.458	0.352	-0.125
-330.202	-93.217	-0.555	-0.153
-329.187	21.980	-0.617	-0.500
-328.172	706.681	0.326	0.855
-327.158	-200.000	0.081	0.385
-326.143	291.549	-0.325	0.587
-325.129	-9.122	-0.713	-0.473
-324.114	-200.000	1.190	-0.006
-323.099	267.677	0.183	0.318
-322.085	-200.000	0.050	-0.293
-321.070	-34.488	-0.437	-0.238
-320.056	122.509	-0.363	-0.451
-319.041	-200.000	-0.116	-0.644
-318.026	234.616	0.199	-0.325
-317.012	-143.268	0.709	0.068
-315.997	-200.000	0.020	-0.249
-314.983	-162.274	-0.414	0.021
-313.968	-200.000	-0.028	-0.577
-312.953	78.725	-0.281	-0.299
-311.939	-200.000	0.003	0.075
-310.924	-85.116	-0.287	-0.089
-309.910	729.575	-0.321	-0.851
-308.895	-200.000	0.022	0.137
-307.880	90.906	-0.274	0.305
-306.866	-140.474	0.255	-0.026
-305.851	-134.997	0.110	-0.013
-304.837	-117.152	0.650	-0.117
-303.822	-200.000	-0.000	0.470
-302.807	-200.000	0.056	0.274
-301.793	-72.828	0.538	-0.196
-300.778	37.797	-0.612	0.539
-299.764	-200.000	0.032	-0.813
-298.749	-52.595	0.572	-0.262
-297.735	-156.620	0.329	0.020
-296.720	800.000	-0.116	0.458
-295.705	-200.000	0.044	0.448
-294.691	-7.397	0.437	0.293
-293.676	161.925	0.650	-0.903
-292.662	12.482	0.633	-0.484
-291.647	-48.196	-0.845	0.404
-290.632	-200.000	-0.063	0.699
-289.618	-165.021	0.544	0.024
-288.603	229.895	0.426	-0.691
-287.589	696.785	0.081	0.212
-286.574	259.356	-0.056	0.095
-285.559	-200.000	-0.044	0.440
-284.545	-200.000	-0.004	0.110
-283.530	-9.112	-0.158	-0.105
-282.516	-88.911	1.180	0.347
-281.501	-106.867	0.568	0.125
-280.486	-200.000	-0.064	-0.523
-279.472	-62.155	0.111	0.046
-278.457	467.222	-0.262	-0.581
-277.443	-200.000	0.033	0.244
-276.428	85.173	0.246	0.267
-275.413	-86.384	0.443	0.135
-274.399	-81.081	-0.434	-0.142
-273.384	328.322	0.401	0.763
-272.370	-110.601	-0.462	0.095
-271.355	-83.930	-0.176	0.056
-270.340	-150.227	0.306	-0.023
-269.326	20.888	-0.124	-0.100
-268.311	-5.447	-0.745	-0.507
-267.297	-200.000	0.108	-0.579
-266.282	-103.251	0.573	-0.134
-265.267	800.000	0.158	-0.638
-264.253	-200.000	0.014	0.131
-263.238	-200.000	-0.115	0.517
-262.224	-74.461	0.757	0.271
-261.209	537.290	-0.165	-0.388
-260.195	800.000	-0.214	0.860
-259.180	-45.671	0.311	-0.152
-258.165	95.759	-0.344	0.389
-257.151	-27.013	0.858	-0.496
-256.136	800.000	0.108	0.367
-255.122	-200.000	-0.028	1.295
-254.107	329.789	0.275	0.523
-253.092	24.459	0.447	-0.366
-252.078	800.000	-0.191	-0.589
-251.063	-51.607	0.753	-0.348
-250.049	-127.718	0.351	-0.050
-249.034	-200.000	-0.058	-0.335
-248.019	800.000	-0.087	0.370
-247.005	-200.000	-0.033	0.719
-245.990	-57.139	0.692	0.302
-244.976	270.529	0.480	0.836
-243.961	-29.543	0.567	0.321
-242.946	522.066	0.317	0.736
-241.932	93.665	-0.529	0.594
-240.917	-24.104	-0.277	-0.164
-239.903	121.756	-0.641	-0.791
-238.888	-98.291	0.291	-0.074
-237.873	800.000	0.107	0.299
-236.859	-200.000	-0.174	-1.167
-235.844	-109.901	-0.315	-0.065
-234.830	125.179	0.283	0.354
-233.815	18.647	-0.632	-0.500
-232.800	800.000	-0.092	0.345
-231.786	66.031	-0.222	-0.223
-230.771	-35.062	1.412	-0.762
-229.757	800.000	0.157	-0.542
-228.742	-55.891	-0.420	-0.186
-227.727	-105.342	-0.910	-0.205
-226.713	77.427	0.424	0.447
-225.698	-200.000	0.130	0.789
-224.684	209.014	-0.474	-0.734
-223.669	42.408	-0.282	0.254
-222.655	52.075	-0.236	-0.223
-221.640	-135.411	0.477	0.056
-220.625	-78.417	-0.394	-0.134
-219.611	301.132	0.283	-0.518
-218.596	-11.546	-0.366	0.238
-217.582	-142.239	0.517	-0.051
-216.567	-76.856	-0.876	0.303
-215.552	800.000	0.265	-0.864
-214.538	-56.259	0.445	0.196
-213.523	-25.908	-0.316	-0.184
-212.509	-30.124	-0.465	-0.261
-211.494	-96.257	0.259	-0.068
-210.479	-141.157	0.523	-0.053
-209.465	44.696	0.521	-0.474
-208.450	-20.685	0.399	-0.242
-207.436	-118.903	-0.666	-0.116
-206.421	-66.999	0.850	-0.332
-205.406	-200.000	-0.081	0.544
-204.392	-116.164	-0.715	-0.131
-203.377	169.477	0.211	-0.298
-202.363	-200.000	-0.065	-0.365
-201.348	-120.452	-0.998	0.168
-200.333	-87.427	-0.432	-0.129
-199.319	-47.204	-0.135	0.065
-198.304	100.853	-0.173	0.199
-197.290	-200.000	0.228	-0.992
-196.275	-200.000	0.088	-0.511
-195.260	-46.021	-0.658	0.320
-194.246	411.290	-0.235	0.494
-193.231	-150.131	-0.099	0.008
-192.217	88.792	-0.627	0.689
-191.202	-200.000	0.054	-0.313
-190.187	-1.643	-0.406	-0.282
-189.173	-200.000	0.082	-1.273
-188.158	187.406	-0.241	0.355
-187.144	305.790	-0.451	0.829
-186.129	53.261	0.490	-0.464
-185.114	683.888	-0.396	-1.020
-184.100	114.536	-0.468	-0.563
-183.085	52.941	0.843	0.797
-182.071	-88.770	0.283	0.083
-181.056	-103.760	0.455	0.105
-180.042	800.000	0.130	-0.371
-179.027	49.193	-0.201	0.186
-178.012	-102.109	0.090	-0.021
-176.998	-69.225	-0.636	-0.241
-175.983	-141.545	-0.182	0.018
-174.969	50.837	0.303	-0.284
-173.954	425.240	-0.178	0.378
-172.939	257.787	-0.240	0.407
-171.925	-30.805	0.572	0.319
-170.910	-200.000	0.004	0.199
-169.896	271.882	0.205	-0.357
-168.881	73.468	0.646	-0.668
-167.866	417.295	0.178	0.376
-166.852	800.000	-0.163	-0.599
-165.837	591.041	0.269	0.655
-164.823	-130.732	-0.398	-0.053
-163.808	800.000	-0.030	0.089
-162.793	344.825	0.349	0.676
-161.779	-73.537	-1.014	-0.365
-160.764	-200.000	0.006	-1.055
-159.750	157.093	0.146	0.200
-158.735	126.349	-0.143	-0.179
-157.720	295.335	0.325	-0.587
-156.706	-200.000	-0.095	-0.523
-155.691	-36.392	-0.358	-0.190
-154.677	-178.549	-0.152	-0.003
-153.662	-56.984	-0.491	0.214
-152.647	55.804	-0.213	0.204
-151.633	800.000	-0.055	0.157
-150.618	-125.198	0.587	0.089
-149.604	-200.000	-0.059	-0.368
-148.589	-29.780	0.257	0.145
-147.574	-36.609	0.552	-0.293
-146.560	489.223	0.122	0.274
-145.545	101.369	-0.612	0.703
-144.531	-11.734	0.325	-0.211
-143.516	321.341	0.364	-0.684
-142.502	181.673	-0.323	-0.469
-141.487	175.509	-0.455	-0.650
-140.472	-200.000	0.007	-0.680
-139.458	-69.445	-0.542	-0.205
-138.443	-200.000	-0.000	0.230
-137.429	766.730	0.128	0.344
-136.414	261.487	-0.196	-0.336
-135.399	47.904	0.573	-0.528
-134.385	-168.672	-0.379	-0.014
-133.370	-200.000	-0.057	-0.478
-132.356	-200.000	0.147	0.748
-131.341	777.292	0.096	-0.259
-130.326	800.000	0.076	0.325
-129.312	-200.000	0.073	-0.635
-128.297	647.298	-0.259	0.652
-127.283	800.000	-0.020	0.077
-126.268	-200.000	-0.122	-0.664
-125.253	800.000	-0.176	-0.582
-124.239	-97.195	0.833	0.214
-123.224	-112.725	0.429	0.084
-122.210	12.393	-0.724	0.550
