DTS Sentinel unit serial number:	SN413079Multiplexer serial number:	ORYXHardware model number:	OX4-SRSoftware version number:	ORYX F/W v4.00 Oryx Data Collector v3.7.2.0data status	okinstallation	princeton_trtdifferential loss correction	single-endedforward channel	channel 2reverse channel	N/Adate	2019/09/12time	21:19:35forward acquisition time	60.00reverse acquisition time	0.00gamma	496.2192k internal	0.2328k external	0.2328temperature offset calibration	1.0168default loss term (dB/km)	0.3790temperature slope calibration	1.0000multiplexer offset coefficient	1.0000multiplexer slope coefficient	1.0000fibre end	0.00T internal ref (°C)	30.56T ext. ref 1 (°C)	3.63T ext. ref 2 (°C)	25.17length (m)	temperature (°C)	Stokes	anti-Stokes-747.200	800.000	0.008	-0.033
-746.185	-71.839	0.069	0.026
-745.171	27.476	0.044	-0.037
-744.156	135.716	-0.118	0.155
-743.142	254.180	-0.128	-0.220
-742.127	-177.143	-0.116	0.003
-741.112	121.362	0.034	-0.043
-740.098	800.000	0.104	0.413
-739.083	-200.000	-0.021	0.391
-738.069	303.971	-0.017	0.031
-737.054	-5.089	0.156	0.108
-736.039	-146.393	-0.326	0.029
-735.025	-140.974	0.210	0.022
-734.010	262.302	-0.054	-0.094
-732.996	-200.000	0.018	-0.260
-731.981	-143.896	-0.243	0.023
-730.966	-111.323	-0.211	-0.043
-729.952	-100.816	-0.270	0.067
-728.937	52.830	-0.417	0.401
-727.923	-108.061	-0.179	0.039
-726.908	188.131	-0.175	-0.263
-725.894	94.198	0.094	-0.108
-724.879	-200.000	0.011	-0.089
-723.864	144.189	-0.135	0.181
-722.850	496.053	0.069	0.160
-721.835	348.512	-0.092	0.183
-720.821	6.913	0.123	0.092
-719.806	-133.555	0.056	0.007
-718.791	253.216	-0.070	0.121
-717.777	-96.735	0.253	-0.067
-716.762	529.658	0.028	0.066
-715.748	-200.000	-0.001	0.066
-714.733	590.744	-0.136	0.338
-713.718	-200.000	0.050	0.259
-712.704	-127.152	-0.011	0.002
-711.689	194.742	-0.092	-0.141
-710.675	-104.438	-0.167	0.039
-709.660	200.563	0.059	-0.092
-708.645	800.000	-0.027	-0.081
-707.631	567.818	-0.131	-0.320
-706.616	-106.516	0.375	0.084
-705.602	-57.242	0.123	0.055
-704.587	-172.353	-0.200	0.006
-703.572	4.946	-0.273	-0.202
-702.558	-200.000	-0.024	-0.261
-701.543	342.176	-0.135	-0.265
-700.529	-200.000	0.347	0.001
-699.514	343.407	0.167	-0.329
-698.499	-179.034	-0.222	-0.005
-697.485	-43.087	-0.203	-0.103
-696.470	-133.000	0.234	-0.030
-695.456	800.000	0.064	-0.269
-694.441	-162.205	-0.113	0.006
-693.426	800.000	0.034	-0.146
-692.412	-64.675	-0.103	0.042
-691.397	800.000	-0.098	-0.345
-690.383	-64.326	-0.279	-0.114
-689.368	800.000	-0.048	-0.189
-688.354	-126.585	0.344	-0.051
-687.339	-22.646	0.132	-0.080
-686.324	-69.724	-0.219	0.084
-685.310	800.000	0.111	-0.452
-684.295	-78.032	0.092	-0.032
-683.281	-80.330	-0.355	0.119
-682.266	151.911	-0.016	-0.021
-681.251	-46.955	0.189	-0.093
-680.237	-119.267	0.078	-0.014
-679.222	178.645	-0.118	0.173
-678.208	241.530	0.158	0.265
-677.193	13.933	-0.144	-0.113
-676.178	-44.068	0.158	0.080
-675.164	-200.000	0.041	-0.278
-674.149	-188.917	-0.180	-0.002
-673.135	164.148	-0.147	-0.208
-672.120	-65.147	0.292	-0.118
-671.105	800.000	0.022	0.079
-670.091	800.000	-0.038	0.133
-669.076	186.023	0.197	-0.294
-668.062	-119.005	-0.318	-0.056
-667.047	-51.437	0.228	-0.107
-666.032	455.303	-0.078	-0.174
-665.018	-200.000	0.311	0.001
-664.003	-200.000	0.030	-0.205
-662.989	-82.989	0.429	-0.139
-661.974	-51.871	0.220	0.103
-660.959	-43.659	-0.162	-0.082
-659.945	4.616	-0.194	-0.143
-658.930	-74.939	-0.090	-0.032
-657.916	-94.177	-0.134	-0.037
-656.901	-86.989	0.038	-0.012
-655.886	-200.000	0.018	0.180
-654.872	-200.000	0.018	0.179
-653.857	-58.163	0.378	-0.166
-652.843	501.207	-0.127	0.295
-651.828	-117.374	-0.257	-0.047
-650.814	-200.000	-0.079	0.390
-649.799	-114.660	-0.140	-0.027
-648.784	800.000	-0.055	0.193
-647.770	-200.000	0.017	0.125
-646.755	12.850	-0.072	-0.056
-645.741	-106.056	0.038	-0.009
-644.726	-153.863	0.137	-0.009
-643.711	-117.256	-0.276	-0.050
-642.697	422.485	-0.219	0.472
-641.682	242.869	-0.094	0.159
-640.668	25.841	0.142	-0.119
-639.653	-0.024	0.180	0.129
-638.638	-200.000	0.030	0.269
-637.624	-200.000	-0.028	-0.208
-636.609	-140.624	-0.408	-0.042
-635.595	-102.078	0.268	0.065
-634.580	-79.358	0.076	-0.026
-633.565	-109.169	0.353	0.075
-632.551	141.933	-0.070	-0.094
-631.536	4.996	-0.144	0.107
-630.522	800.000	-0.062	-0.266
-629.507	66.400	-0.032	0.033
-628.492	-95.004	0.287	-0.078
-627.478	277.495	0.035	-0.063
-626.463	490.091	-0.060	-0.138
-625.449	800.000	0.089	-0.298
-624.434	-105.633	-0.197	-0.045
-623.419	800.000	0.033	-0.125
-622.405	601.649	0.181	0.451
-621.390	-200.000	0.034	0.407
-620.376	693.152	0.077	-0.203
-619.361	-79.043	0.503	-0.172
-618.346	-90.789	0.437	-0.126
-617.332	37.235	0.233	-0.207
-616.317	4.732	-0.023	-0.017
-615.303	174.718	0.024	0.035
-614.288	101.631	0.095	-0.111
-613.273	135.913	0.094	0.123
-612.259	-200.000	-0.009	0.300
-611.244	-12.085	0.116	0.076
-610.230	86.653	-0.092	0.102
-609.215	-173.894	-0.249	-0.007
-608.201	-8.546	0.213	0.144
-607.186	-100.089	0.045	0.011
-606.171	-200.000	0.066	-0.318
-605.157	-176.532	0.162	0.004
-604.142	-87.635	0.077	0.023
-603.128	800.000	-0.122	-0.412
-602.113	124.619	-0.178	-0.225
-601.098	-137.543	-0.287	-0.032
-600.084	-77.239	0.273	0.095
-599.069	-200.000	0.074	-0.330
-598.055	-102.695	0.023	0.006
-597.040	-144.507	0.270	-0.025
-596.025	38.648	-0.252	0.225
-595.011	19.844	0.143	0.115
-593.996	-88.013	0.356	-0.107
-592.982	-146.266	-0.296	0.026
-591.967	-24.120	-0.136	-0.082
-590.952	-109.445	0.418	0.089
-589.938	800.000	-0.041	-0.179
-588.923	-52.921	-0.177	0.081
-587.909	114.647	0.055	0.067
-586.894	-200.000	-0.019	0.179
-585.879	138.907	0.121	0.159
-584.865	260.795	0.046	-0.079
-583.850	-43.831	-0.075	-0.038
-582.836	10.184	0.080	-0.061
-581.821	-130.952	-0.352	-0.047
-580.806	93.020	-0.151	0.171
-579.792	800.000	0.029	-0.088
-578.777	-29.560	0.214	-0.123
-577.763	-61.310	0.221	0.093
-576.748	-110.740	0.266	0.055
-575.733	5.116	0.320	0.236
-574.719	43.007	0.075	0.068
-573.704	-200.000	-0.041	-0.278
-572.690	243.972	-0.025	-0.042
-571.675	386.921	-0.088	0.181
-570.661	-200.000	-0.005	0.109
-569.646	-79.260	-0.113	-0.038
-568.631	-52.599	0.030	-0.014
-567.617	-143.468	-0.279	0.027
-566.602	-200.000	0.011	0.168
-565.588	-200.000	-0.204	0.001
-564.573	-200.000	-0.011	-0.170
-563.558	159.366	0.040	-0.056
-562.544	22.073	-0.058	0.047
-561.529	-185.118	-0.127	-0.002
-560.515	800.000	-0.027	-0.114
-559.500	-58.182	-0.278	0.121
-558.485	-114.933	-0.500	-0.095
-557.471	-61.674	-0.162	0.068
-556.456	-169.894	-0.112	0.004
-555.442	-200.000	0.015	-0.066
-554.427	800.000	-0.138	-0.477
-553.412	-200.000	-0.019	0.126
-552.398	-200.000	0.061	0.274
-551.383	-200.000	-0.254	0.000
-550.369	-40.896	-0.130	0.067
-549.354	-200.000	-0.007	0.055
-548.339	18.386	0.252	-0.201
-547.325	176.578	0.025	-0.036
-546.310	262.696	0.334	-0.580
-545.296	172.839	-0.231	-0.333
-544.281	-46.193	-0.165	0.081
-543.266	484.650	-0.111	-0.253
-542.252	80.772	0.201	0.217
-541.237	-69.893	-0.260	0.099
-540.223	-152.879	-0.176	0.012
-539.208	-55.203	-0.415	0.186
-538.193	-136.535	-0.284	-0.033
-537.179	-200.000	0.043	-0.346
-536.164	321.543	-0.149	-0.284
-535.150	174.580	0.140	0.202
-534.135	75.583	-0.090	-0.095
-533.121	-66.163	-0.460	-0.183
-532.106	485.235	-0.055	-0.125
-531.091	-99.967	0.069	0.017
-530.077	-55.068	0.093	0.042
-529.062	-39.792	-0.161	-0.084
-528.048	362.021	0.155	0.311
-527.033	-126.332	0.191	-0.029
-526.018	-144.561	0.179	0.016
-525.004	33.535	0.295	-0.256
-523.989	-122.076	-0.369	-0.060
-522.975	51.822	0.111	0.106
-521.960	305.695	0.054	0.101
-520.945	149.379	-0.165	-0.223
-519.931	563.355	-0.097	-0.234
-518.916	-94.022	-0.130	-0.036
-517.902	4.163	-0.094	-0.069
-516.887	6.606	-0.047	-0.035
-515.872	800.000	-0.084	-0.264
-514.858	394.871	0.037	-0.078
-513.843	10.304	0.114	-0.087
-512.829	800.000	-0.065	-0.245
-511.814	-45.830	-0.354	-0.175
-510.799	-200.000	-0.050	0.222
-509.785	-200.000	-0.006	-0.238
-508.770	-200.000	0.025	-0.193
-507.756	800.000	-0.012	0.047
-506.741	86.784	0.283	0.312
-505.726	-50.087	0.060	0.028
-504.712	-200.000	-0.035	0.172
-503.697	-148.520	-0.376	-0.031
-502.683	-200.000	-0.024	0.135
-501.668	38.300	0.176	-0.156
-500.653	800.000	0.095	-0.311
-499.639	155.600	-0.136	0.187
-498.624	-103.831	0.216	0.051
-497.610	800.000	0.080	0.231
-496.595	-70.580	-0.196	0.074
-495.581	-45.721	-0.255	0.126
-494.566	252.956	-0.282	-0.480
-493.551	-157.794	-0.491	0.029
-492.537	-200.000	0.009	0.090
-491.522	-102.244	0.202	-0.048
-490.508	7.781	0.066	-0.050
-489.493	192.921	0.081	-0.121
-488.478	800.000	0.038	-0.143
-487.464	-200.000	-0.060	0.276
-486.449	800.000	0.073	0.281
-485.435	49.998	-0.197	-0.186
-484.420	519.247	-0.038	-0.089
-483.405	800.000	0.066	0.232
-482.391	12.518	-0.119	0.092
-481.376	-151.183	-0.291	-0.022
-480.362	-176.769	0.179	0.005
-479.347	50.046	0.221	-0.208
-478.332	800.000	-0.069	-0.245
-477.318	77.652	0.181	-0.192
-476.303	-200.000	0.053	-0.277
-475.289	-15.087	-0.086	-0.055
-474.274	-155.125	0.335	-0.022
-473.259	-126.197	-0.433	-0.065
-472.245	70.911	-0.310	-0.320
-471.230	-40.940	-0.035	0.018
-470.216	800.000	0.023	-0.067
-469.201	265.244	-0.075	-0.131
-468.186	-200.000	0.021	-0.304
-467.172	113.037	0.109	-0.131
-466.157	-200.000	0.033	0.179
-465.143	30.718	-0.086	-0.073
-464.128	-200.000	0.022	0.386
-463.113	800.000	-0.078	-0.288
-462.099	-22.003	0.053	-0.032
-461.084	-29.613	0.305	0.174
-460.070	-200.000	0.002	0.071
-459.055	-98.702	-0.133	-0.034
-458.040	-81.285	-0.311	-0.102
-457.026	800.000	-0.050	-0.209
-456.011	257.249	-0.120	-0.205
-454.997	-41.241	0.141	0.072
-453.982	300.671	-0.174	0.321
-452.968	-41.355	-0.423	-0.217
-451.953	-33.620	-0.198	0.109
-450.938	-200.000	0.015	0.324
-449.924	-200.000	-0.048	-0.481
-448.909	-104.987	-0.539	-0.123
-447.895	-124.660	-0.212	0.033
-446.880	-86.249	0.094	0.029
-445.865	800.000	0.011	0.042
-444.851	59.984	0.064	0.063
-443.836	-121.797	-0.148	-0.024
-442.822	-35.966	-0.191	-0.103
-441.807	212.156	-0.098	0.154
-440.792	174.574	0.219	0.316
-439.778	-149.716	-0.236	0.018
-438.763	-179.720	-0.267	-0.006
-437.749	-200.000	0.002	-0.210
-436.734	295.272	-0.062	0.112
-435.719	-200.000	-0.006	-0.210
-434.705	-200.000	0.016	0.094
-433.690	-108.856	-0.033	0.007
-432.676	-37.497	-0.142	-0.075
-431.661	129.850	0.066	-0.084
-430.646	800.000	-0.046	0.134
-429.632	135.559	-0.043	0.055
-428.617	-148.384	0.145	0.012
-427.603	-99.590	0.051	0.013
-426.588	139.924	0.118	-0.154
-425.573	-200.000	0.017	-0.161
-424.559	-46.850	0.099	0.048
-423.544	-8.746	-0.155	-0.103
-422.530	-181.735	0.288	0.006
-421.515	453.658	-0.172	0.379
-420.500	296.901	-0.076	0.139
-419.486	800.000	-0.052	0.178
-418.471	353.497	0.151	-0.298
-417.457	431.765	-0.065	-0.141
-416.442	-46.162	0.085	0.042
-415.428	62.102	-0.154	0.153
-414.413	-200.000	-0.027	-0.184
-413.398	-98.606	0.134	-0.034
-412.384	-73.341	-0.040	0.015
-411.369	33.911	-0.305	-0.264
-410.355	-75.780	0.080	-0.028
-409.340	135.019	0.324	-0.419
-408.325	-7.768	0.185	0.124
-407.311	-14.113	0.065	0.042
-406.296	-58.492	0.093	-0.040
-405.282	112.999	-0.274	0.330
-404.267	-22.458	0.201	0.121
-403.252	-200.000	-0.053	0.237
-402.238	-200.000	-0.025	0.295
-401.223	704.616	-0.188	0.493
-400.209	-52.822	-0.347	-0.159
-399.194	311.584	-0.182	0.339
-398.179	-200.000	0.043	0.244
-397.165	-200.000	-0.034	0.453
-396.150	110.076	-0.207	-0.247
-395.136	-200.000	0.007	0.138
-394.121	-200.000	0.016	-0.182
-393.106	-147.704	-0.298	0.025
-392.092	-200.000	0.072	0.341
-391.077	-185.435	-0.220	0.003
-390.063	-200.000	-0.042	0.200
-389.048	18.251	0.055	-0.044
-388.033	-200.000	0.013	0.226
-387.019	-30.866	0.166	0.093
-386.004	94.876	0.067	-0.075
-384.990	-200.000	-0.028	-0.131
-383.975	-200.000	0.030	-0.231
-382.960	-38.130	-0.152	0.080
-381.946	-99.979	0.061	0.015
-380.931	79.879	-0.200	0.213
-379.917	48.654	0.063	-0.059
-378.902	-200.000	-0.023	0.175
-377.888	98.524	0.057	-0.065
-376.873	-107.085	-0.096	0.021
-375.858	-200.000	0.001	0.163
-374.844	-117.110	0.411	0.074
-373.829	88.255	-0.291	0.321
-372.815	-72.965	0.307	0.112
-371.800	197.298	0.152	0.230
-370.785	-68.463	-0.465	-0.179
-369.771	156.395	0.137	-0.188
-368.756	21.514	-0.364	-0.294
-367.742	-200.000	0.014	-0.371
-366.727	-132.122	0.081	0.010
-365.712	321.496	-0.032	-0.060
-364.698	-138.082	0.328	-0.036
-363.683	-41.823	0.210	0.107
-362.669	235.557	0.117	-0.192
-361.654	-200.000	0.021	-0.116
-360.639	800.000	-0.071	0.221
-359.625	381.455	0.134	-0.273
-358.610	-50.300	-0.195	-0.092
-357.596	800.000	0.070	0.229
-356.581	-200.000	-0.032	-0.142
-355.566	-200.000	-0.025	0.130
-354.552	-104.545	-0.086	-0.020
-353.537	-108.970	0.157	-0.033
-352.523	340.867	-0.132	-0.255
-351.508	-200.000	-0.261	-0.001
-350.493	-200.000	-0.034	0.301
-349.479	439.523	-0.181	-0.392
-348.464	-200.000	-0.004	-0.155
-347.450	136.745	-0.199	-0.258
-346.435	-200.000	-0.021	-0.113
-345.420	66.954	-0.282	0.285
-344.406	-106.265	0.202	0.045
-343.391	800.000	0.027	-0.084
-342.377	-172.287	-0.194	0.006
-341.362	28.111	-0.072	-0.060
-340.348	-37.600	-0.102	0.054
-339.333	800.000	0.036	-0.101
-338.318	-85.440	-0.242	0.075
-337.304	41.418	-0.173	0.155
-336.289	701.920	0.059	-0.155
-335.275	-125.349	-0.336	-0.051
-334.260	33.465	-0.136	0.117
-333.245	800.000	-0.085	0.326
-332.231	-61.478	0.237	0.099
-331.216	-88.809	0.191	-0.056
-330.202	-47.303	-0.150	-0.073
-329.187	129.741	0.131	0.166
-328.172	-156.499	-0.074	0.005
-327.158	-110.135	0.284	-0.059
-326.143	-67.552	0.134	-0.052
-325.129	43.113	0.323	0.293
-324.114	-200.000	0.002	-0.016
-323.099	-38.058	-0.273	0.143
-322.085	-114.575	0.144	0.027
-321.070	-200.000	0.004	-0.309
-320.056	581.246	0.041	-0.100
-319.041	-119.026	-0.346	-0.060
-318.026	-45.793	0.370	-0.181
-317.012	-90.767	0.216	-0.062
-315.997	-200.000	-0.029	0.460
-314.983	137.072	-0.137	-0.177
-313.968	-12.332	0.325	0.211
-312.953	3.128	-0.131	0.094
-311.939	-144.117	0.215	-0.020
-310.924	-71.046	-0.163	0.061
-309.910	77.455	0.110	0.116
-308.895	800.000	0.078	-0.268
-307.880	224.456	-0.097	0.155
-306.866	149.988	0.111	0.149
-305.851	-200.000	0.010	0.283
-304.837	478.023	0.081	0.181
-303.822	-200.000	0.109	0.622
-302.807	-23.809	0.142	0.084
-301.793	-106.571	0.391	-0.086
-300.778	800.000	-0.039	-0.136
-299.764	-200.000	0.006	-0.029
-298.749	800.000	-0.017	-0.067
-297.735	-91.109	0.360	-0.102
-296.720	513.242	-0.128	0.296
-295.705	-0.072	-0.268	-0.189
-294.691	-200.000	-0.010	-0.095
-293.676	-75.814	0.331	0.116
-292.662	85.576	-0.145	-0.158
-291.647	-80.929	0.103	0.034
-290.632	-200.000	0.010	-0.078
-289.618	209.653	0.203	0.316
-288.603	-200.000	0.015	0.172
-287.589	-0.705	0.193	-0.135
-286.574	623.902	-0.100	0.249
-285.559	-200.000	0.042	-0.312
-284.545	-112.042	-0.220	0.044
-283.530	478.739	0.119	-0.268
-282.516	-200.000	0.055	0.322
-281.501	-200.000	0.019	0.166
-280.486	-200.000	0.006	0.117
-279.472	65.787	0.248	-0.249
-278.457	-200.000	0.017	0.132
-277.443	189.173	-0.198	-0.294
-276.428	236.805	0.121	0.199
-275.413	-200.000	0.057	0.331
-274.399	-84.059	0.105	0.033
-273.384	103.130	0.108	0.125
-272.370	-163.315	-0.135	0.006
-271.355	-29.876	-0.111	-0.062
-270.340	91.701	0.091	0.101
-269.326	472.387	0.151	0.336
-268.311	-20.004	0.341	-0.208
-267.297	-42.549	0.222	0.112
-266.282	-200.000	-0.002	-0.107
-265.267	189.914	0.091	-0.135
-264.253	4.161	-0.105	-0.076
-263.238	628.787	0.014	-0.036
-262.224	-200.000	-0.019	-0.089
-261.209	60.093	0.079	-0.077
-260.195	800.000	-0.047	-0.155
-259.180	-45.673	-0.217	-0.106
-258.165	-157.338	-0.053	0.003
-257.151	800.000	0.091	0.321
-256.136	-11.193	-0.189	0.123
-255.122	117.262	0.419	-0.510
-254.107	708.568	-0.056	0.147
-253.092	-200.000	0.002	0.032
-252.078	518.978	-0.134	0.310
-251.063	-200.000	0.004	-0.067
-250.049	-162.105	0.135	0.007
-249.034	56.106	0.235	-0.225
-248.019	2.381	0.197	0.141
-247.005	800.000	-0.053	0.188
-245.990	800.000	0.065	0.220
-244.976	-200.000	0.043	0.224
-243.961	116.229	-0.109	0.131
-242.946	297.774	0.232	-0.421
-241.932	-115.344	0.354	-0.066
-240.917	-48.489	-0.209	-0.099
-239.903	-200.000	0.006	0.118
-238.888	-200.000	-0.001	-0.070
-237.873	4.490	-0.127	-0.092
-236.859	-200.000	-0.020	0.119
-235.844	244.494	0.116	-0.193
-234.830	442.950	-0.066	-0.142
-233.815	-0.909	0.175	-0.123
-232.800	8.464	-0.171	0.127
-231.786	-154.101	0.432	0.029
-230.771	-200.000	0.029	0.368
-229.757	-72.195	0.288	0.106
-228.742	14.202	0.363	-0.279
-227.727	130.410	-0.205	0.259
-226.713	-200.000	0.001	-0.077
-225.698	-200.000	0.063	-0.586
-224.684	311.801	-0.315	-0.583
-223.669	800.000	0.027	0.081
-222.655	75.253	-0.276	0.287
-221.640	-78.626	0.288	-0.097
-220.625	289.379	-0.105	0.187
-219.611	309.768	0.043	0.079
-218.596	800.000	-0.032	0.121
-217.582	-98.761	-0.118	-0.030
-216.567	-33.962	0.157	0.085
-215.552	-200.000	-0.006	0.156
-214.538	-107.253	0.187	-0.041
-213.523	166.566	0.149	-0.209
-212.509	372.897	-0.049	-0.099
-211.494	-200.000	-0.001	-0.011
-210.479	453.705	-0.133	-0.291
-209.465	-139.856	0.299	-0.031
-208.450	-27.482	0.253	-0.145
-207.436	113.657	-0.114	-0.137
-206.421	93.573	0.205	-0.229
-205.406	-139.581	-0.151	0.016
-204.392	594.415	-0.107	0.261
-203.377	-200.000	0.027	-0.232
-202.363	99.090	0.030	-0.034
-201.348	-103.897	-0.243	0.056
-200.333	800.000	-0.029	-0.116
-199.319	655.862	-0.059	-0.150
-198.304	217.254	0.084	0.132
-197.290	-31.965	-0.173	0.096
-196.275	107.317	-0.055	-0.064
-195.260	-157.822	-0.175	0.010
-194.246	-141.465	0.335	0.033
-193.231	-54.623	-0.122	-0.054
-192.217	-56.989	-0.221	-0.096
-191.202	44.392	0.121	-0.110
-190.187	313.989	0.214	-0.398
-189.173	-200.000	0.030	0.140
-188.158	146.162	0.247	0.327
-187.144	-142.254	0.162	-0.016
-186.129	75.518	0.095	0.099
-185.114	-10.768	0.049	0.032
-184.100	800.000	-0.022	0.065
-183.085	57.013	0.066	-0.063
-182.071	-62.451	-0.122	0.050
-181.056	-50.051	0.180	-0.084
-180.042	-18.991	0.453	0.278
-179.027	97.152	0.077	-0.087
-178.012	129.047	-0.074	-0.093
-176.998	-118.333	0.204	0.036
-175.983	-43.550	-0.188	0.094
-174.969	233.631	-0.176	0.285
-173.954	-3.501	-0.223	-0.153
-172.939	85.801	-0.011	0.012
-171.925	73.994	-0.126	0.131
-170.910	-167.447	0.161	-0.006
-169.896	-200.000	-0.022	-0.151
-168.881	-200.000	0.009	0.284
-167.866	43.160	0.231	0.208
-166.852	-16.105	0.301	0.189
-165.837	-71.155	0.257	-0.095
-164.823	-200.000	0.006	-0.053
-163.808	48.752	0.306	-0.283
-162.793	350.163	-0.051	-0.098
-161.779	552.897	0.104	-0.247
-160.764	-200.000	0.051	0.369
-159.750	-200.000	-0.021	0.371
-158.735	60.492	-0.052	0.051
-157.720	-200.000	0.005	0.301
-156.706	-200.000	0.059	0.403
-155.691	-32.071	-0.221	0.122
-154.677	52.421	0.127	-0.119
-153.662	189.439	0.087	0.128
-152.647	-181.123	-0.293	-0.006
-151.633	-46.178	0.177	-0.086
-150.618	-111.391	0.228	0.046
-149.604	-104.843	0.243	0.055
-148.589	40.635	0.301	-0.267
-147.574	-137.750	0.019	-0.002
-146.560	-111.163	0.071	0.014
-145.545	583.794	-0.063	-0.153
-144.531	800.000	0.032	0.127
-143.516	-137.617	0.178	-0.020
-142.502	687.486	0.058	0.148
-141.487	-29.509	0.313	0.176
-140.472	-200.000	-0.043	0.201
-139.458	-75.625	-0.116	-0.041
-138.443	-164.825	-0.144	-0.006
-137.429	157.935	-0.044	0.060
-136.414	-200.000	-0.029	0.266
-135.399	-5.950	0.132	-0.089
-134.385	-38.149	-0.182	-0.095
-133.370	197.028	-0.094	-0.140
-132.356	-200.000	-0.012	-0.054
-131.341	278.526	0.118	-0.207
-130.326	135.616	0.055	0.070
-129.312	-96.534	0.243	-0.063
-128.297	-200.000	-0.022	0.121
-127.283	173.336	-0.184	0.261
-126.268	-120.045	-0.115	0.019
-125.253	-200.000	-0.009	-0.175
-124.239	-132.424	-0.140	-0.018
-123.224	16.046	0.434	-0.337
