DTS Sentinel unit serial number:	SN413079Multiplexer serial number:	ORYXHardware model number:	OX4-SRSoftware version number:	ORYX F/W v4.00 Oryx Data Collector v3.7.2.0data status	okinstallation	princeton_trtdifferential loss correction	single-endedforward channel	channel 2reverse channel	N/Adate	2019/09/15time	16:51:35forward acquisition time	60.00reverse acquisition time	0.00gamma	496.2192k internal	0.2285k external	0.2285temperature offset calibration	0.9932default loss term (dB/km)	0.3790temperature slope calibration	1.0000multiplexer offset coefficient	1.0000multiplexer slope coefficient	1.0000fibre end	0.00T internal ref (°C)	44.34T ext. ref 1 (°C)	5.78T ext. ref 2 (°C)	40.41length (m)	temperature (°C)	Stokes	anti-Stokes-747.200	-200.000	-0.010	0.110
-746.185	800.000	0.025	0.102
-745.171	-200.000	0.005	-0.210
-744.156	352.940	-0.069	-0.140
-743.142	-100.833	0.222	-0.056
-742.127	800.000	-0.012	0.045
-741.112	-141.770	0.435	-0.045
-740.098	307.106	0.130	-0.248
-739.083	48.084	-0.161	-0.155
-738.069	-200.000	0.002	0.388
-737.054	-61.673	0.173	-0.074
-736.039	15.557	-0.196	0.158
-735.025	173.897	0.106	0.158
-734.010	-100.053	-0.321	-0.082
-732.996	-200.000	-0.018	-0.181
-731.981	-57.843	0.050	-0.022
-730.966	109.843	0.048	-0.059
-729.952	46.162	-0.322	-0.306
-728.937	-163.912	0.238	-0.011
-727.923	-89.657	0.238	-0.072
-726.908	22.797	-0.231	-0.195
-725.894	354.123	0.040	0.082
-724.879	800.000	-0.069	0.222
-723.864	228.560	-0.095	0.159
-722.850	-41.772	-0.320	0.168
-721.835	-200.000	0.001	0.013
-720.821	217.436	0.156	0.255
-719.806	721.558	0.023	0.062
-718.791	-15.918	0.060	0.039
-717.777	-45.805	-0.118	0.060
-716.762	499.166	0.069	0.162
-715.748	-98.500	0.070	0.018
-714.733	-81.714	0.106	-0.036
-713.718	144.163	0.014	0.019
-712.704	-105.547	0.183	-0.043
-711.689	-200.000	0.025	-0.147
-710.675	-51.961	-0.185	0.088
-709.660	138.340	-0.080	0.108
-708.645	-200.000	-0.012	-0.200
-707.631	800.000	-0.088	-0.302
-706.616	-200.000	-0.040	0.193
-705.602	148.877	0.012	-0.016
-704.587	-200.000	0.014	-0.126
-703.572	-200.000	-0.027	-0.163
-702.558	-114.860	-0.099	-0.019
-701.543	24.783	-0.111	0.094
-700.529	11.426	-0.295	-0.231
-699.514	7.646	0.204	-0.157
-698.499	6.782	0.192	-0.146
-697.485	-200.000	-0.009	0.136
-696.470	-108.110	0.129	-0.029
-695.456	800.000	0.032	0.136
-694.441	-12.771	-0.372	-0.248
-693.426	343.623	0.044	-0.088
-692.412	-200.000	0.022	0.175
-691.397	-23.948	0.171	-0.105
-690.383	-122.886	-0.215	0.035
-689.368	-65.778	0.220	-0.090
-688.354	268.836	-0.047	-0.084
-687.339	-32.961	0.251	-0.143
-686.324	211.623	0.085	0.137
-685.310	63.384	-0.251	0.258
-684.295	800.000	-0.047	-0.174
-683.281	-40.026	-0.152	-0.081
-682.266	196.618	-0.041	-0.064
-681.251	-200.000	-0.011	-0.299
-680.237	-24.698	0.214	-0.130
-679.222	-45.867	0.030	0.015
-678.208	327.843	0.136	-0.268
-677.193	223.861	0.061	0.100
-676.178	295.566	0.104	0.195
-675.164	800.000	-0.040	-0.128
-674.149	-30.109	0.087	-0.051
-673.135	-200.000	0.029	-0.242
-672.120	63.785	0.212	-0.218
-671.105	-58.048	0.073	0.033
-670.091	-200.000	-0.013	0.072
-669.076	-177.817	0.106	-0.003
-668.062	-40.172	0.226	-0.121
-667.047	-35.247	-0.046	0.026
-666.032	800.000	-0.055	0.174
-665.018	-30.803	0.377	-0.218
-664.003	-75.500	-0.152	0.055
-662.989	-200.000	0.003	0.088
-661.974	-50.320	0.311	0.151
-660.959	-80.068	-0.353	0.121
-659.945	-49.210	0.193	0.094
-658.930	-85.666	0.222	-0.071
-657.916	258.056	-0.129	-0.226
-656.901	275.983	-0.083	-0.151
-655.886	0.080	0.227	0.165
-654.872	-76.148	-0.217	0.079
-653.857	-112.899	0.116	-0.023
-652.843	30.280	0.210	0.183
-651.828	407.667	-0.080	0.173
-650.814	34.033	-0.126	-0.112
-649.799	-5.881	-0.184	-0.129
-648.784	36.370	-0.177	0.159
-647.770	200.125	-0.222	-0.349
-646.755	320.448	0.125	-0.243
-645.741	-199.985	0.084	-0.000
-644.726	-87.532	-0.273	0.084
-643.711	9.304	-0.233	0.180
-642.697	-27.059	-0.153	-0.091
-641.682	102.224	-0.148	-0.177
-640.668	237.367	0.106	0.179
-639.653	40.688	0.267	0.246
-638.638	31.887	-0.175	0.154
-637.624	-173.592	-0.146	0.004
-636.609	-118.008	-0.327	0.060
-635.595	53.054	0.153	-0.150
-634.580	24.230	0.078	0.066
-633.565	-58.748	0.086	-0.038
-632.551	-9.115	0.067	0.046
-631.536	800.000	0.022	0.083
-630.522	-77.196	-0.066	0.023
-629.507	-200.000	0.036	-0.326
-628.492	-183.606	0.054	0.001
-627.478	427.252	0.097	0.214
-626.463	-183.736	-0.218	-0.004
-625.449	-148.040	-0.029	-0.003
-624.434	-0.034	-0.292	0.213
-623.419	-185.336	-0.058	0.001
-622.405	-200.000	-0.036	0.218
-621.390	26.966	0.047	0.040
-620.376	-136.482	-0.248	-0.029
-619.361	599.917	-0.034	-0.087
-618.346	-200.000	-0.050	0.248
-617.332	-64.783	-0.152	0.063
-616.317	-100.959	-0.065	0.016
-615.303	74.843	0.055	-0.059
-614.288	-152.668	-0.221	-0.016
-613.273	-77.949	-0.327	-0.115
-612.259	118.773	-0.242	-0.306
-611.244	800.000	0.083	-0.357
-610.230	-87.371	-0.301	-0.093
-609.215	-87.716	0.157	0.049
-608.201	800.000	-0.034	-0.110
-607.186	-122.744	-0.270	-0.045
-606.171	-200.000	-0.022	-0.244
-605.157	-29.383	-0.185	-0.108
-604.142	233.830	-0.127	-0.214
-603.128	7.951	-0.243	0.186
-602.113	-107.377	-0.221	0.049
-601.098	-14.729	-0.216	0.142
-600.084	5.221	0.127	0.096
-599.069	8.908	-0.207	0.160
-598.055	-70.429	-0.076	-0.029
-597.040	-200.000	0.020	-0.117
-596.025	227.944	0.211	-0.351
-595.011	-200.000	-0.054	-0.258
-593.996	-34.108	0.205	-0.115
-592.982	248.217	0.216	0.372
-591.967	79.198	-0.078	-0.085
-590.952	800.000	-0.090	-0.258
-589.938	-54.646	-0.176	0.081
-588.923	475.138	-0.059	0.136
-587.909	29.675	0.195	0.169
-586.894	49.073	0.165	-0.158
-585.879	800.000	0.076	-0.237
-584.865	-166.041	-0.446	-0.019
-583.850	232.209	0.072	0.121
-582.836	800.000	-0.113	-0.398
-581.821	760.306	0.089	-0.247
-580.806	-118.950	0.334	0.060
-579.792	-200.000	-0.042	-0.225
-578.777	227.609	-0.107	-0.178
-577.763	800.000	-0.061	0.210
-576.748	-73.467	0.163	-0.061
-575.733	-95.893	-0.368	0.100
-574.719	-109.295	-0.029	0.006
-573.704	161.598	0.016	-0.023
-572.690	-144.519	0.201	0.019
-571.675	-123.132	0.337	0.055
-570.661	-7.680	-0.110	0.075
-569.646	-200.000	-0.001	0.044
-568.631	126.550	-0.106	-0.136
-567.617	-98.624	-0.213	0.056
-566.602	800.000	-0.049	-0.160
-565.588	-200.000	0.012	0.163
-564.573	800.000	0.070	-0.297
-563.558	-200.000	0.029	0.473
-562.544	449.006	-0.107	0.241
-561.529	98.383	0.303	0.356
-560.515	341.843	-0.100	-0.200
-559.500	296.649	0.063	-0.118
-558.485	-9.951	-0.137	0.093
-557.471	352.251	-0.096	0.194
-556.456	-200.000	0.055	0.262
-555.442	60.357	0.034	-0.035
-554.427	-84.595	-0.107	-0.035
-553.412	800.000	-0.066	-0.222
-552.398	-111.895	0.199	0.041
-551.383	-32.380	0.137	-0.078
-550.369	-102.693	0.145	-0.035
-549.354	435.544	0.111	0.245
-548.339	231.325	0.114	0.191
-547.325	800.000	0.092	0.369
-546.310	-89.584	-0.179	0.054
-545.296	151.806	0.166	0.230
-544.281	278.526	-0.086	-0.156
-543.266	206.606	0.120	-0.190
-542.252	-115.405	-0.172	0.033
-541.237	13.070	0.204	0.161
-540.223	-23.507	0.207	0.127
-539.208	-120.635	0.112	0.019
-538.193	-25.080	0.179	-0.108
-537.179	-128.804	0.097	0.014
-536.164	-200.000	0.007	-0.273
-535.150	724.906	-0.116	-0.314
-534.135	-113.019	-0.020	0.004
-533.121	573.465	0.071	-0.177
-532.106	-75.357	-0.038	-0.014
-531.091	-112.546	-0.224	0.045
-530.077	-181.904	0.230	0.004
-529.062	800.000	-0.097	0.289
-528.048	510.444	-0.071	-0.169
-527.033	14.894	0.302	0.240
-526.018	-200.000	-0.043	0.237
-525.004	-200.000	0.012	-0.128
-523.989	-64.369	-0.207	0.086
-522.975	1.493	0.051	-0.037
-521.960	11.397	-0.138	0.107
-520.945	585.436	0.131	0.328
-519.931	429.775	-0.119	-0.262
-518.916	48.813	-0.049	0.047
-517.902	80.249	0.054	-0.059
-516.887	-47.631	0.233	-0.115
-515.872	800.000	-0.058	0.173
-514.858	66.044	0.105	0.108
-513.843	-200.000	0.019	-0.109
-512.829	64.437	0.171	0.175
-511.814	482.022	0.098	-0.226
-510.799	800.000	-0.068	-0.227
-509.785	92.917	-0.270	-0.310
-508.770	-50.691	0.304	-0.146
-507.756	313.870	0.110	0.211
-506.741	79.073	-0.145	0.158
-505.726	110.150	0.091	-0.111
-504.712	800.000	-0.080	0.342
-503.697	141.344	-0.106	0.143
-502.683	-200.000	-0.004	0.036
-501.668	120.070	0.330	0.416
-500.653	-84.810	0.235	0.075
-499.639	-200.000	-0.002	0.340
-498.624	800.000	-0.034	0.116
-497.610	563.656	-0.149	-0.368
-496.595	240.769	0.104	0.177
-495.581	319.029	-0.103	-0.199
-494.566	800.000	0.117	-0.331
-493.551	1.559	0.161	0.118
-492.537	-7.017	-0.221	-0.152
-491.522	27.259	0.056	0.048
-490.508	-21.746	0.296	-0.183
-489.493	75.460	-0.129	0.138
-488.478	-23.314	0.335	-0.205
-487.464	-24.120	0.446	-0.271
-486.449	609.777	-0.155	0.393
-485.435	-200.000	0.027	-0.123
-484.420	589.352	-0.097	0.243
-483.405	-174.952	-0.051	-0.001
-482.391	-96.924	-0.321	-0.086
-481.376	651.672	-0.150	0.391
-480.362	-153.242	0.162	0.011
-479.347	-200.000	0.007	-0.134
-478.332	-11.600	-0.182	0.121
-477.318	359.317	0.023	0.047
-476.303	159.269	-0.079	-0.112
-475.289	-146.984	0.276	0.024
-474.274	-200.000	-0.002	-0.293
-473.259	-9.275	0.198	-0.134
-472.245	100.080	0.091	-0.107
-471.230	12.440	0.105	0.082
-470.216	-7.499	-0.043	-0.030
-469.201	195.990	-0.096	0.149
-468.186	-18.508	-0.222	0.141
-467.172	402.826	0.109	0.233
-466.157	25.177	-0.193	-0.162
-465.143	-200.000	0.058	0.358
-464.128	-156.627	-0.213	-0.013
-463.113	-158.555	0.097	0.006
-462.099	-200.000	-0.026	0.365
-461.084	507.164	-0.051	0.119
-460.070	-200.000	-0.005	0.190
-459.055	800.000	0.039	-0.122
-458.040	-200.000	0.019	-0.316
-457.026	-200.000	-0.022	0.103
-456.011	-29.928	-0.152	0.088
-454.997	-200.000	0.005	-0.279
-453.982	-32.784	-0.153	0.086
-452.968	-200.000	0.039	0.287
-451.953	7.714	0.191	0.145
-450.938	800.000	-0.094	0.266
-449.924	-71.994	0.135	-0.051
-448.909	-12.277	0.383	0.254
-447.895	-200.000	-0.034	-0.317
-446.880	153.345	0.014	0.020
-445.865	600.687	0.145	-0.364
-444.851	12.583	-0.376	-0.295
-443.836	148.564	0.059	-0.081
-442.822	-153.586	0.265	0.019
-441.807	-200.000	-0.013	0.151
-440.792	43.315	-0.206	-0.191
-439.778	423.155	-0.094	-0.205
-438.763	199.921	0.170	0.265
-437.749	-200.000	-0.018	0.266
-436.734	-200.000	0.055	0.320
-435.719	-5.843	0.086	0.060
-434.705	-192.490	-0.268	0.003
-433.690	-200.000	-0.007	0.343
-432.676	-14.953	-0.256	0.167
-431.661	201.774	-0.082	0.128
-430.646	131.262	0.079	0.103
-429.632	800.000	-0.129	-0.471
-428.617	-74.000	-0.162	-0.060
-427.603	205.904	0.104	-0.163
-426.588	-200.000	0.026	-0.138
-425.573	-200.000	0.044	0.197
-424.559	-200.000	-0.033	-0.372
-423.544	-200.000	0.034	-0.243
-422.530	154.675	0.177	0.246
-421.515	-200.000	0.004	-0.176
-420.500	583.433	0.096	-0.238
-419.486	-41.076	0.100	-0.052
-418.471	-137.450	-0.279	-0.032
-417.457	170.025	0.101	-0.146
-416.442	-200.000	-0.017	-0.439
-415.428	125.733	-0.099	-0.126
-414.413	8.233	0.089	0.068
-413.398	25.064	0.162	0.136
-412.384	-200.000	0.008	-0.041
-411.369	79.592	-0.151	0.164
-410.355	-200.000	0.027	-0.170
-409.340	1.864	0.312	0.228
-408.325	-200.000	-0.048	0.248
-407.311	455.014	-0.077	-0.172
-406.296	106.868	0.092	-0.111
-405.282	-160.789	0.295	-0.016
-404.267	221.258	-0.069	0.113
-403.252	261.868	0.070	0.122
-402.238	-116.101	-0.241	-0.045
-401.223	-28.456	-0.136	-0.080
-400.209	664.650	-0.028	0.073
-399.194	192.330	-0.018	0.027
-398.179	-117.877	0.138	0.025
-397.165	-200.000	0.077	0.417
-396.150	-200.000	0.057	0.326
-395.136	314.396	-0.086	0.165
-394.121	28.280	0.090	0.077
-393.106	620.458	-0.022	0.057
-392.092	215.647	0.082	0.132
-391.077	-200.000	0.037	-0.385
-390.063	21.798	0.175	-0.144
-389.048	800.000	-0.117	-0.369
-388.033	561.629	0.096	0.235
-387.019	57.766	-0.193	-0.191
-386.004	539.365	0.126	-0.303
-384.990	-31.275	-0.195	-0.111
-383.975	-134.752	-0.188	0.023
-382.960	-12.249	0.451	-0.299
-381.946	111.615	-0.078	0.095
-380.931	-57.449	-0.094	-0.042
-379.917	-94.133	0.332	0.092
-378.902	-200.000	-0.003	0.299
-377.888	800.000	0.024	0.075
-376.873	-200.000	-0.008	0.149
-375.858	-111.626	0.157	0.032
-374.844	-19.049	-0.125	-0.078
-373.829	433.141	0.104	0.229
-372.815	-125.534	0.386	0.059
-371.800	-123.969	-0.022	-0.004
-370.785	-143.128	-0.175	0.017
-369.771	114.712	-0.026	-0.032
-368.756	106.992	0.149	0.179
-367.742	97.946	0.059	-0.068
-366.727	-8.893	-0.256	0.174
-365.712	-198.504	0.158	0.001
-364.698	-186.278	-0.350	-0.005
-363.683	784.070	-0.104	0.288
-362.669	-21.681	0.097	0.060
-361.654	160.713	0.177	0.250
-360.639	-19.912	0.118	-0.073
-359.625	361.236	0.066	0.134
-358.610	50.726	-0.149	0.143
-357.596	800.000	0.034	0.119
-356.581	-82.355	0.184	-0.060
-355.566	67.572	-0.334	0.345
-354.552	23.590	0.218	0.182
-353.537	383.524	0.132	-0.274
-352.523	101.591	-0.205	-0.241
-351.508	-200.000	-0.000	0.022
-350.493	-108.634	-0.269	0.058
-349.479	-44.929	-0.114	0.057
-348.464	338.800	-0.057	-0.113
-347.450	800.000	0.074	-0.235
-346.435	-156.606	-0.238	0.015
-345.420	60.330	0.146	0.146
-344.406	-200.000	0.020	-0.402
-343.391	-130.040	0.252	0.035
-342.377	53.042	0.348	-0.337
-341.362	-200.000	0.022	-0.458
-340.348	-22.962	-0.083	-0.050
-339.333	36.825	-0.052	0.047
-338.318	-200.000	-0.034	-0.234
-337.304	-52.759	0.209	-0.098
-336.289	-139.156	-0.327	-0.036
-335.275	-200.000	-0.016	0.402
-334.260	406.980	0.046	0.097
-333.245	110.459	-0.218	0.265
-332.231	658.629	0.142	-0.368
-331.216	59.745	-0.187	-0.186
-330.202	-150.214	-0.132	0.010
-329.187	-26.564	-0.361	0.214
-328.172	130.008	-0.005	0.007
-327.158	119.151	0.087	-0.109
-326.143	-95.936	0.063	0.017
-325.129	533.515	-0.094	-0.226
-324.114	141.859	-0.148	-0.198
-323.099	800.000	0.112	-0.351
-322.085	706.128	-0.070	0.186
-321.070	-41.252	-0.212	-0.110
-320.056	3.495	0.104	-0.076
-319.041	30.777	0.156	-0.134
-318.026	11.856	-0.147	0.114
-317.012	232.591	-0.109	-0.180
-315.997	-90.169	-0.103	-0.030
-314.983	26.099	0.258	-0.217
-313.968	267.826	-0.157	-0.277
-312.953	463.933	-0.119	-0.270
-311.939	65.099	-0.046	-0.047
-310.924	-116.796	-0.227	-0.042
-309.910	-167.170	0.121	0.005
-308.895	73.316	-0.059	0.062
-307.880	156.193	-0.122	-0.170
-306.866	-21.385	-0.096	-0.059
-305.851	-200.000	0.060	-0.304
-304.837	-159.383	0.100	0.006
-303.822	133.203	0.117	0.153
-302.807	29.457	-0.252	0.216
-301.793	357.127	-0.046	0.093
-300.778	-146.552	-0.184	0.016
-299.764	-8.629	0.014	0.010
-298.749	-140.978	0.265	-0.027
-297.735	-136.889	-0.127	0.015
-296.720	-47.772	0.083	-0.040
-295.705	138.382	-0.212	0.280
-294.691	-101.634	0.415	-0.102
-293.676	-200.000	-0.003	0.354
-292.662	800.000	0.051	0.216
-291.647	-77.554	-0.204	0.071
-290.632	261.855	0.225	0.393
-289.618	65.748	0.135	-0.138
-288.603	73.417	-0.131	-0.138
-287.589	-200.000	-0.001	0.163
-286.574	90.388	0.077	0.087
-285.559	-200.000	0.003	0.177
-284.545	-87.176	0.064	0.020
-283.530	-102.139	-0.223	-0.054
-282.516	116.576	-0.142	-0.176
-281.501	414.680	0.060	-0.128
-280.486	-200.000	-0.029	0.184
-279.472	-200.000	0.068	0.334
-278.457	800.000	-0.031	0.091
-277.443	245.611	-0.085	-0.144
-276.428	800.000	-0.091	-0.254
-275.413	-81.450	0.202	0.067
-274.399	371.756	0.148	-0.302
-273.384	-200.000	-0.038	0.321
-272.370	-48.633	-0.197	0.095
-271.355	35.059	0.282	0.249
-270.340	597.637	0.176	0.439
-269.326	-125.841	-0.199	-0.030
-268.311	74.787	-0.311	-0.330
-267.297	-93.182	0.085	0.024
-266.282	-200.000	-0.007	0.075
-265.267	18.017	0.263	0.211
-264.253	204.362	0.067	0.105
-263.238	-188.459	0.158	0.002
-262.224	385.257	-0.117	-0.244
-261.209	-95.853	-0.077	-0.021
-260.195	-139.726	-0.077	-0.008
-259.180	-101.486	-0.168	-0.041
-258.165	-56.649	0.349	-0.156
-257.151	117.745	0.101	0.126
-256.136	-147.733	-0.100	0.008
-255.122	-102.972	0.176	-0.042
-254.107	-200.000	0.011	-0.159
-253.092	8.259	-0.167	0.126
-252.078	80.028	0.199	-0.215
-251.063	52.647	0.292	-0.281
-250.049	-91.725	-0.164	0.047
-249.034	-106.423	0.242	0.054
-248.019	197.631	-0.041	0.063
-247.005	6.582	0.157	-0.117
-245.990	330.035	0.065	-0.126
-244.976	-24.028	-0.099	0.059
-243.961	197.934	0.165	-0.254
-242.946	-105.486	-0.047	-0.011
-241.932	-200.000	0.019	0.201
-240.917	81.318	-0.146	-0.159
-239.903	153.525	0.198	0.272
-238.888	-178.807	-0.281	0.006
-237.873	-174.378	-0.047	0.001
-236.859	-13.415	-0.212	-0.138
-235.844	12.333	0.116	-0.090
-234.830	-119.172	-0.074	-0.013
-233.815	-113.104	0.090	0.018
-232.800	-200.000	-0.002	-0.400
-231.786	46.661	-0.067	0.063
-230.771	-31.040	0.269	-0.153
-229.757	-70.065	0.238	-0.091
-228.742	-200.000	0.025	-0.120
-227.727	-200.000	0.004	-0.115
-226.713	549.017	-0.026	-0.063
-225.698	-200.000	0.043	0.359
-224.684	40.769	0.134	0.122
-223.669	305.859	-0.087	-0.162
-222.655	-107.052	0.102	0.023
-221.640	423.278	-0.147	-0.318
-220.625	-104.374	-0.133	-0.031
-219.611	-159.021	-0.341	0.019
-218.596	202.958	-0.116	0.181
-217.582	-175.654	0.339	0.009
-216.567	800.000	-0.051	0.193
-215.552	116.943	0.151	0.186
-214.538	-200.000	0.009	-0.325
-213.523	161.479	-0.310	-0.436
-212.509	800.000	-0.027	-0.100
-211.494	-100.291	-0.037	-0.009
-210.479	233.653	0.133	-0.221
-209.465	-101.774	-0.194	0.047
-208.450	-200.000	-0.024	-0.272
-207.436	-112.184	0.242	-0.049
-206.421	-16.582	-0.112	-0.071
-205.406	-200.000	0.139	0.000
-204.392	800.000	0.023	-0.079
-203.377	-200.000	-0.006	0.050
-202.363	-91.178	0.248	0.072
-201.348	91.370	0.094	0.107
-200.333	-137.141	0.161	0.018
-199.319	-130.780	-0.077	0.010
-198.304	800.000	0.071	0.282
-197.290	-98.228	0.274	0.071
-196.275	-200.000	0.021	-0.275
-195.260	526.859	-0.118	0.278
-194.246	-127.199	0.194	-0.029
-193.231	-131.587	0.154	0.020
-192.217	142.617	0.129	0.172
-191.202	500.344	0.116	-0.268
-190.187	47.748	0.319	0.299
-189.173	302.546	-0.073	0.136
-188.158	167.385	-0.034	-0.049
-187.144	216.343	0.052	0.083
-186.129	230.333	0.185	0.304
-185.114	-26.303	-0.147	-0.087
-184.100	61.219	0.066	-0.066
-183.085	97.078	-0.194	-0.224
-182.071	41.735	-0.114	0.103
-181.056	-200.000	-0.015	0.220
-180.042	7.529	-0.370	0.278
-179.027	-181.378	-0.189	0.004
-178.012	413.357	-0.115	0.245
-176.998	214.808	-0.095	0.151
-175.983	-118.892	0.248	-0.044
-174.969	-200.000	0.097	0.575
-173.954	-135.352	-0.101	-0.012
-172.939	800.000	0.058	0.204
-171.925	-52.950	0.128	-0.059
-170.910	-75.472	-0.248	0.089
-169.896	306.061	-0.100	0.186
-168.881	553.476	0.117	-0.283
-167.866	514.593	-0.127	-0.298
-166.852	-123.188	-0.178	-0.029
-165.837	38.410	-0.231	0.207
-164.823	103.708	-0.119	0.140
-163.808	-60.116	0.129	-0.055
-162.793	-111.997	-0.059	-0.012
-161.779	22.095	0.354	-0.290
-160.764	-50.380	0.247	0.117
-159.750	36.422	0.210	-0.186
-158.735	800.000	-0.022	0.091
-157.720	51.504	0.074	0.070
-156.706	-52.769	0.182	0.084
-155.691	-200.000	0.005	-0.092
-154.677	-200.000	0.018	-0.262
-153.662	-60.367	-0.212	-0.090
-152.647	229.979	-0.111	-0.182
-151.633	-40.198	0.353	-0.184
-150.618	386.276	0.165	-0.341
-149.604	-200.000	0.057	0.371
-148.589	688.148	-0.058	0.151
-147.574	34.312	-0.180	-0.157
-146.560	55.410	-0.059	0.057
-145.545	220.259	0.173	-0.278
-144.531	7.347	0.074	0.055
-143.516	327.549	-0.066	0.128
-142.502	91.384	-0.227	-0.255
-141.487	318.614	0.125	-0.237
-140.472	158.243	-0.178	-0.248
-139.458	800.000	0.046	0.130
-138.443	101.425	-0.102	0.119
-137.429	-200.000	0.021	0.231
-136.414	365.932	0.019	-0.038
-135.399	-193.002	0.172	0.002
-134.385	-6.918	0.193	0.131
-133.370	50.837	-0.237	0.225
-132.356	289.633	-0.095	0.173
-131.341	208.076	-0.200	-0.314
-130.326	613.403	-0.095	-0.238
-129.312	112.779	-0.075	0.091
-128.297	-102.091	0.235	-0.057
-127.283	703.598	-0.076	-0.201
-126.268	-27.428	0.132	0.077
-125.253	-79.775	0.083	0.028
-124.239	-200.000	-0.060	-0.361
-123.224	-200.000	-0.002	-0.155
-122.210	-200.000	0.007	0.175
-121.195	-200.000	-0.020	-0.108
