DTS Sentinel unit serial number:	SN413079Multiplexer serial number:	ORYXHardware model number:	OX4-SRSoftware version number:	ORYX F/W v4.00 Oryx Data Collector v3.7.2.0data status	okinstallation	princeton_trtdifferential loss correction	single-endedforward channel	channel 2reverse channel	N/Adate	2019/09/13time	21:39:34forward acquisition time	60.00reverse acquisition time	0.00gamma	496.2192k internal	0.2334k external	0.2334temperature offset calibration	1.0115default loss term (dB/km)	0.3790temperature slope calibration	1.0000multiplexer offset coefficient	1.0000multiplexer slope coefficient	1.0000fibre end	0.00T internal ref (°C)	28.19T ext. ref 1 (°C)	2.97T ext. ref 2 (°C)	22.94length (m)	temperature (°C)	Stokes	anti-Stokes-747.200	275.003	-0.037	0.067
-746.185	-4.438	0.406	0.282
-745.171	800.000	-0.010	0.030
-744.156	436.471	0.019	0.041
-743.142	7.341	0.157	0.118
-742.127	-165.160	-0.417	0.019
-741.112	-117.525	-0.266	0.048
-740.098	329.674	-0.169	0.327
-739.083	-73.657	0.253	-0.093
-738.069	-153.612	-0.094	-0.007
-737.054	-200.000	0.070	0.312
-736.039	-70.494	-0.155	0.059
-735.025	-200.000	-0.020	-0.250
-734.010	-55.090	-0.162	0.073
-732.996	-182.802	-0.222	0.004
-731.981	-200.000	0.025	-0.140
-730.966	-105.170	-0.219	-0.050
-729.952	-103.282	-0.336	-0.080
-728.937	90.510	-0.381	-0.429
-727.923	62.974	-0.062	0.063
-726.908	-58.039	-0.115	-0.051
-725.894	-149.483	-0.322	-0.026
-724.879	96.203	0.266	-0.305
-723.864	-38.572	-0.105	0.056
-722.850	-78.276	-0.193	-0.066
-721.835	688.347	-0.069	0.181
-720.821	-45.698	-0.072	0.036
-719.806	92.554	0.308	-0.349
-718.791	247.207	0.146	-0.247
-717.777	166.617	0.267	-0.380
-716.762	19.646	0.179	-0.144
-715.748	-16.788	-0.245	-0.156
-714.733	-132.770	-0.248	0.032
-713.718	756.491	-0.104	0.281
-712.704	460.253	0.087	0.195
-711.689	-122.970	-0.275	-0.044
-710.675	-94.593	0.303	-0.083
-709.660	-200.000	-0.031	-0.189
-708.645	56.466	-0.104	-0.102
-707.631	-63.413	-0.230	0.095
-706.616	-91.012	0.181	0.052
-705.602	-4.141	0.152	-0.106
-704.587	15.199	0.199	-0.157
-703.572	180.955	-0.193	-0.285
-702.558	461.967	-0.041	0.093
-701.543	225.937	-0.042	-0.068
-700.529	75.809	-0.031	0.032
-699.514	308.169	0.039	-0.073
-698.499	-43.250	0.186	-0.094
-697.485	-52.660	-0.126	-0.058
-696.470	615.963	0.103	-0.259
-695.456	-70.248	0.180	-0.069
-694.441	-15.654	0.037	0.023
-693.426	-134.828	0.140	0.017
-692.412	-45.474	-0.109	0.054
-691.397	-200.000	-0.021	-0.165
-690.383	718.244	-0.115	-0.307
-689.368	110.877	0.175	-0.212
-688.354	-159.110	0.244	0.014
-687.339	-24.450	-0.105	0.062
-686.324	-200.000	-0.015	0.157
-685.310	30.799	-0.235	-0.202
-684.295	201.341	0.103	-0.159
-683.281	800.000	-0.032	0.099
-682.266	-200.000	0.059	-0.305
-681.251	518.738	-0.009	-0.020
-680.237	268.232	0.037	-0.065
-679.222	-200.000	0.009	0.131
-678.208	-55.980	0.309	0.138
-677.193	-151.276	-0.313	0.023
-676.178	-81.542	0.179	0.059
-675.164	-200.000	-0.015	0.302
-674.149	18.287	-0.233	0.187
-673.135	-21.587	0.106	0.065
-672.120	-21.088	-0.370	0.227
-671.105	-99.282	-0.243	0.061
-670.091	100.774	0.170	0.198
-669.076	-157.901	0.223	-0.013
-668.062	-10.308	0.372	-0.247
-667.047	651.365	0.104	-0.267
-666.032	-72.959	-0.067	0.024
-665.018	-87.572	-0.189	-0.057
-664.003	-200.000	-0.008	0.065
-662.989	29.568	-0.281	-0.239
-661.974	13.654	0.184	0.143
-660.959	250.563	-0.151	0.258
-659.945	-128.832	0.156	0.022
-658.930	281.896	-0.140	-0.251
-657.916	19.470	-0.249	-0.200
-656.901	-24.944	-0.100	0.059
-655.886	-137.754	0.237	-0.027
-654.872	-200.000	-0.002	-0.255
-653.857	-200.000	0.032	-0.153
-652.843	664.836	0.042	0.108
-651.828	19.440	-0.204	-0.164
-650.814	-200.000	-0.005	0.127
-649.799	-102.342	-0.307	-0.074
-648.784	-93.053	-0.208	0.058
-647.770	176.506	-0.189	-0.276
-646.755	333.276	-0.132	0.255
-645.741	43.699	-0.187	-0.172
-644.726	216.251	0.093	-0.149
-643.711	150.705	0.151	0.205
-642.697	-200.000	0.003	-0.036
-641.682	-200.000	-0.005	0.224
-640.668	800.000	0.089	-0.268
-639.653	-200.000	-0.018	-0.221
-638.638	-149.319	0.342	0.027
-637.624	200.835	-0.008	-0.013
-636.609	-71.080	0.336	-0.126
-635.595	265.483	-0.125	-0.218
-634.580	-138.699	-0.157	0.017
-633.565	516.138	-0.125	0.292
-632.551	-24.155	-0.081	-0.049
-631.536	90.708	-0.108	-0.121
-630.522	-90.743	0.079	-0.023
-629.507	-200.000	-0.013	-0.059
-628.492	-105.490	0.253	-0.058
-627.478	-58.502	-0.112	-0.049
-626.463	216.490	0.228	-0.363
-625.449	-132.084	-0.231	0.030
-624.434	-26.964	-0.165	0.096
-623.419	800.000	0.074	0.234
-622.405	119.194	0.099	0.122
-621.390	-71.449	0.376	-0.141
-620.376	392.648	0.166	-0.346
-619.361	800.000	-0.090	-0.277
-618.346	-183.557	0.328	0.006
-617.332	45.850	-0.061	-0.056
-616.317	-200.000	-0.018	0.179
-615.303	-95.556	-0.294	0.079
-614.288	251.784	-0.129	0.220
-613.273	71.341	0.188	-0.195
-612.259	-114.044	-0.237	0.046
-611.244	648.906	0.021	-0.054
-610.230	-200.000	-0.034	0.166
-609.215	-200.000	-0.054	-0.388
-608.201	241.821	-0.060	0.100
-607.186	-18.747	0.084	-0.052
-606.171	-155.381	0.213	0.014
-605.157	2.044	-0.046	-0.033
-604.142	800.000	-0.060	-0.261
-603.128	-189.666	0.132	0.002
-602.113	800.000	-0.090	-0.300
-601.098	800.000	-0.028	0.092
-600.084	800.000	-0.066	0.266
-599.069	544.410	0.063	-0.150
-598.055	209.794	-0.203	0.319
-597.040	221.449	-0.204	-0.327
-596.025	-124.831	0.177	-0.027
-595.011	-200.000	0.007	0.038
-593.996	69.095	-0.155	-0.159
-592.982	800.000	-0.034	-0.131
-591.967	-47.276	0.090	-0.044
-590.952	35.548	0.202	-0.177
-589.938	128.223	-0.048	0.061
-588.923	-44.516	-0.020	-0.010
-587.909	11.066	0.035	-0.027
-586.894	-116.362	0.176	-0.032
-585.879	-200.000	0.019	-0.238
-584.865	-200.000	0.000	0.068
-583.850	38.993	0.134	-0.120
-582.836	113.699	0.199	-0.242
-581.821	-144.304	-0.100	-0.009
-580.806	-4.549	-0.069	0.047
-579.792	67.714	-0.148	0.151
-578.777	-40.568	-0.020	-0.010
-577.763	40.992	-0.174	-0.157
-576.748	672.711	-0.069	0.178
-575.733	-80.020	-0.235	-0.079
-574.719	-200.000	0.009	-0.048
-573.704	-158.243	-0.328	-0.019
-572.690	-111.393	-0.474	-0.097
-571.675	34.629	-0.158	-0.138
-570.661	-200.000	-0.067	0.392
-569.646	-51.249	-0.108	0.051
-568.631	283.354	-0.218	-0.390
-567.617	19.256	-0.075	0.060
-566.602	-49.469	-0.370	0.176
-565.588	328.621	-0.063	0.122
-564.573	-89.600	0.155	-0.045
-563.558	51.624	-0.104	-0.098
-562.544	-63.127	0.229	-0.094
-561.529	800.000	-0.093	0.280
-560.515	34.506	0.093	0.081
-559.500	-200.000	0.008	-0.141
-558.485	-36.801	0.176	-0.094
-557.471	31.549	-0.067	0.058
-556.456	-200.000	0.036	0.302
-555.442	765.164	-0.088	0.239
-554.427	-148.489	0.178	-0.015
-553.412	-25.297	0.206	0.122
-552.398	-122.907	-0.121	-0.019
-551.383	-109.101	0.416	0.088
-550.369	800.000	0.077	-0.223
-549.354	24.825	0.174	0.144
-548.339	637.724	0.065	0.164
-547.325	-43.881	0.334	0.168
-546.310	10.911	-0.170	0.129
-545.296	-88.853	0.040	0.012
-544.281	566.581	-0.047	0.113
-543.266	374.664	-0.035	-0.072
-542.252	102.751	0.182	0.212
-541.237	-187.317	-0.142	-0.002
-540.223	131.677	0.116	-0.149
-539.208	-77.717	-0.255	0.088
-538.193	-119.189	-0.327	-0.057
-537.179	-134.357	0.235	0.029
-536.164	3.909	-0.197	0.144
-535.150	-200.000	0.014	-0.102
-534.135	-59.763	0.018	0.008
-533.121	78.421	-0.021	-0.022
-532.106	266.472	0.057	-0.098
-531.091	800.000	0.082	-0.231
-530.077	-200.000	-0.049	0.215
-529.062	56.461	-0.171	0.166
-528.048	636.875	-0.105	-0.265
-527.033	238.887	0.119	0.196
-526.018	126.383	-0.144	-0.181
-525.004	-39.690	0.153	-0.080
-523.989	-27.638	0.215	0.124
-522.975	568.998	-0.074	0.178
-521.960	-95.384	0.129	-0.035
-520.945	161.231	-0.156	0.218
-519.931	-115.164	-0.197	-0.037
-518.916	-200.000	0.012	0.259
-517.902	3.499	-0.143	0.104
-516.887	-95.379	0.433	0.116
-515.872	377.479	-0.097	-0.198
-514.858	800.000	-0.097	-0.279
-513.843	-77.257	-0.077	-0.027
-512.829	205.490	-0.165	0.256
-511.814	800.000	-0.101	0.314
-510.799	-149.890	-0.135	-0.011
-509.785	-88.588	-0.405	-0.120
-508.770	89.796	0.098	0.109
-507.756	-91.729	0.505	-0.143
-506.741	-68.671	-0.158	0.061
-505.726	-23.475	-0.295	-0.176
-504.712	-148.262	-0.184	0.015
-503.697	-71.952	0.112	-0.042
-502.683	506.780	-0.098	-0.226
-501.668	-200.000	-0.009	0.221
-500.653	593.424	-0.074	0.182
-499.639	311.255	0.062	-0.115
-498.624	-70.425	0.367	0.139
-497.610	440.596	0.146	-0.318
-496.595	-108.748	-0.109	0.023
-495.581	-124.388	-0.101	-0.016
-494.566	-200.000	-0.034	0.187
-493.551	707.967	-0.023	-0.062
-492.537	-27.592	-0.238	-0.137
-491.522	-107.474	0.120	0.026
-490.508	-200.000	-0.060	-0.408
-489.493	800.000	-0.049	-0.140
-488.478	99.117	-0.055	-0.063
-487.464	-26.355	-0.333	0.194
-486.449	21.683	0.141	0.114
-485.435	11.099	-0.074	0.056
-484.420	125.564	0.114	-0.143
-483.405	-49.660	-0.040	0.019
-482.391	290.807	-0.042	0.076
-481.376	-200.000	0.029	-0.156
-480.362	151.045	0.226	-0.306
-479.347	-76.417	0.267	-0.093
-478.332	178.196	-0.147	0.213
-477.318	297.646	0.169	-0.308
-476.303	300.510	-0.159	-0.292
-475.289	488.191	0.229	-0.519
-474.274	-200.000	-0.033	0.164
-473.259	2.059	0.088	-0.063
-472.245	4.315	-0.063	-0.046
-471.230	466.944	0.133	-0.297
-470.216	800.000	-0.094	0.343
-469.201	14.435	-0.368	0.286
-468.186	-43.611	0.095	0.048
-467.172	10.125	0.589	0.445
-466.157	-72.307	0.131	-0.048
-465.143	654.418	-0.062	-0.159
-464.128	-21.586	-0.103	-0.062
-463.113	13.199	-0.364	0.281
-462.099	-200.000	0.019	0.168
-461.084	372.814	0.165	-0.333
-460.070	800.000	0.047	-0.190
-459.055	-200.000	-0.068	-0.320
-458.040	800.000	-0.062	-0.188
-457.026	-21.391	0.072	0.044
-456.011	800.000	0.056	0.215
-454.997	-200.000	-0.032	0.332
-453.982	-20.620	-0.195	0.119
-452.968	347.175	0.215	0.421
-451.953	-200.000	-0.038	-0.167
-450.938	31.126	-0.169	0.144
-449.924	-200.000	-0.023	0.129
-448.909	-175.490	-0.284	-0.008
-447.895	-115.882	0.250	0.046
-446.880	72.811	-0.064	-0.067
-445.865	-65.900	-0.274	-0.109
-444.851	-29.780	0.214	0.121
-443.836	-92.743	-0.202	-0.056
-442.822	85.009	-0.205	-0.224
-441.807	387.710	0.029	-0.059
-440.792	134.609	0.068	-0.088
-439.778	-66.556	-0.310	-0.122
-438.763	518.571	-0.064	-0.148
-437.749	86.927	-0.077	-0.084
-436.734	-11.559	-0.395	-0.258
-435.719	-200.000	0.023	-0.208
-434.705	128.329	-0.058	0.073
-433.690	-82.991	-0.126	-0.040
-432.676	30.727	-0.116	0.099
-431.661	-6.593	-0.051	0.034
-430.646	-99.311	0.418	0.105
-429.632	452.857	-0.153	0.337
-428.617	-73.957	0.298	-0.107
-427.603	-125.556	0.242	-0.036
-426.588	800.000	0.061	0.215
-425.573	-56.676	0.148	0.065
-424.559	800.000	0.049	-0.155
-423.544	-200.000	-0.002	-0.046
-422.530	338.501	0.040	0.077
-421.515	-174.865	-0.149	0.004
-420.500	-66.398	0.120	0.047
-419.486	-200.000	0.022	0.103
-418.471	337.339	0.078	0.150
-417.457	67.003	0.160	-0.161
-416.442	-73.237	0.263	-0.095
-415.428	592.076	0.052	-0.128
-414.413	-107.407	0.217	0.047
-413.398	-26.103	0.214	-0.125
-412.384	800.000	-0.015	-0.059
-411.369	71.823	-0.148	0.152
-410.355	594.548	0.146	0.358
-409.340	-200.000	0.020	-0.216
-408.325	170.842	-0.100	-0.142
-407.311	133.375	0.155	-0.199
-406.296	47.317	0.191	0.176
-405.282	-101.173	0.050	0.012
-404.267	-85.709	0.135	-0.042
-403.252	-38.730	0.089	0.047
-402.238	-189.217	-0.318	0.004
-401.223	-200.000	0.053	0.349
-400.209	-200.000	-0.059	0.544
-399.194	168.485	-0.154	-0.217
-398.179	37.773	0.061	-0.054
-397.165	-46.347	0.233	0.113
-396.150	-200.000	0.034	0.305
-395.136	191.494	-0.224	0.335
-394.121	-103.833	-0.345	-0.080
-393.106	-93.016	0.371	0.103
-392.092	664.410	-0.080	0.204
-391.077	800.000	0.076	-0.321
-390.063	534.897	-0.140	0.328
-389.048	-200.000	0.000	-0.001
-388.033	-200.000	-0.001	-0.057
-387.019	800.000	0.068	0.246
-386.004	-58.865	0.266	-0.114
-384.990	132.758	-0.059	0.075
-383.975	800.000	0.042	-0.182
-382.960	109.968	-0.094	0.112
-381.946	-164.474	-0.323	0.015
-380.931	179.004	0.047	0.068
-379.917	-23.182	-0.405	0.242
-378.902	32.406	0.371	-0.318
-377.888	-109.377	0.276	-0.058
-376.873	-200.000	0.013	0.103
-375.858	-93.388	0.124	0.034
-374.844	20.850	0.162	0.130
-373.829	-61.545	0.279	-0.116
-372.815	-107.003	-0.347	-0.076
-371.800	-176.203	-0.147	-0.004
-370.785	-103.850	-0.642	0.149
-369.771	-200.000	0.031	-0.219
-368.756	-22.593	-0.153	0.092
-367.742	-123.940	-0.048	-0.008
-366.727	-167.731	-0.454	-0.018
-365.712	560.846	0.073	-0.175
-364.698	-114.365	0.147	-0.028
-363.683	-23.961	-0.227	-0.134
-362.669	28.099	0.197	0.164
-361.654	-171.692	0.260	0.008
-360.639	-121.161	-0.187	-0.031
-359.625	-60.683	-0.079	0.033
-358.610	627.167	0.073	-0.181
-357.596	134.308	0.096	0.124
-356.581	-127.514	-0.168	0.024
-355.566	-42.151	0.415	-0.210
-354.552	34.926	0.028	-0.024
-353.537	343.688	0.122	0.236
-352.523	800.000	0.093	-0.278
-351.508	-130.121	-0.172	0.023
-350.493	45.795	-0.083	-0.076
-349.479	52.677	0.047	-0.045
-348.464	-200.000	0.029	0.298
-347.450	800.000	0.049	0.210
-346.435	-130.574	0.190	0.025
-345.420	-27.360	-0.124	0.071
-344.406	-129.099	0.220	0.030
-343.391	-136.231	0.100	0.012
-342.377	162.710	0.209	0.290
-341.362	-18.530	-0.093	-0.058
-340.348	-7.096	-0.184	-0.123
-339.333	-200.000	0.009	0.052
-338.318	-116.064	0.184	-0.034
-337.304	-150.771	0.018	0.001
-336.289	44.639	0.154	-0.140
-335.275	800.000	-0.101	0.388
-334.260	74.424	0.108	-0.112
-333.245	137.428	0.100	0.129
-332.231	379.523	0.043	-0.087
-331.216	-104.950	0.372	0.084
-330.202	-120.676	0.310	-0.052
-329.187	-39.256	0.179	-0.093
-328.172	-102.546	-0.259	0.061
-327.158	24.275	0.247	-0.201
-326.143	24.476	0.421	-0.344
-325.129	-141.610	0.318	-0.032
-324.114	-143.572	-0.257	-0.024
-323.099	800.000	-0.023	0.097
-322.085	-87.248	-0.195	0.058
-321.070	-90.652	-0.206	0.059
-320.056	33.934	-0.188	0.162
-319.041	800.000	-0.043	0.166
-318.026	44.290	-0.099	-0.090
-317.012	92.757	0.311	0.347
-315.997	-160.734	-0.110	-0.006
-314.983	-77.843	0.195	0.067
-313.968	30.163	0.211	0.178
-312.953	576.226	0.036	-0.087
-311.939	-163.771	-0.102	-0.005
-310.924	-102.008	-0.197	0.047
-309.910	800.000	-0.024	-0.082
-308.895	-106.523	0.054	-0.012
-307.880	-77.827	-0.182	-0.062
-306.866	-50.945	0.370	0.172
-305.851	-200.000	0.021	-0.141
-304.837	-200.000	0.010	-0.388
-303.822	48.134	-0.182	0.168
-302.807	-86.022	-0.180	0.055
-301.793	45.229	0.162	-0.147
-300.778	-73.180	-0.270	0.098
-299.764	800.000	0.036	-0.146
-298.749	122.594	0.130	0.160
-297.735	-93.897	0.331	0.090
-296.720	-23.472	0.130	-0.077
-295.705	-200.000	-0.003	-0.176
-294.691	4.464	-0.142	-0.103
-293.676	375.181	0.031	0.062
-292.662	800.000	-0.054	0.194
-291.647	126.921	-0.265	-0.331
-290.632	111.455	-0.326	-0.388
-289.618	-117.173	0.275	-0.049
-288.603	-89.586	-0.077	0.022
-287.589	-54.981	-0.238	-0.106
-286.574	-200.000	0.011	0.055
-285.559	800.000	-0.044	0.154
-284.545	-200.000	0.029	0.186
-283.530	-174.207	0.439	-0.013
-282.516	13.087	0.311	0.238
-281.501	800.000	0.042	0.121
-280.486	800.000	-0.142	-0.497
-279.472	136.826	0.067	0.086
-278.457	415.630	0.089	-0.187
-277.443	-120.127	-0.321	0.054
-276.428	-177.365	-0.208	0.005
-275.413	-99.933	0.057	-0.014
-274.399	-89.471	0.096	0.028
-273.384	-54.732	-0.090	-0.040
-272.370	-104.658	-0.144	0.033
-271.355	-59.163	-0.385	0.164
-270.340	800.000	0.065	0.235
-269.326	-186.732	-0.193	0.003
-268.311	-43.597	0.113	-0.056
-267.297	-33.604	0.194	0.106
-266.282	800.000	-0.115	-0.324
-265.267	368.474	-0.093	-0.185
-264.253	-147.190	-0.237	0.020
-263.238	157.729	0.015	-0.020
-262.224	373.258	0.127	0.254
-261.209	95.228	-0.154	0.173
-260.195	19.860	0.080	-0.064
-259.180	-87.424	0.343	-0.102
-258.165	-22.199	0.218	0.130
-257.151	26.072	0.089	0.073
-256.136	373.971	-0.148	0.297
-255.122	686.852	0.126	-0.324
-254.107	-122.222	0.333	-0.054
-253.092	98.201	-0.227	-0.258
-252.078	-89.615	0.206	-0.060
-251.063	800.000	0.072	0.256
-250.049	-178.591	0.162	-0.004
-249.034	-33.107	0.339	-0.185
-248.019	-16.045	-0.237	0.149
-247.005	162.733	-0.060	-0.083
-245.990	259.986	-0.111	-0.189
-244.976	263.786	0.181	-0.310
-243.961	-34.228	-0.355	-0.192
-242.946	64.316	0.237	0.236
-241.932	45.161	0.078	0.071
-240.917	127.941	-0.167	0.209
-239.903	-123.029	-0.247	-0.039
-238.888	-200.000	0.002	0.104
-237.873	80.493	0.104	0.110
-236.859	-200.000	0.032	0.166
-235.844	800.000	-0.059	0.226
-234.830	-14.279	-0.071	-0.045
-233.815	408.554	0.096	0.200
-232.800	-152.796	-0.236	0.016
-231.786	-129.338	0.405	0.055
-230.771	-72.286	0.156	0.057
-229.757	348.851	0.250	0.486
-228.742	-21.722	0.036	0.021
-227.727	-29.604	-0.249	-0.140
-226.713	395.374	0.135	-0.278
-225.698	800.000	-0.050	-0.170
-224.684	-200.000	-0.028	0.148
-223.669	-164.584	-0.014	0.001
-222.655	148.932	0.049	0.065
-221.640	-200.000	-0.040	0.301
-220.625	646.521	-0.089	0.225
-219.611	-74.405	-0.256	-0.091
-218.596	-200.000	0.023	-0.167
-217.582	621.446	-0.183	0.453
-216.567	215.978	0.097	-0.152
-215.552	101.346	0.156	-0.179
-214.538	489.780	0.029	-0.064
-213.523	-200.000	-0.009	0.068
-212.509	-145.715	-0.066	0.006
-211.494	-120.999	-0.294	-0.049
-210.479	138.668	-0.105	0.136
-209.465	35.714	0.142	-0.123
-208.450	-200.000	0.014	-0.220
-207.436	-17.204	0.242	-0.150
-206.421	-200.000	-0.021	-0.250
-205.406	195.196	-0.228	0.341
-204.392	111.746	-0.138	-0.163
-203.377	792.512	-0.065	-0.177
-202.363	-154.778	0.225	-0.015
-201.348	-200.000	-0.015	-0.243
-200.333	-99.615	-0.266	0.066
-199.319	2.450	-0.131	-0.094
-198.304	-33.837	-0.154	-0.083
-197.290	-64.990	-0.119	-0.047
-196.275	-13.242	0.034	0.022
-195.260	-29.473	0.046	-0.026
-194.246	663.234	-0.039	0.098
-193.231	77.223	0.347	-0.362
-192.217	-1.475	0.246	-0.170
-191.202	-200.000	-0.022	0.192
-190.187	237.528	-0.031	0.051
-189.173	-200.000	-0.057	-0.292
-188.158	197.909	-0.072	-0.109
-187.144	658.204	-0.078	0.198
-186.129	-200.000	-0.029	-0.315
-185.114	1.641	0.095	0.067
-184.100	322.792	0.253	0.473
-183.085	-41.217	0.129	-0.066
-182.071	163.572	0.087	-0.120
-181.056	-61.883	-0.384	0.158
-180.042	50.968	0.092	0.085
-179.027	-107.816	-0.242	-0.052
-178.012	-23.768	0.188	0.110
-176.998	-178.354	0.376	0.009
-175.983	68.124	-0.079	0.080
-174.969	-200.000	0.036	-0.190
-173.954	-65.020	0.170	-0.067
-172.939	-200.000	0.004	-0.253
-171.925	-183.239	0.206	-0.004
-170.910	800.000	-0.027	0.100
-169.896	-71.473	0.026	0.010
-168.881	-97.247	0.148	0.038
-167.866	229.151	-0.192	0.308
-166.852	-49.310	-0.209	0.098
-165.837	121.624	-0.083	-0.101
-164.823	-200.000	0.014	0.493
-163.808	268.307	-0.094	0.162
-162.793	-19.651	-0.237	0.144
-161.779	-85.456	-0.110	0.034
-160.764	-127.807	0.120	0.017
-159.750	96.475	0.147	0.165
-158.735	-43.295	-0.123	-0.061
-157.720	7.234	0.201	-0.147
-156.706	800.000	0.043	-0.136
-155.691	-78.903	-0.133	-0.044
-154.677	-62.726	0.146	-0.059
-153.662	655.665	-0.091	-0.230
-152.647	69.157	0.055	-0.055
-151.633	166.617	-0.162	0.226
-150.618	-200.000	-0.008	-0.415
-149.604	800.000	-0.040	-0.151
-148.589	97.711	0.456	-0.514
-147.574	16.267	-0.095	0.074
-146.560	-200.000	0.016	0.209
-145.545	-109.620	-0.141	-0.029
-144.531	-102.030	0.222	0.053
-143.516	800.000	-0.128	-0.460
-142.502	-179.393	-0.184	-0.004
-141.487	-133.391	-0.125	-0.015
-140.472	-81.261	0.062	-0.020
-139.458	161.869	-0.030	-0.041
-138.443	-42.583	-0.057	-0.028
-137.429	134.302	-0.144	0.183
-136.414	26.647	-0.157	-0.129
-135.399	-200.000	-0.017	0.102
-134.385	-79.242	0.211	0.070
-133.370	-106.450	0.137	0.030
-132.356	142.394	0.208	0.271
-131.341	-200.000	-0.021	0.108
-130.326	72.936	0.089	0.091
-129.312	-0.563	-0.169	-0.118
-128.297	253.402	0.176	0.295
-127.283	-172.621	-0.231	0.007
-126.268	-200.000	-0.045	0.246
-125.253	-120.414	-0.255	-0.043
-124.239	100.038	-0.219	0.249
-123.224	-119.082	0.419	-0.072
-122.210	-21.037	-0.053	0.032
