DTS Sentinel unit serial number:	SN413079Multiplexer serial number:	ORYXHardware model number:	OX4-SRSoftware version number:	ORYX F/W v4.00 Oryx Data Collector v3.7.2.0data status	okinstallation	princeton_trtdifferential loss correction	single-endedforward channel	channel 2reverse channel	N/Adate	2019/09/15time	18:27:34forward acquisition time	60.00reverse acquisition time	0.00gamma	496.2192k internal	0.2285k external	0.2285temperature offset calibration	0.9920default loss term (dB/km)	0.3790temperature slope calibration	1.0000multiplexer offset coefficient	1.0000multiplexer slope coefficient	1.0000fibre end	0.00T internal ref (°C)	44.19T ext. ref 1 (°C)	6.71T ext. ref 2 (°C)	37.78length (m)	temperature (°C)	Stokes	anti-Stokes-747.200	133.864	0.130	0.173
-746.185	130.425	0.196	0.258
-745.171	-19.015	-0.259	-0.165
-744.156	-71.134	-0.136	-0.053
-743.142	800.000	-0.111	0.470
-742.127	37.115	0.077	0.070
-741.112	-175.632	0.229	-0.006
-740.098	-125.636	-0.138	-0.021
-739.083	-78.047	0.159	0.056
-738.069	269.565	-0.015	0.027
-737.054	301.499	-0.190	-0.360
-736.039	-200.000	0.011	-0.183
-735.025	-200.000	0.118	0.538
-734.010	800.000	0.049	0.175
-732.996	323.192	0.078	0.153
-731.981	-47.214	0.097	0.048
-730.966	-146.257	0.256	0.023
-729.952	-162.520	-0.534	-0.027
-728.937	-61.742	-0.303	-0.130
-727.923	-200.000	-0.008	-0.187
-726.908	-165.536	-0.298	-0.013
-725.894	526.587	-0.080	-0.194
-724.879	69.161	-0.291	-0.307
-723.864	-7.976	-0.111	0.077
-722.850	800.000	0.036	-0.143
-721.835	94.553	0.128	-0.149
-720.821	40.244	0.292	-0.270
-719.806	100.086	0.091	-0.108
-718.791	-200.000	0.052	0.270
-717.777	-200.000	0.000	0.217
-716.762	-126.273	-0.182	0.028
-715.748	-146.439	-0.282	-0.025
-714.733	-96.541	0.561	0.152
-713.718	177.558	-0.094	-0.141
-712.704	-163.350	-0.302	-0.015
-711.689	-9.492	-0.194	0.133
-710.675	-32.162	0.221	0.127
-709.660	-148.300	0.305	0.026
-708.645	-71.298	0.120	0.046
-707.631	-50.173	0.065	0.032
-706.616	426.643	0.085	-0.188
-705.602	-200.000	-0.008	-0.651
-704.587	-122.184	0.067	-0.011
-703.572	-17.295	0.293	-0.189
-702.558	423.708	0.130	-0.285
-701.543	800.000	-0.051	-0.159
-700.529	597.411	0.114	0.288
-699.514	-8.441	-0.164	-0.113
-698.499	800.000	0.012	-0.051
-697.485	-139.975	0.026	0.003
-696.470	229.387	-0.173	0.290
-695.456	-200.000	-0.010	0.132
-694.441	-123.921	0.101	0.016
-693.426	112.699	-0.164	-0.203
-692.412	-85.186	-0.121	0.039
-691.397	-200.000	0.046	-0.289
-690.383	800.000	-0.112	0.316
-689.368	-200.000	0.009	0.264
-688.354	196.797	-0.084	-0.131
-687.339	-67.089	0.205	0.083
-686.324	-90.889	0.132	0.039
-685.310	446.672	-0.071	0.160
-684.295	-200.000	-0.007	-0.375
-683.281	-200.000	-0.010	0.345
-682.266	20.213	0.033	0.027
-681.251	-56.733	-0.291	-0.132
-680.237	-94.388	-0.151	0.042
-679.222	-119.147	-0.200	0.036
-678.208	710.248	0.042	-0.113
-677.193	-137.565	-0.295	0.034
-676.178	-150.128	0.140	0.011
-675.164	-18.783	0.194	-0.123
-674.149	-59.314	0.088	0.039
-673.135	11.103	0.172	0.135
-672.120	-200.000	-0.019	0.311
-671.105	-125.918	-0.205	-0.032
-670.091	-12.824	0.157	-0.104
-669.076	214.510	-0.200	-0.324
-668.062	64.881	0.239	0.247
-667.047	800.000	0.048	0.142
-666.032	-200.000	0.033	0.389
-665.018	66.217	-0.189	0.196
-664.003	128.138	0.065	-0.084
-662.989	800.000	-0.057	-0.241
-661.974	126.209	0.112	-0.146
-660.959	-85.151	0.203	0.065
-659.945	237.747	0.155	-0.263
-658.930	107.895	0.335	0.408
-657.916	-28.243	0.185	-0.109
-656.901	-6.660	-0.147	-0.103
-655.886	429.963	-0.082	0.182
-654.872	-45.379	-0.365	0.185
-653.857	152.104	0.094	-0.131
-652.843	251.974	0.114	0.198
-651.828	-92.131	-0.490	-0.142
-650.814	-200.000	-0.014	0.399
-649.799	-200.000	0.008	-0.117
-648.784	-200.000	-0.027	-0.219
-647.770	-200.000	0.011	0.126
-646.755	-68.853	-0.272	-0.108
-645.741	-200.000	0.024	0.356
-644.726	49.634	-0.145	0.140
-643.711	-146.502	-0.183	0.016
-642.697	800.000	-0.029	-0.123
-641.682	800.000	0.047	-0.177
-640.668	-128.826	-0.236	0.034
-639.653	-140.118	0.225	0.024
-638.638	-200.000	0.010	0.166
-637.624	-133.199	0.025	-0.003
-636.609	800.000	-0.012	-0.042
-635.595	-5.817	0.262	-0.183
-634.580	47.775	0.097	-0.092
-633.565	-4.715	0.207	0.146
-632.551	273.528	0.165	0.298
-631.536	116.131	-0.153	-0.191
-630.522	256.996	0.123	0.217
-629.507	-143.239	-0.269	0.026
-628.492	-92.118	0.040	0.012
-627.478	194.396	0.111	0.172
-626.463	-200.000	-0.072	0.333
-625.449	-105.348	0.394	-0.092
-624.434	-76.440	0.390	-0.140
-623.419	-181.113	-0.326	-0.007
-622.405	431.238	0.031	0.068
-621.390	-200.000	0.067	-0.411
-620.376	-62.745	-0.359	-0.152
-619.361	260.536	0.167	-0.294
-618.346	800.000	0.086	-0.272
-617.332	-95.026	-0.304	0.084
-616.317	117.415	-0.033	0.042
-615.303	-84.213	-0.067	-0.022
-614.288	-71.156	-0.188	-0.072
-613.273	5.247	-0.182	-0.137
-612.259	-29.073	-0.191	-0.112
-611.244	-30.887	0.147	0.085
-610.230	-151.903	0.335	0.025
-609.215	-112.908	0.256	-0.052
-608.201	-84.795	-0.201	0.064
-607.186	-83.241	0.179	-0.059
-606.171	-54.577	0.248	0.115
-605.157	96.640	-0.166	-0.194
-604.142	-23.060	-0.078	0.048
-603.128	-34.182	-0.269	0.151
-602.113	-123.356	0.102	0.017
-601.098	83.635	-0.110	0.122
-600.084	-18.832	0.134	-0.085
-599.069	-200.000	-0.066	0.387
-598.055	-82.165	-0.324	-0.108
-597.040	580.412	-0.190	-0.475
-596.025	-80.199	-0.109	-0.037
-595.011	289.671	-0.157	0.290
-593.996	-162.115	0.163	-0.008
-592.982	-200.000	-0.024	-0.190
-591.967	-200.000	0.012	-0.133
-590.952	-95.312	0.458	-0.126
-589.938	-200.000	-0.026	-0.128
-588.923	-200.000	0.004	-0.163
-587.909	-200.000	-0.001	-0.415
-586.894	106.172	-0.041	0.050
-585.879	800.000	-0.034	0.104
-584.865	800.000	0.022	-0.084
-583.850	800.000	0.021	-0.074
-582.836	-200.000	-0.066	0.326
-581.821	-62.573	0.201	-0.085
-580.806	-153.861	0.247	0.017
-579.792	-200.000	-0.027	-0.218
-578.777	-38.331	-0.298	-0.161
-577.763	92.769	-0.089	0.102
-576.748	-200.000	-0.024	0.143
-575.733	66.195	0.244	-0.252
-574.719	-119.751	0.083	-0.015
-573.704	287.897	-0.143	0.265
-572.690	48.576	0.238	0.228
-571.675	-36.469	-0.154	-0.085
-570.661	-9.789	-0.113	0.077
-569.646	800.000	0.042	-0.126
-568.631	800.000	0.038	-0.143
-567.617	-61.335	0.099	0.043
-566.602	41.185	-0.154	-0.142
-565.588	134.545	0.113	-0.150
-564.573	-99.505	0.204	0.052
-563.558	-200.000	-0.022	-0.186
-562.544	127.501	-0.140	-0.181
-561.529	800.000	-0.059	-0.242
-560.515	83.537	-0.177	0.197
-559.500	800.000	0.057	-0.159
-558.485	-200.000	0.004	-0.059
-557.471	-84.500	-0.182	-0.058
-556.456	-96.149	0.217	0.059
-555.442	146.325	0.083	0.113
-554.427	-142.890	0.430	-0.043
-553.412	-40.098	-0.242	-0.128
-552.398	39.720	0.156	0.143
-551.383	171.038	0.152	0.222
-550.369	-91.297	-0.258	-0.075
-549.354	800.000	-0.007	0.022
-548.339	-126.546	0.421	0.064
-547.325	800.000	0.039	0.126
-546.310	155.367	-0.078	0.109
-545.296	28.084	-0.072	-0.062
-544.281	-200.000	-0.007	-0.209
-543.266	-103.682	0.246	0.059
-542.252	-186.088	0.280	0.004
-541.237	-33.129	0.381	-0.215
-540.223	-123.539	-0.098	0.016
-539.208	800.000	0.030	0.093
-538.193	-200.000	0.008	-0.095
-537.179	19.421	0.193	0.158
-536.164	-182.653	0.118	-0.002
-535.150	-200.000	-0.095	0.460
-534.135	88.932	-0.312	-0.354
-533.121	446.420	0.082	-0.184
-532.106	-200.000	0.080	-0.373
-531.091	-118.695	-0.175	0.031
-530.077	568.821	-0.007	0.018
-529.062	614.954	0.087	-0.221
-528.048	-148.470	-0.060	-0.005
-527.033	210.662	-0.124	-0.198
-526.018	93.425	0.095	-0.109
-525.004	-200.000	0.013	0.064
-523.989	-68.871	0.207	-0.081
-522.975	-173.705	0.192	-0.006
-521.960	670.384	0.097	-0.256
-520.945	-200.000	-0.001	-0.049
-519.931	-89.967	0.158	-0.047
-518.916	-200.000	-0.068	0.397
-517.902	330.679	-0.095	0.186
-516.887	500.961	0.057	0.133
-515.872	-132.466	-0.459	-0.060
-514.858	-31.564	-0.038	0.022
-513.843	159.423	-0.056	0.079
-512.829	312.382	-0.027	-0.051
-511.814	276.755	-0.047	0.085
-510.799	-144.321	-0.397	0.038
-509.785	-38.778	-0.120	0.064
-508.770	-200.000	0.002	-0.199
-507.756	144.298	-0.136	-0.185
-506.741	112.811	0.055	-0.068
-505.726	-83.924	-0.060	0.019
-504.712	-200.000	0.009	0.081
-503.697	476.203	0.036	0.082
-502.683	5.148	-0.161	0.121
-501.668	-115.873	-0.028	-0.005
-500.653	-102.352	0.270	0.066
-499.639	338.456	0.086	0.170
-498.624	-179.895	-0.132	-0.003
-497.610	326.392	0.123	0.240
-496.595	-200.000	-0.008	-0.303
-495.581	-99.527	0.332	0.085
-494.566	-59.976	-0.172	0.075
-493.551	-200.000	0.032	0.578
-492.537	800.000	-0.107	0.400
-491.522	-101.205	-0.217	0.054
-490.508	285.009	0.171	-0.313
-489.493	125.567	-0.061	-0.078
-488.478	30.121	-0.100	-0.086
-487.464	-23.051	0.082	0.050
-486.449	-11.888	0.150	0.100
-485.435	543.367	-0.123	0.298
-484.420	800.000	-0.067	0.201
-483.405	-71.242	0.182	0.070
-482.391	-133.156	-0.317	0.041
-481.376	-88.880	-0.244	0.073
-480.362	140.011	-0.177	-0.237
-479.347	45.163	-0.115	0.108
-478.332	-84.036	0.353	-0.114
-477.318	-83.069	0.281	-0.092
-476.303	201.446	0.006	-0.009
-475.289	436.318	0.124	0.274
-474.274	-200.000	-0.063	0.307
-473.259	318.015	-0.123	-0.236
-472.245	-200.000	0.001	-0.243
-471.230	-62.972	-0.069	0.029
-470.216	24.595	0.183	0.154
-469.201	39.206	-0.009	-0.008
-468.186	93.684	-0.267	-0.307
-467.172	800.000	-0.095	-0.308
-466.157	285.475	-0.165	-0.303
-465.143	105.079	0.201	0.241
-464.128	-87.326	0.189	-0.058
-463.113	-200.000	0.035	-0.186
-462.099	231.752	-0.138	-0.230
-461.084	203.513	-0.118	0.185
-460.070	-94.954	-0.537	-0.148
-459.055	-88.953	0.436	-0.131
-458.040	-63.022	-0.233	-0.098
-457.026	-157.629	-0.325	-0.020
-456.011	197.860	-0.157	0.244
-454.997	61.466	0.072	0.073
-453.982	-106.399	0.278	-0.063
-452.968	-119.763	-0.276	-0.048
-451.953	-200.000	-0.027	0.244
-450.938	-26.029	-0.160	0.095
-449.924	800.000	-0.075	0.296
-448.909	-200.000	-0.032	-0.147
-447.895	148.029	-0.070	0.095
-446.880	-68.032	-0.218	-0.086
-445.865	-30.709	-0.142	-0.081
-444.851	800.000	0.037	-0.161
-443.836	-7.932	0.170	0.117
-442.822	206.791	0.167	-0.264
-441.807	-133.063	-0.132	0.017
-440.792	-200.000	0.022	0.183
-439.778	-146.669	-0.021	-0.002
-438.763	220.360	0.079	0.128
-437.749	-200.000	0.049	-0.278
-436.734	-35.927	-0.157	0.086
-435.719	88.622	-0.199	-0.224
-434.705	-161.508	-0.092	0.005
-433.690	-169.257	-0.082	0.003
-432.676	-116.709	-0.111	-0.021
-431.661	9.181	0.063	0.048
-430.646	800.000	-0.061	-0.268
-429.632	-3.359	0.217	-0.154
-428.617	-7.854	0.135	0.092
-427.603	24.632	-0.225	0.189
-426.588	-99.260	0.065	-0.017
-425.573	19.130	0.182	0.148
-424.559	-84.655	-0.156	-0.050
-423.544	-61.752	0.280	0.119
-422.530	-56.313	-0.488	-0.220
-421.515	91.964	-0.138	0.157
-420.500	-141.907	-0.358	0.036
-419.486	800.000	-0.098	0.309
-418.471	-180.755	0.171	-0.004
-417.457	-200.000	-0.006	-0.026
-416.442	215.784	-0.165	-0.265
-415.428	288.977	-0.155	-0.284
-414.413	735.912	0.104	-0.282
-413.398	60.810	-0.171	-0.172
-412.384	800.000	-0.001	-0.004
-411.369	-186.302	-0.226	-0.003
-410.355	800.000	0.109	-0.371
-409.340	-200.000	-0.017	-0.229
-408.325	-181.808	-0.170	0.003
-407.311	241.557	0.119	0.201
-406.296	59.199	-0.090	-0.090
-405.282	509.901	-0.172	-0.406
-404.267	-200.000	0.013	-0.291
-403.252	513.883	-0.235	-0.555
-402.238	318.389	0.122	-0.235
-401.223	184.309	0.096	-0.143
-400.209	800.000	-0.090	-0.334
-399.194	197.477	0.082	-0.127
-398.179	124.836	-0.220	-0.281
-397.165	622.874	0.148	-0.377
-396.150	294.409	-0.105	-0.195
-395.136	-200.000	0.045	-0.326
-394.121	198.725	0.112	0.173
-393.106	-57.601	-0.223	-0.099
-392.092	-120.763	-0.225	0.038
-391.077	-28.894	0.102	-0.059
-390.063	800.000	-0.067	0.281
-389.048	162.278	0.184	-0.261
-388.033	697.012	0.025	-0.066
-387.019	-148.478	-0.377	0.031
-386.004	-5.401	0.311	-0.216
-384.990	-101.609	0.122	-0.030
-383.975	355.628	-0.123	-0.247
-382.960	-90.119	-0.243	0.072
-381.946	-40.615	0.119	-0.062
-380.931	-57.126	-0.151	0.068
-379.917	-116.278	-0.355	0.067
-378.902	-45.578	-0.552	0.277
-377.888	-94.184	-0.099	0.027
-376.873	-21.189	0.042	-0.026
-375.858	204.067	0.116	-0.182
-374.844	-200.000	0.059	0.271
-373.829	-23.577	0.223	-0.135
-372.815	-200.000	0.015	-0.151
-371.800	-86.837	-0.264	0.082
-370.785	800.000	0.046	-0.157
-369.771	-124.675	-0.301	-0.047
-368.756	438.686	-0.199	-0.440
-367.742	800.000	0.113	0.338
-366.727	-158.479	-0.146	0.009
-365.712	197.242	-0.122	0.188
-364.698	-200.000	0.024	0.147
-363.683	105.289	-0.059	-0.071
-362.669	800.000	-0.055	0.163
-361.654	-79.991	-0.130	0.044
-360.639	547.445	0.043	0.103
-359.625	800.000	0.124	0.409
-358.610	-147.363	0.324	-0.028
-357.596	50.836	-0.294	-0.282
-356.581	265.750	0.089	-0.156
-355.566	-200.000	-0.031	0.207
-354.552	-35.643	-0.137	0.075
-353.537	101.689	0.210	-0.247
-352.523	-200.000	0.017	-0.512
-351.508	-150.649	0.157	-0.012
-350.493	800.000	0.072	0.219
-349.479	58.248	-0.198	0.196
-348.464	-200.000	-0.001	-0.134
-347.450	-200.000	0.077	0.368
-346.435	112.386	0.089	0.109
-345.420	-200.000	0.026	-0.169
-344.406	-126.905	0.082	0.012
-343.391	-17.898	-0.364	-0.231
-342.377	706.304	-0.077	-0.206
-341.362	-9.489	-0.318	0.215
-340.348	2.109	0.317	0.231
-339.333	-145.664	0.163	0.015
-338.318	-200.000	-0.016	0.108
-337.304	119.174	0.233	-0.292
-336.289	-28.147	-0.161	-0.094
-335.275	230.576	-0.059	0.097
-334.260	244.772	-0.077	0.131
-333.245	-1.285	0.137	0.098
-332.231	-181.293	-0.086	0.002
-331.216	41.095	-0.197	0.180
-330.202	-200.000	0.001	-0.026
-329.187	-147.650	-0.217	0.018
-328.172	-200.000	-0.036	-0.279
-327.158	800.000	-0.019	-0.081
-326.143	493.063	-0.118	0.274
-325.129	-200.000	-0.054	-0.430
-324.114	-39.559	-0.243	0.128
-323.099	-114.471	0.244	-0.047
-322.085	-200.000	0.019	0.339
-321.070	-46.512	-0.161	0.080
-320.056	-86.921	0.300	0.092
-319.041	130.598	-0.086	0.111
-318.026	800.000	-0.062	-0.273
-317.012	-200.000	0.001	0.077
-315.997	-40.736	-0.134	0.070
-314.983	277.777	-0.177	0.317
-313.968	-91.681	-0.334	-0.096
-312.953	83.905	0.057	-0.063
-311.939	-200.000	0.007	-0.181
-310.924	180.939	-0.068	0.101
-309.910	501.544	0.062	-0.145
-308.895	-200.000	-0.013	-0.150
-307.880	-21.493	-0.133	0.082
-306.866	-103.845	-0.248	0.059
-305.851	87.862	-0.094	0.105
-304.837	4.989	-0.342	0.254
-303.822	-95.191	-0.192	0.052
-302.807	-3.808	0.108	-0.076
-301.793	267.979	0.097	-0.172
-300.778	356.451	0.068	-0.136
-299.764	800.000	0.139	-0.414
-298.749	-40.940	-0.144	-0.075
-297.735	800.000	0.137	-0.393
-296.720	65.699	-0.188	0.192
-295.705	512.294	0.079	0.185
-294.691	224.311	-0.140	0.229
-293.676	261.584	0.136	0.238
-292.662	-119.357	0.161	-0.028
-291.647	-160.184	0.242	-0.013
-290.632	-47.111	0.221	-0.109
-289.618	83.480	-0.184	-0.202
-288.603	-169.978	-0.522	-0.019
-287.589	-53.524	0.073	0.034
-286.574	-149.651	0.193	0.015
-285.559	296.362	0.156	0.289
-284.545	-200.000	0.049	-0.264
-283.530	-49.199	0.180	0.087
-282.516	454.489	-0.033	0.074
-281.501	-200.000	0.010	0.131
-280.486	800.000	-0.027	-0.101
-279.472	-4.580	0.287	0.200
-278.457	157.674	0.196	-0.274
-277.443	800.000	-0.062	0.213
-276.428	402.084	-0.119	0.251
-275.413	-111.376	0.329	-0.068
-274.399	70.559	-0.197	-0.205
-273.384	743.987	0.011	-0.031
-272.370	554.930	-0.059	-0.143
-271.355	-200.000	-0.012	-0.190
-270.340	-200.000	0.014	-0.300
-269.326	218.832	0.101	0.163
-268.311	547.302	0.085	-0.205
-267.297	-103.455	0.123	0.029
-266.282	302.737	0.098	-0.183
-265.267	130.734	-0.177	0.228
-264.253	-172.844	0.321	-0.010
-263.238	-7.352	-0.067	0.046
-262.224	138.918	0.135	0.179
-261.209	88.556	-0.181	0.203
-260.195	106.878	-0.195	-0.233
-259.180	-118.663	-0.337	0.060
-258.165	800.000	0.075	0.242
-257.151	-88.321	0.240	0.072
-256.136	800.000	-0.032	0.109
-255.122	44.348	-0.199	-0.184
-254.107	-108.768	0.088	0.019
-253.092	800.000	-0.090	0.325
-252.078	126.929	-0.080	-0.102
-251.063	593.870	0.069	0.171
-250.049	-164.992	0.047	0.002
-249.034	800.000	-0.045	0.191
-248.019	-200.000	-0.067	0.423
-247.005	-197.822	0.113	0.001
-245.990	800.000	0.115	0.440
-244.976	800.000	0.041	0.124
-243.961	-19.048	0.103	-0.064
-242.946	-200.000	0.021	0.221
-241.932	-84.251	0.049	-0.016
-240.917	-26.709	-0.166	-0.098
-239.903	-200.000	0.006	-0.044
-238.888	83.301	0.195	0.214
-237.873	800.000	-0.067	0.243
-236.859	128.206	-0.096	0.123
-235.844	-55.039	0.214	0.097
-234.830	-200.000	0.031	-0.237
-233.815	-200.000	0.042	0.222
-232.800	-9.740	0.342	0.229
-231.786	-200.000	0.007	0.231
-230.771	800.000	-0.031	0.113
-229.757	-39.223	0.111	0.059
-228.742	189.785	0.194	-0.293
-227.727	23.989	-0.061	0.051
-226.713	-22.717	0.321	0.195
-225.698	-200.000	-0.021	0.366
-224.684	-110.971	-0.279	0.058
-223.669	26.510	0.144	0.121
-222.655	100.571	0.067	0.079
-221.640	227.959	-0.004	0.006
-220.625	-111.870	-0.484	-0.098
-219.611	20.101	0.095	0.077
-218.596	-44.592	-0.445	0.224
-217.582	137.283	-0.041	0.054
-216.567	800.000	0.067	0.225
-215.552	-78.723	0.199	0.068
-214.538	242.329	0.037	-0.063
-213.523	-33.775	0.310	0.172
-212.509	179.240	0.201	0.295
-211.494	-200.000	-0.067	-0.469
-210.479	-69.027	0.056	-0.022
-209.465	98.287	0.066	0.077
-208.450	-32.473	0.160	-0.090
-207.436	148.214	-0.111	0.150
-206.421	-200.000	0.015	0.190
-205.406	-200.000	0.018	0.199
-204.392	-200.000	0.052	0.295
-203.377	112.535	0.240	0.291
-202.363	-37.978	-0.202	0.108
-201.348	800.000	-0.035	0.154
-200.333	-50.274	0.184	-0.087
-199.319	44.505	0.078	0.072
-198.304	-18.192	0.413	-0.259
-197.290	800.000	0.083	-0.281
-196.275	-108.699	0.048	0.010
-195.260	536.717	-0.082	-0.195
-194.246	-31.621	0.154	0.087
-193.231	-197.604	0.317	0.002
-192.217	43.691	0.185	0.170
-191.202	-200.000	0.015	0.234
-190.187	-101.136	0.242	0.060
-189.173	20.880	-0.471	0.384
-188.158	23.657	0.081	-0.067
-187.144	-20.655	0.141	0.087
-186.129	-134.643	0.261	-0.032
-185.114	-200.000	-0.059	-0.280
-184.100	-200.000	0.004	-0.146
-183.085	-122.304	-0.117	-0.019
-182.071	108.906	0.085	0.102
-181.056	-115.939	0.259	-0.049
-180.042	-200.000	0.024	-0.356
-179.027	86.141	0.172	0.190
-178.012	-41.663	0.193	0.100
-176.998	-66.084	0.332	0.133
-175.983	-200.000	-0.010	0.052
-174.969	217.691	-0.036	-0.057
-173.954	420.897	0.098	-0.212
-172.939	87.490	0.252	0.280
-171.925	-82.042	0.281	0.092
-170.910	-200.000	0.029	-0.280
-169.896	73.055	0.140	-0.146
-168.881	800.000	0.154	-0.433
-167.866	50.407	0.204	0.194
-166.852	251.511	0.139	0.237
-165.837	-200.000	-0.068	0.383
-164.823	-43.788	0.124	-0.063
-163.808	467.577	-0.094	-0.212
-162.793	-80.895	0.190	0.063
-161.779	-161.732	-0.184	-0.009
-160.764	-162.060	0.009	0.000
-159.750	-126.840	0.179	0.026
-158.735	-129.438	0.161	0.022
-157.720	800.000	-0.093	0.387
-156.706	227.461	0.112	-0.182
-155.691	189.708	-0.063	0.095
-154.677	-84.625	-0.229	0.073
-153.662	-42.617	0.166	0.085
-152.647	344.169	0.204	0.402
-151.633	-200.000	0.002	0.279
-150.618	-5.368	0.165	-0.114
-149.604	747.350	-0.100	-0.269
-148.589	-200.000	-0.022	-0.130
-147.574	-131.497	-0.123	-0.016
-146.560	-200.000	-0.015	-0.108
-145.545	452.490	0.045	0.100
-144.531	422.081	-0.121	-0.260
-143.516	97.710	-0.246	0.283
-142.502	-200.000	0.029	0.189
-141.487	-21.769	-0.204	-0.125
-140.472	-63.926	-0.287	0.117
-139.458	-114.380	0.060	-0.012
-138.443	-200.000	0.012	0.374
-137.429	-200.000	0.027	-0.226
-136.414	-106.030	0.370	-0.083
-135.399	555.379	0.073	-0.176
-134.385	-125.646	0.140	0.021
-133.370	-109.946	-0.203	0.043
-132.356	125.996	-0.253	0.321
-131.341	-200.000	-0.029	0.302
-130.326	-80.093	-0.247	0.083
-129.312	-42.514	-0.332	-0.170
-128.297	800.000	-0.017	-0.066
-127.283	279.561	0.122	0.219
-126.268	-25.415	0.210	0.124
-125.253	304.837	0.078	-0.145
-124.239	-200.000	0.012	-0.130
-123.224	70.066	-0.189	-0.196
-122.210	123.918	0.146	0.183
