DTS Sentinel unit serial number:	SN413079Multiplexer serial number:	ORYXHardware model number:	OX4-SRSoftware version number:	ORYX F/W v4.00 Oryx Data Collector v3.7.2.0data status	okinstallation	princeton_trtdifferential loss correction	single-endedforward channel	channel 2reverse channel	N/Adate	2019/09/15time	11:47:34forward acquisition time	60.00reverse acquisition time	0.00gamma	496.2192k internal	0.2315k external	0.2315temperature offset calibration	1.0016default loss term (dB/km)	0.3790temperature slope calibration	1.0000multiplexer offset coefficient	1.0000multiplexer slope coefficient	1.0000fibre end	0.00T internal ref (°C)	34.37T ext. ref 1 (°C)	5.05T ext. ref 2 (°C)	29.93length (m)	temperature (°C)	Stokes	anti-Stokes-747.200	800.000	0.135	0.419
-746.185	-200.000	0.017	-0.094
-745.171	-200.000	0.021	-0.094
-744.156	-103.625	-0.077	0.018
-743.142	-66.971	0.273	-0.109
-742.127	-200.000	0.023	0.250
-741.112	-63.803	-0.269	0.111
-740.098	-74.698	0.087	0.032
-739.083	145.331	-0.321	0.435
-738.069	-200.000	-0.036	0.180
-737.054	-200.000	0.015	0.259
-736.039	45.438	-0.103	-0.096
-735.025	142.040	0.153	-0.206
-734.010	-187.251	0.259	0.004
-732.996	-200.000	-0.074	-0.384
-731.981	-200.000	0.034	0.519
-730.966	-119.919	-0.097	0.017
-729.952	175.466	0.022	0.032
-728.937	184.367	0.097	-0.146
-727.923	-103.700	-0.103	0.024
-726.908	69.440	-0.197	0.205
-725.894	-200.000	-0.016	0.156
-724.879	25.285	0.165	0.139
-723.864	184.139	0.083	0.125
-722.850	-134.986	-0.181	0.022
-721.835	37.940	-0.233	-0.210
-720.821	-127.766	-0.383	0.056
-719.806	800.000	-0.045	0.180
-718.791	-164.663	-0.150	0.007
-717.777	0.227	-0.126	0.091
-716.762	47.789	-0.085	-0.081
-715.748	338.657	-0.089	0.175
-714.733	-93.260	0.021	0.006
-713.718	-78.583	0.051	-0.018
-712.704	24.436	0.097	-0.081
-711.689	44.628	-0.279	-0.260
-710.675	-85.080	-0.450	-0.142
-709.660	162.118	0.187	0.266
-708.645	800.000	0.056	0.215
-707.631	-13.398	-0.249	-0.164
-706.616	108.292	0.197	-0.238
-705.602	681.550	-0.110	0.291
-704.587	800.000	0.073	-0.225
-703.572	551.806	0.082	0.200
-702.558	-200.000	-0.001	0.441
-701.543	800.000	0.056	-0.207
-700.529	259.223	-0.238	-0.415
-699.514	81.916	0.222	0.243
-698.499	-141.311	0.245	-0.025
-697.485	-90.101	-0.316	-0.093
-696.470	-170.190	0.284	0.010
-695.456	-81.300	0.055	-0.018
-694.441	-200.000	-0.017	-0.104
-693.426	117.598	0.113	0.141
-692.412	57.186	-0.020	0.020
-691.397	68.868	-0.250	0.260
-690.383	-130.126	-0.134	-0.018
-689.368	405.202	0.102	-0.217
-688.354	424.387	-0.128	-0.278
-687.339	-27.998	-0.247	0.144
-686.324	-27.423	0.267	-0.157
-685.310	59.089	-0.176	-0.175
-684.295	14.675	0.118	0.093
-683.281	15.246	0.153	-0.121
-682.266	-189.681	-0.120	0.001
-681.251	-200.000	-0.027	0.193
-680.237	-130.802	-0.510	-0.069
-679.222	-74.776	-0.058	-0.021
-678.208	44.368	0.111	-0.103
-677.193	800.000	-0.092	0.398
-676.178	800.000	-0.057	0.174
-675.164	190.172	0.063	-0.096
-674.149	462.143	0.076	-0.171
-673.135	262.985	0.029	0.050
-672.120	193.039	0.063	-0.096
-671.105	293.956	-0.133	-0.245
-670.091	-41.376	0.202	-0.105
-669.076	303.204	-0.302	0.565
-668.062	-155.860	-0.358	0.023
-667.047	6.632	0.224	0.168
-666.032	-145.791	-0.052	-0.005
-665.018	-200.000	0.008	-0.219
-664.003	-105.350	-0.298	0.068
-662.989	105.646	0.145	-0.173
-661.974	-200.000	-0.029	-0.131
-660.959	-200.000	0.015	-0.101
-659.945	115.168	-0.213	-0.263
-658.930	519.164	0.106	-0.250
-657.916	-69.989	0.222	-0.086
-656.901	118.182	-0.085	0.105
-655.886	35.463	-0.092	-0.082
-654.872	-183.026	-0.082	0.001
-653.857	397.589	-0.140	0.295
-652.843	-113.537	0.203	0.040
-651.828	-200.000	0.001	-0.033
-650.814	800.000	-0.088	-0.266
-649.799	10.311	-0.140	0.108
-648.784	-60.990	0.243	-0.104
-647.770	-113.699	-0.210	0.041
-646.755	13.860	-0.042	0.033
-645.741	-173.783	-0.264	0.008
-644.726	26.582	0.371	0.313
-643.711	800.000	0.053	0.166
-642.697	143.525	0.064	-0.086
-641.682	800.000	0.017	-0.053
-640.668	-148.137	-0.279	-0.023
-639.653	-48.653	0.366	-0.177
-638.638	39.954	-0.140	0.127
-637.624	-51.382	-0.140	-0.066
-636.609	-200.000	0.004	0.021
-635.595	-27.530	0.306	0.179
-634.580	-94.377	-0.226	-0.062
-633.565	-121.107	-0.187	-0.032
-632.551	5.937	-0.141	-0.106
-631.536	425.975	-0.057	-0.125
-630.522	242.308	-0.062	-0.105
-629.507	69.546	0.239	0.248
-628.492	67.695	0.064	0.066
-627.478	-80.491	-0.393	0.132
-626.463	152.678	0.268	-0.370
-625.449	-114.827	0.042	-0.008
-624.434	-200.000	0.008	0.051
-623.419	-146.696	-0.269	-0.024
-622.405	45.850	0.259	-0.242
-621.390	800.000	0.107	-0.443
-620.376	800.000	0.082	-0.245
-619.361	-200.000	-0.002	-0.033
-618.346	195.065	-0.053	0.082
-617.332	272.214	0.085	0.151
-616.317	325.728	-0.060	-0.115
-615.303	-151.831	-0.167	0.012
-614.288	800.000	-0.042	-0.127
-613.273	159.578	0.209	-0.294
-612.259	-78.025	0.100	0.035
-611.244	20.267	-0.184	0.150
-610.230	-123.331	0.326	-0.052
-609.215	117.050	-0.124	0.154
-608.201	-16.915	-0.185	0.118
-607.186	-158.401	-0.182	-0.011
-606.171	800.000	0.030	-0.096
-605.157	-126.764	0.106	0.016
-604.142	136.154	0.098	0.129
-603.128	-1.346	0.143	-0.102
-602.113	-129.057	0.244	0.034
-601.098	61.041	-0.137	0.137
-600.084	-153.681	0.184	0.013
-599.069	10.088	0.194	-0.149
-598.055	5.674	0.212	0.158
-597.040	665.893	-0.034	-0.088
-596.025	109.529	0.061	0.074
-595.011	-200.000	-0.082	0.385
-593.996	-62.174	-0.256	-0.108
-592.982	-68.381	0.442	-0.173
-591.967	31.657	0.266	0.231
-590.952	-97.117	-0.107	0.028
-589.938	-92.092	0.120	-0.034
-588.923	-200.000	0.271	0.001
-587.909	-8.750	-0.059	-0.040
-586.894	140.036	-0.197	-0.262
-585.879	72.351	-0.158	0.166
-584.865	88.972	-0.056	-0.062
-583.850	31.463	-0.173	-0.150
-582.836	48.427	-0.252	0.237
-581.821	-187.906	0.272	0.004
-580.806	-29.604	0.255	0.147
-579.792	-126.655	0.198	-0.030
-578.777	72.554	-0.193	0.203
-577.763	800.000	-0.038	-0.111
-576.748	237.491	0.150	0.250
-575.733	123.035	-0.327	0.412
-574.719	-200.000	-0.007	-0.038
-573.704	98.874	-0.277	0.322
-572.690	-128.763	0.298	0.042
-571.675	800.000	-0.078	-0.223
-570.661	215.777	-0.187	-0.298
-569.646	545.975	0.088	-0.212
-568.631	213.196	0.085	0.135
-567.617	473.569	-0.083	0.188
-566.602	-71.486	-0.216	-0.081
-565.588	374.709	-0.109	-0.223
-564.573	-70.877	-0.272	-0.103
-563.558	-200.000	-0.019	-0.155
-562.544	34.538	0.101	-0.088
-561.529	127.773	-0.070	0.089
-560.515	102.338	0.298	0.350
-559.500	764.424	-0.016	-0.043
-558.485	-200.000	0.060	-0.377
-557.471	-200.000	-0.027	-0.192
-556.456	-200.000	-0.020	-0.100
-555.442	147.899	-0.095	-0.129
-554.427	45.196	0.178	-0.165
-553.412	-200.000	0.005	-0.171
-552.398	-137.055	0.247	0.028
-551.383	-200.000	-0.013	0.116
-550.369	35.972	-0.068	0.060
-549.354	233.185	0.101	-0.167
-548.339	-200.000	-0.089	0.414
-547.325	51.781	0.061	0.058
-546.310	-99.827	-0.177	0.044
-545.296	718.980	-0.090	0.241
-544.281	-40.624	0.104	0.054
-543.266	-200.000	0.032	-0.243
-542.252	-167.360	-0.108	0.004
-541.237	-34.817	0.272	-0.149
-540.223	412.200	-0.047	0.100
-539.208	-95.488	-0.096	-0.026
-538.193	19.809	-0.236	-0.191
-537.179	-24.887	0.203	-0.121
-536.164	-200.000	0.041	0.242
-535.150	-3.212	0.317	0.222
-534.135	-200.000	0.044	0.243
-533.121	19.678	0.129	-0.104
-532.106	800.000	0.090	-0.263
-531.091	58.239	0.176	0.173
-530.077	-9.815	-0.261	0.174
-529.062	-200.000	0.013	0.104
-528.048	-200.000	-0.016	0.231
-527.033	-89.544	0.196	-0.058
-526.018	-130.234	-0.231	-0.032
-525.004	-61.288	0.047	-0.020
-523.989	-95.083	-0.276	0.075
-522.975	-26.412	-0.185	0.109
-521.960	-5.922	-0.052	0.036
-520.945	105.289	0.039	-0.047
-519.931	14.978	-0.078	-0.061
-518.916	-26.191	-0.229	0.135
-517.902	397.991	-0.166	-0.349
-516.887	-200.000	0.002	0.107
-515.872	6.345	-0.413	-0.308
-514.858	-70.634	-0.243	-0.092
-513.843	150.097	0.039	-0.053
-512.829	48.170	0.116	-0.109
-511.814	163.195	0.115	-0.162
-510.799	800.000	0.064	0.216
-509.785	-83.815	-0.219	0.070
-508.770	-28.681	0.102	-0.059
-507.756	800.000	-0.073	0.260
-506.741	-54.601	-0.381	0.173
-505.726	800.000	0.021	0.064
-504.712	-58.879	0.122	0.053
-503.697	7.368	-0.093	0.070
-502.683	81.386	-0.069	-0.075
-501.668	14.269	-0.108	-0.085
-500.653	-135.918	0.167	-0.020
-499.639	-159.401	-0.121	-0.007
-498.624	-93.884	0.128	-0.035
-497.610	-68.307	0.321	-0.125
-496.595	223.324	0.210	-0.339
-495.581	-26.500	0.117	0.069
-494.566	800.000	-0.040	0.112
-493.551	-178.473	0.290	-0.007
-492.537	249.393	0.288	0.490
-491.522	-50.030	0.344	-0.164
-490.508	267.280	0.050	-0.088
-489.493	800.000	-0.057	-0.193
-488.478	800.000	-0.085	0.279
-487.464	-18.905	0.205	-0.128
-486.449	-65.448	-0.300	0.121
-485.435	-62.099	-0.265	0.111
-484.420	201.459	-0.138	0.213
-483.405	309.404	-0.138	-0.258
-482.391	800.000	-0.049	0.184
-481.376	366.486	-0.117	-0.237
-480.362	154.314	0.107	-0.147
-479.347	-55.908	0.228	-0.102
-478.332	800.000	-0.073	-0.261
-477.318	336.285	0.146	-0.285
-476.303	-88.869	-0.325	-0.097
-475.289	1.017	-0.204	-0.147
-474.274	59.988	-0.287	0.284
-473.259	171.730	0.103	0.148
-472.245	-156.845	-0.262	0.016
-471.230	-176.495	0.558	0.014
-470.216	-200.000	0.032	0.283
-469.201	128.068	-0.255	-0.325
-468.186	-39.878	-0.056	-0.030
-467.172	129.067	-0.114	0.146
-466.157	298.214	0.225	0.414
-465.143	-111.686	-0.063	0.013
-464.128	-69.721	0.242	-0.093
-463.113	-200.000	-0.061	0.400
-462.099	800.000	-0.033	0.136
-461.084	-200.000	0.035	-0.182
-460.070	46.394	-0.269	0.250
-459.055	800.000	-0.066	0.249
-458.040	800.000	-0.067	-0.226
-457.026	31.341	0.177	-0.152
-456.011	87.259	0.171	0.189
-454.997	-144.791	-0.264	-0.024
-453.982	714.661	-0.066	-0.175
-452.968	-0.557	0.196	0.139
-451.953	28.877	-0.019	-0.016
-450.938	-41.521	0.046	-0.024
-449.924	120.795	-0.148	0.185
-448.909	-90.559	0.284	-0.082
-447.895	-200.000	-0.034	-0.322
-446.880	112.762	0.237	-0.288
-445.865	-59.936	-0.039	0.017
-444.851	149.485	-0.237	0.321
-443.836	-104.896	-0.239	-0.055
-442.822	-150.215	-0.485	0.038
-441.807	118.691	0.074	-0.092
-440.792	116.072	-0.136	0.167
-439.778	-50.996	-0.035	0.017
-438.763	-34.445	0.394	0.216
-437.749	-200.000	0.040	0.241
-436.734	-119.241	0.356	0.062
-435.719	-151.367	-0.424	0.032
-434.705	175.641	0.191	-0.277
-433.690	-200.000	-0.006	-0.325
-432.676	53.985	0.182	0.175
-431.661	-61.358	0.200	0.084
-430.646	91.961	0.044	-0.050
-429.632	800.000	0.047	0.190
-428.617	587.600	-0.026	0.063
-427.603	-118.336	-0.332	0.059
-426.588	444.490	0.072	0.158
-425.573	253.968	-0.155	0.266
-424.559	-74.964	0.446	0.160
-423.544	62.632	0.148	-0.148
-422.530	36.708	-0.194	-0.171
-421.515	77.462	0.198	0.210
-420.500	19.912	-0.160	0.129
-419.486	-110.197	-0.289	-0.060
-418.471	16.419	-0.050	0.040
-417.457	800.000	0.068	0.206
-416.442	-52.014	0.018	-0.008
-415.428	51.293	-0.039	0.037
-414.413	251.701	-0.068	-0.115
-413.398	-75.287	0.122	-0.044
-412.384	-200.000	-0.013	-0.140
-411.369	-200.000	-0.015	0.100
-410.355	-200.000	-0.012	-0.156
-409.340	230.287	0.102	0.167
-408.325	-200.000	0.025	-0.289
-407.311	39.792	0.153	-0.137
-406.296	-200.000	0.038	-0.281
-405.282	-122.580	-0.354	0.057
-404.267	-200.000	-0.008	-0.248
-403.252	-102.165	-0.088	0.021
-402.238	212.832	-0.197	0.311
-401.223	-119.800	-0.356	0.061
-400.209	-200.000	-0.006	-0.154
-399.194	-24.243	-0.244	0.145
-398.179	136.600	-0.102	0.133
-397.165	-88.666	0.068	-0.020
-396.150	-200.000	0.010	0.052
-395.136	50.033	-0.126	-0.119
-394.121	190.529	-0.017	-0.025
-393.106	800.000	-0.042	0.127
-392.092	-168.463	-0.115	-0.004
-391.077	605.716	-0.103	0.257
-390.063	-184.151	-0.120	0.002
-389.048	-17.543	0.041	-0.026
-388.033	-200.000	-0.008	0.394
-387.019	-200.000	0.016	-0.342
-386.004	736.169	-0.116	-0.309
-384.990	198.625	-0.161	-0.246
-383.975	97.429	-0.210	0.241
-382.960	-103.780	0.068	-0.016
-381.946	-24.349	-0.226	0.135
-380.931	457.807	-0.150	-0.333
-379.917	347.315	-0.221	-0.435
-378.902	-65.424	0.168	-0.067
-377.888	366.868	-0.199	-0.402
-376.873	-65.953	0.106	-0.042
-375.858	-76.255	0.207	0.073
-374.844	-100.070	-0.202	-0.050
-373.829	703.682	0.126	0.332
-372.815	-200.000	-0.001	0.185
-371.800	52.563	0.158	0.151
-370.785	-200.000	0.013	-0.143
-369.771	146.732	-0.167	0.224
-368.756	455.693	-0.112	-0.249
-367.742	289.001	0.041	0.073
-366.727	362.683	-0.050	-0.100
-365.712	179.725	0.199	-0.292
-364.698	-118.533	0.249	-0.044
-363.683	357.611	-0.142	-0.284
-362.669	126.173	0.090	0.114
-361.654	-200.000	-0.030	0.151
-360.639	269.618	-0.150	-0.263
-359.625	77.587	0.097	-0.103
-358.610	-57.330	0.078	-0.034
-357.596	-200.000	-0.006	0.073
-356.581	250.386	0.093	0.158
-355.566	175.903	-0.216	-0.313
-354.552	542.703	-0.089	-0.212
-353.537	-49.451	-0.077	-0.036
-352.523	41.682	-0.163	0.147
-351.508	-200.000	0.076	0.431
-350.493	-8.384	0.176	0.118
-349.479	-43.523	-0.240	-0.121
-348.464	800.000	-0.021	0.074
-347.450	385.636	0.155	0.319
-346.435	-0.174	-0.077	0.055
-345.420	-200.000	0.049	0.309
-344.406	-90.453	-0.314	-0.091
-343.391	488.438	-0.112	0.256
-342.377	41.796	0.065	-0.058
-341.362	-122.681	0.503	0.081
-340.348	458.558	-0.076	0.168
-339.333	95.177	-0.227	0.258
-338.318	125.284	0.208	-0.261
-337.304	-59.763	0.145	-0.062
-336.289	214.896	-0.062	0.098
-335.275	-97.497	0.288	0.075
-334.260	-11.404	-0.158	-0.104
-333.245	16.166	0.099	-0.077
-332.231	89.713	0.033	-0.037
-331.216	800.000	0.057	-0.194
-330.202	-193.961	-0.125	0.001
-329.187	29.628	-0.184	0.156
-328.172	-14.164	0.259	-0.167
-327.158	22.374	0.140	-0.114
-326.143	-15.529	0.251	-0.160
-325.129	150.098	-0.171	-0.232
-324.114	-200.000	0.001	-0.066
-323.099	126.301	0.178	-0.224
-322.085	40.424	-0.181	-0.162
-321.070	7.477	0.228	-0.170
-320.056	800.000	0.162	0.512
-319.041	18.565	-0.104	0.083
-318.026	744.404	0.048	-0.128
-317.012	-170.384	-0.198	-0.007
-315.997	3.871	-0.175	0.128
-314.983	-99.760	0.117	-0.029
-313.968	54.202	0.219	0.210
-312.953	-60.935	0.298	-0.126
-311.939	735.122	-0.054	-0.145
-310.924	-163.034	0.247	0.012
-309.910	-30.721	0.222	-0.125
-308.895	62.611	-0.063	0.063
-307.880	64.706	0.099	0.100
-306.866	238.865	0.090	0.149
-305.851	-85.524	-0.369	0.114
-304.837	113.080	-0.139	0.167
-303.822	-116.873	0.329	-0.060
-302.807	51.737	-0.137	-0.130
-301.793	-200.000	0.045	0.258
-300.778	800.000	-0.009	0.035
-299.764	-115.222	0.231	-0.043
-298.749	-200.000	0.018	0.171
-297.735	-1.157	-0.140	0.099
-296.720	563.597	-0.027	0.065
-295.705	-65.067	-0.182	0.073
-294.691	165.867	-0.123	0.173
-293.676	120.277	-0.039	-0.049
-292.662	-76.161	0.099	-0.035
-291.647	-9.125	-0.107	0.071
-290.632	-151.217	0.144	0.011
-289.618	-11.447	-0.233	-0.152
-288.603	675.878	-0.060	-0.155
-287.589	-200.000	-0.006	0.278
-286.574	137.728	-0.020	-0.026
-285.559	-71.914	0.243	0.090
-284.545	754.520	-0.176	0.474
-283.530	-200.000	0.000	0.140
-282.516	-61.167	0.355	0.149
-281.501	90.989	-0.179	0.199
-280.486	53.149	0.067	0.064
-279.472	-200.000	-0.008	0.200
-278.457	227.151	0.040	0.065
-277.443	-103.630	-0.092	-0.022
-276.428	-156.562	-0.207	0.013
-275.413	-200.000	-0.057	-0.270
-274.399	-78.765	-0.130	0.044
-273.384	-57.554	-0.124	0.054
-272.370	-120.465	-0.045	-0.008
-271.355	-200.000	0.020	-0.166
-270.340	-136.607	0.464	0.053
-269.326	19.674	0.199	-0.159
-268.311	800.000	0.088	-0.271
-267.297	114.788	0.142	-0.172
-266.282	-200.000	-0.029	-0.142
-265.267	-200.000	0.004	0.138
-264.253	81.519	-0.136	-0.147
-263.238	58.587	0.323	-0.315
-262.224	111.759	-0.150	-0.180
-261.209	800.000	-0.075	0.206
-260.195	-89.149	0.166	-0.049
-259.180	800.000	0.005	0.023
-258.165	-98.696	0.371	0.094
-257.151	242.319	-0.141	-0.234
-256.136	24.704	0.254	-0.209
-255.122	-173.616	0.149	0.004
-254.107	203.911	0.232	0.357
-253.092	16.773	0.121	-0.095
-252.078	-200.000	-0.047	0.259
-251.063	104.642	0.211	-0.247
-250.049	-70.589	-0.166	-0.062
-249.034	704.224	0.112	-0.295
-248.019	36.480	0.121	0.106
-247.005	30.459	0.173	-0.147
-245.990	337.789	-0.187	0.362
-244.976	37.055	-0.026	0.023
-243.961	172.516	0.346	-0.495
-242.946	612.572	-0.125	0.311
-241.932	-137.406	-0.071	-0.008
-240.917	53.778	0.151	0.144
-239.903	-136.077	-0.191	0.022
-238.888	800.000	-0.067	-0.233
-237.873	217.382	0.009	0.014
-236.859	800.000	-0.004	0.013
-235.844	-200.000	0.065	-0.287
-234.830	-200.000	0.049	0.238
-233.815	-4.749	-0.254	0.174
-232.800	-160.254	0.215	0.012
-231.786	-200.000	0.019	0.146
-230.771	-43.738	0.510	-0.255
-229.757	-1.296	0.205	0.144
-228.742	-200.000	-0.025	-0.333
-227.727	379.934	-0.148	-0.301
-226.713	-63.999	-0.023	0.009
-225.698	-167.224	-0.176	-0.007
-224.684	59.156	0.122	-0.120
-223.669	-200.000	0.001	-0.135
-222.655	-34.110	-0.095	-0.052
-221.640	-200.000	-0.093	0.000
-220.625	800.000	-0.045	-0.131
-219.611	800.000	-0.070	-0.201
-218.596	561.479	-0.063	-0.152
-217.582	515.748	-0.113	0.262
-216.567	-62.474	0.171	0.071
-215.552	-62.738	0.528	0.217
-214.538	-89.054	-0.314	-0.092
-213.523	358.136	0.009	0.017
-212.509	-110.278	0.109	-0.023
-211.494	-122.290	-0.188	-0.030
-210.479	-66.376	0.381	-0.150
-209.465	170.809	-0.068	0.097
-208.450	29.338	-0.517	0.436
-207.436	-200.000	0.015	0.166
-206.421	-112.667	-0.176	0.035
-205.406	-85.204	-0.113	0.035
-204.392	449.446	-0.066	0.144
-203.377	-200.000	-0.027	-0.122
-202.363	-200.000	-0.041	-0.192
-201.348	700.433	0.025	-0.065
-200.333	11.515	-0.051	-0.039
-199.319	186.572	0.144	-0.213
-198.304	162.325	0.179	0.248
-197.290	-111.799	0.196	0.039
-196.275	88.123	0.268	0.295
-195.260	-155.191	0.299	0.019
-194.246	262.185	-0.102	-0.176
-193.231	107.526	-0.155	0.183
-192.217	-70.476	0.130	-0.049
-191.202	506.771	-0.092	0.210
-190.187	79.274	-0.077	0.082
-189.173	516.313	0.067	0.156
-188.158	-136.321	-0.245	0.028
-187.144	-6.441	-0.127	0.086
-186.129	-200.000	-0.023	0.195
-185.114	-200.000	0.007	-0.084
-184.100	183.583	0.110	-0.162
-183.085	-24.507	-0.251	0.148
-182.071	-127.929	-0.307	-0.044
-181.056	140.648	0.154	-0.201
-180.042	-192.783	-0.262	0.002
-179.027	233.834	0.105	-0.172
-178.012	310.005	-0.040	0.075
-176.998	800.000	-0.088	-0.276
-175.983	276.725	0.186	-0.327
-174.969	701.181	-0.112	-0.292
-173.954	13.958	0.247	-0.190
-172.939	43.371	0.168	-0.152
-171.925	-117.918	0.096	-0.017
-170.910	64.526	0.038	0.038
-169.896	-200.000	0.007	0.293
-168.881	-40.001	-0.277	0.143
-167.866	426.639	-0.107	-0.229
-166.852	-200.000	-0.297	-0.001
-165.837	-56.844	0.216	-0.095
-164.823	-61.348	0.227	-0.095
-163.808	679.835	0.044	-0.113
-162.793	342.151	-0.161	-0.312
-161.779	-97.536	-0.235	-0.061
-160.764	-80.541	-0.218	-0.072
-159.750	89.551	0.053	-0.058
-158.735	-200.000	-0.019	-0.125
-157.720	0.731	0.159	0.113
-156.706	-106.497	-0.124	0.027
-155.691	-95.092	0.168	-0.045
-154.677	-38.828	0.179	0.093
-153.662	-200.000	-0.073	0.323
-152.647	289.951	0.103	0.185
-151.633	-21.397	-0.303	0.183
-150.618	384.846	-0.179	-0.366
-149.604	-200.000	-0.018	-0.088
-148.589	-58.744	-0.333	-0.143
-147.574	29.300	0.279	-0.235
-146.560	193.345	-0.090	-0.135
-145.545	-99.981	-0.029	0.007
-144.531	70.976	-0.281	-0.288
-143.516	-62.790	-0.247	-0.101
-142.502	-168.661	-0.104	0.004
-141.487	-200.000	0.027	0.186
-140.472	800.000	0.074	-0.282
-139.458	-73.554	0.217	0.078
-138.443	800.000	0.008	0.028
-137.429	-142.332	-0.439	0.043
-136.414	-200.000	-0.220	0.000
-135.399	-200.000	0.015	0.224
-134.385	-103.957	-0.197	-0.045
-133.370	800.000	0.093	0.293
-132.356	800.000	0.050	0.178
-131.341	48.047	0.061	0.056
-130.326	-200.000	0.016	-0.133
-129.312	716.457	0.057	-0.150
-128.297	-158.602	-0.020	-0.001
-127.283	-27.289	-0.129	-0.074
-126.268	-200.000	0.000	0.363
-125.253	671.120	0.024	-0.062
-124.239	-174.000	0.233	-0.007
-123.224	-81.689	-0.159	0.051
-122.210	238.023	-0.151	-0.248
-121.195	1.186	-0.132	-0.094
