DTS Sentinel unit serial number:	SN413079Multiplexer serial number:	ORYXHardware model number:	OX4-SRSoftware version number:	ORYX F/W v4.00 Oryx Data Collector v3.7.2.0data status	okinstallation	princeton_trtdifferential loss correction	single-endedforward channel	channel 2reverse channel	N/Adate	2019/09/17time	13:35:35forward acquisition time	60.00reverse acquisition time	0.00gamma	496.2192k internal	0.2317k external	0.2317temperature offset calibration	0.9986default loss term (dB/km)	0.3790temperature slope calibration	1.0000multiplexer offset coefficient	1.0000multiplexer slope coefficient	1.0000fibre end	0.00T internal ref (°C)	34.73T ext. ref 1 (°C)	0.42T ext. ref 2 (°C)	31.82length (m)	temperature (°C)	Stokes	anti-Stokes-747.200	-78.749	-0.199	0.069
-746.185	422.273	-0.085	-0.185
-745.171	-107.569	0.356	0.079
-744.156	122.998	-0.144	0.182
-743.142	-115.841	-0.105	-0.020
-742.127	-108.389	0.092	0.020
-741.112	-86.186	0.389	-0.122
-740.098	114.009	-0.171	-0.211
-739.083	254.848	0.131	-0.227
-738.069	344.633	-0.197	0.392
-737.054	-200.000	0.039	-0.195
-736.039	-135.481	-0.359	0.043
-735.025	26.692	-0.201	0.171
-734.010	-200.000	0.013	-0.203
-732.996	688.426	-0.138	-0.365
-731.981	-200.000	0.018	0.104
-730.966	-95.854	-0.293	0.079
-729.952	-200.000	-0.015	-0.195
-728.937	239.241	-0.074	0.124
-727.923	-170.280	-0.345	0.012
-726.908	17.740	-0.344	-0.277
-725.894	104.252	-0.164	-0.195
-724.879	-200.000	-0.073	0.370
-723.864	98.653	0.230	-0.268
-722.850	-59.264	0.198	-0.086
-721.835	170.581	0.063	0.091
-720.821	-156.201	-0.031	-0.002
-719.806	-200.000	0.008	-0.146
-718.791	-74.666	-0.122	0.044
-717.777	61.831	-0.061	-0.061
-716.762	-125.103	-0.413	0.064
-715.748	800.000	-0.051	-0.188
-714.733	8.614	-0.269	-0.205
-713.718	800.000	0.029	0.088
-712.704	141.230	0.093	-0.125
-711.689	66.261	0.267	0.274
-710.675	-93.422	-0.110	0.031
-709.660	18.773	0.138	0.112
-708.645	61.586	-0.194	-0.195
-707.631	3.817	0.300	-0.222
-706.616	-90.600	0.300	-0.088
-705.602	-89.754	-0.166	-0.049
-704.587	-79.363	0.060	0.021
-703.572	-200.000	-0.040	-0.195
-702.558	-200.000	-0.006	-0.155
-701.543	-43.910	-0.290	-0.147
-700.529	156.654	0.139	-0.194
-699.514	612.035	0.069	-0.173
-698.499	161.318	-0.043	-0.060
-697.485	-47.381	-0.214	-0.105
-696.470	-102.752	0.292	0.070
-695.456	-102.669	-0.362	0.087
-694.441	73.604	0.083	0.088
-693.426	-200.000	-0.003	-0.028
-692.412	-200.000	-0.049	0.251
-691.397	-72.288	-0.149	0.056
-690.383	-104.013	0.159	-0.037
-689.368	196.109	-0.192	0.296
-688.354	-200.000	0.011	0.129
-687.339	288.073	0.175	0.320
-686.324	800.000	0.008	-0.028
-685.310	-165.057	0.156	-0.007
-684.295	-82.822	-0.479	0.156
-683.281	-6.798	-0.342	0.235
-682.266	-144.197	-0.372	-0.035
-681.251	182.186	0.178	0.264
-680.237	-73.249	-0.184	0.068
-679.222	-34.441	-0.298	-0.165
-678.208	3.481	-0.241	-0.178
-677.193	150.689	-0.305	-0.419
-676.178	24.158	0.060	0.050
-675.164	40.590	-0.081	-0.073
-674.149	800.000	-0.056	0.247
-673.135	-138.440	0.147	-0.016
-672.120	800.000	-0.066	-0.213
-671.105	800.000	0.042	-0.164
-670.091	464.688	-0.100	-0.227
-669.076	102.283	0.271	0.320
-668.062	447.247	-0.087	-0.193
-667.047	18.520	0.133	0.108
-666.032	-200.000	0.008	0.148
-665.018	104.527	0.161	-0.192
-664.003	800.000	-0.104	-0.334
-662.989	535.664	-0.027	0.065
-661.974	-10.934	-0.111	-0.074
-660.959	-200.000	-0.018	-0.355
-659.945	-200.000	-0.043	-0.273
-658.930	407.279	-0.124	0.264
-657.916	-72.390	0.190	0.071
-656.901	493.682	0.111	0.257
-655.886	199.253	-0.031	0.048
-654.872	682.715	-0.055	-0.146
-653.857	734.397	-0.140	-0.379
-652.843	63.852	-0.232	-0.235
-651.828	-18.560	0.095	-0.060
-650.814	73.562	-0.227	0.240
-649.799	-42.075	0.146	-0.075
-648.784	-3.987	-0.173	0.121
-647.770	-200.000	-0.024	0.149
-646.755	378.059	0.085	-0.176
-645.741	-62.621	-0.229	-0.096
-644.726	-127.269	0.022	0.003
-643.711	129.275	-0.138	0.177
-642.697	63.042	-0.090	-0.091
-641.682	0.377	-0.137	-0.099
-640.668	79.833	0.060	0.065
-639.653	230.234	0.144	0.238
-638.638	234.749	0.133	0.222
-637.624	169.028	-0.199	0.286
-636.609	-20.970	0.026	-0.016
-635.595	226.656	-0.137	0.224
-634.580	-13.599	-0.275	-0.180
-633.565	12.894	-0.288	0.224
-632.551	171.949	0.100	-0.144
-631.536	-200.000	0.035	0.276
-630.522	-182.175	-0.198	-0.004
-629.507	-21.497	-0.100	-0.062
-628.492	131.203	-0.044	-0.057
-627.478	800.000	-0.007	-0.020
-626.463	379.334	0.043	0.089
-625.449	-44.327	0.385	-0.194
-624.434	-200.000	0.073	0.332
-623.419	181.362	-0.078	0.116
-622.405	84.217	0.189	-0.208
-621.390	-59.741	-0.054	0.024
-620.376	-93.405	0.256	0.071
-619.361	-200.000	0.002	0.108
-618.346	-25.142	-0.216	-0.129
-617.332	-56.401	0.138	-0.062
-616.317	800.000	0.152	-0.449
-615.303	-137.279	-0.300	-0.034
-614.288	-102.922	0.204	0.049
-613.273	800.000	0.106	0.337
-612.259	-101.901	-0.326	-0.079
-611.244	-110.744	-0.279	0.058
-610.230	47.844	-0.205	-0.193
-609.215	8.908	-0.114	0.086
-608.201	-200.000	-0.008	0.056
-607.186	2.309	0.083	0.061
-606.171	-200.000	0.005	0.140
-605.157	800.000	0.111	0.350
-604.142	574.194	-0.018	0.045
-603.128	-200.000	-0.010	0.160
-602.113	-114.076	-0.166	0.032
-601.098	-200.000	0.038	-0.238
-600.084	187.063	-0.096	0.145
-599.069	-133.187	0.212	0.027
-598.055	-200.000	0.033	-0.199
-597.040	78.035	0.100	-0.107
-596.025	-17.678	-0.283	-0.179
-595.011	173.906	0.208	0.303
-593.996	117.585	-0.081	0.100
-592.982	85.141	-0.173	0.191
-591.967	-155.127	-0.280	-0.018
-590.952	-2.073	-0.173	-0.122
-589.938	46.735	-0.214	-0.200
-588.923	726.945	-0.076	0.204
-587.909	23.873	-0.137	-0.113
-586.894	800.000	-0.040	0.177
-585.879	91.172	-0.041	-0.047
-584.865	18.479	0.086	0.069
-583.850	-38.428	-0.095	0.051
-582.836	800.000	-0.071	0.276
-581.821	59.171	0.129	0.127
-580.806	2.389	-0.242	0.176
-579.792	-200.000	0.021	0.187
-578.777	-36.461	0.267	0.145
-577.763	-200.000	0.001	-0.242
-576.748	800.000	-0.034	0.135
-575.733	-83.669	0.174	-0.056
-574.719	11.789	-0.040	-0.031
-573.704	-30.561	-0.146	-0.083
-572.690	-178.103	-0.377	-0.009
-571.675	109.683	-0.121	-0.146
-570.661	-57.006	0.167	-0.074
-569.646	-10.309	-0.230	-0.153
-568.631	-200.000	0.001	-0.015
-567.617	-94.507	0.372	0.102
-566.602	-200.000	-0.054	0.342
-565.588	-200.000	-0.033	0.174
-564.573	800.000	0.096	0.344
-563.558	348.948	0.202	0.401
-562.544	-200.000	-0.056	-0.358
-561.529	800.000	0.020	0.075
-560.515	122.034	-0.058	0.073
-559.500	499.119	-0.054	-0.125
-558.485	-5.033	0.085	-0.059
-557.471	-51.926	-0.282	-0.132
-556.456	800.000	-0.054	-0.186
-555.442	-133.353	0.274	0.035
-554.427	-68.580	-0.138	-0.054
-553.412	38.847	0.131	0.117
-552.398	500.118	-0.047	-0.109
-551.383	-133.111	0.029	-0.004
-550.369	-200.000	-0.023	-0.165
-549.354	-26.105	0.159	-0.094
-548.339	310.875	0.049	0.093
-547.325	37.691	0.149	0.133
-546.310	-120.658	0.491	-0.083
-545.296	-162.744	-0.290	-0.014
-544.281	47.080	-0.154	-0.144
-543.266	260.581	0.015	-0.025
-542.252	20.017	-0.105	-0.085
-541.237	98.218	-0.082	0.095
-540.223	-197.758	0.257	0.002
-539.208	-200.000	0.008	0.336
-538.193	800.000	-0.092	0.289
-537.179	-66.314	-0.011	0.005
-536.164	371.188	-0.044	0.089
-535.150	30.135	0.324	0.278
-534.135	-200.000	-0.009	0.058
-533.121	-112.177	0.427	0.086
-532.106	455.645	0.116	-0.258
-531.091	-153.188	-0.211	-0.015
-530.077	-157.697	0.118	0.007
-529.062	-69.305	-0.063	0.024
-528.048	-51.648	0.044	-0.021
-527.033	-134.092	0.449	-0.056
-526.018	94.741	0.047	-0.053
-525.004	-148.719	0.115	-0.009
-523.989	150.380	0.080	0.110
-522.975	-200.000	0.054	0.366
-521.960	109.312	0.161	-0.193
-520.945	332.698	-0.063	-0.123
-519.931	800.000	0.043	-0.169
-518.916	-34.870	0.126	0.069
-517.902	-154.474	-0.074	0.005
-516.887	264.429	-0.064	-0.112
-515.872	769.631	0.077	-0.209
-514.858	-200.000	-0.008	-0.065
-513.843	239.193	0.117	0.196
-512.829	-200.000	-0.035	-0.184
-511.814	-200.000	-0.031	0.256
-510.799	535.541	-0.036	-0.085
-509.785	791.064	-0.025	0.070
-508.770	638.411	-0.103	-0.264
-507.756	57.695	-0.116	-0.114
-506.741	129.529	-0.217	-0.278
-505.726	347.031	-0.203	-0.401
-504.712	-0.409	-0.200	-0.143
-503.697	-66.433	0.133	-0.053
-502.683	-144.252	0.134	-0.012
-501.668	204.068	0.119	0.186
-500.653	-104.511	0.319	0.074
-499.639	97.752	0.211	-0.243
-498.624	-200.000	-0.065	-0.287
-497.610	192.370	0.112	-0.170
-496.595	800.000	-0.059	0.204
-495.581	-200.000	0.065	0.301
-494.566	800.000	0.067	-0.247
-493.551	229.492	-0.126	-0.206
-492.537	97.115	-0.088	-0.101
-491.522	800.000	-0.057	0.232
-490.508	229.430	-0.144	0.236
-489.493	-103.068	0.094	0.022
-488.478	-22.324	-0.113	0.069
-487.464	-66.531	0.096	0.038
-486.449	-200.000	0.086	0.387
-485.435	270.016	0.052	0.092
-484.420	-53.421	-0.226	-0.104
-483.405	146.816	0.273	0.367
-482.391	-92.030	0.150	0.043
-481.376	-200.000	0.024	0.204
-480.362	603.661	0.026	0.066
-479.347	-122.236	0.550	-0.090
-478.332	-35.923	0.084	0.045
-477.318	547.486	0.062	0.149
-476.303	-200.000	0.019	0.191
-475.289	119.697	0.067	-0.083
-474.274	-24.526	0.214	-0.128
-473.259	14.650	0.203	-0.159
-472.245	-1.679	0.083	-0.059
-471.230	229.193	0.158	0.258
-470.216	-32.423	0.016	-0.009
-469.201	-32.299	-0.225	-0.126
-468.186	-200.000	-0.079	-0.515
-467.172	757.341	0.091	-0.246
-466.157	433.008	0.060	0.130
-465.143	-99.759	0.181	0.045
-464.128	-43.183	-0.260	0.132
-463.113	-108.126	0.387	-0.084
-462.099	-150.399	-0.319	0.025
-461.084	-200.000	0.007	0.030
-460.070	322.099	-0.045	0.086
-459.055	306.566	-0.032	0.059
-458.040	327.532	0.048	-0.093
-457.026	800.000	-0.156	-0.479
-456.011	9.997	0.193	-0.147
-454.997	-45.770	-0.291	-0.144
-453.982	-55.523	-0.271	0.122
-452.968	-37.083	0.046	0.025
-451.953	224.866	-0.133	-0.216
-450.938	153.680	-0.179	-0.245
-449.924	-111.824	-0.084	0.017
-448.909	800.000	-0.085	0.275
-447.895	147.479	0.241	0.325
-446.880	-200.000	0.008	0.123
-445.865	671.454	0.087	-0.225
-444.851	800.000	-0.083	-0.321
-443.836	-200.000	-0.015	0.223
-442.822	-200.000	-0.035	0.216
-441.807	118.647	-0.127	-0.156
-440.792	2.161	-0.259	-0.187
-439.778	164.771	0.077	-0.109
-438.763	-69.545	-0.280	-0.107
-437.749	180.540	0.084	0.123
-436.734	52.566	-0.116	-0.111
-435.719	-2.886	-0.283	-0.198
-434.705	-170.073	-0.290	-0.010
-433.690	-200.000	-0.027	-0.235
-432.676	800.000	0.046	-0.193
-431.661	31.645	-0.138	-0.119
-430.646	134.590	-0.062	-0.081
-429.632	-106.619	-0.037	0.008
-428.617	-200.000	0.001	0.196
-427.603	-124.521	-0.294	0.046
-426.588	-126.717	0.144	-0.021
-425.573	-131.364	-0.246	-0.033
-424.559	-42.722	-0.161	0.082
-423.544	-53.231	-0.117	-0.054
-422.530	504.192	0.070	0.162
-421.515	-28.447	0.079	0.046
-420.500	-10.100	-0.397	0.264
-419.486	-50.543	-0.056	-0.027
-418.471	282.968	0.028	-0.051
-417.457	-200.000	0.048	-0.243
-416.442	-200.000	-0.002	-0.090
-415.428	-82.356	0.178	0.058
-414.413	-76.775	-0.072	0.025
-413.398	-200.000	-0.001	-0.135
-412.384	-190.356	0.101	-0.001
-411.369	-138.254	-0.067	0.007
-410.355	75.324	0.187	-0.197
-409.340	-2.211	0.226	0.159
-408.325	5.997	0.123	0.091
-407.311	-200.000	-0.024	0.185
-406.296	490.329	0.174	0.398
-405.282	138.475	0.129	0.169
-404.267	192.836	0.112	-0.169
-403.252	-21.520	-0.078	0.048
-402.238	-32.593	-0.348	-0.193
-401.223	-123.850	0.256	-0.040
-400.209	-64.780	-0.198	-0.080
-399.194	233.013	-0.097	-0.160
-398.179	-76.052	0.112	0.040
-397.165	-3.918	-0.048	-0.033
-396.150	103.673	0.117	-0.137
-395.136	-200.000	0.004	0.054
-394.121	350.943	0.031	0.062
-393.106	-109.270	0.182	0.039
-392.092	668.968	0.060	-0.154
-391.077	-96.920	-0.281	-0.074
-390.063	43.250	-0.040	-0.037
-389.048	800.000	-0.098	0.280
-388.033	-11.835	0.133	0.087
-387.019	-108.196	-0.088	0.019
-386.004	800.000	0.063	-0.190
-384.990	3.336	0.100	-0.073
-383.975	-24.681	-0.145	0.086
-382.960	63.190	-0.040	-0.040
-381.946	800.000	0.036	0.113
-380.931	180.702	0.184	-0.270
-379.917	142.303	-0.186	0.246
-378.902	800.000	-0.032	0.135
-377.888	-200.000	0.009	0.165
-376.873	-92.960	-0.150	0.042
-375.858	-154.582	0.489	0.033
-374.844	-200.000	-0.011	0.230
-373.829	-200.000	0.074	-0.407
-372.815	403.758	0.063	0.132
-371.800	-119.901	-0.220	0.038
-370.785	800.000	0.024	-0.102
-369.771	-200.000	0.025	-0.275
-368.756	-65.708	-0.192	-0.077
-367.742	800.000	0.071	-0.276
-366.727	-62.428	0.301	-0.125
-365.712	800.000	0.015	-0.054
-364.698	-171.175	0.140	0.005
-363.683	59.514	-0.134	-0.132
-362.669	232.080	0.098	-0.160
-361.654	-99.969	-0.115	0.029
-360.639	-200.000	0.030	0.285
-359.625	-200.000	0.026	-0.172
-358.610	-125.256	-0.163	-0.025
-357.596	120.563	0.058	0.072
-356.581	-97.066	0.240	0.063
-355.566	-200.000	0.053	0.251
-354.552	-68.274	-0.047	0.018
-353.537	800.000	-0.054	-0.153
-352.523	-154.191	-0.024	0.002
-351.508	-200.000	-0.033	0.173
-350.493	26.818	-0.043	-0.036
-349.479	-177.478	-0.221	-0.005
-348.464	-200.000	-0.035	0.300
-347.450	-200.000	0.011	-0.228
-346.435	-77.701	0.186	-0.064
-345.420	-200.000	0.016	-0.502
-344.406	280.974	0.228	0.406
-343.391	-200.000	0.006	-0.240
-342.377	-81.736	-0.050	-0.016
-341.362	390.723	0.136	0.282
-340.348	67.375	0.261	-0.265
-339.333	-200.000	-0.005	-0.250
-338.318	136.831	-0.049	0.063
-337.304	52.533	-0.067	-0.064
-336.289	37.091	0.211	0.186
-335.275	151.157	-0.086	0.117
-334.260	-2.638	-0.171	0.119
-333.245	-200.000	0.005	0.077
-332.231	-120.668	0.184	-0.031
-331.216	800.000	-0.033	-0.095
-330.202	800.000	-0.152	0.444
-329.187	-200.000	-0.012	-0.080
-328.172	164.634	0.040	-0.057
-327.158	63.919	-0.113	-0.113
-326.143	-200.000	-0.035	0.190
-325.129	-121.223	-0.193	0.032
-324.114	-28.957	0.239	-0.137
-323.099	53.804	-0.329	-0.315
-322.085	159.396	-0.087	-0.121
-321.070	13.407	-0.170	-0.131
-320.056	-200.000	-0.009	0.197
-319.041	-64.028	-0.213	-0.087
-318.026	-119.619	-0.461	0.079
-317.012	126.338	0.098	-0.124
-315.997	-162.681	0.270	0.013
-314.983	-200.000	-0.014	0.146
-313.968	58.359	-0.247	-0.241
-312.953	370.168	0.127	0.256
-311.939	74.892	-0.278	-0.292
-310.924	196.047	0.037	-0.056
-309.910	-96.055	0.099	0.026
-308.895	-77.624	-0.285	-0.098
-307.880	-200.000	0.030	-0.316
-306.866	-12.669	0.300	-0.195
-305.851	50.258	0.162	0.153
-304.837	53.571	-0.204	-0.195
-303.822	-156.051	-0.062	-0.004
-302.807	94.566	0.096	0.108
-301.793	755.467	-0.090	-0.241
-300.778	-94.031	-0.187	0.051
-299.764	759.340	0.088	-0.238
-298.749	341.016	0.074	-0.144
-297.735	241.010	-0.106	0.176
-296.720	-167.608	-0.219	-0.009
-295.705	247.802	0.063	0.106
-294.691	-200.000	0.031	-0.182
-293.676	475.790	0.054	0.122
-292.662	-21.526	0.196	0.119
-291.647	54.462	0.094	0.090
-290.632	800.000	-0.080	0.299
-289.618	-131.723	0.279	-0.036
-288.603	-200.000	-0.034	-0.190
-287.589	-200.000	0.003	-0.226
-286.574	15.086	-0.181	0.141
-285.559	-23.850	0.257	-0.153
-284.545	40.048	0.147	-0.132
-283.530	77.674	0.095	0.100
-282.516	533.521	-0.134	-0.315
-281.501	-200.000	-0.019	-0.196
-280.486	-135.496	0.197	-0.023
-279.472	-9.528	-0.011	0.007
-278.457	382.135	-0.065	0.133
-277.443	800.000	-0.050	0.170
-276.428	-74.560	0.193	-0.069
-275.413	-200.000	-0.005	0.365
-274.399	78.038	-0.069	0.074
-273.384	146.255	-0.110	-0.146
-272.370	274.613	0.172	0.303
-271.355	-41.093	0.076	0.039
-270.340	-200.000	-0.040	-0.429
-269.326	-34.535	-0.216	-0.118
-268.311	-200.000	-0.006	-0.129
-267.297	329.598	0.049	0.094
-266.282	238.533	-0.176	0.291
-265.267	395.140	0.039	0.080
-264.253	191.228	-0.174	0.260
-263.238	-133.331	-0.141	-0.018
-262.224	166.141	-0.095	0.133
-261.209	61.016	0.247	-0.243
-260.195	226.484	-0.124	-0.200
-259.180	-131.844	0.122	-0.016
-258.165	72.847	-0.297	0.309
-257.151	288.731	-0.095	0.170
-256.136	800.000	-0.045	0.179
-255.122	-57.922	0.208	-0.090
-254.107	-68.522	0.130	0.050
-253.092	-143.571	-0.077	0.007
-252.078	11.747	0.139	-0.106
-251.063	27.783	0.327	0.273
-250.049	184.738	0.030	0.045
-249.034	-92.248	-0.082	0.023
-248.019	184.482	0.277	0.408
-247.005	-61.459	0.186	0.078
-245.990	-200.000	-0.052	0.230
-244.976	-74.751	0.058	-0.021
-243.961	-65.563	0.170	-0.068
-242.946	214.668	-0.278	0.438
-241.932	-151.527	-0.245	0.018
-240.917	-61.337	0.111	-0.046
-239.903	1.592	0.213	0.152
-238.888	102.019	-0.128	-0.148
-237.873	15.803	-0.185	-0.144
-236.859	-93.049	-0.245	-0.068
-235.844	-34.446	-0.183	0.100
-234.830	92.174	0.192	-0.215
-233.815	-50.400	0.392	-0.184
-232.800	-200.000	0.011	0.190
-231.786	800.000	-0.014	-0.062
-230.771	800.000	-0.064	0.221
-229.757	-79.255	0.246	-0.083
-228.742	30.191	0.370	0.313
-227.727	49.197	-0.260	0.243
-226.713	185.037	0.044	-0.065
-225.698	-200.000	-0.015	-0.343
-224.684	-200.000	0.029	-0.336
-223.669	-71.895	0.244	-0.090
-222.655	21.431	0.072	-0.058
-221.640	46.110	-0.148	-0.136
-220.625	-4.164	-0.144	-0.099
-219.611	-142.356	-0.108	0.011
-218.596	-67.201	0.314	0.123
-217.582	163.949	0.251	0.351
-216.567	-86.508	0.400	0.122
-215.552	3.558	0.216	0.156
-214.538	-200.000	-0.002	0.031
-213.523	-39.570	0.307	0.160
-212.509	31.695	-0.079	-0.067
-211.494	-152.113	-0.174	-0.013
-210.479	304.666	0.201	-0.369
-209.465	-200.000	0.042	-0.215
-208.450	40.478	0.162	-0.145
-207.436	-140.732	-0.195	-0.020
-206.421	168.695	-0.155	-0.219
-205.406	-200.000	0.006	-0.118
-204.392	-41.097	-0.305	-0.156
-203.377	-200.000	0.035	-0.242
-202.363	-45.556	0.152	-0.075
-201.348	-39.140	-0.142	-0.074
-200.333	-88.407	0.116	-0.034
-199.319	-90.669	0.187	-0.053
-198.304	19.523	-0.177	0.141
-197.290	5.438	-0.119	-0.087
-196.275	-80.113	-0.108	-0.036
-195.260	-39.370	-0.300	-0.156
-194.246	-133.024	-0.291	0.037
-193.231	-127.252	0.311	0.045
-192.217	-146.971	0.174	0.015
-191.202	110.067	0.134	-0.160
-190.187	191.006	0.140	0.208
-189.173	-104.161	-0.256	-0.059
-188.158	89.535	-0.121	-0.134
-187.144	85.080	0.256	0.279
-186.129	-200.000	0.002	-0.014
-185.114	-50.141	0.329	-0.154
-184.100	800.000	-0.097	-0.278
-183.085	9.172	-0.176	0.132
-182.071	-141.436	-0.318	-0.032
-181.056	11.591	-0.164	0.125
-180.042	200.918	-0.157	0.239
-179.027	-160.414	0.091	0.005
-178.012	-200.000	-0.007	0.120
-176.998	800.000	-0.073	-0.280
-175.983	-51.236	0.319	-0.148
-174.969	13.467	-0.068	0.052
-173.954	-8.950	0.199	-0.132
-172.939	-20.891	-0.194	0.117
-171.925	4.768	-0.123	0.090
-170.910	37.089	0.201	-0.176
-169.896	-25.879	0.138	0.080
-168.881	-200.000	-0.011	0.119
-167.866	-48.791	-0.434	0.206
-166.852	142.251	0.173	0.228
-165.837	-101.771	-0.069	0.016
-164.823	-124.987	0.228	0.035
-163.808	194.660	-0.229	0.344
-162.793	71.403	-0.195	-0.201
-161.779	85.622	0.154	-0.168
-160.764	65.298	0.228	-0.228
-159.750	270.886	0.098	-0.171
-158.735	45.623	-0.159	-0.145
-157.720	54.324	-0.174	0.166
-156.706	2.645	0.178	0.127
-155.691	336.131	-0.049	0.094
-154.677	212.748	0.041	0.063
-153.662	800.000	-0.058	-0.249
-152.647	40.811	0.088	-0.078
-151.633	-200.000	-0.026	0.382
-150.618	36.447	0.238	0.208
-149.604	17.991	0.269	-0.212
-148.589	-124.204	0.606	0.094
-147.574	60.933	-0.212	0.208
-146.560	-112.615	0.146	-0.029
-145.545	20.368	0.177	-0.141
-144.531	-171.818	0.420	0.014
-143.516	148.713	-0.133	-0.177
-142.502	-33.958	-0.200	0.109
-141.487	-200.000	0.051	0.415
-140.472	112.763	-0.199	0.238
-139.458	-108.820	-0.082	0.017
-138.443	281.689	-0.085	-0.151
-137.429	-106.212	0.244	0.054
-136.414	-44.621	0.136	-0.067
-135.399	-103.966	0.188	0.043
-134.385	265.424	-0.122	0.211
-133.370	-22.133	0.342	-0.205
-132.356	-58.663	0.307	0.132
-131.341	-200.000	0.001	-0.057
-130.326	271.883	0.094	-0.163
-129.312	800.000	-0.077	-0.215
-128.297	15.279	-0.222	0.172
-127.283	-30.359	0.081	-0.045
-126.268	-137.342	-0.059	0.007
-125.253	347.528	-0.112	-0.218
-124.239	-200.000	0.022	-0.192
-123.224	93.795	0.119	-0.133
-122.210	189.090	-0.239	0.354
-121.195	-25.999	0.133	-0.077
