DTS Sentinel unit serial number:	SN413079Multiplexer serial number:	ORYXHardware model number:	OX4-SRSoftware version number:	ORYX F/W v4.00 Oryx Data Collector v3.7.2.0data status	okinstallation	princeton_trtdifferential loss correction	single-endedforward channel	channel 2reverse channel	N/Adate	2019/09/15time	16:19:35forward acquisition time	60.00reverse acquisition time	0.00gamma	496.2192k internal	0.2287k external	0.2287temperature offset calibration	0.9939default loss term (dB/km)	0.3790temperature slope calibration	1.0000multiplexer offset coefficient	1.0000multiplexer slope coefficient	1.0000fibre end	0.00T internal ref (°C)	43.56T ext. ref 1 (°C)	5.49T ext. ref 2 (°C)	40.13length (m)	temperature (°C)	Stokes	anti-Stokes-747.200	26.419	-0.155	0.133
-746.185	11.239	0.266	0.209
-745.171	52.279	-0.019	-0.019
-744.156	35.315	0.039	0.035
-743.142	20.306	-0.197	-0.163
-742.127	0.492	-0.171	0.125
-741.112	41.794	-0.240	-0.223
-740.098	-54.704	0.198	0.092
-739.083	222.552	-0.075	0.124
-738.069	54.655	-0.077	0.076
-737.054	63.574	-0.183	-0.188
-736.039	-58.615	-0.428	-0.190
-735.025	101.790	-0.069	0.083
-734.010	-131.208	0.182	-0.025
-732.996	204.658	0.048	-0.076
-731.981	-200.000	-0.009	-0.105
-730.966	-85.627	0.346	-0.110
-729.952	-94.737	-0.080	-0.022
-728.937	-200.000	-0.042	0.394
-727.923	-200.000	-0.021	0.180
-726.908	-121.202	0.171	0.029
-725.894	16.216	0.062	0.050
-724.879	800.000	0.065	-0.269
-723.864	-200.000	-0.021	-0.099
-722.850	800.000	-0.168	0.585
-721.835	86.931	-0.217	0.246
-720.821	-200.000	-0.064	-0.465
-719.806	124.067	-0.156	-0.201
-718.791	-18.434	-0.325	-0.208
-717.777	361.810	-0.109	-0.224
-716.762	105.956	0.252	-0.305
-715.748	115.178	-0.062	-0.077
-714.733	800.000	0.037	-0.123
-713.718	-5.574	-0.227	-0.160
-712.704	6.444	0.330	-0.251
-711.689	-71.707	-0.024	-0.009
-710.675	-200.000	-0.023	-0.293
-709.660	32.111	0.201	0.178
-708.645	-151.014	0.244	0.019
-707.631	-71.272	-0.333	-0.128
-706.616	-36.120	-0.298	-0.165
-705.602	328.713	0.155	0.304
-704.587	-111.875	0.160	-0.033
-703.572	-42.508	0.076	0.040
-702.558	-10.445	0.004	0.003
-701.543	-34.246	-0.252	-0.142
-700.529	11.221	0.159	-0.125
-699.514	-124.771	0.244	0.039
-698.499	-76.353	-0.095	0.034
-697.485	378.403	0.070	-0.146
-696.470	-17.234	-0.182	0.117
-695.456	-30.808	-0.113	0.065
-694.441	78.077	0.102	-0.111
-693.426	12.325	0.108	-0.085
-692.412	-63.425	-0.319	-0.134
-691.397	-140.834	-0.266	0.028
-690.383	-161.311	-0.219	0.012
-689.368	242.204	-0.107	0.184
-688.354	-25.907	0.339	0.205
-687.339	-168.534	-0.357	-0.014
-686.324	-83.382	-0.041	-0.014
-685.310	-99.413	0.050	0.013
-684.295	321.486	-0.066	0.129
-683.281	213.657	-0.104	0.169
-682.266	-40.456	-0.278	-0.147
-681.251	-33.779	-0.223	-0.126
-680.237	-14.592	0.174	0.114
-679.222	-26.377	-0.245	0.147
-678.208	-185.826	-0.284	0.004
-677.193	-200.000	-0.002	-0.195
-676.178	-66.056	-0.353	0.144
-675.164	-200.000	-0.064	0.311
-674.149	118.983	0.120	-0.151
-673.135	-169.785	-0.169	-0.006
-672.120	15.085	-0.101	-0.081
-671.105	-200.000	0.011	0.134
-670.091	-23.290	0.137	-0.084
-669.076	66.324	-0.215	-0.223
-668.062	152.884	0.060	0.083
-667.047	-128.340	0.141	0.021
-666.032	389.125	-0.080	0.170
-665.018	248.528	0.169	-0.293
-664.003	-24.463	0.340	-0.207
-662.989	255.816	-0.077	-0.134
-661.974	301.955	0.032	0.060
-660.959	142.607	0.211	0.287
-659.945	-56.433	0.147	0.067
-658.930	800.000	-0.009	0.026
-657.916	96.791	-0.309	-0.362
-656.901	-16.555	-0.206	-0.133
-655.886	800.000	-0.002	0.007
-654.872	344.962	0.032	-0.064
-653.857	-200.000	-0.014	-0.068
-652.843	-68.402	0.180	-0.072
-651.828	-174.357	0.278	0.008
-650.814	91.743	0.166	-0.191
-649.799	56.257	0.158	-0.157
-648.784	-131.139	-0.168	-0.023
-647.770	59.452	0.171	-0.173
-646.755	375.651	0.056	-0.116
-645.741	-200.000	-0.033	-0.185
-644.726	196.783	-0.117	-0.183
-643.711	508.375	-0.086	-0.204
-642.697	-99.355	-0.341	0.088
-641.682	119.968	0.078	-0.099
-640.668	45.282	0.096	0.090
-639.653	-108.572	-0.313	-0.069
-638.638	13.130	-0.243	-0.192
-637.624	-200.000	-0.031	0.181
-636.609	-70.056	-0.230	0.089
-635.595	-38.866	0.097	0.052
-634.580	-200.000	-0.023	-0.163
-633.565	-8.909	0.052	-0.035
-632.551	-117.050	-0.306	-0.057
-631.536	26.180	-0.234	0.199
-630.522	-200.000	-0.052	-0.370
-629.507	15.753	0.062	0.050
-628.492	-105.965	-0.259	0.060
-627.478	-42.132	0.024	0.012
-626.463	-171.017	-0.162	-0.006
-625.449	726.906	-0.090	-0.244
-624.434	641.437	0.108	0.282
-623.419	-47.511	-0.398	0.197
-622.405	-13.875	-0.183	-0.121
-621.390	390.785	-0.075	0.159
-620.376	-200.000	0.010	0.151
-619.361	-0.718	0.045	-0.033
-618.346	212.528	0.145	-0.234
-617.332	624.402	0.078	-0.200
-616.317	129.879	-0.144	0.188
-615.303	-200.000	-0.011	0.113
-614.288	155.987	-0.062	0.088
-613.273	-200.000	0.018	0.194
-612.259	415.090	-0.087	-0.190
-611.244	279.235	0.180	-0.327
-610.230	461.763	0.171	-0.388
-609.215	-200.000	0.002	-0.097
-608.201	-200.000	0.051	0.488
-607.186	-75.047	-0.460	-0.168
-606.171	800.000	0.047	-0.147
-605.157	-77.905	-0.420	-0.148
-604.142	-200.000	0.000	0.097
-603.128	-200.000	0.009	0.177
-602.113	-34.481	0.079	-0.044
-601.098	-166.186	-0.179	0.008
-600.084	-200.000	0.024	0.123
-599.069	-200.000	0.026	-0.172
-598.055	-105.600	0.073	-0.017
-597.040	-41.234	0.240	-0.126
-596.025	17.482	-0.103	0.083
-595.011	-200.000	0.031	-0.157
-593.996	-113.770	-0.286	-0.057
-592.982	394.398	0.069	-0.146
-591.967	-6.857	-0.181	-0.125
-590.952	-72.534	0.138	0.052
-589.938	800.000	-0.046	-0.158
-588.923	40.683	-0.111	0.102
-587.909	-46.904	0.105	0.052
-586.894	18.439	0.108	-0.088
-585.879	-16.223	0.207	-0.134
-584.865	607.192	0.062	-0.158
-583.850	-51.471	-0.155	0.074
-582.836	46.623	0.330	-0.313
-581.821	-85.411	-0.231	0.073
-580.806	41.696	0.060	0.056
-579.792	-88.845	0.194	0.059
-578.777	-12.684	0.116	0.077
-577.763	221.675	-0.144	-0.237
-576.748	655.918	-0.168	0.439
-575.733	221.638	-0.133	-0.218
-574.719	-200.000	-0.003	0.103
-573.704	55.491	-0.128	0.126
-572.690	-101.084	-0.159	0.040
-571.675	-148.389	-0.277	-0.023
-570.661	-26.632	0.186	-0.111
-569.646	-118.143	-0.308	0.056
-568.631	129.737	0.127	0.165
-567.617	-118.643	0.363	0.065
-566.602	-130.667	-0.472	-0.065
-565.588	75.763	-0.036	-0.038
-564.573	-200.000	-0.001	-0.122
-563.558	-200.000	-0.067	-0.530
-562.544	800.000	-0.159	-0.570
-561.529	-200.000	-0.024	-0.138
-560.515	43.016	-0.189	-0.176
-559.500	15.532	-0.176	-0.141
-558.485	-56.060	-0.116	-0.052
-557.471	669.240	-0.042	-0.110
-556.456	-49.826	-0.222	-0.107
-555.442	-37.194	0.056	-0.031
-554.427	-70.903	-0.222	-0.085
-553.412	-28.553	0.191	0.112
-552.398	-200.000	0.091	-0.488
-551.383	290.637	0.133	0.246
-550.369	800.000	-0.018	-0.079
-549.354	-55.145	0.126	0.058
-548.339	800.000	0.087	0.332
-547.325	-92.388	0.189	0.054
-546.310	-200.000	0.081	-0.505
-545.296	-68.328	-0.271	-0.107
-544.281	105.257	0.199	-0.239
-543.266	155.152	0.130	0.183
-542.252	-182.496	0.295	0.006
-541.237	800.000	-0.058	-0.257
-540.223	-200.000	-0.059	-0.389
-539.208	-166.729	-0.148	0.006
-538.193	439.330	0.010	0.023
-537.179	-200.000	-0.024	0.245
-536.164	61.648	-0.125	0.127
-535.150	439.887	0.197	0.438
-534.135	-105.024	0.064	-0.015
-533.121	-44.760	0.104	0.053
-532.106	800.000	0.142	0.449
-531.091	-166.648	-0.446	-0.019
-530.077	285.331	0.096	0.177
-529.062	-80.273	-0.167	0.057
-528.048	-65.114	0.086	-0.035
-527.033	800.000	0.053	-0.212
-526.018	-103.426	0.213	0.051
-525.004	800.000	-0.073	0.228
-523.989	-200.000	0.008	0.077
-522.975	-129.206	-0.271	0.038
-521.960	-83.946	0.381	0.123
-520.945	-70.482	-0.240	0.092
-519.931	-43.013	-0.174	-0.090
-518.916	-200.000	0.004	0.102
-517.902	16.719	0.235	0.189
-516.887	202.347	0.199	0.312
-515.872	-200.000	0.003	0.042
-514.858	-50.913	0.050	-0.024
-513.843	800.000	-0.080	-0.309
-512.829	274.145	0.084	-0.152
-511.814	339.277	0.132	-0.262
-510.799	-53.904	-0.395	0.183
-509.785	93.785	-0.108	-0.124
-508.770	800.000	-0.097	-0.303
-507.756	48.349	-0.092	0.088
-506.741	800.000	0.041	-0.167
-505.726	-200.000	-0.021	0.120
-504.712	-141.277	-0.113	0.012
-503.697	-24.853	-0.311	0.188
-502.683	-200.000	-0.013	-0.119
-501.668	-33.353	-0.314	-0.176
-500.653	-64.700	-0.028	0.012
-499.639	-113.504	-0.212	-0.042
-498.624	-97.814	-0.185	0.048
-497.610	235.847	0.123	-0.206
-496.595	-62.434	0.152	0.064
-495.581	-125.166	0.292	0.045
-494.566	-106.596	0.337	-0.076
-493.551	-10.054	-0.054	-0.036
-492.537	-1.635	-0.355	-0.254
-491.522	140.804	-0.115	0.155
-490.508	45.459	0.212	-0.199
-489.493	-25.502	0.079	0.048
-488.478	377.127	0.110	0.228
-487.464	-200.000	-0.004	0.078
-486.449	800.000	0.082	-0.307
-485.435	-55.473	-0.174	-0.079
-484.420	97.723	0.136	0.159
-483.405	-126.272	0.124	-0.019
-482.391	355.301	-0.064	-0.130
-481.376	-98.551	-0.278	-0.072
-480.362	-200.000	-0.012	-0.276
-479.347	14.092	0.083	0.066
-478.332	27.276	0.296	0.253
-477.318	-200.000	-0.017	-0.086
-476.303	298.294	-0.176	-0.328
-475.289	-200.000	-0.006	-0.408
-474.274	123.945	-0.038	0.048
-473.259	-200.000	-0.003	0.049
-472.245	-200.000	0.033	0.165
-471.230	272.743	-0.113	-0.202
-470.216	145.278	-0.147	-0.200
-469.201	37.399	-0.189	-0.170
-468.186	-115.059	0.324	-0.062
-467.172	27.842	-0.073	-0.063
-466.157	-128.411	0.357	-0.051
-465.143	-59.036	-0.198	0.087
-464.128	310.390	-0.079	0.150
-463.113	242.495	-0.059	-0.100
-462.099	-200.000	-0.031	-0.240
-461.084	-185.345	-0.249	0.004
-460.070	-200.000	-0.004	0.159
-459.055	-82.606	-0.132	-0.044
-458.040	-97.082	0.147	-0.039
-457.026	-155.430	-0.196	-0.013
-456.011	-30.264	-0.205	-0.118
-454.997	-26.123	-0.065	0.039
-453.982	21.278	-0.099	-0.082
-452.968	70.294	0.111	0.117
-451.953	40.358	-0.039	0.035
-450.938	-200.000	0.005	0.141
-449.924	94.061	-0.204	0.235
-448.909	-200.000	-0.016	0.515
-447.895	-3.043	-0.087	-0.061
-446.880	-86.201	-0.013	-0.004
-445.865	-156.966	0.270	0.017
-444.851	-99.388	-0.098	0.025
-443.836	22.782	-0.082	-0.068
-442.822	25.570	-0.259	0.219
-441.807	-200.000	-0.190	0.001
-440.792	210.809	-0.017	-0.026
-439.778	-129.433	0.081	0.011
-438.763	192.156	-0.102	-0.157
-437.749	-24.593	0.171	-0.103
-436.734	-200.000	0.002	0.012
-435.719	138.343	0.030	0.040
-434.705	676.332	-0.108	0.286
-433.690	-127.311	-0.174	-0.026
-432.676	9.756	-0.109	-0.084
-431.661	488.586	-0.058	0.135
-430.646	-200.000	-0.027	0.222
-429.632	-91.308	0.077	0.022
-428.617	-124.951	0.234	0.037
-427.603	141.744	-0.121	-0.163
-426.588	-200.000	-0.009	-0.190
-425.573	52.139	-0.119	-0.115
-424.559	-186.477	0.351	0.005
-423.544	91.797	-0.141	0.160
-422.530	800.000	-0.057	0.221
-421.515	-12.643	-0.225	0.149
-420.500	148.328	0.067	0.092
-419.486	-83.233	0.334	0.109
-418.471	-200.000	-0.061	0.296
-417.457	-53.641	0.116	0.054
-416.442	74.491	-0.203	0.217
-415.428	-200.000	-0.024	-0.132
-414.413	40.076	0.210	-0.192
-413.398	45.682	0.169	-0.158
-412.384	284.855	0.084	0.152
-411.369	-57.411	0.070	-0.031
-410.355	-200.000	-0.031	0.327
-409.340	261.442	0.042	0.073
-408.325	-44.099	-0.285	-0.145
-407.311	-200.000	-0.047	0.224
-406.296	185.726	0.039	-0.059
-405.282	-107.726	0.124	0.027
-404.267	-200.000	0.009	-0.176
-403.252	221.423	0.081	0.132
-402.238	-97.298	0.261	0.069
-401.223	800.000	-0.032	0.140
-400.209	55.801	0.225	-0.221
-399.194	-66.108	0.269	-0.109
-398.179	-133.928	0.082	-0.010
-397.165	-112.071	0.288	0.059
-396.150	-200.000	-0.040	0.283
-395.136	-138.692	0.317	0.035
-394.121	578.187	0.065	-0.160
-393.106	147.320	0.149	0.203
-392.092	-51.284	-0.267	0.126
-391.077	-128.585	0.124	-0.018
-390.063	-153.872	0.117	-0.008
-389.048	-156.108	-0.128	-0.008
-388.033	8.937	-0.300	0.229
-387.019	314.370	0.023	0.043
-386.004	324.945	0.102	-0.198
-384.990	-129.921	0.086	-0.012
-383.975	-74.883	-0.478	-0.173
-382.960	71.811	-0.294	-0.310
-381.946	234.832	0.206	-0.343
-380.931	-200.000	-0.067	0.414
-379.917	-200.000	-0.077	0.360
-378.902	104.883	0.243	-0.289
-377.888	-94.635	0.252	0.069
-376.873	-139.041	0.237	-0.026
-375.858	-19.046	0.041	-0.026
-374.844	800.000	0.056	0.162
-373.829	-197.717	-0.259	-0.002
-372.815	-28.953	-0.200	-0.116
-371.800	-56.223	0.184	0.083
-370.785	344.050	-0.012	0.025
-369.771	800.000	0.019	-0.055
-368.756	800.000	0.045	-0.125
-367.742	-200.000	0.040	0.222
-366.727	-165.552	-0.114	0.005
-365.712	188.268	0.057	0.085
-364.698	-17.736	-0.201	0.128
-363.683	10.058	-0.152	0.117
-362.669	20.386	0.106	0.087
-361.654	1.920	-0.111	0.081
-360.639	-57.689	0.189	-0.083
-359.625	-52.041	0.261	0.123
-358.610	39.876	0.162	0.147
-357.596	-21.600	0.101	-0.062
-356.581	-88.062	0.201	0.061
-355.566	-67.077	0.095	-0.038
-354.552	201.632	-0.090	-0.141
-353.537	217.032	-0.102	-0.165
-352.523	316.686	0.143	0.274
-351.508	134.832	0.140	-0.183
-350.493	473.954	-0.079	-0.181
-349.479	-83.377	0.231	-0.075
-348.464	800.000	-0.095	0.276
-347.450	36.069	0.162	-0.144
-346.435	102.956	-0.222	-0.262
-345.420	160.924	0.104	-0.147
-344.406	417.714	0.101	-0.218
-343.391	-21.469	-0.105	-0.065
-342.377	525.155	0.087	0.207
-341.362	61.070	-0.072	-0.073
-340.348	195.968	0.226	0.347
-339.333	7.765	0.237	0.179
-338.318	-23.359	0.054	-0.033
-337.304	-200.000	0.007	-0.142
-336.289	583.149	0.042	0.104
-335.275	-200.000	-0.015	-0.126
-334.260	800.000	-0.065	-0.222
-333.245	-46.590	0.404	0.200
-332.231	-161.009	0.185	0.010
-331.216	-59.897	0.170	0.073
-330.202	5.153	0.078	-0.058
-329.187	-11.588	-0.323	-0.214
-328.172	7.721	-0.248	-0.187
-327.158	35.179	-0.372	0.329
-326.143	54.406	-0.195	0.189
-325.129	55.795	0.045	-0.044
-324.114	-129.274	0.008	-0.001
-323.099	-37.096	-0.311	0.168
-322.085	530.015	-0.088	-0.210
-321.070	-53.218	0.221	-0.102
-320.056	-200.000	-0.046	-0.270
-319.041	-200.000	0.025	-0.144
-318.026	-200.000	-0.045	-0.460
-317.012	13.544	-0.203	-0.159
-315.997	-173.576	0.314	-0.009
-314.983	-6.491	-0.378	0.260
-313.968	73.227	0.188	0.199
-312.953	-56.903	-0.083	0.037
-311.939	-200.000	0.060	0.311
-310.924	-10.526	0.286	-0.191
-309.910	246.404	0.257	-0.437
-308.895	-32.154	-0.302	-0.170
-307.880	156.207	-0.205	-0.285
-306.866	-182.651	0.099	0.002
-305.851	-20.530	-0.260	0.161
-304.837	509.863	0.054	0.126
-303.822	493.972	-0.075	-0.172
-302.807	-16.917	-0.111	-0.071
-301.793	-146.272	-0.176	0.016
-300.778	-158.325	0.305	-0.018
-299.764	-57.840	0.232	0.102
-298.749	-200.000	-0.026	-0.115
-297.735	190.100	-0.049	0.074
-296.720	-61.739	0.278	-0.117
-295.705	800.000	0.045	0.144
-294.691	95.162	0.010	0.011
-293.676	800.000	0.071	0.199
-292.662	11.479	0.110	0.085
-291.647	543.631	0.028	-0.066
-290.632	296.447	-0.152	0.280
-289.618	800.000	0.032	0.138
-288.603	47.195	-0.044	0.041
-287.589	-134.005	-0.347	0.043
-286.574	-200.000	0.042	-0.215
-285.559	-54.132	-0.134	-0.061
-284.545	-164.361	-0.250	-0.012
-283.530	-102.364	0.071	-0.017
-282.516	-130.429	0.180	0.025
-281.501	619.143	-0.144	0.364
-280.486	286.275	0.076	-0.138
-279.472	-200.000	0.008	0.275
-278.457	290.831	0.083	-0.151
-277.443	-200.000	0.073	-0.347
-276.428	-200.000	-0.011	0.241
-275.413	-123.674	0.070	-0.011
-274.399	-16.766	-0.204	0.130
-273.384	-176.028	0.156	-0.004
-272.370	-200.000	0.005	-0.243
-271.355	149.999	-0.109	-0.149
-270.340	261.752	0.107	0.186
-269.326	31.957	-0.198	-0.172
-268.311	-122.638	-0.381	-0.062
-267.297	298.841	-0.034	-0.062
-266.282	18.049	0.251	-0.201
-265.267	-113.121	0.072	0.014
-264.253	-200.000	-0.049	-0.223
-263.238	-58.082	0.054	-0.024
-262.224	166.165	0.050	0.072
-261.209	-18.312	-0.166	0.104
-260.195	-72.436	0.141	-0.052
-259.180	-116.267	0.271	-0.051
-258.165	-152.124	-0.198	-0.014
-257.151	800.000	-0.046	-0.147
-256.136	-12.668	0.209	0.137
-255.122	-46.656	-0.263	-0.129
-254.107	-25.065	-0.265	0.158
-253.092	-86.607	0.258	-0.079
-252.078	-105.783	0.297	0.068
-251.063	339.183	-0.069	0.136
-250.049	82.351	0.192	0.210
-249.034	800.000	-0.121	-0.354
-248.019	261.601	-0.114	-0.198
-247.005	658.701	-0.058	0.151
-245.990	800.000	0.107	0.371
-244.976	-168.940	0.118	-0.004
-243.961	800.000	-0.028	0.123
-242.946	-117.936	0.281	-0.051
-241.932	244.547	0.131	0.221
-240.917	63.668	0.069	0.070
-239.903	81.982	-0.033	0.035
-238.888	-42.665	0.249	0.128
-237.873	-175.352	-0.190	0.005
-236.859	-200.000	-0.006	0.075
-235.844	-165.784	0.420	-0.018
-234.830	75.660	0.107	0.113
-233.815	-200.000	-0.026	-0.153
-232.800	800.000	0.059	-0.188
-231.786	800.000	0.054	0.170
-230.771	24.963	0.172	0.144
-229.757	-144.598	-0.080	0.007
-228.742	-200.000	0.023	0.273
-227.727	-200.000	-0.003	-0.189
-226.713	-200.000	0.043	0.204
-225.698	-200.000	0.089	0.415
-224.684	204.692	0.049	-0.077
-223.669	-68.514	0.351	-0.137
-222.655	738.526	-0.114	0.309
-221.640	-68.781	0.294	0.114
-220.625	-75.924	0.127	0.045
-219.611	-107.431	0.090	0.020
-218.596	-153.756	-0.514	0.035
-217.582	-200.000	0.002	0.155
-216.567	33.779	0.188	-0.164
-215.552	-200.000	0.002	0.095
-214.538	-158.624	0.218	-0.013
-213.523	-109.754	-0.264	-0.056
-212.509	-138.178	-0.097	0.011
-211.494	-93.089	0.139	0.039
-210.479	-9.534	0.168	-0.113
-209.465	210.707	-0.072	0.113
-208.450	275.690	-0.066	0.117
-207.436	-0.379	-0.282	0.202
-206.421	800.000	-0.028	-0.105
-205.406	-150.869	0.089	-0.007
-204.392	-200.000	0.030	0.166
-203.377	-118.343	-0.242	0.043
-202.363	168.829	-0.114	0.164
-201.348	-15.688	0.374	0.239
-200.333	-124.277	0.258	-0.040
-199.319	-143.603	-0.125	0.012
-198.304	-200.000	0.022	-0.105
-197.290	-110.857	0.096	0.020
-196.275	-172.314	-0.296	0.009
-195.260	80.128	0.176	0.190
-194.246	47.582	0.191	-0.179
-193.231	800.000	0.060	0.198
-192.217	-0.901	-0.279	-0.198
-191.202	203.867	0.237	-0.368
-190.187	-46.864	0.285	0.140
-189.173	-38.464	0.161	-0.086
-188.158	83.120	0.165	0.180
-187.144	-200.000	-0.005	-0.083
-186.129	136.191	0.042	0.055
-185.114	-200.000	-0.042	0.323
-184.100	-111.314	-0.294	-0.060
-183.085	-200.000	0.016	0.186
-182.071	800.000	0.042	0.131
-181.056	-127.318	0.039	0.006
-180.042	-200.000	0.006	0.131
-179.027	54.251	-0.135	0.131
-178.012	800.000	-0.048	0.146
-176.998	-128.794	0.263	-0.037
-175.983	-200.000	0.019	0.270
-174.969	-62.989	0.170	0.070
-173.954	-72.469	0.221	0.082
-172.939	800.000	-0.033	0.133
-171.925	-104.871	0.212	0.049
-170.910	-99.303	0.185	-0.047
-169.896	-54.985	0.125	-0.057
-168.881	-200.000	-0.070	0.375
-167.866	169.717	0.037	0.052
-166.852	35.566	0.193	-0.170
-165.837	-58.031	-0.311	-0.136
-164.823	800.000	0.044	0.155
-163.808	30.097	-0.104	0.089
-162.793	37.933	-0.356	-0.317
-161.779	259.407	-0.088	-0.153
-160.764	-200.000	-0.003	0.225
-159.750	710.516	-0.023	-0.061
-158.735	-200.000	-0.011	-0.206
-157.720	-200.000	-0.052	0.438
-156.706	-100.647	0.121	-0.030
-155.691	800.000	0.056	0.176
-154.677	293.337	-0.087	0.159
-153.662	-108.390	0.425	-0.092
-152.647	311.828	-0.102	-0.192
-151.633	-70.691	0.348	-0.132
-150.618	80.393	0.031	-0.033
-149.604	-18.133	-0.210	-0.132
-148.589	792.398	-0.129	0.356
-147.574	78.462	-0.152	0.162
-146.560	683.106	0.122	-0.319
-145.545	-200.000	0.062	0.318
-144.531	276.368	-0.136	0.243
-143.516	-180.509	-0.315	-0.007
-142.502	-35.297	0.054	0.030
-141.487	429.844	-0.071	0.155
-140.472	323.658	0.066	0.127
-139.458	100.203	-0.161	-0.188
-138.443	-158.012	0.354	-0.021
-137.429	36.845	-0.142	-0.126
-136.414	5.948	0.224	-0.166
-135.399	483.962	-0.124	0.283
-134.385	800.000	0.141	-0.561
-133.370	3.814	0.090	0.066
-132.356	358.000	0.101	0.202
-131.341	-142.353	-0.087	0.009
-130.326	204.469	0.069	0.108
-129.312	-16.810	-0.036	0.023
-128.297	-78.441	-0.419	-0.144
-127.283	-92.033	0.314	0.089
-126.268	57.863	-0.190	-0.186
-125.253	-77.459	0.079	0.027
-124.239	432.895	0.022	0.047
-123.224	359.212	-0.159	0.317
-122.210	-113.110	0.344	0.068
-121.195	39.733	-0.109	0.098
