DTS Sentinel unit serial number:	SN413079Multiplexer serial number:	ORYXHardware model number:	OX4-SRSoftware version number:	ORYX F/W v4.00 Oryx Data Collector v3.7.2.0data status	okinstallation	princeton_trtdifferential loss correction	single-endedforward channel	channel 2reverse channel	N/Adate	2019/09/11time	20:53:11forward acquisition time	60.00reverse acquisition time	0.00gamma	496.2192k internal	0.2322k external	0.2322temperature offset calibration	1.0058default loss term (dB/km)	0.3790temperature slope calibration	1.0000multiplexer offset coefficient	1.0000multiplexer slope coefficient	1.0000fibre end	0.00T internal ref (°C)	36.87T ext. ref 1 (°C)	1.51T ext. ref 2 (°C)	30.88length (m)	temperature (°C)	Stokes	anti-Stokes-747.200	36.744	-0.236	0.211
-746.185	206.471	-0.171	0.269
-745.171	203.590	0.018	-0.028
-744.156	49.435	0.113	0.108
-743.142	-102.425	-0.383	0.093
-742.127	191.410	0.109	0.166
-741.112	-118.178	-0.243	0.044
-740.098	307.150	0.029	-0.054
-739.083	-200.000	-0.024	0.261
-738.069	180.090	-0.213	0.315
-737.054	-83.953	0.380	0.122
-736.039	625.262	-0.114	-0.291
-735.025	-200.000	-0.033	0.256
-734.010	135.498	-0.147	0.193
-732.996	-97.686	-0.163	0.043
-731.981	296.151	-0.110	-0.204
-730.966	-167.185	0.353	0.014
-729.952	-200.000	-0.002	0.176
-728.937	-149.895	-0.121	0.010
-727.923	-183.222	-0.065	0.001
-726.908	160.055	0.134	0.189
-725.894	-63.322	-0.320	-0.133
-724.879	47.818	-0.100	-0.094
-723.864	4.193	-0.096	0.071
-722.850	8.271	0.203	0.154
-721.835	800.000	-0.110	-0.357
-720.821	-143.680	-0.327	0.031
-719.806	-106.326	0.378	-0.085
-718.791	-8.605	0.102	0.069
-717.777	-78.654	-0.291	0.101
-716.762	39.000	-0.186	-0.168
-715.748	-200.000	0.037	-0.228
-714.733	138.092	0.112	0.149
-713.718	-200.000	0.042	-0.223
-712.704	-200.000	-0.026	0.217
-711.689	522.463	-0.146	0.345
-710.675	126.695	-0.191	-0.244
-709.660	800.000	0.101	-0.291
-708.645	153.598	-0.162	0.224
-707.631	-121.067	-0.061	0.010
-706.616	-75.200	-0.036	-0.013
-705.602	52.501	-0.339	-0.326
-704.587	-65.049	0.093	0.038
-703.572	-200.000	-0.022	-0.198
-702.558	-102.482	0.207	-0.050
-701.543	137.920	0.185	0.244
-700.529	-108.358	-0.394	-0.086
-699.514	-12.008	0.012	-0.008
-698.499	193.687	0.151	0.230
-697.485	575.073	-0.141	0.348
-696.470	-99.210	-0.184	-0.047
-695.456	65.083	0.202	-0.206
-694.441	109.035	0.035	-0.042
-693.426	-145.716	-0.063	-0.006
-692.412	-103.351	0.350	-0.083
-691.397	800.000	-0.071	-0.270
-690.383	-200.000	0.039	0.273
-689.368	800.000	0.048	-0.187
-688.354	-118.061	-0.220	0.040
-687.339	-200.000	-0.011	-0.216
-686.324	-3.144	0.153	0.108
-685.310	-200.000	-0.036	-0.379
-684.295	-35.382	-0.190	-0.104
-683.281	27.078	-0.064	0.054
-682.266	63.529	-0.142	0.144
-681.251	-25.801	-0.175	-0.104
-680.237	-133.595	0.171	-0.022
-679.222	-167.087	-0.398	-0.016
-678.208	571.970	-0.175	0.429
-677.193	38.865	-0.123	0.110
-676.178	-200.000	0.035	-0.215
-675.164	-123.558	-0.096	0.015
-674.149	-200.000	0.013	0.227
-673.135	-58.849	0.138	0.060
-672.120	-88.620	-0.058	0.017
-671.105	189.153	0.204	-0.308
-670.091	-200.000	-0.052	0.256
-669.076	82.093	-0.243	0.265
-668.062	388.644	0.014	-0.030
-667.047	-7.195	-0.188	-0.129
-666.032	-39.538	0.394	-0.208
-665.018	81.179	0.077	-0.084
-664.003	38.096	0.263	-0.235
-662.989	13.768	0.131	-0.102
-661.974	115.327	0.138	0.169
-660.959	5.966	0.142	0.106
-659.945	-200.000	-0.062	0.416
-658.930	402.334	0.093	-0.197
-657.916	105.039	-0.170	0.202
-656.901	35.090	0.077	-0.068
-655.886	-25.038	0.122	0.073
-654.872	-200.000	-0.020	0.161
-653.857	-200.000	0.007	0.281
-652.843	129.779	0.105	0.135
-651.828	-57.638	-0.203	0.090
-650.814	-22.757	0.219	0.133
-649.799	-175.525	-0.155	-0.004
-648.784	339.006	0.041	-0.080
-647.770	800.000	-0.107	0.370
-646.755	-3.975	-0.200	0.139
-645.741	370.176	0.110	0.225
-644.726	-1.655	-0.248	-0.176
-643.711	-154.923	0.314	-0.021
-642.697	-111.392	-0.037	0.008
-641.682	-21.818	0.303	0.186
-640.668	-116.158	-0.162	-0.030
-639.653	198.363	0.138	0.212
-638.638	2.478	-0.226	0.165
-637.624	-28.840	-0.079	-0.046
-636.609	17.714	0.242	0.194
-635.595	-151.219	0.160	0.012
-634.580	-97.880	-0.231	-0.060
-633.565	5.241	-0.168	0.125
-632.551	-17.023	-0.157	-0.100
-631.536	-131.877	0.197	0.026
-630.522	-200.000	0.063	0.299
-629.507	-200.000	-0.030	0.200
-628.492	-65.559	-0.243	-0.098
-627.478	-200.000	0.006	-0.309
-626.463	-200.000	-0.003	-0.059
-625.449	102.954	-0.307	0.361
-624.434	-33.852	0.351	-0.195
-623.419	151.209	-0.101	-0.138
-622.405	96.949	0.240	-0.277
-621.390	-120.288	0.401	-0.069
-620.376	-200.000	0.007	0.102
-619.361	-200.000	-0.009	0.083
-618.346	-43.687	-0.065	-0.033
-617.332	-27.484	-0.276	-0.161
-616.317	-84.636	-0.427	-0.135
-615.303	87.900	0.233	0.260
-614.288	-200.000	-0.272	-0.000
-613.273	-72.964	-0.398	0.147
-612.259	22.689	0.339	0.279
-611.244	-182.706	-0.109	0.002
-610.230	32.925	0.170	-0.148
-609.215	102.909	-0.106	0.124
-608.201	-200.000	-0.004	0.113
-607.186	-200.000	0.003	-0.199
-606.171	751.474	-0.093	-0.251
-605.157	-28.451	-0.369	0.214
-604.142	-200.000	-0.022	-0.153
-603.128	800.000	0.088	-0.340
-602.113	-68.030	-0.159	0.062
-601.098	38.856	-0.212	-0.190
-600.084	-200.000	-0.006	0.468
-599.069	181.759	-0.080	-0.118
-598.055	800.000	0.103	0.363
-597.040	-200.000	0.023	0.219
-596.025	-138.270	0.247	-0.027
-595.011	-200.000	0.068	0.303
-593.996	253.431	-0.219	0.376
-592.982	-154.573	0.264	0.018
-591.967	800.000	-0.056	0.215
-590.952	-126.078	0.249	-0.038
-589.938	-199.661	-0.283	0.001
-588.923	552.559	-0.011	0.027
-587.909	16.207	-0.029	-0.023
-586.894	376.003	-0.051	0.104
-585.879	475.412	-0.026	-0.059
-584.865	-200.000	-0.007	-0.116
-583.850	264.969	-0.113	-0.198
-582.836	-200.000	0.021	0.222
-581.821	58.424	-0.170	-0.167
-580.806	-51.697	0.123	-0.058
-579.792	253.801	-0.138	0.237
-578.777	-28.116	-0.082	0.048
-577.763	108.671	0.098	0.117
-576.748	-23.352	-0.270	-0.163
-575.733	19.384	-0.153	-0.123
-574.719	-95.186	-0.074	0.020
-573.704	-105.036	-0.264	0.061
-572.690	-159.523	-0.293	0.016
-571.675	96.101	0.205	-0.235
-570.661	-180.691	0.277	0.006
-569.646	-26.537	-0.087	-0.051
-568.631	98.616	0.068	-0.079
-567.617	-84.880	0.187	0.059
-566.602	226.361	-0.096	-0.156
-565.588	-200.000	0.027	-0.134
-564.573	-65.748	-0.291	-0.117
-563.558	-197.109	0.157	0.001
-562.544	-200.000	0.069	0.307
-561.529	800.000	0.032	0.122
-560.515	-23.147	0.205	0.124
-559.500	203.975	-0.160	0.248
-558.485	-1.387	-0.119	0.084
-557.471	16.977	-0.115	0.091
-556.456	800.000	-0.070	0.308
-555.442	-200.000	-0.016	-0.147
-554.427	29.280	0.209	-0.178
-553.412	-115.399	0.380	-0.072
-552.398	-83.162	0.162	0.052
-551.383	63.876	0.089	-0.090
-550.369	-5.288	-0.177	0.122
-549.354	-165.616	0.280	-0.012
-548.339	800.000	0.041	0.133
-547.325	-200.000	0.006	0.092
-546.310	800.000	0.087	-0.279
-545.296	500.163	-0.153	-0.353
-544.281	302.428	-0.206	-0.383
-543.266	-39.196	0.289	0.152
-542.252	571.627	0.085	0.207
-541.237	249.704	-0.060	0.103
-540.223	-200.000	0.078	0.357
-539.208	-113.417	-0.125	-0.024
-538.193	221.093	0.052	0.083
-537.179	-56.754	-0.177	-0.078
-536.164	-54.829	0.348	0.158
-535.150	800.000	0.032	-0.097
-534.135	-114.823	0.180	0.034
-533.121	-141.725	-0.314	-0.032
-532.106	-200.000	-0.035	-0.166
-531.091	-200.000	-0.020	-0.321
-530.077	800.000	0.091	-0.310
-529.062	-200.000	0.030	-0.293
-528.048	800.000	0.041	0.123
-527.033	5.896	0.027	0.020
-526.018	800.000	0.007	0.026
-525.004	-200.000	0.005	0.221
-523.989	-10.882	-0.376	-0.249
-522.975	-27.233	-0.325	0.190
-521.960	-167.168	0.147	0.006
-520.945	-75.898	-0.392	0.139
-519.931	63.273	0.103	0.103
-518.916	-107.301	0.282	-0.062
-517.902	-53.529	-0.306	0.140
-516.887	403.911	0.138	0.291
-515.872	145.933	0.071	0.096
-514.858	650.534	0.018	0.045
-513.843	159.651	0.115	-0.161
-512.829	101.361	-0.249	0.291
-511.814	-157.468	-0.278	-0.017
-510.799	658.092	0.091	0.233
-509.785	119.209	-0.087	0.108
-508.770	-200.000	-0.041	-0.236
-507.756	-128.675	-0.392	-0.055
-506.741	-200.000	-0.001	-0.140
-505.726	101.722	-0.176	-0.205
-504.712	285.918	-0.069	-0.125
-503.697	-80.883	-0.279	-0.093
-502.683	800.000	0.033	0.110
-501.668	211.999	-0.070	0.111
-500.653	-200.000	-0.024	-0.255
-499.639	311.274	-0.081	-0.153
-498.624	58.847	0.228	-0.225
-497.610	-38.593	0.263	-0.139
-496.595	-98.796	0.279	0.071
-495.581	-94.757	0.206	-0.056
-494.566	-46.377	-0.174	0.086
-493.551	588.717	-0.046	0.115
-492.537	195.587	-0.168	0.256
-491.522	65.357	-0.186	0.188
-490.508	-143.657	0.205	-0.019
-489.493	704.529	0.099	-0.260
-488.478	-133.661	-0.037	0.005
-487.464	203.942	-0.051	0.079
-486.449	-58.424	-0.299	0.130
-485.435	-200.000	-0.007	-0.155
-484.420	31.434	0.115	0.098
-483.405	-6.398	-0.129	-0.088
-482.391	-200.000	-0.001	-0.186
-481.376	800.000	0.027	-0.094
-480.362	-59.641	-0.075	-0.032
-479.347	-139.626	-0.180	-0.019
-478.332	105.268	0.154	-0.182
-477.318	-200.000	-0.009	0.134
-476.303	-200.000	-0.018	-0.127
-475.289	304.084	-0.100	-0.185
-474.274	-24.823	-0.181	0.107
-473.259	-200.000	0.015	-0.090
-472.245	-105.462	-0.069	-0.016
-471.230	133.107	-0.052	0.067
-470.216	109.911	-0.198	0.237
-469.201	-98.719	-0.128	-0.033
-468.186	-200.000	0.010	0.166
-467.172	-81.948	-0.087	-0.028
-466.157	-200.000	-0.020	0.121
-465.143	-145.864	0.131	-0.012
-464.128	14.651	-0.276	0.216
-463.113	-93.738	0.314	-0.086
-462.099	112.420	0.057	0.069
-461.084	266.268	0.066	0.115
-460.070	-200.000	0.010	0.128
-459.055	-200.000	0.093	-0.435
-458.040	13.205	0.332	0.257
-457.026	330.336	0.126	-0.241
-456.011	-40.238	-0.197	-0.102
-454.997	226.359	-0.147	-0.238
-453.982	-46.612	0.064	0.031
-452.968	140.867	0.227	0.299
-451.953	-41.789	-0.338	-0.173
-450.938	-92.722	0.267	0.075
-449.924	-63.373	0.052	0.021
-448.909	223.950	-0.023	0.038
-447.895	272.391	-0.083	-0.147
-446.880	-22.337	0.122	0.074
-445.865	105.261	0.103	-0.122
-444.851	612.604	0.055	-0.138
-443.836	-185.265	-0.353	0.005
-442.822	-53.251	0.345	0.158
-441.807	-200.000	0.021	0.138
-440.792	51.948	-0.195	-0.185
-439.778	13.812	0.293	0.228
-438.763	86.534	-0.086	-0.094
-437.749	530.894	0.124	-0.292
-436.734	-131.844	-0.456	-0.060
-435.719	-95.762	0.148	0.040
-434.705	-200.000	-0.024	-0.197
-433.690	-200.000	0.074	0.333
-432.676	98.503	-0.105	0.121
-431.661	300.304	-0.041	0.076
-430.646	-200.000	0.034	-0.241
-429.632	-89.686	0.129	-0.038
-428.617	-37.286	0.236	0.126
-427.603	38.235	-0.216	0.192
-426.588	0.292	0.186	0.132
-425.573	-200.000	-0.006	-0.322
-424.559	-157.876	-0.363	0.021
-423.544	-200.000	-0.006	0.084
-422.530	583.477	-0.096	-0.235
-421.515	-72.502	0.174	-0.064
-420.500	800.000	0.072	-0.200
-419.486	800.000	-0.083	0.349
-418.471	800.000	0.031	-0.087
-417.457	-63.650	-0.366	0.150
-416.442	-124.846	-0.022	0.003
-415.428	11.003	-0.199	0.152
-414.413	67.720	0.216	-0.220
-413.398	-200.000	-0.018	0.144
-412.384	-200.000	-0.006	-0.158
-411.369	186.349	-0.056	-0.084
-410.355	299.159	-0.091	-0.168
-409.340	191.258	-0.147	-0.221
-408.325	-95.293	-0.087	-0.023
-407.311	515.588	-0.001	0.003
-406.296	-143.201	-0.044	-0.004
-405.282	-68.694	0.233	0.090
-404.267	-77.370	-0.191	-0.066
-403.252	-83.624	-0.211	-0.067
-402.238	800.000	-0.052	-0.190
-401.223	-105.297	-0.286	0.065
-400.209	33.530	-0.103	-0.089
-399.194	-200.000	0.043	-0.220
-398.179	-52.833	-0.100	-0.046
-397.165	-10.609	0.274	0.181
-396.150	66.194	0.062	-0.063
-395.136	95.892	-0.079	0.090
-394.121	-23.530	0.113	0.068
-393.106	-200.000	-0.040	0.465
-392.092	-24.040	0.172	0.103
-391.077	-47.514	-0.135	0.066
-390.063	-173.941	0.169	0.005
-389.048	-36.703	-0.172	0.092
-388.033	60.809	-0.172	0.170
-387.019	800.000	0.017	0.053
-386.004	-4.860	-0.124	-0.085
-384.990	156.249	-0.162	0.222
-383.975	321.227	-0.093	0.176
-382.960	672.252	-0.088	-0.228
-381.946	380.346	0.137	-0.280
-380.931	800.000	-0.104	-0.317
-379.917	-92.410	-0.324	-0.091
-378.902	50.774	0.032	-0.030
-377.888	-200.000	0.014	-0.276
-376.873	510.898	0.099	-0.229
-375.858	800.000	0.090	-0.380
-374.844	-200.000	0.001	-0.097
-373.829	184.249	-0.199	0.293
-372.815	575.198	0.114	0.276
-371.800	-134.084	-0.548	-0.067
-370.785	800.000	0.049	0.167
-369.771	-6.546	0.012	0.008
-368.756	-161.378	-0.222	-0.011
-367.742	112.474	-0.037	0.045
-366.727	335.321	-0.102	0.196
-365.712	127.815	-0.169	0.214
-364.698	-105.615	0.275	0.062
-363.683	-17.585	-0.135	0.084
-362.669	-200.000	-0.030	0.180
-361.654	800.000	-0.111	0.308
-360.639	242.229	-0.183	-0.305
-359.625	-161.980	-0.222	0.011
-358.610	-77.824	-0.252	-0.087
-357.596	54.924	-0.143	-0.137
-356.581	252.007	0.130	-0.220
-355.566	-84.165	-0.060	-0.019
-354.552	-31.365	0.189	0.106
-353.537	-200.000	-0.006	0.191
-352.523	-59.981	0.115	0.049
-351.508	7.836	-0.137	-0.102
-350.493	-200.000	0.043	-0.301
-349.479	299.954	-0.042	-0.077
-348.464	-138.933	-0.341	-0.037
-347.450	-200.000	-0.019	-0.162
-346.435	-143.538	-0.237	-0.022
-345.420	-200.000	0.014	0.111
-344.406	-102.552	0.479	-0.114
-343.391	-105.248	-0.365	-0.083
-342.377	-92.073	0.198	0.056
-341.362	800.000	0.060	0.207
-340.348	-35.829	0.106	-0.057
-339.333	-110.141	0.303	-0.063
-338.318	403.224	-0.086	-0.179
-337.304	800.000	0.030	-0.112
-336.289	-97.749	0.420	-0.108
-335.275	341.291	-0.083	-0.161
-334.260	-103.818	-0.287	0.067
-333.245	-4.699	0.259	-0.178
-332.231	498.706	0.044	-0.100
-331.216	102.406	-0.107	-0.125
-330.202	800.000	0.106	0.306
-329.187	-72.030	-0.120	-0.044
-328.172	319.554	-0.141	-0.266
-327.158	44.752	-0.189	0.173
-326.143	-84.806	-0.078	-0.024
-325.129	-94.583	0.192	-0.052
-324.114	-46.536	0.131	-0.064
-323.099	105.188	-0.143	-0.168
-322.085	-51.584	-0.225	-0.104
-321.070	94.947	0.249	-0.282
-320.056	119.415	0.102	-0.125
-319.041	-11.728	-0.225	-0.147
-318.026	90.454	0.052	0.058
-317.012	-200.000	0.002	0.011
-315.997	-134.091	0.100	0.012
-314.983	-62.684	0.477	0.197
-313.968	-57.457	0.086	-0.038
-312.953	800.000	-0.094	0.382
-311.939	5.463	-0.065	0.048
-310.924	-26.216	0.100	0.059
-309.910	24.088	-0.122	0.100
-308.895	-200.000	0.058	0.369
-307.880	-200.000	-0.003	0.277
-306.866	200.827	0.067	0.102
-305.851	-200.000	0.015	0.119
-304.837	-67.830	0.314	-0.122
-303.822	69.104	0.268	-0.274
-302.807	-129.490	0.545	-0.075
-301.793	-200.000	0.004	0.098
-300.778	112.400	-0.145	0.174
-299.764	678.874	0.148	-0.384
-298.749	-90.429	0.175	0.050
-297.735	470.926	-0.067	-0.149
-296.720	257.113	-0.072	-0.123
-295.705	-200.000	0.011	-0.285
-294.691	-171.553	0.115	-0.004
-293.676	85.109	-0.188	-0.205
-292.662	140.276	0.093	-0.122
-291.647	-114.887	0.113	-0.021
-290.632	-113.105	-0.287	0.056
-289.618	-200.000	0.003	0.053
-288.603	-17.194	0.196	0.123
-287.589	43.582	0.269	0.244
-286.574	-200.000	0.021	0.142
-285.559	58.641	0.205	-0.200
-284.545	-49.843	-0.052	-0.024
-283.530	83.158	0.232	0.251
-282.516	123.586	0.040	0.050
-281.501	543.824	-0.065	0.153
-280.486	294.708	0.114	0.207
-279.472	-200.000	0.019	0.096
-278.457	86.113	0.259	-0.283
-277.443	-12.214	-0.237	-0.154
-276.428	800.000	-0.056	-0.220
-275.413	-14.596	-0.136	-0.086
-274.399	-6.463	-0.107	0.072
-273.384	760.491	0.127	-0.342
-272.370	800.000	-0.051	0.208
-271.355	-87.571	-0.099	0.030
-270.340	-110.611	-0.368	0.076
-269.326	-23.064	0.122	-0.073
-268.311	-200.000	-0.032	-0.213
-267.297	343.300	0.112	0.217
-266.282	-29.787	-0.230	-0.130
-265.267	-59.789	-0.085	-0.036
-264.253	55.755	-0.185	-0.178
-263.238	136.146	-0.048	0.062
-262.224	205.489	0.079	-0.122
-261.209	37.334	0.149	-0.131
-260.195	-200.000	0.005	0.156
-259.180	-26.738	0.193	-0.112
-258.165	772.601	-0.058	-0.157
-257.151	263.460	-0.031	-0.053
-256.136	621.484	0.107	0.267
-255.122	-200.000	-0.002	-0.037
-254.107	-200.000	0.020	0.232
-253.092	181.973	0.048	0.069
-252.078	42.778	0.205	0.185
-251.063	376.625	-0.078	-0.157
-250.049	-169.555	-0.085	-0.003
-249.034	-104.604	0.157	-0.036
-248.019	-156.088	0.179	-0.011
-247.005	-108.009	-0.309	-0.066
-245.990	-140.646	0.216	0.022
-244.976	800.000	-0.056	-0.237
-243.961	-105.471	0.305	-0.069
-242.946	-169.218	0.215	-0.008
-241.932	451.462	-0.060	0.130
-240.917	495.546	-0.105	0.238
-239.903	115.836	0.193	-0.234
-238.888	-121.842	0.035	0.006
-237.873	111.267	0.131	0.157
-236.859	-78.904	0.125	-0.042
-235.844	-200.000	-0.029	-0.143
-234.830	9.602	-0.176	0.132
-233.815	143.756	0.265	0.349
-232.800	-111.986	0.363	-0.072
-231.786	-200.000	0.004	-0.191
-230.771	-200.000	-0.001	-0.236
-229.757	-13.581	0.437	-0.280
-228.742	-200.000	0.007	-0.278
-227.727	800.000	0.106	0.360
-226.713	232.857	0.222	0.362
-225.698	-127.801	0.221	0.031
-224.684	-82.602	-0.055	-0.018
-223.669	43.439	-0.092	0.083
-222.655	518.035	-0.068	0.158
-221.640	-79.618	-0.144	0.048
-220.625	-28.606	0.116	0.066
-219.611	-200.000	-0.008	0.066
-218.596	-200.000	-0.001	0.261
-217.582	-34.167	0.366	0.199
-216.567	-101.866	-0.207	-0.050
-215.552	11.699	0.270	-0.205
-214.538	800.000	0.024	0.093
-213.523	-200.000	-0.029	0.386
-212.509	39.998	0.092	0.082
-211.494	-43.363	0.171	-0.085
-210.479	-200.000	0.029	-0.197
-209.465	-119.211	-0.083	0.014
-208.450	73.098	0.085	-0.088
-207.436	-133.856	0.043	-0.005
-206.421	-200.000	0.009	0.062
-205.406	-58.854	-0.308	0.132
-204.392	41.753	0.118	-0.106
-203.377	177.500	0.167	-0.241
-202.363	-30.189	-0.146	0.082
-201.348	-82.797	0.230	0.074
-200.333	130.029	-0.016	0.020
-199.319	477.609	-0.086	0.192
-198.304	800.000	0.042	0.169
-197.290	800.000	-0.060	-0.205
-196.275	20.469	0.061	-0.049
-195.260	-200.000	0.057	0.288
-194.246	236.510	-0.092	0.150
-193.231	162.058	-0.056	0.077
-192.217	-19.302	0.206	-0.127
-191.202	-200.000	0.012	-0.092
-190.187	172.791	0.186	-0.264
-189.173	173.261	0.170	-0.243
-188.158	-23.718	-0.234	0.139
-187.144	11.649	-0.199	0.151
-186.129	-155.851	0.098	0.006
-185.114	-100.956	0.168	0.041
-184.100	12.927	-0.085	0.065
-183.085	72.824	-0.209	0.216
-182.071	-200.000	0.025	-0.137
-181.056	353.661	0.077	-0.151
-180.042	-200.000	0.023	0.136
-179.027	445.766	-0.083	0.180
-178.012	-98.244	-0.102	-0.026
-176.998	-200.000	0.020	-0.269
-175.983	-99.616	0.148	-0.037
-174.969	-9.571	0.217	0.143
-173.954	397.972	0.060	0.123
-172.939	103.998	0.220	-0.255
-171.925	-151.181	0.222	0.016
-170.910	-114.762	0.235	-0.044
-169.896	-93.678	0.304	-0.083
-168.881	64.461	0.065	-0.065
-167.866	-87.186	0.103	0.031
-166.852	-61.329	-0.205	0.085
-165.837	739.728	-0.067	-0.178
-164.823	-200.000	-0.024	0.460
-163.808	-200.000	0.039	-0.202
-162.793	-91.427	-0.360	-0.102
-161.779	594.233	0.136	-0.331
-160.764	-200.000	-0.027	-0.147
-159.750	-95.690	0.332	-0.088
-158.735	-117.350	-0.491	0.088
-157.720	800.000	0.120	0.377
-156.706	800.000	-0.048	0.158
-155.691	-200.000	0.019	0.196
-154.677	36.589	0.052	-0.045
-153.662	628.015	0.115	-0.287
-152.647	-200.000	-0.041	-0.226
-151.633	135.806	0.272	-0.350
-150.618	166.534	0.159	-0.223
-149.604	-94.290	0.227	0.061
-148.589	252.275	0.073	-0.123
-147.574	268.904	0.074	0.128
-146.560	42.669	-0.260	0.234
-145.545	428.143	-0.164	-0.350
-144.531	-200.000	-0.019	-0.160
-143.516	-200.000	-0.002	0.137
-142.502	-78.027	0.243	0.082
-141.487	-144.895	-0.135	-0.012
-140.472	34.670	0.118	-0.101
-139.458	-83.834	-0.193	-0.061
-138.443	-200.000	-0.020	-0.163
-137.429	-143.307	-0.200	0.019
-136.414	267.667	0.066	-0.114
-135.399	125.316	0.037	-0.046
-134.385	268.480	-0.084	-0.145
-133.370	-200.000	-0.038	0.312
-132.356	-144.594	-0.306	-0.028
-131.341	-30.046	0.081	-0.045
-130.326	549.785	-0.070	0.166
-129.312	800.000	0.025	0.101
-128.297	-70.936	-0.209	-0.078
-127.283	-200.000	-0.063	0.421
-126.268	-96.562	0.321	0.084
-125.253	214.891	0.203	-0.317
-124.239	800.000	-0.080	0.237
-123.224	-126.851	-0.251	-0.037
-122.210	450.464	0.059	0.128
