DTS Sentinel unit serial number:	SN413079Multiplexer serial number:	ORYXHardware model number:	OX4-SRSoftware version number:	ORYX F/W v4.00 Oryx Data Collector v3.7.2.0data status	okinstallation	princeton_trtdifferential loss correction	single-endedforward channel	channel 2reverse channel	N/Adate	2019/09/18time	07:11:35forward acquisition time	60.00reverse acquisition time	0.00gamma	496.2192k internal	0.2349k external	0.2349temperature offset calibration	0.9986default loss term (dB/km)	0.3790temperature slope calibration	1.0000multiplexer offset coefficient	1.0000multiplexer slope coefficient	1.0000fibre end	0.00T internal ref (°C)	23.17T ext. ref 1 (°C)	0.19T ext. ref 2 (°C)	17.30length (m)	temperature (°C)	Stokes	anti-Stokes-747.200	103.787	-0.037	-0.044
-746.185	-200.000	-0.003	0.115
-745.171	288.668	0.099	-0.180
-744.156	-200.000	0.010	-0.348
-743.142	760.933	0.024	-0.065
-742.127	800.000	0.060	0.212
-741.112	-191.335	0.222	0.002
-740.098	342.435	-0.044	0.087
-739.083	-50.034	0.167	0.079
-738.069	-26.699	0.234	-0.137
-737.054	213.356	0.146	-0.230
-736.039	142.455	-0.094	-0.124
-735.025	232.731	0.139	0.227
-734.010	-86.766	-0.187	-0.057
-732.996	-40.391	0.034	0.018
-731.981	27.881	-0.254	0.214
-730.966	800.000	-0.096	-0.272
-729.952	425.304	-0.125	-0.268
-728.937	-200.000	0.026	-0.247
-727.923	-200.000	0.048	0.352
-726.908	208.792	-0.033	-0.052
-725.894	392.615	-0.084	-0.173
-724.879	-18.004	0.306	-0.192
-723.864	147.560	-0.090	0.121
-722.850	498.404	-0.066	0.152
-721.835	-77.986	0.190	-0.065
-720.821	-13.063	0.179	0.116
-719.806	297.317	-0.138	0.253
-718.791	-123.923	-0.162	0.025
-717.777	110.789	-0.091	-0.110
-716.762	-200.000	-0.009	-0.198
-715.748	-200.000	-0.040	0.312
-714.733	-200.000	0.000	-0.066
-713.718	-200.000	0.050	0.355
-712.704	95.593	-0.070	-0.080
-711.689	286.841	-0.157	-0.282
-710.675	800.000	0.092	0.283
-709.660	-131.357	-0.281	0.037
-708.645	-13.610	-0.076	-0.049
-707.631	112.714	0.122	-0.147
-706.616	-104.396	-0.144	0.033
-705.602	267.370	0.204	0.356
-704.587	800.000	0.054	-0.206
-703.572	366.562	-0.055	0.111
-702.558	-40.603	0.120	0.062
-701.543	800.000	0.068	-0.199
-700.529	6.693	-0.159	-0.118
-699.514	368.797	-0.102	-0.205
-698.499	-15.482	0.216	-0.138
-697.485	-50.275	-0.261	-0.123
-696.470	-30.676	0.211	0.119
-695.456	-200.000	0.019	-0.106
-694.441	800.000	0.093	-0.281
-693.426	89.209	-0.227	0.253
-692.412	70.805	0.156	0.161
-691.397	474.663	0.137	-0.309
-690.383	-17.295	0.112	-0.071
-689.368	-30.791	-0.362	-0.204
-688.354	643.899	-0.050	-0.128
-687.339	-58.059	0.133	-0.058
-686.324	149.875	-0.138	-0.187
-685.310	-56.638	0.242	-0.107
-684.295	800.000	0.015	0.042
-683.281	788.709	-0.160	0.437
-682.266	-200.000	-0.041	-0.188
-681.251	-132.562	0.116	0.015
-680.237	23.776	0.249	0.205
-679.222	535.960	-0.023	-0.053
-678.208	-200.000	-0.022	-0.439
-677.193	21.388	-0.074	0.060
-676.178	800.000	-0.086	-0.334
-675.164	-23.130	0.147	0.088
-674.149	-38.919	-0.094	-0.049
-673.135	-200.000	-0.333	0.001
-672.120	-120.369	0.212	0.036
-671.105	404.195	-0.103	-0.215
-670.091	-200.000	0.007	0.281
-669.076	-111.782	0.144	0.029
-668.062	-200.000	0.014	0.123
-667.047	157.930	0.106	0.146
-666.032	-200.000	0.013	-0.071
-665.018	-144.852	-0.360	0.033
-664.003	800.000	-0.038	0.151
-662.989	31.893	0.121	0.104
-661.974	-124.612	0.266	-0.041
-660.959	627.666	0.190	-0.478
-659.945	-84.498	0.169	0.053
-658.930	-158.640	0.128	-0.007
-657.916	217.116	0.153	-0.242
-656.901	-200.000	-0.011	0.103
-655.886	-200.000	-0.091	0.446
-654.872	-55.452	0.084	0.038
-653.857	-167.877	0.086	-0.003
-652.843	-2.373	-0.146	-0.102
-651.828	-200.000	-0.020	-0.246
-650.814	0.551	-0.253	-0.180
-649.799	-200.000	-0.007	-0.039
-648.784	-102.213	0.202	0.048
-647.770	-130.122	0.296	-0.040
-646.755	-117.673	-0.187	0.033
-645.741	-15.712	0.097	-0.061
-644.726	-111.679	-0.244	0.049
-643.711	155.250	-0.205	-0.280
-642.697	-86.261	0.105	-0.032
-641.682	-164.186	0.112	-0.005
-640.668	208.442	0.032	0.050
-639.653	-200.000	0.002	-0.206
-638.638	-94.598	-0.297	-0.080
-637.624	56.484	-0.329	0.318
-636.609	-117.571	0.253	-0.045
-635.595	38.998	-0.331	-0.295
-634.580	-200.000	-0.009	0.207
-633.565	1.388	-0.159	-0.114
-632.551	800.000	-0.055	-0.223
-631.536	-29.161	-0.175	-0.100
-630.522	84.330	0.175	0.190
-629.507	-105.485	0.428	0.097
-628.492	356.387	0.079	0.156
-627.478	-57.794	-0.177	0.077
-626.463	4.231	-0.207	-0.151
-625.449	-200.000	-0.050	-0.280
-624.434	-12.620	-0.300	0.195
-623.419	-200.000	-0.012	0.236
-622.405	-24.238	0.187	-0.111
-621.390	85.577	0.272	-0.297
-620.376	-72.182	0.378	-0.139
-619.361	-200.000	-0.003	-0.177
-618.346	10.111	0.203	0.154
-617.332	62.489	-0.071	-0.070
-616.317	-200.000	-0.089	0.509
-615.303	-89.434	0.134	-0.039
-614.288	-93.087	-0.181	0.050
-613.273	-200.000	0.010	-0.310
-612.259	73.113	0.106	0.110
-611.244	800.000	-0.038	-0.166
-610.230	84.511	-0.193	0.210
-609.215	-200.000	-0.055	0.248
-608.201	-200.000	-0.120	0.527
-607.186	-15.631	-0.072	-0.046
-606.171	-83.192	-0.260	0.083
-605.157	-200.000	-0.014	0.409
-604.142	481.259	-0.028	-0.062
-603.128	232.822	-0.282	0.461
-602.113	215.283	0.120	0.189
-601.098	30.473	0.085	-0.072
-600.084	21.974	0.082	-0.067
-599.069	-200.000	-0.014	0.336
-598.055	436.504	0.135	-0.292
-597.040	438.691	-0.094	-0.203
-596.025	7.472	0.185	-0.138
-595.011	-81.695	-0.339	-0.111
-593.996	-145.522	0.036	-0.003
-592.982	369.255	0.060	0.120
-591.967	174.702	-0.056	-0.081
-590.952	-105.178	-0.131	0.030
-589.938	323.597	-0.049	0.092
-588.923	-200.000	0.007	-0.193
-587.909	-200.000	-0.009	0.214
-586.894	-200.000	0.026	-0.154
-585.879	36.263	-0.085	0.074
-584.865	-200.000	-0.040	0.296
-583.850	-64.651	-0.247	-0.099
-582.836	-200.000	-0.003	0.097
-581.821	-200.000	-0.047	0.421
-580.806	-154.062	0.227	0.015
-579.792	132.755	-0.250	0.321
-578.777	-200.000	0.021	-0.121
-577.763	116.295	0.138	0.168
-576.748	-103.522	0.147	-0.034
-575.733	-200.000	-0.007	0.335
-574.719	63.286	-0.163	0.162
-573.704	264.534	-0.092	-0.159
-572.690	2.717	0.198	-0.142
-571.675	695.015	-0.056	-0.145
-570.661	0.235	0.132	0.093
-569.646	-200.000	0.004	0.090
-568.631	-3.237	0.100	-0.069
-567.617	800.000	0.074	0.221
-566.602	73.375	-0.206	-0.214
-565.588	-44.638	-0.325	0.161
-564.573	678.931	-0.072	-0.187
-563.558	-73.394	0.103	0.037
-562.544	800.000	0.040	0.134
-561.529	800.000	0.041	-0.116
-560.515	141.751	-0.142	0.187
-559.500	-200.000	0.052	-0.319
-558.485	103.206	-0.051	-0.059
-557.471	1.704	0.369	-0.264
-556.456	-27.215	0.260	-0.150
-555.442	191.293	0.120	-0.180
-554.427	800.000	0.012	-0.042
-553.412	-29.572	0.036	-0.020
-552.398	-138.086	0.103	0.011
-551.383	56.069	-0.158	-0.152
-550.369	-105.657	0.271	0.061
-549.354	-80.042	0.149	0.049
-548.339	-0.570	-0.113	-0.080
-547.325	552.514	-0.066	0.158
-546.310	-129.502	-0.236	0.032
-545.296	55.940	0.128	-0.123
-544.281	-200.000	-0.030	0.135
-543.266	77.715	0.223	0.236
-542.252	66.952	-0.193	0.195
-541.237	-120.888	0.072	-0.012
-540.223	-59.344	0.263	-0.112
-539.208	800.000	-0.057	-0.175
-538.193	-200.000	-0.023	0.103
-537.179	800.000	0.177	0.564
-536.164	362.993	-0.095	-0.190
-535.150	509.281	-0.104	-0.239
-534.135	333.035	0.187	0.358
-533.121	298.302	-0.209	0.380
-532.106	-200.000	-0.015	0.193
-531.091	302.136	-0.215	-0.393
-530.077	-77.059	-0.179	-0.062
-529.062	-200.000	-0.086	0.397
-528.048	78.632	-0.250	0.265
-527.033	50.990	-0.372	0.349
-526.018	195.857	0.027	-0.041
-525.004	62.077	0.087	0.086
-523.989	134.850	-0.138	0.178
-522.975	-90.626	0.148	-0.042
-521.960	-120.170	0.131	-0.022
-520.945	-200.000	0.059	-0.288
-519.931	-200.000	-0.028	-0.376
-518.916	306.407	-0.064	0.118
-517.902	-114.109	-0.103	-0.020
-516.887	-200.000	-0.034	-0.184
-515.872	-200.000	0.008	-0.313
-514.858	324.110	0.053	-0.099
-513.843	88.788	0.192	0.211
-512.829	92.936	0.124	-0.139
-511.814	-156.389	0.188	0.012
-510.799	-200.000	0.004	-0.106
-509.785	86.834	-0.133	0.145
-508.770	-200.000	0.010	-0.111
-507.756	-84.050	-0.545	0.171
-506.741	-150.409	-0.167	0.013
-505.726	-8.944	0.199	0.132
-504.712	-200.000	-0.028	-0.208
-503.697	-116.782	-0.107	0.019
-502.683	39.304	-0.075	-0.066
-501.668	84.016	-0.316	0.341
-500.653	-68.546	-0.124	-0.048
-499.639	-200.000	-0.009	-0.047
-498.624	-94.550	-0.265	-0.071
-497.610	296.660	-0.048	-0.086
-496.595	-72.099	-0.196	0.072
-495.581	-200.000	0.041	-0.302
-494.566	83.999	0.302	-0.326
-493.551	-181.186	0.221	0.004
-492.537	175.676	-0.074	-0.106
-491.522	36.788	0.169	-0.148
-490.508	207.889	0.152	0.235
-489.493	44.685	-0.096	0.088
-488.478	-132.044	-0.255	0.033
-487.464	-200.000	-0.025	-0.137
-486.449	-48.624	0.253	-0.120
-485.435	219.615	-0.173	0.274
-484.420	-51.041	0.318	0.147
-483.405	133.841	-0.148	-0.190
-482.391	87.211	0.157	-0.172
-481.376	-94.557	0.486	0.131
-480.362	-91.572	-0.347	-0.098
-479.347	800.000	0.040	0.118
-478.332	-4.955	0.275	0.187
-477.318	177.225	-0.077	0.110
-476.303	-151.702	-0.133	0.010
-475.289	800.000	0.010	-0.037
-474.274	65.050	-0.145	0.145
-473.259	-52.914	0.055	-0.025
-472.245	10.846	-0.100	-0.075
-471.230	-88.819	-0.107	0.031
-470.216	-28.827	0.251	0.142
-469.201	193.124	0.055	0.082
-468.186	-63.690	-0.297	-0.120
-467.172	800.000	0.018	0.059
-466.157	800.000	-0.086	0.279
-465.143	3.953	0.135	0.097
-464.128	478.454	-0.065	-0.146
-463.113	-148.378	0.360	-0.029
-462.099	-200.000	0.013	-0.081
-461.084	-123.237	-0.114	0.018
-460.070	-157.901	0.149	-0.009
-459.055	-200.000	0.027	-0.171
-458.040	-91.502	-0.309	-0.087
-457.026	-200.000	0.017	0.089
-456.011	-4.526	0.167	0.114
-454.997	-200.000	0.045	-0.220
-453.982	-200.000	-0.030	0.209
-452.968	-59.905	0.092	0.039
-451.953	800.000	-0.060	-0.212
-450.938	-112.403	-0.283	-0.056
-449.924	-18.551	0.254	0.157
-448.909	798.639	-0.047	0.127
-447.895	800.000	0.111	0.374
-446.880	-114.259	-0.102	0.019
-445.865	-158.654	0.155	0.009
-444.851	-152.219	-0.173	0.012
-443.836	139.970	0.108	0.140
-442.822	-125.452	-0.212	-0.032
-441.807	-200.000	-0.004	0.449
-440.792	-72.421	0.447	-0.163
-439.778	562.119	0.106	-0.253
-438.763	-88.809	-0.039	0.011
-437.749	-66.467	-0.108	-0.042
-436.734	-21.610	-0.230	-0.138
-435.719	-122.825	-0.233	0.037
-434.705	175.780	-0.180	-0.257
-433.690	40.571	-0.177	0.157
-432.676	479.785	0.087	-0.194
-431.661	-56.447	0.212	0.093
-430.646	-15.514	-0.416	0.262
-429.632	-44.881	0.248	0.122
-428.617	-200.000	-0.026	-0.170
-427.603	258.306	-0.075	-0.128
-426.588	800.000	-0.038	-0.148
-425.573	-23.306	0.264	-0.157
-424.559	-156.766	0.146	-0.009
-423.544	29.287	0.057	-0.048
-422.530	502.561	0.178	-0.406
-421.515	71.854	0.074	-0.076
-420.500	-47.753	-0.269	-0.129
-419.486	-2.812	0.347	0.239
-418.471	28.891	0.284	-0.238
-417.457	-155.087	-0.226	0.015
-416.442	235.916	0.084	-0.137
-415.428	-108.204	-0.096	0.021
-414.413	-200.000	-0.028	0.137
-413.398	616.343	0.077	-0.190
-412.384	800.000	-0.061	-0.187
-411.369	-200.000	-0.161	-0.000
-410.355	-92.798	-0.072	0.020
-409.340	-200.000	-0.023	-0.240
-408.325	118.182	0.083	0.101
-407.311	133.152	0.152	0.193
-406.296	29.307	0.256	0.215
-405.282	-200.000	-0.239	-0.000
-404.267	-200.000	-0.010	-0.319
-403.252	-4.618	0.296	-0.201
-402.238	64.992	-0.108	-0.108
-401.223	222.922	-0.146	0.231
-400.209	542.333	0.047	0.111
-399.194	118.187	-0.180	-0.219
-398.179	34.712	0.084	-0.073
-397.165	-200.000	0.018	0.085
-396.150	-200.000	0.018	0.124
-395.136	-200.000	-0.012	-0.181
-394.121	-62.652	-0.121	-0.050
-393.106	-200.000	-0.016	0.073
-392.092	-200.000	-0.015	0.368
-391.077	73.659	-0.094	0.097
-390.063	-151.722	0.278	-0.020
-389.048	-63.212	-0.178	0.072
-388.033	135.915	-0.026	0.033
-387.019	-200.000	0.017	0.528
-386.004	-14.565	0.185	0.117
-384.990	8.386	0.167	0.123
-383.975	156.522	-0.049	0.066
-382.960	-1.424	-0.170	-0.118
-381.946	28.601	-0.349	-0.291
-380.931	-200.000	0.018	-0.356
-379.917	-71.914	-0.187	-0.068
-378.902	141.158	0.197	-0.257
-377.888	-57.490	-0.173	-0.075
-376.873	563.909	-0.082	-0.196
-375.858	-200.000	0.027	-0.123
-374.844	184.661	-0.116	-0.169
-373.829	242.515	-0.168	-0.277
-372.815	800.000	-0.102	-0.307
-371.800	-57.447	0.106	-0.046
-370.785	-59.421	-0.239	0.101
-369.771	800.000	0.002	0.010
-368.756	-200.000	-0.081	0.358
-367.742	-100.510	0.049	-0.012
-366.727	800.000	0.086	-0.235
-365.712	-200.000	-0.040	0.244
-364.698	-200.000	0.005	0.211
-363.683	-177.573	-0.246	-0.006
-362.669	-200.000	0.004	0.084
-361.654	800.000	0.067	-0.217
-360.639	-54.466	0.273	0.122
-359.625	505.837	-0.009	-0.020
-358.610	-41.999	-0.374	0.188
-357.596	-200.000	0.003	0.090
-356.581	15.077	-0.206	-0.159
-355.566	410.561	-0.135	-0.282
-354.552	9.864	0.164	0.122
-353.537	463.144	0.116	-0.254
-352.523	-72.904	0.127	-0.046
-351.508	800.000	0.105	0.304
-350.493	-200.000	-0.031	0.141
-349.479	90.161	0.224	0.247
-348.464	-78.245	0.264	-0.089
-347.450	421.933	-0.091	0.193
-346.435	-56.145	-0.242	-0.106
-345.420	83.337	0.212	0.227
-344.406	-200.000	0.000	0.158
-343.391	-78.189	-0.123	0.041
-342.377	49.033	-0.075	0.069
-341.362	-1.804	-0.153	-0.106
-340.348	-156.382	0.161	-0.010
-339.333	800.000	0.062	-0.193
-338.318	800.000	0.049	0.138
-337.304	-123.004	0.141	-0.022
-336.289	-200.000	-0.002	0.111
-335.275	15.933	-0.102	0.079
-334.260	696.732	0.017	0.043
-333.245	-122.065	0.436	-0.070
-332.231	-82.735	0.133	0.042
-331.216	-60.105	0.134	-0.056
-330.202	87.487	-0.106	-0.115
-329.187	-45.440	0.048	0.023
-328.172	-200.000	0.033	0.141
-327.158	-96.309	0.179	-0.047
-326.143	19.797	0.257	-0.203
-325.129	-18.873	-0.271	0.166
-324.114	-190.162	-0.414	0.005
-323.099	-166.919	-0.356	-0.014
-322.085	-85.259	0.186	0.057
-321.070	-200.000	0.010	0.073
-320.056	-14.253	-0.257	-0.163
-319.041	20.532	-0.122	-0.097
-318.026	-38.373	0.075	0.039
-317.012	-200.000	-0.025	0.221
-315.997	-200.000	0.021	-0.196
-314.983	-75.913	-0.240	0.083
-313.968	-1.445	0.190	0.132
-312.953	85.554	-0.106	-0.115
-311.939	-124.398	-0.083	0.013
-310.924	50.513	0.140	0.130
-309.910	-122.551	-0.199	-0.032
-308.895	-132.583	-0.206	0.026
-307.880	302.960	-0.070	0.127
-306.866	-135.206	-0.066	0.008
-305.851	-113.918	0.225	-0.043
-304.837	345.872	-0.097	0.188
-303.822	-117.661	-0.166	-0.029
-302.807	-104.522	0.488	-0.111
-301.793	193.131	-0.120	-0.178
-300.778	-200.000	0.104	0.483
-299.764	-73.536	-0.296	-0.106
-298.749	34.931	0.043	-0.037
-297.735	-200.000	0.019	-0.264
-296.720	800.000	-0.085	0.276
-295.705	-129.502	0.122	-0.017
-294.691	765.589	-0.090	0.239
-293.676	181.743	-0.153	-0.221
-292.662	-19.298	0.181	-0.110
-291.647	362.687	-0.107	-0.210
-290.632	-108.690	0.077	-0.016
-289.618	-7.064	-0.060	0.040
-288.603	-149.934	-0.227	0.017
-287.589	-200.000	-0.010	-0.069
-286.574	26.680	-0.173	0.142
-285.559	19.140	0.179	0.141
-284.545	-28.517	0.270	0.152
-283.530	29.277	0.360	0.300
-282.516	351.577	0.079	-0.153
-281.501	-3.880	0.126	0.086
-280.486	168.129	0.141	0.197
-279.472	-99.086	0.138	0.034
-278.457	-200.000	0.033	-0.186
-277.443	-54.134	-0.151	-0.067
-276.428	800.000	-0.089	0.366
-275.413	-200.000	-0.002	-0.322
-274.399	358.337	-0.096	0.188
-273.384	-200.000	-0.020	-0.419
-272.370	-81.748	0.327	-0.105
-271.355	132.588	0.045	0.056
-270.340	800.000	-0.129	0.351
-269.326	125.346	0.114	0.142
-268.311	-200.000	-0.031	-0.246
-267.297	-200.000	-0.085	-0.412
-266.282	-24.271	0.220	-0.129
-265.267	477.299	-0.119	0.264
-264.253	68.982	-0.203	-0.204
-263.238	-8.221	0.595	-0.392
-262.224	-70.335	-0.132	0.049
-261.209	-200.000	0.039	-0.254
-260.195	-200.000	0.010	0.265
-259.180	-156.790	-0.048	0.003
-258.165	-66.872	0.329	-0.127
-257.151	-27.802	-0.047	0.026
-256.136	-200.000	0.043	-0.251
-255.122	189.435	-0.039	0.057
-254.107	-44.694	-0.291	-0.142
-253.092	42.544	0.156	0.139
-252.078	-82.538	0.201	-0.064
-251.063	-125.223	0.132	-0.020
-250.049	54.420	-0.125	-0.118
-249.034	576.285	0.076	-0.181
-248.019	-78.390	-0.080	-0.027
-247.005	-200.000	-0.003	0.207
-245.990	-55.658	0.226	0.099
-244.976	532.016	0.184	0.427
-243.961	143.271	0.155	0.202
-242.946	197.079	-0.096	-0.143
-241.932	-200.000	-0.014	-0.080
-240.917	19.811	0.155	0.123
-239.903	-200.000	0.024	0.245
-238.888	-24.256	-0.143	-0.083
-237.873	-42.661	0.096	-0.048
-236.859	259.530	-0.068	-0.115
-235.844	-33.474	-0.089	0.048
-234.830	150.931	-0.063	-0.084
-233.815	-171.795	0.320	0.010
-232.800	-149.156	-0.090	0.007
-231.786	59.269	0.047	0.046
-230.771	800.000	0.027	0.074
-229.757	96.348	-0.426	0.477
-228.742	-200.000	0.007	0.031
-227.727	-150.961	0.179	0.013
-226.713	-200.000	-0.050	-0.282
-225.698	303.437	0.168	-0.305
-224.684	-15.787	-0.116	-0.073
-223.669	232.772	0.014	-0.022
-222.655	-151.160	0.142	0.010
-221.640	319.673	-0.072	-0.134
-220.625	-114.627	0.129	-0.024
-219.611	-69.512	-0.082	-0.031
-218.596	-40.795	-0.110	0.056
-217.582	71.741	0.193	-0.197
-216.567	229.527	-0.094	0.150
-215.552	-33.708	0.297	0.160
-214.538	132.073	0.072	-0.091
-213.523	800.000	-0.065	-0.206
-212.509	-116.373	-0.341	0.062
-211.494	167.072	-0.068	-0.094
-210.479	-23.757	-0.164	-0.096
-209.465	-200.000	-0.046	0.297
-208.450	800.000	0.053	-0.195
-207.436	-44.262	-0.158	0.077
-206.421	-200.000	-0.030	-0.406
-205.406	154.647	0.146	-0.196
-204.392	-71.869	0.075	-0.027
-203.377	-59.437	0.157	-0.066
-202.363	-57.820	0.039	-0.017
-201.348	-200.000	0.048	-0.394
-200.333	-10.044	0.270	0.175
-199.319	37.780	-0.259	0.225
-198.304	82.450	0.218	-0.231
-197.290	5.143	-0.192	0.138
-196.275	458.076	0.151	-0.328
-195.260	144.866	0.169	-0.220
-194.246	-64.162	-0.072	-0.029
-193.231	-200.000	-0.056	0.267
-192.217	-61.064	-0.058	-0.024
-191.202	343.937	0.159	-0.304
-190.187	8.681	0.377	-0.277
-189.173	228.480	0.146	0.232
-188.158	-60.475	0.276	-0.115
-187.144	68.063	-0.035	0.035
-186.129	800.000	0.110	0.324
-185.114	320.473	0.097	0.180
-184.100	-50.073	-0.202	0.094
-183.085	46.326	-0.240	-0.217
-182.071	-138.314	-0.053	0.006
-181.056	309.936	-0.105	-0.191
-180.042	57.391	-0.153	-0.146
-179.027	105.198	-0.201	0.231
-178.012	-117.121	-0.240	0.043
-176.998	-137.630	0.526	-0.058
-175.983	-87.321	0.040	-0.012
-174.969	-48.239	-0.216	0.102
-173.954	-194.005	-0.063	0.001
-172.939	548.469	0.054	0.127
-171.925	34.397	-0.074	-0.063
-170.910	800.000	-0.039	0.163
-169.896	800.000	-0.091	-0.345
-168.881	-200.000	-0.004	0.262
-167.866	-89.113	-0.167	-0.048
-166.852	-59.388	-0.158	0.066
-165.837	-32.898	0.116	-0.063
-164.823	-145.949	-0.112	0.010
-163.808	-98.021	0.401	0.101
-162.793	-161.654	0.056	-0.003
-161.779	211.823	-0.116	0.178
-160.764	-93.610	0.229	-0.062
-159.750	-99.737	0.083	0.020
-158.735	-88.281	0.235	-0.069
-157.720	-23.252	-0.051	0.030
-156.706	800.000	0.045	0.164
-155.691	59.629	-0.154	0.148
-154.677	-200.000	-0.061	-0.314
-153.662	-2.407	-0.064	-0.044
-152.647	372.283	0.180	-0.356
-151.633	-200.000	0.014	-0.199
-150.618	-44.967	0.212	0.103
-149.604	-200.000	0.001	-0.182
-148.589	-66.783	-0.150	0.058
-147.574	502.396	0.039	0.089
-146.560	41.167	-0.180	0.159
-145.545	38.652	-0.349	0.303
-144.531	99.931	0.065	0.074
-143.516	-104.913	-0.143	-0.032
-142.502	-135.219	0.081	0.010
-141.487	13.613	0.167	0.126
-140.472	-20.800	0.081	0.049
-139.458	164.415	0.066	-0.090
-138.443	-29.141	-0.184	0.103
-137.429	800.000	-0.028	0.119
-136.414	155.942	0.066	0.089
-135.399	-200.000	-0.048	0.255
-134.385	800.000	-0.072	-0.201
-133.370	800.000	0.110	-0.301
-132.356	800.000	0.079	0.258
-131.341	729.559	0.097	0.252
-130.326	800.000	-0.077	0.308
-129.312	800.000	0.084	-0.307
-128.297	322.114	0.143	0.266
-127.283	-28.501	0.086	-0.049
-126.268	287.449	0.020	0.034
-125.253	380.129	-0.067	0.135
-124.239	-200.000	-0.011	0.180
-123.224	-78.594	0.305	-0.102
-122.210	166.285	0.196	0.271
