DTS Sentinel unit serial number:	SN413079Multiplexer serial number:	ORYXHardware model number:	OX4-SRSoftware version number:	ORYX F/W v4.00 Oryx Data Collector v3.7.2.0data status	okinstallation	princeton_trtdifferential loss correction	single-endedforward channel	channel 2reverse channel	N/Adate	2019/09/19time	02:11:35forward acquisition time	60.00reverse acquisition time	0.00gamma	496.2192k internal	0.2352k external	0.2352temperature offset calibration	1.0016default loss term (dB/km)	0.3790temperature slope calibration	1.0000multiplexer offset coefficient	1.0000multiplexer slope coefficient	1.0000fibre end	0.00T internal ref (°C)	21.12T ext. ref 1 (°C)	0.67T ext. ref 2 (°C)	14.73length (m)	temperature (°C)	Stokes	anti-Stokes-747.200	-200.000	0.009	0.120
-746.185	-12.805	-0.214	-0.139
-745.171	-141.885	0.163	-0.016
-744.156	-125.910	-0.252	0.038
-743.142	147.702	0.223	0.299
-742.127	-45.143	-0.269	0.133
-741.112	-14.160	-0.092	-0.059
-740.098	6.594	-0.151	0.112
-739.083	-81.504	0.231	0.076
-738.069	72.000	-0.228	0.237
-737.054	674.530	0.119	0.308
-736.039	-36.566	-0.442	-0.237
-735.025	-54.186	0.384	0.174
-734.010	647.326	-0.046	-0.117
-732.996	194.340	0.266	-0.402
-731.981	219.667	-0.258	0.412
-730.966	200.180	-0.131	-0.200
-729.952	-200.000	0.033	-0.315
-728.937	-64.553	-0.445	0.180
-727.923	-77.024	-0.193	0.067
-726.908	-200.000	0.010	0.061
-725.894	-1.099	0.046	0.032
-724.879	47.327	0.090	0.084
-723.864	102.243	-0.286	-0.333
-722.850	-133.643	0.103	-0.013
-721.835	-68.570	0.290	0.112
-720.821	800.000	0.131	-0.374
-719.806	-200.000	-0.002	-0.024
-718.791	358.462	-0.072	-0.144
-717.777	-200.000	0.001	0.051
-716.762	-200.000	0.018	0.338
-715.748	101.658	-0.079	-0.091
-714.733	73.096	-0.040	0.041
-713.718	78.806	-0.096	-0.102
-712.704	11.538	0.122	0.093
-711.689	-71.600	0.176	-0.066
-710.675	303.685	-0.118	-0.218
-709.660	-91.432	0.160	0.046
-708.645	-59.779	0.190	0.081
-707.631	-73.686	0.212	-0.077
-706.616	-200.000	-0.039	-0.198
-705.602	145.480	-0.167	-0.223
-704.587	-200.000	-0.024	-0.140
-703.572	800.000	-0.021	-0.063
-702.558	-200.000	0.037	-0.342
-701.543	-118.916	0.149	0.026
-700.529	467.494	0.109	0.242
-699.514	597.672	-0.075	0.186
-698.499	407.990	-0.103	-0.217
-697.485	118.053	-0.038	0.047
-696.470	-125.246	0.101	-0.015
-695.456	800.000	0.040	-0.157
-694.441	-152.492	0.415	0.030
-693.426	18.122	-0.097	-0.077
-692.412	177.144	0.061	-0.088
-691.397	-200.000	0.034	-0.309
-690.383	-200.000	0.031	-0.466
-689.368	182.315	-0.194	-0.284
-688.354	-200.000	0.005	-0.069
-687.339	73.663	-0.183	-0.191
-686.324	62.648	0.231	-0.230
-685.310	-200.000	0.027	-0.382
-684.295	-6.043	0.097	0.066
-683.281	183.156	-0.044	0.065
-682.266	-200.000	0.003	0.042
-681.251	120.298	-0.031	-0.038
-680.237	-48.459	-0.302	0.145
-679.222	86.713	0.306	0.336
-678.208	-59.412	0.154	-0.066
-677.193	18.082	0.177	-0.140
-676.178	5.414	-0.349	-0.256
-675.164	321.705	-0.052	0.099
-674.149	-72.981	-0.082	-0.030
-673.135	-91.309	-0.205	-0.058
-672.120	-163.017	-0.144	-0.007
-671.105	800.000	0.042	0.145
-670.091	800.000	0.073	0.306
-669.076	-53.843	0.347	-0.158
-668.062	-96.460	0.207	-0.054
-667.047	716.793	-0.084	-0.222
-666.032	369.636	0.215	-0.433
-665.018	-200.000	0.012	-0.058
-664.003	-144.589	-0.159	0.015
-662.989	-82.864	-0.057	0.018
-661.974	-147.540	-0.164	-0.014
-660.959	-29.679	-0.311	-0.176
-659.945	62.577	0.100	0.099
-658.930	-85.996	0.073	0.022
-657.916	202.212	0.271	-0.415
-656.901	-140.049	0.304	-0.032
-655.886	-25.803	-0.516	0.302
-654.872	633.575	0.153	-0.385
-653.857	-7.360	0.276	-0.186
-652.843	-74.456	0.112	0.040
-651.828	-141.818	0.102	-0.010
-650.814	-172.420	-0.409	0.013
-649.799	287.945	0.207	-0.371
-648.784	186.606	0.013	0.019
-647.770	265.560	-0.209	-0.361
-646.755	116.819	-0.170	0.207
-645.741	-49.198	-0.097	-0.046
-644.726	-72.142	0.331	0.122
-643.711	-154.661	0.379	-0.025
-642.697	-57.913	-0.091	-0.039
-641.682	-152.384	0.169	0.012
-640.668	-136.418	-0.417	-0.048
-639.653	9.489	-0.070	-0.053
-638.638	320.198	-0.062	-0.117
-637.624	14.976	0.091	-0.071
-636.609	-65.513	-0.389	0.155
-635.595	63.046	0.339	0.337
-634.580	-136.644	-0.094	-0.011
-633.565	536.859	0.076	-0.178
-632.551	-200.000	-0.010	-0.116
-631.536	-94.319	0.092	0.025
-630.522	-87.989	-0.121	0.036
-629.507	-92.462	-0.404	-0.113
-628.492	82.970	0.164	0.178
-627.478	800.000	0.025	-0.086
-626.463	492.984	0.095	0.217
-625.449	-40.942	0.311	0.160
-624.434	-200.000	-0.054	0.266
-623.419	-1.625	-0.167	-0.117
-622.405	583.011	0.111	-0.269
-621.390	-200.000	-0.051	0.379
-620.376	31.115	0.051	0.044
-619.361	-132.291	-0.196	0.025
-618.346	-144.138	0.217	-0.020
-617.332	-21.759	-0.094	0.057
-616.317	-41.867	0.129	-0.066
-615.303	-175.075	0.353	-0.010
-614.288	-52.658	0.164	-0.075
-613.273	-26.600	-0.238	0.138
-612.259	-7.752	0.373	0.250
-611.244	258.635	0.178	-0.304
-610.230	-200.000	-0.029	-0.177
-609.215	286.583	0.245	-0.440
-608.201	-167.464	-0.280	-0.011
-607.186	-161.129	-0.064	0.003
-606.171	117.246	-0.167	0.204
-605.157	142.078	-0.162	0.213
-604.142	81.691	0.116	0.125
-603.128	-27.393	-0.184	0.106
-602.113	108.726	0.092	0.109
-601.098	636.916	-0.155	-0.391
-600.084	-90.855	-0.194	0.056
-599.069	638.395	0.147	0.371
-598.055	50.775	-0.172	0.161
-597.040	800.000	0.031	0.131
-596.025	-200.000	0.007	0.179
-595.011	-69.056	-0.047	-0.018
-593.996	-82.305	-0.146	-0.047
-592.982	-125.095	0.150	-0.023
-591.967	-200.000	0.021	0.145
-590.952	800.000	0.156	-0.442
-589.938	-18.652	-0.091	-0.056
-588.923	-200.000	0.021	0.159
-587.909	-200.000	0.014	0.134
-586.894	227.295	-0.288	-0.465
-585.879	-140.247	-0.296	0.031
-584.865	800.000	0.076	-0.235
-583.850	105.938	0.225	0.264
-582.836	-57.878	0.029	-0.013
-581.821	319.498	-0.052	0.097
-580.806	113.314	0.158	0.190
-579.792	-165.147	-0.287	-0.013
-578.777	50.898	-0.211	-0.198
-577.763	-143.457	0.282	-0.027
-576.748	36.131	-0.148	-0.129
-575.733	-84.578	0.241	-0.075
-574.719	-142.904	-0.158	0.015
-573.704	669.403	0.088	-0.225
-572.690	-23.629	-0.183	0.109
-571.675	-20.479	0.245	0.149
-570.661	-200.000	0.033	-0.245
-569.646	800.000	0.082	0.235
-568.631	-114.193	0.219	0.042
-567.617	97.340	-0.341	-0.387
-566.602	-200.000	0.011	0.222
-565.588	484.163	-0.076	0.171
-564.573	-200.000	0.077	0.372
-563.558	206.105	-0.103	0.159
-562.544	463.283	-0.010	0.021
-561.529	-38.546	0.166	-0.087
-560.515	-200.000	0.075	0.520
-559.500	38.224	-0.314	0.277
-558.485	628.906	0.104	0.261
-557.471	800.000	0.164	-0.568
-556.456	-131.443	0.246	-0.032
-555.442	-170.116	0.199	0.007
-554.427	-25.861	-0.053	0.031
-553.412	-197.099	-0.232	-0.001
-552.398	71.177	0.022	-0.023
-551.383	-71.995	0.182	-0.067
-550.369	-200.000	0.004	-0.092
-549.354	-200.000	0.007	0.062
-548.339	-82.475	-0.236	0.076
-547.325	800.000	0.072	0.208
-546.310	193.454	0.119	0.178
-545.296	-200.000	-0.012	0.230
-544.281	211.647	0.126	0.196
-543.266	-163.156	0.184	-0.009
-542.252	800.000	0.128	0.357
-541.237	-68.369	0.149	0.057
-540.223	-88.588	0.153	0.045
-539.208	800.000	-0.100	0.319
-538.193	-200.000	-0.017	0.213
-537.179	794.002	0.045	0.124
-536.164	170.622	0.198	0.280
-535.150	800.000	-0.045	-0.125
-534.135	-118.495	0.068	-0.012
-533.121	800.000	-0.113	-0.441
-532.106	-115.192	0.135	-0.025
-531.091	-200.000	0.030	0.272
-530.077	-53.471	-0.326	0.148
-529.062	-140.116	0.201	-0.021
-528.048	571.751	0.095	-0.230
-527.033	435.458	-0.128	0.275
-526.018	631.663	-0.085	0.213
-525.004	34.395	0.043	0.037
-523.989	8.365	-0.102	-0.076
-522.975	8.822	-0.165	0.123
-521.960	761.555	0.088	0.236
-520.945	-200.000	0.023	-0.138
-519.931	-55.946	0.097	0.043
-518.916	281.340	0.086	-0.152
-517.902	37.869	0.429	-0.377
-516.887	800.000	0.043	0.130
-515.872	308.994	0.064	0.118
-514.858	-200.000	-0.017	-0.265
-513.843	173.015	0.066	-0.095
-512.829	20.917	-0.094	0.075
-511.814	-24.791	-0.194	0.114
-510.799	-100.195	0.152	0.037
-509.785	-46.421	-0.176	-0.086
-508.770	-42.262	0.163	0.082
-507.756	-89.022	-0.097	0.028
-506.741	78.612	-0.030	-0.032
-505.726	-200.000	-0.025	-0.184
-504.712	-83.496	-0.085	0.027
-503.697	359.657	-0.093	-0.184
-502.683	130.929	0.068	-0.087
-501.668	-28.275	0.261	0.149
-500.653	135.345	0.240	0.309
-499.639	-200.000	0.002	-0.030
-498.624	577.351	0.106	-0.256
-497.610	-114.117	-0.391	0.075
-496.595	-74.124	-0.322	-0.115
-495.581	2.255	-0.461	0.329
-494.566	-200.000	0.003	0.248
-493.551	134.164	0.040	-0.051
-492.537	113.119	-0.173	0.208
-491.522	-28.482	-0.230	-0.131
-490.508	-200.000	-0.028	-0.214
-489.493	-167.526	-0.417	-0.016
-488.478	19.046	-0.132	0.104
-487.464	111.225	0.108	-0.128
-486.449	-13.278	-0.134	0.086
-485.435	-200.000	-0.004	-0.295
-484.420	-53.558	-0.114	0.051
-483.405	-200.000	-0.094	-0.426
-482.391	800.000	-0.062	-0.205
-481.376	239.569	-0.062	-0.102
-480.362	-168.843	0.300	0.011
-479.347	247.358	-0.080	-0.133
-478.332	502.763	0.105	-0.240
-477.318	153.422	0.215	0.291
-476.303	-106.157	-0.439	-0.097
-475.289	-155.586	0.072	-0.005
-474.274	-113.204	-0.174	0.034
-473.259	5.975	0.079	0.058
-472.245	-200.000	-0.013	0.271
-471.230	-99.850	0.301	-0.074
-470.216	-102.183	0.310	-0.074
-469.201	-1.108	0.169	-0.118
-468.186	-137.790	0.193	-0.021
-467.172	17.909	-0.141	-0.110
-466.157	-200.000	0.020	-0.123
-465.143	382.796	-0.047	-0.096
-464.128	-200.000	-0.079	-0.585
-463.113	-31.669	0.186	-0.103
-462.099	-35.849	0.154	-0.082
-461.084	-72.746	-0.084	-0.030
-460.070	-6.112	-0.129	-0.087
-459.055	-31.250	0.151	0.084
-458.040	-200.000	-0.018	-0.138
-457.026	-200.000	-0.028	-0.188
-456.011	-149.549	0.167	-0.013
-454.997	-144.754	0.240	-0.022
-453.982	800.000	-0.048	-0.167
-452.968	90.811	0.187	0.207
-451.953	800.000	-0.021	-0.069
-450.938	426.838	0.186	-0.395
-449.924	-127.204	-0.212	-0.031
-448.909	-74.510	-0.257	-0.091
-447.895	-48.443	0.218	0.104
-446.880	-53.535	-0.189	-0.085
-445.865	643.591	0.064	-0.161
-444.851	-121.769	0.057	-0.009
-443.836	70.160	0.220	-0.224
-442.822	-200.000	0.006	0.204
-441.807	-81.064	0.355	0.116
-440.792	-140.716	-0.247	0.025
-439.778	-62.038	0.327	0.135
-438.763	-43.458	-0.269	-0.134
-437.749	-56.080	0.133	0.059
-436.734	-57.384	-0.393	-0.170
-435.719	24.664	0.150	0.122
-434.705	108.079	-0.117	0.138
-433.690	-200.000	-0.009	-0.229
-432.676	800.000	0.046	-0.131
-431.661	-200.000	0.009	0.331
-430.646	799.372	0.056	-0.152
-429.632	162.717	-0.230	-0.318
-428.617	-90.820	0.142	0.040
-427.603	800.000	0.077	0.254
-426.588	-200.000	-0.042	0.317
-425.573	-34.427	-0.327	0.176
-424.559	-141.701	-0.261	-0.026
-423.544	45.268	-0.138	-0.126
-422.530	172.397	0.069	-0.097
-421.515	-200.000	0.005	0.090
-420.500	169.752	-0.148	0.209
-419.486	618.137	-0.074	-0.183
-418.471	-58.627	-0.316	-0.135
-417.457	-125.128	-0.328	0.049
-416.442	308.531	0.068	0.125
-415.428	800.000	0.044	0.134
-414.413	-200.000	0.028	0.157
-413.398	-200.000	0.057	-0.408
-412.384	-155.927	0.316	0.020
-411.369	34.802	-0.320	-0.276
-410.355	-200.000	0.100	-0.474
-409.340	329.444	-0.072	-0.136
-408.325	-76.359	-0.165	0.057
-407.311	-180.472	-0.255	0.005
-406.296	-200.000	-0.042	-0.334
-405.282	800.000	-0.105	-0.304
-404.267	177.906	0.057	0.082
-403.252	800.000	-0.078	0.280
-402.238	-200.000	-0.065	-0.329
-401.223	37.677	0.199	0.174
-400.209	0.602	0.144	0.101
-399.194	-67.608	0.152	-0.059
-398.179	-107.432	-0.289	0.062
-397.165	-111.004	0.173	-0.035
-396.150	111.062	-0.079	-0.094
-395.136	-33.564	-0.152	0.083
-394.121	75.272	-0.077	-0.080
-393.106	-190.670	-0.072	0.001
-392.092	-200.000	-0.418	0.002
-391.077	110.360	0.062	0.074
-390.063	800.000	-0.058	-0.236
-389.048	-128.271	-0.394	0.055
-388.033	-88.321	0.355	-0.105
-387.019	169.707	0.097	-0.137
-386.004	-47.932	-0.274	-0.130
-384.990	103.043	-0.139	-0.160
-383.975	55.799	-0.081	-0.078
-382.960	534.978	-0.127	-0.297
-381.946	777.763	0.046	-0.124
-380.931	-166.762	0.077	0.003
-379.917	116.852	0.165	0.200
-378.902	-161.764	0.142	-0.007
-377.888	187.043	-0.218	-0.320
-376.873	-114.036	-0.261	-0.050
-375.858	129.799	-0.098	0.123
-374.844	800.000	-0.045	-0.161
-373.829	-167.095	0.363	-0.015
-372.815	159.009	-0.034	0.046
-371.800	-64.035	0.088	0.035
-370.785	-61.093	0.286	0.119
-369.771	152.274	-0.196	-0.263
-368.756	-33.092	0.140	0.076
-367.742	800.000	-0.064	0.257
-366.727	-142.585	0.124	0.012
-365.712	-200.000	-0.008	0.402
-364.698	-164.153	0.206	0.009
-363.683	-178.884	0.171	-0.004
-362.669	94.446	0.147	-0.165
-361.654	-164.937	0.158	-0.007
-360.639	-167.252	-0.288	0.011
-359.625	800.000	-0.081	0.278
-358.610	-59.125	0.226	0.096
-357.596	-200.000	-0.030	0.159
-356.581	-172.562	0.124	-0.004
-355.566	105.157	0.137	-0.159
-354.552	800.000	0.062	-0.257
-353.537	-200.000	0.038	-0.170
-352.523	-132.765	-0.497	0.062
-351.508	-200.000	-0.056	0.443
-350.493	121.261	0.118	-0.145
-349.479	-200.000	-0.072	-0.311
-348.464	-102.219	0.276	-0.065
-347.450	-200.000	-0.027	-0.174
-346.435	-200.000	-0.003	-0.116
-345.420	-200.000	-0.022	0.348
-344.406	800.000	0.112	-0.323
-343.391	-37.521	0.418	-0.219
-342.377	-72.849	-0.102	-0.037
-341.362	87.785	-0.092	-0.100
-340.348	32.040	-0.084	-0.071
-339.333	240.171	0.080	-0.131
-338.318	17.476	0.328	-0.256
-337.304	-184.460	-0.090	-0.001
-336.289	-70.512	-0.183	0.068
-335.275	800.000	0.017	0.056
-334.260	201.756	-0.068	-0.103
-333.245	-142.605	0.069	-0.007
-332.231	82.136	-0.275	-0.293
-331.216	-200.000	0.024	0.246
-330.202	-200.000	-0.039	0.202
-329.187	35.673	0.088	0.076
-328.172	200.377	0.168	0.253
-327.158	-22.077	-0.339	-0.202
-326.143	-200.000	0.369	0.000
-325.129	-138.134	-0.216	-0.024
-324.114	25.655	0.158	-0.129
-323.099	35.655	0.152	-0.131
-322.085	122.939	0.160	0.197
-321.070	800.000	-0.066	-0.255
-320.056	800.000	0.057	0.179
-319.041	-76.120	0.538	0.186
-318.026	83.519	0.132	-0.141
-317.012	255.077	0.152	0.256
-315.997	-40.780	-0.288	0.146
-314.983	-104.257	-0.454	-0.103
-313.968	-10.676	-0.423	0.275
-312.953	-7.780	-0.165	0.109
-311.939	-200.000	-0.005	0.195
-310.924	-74.217	0.191	-0.068
-309.910	679.842	0.032	-0.083
-308.895	-43.368	0.128	-0.064
-307.880	-114.271	-0.168	-0.032
-306.866	683.445	0.115	-0.294
-305.851	74.068	-0.214	0.220
-304.837	58.953	-0.239	0.231
-303.822	800.000	-0.005	0.015
-302.807	-60.939	-0.157	0.065
-301.793	-97.779	-0.330	0.084
-300.778	-17.561	-0.019	-0.012
-299.764	269.910	-0.153	-0.263
-298.749	-51.823	0.199	-0.091
-297.735	208.368	0.189	0.290
-296.720	143.697	0.350	-0.457
-295.705	593.268	0.142	0.344
-294.691	88.927	-0.076	-0.083
-293.676	-200.000	0.017	-0.390
-292.662	-200.000	-0.068	0.517
-291.647	54.100	0.141	0.133
-290.632	-136.638	0.062	-0.007
-289.618	-13.953	-0.126	0.079
-288.603	-88.582	0.216	-0.063
-287.589	-200.000	-0.061	0.499
-286.574	-200.000	-0.011	-0.141
-285.559	364.185	0.051	0.100
-284.545	-200.000	0.036	-0.325
-283.530	800.000	-0.103	-0.401
-282.516	-74.612	-0.118	0.042
-281.501	647.374	-0.068	0.170
-280.486	-15.154	-0.248	0.156
-279.472	-69.250	0.101	-0.038
-278.457	31.308	-0.127	-0.106
-277.443	27.624	-0.050	-0.041
-276.428	-113.612	0.289	-0.055
-275.413	15.605	0.156	-0.120
-274.399	33.457	-0.307	0.261
-273.384	59.535	0.248	-0.239
-272.370	47.808	0.140	-0.128
-271.355	-153.741	-0.181	-0.012
-270.340	19.943	0.087	-0.068
-269.326	-200.000	-0.047	-0.327
-268.311	-52.521	-0.245	-0.111
-267.297	137.413	0.102	-0.131
-266.282	-200.000	0.010	-0.190
-265.267	-52.425	-0.031	-0.014
-264.253	-124.934	-0.156	-0.024
-263.238	800.000	0.059	0.212
-262.224	800.000	-0.058	-0.185
-261.209	20.696	0.162	0.128
-260.195	195.132	-0.067	-0.099
-259.180	800.000	0.038	-0.151
-258.165	56.050	-0.189	0.179
-257.151	214.568	0.101	-0.157
-256.136	338.618	-0.108	0.206
-255.122	800.000	0.092	-0.279
-254.107	335.621	0.043	-0.082
-253.092	-200.000	-0.012	0.335
-252.078	15.069	0.200	0.154
-251.063	-13.403	-0.179	-0.113
-250.049	418.146	0.119	0.249
-249.034	-200.000	-0.058	0.318
-248.019	-200.000	0.018	-0.121
-247.005	-84.962	0.263	-0.081
-245.990	-200.000	0.021	0.477
-244.976	-23.134	-0.090	-0.053
-243.961	-94.852	0.128	-0.034
-242.946	-200.000	0.013	0.303
-241.932	10.360	-0.036	0.027
-240.917	-200.000	0.038	-0.246
-239.903	208.286	0.058	0.089
-238.888	667.589	0.068	-0.173
-237.873	-116.460	0.392	0.071
-236.859	-89.269	0.376	0.108
-235.844	244.918	-0.092	0.151
-234.830	563.615	-0.097	0.231
-233.815	-145.605	-0.138	0.012
-232.800	-20.509	0.120	0.072
-231.786	71.274	0.259	0.263
-230.771	-83.860	-0.148	-0.046
-229.757	800.000	-0.063	0.222
-228.742	800.000	0.017	0.058
-227.727	63.786	0.226	0.222
-226.713	102.514	-0.225	0.257
-225.698	-200.000	0.081	0.380
-224.684	385.794	0.079	-0.159
-223.669	147.867	0.101	-0.132
-222.655	-190.894	0.317	-0.003
-221.640	-26.464	-0.287	-0.164
-220.625	460.542	0.210	-0.458
-219.611	170.200	-0.160	0.224
-218.596	-143.420	-0.205	-0.019
-217.582	-200.000	0.024	-0.188
-216.567	104.785	-0.148	-0.171
-215.552	-16.918	0.096	0.059
-214.538	-6.491	0.054	0.036
-213.523	235.610	-0.225	0.364
-212.509	-47.317	-0.216	0.103
-211.494	800.000	-0.093	-0.324
-210.479	48.934	0.205	-0.188
-209.465	800.000	0.084	-0.279
-208.450	17.742	0.106	-0.083
-207.436	-119.968	-0.234	-0.039
-206.421	338.517	0.107	0.203
-205.406	106.980	0.223	-0.259
-204.392	800.000	-0.072	0.252
-203.377	-24.288	0.081	0.047
-202.363	-200.000	-0.054	0.234
-201.348	285.466	0.140	0.246
-200.333	-200.000	0.041	-0.366
-199.319	-52.598	0.041	0.018
-198.304	344.278	-0.052	0.100
-197.290	-82.111	-0.178	0.057
-196.275	-159.336	-0.310	-0.017
-195.260	800.000	-0.027	0.095
-194.246	32.048	0.014	0.011
-193.231	-200.000	0.027	0.176
-192.217	281.438	0.122	0.213
-191.202	-53.268	-0.167	0.075
-190.187	28.800	-0.156	0.129
-189.173	800.000	-0.072	0.250
-188.158	-95.654	0.405	0.106
-187.144	455.587	-0.073	0.158
-186.129	129.236	-0.117	-0.146
-185.114	-108.194	0.475	0.100
-184.100	-77.462	-0.210	-0.071
-183.085	613.574	0.070	0.172
-182.071	-2.241	-0.105	-0.072
-181.056	-200.000	-0.029	0.174
-180.042	-200.000	0.011	0.113
-179.027	-66.517	-0.098	-0.038
-178.012	-200.000	0.051	0.277
-176.998	396.924	0.046	0.094
-175.983	581.347	-0.134	-0.320
-174.969	74.150	-0.174	0.178
-173.954	-12.762	-0.250	-0.159
-172.939	-200.000	-0.027	0.128
-171.925	-108.315	0.241	0.051
-170.910	475.063	-0.069	-0.151
-169.896	-200.000	0.005	0.158
-168.881	111.533	-0.150	-0.177
-167.866	96.960	-0.059	-0.065
-166.852	-28.366	0.254	-0.143
-165.837	-77.026	-0.127	0.043
-164.823	-150.033	0.093	0.007
-163.808	-200.000	-0.014	-0.149
-162.793	358.680	-0.089	0.172
-161.779	-200.000	0.005	0.141
-160.764	-109.920	0.178	0.036
-159.750	-132.856	0.002	0.000
-158.735	-60.647	0.160	0.066
-157.720	-200.000	-0.015	-0.226
-156.706	362.532	-0.157	-0.307
-155.691	-13.079	-0.265	0.168
-154.677	-200.000	0.026	-0.186
-153.662	24.740	0.169	-0.137
-152.647	-12.005	-0.135	0.086
-151.633	-200.000	0.272	-0.001
-150.618	236.233	0.133	-0.215
-149.604	30.409	-0.265	-0.221
-148.589	-200.000	0.016	-0.157
-147.574	-84.369	-0.341	0.105
-146.560	-200.000	-0.035	0.180
-145.545	-146.051	-0.316	0.027
-144.531	-197.484	0.082	0.000
-143.516	255.438	-0.107	0.179
-142.502	-110.262	0.092	0.019
-141.487	230.909	0.165	-0.264
-140.472	48.727	0.105	0.096
-139.458	-102.204	-0.169	0.040
-138.443	-66.390	-0.091	-0.035
-137.429	-138.680	-0.152	-0.016
-136.414	-168.031	-0.276	-0.010
-135.399	-41.527	0.301	0.151
-134.385	-20.504	-0.192	0.115
-133.370	-99.369	-0.355	0.087
-132.356	-195.120	-0.154	-0.001
-131.341	-69.627	-0.234	-0.087
-130.326	-200.000	0.008	0.289
-129.312	-69.932	-0.159	-0.059
-128.297	89.381	0.137	0.148
-127.283	-200.000	-0.010	-0.046
-126.268	32.294	0.054	-0.045
-125.253	249.425	0.219	-0.361
-124.239	-200.000	0.011	-0.302
-123.224	-110.995	-0.069	0.014
-122.210	-140.026	0.400	0.041
