DTS Sentinel unit serial number:	SN413079Multiplexer serial number:	ORYXHardware model number:	OX4-SRSoftware version number:	ORYX F/W v4.00 Oryx Data Collector v3.7.2.0data status	okinstallation	princeton_trtdifferential loss correction	single-endedforward channel	channel 2reverse channel	N/Adate	2019/09/13time	18:19:35forward acquisition time	60.00reverse acquisition time	0.00gamma	496.2192k internal	0.2319k external	0.2319temperature offset calibration	1.0200default loss term (dB/km)	0.3790temperature slope calibration	1.0000multiplexer offset coefficient	1.0000multiplexer slope coefficient	1.0000fibre end	0.00T internal ref (°C)	33.97T ext. ref 1 (°C)	4.39T ext. ref 2 (°C)	26.86length (m)	temperature (°C)	Stokes	anti-Stokes-747.200	221.434	-0.130	-0.211
-746.185	800.000	0.135	0.412
-745.171	48.952	0.226	-0.215
-744.156	647.130	0.082	0.213
-743.142	356.586	-0.117	-0.236
-742.127	-10.355	-0.498	0.334
-741.112	117.685	-0.158	0.197
-740.098	-200.000	0.030	0.457
-739.083	13.768	0.158	0.125
-738.069	-200.000	0.050	0.430
-737.054	-200.000	-0.050	0.596
-736.039	-136.944	-0.416	0.048
-735.025	-73.826	0.178	-0.066
-734.010	-200.000	0.038	0.320
-732.996	-200.000	-0.029	-0.262
-731.981	183.304	-0.062	0.093
-730.966	-5.337	-0.091	-0.063
-729.952	-9.645	-0.162	-0.109
-728.937	43.335	-0.244	0.226
-727.923	-200.000	-0.018	-0.183
-726.908	-98.044	0.205	-0.053
-725.894	291.367	0.064	-0.118
-724.879	-200.000	-0.018	0.086
-723.864	750.764	-0.090	-0.246
-722.850	-200.000	0.031	0.164
-721.835	-5.964	0.110	-0.076
-720.821	-175.412	0.317	0.009
-719.806	665.984	0.079	0.207
-718.791	-158.725	-0.359	0.021
-717.777	348.288	-0.114	-0.228
-716.762	2.335	-0.099	-0.072
-715.748	124.606	-0.175	-0.222
-714.733	-101.885	-0.328	0.080
-713.718	212.521	-0.090	-0.143
-712.704	800.000	0.014	-0.042
-711.689	800.000	0.097	0.392
-710.675	249.473	0.106	0.182
-709.660	-200.000	0.007	-0.079
-708.645	154.737	-0.067	0.093
-707.631	198.160	-0.081	0.126
-706.616	800.000	-0.097	-0.288
-705.602	525.223	-0.204	-0.485
-704.587	-200.000	0.020	-0.092
-703.572	12.926	0.197	0.154
-702.558	-83.791	0.120	-0.039
-701.543	800.000	0.035	0.100
-700.529	-105.615	0.074	0.017
-699.514	800.000	-0.050	-0.155
-698.499	-170.688	-0.353	0.012
-697.485	-164.007	-0.125	-0.006
-696.470	351.258	-0.055	-0.110
-695.456	-200.000	-0.209	0.001
-694.441	-111.887	0.071	-0.015
-693.426	800.000	-0.037	0.106
-692.412	800.000	-0.098	0.354
-691.397	52.078	-0.097	-0.094
-690.383	-70.250	-0.153	-0.059
-689.368	-35.007	0.367	-0.202
-688.354	-111.472	0.067	-0.014
-687.339	-80.639	0.465	0.156
-686.324	800.000	-0.034	0.147
-685.310	536.535	-0.121	0.290
-684.295	800.000	-0.056	-0.226
-683.281	566.383	0.024	-0.060
-682.266	-200.000	0.067	-0.296
-681.251	-200.000	-0.009	-0.082
-680.237	-116.976	-0.212	0.039
-679.222	-168.153	-0.093	-0.004
-678.208	664.189	-0.054	-0.140
-677.193	-92.419	0.423	-0.120
-676.178	133.607	0.157	0.205
-675.164	87.005	-0.053	0.059
-674.149	-200.000	-0.055	-0.275
-673.135	-21.031	0.131	0.081
-672.120	800.000	-0.115	-0.333
-671.105	-157.073	-0.201	0.012
-670.091	-165.573	0.287	-0.013
-669.076	-123.968	-0.158	0.025
-668.062	224.143	0.144	-0.235
-667.047	202.332	0.154	-0.239
-666.032	352.560	-0.196	-0.393
-665.018	-64.793	0.378	-0.154
-664.003	800.000	-0.038	-0.117
-662.989	120.208	0.127	0.159
-661.974	-200.000	-0.009	-0.298
-660.959	133.640	0.200	0.261
-659.945	-200.000	-0.060	0.479
-658.930	-63.370	0.054	0.022
-657.916	257.989	-0.083	0.144
-656.901	693.574	-0.149	0.393
-655.886	-61.635	-0.166	0.070
-654.872	48.262	-0.228	-0.215
-653.857	-200.000	-0.010	0.047
-652.843	800.000	-0.005	-0.014
-651.828	800.000	0.020	0.074
-650.814	-103.808	-0.115	-0.027
-649.799	-16.696	0.326	0.208
-648.784	167.839	-0.068	0.098
-647.770	110.518	-0.164	0.198
-646.755	-200.000	0.009	-0.337
-645.741	-200.000	-0.003	-0.189
-644.726	-200.000	0.010	0.228
-643.711	426.236	-0.133	-0.288
-642.697	-77.837	-0.278	-0.097
-641.682	94.738	0.283	-0.325
-640.668	-111.422	-0.260	-0.053
-639.653	-85.961	0.412	-0.128
-638.638	-7.841	0.140	0.095
-637.624	12.630	0.216	-0.168
-636.609	1.067	-0.082	0.059
-635.595	-42.043	0.141	0.073
-634.580	800.000	0.043	0.139
-633.565	73.039	-0.175	-0.184
-632.551	-174.548	-0.126	0.004
-631.536	-94.832	0.072	0.020
-630.522	175.902	0.103	-0.150
-629.507	161.600	0.117	0.165
-628.492	-200.000	-0.017	0.091
-627.478	-58.000	-0.158	0.069
-626.463	236.642	0.091	-0.152
-625.449	800.000	0.107	-0.333
-624.434	-63.810	-0.134	0.055
-623.419	145.524	0.129	0.174
-622.405	-46.728	0.208	0.103
-621.390	105.494	0.142	-0.169
-620.376	13.882	0.268	0.209
-619.361	800.000	0.028	-0.083
-618.346	-43.037	-0.300	-0.153
-617.332	788.557	-0.021	-0.058
-616.317	-200.000	-0.039	-0.260
-615.303	-54.859	0.203	0.092
-614.288	312.871	-0.045	0.085
-613.273	-105.555	0.196	-0.045
-612.259	-81.239	-0.306	0.102
-611.244	-159.462	-0.050	0.003
-610.230	-59.260	0.376	0.163
-609.215	-200.000	-0.015	0.297
-608.201	23.987	-0.031	-0.026
-607.186	-179.335	0.186	-0.004
-606.171	-200.000	-0.014	-0.513
-605.157	-160.625	-0.180	-0.010
-604.142	800.000	0.093	-0.315
-603.128	-95.936	-0.071	0.019
-602.113	-200.000	-0.005	0.145
-601.098	39.084	-0.155	-0.139
-600.084	-25.959	-0.278	-0.165
-599.069	-9.603	0.126	-0.085
-598.055	-8.528	-0.151	0.102
-597.040	-36.507	-0.246	-0.133
-596.025	222.557	0.131	-0.212
-595.011	-107.353	-0.145	0.032
-593.996	-65.318	-0.265	0.107
-592.982	15.945	-0.193	0.153
-591.967	-78.537	-0.111	-0.038
-590.952	56.990	0.114	0.112
-589.938	-115.663	0.103	-0.019
-588.923	141.849	-0.064	0.086
-587.909	-37.922	-0.370	-0.198
-586.894	105.748	-0.243	-0.289
-585.879	-200.000	-0.022	-0.337
-584.865	55.501	-0.116	-0.113
-583.850	-200.000	0.005	0.150
-582.836	39.164	0.207	0.186
-581.821	-119.353	-0.387	-0.068
-580.806	73.569	-0.102	0.107
-579.792	14.256	-0.121	-0.095
-578.777	-45.017	-0.285	-0.142
-577.763	-166.740	0.141	0.006
-576.748	-48.648	-0.317	0.153
-575.733	-182.608	0.221	0.004
-574.719	-28.297	0.282	0.163
-573.704	93.160	-0.123	0.140
-572.690	-200.000	-0.038	-0.382
-571.675	-121.471	-0.094	0.016
-570.661	-200.000	0.019	0.136
-569.646	188.680	-0.106	0.160
-568.631	800.000	-0.035	0.117
-567.617	165.430	0.195	-0.277
-566.602	259.597	0.136	0.235
-565.588	233.451	0.054	0.089
-564.573	35.797	0.234	-0.207
-563.558	-113.565	0.096	0.019
-562.544	-109.590	0.248	0.053
-561.529	416.412	-0.152	-0.325
-560.515	60.013	-0.252	-0.251
-559.500	-186.967	0.178	-0.002
-558.485	-99.863	-0.408	0.103
-557.471	-200.000	-0.042	0.414
-556.456	549.561	-0.190	0.457
-555.442	52.355	0.134	-0.128
-554.427	-75.535	0.107	-0.038
-553.412	402.521	0.111	-0.234
-552.398	310.953	0.191	0.359
-551.383	800.000	-0.044	0.190
-550.369	-126.697	0.351	-0.052
-549.354	-139.576	0.174	-0.019
-548.339	-100.542	-0.282	0.070
-547.325	-69.355	-0.088	0.034
-546.310	800.000	-0.062	0.232
-545.296	-104.385	-0.148	0.034
-544.281	-103.432	0.141	0.033
-543.266	87.572	0.102	-0.113
-542.252	259.166	-0.106	0.183
-541.237	86.069	0.184	-0.204
-540.223	151.785	-0.117	-0.160
-539.208	-75.000	-0.486	0.175
-538.193	800.000	-0.096	-0.289
-537.179	425.157	0.088	-0.189
-536.164	-200.000	0.019	0.140
-535.150	269.444	0.071	0.125
-534.135	-200.000	0.037	0.243
-533.121	241.420	0.015	-0.025
-532.106	261.938	0.085	0.148
-531.091	12.176	0.295	-0.228
-530.077	544.876	0.069	-0.166
-529.062	243.569	-0.152	-0.256
-528.048	-107.952	0.142	0.031
-527.033	-15.615	0.169	-0.108
-526.018	254.113	0.234	0.402
-525.004	108.600	0.083	0.100
-523.989	217.938	-0.154	-0.247
-522.975	-10.248	0.080	0.053
-521.960	-75.423	-0.249	0.089
-520.945	280.124	0.110	0.198
-519.931	332.231	-0.073	-0.141
-518.916	17.924	-0.227	0.182
-517.902	-200.000	-0.011	-0.589
-516.887	-95.783	0.042	-0.011
-515.872	-200.000	-0.035	0.408
-514.858	-100.166	-0.072	-0.018
-513.843	-67.130	0.255	-0.101
-512.829	36.479	0.226	-0.200
-511.814	-200.000	-0.007	-0.213
-510.799	-200.000	0.014	-0.138
-509.785	-108.241	-0.162	-0.035
-508.770	358.164	0.057	0.114
-507.756	173.261	0.083	-0.119
-506.741	590.660	0.046	-0.113
-505.726	624.135	0.061	0.155
-504.712	-21.845	0.295	-0.180
-503.697	-30.035	0.201	0.115
-502.683	148.852	0.154	-0.209
-501.668	-200.000	0.024	-0.299
-500.653	132.009	-0.257	0.332
-499.639	-35.703	-0.124	-0.067
-498.624	-200.000	0.041	0.239
-497.610	-30.771	-0.232	-0.131
-496.595	416.819	0.034	0.072
-495.581	76.278	-0.276	0.292
-494.566	-160.984	-0.365	0.019
-493.551	-200.000	-0.016	-0.270
-492.537	-41.166	0.190	0.098
-491.522	-125.799	0.249	-0.038
-490.508	496.849	0.105	0.241
-489.493	-1.975	0.052	-0.037
-488.478	231.399	0.073	-0.120
-487.464	800.000	-0.035	0.126
-486.449	56.037	-0.324	0.315
-485.435	-186.816	0.234	0.003
-484.420	-200.000	0.004	0.122
-483.405	191.651	0.138	0.208
-482.391	-124.880	0.019	0.003
-481.376	-96.936	-0.181	0.048
-480.362	-52.996	0.309	-0.142
-479.347	-28.477	-0.237	-0.137
-478.332	-124.022	-0.147	-0.023
-477.318	-38.287	-0.204	0.108
-476.303	-65.224	-0.369	0.149
-475.289	33.373	0.061	0.053
-474.274	-155.937	-0.379	0.024
-473.259	578.215	-0.115	0.282
-472.245	325.807	0.145	0.277
-471.230	29.025	0.161	-0.136
-470.216	-71.936	-0.227	0.085
-469.201	215.776	0.228	0.363
-468.186	-167.066	-0.231	0.009
-467.172	-92.120	-0.193	0.054
-466.157	-147.888	-0.257	0.021
-465.143	551.056	0.064	-0.155
-464.128	300.204	-0.057	0.106
-463.113	-200.000	0.015	0.353
-462.099	-72.595	0.228	0.084
-461.084	313.279	0.081	-0.152
-460.070	100.124	-0.146	-0.170
-459.055	260.391	0.083	0.144
-458.040	2.779	-0.106	0.077
-457.026	37.119	-0.127	0.112
-456.011	630.508	-0.058	-0.147
-454.997	382.601	0.019	-0.040
-453.982	800.000	-0.068	0.289
-452.968	294.161	-0.080	0.145
-451.953	-15.747	-0.276	-0.176
-450.938	52.237	-0.111	-0.106
-449.924	39.071	0.115	-0.103
-448.909	9.151	0.325	-0.245
-447.895	-121.866	0.133	-0.022
-446.880	43.209	-0.160	0.146
-445.865	-200.000	0.031	-0.252
-444.851	107.696	-0.099	-0.118
-443.836	-200.000	-0.002	0.098
-442.822	57.365	-0.217	-0.212
-441.807	-49.365	-0.111	-0.053
-440.792	565.355	-0.054	0.131
-439.778	-25.088	0.157	-0.093
-438.763	-97.370	0.147	0.038
-437.749	136.504	-0.069	-0.090
-436.734	-22.174	0.376	-0.228
-435.719	363.082	0.048	0.096
-434.705	87.412	0.066	0.072
-433.690	-82.882	-0.165	0.053
-432.676	-48.297	0.046	0.022
-431.661	-99.948	-0.168	-0.042
-430.646	35.531	-0.224	0.196
-429.632	-7.886	-0.081	-0.055
-428.617	176.234	-0.084	0.122
-427.603	800.000	0.056	0.183
-426.588	-200.000	0.003	0.047
-425.573	-200.000	0.011	-0.210
-424.559	-16.845	0.129	-0.082
-423.544	-3.645	-0.259	0.180
-422.530	-98.127	0.103	-0.027
-421.515	-61.555	0.132	0.056
-420.500	-67.158	0.078	-0.031
-419.486	-72.120	0.059	-0.022
-418.471	-68.108	-0.209	0.081
-417.457	-200.000	-0.047	-0.269
-416.442	-122.267	-0.140	0.023
-415.428	-50.646	0.216	0.101
-414.413	91.014	-0.257	0.288
-413.398	-41.950	-0.106	-0.054
-412.384	-40.721	0.394	-0.204
-411.369	310.016	-0.145	0.272
-410.355	-26.467	-0.193	-0.113
-409.340	501.291	-0.108	-0.249
-408.325	-129.246	0.296	0.041
-407.311	-200.000	0.007	-0.081
-406.296	387.126	-0.233	-0.481
-405.282	298.154	-0.151	-0.277
-404.267	-84.931	-0.238	0.075
-403.252	341.227	-0.115	-0.225
-402.238	-112.730	-0.238	-0.047
-401.223	-200.000	-0.016	-0.363
-400.209	20.013	0.161	-0.129
-399.194	201.092	0.184	0.283
-398.179	85.576	-0.054	0.060
-397.165	93.896	0.058	0.065
-396.150	800.000	-0.051	0.194
-395.136	800.000	0.031	0.110
-394.121	-200.000	-0.011	0.113
-393.106	-200.000	0.019	0.172
-392.092	-200.000	0.007	0.117
-391.077	-104.961	0.133	0.030
-390.063	800.000	0.056	-0.169
-389.048	170.992	-0.173	-0.248
-388.033	-76.579	-0.294	-0.103
-387.019	502.348	0.141	-0.326
-386.004	-29.080	0.147	0.084
-384.990	153.004	-0.135	-0.185
-383.975	-4.747	-0.274	0.189
-382.960	1.173	0.192	-0.138
-381.946	-131.627	-0.180	0.024
-380.931	75.955	0.109	-0.115
-379.917	14.937	-0.291	-0.228
-378.902	21.355	0.325	-0.263
-377.888	-55.762	0.151	0.067
-376.873	-200.000	-0.031	0.159
-375.858	243.421	-0.094	-0.158
-374.844	800.000	0.076	-0.248
-373.829	-87.318	0.129	0.039
-372.815	365.008	0.108	0.216
-371.800	800.000	0.094	-0.334
-370.785	-85.772	-0.188	-0.058
-369.771	800.000	0.048	-0.145
-368.756	-89.406	0.375	0.110
-367.742	2.788	-0.200	0.145
-366.727	-25.803	-0.363	-0.213
-365.712	407.888	0.045	0.094
-364.698	-200.000	-0.015	-0.155
-363.683	-12.399	-0.069	-0.045
-362.669	-200.000	0.034	-0.381
-361.654	-8.947	0.120	-0.080
-360.639	289.669	-0.120	0.217
-359.625	72.308	-0.198	-0.206
-358.610	-200.000	-0.001	0.108
-357.596	79.910	-0.101	-0.108
-356.581	800.000	-0.065	0.266
-355.566	-94.008	-0.179	0.049
-354.552	154.641	0.196	0.269
-353.537	-200.000	-0.046	-0.241
-352.523	-200.000	0.053	-0.314
-351.508	737.950	0.113	0.302
-350.493	-7.736	0.126	0.085
-349.479	36.910	-0.114	-0.101
-348.464	204.947	0.189	-0.292
-347.450	251.708	0.133	-0.226
-346.435	684.596	0.053	0.139
-345.420	-141.490	0.253	-0.026
-344.406	457.500	0.049	0.109
-343.391	287.713	-0.112	0.203
-342.377	289.675	0.246	-0.445
-341.362	-20.034	-0.285	0.175
-340.348	-128.939	-0.174	-0.024
-339.333	259.867	-0.174	-0.299
-338.318	-50.566	0.147	0.069
-337.304	396.262	0.033	0.068
-336.289	-106.312	-0.517	-0.115
-335.275	-69.206	0.143	0.055
-334.260	800.000	-0.115	0.464
-333.245	68.644	0.088	-0.090
-332.231	224.147	0.103	0.166
-331.216	800.000	0.065	-0.202
-330.202	-86.110	-0.204	-0.063
-329.187	34.334	-0.064	-0.056
-328.172	-48.857	-0.245	0.117
-327.158	-36.798	-0.269	0.144
-326.143	-200.000	-0.013	0.272
-325.129	58.470	0.217	0.212
-324.114	-200.000	0.038	-0.315
-323.099	300.753	-0.169	-0.311
-322.085	262.699	-0.012	0.021
-321.070	22.647	0.234	0.191
-320.056	-200.000	0.007	0.147
-319.041	-121.999	0.149	-0.024
-318.026	-41.311	0.101	0.052
-317.012	-114.575	0.276	0.053
-315.997	230.993	-0.124	-0.202
-314.983	-56.961	0.169	-0.074
-313.968	800.000	-0.074	-0.233
-312.953	-88.758	0.295	0.087
-311.939	800.000	-0.066	-0.241
-310.924	736.024	0.065	-0.173
-309.910	679.990	-0.069	-0.179
-308.895	155.075	-0.092	0.126
-307.880	133.284	0.169	-0.217
-306.866	-89.420	-0.233	0.068
-305.851	800.000	-0.095	0.312
-304.837	-33.552	0.317	-0.174
-303.822	-200.000	0.022	0.142
-302.807	-200.000	-0.026	-0.210
-301.793	800.000	0.119	0.518
-300.778	519.806	0.076	0.176
-299.764	-68.669	0.111	0.043
-298.749	-113.974	-0.279	-0.054
-297.735	-200.000	0.013	0.129
-296.720	453.121	-0.152	0.335
-295.705	269.948	-0.115	0.201
-294.691	800.000	-0.078	0.283
-293.676	-200.000	-0.007	0.272
-292.662	-51.454	0.304	-0.141
-291.647	-124.142	0.277	0.043
-290.632	-200.000	-0.061	0.320
-289.618	-115.538	0.051	-0.009
-288.603	25.696	0.094	-0.078
-287.589	-146.510	-0.119	-0.010
-286.574	568.220	-0.031	0.074
-285.559	-101.006	0.167	-0.041
-284.545	-141.684	-0.221	-0.022
-283.530	-200.000	-0.005	-0.119
-282.516	-44.114	-0.112	-0.056
-281.501	-58.968	0.176	-0.076
-280.486	-158.513	0.021	0.001
-279.472	86.147	-0.120	0.131
-278.457	-115.997	-0.200	0.037
-277.443	-147.044	0.142	-0.012
-276.428	44.919	0.214	-0.196
-275.413	175.338	0.224	0.322
-274.399	-76.677	0.182	0.064
-273.384	17.142	-0.240	-0.189
-272.370	-187.207	0.142	-0.002
-271.355	-64.939	0.329	0.132
-270.340	-62.539	0.184	-0.076
-269.326	-200.000	0.011	-0.127
-268.311	-90.081	0.134	-0.039
-267.297	-91.030	0.167	-0.048
-266.282	52.516	0.167	-0.158
-265.267	-85.968	0.328	0.101
-264.253	800.000	-0.058	-0.214
-263.238	-62.442	-0.072	-0.030
-262.224	-82.589	-0.098	-0.032
-261.209	-27.888	-0.199	0.114
-260.195	179.313	-0.240	0.349
-259.180	-28.418	0.172	-0.098
-258.165	206.775	0.251	-0.389
-257.151	235.579	-0.087	-0.142
-256.136	-200.000	-0.037	-0.187
-255.122	6.391	-0.046	0.034
-254.107	-200.000	-0.043	0.325
-253.092	-89.538	0.274	0.080
-252.078	800.000	-0.090	0.288
-251.063	286.194	-0.069	0.123
-250.049	34.716	-0.061	0.053
-249.034	49.972	-0.026	0.024
-248.019	223.773	-0.122	-0.196
-247.005	165.149	0.148	0.207
-245.990	107.184	-0.094	-0.111
-244.976	-97.709	0.257	0.066
-243.961	-200.000	0.363	0.001
-242.946	278.525	0.186	-0.330
-241.932	187.470	-0.061	-0.090
-240.917	800.000	0.063	0.195
-239.903	-102.921	-0.365	-0.086
-238.888	-52.976	0.199	-0.091
-237.873	-84.250	-0.127	-0.040
-236.859	67.826	-0.104	0.105
-235.844	-90.390	0.292	0.084
-234.830	0.554	-0.191	0.136
-233.815	18.796	0.122	-0.097
-232.800	-16.800	-0.187	-0.117
-231.786	-63.804	-0.129	-0.053
-230.771	-5.638	0.272	-0.185
-229.757	121.894	-0.195	0.241
-228.742	142.736	-0.120	-0.158
-227.727	-15.568	0.245	-0.155
-226.713	-134.862	0.032	-0.004
-225.698	629.128	-0.039	-0.098
-224.684	-111.078	-0.103	-0.021
-223.669	181.309	0.056	-0.082
-222.655	-56.224	0.181	0.080
-221.640	-13.184	-0.072	0.047
-220.625	649.002	0.053	0.135
-219.611	-0.225	-0.262	0.185
-218.596	-200.000	0.037	-0.260
-217.582	-136.185	0.116	-0.013
-216.567	212.617	0.064	-0.101
-215.552	-101.431	0.207	0.050
-214.538	27.124	0.052	-0.043
-213.523	-200.000	-0.000	-0.049
-212.509	800.000	-0.106	0.313
-211.494	-83.674	-0.095	0.030
-210.479	27.036	0.104	0.086
-209.465	218.300	0.142	0.225
-208.450	-200.000	-0.019	-0.409
-207.436	-113.735	0.082	0.016
-206.421	800.000	0.049	0.174
-205.406	-25.262	0.173	0.102
-204.392	30.286	-0.173	-0.147
-203.377	-176.047	0.198	-0.005
-202.363	-138.836	-0.359	-0.039
-201.348	-54.006	0.318	-0.143
-200.333	-200.000	0.005	-0.185
-199.319	20.051	0.119	0.095
-198.304	800.000	0.074	0.229
-197.290	5.654	0.047	-0.035
-196.275	118.051	-0.191	0.233
-195.260	-138.022	0.158	0.017
-194.246	-200.000	0.011	-0.069
-193.231	-57.853	-0.150	-0.065
-192.217	-200.000	0.024	0.118
-191.202	549.147	-0.070	0.165
-190.187	-48.963	-0.135	0.064
-189.173	-123.048	-0.310	0.049
-188.158	-30.642	0.397	-0.223
-187.144	-34.639	-0.101	0.054
-186.129	800.000	0.059	0.190
-185.114	227.566	0.078	0.125
-184.100	-130.374	0.279	0.037
-183.085	800.000	0.041	0.143
-182.071	800.000	-0.147	0.442
-181.056	90.258	-0.195	0.216
-180.042	313.804	-0.022	0.042
-179.027	623.718	-0.073	0.183
-178.012	-200.000	-0.005	-0.037
-176.998	163.054	0.270	-0.376
-175.983	-92.061	0.227	-0.064
-174.969	-108.660	-0.409	-0.087
-173.954	141.041	0.151	0.198
-172.939	-28.933	0.200	0.114
-171.925	800.000	-0.040	0.124
-170.910	-200.000	0.028	0.185
-169.896	149.790	0.219	0.294
-168.881	-48.452	0.136	-0.065
-167.866	455.619	0.030	-0.067
-166.852	-200.000	0.031	0.226
-165.837	800.000	-0.080	0.288
-164.823	-9.616	-0.083	0.054
-163.808	115.243	-0.222	-0.268
-162.793	-200.000	0.002	-0.307
-161.779	-134.650	-0.239	-0.029
-160.764	-120.148	0.213	-0.036
-159.750	9.450	0.165	0.124
-158.735	28.716	-0.275	-0.230
-157.720	339.237	-0.066	0.128
-156.706	-86.425	-0.323	0.098
-155.691	82.966	-0.274	0.294
-154.677	178.219	-0.060	-0.087
-153.662	-12.234	0.456	-0.295
-152.647	88.020	0.158	-0.173
-151.633	-200.000	-0.028	0.154
-150.618	-31.178	-0.204	-0.114
-149.604	-21.972	0.136	-0.081
-148.589	17.907	0.030	0.024
-147.574	421.452	-0.057	0.121
-146.560	413.478	-0.070	-0.148
-145.545	-200.000	-0.020	0.265
-144.531	504.031	0.037	0.085
-143.516	-37.653	-0.055	-0.029
-142.502	226.292	-0.198	-0.317
-141.487	-113.534	0.310	0.060
-140.472	287.634	-0.082	-0.146
-139.458	-200.000	0.006	0.120
-138.443	769.334	-0.044	-0.117
-137.429	-134.471	0.160	0.019
-136.414	-200.000	0.041	-0.319
-135.399	26.788	0.101	-0.084
-134.385	-44.387	-0.313	0.155
-133.370	-95.454	-0.225	0.060
-132.356	-200.000	0.016	0.160
-131.341	127.300	0.185	0.232
-130.326	710.466	0.090	-0.236
-129.312	-200.000	-0.002	-0.144
-128.297	0.652	-0.255	-0.180
-127.283	168.607	-0.195	0.275
-126.268	-112.454	0.088	0.017
-125.253	93.144	0.149	0.166
-124.239	-200.000	0.006	0.469
-123.224	800.000	0.094	0.298
-122.210	233.999	0.069	0.112
-121.195	-200.000	-0.014	-0.158
