DTS Sentinel unit serial number:	SN413079Multiplexer serial number:	ORYXHardware model number:	OX4-SRSoftware version number:	ORYX F/W v4.00 Oryx Data Collector v3.7.2.0data status	okinstallation	princeton_trtdifferential loss correction	single-endedforward channel	channel 2reverse channel	N/Adate	2019/09/18time	17:51:35forward acquisition time	60.00reverse acquisition time	0.00gamma	496.2192k internal	0.2300k external	0.2300temperature offset calibration	1.0023default loss term (dB/km)	0.3790temperature slope calibration	1.0000multiplexer offset coefficient	1.0000multiplexer slope coefficient	1.0000fibre end	0.00T internal ref (°C)	40.12T ext. ref 1 (°C)	0.93T ext. ref 2 (°C)	31.62length (m)	temperature (°C)	Stokes	anti-Stokes-747.200	781.368	-0.112	0.314
-746.185	-90.919	-0.176	-0.052
-745.171	800.000	0.085	0.338
-744.156	-200.000	0.039	0.195
-743.142	333.753	-0.109	-0.214
-742.127	245.870	-0.102	0.175
-741.112	456.754	0.187	0.423
-740.098	382.579	0.122	0.257
-739.083	74.002	-0.255	-0.273
-738.069	25.144	0.214	0.181
-737.054	613.592	-0.060	0.154
-736.039	-59.225	-0.179	0.079
-735.025	110.939	-0.167	0.205
-734.010	-103.472	-0.143	-0.034
-732.996	374.973	-0.023	-0.049
-731.981	-200.000	0.004	0.274
-730.966	-58.803	-0.358	0.158
-729.952	-57.241	-0.412	-0.185
-728.937	-153.684	-0.197	-0.014
-727.923	15.497	-0.387	-0.310
-726.908	-148.631	-0.297	-0.025
-725.894	-125.658	0.126	-0.020
-724.879	-13.759	-0.304	-0.200
-723.864	-29.029	-0.334	0.195
-722.850	354.808	0.087	-0.176
-721.835	13.152	-0.120	0.095
-720.821	127.499	-0.180	-0.233
-719.806	-200.000	-0.040	0.251
-718.791	473.621	0.151	-0.347
-717.777	410.942	0.059	-0.127
-716.762	-88.559	-0.279	0.085
-715.748	-200.000	0.028	-0.286
-714.733	573.634	-0.143	0.354
-713.718	172.869	-0.129	-0.190
-712.704	-10.858	0.177	-0.119
-711.689	-100.874	-0.307	-0.077
-710.675	-108.168	-0.394	0.087
-709.660	-200.000	0.064	-0.374
-708.645	54.251	-0.154	0.151
-707.631	-136.063	0.336	0.040
-706.616	112.040	0.115	0.141
-705.602	502.075	0.037	-0.088
-704.587	-24.032	-0.086	-0.052
-703.572	137.135	0.107	-0.143
-702.558	-65.316	-0.086	-0.035
-701.543	-66.910	0.015	0.006
-700.529	112.967	0.090	-0.111
-699.514	16.601	0.165	-0.133
-698.499	-152.340	0.148	-0.011
-697.485	22.902	0.233	0.195
-696.470	-200.000	0.003	-0.120
-695.456	109.857	0.075	0.091
-694.441	800.000	-0.018	0.077
-693.426	502.067	-0.081	0.191
-692.412	-200.000	0.047	-0.285
-691.397	40.088	0.290	-0.266
-690.383	389.281	-0.069	0.146
-689.368	-188.235	-0.191	-0.002
-688.354	800.000	0.084	-0.291
-687.339	128.856	-0.255	0.332
-686.324	-112.537	-0.261	0.053
-685.310	-61.007	-0.085	-0.037
-684.295	1.228	-0.189	-0.138
-683.281	745.767	-0.044	0.120
-682.266	-135.161	-0.031	0.004
-681.251	800.000	0.084	0.251
-680.237	-200.000	0.006	-0.119
-679.222	101.059	0.093	0.110
-678.208	-127.960	-0.027	-0.004
-677.193	397.924	-0.038	0.081
-676.178	111.931	-0.278	-0.342
-675.164	56.129	0.083	0.082
-674.149	-167.590	-0.162	-0.007
-673.135	-68.870	0.052	0.021
-672.120	800.000	-0.132	0.498
-671.105	58.951	0.262	-0.262
-670.091	227.878	-0.074	-0.123
-669.076	185.835	-0.062	0.093
-668.062	-123.506	0.146	-0.024
-667.047	120.872	-0.245	-0.310
-666.032	-200.000	0.005	0.031
-665.018	210.991	0.142	-0.226
-664.003	800.000	-0.034	0.138
-662.989	15.047	0.004	0.003
-661.974	800.000	0.031	-0.122
-660.959	-62.962	-0.137	0.057
-659.945	-124.507	0.075	0.012
-658.930	139.244	-0.266	-0.356
-657.916	-162.911	-0.461	0.023
-656.901	725.272	0.093	-0.251
-655.886	85.555	0.084	0.093
-654.872	-47.685	0.209	0.103
-653.857	-184.197	-0.426	-0.007
-652.843	114.326	0.126	-0.156
-651.828	209.377	0.059	-0.094
-650.814	115.605	0.194	0.241
-649.799	-109.377	0.130	0.028
-648.784	-122.912	-0.149	0.024
-647.770	66.562	-0.047	0.049
-646.755	-139.399	-0.355	-0.039
-645.741	-17.353	-0.253	0.162
-644.726	159.536	-0.017	0.024
-643.711	-67.523	-0.277	-0.111
-642.697	-200.000	0.007	-0.058
-641.682	-15.360	-0.097	0.063
-640.668	-200.000	0.019	-0.441
-639.653	-65.927	-0.270	0.110
-638.638	-200.000	-0.016	0.199
-637.624	321.049	0.156	-0.301
-636.609	-30.561	-0.263	0.152
-635.595	-9.879	0.244	0.165
-634.580	800.000	0.063	0.265
-633.565	-70.636	0.093	0.036
-632.551	-24.589	-0.230	-0.139
-631.536	-27.138	0.169	0.100
-630.522	-68.664	0.338	-0.133
-629.507	301.448	0.092	-0.172
-628.492	124.783	0.225	-0.288
-627.478	220.086	0.175	0.284
-626.463	-200.000	-0.002	0.044
-625.449	-200.000	-0.007	0.183
-624.434	-39.812	-0.255	-0.135
-623.419	-99.379	-0.207	0.053
-622.405	62.469	0.215	-0.218
-621.390	27.347	0.172	0.147
-620.376	800.000	-0.039	-0.163
-619.361	-139.201	-0.158	0.017
-618.346	310.068	-0.097	-0.184
-617.332	603.826	0.052	-0.131
-616.317	-86.707	0.305	0.095
-615.303	390.045	-0.064	-0.136
-614.288	-200.000	0.014	0.180
-613.273	117.159	-0.092	0.115
-612.259	44.032	0.193	0.180
-611.244	-71.158	0.144	0.055
-610.230	66.018	-0.251	0.258
-609.215	-200.000	0.074	0.340
-608.201	-62.594	0.400	0.169
-607.186	42.975	0.224	0.208
-606.171	-104.321	-0.231	0.054
-605.157	80.019	0.145	-0.158
-604.142	800.000	-0.056	0.224
-603.128	234.419	0.129	-0.215
-602.113	800.000	0.029	-0.087
-601.098	47.524	-0.069	0.066
-600.084	-46.235	-0.460	-0.229
-599.069	-200.000	-0.003	-0.280
-598.055	800.000	0.107	-0.359
-597.040	800.000	-0.032	0.139
-596.025	-41.799	-0.215	-0.112
-595.011	150.872	0.247	-0.340
-593.996	800.000	-0.062	0.230
-592.982	-200.000	-0.033	0.286
-591.967	-30.330	0.037	0.021
-590.952	337.507	-0.158	-0.312
-589.938	-200.000	-0.023	-0.265
-588.923	-200.000	-0.018	-0.215
-587.909	3.033	0.157	-0.116
-586.894	-8.614	-0.081	0.055
-585.879	-129.635	0.187	-0.026
-584.865	-200.000	-0.019	-0.153
-583.850	800.000	0.034	0.135
-582.836	696.494	0.020	-0.053
-581.821	373.380	-0.182	-0.375
-580.806	48.819	-0.132	-0.126
-579.792	-39.330	-0.295	-0.157
-578.777	-33.791	-0.140	-0.078
-577.763	48.125	-0.077	0.073
-576.748	-116.486	-0.307	0.057
-575.733	39.869	0.149	0.136
-574.719	-200.000	0.014	-0.191
-573.704	368.065	0.134	-0.274
-572.690	-200.000	-0.034	-0.237
-571.675	-200.000	-0.006	-0.330
-570.661	800.000	0.110	-0.345
-569.646	-102.414	0.106	0.026
-568.631	-13.667	-0.245	-0.161
-567.617	-62.152	0.051	-0.021
-566.602	800.000	0.058	-0.163
-565.588	506.757	-0.083	0.195
-564.573	-102.814	0.145	0.035
-563.558	-72.988	0.183	-0.068
-562.544	-2.647	-0.247	-0.175
-561.529	199.492	-0.081	0.125
-560.515	-45.065	0.266	-0.134
-559.500	241.372	-0.063	-0.106
-558.485	678.299	0.066	-0.173
-557.471	287.104	-0.038	0.070
-556.456	50.151	-0.116	0.111
-555.442	-53.692	0.199	-0.092
-554.427	19.704	-0.112	0.091
-553.412	-139.324	0.261	-0.028
-552.398	800.000	-0.112	-0.375
-551.383	-41.411	0.250	0.130
-550.369	518.029	-0.080	0.190
-549.354	-162.582	0.201	-0.010
-548.339	81.736	0.060	0.066
-547.325	-151.792	0.178	0.013
-546.310	-200.000	-0.020	0.093
-545.296	259.450	0.177	-0.310
-544.281	171.525	0.162	-0.236
-543.266	-181.336	0.390	0.008
-542.252	24.364	0.081	0.068
-541.237	-87.696	0.161	0.049
-540.223	800.000	-0.048	-0.185
-539.208	-200.000	-0.043	0.223
-538.193	800.000	0.029	-0.092
-537.179	800.000	0.022	0.067
-536.164	274.291	-0.125	0.224
-535.150	-126.929	0.391	0.058
-534.135	218.482	0.041	0.067
-533.121	463.865	0.013	-0.030
-532.106	-107.041	0.263	0.059
-531.091	-107.198	0.410	0.091
-530.077	2.038	0.040	0.029
-529.062	-200.000	0.009	0.092
-528.048	-156.437	-0.257	-0.016
-527.033	162.872	0.182	-0.259
-526.018	-21.310	0.093	0.057
-525.004	-55.695	0.114	-0.051
-523.989	-200.000	-0.002	-0.280
-522.975	718.026	-0.058	-0.156
-521.960	145.082	-0.071	-0.096
-520.945	-70.831	0.062	0.023
-519.931	-200.000	0.056	-0.327
-518.916	-111.351	-0.290	-0.060
-517.902	-200.000	-0.045	0.212
-516.887	-97.869	-0.199	-0.052
-515.872	194.948	0.117	0.180
-514.858	800.000	-0.062	0.222
-513.843	21.599	-0.329	-0.271
-512.829	345.844	-0.113	0.224
-511.814	-198.360	-0.222	0.001
-510.799	193.236	0.311	-0.475
-509.785	659.053	0.042	0.108
-508.770	-200.000	-0.021	-0.277
-507.756	-52.373	0.058	-0.027
-506.741	-71.833	-0.203	-0.077
-505.726	95.232	-0.189	-0.217
-504.712	-200.000	0.013	0.177
-503.697	-191.364	0.019	-0.000
-502.683	-170.045	0.076	0.003
-501.668	-40.673	-0.424	-0.222
-500.653	46.090	-0.026	0.024
-499.639	17.339	-0.150	-0.120
-498.624	100.469	-0.319	0.374
-497.610	-136.611	-0.200	-0.023
-496.595	-107.983	-0.385	-0.084
-495.581	312.894	0.061	0.117
-494.566	391.615	0.136	-0.286
-493.551	-44.145	-0.211	-0.107
-492.537	130.206	-0.181	0.234
-491.522	-59.557	-0.116	-0.050
-490.508	288.455	0.130	0.238
-489.493	216.619	-0.042	-0.068
-488.478	-194.625	-0.118	0.001
-487.464	57.208	0.163	0.161
-486.449	800.000	-0.120	-0.371
-485.435	-71.206	0.296	-0.112
-484.420	6.321	0.082	-0.061
-483.405	132.359	-0.171	0.223
-482.391	-200.000	0.029	-0.138
-481.376	398.151	0.041	0.086
-480.362	-12.509	0.244	0.161
-479.347	2.102	0.326	-0.238
-478.332	42.529	-0.250	0.229
-477.318	275.181	-0.133	0.237
-476.303	-200.000	-0.026	0.235
-475.289	-200.000	0.010	-0.115
-474.274	800.000	-0.048	0.150
-473.259	800.000	0.079	-0.309
-472.245	800.000	-0.067	-0.204
-471.230	-167.820	-0.505	-0.020
-470.216	-127.662	-0.459	0.067
-469.201	-118.692	0.075	0.013
-468.186	-72.293	0.286	-0.107
-467.172	-105.592	-0.108	-0.025
-466.157	48.022	0.148	-0.139
-465.143	-200.000	0.008	0.071
-464.128	3.436	-0.108	0.080
-463.113	-60.476	0.330	0.142
-462.099	209.090	0.078	-0.123
-461.084	-104.457	0.392	0.091
-460.070	139.777	0.149	0.198
-459.055	-119.289	0.349	0.061
-458.040	-194.251	0.211	-0.002
-457.026	800.000	0.090	-0.269
-456.011	114.918	0.209	-0.257
-454.997	104.828	-0.142	-0.168
-453.982	-49.367	0.185	-0.089
-452.968	-84.421	0.193	0.061
-451.953	-143.857	-0.378	-0.036
-450.938	-143.467	-0.079	-0.008
-449.924	800.000	0.029	0.110
-448.909	450.843	0.040	-0.088
-447.895	41.304	-0.251	-0.228
-446.880	800.000	0.080	-0.256
-445.865	10.199	-0.112	0.086
-444.851	326.437	-0.072	0.138
-443.836	-56.531	-0.166	0.074
-442.822	141.743	0.173	-0.230
-441.807	-200.000	0.020	0.198
-440.792	33.295	-0.256	0.224
-439.778	-200.000	0.015	0.075
-438.763	-200.000	-0.035	0.295
-437.749	144.463	0.296	-0.398
-436.734	156.549	-0.118	0.164
-435.719	-33.182	0.167	0.093
-434.705	50.363	0.155	-0.148
-433.690	375.754	0.043	-0.089
-432.676	659.631	-0.065	0.169
-431.661	-200.000	0.004	-0.044
-430.646	-36.331	0.054	-0.030
-429.632	-200.000	0.045	0.306
-428.617	-91.642	-0.277	-0.080
-427.603	-90.919	-0.177	-0.051
-426.588	91.032	0.195	0.220
-425.573	-140.829	0.111	0.011
-424.559	-200.000	0.005	0.035
-423.544	45.518	0.239	-0.222
-422.530	-172.242	0.103	-0.003
-421.515	386.860	-0.023	-0.047
-420.500	-69.302	-0.371	-0.144
-419.486	116.488	0.287	0.355
-418.471	15.399	-0.166	0.131
-417.457	-148.348	0.080	-0.007
-416.442	-57.001	0.158	0.070
-415.428	800.000	0.062	-0.198
-414.413	95.817	-0.039	0.045
-413.398	800.000	0.046	0.165
-412.384	-200.000	0.026	-0.128
-411.369	-200.000	0.003	-0.331
-410.355	-200.000	-0.035	0.287
-409.340	-44.595	-0.207	-0.104
-408.325	-200.000	-0.004	-0.499
-407.311	0.381	-0.269	0.193
-406.296	260.464	-0.111	-0.194
-405.282	-114.499	0.365	-0.071
-404.267	800.000	-0.047	-0.192
-403.252	-105.074	0.199	-0.046
-402.238	-22.292	0.321	-0.196
-401.223	-68.998	-0.047	-0.018
-400.209	114.824	-0.141	0.173
-399.194	800.000	0.011	-0.032
-398.179	64.964	0.168	-0.171
-397.165	-126.148	-0.160	-0.024
-396.150	800.000	-0.071	0.262
-395.136	204.472	0.007	0.011
-394.121	-200.000	0.053	-0.278
-393.106	248.713	-0.165	0.281
-392.092	-200.000	0.008	0.248
-391.077	-124.741	0.146	0.023
-390.063	-25.110	0.096	-0.057
-389.048	800.000	-0.084	-0.246
-388.033	-200.000	-0.025	0.215
-387.019	-165.320	-0.310	0.014
-386.004	-200.000	0.019	0.129
-384.990	-126.993	-0.115	-0.017
-383.975	800.000	0.089	0.372
-382.960	-200.000	0.045	-0.308
-381.946	-127.885	-0.104	-0.015
-380.931	-103.948	-0.145	-0.034
-379.917	-56.983	-0.135	0.060
-378.902	76.316	0.094	0.100
-377.888	-200.000	-0.001	-0.163
-376.873	146.311	-0.146	0.197
-375.858	-64.297	0.267	0.109
-374.844	-41.252	0.349	0.181
-373.829	8.453	-0.004	0.003
-372.815	-200.000	-0.014	0.295
-371.800	-139.342	0.138	-0.015
-370.785	-85.227	-0.143	0.045
-369.771	-15.574	-0.218	0.140
-368.756	175.183	0.055	-0.080
-367.742	-124.492	0.226	0.035
-366.727	-72.248	0.289	-0.108
-365.712	46.871	-0.127	0.119
-364.698	-200.000	0.052	0.338
-363.683	13.859	0.177	0.138
-362.669	-18.375	-0.099	0.062
-361.654	82.498	0.066	0.073
-360.639	-90.655	0.254	0.074
-359.625	-200.000	-0.002	0.076
-358.610	316.883	-0.073	-0.138
-357.596	300.434	-0.123	-0.228
-356.581	506.462	-0.034	0.079
-355.566	-50.880	-0.183	0.086
-354.552	218.395	0.108	0.173
-353.537	128.059	0.128	0.164
-352.523	800.000	-0.028	-0.083
-351.508	-200.000	-0.008	-0.249
-350.493	78.211	0.025	0.027
-349.479	380.591	-0.015	-0.032
-348.464	41.179	-0.018	0.017
-347.450	9.900	0.037	-0.028
-346.435	417.538	-0.075	0.160
-345.420	610.442	0.078	-0.195
-344.406	-73.609	-0.076	0.028
-343.391	141.346	0.168	-0.223
-342.377	34.406	0.105	-0.092
-341.362	123.593	-0.176	-0.221
-340.348	-141.931	-0.293	-0.029
-339.333	235.883	-0.070	0.117
-338.318	800.000	-0.073	-0.268
-337.304	9.217	-0.075	0.057
-336.289	126.746	-0.188	-0.239
-335.275	-200.000	-0.062	0.327
-334.260	66.674	-0.012	0.012
-333.245	27.425	-0.232	-0.195
-332.231	708.863	0.131	0.347
-331.216	-124.081	0.441	0.070
-330.202	408.430	0.126	0.268
-329.187	-200.000	-0.012	-0.159
-328.172	39.551	-0.133	0.120
-327.158	-78.429	-0.126	-0.043
-326.143	800.000	-0.030	0.097
-325.129	327.529	-0.127	-0.245
-324.114	560.280	0.145	0.352
-323.099	-128.833	-0.282	0.040
-322.085	-200.000	0.037	0.287
-321.070	-24.480	0.080	0.048
-320.056	-10.682	-0.074	-0.049
-319.041	-40.108	0.227	0.119
-318.026	-35.404	-0.254	-0.138
-317.012	206.830	-0.018	-0.029
-315.997	-121.317	-0.384	0.064
-314.983	-115.318	0.227	0.043
-313.968	-200.000	-0.005	-0.084
-312.953	25.565	0.120	-0.100
-311.939	-200.000	-0.083	-0.387
-310.924	-109.391	-0.076	0.016
-309.910	56.661	-0.118	-0.115
-308.895	-200.000	-0.062	0.302
-307.880	-200.000	-0.004	0.228
-306.866	-200.000	-0.412	-0.001
-305.851	-48.845	-0.322	0.155
-304.837	-115.021	0.102	0.019
-303.822	134.103	-0.116	0.151
-302.807	288.338	-0.100	0.181
-301.793	800.000	0.119	-0.448
-300.778	800.000	0.009	0.025
-299.764	103.844	0.076	0.090
-298.749	265.000	-0.228	0.398
-297.735	-22.425	-0.149	0.091
-296.720	-34.342	0.191	0.105
-295.705	-33.853	0.362	0.200
-294.691	-200.000	-0.094	0.490
-293.676	-110.945	-0.512	-0.106
-292.662	800.000	0.032	0.131
-291.647	-32.293	0.051	-0.029
-290.632	-200.000	0.030	-0.308
-289.618	-86.434	0.243	-0.075
-288.603	-18.225	-0.107	-0.067
-287.589	101.765	-0.081	0.094
-286.574	-64.853	-0.362	-0.147
-285.559	800.000	0.042	0.165
-284.545	-133.140	-0.127	-0.016
-283.530	42.247	0.186	-0.169
-282.516	174.501	-0.166	0.240
-281.501	-200.000	-0.004	-0.321
-280.486	-70.594	0.212	-0.080
-279.472	710.043	-0.082	0.216
-278.457	-200.000	-0.010	-0.195
-277.443	-135.893	-0.112	0.013
-276.428	-68.866	0.266	-0.103
-275.413	-179.985	-0.450	-0.010
-274.399	64.875	-0.085	-0.086
-273.384	-139.508	-0.079	0.009
-272.370	-62.607	0.194	-0.080
-271.355	7.755	-0.260	-0.195
-270.340	-200.000	-0.012	-0.117
-269.326	-44.750	0.191	-0.095
-268.311	-74.314	0.174	-0.063
-267.297	171.056	0.035	-0.051
-266.282	372.000	-0.130	0.264
-265.267	46.335	-0.116	-0.107
-264.253	-159.696	0.100	-0.006
-263.238	-74.549	0.192	-0.069
-262.224	-138.770	0.299	-0.033
-261.209	2.492	-0.196	-0.142
-260.195	234.126	-0.012	-0.019
-259.180	425.981	-0.017	-0.037
-258.165	558.505	-0.010	0.025
-257.151	-85.959	-0.055	0.017
-256.136	-60.681	-0.103	-0.044
-255.122	-48.374	-0.191	0.092
-254.107	71.567	-0.218	0.226
-253.092	-77.770	0.232	0.080
-252.078	-200.000	-0.051	-0.378
-251.063	-200.000	-0.018	-0.246
-250.049	62.221	0.110	0.110
-249.034	327.041	0.134	0.256
-248.019	47.696	0.267	-0.249
-247.005	103.089	-0.228	-0.268
-245.990	38.690	-0.222	0.198
-244.976	-95.306	0.161	-0.043
-243.961	-10.247	0.203	0.135
-242.946	52.414	0.212	0.202
-241.932	297.716	-0.089	-0.164
-240.917	-37.707	-0.308	0.164
-239.903	51.492	0.126	0.120
-238.888	-200.000	-0.052	0.288
-237.873	-7.482	0.128	0.086
-236.859	67.135	-0.138	-0.141
-235.844	-140.938	-0.312	0.032
-234.830	-200.000	0.037	0.366
-233.815	-34.699	0.226	0.124
-232.800	-200.000	-0.018	0.094
-231.786	-93.097	-0.362	0.101
-230.771	800.000	0.030	0.103
-229.757	3.985	-0.115	0.084
-228.742	-200.000	-0.005	-0.141
-227.727	-19.356	-0.199	-0.123
-226.713	-123.952	0.282	-0.044
-225.698	-113.625	-0.159	0.031
-224.684	800.000	0.081	0.283
-223.669	800.000	-0.102	-0.380
-222.655	-188.390	0.111	0.001
-221.640	206.639	-0.057	0.088
-220.625	-200.000	0.001	-0.107
-219.611	-88.722	-0.076	0.023
-218.596	36.962	0.213	0.188
-217.582	800.000	0.044	-0.164
-216.567	-6.337	-0.151	0.103
-215.552	780.251	-0.076	0.209
-214.538	-92.736	0.414	0.116
-213.523	800.000	0.021	0.077
-212.509	800.000	0.028	0.115
-211.494	302.961	0.123	0.227
-210.479	-23.455	-0.100	0.060
-209.465	309.836	-0.046	0.085
-208.450	478.610	0.146	0.330
-207.436	-200.000	0.044	0.230
-206.421	88.235	0.116	0.129
-205.406	-23.533	0.230	0.138
-204.392	341.490	-0.216	0.421
-203.377	-107.380	0.226	-0.049
-202.363	224.448	0.116	0.188
-201.348	-70.149	0.371	-0.141
-200.333	-200.000	0.030	0.282
-199.319	-127.414	0.277	0.040
-198.304	-106.730	-0.149	-0.033
-197.290	238.871	0.106	0.176
-196.275	-200.000	0.036	-0.268
-195.260	596.960	-0.068	-0.167
-194.246	-146.915	-0.271	-0.023
-193.231	-200.000	-0.026	0.446
-192.217	-13.195	-0.112	-0.073
-191.202	-22.589	0.195	-0.118
-190.187	-189.884	-0.140	-0.002
-189.173	800.000	-0.112	0.313
-188.158	97.522	0.184	-0.210
-187.144	65.616	-0.092	0.093
-186.129	-200.000	-0.044	0.287
-185.114	800.000	0.035	-0.107
-184.100	184.034	-0.230	-0.340
-183.085	333.230	-0.132	0.255
-182.071	448.808	-0.044	0.097
-181.056	800.000	0.067	0.248
-180.042	-58.323	-0.084	-0.036
-179.027	61.393	-0.287	-0.284
-178.012	113.216	0.226	-0.274
-176.998	311.759	-0.112	-0.209
-175.983	-57.946	0.097	-0.042
-174.969	-76.563	0.228	-0.080
-173.954	800.000	-0.041	-0.138
-172.939	109.041	0.236	0.282
-171.925	800.000	0.024	0.096
-170.910	181.258	0.186	0.273
-169.896	-45.435	-0.258	-0.128
-168.881	-200.000	-0.024	0.131
-167.866	132.423	0.144	0.185
-166.852	800.000	-0.074	0.314
-165.837	26.233	-0.122	0.102
-164.823	-98.013	0.198	-0.051
-163.808	104.734	0.110	-0.130
-162.793	-141.851	-0.060	-0.006
-161.779	-200.000	-0.044	-0.301
-160.764	388.724	-0.035	-0.073
-159.750	-51.347	0.173	0.081
-158.735	458.253	0.007	-0.016
-157.720	-200.000	-0.009	-0.219
-156.706	-110.269	-0.151	-0.031
-155.691	-139.365	-0.232	-0.025
-154.677	-28.972	0.338	-0.194
-153.662	295.148	0.093	-0.169
-152.647	40.024	0.166	-0.148
-151.633	-126.924	0.184	-0.027
-150.618	-116.706	0.146	0.027
-149.604	-32.791	0.095	-0.052
-148.589	800.000	-0.094	-0.272
-147.574	57.680	-0.285	0.277
-146.560	314.001	-0.207	-0.387
-145.545	-82.202	0.351	-0.114
-144.531	-200.000	-0.002	-0.049
-143.516	-96.265	-0.103	-0.027
-142.502	316.278	-0.126	0.238
-141.487	144.273	-0.062	0.082
-140.472	-65.774	0.085	-0.034
-139.458	115.767	0.146	-0.178
-138.443	-70.425	-0.175	-0.066
-137.429	-116.440	-0.167	-0.031
-136.414	-49.512	0.040	0.019
-135.399	-200.000	-0.002	-0.025
-134.385	552.305	-0.072	0.173
-133.370	-121.549	-0.340	0.056
-132.356	110.116	-0.031	-0.037
-131.341	800.000	-0.115	0.366
-130.326	-185.200	0.314	0.005
-129.312	-158.814	0.226	-0.013
-128.297	-118.747	0.274	-0.048
-127.283	209.057	0.207	0.323
-126.268	-69.013	0.141	-0.054
-125.253	-26.017	-0.289	-0.169
-124.239	-36.382	0.396	0.212
-123.224	-56.889	0.115	0.051
-122.210	136.202	0.086	0.112
