DTS Sentinel unit serial number:	SN413079Multiplexer serial number:	ORYXHardware model number:	OX4-SRSoftware version number:	ORYX F/W v4.00 Oryx Data Collector v3.7.2.0data status	okinstallation	princeton_trtdifferential loss correction	single-endedforward channel	channel 2reverse channel	N/Adate	2019/09/13time	01:47:34forward acquisition time	60.00reverse acquisition time	0.00gamma	496.2192k internal	0.2334k external	0.2334temperature offset calibration	1.0176default loss term (dB/km)	0.3790temperature slope calibration	1.0000multiplexer offset coefficient	1.0000multiplexer slope coefficient	1.0000fibre end	0.00T internal ref (°C)	27.69T ext. ref 1 (°C)	3.82T ext. ref 2 (°C)	22.32length (m)	temperature (°C)	Stokes	anti-Stokes-747.200	26.102	-0.052	0.044
-746.185	-200.000	-0.011	0.062
-745.171	-200.000	0.028	0.255
-744.156	-200.000	0.004	0.296
-743.142	335.047	-0.095	0.185
-742.127	-21.262	-0.340	0.209
-741.112	-200.000	-0.001	-0.162
-740.098	-200.000	-0.107	0.485
-739.083	38.081	-0.037	-0.033
-738.069	69.575	-0.288	-0.298
-737.054	-61.834	0.311	0.131
-736.039	-37.492	-0.359	0.192
-735.025	-62.870	0.194	-0.081
-734.010	289.919	-0.190	-0.347
-732.996	31.963	-0.340	0.295
-731.981	-26.871	0.155	0.091
-730.966	195.453	-0.101	0.155
-729.952	-200.000	0.039	-0.200
-728.937	-200.000	-0.038	-0.339
-727.923	-168.719	-0.547	0.021
-726.908	173.975	0.133	-0.193
-725.894	142.483	0.029	0.038
-724.879	-98.089	0.225	-0.058
-723.864	-48.740	-0.146	0.070
-722.850	-200.000	-0.032	-0.160
-721.835	-43.822	0.130	0.066
-720.821	-74.756	-0.225	0.081
-719.806	-137.585	-0.417	0.047
-718.791	200.540	-0.122	0.188
-717.777	46.568	0.329	-0.307
-716.762	-200.000	0.022	-0.199
-715.748	-24.953	0.043	-0.026
-714.733	28.592	-0.193	0.164
-713.718	-200.000	-0.002	-0.092
-712.704	-200.000	-0.011	0.295
-711.689	800.000	-0.069	-0.244
-710.675	-200.000	0.042	-0.215
-709.660	-82.194	0.417	0.136
-708.645	-200.000	-0.030	-0.271
-707.631	215.271	-0.053	-0.085
-706.616	-200.000	-0.019	0.359
-705.602	67.198	-0.072	-0.073
-704.587	27.488	-0.261	0.220
-703.572	800.000	-0.046	0.146
-702.558	-11.282	-0.250	0.165
-701.543	-114.275	0.052	0.010
-700.529	-147.171	-0.250	-0.021
-699.514	88.786	0.229	-0.255
-698.499	-106.757	0.117	-0.026
-697.485	-200.000	-0.009	-0.047
-696.470	601.737	0.157	-0.391
-695.456	-34.166	-0.038	0.021
-694.441	800.000	0.010	-0.033
-693.426	800.000	-0.086	-0.249
-692.412	-52.360	-0.247	0.115
-691.397	-64.244	0.173	0.071
-690.383	305.285	0.152	0.283
-689.368	-50.093	-0.119	-0.057
-688.354	43.435	0.278	0.255
-687.339	26.363	0.091	-0.076
-686.324	130.023	0.150	-0.193
-685.310	137.629	-0.204	-0.268
-684.295	230.125	-0.171	-0.281
-683.281	-200.000	-0.021	-0.460
-682.266	800.000	0.047	-0.176
-681.251	70.957	-0.197	0.205
-680.237	800.000	0.061	-0.189
-679.222	-200.000	-0.036	0.406
-678.208	597.596	-0.195	-0.484
-677.193	163.440	-0.087	-0.123
-676.178	10.597	0.145	-0.111
-675.164	-68.425	0.050	-0.020
-674.149	-51.283	-0.093	-0.044
-673.135	-200.000	-0.031	-0.147
-672.120	-118.518	-0.110	-0.019
-671.105	190.493	-0.183	-0.276
-670.091	167.748	0.245	-0.349
-669.076	-75.851	-0.051	0.018
-668.062	800.000	-0.108	-0.354
-667.047	-200.000	0.005	-0.266
-666.032	-29.076	0.147	-0.084
-665.018	-140.551	-0.251	0.026
-664.003	104.388	0.252	-0.298
-662.989	-36.137	0.295	0.160
-661.974	-154.610	0.130	-0.009
-660.959	117.454	-0.153	-0.188
-659.945	800.000	0.035	-0.106
-658.930	106.395	0.164	0.195
-657.916	-200.000	-0.012	0.189
-656.901	-128.552	0.418	-0.059
-655.886	446.108	0.077	-0.170
-654.872	214.048	-0.122	0.194
-653.857	100.940	-0.058	-0.068
-652.843	-5.784	0.225	-0.154
-651.828	-179.986	0.183	-0.004
-650.814	800.000	-0.078	-0.227
-649.799	-160.448	-0.209	0.011
-648.784	-60.002	0.180	-0.077
-647.770	-130.319	0.301	-0.041
-646.755	-200.000	-0.026	0.118
-645.741	-200.000	-0.025	-0.181
-644.726	-119.677	-0.356	-0.062
-643.711	-200.000	0.014	-0.259
-642.697	-18.576	-0.122	-0.076
-641.682	-8.781	-0.177	-0.119
-640.668	-145.672	0.505	-0.045
-639.653	48.624	0.138	-0.129
-638.638	321.719	0.135	-0.257
-637.624	618.120	-0.107	0.269
-636.609	-43.840	-0.060	-0.030
-635.595	-110.408	0.122	-0.025
-634.580	-33.374	-0.019	-0.011
-633.565	105.271	0.115	-0.136
-632.551	-59.055	-0.225	-0.097
-631.536	70.285	-0.118	0.122
-630.522	800.000	-0.025	0.090
-629.507	738.487	-0.065	-0.176
-628.492	306.480	0.067	0.125
-627.478	-200.000	-0.004	0.022
-626.463	196.573	0.096	0.146
-625.449	800.000	-0.026	-0.114
-624.434	-200.000	-0.031	0.138
-623.419	800.000	0.024	-0.066
-622.405	-200.000	-0.054	-0.364
-621.390	-200.000	-0.023	0.225
-620.376	35.230	-0.207	-0.181
-619.361	-104.581	-0.173	0.040
-618.346	-41.999	0.254	-0.130
-617.332	-200.000	-0.026	0.203
-616.317	27.858	-0.091	0.077
-615.303	618.896	-0.020	-0.050
-614.288	105.019	0.209	0.247
-613.273	800.000	0.051	-0.143
-612.259	-155.581	0.254	0.016
-611.244	-143.727	0.685	-0.065
-610.230	-78.044	-0.193	0.066
-609.215	-16.958	-0.226	0.143
-608.201	800.000	-0.084	0.257
-607.186	-158.992	0.109	0.006
-606.171	-96.805	-0.380	0.100
-605.157	-5.117	-0.100	0.069
-604.142	138.522	-0.054	0.071
-603.128	-200.000	-0.010	-0.147
-602.113	-123.925	0.325	-0.051
-601.098	146.900	0.174	-0.233
-600.084	-200.000	0.045	-0.237
-599.069	-100.691	-0.138	-0.034
-598.055	-80.886	0.248	0.082
-597.040	-151.998	-0.306	0.022
-596.025	-200.000	0.026	0.221
-595.011	151.086	-0.115	0.156
-593.996	116.738	-0.186	-0.228
-592.982	-200.000	0.027	-0.138
-591.967	-23.582	0.174	0.104
-590.952	215.674	0.142	0.225
-589.938	-200.000	0.007	0.175
-588.923	-79.924	-0.173	0.058
-587.909	159.494	-0.034	-0.048
-586.894	-28.104	-0.006	-0.003
-585.879	-48.783	-0.137	-0.066
-584.865	229.377	-0.048	-0.079
-583.850	99.060	-0.112	-0.129
-582.836	-22.159	-0.075	-0.045
-581.821	11.857	0.220	0.168
-580.806	-181.700	0.251	0.005
-579.792	10.057	-0.091	-0.069
-578.777	-161.424	-0.283	-0.015
-577.763	-98.805	-0.042	-0.011
-576.748	60.328	-0.111	0.110
-575.733	-66.341	-0.213	-0.084
-574.719	311.248	0.133	0.248
-573.704	-91.092	0.259	-0.074
-572.690	-110.834	0.462	0.095
-571.675	133.354	-0.065	-0.084
-570.661	-141.697	0.230	0.023
-569.646	145.666	-0.073	-0.098
-568.631	26.774	0.271	-0.227
-567.617	-58.881	0.440	-0.190
-566.602	-200.000	-0.020	-0.273
-565.588	213.103	0.104	0.164
-564.573	433.206	0.131	0.285
-563.558	-7.861	-0.163	-0.110
-562.544	-104.790	0.042	-0.010
-561.529	-89.411	0.221	0.065
-560.515	-183.874	-0.208	0.004
-559.500	-200.000	-0.075	-0.439
-558.485	146.970	0.123	-0.165
-557.471	-85.237	0.359	-0.112
-556.456	168.233	0.072	0.103
-555.442	800.000	-0.087	0.319
-554.427	-107.014	0.455	-0.100
-553.412	-2.838	0.310	-0.216
-552.398	800.000	-0.055	0.160
-551.383	-200.000	0.026	0.198
-550.369	-118.853	0.190	-0.033
-549.354	29.530	0.264	-0.224
-548.339	800.000	0.037	0.123
-547.325	-147.483	-0.337	-0.028
-546.310	-125.817	-0.197	-0.030
-545.296	-200.000	0.018	-0.286
-544.281	-110.185	-0.105	-0.022
-543.266	800.000	0.059	0.165
-542.252	-54.808	-0.216	-0.097
-541.237	-200.000	0.087	0.435
-540.223	-200.000	-0.025	0.195
-539.208	139.725	-0.090	0.119
-538.193	-200.000	-0.002	0.362
-537.179	606.724	0.034	-0.085
-536.164	-118.987	0.357	0.062
-535.150	-14.512	0.326	0.209
-534.135	45.698	-0.230	0.212
-533.121	-53.734	-0.182	-0.083
-532.106	-29.062	-0.083	0.048
-531.091	275.457	0.055	-0.098
-530.077	-80.765	-0.085	0.028
-529.062	800.000	0.111	0.356
-528.048	150.585	0.059	0.079
-527.033	150.801	0.080	-0.108
-526.018	-200.000	0.063	-0.290
-525.004	-200.000	0.044	-0.218
-523.989	28.095	-0.167	-0.140
-522.975	110.985	-0.098	0.117
-521.960	-200.000	0.045	-0.391
-520.945	17.479	-0.025	-0.020
-519.931	71.335	-0.140	0.145
-518.916	-47.168	0.110	-0.053
-517.902	502.652	-0.143	0.329
-516.887	-65.580	-0.290	-0.116
-515.872	-73.478	0.392	-0.142
-514.858	-132.275	-0.159	0.021
-513.843	35.369	-0.167	-0.146
-512.829	40.373	-0.108	0.097
-511.814	-13.754	0.098	-0.063
-510.799	196.272	-0.015	0.022
-509.785	-32.022	0.207	0.116
-508.770	-37.907	0.262	-0.138
-507.756	141.907	0.047	0.062
-506.741	218.791	-0.063	0.101
-505.726	25.656	0.163	-0.135
-504.712	116.226	-0.174	0.212
-503.697	21.517	0.071	0.057
-502.683	-46.715	-0.197	0.096
-501.668	705.608	-0.068	0.178
-500.653	-50.430	-0.094	-0.044
-499.639	-29.576	-0.432	-0.246
-498.624	-33.260	-0.108	0.060
-497.610	-96.349	-0.293	-0.077
-496.595	96.300	-0.309	0.352
-495.581	-163.387	0.064	-0.003
-494.566	80.027	-0.068	-0.073
-493.551	-125.931	-0.220	-0.033
-492.537	-169.564	0.353	0.013
-491.522	-79.454	0.133	-0.045
-490.508	-140.402	0.147	0.015
-489.493	-68.069	-0.047	-0.018
-488.478	4.947	-0.128	-0.094
-487.464	424.231	-0.071	-0.152
-486.449	-29.327	-0.025	0.014
-485.435	-68.886	0.213	0.082
-484.420	800.000	0.058	0.193
-483.405	22.094	-0.059	-0.048
-482.391	-200.000	-0.022	-0.434
-481.376	244.260	0.130	0.217
-480.362	-65.886	0.095	0.038
-479.347	800.000	-0.024	0.088
-478.332	102.485	0.117	0.136
-477.318	84.789	0.111	0.121
-476.303	-200.000	0.007	-0.175
-475.289	800.000	-0.080	0.320
-474.274	442.760	0.119	-0.259
-473.259	-52.443	-0.097	0.045
-472.245	800.000	-0.122	0.435
-471.230	120.715	0.079	-0.098
-470.216	164.359	-0.176	-0.246
-469.201	-200.000	-0.030	-0.207
-468.186	-200.000	-0.038	0.218
-467.172	330.719	0.093	-0.178
-466.157	-45.152	-0.286	0.141
-465.143	29.961	0.117	-0.099
-464.128	460.446	-0.119	0.263
-463.113	594.570	0.039	0.096
-462.099	-200.000	0.016	0.172
-461.084	135.883	0.258	0.334
-460.070	-26.074	-0.165	-0.096
-459.055	189.096	0.092	-0.138
-458.040	75.628	-0.096	-0.101
-457.026	-44.803	-0.258	-0.128
-456.011	-5.987	-0.058	-0.040
-454.997	111.472	-0.132	0.158
-453.982	-105.167	0.211	-0.048
-452.968	506.159	-0.145	0.334
-451.953	122.066	0.124	0.154
-450.938	-200.000	-0.038	-0.248
-449.924	560.841	-0.091	0.218
-448.909	73.510	-0.073	-0.076
-447.895	800.000	0.073	0.224
-446.880	-186.080	-0.118	0.002
-445.865	800.000	-0.036	0.108
-444.851	155.169	-0.325	-0.445
-443.836	383.617	-0.128	-0.262
-442.822	800.000	-0.038	-0.115
-441.807	-96.002	0.166	-0.044
-440.792	-111.578	-0.205	0.041
-439.778	88.163	0.191	0.210
-438.763	126.882	0.168	0.212
-437.749	122.241	-0.028	0.035
-436.734	800.000	-0.089	0.337
-435.719	-25.803	0.248	0.145
-434.705	119.448	-0.138	-0.169
-433.690	-54.391	-0.171	-0.077
-432.676	-200.000	-0.018	-0.267
-431.661	-7.949	-0.320	0.214
-430.646	142.373	0.206	0.272
-429.632	138.570	-0.270	-0.352
-428.617	800.000	0.038	0.124
-427.603	-57.147	-0.297	0.130
-426.588	-99.752	0.406	0.101
-425.573	212.051	-0.266	0.416
-424.559	53.095	-0.060	-0.057
-423.544	800.000	0.038	0.126
-422.530	800.000	-0.073	-0.225
-421.515	-200.000	0.040	-0.263
-420.500	249.949	-0.093	0.157
-419.486	-63.929	-0.209	0.085
-418.471	800.000	0.166	0.504
-417.457	-90.430	0.118	-0.034
-416.442	321.189	0.090	0.169
-415.428	23.966	-0.211	0.173
-414.413	-55.033	0.132	0.059
-413.398	800.000	-0.069	-0.286
-412.384	167.412	0.248	-0.349
-411.369	296.705	-0.185	0.337
-410.355	590.611	-0.162	0.396
-409.340	800.000	0.074	0.204
-408.325	-27.731	-0.218	-0.126
-407.311	800.000	0.054	-0.163
-406.296	-79.613	-0.310	-0.104
-405.282	-200.000	0.000	-0.152
-404.267	93.223	0.152	-0.170
-403.252	-87.774	-0.207	-0.062
-402.238	196.304	-0.031	-0.047
-401.223	7.327	0.211	0.156
-400.209	-117.738	-0.104	0.018
-399.194	142.221	0.121	0.160
-398.179	-200.000	-0.022	0.412
-397.165	-200.000	-0.013	0.109
-396.150	-200.000	-0.076	0.418
-395.136	142.104	0.104	-0.137
-394.121	-64.426	0.158	-0.064
-393.106	-54.437	0.224	-0.101
-392.092	-164.709	-0.402	-0.018
-391.077	717.043	-0.025	0.066
-390.063	800.000	0.063	-0.230
-389.048	159.243	0.115	0.158
-388.033	169.912	-0.083	-0.118
-387.019	-60.937	0.172	-0.072
-386.004	180.871	0.117	0.170
-384.990	-121.227	-0.123	-0.020
-383.975	-14.780	0.049	0.031
-382.960	-192.976	-0.237	0.002
-381.946	-94.342	0.256	0.069
-380.931	800.000	-0.062	0.181
-379.917	-200.000	-0.016	0.234
-378.902	-200.000	-0.043	0.213
-377.888	-200.000	-0.047	-0.247
-376.873	-75.433	0.183	-0.065
-375.858	5.430	-0.232	0.169
-374.844	33.012	-0.155	0.133
-373.829	20.146	0.085	-0.068
-372.815	800.000	0.071	-0.194
-371.800	-200.000	0.012	-0.065
-370.785	67.767	-0.227	-0.230
-369.771	-52.906	-0.042	-0.019
-368.756	-141.429	0.174	-0.017
-367.742	16.335	-0.099	-0.078
-366.727	-123.718	-0.098	0.015
-365.712	39.595	0.241	-0.214
-364.698	363.752	-0.169	-0.337
-363.683	34.412	0.148	-0.128
-362.669	145.643	0.145	0.192
-361.654	-85.183	-0.252	0.078
-360.639	-145.201	0.212	0.019
-359.625	-103.439	0.051	0.012
-358.610	-57.174	0.188	-0.082
-357.596	-79.415	0.172	-0.057
-356.581	310.101	0.065	0.121
-355.566	-200.000	-0.030	-0.368
-354.552	431.332	0.046	-0.098
-353.537	-124.621	0.180	-0.028
-352.523	-73.431	-0.320	-0.116
-351.508	800.000	-0.054	0.201
-350.493	423.916	-0.038	-0.081
-349.479	-67.129	-0.234	-0.091
-348.464	-200.000	0.040	-0.231
-347.450	800.000	-0.081	0.266
-346.435	-152.125	-0.170	0.012
-345.420	337.248	0.173	0.334
-344.406	350.163	0.150	-0.294
-343.391	-78.984	-0.094	0.032
-342.377	525.369	-0.104	-0.242
-341.362	230.079	0.059	0.096
-340.348	75.386	0.091	-0.095
-339.333	800.000	-0.044	-0.128
-338.318	11.588	0.189	-0.143
-337.304	57.697	0.214	0.207
-336.289	-148.708	-0.154	0.012
-335.275	800.000	0.067	-0.200
-334.260	229.349	-0.164	-0.265
-333.245	-12.522	0.429	0.277
-332.231	-85.133	-0.403	0.125
-331.216	46.757	-0.162	0.149
-330.202	105.964	0.094	-0.110
-329.187	614.558	0.104	-0.259
-328.172	-88.500	0.313	0.092
-327.158	-200.000	0.000	-0.095
-326.143	-94.491	0.240	0.065
-325.129	-124.222	-0.157	-0.024
-324.114	-49.231	0.089	-0.042
-323.099	98.143	-0.140	0.160
-322.085	-122.553	-0.358	0.058
-321.070	58.187	-0.048	-0.047
-320.056	-26.332	-0.130	0.076
-319.041	-154.798	0.421	0.028
-318.026	197.802	0.069	0.104
-317.012	-6.577	0.035	0.024
-315.997	-139.667	-0.405	0.043
-314.983	-117.405	0.224	0.040
-313.968	-92.196	0.400	-0.112
-312.953	-80.674	-0.062	0.020
-311.939	11.830	-0.044	-0.033
-310.924	407.323	-0.058	-0.120
-309.910	-81.033	0.285	-0.093
-308.895	47.141	0.102	-0.094
-307.880	-28.620	0.084	-0.048
-306.866	464.338	0.126	0.279
-305.851	500.535	-0.030	-0.069
-304.837	800.000	0.072	-0.260
-303.822	-70.280	-0.278	0.104
-302.807	14.536	0.084	0.065
-301.793	41.257	-0.134	-0.120
-300.778	-175.595	0.258	0.007
-299.764	64.994	0.195	-0.194
-298.749	-154.313	-0.340	0.023
-297.735	161.184	-0.152	0.210
-296.720	-200.000	-0.015	0.106
-295.705	743.743	0.092	0.244
-294.691	-200.000	-0.007	-0.134
-293.676	11.219	-0.094	-0.071
-292.662	179.081	-0.106	0.153
-291.647	-200.000	-0.020	0.211
-290.632	279.078	0.112	-0.197
-289.618	-12.087	-0.269	-0.174
-288.603	-200.000	0.027	0.160
-287.589	-200.000	-0.042	-0.203
-286.574	-105.839	-0.502	-0.112
-285.559	-200.000	-0.032	-0.351
-284.545	74.137	0.239	-0.248
-283.530	38.141	-0.017	-0.015
-282.516	95.735	0.130	0.146
-281.501	-76.658	-0.242	-0.084
-280.486	234.607	-0.101	0.165
-279.472	800.000	-0.080	0.243
-278.457	800.000	0.085	-0.345
-277.443	-200.000	0.065	-0.370
-276.428	-102.748	-0.374	-0.088
-275.413	-85.150	-0.045	-0.014
-274.399	-47.737	-0.246	0.118
-273.384	800.000	0.076	0.223
-272.370	351.986	-0.025	-0.049
-271.355	172.076	0.056	0.079
-270.340	161.769	0.241	-0.333
-269.326	-37.359	0.224	-0.118
-268.311	21.297	-0.302	-0.242
-267.297	-15.593	0.108	-0.068
-266.282	155.376	0.198	0.268
-265.267	329.348	-0.141	-0.268
-264.253	-200.000	-0.036	-0.237
-263.238	-83.215	-0.236	0.075
-262.224	-81.549	-0.228	0.074
-261.209	-200.000	-0.014	-0.064
-260.195	-108.334	-0.114	-0.024
-259.180	-196.218	-0.179	0.001
-258.165	256.186	0.148	-0.250
-257.151	103.907	0.243	-0.281
-256.136	31.185	0.185	0.157
-255.122	296.203	-0.154	0.278
-254.107	-200.000	0.014	0.153
-253.092	617.704	-0.114	-0.282
-252.078	-109.836	0.277	-0.057
-251.063	494.243	-0.029	-0.066
-250.049	-200.000	-0.034	-0.279
-249.034	-200.000	0.007	-0.161
-248.019	-37.072	0.157	-0.083
-247.005	-94.930	0.276	0.074
-245.990	-59.802	0.048	-0.020
-244.976	-59.761	0.134	0.056
-243.961	52.778	-0.204	-0.192
-242.946	-200.000	0.012	0.194
-241.932	-200.000	-0.055	-0.364
-240.917	89.242	0.399	-0.438
-239.903	-195.336	0.113	0.001
-238.888	164.531	0.082	0.113
-237.873	-90.065	0.175	-0.050
-236.859	-9.881	0.212	-0.139
-235.844	800.000	-0.023	0.078
-234.830	800.000	0.091	0.369
-233.815	-16.993	-0.042	-0.026
-232.800	94.562	0.081	0.091
-231.786	800.000	0.086	0.267
-230.771	-27.318	-0.241	0.138
-229.757	-200.000	0.054	0.284
-228.742	171.997	-0.082	-0.116
-227.727	-87.906	0.270	-0.080
-226.713	-109.041	0.166	-0.035
-225.698	134.828	-0.135	-0.173
-224.684	-200.000	-0.069	-0.327
-223.669	-200.000	0.033	0.327
-222.655	110.602	-0.085	-0.100
-221.640	-124.056	-0.267	0.041
-220.625	800.000	-0.109	-0.352
-219.611	220.718	-0.109	0.173
-218.596	289.310	0.047	-0.085
-217.582	-132.493	-0.188	0.024
-216.567	-5.314	0.157	0.106
-215.552	-148.608	-0.124	-0.010
-214.538	-200.000	0.040	0.178
-213.523	-200.000	-0.035	0.178
-212.509	-32.023	0.336	0.185
-211.494	316.129	0.090	-0.167
-210.479	-200.000	-0.055	0.404
-209.465	-46.714	-0.096	0.046
-208.450	-109.928	-0.115	-0.024
-207.436	-12.967	-0.021	0.013
-206.421	0.090	-0.191	0.134
-205.406	27.512	-0.288	0.238
-204.392	-110.488	-0.286	0.058
-203.377	165.800	0.145	-0.201
-202.363	88.067	-0.157	-0.172
-201.348	146.588	-0.122	-0.162
-200.333	-108.727	0.277	0.058
-199.319	-163.570	-0.451	0.021
-198.304	-60.476	-0.239	0.100
-197.290	-73.624	0.209	-0.075
-196.275	-200.000	0.032	-0.160
-195.260	-126.571	0.194	0.028
-194.246	135.523	-0.095	0.121
-193.231	-134.802	0.160	0.019
-192.217	40.026	0.286	-0.253
-191.202	122.648	-0.143	-0.177
-190.187	70.113	0.068	-0.069
-189.173	73.510	0.055	0.056
-188.158	101.342	0.085	0.098
-187.144	-169.097	-0.379	0.014
-186.129	302.460	-0.127	-0.231
-185.114	120.449	-0.111	0.135
-184.100	629.456	-0.093	0.232
-183.085	169.429	-0.169	-0.238
-182.071	-145.731	0.156	0.014
-181.056	191.736	-0.111	0.164
-180.042	-84.855	0.269	0.083
-179.027	224.856	-0.130	0.207
-178.012	48.463	0.096	0.089
-176.998	-159.143	0.325	-0.018
-175.983	-81.667	-0.157	0.051
-174.969	-115.687	0.054	-0.010
-173.954	800.000	0.125	0.350
-172.939	-200.000	0.004	0.152
-171.925	173.443	0.126	0.178
-170.910	-6.932	0.158	0.105
-169.896	800.000	0.041	0.151
-168.881	82.095	-0.131	-0.140
-167.866	800.000	0.042	-0.115
-166.852	62.318	-0.219	0.215
-165.837	34.538	0.118	0.101
-164.823	543.712	-0.076	-0.178
-163.808	-44.734	0.133	0.065
-162.793	28.810	0.178	-0.148
-161.779	-200.000	0.048	0.247
-160.764	182.942	0.155	0.224
-159.750	22.600	0.161	-0.130
-158.735	-200.000	-0.048	-0.441
-157.720	-200.000	0.019	-0.137
-156.706	-50.398	0.405	-0.188
-155.691	50.261	-0.289	0.268
-154.677	-136.783	-0.302	0.034
-153.662	800.000	0.015	-0.056
-152.647	80.648	-0.050	-0.053
-151.633	-200.000	-0.050	-0.307
-150.618	-200.000	-0.009	0.112
-149.604	-19.223	0.263	0.161
-148.589	423.542	-0.055	-0.117
-147.574	318.768	-0.208	0.388
-146.560	-200.000	-0.046	0.351
-145.545	36.492	0.075	0.065
-144.531	-155.214	0.309	0.020
-143.516	-200.000	0.018	0.080
-142.502	-90.658	0.328	0.093
-141.487	-16.323	-0.219	0.137
-140.472	800.000	0.116	0.385
-139.458	64.765	-0.271	0.268
-138.443	320.622	0.047	0.087
-137.429	-131.971	-0.165	0.021
-136.414	14.588	-0.053	0.041
-135.399	-200.000	-0.022	0.177
-134.385	-53.018	0.159	0.072
-133.370	800.000	0.064	-0.179
-132.356	132.927	0.023	0.030
-131.341	438.678	0.012	-0.026
-130.326	483.188	0.094	0.210
-129.312	-86.583	0.079	0.024
-128.297	-200.000	0.033	0.257
-127.283	800.000	0.131	0.372
-126.268	-97.395	-0.096	0.024
-125.253	-200.000	-0.001	-0.094
-124.239	797.925	-0.096	0.261
-123.224	-92.066	0.211	0.058
-122.210	454.039	0.219	0.477
