DTS Sentinel unit serial number:	SN413079Multiplexer serial number:	ORYXHardware model number:	OX4-SRSoftware version number:	ORYX F/W v4.00 Oryx Data Collector v3.7.2.0data status	okinstallation	princeton_trtdifferential loss correction	single-endedforward channel	channel 2reverse channel	N/Adate	2019/09/19time	04:27:35forward acquisition time	60.00reverse acquisition time	0.00gamma	496.2192k internal	0.2352k external	0.2352temperature offset calibration	1.0014default loss term (dB/km)	0.3790temperature slope calibration	1.0000multiplexer offset coefficient	1.0000multiplexer slope coefficient	1.0000fibre end	0.00T internal ref (°C)	20.19T ext. ref 1 (°C)	0.64T ext. ref 2 (°C)	13.20length (m)	temperature (°C)	Stokes	anti-Stokes-747.200	18.213	-0.117	0.093
-746.185	113.013	-0.122	-0.147
-745.171	-58.772	-0.198	0.086
-744.156	800.000	-0.071	0.248
-743.142	124.391	0.091	0.114
-742.127	-30.654	-0.352	0.199
-741.112	-200.000	-0.077	-0.410
-740.098	-153.160	-0.158	0.011
-739.083	-94.805	0.231	0.062
-738.069	168.143	-0.152	0.215
-737.054	-200.000	0.024	-0.202
-736.039	-90.404	-0.465	-0.134
-735.025	50.218	0.400	0.377
-734.010	800.000	-0.019	-0.079
-732.996	82.401	-0.429	-0.464
-731.981	-200.000	-0.002	-0.101
-730.966	-48.128	-0.138	0.066
-729.952	184.837	-0.064	-0.094
-728.937	-200.000	0.068	-0.376
-727.923	-200.000	0.092	0.406
-726.908	-63.423	0.187	0.077
-725.894	196.203	0.078	-0.119
-724.879	51.469	0.243	0.230
-723.864	391.222	-0.012	-0.024
-722.850	-47.790	0.091	0.044
-721.835	60.818	0.141	0.139
-720.821	-160.913	-0.182	-0.010
-719.806	364.688	0.037	-0.075
-718.791	415.646	0.074	0.157
-717.777	-200.000	-0.044	-0.261
-716.762	569.913	0.122	-0.296
-715.748	274.582	-0.208	-0.368
-714.733	374.203	0.047	0.095
-713.718	-200.000	0.003	-0.114
-712.704	-20.112	-0.200	-0.123
-711.689	-200.000	-0.035	0.334
-710.675	120.428	-0.074	0.092
-709.660	19.273	-0.181	-0.145
-708.645	369.087	-0.178	-0.359
-707.631	-200.000	-0.013	-0.195
-706.616	-45.011	-0.272	0.135
-705.602	68.511	-0.153	-0.156
-704.587	-95.195	-0.185	0.050
-703.572	-82.972	0.147	0.047
-702.558	484.037	0.147	0.332
-701.543	-113.228	-0.187	0.037
-700.529	31.449	0.325	-0.278
-699.514	-155.006	-0.305	0.020
-698.499	-0.093	-0.060	-0.043
-697.485	167.685	-0.140	0.198
-696.470	303.729	0.058	0.107
-695.456	800.000	0.064	0.186
-694.441	-152.183	-0.297	0.021
-693.426	41.717	0.129	0.116
-692.412	800.000	-0.058	0.223
-691.397	-86.236	0.126	0.039
-690.383	-191.081	-0.263	-0.003
-689.368	-50.261	-0.065	0.030
-688.354	352.566	-0.084	-0.166
-687.339	-114.083	0.231	-0.044
-686.324	-46.787	0.292	0.142
-685.310	8.504	0.340	-0.255
-684.295	-200.000	-0.063	-0.309
-683.281	-65.600	0.214	-0.085
-682.266	-92.449	0.198	0.055
-681.251	-200.000	0.013	0.090
-680.237	-38.596	-0.314	-0.165
-679.222	-105.899	0.264	-0.059
-678.208	-148.679	-0.098	0.008
-677.193	-48.054	0.115	-0.055
-676.178	-197.024	-0.362	0.002
-675.164	631.888	0.131	0.330
-674.149	-130.210	-0.253	-0.034
-673.135	-200.000	-0.004	-0.392
-672.120	-102.333	-0.289	-0.069
-671.105	800.000	0.100	-0.311
-670.091	135.017	-0.161	-0.208
-669.076	344.750	-0.082	-0.161
-668.062	358.315	0.097	0.192
-667.047	-40.067	0.344	-0.178
-666.032	-118.533	-0.379	-0.067
-665.018	-114.674	0.189	-0.036
-664.003	-75.838	0.180	-0.064
-662.989	-146.774	-0.296	0.025
-661.974	-200.000	-0.065	-0.340
-660.959	42.917	-0.086	0.078
-659.945	-76.442	-0.250	0.087
-658.930	-71.810	-0.117	-0.043
-657.916	800.000	-0.075	-0.315
-656.901	381.972	0.005	0.010
-655.886	-147.938	-0.187	-0.015
-654.872	-165.368	-0.124	0.005
-653.857	-200.000	0.041	-0.201
-652.843	197.738	0.123	-0.186
-651.828	-85.962	0.297	-0.091
-650.814	151.900	-0.107	0.145
-649.799	-200.000	0.024	-0.196
-648.784	-200.000	-0.026	-0.195
-647.770	-53.633	0.327	-0.148
-646.755	136.314	0.049	0.063
-645.741	129.775	-0.136	0.173
-644.726	-7.555	-0.442	-0.297
-643.711	229.147	-0.049	0.080
-642.697	214.511	0.079	-0.124
-641.682	305.787	0.088	-0.163
-640.668	-62.991	-0.094	-0.039
-639.653	193.099	-0.065	-0.098
-638.638	-200.000	0.010	-0.229
-637.624	366.971	0.076	-0.153
-636.609	-84.242	-0.317	0.100
-635.595	800.000	-0.034	-0.129
-634.580	-167.495	-0.461	-0.018
-633.565	-70.748	-0.132	0.050
-632.551	-200.000	0.031	-0.430
-631.536	741.913	-0.075	0.200
-630.522	184.020	-0.038	0.056
-629.507	50.073	-0.121	0.113
-628.492	269.735	-0.051	0.089
-627.478	-181.146	0.190	-0.004
-626.463	-24.485	-0.196	0.116
-625.449	-200.000	-0.016	-0.270
-624.434	800.000	0.200	-0.552
-623.419	178.063	-0.116	-0.168
-622.405	-200.000	-0.023	-0.415
-621.390	19.371	0.135	0.108
-620.376	197.471	-0.254	0.385
-619.361	10.942	0.155	-0.117
-618.346	800.000	0.039	-0.120
-617.332	751.009	-0.053	-0.142
-616.317	386.868	0.139	-0.285
-615.303	84.187	0.280	-0.304
-614.288	-52.455	0.088	0.040
-613.273	291.909	-0.089	-0.161
-612.259	328.763	-0.123	0.235
-611.244	548.939	-0.127	0.302
-610.230	-6.230	-0.120	-0.082
-609.215	-176.268	0.250	0.006
-608.201	65.681	-0.057	-0.058
-607.186	-68.878	0.337	0.129
-606.171	-88.870	-0.058	-0.017
-605.157	-0.239	-0.074	-0.052
-604.142	77.279	-0.162	-0.171
-603.128	-35.520	0.050	0.027
-602.113	59.503	-0.041	0.040
-601.098	208.633	0.141	-0.218
-600.084	800.000	0.131	-0.482
-599.069	-53.709	0.116	-0.053
-598.055	234.793	0.059	-0.096
-597.040	-4.385	-0.087	0.060
-596.025	238.579	-0.154	0.253
-595.011	800.000	-0.117	-0.391
-593.996	10.075	0.096	0.073
-592.982	-87.042	0.151	-0.046
-591.967	-59.107	0.132	0.056
-590.952	705.452	0.032	-0.083
-589.938	-20.799	0.215	0.131
-588.923	-49.905	-0.338	0.159
-587.909	131.549	0.023	-0.030
-586.894	-71.751	-0.154	-0.057
-585.879	72.236	-0.050	0.052
-584.865	30.329	0.088	-0.075
-583.850	-26.413	0.365	0.212
-582.836	146.608	0.209	0.279
-581.821	-3.154	0.105	0.073
-580.806	-63.225	0.245	-0.100
-579.792	199.122	-0.121	-0.183
-578.777	42.972	-0.249	-0.225
-577.763	11.406	0.268	-0.204
-576.748	27.933	-0.224	-0.187
-575.733	-200.000	0.000	0.117
-574.719	-200.000	-0.008	-0.102
-573.704	-45.347	-0.307	-0.151
-572.690	219.285	-0.125	-0.198
-571.675	203.883	-0.055	-0.085
-570.661	176.881	-0.195	-0.282
-569.646	-200.000	0.001	-0.101
-568.631	-152.876	0.043	-0.003
-567.617	800.000	-0.124	0.395
-566.602	70.026	-0.199	0.204
-565.588	440.834	-0.112	-0.242
-564.573	176.147	0.121	-0.174
-563.558	800.000	0.122	0.387
-562.544	-90.360	0.385	0.111
-561.529	75.597	-0.155	-0.162
-560.515	-200.000	0.006	0.170
-559.500	-2.862	-0.151	0.104
-558.485	-200.000	-0.058	0.474
-557.471	800.000	-0.067	0.236
-556.456	172.073	0.128	-0.183
-555.442	-150.604	0.295	-0.022
-554.427	67.181	0.123	-0.124
-553.412	800.000	0.094	-0.294
-552.398	56.808	-0.276	-0.266
-551.383	95.962	-0.130	0.147
-550.369	800.000	0.070	0.271
-549.354	-140.211	-0.239	0.025
-548.339	146.751	0.100	-0.132
-547.325	228.585	-0.152	-0.245
-546.310	-160.499	-0.517	0.027
-545.296	800.000	-0.018	-0.058
-544.281	55.110	-0.083	-0.080
-543.266	177.655	-0.259	0.374
-542.252	382.644	0.102	0.207
-541.237	167.515	-0.130	0.182
-540.223	-200.000	0.040	-0.231
-539.208	22.554	-0.054	-0.044
-538.193	-154.781	0.330	0.022
-537.179	44.540	-0.170	0.155
-536.164	-154.039	0.181	-0.012
-535.150	106.164	-0.236	0.277
-534.135	-96.510	0.102	-0.027
-533.121	303.322	-0.151	0.278
-532.106	800.000	0.105	0.351
-531.091	69.613	0.193	-0.197
-530.077	-73.433	0.296	0.107
-529.062	109.263	0.033	0.039
-528.048	-145.435	-0.401	0.036
-527.033	-36.032	-0.142	-0.076
-526.018	-97.840	-0.126	0.032
-525.004	340.569	-0.132	0.254
-523.989	-85.888	0.381	0.117
-522.975	185.906	-0.211	0.310
-521.960	-200.000	0.024	0.193
-520.945	-48.595	0.144	0.068
-519.931	-175.054	-0.519	-0.014
-518.916	52.554	-0.130	-0.123
-517.902	-200.000	0.047	-0.205
-516.887	-33.779	0.127	0.069
-515.872	800.000	-0.135	-0.369
-514.858	800.000	-0.022	-0.074
-513.843	-176.910	0.233	-0.006
-512.829	-104.243	0.314	-0.072
-511.814	-200.000	0.089	0.429
-510.799	-200.000	0.006	0.295
-509.785	-62.877	0.062	-0.025
-508.770	100.531	0.319	-0.366
-507.756	-200.000	0.072	-0.345
-506.741	-94.927	0.242	0.065
-505.726	-178.308	0.143	-0.003
-504.712	800.000	0.089	0.269
-503.697	-87.209	0.168	0.050
-502.683	-200.000	-0.025	0.307
-501.668	-134.382	0.266	0.032
-500.653	-13.133	0.153	0.098
-499.639	419.217	0.054	0.115
-498.624	-101.862	0.223	0.053
-497.610	143.671	0.062	0.082
-496.595	184.519	0.096	-0.140
-495.581	-50.223	0.045	0.021
-494.566	-36.324	-0.313	0.167
-493.551	38.651	0.168	0.148
-492.537	-34.242	0.393	-0.213
-491.522	-27.591	-0.225	0.129
-490.508	-122.793	-0.330	0.053
-489.493	3.652	0.401	0.289
-488.478	-105.380	0.270	-0.061
-487.464	117.234	-0.205	-0.249
-486.449	78.271	0.246	0.259
-485.435	-140.622	-0.096	-0.010
-484.420	0.265	-0.150	0.106
-483.405	19.945	0.301	0.239
-482.391	468.272	0.057	0.126
-481.376	-200.000	0.081	-0.377
-480.362	-106.627	-0.159	0.035
-479.347	166.914	0.076	0.106
-478.332	-158.507	0.433	-0.025
-477.318	-53.611	-0.286	0.129
-476.303	-146.384	0.198	-0.017
-475.289	-149.861	-0.354	-0.027
-474.274	-98.492	0.159	0.040
-473.259	800.000	0.039	0.157
-472.245	-129.975	0.149	0.020
-471.230	800.000	-0.044	-0.164
-470.216	-106.985	-0.019	0.004
-469.201	297.940	0.050	-0.092
-468.186	-52.799	0.226	0.103
-467.172	-89.696	0.136	-0.039
-466.157	-139.299	-0.052	-0.006
-465.143	663.675	0.166	0.423
-464.128	-32.963	-0.207	-0.114
-463.113	800.000	-0.035	0.124
-462.099	362.489	-0.087	0.173
-461.084	117.169	-0.175	0.212
-460.070	56.772	-0.249	-0.239
-459.055	72.034	-0.139	0.143
-458.040	10.473	-0.188	0.141
-457.026	57.440	-0.071	-0.068
-456.011	800.000	-0.070	0.262
-454.997	-47.162	0.174	-0.084
-453.982	100.550	0.115	0.132
-452.968	-200.000	0.016	-0.208
-451.953	483.862	-0.085	0.190
-450.938	29.444	0.239	0.200
-449.924	-176.409	-0.107	0.003
-448.909	-200.000	0.035	-0.238
-447.895	172.527	0.051	0.072
-446.880	-69.168	0.168	0.064
-445.865	8.808	0.221	-0.165
-444.851	-121.260	-0.200	-0.033
-443.836	-164.369	-0.593	-0.027
-442.822	-194.373	-0.275	0.002
-441.807	-23.313	-0.192	-0.114
-440.792	-200.000	0.031	-0.415
-439.778	-15.216	0.078	-0.049
-438.763	-146.728	-0.217	0.018
-437.749	-121.232	-0.225	-0.037
-436.734	-101.730	0.127	-0.030
-435.719	-200.000	0.034	-0.172
-434.705	800.000	0.033	-0.115
-433.690	-48.666	-0.141	0.067
-432.676	-69.520	-0.489	0.185
-431.661	168.165	-0.045	-0.064
-430.646	-116.561	-0.237	0.043
-429.632	-132.418	-0.149	0.019
-428.617	31.729	-0.303	-0.257
-427.603	-19.769	-0.075	-0.046
-426.588	-51.348	-0.178	-0.082
-425.573	35.549	-0.172	-0.148
-424.559	-200.000	-0.103	-0.490
-423.544	-155.604	0.408	-0.026
-422.530	44.677	0.121	0.109
-421.515	-200.000	0.011	0.160
-420.500	8.896	0.213	-0.158
-419.486	101.003	-0.157	-0.180
-418.471	-200.000	0.038	0.168
-417.457	-178.809	-0.281	0.006
-416.442	46.331	-0.271	0.247
-415.428	89.689	-0.115	-0.127
-414.413	-142.007	-0.100	-0.010
-413.398	133.159	-0.068	-0.086
-412.384	43.563	0.104	0.094
-411.369	-63.803	-0.041	0.017
-410.355	7.186	0.122	-0.090
-409.340	-25.045	0.132	-0.077
-408.325	-84.684	-0.335	-0.104
-407.311	-200.000	0.017	-0.100
-406.296	-169.516	0.267	0.010
-405.282	-200.000	-0.009	0.065
-404.267	744.496	0.080	-0.212
-403.252	74.391	-0.288	-0.298
-402.238	-106.794	0.254	0.056
-401.223	-24.395	0.042	-0.025
-400.209	800.000	0.021	-0.069
-399.194	-114.720	0.220	0.041
-398.179	26.349	0.061	0.050
-397.165	800.000	0.022	-0.062
-396.150	800.000	0.096	0.306
-395.136	-51.855	-0.149	0.068
-394.121	67.376	-0.145	0.146
-393.106	63.414	0.115	0.113
-392.092	-44.155	0.342	-0.169
-391.077	-54.837	-0.287	-0.127
-390.063	800.000	-0.059	0.235
-389.048	84.881	0.150	0.162
-388.033	298.584	0.093	0.168
-387.019	263.731	-0.184	0.314
-386.004	75.824	0.160	-0.166
-384.990	688.230	0.076	-0.196
-383.975	-118.367	-0.172	0.030
-382.960	328.979	0.075	-0.142
-381.946	-43.189	-0.203	0.101
-380.931	450.544	-0.062	-0.135
-379.917	800.000	-0.097	-0.275
-378.902	800.000	-0.053	0.157
-377.888	800.000	-0.022	0.073
-376.873	95.395	-0.054	0.060
-375.858	-35.203	0.159	0.085
-374.844	36.971	0.265	-0.231
-373.829	-200.000	0.002	0.178
-372.815	-200.000	0.103	-0.000
-371.800	800.000	-0.085	-0.274
-370.785	-51.732	0.376	-0.172
-369.771	500.128	-0.104	-0.236
-368.756	-133.593	0.279	0.034
-367.742	-141.848	-0.208	-0.021
-366.727	-47.864	-0.076	-0.036
-365.712	520.597	0.036	-0.082
-364.698	-77.869	-0.273	0.093
-363.683	-75.511	0.144	0.050
-362.669	-200.000	-0.024	0.334
-361.654	800.000	-0.019	0.079
-360.639	-85.199	-0.159	-0.049
-359.625	-200.000	-0.029	-0.252
-358.610	800.000	-0.029	-0.109
-357.596	20.782	-0.167	-0.133
-356.581	114.138	-0.042	-0.051
-355.566	-187.960	-0.253	0.003
-354.552	268.525	0.171	-0.295
-353.537	-114.488	0.162	0.031
-352.523	622.253	-0.035	0.086
-351.508	572.855	0.025	-0.059
-350.493	207.622	0.203	-0.311
-349.479	49.872	0.113	-0.104
-348.464	-30.669	-0.093	0.052
-347.450	-200.000	0.008	-0.222
-346.435	800.000	0.036	-0.116
-345.420	-200.000	-0.027	0.320
-344.406	49.109	0.027	0.025
-343.391	-200.000	-0.029	0.318
-342.377	35.702	-0.075	-0.064
-341.362	800.000	0.087	0.279
-340.348	-117.354	-0.360	-0.064
-339.333	-200.000	-0.009	-0.170
-338.318	-3.814	-0.312	-0.212
-337.304	-200.000	-0.041	0.279
-336.289	-154.692	0.088	-0.006
-335.275	115.716	-0.094	-0.113
-334.260	-83.747	0.182	-0.057
-333.245	-200.000	0.047	-0.361
-332.231	-93.801	0.185	-0.050
-331.216	31.796	-0.286	-0.241
-330.202	-105.746	0.196	-0.044
-329.187	39.506	-0.211	0.185
-328.172	17.680	0.163	0.127
-327.158	499.639	-0.111	-0.250
-326.143	-147.419	0.351	-0.029
-325.129	-200.000	-0.010	0.097
-324.114	-59.610	0.310	0.131
-323.099	-113.570	0.299	-0.057
-322.085	33.105	0.080	0.068
-321.070	43.957	-0.168	-0.151
-320.056	-200.000	-0.045	-0.359
-319.041	-3.434	0.211	0.144
-318.026	31.398	0.326	0.275
-317.012	-200.000	-0.014	0.156
-315.997	-123.316	0.127	-0.020
-314.983	-42.898	0.197	0.098
-313.968	175.728	-0.194	-0.276
-312.953	168.497	-0.091	0.128
-311.939	564.200	0.122	0.290
-310.924	1.651	0.189	0.133
-309.910	800.000	-0.069	-0.191
-308.895	-200.000	0.022	0.234
-307.880	-200.000	-0.015	-0.128
-306.866	207.107	-0.187	-0.287
-305.851	-172.977	0.276	0.008
-304.837	-45.911	-0.208	-0.101
-303.822	-35.786	0.263	-0.140
-302.807	129.594	-0.287	0.360
-301.793	199.237	0.068	-0.102
-300.778	87.104	-0.044	-0.047
-299.764	220.569	0.112	-0.176
-298.749	131.952	-0.122	0.154
-297.735	331.925	-0.177	-0.335
-296.720	279.286	-0.096	-0.169
-295.705	-200.000	-0.009	0.056
-294.691	552.811	0.101	0.237
-293.676	-200.000	0.049	0.308
-292.662	217.275	-0.080	-0.126
-291.647	-17.407	0.170	0.105
-290.632	-65.268	-0.249	0.098
-289.618	800.000	-0.094	0.257
-288.603	93.660	0.252	0.280
-287.589	-80.263	-0.302	-0.099
-286.574	-171.936	0.108	-0.003
-285.559	-16.183	-0.237	0.147
-284.545	-4.251	0.079	0.054
-283.530	736.660	-0.060	0.156
-282.516	-63.382	-0.223	0.090
-281.501	-55.960	-0.148	0.065
-280.486	-200.000	0.006	0.265
-279.472	318.073	-0.153	0.284
-278.457	-84.338	-0.139	0.043
-277.443	-200.000	0.013	0.462
-276.428	-168.619	0.186	0.007
-275.413	800.000	-0.081	0.325
-274.399	-159.936	-0.234	0.013
-273.384	800.000	0.094	0.331
-272.370	-91.200	-0.148	0.041
-271.355	-200.000	0.023	-0.239
-270.340	664.066	0.123	-0.311
-269.326	-8.227	-0.224	-0.147
-268.311	-200.000	-0.010	0.101
-267.297	-103.484	-0.359	0.083
-266.282	800.000	-0.070	-0.287
-265.267	-13.934	-0.237	0.150
-264.253	-200.000	-0.028	-0.222
-263.238	507.835	0.090	-0.205
-262.224	-200.000	-0.057	0.255
-261.209	-42.860	0.448	-0.223
-260.195	185.006	-0.069	-0.100
-259.180	225.565	0.097	0.154
-258.165	-200.000	-0.085	0.381
-257.151	51.549	0.225	-0.210
-256.136	45.331	0.249	-0.225
-255.122	-3.163	-0.167	0.114
-254.107	-53.927	-0.181	-0.081
-253.092	131.733	-0.028	-0.035
-252.078	-27.138	-0.060	0.034
-251.063	-31.776	0.224	0.123
-250.049	800.000	0.005	-0.022
-249.034	-80.994	0.214	-0.069
-248.019	-68.246	0.162	0.062
-247.005	800.000	0.064	-0.223
-245.990	204.031	0.161	0.244
-244.976	7.859	-0.085	0.062
-243.961	-200.000	-0.005	0.146
-242.946	794.985	0.032	0.086
-241.932	-42.912	0.194	-0.097
-240.917	-200.000	0.056	-0.249
-239.903	-57.344	-0.153	0.066
-238.888	-17.956	0.400	0.245
-237.873	-117.640	0.180	0.032
-236.859	227.143	0.024	-0.038
-235.844	-58.282	0.079	0.033
-234.830	214.812	0.078	0.121
-233.815	800.000	0.046	0.172
-232.800	-108.045	0.066	-0.014
-231.786	-84.560	-0.222	0.068
-230.771	39.399	0.167	-0.146
-229.757	-71.739	-0.069	0.025
-228.742	283.461	-0.143	0.252
-227.727	172.322	-0.113	-0.159
-226.713	800.000	-0.034	-0.116
-225.698	512.709	0.159	-0.362
-224.684	334.360	0.144	0.273
-223.669	800.000	0.053	-0.195
-222.655	-144.747	-0.176	0.016
-221.640	144.450	-0.099	0.129
-220.625	800.000	-0.071	0.231
-219.611	-27.375	0.247	0.141
-218.596	29.431	-0.408	-0.339
-217.582	431.127	0.077	-0.163
-216.567	-49.804	-0.337	-0.156
-215.552	235.333	0.128	0.207
-214.538	74.612	0.277	-0.285
-213.523	800.000	-0.068	0.286
-212.509	-76.562	0.189	-0.065
-211.494	-120.129	0.254	-0.042
-210.479	800.000	0.074	-0.212
-209.465	125.112	0.041	-0.050
-208.450	90.176	0.281	-0.307
-207.436	-169.893	-0.251	-0.009
-206.421	293.212	-0.130	-0.231
-205.406	-86.885	0.261	-0.078
-204.392	-200.000	0.020	-0.172
-203.377	-55.465	0.185	0.081
-202.363	-200.000	-0.007	-0.036
-201.348	-36.033	-0.287	-0.152
-200.333	733.846	0.062	0.162
-199.319	157.104	-0.100	0.135
-198.304	44.168	-0.043	-0.038
-197.290	65.730	-0.173	-0.171
-196.275	-43.125	0.235	0.116
-195.260	800.000	0.060	-0.187
-194.246	-200.000	0.004	-0.326
-193.231	11.381	0.085	-0.064
-192.217	-157.855	-0.176	0.010
-191.202	800.000	-0.075	0.235
-190.187	71.190	0.144	0.145
-189.173	-34.829	0.094	0.050
-188.158	-84.371	0.084	-0.026
-187.144	-41.085	0.183	0.092
-186.129	653.487	0.156	0.391
-185.114	-200.000	-0.012	0.110
-184.100	-41.416	-0.194	0.097
-183.085	411.660	0.067	-0.139
-182.071	176.627	-0.046	-0.065
-181.056	-200.000	-0.038	-0.349
-180.042	-200.000	-0.018	-0.147
-179.027	-0.178	-0.107	0.074
-178.012	-106.128	0.380	-0.083
-176.998	800.000	-0.100	0.388
-175.983	13.839	-0.139	0.106
-174.969	82.239	0.127	-0.135
-173.954	-200.000	-0.059	0.471
-172.939	-200.000	0.023	0.195
-171.925	-129.561	0.134	0.018
-170.910	40.512	0.035	-0.031
-169.896	-90.191	0.245	0.070
-168.881	-63.239	0.074	0.030
-167.866	-159.417	-0.244	0.013
-166.852	-11.249	-0.159	-0.102
-165.837	800.000	0.070	0.266
-164.823	-200.000	0.076	-0.345
-163.808	78.259	0.022	0.022
-162.793	-132.629	0.115	0.014
-161.779	-200.000	-0.008	-0.398
-160.764	-171.697	-0.325	-0.010
-159.750	26.324	0.213	0.174
-158.735	-200.000	0.015	0.281
-157.720	-200.000	0.013	0.288
-156.706	406.784	-0.076	0.157
-155.691	-7.575	-0.064	-0.042
-154.677	-143.565	0.089	0.008
-153.662	-200.000	0.030	0.178
-152.647	-200.000	-0.063	0.285
-151.633	-106.453	-0.225	0.049
-150.618	101.135	0.334	-0.379
-149.604	1.452	0.110	0.077
-148.589	-106.970	-0.273	-0.059
-147.574	-15.248	-0.054	-0.034
-146.560	148.406	0.053	-0.069
-145.545	800.000	-0.074	0.206
-144.531	-121.162	0.202	0.033
-143.516	800.000	0.154	0.497
-142.502	-51.411	0.091	-0.042
-141.487	13.672	0.176	0.133
-140.472	-138.914	-0.111	-0.012
-139.458	-22.966	0.219	0.129
-138.443	-111.128	-0.254	-0.051
-137.429	163.065	-0.093	0.128
-136.414	-98.240	-0.134	-0.033
-135.399	401.312	-0.116	0.238
-134.385	212.808	0.078	0.120
-133.370	-149.744	-0.173	-0.013
-132.356	-92.953	0.217	-0.059
-131.341	-128.703	-0.402	-0.055
-130.326	154.265	-0.145	-0.194
-129.312	248.983	-0.052	-0.086
-128.297	288.121	0.066	0.116
-127.283	-17.212	0.256	-0.157
-126.268	-200.000	0.053	0.435
-125.253	-95.341	0.258	-0.068
-124.239	146.395	-0.163	-0.214
-123.224	21.345	-0.234	0.185
-122.210	-200.000	0.023	-0.282
-121.195	-101.839	0.196	0.046
