DTS Sentinel unit serial number:	SN413079Multiplexer serial number:	ORYXHardware model number:	OX4-SRSoftware version number:	ORYX F/W v4.00 Oryx Data Collector v3.7.2.0data status	okinstallation	princeton_trtdifferential loss correction	single-endedforward channel	channel 2reverse channel	N/Adate	2019/09/12time	16:01:11forward acquisition time	60.00reverse acquisition time	0.00gamma	496.2192k internal	0.2310k external	0.2310temperature offset calibration	1.0101default loss term (dB/km)	0.3790temperature slope calibration	1.0000multiplexer offset coefficient	1.0000multiplexer slope coefficient	1.0000fibre end	0.00T internal ref (°C)	38.98T ext. ref 1 (°C)	2.49T ext. ref 2 (°C)	31.89length (m)	temperature (°C)	Stokes	anti-Stokes-747.200	42.993	0.210	0.194
-746.185	-4.677	0.063	0.044
-745.171	20.368	-0.387	0.317
-744.156	327.046	0.149	0.291
-743.142	57.039	0.059	0.059
-742.127	-2.879	0.326	0.231
-741.112	-3.627	-0.080	0.056
-740.098	-3.302	0.228	-0.162
-739.083	-118.803	-0.102	0.018
-738.069	-6.436	0.136	0.094
-737.054	54.347	-0.027	0.027
-736.039	67.026	-0.171	0.177
-735.025	-200.000	-0.013	0.139
-734.010	144.573	0.173	-0.234
-732.996	460.726	0.007	0.015
-731.981	36.893	0.168	-0.151
-730.966	-12.013	-0.087	-0.058
-729.952	-45.901	-0.195	-0.098
-728.937	179.623	-0.054	-0.080
-727.923	-200.000	0.019	-0.156
-726.908	126.822	0.160	-0.206
-725.894	-102.106	-0.083	-0.020
-724.879	204.070	0.085	0.134
-723.864	-81.054	0.408	-0.137
-722.850	-142.317	-0.254	0.025
-721.835	800.000	0.056	0.180
-720.821	74.569	0.033	-0.036
-719.806	-200.000	0.026	-0.382
-718.791	800.000	0.086	-0.343
-717.777	-21.329	-0.414	0.257
-716.762	-103.530	-0.108	-0.026
-715.748	-124.402	-0.343	-0.054
-714.733	-73.030	-0.156	0.058
-713.718	232.813	0.049	0.081
-712.704	-120.634	0.096	-0.016
-711.689	163.883	-0.041	0.058
-710.675	19.229	0.066	-0.054
-709.660	800.000	-0.111	-0.402
-708.645	-137.436	0.050	0.006
-707.631	-200.000	-0.043	-0.343
-706.616	-66.751	0.054	-0.022
-705.602	800.000	-0.066	0.256
-704.587	234.088	-0.197	-0.329
-703.572	-200.000	-0.069	0.323
-702.558	-68.446	-0.368	0.145
-701.543	800.000	-0.097	0.279
-700.529	327.635	0.163	0.318
-699.514	6.126	0.266	-0.200
-698.499	-73.695	-0.412	-0.152
-697.485	-200.000	-0.050	0.311
-696.470	-58.798	0.105	0.046
-695.456	393.749	0.034	0.072
-694.441	-111.240	-0.110	-0.023
-693.426	169.876	0.098	0.142
-692.412	97.228	-0.065	0.076
-691.397	754.383	0.062	-0.171
-690.383	499.401	-0.090	-0.210
-689.368	-153.994	0.035	0.002
-688.354	485.961	0.032	0.075
-687.339	123.843	0.171	-0.218
-686.324	-96.291	0.294	-0.079
-685.310	594.694	0.080	-0.201
-684.295	243.811	0.102	-0.174
-683.281	-8.548	0.274	-0.186
-682.266	46.998	0.193	0.182
-681.251	-200.000	-0.001	0.110
-680.237	-113.836	0.343	-0.068
-679.222	-200.000	0.055	-0.260
-678.208	-149.793	0.107	-0.009
-677.193	-88.612	-0.300	-0.091
-676.178	294.067	-0.143	-0.264
-675.164	-6.402	0.331	-0.229
-674.149	-89.488	0.126	0.038
-673.135	160.488	-0.042	0.059
-672.120	198.845	-0.127	0.197
-671.105	170.095	-0.296	0.428
-670.091	-3.111	-0.503	-0.355
-669.076	62.843	0.114	-0.115
-668.062	-18.944	0.033	-0.021
-667.047	-169.685	-0.218	-0.008
-666.032	-200.000	0.011	-0.079
-665.018	141.888	-0.079	0.106
-664.003	386.194	0.083	0.174
-662.989	-91.426	0.110	0.032
-661.974	108.249	0.023	-0.028
-660.959	-200.000	0.018	-0.126
-659.945	72.176	-0.035	0.037
-658.930	16.824	0.078	0.063
-657.916	41.873	-0.228	0.210
-656.901	24.766	-0.191	-0.160
-655.886	6.147	-0.112	-0.084
-654.872	800.000	0.082	0.278
-653.857	83.825	0.077	-0.085
-652.843	800.000	0.080	-0.288
-651.828	8.338	0.258	0.196
-650.814	800.000	-0.035	-0.134
-649.799	25.799	0.324	-0.273
-648.784	547.854	0.044	-0.107
-647.770	59.131	-0.075	-0.074
-646.755	-108.464	0.162	0.035
-645.741	800.000	-0.142	0.426
-644.726	-200.000	0.039	-0.198
-643.711	360.562	0.164	-0.332
-642.697	-28.251	0.274	0.160
-641.682	-52.246	-0.441	-0.207
-640.668	189.964	0.032	0.049
-639.653	-200.000	0.002	0.120
-638.638	148.588	0.175	0.239
-637.624	800.000	0.017	0.054
-636.609	-10.478	0.139	0.093
-635.595	-61.184	-0.232	-0.099
-634.580	26.601	-0.210	0.178
-633.565	-63.213	0.422	0.176
-632.551	800.000	-0.087	-0.356
-631.536	393.782	0.078	0.165
-630.522	-200.000	0.000	0.034
-629.507	132.430	0.053	0.070
-628.492	31.373	-0.197	-0.171
-627.478	-71.850	0.268	0.101
-626.463	36.912	-0.072	-0.064
-625.449	800.000	-0.033	0.138
-624.434	-200.000	0.019	-0.303
-623.419	800.000	-0.133	-0.386
-622.405	15.479	-0.231	0.184
-621.390	171.773	-0.165	-0.239
-620.376	-200.000	-0.004	-0.070
-619.361	247.672	0.165	0.283
-618.346	452.477	0.158	-0.354
-617.332	-117.409	-0.082	-0.015
-616.317	-200.000	0.018	0.242
-615.303	377.708	-0.080	0.165
-614.288	4.765	0.183	-0.136
-613.273	-55.219	0.174	0.079
-612.259	-34.800	-0.293	0.162
-611.244	-30.767	-0.044	0.025
-610.230	-106.516	-0.101	0.023
-609.215	-112.267	0.185	0.037
-608.201	-37.552	-0.354	-0.191
-607.186	111.830	-0.129	-0.157
-606.171	186.145	0.102	-0.154
-605.157	800.000	0.055	0.157
-604.142	220.404	-0.107	0.173
-603.128	71.835	-0.177	-0.186
-602.113	-105.094	0.272	-0.063
-601.098	-115.464	0.124	0.024
-600.084	646.289	-0.052	-0.134
-599.069	385.853	-0.057	-0.119
-598.055	422.689	0.197	-0.428
-597.040	-62.088	0.425	0.179
-596.025	-79.920	0.282	-0.096
-595.011	120.870	-0.147	0.185
-593.996	95.244	-0.127	0.146
-592.982	-200.000	0.009	-0.137
-591.967	-126.166	-0.426	0.064
-590.952	201.086	0.076	-0.118
-589.938	-200.000	-0.007	-0.069
-588.923	-112.632	-0.383	0.077
-587.909	244.459	0.077	0.130
-586.894	47.542	-0.089	0.084
-585.879	567.191	0.132	-0.323
-584.865	-81.945	-0.395	0.130
-583.850	41.488	0.187	0.171
-582.836	-60.180	0.176	0.076
-581.821	-174.108	0.272	-0.008
-580.806	-98.810	0.273	0.070
-579.792	464.183	-0.112	0.253
-578.777	-26.611	0.145	-0.086
-577.763	-65.977	-0.164	0.066
-576.748	-200.000	-0.005	-0.054
-575.733	-37.016	0.073	-0.040
-574.719	-127.669	-0.302	-0.044
-573.704	178.585	-0.173	-0.254
-572.690	212.615	-0.171	-0.272
-571.675	-170.218	0.154	-0.005
-570.661	204.403	-0.075	-0.117
-569.646	-96.452	0.221	0.059
-568.631	264.369	0.032	-0.056
-567.617	26.144	0.104	-0.088
-566.602	123.259	-0.138	-0.175
-565.588	215.005	-0.206	0.330
-564.573	800.000	0.058	-0.239
-563.558	800.000	0.100	0.308
-562.544	-18.039	-0.219	0.139
-561.529	265.509	0.210	0.370
-560.515	652.446	-0.024	-0.061
-559.500	583.618	-0.080	0.199
-558.485	-23.288	-0.055	0.033
-557.471	-200.000	-0.002	0.215
-556.456	193.294	0.068	-0.104
-555.442	-200.000	-0.013	-0.107
-554.427	-56.848	-0.296	0.132
-553.412	185.031	0.158	-0.236
-552.398	-200.000	0.012	-0.199
-551.383	-200.000	0.026	-0.211
-550.369	800.000	-0.104	0.350
-549.354	790.288	0.077	0.213
-548.339	85.439	0.096	-0.106
-547.325	182.527	-0.036	0.053
-546.310	75.568	0.083	-0.089
-545.296	-38.147	0.073	-0.039
-544.281	-200.000	0.017	-0.341
-543.266	-156.655	-0.257	-0.016
-542.252	526.500	0.071	-0.169
-541.237	210.168	0.152	0.240
-540.223	-81.502	0.131	-0.043
-539.208	-195.740	-0.101	-0.001
-538.193	-108.824	-0.316	-0.068
-537.179	325.012	-0.123	-0.237
-536.164	-182.860	0.529	0.010
-535.150	-17.714	0.532	0.336
-534.135	-154.213	0.121	0.008
-533.121	29.107	-0.308	0.263
-532.106	800.000	-0.039	0.123
-531.091	-73.756	-0.037	0.014
-530.077	-200.000	0.001	0.312
-529.062	738.010	0.048	0.131
-528.048	73.198	0.098	-0.103
-527.033	-148.398	0.417	0.034
-526.018	800.000	0.079	0.229
-525.004	-200.000	0.006	-0.058
-523.989	-200.000	0.014	0.195
-522.975	143.524	-0.134	-0.180
-521.960	64.636	-0.250	-0.254
-520.945	-200.000	-0.001	0.185
-519.931	18.334	-0.224	-0.180
-518.916	800.000	0.095	-0.388
-517.902	61.719	-0.187	-0.188
-516.887	672.275	0.045	-0.118
-515.872	59.328	-0.090	-0.089
-514.858	13.254	0.178	-0.139
-513.843	318.832	0.060	0.114
-512.829	-52.634	0.144	0.067
-511.814	-141.095	0.135	-0.014
-510.799	-123.922	-0.333	-0.053
-509.785	-126.384	-0.431	-0.065
-508.770	-133.524	0.345	-0.043
-507.756	-25.920	0.174	0.103
-506.741	800.000	-0.061	-0.213
-505.726	-141.511	0.252	0.026
-504.712	270.926	0.147	-0.260
-503.697	21.205	-0.116	0.095
-502.683	-74.457	0.153	0.056
-501.668	-119.314	-0.477	-0.084
-500.653	-200.000	-0.031	0.505
-499.639	-163.421	-0.178	0.009
-498.624	150.949	0.224	0.307
-497.610	800.000	-0.137	0.399
-496.595	112.427	-0.217	-0.265
-495.581	-34.578	-0.229	-0.126
-494.566	-200.000	-0.020	-0.450
-493.551	-15.416	-0.241	0.155
-492.537	488.165	0.054	-0.125
-491.522	-112.273	0.148	-0.030
-490.508	46.991	-0.069	0.065
-489.493	235.910	0.111	-0.185
-488.478	55.011	-0.037	0.036
-487.464	-200.000	-0.075	-0.374
-486.449	-105.751	-0.146	0.033
-485.435	-40.716	0.136	0.071
-484.420	-162.025	-0.208	-0.011
-483.405	-62.605	-0.250	-0.104
-482.391	-141.995	-0.185	0.019
-481.376	66.723	-0.213	0.218
-480.362	-200.000	-0.010	-0.251
-479.347	800.000	0.021	0.061
-478.332	-18.153	0.347	0.219
-477.318	-16.380	-0.143	-0.091
-476.303	-125.078	-0.396	-0.061
-475.289	15.026	0.184	0.145
-474.274	0.902	0.369	0.265
-473.259	-75.675	-0.107	0.038
-472.245	6.689	-0.303	0.227
-471.230	-101.164	0.094	-0.023
-470.216	-23.458	0.080	-0.049
-469.201	339.347	0.265	-0.519
-468.186	257.349	0.150	0.260
-467.172	86.217	0.155	-0.171
-466.157	-80.530	-0.160	0.053
-465.143	-43.109	0.345	-0.176
-464.128	-200.000	0.042	-0.232
-463.113	-115.245	-0.289	-0.055
-462.099	1.156	0.106	-0.076
-461.084	731.527	0.134	0.360
-460.070	114.828	-0.036	0.044
-459.055	383.709	0.076	-0.157
-458.040	319.775	0.075	0.143
-457.026	55.899	-0.161	0.157
-456.011	-50.859	-0.301	0.142
-454.997	-58.629	0.382	-0.166
-453.982	-129.047	-0.438	-0.062
-452.968	31.080	-0.205	-0.177
-451.953	-200.000	0.034	-0.172
-450.938	-121.284	0.142	0.024
-449.924	-145.051	0.224	-0.020
-448.909	174.813	-0.065	0.094
-447.895	-127.603	0.268	0.039
-446.880	-45.206	-0.281	0.140
-445.865	-200.000	0.069	-0.000
-444.851	800.000	-0.099	-0.369
-443.836	800.000	0.065	0.282
-442.822	68.125	-0.145	0.149
-441.807	71.048	0.078	-0.081
-440.792	800.000	0.126	0.432
-439.778	572.666	0.066	-0.161
-438.763	132.616	-0.153	0.198
-437.749	41.243	0.051	0.046
-436.734	-16.832	-0.330	-0.209
-435.719	16.048	-0.278	0.220
-434.705	595.718	-0.050	-0.124
-433.690	-22.072	-0.239	0.146
-432.676	800.000	-0.025	0.080
-431.661	-200.000	-0.023	-0.158
-430.646	44.350	-0.154	-0.142
-429.632	-88.190	0.200	0.060
-428.617	-200.000	-0.012	-0.148
-427.603	498.251	0.224	-0.517
-426.588	-90.761	0.155	0.045
-425.573	87.362	0.130	0.145
-424.559	-10.624	-0.206	-0.137
-423.544	162.446	0.028	-0.040
-422.530	800.000	0.028	0.096
-421.515	-57.639	-0.118	0.052
-420.500	185.824	-0.116	0.174
-419.486	-92.339	-0.145	0.041
-418.471	-60.287	-0.237	-0.101
-417.457	42.831	-0.093	0.085
-416.442	433.748	-0.049	0.106
-415.428	-200.000	-0.013	0.373
-414.413	0.607	-0.125	0.090
-413.398	206.367	0.190	-0.296
-412.384	319.246	0.105	0.201
-411.369	800.000	0.016	0.062
-410.355	-178.512	-0.074	0.002
-409.340	40.881	0.048	0.043
-408.325	-200.000	0.013	0.159
-407.311	-131.834	0.245	0.032
-406.296	236.845	0.071	0.118
-405.282	-200.000	0.025	-0.216
-404.267	-18.802	0.051	-0.032
-403.252	800.000	-0.080	0.238
-402.238	-39.866	0.050	-0.026
-401.223	-115.665	-0.284	0.053
-400.209	-112.633	-0.067	-0.013
-399.194	106.397	-0.042	0.050
-398.179	-81.842	-0.238	0.078
-397.165	-119.488	0.024	-0.004
-396.150	-200.000	0.016	0.081
-395.136	-200.000	-0.041	0.186
-394.121	438.462	0.076	-0.165
-393.106	455.849	-0.071	0.158
-392.092	800.000	-0.083	0.288
-391.077	68.575	0.217	-0.223
-390.063	99.800	-0.173	-0.201
-389.048	-119.459	-0.432	-0.075
-388.033	-200.000	-0.006	-0.067
-387.019	-200.000	0.004	0.213
-386.004	66.597	0.025	0.025
-384.990	-109.226	-0.196	-0.042
-383.975	-22.270	0.084	-0.051
-382.960	-200.000	-0.001	-0.006
-381.946	-109.774	0.139	-0.029
-380.931	800.000	-0.118	-0.360
-379.917	320.876	-0.091	-0.174
-378.902	-55.100	0.110	-0.049
-377.888	800.000	-0.087	-0.260
-376.873	307.036	0.087	-0.161
-375.858	123.998	-0.188	-0.237
-374.844	8.939	0.100	-0.076
-373.829	-45.661	0.161	0.080
-372.815	-200.000	0.017	-0.249
-371.800	-200.000	0.020	-0.138
-370.785	-71.012	0.466	-0.176
-369.771	595.631	0.053	0.131
-368.756	-140.847	0.109	-0.011
-367.742	-200.000	0.029	-0.457
-366.727	618.681	-0.078	-0.197
-365.712	-173.988	0.209	0.006
-364.698	-200.000	-0.052	-0.249
-363.683	-49.989	0.150	-0.071
-362.669	-200.000	0.027	0.175
-361.654	418.439	0.036	-0.077
-360.639	228.208	-0.193	-0.315
-359.625	-41.156	-0.138	-0.071
-358.610	-121.254	0.137	0.023
-357.596	342.591	-0.148	0.289
-356.581	-200.000	0.000	-0.194
-355.566	145.094	0.109	-0.146
-354.552	-41.956	-0.184	0.094
-353.537	-124.356	0.327	-0.051
-352.523	763.046	0.032	0.087
-351.508	637.204	0.079	-0.202
-350.493	32.662	0.094	0.082
-349.479	-44.630	-0.115	-0.057
-348.464	589.935	-0.027	-0.066
-347.450	110.446	0.127	0.152
-346.435	-78.835	-0.299	-0.102
-345.420	-111.633	0.193	0.039
-344.406	800.000	0.051	0.161
-343.391	115.430	-0.218	0.267
-342.377	-24.115	-0.260	0.155
-341.362	88.067	-0.090	-0.100
-340.348	-200.000	0.009	-0.151
-339.333	-168.977	0.387	0.014
-338.318	-100.271	-0.118	-0.029
-337.304	-34.342	0.316	-0.173
-336.289	-194.923	0.153	-0.001
-335.275	-161.706	0.033	0.002
-334.260	41.535	-0.313	0.283
-333.245	-52.503	-0.126	0.058
-332.231	141.554	0.208	-0.276
-331.216	150.223	-0.310	0.421
-330.202	800.000	-0.075	0.232
-329.187	-93.389	0.120	0.033
-328.172	-200.000	0.030	0.381
-327.158	-69.295	-0.141	0.054
-326.143	-59.019	-0.366	-0.158
-325.129	-200.000	-0.000	-0.213
-324.114	-15.039	-0.202	-0.129
-323.099	15.818	-0.132	-0.104
-322.085	204.826	0.028	-0.043
-321.070	-12.159	-0.041	0.027
-320.056	75.071	-0.072	-0.076
-319.041	-200.000	0.009	-0.085
-318.026	800.000	0.039	0.110
-317.012	800.000	-0.077	-0.241
-315.997	-76.362	-0.284	-0.100
-314.983	-44.335	-0.302	-0.151
-313.968	-193.944	-0.302	-0.003
-312.953	471.769	0.102	-0.228
-311.939	506.867	-0.068	0.157
-310.924	218.498	-0.183	0.293
-309.910	-200.000	-0.015	-0.154
-308.895	-111.152	0.422	0.086
-307.880	37.197	0.299	-0.264
-306.866	64.888	-0.073	0.074
-305.851	-107.308	-0.073	0.016
-304.837	-16.557	0.232	0.147
-303.822	-200.000	0.055	-0.310
-302.807	-97.338	0.307	-0.080
-301.793	329.569	-0.241	0.462
-300.778	-84.212	-0.176	0.056
-299.764	800.000	-0.078	-0.309
-298.749	-200.000	0.021	0.128
-297.735	-136.638	0.223	-0.026
-296.720	417.252	-0.159	0.338
-295.705	140.110	-0.045	0.060
-294.691	-100.341	0.174	-0.043
-293.676	35.981	-0.108	-0.095
-292.662	-44.284	-0.199	-0.099
-291.647	759.679	-0.145	0.392
-290.632	-67.310	0.173	0.068
-289.618	-109.466	-0.225	-0.047
-288.603	41.507	0.029	-0.026
-287.589	-123.160	0.150	-0.024
-286.574	-40.165	0.070	-0.037
-285.559	15.579	0.208	-0.163
-284.545	-156.102	0.447	0.028
-283.530	-5.490	0.195	0.134
-282.516	254.992	0.112	0.191
-281.501	335.441	-0.053	-0.102
-280.486	-67.227	-0.317	0.124
-279.472	106.924	-0.160	0.190
-278.457	-43.959	0.345	-0.173
-277.443	-158.902	0.144	0.008
-276.428	-73.765	0.215	0.078
-275.413	119.387	-0.189	0.234
-274.399	656.322	0.096	-0.245
-273.384	76.598	0.021	0.023
-272.370	800.000	0.133	-0.375
-271.355	800.000	-0.087	0.246
-270.340	800.000	0.026	-0.110
-269.326	-200.000	-0.062	-0.458
-268.311	750.955	0.101	0.271
-267.297	-200.000	0.014	0.321
-266.282	10.965	-0.169	0.129
-265.267	255.510	-0.053	-0.090
-264.253	-114.774	-0.145	-0.028
-263.238	-169.301	0.453	0.017
-262.224	-162.311	0.283	-0.014
-261.209	-200.000	-0.066	-0.338
-260.195	49.734	-0.064	-0.060
-259.180	-200.000	-0.061	-0.301
-258.165	82.251	0.063	-0.068
-257.151	396.869	0.133	0.277
-256.136	77.226	0.098	-0.104
-255.122	-7.422	0.270	0.182
-254.107	103.273	0.209	0.244
-253.092	-85.233	-0.138	-0.043
-252.078	69.232	-0.174	0.178
-251.063	-200.000	0.002	0.049
-250.049	-36.278	-0.220	0.118
-249.034	58.619	0.141	0.138
-248.019	105.993	-0.202	0.238
-247.005	173.117	-0.093	0.133
-245.990	-200.000	0.031	0.272
-244.976	-62.524	0.217	0.090
-243.961	-90.362	-0.273	0.079
-242.946	-95.001	0.277	-0.075
-241.932	800.000	0.065	0.267
-240.917	-200.000	0.029	0.156
-239.903	-176.245	0.128	-0.003
-238.888	128.846	0.196	0.249
-237.873	-200.000	-0.033	0.192
-236.859	20.916	0.132	-0.107
-235.844	26.697	-0.178	-0.148
-234.830	748.417	0.034	-0.090
-233.815	-200.000	0.040	-0.257
-232.800	-24.613	0.242	0.143
-231.786	389.563	-0.086	0.177
-230.771	-123.169	0.128	-0.020
-229.757	-11.643	0.157	0.103
-228.742	800.000	-0.052	-0.188
-227.727	-130.241	-0.069	-0.009
-226.713	73.636	0.091	-0.095
-225.698	-0.923	0.093	0.066
-224.684	-14.406	0.123	-0.079
-223.669	159.446	0.300	0.415
-222.655	108.141	-0.123	0.146
-221.640	116.221	0.092	0.112
-220.625	800.000	-0.090	-0.261
-219.611	-200.000	0.020	0.135
-218.596	-200.000	-0.024	0.307
-217.582	63.244	0.214	-0.214
-216.567	231.108	0.052	-0.085
-215.552	788.834	0.022	0.060
-214.538	29.960	-0.112	-0.095
-213.523	800.000	-0.156	0.489
-212.509	-126.369	-0.258	-0.038
-211.494	-38.732	-0.145	0.076
-210.479	-32.873	-0.173	-0.096
-209.465	-12.175	-0.074	0.048
-208.450	582.838	-0.136	-0.332
-207.436	-200.000	-0.007	-0.173
-206.421	14.464	0.312	0.242
-205.406	21.081	0.267	0.215
-204.392	-52.764	-0.301	-0.138
-203.377	417.880	0.073	0.156
-202.363	-200.000	-0.015	0.203
-201.348	800.000	0.037	0.147
-200.333	322.269	-0.129	0.243
-199.319	-200.000	0.009	-0.192
-198.304	-153.184	0.068	-0.005
-197.290	-162.054	0.117	0.006
-196.275	-11.414	0.086	-0.056
-195.260	-200.000	0.004	-0.130
-194.246	-200.000	-0.099	-0.000
-193.231	212.745	0.061	-0.096
-192.217	77.880	0.200	-0.212
-191.202	-55.258	0.081	-0.036
-190.187	-200.000	0.043	-0.213
-189.173	160.617	0.166	0.230
-188.158	-57.951	0.140	0.061
-187.144	800.000	-0.040	-0.155
-186.129	-70.051	-0.246	0.093
-185.114	-200.000	0.067	-0.327
-184.100	-200.000	0.031	0.172
-183.085	-200.000	-0.055	0.262
-182.071	137.123	-0.237	0.308
-181.056	-28.123	0.149	0.086
-180.042	166.344	0.061	-0.085
-179.027	50.330	-0.163	-0.153
-178.012	800.000	0.086	-0.251
-176.998	800.000	0.095	-0.272
-175.983	11.498	-0.251	0.191
-174.969	378.668	0.080	0.162
-173.954	-200.000	-0.044	0.348
-172.939	-200.000	-0.062	-0.310
-171.925	46.978	-0.154	-0.142
-170.910	-118.982	-0.284	0.050
-169.896	86.357	0.024	-0.026
-168.881	-129.042	0.250	-0.035
-167.866	313.731	-0.070	-0.132
-166.852	278.085	0.082	-0.145
-165.837	419.018	-0.102	-0.217
-164.823	-31.776	0.198	-0.110
-163.808	-102.892	-0.042	0.010
-162.793	-200.000	-0.003	0.023
-161.779	-99.104	-0.191	0.048
-160.764	167.160	-0.099	0.139
-159.750	22.432	0.077	0.063
-158.735	293.578	-0.094	0.170
-157.720	-200.000	0.054	0.329
-156.706	800.000	0.052	-0.225
-155.691	-21.753	0.209	-0.126
-154.677	268.311	-0.052	0.091
-153.662	-200.000	0.014	0.207
-152.647	-39.044	0.129	-0.067
-151.633	-200.000	-0.032	-0.185
-150.618	617.374	0.049	0.121
-149.604	-106.610	-0.284	-0.063
-148.589	-105.933	-0.051	-0.012
-147.574	89.071	0.116	-0.129
-146.560	800.000	0.092	0.259
-145.545	469.993	-0.064	0.142
-144.531	18.679	-0.096	-0.076
-143.516	-14.995	0.261	0.166
-142.502	-200.000	-0.003	0.269
-141.487	129.577	0.112	0.141
-140.472	-124.854	-0.205	-0.031
-139.458	452.950	0.068	-0.148
-138.443	800.000	-0.151	-0.521
-137.429	-97.612	-0.092	0.024
-136.414	-43.553	0.212	0.106
-135.399	-7.970	0.124	0.083
-134.385	105.816	0.053	0.062
-133.370	-15.964	-0.190	-0.120
-132.356	-100.856	-0.168	0.041
-131.341	800.000	0.099	-0.302
-130.326	130.315	0.114	0.145
-129.312	-156.861	-0.336	-0.020
-128.297	-200.000	-0.026	-0.167
-127.283	467.017	-0.037	0.083
-126.268	-130.534	-0.126	-0.017
-125.253	-23.380	0.217	0.129
-124.239	491.364	-0.172	0.391
-123.224	800.000	-0.107	-0.298
-122.210	-68.167	-0.128	0.049
-121.195	-138.785	-0.065	0.007
-120.180	-134.943	0.152	-0.018
