DTS Sentinel unit serial number:	SN413079Multiplexer serial number:	ORYXHardware model number:	OX4-SRSoftware version number:	ORYX F/W v4.00 Oryx Data Collector v3.7.2.0data status	okinstallation	princeton_trtdifferential loss correction	single-endedforward channel	channel 2reverse channel	N/Adate	2019/09/17time	00:31:35forward acquisition time	60.00reverse acquisition time	0.00gamma	496.2192k internal	0.2329k external	0.2329temperature offset calibration	0.9972default loss term (dB/km)	0.3790temperature slope calibration	1.0000multiplexer offset coefficient	1.0000multiplexer slope coefficient	1.0000fibre end	0.00T internal ref (°C)	29.47T ext. ref 1 (°C)	0.10T ext. ref 2 (°C)	23.84length (m)	temperature (°C)	Stokes	anti-Stokes-747.200	494.271	0.073	-0.168
-746.185	4.449	0.248	0.183
-745.171	-54.101	0.134	-0.061
-744.156	-200.000	0.071	0.315
-743.142	730.616	0.076	0.204
-742.127	31.182	-0.191	0.165
-741.112	134.893	0.192	0.251
-740.098	-105.434	-0.368	0.084
-739.083	63.631	-0.057	0.058
-738.069	92.305	-0.098	0.112
-737.054	-19.635	0.123	0.077
-736.039	-90.841	-0.174	0.051
-735.025	-76.825	-0.107	-0.038
-734.010	57.886	-0.177	-0.174
-732.996	638.604	0.100	-0.256
-731.981	-79.373	0.264	0.090
-730.966	25.359	-0.160	0.134
-729.952	36.643	-0.098	-0.087
-728.937	-200.000	0.008	-0.054
-727.923	-46.779	-0.195	0.096
-726.908	-92.904	-0.396	0.111
-725.894	-200.000	-0.022	-0.229
-724.879	-37.965	0.296	0.158
-723.864	-128.761	-0.115	-0.016
-722.850	800.000	0.043	0.177
-721.835	48.305	0.274	0.258
-720.821	686.410	0.032	0.085
-719.806	-101.081	-0.199	0.049
-718.791	-200.000	0.022	0.186
-717.777	-130.038	-0.457	0.063
-716.762	800.000	-0.059	-0.229
-715.748	-53.173	0.059	-0.027
-714.733	-167.568	0.184	0.007
-713.718	-76.131	-0.273	0.097
-712.704	800.000	0.053	0.154
-711.689	76.440	-0.127	0.135
-710.675	-73.022	0.079	0.029
-709.660	-200.000	0.028	-0.188
-708.645	-18.528	0.122	-0.077
-707.631	489.592	-0.107	0.245
-706.616	-149.650	0.139	-0.011
-705.602	800.000	-0.086	0.292
-704.587	-200.000	0.009	-0.213
-703.572	20.622	0.108	0.088
-702.558	-200.000	0.032	-0.141
-701.543	-12.434	-0.070	0.046
-700.529	100.144	0.079	0.093
-699.514	143.609	0.198	-0.265
-698.499	-200.000	0.027	-0.135
-697.485	36.542	-0.095	0.085
-696.470	-65.638	0.179	-0.072
-695.456	800.000	0.121	-0.389
-694.441	-105.478	0.302	-0.069
-693.426	-22.175	0.037	0.023
-692.412	-87.478	-0.197	-0.060
-691.397	16.876	-0.085	0.067
-690.383	51.802	-0.153	-0.146
-689.368	22.953	-0.227	-0.187
-688.354	-83.396	-0.481	0.155
-687.339	0.405	-0.514	0.369
-686.324	220.370	0.126	0.203
-685.310	-96.610	0.104	-0.027
-684.295	-143.349	0.395	-0.038
-683.281	409.431	-0.244	-0.520
-682.266	495.616	-0.084	-0.195
-681.251	-43.117	0.345	-0.176
-680.237	-200.000	0.012	-0.099
-679.222	-42.121	-0.072	-0.037
-678.208	-110.848	-0.183	0.038
-677.193	-8.851	-0.245	0.165
-676.178	-164.155	0.401	-0.019
-675.164	70.263	0.101	0.104
-674.149	-146.461	0.103	0.009
-673.135	150.322	-0.087	-0.119
-672.120	440.536	-0.079	-0.173
-671.105	110.811	-0.200	0.241
-670.091	75.095	0.107	0.113
-669.076	289.864	0.039	0.070
-668.062	-200.000	-0.015	-0.317
-667.047	102.450	-0.224	0.263
-666.032	-54.174	0.191	0.087
-665.018	112.936	0.065	-0.080
-664.003	45.184	-0.107	-0.099
-662.989	-27.226	0.107	0.063
-661.974	-21.593	-0.270	0.165
-660.959	80.748	0.203	-0.219
-659.945	-200.000	-0.003	-0.470
-658.930	33.582	0.218	0.190
-657.916	43.571	-0.150	0.138
-656.901	800.000	-0.049	-0.207
-655.886	-200.000	-0.002	-0.089
-654.872	450.396	-0.167	-0.370
-653.857	-10.223	-0.232	-0.154
-652.843	53.004	0.253	0.243
-651.828	-123.712	-0.374	0.059
-650.814	127.077	-0.103	-0.131
-649.799	217.968	-0.239	-0.383
-648.784	298.024	-0.096	0.177
-647.770	-200.000	-0.035	-0.404
-646.755	-5.229	0.218	0.150
-645.741	-200.000	0.002	-0.117
-644.726	92.808	0.121	0.137
-643.711	46.451	0.283	-0.263
-642.697	322.835	0.074	-0.141
-641.682	-47.120	0.350	0.171
-640.668	12.090	-0.132	0.102
-639.653	-86.759	0.299	0.092
-638.638	-95.299	0.064	-0.017
-637.624	-108.821	-0.073	-0.016
-636.609	800.000	0.020	-0.085
-635.595	-120.371	-0.280	-0.048
-634.580	215.749	-0.119	0.190
-633.565	41.646	-0.094	-0.085
-632.551	-5.713	0.106	-0.073
-631.536	7.916	0.007	0.005
-630.522	-131.745	0.128	0.017
-629.507	-200.000	-0.128	0.598
-628.492	-40.517	-0.299	0.156
-627.478	-90.462	0.251	-0.073
-626.463	-200.000	-0.004	-0.219
-625.449	258.779	0.056	-0.097
-624.434	-29.597	-0.123	0.070
-623.419	-79.585	-0.256	-0.087
-622.405	800.000	0.102	-0.310
-621.390	-112.503	0.166	-0.033
-620.376	396.541	-0.054	-0.113
-619.361	-200.000	0.040	0.263
-618.346	47.708	0.274	0.256
-617.332	-161.478	0.122	-0.006
-616.317	-200.000	-0.014	-0.184
-615.303	-200.000	-0.017	-0.168
-614.288	237.984	0.145	-0.242
-613.273	-200.000	-0.003	0.068
-612.259	131.550	-0.224	-0.288
-611.244	-62.190	-0.238	-0.099
-610.230	-7.550	-0.143	0.097
-609.215	348.093	-0.055	-0.108
-608.201	-142.899	-0.169	-0.016
-607.186	334.648	-0.227	-0.439
-606.171	800.000	0.076	0.288
-605.157	-86.409	0.325	-0.100
-604.142	800.000	0.082	0.253
-603.128	-45.206	-0.256	0.128
-602.113	244.897	0.116	0.195
-601.098	-118.686	0.232	0.041
-600.084	-106.930	-0.359	0.080
-599.069	93.498	0.171	-0.193
-598.055	3.399	-0.199	-0.145
-597.040	176.893	-0.196	-0.285
-596.025	-200.000	-0.089	-0.404
-595.011	257.208	-0.120	0.207
-593.996	677.194	-0.062	-0.161
-592.982	62.402	0.080	0.080
-591.967	-44.599	-0.127	-0.063
-590.952	19.660	-0.009	-0.007
-589.938	-4.911	-0.250	-0.173
-588.923	68.392	0.182	0.187
-587.909	151.360	-0.150	-0.204
-586.894	800.000	-0.043	0.121
-585.879	60.051	-0.295	-0.292
-584.865	-127.779	-0.227	-0.033
-583.850	37.243	0.295	0.262
-582.836	-38.321	-0.043	-0.023
-581.821	139.409	0.262	-0.345
-580.806	1.121	-0.046	0.033
-579.792	-16.589	0.020	0.012
-578.777	93.439	0.187	-0.211
-577.763	18.359	-0.289	0.231
-576.748	6.300	-0.108	0.080
-575.733	-26.145	0.311	-0.183
-574.719	74.208	-0.103	0.109
-573.704	-48.623	0.165	-0.079
-572.690	-78.930	0.140	-0.048
-571.675	800.000	-0.045	-0.161
-570.661	-91.297	0.150	0.043
-569.646	11.597	-0.115	-0.088
-568.631	800.000	0.058	-0.170
-567.617	40.918	0.088	0.079
-566.602	382.213	-0.040	-0.081
-565.588	170.241	-0.017	0.024
-564.573	-200.000	0.031	0.287
-563.558	800.000	0.052	0.187
-562.544	-79.555	-0.102	-0.034
-561.529	-163.828	0.247	-0.012
-560.515	45.050	-0.167	0.154
-559.500	-200.000	0.006	0.076
-558.485	800.000	0.010	0.034
-557.471	-15.630	0.120	0.077
-556.456	375.269	0.181	0.368
-555.442	737.642	-0.037	0.100
-554.427	-126.730	-0.406	0.060
-553.412	-73.117	-0.203	-0.074
-552.398	235.627	-0.210	0.347
-551.383	-68.312	-0.366	-0.142
-550.369	-162.324	0.329	-0.016
-549.354	-200.000	-0.002	-0.034
-548.339	-37.530	-0.296	0.158
-547.325	255.768	-0.117	-0.201
-546.310	-200.000	0.070	-0.310
-545.296	-75.766	-0.196	0.069
-544.281	-200.000	0.010	0.055
-543.266	-200.000	-0.037	-0.215
-542.252	31.366	-0.151	-0.129
-541.237	422.852	-0.037	-0.079
-540.223	-200.000	0.057	-0.294
-539.208	-200.000	0.065	0.322
-538.193	-200.000	0.006	0.103
-537.179	31.999	-0.094	-0.081
-536.164	104.523	0.130	0.153
-535.150	-139.304	-0.231	0.025
-534.135	24.560	-0.203	0.167
-533.121	800.000	0.097	-0.321
-532.106	-144.718	-0.087	0.008
-531.091	15.054	0.039	-0.030
-530.077	800.000	0.063	-0.213
-529.062	-120.392	0.176	0.030
-528.048	354.810	0.143	-0.285
-527.033	-200.000	-0.033	-0.322
-526.018	66.019	0.260	0.263
-525.004	-104.594	-0.164	-0.038
-523.989	-124.333	-0.308	-0.048
-522.975	400.969	0.062	-0.130
-521.960	17.931	-0.113	0.090
-520.945	98.715	-0.206	0.237
-519.931	-45.017	0.189	-0.094
-518.916	800.000	0.091	-0.275
-517.902	44.799	-0.239	-0.219
-516.887	27.325	0.155	0.130
-515.872	-200.000	-0.000	0.044
-514.858	-172.761	-0.285	-0.009
-513.843	800.000	0.085	-0.250
-512.829	50.618	0.202	0.191
-511.814	-41.914	-0.199	0.102
-510.799	252.585	-0.152	-0.259
-509.785	-98.318	-0.113	0.029
-508.770	214.349	-0.151	0.238
-507.756	-200.000	0.061	-0.342
-506.741	519.268	0.018	-0.041
-505.726	369.632	-0.029	0.058
-504.712	-200.000	0.006	-0.150
-503.697	-64.556	-0.025	0.010
-502.683	75.478	-0.189	-0.199
-501.668	-200.000	0.001	0.049
-500.653	-79.357	-0.062	-0.021
-499.639	212.360	-0.031	-0.049
-498.624	-200.000	0.112	0.531
-497.610	17.457	0.255	0.202
-496.595	800.000	-0.038	-0.140
-495.581	260.204	-0.090	-0.155
-494.566	-121.737	-0.287	0.047
-493.551	-200.000	0.003	0.123
-492.537	30.289	-0.185	-0.157
-491.522	-140.213	0.226	-0.024
-490.508	236.578	-0.177	-0.292
-489.493	-200.000	-0.025	-0.246
-488.478	-117.129	0.075	0.014
-487.464	-30.731	-0.115	-0.065
-486.449	-98.754	0.301	-0.076
-485.435	212.894	0.156	0.245
-484.420	15.898	-0.147	0.115
-483.405	-98.860	-0.022	0.006
-482.391	-200.000	0.005	0.239
-481.376	-62.667	-0.191	-0.079
-480.362	800.000	-0.062	0.179
-479.347	-19.904	0.273	0.168
-478.332	-144.710	0.194	0.018
-477.318	389.102	0.079	0.163
-476.303	800.000	0.041	-0.134
-475.289	-170.097	0.170	0.006
-474.274	-122.897	0.171	0.027
-473.259	-47.582	0.336	-0.162
-472.245	-51.549	0.106	0.049
-471.230	-200.000	-0.009	0.204
-470.216	554.389	0.120	-0.288
-469.201	-200.000	0.027	0.207
-468.186	345.382	0.118	0.231
-467.172	-200.000	-0.009	0.140
-466.157	-48.540	-0.248	-0.119
-465.143	-200.000	0.035	0.205
-464.128	-86.773	-0.290	0.088
-463.113	-200.000	-0.017	0.073
-462.099	-200.000	-0.013	0.280
-461.084	323.048	0.102	-0.195
-460.070	-200.000	-0.019	-0.183
-459.055	-91.889	-0.402	0.114
-458.040	492.159	-0.147	-0.336
-457.026	-49.206	0.257	0.123
-456.011	102.532	-0.167	-0.195
-454.997	102.288	-0.145	0.169
-453.982	-138.683	0.466	0.051
-452.968	-200.000	0.003	0.114
-451.953	-72.542	-0.363	0.134
-450.938	-190.022	0.181	0.002
-449.924	672.976	-0.189	0.489
-448.909	326.409	-0.076	0.146
-447.895	11.030	0.238	0.181
-446.880	-200.000	0.051	0.257
-445.865	-200.000	0.019	0.121
-444.851	-169.692	0.200	0.007
-443.836	800.000	-0.128	0.472
-442.822	-63.868	-0.230	-0.094
-441.807	6.507	-0.248	0.184
-440.792	305.106	0.123	-0.227
-439.778	-200.000	0.033	0.166
-438.763	565.014	0.038	0.092
-437.749	80.177	-0.110	-0.118
-436.734	800.000	-0.065	-0.242
-435.719	19.244	-0.311	0.248
-434.705	186.159	0.206	-0.305
-433.690	-158.332	0.118	0.007
-432.676	-158.849	0.121	-0.007
-431.661	45.229	-0.340	-0.312
-430.646	-28.077	0.177	-0.102
-429.632	27.573	0.240	-0.201
-428.617	165.569	0.078	0.109
-427.603	-184.718	0.047	-0.001
-426.588	-200.000	-0.069	-0.373
-425.573	-200.000	0.047	-0.248
-424.559	54.759	0.291	0.279
-423.544	-76.824	-0.143	-0.050
-422.530	751.775	0.096	0.258
-421.515	-200.000	-0.032	0.170
-420.500	64.209	-0.474	0.474
-419.486	-200.000	-0.023	0.466
-418.471	-45.291	-0.205	-0.101
-417.457	-117.945	-0.250	-0.045
-416.442	91.727	0.238	0.266
-415.428	-92.912	0.292	0.081
-414.413	116.214	0.028	0.034
-413.398	-200.000	-0.012	-0.069
-412.384	-45.792	0.167	-0.082
-411.369	800.000	0.060	0.182
-410.355	97.615	-0.171	0.196
-409.340	800.000	0.046	-0.181
-408.325	800.000	-0.085	-0.287
-407.311	108.306	-0.158	0.188
-406.296	-16.728	-0.218	-0.137
-405.282	164.938	-0.064	0.090
-404.267	-118.087	-0.300	-0.053
-403.252	-200.000	-0.017	0.104
-402.238	-50.315	0.033	0.016
-401.223	800.000	0.027	0.113
-400.209	33.825	0.033	-0.029
-399.194	-200.000	0.029	-0.200
-398.179	-5.078	-0.074	-0.050
-397.165	382.545	-0.035	-0.071
-396.150	-27.272	0.137	-0.079
-395.136	153.859	0.111	0.151
-394.121	120.457	-0.238	0.294
-393.106	-118.900	-0.227	0.040
-392.092	239.751	0.225	0.372
-391.077	-161.485	0.212	-0.011
-390.063	800.000	-0.039	-0.150
-389.048	19.030	0.099	-0.079
-388.033	190.128	0.208	0.310
-387.019	-200.000	-0.026	0.178
-386.004	-149.173	0.264	-0.021
-384.990	-30.275	0.072	0.041
-383.975	-108.733	0.033	0.007
-382.960	124.022	0.021	-0.027
-381.946	800.000	-0.026	-0.095
-380.931	-114.834	0.437	-0.083
-379.917	51.327	0.018	0.017
-378.902	-138.746	0.108	0.012
-377.888	300.722	0.162	-0.297
-376.873	99.313	-0.248	-0.285
-375.858	103.636	0.047	0.055
-374.844	316.214	0.282	-0.528
-373.829	-114.944	0.278	0.052
-372.815	-49.018	-0.062	0.029
-371.800	-138.492	0.062	0.007
-370.785	392.089	-0.095	0.195
-369.771	-69.470	0.099	-0.038
-368.756	141.945	-0.169	0.223
-367.742	-89.986	-0.105	-0.030
-366.727	2.551	0.209	-0.150
-365.712	265.466	-0.086	-0.148
-364.698	-200.000	-0.051	0.250
-363.683	-133.969	-0.386	0.047
-362.669	-200.000	-0.004	-0.331
-361.654	428.565	0.095	0.204
-360.639	407.828	-0.035	-0.073
-359.625	3.795	-0.429	-0.311
-358.610	-200.000	0.016	-0.095
-357.596	218.993	0.178	0.282
-356.581	-200.000	0.044	-0.442
-355.566	31.690	0.335	0.286
-354.552	-200.000	-0.025	0.110
-353.537	-74.463	0.050	-0.018
-352.523	391.097	-0.108	-0.223
-351.508	183.905	-0.037	-0.054
-350.493	27.706	-0.145	0.121
-349.479	127.550	0.117	0.147
-348.464	-21.934	-0.259	0.156
-347.450	-138.613	-0.503	0.055
-346.435	-124.944	0.356	0.054
-345.420	392.522	-0.132	-0.271
-344.406	800.000	0.101	0.353
-343.391	-200.000	0.051	-0.224
-342.377	32.277	-0.134	0.115
-341.362	128.493	0.120	-0.151
-340.348	181.772	0.036	0.052
-339.333	194.348	0.130	-0.195
-338.318	-86.872	-0.149	-0.045
-337.304	169.601	-0.095	0.135
-336.289	120.195	0.282	-0.347
-335.275	-200.000	-0.014	0.152
-334.260	-72.424	-0.184	0.067
-333.245	-200.000	-0.019	0.183
-332.231	126.217	0.164	-0.206
-331.216	-200.000	0.009	-0.109
-330.202	425.429	0.108	0.231
-329.187	-164.183	-0.284	0.013
-328.172	-200.000	-0.006	-0.080
-327.158	227.508	-0.180	0.290
-326.143	-200.000	-0.009	-0.152
-325.129	-29.234	0.099	0.056
-324.114	61.229	0.127	-0.125
-323.099	-77.153	0.376	0.130
-322.085	78.044	0.247	0.261
-321.070	-181.889	-0.146	0.003
-320.056	-64.019	0.353	-0.143
-319.041	800.000	-0.061	0.242
-318.026	245.080	0.170	0.283
-317.012	-200.000	0.066	-0.300
-315.997	-120.550	-0.219	-0.037
-314.983	524.981	0.128	-0.297
-313.968	-91.149	0.176	0.050
-312.953	800.000	-0.040	-0.157
-311.939	169.156	-0.126	0.178
-310.924	98.465	-0.211	-0.241
-309.910	-99.240	0.115	0.029
-308.895	213.791	-0.095	0.148
-307.880	454.105	-0.018	0.041
-306.866	696.243	-0.131	-0.341
-305.851	46.592	0.197	-0.181
-304.837	282.162	0.121	0.215
-303.822	800.000	0.064	0.246
-302.807	-200.000	-0.068	0.373
-301.793	-200.000	0.130	-0.001
-300.778	800.000	-0.041	0.132
-299.764	800.000	0.138	-0.497
-298.749	296.765	-0.108	-0.196
-297.735	-166.955	-0.176	-0.007
-296.720	-66.010	0.063	-0.025
-295.705	0.896	0.205	0.145
-294.691	89.520	-0.276	-0.305
-293.676	-53.335	-0.242	0.110
-292.662	800.000	0.124	0.381
-291.647	-44.222	0.405	0.201
-290.632	-86.775	-0.498	-0.151
-289.618	-200.000	-0.011	0.140
-288.603	-69.926	0.073	0.028
-287.589	499.758	-0.036	-0.083
-286.574	431.810	0.126	0.270
-285.559	-101.728	0.085	0.020
-284.545	-77.002	-0.228	0.079
-283.530	-200.000	0.018	0.084
-282.516	800.000	0.156	-0.489
-281.501	800.000	0.150	-0.413
-280.486	-139.977	0.356	0.037
-279.472	5.436	0.056	-0.041
-278.457	-43.265	-0.133	0.067
-277.443	-200.000	0.010	-0.513
-276.428	-40.295	0.305	-0.157
-275.413	15.897	0.114	0.089
-274.399	-192.250	0.151	0.001
-273.384	14.050	-0.005	-0.004
-272.370	-123.852	-0.153	-0.024
-271.355	719.203	0.033	-0.086
-270.340	800.000	0.111	-0.394
-269.326	-134.785	0.250	-0.030
-268.311	267.179	0.088	0.151
-267.297	-200.000	0.016	0.103
-266.282	-124.853	-0.177	0.027
-265.267	176.215	-0.133	0.191
-264.253	-200.000	-0.006	0.172
-263.238	-200.000	-0.005	-0.021
-262.224	-33.064	-0.234	0.128
-261.209	-119.782	0.010	-0.002
-260.195	-22.786	-0.233	-0.139
-259.180	-194.556	0.152	-0.001
-258.165	62.704	-0.074	-0.073
-257.151	-171.273	-0.335	-0.011
-256.136	-200.000	0.056	-0.257
-255.122	-77.946	-0.264	-0.090
-254.107	-114.069	-0.148	-0.028
-253.092	189.506	0.207	0.306
-252.078	-72.068	0.261	-0.096
-251.063	52.590	0.093	0.088
-250.049	-200.000	-0.050	-0.457
-249.034	-140.019	-0.091	0.009
-248.019	106.605	0.126	-0.148
-247.005	33.739	-0.054	-0.047
-245.990	22.924	-0.090	-0.073
-244.976	-200.000	0.014	-0.141
-243.961	-160.199	0.101	-0.005
-242.946	-21.225	0.183	-0.110
-241.932	-80.291	-0.230	0.076
-240.917	-200.000	0.019	0.143
-239.903	377.700	-0.063	0.127
-238.888	-200.000	0.017	-0.190
-237.873	800.000	0.092	-0.262
-236.859	-200.000	-0.006	0.130
-235.844	555.306	-0.048	0.115
-234.830	83.060	0.305	0.328
-233.815	446.506	-0.170	0.370
-232.800	204.529	-0.134	-0.205
-231.786	-0.616	0.163	-0.114
-230.771	154.804	0.168	0.228
-229.757	64.055	-0.015	0.015
-228.742	-200.000	0.008	0.181
-227.727	44.850	0.239	-0.217
-226.713	-19.813	-0.145	0.088
-225.698	-61.712	0.069	-0.028
-224.684	490.475	-0.021	0.048
-223.669	100.943	0.116	-0.133
-222.655	-105.135	0.397	0.089
-221.640	85.967	-0.172	0.186
-220.625	800.000	-0.042	0.151
-219.611	-125.322	-0.065	0.010
-218.596	137.685	-0.106	0.138
-217.582	-183.912	-0.193	0.003
-216.567	-68.660	0.358	-0.137
-215.552	644.051	0.098	0.247
-214.538	334.420	0.102	0.195
-213.523	-187.381	-0.320	0.004
-212.509	71.935	-0.179	-0.184
-211.494	800.000	-0.127	0.426
-210.479	24.116	0.251	0.204
-209.465	225.403	-0.129	-0.206
-208.450	800.000	0.076	-0.325
-207.436	-26.577	-0.089	0.051
-206.421	-101.307	-0.218	0.053
-205.406	-26.261	-0.228	0.132
-204.392	-127.762	0.339	-0.048
-203.377	143.542	-0.051	0.067
-202.363	293.322	0.110	0.198
-201.348	3.533	0.310	-0.223
-200.333	47.239	-0.186	-0.170
-199.319	800.000	-0.081	-0.263
-198.304	123.932	-0.126	-0.156
-197.290	151.401	-0.088	-0.118
-196.275	290.806	0.064	0.115
-195.260	-141.827	0.145	-0.014
-194.246	800.000	0.110	0.431
-193.231	197.300	-0.193	-0.290
-192.217	-113.182	0.166	0.032
-191.202	-200.000	-0.030	-0.210
-190.187	429.286	0.153	-0.326
-189.173	-107.555	-0.222	0.048
-188.158	19.558	-0.316	-0.250
-187.144	-200.000	-0.006	0.530
-186.129	374.555	0.106	0.213
-185.114	225.398	0.129	-0.206
-184.100	6.070	-0.164	0.119
-183.085	-106.342	-0.261	0.058
-182.071	-118.143	-0.238	0.042
-181.056	-200.000	0.019	0.089
-180.042	-136.179	-0.192	-0.022
-179.027	-61.057	0.427	-0.178
-178.012	323.711	-0.087	0.164
-176.998	-200.000	0.046	0.228
-175.983	-200.000	-0.030	-0.210
-174.969	-0.437	0.101	0.071
-173.954	62.346	0.094	0.092
-172.939	28.599	0.078	0.065
-171.925	-200.000	-0.005	0.109
-170.910	800.000	-0.024	0.084
-169.896	-200.000	0.068	0.299
-168.881	156.881	0.171	0.232
-167.866	239.443	-0.171	0.281
-166.852	175.496	-0.105	0.150
-165.837	561.679	0.114	-0.273
-164.823	-1.261	0.179	0.125
-163.808	190.068	0.045	0.067
-162.793	-86.451	0.185	0.056
-161.779	-66.376	-0.086	0.034
-160.764	-32.956	0.319	-0.174
-159.750	61.155	0.129	-0.126
-158.735	99.181	-0.048	-0.054
-157.720	38.528	-0.032	-0.028
-156.706	-94.763	0.236	-0.063
-155.691	-150.161	-0.189	-0.014
-154.677	-200.000	-0.015	0.157
-153.662	-152.404	-0.224	0.016
-152.647	800.000	-0.090	-0.262
-151.633	388.277	0.208	-0.424
-150.618	-48.578	-0.153	0.072
-149.604	169.251	0.162	0.227
-148.589	-35.378	0.269	0.144
-147.574	472.236	0.050	0.111
-146.560	153.472	-0.085	-0.115
-145.545	-128.964	-0.313	-0.043
-144.531	402.270	0.013	-0.028
-143.516	-101.201	0.218	0.053
-142.502	89.917	-0.245	-0.269
-141.487	-44.218	0.207	0.102
-140.472	336.741	-0.156	0.298
-139.458	152.593	0.009	0.012
-138.443	-200.000	0.076	0.369
-137.429	-200.000	0.044	0.355
-136.414	-121.065	0.076	-0.013
-135.399	-9.334	-0.198	-0.130
-134.385	42.855	0.023	-0.021
-133.370	-200.000	0.007	-0.238
-132.356	-101.511	0.032	0.008
-131.341	298.096	0.113	0.203
-130.326	108.422	0.124	0.145
-129.312	-83.367	0.224	0.071
-128.297	-33.410	0.189	0.103
-127.283	-47.131	-0.107	0.051
-126.268	-10.703	-0.326	0.212
-125.253	-100.611	0.136	0.033
-124.239	-145.913	0.142	0.012
-123.224	-200.000	-0.001	0.204
-122.210	11.418	-0.242	0.182
-121.195	-94.983	0.290	-0.077
-120.180	-21.604	-0.148	0.088
