DTS Sentinel unit serial number:	SN413079Multiplexer serial number:	ORYXHardware model number:	OX4-SRSoftware version number:	ORYX F/W v4.00 Oryx Data Collector v3.7.2.0data status	okinstallation	princeton_trtdifferential loss correction	single-endedforward channel	channel 2reverse channel	N/Adate	2019/09/18time	18:59:35forward acquisition time	60.00reverse acquisition time	0.00gamma	496.2192k internal	0.2322k external	0.2322temperature offset calibration	1.0024default loss term (dB/km)	0.3790temperature slope calibration	1.0000multiplexer offset coefficient	1.0000multiplexer slope coefficient	1.0000fibre end	0.00T internal ref (°C)	36.12T ext. ref 1 (°C)	0.94T ext. ref 2 (°C)	25.27length (m)	temperature (°C)	Stokes	anti-Stokes-747.200	-47.381	-0.207	0.102
-746.185	-148.300	-0.317	-0.026
-745.171	184.627	-0.245	0.367
-744.156	-200.000	0.020	0.324
-743.142	600.463	0.043	-0.108
-742.127	65.235	0.032	0.032
-741.112	173.429	-0.108	-0.158
-740.098	-200.000	-0.040	-0.257
-739.083	800.000	-0.080	0.277
-738.069	-101.137	0.149	0.037
-737.054	764.978	0.081	-0.222
-736.039	-33.404	-0.126	-0.070
-735.025	-119.090	-0.195	0.034
-734.010	129.947	0.092	0.119
-732.996	156.629	0.046	-0.064
-731.981	-58.481	-0.277	-0.121
-730.966	4.141	-0.204	0.151
-729.952	0.958	0.360	-0.261
-728.937	800.000	0.108	-0.428
-727.923	3.728	0.320	-0.236
-726.908	-170.979	-0.428	-0.015
-725.894	-200.000	-0.028	-0.159
-724.879	-21.694	0.460	-0.283
-723.864	14.237	-0.134	0.106
-722.850	-200.000	-0.087	0.386
-721.835	-200.000	-0.023	-0.254
-720.821	-32.448	0.192	-0.108
-719.806	-200.000	0.014	0.151
-718.791	282.272	0.032	-0.059
-717.777	-200.000	-0.049	0.349
-716.762	144.550	-0.069	-0.093
-715.748	-200.000	-0.002	-0.187
-714.733	-14.399	0.416	0.270
-713.718	-174.628	-0.156	0.004
-712.704	800.000	0.061	0.194
-711.689	112.467	-0.129	-0.158
-710.675	-142.813	-0.028	0.003
-709.660	-33.034	-0.233	0.131
-708.645	102.595	-0.178	-0.210
-707.631	672.754	0.185	-0.485
-706.616	24.465	0.220	-0.184
-705.602	800.000	-0.105	-0.316
-704.587	90.465	0.143	0.162
-703.572	-200.000	0.053	0.339
-702.558	-200.000	-0.016	0.271
-701.543	118.234	-0.092	-0.115
-700.529	800.000	0.111	0.407
-699.514	-189.472	-0.112	-0.001
-698.499	-49.852	0.156	0.075
-697.485	-138.548	0.268	0.030
-696.470	-38.997	0.204	-0.108
-695.456	-83.567	-0.251	0.081
-694.441	-62.222	-0.149	-0.063
-693.426	48.300	0.047	-0.044
-692.412	-200.000	-0.014	-0.278
-691.397	-200.000	0.017	0.183
-690.383	800.000	0.051	0.223
-689.368	-111.244	-0.126	-0.026
-688.354	-37.640	0.031	0.017
-687.339	355.903	-0.087	-0.175
-686.324	-94.525	-0.311	0.085
-685.310	62.497	-0.101	0.101
-684.295	-84.815	-0.216	-0.069
-683.281	-200.000	-0.032	-0.250
-682.266	86.402	-0.217	-0.241
-681.251	553.003	-0.148	-0.359
-680.237	-126.952	0.262	0.039
-679.222	-81.928	-0.185	0.061
-678.208	-81.055	-0.378	0.126
-677.193	16.896	-0.270	-0.215
-676.178	-99.967	-0.197	0.050
-675.164	-200.000	0.020	0.234
-674.149	658.435	0.164	-0.426
-673.135	-59.141	-0.167	-0.073
-672.120	-200.000	-0.006	-0.270
-671.105	-27.213	0.057	0.033
-670.091	-25.251	-0.181	0.108
-669.076	188.773	0.173	0.260
-668.062	-164.211	-0.239	0.011
-667.047	-128.886	0.091	-0.013
-666.032	356.432	-0.184	-0.369
-665.018	-200.000	-0.024	-0.240
-664.003	335.794	-0.046	0.090
-662.989	81.797	0.173	-0.189
-661.974	5.820	-0.128	0.096
-660.959	-27.099	-0.171	0.100
-659.945	43.992	0.108	0.100
-658.930	-55.367	0.091	-0.041
-657.916	800.000	0.028	0.103
-656.901	-200.000	0.056	-0.450
-655.886	471.194	0.024	-0.054
-654.872	-200.000	0.073	0.325
-653.857	-200.000	-0.009	0.208
-652.843	-96.826	0.249	0.066
-651.828	231.370	-0.146	-0.241
-650.814	71.121	-0.100	-0.105
-649.799	800.000	0.053	-0.184
-648.784	-125.901	-0.299	0.045
-647.770	485.187	0.048	-0.110
-646.755	99.701	-0.177	0.207
-645.741	374.595	0.141	-0.289
-644.726	510.236	0.057	0.135
-643.711	-73.431	-0.100	0.037
-642.697	-185.727	-0.070	0.001
-641.682	-124.637	-0.083	-0.013
-640.668	-139.557	0.449	-0.048
-639.653	-200.000	0.028	-0.339
-638.638	109.266	-0.102	-0.123
-637.624	-83.957	-0.098	-0.031
-636.609	-95.339	0.027	-0.007
-635.595	84.303	0.188	0.207
-634.580	-93.395	-0.083	0.023
-633.565	-141.022	-0.141	-0.015
-632.551	392.043	-0.081	0.169
-631.536	-75.763	-0.239	0.085
-630.522	-40.649	0.154	0.080
-629.507	-200.000	0.044	0.228
-628.492	29.308	-0.033	0.028
-627.478	-40.153	0.254	0.133
-626.463	-90.186	0.266	-0.078
-625.449	105.888	0.074	-0.089
-624.434	800.000	-0.028	-0.102
-623.419	-200.000	0.032	0.191
-622.405	547.938	0.109	-0.263
-621.390	307.263	-0.099	-0.185
-620.376	-129.092	-0.192	-0.027
-619.361	1.320	0.388	-0.281
-618.346	267.122	-0.049	0.086
-617.332	272.676	-0.146	0.259
-616.317	545.045	-0.187	-0.448
-615.303	402.446	-0.008	-0.017
-614.288	229.283	-0.155	-0.254
-613.273	10.998	-0.323	-0.248
-612.259	47.267	-0.306	0.287
-611.244	-200.000	-0.007	-0.103
-610.230	-100.856	-0.156	0.038
-609.215	84.309	0.139	0.153
-608.201	-200.000	-0.045	0.215
-607.186	18.608	-0.311	-0.250
-606.171	40.466	0.074	-0.067
-605.157	-103.169	-0.306	-0.073
-604.142	-18.511	-0.069	0.043
-603.128	170.677	-0.223	0.321
-602.113	-200.000	0.028	0.152
-601.098	-123.471	0.046	-0.007
-600.084	339.038	-0.117	-0.229
-599.069	-200.000	-0.002	-0.170
-598.055	571.108	-0.132	-0.323
-597.040	4.495	-0.274	-0.202
-596.025	93.218	-0.131	-0.149
-595.011	-76.917	0.230	0.081
-593.996	800.000	-0.078	0.218
-592.982	16.044	-0.059	0.047
-591.967	-31.338	-0.151	0.085
-590.952	209.007	-0.134	-0.210
-589.938	-150.316	0.013	-0.001
-588.923	-117.038	-0.053	-0.010
-587.909	-200.000	0.049	0.333
-586.894	10.204	0.140	-0.107
-585.879	180.739	0.058	-0.085
-584.865	800.000	0.082	0.298
-583.850	-29.729	-0.231	0.132
-582.836	-8.948	0.050	-0.034
-581.821	22.872	-0.214	-0.176
-580.806	102.361	0.119	-0.140
-579.792	-79.777	-0.301	0.102
-578.777	-175.581	0.187	-0.005
-577.763	-200.000	-0.021	0.300
-576.748	-51.205	-0.257	0.121
-575.733	-44.731	-0.192	-0.096
-574.719	-124.383	-0.089	-0.014
-573.704	240.235	-0.096	-0.160
-572.690	118.150	0.218	0.270
-571.675	-200.000	-0.010	0.224
-570.661	-147.637	0.304	0.026
-569.646	99.488	-0.208	-0.241
-568.631	-2.830	-0.225	-0.158
-567.617	50.641	-0.218	0.207
-566.602	461.719	-0.126	-0.281
-565.588	760.667	0.108	-0.294
-564.573	-200.000	-0.011	-0.057
-563.558	-87.477	0.187	0.057
-562.544	-89.249	0.327	-0.097
-561.529	-8.288	0.168	-0.113
-560.515	800.000	0.060	0.176
-559.500	-91.491	-0.245	-0.070
-558.485	800.000	-0.117	-0.425
-557.471	114.233	0.198	-0.241
-556.456	-200.000	-0.016	0.110
-555.442	137.908	0.041	0.054
-554.427	46.573	-0.058	0.054
-553.412	699.308	-0.129	-0.341
-552.398	-50.481	-0.131	0.062
-551.383	-200.000	0.095	0.422
-550.369	-200.000	0.019	-0.211
-549.354	-114.415	-0.211	-0.041
-548.339	261.630	0.154	-0.268
-547.325	-133.732	0.264	-0.033
-546.310	356.300	0.146	0.291
-545.296	253.382	-0.054	0.093
-544.281	151.880	-0.039	-0.054
-543.266	-78.008	0.245	0.085
-542.252	323.459	0.146	0.280
-541.237	-73.320	0.183	-0.067
-540.223	110.064	-0.125	0.150
-539.208	800.000	-0.024	0.083
-538.193	21.864	-0.180	0.147
-537.179	800.000	0.118	-0.336
-536.164	-149.895	-0.247	-0.019
-535.150	-7.511	-0.134	-0.091
-534.135	151.013	0.060	0.081
-533.121	-114.666	0.143	0.027
-532.106	-26.468	-0.258	0.151
-531.091	-166.110	-0.109	0.005
-530.077	126.542	0.254	-0.323
-529.062	88.348	0.090	0.101
-528.048	-200.000	-0.017	0.132
-527.033	-113.758	0.148	-0.029
-526.018	-37.838	-0.087	-0.046
-525.004	27.115	-0.285	0.240
-523.989	-70.206	-0.159	-0.060
-522.975	412.609	-0.054	-0.116
-521.960	-71.281	-0.176	0.066
-520.945	-192.322	0.237	0.002
-519.931	-200.000	0.008	-0.133
-518.916	-84.703	-0.260	0.082
-517.902	-44.358	0.171	-0.086
-516.887	-5.458	0.097	-0.066
-515.872	627.162	0.049	0.125
-514.858	-23.419	-0.268	0.161
-513.843	1.440	0.217	0.156
-512.829	120.166	-0.248	0.308
-511.814	75.952	-0.033	-0.035
-510.799	247.229	0.049	0.083
-509.785	-40.665	0.069	0.036
-508.770	-200.000	-0.039	-0.262
-507.756	800.000	0.107	0.383
-506.741	-200.000	0.022	0.261
-505.726	57.690	-0.159	-0.155
-504.712	491.485	0.037	0.084
-503.697	-152.254	0.351	-0.025
-502.683	800.000	0.070	0.207
-501.668	371.359	0.012	-0.023
-500.653	393.521	0.043	0.089
-499.639	-147.481	-0.244	-0.021
-498.624	31.763	-0.137	0.118
-497.610	72.502	0.147	0.153
-496.595	5.391	0.190	-0.140
-495.581	-131.019	0.411	0.055
-494.566	-200.000	0.014	0.532
-493.551	-69.673	-0.458	0.175
-492.537	-200.000	0.009	0.122
-491.522	-50.601	0.108	-0.051
-490.508	83.531	-0.155	-0.169
-489.493	69.328	0.129	-0.132
-488.478	-200.000	0.018	0.119
-487.464	-200.000	0.044	-0.231
-486.449	647.975	0.033	-0.086
-485.435	-25.903	0.149	-0.088
-484.420	-102.859	-0.024	0.006
-483.405	-200.000	0.011	-0.173
-482.391	-200.000	-0.033	-0.209
-481.376	-200.000	-0.002	-0.117
-480.362	-5.789	-0.297	0.203
-479.347	-147.488	-0.210	0.018
-478.332	-159.583	-0.161	0.009
-477.318	-71.603	-0.088	0.033
-476.303	-0.831	0.066	-0.047
-475.289	370.633	-0.068	-0.137
-474.274	186.042	0.083	-0.123
-473.259	-119.576	0.184	0.032
-472.245	-114.065	0.116	-0.023
-471.230	-200.000	-0.013	-0.350
-470.216	485.246	-0.038	-0.086
-469.201	-13.410	-0.156	-0.101
-468.186	-87.865	0.274	-0.082
-467.172	358.593	-0.178	0.356
-466.157	-200.000	0.019	0.138
-465.143	36.238	0.190	0.168
-464.128	237.918	-0.079	-0.130
-463.113	26.311	-0.034	0.029
-462.099	800.000	-0.049	0.159
-461.084	-14.679	0.287	0.184
-460.070	-78.369	-0.075	-0.026
-459.055	488.984	0.089	-0.203
-458.040	18.018	0.206	0.164
-457.026	0.129	0.132	-0.094
-456.011	-200.000	0.013	-0.193
-454.997	132.145	0.226	-0.291
-453.982	-42.357	-0.207	-0.106
-452.968	-162.046	0.162	0.008
-451.953	800.000	-0.058	-0.170
-450.938	-114.140	-0.117	0.023
-449.924	64.710	-0.314	0.316
-448.909	-41.505	-0.105	-0.054
-447.895	-23.421	-0.168	0.101
-446.880	-76.934	0.244	-0.085
-445.865	490.954	-0.031	-0.071
-444.851	-200.000	-0.028	-0.206
-443.836	107.062	0.179	-0.213
-442.822	-7.291	-0.122	-0.083
-441.807	385.299	-0.111	-0.228
-440.792	-200.000	-0.019	0.320
-439.778	432.075	0.115	0.248
-438.763	14.798	0.224	0.175
-437.749	-138.714	-0.211	-0.023
-436.734	-96.217	0.287	0.076
-435.719	22.234	-0.072	0.059
-434.705	-151.746	-0.234	0.017
-433.690	520.420	0.149	-0.349
-432.676	-46.210	0.412	-0.202
-431.661	676.179	-0.085	-0.221
-430.646	3.640	0.177	-0.129
-429.632	346.608	0.053	0.104
-428.617	-200.000	0.000	0.288
-427.603	301.231	-0.142	-0.261
-426.588	800.000	0.068	-0.290
-425.573	-26.650	0.028	0.016
-424.559	-27.818	-0.114	-0.066
-423.544	-84.279	0.142	-0.045
-422.530	-50.067	-0.135	0.064
-421.515	153.890	0.181	-0.247
-420.500	-200.000	-0.034	-0.256
-419.486	408.767	0.076	-0.160
-418.471	-132.503	0.129	0.017
-417.457	800.000	0.015	0.050
-416.442	50.612	-0.073	-0.069
-415.428	446.179	0.107	0.235
-414.413	-60.469	-0.335	0.142
-413.398	-83.369	0.304	-0.097
-412.384	227.329	-0.097	-0.158
-411.369	671.345	-0.086	-0.221
-410.355	210.689	0.089	-0.139
-409.340	-67.209	0.154	0.061
-408.325	-29.681	0.088	0.050
-407.311	357.201	0.177	0.353
-406.296	-42.438	-0.101	0.051
-405.282	-16.269	-0.176	-0.112
-404.267	-178.430	0.011	0.000
-403.252	-200.000	-0.033	-0.224
-402.238	546.491	0.132	0.315
-401.223	-112.619	-0.362	-0.072
-400.209	181.428	-0.082	0.121
-399.194	353.991	-0.021	-0.042
-398.179	-200.000	-0.029	0.196
-397.165	84.316	-0.127	0.138
-396.150	800.000	0.018	-0.063
-395.136	-42.109	0.092	-0.047
-394.121	34.870	-0.159	0.139
-393.106	800.000	-0.157	-0.586
-392.092	-200.000	-0.038	0.188
-391.077	39.587	-0.271	0.242
-390.063	33.146	-0.073	-0.063
-389.048	-77.459	0.310	-0.107
-388.033	155.256	0.263	0.361
-387.019	329.465	-0.153	0.293
-386.004	-122.454	-0.206	-0.033
-384.990	-200.000	0.073	-0.377
-383.975	-116.971	-0.107	-0.019
-382.960	334.112	0.107	-0.207
-381.946	-141.684	-0.223	-0.022
-380.931	-200.000	-0.012	0.100
-379.917	28.143	0.040	-0.033
-378.902	-25.544	0.230	-0.135
-377.888	-200.000	-0.016	0.356
-376.873	-31.637	0.068	-0.038
-375.858	800.000	0.039	0.160
-374.844	298.605	0.088	-0.160
-373.829	38.107	-0.131	-0.116
-372.815	-156.745	0.300	0.018
-371.800	-90.610	-0.191	0.055
-370.785	-134.060	-0.252	-0.031
-369.771	65.149	0.211	0.212
-368.756	-42.711	-0.096	-0.049
-367.742	-46.050	-0.107	0.052
-366.727	313.829	-0.088	0.165
-365.712	-103.535	0.113	-0.026
-364.698	-198.913	0.295	-0.002
-363.683	-146.621	0.182	-0.016
-362.669	-142.577	0.644	0.063
-361.654	9.286	0.232	-0.175
-360.639	-29.203	0.246	0.141
-359.625	-179.190	0.132	0.003
-358.610	18.709	0.146	0.116
-357.596	74.113	-0.189	0.197
-356.581	241.415	0.258	-0.429
-355.566	116.151	0.099	-0.121
-354.552	35.572	0.152	0.133
-353.537	-34.919	-0.151	0.082
-352.523	247.530	-0.117	0.196
-351.508	204.505	-0.076	-0.116
-350.493	5.911	0.110	0.081
-349.479	-93.656	-0.200	0.055
-348.464	137.883	-0.114	-0.148
-347.450	-58.942	0.436	0.187
-346.435	-143.134	-0.314	0.030
-345.420	800.000	-0.058	0.206
-344.406	-102.097	0.188	0.045
-343.391	239.076	-0.031	0.052
-342.377	116.143	0.157	-0.192
-341.362	-139.660	0.095	0.010
-340.348	-23.740	0.197	-0.118
-339.333	-76.636	0.081	0.028
-338.318	253.521	-0.144	-0.244
-337.304	4.741	-0.082	-0.060
-336.289	294.526	-0.068	-0.124
-335.275	147.291	0.179	-0.239
-334.260	128.485	0.149	-0.189
-333.245	-27.079	0.316	0.183
-332.231	74.952	0.317	0.332
-331.216	150.255	0.214	0.288
-330.202	800.000	0.027	-0.119
-329.187	-32.551	-0.460	-0.255
-328.172	355.282	0.107	-0.211
-327.158	-200.000	0.016	0.171
-326.143	49.782	0.627	0.588
-325.129	11.347	0.054	-0.041
-324.114	186.927	0.049	0.072
-323.099	71.396	-0.225	0.232
-322.085	-79.628	-0.217	-0.073
-321.070	-30.576	0.150	-0.085
-320.056	-158.669	0.418	-0.024
-319.041	-200.000	-0.006	-0.206
-318.026	91.837	0.125	0.140
-317.012	-196.055	0.123	0.001
-315.997	-61.940	-0.036	-0.015
-314.983	-168.215	0.325	-0.012
-313.968	112.893	-0.159	-0.191
-312.953	153.443	0.204	0.278
-311.939	21.204	-0.200	-0.161
-310.924	-33.955	-0.129	0.071
-309.910	-200.000	0.003	-0.012
-308.895	-43.859	-0.221	-0.111
-307.880	6.854	0.183	0.135
-306.866	294.829	0.016	-0.029
-305.851	-8.960	0.122	0.081
-304.837	24.999	0.462	0.381
-303.822	195.073	-0.101	-0.152
-302.807	61.810	-0.375	-0.371
-301.793	-141.480	-0.112	-0.011
-300.778	-49.455	0.254	0.120
-299.764	800.000	0.107	-0.302
-298.749	-178.205	0.081	0.002
-297.735	100.751	0.024	0.027
-296.720	-46.684	-0.359	0.175
-295.705	3.974	0.111	0.080
-294.691	245.649	-0.209	-0.349
-293.676	-8.374	0.129	-0.086
-292.662	-55.808	0.077	-0.034
-291.647	-32.884	0.194	-0.107
-290.632	-183.562	0.119	0.002
-289.618	-200.000	-0.088	0.460
-288.603	355.620	0.215	0.425
-287.589	448.244	0.106	-0.232
-286.574	270.430	-0.188	0.329
-285.559	800.000	-0.045	0.163
-284.545	146.954	-0.162	-0.216
-283.530	-52.878	-0.281	0.128
-282.516	-200.000	0.001	0.187
-281.501	800.000	0.023	-0.093
-280.486	800.000	0.041	-0.131
-279.472	-200.000	0.022	-0.149
-278.457	-166.973	-0.259	0.010
-277.443	-36.978	-0.438	0.233
-276.428	345.752	-0.048	0.094
-275.413	-200.000	0.001	-0.192
-274.399	-200.000	-0.062	0.271
-273.384	-69.852	-0.160	0.061
-272.370	59.072	-0.208	-0.203
-271.355	-85.605	-0.165	-0.051
-270.340	-31.468	0.204	-0.114
-269.326	-58.639	0.242	0.104
-268.311	-33.999	-0.238	-0.130
-267.297	16.882	-0.149	0.117
-266.282	573.458	0.129	-0.312
-265.267	-52.853	-0.040	0.018
-264.253	-107.654	0.139	0.030
-263.238	509.948	0.040	-0.092
-262.224	-81.858	-0.149	-0.048
-261.209	-200.000	-0.004	-0.180
-260.195	-84.551	0.236	-0.074
-259.180	-23.621	-0.139	0.083
-258.165	-28.562	-0.304	-0.174
-257.151	-130.886	0.133	0.018
-256.136	-88.353	0.413	0.122
-255.122	22.173	0.279	0.226
-254.107	-0.390	-0.208	-0.146
-253.092	121.403	0.179	0.221
-252.078	-3.575	0.201	0.139
-251.063	-200.000	0.265	0.001
-250.049	-199.773	0.259	0.001
-249.034	-103.803	0.139	-0.032
-248.019	800.000	0.073	0.263
-247.005	-200.000	0.023	0.256
-245.990	800.000	-0.022	-0.067
-244.976	163.923	0.074	-0.103
-243.961	-134.755	0.337	0.041
-242.946	-66.123	0.294	0.116
-241.932	424.946	-0.094	-0.201
-240.917	800.000	-0.034	-0.139
-239.903	-84.372	-0.118	0.037
-238.888	-200.000	0.006	0.104
-237.873	-28.401	0.152	-0.087
-236.859	-51.357	-0.345	0.160
-235.844	251.192	-0.130	-0.218
-234.830	-128.917	-0.233	0.032
-233.815	-110.662	-0.152	-0.031
-232.800	800.000	0.063	0.188
-231.786	-20.260	-0.280	0.171
-230.771	725.728	-0.010	-0.028
-229.757	-158.472	0.245	0.014
-228.742	-128.639	-0.407	0.057
-227.727	-200.000	-0.013	-0.160
-226.713	-200.000	-0.049	0.238
-225.698	-200.000	-0.027	0.118
-224.684	-156.005	-0.352	-0.022
-223.669	-74.941	-0.192	0.068
-222.655	-95.503	0.394	-0.105
-221.640	-133.341	-0.112	0.014
-220.625	733.248	-0.063	0.167
-219.611	614.985	0.106	0.263
-218.596	-200.000	0.298	0.001
-217.582	-45.333	-0.180	-0.088
-216.567	123.632	-0.038	-0.047
-215.552	158.652	0.123	0.169
-214.538	-62.072	0.009	-0.004
-213.523	114.883	-0.182	0.220
-212.509	113.718	-0.296	0.356
-211.494	7.334	0.274	-0.203
-210.479	30.049	0.185	-0.156
-209.465	-200.000	-0.036	0.273
-208.450	-108.760	0.212	-0.045
-207.436	-195.943	-0.355	0.002
-206.421	800.000	-0.090	0.249
-205.406	800.000	-0.026	-0.102
-204.392	800.000	-0.060	-0.175
-203.377	800.000	-0.119	0.479
-202.363	-200.000	-0.000	-0.154
-201.348	-37.285	0.165	-0.087
-200.333	87.684	-0.029	-0.031
-199.319	483.605	0.123	-0.276
-198.304	-60.832	0.165	0.069
-197.290	29.381	0.102	0.086
-196.275	-200.000	-0.012	0.246
-195.260	294.124	0.103	-0.187
-194.246	496.083	-0.144	-0.328
-193.231	-50.179	-0.550	-0.257
-192.217	-66.019	0.070	0.028
-191.202	628.617	-0.150	-0.376
-190.187	-152.599	0.193	-0.014
-189.173	-25.568	-0.142	-0.083
-188.158	-42.433	-0.202	-0.102
-187.144	-87.084	0.247	-0.074
-186.129	465.374	0.040	0.088
-185.114	710.808	0.033	-0.085
-184.100	-108.775	-0.292	-0.062
-183.085	510.565	-0.052	-0.119
-182.071	-200.000	-0.007	-0.167
-181.056	-200.000	-0.018	0.308
-180.042	-174.287	-0.336	-0.010
-179.027	800.000	-0.063	0.197
-178.012	82.983	-0.217	-0.233
-176.998	391.215	-0.104	-0.214
-175.983	94.240	0.089	0.099
-174.969	-188.029	0.283	-0.004
-173.954	800.000	0.020	0.067
-172.939	359.430	-0.221	0.436
-171.925	-200.000	-0.006	0.047
-170.910	-80.355	-0.169	-0.056
-169.896	300.596	0.171	0.311
-168.881	-200.000	0.029	0.152
-167.866	16.785	-0.172	-0.134
-166.852	-200.000	0.004	0.287
-165.837	-200.000	0.023	0.235
-164.823	-81.207	-0.348	-0.114
-163.808	428.812	0.135	0.288
-162.793	-94.169	0.134	0.036
-161.779	-200.000	-0.013	0.284
-160.764	-200.000	0.075	-0.352
-159.750	-200.000	-0.018	-0.240
-158.735	115.344	0.075	-0.091
-157.720	-65.823	-0.033	-0.013
-156.706	209.113	0.193	-0.298
-155.691	87.648	0.231	-0.252
-154.677	-93.227	-0.271	-0.074
-153.662	6.200	-0.142	0.104
-152.647	-45.542	-0.124	-0.061
-151.633	50.179	0.137	-0.128
-150.618	27.938	0.225	-0.187
-149.604	44.178	0.522	-0.472
-148.589	-102.334	0.126	-0.030
-147.574	-52.443	0.211	0.096
-146.560	387.527	0.093	-0.190
-145.545	39.782	-0.368	-0.326
-144.531	-162.801	0.336	-0.016
-143.516	59.027	-0.103	0.100
-142.502	-74.355	0.197	0.070
-141.487	24.912	-0.198	0.162
-140.472	-61.006	0.157	-0.066
-139.458	44.544	-0.171	-0.155
-138.443	800.000	-0.049	0.163
-137.429	112.861	-0.076	-0.091
-136.414	85.948	-0.118	0.128
-135.399	-29.339	-0.280	0.158
-134.385	-200.000	0.029	0.190
-133.370	-138.457	-0.254	0.028
-132.356	73.601	0.107	0.110
-131.341	13.298	-0.248	-0.189
-130.326	43.245	-0.132	0.119
-129.312	-9.708	-0.254	0.167
-128.297	260.102	0.062	0.105
-127.283	-63.426	-0.192	0.078
-126.268	-88.979	0.221	-0.064
-125.253	-131.050	0.137	-0.018
-124.239	184.797	-0.040	0.059
-123.224	126.200	-0.170	-0.212
-122.210	-14.839	-0.167	0.106
-121.195	206.729	-0.061	-0.093
