DTS Sentinel unit serial number:	SN413079Multiplexer serial number:	ORYXHardware model number:	OX4-SRSoftware version number:	ORYX F/W v4.00 Oryx Data Collector v3.7.2.0data status	okinstallation	princeton_trtdifferential loss correction	single-endedforward channel	channel 2reverse channel	N/Adate	2019/09/14time	06:51:35forward acquisition time	60.00reverse acquisition time	0.00gamma	496.2192k internal	0.2338k external	0.2338temperature offset calibration	1.0133default loss term (dB/km)	0.3790temperature slope calibration	1.0000multiplexer offset coefficient	1.0000multiplexer slope coefficient	1.0000fibre end	0.00T internal ref (°C)	26.25T ext. ref 1 (°C)	3.42T ext. ref 2 (°C)	20.83length (m)	temperature (°C)	Stokes	anti-Stokes-747.200	12.085	0.339	0.261
-746.185	-119.562	-0.265	0.046
-745.171	800.000	0.106	0.328
-744.156	-172.659	-0.103	0.003
-743.142	17.099	0.129	0.102
-742.127	293.761	-0.088	-0.162
-741.112	-200.000	-0.019	-0.241
-740.098	-86.446	-0.288	-0.089
-739.083	-200.000	0.004	0.133
-738.069	-200.000	-0.061	0.284
-737.054	-200.000	-0.383	-0.001
-736.039	-67.018	0.175	-0.069
-735.025	535.238	-0.192	0.457
-734.010	-96.826	0.263	-0.069
-732.996	-8.097	0.128	-0.087
-731.981	-200.000	0.007	0.106
-730.966	-101.429	0.277	-0.068
-729.952	695.429	0.131	-0.344
-728.937	-114.008	0.162	-0.032
-727.923	-133.434	-0.299	-0.038
-726.908	389.448	-0.056	0.116
-725.894	800.000	-0.033	-0.092
-724.879	275.693	0.154	0.274
-723.864	39.597	-0.039	0.035
-722.850	-13.995	-0.274	-0.177
-721.835	-28.033	-0.159	-0.092
-720.821	332.368	0.028	-0.054
-719.806	-105.959	-0.142	-0.032
-718.791	800.000	-0.050	0.163
-717.777	-169.996	0.298	0.011
-716.762	-0.724	0.084	-0.060
-715.748	126.401	-0.314	-0.398
-714.733	-122.287	0.317	-0.052
-713.718	49.340	-0.122	-0.115
-712.704	225.522	0.106	0.171
-711.689	-33.096	0.144	-0.080
-710.675	75.928	-0.200	-0.212
-709.660	649.152	0.054	-0.139
-708.645	-48.385	0.093	-0.045
-707.631	-20.511	-0.194	-0.119
-706.616	69.763	-0.243	-0.250
-705.602	44.702	0.116	0.107
-704.587	800.000	-0.017	0.071
-703.572	123.432	-0.070	0.088
-702.558	-130.550	-0.056	0.008
-701.543	168.194	-0.094	-0.134
-700.529	-157.566	0.032	0.002
-699.514	-103.412	0.313	0.074
-698.499	-147.584	-0.221	-0.019
-697.485	155.998	0.142	-0.196
-696.470	-31.452	-0.275	0.155
-695.456	-186.129	0.271	0.004
-694.441	-200.000	-0.065	-0.313
-693.426	76.536	-0.120	-0.127
-692.412	63.493	0.265	-0.266
-691.397	-84.216	0.207	0.066
-690.383	-129.189	-0.491	0.069
-689.368	-57.754	0.206	0.090
-688.354	92.893	-0.312	-0.353
-687.339	-108.562	-0.197	-0.042
-686.324	794.148	-0.049	-0.134
-685.310	26.116	0.198	0.165
-684.295	258.292	-0.175	-0.301
-683.281	800.000	-0.041	0.179
-682.266	55.112	0.120	-0.116
-681.251	-1.404	-0.104	-0.074
-680.237	424.547	0.031	-0.066
-679.222	285.749	0.059	-0.106
-678.208	-63.385	0.280	-0.115
-677.193	-200.000	-0.088	-0.449
-676.178	534.044	0.049	0.116
-675.164	-178.229	-0.361	-0.008
-674.149	-200.000	0.034	0.190
-673.135	-56.644	-0.208	0.092
-672.120	0.296	0.051	0.036
-671.105	-21.152	-0.233	0.143
-670.091	52.516	-0.160	0.153
-669.076	162.569	0.393	-0.552
-668.062	41.766	-0.190	-0.172
-667.047	-92.251	0.185	0.052
-666.032	-179.230	0.226	-0.005
-665.018	-84.879	-0.080	0.025
-664.003	-200.000	0.057	0.341
-662.989	-111.331	0.140	0.029
-661.974	800.000	-0.030	-0.093
-660.959	294.476	-0.163	0.299
-659.945	-174.690	-0.209	0.006
-658.930	-12.455	0.256	-0.167
-657.916	-200.000	0.027	-0.423
-656.901	228.131	0.179	-0.291
-655.886	-75.287	0.187	0.067
-654.872	-200.000	0.003	0.124
-653.857	417.622	0.057	-0.121
-652.843	-99.552	0.247	-0.062
-651.828	-200.000	-0.009	-0.266
-650.814	-114.980	0.268	0.051
-649.799	299.235	0.073	-0.134
-648.784	800.000	-0.092	-0.301
-647.770	-106.492	0.196	-0.044
-646.755	234.574	0.103	0.169
-645.741	-32.240	-0.201	0.112
-644.726	-135.618	0.188	0.022
-643.711	418.730	-0.212	0.453
-642.697	82.761	0.109	0.119
-641.682	-160.077	-0.191	-0.010
-640.668	800.000	0.061	-0.252
-639.653	-100.416	0.087	-0.022
-638.638	522.597	0.086	0.203
-637.624	-3.577	-0.245	0.170
-636.609	-200.000	-0.077	-0.354
-635.595	74.852	0.241	-0.254
-634.580	-124.599	-0.390	-0.061
-633.565	-101.787	0.273	-0.066
-632.551	-122.548	-0.240	0.039
-631.536	-50.904	0.319	-0.149
-630.522	-89.419	-0.140	-0.041
-629.507	-41.659	-0.258	-0.132
-628.492	223.607	0.169	-0.272
-627.478	432.736	-0.087	-0.189
-626.463	115.532	-0.240	-0.293
-625.449	-92.852	0.154	0.043
-624.434	65.057	0.046	-0.047
-623.419	-200.000	0.053	-0.282
-622.405	95.492	-0.221	-0.252
-621.390	-6.026	-0.325	0.222
-620.376	-200.000	0.018	-0.089
-619.361	548.819	0.092	0.220
-618.346	67.636	0.062	0.064
-617.332	54.015	-0.224	-0.215
-616.317	800.000	-0.138	0.566
-615.303	-169.599	-0.253	-0.009
-614.288	93.899	-0.097	0.110
-613.273	800.000	0.067	0.286
-612.259	-57.445	0.273	-0.120
-611.244	800.000	0.035	0.100
-610.230	292.025	-0.128	0.233
-609.215	800.000	-0.104	-0.319
-608.201	12.569	0.062	-0.048
-607.186	75.866	-0.128	0.135
-606.171	-200.000	-0.004	0.156
-605.157	800.000	-0.015	0.051
-604.142	-57.195	0.119	-0.052
-603.128	-77.294	0.132	0.046
-602.113	-134.606	0.145	0.018
-601.098	57.384	-0.181	0.176
-600.084	-200.000	-0.014	-0.095
-599.069	217.125	-0.246	0.390
-598.055	-167.355	-0.234	-0.009
-597.040	-52.788	-0.095	0.044
-596.025	-25.546	0.131	-0.077
-595.011	103.162	0.188	-0.220
-593.996	800.000	-0.059	0.167
-592.982	162.657	-0.021	-0.029
-591.967	45.995	-0.240	-0.221
-590.952	-200.000	0.072	-0.365
-589.938	800.000	-0.050	-0.212
-588.923	-98.960	-0.246	-0.062
-587.909	-61.017	-0.151	0.063
-586.894	-50.611	-0.252	0.119
-585.879	-200.000	-0.011	0.419
-584.865	9.155	0.223	-0.168
-583.850	560.596	0.167	-0.403
-582.836	-155.422	-0.418	-0.027
-581.821	114.846	-0.244	0.297
-580.806	-26.824	-0.160	-0.093
-579.792	-200.000	-0.042	-0.421
-578.777	99.428	-0.146	-0.168
-577.763	-200.000	0.034	0.160
-576.748	101.578	0.187	0.217
-575.733	-50.548	-0.342	-0.161
-574.719	-97.866	-0.161	-0.041
-573.704	177.052	-0.181	0.263
-572.690	15.902	-0.216	-0.170
-571.675	-200.000	-0.041	-0.445
-570.661	-200.000	-0.019	-0.235
-569.646	-128.118	-0.377	-0.054
-568.631	29.767	-0.187	0.159
-567.617	-200.000	-0.015	-0.437
-566.602	274.978	-0.109	-0.192
-565.588	-77.807	0.078	-0.027
-564.573	340.929	0.096	0.187
-563.558	139.322	-0.069	-0.091
-562.544	165.633	0.035	0.049
-561.529	-94.171	0.126	-0.034
-560.515	103.296	0.057	0.066
-559.500	111.096	-0.161	-0.193
-558.485	20.195	-0.103	-0.083
-557.471	104.545	0.190	-0.223
-556.456	113.951	0.026	0.032
-555.442	-200.000	0.012	0.238
-554.427	548.160	0.045	-0.107
-553.412	-22.776	-0.255	-0.154
-552.398	-15.593	-0.158	0.100
-551.383	-200.000	-0.056	0.252
-550.369	130.212	-0.127	-0.162
-549.354	49.600	-0.091	-0.086
-548.339	-76.436	0.186	-0.065
-547.325	-200.000	0.002	-0.227
-546.310	111.664	-0.088	-0.106
-545.296	517.414	0.099	-0.229
-544.281	14.939	-0.018	-0.014
-543.266	765.947	0.038	-0.104
-542.252	-200.000	0.039	-0.230
-541.237	8.840	0.250	0.188
-540.223	414.307	0.071	-0.150
-539.208	800.000	-0.015	0.064
-538.193	-101.241	0.160	0.039
-537.179	785.039	0.073	0.199
-536.164	217.791	0.252	0.400
-535.150	800.000	0.080	0.235
-534.135	-69.964	-0.156	-0.059
-533.121	28.115	0.076	0.063
-532.106	-200.000	-0.030	-0.135
-531.091	256.962	0.096	0.163
-530.077	-200.000	0.212	0.000
-529.062	800.000	0.029	0.093
-528.048	800.000	-0.029	-0.114
-527.033	98.482	-0.117	0.135
-526.018	-134.942	0.335	-0.040
-525.004	-115.316	-0.068	0.013
-523.989	-78.908	-0.324	-0.110
-522.975	-144.853	0.186	-0.017
-521.960	48.741	0.162	0.151
-520.945	18.818	-0.053	0.042
-519.931	-71.544	0.113	0.042
-518.916	-81.631	0.343	-0.112
-517.902	643.642	-0.053	-0.134
-516.887	-144.060	-0.299	-0.028
-515.872	253.034	-0.139	0.236
-514.858	85.467	0.166	-0.181
-513.843	204.508	0.054	-0.083
-512.829	-154.906	0.039	-0.003
-511.814	-200.000	-0.048	0.245
-510.799	183.187	-0.195	0.287
-509.785	-67.607	-0.227	0.089
-508.770	32.154	0.071	0.061
-507.756	-200.000	0.020	-0.134
-506.741	380.296	0.048	-0.098
-505.726	197.807	0.069	-0.104
-504.712	132.936	0.158	0.203
-503.697	328.937	-0.044	-0.085
-502.683	202.437	0.129	-0.198
-501.668	367.712	0.113	-0.228
-500.653	-100.395	-0.024	0.006
-499.639	180.869	-0.146	0.213
-498.624	14.656	-0.135	0.105
-497.610	-142.707	0.436	-0.042
-496.595	28.662	-0.123	-0.103
-495.581	30.574	-0.181	-0.154
-494.566	-108.634	0.382	0.081
-493.551	-94.360	-0.112	-0.030
-492.537	-86.196	0.104	-0.032
-491.522	124.128	-0.266	0.331
-490.508	-110.833	0.200	0.041
-489.493	-200.000	0.005	0.156
-488.478	-33.553	0.079	-0.043
-487.464	239.542	0.227	-0.375
-486.449	36.373	-0.034	-0.030
-485.435	75.467	-0.244	0.256
-484.420	-69.535	0.148	-0.056
-483.405	542.049	-0.064	0.151
-482.391	209.968	0.054	-0.084
-481.376	519.869	0.007	0.016
-480.362	-98.168	-0.173	0.044
-479.347	319.368	-0.023	0.043
-478.332	800.000	0.099	0.297
-477.318	-115.989	-0.169	0.031
-476.303	-60.982	0.134	-0.056
-475.289	12.250	0.176	-0.135
-474.274	279.451	0.026	-0.047
-473.259	688.361	-0.046	-0.120
-472.245	86.177	0.109	0.119
-471.230	-200.000	0.037	-0.181
-470.216	-139.843	0.206	-0.022
-469.201	-79.519	0.140	0.047
-468.186	269.881	0.154	-0.268
-467.172	18.866	-0.226	-0.180
-466.157	-90.820	-0.362	-0.103
-465.143	800.000	0.031	-0.111
-464.128	178.400	0.176	-0.255
-463.113	-70.518	0.427	0.160
-462.099	800.000	0.097	0.302
-461.084	-87.678	-0.133	0.040
-460.070	800.000	-0.074	0.205
-459.055	59.457	-0.185	-0.180
-458.040	-118.903	-0.132	0.023
-457.026	-200.000	-0.065	0.318
-456.011	-110.192	0.235	-0.049
-454.997	-43.621	0.117	0.058
-453.982	-96.945	0.211	-0.055
-452.968	-31.420	-0.117	0.065
-451.953	52.142	0.061	0.058
-450.938	59.067	0.182	-0.178
-449.924	-200.000	0.008	-0.313
-448.909	-88.254	0.403	-0.120
-447.895	155.120	0.191	0.260
-446.880	-200.000	0.033	0.384
-445.865	192.824	-0.201	-0.301
-444.851	-200.000	-0.067	-0.416
-443.836	632.252	0.105	0.264
-442.822	800.000	-0.048	-0.205
-441.807	223.969	-0.089	-0.143
-440.792	800.000	-0.071	-0.230
-439.778	-106.245	-0.150	-0.033
-438.763	219.859	0.048	-0.075
-437.749	-82.531	-0.283	0.091
-436.734	-21.979	-0.233	-0.140
-435.719	-21.860	-0.372	0.224
-434.705	800.000	0.074	-0.211
-433.690	-159.267	0.258	0.014
-432.676	224.773	-0.172	-0.276
-431.661	-108.170	0.105	-0.023
-430.646	-45.333	0.158	0.078
-429.632	462.406	0.172	0.379
-428.617	-200.000	-0.015	-0.135
-427.603	-40.768	-0.258	0.132
-426.588	76.040	-0.051	-0.053
-425.573	-35.213	-0.098	0.053
-424.559	173.188	0.071	-0.102
-423.544	800.000	-0.052	-0.216
-422.530	10.108	0.026	-0.020
-421.515	48.799	-0.215	-0.200
-420.500	-33.705	0.082	0.045
-419.486	-187.153	0.364	-0.005
-418.471	-82.138	0.230	-0.074
-417.457	218.327	0.144	-0.228
-416.442	800.000	0.064	-0.277
-415.428	-200.000	0.046	-0.472
-414.413	50.220	-0.070	-0.066
-413.398	800.000	-0.048	0.145
-412.384	800.000	0.086	-0.245
-411.369	1.629	0.289	0.206
-410.355	-114.932	0.249	0.047
-409.340	488.254	0.076	-0.171
-408.325	54.732	0.101	-0.097
-407.311	-2.104	0.173	0.120
-406.296	-200.000	0.042	0.382
-405.282	-8.724	0.234	0.155
-404.267	-189.613	-0.494	0.006
-403.252	70.951	-0.181	0.185
-402.238	-200.000	-0.005	0.097
-401.223	-200.000	-0.007	-0.201
-400.209	800.000	0.030	0.083
-399.194	800.000	0.158	0.493
-398.179	800.000	0.065	0.264
-397.165	111.401	-0.073	-0.088
-396.150	-44.917	-0.134	-0.066
-395.136	194.059	0.174	0.261
-394.121	-52.717	-0.407	-0.186
-393.106	254.571	-0.113	-0.191
-392.092	-74.747	0.254	-0.090
-391.077	-42.599	-0.359	-0.181
-390.063	-73.080	-0.217	-0.079
-389.048	-124.473	0.171	0.026
-388.033	-177.610	-0.284	0.007
-387.019	800.000	-0.107	-0.308
-386.004	11.730	-0.125	0.095
-384.990	-84.718	-0.059	0.018
-383.975	-200.000	0.060	0.374
-382.960	64.378	0.218	-0.218
-381.946	458.026	-0.073	-0.161
-380.931	-200.000	0.010	-0.059
-379.917	455.697	0.132	-0.290
-378.902	800.000	0.101	-0.358
-377.888	-34.597	0.209	0.113
-376.873	0.333	0.179	-0.127
-375.858	-200.000	0.037	-0.245
-374.844	80.892	0.347	0.370
-373.829	-175.799	0.106	-0.003
-372.815	800.000	0.066	-0.205
-371.800	-138.159	0.285	-0.031
-370.785	-82.961	-0.287	-0.092
-369.771	-65.495	0.379	0.150
-368.756	-41.675	-0.075	-0.038
-367.742	-89.073	0.173	-0.051
-366.727	-31.983	-0.239	0.132
-365.712	800.000	0.092	-0.311
-364.698	273.146	0.183	0.320
-363.683	-95.277	0.224	-0.060
-362.669	-55.251	-0.144	0.064
-361.654	-139.888	0.489	0.051
-360.639	-187.384	0.098	0.001
-359.625	208.928	0.268	-0.415
-358.610	253.184	0.119	-0.200
-357.596	-51.005	0.167	0.078
-356.581	800.000	-0.042	0.144
-355.566	-12.664	0.223	-0.143
-354.552	-200.000	0.011	-0.193
-353.537	-200.000	0.000	0.461
-352.523	753.568	0.058	0.154
-351.508	118.839	0.131	-0.159
-350.493	-45.280	-0.103	-0.050
-349.479	-179.481	-0.137	0.003
-348.464	-140.353	0.223	-0.023
-347.450	199.016	0.080	0.122
-346.435	800.000	-0.076	-0.279
-345.420	-200.000	0.003	-0.075
-344.406	-200.000	-0.002	0.382
-343.391	-51.027	-0.214	0.099
-342.377	-200.000	-0.027	0.281
-341.362	-58.559	-0.258	-0.110
-340.348	-43.283	0.467	-0.233
-339.333	800.000	-0.089	-0.291
-338.318	423.885	0.084	0.179
-337.304	282.118	0.238	0.421
-336.289	800.000	0.129	0.379
-335.275	-28.135	-0.261	0.149
-334.260	369.922	0.047	0.094
-333.245	271.632	-0.051	0.088
-332.231	238.661	0.071	-0.117
-331.216	-57.986	0.233	0.100
-330.202	-166.178	-0.206	-0.009
-329.187	-200.000	-0.067	0.334
-328.172	-99.109	-0.142	0.035
-327.158	-77.680	-0.118	0.040
-326.143	-42.090	0.210	0.106
-325.129	-161.445	0.283	0.014
-324.114	-88.378	-0.293	0.086
-323.099	-136.227	0.129	-0.015
-322.085	50.186	-0.109	0.101
-321.070	0.112	-0.049	0.034
-320.056	469.798	-0.027	0.060
-319.041	-87.092	0.128	0.038
-318.026	1.878	-0.266	0.190
-317.012	-200.000	-0.020	-0.154
-315.997	-200.000	-0.055	-0.295
-314.983	-200.000	-0.030	0.199
-313.968	-200.000	0.031	-0.191
-312.953	-18.499	0.221	-0.136
-311.939	437.720	0.119	-0.257
-310.924	-151.067	-0.252	0.019
-309.910	-155.139	0.312	0.020
-308.895	-81.734	-0.087	0.028
-307.880	65.197	0.437	0.436
-306.866	-34.127	-0.218	-0.118
-305.851	800.000	-0.014	-0.046
-304.837	134.389	-0.127	-0.162
-303.822	-34.899	-0.064	0.034
-302.807	800.000	-0.116	-0.328
-301.793	-134.826	0.368	0.044
-300.778	-200.000	0.006	0.403
-299.764	800.000	0.058	0.203
-298.749	57.931	0.083	-0.081
-297.735	264.407	-0.196	-0.336
-296.720	-78.872	-0.105	-0.035
-295.705	108.956	-0.231	0.272
-294.691	800.000	-0.075	0.275
-293.676	-17.007	-0.223	-0.139
-292.662	354.132	0.128	-0.251
-291.647	-56.862	-0.067	0.029
-290.632	-7.401	0.062	0.041
-289.618	64.026	0.140	-0.139
-288.603	448.218	-0.035	0.076
-287.589	60.577	0.273	0.266
-286.574	-200.000	0.044	-0.283
-285.559	800.000	-0.017	0.069
-284.545	56.098	-0.131	-0.126
-283.530	294.121	0.205	-0.369
-282.516	-200.000	0.019	0.147
-281.501	-200.000	-0.011	0.187
-280.486	-165.364	0.226	-0.010
-279.472	57.249	0.185	-0.178
-278.457	195.764	-0.092	0.139
-277.443	-11.727	-0.219	0.141
-276.428	201.328	-0.148	-0.225
-275.413	-59.504	-0.293	0.124
-274.399	-46.076	-0.265	0.128
-273.384	54.978	0.281	-0.267
-272.370	109.109	0.172	-0.203
-271.355	-70.305	0.121	0.045
-270.340	-200.000	0.059	0.387
-269.326	-5.207	-0.284	-0.192
-268.311	157.366	0.166	-0.226
-267.297	-200.000	0.012	-0.223
-266.282	800.000	0.112	0.332
-265.267	800.000	-0.067	0.195
-264.253	800.000	0.027	0.080
-263.238	71.339	-0.209	-0.214
-262.224	800.000	0.022	0.066
-261.209	-200.000	-0.009	-0.134
-260.195	-73.646	-0.267	0.096
-259.180	11.078	-0.227	0.171
-258.165	-72.716	0.274	-0.100
-257.151	147.446	-0.057	0.076
-256.136	-200.000	-0.001	-0.003
-255.122	465.948	0.156	0.343
-254.107	19.385	-0.216	-0.171
-253.092	-78.910	0.134	0.045
-252.078	-200.000	-0.001	0.101
-251.063	273.073	0.077	-0.135
-250.049	-89.090	-0.133	-0.039
-249.034	0.134	0.074	0.052
-248.019	278.432	0.101	-0.176
-247.005	-44.950	-0.203	-0.099
-245.990	113.836	0.038	0.046
-244.976	246.288	0.106	-0.175
-243.961	-82.266	-0.085	0.027
-242.946	-41.025	-0.303	0.154
-241.932	-157.979	0.517	-0.030
-240.917	-200.000	0.000	0.103
-239.903	-137.620	0.142	-0.016
-238.888	-82.358	-0.239	0.077
-237.873	77.512	0.112	0.117
-236.859	12.427	0.264	0.200
-235.844	-60.194	0.248	-0.104
-234.830	-200.000	0.007	-0.108
-233.815	-200.000	0.007	0.119
-232.800	291.814	-0.114	0.204
-231.786	159.436	0.066	0.091
-230.771	255.988	-0.129	-0.218
-229.757	-6.531	0.196	0.131
-228.742	-66.687	-0.207	-0.081
-227.727	-66.021	-0.304	0.119
-226.713	800.000	-0.062	-0.190
-225.698	62.081	-0.238	0.233
-224.684	240.824	-0.193	-0.316
-223.669	405.198	-0.017	0.035
-222.655	-77.293	-0.347	-0.119
-221.640	3.113	-0.234	-0.167
-220.625	-200.000	0.003	0.181
-219.611	-129.329	-0.117	0.016
-218.596	419.617	0.112	0.237
-217.582	-60.159	0.262	-0.110
-216.567	166.787	-0.182	-0.254
-215.552	-200.000	0.016	-0.094
-214.538	-66.921	0.436	0.169
-213.523	63.450	-0.141	-0.139
-212.509	-200.000	-0.067	0.431
-211.494	-200.000	-0.051	0.310
-210.479	46.219	-0.347	0.316
-209.465	-83.647	0.157	-0.049
-208.450	-200.000	-0.013	-0.196
-207.436	106.122	0.320	0.372
-206.421	553.325	0.083	0.197
-205.406	800.000	0.012	0.048
-204.392	142.110	0.172	0.223
-203.377	-127.853	-0.262	0.037
-202.363	-184.863	-0.040	-0.001
-201.348	-113.836	0.195	-0.037
-200.333	202.266	0.131	0.199
-199.319	-141.895	-0.218	0.021
-198.304	-88.685	-0.217	0.063
-197.290	295.805	0.104	0.187
-196.275	-200.000	0.021	0.175
-195.260	73.895	-0.261	-0.269
-194.246	-69.660	0.233	0.087
-193.231	-179.949	0.085	0.002
-192.217	281.091	-0.111	0.196
-191.202	167.079	0.255	0.355
-190.187	-12.321	-0.087	-0.056
-189.173	5.669	0.182	0.132
-188.158	-62.385	-0.112	-0.046
-187.144	374.905	-0.153	0.307
-186.129	-111.097	-0.010	-0.002
-185.114	800.000	0.078	0.259
-184.100	-10.552	-0.109	0.071
-183.085	218.021	-0.064	0.100
-182.071	-86.014	-0.170	0.052
-181.056	-126.596	0.056	-0.008
-180.042	-60.776	0.281	-0.117
-179.027	-137.319	-0.222	0.025
-178.012	499.585	-0.147	0.332
-176.998	157.415	-0.082	-0.112
-175.983	-200.000	0.091	-0.423
-174.969	-200.000	-0.007	-0.313
-173.954	127.505	-0.184	-0.229
-172.939	94.970	0.208	0.232
-171.925	-9.105	0.151	-0.099
-170.910	-146.249	-0.053	-0.005
-169.896	-28.264	0.221	-0.126
-168.881	-114.037	-0.165	0.031
-167.866	365.998	-0.098	-0.194
-166.852	-200.000	-0.052	-0.266
-165.837	-39.952	0.070	0.036
-164.823	-77.688	-0.208	-0.071
-163.808	-65.994	-0.246	-0.096
-162.793	-200.000	-0.019	0.131
-161.779	-17.644	-0.381	0.235
-160.764	197.353	-0.228	0.341
-159.750	761.316	-0.078	0.209
-158.735	-125.416	0.300	0.045
-157.720	800.000	0.042	-0.146
-156.706	-200.000	0.065	0.483
-155.691	-31.723	-0.206	-0.113
-154.677	-126.967	-0.395	-0.057
-153.662	180.960	0.252	0.363
-152.647	15.915	0.169	0.131
-151.633	53.230	0.259	-0.243
-150.618	800.000	-0.140	-0.485
-149.604	-123.699	0.039	-0.006
-148.589	-119.527	0.240	-0.041
-147.574	217.839	0.067	0.105
-146.560	-169.258	-0.192	-0.007
-145.545	165.370	0.125	0.173
-144.531	-98.321	-0.274	0.069
-143.516	115.052	0.300	-0.359
-142.502	-33.052	0.050	-0.027
-141.487	32.534	0.205	0.174
-140.472	-4.479	-0.301	-0.204
-139.458	-200.000	-0.005	0.464
-138.443	-200.000	-0.005	-0.143
-137.429	284.372	0.040	-0.070
-136.414	213.919	0.140	0.218
-135.399	-79.634	0.168	-0.056
-134.385	-87.310	0.476	-0.141
-133.370	266.267	-0.151	-0.259
-132.356	-200.000	-0.068	-0.306
-131.341	-200.000	-0.066	-0.311
-130.326	-164.224	0.145	0.007
-129.312	285.499	-0.161	0.284
-128.297	-200.000	0.018	-0.392
-127.283	33.968	0.105	-0.090
-126.268	285.195	0.236	-0.417
-125.253	250.234	0.071	0.118
-124.239	33.641	-0.094	-0.080
-123.224	396.566	0.152	-0.311
-122.210	800.000	-0.040	0.165
-121.195	220.765	-0.040	-0.064
