DTS Sentinel unit serial number:	SN413079Multiplexer serial number:	ORYXHardware model number:	OX4-SRSoftware version number:	ORYX F/W v4.00 Oryx Data Collector v3.7.2.0data status	okinstallation	princeton_trtdifferential loss correction	single-endedforward channel	channel 2reverse channel	N/Adate	2019/09/11time	23:25:11forward acquisition time	60.00reverse acquisition time	0.00gamma	496.2192k internal	0.2325k external	0.2325temperature offset calibration	1.0077default loss term (dB/km)	0.3790temperature slope calibration	1.0000multiplexer offset coefficient	1.0000multiplexer slope coefficient	1.0000fibre end	0.00T internal ref (°C)	34.31T ext. ref 1 (°C)	1.87T ext. ref 2 (°C)	28.87length (m)	temperature (°C)	Stokes	anti-Stokes-747.200	247.583	-0.130	0.221
-746.185	743.297	-0.077	0.208
-745.171	-9.079	-0.271	0.183
-744.156	-10.098	-0.045	-0.030
-743.142	-0.028	0.003	-0.002
-742.127	169.649	-0.104	0.150
-741.112	-19.792	0.243	0.151
-740.098	800.000	-0.097	0.335
-739.083	456.762	0.061	-0.136
-738.069	-136.635	-0.371	-0.043
-737.054	-133.725	0.203	-0.025
-736.039	800.000	-0.086	-0.258
-735.025	-200.000	0.011	0.246
-734.010	2.238	-0.060	0.043
-732.996	800.000	-0.089	-0.384
-731.981	-200.000	-0.100	-0.572
-730.966	-151.041	0.500	0.038
-729.952	-200.000	0.014	-0.247
-728.937	210.745	-0.088	-0.139
-727.923	13.751	0.075	-0.059
-726.908	-57.922	0.199	0.088
-725.894	-101.247	-0.352	0.087
-724.879	236.230	0.133	-0.223
-723.864	-85.074	-0.514	-0.162
-722.850	620.995	-0.132	-0.334
-721.835	381.779	-0.136	-0.281
-720.821	800.000	0.060	-0.212
-719.806	-200.000	0.010	-0.214
-718.791	-200.000	-0.018	-0.128
-717.777	130.750	-0.218	-0.282
-716.762	105.925	0.104	-0.124
-715.748	216.787	0.032	0.052
-714.733	-122.280	-0.235	-0.039
-713.718	-135.736	-0.061	0.007
-712.704	-43.162	0.168	-0.086
-711.689	4.162	0.098	-0.072
-710.675	-28.512	0.104	-0.061
-709.660	-84.410	0.225	-0.072
-708.645	-113.969	0.146	0.028
-707.631	-60.229	-0.196	0.084
-706.616	-200.000	-0.031	-0.137
-705.602	607.673	-0.051	0.127
-704.587	800.000	-0.120	0.336
-703.572	203.514	0.141	0.220
-702.558	-67.773	-0.112	0.044
-701.543	-200.000	0.009	0.091
-700.529	63.956	-0.136	-0.138
-699.514	-71.174	-0.359	-0.136
-698.499	54.605	0.113	-0.110
-697.485	338.614	-0.032	-0.062
-696.470	-200.000	-0.031	0.418
-695.456	-113.629	-0.286	-0.056
-694.441	136.625	0.079	-0.104
-693.426	307.386	0.141	0.264
-692.412	-167.709	0.070	-0.003
-691.397	-9.193	0.191	0.129
-690.383	800.000	0.073	-0.233
-689.368	-128.994	-0.140	-0.020
-688.354	-200.000	0.018	0.190
-687.339	-94.225	0.166	-0.046
-686.324	46.053	0.096	-0.090
-685.310	-200.000	0.009	0.202
-684.295	-200.000	0.011	0.300
-683.281	15.955	-0.158	-0.125
-682.266	-200.000	0.026	-0.422
-681.251	-200.000	-0.040	0.442
-680.237	-200.000	0.035	0.241
-679.222	800.000	0.166	-0.532
-678.208	105.005	0.032	0.038
-677.193	800.000	-0.058	0.231
-676.178	-94.871	0.178	-0.048
-675.164	-49.828	-0.297	-0.142
-674.149	-200.000	-0.027	0.132
-673.135	86.052	-0.128	-0.142
-672.120	32.702	0.210	0.183
-671.105	169.012	-0.145	0.208
-670.091	-200.000	0.024	-0.264
-669.076	-200.000	-0.012	-0.199
-668.062	13.276	0.077	-0.060
-667.047	-152.747	0.189	0.014
-666.032	293.318	-0.126	0.232
-665.018	383.200	-0.040	-0.083
-664.003	800.000	0.019	-0.074
-662.989	128.439	-0.213	-0.273
-661.974	-148.000	0.321	0.027
-660.959	171.008	0.289	0.417
-659.945	45.950	-0.327	0.304
-658.930	-111.065	-0.315	-0.065
-657.916	32.582	0.192	-0.167
-656.901	339.605	-0.125	-0.245
-655.886	800.000	0.164	0.484
-654.872	-0.333	0.303	0.217
-653.857	184.657	0.084	-0.125
-652.843	421.279	-0.175	-0.376
-651.828	-41.964	0.083	-0.043
-650.814	-100.585	-0.247	-0.061
-649.799	59.972	-0.043	0.042
-648.784	315.906	0.068	-0.129
-647.770	215.647	-0.162	0.259
-646.755	66.629	0.092	-0.094
-645.741	-200.000	0.011	0.393
-644.726	20.982	0.070	-0.057
-643.711	33.712	0.130	-0.113
-642.697	174.095	-0.090	-0.131
-641.682	-200.000	0.037	-0.446
-640.668	-68.621	0.293	0.114
-639.653	-149.068	-0.193	-0.016
-638.638	-149.307	-0.100	-0.008
-637.624	-188.740	-0.146	0.002
-636.609	6.666	0.178	-0.133
-635.595	-90.158	0.234	0.068
-634.580	128.732	0.233	0.299
-633.565	-8.499	0.121	0.082
-632.551	-53.427	-0.254	0.117
-631.536	-13.238	-0.196	0.128
-630.522	-14.137	-0.137	0.089
-629.507	-63.871	0.203	-0.084
-628.492	616.848	-0.029	0.074
-627.478	518.669	0.089	0.209
-626.463	621.377	0.086	0.218
-625.449	-70.558	-0.073	-0.028
-624.434	-86.714	-0.199	-0.061
-623.419	-13.938	0.274	-0.178
-622.405	-136.856	0.090	0.010
-621.390	-200.000	-0.013	0.188
-620.376	357.398	-0.035	-0.070
-619.361	-116.162	0.365	0.068
-618.346	-190.164	-0.109	0.001
-617.332	-200.000	0.012	-0.088
-616.317	-85.103	-0.256	-0.080
-615.303	135.371	-0.191	0.250
-614.288	-200.000	-0.021	0.153
-613.273	-118.716	0.267	-0.047
-612.259	41.570	0.177	0.161
-611.244	800.000	-0.060	-0.184
-610.230	-200.000	-0.018	0.101
-609.215	296.222	0.090	-0.165
-608.201	0.669	0.067	-0.048
-607.186	38.584	-0.259	-0.232
-606.171	76.322	0.085	0.091
-605.157	84.065	0.155	0.169
-604.142	488.694	-0.157	-0.360
-603.128	-56.242	0.229	0.102
-602.113	48.774	-0.224	0.211
-601.098	76.002	-0.213	0.226
-600.084	-30.033	0.331	-0.189
-599.069	-200.000	-0.015	-0.205
-598.055	-63.651	-0.164	0.067
-597.040	-105.757	-0.287	-0.065
-596.025	-70.418	0.123	0.047
-595.011	107.338	-0.136	-0.162
-593.996	-27.652	-0.276	0.161
-592.982	-23.179	0.047	0.029
-591.967	-200.000	-0.034	-0.260
-590.952	800.000	-0.119	0.337
-589.938	295.103	0.089	0.163
-588.923	800.000	-0.015	0.065
-587.909	22.199	-0.137	0.113
-586.894	4.707	0.234	0.172
-585.879	-54.561	0.160	-0.072
-584.865	285.580	-0.078	-0.141
-583.850	-48.809	-0.299	-0.144
-582.836	26.789	0.172	-0.144
-581.821	-53.207	-0.256	-0.118
-580.806	-136.514	0.132	0.015
-579.792	74.069	0.122	-0.128
-578.777	47.438	0.158	0.147
-577.763	-70.207	-0.017	-0.006
-576.748	235.252	-0.090	0.149
-575.733	-200.000	-0.003	-0.143
-574.719	-17.649	0.076	0.048
-573.704	-94.067	-0.360	0.099
-572.690	22.919	0.179	0.147
-571.675	267.919	0.116	0.203
-570.661	73.923	0.009	-0.009
-569.646	168.740	0.105	0.150
-568.631	-62.104	0.235	0.098
-567.617	-200.000	0.041	0.327
-566.602	67.172	-0.069	0.070
-565.588	256.449	0.096	0.165
-564.573	360.296	-0.075	0.151
-563.558	-108.797	-0.354	0.076
-562.544	42.405	0.243	0.221
-561.529	-175.439	0.256	0.007
-560.515	-52.540	-0.391	-0.181
-559.500	-200.000	-0.066	-0.483
-558.485	-111.778	0.178	-0.036
-557.471	-6.784	0.378	-0.257
-556.456	-200.000	0.026	-0.128
-555.442	-45.975	0.250	-0.123
-554.427	489.295	0.183	-0.419
-553.412	96.611	0.139	0.159
-552.398	-200.000	-0.032	0.220
-551.383	36.639	0.105	0.093
-550.369	-200.000	0.014	-0.369
-549.354	255.090	0.046	-0.079
-548.339	-112.648	0.180	0.036
-547.325	-74.456	-0.297	0.107
-546.310	-117.142	0.129	0.024
-545.296	-15.655	0.309	-0.197
-544.281	64.771	0.116	-0.117
-543.266	-55.957	-0.033	0.015
-542.252	-200.000	-0.004	0.019
-541.237	71.772	-0.302	-0.314
-540.223	380.250	-0.011	0.023
-539.208	-139.391	0.369	-0.040
-538.193	-27.701	0.220	0.128
-537.179	-105.411	0.154	-0.035
-536.164	296.277	0.043	-0.079
-535.150	21.413	-0.074	-0.060
-534.135	179.778	-0.043	-0.063
-533.121	274.023	0.213	0.377
-532.106	391.996	-0.073	0.151
-531.091	-63.492	-0.141	-0.058
-530.077	448.758	-0.165	-0.363
-529.062	-3.357	-0.133	0.093
-528.048	573.223	-0.020	-0.050
-527.033	-200.000	-0.035	0.156
-526.018	800.000	-0.023	0.071
-525.004	159.316	-0.096	-0.134
-523.989	-200.000	-0.049	0.228
-522.975	0.714	0.205	-0.147
-521.960	-107.610	-0.173	-0.038
-520.945	-5.324	0.179	-0.123
-519.931	-20.273	0.107	-0.066
-518.916	-142.822	-0.090	0.009
-517.902	-62.744	0.183	0.076
-516.887	19.881	0.072	0.058
-515.872	-95.557	-0.048	0.013
-514.858	-44.313	0.187	-0.094
-513.843	-95.884	0.162	0.043
-512.829	40.339	0.120	-0.108
-511.814	-200.000	-0.024	-0.182
-510.799	-200.000	0.042	-0.264
-509.785	-200.000	-0.046	0.320
-508.770	-200.000	-0.018	-0.098
-507.756	-1.336	-0.201	-0.142
-506.741	190.746	-0.078	0.117
-505.726	103.626	0.215	0.253
-504.712	-200.000	-0.018	0.237
-503.697	560.458	-0.026	0.064
-502.683	-104.977	0.343	0.078
-501.668	250.210	-0.121	0.205
-500.653	800.000	-0.126	0.424
-499.639	135.146	-0.050	-0.065
-498.624	-200.000	-0.077	0.437
-497.610	501.623	0.068	0.156
-496.595	108.626	0.147	0.176
-495.581	-200.000	-0.097	0.449
-494.566	-72.323	-0.173	-0.064
-493.551	283.254	-0.080	-0.144
-492.537	-200.000	0.033	0.156
-491.522	113.829	-0.019	0.023
-490.508	-200.000	0.018	-0.236
-489.493	-200.000	0.003	-0.151
-488.478	207.680	-0.154	-0.240
-487.464	20.307	-0.083	0.067
-486.449	-88.486	0.105	-0.031
-485.435	800.000	0.011	0.040
-484.420	112.183	-0.102	0.123
-483.405	-200.000	-0.062	0.346
-482.391	16.995	0.187	0.148
-481.376	29.094	0.098	-0.083
-480.362	-90.884	0.143	0.041
-479.347	-150.680	0.154	0.012
-478.332	-94.884	-0.224	0.061
-477.318	289.618	-0.106	0.193
-476.303	400.690	-0.012	-0.025
-475.289	-111.540	0.196	0.040
-474.274	383.737	-0.066	-0.136
-473.259	-145.536	-0.321	-0.029
-472.245	148.340	0.071	0.096
-471.230	-200.000	-0.056	0.460
-470.216	0.874	-0.065	0.046
-469.201	-73.176	-0.095	-0.035
-468.186	-200.000	0.021	-0.268
-467.172	800.000	-0.035	0.120
-466.157	52.106	-0.086	-0.082
-465.143	-105.865	0.261	-0.059
-464.128	383.848	0.108	-0.222
-463.113	-48.410	-0.262	-0.126
-462.099	-103.514	0.280	0.066
-461.084	-77.637	-0.241	-0.083
-460.070	294.315	-0.058	-0.106
-459.055	800.000	-0.028	0.118
-458.040	-200.000	-0.011	-0.210
-457.026	-26.996	-0.191	-0.111
-456.011	-156.190	-0.338	0.021
-454.997	-200.000	0.001	-0.068
-453.982	116.923	0.243	0.298
-452.968	374.258	-0.103	-0.210
-451.953	-200.000	0.071	-0.430
-450.938	29.606	-0.202	-0.172
-449.924	145.736	0.166	-0.222
-448.909	-35.917	0.253	0.137
-447.895	-200.000	0.016	-0.176
-446.880	-116.891	0.183	-0.033
-445.865	-4.946	-0.171	0.117
-444.851	-77.052	0.124	0.043
-443.836	59.487	0.132	-0.130
-442.822	-200.000	-0.024	0.153
-441.807	420.123	0.188	0.402
-440.792	-200.000	-0.001	-0.108
-439.778	93.398	-0.172	-0.194
-438.763	-200.000	-0.001	-0.201
-437.749	-161.039	-0.170	-0.009
-436.734	115.973	0.100	-0.122
-435.719	39.672	0.085	0.076
-434.705	-94.893	0.231	0.062
-433.690	800.000	0.105	0.347
-432.676	127.165	-0.082	-0.103
-431.661	-167.667	-0.164	-0.006
-430.646	-55.615	0.168	-0.075
-429.632	-200.000	0.048	0.352
-428.617	-48.350	-0.359	-0.173
-427.603	-152.730	-0.242	-0.017
-426.588	-54.627	-0.118	-0.053
-425.573	800.000	0.042	0.131
-424.559	-0.468	0.040	-0.028
-423.544	10.395	0.126	-0.096
-422.530	800.000	-0.071	-0.202
-421.515	800.000	0.046	0.135
-420.500	590.688	-0.181	-0.445
-419.486	-200.000	0.013	0.201
-418.471	36.941	0.214	0.189
-417.457	-163.250	0.074	-0.004
-416.442	800.000	0.105	0.292
-415.428	105.861	0.117	-0.138
-414.413	-120.264	-0.158	-0.027
-413.398	195.161	0.219	0.332
-412.384	-155.162	-0.672	-0.044
-411.369	-34.546	0.131	0.072
-410.355	261.213	-0.137	0.236
-409.340	28.899	0.247	0.209
-408.325	-62.249	0.289	0.120
-407.311	800.000	-0.072	0.277
-406.296	151.490	0.065	0.088
-405.282	-200.000	-0.010	-0.251
-404.267	188.453	0.034	-0.050
-403.252	-2.644	-0.024	-0.016
-402.238	121.069	0.115	-0.142
-401.223	85.674	-0.148	0.162
-400.209	-200.000	-0.013	-0.395
-399.194	-103.345	-0.155	-0.036
-398.179	-51.727	-0.155	-0.072
-397.165	-200.000	-0.015	0.134
-396.150	-110.901	0.046	-0.009
-395.136	-200.000	0.023	0.170
-394.121	800.000	-0.036	0.110
-393.106	-10.741	-0.166	-0.109
-392.092	168.874	-0.164	-0.232
-391.077	124.699	0.161	0.202
-390.063	-4.338	-0.198	0.137
-389.048	-99.503	0.171	-0.043
-388.033	-200.000	-0.009	0.162
-387.019	621.443	-0.067	-0.168
-386.004	-80.447	-0.499	-0.166
-384.990	-17.983	-0.180	0.112
-383.975	321.977	0.065	0.123
-382.960	-33.194	-0.272	-0.150
-381.946	-200.000	-0.036	-0.311
-380.931	800.000	0.158	0.436
-379.917	88.376	0.092	0.102
-378.902	-77.987	0.252	-0.086
-377.888	-200.000	0.038	-0.209
-376.873	-46.167	0.169	0.083
-375.858	-158.738	-0.153	-0.009
-374.844	756.945	-0.102	-0.274
-373.829	2.031	0.175	-0.126
-372.815	527.075	0.244	-0.572
-371.800	-112.172	0.309	-0.062
-370.785	-72.263	0.129	-0.047
-369.771	-79.935	0.104	0.035
-368.756	-79.267	-0.301	-0.102
-367.742	6.551	-0.243	0.179
-366.727	-44.355	-0.063	0.032
-365.712	29.854	0.066	0.056
-364.698	-103.650	-0.228	0.053
-363.683	-31.201	0.266	0.149
-362.669	-55.056	-0.161	-0.072
-361.654	58.289	-0.083	-0.081
-360.639	800.000	0.073	0.257
-359.625	80.277	-0.063	-0.068
-358.610	147.685	0.145	-0.194
-357.596	-200.000	-0.054	0.365
-356.581	800.000	-0.072	0.272
-355.566	165.440	-0.069	0.097
-354.552	-171.379	-0.211	0.007
-353.537	70.881	0.122	-0.125
-352.523	-30.602	-0.141	0.079
-351.508	-67.835	-0.256	0.100
-350.493	783.246	-0.064	-0.173
-349.479	83.842	-0.174	0.189
-348.464	-138.574	-0.514	-0.056
-347.450	-74.640	0.348	0.124
-346.435	198.675	0.157	-0.239
-345.420	272.792	-0.211	-0.369
-344.406	800.000	-0.047	-0.200
-343.391	-50.512	-0.054	0.025
-342.377	800.000	-0.024	0.067
-341.362	-139.204	0.079	-0.008
-340.348	-200.000	-0.031	0.181
-339.333	-200.000	-0.008	-0.134
-338.318	-32.591	-0.052	0.029
-337.304	-54.074	-0.064	-0.029
-336.289	11.659	-0.045	0.034
-335.275	58.159	0.088	-0.086
-334.260	-40.631	0.295	0.152
-333.245	-200.000	0.049	-0.372
-332.231	77.353	-0.227	-0.239
-331.216	-21.046	0.273	0.166
-330.202	27.319	-0.101	-0.085
-329.187	-200.000	-0.049	0.279
-328.172	152.404	-0.283	-0.383
-327.158	-45.963	-0.103	-0.050
-326.143	-90.796	0.104	0.030
-325.129	-125.899	0.170	-0.025
-324.114	-200.000	-0.032	0.264
-323.099	-200.000	0.413	0.000
-322.085	-89.168	0.302	0.088
-321.070	465.689	-0.023	0.050
-320.056	-94.646	-0.416	-0.112
-319.041	326.681	0.064	-0.123
-318.026	474.703	0.144	-0.323
-317.012	125.670	-0.051	0.064
-315.997	-48.726	0.175	0.083
-314.983	114.911	-0.175	0.212
-313.968	384.249	0.058	-0.118
-312.953	-193.976	-0.195	-0.002
-311.939	226.584	-0.081	-0.130
-310.924	172.863	-0.065	-0.093
-309.910	-46.533	0.292	0.142
-308.895	800.000	-0.092	-0.273
-307.880	-200.000	-0.018	-0.427
-306.866	91.153	-0.086	-0.096
-305.851	120.450	-0.042	0.052
-304.837	29.980	0.052	-0.044
-303.822	-200.000	-0.024	-0.172
-302.807	294.026	-0.151	-0.273
-301.793	-4.419	0.562	-0.385
-300.778	-70.839	0.205	-0.077
-299.764	-200.000	0.036	0.302
-298.749	-200.000	-0.015	-0.235
-297.735	800.000	-0.035	0.121
-296.720	114.549	0.300	0.362
-295.705	42.722	0.099	-0.090
-294.691	362.517	0.070	0.140
-293.676	190.002	0.120	0.178
-292.662	352.087	-0.059	-0.117
-291.647	-58.009	-0.158	-0.068
-290.632	-42.499	0.252	-0.127
-289.618	81.933	0.307	-0.330
-288.603	-64.604	-0.183	0.073
-287.589	269.510	0.135	0.235
-286.574	-91.810	0.088	0.025
-285.559	288.039	-0.072	-0.129
-284.545	-40.951	0.092	0.047
-283.530	800.000	-0.133	-0.364
-282.516	800.000	-0.092	-0.260
-281.501	-88.855	-0.084	-0.025
-280.486	-85.623	0.100	0.031
-279.472	800.000	0.085	-0.253
-278.457	91.792	-0.217	-0.242
-277.443	-200.000	-0.014	-0.335
-276.428	-106.662	-0.192	-0.042
-275.413	449.813	-0.105	-0.230
-274.399	-137.068	-0.240	-0.027
-273.384	209.253	0.028	-0.044
-272.370	57.309	0.094	-0.091
-271.355	-200.000	0.026	0.118
-270.340	-200.000	0.053	0.383
-269.326	-200.000	0.104	0.000
-268.311	-66.622	-0.024	-0.009
-267.297	-200.000	0.002	0.254
-266.282	583.466	-0.086	-0.210
-265.267	-77.297	0.136	-0.047
-264.253	250.969	-0.021	-0.035
-263.238	800.000	-0.088	-0.252
-262.224	-115.059	-0.417	0.078
-261.209	-200.000	-0.012	-0.260
-260.195	422.445	0.072	0.154
-259.180	-184.287	0.375	0.006
-258.165	-14.668	-0.132	0.084
-257.151	127.081	-0.124	0.155
-256.136	3.572	-0.299	0.216
-255.122	-65.380	0.220	0.088
-254.107	-62.609	-0.275	-0.113
-253.092	-144.904	-0.220	0.020
-252.078	-200.000	0.034	-0.336
-251.063	22.471	-0.185	-0.150
-250.049	341.251	0.104	0.202
-249.034	-200.000	-0.034	0.156
-248.019	-132.394	0.258	-0.033
-247.005	-175.234	-0.077	0.002
-245.990	-5.553	-0.095	-0.065
-244.976	412.604	0.098	-0.206
-243.961	800.000	0.030	0.091
-242.946	-115.172	0.266	-0.050
-241.932	469.095	0.087	-0.193
-240.917	800.000	-0.067	-0.289
-239.903	-27.859	-0.206	0.118
-238.888	30.109	-0.160	0.135
-237.873	-98.687	0.285	0.072
-236.859	-200.000	0.005	0.320
-235.844	51.761	-0.101	-0.095
-234.830	-77.325	-0.467	0.160
-233.815	36.708	0.195	-0.170
-232.800	298.352	0.149	0.272
-231.786	-200.000	0.031	0.169
-230.771	-141.344	-0.130	0.013
-229.757	-16.969	-0.070	-0.044
-228.742	-25.492	0.282	-0.165
-227.727	142.852	-0.107	0.141
-226.713	-26.865	-0.080	0.046
-225.698	800.000	0.031	-0.094
-224.684	73.552	-0.179	-0.185
-223.669	119.238	-0.011	-0.014
-222.655	383.328	-0.069	0.141
-221.640	-200.000	0.016	-0.201
-220.625	800.000	-0.037	-0.162
-219.611	450.378	0.072	-0.157
-218.596	281.244	-0.200	0.354
-217.582	-200.000	-0.024	0.182
-216.567	20.462	-0.112	0.090
-215.552	800.000	0.102	0.340
-214.538	56.390	-0.117	0.112
-213.523	271.513	0.092	0.160
-212.509	55.506	-0.133	0.128
-211.494	800.000	0.058	-0.238
-210.479	774.585	0.149	-0.403
-209.465	800.000	0.099	-0.295
-208.450	-77.747	-0.294	0.101
-207.436	-200.000	0.007	0.107
-206.421	35.163	-0.179	-0.155
-205.406	-7.373	-0.142	0.095
-204.392	800.000	-0.069	0.194
-203.377	-200.000	0.016	0.307
-202.363	-198.481	0.391	-0.002
-201.348	476.588	0.066	0.148
-200.333	-200.000	-0.013	0.116
-199.319	312.594	0.091	0.168
-198.304	145.069	0.217	-0.287
-197.290	22.253	-0.128	-0.103
-196.275	34.276	-0.081	-0.069
-195.260	-200.000	-0.001	0.083
-194.246	-95.346	-0.292	0.078
-193.231	216.513	-0.029	-0.045
-192.217	131.996	-0.123	0.156
-191.202	54.799	0.126	-0.120
-190.187	425.829	0.072	-0.154
-189.173	800.000	0.085	-0.243
-188.158	-200.000	-0.084	0.498
-187.144	-39.760	-0.238	-0.123
-186.129	800.000	0.034	-0.123
-185.114	-102.715	0.472	0.111
-184.100	7.363	0.140	0.103
-183.085	-17.110	0.204	-0.127
-182.071	310.539	0.072	0.133
-181.056	-84.666	0.464	0.144
-180.042	-200.000	-0.011	0.102
-179.027	155.347	-0.168	0.228
-178.012	700.131	-0.105	0.273
-176.998	-64.929	-0.338	-0.135
-175.983	215.089	0.129	-0.202
-174.969	140.813	-0.178	-0.233
-173.954	-200.000	0.052	-0.399
-172.939	625.068	0.046	0.114
-171.925	-106.604	-0.188	-0.041
-170.910	-200.000	0.000	-0.015
-169.896	176.577	-0.103	-0.148
-168.881	101.962	-0.052	0.060
-167.866	37.211	-0.251	0.220
-166.852	310.262	-0.128	-0.236
-165.837	123.882	0.104	0.129
-164.823	130.991	-0.099	-0.125
-163.808	187.509	-0.036	0.054
-162.793	-60.659	0.146	0.061
-161.779	-45.878	0.222	-0.108
-160.764	411.290	-0.124	-0.259
-159.750	800.000	-0.029	0.086
-158.735	-124.401	0.189	-0.029
-157.720	-18.152	-0.060	0.037
-156.706	800.000	-0.011	0.032
-155.691	-177.071	-0.155	-0.004
-154.677	-200.000	0.054	0.326
-153.662	-200.000	0.029	0.166
-152.647	14.244	-0.019	0.014
-151.633	-200.000	0.002	0.350
-150.618	248.940	0.291	0.487
-149.604	-129.197	-0.385	0.053
-148.589	-200.000	-0.042	0.217
-147.574	-72.801	0.086	0.031
-146.560	800.000	0.053	-0.203
-145.545	100.032	0.184	0.211
-144.531	38.320	0.138	0.121
-143.516	18.657	-0.138	0.109
-142.502	-149.192	-0.390	0.031
-141.487	-72.077	0.433	0.159
-140.472	-158.591	-0.125	-0.007
-139.458	800.000	-0.097	-0.299
-138.443	76.769	-0.061	-0.064
-137.429	-27.948	0.067	0.038
-136.414	-200.000	0.027	-0.152
-135.399	-11.676	0.150	0.097
-134.385	-184.068	-0.064	0.001
-133.370	265.864	0.152	0.261
-132.356	186.471	0.141	-0.207
-131.341	-118.625	-0.077	-0.013
-130.326	341.574	-0.133	0.257
-129.312	70.021	-0.070	-0.071
-128.297	-200.000	-0.028	0.144
-127.283	-200.000	-0.006	0.050
-126.268	-73.114	-0.185	0.067
-125.253	-185.192	0.211	-0.003
-124.239	-53.575	-0.286	-0.129
-123.224	-200.000	0.019	-0.147
-122.210	265.615	0.169	0.290
-121.195	-61.450	0.127	0.053
