DTS Sentinel unit serial number:	SN413079Multiplexer serial number:	ORYXHardware model number:	OX4-SRSoftware version number:	ORYX F/W v4.00 Oryx Data Collector v3.7.2.0data status	okinstallation	princeton_trtdifferential loss correction	single-endedforward channel	channel 2reverse channel	N/Adate	2019/09/17time	11:19:35forward acquisition time	60.00reverse acquisition time	0.00gamma	496.2192k internal	0.2324k external	0.2324temperature offset calibration	0.9980default loss term (dB/km)	0.3790temperature slope calibration	1.0000multiplexer offset coefficient	1.0000multiplexer slope coefficient	1.0000fibre end	0.00T internal ref (°C)	30.55T ext. ref 1 (°C)	0.31T ext. ref 2 (°C)	26.29length (m)	temperature (°C)	Stokes	anti-Stokes-747.200	-200.000	0.037	-0.214
-746.185	206.718	0.108	0.170
-745.171	-92.529	0.430	-0.122
-744.156	-163.889	-0.060	-0.003
-743.142	23.716	0.237	-0.197
-742.127	800.000	0.025	0.108
-741.112	-102.411	-0.137	0.033
-740.098	45.323	-0.074	0.069
-739.083	8.077	-0.125	-0.095
-738.069	79.251	-0.089	0.096
-737.054	-35.380	-0.036	0.020
-736.039	38.350	-0.262	0.236
-735.025	571.923	-0.105	0.258
-734.010	-23.947	-0.336	-0.203
-732.996	113.171	-0.206	0.252
-731.981	-15.644	-0.296	0.190
-730.966	-200.000	-0.014	-0.165
-729.952	-21.870	-0.349	0.214
-728.937	139.110	-0.111	-0.147
-727.923	132.945	-0.079	-0.103
-726.908	-200.000	0.015	-0.202
-725.894	292.616	-0.093	0.172
-724.879	-200.000	-0.041	0.312
-723.864	66.218	0.136	0.139
-722.850	-37.943	-0.207	0.111
-721.835	146.856	0.045	0.061
-720.821	-126.526	-0.195	0.029
-719.806	800.000	0.034	-0.139
-718.791	509.455	-0.144	-0.337
-717.777	290.867	-0.114	0.210
-716.762	-167.814	-0.195	-0.008
-715.748	-200.000	0.008	-0.280
-714.733	-6.851	0.298	-0.204
-713.718	-45.283	0.260	0.130
-712.704	-37.307	0.266	-0.143
-711.689	-162.391	-0.074	0.004
-710.675	-62.518	0.163	0.068
-709.660	-200.000	0.002	-0.161
-708.645	-41.036	0.037	-0.019
-707.631	642.044	0.065	0.167
-706.616	-72.667	-0.298	-0.111
-705.602	-87.720	0.279	-0.085
-704.587	33.266	0.310	-0.271
-703.572	-0.388	-0.218	0.156
-702.558	611.755	0.113	0.285
-701.543	-200.000	0.019	-0.122
-700.529	-89.806	0.198	-0.059
-699.514	-103.931	0.250	0.059
-698.499	-200.000	0.038	-0.355
-697.485	118.517	0.194	0.241
-696.470	22.586	0.171	-0.141
-695.456	-200.000	-0.047	-0.300
-694.441	68.497	-0.293	-0.302
-693.426	-46.123	0.172	0.085
-692.412	36.419	0.147	0.131
-691.397	383.144	0.199	-0.412
-690.383	278.019	-0.127	-0.228
-689.368	598.385	-0.104	0.260
-688.354	-68.418	-0.339	-0.133
-687.339	4.869	0.067	-0.050
-686.324	-164.857	0.239	0.011
-685.310	91.221	0.198	0.224
-684.295	542.260	-0.053	-0.126
-683.281	-89.094	-0.080	-0.024
-682.266	101.412	-0.034	0.040
-681.251	-200.000	-0.012	-0.195
-680.237	5.651	-0.122	0.091
-679.222	635.163	-0.090	0.231
-678.208	-23.790	-0.100	-0.061
-677.193	-199.587	-0.285	-0.001
-676.178	-200.000	-0.014	0.127
-675.164	800.000	-0.086	-0.325
-674.149	43.301	0.216	-0.198
-673.135	3.125	-0.192	-0.140
-672.120	47.944	-0.125	0.118
-671.105	-7.054	-0.286	0.195
-670.091	-49.045	0.227	-0.109
-669.076	-185.443	0.308	-0.005
-668.062	67.030	-0.112	-0.115
-667.047	-96.878	0.278	0.073
-666.032	58.084	0.199	-0.196
-665.018	129.031	0.050	-0.064
-664.003	104.501	-0.246	-0.292
-662.989	800.000	-0.042	0.131
-661.974	-39.584	0.164	-0.086
-660.959	370.245	-0.025	-0.051
-659.945	-200.000	0.041	-0.217
-658.930	800.000	0.069	-0.232
-657.916	108.907	-0.250	0.301
-656.901	800.000	-0.018	0.055
-655.886	-200.000	0.015	-0.230
-654.872	731.200	0.116	-0.313
-653.857	330.366	-0.037	-0.071
-652.843	-69.157	-0.201	-0.078
-651.828	-26.880	0.070	-0.041
-650.814	171.504	-0.329	0.475
-649.799	-85.860	-0.266	-0.083
-648.784	-200.000	0.028	0.191
-647.770	-192.762	0.108	0.001
-646.755	-159.472	0.148	-0.008
-645.741	-90.298	0.119	0.035
-644.726	189.687	-0.218	-0.329
-643.711	-200.000	0.007	0.088
-642.697	800.000	0.045	0.153
-641.682	-80.322	0.180	0.061
-640.668	468.099	-0.129	-0.291
-639.653	187.033	-0.128	0.192
-638.638	-200.000	0.012	0.095
-637.624	70.186	0.177	0.184
-636.609	-200.000	-0.172	0.000
-635.595	-195.004	-0.226	0.002
-634.580	177.767	0.104	0.153
-633.565	70.441	0.148	-0.154
-632.551	-97.571	-0.271	-0.071
-631.536	246.336	0.110	0.186
-630.522	260.652	0.149	0.259
-629.507	800.000	0.042	-0.118
-628.492	-26.779	0.160	-0.094
-627.478	800.000	0.054	-0.176
-626.463	322.480	0.127	0.244
-625.449	800.000	-0.091	-0.316
-624.434	800.000	-0.091	-0.274
-623.419	-37.303	0.231	-0.124
-622.405	65.796	-0.192	0.196
-621.390	119.187	0.325	-0.403
-620.376	800.000	-0.054	-0.150
-619.361	625.179	-0.046	-0.117
-618.346	75.662	0.104	-0.111
-617.332	800.000	-0.103	-0.320
-616.317	800.000	0.109	-0.329
-615.303	-200.000	-0.045	-0.225
-614.288	-200.000	0.004	0.116
-613.273	-59.623	0.259	-0.112
-612.259	69.365	0.181	-0.188
-611.244	70.758	0.034	-0.036
-610.230	-88.972	-0.234	0.070
-609.215	-148.459	0.086	0.007
-608.201	-158.088	-0.358	0.021
-607.186	800.000	0.149	0.521
-606.171	-20.782	-0.242	0.149
-605.157	-200.000	-0.028	0.199
-604.142	800.000	-0.086	-0.277
-603.128	800.000	-0.106	-0.389
-602.113	89.563	-0.164	-0.184
-601.098	262.907	-0.024	0.041
-600.084	301.675	-0.142	-0.264
-599.069	614.813	-0.043	0.108
-598.055	199.965	-0.062	-0.096
-597.040	-108.115	0.212	-0.046
-596.025	-56.449	-0.472	0.210
-595.011	797.516	0.050	0.138
-593.996	392.811	-0.059	-0.122
-592.982	127.376	-0.101	-0.129
-591.967	24.184	0.093	-0.077
-590.952	421.446	-0.198	-0.426
-589.938	-123.435	-0.279	0.045
-588.923	-72.312	0.114	0.042
-587.909	-44.992	-0.361	0.180
-586.894	55.800	0.122	0.119
-585.879	316.717	-0.177	-0.335
-584.865	309.996	-0.120	-0.226
-583.850	179.864	0.172	0.253
-582.836	144.731	-0.097	0.131
-581.821	215.753	-0.147	0.234
-580.806	-200.000	-0.023	0.138
-579.792	252.265	-0.116	0.198
-578.777	490.118	0.065	0.150
-577.763	-5.668	0.222	0.152
-576.748	800.000	0.035	0.113
-575.733	-84.589	-0.053	-0.017
-574.719	800.000	0.027	-0.084
-573.704	800.000	-0.039	0.166
-572.690	-71.137	0.186	-0.070
-571.675	-140.191	0.054	-0.006
-570.661	41.187	0.297	-0.270
-569.646	-122.612	-0.298	-0.049
-568.631	-93.863	0.226	0.062
-567.617	-85.535	0.032	-0.010
-566.602	-200.000	0.008	0.201
-565.588	769.904	-0.057	-0.157
-564.573	262.220	0.090	-0.157
-563.558	258.055	-0.124	0.213
-562.544	-12.786	-0.203	0.133
-561.529	258.177	0.179	-0.309
-560.515	800.000	-0.082	0.250
-559.500	8.492	0.165	0.125
-558.485	72.400	-0.179	0.187
-557.471	120.711	-0.072	-0.089
-556.456	37.345	-0.119	-0.106
-555.442	707.584	0.069	-0.183
-554.427	4.483	0.162	-0.119
-553.412	-158.840	-0.122	-0.007
-552.398	800.000	0.153	0.431
-551.383	85.586	0.184	0.203
-550.369	-97.722	-0.298	0.077
-549.354	40.327	-0.157	-0.142
-548.339	-200.000	0.017	-0.324
-547.325	-22.452	0.122	0.074
-546.310	800.000	-0.011	0.044
-545.296	-37.027	0.047	0.025
-544.281	46.832	0.075	-0.070
-543.266	447.635	0.107	-0.235
-542.252	-75.151	0.156	-0.056
-541.237	261.059	0.178	-0.309
-540.223	-91.451	-0.208	-0.059
-539.208	-10.931	0.195	-0.129
-538.193	-200.000	0.002	0.010
-537.179	50.786	0.307	0.291
-536.164	-46.790	-0.353	0.173
-535.150	-113.604	0.189	0.037
-534.135	-200.000	0.033	0.359
-533.121	-128.649	-0.237	0.034
-532.106	347.811	-0.063	-0.125
-531.091	-200.000	0.051	0.251
-530.077	216.789	0.108	-0.173
-529.062	-200.000	-0.009	-0.064
-528.048	121.081	-0.057	-0.071
-527.033	-162.937	0.043	0.002
-526.018	162.120	0.106	0.149
-525.004	-98.606	0.204	0.052
-523.989	800.000	-0.018	-0.061
-522.975	800.000	0.085	-0.291
-521.960	2.215	-0.307	0.222
-520.945	636.481	-0.124	0.315
-519.931	-177.757	0.321	-0.008
-518.916	800.000	-0.060	-0.236
-517.902	-99.195	0.249	-0.063
-516.887	120.663	0.090	-0.111
-515.872	-144.096	0.227	-0.021
-514.858	-200.000	0.027	-0.142
-513.843	490.714	-0.152	-0.348
-512.829	-200.000	0.008	-0.234
-511.814	0.726	-0.169	-0.121
-510.799	-115.379	0.260	0.049
-509.785	373.525	0.119	-0.242
-508.770	-200.000	0.003	-0.026
-507.756	104.076	-0.228	0.268
-506.741	109.966	-0.170	0.204
-505.726	336.582	0.167	-0.324
-504.712	56.968	-0.148	0.144
-503.697	-93.492	-0.352	-0.097
-502.683	137.180	-0.124	0.163
-501.668	36.251	0.266	0.234
-500.653	-69.532	-0.033	-0.012
-499.639	182.993	0.166	0.245
-498.624	85.350	0.057	0.062
-497.610	-85.992	-0.237	0.073
-496.595	-167.291	-0.305	0.012
-495.581	-196.596	0.193	0.001
-494.566	-96.939	0.346	0.091
-493.551	-97.562	0.170	0.044
-492.537	-176.321	-0.114	0.003
-491.522	591.904	0.063	0.156
-490.508	-120.568	-0.283	0.048
-489.493	-200.000	0.045	-0.221
-488.478	52.381	-0.110	0.104
-487.464	-31.275	0.076	0.043
-486.449	143.866	0.170	0.226
-485.435	-124.749	0.097	-0.015
-484.420	572.390	-0.099	0.241
-483.405	-44.153	-0.082	-0.041
-482.391	15.292	-0.230	0.180
-481.376	-115.309	0.280	-0.053
-480.362	-154.041	-0.120	-0.008
-479.347	467.308	-0.048	-0.107
-478.332	-19.775	-0.071	-0.044
-477.318	-130.061	-0.233	0.032
-476.303	12.384	-0.070	0.054
-475.289	164.572	-0.034	0.048
-474.274	-126.000	0.195	0.029
-473.259	-141.193	-0.074	0.008
-472.245	753.502	-0.051	-0.137
-471.230	31.834	-0.343	0.295
-470.216	8.027	0.157	-0.118
-469.201	-63.858	-0.091	-0.037
-468.186	546.538	0.155	-0.370
-467.172	-92.767	0.257	-0.072
-466.157	-200.000	-0.028	-0.167
-465.143	20.850	0.298	0.241
-464.128	196.688	-0.110	-0.168
-463.113	-51.453	-0.158	-0.074
-462.099	174.218	0.072	-0.104
-461.084	-200.000	0.018	-0.223
-460.070	-71.517	-0.195	-0.073
-459.055	59.962	0.210	0.207
-458.040	-200.000	-0.074	0.330
-457.026	67.016	-0.064	-0.065
-456.011	16.010	0.322	0.253
-454.997	-54.257	-0.260	0.118
-453.982	416.604	0.073	-0.156
-452.968	800.000	0.085	-0.307
-451.953	433.466	-0.088	0.190
-450.938	477.980	-0.066	0.149
-449.924	159.458	0.233	-0.324
-448.909	-52.714	0.162	-0.075
-447.895	-64.648	0.166	0.067
-446.880	2.938	-0.117	-0.085
-445.865	92.177	0.105	-0.118
-444.851	211.920	-0.093	-0.146
-443.836	-62.061	-0.289	0.120
-442.822	416.025	-0.152	0.323
-441.807	262.099	-0.102	0.176
-440.792	-9.902	0.125	-0.083
-439.778	-200.000	-0.003	0.068
-438.763	495.917	0.018	-0.042
-437.749	-71.918	0.414	-0.154
-436.734	-73.524	-0.196	0.071
-435.719	238.991	-0.048	0.080
-434.705	800.000	0.063	-0.215
-433.690	17.027	0.116	-0.092
-432.676	86.300	-0.198	0.217
-431.661	-145.309	-0.063	0.006
-430.646	-125.358	-0.075	-0.011
-429.632	-200.000	-0.013	0.111
-428.617	19.012	-0.227	0.182
-427.603	-200.000	-0.014	-0.105
-426.588	-87.244	0.039	-0.012
-425.573	-5.980	-0.297	0.202
-424.559	557.176	0.038	0.091
-423.544	-147.143	0.349	0.030
-422.530	16.035	-0.181	0.142
-421.515	-200.000	-0.059	0.441
-420.500	201.393	-0.105	-0.161
-419.486	39.644	-0.056	-0.050
-418.471	-200.000	0.015	0.193
-417.457	-100.866	0.309	0.076
-416.442	800.000	0.115	0.320
-415.428	155.268	0.138	-0.190
-414.413	333.705	-0.221	-0.426
-413.398	-35.488	-0.185	-0.100
-412.384	-43.925	-0.103	-0.052
-411.369	-40.525	-0.128	-0.066
-410.355	-200.000	0.037	-0.356
-409.340	421.334	-0.136	-0.291
-408.325	-54.385	0.243	0.110
-407.311	-200.000	0.013	-0.347
-406.296	126.389	-0.385	-0.485
-405.282	5.074	-0.128	-0.094
-404.267	483.289	-0.119	0.269
-403.252	-101.532	-0.073	-0.018
-402.238	79.161	-0.045	-0.048
-401.223	173.866	-0.154	-0.221
-400.209	11.280	-0.158	-0.120
-399.194	-2.418	0.199	0.139
-398.179	-34.039	-0.083	0.046
-397.165	-74.901	0.303	-0.108
-396.150	234.591	0.220	0.361
-395.136	-68.292	-0.245	0.095
-394.121	4.921	-0.316	-0.232
-393.106	9.387	0.230	0.174
-392.092	4.506	-0.123	-0.090
-391.077	61.353	-0.090	-0.089
-390.063	304.055	0.085	0.157
-389.048	-200.000	0.002	0.060
-388.033	-175.498	0.272	0.007
-387.019	-166.351	-0.088	-0.004
-386.004	-131.412	-0.154	0.020
-384.990	800.000	0.076	0.250
-383.975	-71.213	-0.535	-0.200
-382.960	255.275	-0.089	-0.152
-381.946	-46.432	-0.207	-0.101
-380.931	616.511	0.075	-0.187
-379.917	-184.063	0.346	0.006
-378.902	800.000	-0.042	-0.163
-377.888	41.727	0.017	0.016
-376.873	-200.000	-0.030	0.184
-375.858	-1.395	-0.284	0.199
-374.844	272.772	0.112	-0.197
-373.829	287.477	0.024	-0.044
-372.815	-111.064	-0.141	-0.029
-371.800	22.496	-0.090	-0.073
-370.785	800.000	0.094	0.326
-369.771	154.568	-0.120	-0.164
-368.756	800.000	0.076	0.251
-367.742	-46.194	0.105	0.051
-366.727	111.475	0.187	0.224
-365.712	-86.189	0.201	-0.062
-364.698	-55.299	-0.279	-0.125
-363.683	-123.504	-0.300	0.047
-362.669	202.184	0.137	0.211
-361.654	252.746	-0.173	0.293
-360.639	163.666	0.115	0.161
-359.625	-57.360	0.168	-0.073
-358.610	101.211	0.177	0.205
-357.596	22.967	0.113	-0.092
-356.581	-135.525	0.223	0.026
-355.566	318.107	0.173	-0.325
-354.552	166.295	-0.176	-0.248
-353.537	122.190	-0.102	0.126
-352.523	-128.243	0.471	0.067
-351.508	-2.833	-0.183	-0.127
-350.493	-200.000	-0.015	-0.154
-349.479	75.028	-0.204	-0.214
-348.464	314.193	0.219	0.409
-347.450	498.432	-0.065	-0.148
-346.435	35.176	0.101	-0.088
-345.420	27.955	0.133	0.112
-344.406	215.623	-0.151	0.238
-343.391	800.000	0.126	-0.402
-342.377	-200.000	-0.027	-0.131
-341.362	-0.827	0.090	0.063
-340.348	23.814	-0.090	0.074
-339.333	133.412	-0.072	0.092
-338.318	-176.063	0.525	-0.014
-337.304	-200.000	0.020	0.151
-336.289	-40.830	-0.149	-0.077
-335.275	105.116	-0.078	-0.091
-334.260	-200.000	0.046	-0.335
-333.245	-14.018	-0.076	-0.049
-332.231	-200.000	-0.007	0.158
-331.216	-200.000	0.050	-0.236
-330.202	-0.198	0.315	0.222
-329.187	44.522	-0.136	0.124
-328.172	-124.751	-0.280	-0.043
-327.158	549.235	0.019	0.046
-326.143	124.894	-0.034	-0.042
-325.129	-110.755	-0.142	0.029
-324.114	-109.283	0.139	-0.029
-323.099	-6.120	-0.121	-0.082
-322.085	-69.992	0.229	0.087
-321.070	800.000	-0.064	0.181
-320.056	-5.491	-0.257	0.175
-319.041	-144.911	-0.117	0.011
-318.026	-48.977	-0.125	0.059
-317.012	-2.389	0.197	-0.137
-315.997	-88.882	-0.211	0.062
-314.983	393.774	0.094	0.194
-313.968	158.192	0.130	-0.180
-312.953	800.000	-0.055	-0.189
-311.939	-200.000	0.079	0.400
-310.924	-200.000	-0.036	0.169
-309.910	-122.369	-0.332	-0.054
-308.895	331.243	0.008	-0.016
-307.880	80.671	0.232	0.248
-306.866	-30.164	-0.270	-0.152
-305.851	274.869	0.040	-0.071
-304.837	-102.833	0.245	-0.058
-303.822	90.977	0.040	-0.044
-302.807	-32.344	0.104	-0.058
-301.793	-112.456	-0.394	-0.078
-300.778	229.446	-0.183	0.297
-299.764	-200.000	0.008	0.212
-298.749	59.076	0.059	0.057
-297.735	243.530	0.144	-0.240
-296.720	-184.171	0.084	-0.001
-295.705	-111.916	0.284	0.057
-294.691	-36.418	-0.079	-0.042
-293.676	-200.000	0.064	-0.352
-292.662	-200.000	0.072	-0.385
-291.647	-200.000	0.008	0.233
-290.632	26.125	0.313	0.259
-289.618	597.287	0.061	-0.151
-288.603	-200.000	-0.013	-0.063
-287.589	-200.000	0.015	0.451
-286.574	2.853	0.087	0.062
-285.559	32.251	0.041	0.035
-284.545	-120.354	0.219	-0.037
-283.530	-200.000	-0.018	0.100
-282.516	307.572	-0.106	0.196
-281.501	-200.000	-0.009	0.057
-280.486	101.817	-0.120	0.139
-279.472	-24.384	-0.181	-0.107
-278.457	-13.136	0.272	-0.175
-277.443	56.859	0.146	-0.141
-276.428	-200.000	-0.003	-0.289
-275.413	-106.277	0.354	0.079
-274.399	58.686	-0.068	0.067
-273.384	28.332	0.123	-0.103
-272.370	800.000	0.074	0.213
-271.355	94.027	-0.043	-0.048
-270.340	49.943	0.136	-0.127
-269.326	128.431	0.043	0.054
-268.311	-200.000	-0.003	-0.193
-267.297	-80.117	-0.123	0.041
-266.282	800.000	-0.126	-0.357
-265.267	-124.170	0.404	-0.063
-264.253	-200.000	0.042	0.327
-263.238	-200.000	0.015	-0.138
-262.224	800.000	0.086	-0.364
-261.209	800.000	-0.053	-0.210
-260.195	204.853	0.058	-0.090
-259.180	446.070	-0.106	-0.231
-258.165	-111.883	-0.186	-0.037
-257.151	44.684	-0.102	0.093
-256.136	800.000	-0.003	0.013
-255.122	-122.836	-0.318	-0.051
-254.107	-48.016	0.023	-0.011
-253.092	40.949	-0.126	-0.113
-252.078	-60.487	0.273	0.115
-251.063	421.593	-0.035	-0.075
-250.049	-200.000	-0.055	0.315
-249.034	14.346	-0.174	0.134
-248.019	-128.158	-0.233	-0.033
-247.005	-200.000	0.074	-0.405
-245.990	-95.156	-0.294	0.078
-244.976	-29.293	0.096	0.054
-243.961	0.400	-0.108	-0.076
-242.946	-91.034	0.322	-0.092
-241.932	-34.379	-0.268	-0.145
-240.917	-200.000	0.001	-0.085
-239.903	177.017	0.091	-0.131
-238.888	-86.451	-0.144	-0.044
-237.873	601.971	-0.096	0.237
-236.859	-8.182	0.281	0.187
-235.844	-200.000	0.030	-0.348
-234.830	-200.000	-0.039	0.202
-233.815	-200.000	0.026	-0.153
-232.800	39.532	-0.259	-0.230
-231.786	-200.000	-0.028	0.185
-230.771	523.850	-0.031	-0.072
-229.757	-63.622	-0.103	0.042
-228.742	800.000	-0.072	-0.203
-227.727	-200.000	-0.012	0.291
-226.713	-200.000	-0.037	-0.267
-225.698	800.000	0.052	0.162
-224.684	-163.301	-0.057	0.003
-223.669	-92.097	-0.189	0.053
-222.655	62.917	-0.182	0.180
-221.640	-164.602	0.312	-0.014
-220.625	800.000	-0.048	0.169
-219.611	-96.838	0.375	0.097
-218.596	159.373	0.138	0.190
-217.582	-156.686	0.343	-0.021
-216.567	15.697	0.251	-0.195
-215.552	-11.473	-0.291	-0.189
-214.538	-200.000	-0.070	-0.494
-213.523	227.349	-0.103	0.165
-212.509	800.000	-0.030	-0.102
-211.494	115.460	0.356	0.430
-210.479	-111.747	-0.210	-0.042
-209.465	-200.000	0.022	0.324
-208.450	214.075	-0.175	-0.274
-207.436	-99.904	0.465	0.115
-206.421	800.000	-0.021	-0.080
-205.406	-200.000	0.009	0.076
-204.392	-75.150	0.248	0.088
-203.377	125.224	-0.115	-0.144
-202.363	-200.000	0.004	0.136
-201.348	82.822	-0.141	0.152
-200.333	558.656	0.117	0.280
-199.319	131.409	-0.090	-0.114
-198.304	22.093	-0.275	-0.222
-197.290	-77.983	-0.293	0.100
-196.275	-67.788	0.170	-0.066
-195.260	-66.362	0.209	-0.082
-194.246	87.446	0.165	0.181
-193.231	-200.000	0.034	0.148
-192.217	245.293	-0.113	0.188
-191.202	192.226	-0.080	0.119
-190.187	-32.265	-0.301	0.166
-189.173	-67.516	0.300	0.116
-188.158	-109.202	0.243	0.051
-187.144	-78.076	0.301	0.102
-186.129	-152.259	0.127	-0.009
-185.114	131.816	0.174	0.221
-184.100	-200.000	-0.010	0.351
-183.085	-35.478	0.178	0.095
-182.071	-97.628	-0.200	0.051
-181.056	-53.260	-0.195	-0.088
-180.042	75.077	-0.116	-0.120
-179.027	-140.354	0.133	0.014
-178.012	-28.562	0.171	0.098
-176.998	492.802	-0.161	-0.365
-175.983	800.000	-0.080	0.242
-174.969	333.188	-0.111	-0.212
-173.954	31.894	0.165	-0.140
-172.939	70.699	-0.037	-0.038
-171.925	-200.000	-0.056	-0.457
-170.910	31.141	-0.367	-0.311
-169.896	-120.392	-0.226	0.038
-168.881	-200.000	-0.005	0.047
-167.866	100.002	0.162	0.185
-166.852	156.044	-0.178	0.242
-165.837	-27.871	0.183	-0.104
-164.823	-14.498	0.280	-0.178
-163.808	-12.322	0.213	0.138
-162.793	-50.074	-0.282	-0.132
-161.779	119.293	0.026	0.031
-160.764	-23.421	-0.124	0.074
-159.750	-200.000	0.003	0.104
-158.735	65.229	0.212	0.212
-157.720	678.738	0.065	0.168
-156.706	85.895	0.276	0.299
-155.691	-181.976	0.048	0.001
-154.677	463.334	0.114	0.251
-153.662	-48.832	-0.264	-0.125
-152.647	800.000	0.126	0.422
-151.633	-71.840	-0.105	-0.039
-150.618	-36.082	-0.080	0.043
-149.604	11.419	-0.099	-0.074
-148.589	559.390	0.087	0.207
-147.574	460.989	-0.106	0.233
-146.560	-200.000	-0.025	-0.185
-145.545	276.736	0.128	0.225
-144.531	237.540	0.095	0.156
-143.516	297.774	0.087	0.158
-142.502	800.000	0.076	0.251
-141.487	36.806	-0.184	-0.160
-140.472	-200.000	-0.004	-0.119
-139.458	-200.000	0.028	-0.173
-138.443	273.598	0.134	-0.234
-137.429	-200.000	0.009	0.120
-136.414	-200.000	-0.000	-0.023
-135.399	349.595	-0.082	0.160
-134.385	-200.000	0.027	-0.290
-133.370	-160.755	0.202	0.011
-132.356	-13.846	-0.057	0.036
-131.341	-200.000	-0.027	0.249
-130.326	-57.435	0.132	-0.057
-129.312	360.972	0.156	0.308
-128.297	9.423	-0.224	0.167
-127.283	3.117	0.132	0.095
-126.268	-200.000	0.267	0.000
-125.253	165.914	0.060	-0.084
-124.239	-39.586	-0.078	-0.040
-123.224	-121.080	-0.292	0.048
-122.210	9.947	-0.195	0.146
-121.195	-80.044	-0.199	-0.066
-120.180	186.302	0.172	-0.252
