DTS Sentinel unit serial number:	SN413079Multiplexer serial number:	ORYXHardware model number:	OX4-SRSoftware version number:	ORYX F/W v4.00 Oryx Data Collector v3.7.2.0data status	okinstallation	princeton_trtdifferential loss correction	single-endedforward channel	channel 2reverse channel	N/Adate	2019/09/12time	18:57:49forward acquisition time	15.00reverse acquisition time	0.00gamma	496.2192k internal	0.2325k external	0.2325temperature offset calibration	1.0131default loss term (dB/km)	0.3790temperature slope calibration	1.0000multiplexer offset coefficient	1.0000multiplexer slope coefficient	1.0000fibre end	0.00T internal ref (°C)	32.81T ext. ref 1 (°C)	3.02T ext. ref 2 (°C)	27.35length (m)	temperature (°C)	Stokes	anti-Stokes-747.200	199.852	-0.363	-0.563
-746.185	4.940	-0.466	0.346
-745.171	2.500	0.163	0.119
-744.156	-40.537	0.201	0.105
-743.142	-172.609	0.488	0.016
-742.127	-64.206	0.415	-0.171
-741.112	211.099	0.441	0.700
-740.098	224.756	-0.151	0.247
-739.083	-34.964	0.264	0.145
-738.069	-200.000	-0.117	0.523
-737.054	-16.769	-0.482	0.307
-736.039	-65.952	-0.503	-0.203
-735.025	92.763	0.316	-0.359
-734.010	-200.000	-0.084	0.501
-732.996	-75.258	0.578	0.208
-731.981	-149.892	-0.653	0.051
-730.966	-7.135	0.411	-0.281
-729.952	579.158	-0.192	0.474
-728.937	-60.806	0.171	0.073
-727.923	-66.732	-0.696	-0.278
-726.908	-95.073	0.244	0.066
-725.894	-119.359	0.380	0.067
-724.879	86.997	-0.613	0.683
-723.864	180.300	0.362	0.535
-722.850	-0.582	-0.543	0.388
-721.835	-106.193	-0.469	-0.106
-720.821	181.643	0.123	-0.182
-719.806	-158.086	-0.400	0.024
-718.791	-200.000	-0.016	-0.184
-717.777	800.000	0.248	0.872
-716.762	757.577	0.151	0.413
-715.748	-20.499	0.373	-0.231
-714.733	244.795	0.233	-0.395
-713.718	-0.260	0.382	0.274
-712.704	-126.896	-0.664	0.099
-711.689	800.000	0.204	0.593
-710.675	-119.191	0.868	-0.153
-709.660	83.273	-0.298	-0.327
-708.645	511.181	0.275	-0.644
-707.631	-71.121	0.585	-0.222
-706.616	-200.000	0.002	-0.414
-705.602	-144.431	-0.422	0.039
-704.587	-200.000	0.003	0.482
-703.572	156.573	-0.210	-0.292
-702.558	-200.000	0.074	0.693
-701.543	570.866	0.148	-0.364
-700.529	26.013	0.533	0.448
-699.514	133.399	-0.137	-0.179
-698.499	-200.000	0.009	-0.410
-697.485	-53.875	-0.803	0.369
-696.470	90.181	0.103	-0.116
-695.456	-50.253	-0.597	0.284
-694.441	166.164	-0.782	1.115
-693.426	-141.180	0.301	0.031
-692.412	37.796	-0.391	0.350
-691.397	-143.172	0.493	-0.048
-690.383	204.226	0.179	-0.279
-689.368	182.882	0.572	-0.850
-688.354	118.637	-0.693	-0.862
-687.339	13.279	0.208	-0.162
-686.324	-146.382	-0.145	-0.013
-685.310	-111.094	0.426	-0.088
-684.295	26.395	-0.269	0.227
-683.281	-50.008	0.526	-0.251
-682.266	180.652	0.319	0.471
-681.251	182.859	-0.180	-0.267
-680.237	639.829	-0.279	0.715
-679.222	87.620	0.497	-0.554
-678.208	20.010	-0.620	-0.503
-677.193	-57.163	-0.234	0.104
-676.178	617.569	-0.245	-0.618
-675.164	-200.000	0.002	-0.807
-674.149	-68.327	0.836	0.327
-673.135	272.625	-0.285	0.506
-672.120	800.000	0.052	0.185
-671.105	474.793	0.361	0.821
-670.091	-200.000	0.061	0.455
-669.076	147.886	0.673	0.913
-668.062	222.583	0.385	-0.624
-667.047	-129.007	-1.140	-0.161
-666.032	21.088	0.412	0.337
-665.018	-135.076	0.650	0.079
-664.003	-23.122	0.862	0.522
-662.989	51.407	-0.448	-0.428
-661.974	-200.000	-0.123	0.594
-660.959	191.093	0.252	0.382
-659.945	-200.000	-0.035	-0.695
-658.930	432.106	-0.127	0.277
-657.916	-96.214	0.985	-0.263
-656.901	-88.635	0.530	0.159
-655.886	-135.262	-0.552	-0.067
-654.872	-23.841	0.241	0.145
-653.857	800.000	0.074	-0.308
-652.843	25.191	-0.191	-0.160
-651.828	-131.635	-0.602	-0.080
-650.814	21.796	0.741	0.607
-649.799	-151.018	-0.755	-0.057
-648.784	727.226	0.207	-0.555
-647.770	800.000	-0.303	-1.003
-646.755	102.044	-0.739	-0.867
-645.741	32.067	-0.235	0.204
-644.726	-74.591	0.352	-0.128
-643.711	-23.078	-0.552	-0.334
-642.697	-71.569	-0.518	-0.195
-641.682	61.364	0.301	0.301
-640.668	682.250	0.100	-0.262
-639.653	442.057	0.121	-0.265
-638.638	-75.822	0.521	-0.186
-637.624	800.000	0.086	0.279
-636.609	454.740	0.474	1.056
-635.595	-100.485	-0.522	-0.130
-634.580	252.462	-0.393	-0.673
-633.565	346.118	-0.188	0.372
-632.551	-48.574	-1.109	0.536
-631.536	78.405	0.537	-0.576
-630.522	375.875	-0.183	0.375
-629.507	-56.454	0.596	0.266
-628.492	-200.000	0.000	-0.927
-627.478	81.033	-0.423	0.458
-626.463	487.169	-0.232	0.531
-625.449	-20.439	0.572	-0.353
-624.434	-165.211	0.774	-0.034
-623.419	738.912	-0.269	0.726
-622.405	800.000	-0.109	-0.326
-621.390	343.764	-0.245	-0.483
-620.376	136.473	0.579	0.759
-619.361	-200.000	-0.133	-0.668
-618.346	800.000	0.243	0.813
-617.332	28.501	0.552	0.469
-616.317	118.205	0.242	0.300
-615.303	-96.549	-0.248	0.066
-614.288	-153.204	-0.817	-0.057
-613.273	27.884	-0.415	0.352
-612.259	-200.000	0.045	0.235
-611.244	-200.000	0.015	0.272
-610.230	54.212	0.675	-0.653
-609.215	-192.820	0.187	0.002
-608.201	600.529	-0.200	0.499
-607.186	209.020	-0.274	0.430
-606.171	-164.734	-0.764	0.035
-605.157	-19.641	-0.778	0.483
-604.142	-110.175	-0.737	0.154
-603.128	190.821	0.248	0.374
-602.113	321.328	-0.385	0.735
-601.098	-150.799	-0.467	-0.036
-600.084	-200.000	-0.051	-0.505
-599.069	-131.485	-0.975	-0.129
-598.055	744.057	-0.384	1.038
-597.040	-54.429	-0.335	-0.152
-596.025	-91.746	0.330	-0.094
-595.011	777.334	-0.200	0.548
-593.996	-141.598	-0.461	0.047
-592.982	-73.292	0.477	-0.175
-591.967	27.586	-0.274	0.232
-590.952	336.627	0.052	0.100
-589.938	800.000	0.077	0.313
-588.923	105.138	-0.734	-0.869
-587.909	800.000	0.162	0.484
-586.894	283.395	0.195	-0.351
-585.879	-75.747	0.610	-0.217
-584.865	-200.000	0.009	-0.358
-583.850	-122.510	-0.785	-0.128
-582.836	-164.350	0.503	0.023
-581.821	28.389	-0.429	0.363
-580.806	-200.000	-0.071	0.882
-579.792	-64.690	0.513	-0.209
-578.777	-8.702	-0.824	-0.555
-577.763	10.663	-0.206	0.157
-576.748	-132.373	-0.641	0.083
-575.733	-200.000	-0.023	0.381
-574.719	51.046	-0.121	0.115
-573.704	53.158	-0.393	-0.377
-572.690	-116.408	-1.355	-0.251
-571.675	-102.498	-1.002	0.240
-570.661	-54.095	-1.028	-0.469
-569.646	337.391	-0.327	-0.637
-568.631	-200.000	-0.065	0.309
-567.617	-145.021	-0.785	-0.072
-566.602	-91.146	-0.655	0.188
-565.588	111.274	-0.079	-0.095
-564.573	275.489	-0.151	-0.268
-563.558	258.522	0.469	-0.810
-562.544	255.417	-0.301	-0.517
-561.529	-133.775	-0.296	-0.037
-560.515	-21.107	-0.161	0.099
-559.500	71.690	-0.378	0.394
-558.485	282.216	-0.201	0.361
-557.471	-38.573	0.565	-0.299
-556.456	151.038	-0.599	0.816
-555.442	-156.317	0.889	-0.056
-554.427	142.766	0.319	0.424
-553.412	800.000	0.161	-0.571
-552.398	227.571	0.634	-1.032
-551.383	-82.884	0.230	-0.074
-550.369	-180.595	0.825	-0.017
-549.354	800.000	-0.224	0.689
-548.339	340.750	0.092	0.181
-547.325	-200.000	0.080	0.750
-546.310	63.375	0.572	-0.574
-545.296	-200.000	-0.054	0.408
-544.281	26.059	0.397	0.332
-543.266	81.744	-0.447	-0.485
-542.252	-200.000	-0.051	-0.272
-541.237	147.001	0.411	0.553
-540.223	-200.000	0.043	-0.489
-539.208	-82.612	-0.379	-0.123
-538.193	-88.014	-0.643	-0.193
-537.179	800.000	0.178	0.639
-536.164	800.000	-0.008	-0.029
-535.150	-15.843	-0.177	-0.113
-534.135	-200.000	-0.006	0.089
-533.121	95.076	-0.402	-0.459
-532.106	-200.000	0.033	-0.306
-531.091	-14.943	-0.751	-0.482
-530.077	14.119	0.095	-0.074
-529.062	-40.697	0.358	0.186
-528.048	113.912	0.167	0.203
-527.033	-91.266	-0.913	0.261
-526.018	679.735	0.398	-1.035
-525.004	193.569	-0.131	0.199
-523.989	-200.000	0.012	0.831
-522.975	18.766	0.322	0.258
-521.960	-88.667	-0.563	-0.168
-520.945	-18.378	-0.280	-0.175
-519.931	-47.034	0.396	0.193
-518.916	34.911	-0.602	-0.527
-517.902	233.938	-0.286	-0.471
-516.887	-23.522	-0.213	0.128
-515.872	43.908	0.280	0.256
-514.858	87.951	-0.607	0.673
-513.843	-163.817	0.213	-0.010
-512.829	89.716	-0.368	-0.411
-511.814	633.161	-0.283	0.716
-510.799	-3.099	0.698	0.487
-509.785	2.425	0.307	0.222
-508.770	-200.000	0.020	-0.191
-507.756	377.129	0.350	0.715
-506.741	-122.294	-0.430	-0.070
-505.726	104.463	-0.175	0.206
-504.712	800.000	-0.108	-0.355
-503.697	-81.385	-0.679	0.224
-502.683	800.000	-0.047	-0.206
-501.668	-33.262	0.441	0.244
-500.653	208.740	-0.527	0.824
-499.639	-200.000	0.017	-0.132
-498.624	276.657	0.061	0.108
-497.610	-86.009	-0.936	0.289
-496.595	-109.928	-0.111	0.023
-495.581	195.515	0.345	0.524
-494.566	-102.842	0.861	-0.205
-493.551	62.361	-0.537	0.536
-492.537	65.657	0.386	-0.390
-491.522	38.854	0.469	0.419
-490.508	-200.000	-0.026	-0.518
-489.493	201.390	0.564	-0.867
-488.478	262.939	-0.287	0.498
-487.464	-79.457	0.572	0.193
-486.449	268.209	0.543	-0.950
-485.435	90.725	0.448	0.502
-484.420	800.000	0.176	-0.531
-483.405	-200.000	0.016	0.230
-482.391	126.430	0.130	0.165
-481.376	131.144	-0.458	0.587
-480.362	730.495	-0.118	0.316
-479.347	66.060	-0.884	-0.896
-478.332	236.928	-0.490	-0.811
-477.318	-200.000	0.105	-0.746
-476.303	-200.000	-0.041	0.423
-475.289	0.941	-0.452	-0.324
-474.274	-200.000	-0.231	-1.075
-473.259	-30.754	-0.419	0.237
-472.245	-135.238	0.473	-0.057
-471.230	-200.000	0.050	-0.231
-470.216	-178.840	0.488	-0.011
-469.201	169.434	0.218	-0.311
-468.186	-200.000	0.062	-0.339
-467.172	-200.000	0.022	-0.218
-466.157	-104.063	-0.101	-0.024
-465.143	-200.000	0.105	0.878
-464.128	112.793	0.244	-0.295
-463.113	-106.499	-0.252	-0.056
-462.099	31.629	0.351	0.301
-461.084	-200.000	0.019	-0.413
-460.070	-147.695	-0.199	-0.017
-459.055	-113.315	0.921	0.181
-458.040	-200.000	0.008	-0.197
-457.026	-144.338	-0.525	-0.049
-456.011	478.253	0.173	0.390
-454.997	40.095	0.444	0.398
-453.982	127.184	-0.031	-0.039
-452.968	-136.812	0.354	-0.041
-451.953	-8.389	-1.162	-0.780
-450.938	2.218	-0.508	0.366
-449.924	800.000	-0.155	0.629
-448.909	-103.162	0.779	0.184
-447.895	504.246	-0.191	-0.441
-446.880	-145.504	-0.193	-0.017
-445.865	512.274	0.532	1.235
-444.851	-60.411	0.734	-0.311
-443.836	-200.000	-0.090	-0.650
-442.822	800.000	0.194	-0.616
-441.807	667.490	0.363	-0.936
-440.792	578.493	0.115	-0.282
-439.778	-200.000	0.164	0.826
-438.763	141.988	-0.084	-0.111
-437.749	-88.663	-0.035	0.011
-436.734	800.000	-0.097	-0.353
-435.719	42.465	-0.166	-0.151
-434.705	175.843	0.724	1.048
-433.690	-104.084	-0.334	-0.077
-432.676	237.195	-0.405	0.669
-431.661	-123.869	-0.484	-0.076
-430.646	-27.133	0.343	0.199
-429.632	-107.845	-0.225	-0.049
-428.617	-31.756	-0.115	0.064
-427.603	336.742	-0.383	-0.742
-426.588	-166.312	-0.277	-0.012
-425.573	-75.443	0.687	0.244
-424.559	-85.632	-0.236	0.073
-423.544	-200.000	-0.013	-0.430
-422.530	75.494	-0.281	0.295
-421.515	335.755	0.333	0.644
-420.500	-200.000	-0.080	-0.812
-419.486	-185.904	0.313	0.005
-418.471	-81.475	0.538	-0.176
-417.457	326.163	0.199	0.379
-416.442	-200.000	0.042	0.446
-415.428	-105.062	0.329	-0.075
-414.413	-106.506	0.596	0.132
-413.398	131.801	-0.385	0.493
-412.384	143.539	-0.431	-0.572
-411.369	-162.670	0.996	0.049
-410.355	-43.343	-0.106	-0.053
-409.340	201.423	-0.300	-0.460
-408.325	61.860	-0.252	-0.250
-407.311	-200.000	0.014	0.380
-406.296	320.767	0.152	-0.287
-405.282	-63.725	-0.477	0.195
-404.267	-118.867	-0.737	-0.129
-403.252	-200.000	0.072	-0.381
-402.238	-69.175	-0.334	-0.128
-401.223	276.444	-0.491	0.868
-400.209	-113.912	-0.190	0.037
-399.194	-154.363	0.591	0.040
-398.179	-57.427	-0.465	0.203
-397.165	76.901	-0.379	0.400
-396.150	-200.000	0.027	0.341
-395.136	276.758	-0.497	-0.879
-394.121	-84.911	0.272	-0.085
-393.106	-200.000	0.033	-0.239
-392.092	800.000	0.187	-0.573
-391.077	-64.421	0.790	-0.320
-390.063	82.124	-0.109	-0.118
-389.048	-200.000	0.048	-0.297
-388.033	-133.228	-0.114	-0.014
-387.019	65.971	-0.379	0.383
-386.004	-183.115	-0.255	0.004
-384.990	646.604	0.351	0.893
-383.975	158.011	-0.026	0.036
-382.960	0.376	-0.786	-0.558
-381.946	-52.994	0.804	-0.368
-380.931	228.229	-0.130	-0.211
-379.917	183.782	-0.239	0.351
-378.902	65.150	-0.263	0.264
-377.888	-105.074	0.388	0.088
-376.873	-20.278	-0.611	0.374
-375.858	546.689	-0.219	0.521
-374.844	193.736	0.147	0.222
-373.829	-39.601	-0.578	0.301
-372.815	-47.318	0.282	0.137
-371.800	188.514	-0.232	0.346
-370.785	800.000	0.064	0.213
-369.771	-200.000	0.117	0.565
-368.756	800.000	0.329	-0.943
-367.742	501.575	0.448	1.028
-366.727	-61.429	0.672	0.281
-365.712	-120.864	-0.476	-0.080
-364.698	800.000	0.254	0.760
-363.683	-152.412	-0.222	-0.016
-362.669	-87.936	-0.369	0.110
-361.654	-85.598	1.023	-0.316
-360.639	800.000	-0.110	-0.387
-359.625	51.996	0.306	-0.289
-358.610	72.255	-0.490	0.507
-357.596	115.998	0.664	-0.808
-356.581	478.417	-0.116	-0.261
-355.566	303.195	-0.289	-0.532
-354.552	-67.778	0.673	-0.262
-353.537	-137.361	0.219	-0.025
-352.523	58.052	0.250	-0.243
-351.508	-87.409	0.446	-0.134
-350.493	78.069	-0.198	0.210
-349.479	-200.000	0.077	-0.405
-348.464	-200.000	0.048	-0.336
-347.450	514.624	0.291	0.676
-346.435	14.121	0.241	0.186
-345.420	-9.912	0.590	0.390
-344.406	-129.150	0.506	0.070
-343.391	247.231	0.289	-0.486
-342.377	282.738	0.173	0.309
-341.362	-92.140	0.585	-0.164
-340.348	530.203	-0.382	-0.897
-339.333	103.755	0.235	-0.274
-338.318	-4.494	0.521	0.357
-337.304	113.118	0.363	0.437
-336.289	-106.990	0.517	-0.114
-335.275	-19.389	-0.253	0.156
-334.260	800.000	-0.236	0.778
-333.245	-61.415	0.718	0.300
-332.231	-200.000	-0.102	0.714
-331.216	-200.000	0.031	0.511
-330.202	800.000	-0.199	0.618
-329.187	-200.000	0.120	-0.693
-328.172	800.000	-0.333	-1.039
-327.158	-181.230	-0.347	0.007
-326.143	-200.000	-0.018	0.423
-325.129	410.430	-0.259	0.545
-324.114	-31.916	-0.239	0.133
-323.099	-107.498	-0.407	-0.088
-322.085	-38.531	0.577	-0.302
-321.070	-157.316	-0.157	-0.009
-320.056	-200.000	-0.144	0.720
-319.041	-200.000	-0.145	0.649
-318.026	56.542	0.289	-0.279
-317.012	-59.152	0.633	-0.271
-315.997	150.628	0.015	-0.020
-314.983	-153.110	0.504	-0.035
-313.968	163.228	-0.551	0.769
-312.953	-178.124	0.671	0.016
-311.939	-133.292	-0.857	-0.107
-310.924	-98.266	-0.641	0.163
-309.910	-103.907	0.934	-0.216
-308.895	-35.572	-0.156	0.084
-307.880	-196.778	-0.942	-0.006
-306.866	-110.156	0.143	0.030
-305.851	715.594	0.173	0.454
-304.837	-200.000	0.096	-0.729
-303.822	36.351	-0.506	0.443
-302.807	294.224	-0.091	-0.164
-301.793	800.000	0.151	0.601
-300.778	-130.178	0.278	0.038
-299.764	33.837	-0.220	0.190
-298.749	-78.297	-0.458	-0.156
-297.735	-89.610	-0.125	0.036
-296.720	-2.113	0.403	0.281
-295.705	-200.000	0.102	-0.915
-294.691	-131.990	0.404	0.052
-293.676	-170.371	0.504	-0.018
-292.662	66.971	-0.819	-0.827
-291.647	-104.383	0.765	0.176
-290.632	-88.686	-0.790	0.233
-289.618	800.000	0.181	-0.559
-288.603	-67.181	-0.728	0.284
-287.589	-14.763	0.375	-0.239
-286.574	195.892	0.263	-0.396
-285.559	35.185	0.715	-0.621
-284.545	-200.000	-0.125	0.782
-283.530	709.560	0.030	0.079
-282.516	-84.158	0.485	-0.153
-281.501	150.270	0.315	0.424
-280.486	295.747	-0.304	0.552
-279.472	-35.689	-0.318	0.171
-278.457	72.447	0.100	0.103
-277.443	-20.570	0.230	-0.140
-276.428	-14.727	-0.491	-0.312
-275.413	92.659	0.483	-0.540
-274.399	-200.000	-0.029	0.232
-273.384	800.000	0.133	0.371
-272.370	-112.987	-0.386	-0.076
-271.355	-100.190	0.210	-0.052
-270.340	326.100	0.324	-0.615
-269.326	800.000	0.121	-0.348
-268.311	-53.024	-0.604	0.275
-267.297	-105.686	-0.540	-0.121
-266.282	-200.000	0.078	-0.350
-265.267	-75.269	-0.185	-0.066
-264.253	-200.000	0.129	0.768
-263.238	-128.882	0.479	-0.067
-262.224	-128.274	0.168	-0.024
-261.209	57.565	-0.666	-0.645
-260.195	800.000	0.060	-0.212
-259.180	-116.127	-0.837	0.154
-258.165	236.464	-0.541	-0.887
-257.151	-200.000	0.072	0.479
-256.136	-42.767	-0.414	-0.209
-255.122	116.228	0.738	-0.895
-254.107	800.000	-0.217	0.654
-253.092	563.435	0.088	0.210
-252.078	-33.319	0.498	0.273
-251.063	6.490	-0.173	-0.127
-250.049	83.295	0.411	0.443
-249.034	269.621	0.271	-0.470
-248.019	187.259	-0.139	0.206
-247.005	-13.564	-0.587	-0.376
-245.990	-102.999	0.482	-0.113
-244.976	-127.924	1.181	-0.168
-243.961	377.631	-0.063	0.127
-242.946	-200.000	-0.041	0.420
-241.932	-200.000	0.087	-0.597
-240.917	-33.838	0.443	0.242
-239.903	-200.000	0.151	0.657
-238.888	-120.032	-0.513	0.087
-237.873	800.000	-0.203	-0.558
-236.859	800.000	0.120	0.459
-235.844	800.000	0.303	0.836
-234.830	800.000	-0.217	0.717
-233.815	800.000	0.422	-1.291
-232.800	-51.741	0.552	-0.255
-231.786	-33.612	0.450	-0.246
-230.771	-33.506	-0.212	-0.116
-229.757	-107.278	0.931	0.203
-228.742	51.416	0.268	-0.252
-227.727	60.430	0.574	0.562
-226.713	32.548	-0.560	0.478
-225.698	-200.000	-0.002	0.226
-224.684	-77.449	0.846	0.290
-223.669	-200.000	-0.079	-0.716
-222.655	-200.000	0.082	-0.444
-221.640	-200.000	0.074	0.670
-220.625	-4.160	-0.665	0.456
-219.611	-57.211	0.593	0.258
-218.596	-97.985	0.276	-0.070
-217.582	-114.394	-0.599	-0.114
-216.567	196.733	0.280	0.422
-215.552	784.834	-0.099	-0.268
-214.538	-200.000	-0.131	-0.779
-213.523	-200.000	0.008	-0.068
-212.509	-162.236	0.648	-0.032
-211.494	-200.000	0.095	0.727
-210.479	-200.000	-0.108	0.554
-209.465	-12.933	-0.263	0.169
-208.450	-103.589	-0.506	-0.117
-207.436	-200.000	0.038	-0.425
-206.421	-200.000	0.039	-0.202
-205.406	-37.941	1.209	-0.635
-204.392	-67.190	0.363	-0.141
-203.377	800.000	0.088	0.256
-202.363	-93.602	0.120	0.033
-201.348	102.166	0.043	-0.049
-200.333	795.906	0.219	-0.597
-199.319	-200.000	0.051	0.239
-198.304	800.000	-0.082	-0.307
-197.290	-200.000	0.032	-0.208
-196.275	-200.000	-0.018	0.130
-195.260	-119.605	0.296	0.051
-194.246	-14.819	0.966	0.612
-193.231	-200.000	-0.083	0.706
-192.217	8.813	0.851	0.634
-191.202	-200.000	0.095	-1.083
-190.187	303.606	-0.343	-0.628
-189.173	160.645	-0.180	0.249
-188.158	-132.388	0.270	-0.034
-187.144	125.312	0.072	-0.090
-186.129	-200.000	0.010	0.469
-185.114	597.474	0.147	-0.360
-184.100	-163.048	-0.279	0.013
-183.085	395.095	-0.258	0.531
-182.071	-200.000	0.096	-0.580
-181.056	135.406	-0.572	-0.735
-180.042	88.435	-0.335	-0.368
-179.027	-22.555	0.229	0.137
-178.012	-200.000	-0.075	0.394
-176.998	148.472	0.597	0.795
-175.983	-200.000	-0.120	0.536
-174.969	-131.285	-0.500	-0.065
-173.954	353.577	-0.348	-0.681
-172.939	14.231	-0.492	-0.378
-171.925	251.316	-0.270	0.453
-170.910	14.256	-0.663	-0.510
-169.896	-95.544	0.563	-0.149
-168.881	-156.184	0.626	-0.039
-167.866	-77.905	-0.432	-0.147
-166.852	800.000	0.232	-0.795
-165.837	-103.515	-0.081	0.019
-164.823	495.431	0.310	-0.704
-163.808	768.727	-0.120	0.323
-162.793	-200.000	0.094	-0.443
-161.779	-150.362	0.921	0.070
-160.764	118.859	0.158	0.193
-159.750	60.268	0.851	-0.830
-158.735	-2.752	-0.257	0.177
-157.720	-48.830	0.455	-0.215
-156.706	-102.127	0.441	-0.105
-155.691	35.907	-0.179	-0.155
-154.677	-200.000	0.054	-0.306
-153.662	145.704	0.405	-0.535
-152.647	-200.000	0.009	0.263
-151.633	27.414	-0.137	-0.114
-150.618	-127.262	0.208	-0.030
-149.604	102.989	0.435	-0.502
-148.589	195.933	0.196	0.294
-147.574	78.649	-0.080	0.084
-146.560	63.866	-0.410	0.406
-145.545	270.456	-0.155	-0.270
-144.531	-123.124	0.634	0.100
-143.516	-5.653	0.098	0.067
-142.502	161.450	0.616	0.850
-141.487	175.290	0.641	0.915
-140.472	-50.903	0.313	-0.145
-139.458	764.746	0.112	-0.300
-138.443	800.000	0.018	0.060
-137.429	-200.000	0.098	-0.429
-136.414	-159.161	-0.917	-0.051
-135.399	-200.000	0.058	-0.319
-134.385	-200.000	0.030	-0.534
-133.370	800.000	0.173	-0.590
-132.356	759.291	0.356	-0.950
-131.341	800.000	0.159	0.463
-130.326	-17.542	-0.362	0.224
-129.312	-12.705	-0.288	0.185
-128.297	-35.127	0.815	-0.438
-127.283	800.000	0.063	-0.221
-126.268	-39.040	0.536	0.278
-125.253	800.000	-0.111	-0.310
-124.239	234.449	0.267	-0.434
-123.224	-31.271	-0.247	0.137
-122.210	169.620	-0.397	-0.558
