DTS Sentinel unit serial number:	SN413079Multiplexer serial number:	ORYXHardware model number:	OX4-SRSoftware version number:	ORYX F/W v4.00 Oryx Data Collector v3.7.2.0data status	okinstallation	princeton_trtdifferential loss correction	single-endedforward channel	channel 2reverse channel	N/Adate	2019/09/18time	01:55:35forward acquisition time	60.00reverse acquisition time	0.00gamma	496.2192k internal	0.2349k external	0.2349temperature offset calibration	0.9985default loss term (dB/km)	0.3790temperature slope calibration	1.0000multiplexer offset coefficient	1.0000multiplexer slope coefficient	1.0000fibre end	0.00T internal ref (°C)	22.94T ext. ref 1 (°C)	0.17T ext. ref 2 (°C)	16.72length (m)	temperature (°C)	Stokes	anti-Stokes-747.200	-200.000	0.043	0.193
-746.185	-200.000	0.013	0.490
-745.171	-41.820	0.206	0.106
-744.156	201.357	0.096	0.147
-743.142	-200.000	0.014	0.219
-742.127	-186.750	-0.265	0.004
-741.112	-46.074	0.314	0.155
-740.098	-200.000	-0.079	0.000
-739.083	-138.987	0.420	0.045
-738.069	800.000	0.064	-0.204
-737.054	394.433	-0.149	-0.310
-736.039	-111.160	-0.548	0.112
-735.025	-200.000	-0.036	0.478
-734.010	93.884	-0.038	0.043
-732.996	-103.875	-0.309	-0.072
-731.981	-96.596	-0.106	-0.028
-730.966	-200.000	-0.019	0.187
-729.952	-53.760	-0.181	-0.082
-728.937	57.456	-0.034	-0.033
-727.923	-98.776	-0.255	-0.065
-726.908	-35.530	-0.125	-0.068
-725.894	-45.083	0.173	0.086
-724.879	625.631	-0.122	-0.307
-723.864	-5.062	-0.192	-0.132
-722.850	-200.000	-0.042	-0.285
-721.835	-116.239	-0.156	0.029
-720.821	-163.759	-0.329	-0.015
-719.806	155.066	-0.270	0.371
-718.791	-91.954	0.255	0.072
-717.777	-200.000	-0.001	-0.035
-716.762	800.000	0.120	-0.351
-715.748	-200.000	0.051	0.272
-714.733	800.000	-0.109	0.354
-713.718	718.499	-0.072	-0.191
-712.704	-200.000	-0.036	0.211
-711.689	-200.000	0.011	-0.192
-710.675	617.833	0.120	0.300
-709.660	135.832	0.137	-0.178
-708.645	125.981	0.164	-0.206
-707.631	-72.694	0.275	0.101
-706.616	381.321	-0.100	-0.204
-705.602	-98.165	0.291	-0.075
-704.587	208.841	-0.168	-0.262
-703.572	18.673	-0.323	-0.257
-702.558	-96.798	0.147	-0.038
-701.543	-38.342	0.164	0.087
-700.529	70.037	0.205	-0.211
-699.514	-80.443	-0.107	0.035
-698.499	-41.179	0.076	-0.039
-697.485	52.377	-0.162	-0.154
-696.470	439.233	-0.018	-0.039
-695.456	-200.000	-0.003	-0.133
-694.441	-0.496	-0.060	0.043
-693.426	-200.000	0.005	0.241
-692.412	-9.921	0.108	0.072
-691.397	-17.784	0.133	0.083
-690.383	-172.868	0.269	0.008
-689.368	-200.000	0.022	0.384
-688.354	134.665	-0.115	-0.148
-687.339	-200.000	0.023	0.223
-686.324	-117.280	0.300	-0.054
-685.310	-97.862	0.284	-0.073
-684.295	179.779	0.071	0.103
-683.281	-83.733	0.091	-0.029
-682.266	105.929	-0.171	-0.202
-681.251	800.000	-0.110	-0.412
-680.237	63.469	-0.150	0.150
-679.222	-127.432	0.006	-0.001
-678.208	800.000	0.091	0.315
-677.193	-48.354	0.250	-0.120
-676.178	-46.943	-0.418	0.204
-675.164	394.962	0.062	0.129
-674.149	-109.983	-0.269	-0.056
-673.135	-71.508	0.518	0.193
-672.120	19.427	-0.199	0.159
-671.105	183.962	-0.116	0.171
-670.091	5.275	-0.304	-0.223
-669.076	41.238	0.164	0.148
-668.062	-72.993	0.197	-0.072
-667.047	8.836	-0.084	-0.063
-666.032	-200.000	-0.000	0.244
-665.018	-154.355	-0.375	-0.025
-664.003	577.934	0.230	-0.560
-662.989	-18.757	0.223	-0.139
-661.974	-200.000	0.006	0.317
-660.959	55.198	-0.096	0.093
-659.945	-181.705	-0.371	-0.007
-658.930	-200.000	0.012	-0.152
-657.916	-68.731	-0.055	-0.021
-656.901	-42.481	-0.178	0.090
-655.886	-46.802	-0.207	0.101
-654.872	64.569	0.118	-0.118
-653.857	171.078	-0.152	-0.218
-652.843	800.000	-0.071	-0.271
-651.828	82.690	-0.213	0.231
-650.814	-94.131	-0.068	-0.019
-649.799	57.101	0.216	-0.209
-648.784	800.000	0.051	-0.200
-647.770	-10.532	-0.083	0.055
-646.755	-35.885	-0.069	0.037
-645.741	-45.446	-0.135	0.066
-644.726	-63.488	-0.268	0.110
-643.711	43.677	-0.163	0.148
-642.697	-159.375	-0.110	-0.006
-641.682	141.232	-0.131	-0.172
-640.668	800.000	0.018	0.061
-639.653	-151.655	0.225	0.016
-638.638	-184.497	-0.110	-0.002
-637.624	-200.000	0.039	0.284
-636.609	-43.182	-0.259	-0.131
-635.595	-140.868	0.213	0.022
-634.580	800.000	-0.125	-0.386
-633.565	-151.786	-0.136	0.010
-632.551	800.000	-0.069	-0.256
-631.536	-80.220	0.367	-0.122
-630.522	-36.208	-0.154	0.082
-629.507	-140.353	-0.399	-0.041
-628.492	-66.608	0.202	-0.080
-627.478	-168.435	-0.354	-0.013
-626.463	61.366	-0.193	0.190
-625.449	-200.000	0.094	0.425
-624.434	-149.045	0.364	-0.029
-623.419	208.711	0.127	-0.197
-622.405	800.000	0.027	-0.075
-621.390	164.490	0.164	0.229
-620.376	-97.545	0.339	-0.088
-619.361	800.000	-0.059	-0.246
-618.346	-200.000	-0.029	-0.265
-617.332	19.957	0.166	0.133
-616.317	-147.108	0.399	0.034
-615.303	255.190	0.145	0.246
-614.288	-46.403	-0.058	-0.029
-613.273	-200.000	-0.004	-0.420
-612.259	-114.183	-0.104	-0.020
-611.244	-8.725	-0.257	0.171
-610.230	-4.279	-0.131	-0.090
-609.215	225.850	-0.094	-0.151
-608.201	800.000	0.017	-0.062
-607.186	-200.000	0.009	-0.128
-606.171	245.800	0.195	0.327
-605.157	-142.824	-0.048	0.005
-604.142	136.817	-0.100	0.129
-603.128	-103.638	0.137	0.032
-602.113	334.381	-0.098	0.188
-601.098	293.595	-0.088	0.160
-600.084	-200.000	-0.043	0.210
-599.069	-49.994	0.062	-0.029
-598.055	-94.973	-0.153	-0.041
-597.040	182.544	-0.177	-0.259
-596.025	-22.342	-0.109	-0.065
-595.011	-70.836	0.145	0.054
-593.996	-70.946	-0.296	0.111
-592.982	-66.944	-0.115	-0.045
-591.967	-108.874	0.153	-0.033
-590.952	-37.616	-0.168	0.089
-589.938	-29.270	-0.277	0.157
-588.923	13.804	0.101	0.078
-587.909	-200.000	0.014	-0.190
-586.894	-22.160	-0.265	-0.160
-585.879	-122.907	-0.208	0.033
-584.865	-86.508	-0.124	-0.038
-583.850	800.000	-0.003	-0.010
-582.836	-200.000	-0.000	0.241
-581.821	123.481	0.101	0.125
-580.806	-200.000	0.031	0.310
-579.792	75.175	-0.337	-0.353
-578.777	-11.917	0.154	0.100
-577.763	-183.462	0.328	0.006
-576.748	800.000	0.092	-0.368
-575.733	-95.341	0.110	-0.029
-574.719	-62.053	-0.238	0.098
-573.704	800.000	0.079	-0.311
-572.690	175.946	0.033	0.047
-571.675	-27.158	0.222	0.128
-570.661	-131.081	0.153	-0.020
-569.646	-200.000	0.040	-0.176
-568.631	20.065	0.221	-0.177
-567.617	144.770	-0.137	-0.182
-566.602	-200.000	0.018	0.107
-565.588	-107.689	-0.171	0.037
-564.573	56.048	0.183	-0.176
-563.558	94.541	0.111	-0.125
-562.544	229.034	0.128	-0.207
-561.529	173.136	0.104	0.149
-560.515	-47.524	-0.294	0.142
-559.500	-30.441	0.100	-0.056
-558.485	-11.413	-0.132	0.086
-557.471	-196.983	0.139	-0.001
-556.456	800.000	-0.138	-0.450
-555.442	-68.665	-0.247	-0.095
-554.427	-52.364	0.114	0.052
-553.412	31.986	0.147	0.126
-552.398	3.788	0.153	-0.111
-551.383	-143.879	0.051	-0.005
-550.369	-39.839	0.108	-0.056
-549.354	-67.330	0.306	0.119
-548.339	482.645	0.006	-0.012
-547.325	-35.595	-0.403	-0.217
-546.310	-95.152	0.162	-0.043
-545.296	72.013	-0.089	-0.091
-544.281	-114.413	-0.352	-0.067
-543.266	43.918	0.120	-0.109
-542.252	202.616	0.126	0.192
-541.237	87.906	0.088	0.097
-540.223	87.684	0.027	0.030
-539.208	-126.796	-0.147	0.022
-538.193	46.182	-0.200	-0.183
-537.179	-33.365	-0.394	-0.216
-536.164	-24.124	-0.102	-0.060
-535.150	-59.488	-0.111	-0.047
-534.135	-62.908	0.043	0.018
-533.121	49.850	0.151	-0.141
-532.106	-16.779	-0.120	-0.075
-531.091	-200.000	0.010	0.596
-530.077	59.912	-0.208	-0.203
-529.062	270.007	-0.123	0.214
-528.048	-200.000	-0.024	0.210
-527.033	118.987	-0.190	-0.233
-526.018	138.836	-0.115	0.150
-525.004	-103.255	-0.239	0.056
-523.989	422.786	0.049	0.104
-522.975	-95.576	0.391	0.104
-521.960	113.261	0.219	-0.263
-520.945	800.000	0.033	0.095
-519.931	61.229	0.314	0.308
-518.916	-200.000	-0.021	0.245
-517.902	-200.000	-0.034	0.211
-516.887	-200.000	-0.044	0.307
-515.872	16.829	0.299	0.234
-514.858	270.442	-0.119	0.207
-513.843	-200.000	-0.040	0.502
-512.829	-20.640	0.213	-0.129
-511.814	209.457	-0.128	-0.199
-510.799	30.305	0.166	-0.140
-509.785	-4.898	-0.074	0.051
-508.770	82.040	-0.073	0.078
-507.756	610.523	0.084	0.207
-506.741	-200.000	0.044	-0.371
-505.726	-129.723	0.277	-0.038
-504.712	-148.664	-0.020	0.002
-503.697	-83.831	-0.150	-0.047
-502.683	800.000	0.054	0.209
-501.668	210.974	-0.101	-0.156
-500.653	-200.000	-0.007	-0.099
-499.639	800.000	0.121	0.463
-498.624	-105.424	-0.240	0.054
-497.610	12.975	0.036	0.028
-496.595	214.236	-0.065	-0.102
-495.581	-200.000	0.006	0.287
-494.566	25.049	0.148	0.121
-493.551	242.574	0.096	0.159
-492.537	-46.918	0.423	0.204
-491.522	141.460	0.222	-0.291
-490.508	-131.983	0.305	0.039
-489.493	-200.000	-0.066	-0.414
-488.478	75.333	0.168	0.175
-487.464	66.964	-0.220	0.222
-486.449	25.138	-0.216	0.177
-485.435	-200.000	0.001	0.053
-484.420	-53.769	-0.405	0.182
-483.405	-163.499	0.291	0.014
-482.391	-200.000	-0.263	0.001
-481.376	-21.983	-0.296	0.178
-480.362	450.903	-0.184	0.402
-479.347	145.049	0.174	-0.230
-478.332	-35.676	0.071	0.038
-477.318	-170.895	0.171	-0.006
-476.303	-93.264	-0.192	0.053
-475.289	-115.602	-0.262	0.049
-474.274	-98.338	-0.028	0.007
-473.259	-200.000	0.093	0.000
-472.245	-82.124	-0.186	0.060
-471.230	60.428	-0.208	-0.203
-470.216	-153.424	0.152	-0.010
-469.201	-50.091	0.138	-0.064
-468.186	1.748	0.048	0.034
-467.172	484.204	0.079	-0.177
-466.157	213.613	0.201	0.314
-465.143	-103.204	0.116	0.027
-464.128	-200.000	0.015	-0.196
-463.113	53.367	0.138	-0.130
-462.099	-73.001	-0.053	-0.019
-461.084	110.051	-0.010	-0.012
-460.070	-200.000	0.020	-0.211
-459.055	-65.176	-0.428	-0.170
-458.040	555.509	0.028	0.065
-457.026	261.360	0.169	0.288
-456.011	-126.850	-0.130	-0.019
-454.997	132.159	0.182	-0.231
-453.982	-200.000	-0.105	0.474
-452.968	-19.389	0.282	-0.173
-451.953	-130.791	-0.229	0.030
-450.938	-88.327	-0.239	0.071
-449.924	743.084	0.168	-0.445
-448.909	-112.617	0.154	-0.030
-447.895	165.277	0.062	-0.087
-446.880	-59.277	-0.126	0.054
-445.865	-35.598	-0.189	-0.101
-444.851	53.311	0.165	0.156
-443.836	-133.150	-0.119	0.015
-442.822	-184.299	0.047	0.001
-441.807	43.257	-0.032	0.029
-440.792	121.829	0.225	-0.277
-439.778	50.471	-0.227	-0.212
-438.763	-8.322	-0.319	0.212
-437.749	-22.573	-0.311	-0.186
-436.734	-49.075	-0.079	0.037
-435.719	276.410	0.134	-0.234
-434.705	800.000	-0.051	-0.140
-433.690	420.383	-0.130	-0.274
-432.676	800.000	0.022	0.070
-431.661	-120.887	-0.111	0.018
-430.646	67.547	-0.150	0.151
-429.632	-65.537	0.339	0.134
-428.617	800.000	-0.059	0.186
-427.603	341.831	-0.025	-0.048
-426.588	-200.000	0.063	0.335
-425.573	-160.856	-0.140	-0.007
-424.559	800.000	-0.122	-0.400
-423.544	-200.000	-0.003	-0.299
-422.530	149.683	0.098	-0.131
-421.515	-171.720	-0.293	0.010
-420.500	-200.000	0.024	0.131
-419.486	3.109	-0.265	-0.190
-418.471	159.517	-0.054	0.074
-417.457	-17.525	0.140	0.087
-416.442	-148.395	-0.096	0.008
-415.428	313.472	0.111	0.205
-414.413	800.000	0.067	0.249
-413.398	800.000	-0.087	-0.343
-412.384	711.977	-0.084	0.220
-411.369	-53.871	0.135	-0.061
-410.355	-31.019	0.065	-0.036
-409.340	-122.925	-0.167	-0.027
-408.325	-111.082	0.145	-0.029
-407.311	60.458	0.339	0.331
-406.296	-200.000	-0.020	0.111
-405.282	-121.572	-0.137	0.022
-404.267	92.765	-0.108	-0.121
-403.252	-200.000	-0.019	0.137
-402.238	-91.932	0.259	0.072
-401.223	170.120	-0.139	-0.196
-400.209	21.889	0.191	-0.153
-399.194	800.000	0.092	0.261
-398.179	154.792	-0.311	0.421
-397.165	16.120	0.107	0.083
-396.150	125.821	-0.145	-0.180
-395.136	-46.600	0.167	0.081
-394.121	253.806	0.175	0.294
-393.106	-122.541	-0.139	-0.022
-392.092	-200.000	-0.027	-0.144
-391.077	76.716	-0.277	0.289
-390.063	800.000	-0.173	-0.541
-389.048	150.884	0.054	-0.072
-388.033	710.154	0.116	-0.301
-387.019	-200.000	0.072	-0.416
-386.004	-175.785	-0.146	-0.004
-384.990	800.000	-0.114	0.334
-383.975	800.000	-0.122	-0.337
-382.960	452.906	-0.071	0.154
-381.946	800.000	-0.095	0.361
-380.931	93.697	-0.230	-0.256
-379.917	-200.000	0.006	-0.084
-378.902	-200.000	-0.050	0.354
-377.888	52.602	-0.327	0.307
-376.873	-200.000	0.009	0.187
-375.858	-200.000	0.002	-0.034
-374.844	-12.628	0.130	0.084
-373.829	-57.972	0.176	-0.076
-372.815	-26.286	-0.249	0.144
-371.800	435.827	0.179	-0.383
-370.785	399.236	0.208	-0.429
-369.771	-200.000	0.039	-0.273
-368.756	51.374	0.155	0.145
-367.742	14.098	0.243	0.186
-366.727	284.751	0.088	-0.155
-365.712	-68.856	-0.260	-0.099
-364.698	-101.659	0.394	0.094
-363.683	84.631	-0.135	-0.146
-362.669	-38.890	-0.188	0.098
-361.654	339.360	0.067	0.129
-360.639	-105.006	-0.371	0.084
-359.625	-159.980	0.108	-0.006
-358.610	-152.799	-0.262	-0.018
-357.596	-12.391	-0.100	-0.065
-356.581	488.847	0.106	0.239
-355.566	-200.000	-0.017	-0.282
-354.552	-52.226	-0.350	0.159
-353.537	-90.612	0.193	0.055
-352.523	-49.077	0.193	0.091
-351.508	800.000	-0.089	-0.257
-350.493	-200.000	-0.016	0.094
-349.479	-200.000	0.056	-0.298
-348.464	107.825	0.063	0.074
-347.450	375.120	-0.184	0.369
-346.435	-17.850	0.114	0.070
-345.420	-32.720	-0.109	-0.060
-344.406	101.617	0.272	-0.312
-343.391	-200.000	0.035	0.248
-342.377	78.039	0.051	0.053
-341.362	-200.000	-0.074	-0.366
-340.348	-43.065	0.201	0.100
-339.333	-15.925	-0.077	-0.048
-338.318	-20.883	-0.147	-0.088
-337.304	415.248	0.095	-0.199
-336.289	-26.814	0.169	0.097
-335.275	6.101	-0.051	0.037
-334.260	89.556	-0.084	0.092
-333.245	210.223	-0.138	0.213
-332.231	800.000	-0.080	-0.275
-331.216	25.988	0.245	-0.201
-330.202	-105.887	-0.239	0.053
-329.187	-119.338	-0.056	-0.010
-328.172	-73.485	-0.166	-0.059
-327.158	110.761	0.267	-0.316
-326.143	-55.681	-0.405	0.178
-325.129	800.000	-0.087	-0.290
-324.114	430.632	0.194	0.412
-323.099	-27.044	-0.189	-0.108
-322.085	350.315	-0.064	-0.124
-321.070	187.338	0.250	-0.366
-320.056	-38.441	-0.237	-0.123
-319.041	64.128	-0.247	0.244
-318.026	-38.207	0.038	-0.020
-317.012	127.751	0.121	-0.151
-315.997	-71.538	0.065	0.024
-314.983	-93.893	-0.532	-0.144
-313.968	167.095	-0.131	0.183
-312.953	-200.000	0.009	0.085
-311.939	-8.612	-0.285	-0.188
-310.924	-123.898	0.270	-0.042
-309.910	626.809	0.094	-0.234
-308.895	-200.000	-0.024	0.337
-307.880	-98.354	0.083	-0.021
-306.866	800.000	0.123	0.388
-305.851	-200.000	-0.010	0.126
-304.837	489.568	0.127	0.285
-303.822	2.161	0.214	0.152
-302.807	277.290	-0.084	-0.146
-301.793	-200.000	0.071	-0.315
-300.778	-200.000	0.005	0.063
-299.764	-33.375	0.367	-0.199
-298.749	-83.614	0.090	0.028
-297.735	-94.466	0.033	0.009
-296.720	140.773	0.125	0.162
-295.705	-73.250	-0.439	-0.158
-294.691	-200.000	0.006	0.252
-293.676	403.201	-0.025	0.053
-292.662	-80.900	-0.202	0.066
-291.647	800.000	0.030	-0.113
-290.632	76.911	-0.337	0.351
-289.618	-115.462	0.266	-0.049
-288.603	122.155	-0.062	-0.076
-287.589	800.000	0.012	0.049
-286.574	-21.880	0.211	-0.126
-285.559	-200.000	0.029	0.384
-284.545	138.467	0.090	0.116
-283.530	800.000	0.063	0.241
-282.516	800.000	0.072	0.206
-281.501	196.909	-0.115	0.172
-280.486	4.992	-0.158	0.114
-279.472	230.003	0.058	0.093
-278.457	156.243	-0.144	0.194
-277.443	-22.272	-0.188	0.112
-276.428	476.800	-0.040	-0.089
-275.413	-141.174	0.309	-0.031
-274.399	800.000	-0.108	0.349
-273.384	-163.458	-0.424	-0.020
-272.370	-161.464	0.317	-0.016
-271.355	368.422	-0.057	0.114
-270.340	800.000	0.052	-0.166
-269.326	-14.095	-0.180	0.114
-268.311	-135.442	0.038	0.004
-267.297	10.914	0.121	0.091
-266.282	800.000	-0.048	0.195
-265.267	-200.000	0.003	-0.029
-264.253	144.842	0.202	-0.265
-263.238	-79.633	0.292	0.097
-262.224	2.190	0.051	0.036
-261.209	-50.530	-0.230	0.106
-260.195	800.000	-0.038	0.120
-259.180	-200.000	-0.001	0.106
-258.165	93.656	-0.179	0.199
-257.151	-126.361	-0.259	0.038
-256.136	800.000	0.075	-0.209
-255.122	308.890	0.164	-0.300
-254.107	-200.000	-0.016	0.221
-253.092	86.734	-0.279	0.302
-252.078	-45.109	0.164	-0.080
-251.063	800.000	-0.096	-0.327
-250.049	-200.000	-0.006	-0.053
-249.034	-111.121	0.150	-0.030
-248.019	-58.943	0.229	-0.097
-247.005	-87.151	0.272	-0.081
-245.990	800.000	-0.015	-0.062
-244.976	800.000	0.045	-0.147
-243.961	800.000	0.106	0.298
-242.946	49.466	0.137	-0.126
-241.932	-32.711	0.230	-0.125
-240.917	31.452	0.259	0.218
-239.903	137.371	-0.157	-0.201
-238.888	210.329	-0.137	0.211
-237.873	-200.000	0.077	0.404
-236.859	-109.149	0.528	-0.110
-235.844	800.000	-0.171	-0.476
-234.830	-200.000	-0.003	0.019
-233.815	-90.168	-0.050	-0.014
-232.800	526.131	-0.164	-0.378
-231.786	17.113	0.024	-0.019
-230.771	-200.000	-0.017	-0.221
-229.757	-200.000	-0.010	0.217
-228.742	-44.551	0.134	-0.066
-227.727	58.560	-0.244	0.234
-226.713	800.000	-0.073	-0.267
-225.698	-60.895	0.175	-0.073
-224.684	475.644	0.172	0.380
-223.669	-11.295	-0.273	-0.176
-222.655	-130.801	0.296	0.039
-221.640	56.399	0.104	-0.099
-220.625	293.848	0.185	-0.331
-219.611	21.699	0.089	-0.071
-218.596	650.403	-0.154	0.385
-217.582	-106.772	-0.046	-0.010
-216.567	-142.324	0.369	0.036
-215.552	-200.000	-0.040	-0.259
-214.538	-19.256	0.188	-0.114
-213.523	-139.870	-0.284	-0.029
-212.509	207.836	0.121	0.185
-211.494	-96.679	0.154	0.040
-210.479	-200.000	-0.002	0.111
-209.465	-7.809	0.025	0.017
-208.450	-200.000	0.003	-0.326
-207.436	800.000	0.042	0.149
-206.421	-119.599	-0.123	-0.021
-205.406	-132.272	-0.106	-0.013
-204.392	-200.000	-0.041	-0.235
-203.377	-200.000	0.011	0.175
-202.363	279.290	0.101	0.175
-201.348	107.641	-0.164	-0.191
-200.333	-94.576	-0.189	-0.050
-199.319	-200.000	0.015	-0.126
-198.304	-200.000	-0.000	-0.197
-197.290	462.848	0.078	0.170
-196.275	148.229	0.153	0.202
-195.260	-132.924	-0.231	-0.029
-194.246	261.734	-0.092	0.155
-193.231	-149.095	-0.373	-0.029
-192.217	512.480	-0.126	-0.286
-191.202	27.436	-0.045	0.037
-190.187	-43.459	0.295	-0.145
-189.173	-9.119	-0.094	-0.062
-188.158	-200.000	0.031	0.136
-187.144	537.824	0.024	0.055
-186.129	79.832	0.403	-0.423
-185.114	-118.246	0.367	-0.064
-184.100	-110.456	0.258	-0.052
-183.085	-12.802	0.237	-0.151
-182.071	-97.294	0.417	-0.106
-181.056	13.398	0.117	0.089
-180.042	-27.033	0.071	0.040
-179.027	117.626	0.171	0.206
-178.012	-56.295	-0.056	-0.024
-176.998	-22.374	-0.123	0.073
-175.983	800.000	-0.121	-0.390
-174.969	106.191	0.063	-0.073
-173.954	-200.000	0.001	-0.471
-172.939	-200.000	-0.001	-0.293
-171.925	-123.301	0.096	-0.015
-170.910	-15.103	0.227	0.142
-169.896	-89.567	-0.182	-0.052
-168.881	-22.507	-0.124	-0.073
-167.866	-168.346	0.296	0.011
-166.852	-35.460	-0.299	-0.159
-165.837	-155.497	-0.059	0.004
-164.823	-200.000	-0.005	0.174
-163.808	-126.277	0.146	0.021
-162.793	-200.000	-0.015	-0.105
-161.779	415.822	0.055	-0.114
-160.764	800.000	-0.032	-0.093
-159.750	-200.000	0.023	0.118
-158.735	-169.060	0.213	0.008
-157.720	59.375	0.183	0.176
-156.706	-115.557	0.332	0.061
-155.691	107.776	0.075	0.087
-154.677	269.177	-0.109	-0.187
-153.662	-200.000	-0.028	0.152
-152.647	235.919	-0.152	0.246
-151.633	35.366	0.052	0.045
-150.618	-144.844	0.340	-0.030
-149.604	253.254	0.136	0.226
-148.589	481.710	0.115	0.255
-147.574	-114.597	-0.199	-0.037
-146.560	-200.000	-0.018	-0.104
-145.545	800.000	-0.051	-0.171
-144.531	56.719	0.125	-0.118
-143.516	736.549	0.046	0.121
-142.502	45.644	-0.109	0.098
-141.487	800.000	0.037	0.142
-140.472	-129.573	-0.181	-0.024
-139.458	800.000	0.054	0.179
-138.443	42.472	-0.227	0.201
-137.429	800.000	-0.015	-0.048
-136.414	-55.431	0.245	0.107
-135.399	83.681	0.235	0.250
-134.385	-45.821	-0.326	-0.157
-133.370	-40.321	0.364	0.185
-132.356	-200.000	-0.007	0.156
-131.341	-200.000	0.017	-0.142
-130.326	68.320	-0.199	0.199
-129.312	800.000	0.058	0.205
-128.297	-112.406	-0.136	-0.026
-127.283	330.203	-0.032	-0.061
-126.268	800.000	-0.016	0.067
-125.253	-55.983	0.113	0.049
-124.239	-129.290	-0.195	0.026
-123.224	99.874	-0.066	-0.075
-122.210	-143.933	0.076	-0.007
