DTS Sentinel unit serial number:	SN413079Multiplexer serial number:	ORYXHardware model number:	OX4-SRSoftware version number:	ORYX F/W v4.00 Oryx Data Collector v3.7.2.0data status	okinstallation	princeton_trtdifferential loss correction	single-endedforward channel	channel 2reverse channel	N/Adate	2019/09/12time	18:45:48forward acquisition time	15.00reverse acquisition time	0.00gamma	496.2192k internal	0.2323k external	0.2323temperature offset calibration	1.0132default loss term (dB/km)	0.3790temperature slope calibration	1.0000multiplexer offset coefficient	1.0000multiplexer slope coefficient	1.0000fibre end	0.00T internal ref (°C)	33.00T ext. ref 1 (°C)	2.98T ext. ref 2 (°C)	27.49length (m)	temperature (°C)	Stokes	anti-Stokes-747.200	439.849	0.216	0.476
-746.185	800.000	0.204	0.588
-745.171	-200.000	0.039	-0.567
-744.156	-200.000	0.027	-0.358
-743.142	67.553	-0.340	0.350
-742.127	-98.446	-0.302	0.078
-741.112	240.049	-0.409	0.687
-740.098	-200.000	-0.031	0.367
-739.083	-183.537	0.469	0.008
-738.069	209.902	0.368	-0.583
-737.054	-98.672	-0.672	0.173
-736.039	-107.703	-0.735	0.162
-735.025	-12.131	-0.402	0.266
-734.010	8.367	-0.370	-0.281
-732.996	-101.779	-0.295	-0.072
-731.981	-17.916	0.150	-0.095
-730.966	-80.042	0.593	-0.201
-729.952	-60.448	-1.298	-0.557
-728.937	258.910	-0.291	-0.506
-727.923	-80.126	0.650	-0.220
-726.908	0.583	-0.171	-0.123
-725.894	-114.744	-1.010	-0.195
-724.879	229.337	0.518	0.854
-723.864	21.396	0.553	-0.454
-722.850	-200.000	-0.099	-0.484
-721.835	55.359	0.583	-0.569
-720.821	-57.416	0.307	0.136
-719.806	-118.295	0.721	0.129
-718.791	372.443	0.117	-0.240
-717.777	-179.540	0.954	-0.021
-716.762	-75.422	0.174	0.063
-715.748	596.717	0.066	-0.164
-714.733	-83.063	0.429	-0.139
-713.718	78.484	0.107	-0.115
-712.704	-165.825	-0.304	0.013
-711.689	-30.003	-0.080	0.046
-710.675	66.402	-0.261	-0.268
-709.660	286.284	-0.265	-0.483
-708.645	-84.911	-0.182	0.057
-707.631	225.086	0.192	-0.313
-706.616	152.081	-0.254	-0.349
-705.602	599.803	-0.114	0.285
-704.587	-116.081	0.473	-0.089
-703.572	-200.000	-0.038	0.245
-702.558	-26.389	0.489	0.289
-701.543	22.185	0.641	-0.528
-700.529	-148.085	1.068	0.089
-699.514	699.536	0.307	-0.813
-698.499	58.224	0.229	0.227
-697.485	800.000	0.341	0.959
-696.470	-167.451	-0.128	0.005
-695.456	-30.186	0.421	-0.241
-694.441	137.430	-0.304	-0.401
-693.426	591.050	-0.413	1.026
-692.412	-108.337	0.426	0.093
-691.397	800.000	-0.067	-0.268
-690.383	675.932	0.154	-0.403
-689.368	61.714	0.198	0.198
-688.354	-84.200	0.353	-0.113
-687.339	-37.068	0.710	-0.383
-686.324	1.420	-0.562	-0.407
-685.310	-59.161	-0.161	0.070
-684.295	221.888	-0.448	-0.725
-683.281	16.875	-0.635	-0.507
-682.266	476.286	0.046	0.105
-681.251	-200.000	0.130	-0.647
-680.237	-17.441	-0.535	-0.339
-679.222	-45.926	-0.392	-0.195
-678.208	263.101	-0.180	-0.315
-677.193	118.749	-0.350	0.435
-676.178	-200.000	0.244	1.152
-675.164	800.000	0.111	-0.366
-674.149	-200.000	0.065	0.546
-673.135	-200.000	-0.014	-0.507
-672.120	99.690	-0.238	-0.278
-671.105	3.557	0.810	0.595
-670.091	-151.385	-1.510	-0.113
-669.076	800.000	-0.118	-0.480
-668.062	53.445	0.289	0.279
-667.047	368.675	-0.227	-0.462
-666.032	91.434	-0.663	-0.750
-665.018	-200.000	0.027	-0.140
-664.003	10.856	-0.819	0.630
-662.989	574.727	-0.033	-0.082
-661.974	-200.000	-0.081	1.400
-660.959	-87.872	0.608	-0.184
-659.945	-133.459	0.852	-0.108
-658.930	-200.000	0.061	-0.470
-657.916	-77.070	-0.754	0.264
-656.901	-53.770	-1.266	0.581
-655.886	56.915	0.204	0.200
-654.872	-91.117	-0.593	0.171
-653.857	-51.176	-0.857	0.404
-652.843	-103.115	0.781	0.186
-651.828	800.000	0.120	-0.436
-650.814	18.209	-0.105	-0.084
-649.799	-54.182	-0.416	0.190
-648.784	-124.955	0.375	-0.058
-647.770	63.965	-0.506	-0.512
-646.755	-91.489	-0.460	0.132
-645.741	17.522	0.521	-0.416
-644.726	667.148	-0.397	-1.031
-643.711	-87.806	-1.179	0.357
-642.697	328.143	0.421	0.812
-641.682	-52.234	-0.166	0.077
-640.668	-90.072	1.051	-0.308
-639.653	46.897	-0.563	0.527
-638.638	-13.900	-0.341	-0.221
-637.624	-200.000	0.025	0.523
-636.609	63.188	-0.185	-0.186
-635.595	-119.004	0.416	-0.073
-634.580	-8.301	0.273	-0.185
-633.565	-56.003	-0.608	-0.273
-632.551	-92.080	-0.072	-0.020
-631.536	0.308	0.281	0.201
-630.522	-27.488	-0.630	0.368
-629.507	-94.958	-0.689	0.187
-628.492	-80.966	0.713	0.237
-627.478	-200.000	-0.033	-0.664
-626.463	17.477	-0.419	-0.335
-625.449	-200.000	0.025	0.112
-624.434	-125.602	0.342	-0.052
-623.419	-136.104	1.188	-0.140
-622.405	4.722	0.335	-0.247
-621.390	302.422	0.369	0.687
-620.376	-31.200	-0.321	-0.182
-619.361	-91.980	-0.671	-0.191
-618.346	-110.595	-0.331	0.069
-617.332	662.304	-0.380	-0.983
-616.317	143.818	-0.335	-0.449
-615.303	-36.331	0.619	-0.335
-614.288	-53.541	-0.787	0.362
-613.273	800.000	0.306	0.991
-612.259	-68.183	-0.525	0.205
-611.244	163.121	0.590	0.833
-610.230	432.271	0.250	0.545
-609.215	62.394	0.607	0.608
-608.201	-200.000	-0.042	-0.420
-607.186	2.529	0.518	-0.377
-606.171	-19.210	-0.576	0.359
-605.157	-101.378	-0.153	-0.037
-604.142	703.086	0.503	-1.331
-603.128	-91.432	-0.225	0.064
-602.113	-117.687	0.947	-0.171
-601.098	-200.000	-0.114	-0.634
-600.084	-200.000	0.020	0.460
-599.069	-200.000	-0.022	-0.527
-598.055	-200.000	0.004	-0.258
-597.040	-119.963	-0.508	0.088
-596.025	364.924	0.232	0.470
-595.011	-17.023	-0.329	-0.209
-593.996	-121.745	0.478	-0.079
-592.982	-132.640	-0.396	0.051
-591.967	-200.000	-0.030	0.396
-590.952	679.809	0.126	-0.328
-589.938	74.433	-0.169	-0.179
-588.923	-76.894	-0.550	0.193
-587.909	43.548	-0.412	-0.378
-586.894	548.028	-0.222	0.535
-585.879	206.331	-0.225	0.352
-584.865	102.458	-0.244	0.286
-583.850	800.000	-0.070	0.284
-582.836	-200.000	0.012	0.197
-581.821	-200.000	-0.027	0.577
-580.806	800.000	0.055	-0.217
-579.792	-89.552	0.326	0.096
-578.777	-12.264	-0.537	0.352
-577.763	-85.332	-0.231	-0.072
-576.748	-36.192	-0.781	0.423
-575.733	-113.120	-0.431	-0.085
-574.719	-155.567	0.306	-0.020
-573.704	-39.310	-0.489	-0.258
-572.690	800.000	-0.113	0.411
-571.675	108.876	0.473	0.567
-570.661	775.642	0.057	0.156
-569.646	-53.501	1.015	0.466
-568.631	637.633	-0.159	-0.406
-567.617	-104.948	-0.617	-0.142
-566.602	-150.477	0.914	0.070
-565.588	483.416	0.145	-0.331
-564.573	75.952	0.091	-0.096
-563.558	262.980	0.138	-0.240
-562.544	290.009	-0.023	-0.042
-561.529	216.005	-0.168	-0.268
-560.515	-114.813	-0.757	-0.145
-559.500	33.374	0.651	0.566
-558.485	-200.000	-0.013	-0.292
-557.471	-124.939	0.237	0.037
-556.456	-42.069	0.344	-0.176
-555.442	-200.000	-0.037	0.868
-554.427	-1.601	0.292	-0.206
-553.412	800.000	0.087	0.266
-552.398	-129.158	-0.509	0.071
-551.383	800.000	-0.179	-0.528
-550.369	41.785	-0.716	0.650
-549.354	80.655	-0.253	0.273
-548.339	-200.000	0.033	0.392
-547.325	608.900	0.469	-1.174
-546.310	-165.877	0.452	-0.019
-545.296	-97.586	-0.557	0.145
-544.281	6.083	-0.130	0.096
-543.266	350.353	-0.421	0.833
-542.252	-98.109	0.141	0.036
-541.237	-200.000	0.002	-0.536
-540.223	-97.135	0.515	-0.135
-539.208	-125.874	-0.467	0.071
-538.193	-97.892	0.617	0.160
-537.179	207.561	-0.364	-0.568
-536.164	644.498	-0.111	-0.285
-535.150	-200.000	-0.096	-0.568
-534.135	-40.025	-0.444	0.232
-533.121	384.182	-0.148	-0.305
-532.106	-78.773	0.988	-0.338
-531.091	-177.131	-0.526	0.013
-530.077	-200.000	0.057	-0.258
-529.062	-200.000	-0.015	0.159
-528.048	-101.450	-0.498	0.121
-527.033	-87.221	0.711	0.216
-526.018	144.490	-0.576	-0.770
-525.004	389.760	-0.460	-0.955
-523.989	-55.898	0.378	0.169
-522.975	551.184	-0.366	0.879
-521.960	-200.000	-0.065	-0.438
-520.945	-95.488	0.189	-0.051
-519.931	18.526	0.395	-0.316
-518.916	800.000	0.158	0.546
-517.902	-54.639	1.133	0.513
-516.887	-4.618	-0.100	0.069
-515.872	732.946	-0.132	0.354
-514.858	-88.273	-0.474	0.142
-513.843	48.565	0.309	0.290
-512.829	800.000	-0.143	-0.415
-511.814	-64.098	-0.700	0.286
-510.799	700.030	-0.153	0.403
-509.785	-90.998	0.440	0.127
-508.770	417.584	-0.274	-0.585
-507.756	34.975	0.456	0.399
-506.741	-48.933	0.590	-0.283
-505.726	-113.666	1.323	-0.258
-504.712	800.000	0.290	-0.905
-503.697	-44.696	0.282	-0.141
-502.683	-200.000	0.143	0.851
-501.668	800.000	0.168	-0.659
-500.653	97.788	0.311	0.358
-499.639	-200.000	0.152	0.895
-498.624	-72.509	0.190	-0.070
-497.610	-200.000	-0.047	0.767
-496.595	-200.000	-0.173	-0.852
-495.581	-81.067	-0.127	0.042
-494.566	27.271	0.488	0.410
-493.551	298.968	0.247	0.454
-492.537	800.000	-0.197	-0.559
-491.522	-83.887	-0.438	-0.139
-490.508	-88.922	0.596	-0.177
-489.493	103.412	0.205	0.240
-488.478	-200.000	0.030	1.179
-487.464	-41.715	0.276	0.142
-486.449	-68.496	-0.483	0.187
-485.435	344.373	-0.176	-0.344
-484.420	376.512	0.408	-0.832
-483.405	166.955	-0.375	0.533
-482.391	-116.097	-0.718	-0.133
-481.376	-58.559	-0.369	-0.160
-480.362	-4.383	0.593	0.410
-479.347	-134.590	-0.247	-0.030
-478.332	-200.000	0.054	0.554
-477.318	531.939	0.263	0.621
-476.303	293.895	0.150	-0.273
-475.289	501.029	0.112	-0.257
-474.274	-200.000	0.036	0.465
-473.259	180.904	0.182	-0.267
-472.245	-67.414	-0.560	-0.220
-471.230	76.238	-0.378	-0.399
-470.216	-87.467	0.500	-0.151
-469.201	-61.588	-0.631	-0.264
-468.186	-180.279	1.011	0.021
-467.172	59.593	-0.388	-0.382
-466.157	-200.000	0.641	0.002
-465.143	59.426	0.529	0.520
-464.128	-53.228	-0.690	0.316
-463.113	597.115	0.134	-0.333
-462.099	-200.000	-0.074	0.504
-461.084	-30.884	0.054	0.031
-460.070	51.150	-0.104	-0.099
-459.055	61.954	0.430	-0.428
-458.040	136.891	-0.450	-0.587
-457.026	223.518	-0.304	0.490
-456.011	154.749	-0.515	-0.707
-454.997	26.971	0.407	-0.341
-453.982	-0.868	-0.118	0.084
-452.968	-70.743	1.026	0.387
-451.953	-54.364	-0.653	0.296
-450.938	-187.444	-0.454	-0.006
-449.924	554.543	-0.081	0.193
-448.909	-176.097	-0.134	-0.004
-447.895	324.269	-0.482	-0.918
-446.880	326.472	-0.067	0.127
-445.865	-117.864	0.373	0.067
-444.851	-5.776	0.191	0.130
-443.836	-79.617	1.122	0.378
-442.822	-200.000	0.004	-0.444
-441.807	-38.412	0.363	0.192
-440.792	17.398	0.450	0.356
-439.778	-48.474	0.473	-0.227
-438.763	55.699	-0.418	-0.405
-437.749	-200.000	-0.006	0.355
-436.734	-25.800	-0.151	0.089
-435.719	-200.000	0.018	-0.208
-434.705	65.394	-0.227	-0.229
-433.690	-200.000	0.072	0.394
-432.676	-200.000	-0.069	-0.317
-431.661	149.631	0.191	-0.259
-430.646	57.682	-0.342	0.334
-429.632	-45.593	-0.310	0.153
-428.617	-53.837	0.386	0.176
-427.603	1.539	0.558	0.400
-426.588	171.413	0.286	-0.409
-425.573	223.317	-0.513	-0.825
-424.559	169.563	-0.434	-0.618
-423.544	-200.000	0.001	-0.201
-422.530	0.361	-0.894	-0.636
-421.515	102.421	0.215	0.251
-420.500	458.088	0.382	0.846
-419.486	140.663	-0.389	0.513
-418.471	69.836	0.447	-0.459
-417.457	-126.120	-1.095	0.164
-416.442	-38.512	-1.141	-0.602
-415.428	286.868	-0.075	-0.136
-414.413	-49.909	0.430	0.203
-413.398	800.000	0.083	0.230
-412.384	-200.000	0.106	-0.700
-411.369	-200.000	0.049	0.431
-410.355	-137.684	-0.752	-0.084
-409.340	-75.343	0.532	-0.189
-408.325	-110.967	-0.228	-0.047
-407.311	-18.910	0.278	-0.172
-406.296	800.000	-0.120	-0.447
-405.282	297.005	0.430	0.786
-404.267	93.906	-0.432	0.488
-403.252	-40.985	-0.689	-0.355
-402.238	-200.000	0.161	-0.861
-401.223	17.251	0.909	-0.719
-400.209	-200.000	0.029	-0.289
-399.194	-200.000	0.090	0.521
-398.179	753.478	-0.203	0.546
-397.165	762.336	-0.215	-0.582
-396.150	-200.000	0.443	-0.000
-395.136	-80.492	-0.249	0.083
-394.121	-184.191	-0.327	0.005
-393.106	342.488	-0.126	0.245
-392.092	-17.789	0.641	0.400
-391.077	-21.624	0.491	0.298
-390.063	-200.000	-0.061	0.468
-389.048	-200.000	-0.179	-0.846
-388.033	800.000	0.155	0.447
-387.019	227.861	0.254	0.411
-386.004	-27.722	-0.249	0.144
-384.990	-200.000	0.046	0.268
-383.975	519.571	0.201	-0.470
-382.960	47.113	0.328	-0.304
-381.946	627.958	0.259	0.651
-380.931	800.000	-0.027	-0.102
-379.917	-18.944	-0.562	-0.348
-378.902	156.329	0.567	0.778
-377.888	-106.538	-0.230	-0.051
-376.873	56.276	0.106	0.103
-375.858	493.450	0.288	-0.657
-374.844	-200.000	0.032	-0.282
-373.829	-45.138	-0.772	0.382
-372.815	0.198	-0.531	0.377
-371.800	270.724	0.543	0.950
-370.785	104.614	-0.211	0.247
-369.771	-151.459	0.281	-0.021
-368.756	-97.566	0.202	-0.052
-367.742	-52.493	-0.752	-0.346
-366.727	-5.176	0.520	-0.356
-365.712	-104.099	0.682	-0.158
-364.698	800.000	0.278	-0.995
-363.683	-97.909	0.663	-0.170
-362.669	-145.778	0.558	0.049
-361.654	21.530	0.304	-0.246
-360.639	291.723	0.224	0.406
-359.625	800.000	-0.073	0.254
-358.610	-38.717	-0.919	0.482
-357.596	-6.537	-0.250	-0.169
-356.581	-41.649	0.432	0.221
-355.566	-156.156	-0.693	0.043
-354.552	-5.697	0.785	0.535
-353.537	-89.373	-0.359	-0.105
-352.523	-183.007	0.264	0.005
-351.508	-200.000	-0.154	0.916
-350.493	2.492	-0.537	-0.386
-349.479	155.795	0.607	0.832
-348.464	-178.118	0.288	-0.007
-347.450	-200.000	-0.108	0.587
-346.435	800.000	-0.208	0.751
-345.420	-161.712	0.565	-0.029
-344.406	-60.792	0.388	-0.163
-343.391	97.206	0.748	-0.854
-342.377	800.000	-0.230	0.782
-341.362	640.354	-0.357	-0.904
-340.348	-102.899	0.588	0.139
-339.333	212.464	0.234	0.366
-338.318	80.319	-0.153	-0.163
-337.304	289.604	0.331	-0.598
-336.289	136.443	0.475	0.616
-335.275	196.508	0.339	-0.513
-334.260	-60.682	-0.574	0.242
-333.245	-200.000	0.077	0.373
-332.231	-60.310	0.545	0.231
-331.216	-159.436	-0.814	0.045
-330.202	-200.000	0.175	-1.251
-329.187	-200.000	-0.106	0.526
-328.172	-200.000	0.068	0.753
-327.158	-56.845	-0.246	0.108
-326.143	74.656	0.144	-0.151
-325.129	800.000	-0.098	-0.369
-324.114	800.000	-0.065	-0.187
-323.099	-127.089	0.561	0.082
-322.085	-47.654	-0.574	-0.276
-321.070	101.908	-0.184	-0.213
-320.056	71.552	-0.473	-0.488
-319.041	126.220	0.601	-0.755
-318.026	273.828	-0.284	-0.498
-317.012	-70.105	-0.530	-0.200
-315.997	54.446	-0.675	-0.646
-314.983	105.472	-0.094	0.111
-313.968	-15.419	1.117	-0.708
-312.953	-24.405	-0.487	0.288
-311.939	-140.947	0.448	0.046
-310.924	44.125	0.540	0.492
-309.910	-117.224	-0.506	0.091
-308.895	-79.553	0.624	0.209
-307.880	-200.000	-0.100	-0.628
-306.866	-164.406	-0.983	0.045
-305.851	58.350	0.467	-0.455
-304.837	-159.784	-0.186	0.010
-303.822	-200.000	-0.013	0.168
-302.807	237.938	0.177	0.292
-301.793	-129.295	0.301	0.042
-300.778	673.609	-0.175	-0.451
-299.764	7.216	-0.156	-0.116
-298.749	85.931	0.249	-0.272
-297.735	-73.217	0.330	-0.120
-296.720	-200.000	-0.130	-0.725
-295.705	276.408	0.489	0.862
-294.691	-59.291	0.978	-0.418
-293.676	139.504	-0.336	0.439
-292.662	-136.475	0.316	-0.036
-291.647	103.644	-0.158	-0.184
-290.632	-200.000	0.052	-0.304
-289.618	-13.000	-0.440	-0.284
-288.603	-200.000	-0.062	0.468
-287.589	79.423	-0.103	0.109
-286.574	-200.000	-0.055	0.393
-285.559	-13.611	0.503	0.323
-284.545	-200.000	-0.123	-1.106
-283.530	-126.671	-0.444	0.065
-282.516	-40.922	0.699	0.359
-281.501	-136.779	-0.622	0.071
-280.486	-36.490	-0.596	0.318
-279.472	184.206	0.268	-0.394
-278.457	-200.000	0.170	0.893
-277.443	133.709	-0.218	0.280
-276.428	-41.845	0.468	0.238
-275.413	225.652	0.372	-0.597
-274.399	-80.926	0.179	-0.059
-273.384	-130.385	-0.262	-0.035
-272.370	453.059	0.080	-0.176
-271.355	-122.534	0.407	-0.066
-270.340	139.910	-0.357	-0.466
-269.326	800.000	0.158	0.595
-268.311	65.187	-0.047	0.047
-267.297	-200.000	-0.060	0.561
-266.282	434.981	0.289	-0.622
-265.267	-130.727	0.358	-0.048
-264.253	51.188	-0.308	0.289
-263.238	-72.601	0.203	0.074
-262.224	165.000	-0.155	-0.217
-261.209	341.817	0.467	-0.905
-260.195	-109.288	-0.578	0.121
-259.180	-200.000	0.011	-0.178
-258.165	211.775	-0.294	0.459
-257.151	-44.321	0.629	0.312
-256.136	694.159	-0.349	0.907
-255.122	-12.334	-0.227	0.147
-254.107	-163.395	1.182	0.056
-253.092	-129.248	-0.498	-0.069
-252.078	-200.000	-0.006	0.125
-251.063	-51.932	0.651	0.300
-250.049	-129.336	-0.286	0.039
-249.034	-59.602	0.391	0.166
-248.019	-200.000	-0.038	-0.698
-247.005	287.460	-0.114	-0.204
-245.990	201.079	0.501	-0.763
-244.976	-200.000	-0.066	0.468
-243.961	800.000	-0.074	-0.270
-242.946	-200.000	0.034	0.148
-241.932	-71.160	-0.454	-0.169
-240.917	-107.352	-0.448	0.097
-239.903	-108.103	0.558	0.120
-238.888	398.448	0.401	-0.830
-237.873	-156.579	-0.499	-0.031
-236.859	-200.000	-0.114	0.585
-235.844	-200.000	0.017	-0.091
-234.830	-71.267	-0.651	0.242
-233.815	-123.938	-0.271	0.042
-232.800	-130.333	0.396	-0.053
-231.786	800.000	0.213	-0.655
-230.771	61.053	-0.703	-0.691
-229.757	-100.297	-0.038	0.009
-228.742	6.408	-0.205	-0.150
-227.727	125.483	0.206	0.257
-226.713	-12.692	0.418	0.270
-225.698	45.077	-0.382	0.348
-224.684	-118.158	-0.445	-0.078
-223.669	800.000	-0.288	0.873
-222.655	574.282	0.231	-0.558
-221.640	800.000	-0.277	-0.779
-220.625	-12.832	0.324	-0.209
-219.611	255.178	0.515	-0.873
-218.596	30.893	-0.072	-0.061
-217.582	-139.163	0.544	0.058
-216.567	-200.000	-0.115	-0.855
-215.552	66.105	-0.147	-0.148
-214.538	-180.850	-0.828	0.017
-213.523	-61.924	0.451	-0.187
-212.509	-166.885	-0.499	0.020
-211.494	-116.346	1.067	0.195
-210.479	-125.594	-0.947	-0.142
-209.465	483.640	-0.069	-0.154
-208.450	137.357	-0.039	-0.050
-207.436	66.399	-0.594	-0.596
-206.421	-200.000	-0.070	-0.345
-205.406	-200.000	-0.034	0.496
-204.392	105.832	0.235	0.274
-203.377	43.484	-0.233	0.210
-202.363	-117.066	-0.299	-0.054
-201.348	76.874	-0.205	0.215
-200.333	800.000	0.129	0.546
-199.319	48.864	-0.612	0.567
-198.304	130.116	-0.168	0.212
-197.290	13.901	0.501	-0.385
-196.275	90.194	-0.474	-0.524
-195.260	277.657	-0.231	0.407
-194.246	168.978	-0.534	0.752
-193.231	38.218	0.092	0.081
-192.217	590.661	0.323	-0.788
-191.202	-32.257	0.529	-0.292
-190.187	49.884	-0.242	-0.225
-189.173	-200.000	0.092	0.424
-188.158	-121.981	-0.243	-0.040
-187.144	800.000	0.378	-1.168
-186.129	-200.000	-0.036	-0.617
-185.114	-143.405	0.690	0.065
-184.100	800.000	-0.123	0.398
-183.085	-143.277	-0.702	0.067
-182.071	-127.798	0.202	-0.029
-181.056	-161.714	-0.794	-0.040
-180.042	-200.000	0.139	-0.822
-179.027	800.000	-0.120	0.370
-178.012	509.224	-0.222	0.510
-176.998	47.765	0.225	-0.207
-175.983	800.000	-0.207	-0.698
-174.969	-179.733	-0.702	-0.015
-173.954	-200.000	0.134	0.764
-172.939	-72.669	-1.109	0.404
-171.925	-128.209	-1.017	-0.143
-170.910	-84.658	-0.418	0.130
-169.896	-200.000	-0.107	0.533
-168.881	-159.480	1.214	-0.067
-167.866	-114.958	-0.117	-0.022
-166.852	800.000	0.216	0.645
-165.837	274.192	0.753	1.316
-164.823	-59.402	0.145	0.061
-163.808	800.000	-0.065	-0.217
-162.793	200.170	-0.237	-0.359
-161.779	266.275	0.311	-0.536
-160.764	-200.000	-0.217	0.957
-159.750	100.916	0.154	0.177
-158.735	-4.398	-0.306	-0.209
-157.720	242.324	-0.200	0.330
-156.706	-185.931	-0.278	-0.004
-155.691	800.000	-0.257	0.943
-154.677	57.014	0.652	-0.627
-153.662	-36.276	0.471	0.250
-152.647	284.566	-0.259	0.460
-151.633	-58.820	-0.613	0.262
-150.618	-35.885	-0.283	0.151
-149.604	12.713	0.339	-0.258
-148.589	-59.938	0.260	0.109
-147.574	-45.532	-0.321	0.157
-146.560	-173.458	-0.316	0.009
-145.545	-136.210	-1.002	0.116
-144.531	-128.112	0.744	-0.105
-143.516	-146.505	0.661	0.057
-142.502	-35.457	-0.411	0.220
-141.487	1.485	0.360	-0.255
-140.472	0.166	-0.299	-0.210
-139.458	16.328	-0.605	-0.471
-138.443	-69.491	-0.793	-0.300
-137.429	200.846	-0.363	0.551
-136.414	-200.000	0.000	-0.019
-135.399	800.000	0.293	-0.905
-134.385	193.131	0.178	-0.265
-133.370	-200.000	0.021	-0.134
-132.356	-47.481	0.765	0.366
-131.341	14.378	-0.403	-0.310
-130.326	679.021	-0.179	0.459
-129.312	250.556	0.343	0.575
-128.297	-200.000	0.080	-0.986
-127.283	223.063	0.190	-0.302
-126.268	-200.000	0.113	-0.506
-125.253	-200.000	-0.048	1.230
-124.239	-200.000	0.175	0.852
-123.224	28.059	-0.462	0.384
-122.210	74.423	0.512	-0.531
