DTS Sentinel unit serial number:	SN413079Multiplexer serial number:	ORYXHardware model number:	OX4-SRSoftware version number:	ORYX F/W v4.00 Oryx Data Collector v3.7.2.0data status	okinstallation	princeton_trtdifferential loss correction	single-endedforward channel	channel 2reverse channel	N/Adate	2019/09/12time	12:17:10forward acquisition time	60.00reverse acquisition time	0.00gamma	496.2192k internal	0.2299k external	0.2299temperature offset calibration	1.0074default loss term (dB/km)	0.3790temperature slope calibration	1.0000multiplexer offset coefficient	1.0000multiplexer slope coefficient	1.0000fibre end	0.00T internal ref (°C)	40.62T ext. ref 1 (°C)	2.01T ext. ref 2 (°C)	35.25length (m)	temperature (°C)	Stokes	anti-Stokes-747.200	19.740	0.097	-0.079
-746.185	124.638	-0.138	0.177
-745.171	-17.726	0.169	0.108
-744.156	513.070	0.139	0.331
-743.142	-178.378	-0.329	-0.008
-742.127	-200.000	0.036	0.391
-741.112	126.351	0.098	0.127
-740.098	-113.337	-0.252	0.050
-739.083	716.600	-0.137	0.372
-738.069	364.851	-0.200	0.411
-737.054	370.041	-0.097	-0.201
-736.039	-41.030	-0.156	0.082
-735.025	-57.641	-0.222	-0.099
-734.010	-200.000	-0.049	-0.245
-732.996	-51.371	-0.376	-0.179
-731.981	-200.000	-0.018	0.333
-730.966	-200.000	0.009	0.277
-729.952	7.581	-0.152	-0.116
-728.937	-38.739	0.219	-0.118
-727.923	-72.846	-0.046	-0.017
-726.908	655.604	0.056	0.146
-725.894	-146.070	0.467	0.042
-724.879	-200.000	-0.001	0.033
-723.864	512.977	-0.080	0.190
-722.850	604.371	0.021	-0.052
-721.835	323.976	0.126	0.245
-720.821	-38.722	-0.089	0.048
-719.806	-150.373	0.073	0.006
-718.791	-153.250	0.169	0.012
-717.777	36.955	-0.219	-0.198
-716.762	65.081	0.384	-0.396
-715.748	800.000	-0.052	0.192
-714.733	-200.000	-0.005	-0.376
-713.718	-188.933	0.198	0.002
-712.704	-149.653	-0.129	-0.010
-711.689	-200.000	0.028	0.271
-710.675	-81.202	0.267	0.090
-709.660	-95.115	0.132	-0.036
-708.645	-106.546	-0.122	-0.028
-707.631	370.562	-0.096	-0.199
-706.616	-27.306	-0.292	0.173
-705.602	-200.000	-0.007	0.441
-704.587	-200.000	0.025	0.595
-703.572	-159.524	0.313	0.018
-702.558	464.729	-0.044	0.100
-701.543	40.314	-0.091	-0.084
-700.529	-200.000	-0.022	-0.144
-699.514	412.698	-0.097	0.209
-698.499	633.894	0.131	0.339
-697.485	428.045	0.181	-0.398
-696.470	305.093	-0.086	0.163
-695.456	4.310	-0.126	-0.094
-694.441	-200.000	-0.008	-0.304
-693.426	207.190	0.069	0.110
-692.412	-42.133	-0.329	0.171
-691.397	-200.000	0.019	0.186
-690.383	8.837	-0.219	-0.168
-689.368	34.544	0.156	0.139
-688.354	285.224	0.243	0.445
-687.339	61.580	-0.333	0.338
-686.324	800.000	-0.072	-0.237
-685.310	-200.000	-0.024	-0.241
-684.295	-62.395	-0.206	-0.087
-683.281	-148.319	0.068	-0.006
-682.266	-200.000	0.010	-0.057
-681.251	-200.000	0.016	0.315
-680.237	183.446	-0.222	-0.334
-679.222	-200.000	0.017	-0.488
-678.208	203.749	0.128	0.202
-677.193	125.399	0.135	0.174
-676.178	-147.045	-0.176	-0.015
-675.164	-141.828	0.446	0.045
-674.149	-142.421	0.227	0.023
-673.135	800.000	0.068	-0.278
-672.120	489.115	-0.059	0.137
-671.105	800.000	0.069	-0.196
-670.091	66.592	-0.195	-0.201
-669.076	-200.000	0.043	0.211
-668.062	800.000	-0.028	0.112
-667.047	-127.599	0.266	0.039
-666.032	-31.195	0.274	-0.157
-665.018	553.961	-0.086	0.209
-664.003	75.456	-0.171	0.184
-662.989	800.000	0.132	0.422
-661.974	-63.014	-0.244	-0.103
-660.959	134.657	0.122	0.162
-659.945	-52.728	0.100	0.047
-658.930	-42.786	0.196	-0.101
-657.916	-3.125	-0.266	0.188
-656.901	-103.504	0.358	-0.086
-655.886	147.168	0.105	-0.143
-654.872	-200.000	-0.004	-0.110
-653.857	-30.050	-0.339	0.196
-652.843	-200.000	0.049	-0.430
-651.828	58.629	0.024	-0.024
-650.814	-14.131	-0.080	0.053
-649.799	-120.511	0.165	-0.028
-648.784	-11.650	-0.150	-0.100
-647.770	-113.979	-0.120	-0.024
-646.755	67.983	0.205	0.213
-645.741	-22.396	0.028	-0.017
-644.726	-86.936	0.157	0.049
-643.711	193.127	0.110	-0.170
-642.697	377.017	0.018	0.038
-641.682	-27.646	0.341	-0.201
-640.668	-200.000	0.005	0.051
-639.653	660.613	-0.113	-0.295
-638.638	15.406	-0.144	0.115
-637.624	290.195	0.061	0.113
-636.609	-200.000	-0.065	0.296
-635.595	800.000	0.034	0.135
-634.580	-108.043	0.066	0.014
-633.565	-200.000	0.019	0.113
-632.551	205.267	-0.099	-0.156
-631.536	620.346	0.040	0.103
-630.522	-186.496	0.138	0.002
-629.507	-115.332	-0.114	-0.022
-628.492	628.133	-0.019	0.049
-627.478	13.585	-0.061	-0.048
-626.463	11.348	0.054	0.042
-625.449	-200.000	-0.024	-0.201
-624.434	38.981	-0.137	-0.125
-623.419	-135.869	-0.265	0.032
-622.405	-200.000	0.013	0.080
-621.390	74.766	-0.072	-0.077
-620.376	109.520	-0.104	0.127
-619.361	-84.727	-0.080	0.026
-618.346	-137.825	-0.044	-0.005
-617.332	800.000	-0.050	-0.143
-616.317	-200.000	0.002	0.197
-615.303	800.000	0.059	0.235
-614.288	-85.601	0.066	-0.021
-613.273	800.000	-0.085	-0.296
-612.259	-125.972	-0.101	0.015
-611.244	-82.752	0.057	-0.019
-610.230	90.895	-0.140	0.159
-609.215	-200.000	0.008	0.095
-608.201	-7.628	-0.166	-0.114
-607.186	-112.407	0.223	0.045
-606.171	-54.411	0.020	-0.009
-605.157	39.236	0.128	-0.116
-604.142	-151.804	0.423	0.031
-603.128	261.669	0.085	-0.149
-602.113	800.000	-0.034	-0.140
-601.098	-67.045	-0.148	-0.059
-600.084	48.877	0.129	0.123
-599.069	86.879	-0.206	0.231
-598.055	-200.000	0.050	0.428
-597.040	24.992	0.124	0.105
-596.025	205.697	0.121	-0.191
-595.011	-200.000	0.013	0.058
-593.996	49.589	-0.058	0.055
-592.982	149.630	-0.130	-0.178
-591.967	123.663	0.089	-0.113
-590.952	-200.000	-0.008	-0.056
-589.938	-151.728	-0.315	-0.024
-588.923	-200.000	0.007	0.431
-587.909	52.911	-0.062	0.060
-586.894	395.381	-0.130	-0.276
-585.879	-200.000	-0.007	-0.035
-584.865	159.564	-0.116	-0.164
-583.850	-5.346	0.142	-0.099
-582.836	-144.454	0.274	-0.026
-581.821	440.066	-0.084	-0.185
-580.806	-200.000	-0.040	-0.225
-579.792	-200.000	0.042	0.269
-578.777	80.876	0.206	0.225
-577.763	-130.524	-0.209	-0.029
-576.748	357.145	0.047	-0.094
-575.733	42.973	-0.134	0.124
-574.719	-25.353	-0.034	-0.020
-573.704	-200.000	0.000	0.187
-572.690	800.000	-0.024	0.083
-571.675	-64.855	0.141	0.058
-570.661	652.426	-0.114	0.295
-569.646	800.000	0.074	-0.312
-568.631	-22.573	0.067	0.041
-567.617	-21.753	-0.245	0.151
-566.602	-85.492	-0.212	0.067
-565.588	9.133	0.273	0.209
-564.573	164.120	0.068	-0.097
-563.558	311.708	-0.108	-0.205
-562.544	37.231	-0.238	-0.213
-561.529	-169.653	-0.373	0.014
-560.515	-99.549	-0.246	-0.063
-559.500	341.570	0.140	-0.278
-558.485	-105.348	-0.203	0.047
-557.471	248.727	-0.079	-0.136
-556.456	-200.000	-0.009	0.318
-555.442	136.821	0.206	-0.272
-554.427	381.404	-0.155	0.322
-553.412	-109.875	0.122	0.026
-552.398	-122.633	-0.319	-0.052
-551.383	615.674	0.073	0.184
-550.369	-200.000	-0.036	-0.431
-549.354	-200.000	-0.018	0.091
-548.339	-176.337	-0.226	0.006
-547.325	297.847	0.069	-0.128
-546.310	27.870	-0.246	-0.210
-545.296	8.174	-0.415	-0.316
-544.281	476.237	-0.083	0.191
-543.266	233.285	-0.149	-0.247
-542.252	-71.350	0.316	0.120
-541.237	103.917	0.101	-0.120
-540.223	-132.561	0.102	-0.013
-539.208	-131.348	-0.343	-0.046
-538.193	228.085	-0.155	-0.255
-537.179	598.179	0.113	-0.284
-536.164	236.275	-0.095	-0.160
-535.150	55.897	-0.189	-0.186
-534.135	251.012	0.173	-0.297
-533.121	-200.000	0.006	-0.037
-532.106	494.496	-0.086	0.199
-531.091	124.648	0.263	0.335
-530.077	800.000	-0.033	-0.139
-529.062	304.410	-0.074	-0.140
-528.048	-53.693	-0.099	0.046
-527.033	-47.434	0.270	-0.133
-526.018	-155.360	0.125	0.008
-525.004	228.746	0.097	-0.160
-523.989	-61.159	-0.102	-0.043
-522.975	800.000	0.026	0.098
-521.960	-200.000	-0.009	0.065
-520.945	-15.627	0.188	0.121
-519.931	-68.984	-0.447	-0.174
-518.916	-32.906	-0.214	-0.120
-517.902	36.294	-0.274	-0.244
-516.887	-5.990	0.310	0.214
-515.872	800.000	-0.132	0.379
-514.858	-71.276	-0.071	-0.027
-513.843	505.532	0.122	0.286
-512.829	-32.526	0.162	-0.091
-511.814	66.150	0.225	0.231
-510.799	-44.219	0.061	0.031
-509.785	45.337	0.056	-0.052
-508.770	299.138	0.051	-0.095
-507.756	562.153	-0.056	0.136
-506.741	703.216	-0.087	0.231
-505.726	265.464	0.049	0.086
-504.712	-12.566	0.476	0.314
-503.697	427.055	0.063	-0.137
-502.683	317.545	-0.257	-0.491
-501.668	-63.756	0.208	0.086
-500.653	-81.600	0.147	0.049
-499.639	800.000	0.011	-0.049
-498.624	-1.953	-0.262	0.186
-497.610	-200.000	0.004	0.077
-496.595	40.569	-0.201	0.183
-495.581	-146.170	0.075	-0.007
-494.566	-138.662	0.195	0.022
-493.551	9.855	0.101	-0.078
-492.537	-144.175	-0.087	-0.008
-491.522	-200.000	-0.002	-0.170
-490.508	480.930	-0.106	-0.242
-489.493	-117.459	0.336	-0.061
-488.478	-200.000	-0.000	0.097
-487.464	448.400	-0.127	0.283
-486.449	-34.462	-0.343	-0.190
-485.435	800.000	0.089	-0.310
-484.420	13.827	-0.185	0.146
-483.405	11.676	0.097	0.075
-482.391	-76.844	0.332	0.117
-481.376	-200.000	0.032	0.248
-480.362	-200.000	0.053	-0.262
-479.347	19.295	0.307	0.249
-478.332	341.399	0.138	-0.273
-477.318	800.000	0.051	-0.212
-476.303	-141.005	0.074	0.008
-475.289	407.763	0.066	0.141
-474.274	-74.403	-0.337	0.123
-473.259	35.979	-0.105	0.093
-472.245	-120.428	-0.127	0.022
-471.230	150.597	-0.122	0.168
-470.216	-137.136	-0.074	0.009
-469.201	0.870	0.332	-0.240
-468.186	-105.445	-0.192	0.044
-467.172	-200.000	-0.001	0.151
-466.157	385.204	-0.087	-0.181
-465.143	-200.000	-0.005	-0.158
-464.128	271.291	-0.146	0.260
-463.113	-200.000	-0.028	0.292
-462.099	-22.436	0.308	0.188
-461.084	-16.616	0.301	-0.192
-460.070	800.000	-0.084	0.235
-459.055	-151.388	-0.331	-0.025
-458.040	218.606	-0.147	-0.237
-457.026	-28.071	0.225	-0.131
-456.011	-51.671	-0.314	0.148
-454.997	-130.949	0.226	-0.031
-453.982	199.055	0.162	-0.250
-452.968	649.599	-0.027	-0.071
-451.953	72.747	0.066	-0.069
-450.938	58.818	0.117	0.116
-449.924	537.440	-0.066	0.159
-448.909	165.622	-0.197	-0.281
-447.895	-49.358	-0.091	-0.044
-446.880	774.396	0.020	-0.056
-445.865	332.972	0.139	0.271
-444.851	-13.378	-0.097	0.063
-443.836	395.501	0.069	-0.145
-442.822	192.960	0.085	-0.130
-441.807	185.053	-0.110	-0.165
-440.792	-42.873	-0.209	-0.107
-439.778	800.000	0.085	0.279
-438.763	13.224	-0.217	0.169
-437.749	-94.004	-0.127	-0.035
-436.734	-113.502	0.300	-0.059
-435.719	800.000	-0.038	0.152
-434.705	-40.299	0.099	-0.052
-433.690	-96.137	-0.186	0.050
-432.676	206.199	-0.075	-0.117
-431.661	-21.417	0.143	-0.088
-430.646	-200.000	-0.072	0.334
-429.632	310.538	0.055	-0.104
-428.617	-35.836	-0.137	-0.075
-427.603	-96.557	0.133	-0.035
-426.588	-163.734	-0.297	-0.014
-425.573	-73.651	-0.064	0.023
-424.559	643.245	-0.081	-0.209
-423.544	-124.574	0.244	0.038
-422.530	142.900	-0.099	0.132
-421.515	187.741	-0.152	0.229
-420.500	800.000	0.025	-0.079
-419.486	800.000	-0.073	-0.268
-418.471	204.328	-0.104	-0.162
-417.457	-125.936	-0.213	-0.032
-416.442	-137.074	-0.264	0.030
-415.428	15.919	0.098	-0.078
-414.413	57.521	0.186	0.183
-413.398	638.085	-0.095	-0.243
-412.384	63.465	-0.107	-0.108
-411.369	337.608	-0.137	0.269
-410.355	800.000	0.061	-0.173
-409.340	-39.591	-0.087	-0.046
-408.325	-200.000	0.001	-0.275
-407.311	-200.000	0.033	-0.311
-406.296	129.658	-0.163	0.209
-405.282	-200.000	0.045	-0.243
-404.267	-146.532	-0.202	0.018
-403.252	800.000	-0.051	0.147
-402.238	-81.799	0.249	0.082
-401.223	258.122	-0.200	0.346
-400.209	-200.000	0.050	-0.226
-399.194	590.570	-0.057	0.142
-398.179	-20.230	0.152	0.094
-397.165	76.762	0.099	-0.105
-396.150	-71.877	-0.305	0.114
-395.136	163.043	-0.080	0.113
-394.121	-69.115	0.058	-0.022
-393.106	137.174	-0.092	-0.121
-392.092	241.525	-0.265	0.446
-391.077	-172.877	0.116	0.004
-390.063	137.072	-0.216	-0.284
-389.048	800.000	0.075	0.266
-388.033	-33.366	0.330	-0.184
-387.019	226.382	0.120	-0.196
-386.004	-17.667	0.067	-0.042
-384.990	15.076	0.163	-0.128
-383.975	133.142	-0.094	0.122
-382.960	687.889	0.081	0.214
-381.946	-28.218	0.069	-0.040
-380.931	144.316	-0.144	-0.193
-379.917	90.440	-0.194	-0.218
-378.902	24.988	0.084	-0.070
-377.888	163.568	0.033	0.046
-376.873	-100.129	-0.109	-0.027
-375.858	-76.650	0.250	-0.088
-374.844	-186.616	-0.421	0.006
-373.829	-89.443	-0.042	-0.012
-372.815	143.034	0.189	-0.252
-371.800	-200.000	0.076	0.344
-370.785	-115.422	-0.394	0.075
-369.771	83.420	0.199	-0.218
-368.756	800.000	-0.032	0.111
-367.742	73.396	0.015	0.016
-366.727	415.929	0.072	0.155
-365.712	124.680	0.152	0.192
-364.698	3.199	0.160	-0.117
-363.683	65.247	0.338	-0.343
-362.669	115.250	-0.139	-0.171
-361.654	20.096	-0.194	0.157
-360.639	437.315	-0.054	0.119
-359.625	-200.000	0.039	0.452
-358.610	6.948	0.169	0.127
-357.596	441.550	0.084	-0.186
-356.581	58.275	0.097	-0.096
-355.566	-200.000	-0.018	0.127
-354.552	-153.851	-0.085	-0.006
-353.537	262.337	0.187	-0.325
-352.523	-124.955	0.074	-0.011
-351.508	-200.000	-0.048	0.284
-350.493	326.554	0.169	-0.325
-349.479	-121.394	0.157	-0.026
-348.464	-200.000	-0.033	0.228
-347.450	30.995	0.337	0.291
-346.435	-23.154	0.421	0.255
-345.420	119.900	0.117	0.145
-344.406	-44.474	0.221	0.111
-343.391	800.000	0.011	-0.034
-342.377	-7.917	-0.066	-0.044
-341.362	-17.128	-0.335	-0.212
-340.348	-200.000	-0.004	-0.275
-339.333	-112.931	0.315	-0.063
-338.318	-94.748	0.329	-0.090
-337.304	86.741	-0.161	-0.178
-336.289	-200.000	-0.056	-0.316
-335.275	-55.846	-0.074	0.033
-334.260	-200.000	0.015	0.138
-333.245	-122.724	0.270	-0.044
-332.231	-200.000	0.008	0.279
-331.216	335.221	-0.159	0.310
-330.202	49.445	0.037	0.035
-329.187	16.426	0.163	-0.129
-328.172	-200.000	0.027	0.163
-327.158	-200.000	0.011	0.076
-326.143	23.411	0.265	-0.219
-325.129	781.742	0.112	0.308
-324.114	800.000	0.041	-0.166
-323.099	800.000	0.068	-0.195
-322.085	-87.153	0.298	-0.091
-321.070	95.317	0.123	0.141
-320.056	300.987	-0.035	0.064
-319.041	-97.912	-0.265	-0.069
-318.026	325.929	-0.130	-0.249
-317.012	-149.118	-0.415	0.033
-315.997	115.729	0.269	0.330
-314.983	-17.338	-0.124	0.079
-313.968	-200.000	-0.057	-0.321
-312.953	-36.242	0.281	0.152
-311.939	242.598	0.084	-0.140
-310.924	141.356	-0.091	-0.120
-309.910	-82.766	-0.107	-0.035
-308.895	800.000	-0.054	0.224
-307.880	-86.908	0.024	-0.007
-306.866	188.199	-0.068	-0.102
-305.851	-61.482	0.113	-0.048
-304.837	-200.000	-0.013	0.092
-303.822	-136.230	-0.221	-0.026
-302.807	-200.000	0.057	-0.351
-301.793	298.092	-0.054	0.100
-300.778	-84.814	0.214	0.067
-299.764	399.867	-0.124	-0.261
-298.749	-200.000	0.070	0.432
-297.735	-30.918	0.250	0.141
-296.720	490.044	0.087	0.199
-295.705	494.478	0.097	-0.224
-294.691	743.054	0.049	0.131
-293.676	287.537	-0.068	0.123
-292.662	382.435	0.060	-0.124
-291.647	-67.790	0.093	0.036
-290.632	-103.907	-0.382	0.089
-289.618	110.296	-0.104	0.125
-288.603	800.000	-0.136	-0.473
-287.589	-147.204	-0.364	0.031
-286.574	-115.801	0.104	0.019
-285.559	800.000	-0.014	-0.044
-284.545	167.289	0.106	-0.151
-283.530	-134.215	0.117	-0.014
-282.516	151.085	-0.071	-0.097
-281.501	280.442	0.080	-0.144
-280.486	-100.354	0.252	0.063
-279.472	20.701	0.255	0.207
-278.457	236.689	-0.148	-0.245
-277.443	48.798	0.313	0.294
-276.428	-32.686	0.144	0.080
-275.413	-107.384	-0.183	0.040
-274.399	106.250	-0.095	0.113
-273.384	192.785	-0.179	0.271
-272.370	800.000	-0.067	-0.222
-271.355	7.956	-0.041	-0.031
-270.340	-44.632	-0.263	0.132
-269.326	34.786	-0.444	-0.389
-268.311	-200.000	-0.016	0.124
-267.297	-8.249	0.145	0.098
-266.282	-106.483	-0.122	-0.027
-265.267	-147.284	0.386	-0.033
-264.253	-15.974	-0.160	0.102
-263.238	-141.754	0.254	0.026
-262.224	-82.152	-0.286	0.093
-261.209	451.861	-0.062	0.136
-260.195	89.004	-0.065	0.072
-259.180	16.749	-0.210	0.166
-258.165	-75.967	0.258	0.091
-257.151	-17.594	0.157	-0.099
-256.136	220.744	-0.124	0.199
-255.122	-20.932	0.220	0.135
-254.107	-168.086	0.195	0.008
-253.092	800.000	-0.054	-0.167
-252.078	361.631	-0.096	-0.193
-251.063	34.392	0.181	-0.158
-250.049	800.000	0.118	0.448
-249.034	-200.000	0.003	-0.089
-248.019	800.000	0.061	-0.229
-247.005	800.000	-0.042	0.156
-245.990	800.000	-0.035	0.141
-244.976	561.758	0.050	-0.120
-243.961	73.978	0.041	-0.043
-242.946	-39.851	-0.527	0.276
-241.932	-139.350	0.092	-0.010
-240.917	800.000	0.073	-0.206
-239.903	268.238	0.189	-0.332
-238.888	55.068	-0.220	-0.212
-237.873	49.672	-0.273	0.257
-236.859	37.680	-0.241	0.214
-235.844	800.000	0.031	-0.101
-234.830	278.506	0.110	-0.196
-233.815	101.518	0.190	-0.222
-232.800	-81.441	-0.263	-0.087
-231.786	-106.510	-0.254	-0.057
-230.771	-76.548	-0.447	-0.157
-229.757	704.089	-0.053	0.140
-228.742	-73.162	0.363	-0.133
-227.727	-45.450	-0.355	-0.176
-226.713	-115.013	0.178	0.034
-225.698	-69.121	0.378	-0.146
-224.684	155.890	-0.173	-0.238
-223.669	14.157	-0.075	-0.059
-222.655	74.189	-0.186	0.195
-221.640	-200.000	0.052	-0.236
-220.625	-200.000	0.016	0.209
-219.611	-200.000	0.025	-0.283
-218.596	511.412	0.122	0.285
-217.582	800.000	-0.057	-0.176
-216.567	115.612	0.106	-0.129
-215.552	156.069	-0.081	0.111
-214.538	-200.000	0.024	0.184
-213.523	-33.412	-0.213	-0.118
-212.509	-59.206	0.164	0.070
-211.494	-24.228	0.099	0.059
-210.479	159.761	-0.149	0.207
-209.465	347.162	0.063	0.123
-208.450	-70.676	0.392	-0.148
-207.436	-200.000	-0.043	-0.237
-206.421	-200.000	0.012	0.137
-205.406	74.565	0.325	0.341
-204.392	268.297	-0.059	0.104
-203.377	-200.000	0.022	0.186
-202.363	338.311	-0.118	0.230
-201.348	290.380	-0.045	0.081
-200.333	58.135	0.144	-0.141
-199.319	-29.722	-0.211	-0.120
-198.304	9.788	-0.161	-0.122
-197.290	-200.000	-0.004	-0.028
-196.275	-200.000	0.002	0.135
-195.260	-74.846	0.062	-0.022
-194.246	-200.000	0.364	0.001
-193.231	-160.395	-0.118	-0.006
-192.217	-27.587	0.072	-0.042
-191.202	-40.192	-0.228	0.119
-190.187	800.000	0.050	0.194
-189.173	171.194	-0.262	0.375
-188.158	697.468	-0.019	-0.051
-187.144	800.000	-0.058	-0.181
-186.129	174.676	0.097	-0.139
-185.114	162.663	0.274	-0.384
-184.100	-95.235	0.068	0.018
-183.085	1.556	-0.160	0.115
-182.071	-200.000	-0.058	0.472
-181.056	177.995	0.244	0.355
-180.042	-200.000	-0.000	-0.364
-179.027	70.127	0.137	0.142
-178.012	0.244	-0.196	-0.140
-176.998	-200.000	-0.024	-0.216
-175.983	-200.000	0.017	0.097
-174.969	201.564	0.035	0.054
-173.954	147.498	0.138	0.185
-172.939	800.000	-0.009	-0.031
-171.925	-5.997	-0.196	0.134
-170.910	800.000	-0.100	0.318
-169.896	-113.830	-0.214	0.042
-168.881	-200.000	-0.003	0.150
-167.866	106.934	0.146	-0.173
-166.852	145.744	0.173	-0.231
-165.837	41.682	0.023	0.020
-164.823	100.377	0.085	0.098
-163.808	-7.082	-0.061	-0.041
-162.793	-200.000	0.004	-0.355
-161.779	181.306	0.245	-0.360
-160.764	502.942	0.151	-0.348
-159.750	-200.000	0.028	0.210
-158.735	33.776	0.189	0.164
-157.720	-82.710	0.101	0.033
-156.706	-24.229	0.435	0.259
-155.691	-10.379	-0.191	-0.127
-154.677	132.470	-0.062	-0.080
-153.662	34.893	-0.172	-0.150
-152.647	270.570	0.222	0.389
-151.633	-200.000	0.030	0.387
-150.618	56.722	0.357	0.347
-149.604	-200.000	0.036	-0.260
-148.589	145.246	-0.190	0.253
-147.574	-121.183	0.208	-0.035
-146.560	-80.901	-0.051	-0.017
-145.545	-39.791	0.099	0.051
-144.531	-184.938	-0.115	0.002
-143.516	32.908	-0.116	-0.100
-142.502	21.105	0.486	0.393
-141.487	-19.132	0.289	0.179
-140.472	800.000	0.073	-0.291
-139.458	-86.867	0.253	0.077
-138.443	-130.420	-0.234	-0.032
-137.429	-25.848	0.367	-0.215
-136.414	-109.194	-0.326	-0.069
-135.399	-200.000	0.079	-0.636
-134.385	60.580	0.163	-0.161
-133.370	221.956	0.091	0.146
-132.356	11.707	0.232	0.177
-131.341	354.350	0.078	0.155
-130.326	65.289	-0.034	-0.034
-129.312	800.000	0.070	-0.286
-128.297	800.000	0.028	0.122
-127.283	-48.481	0.192	0.092
-126.268	-167.432	0.073	-0.003
-125.253	41.774	0.248	0.224
-124.239	-200.000	0.021	0.176
-123.224	-200.000	-0.006	0.165
-122.210	-200.000	0.024	0.186
-121.195	800.000	0.060	0.225
-120.180	-75.760	-0.215	0.076
