DTS Sentinel unit serial number:	SN413079Multiplexer serial number:	ORYXHardware model number:	OX4-SRSoftware version number:	ORYX F/W v4.00 Oryx Data Collector v3.7.2.0data status	okinstallation	princeton_trtdifferential loss correction	single-endedforward channel	channel 2reverse channel	N/Adate	2019/09/17time	04:43:34forward acquisition time	60.00reverse acquisition time	0.00gamma	496.2192k internal	0.2328k external	0.2328temperature offset calibration	0.9977default loss term (dB/km)	0.3790temperature slope calibration	1.0000multiplexer offset coefficient	1.0000multiplexer slope coefficient	1.0000fibre end	0.00T internal ref (°C)	29.62T ext. ref 1 (°C)	0.13T ext. ref 2 (°C)	24.04length (m)	temperature (°C)	Stokes	anti-Stokes-747.200	-117.857	-0.239	0.043
-746.185	276.096	-0.186	-0.333
-745.171	637.008	-0.059	-0.151
-744.156	800.000	-0.025	-0.079
-743.142	329.817	-0.153	0.298
-742.127	347.389	0.046	0.091
-741.112	617.371	0.052	0.130
-740.098	-200.000	-0.007	0.083
-739.083	-114.290	0.169	0.033
-738.069	94.838	-0.224	0.257
-737.054	-200.000	0.368	-0.001
-736.039	36.188	-0.165	0.147
-735.025	23.471	0.117	0.097
-734.010	-200.000	0.041	-0.194
-732.996	-19.151	-0.235	0.147
-731.981	133.340	0.078	-0.102
-730.966	-120.802	0.251	-0.043
-729.952	-109.218	-0.097	-0.021
-728.937	-62.255	-0.174	-0.073
-727.923	631.211	0.120	-0.306
-726.908	-100.709	-0.207	0.052
-725.894	302.044	0.108	-0.200
-724.879	-8.128	-0.242	-0.164
-723.864	31.844	-0.032	-0.027
-722.850	-200.000	-0.005	0.076
-721.835	-126.653	0.164	-0.025
-720.821	256.430	0.135	-0.233
-719.806	-11.978	-0.278	-0.184
-718.791	-200.000	0.002	0.077
-717.777	-9.198	0.149	0.100
-716.762	-89.984	-0.178	0.052
-715.748	6.449	-0.150	0.112
-714.733	289.120	0.141	0.257
-713.718	-200.000	0.014	-0.363
-712.704	-50.812	-0.410	0.194
-711.689	-52.251	-0.365	-0.170
-710.675	-95.562	-0.170	0.046
-709.660	570.426	-0.054	0.131
-708.645	124.196	-0.146	0.185
-707.631	-76.386	-0.195	0.069
-706.616	231.569	0.047	-0.078
-705.602	-4.236	0.134	-0.093
-704.587	32.372	0.213	-0.185
-703.572	-121.689	0.119	-0.020
-702.558	-65.299	0.106	0.043
-701.543	-159.645	0.031	0.002
-700.529	-200.000	0.062	0.429
-699.514	-48.837	-0.098	-0.047
-698.499	800.000	-0.058	-0.230
-697.485	-145.413	0.158	0.014
-696.470	383.956	0.122	0.253
-695.456	35.529	-0.177	-0.156
-694.441	-58.725	0.220	0.096
-693.426	800.000	-0.055	0.172
-692.412	-34.879	0.195	-0.107
-691.397	-44.449	0.295	0.148
-690.383	113.046	0.111	0.135
-689.368	-99.217	-0.157	0.040
-688.354	14.451	0.077	0.061
-687.339	87.419	-0.080	-0.089
-686.324	-63.346	0.167	-0.069
-685.310	48.886	-0.201	-0.190
-684.295	-187.374	0.135	0.002
-683.281	672.336	-0.089	0.233
-682.266	800.000	-0.023	0.101
-681.251	-160.937	0.371	-0.020
-680.237	800.000	0.117	-0.392
-679.222	-13.845	0.307	0.200
-678.208	-200.000	-0.016	0.097
-677.193	680.918	-0.022	-0.057
-676.178	-112.920	-0.305	-0.061
-675.164	-200.000	0.001	0.243
-674.149	128.897	0.216	-0.276
-673.135	103.213	-0.422	-0.497
-672.120	51.852	-0.188	-0.179
-671.105	-115.997	-0.393	0.074
-670.091	7.001	-0.112	0.084
-669.076	65.088	-0.083	-0.085
-668.062	-200.000	0.029	0.205
-667.047	10.739	-0.203	0.156
-666.032	800.000	-0.033	-0.118
-665.018	-108.499	-0.210	-0.045
-664.003	76.539	-0.072	0.077
-662.989	-200.000	-0.007	-0.292
-661.974	411.892	-0.108	-0.231
-660.959	-186.187	0.067	0.001
-659.945	68.293	0.299	-0.308
-658.930	800.000	-0.018	-0.052
-657.916	800.000	0.063	-0.214
-656.901	-200.000	0.015	0.225
-655.886	-74.442	-0.067	-0.024
-654.872	-56.707	-0.278	0.124
-653.857	-120.709	-0.427	0.073
-652.843	800.000	0.032	-0.129
-651.828	-62.171	-0.333	-0.140
-650.814	117.025	0.141	0.174
-649.799	36.905	-0.048	0.043
-648.784	-53.781	0.269	0.123
-647.770	-23.994	0.052	-0.031
-646.755	800.000	0.035	-0.124
-645.741	-188.241	-0.264	-0.003
-644.726	334.872	0.056	-0.109
-643.711	-200.000	-0.006	-0.294
-642.697	800.000	0.054	-0.195
-641.682	-42.500	-0.369	-0.189
-640.668	-151.505	0.139	0.010
-639.653	-18.816	-0.070	-0.044
-638.638	216.723	0.159	0.254
-637.624	-14.127	0.317	-0.205
-636.609	-7.801	-0.299	-0.203
-635.595	651.101	-0.075	-0.192
-634.580	-131.354	0.228	0.030
-633.565	-104.477	0.243	0.056
-632.551	194.530	0.087	-0.132
-631.536	-78.602	0.238	-0.082
-630.522	11.982	0.153	-0.118
-629.507	-200.000	-0.013	0.274
-628.492	-127.630	0.168	0.024
-627.478	-200.000	0.003	-0.126
-626.463	-113.095	0.293	0.058
-625.449	-56.244	-0.252	-0.113
-624.434	-200.000	0.026	-0.188
-623.419	105.107	-0.271	-0.321
-622.405	65.658	-0.296	0.300
-621.390	545.761	-0.059	0.142
-620.376	-157.690	0.371	0.022
-619.361	24.338	0.185	0.153
-618.346	-150.376	-0.333	0.026
-617.332	66.922	-0.042	-0.043
-616.317	64.683	-0.060	-0.060
-615.303	236.088	-0.189	0.314
-614.288	489.748	-0.121	0.278
-613.273	-200.000	-0.005	0.509
-612.259	41.858	0.209	-0.190
-611.244	64.908	-0.097	-0.098
-610.230	800.000	-0.099	-0.280
-609.215	105.968	-0.226	-0.268
-608.201	-71.789	0.275	-0.103
-607.186	362.229	-0.011	0.023
-606.171	-89.681	0.319	-0.094
-605.157	66.692	0.153	-0.156
-604.142	68.117	-0.204	0.209
-603.128	23.991	0.133	0.110
-602.113	-120.887	-0.032	0.005
-601.098	208.014	-0.036	0.056
-600.084	61.139	-0.099	0.098
-599.069	800.000	-0.144	0.440
-598.055	269.845	0.230	0.405
-597.040	-132.240	-0.268	0.035
-596.025	800.000	-0.107	-0.418
-595.011	-43.326	-0.383	-0.194
-593.996	-200.000	0.046	0.384
-592.982	-66.705	-0.193	0.076
-591.967	800.000	-0.080	-0.286
-590.952	132.532	-0.076	0.098
-589.938	-115.278	0.123	0.023
-588.923	-70.097	-0.245	-0.093
-587.909	95.812	0.106	-0.121
-586.894	-8.773	0.150	0.101
-585.879	800.000	0.038	-0.153
-584.865	97.382	0.106	-0.122
-583.850	356.799	-0.047	-0.094
-582.836	123.506	-0.077	-0.097
-581.821	-49.460	-0.208	0.099
-580.806	-132.287	-0.147	-0.019
-579.792	-200.000	0.022	0.261
-578.777	-50.884	0.088	-0.041
-577.763	207.108	-0.126	0.196
-576.748	-27.221	-0.076	0.044
-575.733	-52.175	0.197	-0.091
-574.719	-3.180	-0.223	-0.156
-573.704	800.000	0.070	-0.290
-572.690	311.105	0.150	0.281
-571.675	-85.592	0.096	-0.030
-570.661	-75.399	0.127	-0.045
-569.646	422.803	-0.073	0.157
-568.631	-94.658	-0.137	0.037
-567.617	800.000	-0.139	0.403
-566.602	123.276	-0.112	0.140
-565.588	-200.000	-0.052	0.000
-564.573	800.000	-0.087	0.263
-563.558	-200.000	-0.015	0.102
-562.544	544.886	0.012	-0.029
-561.529	-157.289	0.288	0.017
-560.515	-26.355	-0.248	-0.146
-559.500	800.000	-0.042	0.175
-558.485	-200.000	0.017	-0.095
-557.471	-200.000	0.034	-0.412
-556.456	-14.645	-0.086	-0.055
-555.442	90.838	0.187	-0.210
-554.427	-198.506	0.175	-0.001
-553.412	-107.122	-0.063	-0.014
-552.398	800.000	-0.065	-0.252
-551.383	800.000	0.076	0.285
-550.369	-200.000	-0.099	-0.450
-549.354	-48.502	-0.249	-0.120
-548.339	-200.000	0.054	0.380
-547.325	-200.000	0.004	0.188
-546.310	-200.000	-0.009	0.258
-545.296	-15.453	0.242	0.155
-544.281	-29.522	0.165	-0.094
-543.266	-58.412	-0.216	0.094
-542.252	-78.115	-0.168	-0.058
-541.237	-200.000	-0.013	-0.502
-540.223	561.848	-0.096	-0.232
-539.208	-200.000	0.037	-0.175
-538.193	-200.000	-0.107	-0.000
-537.179	194.680	-0.011	-0.016
-536.164	-200.000	-0.031	-0.258
-535.150	-55.566	0.174	0.078
-534.135	162.853	-0.094	-0.132
-533.121	217.506	0.224	0.357
-532.106	-43.672	-0.230	0.116
-531.091	-112.003	-0.193	0.039
-530.077	-182.326	0.445	-0.008
-529.062	-200.000	-0.050	-0.292
-528.048	-200.000	-0.047	-0.380
-527.033	-62.255	0.150	-0.062
-526.018	131.011	0.105	-0.135
-525.004	150.327	0.125	0.169
-523.989	118.098	0.204	-0.251
-522.975	800.000	-0.089	0.305
-521.960	-128.594	-0.226	0.032
-520.945	309.845	-0.210	0.393
-519.931	-200.000	0.041	0.267
-518.916	-200.000	0.031	0.244
-517.902	-62.708	-0.135	-0.056
-516.887	112.864	-0.169	-0.205
-515.872	-200.000	-0.008	0.154
-514.858	106.956	-0.064	0.076
-513.843	-147.212	0.212	-0.018
-512.829	-200.000	-0.019	-0.131
-511.814	252.967	-0.107	-0.182
-510.799	32.012	0.139	0.120
-509.785	-200.000	0.039	0.172
-508.770	-200.000	0.055	0.371
-507.756	74.935	-0.345	-0.362
-506.741	308.035	0.134	-0.249
-505.726	-136.883	0.289	0.033
-504.712	-102.603	-0.232	0.055
-503.697	291.199	-0.074	-0.134
-502.683	-200.000	0.065	0.359
-501.668	-1.349	0.303	0.214
-500.653	-81.405	-0.050	-0.017
-499.639	-5.581	-0.065	-0.045
-498.624	43.649	-0.158	-0.144
-497.610	-18.282	0.166	0.103
-496.595	99.998	0.007	-0.008
-495.581	49.467	0.121	-0.114
-494.566	76.438	-0.110	-0.116
-493.551	-9.762	-0.078	-0.052
-492.537	800.000	-0.061	0.224
-491.522	-81.147	0.303	0.100
-490.508	-200.000	-0.041	-0.336
-489.493	800.000	0.037	-0.145
-488.478	30.963	0.238	0.204
-487.464	255.534	-0.063	-0.108
-486.449	-69.423	-0.090	0.034
-485.435	80.053	-0.218	-0.234
-484.420	-200.000	0.008	-0.319
-483.405	-200.000	0.073	0.380
-482.391	313.475	-0.053	0.099
-481.376	755.196	0.102	0.275
-480.362	800.000	-0.100	-0.298
-479.347	32.311	0.051	-0.044
-478.332	-50.088	-0.118	-0.056
-477.318	36.757	-0.249	0.219
-476.303	368.114	-0.074	-0.149
-475.289	300.262	0.030	-0.056
-474.274	496.922	0.113	0.260
-473.259	-134.477	-0.358	-0.044
-472.245	62.382	0.156	0.155
-471.230	800.000	0.023	-0.070
-470.216	800.000	-0.015	-0.051
-469.201	143.655	0.295	0.392
-468.186	464.696	-0.231	-0.515
-467.172	-100.870	0.133	-0.033
-466.157	-200.000	-0.018	0.225
-465.143	-200.000	0.019	0.410
-464.128	-3.880	0.108	0.074
-463.113	183.385	-0.095	0.139
-462.099	800.000	0.180	0.495
-461.084	-40.956	-0.003	-0.002
-460.070	-111.645	-0.189	0.038
-459.055	-200.000	0.231	-0.000
-458.040	-40.961	0.107	0.055
-457.026	101.086	0.137	-0.159
-456.011	-30.295	0.297	-0.168
-454.997	9.611	-0.102	-0.077
-453.982	800.000	-0.088	-0.253
-452.968	14.300	-0.254	0.197
-451.953	-98.714	0.149	-0.038
-450.938	32.055	0.079	0.068
-449.924	363.028	0.036	0.073
-448.909	-46.604	-0.198	0.097
-447.895	124.763	0.086	-0.108
-446.880	-95.664	-0.234	0.062
-445.865	-91.824	-0.042	-0.012
-444.851	597.190	-0.102	-0.251
-443.836	800.000	0.047	-0.195
-442.822	-127.610	0.281	-0.041
-441.807	-70.215	0.353	0.134
-440.792	556.830	-0.016	0.037
-439.778	-160.970	-0.469	-0.025
-438.763	-160.393	0.210	-0.011
-437.749	35.853	-0.302	0.265
-436.734	800.000	-0.035	0.149
-435.719	-133.686	-0.328	0.041
-434.705	351.047	0.094	-0.184
-433.690	36.225	-0.226	0.199
-432.676	-56.844	0.097	0.043
-431.661	215.580	-0.207	-0.327
-430.646	-123.976	0.280	-0.044
-429.632	800.000	-0.100	-0.392
-428.617	15.699	-0.137	-0.107
-427.603	188.881	-0.188	0.280
-426.588	153.228	0.029	-0.040
-425.573	126.822	0.147	0.186
-424.559	-37.830	0.180	0.095
-423.544	-8.596	-0.096	0.064
-422.530	-130.322	-0.089	0.012
-421.515	126.639	-0.128	-0.161
-420.500	-15.692	-0.185	-0.117
-419.486	64.663	0.344	-0.345
-418.471	-74.029	0.194	0.070
-417.457	296.600	-0.045	-0.082
-416.442	265.493	0.038	-0.066
-415.428	152.494	0.060	-0.081
-414.413	184.473	-0.024	0.036
-413.398	0.098	0.041	-0.029
-412.384	-119.480	0.454	0.078
-411.369	-136.767	0.130	-0.015
-410.355	-200.000	-0.021	-0.242
-409.340	618.496	0.106	0.266
-408.325	-200.000	0.055	-0.302
-407.311	187.800	-0.227	-0.337
-406.296	-150.871	0.171	-0.013
-405.282	-186.653	-0.511	-0.007
-404.267	-200.000	-0.042	-0.263
-403.252	-149.913	-0.253	-0.020
-402.238	331.243	-0.039	-0.074
-401.223	-200.000	0.022	0.138
-400.209	800.000	0.040	-0.156
-399.194	-58.985	-0.192	0.082
-398.179	617.051	0.072	-0.179
-397.165	4.138	0.154	-0.112
-396.150	-123.834	-0.214	0.034
-395.136	-200.000	-0.000	-0.220
-394.121	-20.941	0.148	0.090
-393.106	768.089	-0.064	-0.172
-392.092	154.559	-0.221	0.302
-391.077	230.834	-0.109	0.177
-390.063	49.776	0.145	0.136
-389.048	-200.000	-0.004	0.044
-388.033	-200.000	0.075	-0.486
-387.019	-125.014	-0.154	0.024
-386.004	-88.004	0.324	0.097
-384.990	-200.000	-0.011	-0.169
-383.975	-200.000	0.023	0.193
-382.960	65.650	-0.156	0.157
-381.946	-200.000	-0.014	0.104
-380.931	-21.747	0.139	-0.084
-379.917	800.000	-0.067	0.256
-378.902	800.000	-0.050	0.184
-377.888	33.655	-0.126	0.108
-376.873	291.482	-0.180	-0.325
-375.858	-200.000	0.051	-0.325
-374.844	3.092	0.052	-0.037
-373.829	114.934	0.103	-0.125
-372.815	24.000	-0.264	-0.216
-371.800	100.663	-0.118	-0.136
-370.785	210.201	-0.106	-0.166
-369.771	535.584	0.094	-0.222
-368.756	-33.828	-0.027	0.015
-367.742	-128.144	0.192	-0.027
-366.727	30.752	0.129	-0.110
-365.712	38.541	0.210	-0.186
-364.698	-110.285	0.203	0.042
-363.683	389.240	-0.081	0.166
-362.669	800.000	0.123	-0.395
-361.654	128.021	0.221	0.279
-360.639	-200.000	-0.002	-0.123
-359.625	-4.374	0.153	-0.105
-358.610	72.344	0.062	0.064
-357.596	-68.091	0.270	-0.104
-356.581	286.267	0.029	-0.052
-355.566	-166.993	-0.233	-0.009
-354.552	10.132	-0.107	0.081
-353.537	247.517	-0.100	0.168
-352.523	-200.000	0.027	-0.188
-351.508	-10.705	0.094	-0.062
-350.493	-57.465	0.295	0.129
-349.479	38.455	0.227	0.201
-348.464	-64.609	0.088	-0.035
-347.450	12.359	0.282	0.216
-346.435	-44.063	-0.029	0.014
-345.420	-6.236	0.229	-0.155
-344.406	-173.046	-0.356	-0.011
-343.391	175.640	0.033	-0.048
-342.377	90.545	0.217	0.242
-341.362	-200.000	-0.040	-0.552
-340.348	-6.374	0.194	-0.131
-339.333	-130.623	-0.140	0.019
-338.318	-154.872	-0.183	0.012
-337.304	800.000	-0.111	-0.307
-336.289	-141.374	0.334	-0.034
-335.275	-137.791	-0.323	0.036
-334.260	-200.000	-0.015	0.247
-333.245	-200.000	-0.015	0.143
-332.231	100.727	-0.052	0.060
-331.216	-95.319	-0.162	0.043
-330.202	-1.256	0.203	0.142
-329.187	19.215	0.248	0.198
-328.172	-132.366	0.478	-0.061
-327.158	-200.000	0.051	-0.378
-326.143	-200.000	0.022	-0.122
-325.129	234.206	-0.096	0.157
-324.114	800.000	0.083	-0.258
-323.099	81.008	-0.144	-0.154
-322.085	800.000	0.038	0.114
-321.070	201.003	0.111	-0.169
-320.056	800.000	0.037	-0.111
-319.041	77.408	0.180	0.190
-318.026	33.571	0.307	0.265
-317.012	800.000	-0.116	-0.373
-315.997	43.645	-0.094	0.085
-314.983	388.162	-0.039	-0.080
-313.968	238.162	0.264	-0.434
-312.953	-200.000	-0.034	-0.288
-311.939	733.319	0.075	0.199
-310.924	487.287	0.133	-0.300
-309.910	-45.077	-0.062	-0.031
-308.895	-79.596	-0.215	-0.072
-307.880	256.245	-0.052	0.089
-306.866	-145.420	-0.383	0.034
-305.851	-200.000	-0.018	-0.455
-304.837	396.188	0.039	-0.082
-303.822	-200.000	0.008	0.042
-302.807	-81.435	0.118	-0.039
-301.793	-200.000	-0.324	-0.000
-300.778	150.194	0.166	-0.223
-299.764	-50.190	0.268	0.125
-298.749	90.175	-0.122	-0.135
-297.735	92.118	0.124	-0.138
-296.720	-200.000	-0.021	-0.111
-295.705	-200.000	0.004	0.247
-294.691	-94.396	-0.192	-0.052
-293.676	545.850	-0.157	0.371
-292.662	64.244	0.229	0.228
-291.647	248.597	-0.096	-0.161
-290.632	19.571	-0.291	-0.232
-289.618	227.789	-0.110	-0.177
-288.603	-200.000	0.020	-0.113
-287.589	307.415	0.103	-0.191
-286.574	-200.000	-0.002	-0.021
-285.559	-5.708	0.208	-0.141
-284.545	75.079	0.184	-0.192
-283.530	800.000	0.057	0.158
-282.516	800.000	0.018	0.074
-281.501	-200.000	0.043	-0.208
-280.486	-92.210	-0.399	-0.111
-279.472	86.095	0.175	0.190
-278.457	800.000	0.054	0.174
-277.443	80.969	-0.133	0.142
-276.428	-70.831	-0.325	-0.121
-275.413	-48.145	-0.067	-0.032
-274.399	800.000	-0.099	0.331
-273.384	-200.000	0.038	-0.332
-272.370	-86.173	0.348	-0.106
-271.355	22.256	-0.234	0.189
-270.340	-35.290	-0.248	0.134
-269.326	-121.550	-0.284	0.047
-268.311	-200.000	0.039	0.333
-267.297	234.319	0.099	0.161
-266.282	-200.000	-0.053	-0.242
-265.267	800.000	-0.035	0.124
-264.253	-119.949	0.061	-0.010
-263.238	18.674	-0.086	-0.068
-262.224	-200.000	-0.014	0.148
-261.209	276.380	-0.091	-0.161
-260.195	-79.670	-0.206	0.069
-259.180	800.000	-0.069	0.261
-258.165	-20.581	0.151	-0.091
-257.151	622.408	0.105	-0.260
-256.136	800.000	0.058	0.169
-255.122	-57.606	-0.270	-0.117
-254.107	493.816	0.093	0.210
-253.092	-119.984	0.257	0.044
-252.078	214.668	-0.016	-0.025
-251.063	-6.857	0.055	-0.037
-250.049	12.992	-0.184	-0.141
-249.034	89.277	-0.112	-0.123
-248.019	624.280	0.050	0.125
-247.005	269.398	0.035	0.060
-245.990	-200.000	-0.063	-0.447
-244.976	-55.081	-0.225	-0.100
-243.961	-7.969	0.180	-0.120
-242.946	241.981	0.115	0.190
-241.932	-19.281	0.049	0.030
-240.917	22.237	-0.206	-0.166
-239.903	313.870	0.003	0.006
-238.888	573.220	-0.017	-0.042
-237.873	271.444	-0.202	0.352
-236.859	590.667	-0.132	-0.321
-235.844	33.206	0.203	0.174
-234.830	164.373	0.111	0.155
-233.815	-122.993	0.283	-0.045
-232.800	82.371	0.065	0.069
-231.786	-41.100	0.143	0.073
-230.771	-119.383	0.198	0.034
-229.757	64.932	0.164	0.163
-228.742	-87.674	-0.136	0.041
-227.727	800.000	-0.131	0.531
-226.713	-33.923	-0.289	0.157
-225.698	-200.000	-0.022	0.286
-224.684	234.242	0.148	0.241
-223.669	-34.888	-0.106	0.057
-222.655	-11.652	0.218	0.142
-221.640	7.131	-0.051	-0.037
-220.625	290.363	-0.038	0.068
-219.611	64.503	0.060	0.059
-218.596	-200.000	0.067	-0.366
-217.582	-200.000	0.001	-0.149
-216.567	600.708	0.044	0.107
-215.552	-44.526	-0.131	-0.065
-214.538	-6.911	0.320	0.215
-213.523	86.722	-0.115	-0.125
-212.509	-158.445	-0.247	-0.014
-211.494	154.483	0.169	0.229
-210.479	-88.808	0.179	0.053
-209.465	-27.845	0.184	0.105
-208.450	410.545	-0.091	-0.190
-207.436	-67.775	-0.408	0.157
-206.421	-60.158	-0.129	0.054
-205.406	-111.296	0.273	0.055
-204.392	-200.000	-0.016	0.113
-203.377	-10.118	-0.270	0.177
-202.363	-200.000	0.023	0.247
-201.348	530.353	-0.092	0.214
-200.333	-97.334	-0.225	-0.058
-199.319	-200.000	-0.025	-0.193
-198.304	100.297	0.180	0.206
-197.290	-161.955	0.395	-0.020
-196.275	28.908	-0.049	0.041
-195.260	-8.603	-0.187	0.124
-194.246	-30.347	0.393	-0.220
-193.231	-200.000	0.008	0.162
-192.217	-19.201	-0.035	-0.021
-191.202	-150.387	0.287	-0.022
-190.187	-200.000	-0.060	0.309
-189.173	-82.206	-0.053	0.017
-188.158	-75.462	0.146	0.051
-187.144	-81.199	-0.245	0.080
-186.129	-164.111	-0.090	0.004
-185.114	-56.677	-0.262	-0.114
-184.100	-200.000	0.015	0.316
-183.085	-14.694	0.111	0.070
-182.071	800.000	0.081	0.310
-181.056	-200.000	0.039	0.391
-180.042	-200.000	0.013	0.126
-179.027	189.680	-0.176	0.261
-178.012	200.990	-0.131	-0.199
-176.998	-36.641	0.179	-0.095
-175.983	176.717	0.097	-0.139
-174.969	-200.000	-0.065	0.384
-173.954	138.732	-0.149	0.193
-172.939	294.858	-0.129	0.233
-171.925	-80.715	-0.131	0.043
-170.910	-38.587	0.245	-0.128
-169.896	800.000	-0.101	-0.365
-168.881	279.310	0.079	0.140
-167.866	-102.710	-0.284	-0.067
-166.852	208.185	0.131	-0.202
-165.837	122.171	-0.080	-0.099
-164.823	485.743	-0.059	0.132
-163.808	-116.605	-0.346	0.063
-162.793	84.157	0.224	-0.241
-161.779	-184.607	0.239	0.004
-160.764	224.077	0.187	0.298
-159.750	674.710	-0.054	0.137
-158.735	-200.000	-0.014	0.286
-157.720	-200.000	-0.022	0.150
-156.706	-9.550	0.103	-0.068
-155.691	-137.431	0.195	0.022
-154.677	800.000	-0.037	-0.118
-153.662	-200.000	0.022	0.400
-152.647	800.000	0.065	0.241
-151.633	258.467	-0.300	-0.509
-150.618	-200.000	-0.251	0.001
-149.604	57.691	0.476	0.458
-148.589	0.918	0.138	-0.097
-147.574	734.887	-0.181	-0.477
-146.560	-200.000	-0.063	0.000
-145.545	-200.000	-0.007	-0.211
-144.531	-97.254	0.052	-0.013
-143.516	14.468	0.036	0.028
-142.502	800.000	0.156	-0.439
-141.487	-128.311	-0.184	0.026
-140.472	-200.000	0.024	0.291
-139.458	11.028	0.084	-0.063
-138.443	-200.000	0.005	0.247
-137.429	60.508	-0.241	-0.235
-136.414	29.477	0.065	-0.054
-135.399	-123.199	0.187	-0.029
-134.385	58.614	0.292	-0.282
-133.370	-200.000	0.012	-0.347
-132.356	0.940	-0.119	-0.084
-131.341	-78.908	0.247	0.083
-130.326	25.992	-0.481	0.395
-129.312	142.118	-0.306	0.399
-128.297	704.201	0.086	0.222
-127.283	-68.119	-0.103	-0.040
-126.268	109.216	-0.207	-0.244
-125.253	-78.256	-0.234	-0.079
-124.239	-189.152	-0.224	-0.003
-123.224	-41.717	-0.074	-0.038
-122.210	-40.455	0.043	0.022
-121.195	-117.372	0.259	0.046
