DTS Sentinel unit serial number:	SN413079Multiplexer serial number:	ORYXHardware model number:	OX4-SRSoftware version number:	ORYX F/W v4.00 Oryx Data Collector v3.7.2.0data status	okinstallation	princeton_trtdifferential loss correction	single-endedforward channel	channel 2reverse channel	N/Adate	2019/09/17time	06:15:35forward acquisition time	60.00reverse acquisition time	0.00gamma	496.2192k internal	0.2331k external	0.2331temperature offset calibration	0.9979default loss term (dB/km)	0.3790temperature slope calibration	1.0000multiplexer offset coefficient	1.0000multiplexer slope coefficient	1.0000fibre end	0.00T internal ref (°C)	28.50T ext. ref 1 (°C)	0.14T ext. ref 2 (°C)	21.90length (m)	temperature (°C)	Stokes	anti-Stokes-747.200	54.399	-0.021	0.021
-746.185	31.042	-0.186	-0.161
-745.171	800.000	0.059	0.248
-744.156	-75.528	-0.177	0.063
-743.142	-200.000	0.002	0.291
-742.127	800.000	-0.053	0.195
-741.112	352.168	-0.105	0.210
-740.098	-200.000	-0.005	-0.071
-739.083	-200.000	0.011	0.090
-738.069	250.772	-0.076	0.130
-737.054	510.980	-0.084	0.196
-736.039	283.356	-0.109	0.196
-735.025	800.000	0.046	0.167
-734.010	-147.059	-0.267	-0.023
-732.996	-30.592	-0.223	0.127
-731.981	102.253	-0.255	-0.299
-730.966	-200.000	-0.009	-0.145
-729.952	-99.459	-0.214	-0.054
-728.937	-153.737	-0.115	-0.008
-727.923	-200.000	-0.018	0.509
-726.908	-106.609	-0.104	-0.023
-725.894	-106.815	-0.390	-0.087
-724.879	-87.228	-0.472	-0.144
-723.864	-105.814	0.351	0.080
-722.850	32.876	-0.184	-0.160
-721.835	57.816	-0.036	-0.035
-720.821	-97.703	0.218	0.057
-719.806	279.403	-0.095	-0.170
-718.791	93.716	0.101	-0.115
-717.777	-123.426	-0.152	0.024
-716.762	-14.869	-0.095	0.061
-715.748	-200.000	0.056	0.352
-714.733	760.435	0.105	0.287
-713.718	105.063	0.035	0.042
-712.704	-75.875	-0.205	-0.073
-711.689	-90.242	-0.187	0.055
-710.675	-92.725	0.033	0.009
-709.660	27.471	0.191	-0.161
-708.645	800.000	0.018	-0.077
-707.631	725.616	0.118	-0.317
-706.616	800.000	-0.062	-0.176
-705.602	66.661	-0.206	-0.211
-704.587	36.375	-0.157	-0.139
-703.572	-23.208	0.201	-0.121
-702.558	-45.552	-0.201	-0.100
-701.543	800.000	0.091	0.302
-700.529	112.597	0.047	0.057
-699.514	-62.892	0.160	0.067
-698.499	-152.420	0.138	0.010
-697.485	-200.000	0.031	-0.176
-696.470	-87.230	-0.103	0.031
-695.456	-50.538	-0.293	-0.139
-694.441	-9.752	0.050	-0.034
-693.426	-200.000	0.000	0.147
-692.412	117.379	0.229	0.283
-691.397	45.893	-0.097	0.090
-690.383	98.618	-0.056	-0.065
-689.368	48.917	-0.054	-0.051
-688.354	800.000	0.044	0.130
-687.339	-200.000	-0.003	-0.182
-686.324	-89.326	0.333	-0.099
-685.310	-17.632	-0.240	0.152
-684.295	492.400	0.102	-0.235
-683.281	-36.273	-0.220	-0.119
-682.266	-64.169	-0.253	-0.104
-681.251	-200.000	-0.023	-0.300
-680.237	-79.776	0.187	-0.063
-679.222	197.805	-0.211	-0.324
-678.208	5.952	0.157	-0.117
-677.193	16.446	-0.195	0.155
-676.178	259.366	0.023	-0.040
-675.164	39.825	-0.056	0.050
-674.149	-25.121	0.164	0.097
-673.135	714.897	-0.063	0.167
-672.120	800.000	-0.049	-0.146
-671.105	56.157	-0.268	0.261
-670.091	467.837	-0.115	0.258
-669.076	-50.071	-0.143	0.068
-668.062	800.000	-0.007	-0.022
-667.047	185.589	0.170	-0.254
-666.032	96.102	0.377	0.432
-665.018	-121.250	0.442	0.074
-664.003	86.123	0.233	-0.257
-662.989	239.751	0.105	-0.176
-661.974	41.893	0.108	-0.098
-660.959	111.540	0.090	-0.109
-659.945	384.406	-0.131	-0.271
-658.930	110.281	-0.093	-0.113
-657.916	-123.421	-0.226	0.036
-656.901	799.778	-0.087	-0.240
-655.886	479.379	0.120	0.272
-654.872	273.933	-0.229	0.406
-653.857	800.000	-0.115	-0.397
-652.843	41.555	0.171	-0.155
-651.828	710.268	-0.047	0.125
-650.814	-26.392	0.234	-0.138
-649.799	-73.683	0.144	-0.053
-648.784	-67.988	0.285	0.111
-647.770	-200.000	0.032	-0.293
-646.755	125.241	-0.086	-0.109
-645.741	800.000	-0.056	0.160
-644.726	-60.350	0.105	0.045
-643.711	-200.000	0.048	-0.242
-642.697	101.311	-0.180	0.210
-641.682	-200.000	-0.024	-0.187
-640.668	-54.446	0.309	-0.140
-639.653	800.000	-0.047	-0.135
-638.638	396.926	0.081	-0.169
-637.624	18.037	0.141	-0.113
-636.609	-7.998	-0.019	0.013
-635.595	461.865	-0.050	-0.113
-634.580	-52.452	0.315	-0.146
-633.565	476.946	0.038	0.087
-632.551	72.936	-0.159	-0.166
-631.536	-40.126	-0.099	-0.052
-630.522	-13.121	0.145	0.094
-629.507	269.035	-0.088	-0.155
-628.492	-175.637	0.236	-0.006
-627.478	-162.825	0.220	0.011
-626.463	800.000	-0.024	-0.069
-625.449	289.509	0.157	0.285
-624.434	-61.526	0.176	0.074
-623.419	-84.482	0.147	-0.046
-622.405	-103.434	0.338	-0.080
-621.390	-129.193	-0.331	-0.046
-620.376	-26.927	-0.292	0.171
-619.361	-96.277	0.429	0.114
-618.346	21.680	-0.271	0.221
-617.332	242.021	0.186	-0.312
-616.317	800.000	0.032	-0.109
-615.303	-86.428	-0.227	-0.070
-614.288	-150.025	0.050	-0.004
-613.273	-66.345	-0.094	0.037
-612.259	65.630	-0.032	-0.033
-611.244	-200.000	-0.054	0.374
-610.230	17.272	-0.133	-0.106
-609.215	-120.182	0.106	0.018
-608.201	3.144	-0.200	-0.146
-607.186	-200.000	-0.020	0.148
-606.171	-121.052	-0.185	-0.031
-605.157	-200.000	-0.006	-0.052
-604.142	-102.447	0.048	0.012
-603.128	107.446	-0.123	-0.147
-602.113	-200.000	0.070	0.462
-601.098	158.697	-0.157	0.218
-600.084	11.115	-0.254	-0.194
-599.069	-200.000	0.079	-0.361
-598.055	358.036	-0.124	-0.249
-597.040	-200.000	0.011	0.286
-596.025	-88.362	-0.199	0.060
-595.011	-144.644	-0.158	0.015
-593.996	-20.860	-0.076	0.047
-592.982	-200.000	0.015	-0.080
-591.967	60.845	-0.156	0.154
-590.952	-200.000	0.073	0.389
-589.938	-34.590	0.465	0.255
-588.923	76.532	-0.137	-0.145
-587.909	-200.000	0.061	0.303
-586.894	365.457	0.088	0.177
-585.879	-27.622	-0.248	-0.144
-584.865	-52.746	-0.162	-0.075
-583.850	-200.000	-0.008	-0.094
-582.836	87.697	0.115	-0.127
-581.821	-200.000	0.023	-0.142
-580.806	385.252	-0.095	0.196
-579.792	133.174	-0.086	-0.111
-578.777	167.524	-0.062	0.087
-577.763	-112.640	-0.140	-0.028
-576.748	87.733	-0.254	-0.282
-575.733	-200.000	-0.042	0.232
-574.719	-200.000	-0.014	-0.137
-573.704	-52.175	-0.223	-0.103
-572.690	-16.835	0.099	-0.063
-571.675	406.361	0.074	-0.156
-570.661	272.159	-0.068	-0.119
-569.646	179.222	0.114	-0.167
-568.631	38.028	0.089	-0.079
-567.617	-124.709	-0.156	-0.024
-566.602	-122.985	0.265	0.043
-565.588	412.298	0.090	-0.192
-564.573	-30.071	-0.169	0.096
-563.558	166.961	0.198	-0.281
-562.544	76.390	0.225	-0.239
-561.529	-22.817	-0.441	-0.266
-560.515	-6.843	0.271	-0.184
-559.500	800.000	0.034	0.146
-558.485	-200.000	0.046	-0.208
-557.471	-200.000	0.010	0.144
-556.456	67.613	0.154	-0.158
-555.442	53.334	0.310	-0.297
-554.427	800.000	-0.004	-0.011
-553.412	-50.730	0.130	0.061
-552.398	131.808	-0.012	0.016
-551.383	-12.223	0.234	0.153
-550.369	800.000	0.058	0.243
-549.354	580.462	0.089	-0.218
-548.339	-200.000	-0.004	-0.194
-547.325	-107.921	-0.324	0.070
-546.310	-108.489	-0.300	0.065
-545.296	800.000	-0.069	-0.221
-544.281	-200.000	0.046	-0.297
-543.266	5.521	0.321	0.237
-542.252	29.708	0.246	0.209
-541.237	-200.000	-0.018	-0.186
-540.223	-108.227	0.097	-0.021
-539.208	-110.224	-0.156	-0.032
-538.193	364.010	0.018	0.036
-537.179	-36.648	0.439	-0.236
-536.164	-85.161	-0.346	0.108
-535.150	76.247	0.159	-0.168
-534.135	-123.941	-0.140	0.022
-533.121	-132.449	0.393	0.051
-532.106	800.000	-0.044	-0.141
-531.091	-200.000	0.031	0.182
-530.077	-4.438	-0.297	0.205
-529.062	18.668	0.167	-0.133
-528.048	317.383	0.094	-0.178
-527.033	73.050	-0.073	-0.076
-526.018	-200.000	0.013	0.373
-525.004	56.469	-0.065	-0.063
-523.989	-200.000	0.031	0.201
-522.975	187.034	-0.130	0.193
-521.960	-98.861	-0.326	0.083
-520.945	-145.972	-0.127	0.011
-519.931	-55.935	0.157	0.070
-518.916	-54.909	-0.282	0.127
-517.902	-200.000	0.041	-0.323
-516.887	-76.224	0.363	-0.128
-515.872	6.293	-0.129	-0.095
-514.858	359.973	0.039	0.078
-513.843	-112.454	-0.358	-0.071
-512.829	-89.431	0.223	0.066
-511.814	108.898	-0.115	0.138
-510.799	-200.000	0.009	0.232
-509.785	85.303	0.179	0.196
-508.770	355.913	-0.132	-0.262
-507.756	112.423	-0.062	0.074
-506.741	130.652	-0.146	-0.187
-505.726	-200.000	0.049	-0.231
-504.712	-101.960	0.102	0.024
-503.697	286.766	-0.115	-0.206
-502.683	-107.753	-0.149	-0.032
-501.668	280.194	-0.140	0.250
-500.653	19.236	0.182	-0.145
-499.639	-32.729	0.106	-0.059
-498.624	-76.696	0.087	-0.031
-497.610	-200.000	0.032	0.159
-496.595	800.000	-0.071	-0.210
-495.581	39.001	0.104	-0.093
-494.566	-200.000	-0.015	-0.195
-493.551	49.463	-0.187	-0.175
-492.537	144.341	-0.241	0.321
-491.522	-200.000	-0.008	0.191
-490.508	-200.000	0.041	0.317
-489.493	800.000	-0.038	-0.140
-488.478	-82.142	-0.245	0.079
-487.464	-13.870	0.302	0.194
-486.449	231.771	-0.030	-0.049
-485.435	800.000	-0.078	-0.231
-484.420	-154.215	0.297	0.020
-483.405	-172.768	0.108	-0.003
-482.391	38.159	-0.175	-0.155
-481.376	-200.000	-0.033	-0.171
-480.362	-3.922	0.279	0.193
-479.347	141.030	0.219	-0.289
-478.332	-146.223	-0.295	0.026
-477.318	268.810	-0.093	0.163
-476.303	620.728	0.104	0.261
-475.289	267.784	-0.052	0.091
-474.274	-191.170	-0.287	0.003
-473.259	800.000	0.035	-0.117
-472.245	-120.026	0.251	-0.043
-471.230	-108.974	0.265	0.056
-470.216	-150.479	0.200	-0.015
-469.201	340.939	0.112	-0.218
-468.186	-124.691	0.047	0.007
-467.172	-167.437	0.165	0.007
-466.157	-35.700	-0.172	-0.093
-465.143	20.412	-0.025	-0.020
-464.128	118.799	0.048	-0.060
-463.113	168.739	0.218	-0.310
-462.099	102.856	-0.184	0.215
-461.084	800.000	0.038	-0.147
-460.070	66.378	0.104	0.105
-459.055	126.370	0.135	-0.169
-458.040	139.343	0.128	-0.168
-457.026	173.634	0.104	0.150
-456.011	-1.986	0.060	0.042
-454.997	-87.285	-0.152	-0.046
-453.982	-200.000	0.022	0.131
-452.968	287.062	-0.245	0.440
-451.953	-19.686	-0.113	0.070
-450.938	-17.367	0.132	-0.083
-449.924	-73.837	-0.097	-0.035
-448.909	-98.190	0.152	-0.039
-447.895	-108.992	-0.253	-0.054
-446.880	178.329	0.125	-0.182
-445.865	285.919	0.162	-0.291
-444.851	11.537	-0.248	-0.189
-443.836	64.581	0.048	0.048
-442.822	385.463	-0.143	0.294
-441.807	328.350	0.095	-0.182
-440.792	271.534	0.062	0.109
-439.778	-110.301	-0.218	0.045
-438.763	-160.721	0.122	0.006
-437.749	-59.290	0.091	-0.039
-436.734	-48.816	-0.163	-0.078
-435.719	-49.229	-0.166	-0.079
-434.705	-200.000	0.002	-0.215
-433.690	-200.000	-0.027	0.232
-432.676	138.074	0.096	-0.125
-431.661	52.912	0.245	-0.233
-430.646	-92.558	0.098	0.027
-429.632	-19.161	-0.155	0.096
-428.617	436.831	-0.014	0.031
-427.603	-200.000	0.019	0.131
-426.588	-7.555	-0.212	0.143
-425.573	800.000	0.149	-0.434
-424.559	-38.134	-0.047	-0.025
-423.544	51.731	-0.194	0.183
-422.530	800.000	0.073	-0.212
-421.515	279.227	-0.127	0.225
-420.500	-200.000	-0.029	-0.190
-419.486	800.000	0.079	0.242
-418.471	-167.574	-0.073	0.003
-417.457	-200.000	-0.052	-0.333
-416.442	-98.148	-0.145	-0.037
-415.428	-185.714	-0.279	-0.004
-414.413	-70.173	-0.228	0.086
-413.398	15.604	0.080	-0.063
-412.384	-200.000	0.009	0.055
-411.369	18.373	-0.312	-0.248
-410.355	-200.000	-0.006	0.175
-409.340	166.303	0.176	0.247
-408.325	-93.246	-0.185	-0.051
-407.311	303.564	0.139	0.256
-406.296	800.000	-0.123	-0.354
-405.282	-200.000	0.005	-0.221
-404.267	800.000	0.110	0.302
-403.252	144.715	0.060	-0.079
-402.238	91.755	0.065	-0.073
-401.223	-12.832	-0.073	0.047
-400.209	103.392	-0.146	-0.170
-399.194	462.320	-0.120	-0.265
-398.179	418.346	-0.179	-0.380
-397.165	24.014	0.221	0.181
-396.150	668.555	0.146	0.374
-395.136	-57.744	0.380	0.165
-394.121	-39.755	-0.373	-0.194
-393.106	135.112	-0.085	-0.110
-392.092	-68.186	-0.291	0.112
-391.077	800.000	0.099	-0.295
-390.063	517.470	0.051	-0.118
-389.048	290.684	-0.071	0.128
-388.033	-20.427	-0.056	0.034
-387.019	800.000	-0.031	-0.110
-386.004	-200.000	-0.014	-0.221
-384.990	-85.179	-0.225	0.070
-383.975	-13.474	-0.060	0.039
-382.960	-105.821	-0.134	-0.030
-381.946	-48.681	0.119	0.057
-380.931	328.849	0.200	0.382
-379.917	344.575	-0.104	0.203
-378.902	99.814	-0.089	0.103
-377.888	-106.087	0.200	0.045
-376.873	-42.142	0.205	-0.104
-375.858	201.200	0.103	-0.157
-374.844	-95.745	-0.166	-0.044
-373.829	-132.679	0.108	0.014
-372.815	58.416	-0.155	0.151
-371.800	-200.000	0.001	0.022
-370.785	232.261	-0.051	0.083
-369.771	-183.243	-0.454	0.008
-368.756	93.334	0.106	0.118
-367.742	46.163	-0.080	-0.074
-366.727	-120.651	0.143	-0.024
-365.712	-200.000	0.014	-0.188
-364.698	185.668	-0.084	0.124
-363.683	255.054	0.071	0.120
-362.669	493.383	0.030	-0.069
-361.654	-200.000	-0.013	-0.066
-360.639	-5.711	0.326	0.221
-359.625	62.706	0.148	-0.147
-358.610	-148.014	-0.196	0.016
-357.596	-69.669	-0.161	0.061
-356.581	169.695	-0.204	0.288
-355.566	-53.475	0.350	0.159
-354.552	-200.000	-0.006	-0.067
-353.537	-70.169	-0.247	0.093
-352.523	-93.867	-0.276	-0.075
-351.508	-157.082	-0.165	0.010
-350.493	142.289	0.198	-0.261
-349.479	-176.658	-0.330	0.008
-348.464	48.734	-0.490	0.455
-347.450	319.799	0.127	0.238
-346.435	-200.000	0.063	-0.297
-345.420	194.263	0.047	0.071
-344.406	-200.000	0.000	-0.195
-343.391	-200.000	-0.076	-0.389
-342.377	-36.873	-0.115	0.061
-341.362	-98.246	0.096	0.025
-340.348	-134.461	0.242	0.029
-339.333	581.478	0.084	0.203
-338.318	-127.502	-0.188	-0.027
-337.304	-85.371	-0.154	-0.048
-336.289	107.801	0.181	-0.213
-335.275	-200.000	0.027	0.174
-334.260	-47.077	-0.294	0.142
-333.245	800.000	-0.060	-0.197
-332.231	-175.824	0.185	-0.005
-331.216	199.971	0.079	-0.120
-330.202	-78.578	-0.095	-0.032
-329.187	-104.638	-0.252	-0.057
-328.172	218.740	0.105	-0.166
-327.158	32.285	-0.151	0.129
-326.143	-200.000	-0.018	-0.130
-325.129	-17.569	-0.240	0.149
-324.114	-200.000	-0.006	-0.065
-323.099	-118.240	-0.312	-0.055
-322.085	215.332	0.109	-0.172
-321.070	-200.000	0.022	0.201
-320.056	636.287	-0.144	-0.362
-319.041	78.904	0.061	-0.064
-318.026	137.124	-0.215	0.279
-317.012	18.480	0.222	-0.176
-315.997	-71.200	0.102	0.038
-314.983	694.878	-0.165	0.429
-313.968	-116.389	-0.365	-0.067
-312.953	-200.000	0.061	0.283
-311.939	-133.569	0.086	-0.011
-310.924	-200.000	-0.030	0.252
-309.910	136.806	-0.102	0.132
-308.895	-200.000	-0.037	-0.312
-307.880	-200.000	0.055	0.344
-306.866	-79.829	-0.164	0.054
-305.851	-1.399	0.167	-0.117
-304.837	-55.403	-0.543	0.241
-303.822	-200.000	0.048	0.354
-302.807	-200.000	-0.037	0.223
-301.793	215.144	0.167	0.262
-300.778	34.725	-0.037	-0.032
-299.764	800.000	-0.019	-0.078
-298.749	-200.000	-0.021	-0.106
-297.735	800.000	-0.128	-0.546
-296.720	800.000	0.018	-0.055
-295.705	35.703	0.249	0.217
-294.691	-136.876	0.366	0.042
-293.676	76.725	0.006	0.006
-292.662	62.507	-0.223	-0.220
-291.647	130.594	-0.195	-0.247
-290.632	-112.925	0.497	-0.097
-289.618	800.000	-0.088	0.363
-288.603	4.676	0.146	0.106
-287.589	-137.936	-0.181	0.020
-286.574	-200.000	0.007	0.237
-285.559	-174.023	-0.154	-0.004
-284.545	7.401	-0.186	0.138
-283.530	-85.301	0.402	0.124
-282.516	91.423	0.175	0.194
-281.501	235.129	-0.105	0.171
-280.486	239.697	0.163	-0.268
-279.472	25.322	0.093	-0.076
-278.457	-120.352	0.137	0.023
-277.443	219.832	-0.175	0.277
-276.428	800.000	0.102	0.300
-275.413	-31.168	-0.031	0.017
-274.399	800.000	-0.042	0.174
-273.384	-59.698	0.256	0.108
-272.370	66.259	0.060	-0.060
-271.355	-200.000	-0.024	-0.373
-270.340	800.000	-0.014	0.052
-269.326	546.688	-0.050	-0.118
-268.311	-114.815	-0.056	0.011
-267.297	508.346	-0.048	0.111
-266.282	57.926	0.259	0.251
-265.267	117.851	-0.103	-0.125
-264.253	-29.735	0.213	0.120
-263.238	256.124	0.077	0.131
-262.224	-200.000	-0.013	-0.058
-261.209	-68.659	0.181	0.069
-260.195	468.169	0.103	-0.229
-259.180	-200.000	-0.029	-0.180
-258.165	-42.953	0.249	-0.125
-257.151	-180.795	0.272	0.005
-256.136	504.967	0.041	-0.094
-255.122	36.582	0.181	0.158
-254.107	-200.000	0.019	0.126
-253.092	196.917	0.144	-0.216
-252.078	-200.000	0.034	-0.319
-251.063	435.134	-0.143	0.308
-250.049	800.000	-0.054	0.224
-249.034	3.137	-0.100	-0.072
-248.019	24.404	0.171	-0.140
-247.005	800.000	0.013	0.049
-245.990	-200.000	-0.014	0.274
-244.976	69.806	0.170	-0.173
-243.961	40.340	-0.222	0.197
-242.946	-200.000	0.024	0.191
-241.932	-2.473	0.337	0.233
-240.917	800.000	0.055	-0.213
-239.903	-65.952	0.059	0.023
-238.888	0.305	-0.047	0.033
-237.873	-82.388	-0.082	-0.026
-236.859	-109.821	0.011	-0.002
-235.844	-108.475	-0.367	0.078
-234.830	-188.380	0.145	-0.002
-233.815	-123.901	0.140	0.022
-232.800	75.063	-0.235	0.245
-231.786	56.804	0.180	0.173
-230.771	-8.526	-0.118	0.078
-229.757	800.000	-0.068	0.265
-228.742	800.000	-0.110	-0.407
-227.727	-135.651	-0.119	-0.014
-226.713	4.948	-0.260	0.188
-225.698	800.000	0.105	-0.313
-224.684	-86.452	0.168	0.051
-223.669	388.803	-0.043	-0.087
-222.655	-200.000	-0.046	0.451
-221.640	152.522	0.148	0.200
-220.625	-119.309	-0.171	-0.029
-219.611	-85.851	0.314	-0.096
-218.596	39.346	0.081	0.072
-217.582	-200.000	0.007	-0.038
-216.567	27.498	0.051	0.043
-215.552	-28.362	0.112	0.064
-214.538	-69.242	-0.146	0.055
-213.523	-0.676	0.132	0.093
-212.509	-200.000	-0.051	0.235
-211.494	684.184	0.062	0.161
-210.479	-102.661	-0.403	-0.095
-209.465	800.000	0.109	-0.333
-208.450	800.000	0.065	0.232
-207.436	113.474	0.122	0.146
-206.421	-5.930	0.107	-0.072
-205.406	52.001	-0.189	-0.177
-204.392	-200.000	-0.005	-0.128
-203.377	-114.186	-0.254	-0.048
-202.363	-38.501	-0.064	-0.034
-201.348	165.164	-0.151	-0.211
-200.333	-119.384	0.184	0.032
-199.319	591.473	0.170	0.413
-198.304	-99.891	0.358	0.088
-197.290	371.798	0.054	0.108
-196.275	97.726	0.133	-0.151
-195.260	149.343	-0.014	0.019
-194.246	800.000	0.018	0.066
-193.231	472.949	0.109	0.243
-192.217	-32.045	0.132	-0.073
-191.202	397.753	-0.086	0.178
-190.187	54.999	0.167	-0.159
-189.173	-17.959	-0.082	0.050
-188.158	175.660	-0.113	-0.161
-187.144	-200.000	0.018	-0.271
-186.129	-200.000	-0.006	-0.266
-185.114	184.919	-0.136	0.198
-184.100	-4.465	-0.379	-0.258
-183.085	-31.681	0.211	0.116
-182.071	-200.000	0.069	-0.346
-181.056	14.635	0.218	0.168
-180.042	-71.026	0.357	-0.132
-179.027	-200.000	-0.035	0.250
-178.012	-200.000	0.009	0.248
-176.998	544.544	-0.113	-0.266
-175.983	-98.889	0.206	-0.051
-174.969	43.214	0.318	-0.286
-173.954	42.498	-0.093	-0.084
-172.939	-200.000	0.049	0.220
-171.925	459.610	0.059	0.129
-170.910	-151.259	0.304	-0.022
-169.896	305.309	-0.132	0.241
-168.881	800.000	0.078	-0.247
-167.866	49.480	-0.086	-0.080
-166.852	771.924	-0.035	-0.093
-165.837	-45.645	-0.061	-0.030
-164.823	-165.279	-0.118	0.005
-163.808	-178.902	-0.121	-0.003
-162.793	-78.804	-0.124	0.042
-161.779	193.447	-0.134	0.200
-160.764	257.690	-0.114	-0.193
-159.750	286.787	-0.042	0.075
-158.735	-38.440	0.144	0.075
-157.720	-200.000	0.070	0.541
-156.706	29.483	0.063	-0.053
-155.691	-85.784	-0.137	0.042
-154.677	-114.059	-0.201	-0.038
-153.662	-200.000	-0.007	-0.187
-152.647	-31.580	-0.144	0.080
-151.633	-93.322	0.249	0.068
-150.618	-76.257	0.166	-0.058
-149.604	-76.593	0.213	0.074
-148.589	-200.000	-0.021	0.110
-147.574	-65.724	0.090	0.035
-146.560	-200.000	-0.011	0.142
-145.545	586.989	0.096	0.232
-144.531	-200.000	-0.027	0.306
-143.516	800.000	-0.069	-0.204
-142.502	595.305	0.080	0.193
-141.487	-97.316	0.201	0.051
-140.472	-24.364	-0.324	-0.190
-139.458	-55.313	0.043	-0.019
-138.443	389.003	0.083	0.169
-137.429	-54.524	0.171	-0.076
-136.414	-200.000	0.019	0.130
-135.399	-74.306	-0.374	-0.133
-134.385	197.678	0.171	0.256
-133.370	-27.356	0.365	0.209
-132.356	88.044	0.180	0.196
-131.341	-114.818	-0.328	-0.061
-130.326	-74.642	-0.111	0.039
-129.312	0.281	-0.012	-0.008
-128.297	-200.000	0.058	-0.461
-127.283	93.034	0.012	-0.014
-126.268	25.700	-0.078	-0.064
-125.253	-88.492	0.209	-0.061
-124.239	-114.085	0.097	0.018
-123.224	-72.242	-0.131	0.048
-122.210	-200.000	0.051	0.426
-121.195	46.746	0.234	0.213
