DTS Sentinel unit serial number:	SN413079Multiplexer serial number:	ORYXHardware model number:	OX4-SRSoftware version number:	ORYX F/W v4.00 Oryx Data Collector v3.7.2.0data status	okinstallation	princeton_trtdifferential loss correction	single-endedforward channel	channel 2reverse channel	N/Adate	2019/09/14time	15:31:35forward acquisition time	60.00reverse acquisition time	0.00gamma	496.2192k internal	0.2304k external	0.2304temperature offset calibration	1.0146default loss term (dB/km)	0.3790temperature slope calibration	1.0000multiplexer offset coefficient	1.0000multiplexer slope coefficient	1.0000fibre end	0.00T internal ref (°C)	38.87T ext. ref 1 (°C)	5.14T ext. ref 2 (°C)	33.47length (m)	temperature (°C)	Stokes	anti-Stokes-747.200	-35.697	-0.318	-0.176
-746.185	130.693	0.081	0.106
-745.171	-34.258	-0.037	0.021
-744.156	800.000	0.028	0.097
-743.142	-160.397	0.355	-0.019
-742.127	16.057	-0.331	0.266
-741.112	800.000	0.091	0.265
-740.098	-94.973	-0.301	0.083
-739.083	-58.806	-0.081	0.036
-738.069	-200.000	-0.055	0.271
-737.054	-200.000	0.021	-0.134
-736.039	-157.657	0.069	0.004
-735.025	416.073	-0.139	0.303
-734.010	-200.000	-0.003	-0.073
-732.996	36.306	-0.150	-0.134
-731.981	-105.358	0.310	0.072
-730.966	-200.000	0.000	-0.073
-729.952	-73.065	-0.249	-0.093
-728.937	461.140	-0.095	-0.216
-727.923	-41.672	-0.069	-0.036
-726.908	800.000	-0.077	0.306
-725.894	-71.717	0.147	-0.056
-724.879	800.000	-0.019	-0.080
-723.864	183.152	-0.098	-0.147
-722.850	-49.418	-0.205	0.099
-721.835	341.605	0.081	0.162
-720.821	443.097	-0.022	-0.049
-719.806	-77.362	-0.240	-0.085
-718.791	29.831	0.043	0.037
-717.777	118.803	-0.030	-0.038
-716.762	142.461	-0.035	-0.048
-715.748	-75.883	-0.332	0.120
-714.733	-5.540	0.070	-0.049
-713.718	800.000	0.069	-0.273
-712.704	90.883	-0.133	-0.152
-711.689	-88.354	0.041	-0.013
-710.675	-110.906	-0.330	0.069
-709.660	-200.000	-0.017	0.278
-708.645	-200.000	0.042	0.194
-707.631	-112.745	-0.240	-0.049
-706.616	-200.000	-0.019	0.166
-705.602	-79.372	0.451	-0.155
-704.587	-200.000	-0.028	-0.284
-703.572	-74.032	0.432	-0.159
-702.558	28.275	0.254	-0.218
-701.543	313.401	0.066	0.126
-700.529	-32.330	0.045	-0.026
-699.514	489.773	0.116	0.269
-698.499	479.473	-0.085	0.196
-697.485	52.731	0.057	-0.056
-696.470	-146.865	0.106	0.009
-695.456	266.725	0.199	0.354
-694.441	199.698	-0.141	0.220
-693.426	25.632	0.102	0.086
-692.412	-166.218	-0.146	0.006
-691.397	-8.936	-0.290	0.197
-690.383	-142.154	-0.232	-0.023
-689.368	232.653	-0.131	-0.218
-688.354	-3.312	-0.173	-0.122
-687.339	-78.420	-0.166	-0.058
-686.324	-200.000	-0.071	0.345
-685.310	-146.370	-0.088	-0.008
-684.295	68.243	0.258	0.269
-683.281	466.108	-0.093	-0.212
-682.266	-82.640	-0.157	0.052
-681.251	496.000	0.197	-0.460
-680.237	800.000	0.049	-0.136
-679.222	-69.887	-0.326	-0.126
-678.208	276.927	0.124	0.224
-677.193	-14.727	-0.071	0.047
-676.178	525.556	-0.075	-0.178
-675.164	800.000	-0.071	0.218
-674.149	243.522	0.086	0.146
-673.135	469.105	0.079	-0.180
-672.120	-200.000	0.004	-0.127
-671.105	-130.867	-0.197	0.027
-670.091	-40.101	-0.139	-0.073
-669.076	55.212	-0.274	0.269
-668.062	-113.231	-0.056	-0.011
-667.047	-132.198	-0.378	-0.050
-666.032	-85.661	-0.214	-0.068
-665.018	-200.000	0.007	-0.159
-664.003	800.000	-0.121	0.452
-662.989	235.306	-0.239	0.401
-661.974	-89.602	0.190	-0.057
-660.959	-200.000	-0.014	-0.433
-659.945	273.183	-0.211	-0.378
-658.930	2.739	-0.194	0.143
-657.916	800.000	-0.013	-0.045
-656.901	-75.205	-0.254	-0.092
-655.886	-200.000	-0.004	-0.200
-654.872	-200.000	-0.149	0.000
-653.857	-120.103	0.073	-0.013
-652.843	-200.000	0.012	0.197
-651.828	776.751	0.073	-0.202
-650.814	253.906	0.058	-0.101
-649.799	-149.279	-0.298	0.024
-648.784	800.000	0.018	0.074
-647.770	140.011	0.149	-0.199
-646.755	213.728	-0.032	-0.051
-645.741	-39.173	0.204	-0.109
-644.726	-200.000	0.044	-0.325
-643.711	136.548	0.132	-0.175
-642.697	57.235	0.072	-0.072
-641.682	-80.593	-0.161	0.055
-640.668	-47.473	-0.282	0.139
-639.653	-88.555	-0.131	0.040
-638.638	-65.152	0.144	-0.059
-637.624	-200.000	-0.028	-0.188
-636.609	-57.513	0.387	-0.172
-635.595	138.859	-0.164	0.219
-634.580	-200.000	0.016	0.195
-633.565	720.466	0.160	-0.431
-632.551	741.875	0.025	-0.068
-631.536	-200.000	0.131	-0.596
-630.522	-160.225	0.066	0.004
-629.507	-25.785	0.170	0.102
-628.492	252.840	-0.134	-0.231
-627.478	-97.595	-0.005	0.001
-626.463	800.000	0.048	0.134
-625.449	800.000	0.083	-0.270
-624.434	-200.000	0.012	-0.084
-623.419	360.415	-0.032	-0.065
-622.405	-200.000	-0.013	0.066
-621.390	-100.233	0.304	0.077
-620.376	-26.576	-0.216	0.128
-619.361	4.371	-0.097	0.072
-618.346	800.000	0.029	-0.094
-617.332	-200.000	-0.008	-0.429
-616.317	220.745	-0.057	0.093
-615.303	800.000	-0.084	-0.243
-614.288	-89.415	-0.274	-0.082
-613.273	279.225	0.008	-0.015
-612.259	-117.064	-0.457	-0.084
-611.244	-116.293	-0.162	-0.030
-610.230	-200.000	-0.047	-0.304
-609.215	-57.353	-0.191	0.085
-608.201	-200.000	0.010	-0.291
-607.186	-200.000	0.055	0.311
-606.171	192.721	0.039	0.059
-605.157	619.823	-0.111	-0.282
-604.142	712.091	0.027	0.071
-603.128	-200.000	0.003	-0.171
-602.113	63.997	0.110	0.112
-601.098	234.735	-0.128	-0.213
-600.084	-103.853	-0.243	-0.058
-599.069	800.000	-0.035	-0.154
-598.055	800.000	0.036	0.117
-597.040	-200.000	0.032	0.229
-596.025	-174.663	-0.368	0.011
-595.011	271.961	0.158	0.281
-593.996	800.000	0.116	0.419
-592.982	-200.000	0.020	0.257
-591.967	-82.934	-0.360	-0.117
-590.952	-7.295	-0.248	-0.170
-589.938	547.370	0.160	0.387
-588.923	-200.000	-0.047	0.369
-587.909	-100.960	0.211	0.052
-586.894	395.404	0.045	-0.094
-585.879	-88.527	-0.238	0.072
-584.865	0.883	0.163	-0.118
-583.850	-112.522	0.058	0.012
-582.836	135.719	-0.116	0.152
-581.821	-58.616	0.297	-0.130
-580.806	-200.000	-0.010	-0.144
-579.792	800.000	-0.055	0.155
-578.777	17.421	0.207	0.166
-577.763	133.412	-0.202	0.264
-576.748	-51.783	-0.241	-0.114
-575.733	-103.903	-0.085	-0.020
-574.719	-153.495	-0.308	0.022
-573.704	-125.015	-0.177	0.028
-572.690	-200.000	-0.010	-0.321
-571.675	627.169	0.096	0.246
-570.661	128.670	-0.132	0.170
-569.646	159.102	0.140	0.197
-568.631	-0.276	0.070	-0.050
-567.617	-44.002	0.223	-0.113
-566.602	-111.040	0.126	-0.026
-565.588	51.520	0.028	0.027
-564.573	-75.095	-0.200	0.072
-563.558	-78.053	-0.345	0.120
-562.544	-45.671	-0.127	0.064
-561.529	800.000	-0.064	-0.265
-560.515	115.776	0.101	0.124
-559.500	10.851	0.305	-0.235
-558.485	511.122	0.074	-0.175
-557.471	27.980	-0.244	-0.208
-556.456	474.840	-0.082	0.187
-555.442	-28.312	0.070	-0.041
-554.427	109.065	0.165	-0.199
-553.412	-99.580	0.061	0.015
-552.398	-45.742	0.227	0.113
-551.383	-88.099	-0.067	-0.020
-550.369	162.581	-0.165	-0.234
-549.354	682.583	-0.124	-0.326
-548.339	55.095	-0.116	-0.114
-547.325	-83.091	0.258	0.084
-546.310	59.085	-0.182	0.181
-545.296	-97.863	-0.154	0.040
-544.281	212.558	-0.047	0.075
-543.266	19.650	0.115	0.094
-542.252	73.368	-0.209	-0.221
-541.237	-162.547	0.096	0.005
-540.223	-27.849	-0.241	0.141
-539.208	750.707	0.083	-0.225
-538.193	-135.578	0.204	0.025
-537.179	-25.064	0.042	-0.025
-536.164	-18.058	-0.074	0.047
-535.150	8.761	0.227	-0.173
-534.135	800.000	-0.039	-0.119
-533.121	800.000	0.108	-0.381
-532.106	-15.391	-0.252	-0.163
-531.091	3.020	-0.189	0.139
-530.077	-136.508	0.457	-0.054
-529.062	277.302	-0.055	0.098
-528.048	-17.095	0.154	-0.098
-527.033	550.077	0.077	-0.185
-526.018	-155.573	0.274	-0.018
-525.004	-137.403	-0.062	-0.007
-523.989	703.296	0.051	-0.135
-522.975	800.000	0.034	0.098
-521.960	-76.373	-0.257	-0.091
-520.945	-109.769	0.307	-0.065
-519.931	-200.000	0.000	0.306
-518.916	32.938	0.163	0.143
-517.902	186.735	-0.126	0.189
-516.887	-1.144	0.222	-0.158
-515.872	230.822	0.115	0.191
-514.858	199.809	0.141	0.218
-513.843	-120.401	-0.389	0.067
-512.829	-200.000	-0.049	0.217
-511.814	800.000	-0.098	0.356
-510.799	-115.747	-0.218	0.041
-509.785	800.000	0.085	-0.324
-508.770	263.119	0.195	0.342
-507.756	51.061	-0.172	0.164
-506.741	97.213	-0.151	-0.175
-505.726	-102.866	0.272	-0.065
-504.712	280.177	0.142	0.256
-503.697	27.005	0.197	-0.167
-502.683	-32.930	0.212	0.119
-501.668	378.856	0.061	0.127
-500.653	-23.137	0.197	-0.120
-499.639	-113.512	-0.221	0.044
-498.624	65.508	-0.365	-0.373
-497.610	124.451	0.097	-0.123
-496.595	-41.369	-0.192	0.100
-495.581	-200.000	-0.008	0.059
-494.566	295.183	0.163	-0.301
-493.551	151.503	0.148	0.203
-492.537	-189.097	0.107	-0.001
-491.522	-48.339	0.097	0.047
-490.508	-200.000	-0.026	-0.277
-489.493	800.000	-0.036	-0.125
-488.478	-157.051	0.199	0.012
-487.464	64.073	-0.258	-0.261
-486.449	647.837	0.070	-0.181
-485.435	35.389	0.154	-0.136
-484.420	21.852	-0.230	0.189
-483.405	-128.418	0.093	-0.013
-482.391	-200.000	0.065	-0.318
-481.376	528.520	-0.087	-0.207
-480.362	-200.000	0.014	-0.133
-479.347	125.058	0.182	-0.231
-478.332	16.418	-0.171	-0.136
-477.318	-7.439	0.309	0.211
-476.303	-60.757	-0.349	-0.149
-475.289	321.370	-0.046	-0.087
-474.274	-96.266	-0.461	-0.123
-473.259	800.000	0.122	0.473
-472.245	800.000	0.083	-0.277
-471.230	137.095	-0.044	-0.058
-470.216	-200.000	0.088	0.590
-469.201	6.335	-0.296	0.221
-468.186	-127.437	-0.103	-0.015
-467.172	800.000	-0.079	0.295
-466.157	168.316	-0.031	0.044
-465.143	-120.214	-0.149	-0.026
-464.128	-130.490	0.282	-0.038
-463.113	-48.925	0.125	-0.060
-462.099	72.592	-0.112	0.117
-461.084	2.975	0.520	0.380
-460.070	43.319	-0.126	0.116
-459.055	-77.753	0.142	-0.050
-458.040	22.978	-0.282	-0.233
-457.026	395.223	-0.084	-0.176
-456.011	708.359	-0.003	0.008
-454.997	-200.000	-0.014	0.192
-453.982	-200.000	-0.010	0.171
-452.968	-200.000	0.034	-0.324
-451.953	-200.000	-0.001	-0.119
-450.938	-200.000	-0.037	-0.251
-449.924	800.000	-0.058	-0.168
-448.909	-73.803	-0.234	0.086
-447.895	-16.176	0.265	0.170
-446.880	41.552	-0.091	-0.083
-445.865	800.000	0.045	0.136
-444.851	97.634	0.156	0.180
-443.836	-69.493	0.039	-0.015
-442.822	-19.706	-0.115	-0.072
-441.807	-200.000	-0.015	-0.179
-440.792	77.810	0.366	-0.392
-439.778	-125.240	-0.534	0.082
-438.763	-17.082	-0.249	0.158
-437.749	-38.883	-0.052	0.028
-436.734	-200.000	0.006	-0.062
-435.719	-6.540	0.305	-0.209
-434.705	-40.064	0.236	0.124
-433.690	-151.996	-0.048	-0.004
-432.676	-136.812	0.161	0.019
-431.661	35.823	0.289	-0.256
-430.646	7.240	-0.095	-0.071
-429.632	82.879	0.090	-0.099
-428.617	-77.116	-0.336	0.118
-427.603	434.565	-0.058	-0.126
-426.588	-58.696	0.182	0.079
-425.573	108.522	0.306	0.367
-424.559	800.000	-0.034	0.121
-423.544	-32.169	0.167	0.094
-422.530	-200.000	0.016	0.072
-421.515	-56.496	0.113	0.050
-420.500	13.185	0.153	0.119
-419.486	109.694	-0.106	0.127
-418.471	-200.000	-0.054	-0.294
-417.457	474.059	0.101	0.229
-416.442	161.826	-0.110	0.154
-415.428	-6.148	0.104	0.072
-414.413	272.583	0.141	-0.249
-413.398	-200.000	-0.033	-0.171
-412.384	289.307	-0.090	0.164
-411.369	-78.924	0.203	-0.069
-410.355	30.381	0.122	0.105
-409.340	-95.064	-0.263	0.071
-408.325	-42.600	0.219	0.112
-407.311	-200.000	0.007	0.084
-406.296	591.586	0.150	-0.372
-405.282	-200.000	-0.039	0.234
-404.267	238.320	-0.120	-0.201
-403.252	800.000	0.093	-0.294
-402.238	-62.912	-0.222	0.092
-401.223	461.444	-0.144	0.322
-400.209	-73.033	0.366	0.135
-399.194	114.284	0.146	0.179
-398.179	-42.269	0.236	-0.121
-397.165	10.945	-0.186	0.143
-396.150	-200.000	0.026	-0.263
-395.136	-102.030	-0.315	0.076
-394.121	87.937	0.200	-0.223
-393.106	-40.325	0.143	0.074
-392.092	800.000	-0.028	0.102
-391.077	79.743	0.164	-0.177
-390.063	-41.542	-0.181	0.094
-389.048	98.444	-0.182	0.211
-388.033	46.209	-0.188	0.175
-387.019	786.900	0.037	0.102
-386.004	32.086	-0.192	-0.166
-384.990	69.461	-0.379	0.392
-383.975	367.461	-0.171	0.346
-382.960	-200.000	0.005	0.084
-381.946	-141.135	-0.099	0.010
-380.931	45.999	-0.296	0.275
-379.917	377.579	0.051	0.104
-378.902	-200.000	-0.000	0.029
-377.888	447.164	-0.011	-0.024
-376.873	800.000	-0.105	0.387
-375.858	800.000	0.015	-0.056
-374.844	-200.000	0.008	0.210
-373.829	-49.794	-0.397	0.189
-372.815	486.492	-0.121	0.277
-371.800	-121.639	0.191	-0.032
-370.785	-44.244	-0.121	-0.061
-369.771	416.998	0.198	0.424
-368.756	-200.000	0.044	-0.271
-367.742	-0.399	-0.159	0.113
-366.727	800.000	-0.098	-0.309
-365.712	-200.000	-0.007	-0.148
-364.698	-32.554	0.397	0.222
-363.683	451.445	-0.095	0.211
-362.669	202.273	-0.085	-0.131
-361.654	281.614	-0.210	0.378
-360.639	101.249	0.157	0.183
-359.625	54.869	-0.110	-0.106
-358.610	93.958	0.085	-0.097
-357.596	5.876	0.305	-0.227
-356.581	-200.000	-0.008	-0.042
-355.566	-200.000	-0.002	0.357
-354.552	117.789	0.201	0.248
-353.537	75.370	-0.120	0.127
-352.523	-58.548	0.225	-0.098
-351.508	-200.000	0.026	-0.256
-350.493	39.053	0.067	0.060
-349.479	665.133	-0.116	0.301
-348.464	800.000	0.079	-0.234
-347.450	-20.778	-0.217	-0.133
-346.435	-165.382	-0.016	-0.001
-345.420	42.410	-0.092	-0.083
-344.406	-126.141	-0.243	0.037
-343.391	6.754	0.227	-0.170
-342.377	-36.461	-0.191	-0.103
-341.362	132.347	-0.087	0.113
-340.348	-200.000	-0.001	-0.295
-339.333	82.194	-0.071	-0.077
-338.318	634.960	-0.174	-0.442
-337.304	-30.226	-0.308	0.175
-336.289	687.462	0.145	0.380
-335.275	108.648	0.208	-0.249
-334.260	800.000	0.060	0.198
-333.245	800.000	0.057	-0.178
-332.231	56.943	-0.376	-0.367
-331.216	-200.000	-0.008	-0.052
-330.202	-166.819	0.089	-0.004
-329.187	227.507	-0.081	-0.132
-328.172	800.000	0.052	-0.191
-327.158	-156.720	0.535	-0.033
-326.143	-102.251	0.429	-0.103
-325.129	73.432	-0.408	-0.428
-324.114	-200.000	0.015	-0.229
-323.099	-127.082	0.156	-0.023
-322.085	737.031	0.070	-0.187
-321.070	-123.928	0.457	0.072
-320.056	-200.000	0.007	-0.097
-319.041	-200.000	-0.008	-0.316
-318.026	4.741	-0.146	-0.108
-317.012	7.481	-0.339	-0.254
-315.997	-200.000	-0.087	0.387
-314.983	-69.172	0.059	0.023
-313.968	-103.104	0.307	-0.073
-312.953	-31.408	-0.280	0.157
-311.939	259.501	-0.121	-0.208
-310.924	-69.247	0.007	0.003
-309.910	-200.000	-0.031	0.203
-308.895	-71.237	0.168	-0.063
-307.880	-67.623	-0.299	0.117
-306.866	-89.002	-0.210	0.062
-305.851	116.095	0.122	-0.150
-304.837	-57.574	0.015	-0.007
-303.822	43.493	-0.201	0.184
-302.807	-68.076	-0.468	0.183
-301.793	800.000	-0.003	0.010
-300.778	115.178	0.148	0.180
-299.764	382.012	-0.032	-0.066
-298.749	672.297	0.020	-0.051
-297.735	-200.000	-0.005	0.077
-296.720	-33.115	0.202	0.112
-295.705	695.890	0.058	0.152
-294.691	-200.000	0.001	0.205
-293.676	141.177	0.059	-0.078
-292.662	-200.000	0.019	0.121
-291.647	-69.489	-0.333	-0.128
-290.632	-200.000	-0.028	0.249
-289.618	-96.859	0.316	0.083
-288.603	-128.202	-0.207	0.030
-287.589	-200.000	0.026	0.166
-286.574	-115.700	0.389	0.073
-285.559	-145.171	-0.112	-0.010
-284.545	-200.000	0.007	0.067
-283.530	-200.000	-0.016	-0.081
-282.516	799.330	-0.081	-0.224
-281.501	15.131	0.392	-0.307
-280.486	632.431	-0.115	0.290
-279.472	729.385	-0.125	0.334
-278.457	-55.136	-0.112	-0.050
-277.443	584.717	-0.093	-0.228
-276.428	800.000	-0.089	-0.272
-275.413	23.390	-0.213	0.175
-274.399	197.677	-0.209	0.319
-273.384	-200.000	-0.001	-0.027
-272.370	-145.061	0.127	-0.012
-271.355	239.919	0.089	0.149
-270.340	-136.067	-0.183	0.021
-269.326	92.744	0.099	-0.112
-268.311	800.000	-0.071	-0.294
-267.297	88.310	0.078	0.086
-266.282	49.281	0.051	0.048
-265.267	-200.000	-0.002	-0.013
-264.253	-8.831	-0.164	-0.110
-263.238	800.000	-0.061	-0.246
-262.224	651.810	-0.090	-0.230
-261.209	800.000	-0.094	0.278
-260.195	697.790	-0.128	0.335
-259.180	6.083	0.035	0.026
-258.165	53.622	-0.128	-0.123
-257.151	-162.894	-0.186	-0.009
-256.136	-66.319	0.275	-0.109
-255.122	-36.849	-0.248	0.133
-254.107	196.652	0.068	-0.103
-253.092	-43.062	0.159	0.081
-252.078	-200.000	0.159	-0.000
-251.063	800.000	0.128	-0.433
-250.049	-133.193	0.422	0.053
-249.034	267.344	-0.099	-0.172
-248.019	-87.436	0.175	0.053
-247.005	-57.681	-0.051	-0.022
-245.990	80.218	0.094	-0.101
-244.976	60.974	-0.058	-0.058
-243.961	-15.854	-0.108	-0.069
-242.946	52.589	-0.063	-0.060
-241.932	-114.858	0.298	-0.057
-240.917	6.555	-0.036	0.027
-239.903	93.770	-0.236	-0.267
-238.888	122.385	0.059	-0.073
-237.873	199.573	0.122	-0.187
-236.859	-200.000	-0.087	0.519
-235.844	470.561	-0.076	0.170
-234.830	-10.622	0.293	0.194
-233.815	-146.510	0.288	-0.025
-232.800	-116.955	-0.189	0.034
-231.786	-80.025	-0.107	0.036
-230.771	-3.326	0.209	-0.146
-229.757	-200.000	-0.054	0.282
-228.742	-31.044	-0.241	-0.136
-227.727	-200.000	0.010	-0.375
-226.713	-200.000	-0.050	-0.343
-225.698	-49.413	0.287	0.137
-224.684	-200.000	-0.004	-0.099
-223.669	68.058	-0.126	0.129
-222.655	796.028	-0.027	-0.075
-221.640	-100.738	-0.398	0.098
-220.625	32.633	-0.377	-0.325
-219.611	6.378	0.113	0.084
-218.596	49.857	-0.266	-0.250
-217.582	-93.268	-0.068	-0.019
-216.567	449.850	0.158	0.347
-215.552	613.573	-0.078	-0.195
-214.538	119.922	0.099	0.122
-213.523	334.551	-0.117	0.227
-212.509	-66.934	0.200	-0.079
-211.494	-8.520	0.179	0.120
-210.479	-55.974	0.230	-0.102
-209.465	-200.000	0.050	-0.399
-208.450	791.318	-0.052	-0.142
-207.436	-92.223	-0.107	0.030
-206.421	-24.636	0.409	0.243
-205.406	198.114	-0.189	0.288
-204.392	-147.709	-0.173	0.014
-203.377	-200.000	0.002	0.243
-202.363	-148.750	0.169	0.014
-201.348	109.331	0.137	-0.163
-200.333	800.000	0.050	-0.159
-199.319	16.887	0.169	-0.133
-198.304	-19.867	-0.150	0.093
-197.290	-200.000	0.004	-0.294
-196.275	-141.705	0.198	0.020
-195.260	-200.000	0.012	0.206
-194.246	-74.549	0.037	0.013
-193.231	-130.527	0.044	0.006
-192.217	-153.880	-0.068	0.005
-191.202	-48.310	0.035	-0.017
-190.187	501.504	0.130	0.300
-189.173	-123.731	-0.284	0.045
-188.158	48.676	0.018	-0.017
-187.144	277.995	-0.072	0.128
-186.129	116.530	-0.174	-0.213
-185.114	601.859	-0.030	0.075
-184.100	-81.427	0.308	0.101
-183.085	1.197	0.060	-0.043
-182.071	668.381	-0.060	0.155
-181.056	-200.000	0.013	0.079
-180.042	-54.583	0.326	-0.147
-179.027	29.588	0.151	0.128
-178.012	-110.070	-0.310	-0.065
-176.998	334.903	-0.133	0.257
-175.983	-200.000	0.007	-0.034
-174.969	25.909	0.098	-0.081
-173.954	166.346	-0.053	0.075
-172.939	-62.755	0.558	0.230
-171.925	-188.668	0.118	-0.001
-170.910	-186.768	-0.183	0.003
-169.896	69.381	-0.307	0.314
-168.881	-81.801	0.292	0.095
-167.866	102.329	0.152	0.177
-166.852	-200.000	-0.005	-0.083
-165.837	-51.663	0.384	-0.178
-164.823	159.151	0.113	-0.156
-163.808	-57.855	-0.062	0.027
-162.793	56.785	-0.145	0.141
-161.779	-177.103	0.324	0.008
-160.764	-200.000	0.023	0.123
-159.750	-22.040	-0.071	0.043
-158.735	5.577	-0.027	-0.020
-157.720	-200.000	-0.029	0.206
-156.706	-200.000	0.008	0.171
-155.691	297.465	0.057	-0.105
-154.677	14.558	0.212	0.165
-153.662	-88.950	0.092	0.027
-152.647	503.024	-0.083	0.191
-151.633	19.333	-0.053	-0.042
-150.618	129.717	0.114	-0.144
-149.604	-105.040	0.098	-0.022
-148.589	662.364	0.059	0.152
-147.574	48.896	0.458	0.427
-146.560	-200.000	-0.093	0.000
-145.545	229.688	0.118	0.191
-144.531	211.718	-0.181	-0.284
-143.516	114.265	0.123	-0.148
-142.502	-200.000	-0.003	0.291
-141.487	-200.000	0.041	-0.185
-140.472	-158.662	0.122	-0.007
-139.458	-152.984	0.143	-0.010
-138.443	-17.340	0.173	0.108
-137.429	-200.000	0.034	0.217
-136.414	-200.000	0.020	0.125
-135.399	-0.274	-0.068	0.048
-134.385	101.815	0.111	-0.129
-133.370	-57.181	-0.203	0.089
-132.356	-83.610	0.258	0.082
-131.341	-154.989	-0.049	-0.003
-130.326	686.556	-0.060	-0.155
-129.312	-200.000	-0.039	-0.312
-128.297	-91.001	0.087	-0.025
-127.283	-1.566	0.260	0.182
-126.268	-184.384	0.175	0.003
-125.253	-200.000	-0.017	-0.206
-124.239	800.000	-0.018	-0.061
-123.224	-200.000	-0.039	0.187
-122.210	-77.366	0.118	-0.041
-121.195	157.373	0.132	0.182
