DTS Sentinel unit serial number:	SN413079Multiplexer serial number:	ORYXHardware model number:	OX4-SRSoftware version number:	ORYX F/W v4.00 Oryx Data Collector v3.7.2.0data status	okinstallation	princeton_trtdifferential loss correction	single-endedforward channel	channel 2reverse channel	N/Adate	2019/09/13time	03:35:35forward acquisition time	60.00reverse acquisition time	0.00gamma	496.2192k internal	0.2334k external	0.2334temperature offset calibration	1.0194default loss term (dB/km)	0.3790temperature slope calibration	1.0000multiplexer offset coefficient	1.0000multiplexer slope coefficient	1.0000fibre end	0.00T internal ref (°C)	27.27T ext. ref 1 (°C)	4.08T ext. ref 2 (°C)	21.65length (m)	temperature (°C)	Stokes	anti-Stokes-747.200	-200.000	0.033	0.258
-746.185	201.809	-0.109	0.170
-745.171	32.872	0.093	-0.081
-744.156	26.139	-0.315	-0.264
-743.142	-76.526	-0.310	-0.110
-742.127	-117.236	-0.188	0.034
-741.112	685.786	0.155	0.406
-740.098	-138.327	-0.321	0.036
-739.083	-95.026	-0.176	-0.048
-738.069	-62.901	-0.107	-0.044
-737.054	114.631	0.015	-0.018
-736.039	800.000	-0.011	-0.045
-735.025	101.689	0.047	0.055
-734.010	-121.101	-0.358	-0.060
-732.996	-200.000	-0.029	-0.232
-731.981	162.984	-0.245	-0.345
-730.966	-133.955	0.118	-0.015
-729.952	-10.561	-0.170	-0.113
-728.937	-200.000	0.060	0.307
-727.923	-71.457	-0.122	0.046
-726.908	492.140	0.099	0.228
-725.894	-200.000	0.011	0.097
-724.879	-174.019	0.369	0.011
-723.864	117.200	-0.169	0.208
-722.850	-164.295	-0.397	0.018
-721.835	-108.171	-0.212	-0.046
-720.821	115.418	0.234	0.287
-719.806	-150.179	-0.035	0.003
-718.791	800.000	-0.032	0.124
-717.777	-29.012	-0.191	-0.110
-716.762	461.144	0.070	-0.157
-715.748	-122.850	-0.200	0.032
-714.733	-152.159	-0.386	-0.028
-713.718	-140.546	-0.394	-0.041
-712.704	-99.330	-0.095	-0.024
-711.689	546.806	0.043	-0.103
-710.675	40.160	0.186	0.167
-709.660	-2.212	-0.227	-0.160
-708.645	-143.802	0.270	-0.026
-707.631	-200.000	-0.015	-0.200
-706.616	800.000	0.045	-0.151
-705.602	97.060	-0.416	-0.478
-704.587	48.928	0.217	0.205
-703.572	-200.000	0.042	-0.282
-702.558	10.695	-0.166	-0.127
-701.543	800.000	0.070	-0.238
-700.529	614.581	-0.143	0.360
-699.514	800.000	-0.071	0.257
-698.499	40.426	0.191	-0.173
-697.485	-26.610	0.113	-0.067
-696.470	9.072	0.082	-0.062
-695.456	-71.872	0.346	0.129
-694.441	-61.068	-0.269	0.114
-693.426	-72.358	0.282	-0.105
-692.412	-138.780	0.163	0.018
-691.397	5.198	-0.270	-0.200
-690.383	100.578	-0.151	-0.176
-689.368	-83.696	-0.306	-0.098
-688.354	800.000	-0.049	-0.136
-687.339	-18.888	0.131	-0.082
-686.324	192.639	0.033	-0.049
-685.310	59.245	-0.083	-0.082
-684.295	-200.000	-0.001	0.103
-683.281	-200.000	0.000	-0.114
-682.266	5.151	0.263	0.194
-681.251	105.323	0.205	0.242
-680.237	-77.808	-0.415	0.144
-679.222	800.000	0.091	0.304
-678.208	-5.060	0.278	-0.192
-677.193	259.955	-0.075	0.131
-676.178	-106.935	0.023	-0.005
-675.164	-83.938	0.297	0.095
-674.149	-137.101	0.209	0.024
-673.135	-154.696	-0.191	-0.013
-672.120	56.431	0.128	0.124
-671.105	673.347	-0.043	-0.113
-670.091	323.824	0.084	0.160
-669.076	-200.000	0.008	-0.163
-668.062	-74.705	-0.363	0.131
-667.047	-60.853	0.149	0.063
-666.032	23.646	0.108	0.089
-665.018	24.472	-0.225	0.186
-664.003	-62.455	0.186	0.078
-662.989	-20.956	-0.327	-0.200
-661.974	-200.000	-0.031	0.287
-660.959	-178.530	-0.428	-0.010
-659.945	-118.200	-0.605	0.108
-658.930	800.000	-0.009	0.037
-657.916	-43.289	0.340	-0.172
-656.901	113.968	-0.385	-0.469
-655.886	-134.774	-0.214	0.026
-654.872	-88.316	-0.443	-0.133
-653.857	78.470	0.269	0.288
-652.843	216.659	0.197	-0.315
-651.828	-133.337	-0.291	-0.037
-650.814	-200.000	0.006	-0.231
-649.799	482.719	0.161	-0.366
-648.784	-81.712	-0.046	-0.015
-647.770	-154.535	0.139	-0.009
-646.755	-200.000	0.025	-0.165
-645.741	-158.465	0.172	0.010
-644.726	-101.111	-0.062	0.015
-643.711	-31.225	0.094	-0.053
-642.697	800.000	0.074	-0.210
-641.682	311.180	-0.101	-0.190
-640.668	18.746	0.205	-0.164
-639.653	-200.000	-0.037	0.329
-638.638	-22.804	-0.079	-0.048
-637.624	1.647	-0.125	0.090
-636.609	-105.237	0.466	0.106
-635.595	88.579	0.182	0.203
-634.580	-200.000	0.016	0.195
-633.565	-111.391	0.111	0.023
-632.551	3.438	0.151	-0.110
-631.536	-200.000	0.012	0.197
-630.522	520.462	0.065	-0.152
-629.507	-18.873	-0.223	-0.139
-628.492	110.606	-0.142	-0.170
-627.478	-200.000	-0.272	-0.001
-626.463	-57.444	-0.402	0.177
-625.449	-137.748	0.033	0.004
-624.434	-93.543	-0.145	-0.040
-623.419	-112.192	-0.308	-0.062
-622.405	-200.000	-0.004	0.111
-621.390	-55.711	0.204	-0.091
-620.376	-200.000	0.001	0.069
-619.361	-200.000	-0.018	0.221
-618.346	117.666	-0.152	0.187
-617.332	290.607	0.114	0.207
-616.317	-51.601	0.310	-0.144
-615.303	-31.031	0.322	0.182
-614.288	-200.000	0.033	0.231
-613.273	-77.219	0.166	0.058
-612.259	455.318	-0.046	-0.102
-611.244	-200.000	-0.004	-0.080
-610.230	800.000	0.045	-0.170
-609.215	-92.293	0.361	0.102
-608.201	55.156	0.109	0.106
-607.186	-7.924	-0.087	0.058
-606.171	-123.026	-0.482	0.077
-605.157	-129.998	-0.270	0.037
-604.142	800.000	-0.118	0.333
-603.128	-101.905	-0.384	-0.093
-602.113	-45.810	-0.300	0.148
-601.098	-200.000	0.004	0.066
-600.084	-88.158	-0.144	-0.043
-599.069	146.328	-0.154	-0.207
-598.055	-88.102	-0.330	0.099
-597.040	22.628	-0.045	-0.037
-596.025	-8.751	0.169	-0.113
-595.011	-94.297	-0.118	0.032
-593.996	160.337	0.164	-0.229
-592.982	-200.000	0.008	-0.075
-591.967	-122.046	0.288	-0.047
-590.952	800.000	0.044	0.181
-589.938	800.000	0.024	0.072
-588.923	15.966	0.245	0.193
-587.909	43.044	0.227	0.207
-586.894	496.674	-0.173	-0.397
-585.879	87.290	-0.190	0.210
-584.865	106.601	-0.096	-0.113
-583.850	800.000	0.063	-0.187
-582.836	-55.654	-0.281	0.126
-581.821	-200.000	-0.007	-0.138
-580.806	-110.113	0.285	0.059
-579.792	-200.000	-0.050	-0.249
-578.777	-90.245	-0.406	0.118
-577.763	-200.000	-0.034	-0.214
-576.748	169.087	-0.101	-0.143
-575.733	191.132	-0.212	-0.319
-574.719	9.474	0.303	-0.229
-573.704	-4.700	-0.189	0.130
-572.690	800.000	-0.056	-0.156
-571.675	362.825	-0.096	-0.193
-570.661	99.909	0.315	-0.364
-569.646	-66.771	-0.118	-0.047
-568.631	-200.000	-0.015	-0.107
-567.617	-98.173	-0.332	0.085
-566.602	-183.353	0.105	0.002
-565.588	-45.819	0.207	0.102
-564.573	-42.365	-0.271	0.138
-563.558	800.000	-0.063	-0.177
-562.544	-61.875	0.233	0.097
-561.529	-44.521	0.113	-0.056
-560.515	-200.000	-0.005	0.113
-559.500	402.968	-0.067	0.140
-558.485	-110.376	-0.096	-0.020
-557.471	297.113	0.132	-0.242
-556.456	-136.516	0.207	-0.024
-555.442	-27.690	-0.205	-0.119
-554.427	531.540	0.071	0.167
-553.412	44.004	-0.247	0.226
-552.398	123.561	-0.035	0.043
-551.383	-200.000	-0.007	0.143
-550.369	-56.279	-0.045	0.020
-549.354	-91.760	-0.346	0.098
-548.339	206.057	0.070	0.108
-547.325	88.939	0.039	-0.043
-546.310	-95.570	-0.418	-0.112
-545.296	21.427	0.162	-0.132
-544.281	286.943	0.075	-0.135
-543.266	-200.000	0.001	0.150
-542.252	-95.891	-0.143	-0.038
-541.237	-169.214	0.145	0.005
-540.223	-200.000	0.026	-0.372
-539.208	199.113	0.156	0.238
-538.193	-129.248	0.179	0.025
-537.179	-200.000	0.008	-0.113
-536.164	-61.679	0.060	0.025
-535.150	-35.182	-0.048	0.026
-534.135	-200.000	-0.059	-0.269
-533.121	-200.000	0.021	-0.133
-532.106	-136.195	-0.075	0.009
-531.091	800.000	-0.031	0.126
-530.077	-111.352	-0.309	-0.063
-529.062	-69.742	0.164	0.062
-528.048	39.558	0.173	-0.155
-527.033	286.540	0.112	0.201
-526.018	-200.000	-0.024	0.337
-525.004	363.120	-0.123	0.245
-523.989	207.753	-0.322	-0.501
-522.975	47.642	0.076	-0.071
-521.960	-200.000	-0.009	0.167
-520.945	800.000	-0.114	-0.335
-519.931	-30.731	-0.029	-0.016
-518.916	-200.000	0.023	0.102
-517.902	601.562	-0.029	-0.071
-516.887	6.240	0.114	-0.084
-515.872	-200.000	-0.026	-0.225
-514.858	326.442	-0.067	-0.129
-513.843	-96.711	0.170	-0.044
-512.829	171.373	0.187	0.268
-511.814	-129.076	-0.190	0.026
-510.799	32.746	0.171	0.148
-509.785	800.000	-0.072	-0.226
-508.770	-97.026	0.432	-0.113
-507.756	21.184	-0.219	0.177
-506.741	-97.677	0.165	0.043
-505.726	-200.000	-0.007	-0.186
-504.712	-50.528	0.272	-0.128
-503.697	-126.285	-0.381	0.057
-502.683	-200.000	-0.030	0.166
-501.668	-200.000	-0.022	-0.134
-500.653	85.615	0.127	-0.139
-499.639	800.000	-0.071	0.244
-498.624	800.000	-0.047	-0.155
-497.610	-20.915	0.307	0.187
-496.595	-97.524	-0.117	0.030
-495.581	-9.216	0.182	-0.121
-494.566	800.000	-0.027	0.102
-493.551	91.013	0.113	-0.126
-492.537	-112.696	-0.252	-0.050
-491.522	800.000	-0.028	-0.088
-490.508	-200.000	-0.005	0.153
-489.493	383.541	0.062	-0.126
-488.478	-200.000	0.030	-0.363
-487.464	-27.604	-0.339	-0.196
-486.449	-200.000	0.303	-0.001
-485.435	-150.955	0.224	-0.017
-484.420	165.862	0.120	-0.169
-483.405	-112.912	-0.358	-0.071
-482.391	-158.359	0.184	-0.011
-481.376	-114.150	-0.127	0.025
-480.362	-109.757	0.143	0.030
-479.347	-14.999	-0.265	-0.169
-478.332	-178.474	-0.252	0.006
-477.318	-89.232	-0.131	0.038
-476.303	-42.416	0.399	0.202
-475.289	12.003	-0.215	0.165
-474.274	21.410	-0.076	0.061
-473.259	517.936	-0.105	0.244
-472.245	800.000	0.058	0.173
-471.230	8.085	-0.116	0.087
-470.216	-77.960	0.194	-0.067
-469.201	-8.508	0.082	-0.055
-468.186	-57.329	0.037	0.016
-467.172	800.000	0.052	0.177
-466.157	470.845	-0.051	0.113
-465.143	-125.317	-0.148	0.022
-464.128	-76.747	0.251	0.088
-463.113	145.162	-0.186	-0.247
-462.099	-200.000	-0.036	0.245
-461.084	-54.620	-0.168	-0.076
-460.070	140.960	0.018	-0.023
-459.055	-24.823	0.274	-0.162
-458.040	-200.000	0.024	0.164
-457.026	800.000	0.080	-0.296
-456.011	20.679	-0.190	0.153
-454.997	211.697	-0.012	-0.019
-453.982	111.970	0.121	-0.145
-452.968	-117.241	-0.156	-0.028
-451.953	-150.452	-0.062	-0.005
-450.938	40.096	-0.195	0.174
-449.924	800.000	0.103	0.374
-448.909	77.408	-0.111	0.117
-447.895	-6.576	-0.073	0.050
-446.880	50.286	0.038	-0.036
-445.865	282.503	-0.091	0.162
-444.851	-95.113	-0.091	-0.024
-443.836	-173.229	-0.343	0.010
-442.822	1.505	0.413	-0.295
-441.807	155.220	0.145	-0.198
-440.792	440.703	0.122	-0.265
-439.778	-31.769	-0.147	-0.082
-438.763	-34.376	-0.354	0.193
-437.749	-37.368	0.074	0.039
-436.734	-118.809	-0.054	-0.009
-435.719	199.383	-0.063	-0.095
-434.705	338.328	0.194	0.376
-433.690	-145.270	-0.013	-0.001
-432.676	8.273	0.284	-0.212
-431.661	-200.000	-0.003	-0.141
-430.646	-200.000	-0.054	0.378
-429.632	-66.948	0.225	0.088
-428.617	-135.740	-0.288	0.034
-427.603	19.884	0.288	-0.231
-426.588	-43.950	-0.163	0.081
-425.573	307.074	-0.230	-0.426
-424.559	-171.204	-0.176	-0.006
-423.544	800.000	-0.032	-0.097
-422.530	-10.540	-0.273	-0.180
-421.515	68.783	0.127	0.129
-420.500	-55.335	-0.178	0.080
-419.486	-166.680	0.203	0.008
-418.471	800.000	0.095	0.265
-417.457	68.832	0.116	-0.118
-416.442	385.848	0.023	0.048
-415.428	-200.000	0.029	-0.130
-414.413	-55.829	-0.183	-0.081
-413.398	-200.000	0.027	-0.172
-412.384	543.981	-0.042	-0.100
-411.369	-200.000	-0.017	0.174
-410.355	-1.604	0.267	-0.187
-409.340	271.757	0.090	0.158
-408.325	59.503	-0.190	0.185
-407.311	-102.661	0.203	0.048
-406.296	-53.861	-0.065	-0.030
-405.282	-77.279	0.069	-0.024
-404.267	-2.722	-0.047	-0.033
-403.252	50.668	0.059	-0.055
-402.238	800.000	-0.070	-0.206
-401.223	-80.114	0.176	0.058
-400.209	-62.767	0.384	0.158
-399.194	-62.010	-0.202	0.084
-398.179	-126.367	0.093	0.014
-397.165	-36.769	-0.446	-0.237
-396.150	-161.425	0.378	0.019
-395.136	-50.708	0.333	-0.156
-394.121	116.236	-0.126	-0.153
-393.106	-12.884	0.176	-0.114
-392.092	-22.512	0.400	-0.240
-391.077	-6.786	0.259	-0.175
-390.063	-200.000	-0.004	-0.064
-389.048	-178.607	-0.233	-0.005
-388.033	-200.000	-0.007	0.195
-387.019	-200.000	-0.018	-0.174
-386.004	-162.828	-0.164	0.008
-384.990	-23.179	-0.326	0.195
-383.975	-73.720	0.309	0.111
-382.960	-70.472	-0.163	-0.061
-381.946	4.850	0.132	-0.096
-380.931	-14.554	0.184	0.117
-379.917	-161.267	-0.195	-0.010
-378.902	-91.615	0.058	0.016
-377.888	-46.034	-0.071	-0.035
-376.873	-76.795	-0.090	-0.031
-375.858	72.077	0.059	-0.060
-374.844	152.097	0.069	-0.093
-373.829	-4.506	-0.189	-0.129
-372.815	95.625	0.273	-0.309
-371.800	-44.506	-0.084	-0.042
-370.785	239.389	0.051	0.083
-369.771	-200.000	0.100	-0.484
-368.756	-63.970	0.373	-0.151
-367.742	587.776	0.059	0.145
-366.727	-82.926	-0.191	0.061
-365.712	-24.409	-0.198	-0.117
-364.698	-80.865	0.233	0.077
-363.683	-200.000	0.044	0.226
-362.669	667.819	-0.129	0.330
-361.654	171.217	0.116	0.164
-360.639	135.634	0.166	0.213
-359.625	-176.727	0.172	0.004
-358.610	142.337	-0.266	0.349
-357.596	-182.462	-0.198	0.004
-356.581	223.218	-0.124	-0.198
-355.566	-82.662	-0.447	0.143
-354.552	-200.000	-0.029	-0.243
-353.537	800.000	0.053	-0.196
-352.523	-200.000	0.036	-0.209
-351.508	-200.000	-0.004	-0.106
-350.493	-200.000	0.000	0.289
-349.479	-157.066	-0.283	0.017
-348.464	-103.526	-0.410	-0.095
-347.450	-18.214	-0.149	-0.092
-346.435	8.925	0.173	-0.129
-345.420	-28.047	-0.220	-0.126
-344.406	109.744	-0.064	-0.075
-343.391	-135.496	0.041	-0.005
-342.377	-61.304	0.216	0.090
-341.362	-49.240	0.138	0.065
-340.348	-62.907	-0.410	0.168
-339.333	-200.000	-0.018	0.179
-338.318	-200.000	0.018	0.118
-337.304	800.000	0.028	0.085
-336.289	143.875	-0.309	0.408
-335.275	16.130	0.246	0.192
-334.260	16.468	-0.188	-0.147
-333.245	-126.052	0.166	-0.025
-332.231	-78.955	-0.084	-0.028
-331.216	-104.675	-0.108	-0.025
-330.202	34.553	-0.182	-0.157
-329.187	580.467	0.125	0.303
-328.172	-176.185	0.018	0.000
-327.158	-4.960	-0.226	-0.154
-326.143	-200.000	-0.024	0.331
-325.129	-104.123	0.284	0.065
-324.114	214.677	0.189	-0.296
-323.099	-175.324	-0.277	-0.008
-322.085	119.111	0.207	0.253
-321.070	218.778	0.165	-0.261
-320.056	800.000	0.071	-0.201
-319.041	800.000	-0.113	0.372
-318.026	-26.386	-0.747	-0.433
-317.012	-62.571	0.595	0.244
-315.997	-5.273	0.162	-0.110
-314.983	-20.469	-0.297	-0.181
-313.968	800.000	-0.056	-0.220
-312.953	-116.274	-0.241	-0.044
-311.939	-87.844	-0.165	-0.049
-310.924	-170.885	0.231	-0.008
-309.910	195.275	-0.219	-0.328
-308.895	-200.000	-0.017	0.123
-307.880	-11.084	-0.296	-0.193
-306.866	288.140	0.023	0.041
-305.851	715.859	0.035	0.091
-304.837	304.124	0.156	0.286
-303.822	3.587	0.189	0.136
-302.807	235.913	-0.001	-0.002
-301.793	-156.424	0.200	0.012
-300.778	39.311	-0.214	0.190
-299.764	-200.000	-0.024	0.153
-298.749	118.043	0.123	0.150
-297.735	-145.762	-0.324	0.029
-296.720	-200.000	0.064	-0.302
-295.705	-200.000	-0.018	-0.077
-294.691	800.000	0.129	0.358
-293.676	-99.509	0.042	-0.011
-292.662	-6.142	0.101	0.068
-291.647	798.314	-0.041	0.111
-290.632	-101.839	0.341	-0.082
-289.618	800.000	0.056	0.222
-288.603	199.707	-0.184	-0.279
-287.589	240.620	-0.148	0.244
-286.574	-200.000	0.020	0.173
-285.559	-83.987	0.345	-0.108
-284.545	3.392	0.067	-0.048
-283.530	191.600	-0.193	-0.288
-282.516	98.555	0.176	-0.201
-281.501	-101.547	0.197	0.047
-280.486	-200.000	0.064	0.298
-279.472	-171.715	-0.193	0.006
-278.457	800.000	0.029	0.084
-277.443	59.868	0.162	0.158
-276.428	230.519	-0.111	0.179
-275.413	-52.796	0.249	-0.113
-274.399	-200.000	0.011	-0.111
-273.384	800.000	-0.040	-0.144
-272.370	96.920	-0.068	0.076
-271.355	321.362	0.149	0.279
-270.340	666.013	0.004	-0.010
-269.326	116.036	0.085	-0.102
-268.311	-200.000	-0.014	-0.120
-267.297	-200.000	-0.008	0.070
-266.282	-158.428	0.372	0.021
-265.267	349.686	0.113	-0.220
-264.253	800.000	-0.025	0.104
-263.238	67.502	-0.274	-0.276
-262.224	800.000	-0.046	0.145
-261.209	800.000	0.049	-0.153
-260.195	-200.000	-0.015	-0.118
-259.180	-35.578	0.145	-0.077
-258.165	264.314	-0.142	-0.244
-257.151	273.421	-0.044	0.077
-256.136	-200.000	-0.014	0.062
-255.122	800.000	0.050	0.181
-254.107	562.207	0.066	0.158
-253.092	800.000	-0.045	0.174
-252.078	66.738	-0.031	0.031
-251.063	579.654	-0.087	0.210
-250.049	-38.586	0.129	0.067
-249.034	63.318	-0.085	0.084
-248.019	-94.081	0.366	0.099
-247.005	-43.445	0.344	-0.171
-245.990	130.640	0.106	0.134
-244.976	-200.000	-0.003	-0.128
-243.961	-200.000	-0.049	0.332
-242.946	199.843	0.114	0.172
-241.932	367.675	-0.030	0.061
-240.917	120.197	0.212	0.259
-239.903	-1.269	-0.193	0.135
-238.888	-26.433	0.038	-0.022
-237.873	-33.617	0.401	0.218
-236.859	-134.194	0.299	-0.036
-235.844	-13.521	0.168	-0.107
-234.830	179.262	0.168	-0.242
-233.815	-200.000	-0.015	0.165
-232.800	-142.363	-0.123	-0.012
-231.786	800.000	0.039	-0.111
-230.771	641.475	-0.083	0.208
-229.757	-200.000	0.010	-0.128
-228.742	-35.452	-0.195	0.105
-227.727	314.832	-0.063	-0.117
-226.713	-171.347	0.154	0.005
-225.698	176.999	-0.080	0.115
-224.684	-42.278	0.287	-0.144
-223.669	-84.578	0.077	0.024
-222.655	40.742	-0.169	0.150
-221.640	-112.479	0.325	-0.064
-220.625	800.000	0.059	0.200
-219.611	43.472	0.163	0.147
-218.596	203.763	0.148	0.226
-217.582	85.707	-0.112	-0.121
-216.567	33.881	-0.111	0.095
-215.552	-200.000	0.011	0.241
-214.538	9.315	-0.121	0.090
-213.523	-58.535	0.224	-0.096
-212.509	523.298	-0.110	-0.254
-211.494	800.000	0.107	-0.311
-210.479	216.530	0.134	-0.210
-209.465	151.673	-0.055	-0.074
-208.450	-95.354	-0.191	-0.051
-207.436	-10.933	0.335	-0.218
-206.421	-200.000	-0.024	0.128
-205.406	24.284	0.082	0.066
-204.392	695.604	-0.085	0.220
-203.377	7.179	-0.162	0.119
-202.363	312.103	-0.018	-0.034
-201.348	-2.703	-0.137	0.094
-200.333	-5.213	-0.114	-0.077
-199.319	-49.980	0.370	0.173
-198.304	89.313	0.046	0.051
-197.290	-200.000	0.010	0.136
-196.275	-200.000	-0.006	0.427
-195.260	-120.095	-0.161	-0.027
-194.246	-200.000	-0.031	0.218
-193.231	227.717	0.158	-0.254
-192.217	526.975	0.033	-0.076
-191.202	14.396	-0.119	0.091
-190.187	218.660	-0.170	-0.267
-189.173	28.222	0.203	-0.168
-188.158	484.519	-0.220	-0.493
-187.144	251.072	-0.046	-0.077
-186.129	-13.150	-0.082	0.053
-185.114	-74.218	-0.150	-0.053
-184.100	-110.695	0.275	0.056
-183.085	-83.224	-0.363	0.115
-182.071	-200.000	-0.016	0.233
-181.056	-35.041	0.222	-0.119
-180.042	-149.854	0.077	-0.006
-179.027	100.206	-0.219	0.249
-178.012	76.919	-0.249	0.259
-176.998	-42.468	-0.128	0.064
-175.983	-101.700	-0.131	0.031
-174.969	82.384	-0.047	-0.050
-173.954	-160.236	-0.080	-0.004
-172.939	-110.647	0.195	0.040
-171.925	-119.743	0.238	-0.040
-170.910	279.654	-0.096	-0.168
-169.896	-149.718	0.294	0.023
-168.881	-36.446	-0.015	0.008
-167.866	-94.577	-0.409	-0.109
-166.852	-200.000	0.028	0.323
-165.837	-75.067	-0.237	-0.083
-164.823	-45.104	-0.215	0.105
-163.808	466.601	-0.084	0.186
-162.793	289.049	0.198	-0.352
-161.779	-78.008	-0.331	0.112
-160.764	224.693	-0.098	0.155
-159.750	-104.425	0.128	0.029
-158.735	-148.408	0.301	0.024
-157.720	-200.000	0.012	0.103
-156.706	-200.000	0.064	-0.335
-155.691	-200.000	0.097	-0.511
-154.677	111.504	0.076	0.090
-153.662	308.221	0.119	0.218
-152.647	-20.421	0.187	0.113
-151.633	-169.578	-0.240	-0.009
-150.618	-38.620	-0.350	0.182
-149.604	45.516	0.165	0.150
-148.589	717.865	0.041	-0.107
-147.574	-200.000	0.048	-0.217
-146.560	-86.554	0.131	-0.039
-145.545	48.414	0.114	-0.105
-144.531	-108.588	-0.133	0.028
-143.516	120.861	0.224	-0.274
-142.502	-200.000	-0.007	-0.183
-141.487	4.762	0.108	0.078
-140.472	-88.307	0.184	-0.054
-139.458	-147.423	0.036	0.003
-138.443	-200.000	0.058	0.528
-137.429	-200.000	-0.006	0.100
-136.414	2.426	-0.070	0.050
-135.399	48.775	-0.069	-0.064
-134.385	-137.541	0.136	-0.015
-133.370	-77.511	-0.081	-0.028
-132.356	-20.283	-0.090	0.054
-131.341	-113.044	-0.278	-0.054
-130.326	-159.584	0.231	-0.013
-129.312	800.000	-0.048	-0.135
-128.297	-175.059	0.330	-0.009
-127.283	-23.444	-0.118	-0.069
-126.268	-114.578	-0.117	0.022
-125.253	-200.000	-0.004	0.084
-124.239	298.446	0.087	-0.157
-123.224	573.531	-0.079	-0.190
-122.210	-160.578	0.274	-0.014
