DTS Sentinel unit serial number:	SN413079Multiplexer serial number:	ORYXHardware model number:	OX4-SRSoftware version number:	ORYX F/W v4.00 Oryx Data Collector v3.7.2.0data status	okinstallation	princeton_trtdifferential loss correction	single-endedforward channel	channel 2reverse channel	N/Adate	2019/09/10time	21:53:11forward acquisition time	60.00reverse acquisition time	0.00gamma	496.2192k internal	0.2330k external	0.2330temperature offset calibration	0.9947default loss term (dB/km)	0.3790temperature slope calibration	1.0000multiplexer offset coefficient	1.0000multiplexer slope coefficient	1.0000fibre end	0.00T internal ref (°C)	30.78T ext. ref 1 (°C)	-0.31T ext. ref 2 (°C)	24.02length (m)	temperature (°C)	Stokes	anti-Stokes-747.200	529.210	0.138	0.328
-746.185	249.909	0.026	0.045
-745.171	239.500	-0.136	-0.228
-744.156	77.220	0.140	-0.149
-743.142	-30.969	0.038	-0.021
-742.127	396.094	-0.100	0.211
-741.112	-200.000	-0.020	0.153
-740.098	-200.000	-0.110	0.523
-739.083	-200.000	0.030	0.168
-738.069	-66.744	-0.120	-0.048
-737.054	-168.859	-0.215	0.008
-736.039	16.753	-0.397	-0.316
-735.025	-13.645	0.290	-0.189
-734.010	-42.927	-0.302	0.154
-732.996	16.240	-0.087	0.069
-731.981	-200.000	-0.037	0.418
-730.966	116.591	-0.189	-0.233
-729.952	-43.422	-0.440	0.224
-728.937	-101.330	-0.151	0.037
-727.923	-145.143	-0.301	0.027
-726.908	800.000	0.030	-0.083
-725.894	-200.000	-0.001	0.147
-724.879	69.496	-0.319	-0.331
-723.864	-185.369	0.310	0.005
-722.850	-72.133	-0.261	0.098
-721.835	397.474	0.081	0.171
-720.821	71.992	0.169	0.177
-719.806	-96.895	-0.418	0.110
-718.791	520.605	0.057	-0.135
-717.777	3.402	0.144	0.105
-716.762	-49.141	0.130	-0.062
-715.748	-136.824	0.301	-0.035
-714.733	30.430	0.128	-0.110
-713.718	-47.372	0.215	0.105
-712.704	-200.000	-0.034	0.387
-711.689	185.901	-0.206	-0.309
-710.675	-47.141	0.095	-0.046
-709.660	271.189	0.021	-0.037
-708.645	-4.839	-0.085	-0.059
-707.631	-151.844	-0.067	0.005
-706.616	-84.231	0.125	0.040
-705.602	800.000	0.101	0.328
-704.587	-83.964	-0.179	0.057
-703.572	-12.167	0.302	0.199
-702.558	800.000	-0.049	-0.163
-701.543	-109.926	0.245	-0.052
-700.529	800.000	0.079	0.246
-699.514	-200.000	-0.021	-0.171
-698.499	-200.000	0.046	-0.372
-697.485	-131.592	-0.226	0.030
-696.470	-4.976	0.211	0.146
-695.456	363.537	0.023	-0.046
-694.441	97.501	-0.325	0.375
-693.426	-101.949	0.210	-0.051
-692.412	-200.000	0.006	-0.371
-691.397	-200.000	-0.012	0.097
-690.383	116.025	-0.139	0.171
-689.368	-67.054	0.343	-0.136
-688.354	385.499	-0.123	-0.255
-687.339	-133.145	-0.183	0.023
-686.324	-200.000	-0.031	-0.432
-685.310	-200.000	0.001	-0.084
-684.295	-200.000	0.009	-0.045
-683.281	262.257	-0.090	0.158
-682.266	298.643	-0.127	-0.234
-681.251	33.310	0.301	-0.263
-680.237	345.191	-0.244	-0.481
-679.222	-77.508	0.202	0.070
-678.208	-131.312	0.236	0.031
-677.193	-118.345	0.148	0.026
-676.178	60.091	0.035	0.034
-675.164	-61.672	0.386	0.163
-674.149	-0.433	-0.311	0.222
-673.135	-117.616	0.293	-0.053
-672.120	-200.000	0.025	0.170
-671.105	-126.609	-0.131	-0.020
-670.091	411.203	-0.042	0.089
-669.076	59.445	0.208	-0.206
-668.062	0.895	0.285	-0.205
-667.047	-159.579	-0.499	0.028
-666.032	-200.000	0.090	0.507
-665.018	-173.408	-0.158	0.005
-664.003	-121.412	-0.188	0.031
-662.989	-200.000	0.028	0.144
-661.974	85.371	-0.112	0.124
-660.959	800.000	-0.058	-0.222
-659.945	29.213	0.153	-0.130
-658.930	800.000	0.106	0.347
-657.916	26.072	0.108	0.091
-656.901	-43.118	-0.569	-0.289
-655.886	800.000	-0.070	-0.264
-654.872	343.247	0.047	-0.093
-653.857	-52.524	0.168	0.078
-652.843	800.000	-0.105	-0.322
-651.828	141.754	-0.187	-0.249
-650.814	23.984	-0.024	0.020
-649.799	-129.091	0.179	-0.025
-648.784	-95.731	-0.311	-0.083
-647.770	-200.000	0.016	-0.228
-646.755	426.903	0.043	0.093
-645.741	-142.003	-0.239	-0.024
-644.726	0.416	0.081	0.058
-643.711	20.660	-0.201	0.163
-642.697	-200.000	0.005	-0.163
-641.682	37.878	-0.225	0.200
-640.668	800.000	-0.068	0.190
-639.653	82.962	-0.040	0.043
-638.638	42.329	0.138	0.125
-637.624	138.377	-0.088	0.116
-636.609	-141.882	0.092	0.009
-635.595	-200.000	0.012	0.177
-634.580	171.142	0.134	0.193
-633.565	-6.832	0.268	-0.182
-632.551	264.308	0.063	-0.110
-631.536	42.636	-0.109	-0.100
-630.522	-200.000	0.022	0.208
-629.507	-200.000	-0.006	-0.308
-628.492	-99.025	-0.306	-0.078
-627.478	126.988	0.226	0.288
-626.463	-140.495	-0.310	0.032
-625.449	-200.000	-0.038	-0.445
-624.434	-105.419	-0.122	0.028
-623.419	-150.025	-0.188	0.015
-622.405	-134.613	0.189	-0.023
-621.390	800.000	0.070	0.281
-620.376	-58.214	-0.159	0.069
-619.361	-78.888	-0.302	0.103
-618.346	-148.481	-0.199	0.016
-617.332	-200.000	-0.060	-0.288
-616.317	-4.167	-0.193	0.134
-615.303	-110.662	0.272	-0.056
-614.288	-200.000	0.034	-0.212
-613.273	-80.665	0.089	0.030
-612.259	94.593	-0.259	-0.295
-611.244	366.604	-0.037	-0.075
-610.230	-72.731	-0.291	0.107
-609.215	800.000	-0.067	-0.245
-608.201	-130.164	0.202	-0.028
-607.186	148.459	0.057	-0.077
-606.171	-62.950	-0.158	0.065
-605.157	800.000	0.060	-0.191
-604.142	51.863	-0.146	-0.139
-603.128	800.000	0.031	0.114
-602.113	442.560	0.069	0.152
-601.098	421.865	-0.186	-0.399
-600.084	43.868	-0.279	-0.256
-599.069	189.154	0.187	-0.280
-598.055	-108.538	-0.283	-0.061
-597.040	-70.133	-0.123	0.047
-596.025	800.000	0.074	0.208
-595.011	-107.751	-0.104	0.023
-593.996	800.000	-0.038	-0.145
-592.982	21.650	-0.120	-0.097
-591.967	-144.328	-0.439	-0.041
-590.952	-153.862	0.301	-0.021
-589.938	-200.000	0.072	0.345
-588.923	83.088	0.125	0.136
-587.909	-110.800	-0.466	0.096
-586.894	183.073	-0.084	-0.124
-585.879	-54.228	-0.252	-0.114
-584.865	-93.155	0.279	0.078
-583.850	35.177	0.161	-0.141
-582.836	-200.000	-0.034	-0.305
-581.821	361.028	0.050	0.100
-580.806	-0.832	-0.303	0.215
-579.792	800.000	0.072	0.259
-578.777	800.000	-0.015	-0.052
-577.763	-200.000	-0.012	-0.057
-576.748	33.615	0.079	0.069
-575.733	117.730	0.094	-0.116
-574.719	-200.000	0.037	-0.371
-573.704	800.000	0.059	-0.169
-572.690	13.535	-0.328	0.255
-571.675	-95.843	-0.180	-0.048
-570.661	517.318	-0.092	0.216
-569.646	-177.658	-0.188	-0.005
-568.631	-26.755	-0.166	-0.097
-567.617	-200.000	0.076	-0.360
-566.602	351.718	0.124	0.245
-565.588	86.168	0.103	-0.114
-564.573	800.000	-0.119	-0.397
-563.558	1.583	0.265	0.190
-562.544	31.301	0.139	-0.119
-561.529	-100.615	-0.070	-0.017
-560.515	-84.193	-0.284	0.090
-559.500	-99.002	-0.120	0.030
-558.485	-52.676	0.169	0.078
-557.471	800.000	0.033	0.130
-556.456	-200.000	-0.001	0.024
-555.442	49.319	-0.153	-0.144
-554.427	-69.907	0.164	-0.063
-553.412	-54.510	0.199	-0.090
-552.398	-200.000	0.039	-0.199
-551.383	-200.000	-0.011	0.200
-550.369	135.241	0.091	0.118
-549.354	-200.000	-0.021	-0.167
-548.339	64.071	-0.095	0.095
-547.325	14.417	-0.082	-0.064
-546.310	-195.187	0.390	0.003
-545.296	-75.846	0.105	-0.037
-544.281	194.604	-0.229	-0.347
-543.266	-178.879	0.218	0.005
-542.252	603.667	-0.172	-0.428
-541.237	-83.696	0.214	-0.068
-540.223	28.265	0.197	-0.166
-539.208	800.000	-0.074	0.296
-538.193	61.939	-0.142	-0.142
-537.179	-53.427	0.195	-0.089
-536.164	278.263	-0.073	-0.130
-535.150	8.781	-0.227	-0.171
-534.135	800.000	0.082	0.290
-533.121	-200.000	-0.003	-0.201
-532.106	800.000	0.038	0.142
-531.091	-43.225	0.030	0.015
-530.077	270.306	-0.028	-0.049
-529.062	143.147	0.095	0.127
-528.048	-200.000	0.028	0.250
-527.033	-19.678	0.309	-0.191
-526.018	-98.169	0.482	0.124
-525.004	14.670	-0.387	0.302
-523.989	-200.000	-0.004	0.019
-522.975	214.706	0.211	-0.334
-521.960	-200.000	-0.025	-0.170
-520.945	354.461	0.137	-0.272
-519.931	55.093	0.081	-0.078
-518.916	318.792	0.039	-0.075
-517.902	-119.301	0.119	0.021
-516.887	-200.000	0.005	0.161
-515.872	-10.159	0.096	0.063
-514.858	170.992	0.018	-0.025
-513.843	-58.558	-0.065	-0.028
-512.829	-104.354	0.275	0.064
-511.814	-159.885	-0.257	0.014
-510.799	-125.773	0.494	-0.075
-509.785	-45.750	0.111	-0.055
-508.770	-118.624	0.208	0.037
-507.756	-200.000	-0.023	0.230
-506.741	800.000	0.045	0.142
-505.726	-22.311	-0.157	-0.095
-504.712	-14.911	-0.209	0.134
-503.697	103.211	-0.183	0.214
-502.683	73.337	-0.153	-0.159
-501.668	-200.000	0.010	0.380
-500.653	28.384	0.148	0.125
-499.639	160.407	0.193	-0.269
-498.624	214.389	0.138	0.218
-497.610	-30.455	0.142	-0.080
-496.595	-200.000	0.001	0.176
-495.581	-17.201	-0.064	-0.041
-494.566	17.581	0.148	0.117
-493.551	-111.098	0.031	0.006
-492.537	-111.986	0.180	0.036
-491.522	-62.035	-0.211	0.088
-490.508	-92.577	-0.308	-0.086
-489.493	800.000	0.087	0.239
-488.478	121.892	0.119	0.148
-487.464	-177.618	-0.160	-0.004
-486.449	-200.000	-0.004	0.061
-485.435	234.303	-0.124	0.204
-484.420	78.343	0.177	0.188
-483.405	-169.258	0.194	-0.007
-482.391	800.000	-0.129	-0.419
-481.376	138.115	-0.200	-0.261
-480.362	-200.000	-0.009	0.160
-479.347	-200.000	-0.027	0.189
-478.332	800.000	0.092	0.322
-477.318	-138.882	-0.324	0.035
-476.303	-200.000	-0.032	-0.330
-475.289	420.306	0.060	0.129
-474.274	800.000	0.057	0.232
-473.259	139.424	-0.136	0.178
-472.245	-49.185	0.234	-0.111
-471.230	-200.000	-0.006	-0.058
-470.216	-200.000	0.006	-0.183
-469.201	416.560	-0.029	-0.061
-468.186	35.016	-0.169	0.147
-467.172	800.000	0.078	0.282
-466.157	-16.955	0.359	-0.226
-465.143	-146.754	-0.083	-0.007
-464.128	-152.691	-0.272	0.019
-463.113	129.547	-0.124	-0.158
-462.099	-200.000	0.046	-0.225
-461.084	54.089	0.126	0.120
-460.070	-200.000	0.001	0.021
-459.055	-200.000	-0.017	0.166
-458.040	194.466	0.162	0.244
-457.026	-80.766	-0.138	-0.046
-456.011	10.039	0.103	-0.078
-454.997	466.040	-0.158	0.351
-453.982	19.710	0.268	0.215
-452.968	666.387	-0.149	0.382
-451.953	-200.000	0.022	-0.179
-450.938	141.040	0.110	-0.145
-449.924	350.420	0.076	0.150
-448.909	-109.075	0.227	-0.048
-447.895	-200.000	0.004	0.095
-446.880	-65.801	-0.366	-0.146
-445.865	-113.956	-0.295	0.057
-444.851	132.124	-0.055	-0.071
-443.836	-200.000	0.095	0.505
-442.822	-140.503	-0.404	-0.042
-441.807	-150.124	-0.148	0.011
-440.792	29.187	0.315	0.266
-439.778	-200.000	0.007	-0.239
-438.763	-123.517	0.180	-0.028
-437.749	-57.954	0.281	0.122
-436.734	117.884	0.047	-0.058
-435.719	61.350	0.075	-0.074
-434.705	133.048	-0.275	0.353
-433.690	-200.000	0.046	0.238
-432.676	-77.838	-0.126	0.043
-431.661	241.202	0.041	0.069
-430.646	-200.000	0.044	0.304
-429.632	-100.015	-0.230	-0.057
-428.617	-116.323	0.207	-0.038
-427.603	-91.214	-0.124	-0.035
-426.588	-86.777	-0.358	-0.109
-425.573	-126.496	0.041	0.006
-424.559	-200.000	-0.000	0.480
-423.544	164.370	0.091	-0.127
-422.530	52.472	-0.201	0.190
-421.515	128.852	-0.115	0.146
-420.500	10.283	0.215	-0.163
-419.486	-200.000	0.077	0.531
-418.471	-81.615	0.550	-0.179
-417.457	800.000	-0.102	-0.304
-416.442	800.000	0.070	0.218
-415.428	189.829	0.064	0.095
-414.413	-115.412	0.292	-0.055
-413.398	150.012	-0.153	-0.207
-412.384	-64.661	0.229	-0.092
-411.369	-169.585	0.276	0.010
-410.355	322.106	-0.073	-0.137
-409.340	0.286	0.041	-0.029
-408.325	102.701	0.161	0.188
-407.311	-147.027	0.190	0.016
-406.296	144.421	-0.234	0.310
-405.282	-145.166	0.038	0.003
-404.267	800.000	0.015	0.048
-403.252	800.000	0.013	0.051
-402.238	-200.000	-0.030	-0.201
-401.223	-90.213	0.284	0.082
-400.209	-200.000	-0.002	-0.305
-399.194	293.432	0.053	-0.096
-398.179	168.883	0.156	0.220
-397.165	-200.000	-0.008	0.096
-396.150	-185.608	-0.071	-0.001
-395.136	-94.810	0.344	0.093
-394.121	93.294	0.158	-0.177
-393.106	58.821	0.100	0.097
-392.092	274.928	-0.180	0.316
-391.077	-183.934	-0.290	-0.005
-390.063	2.123	-0.234	-0.168
-389.048	-7.682	-0.216	-0.145
-388.033	-0.081	0.095	-0.067
-387.019	-102.194	-0.086	-0.020
-386.004	202.690	-0.182	0.279
-384.990	42.891	0.112	-0.101
-383.975	-200.000	0.052	-0.295
-382.960	-109.663	0.180	-0.038
-381.946	-200.000	-0.046	0.227
-380.931	-110.559	-0.162	0.033
-379.917	305.560	-0.079	-0.147
-378.902	61.547	-0.065	0.064
-377.888	617.292	0.097	-0.242
-376.873	-200.000	-0.086	-0.385
-375.858	62.543	0.031	0.031
-374.844	-200.000	0.040	-0.228
-373.829	800.000	-0.068	-0.296
-372.815	74.920	-0.144	-0.151
-371.800	-14.616	-0.094	0.060
-370.785	279.508	-0.034	-0.061
-369.771	92.786	-0.216	-0.242
-368.756	532.234	0.089	0.210
-367.742	-71.847	-0.059	-0.022
-366.727	129.537	0.123	-0.155
-365.712	129.335	-0.226	0.286
-364.698	-200.000	-0.022	0.139
-363.683	-32.580	-0.076	0.042
-362.669	-107.000	0.178	0.039
-361.654	800.000	-0.030	0.113
-360.639	785.923	-0.023	0.063
-359.625	-200.000	0.033	-0.172
-358.610	156.309	-0.014	-0.020
-357.596	-72.320	-0.199	0.073
-356.581	-14.031	0.155	-0.099
-355.566	-106.298	0.364	0.081
-354.552	-194.112	0.224	0.002
-353.537	-70.414	0.128	0.048
-352.523	229.088	-0.251	-0.407
-351.508	800.000	-0.101	-0.407
-350.493	-132.392	0.135	-0.017
-349.479	435.268	-0.047	-0.101
-348.464	72.737	-0.047	-0.048
-347.450	-108.017	-0.213	-0.046
-346.435	-130.104	0.392	0.053
-345.420	-190.055	-0.431	-0.005
-344.406	46.670	-0.190	-0.175
-343.391	291.892	0.077	-0.140
-342.377	-200.000	0.010	-0.205
-341.362	-84.659	-0.103	-0.032
-340.348	-55.953	-0.141	-0.063
-339.333	71.117	0.143	-0.147
-338.318	-21.154	0.378	0.229
-337.304	-17.241	-0.277	-0.173
-336.289	-99.615	-0.332	0.082
-335.275	306.476	0.109	-0.201
-334.260	-200.000	-0.030	-0.413
-333.245	25.293	0.347	0.285
-332.231	800.000	0.074	-0.257
-331.216	-8.862	-0.279	0.185
-330.202	-172.541	-0.305	0.010
-329.187	-78.005	0.189	0.065
-328.172	141.538	-0.120	0.158
-327.158	-200.000	0.021	0.194
-326.143	83.658	-0.087	-0.094
-325.129	63.018	-0.196	0.194
-324.114	83.556	0.168	-0.181
-323.099	30.121	0.340	-0.288
-322.085	-9.403	0.079	-0.052
-321.070	-26.257	-0.251	-0.146
-320.056	53.111	0.177	-0.168
-319.041	14.482	0.168	0.130
-318.026	31.967	-0.292	-0.249
-317.012	800.000	-0.024	0.095
-315.997	-64.227	0.074	-0.030
-314.983	165.544	0.040	-0.055
-313.968	575.126	0.032	0.078
-312.953	162.869	0.064	-0.089
-311.939	-200.000	-0.023	0.395
-310.924	-77.465	0.212	-0.073
-309.910	-41.144	-0.161	0.082
-308.895	84.524	0.156	-0.169
-307.880	597.792	-0.061	-0.149
-306.866	310.605	-0.040	0.074
-305.851	-52.321	-0.202	-0.093
-304.837	800.000	0.049	-0.154
-303.822	-122.640	-0.428	-0.069
-302.807	-115.175	0.125	-0.023
-301.793	678.469	-0.059	-0.151
-300.778	800.000	0.050	0.187
-299.764	-157.170	-0.218	0.013
-298.749	-200.000	0.048	-0.318
-297.735	99.209	-0.058	-0.066
-296.720	-12.277	-0.181	0.117
-295.705	-1.866	0.350	0.244
-294.691	739.169	0.066	0.175
-293.676	74.725	-0.132	0.137
-292.662	-200.000	-0.026	0.149
-291.647	16.891	0.215	-0.169
-290.632	34.292	0.289	-0.250
-289.618	-159.208	0.145	0.008
-288.603	-100.174	0.207	-0.051
-287.589	6.753	-0.336	-0.247
-286.574	-159.201	-0.240	-0.013
-285.559	149.694	0.061	0.081
-284.545	52.453	0.153	0.144
-283.530	-200.000	0.036	0.257
-282.516	-84.654	0.250	0.078
-281.501	800.000	-0.027	0.103
-280.486	168.582	0.070	0.099
-279.472	-88.287	0.177	-0.052
-278.457	-200.000	-0.024	-0.560
-277.443	-55.037	0.239	-0.106
-276.428	-174.863	-0.106	0.003
-275.413	-200.000	0.362	-0.002
-274.399	-154.204	-0.135	0.009
-273.384	180.285	0.048	0.070
-272.370	-23.352	0.207	0.123
-271.355	-200.000	0.061	0.342
-270.340	-33.643	0.399	0.218
-269.326	75.154	-0.099	-0.103
-268.311	21.931	0.152	0.122
-267.297	348.795	0.075	0.147
-266.282	-93.557	-0.220	0.060
-265.267	-143.105	-0.156	0.015
-264.253	-200.000	-0.034	-0.238
-263.238	800.000	0.082	0.308
-262.224	800.000	-0.090	-0.310
-261.209	-73.890	-0.304	0.109
-260.195	36.299	-0.182	-0.159
-259.180	-28.956	0.166	-0.094
-258.165	-10.972	-0.342	-0.223
-257.151	-112.597	-0.012	0.002
-256.136	800.000	0.076	-0.284
-255.122	-112.296	-0.295	-0.058
-254.107	-61.329	-0.174	0.072
-253.092	33.282	0.327	0.280
-252.078	-60.481	-0.224	0.094
-251.063	-83.103	-0.092	0.029
-250.049	716.506	-0.152	0.398
-249.034	-50.036	0.204	0.096
-248.019	36.985	0.050	-0.043
-247.005	4.419	-0.059	-0.043
-245.990	800.000	0.023	0.084
-244.976	140.405	0.146	0.190
-243.961	-57.112	0.076	-0.033
-242.946	-200.000	0.008	0.093
-241.932	800.000	0.025	-0.092
-240.917	800.000	-0.089	-0.262
-239.903	-51.876	0.112	-0.051
-238.888	199.610	-0.224	0.339
-237.873	-200.000	0.069	-0.383
-236.859	-200.000	0.010	-0.102
-235.844	-49.292	-0.199	0.094
-234.830	-200.000	-0.032	-0.145
-233.815	156.438	0.126	-0.171
-232.800	31.298	0.243	0.206
-231.786	85.234	0.206	0.223
-230.771	-197.377	-0.127	0.001
-229.757	64.066	-0.192	-0.190
-228.742	180.528	-0.084	-0.122
-227.727	232.323	0.219	0.355
-226.713	168.871	-0.103	-0.145
-225.698	-200.000	-0.000	-0.066
-224.684	-96.074	0.195	0.051
-223.669	68.426	0.112	-0.114
-222.655	11.055	0.198	-0.149
-221.640	30.029	0.359	0.302
-220.625	-200.000	-0.023	0.138
-219.611	209.184	-0.130	-0.200
-218.596	79.656	-0.146	-0.154
-217.582	573.519	-0.089	-0.213
-216.567	-112.045	-0.091	0.018
-215.552	350.428	-0.069	0.134
-214.538	71.463	0.259	0.265
-213.523	58.875	0.077	0.074
-212.509	9.910	-0.053	0.040
-211.494	2.746	0.345	0.247
-210.479	-7.283	0.272	-0.182
-209.465	47.320	0.187	0.172
-208.450	-20.500	-0.276	-0.168
-207.436	-200.000	0.007	0.175
-206.421	61.858	0.076	0.074
-205.406	-12.423	0.063	-0.040
-204.392	26.086	0.234	-0.193
-203.377	-26.500	-0.220	0.127
-202.363	-64.252	-0.399	0.160
-201.348	190.438	-0.132	0.196
-200.333	209.503	0.170	-0.263
-199.319	-116.774	-0.099	-0.018
-198.304	-157.630	-0.449	0.026
-197.290	-74.192	-0.176	0.063
-196.275	-200.000	-0.004	0.084
-195.260	101.224	-0.169	0.194
-194.246	800.000	-0.041	-0.120
-193.231	8.063	-0.415	0.307
-192.217	83.566	0.194	-0.209
-191.202	-200.000	0.017	-0.317
-190.187	200.529	-0.089	0.135
-189.173	-72.593	0.238	-0.086
-188.158	-200.000	0.004	-0.022
-187.144	800.000	-0.053	0.199
-186.129	-119.802	-0.315	-0.053
-185.114	242.251	0.135	-0.223
-184.100	117.770	-0.083	0.100
-183.085	789.498	0.091	-0.245
-182.071	-133.170	-0.404	0.050
-181.056	274.918	0.098	-0.171
-180.042	-81.824	0.524	0.169
-179.027	-7.085	0.120	0.080
-178.012	800.000	0.020	-0.086
-176.998	-18.160	0.172	-0.106
-175.983	92.576	-0.347	-0.386
-174.969	9.461	0.052	0.039
-173.954	800.000	0.040	0.125
-172.939	14.165	0.064	0.049
-171.925	-116.833	0.227	0.041
-170.910	513.351	0.049	0.113
-169.896	93.056	-0.109	-0.121
-168.881	-33.553	-0.095	0.052
-167.866	-81.137	-0.155	-0.050
-166.852	-95.887	0.234	0.061
-165.837	213.464	0.204	0.317
-164.823	-7.005	-0.338	-0.226
-163.808	-44.377	-0.169	0.084
-162.793	-200.000	0.007	0.031
-161.779	91.913	-0.214	0.237
-160.764	-153.816	0.231	-0.016
-159.750	26.201	0.111	-0.091
-158.735	63.284	0.219	0.216
-157.720	-145.753	0.119	0.010
-156.706	-200.000	0.057	0.296
-155.691	-200.000	-0.011	-0.051
-154.677	22.351	0.153	-0.123
-153.662	32.615	0.260	0.222
-152.647	-200.000	-0.019	0.207
-151.633	-5.422	-0.143	-0.097
-150.618	-20.112	0.200	0.121
-149.604	-200.000	-0.012	-0.115
-148.589	-86.859	0.071	-0.021
-147.574	-93.185	0.062	-0.017
-146.560	1.410	0.084	0.060
-145.545	-103.019	0.179	0.042
-144.531	20.518	0.125	0.100
-143.516	455.498	0.177	0.387
-142.502	-200.000	-0.045	-0.297
-141.487	140.197	-0.181	0.235
-140.472	-200.000	0.044	0.197
-139.458	376.517	-0.181	-0.364
-138.443	-130.131	-0.154	-0.021
-137.429	410.069	0.095	-0.199
-136.414	41.449	-0.162	-0.144
-135.399	21.976	0.067	-0.054
-134.385	-133.066	0.119	0.015
-133.370	-200.000	0.011	0.167
-132.356	-200.000	0.002	0.195
-131.341	-113.791	0.189	-0.036
-130.326	-68.214	0.465	0.178
-129.312	-149.490	0.159	0.012
-128.297	44.218	-0.309	0.279
-127.283	58.236	0.118	0.114
-126.268	84.690	0.160	0.172
-125.253	-29.938	0.291	0.163
-124.239	-149.192	0.109	0.009
-123.224	-141.872	-0.154	0.015
-122.210	-79.969	-0.089	0.029
-121.195	126.842	0.160	-0.199
-120.180	-200.000	0.037	0.165
