DTS Sentinel unit serial number:	SN413079Multiplexer serial number:	ORYXHardware model number:	OX4-SRSoftware version number:	ORYX F/W v4.00 Oryx Data Collector v3.7.2.0data status	okinstallation	princeton_trtdifferential loss correction	single-endedforward channel	channel 2reverse channel	N/Adate	2019/09/18time	15:15:35forward acquisition time	60.00reverse acquisition time	0.00gamma	496.2192k internal	0.2316k external	0.2316temperature offset calibration	1.0001default loss term (dB/km)	0.3790temperature slope calibration	1.0000multiplexer offset coefficient	1.0000multiplexer slope coefficient	1.0000fibre end	0.00T internal ref (°C)	35.56T ext. ref 1 (°C)	0.75T ext. ref 2 (°C)	32.49length (m)	temperature (°C)	Stokes	anti-Stokes-747.200	-200.000	0.034	0.274
-746.185	-71.551	0.156	0.059
-745.171	-55.763	-0.505	0.228
-744.156	44.289	0.328	0.305
-743.142	718.947	-0.056	-0.151
-742.127	800.000	-0.054	0.213
-741.112	-20.979	0.058	-0.036
-740.098	198.975	-0.178	0.277
-739.083	56.660	0.056	-0.056
-738.069	139.921	-0.174	0.232
-737.054	117.356	0.103	0.128
-736.039	-200.000	-0.031	-0.335
-735.025	129.177	0.268	-0.346
-734.010	4.444	-0.025	-0.019
-732.996	-200.000	0.026	0.147
-731.981	48.392	-0.188	-0.178
-730.966	-200.000	-0.044	0.273
-729.952	-200.000	-0.053	-0.301
-728.937	-24.846	-0.195	-0.117
-727.923	243.581	-0.056	-0.095
-726.908	108.826	0.140	-0.169
-725.894	-148.483	-0.279	0.023
-724.879	-104.167	0.068	-0.016
-723.864	24.150	0.166	-0.138
-722.850	614.266	0.156	0.396
-721.835	-56.683	0.224	-0.100
-720.821	644.211	-0.100	0.259
-719.806	-50.139	-0.188	-0.090
-718.791	-130.504	0.155	0.021
-717.777	-200.000	0.038	-0.294
-716.762	-63.768	0.066	0.027
-715.748	134.671	-0.091	0.120
-714.733	124.611	-0.098	0.124
-713.718	-200.000	0.026	0.203
-712.704	-141.124	0.372	0.038
-711.689	-91.837	0.068	0.019
-710.675	-172.558	-0.354	-0.011
-709.660	-37.164	-0.103	0.056
-708.645	252.663	0.145	-0.250
-707.631	800.000	0.045	-0.163
-706.616	-200.000	0.030	-0.242
-705.602	66.394	0.051	-0.052
-704.587	196.397	-0.276	0.425
-703.572	-67.858	0.307	-0.121
-702.558	293.273	0.105	-0.195
-701.543	49.142	0.077	0.073
-700.529	800.000	-0.018	-0.059
-699.514	73.551	0.016	-0.017
-698.499	-65.187	0.429	-0.175
-697.485	-93.866	0.150	-0.042
-696.470	74.507	0.079	-0.084
-695.456	148.056	-0.342	-0.466
-694.441	-158.650	0.035	0.002
-693.426	-147.542	-0.018	-0.002
-692.412	-90.000	0.414	0.122
-691.397	-88.280	-0.134	0.040
-690.383	-127.521	0.189	-0.028
-689.368	91.408	-0.087	-0.098
-688.354	86.900	-0.060	-0.067
-687.339	800.000	0.059	-0.237
-686.324	94.299	-0.149	0.170
-685.310	-35.679	0.197	0.108
-684.295	234.735	-0.157	-0.262
-683.281	-48.667	-0.086	-0.042
-682.266	278.086	0.079	-0.143
-681.251	297.016	-0.116	0.214
-680.237	497.717	-0.062	0.143
-679.222	-143.346	0.397	-0.038
-678.208	-200.000	0.015	0.102
-677.193	-58.170	0.093	0.041
-676.178	-200.000	-0.076	-0.338
-675.164	170.611	-0.173	-0.250
-674.149	-118.496	-0.188	-0.034
-673.135	518.939	0.134	-0.317
-672.120	-1.782	-0.041	0.029
-671.105	37.233	-0.144	-0.129
-670.091	-88.929	0.048	0.014
-669.076	42.732	-0.158	0.145
-668.062	-33.074	0.083	0.046
-667.047	800.000	0.109	-0.330
-666.032	177.613	0.121	-0.179
-665.018	-122.040	0.140	-0.023
-664.003	423.448	0.103	-0.223
-662.989	233.884	0.095	0.158
-661.974	1.168	-0.243	-0.176
-660.959	72.266	0.165	-0.174
-659.945	150.502	0.103	-0.142
-658.930	-170.266	-0.059	-0.002
-657.916	26.365	-0.109	0.092
-656.901	-63.656	0.233	0.096
-655.886	-200.000	0.021	-0.221
-654.872	-200.000	0.009	-0.170
-653.857	-200.000	-0.053	0.272
-652.843	-200.000	-0.010	0.312
-651.828	16.690	-0.219	0.175
-650.814	-114.375	-0.195	0.038
-649.799	-134.492	-0.331	0.041
-648.784	72.718	-0.256	0.270
-647.770	281.607	0.086	0.155
-646.755	-44.705	-0.062	-0.031
-645.741	-58.509	-0.110	-0.048
-644.726	66.479	0.061	-0.062
-643.711	-30.084	0.158	0.090
-642.697	-94.423	-0.229	-0.063
-641.682	-102.706	-0.124	0.030
-640.668	-74.550	0.043	-0.015
-639.653	20.372	-0.144	0.117
-638.638	10.566	-0.205	-0.158
-637.624	143.668	-0.171	-0.230
-636.609	215.275	-0.069	0.110
-635.595	-200.000	0.022	0.367
-634.580	800.000	-0.059	0.246
-633.565	-103.882	-0.169	0.040
-632.551	156.071	-0.060	-0.083
-631.536	-140.433	0.383	-0.040
-630.522	-119.235	-0.202	-0.035
-629.507	-100.895	-0.236	0.058
-628.492	-108.680	0.156	0.034
-627.478	437.997	0.135	-0.297
-626.463	-178.987	0.143	0.003
-625.449	-14.673	-0.248	0.161
-624.434	-8.993	-0.083	-0.056
-623.419	-32.442	-0.090	-0.050
-622.405	373.637	-0.033	0.068
-621.390	291.201	0.080	-0.147
-620.376	-200.000	0.032	-0.146
-619.361	800.000	0.064	-0.275
-618.346	94.570	-0.198	-0.227
-617.332	80.118	-0.338	-0.366
-616.317	612.417	0.056	0.141
-615.303	-168.627	-0.555	-0.021
-614.288	246.637	0.108	0.184
-613.273	-196.607	-0.261	0.002
-612.259	-131.480	0.241	-0.032
-611.244	213.856	0.180	-0.287
-610.230	-3.938	0.286	-0.200
-609.215	-139.802	-0.182	-0.019
-608.201	86.364	0.031	0.035
-607.186	325.844	0.165	0.319
-606.171	184.333	-0.143	-0.213
-605.157	196.869	-0.039	0.060
-604.142	-191.843	0.163	0.002
-603.128	800.000	0.090	-0.338
-602.113	-152.348	-0.231	-0.017
-601.098	641.722	0.096	0.245
-600.084	-83.770	0.172	-0.055
-599.069	126.266	-0.121	-0.154
-598.055	157.231	-0.153	-0.213
-597.040	-110.651	-0.438	0.091
-596.025	800.000	0.061	0.253
-595.011	-92.779	0.172	0.048
-593.996	98.819	-0.163	0.189
-592.982	-21.321	-0.025	-0.015
-591.967	-200.000	-0.006	0.044
-590.952	-32.961	-0.065	0.036
-589.938	-0.963	0.175	0.125
-588.923	-95.993	0.157	-0.042
-587.909	-190.886	-0.250	0.003
-586.894	212.412	-0.197	-0.312
-585.879	135.964	-0.233	0.305
-584.865	-17.621	0.046	-0.029
-583.850	-33.947	-0.210	-0.117
-582.836	8.803	-0.121	0.092
-581.821	719.790	-0.065	-0.173
-580.806	-200.000	-0.006	0.058
-579.792	-144.373	0.316	-0.030
-578.777	89.293	-0.118	-0.133
-577.763	-1.582	-0.065	0.046
-576.748	13.713	0.105	0.082
-575.733	-82.619	0.204	0.066
-574.719	-200.000	0.048	0.211
-573.704	-29.867	0.076	0.043
-572.690	-114.819	0.236	0.045
-571.675	215.488	0.034	-0.054
-570.661	16.506	-0.054	-0.043
-569.646	106.268	0.301	0.359
-568.631	-200.000	0.007	0.285
-567.617	-85.465	-0.182	-0.057
-566.602	-200.000	0.031	0.287
-565.588	89.946	-0.146	-0.164
-564.573	-33.604	-0.095	0.053
-563.558	-55.069	0.268	-0.121
-562.544	99.658	-0.209	0.244
-561.529	-200.000	0.013	-0.084
-560.515	112.963	0.096	0.117
-559.500	800.000	-0.078	0.227
-558.485	800.000	-0.104	0.392
-557.471	800.000	-0.026	0.101
-556.456	-38.492	-0.090	0.048
-555.442	514.217	0.091	-0.213
-554.427	7.423	0.317	-0.238
-553.412	510.499	0.083	-0.195
-552.398	244.593	0.300	-0.506
-551.383	177.996	-0.150	0.220
-550.369	-200.000	-0.010	-0.207
-549.354	-131.223	-0.396	-0.053
-548.339	-200.000	0.008	0.154
-547.325	-36.803	-0.056	-0.030
-546.310	-18.167	-0.053	0.033
-545.296	-15.682	-0.171	-0.109
-544.281	-63.068	0.258	-0.107
-543.266	-56.434	0.230	-0.103
-542.252	6.984	-0.188	-0.141
-541.237	-118.210	-0.178	0.032
-540.223	153.450	-0.269	0.370
-539.208	-50.845	0.159	-0.075
-538.193	357.141	0.172	-0.344
-537.179	415.179	0.038	0.082
-536.164	-34.761	-0.496	-0.272
-535.150	-16.944	-0.076	-0.048
-534.135	-85.934	0.055	-0.017
-533.121	296.271	0.223	-0.410
-532.106	-200.000	-0.016	-0.103
-531.091	-200.000	-0.027	-0.362
-530.077	-200.000	0.019	-0.090
-529.062	437.296	-0.029	0.062
-528.048	-166.149	-0.290	-0.012
-527.033	-105.471	0.089	0.020
-526.018	-200.000	-0.032	0.271
-525.004	-184.901	-0.104	-0.002
-523.989	233.580	0.226	-0.373
-522.975	7.585	0.171	-0.129
-521.960	356.518	-0.144	-0.289
-520.945	-74.902	-0.280	-0.101
-519.931	135.687	0.185	-0.242
-518.916	12.865	0.171	-0.132
-517.902	72.681	0.091	0.096
-516.887	406.395	0.129	0.273
-515.872	136.071	0.279	0.365
-514.858	384.991	0.123	0.254
-513.843	4.951	0.397	0.293
-512.829	33.039	-0.051	0.044
-511.814	-56.734	0.276	0.122
-510.799	138.321	-0.108	-0.142
-509.785	-77.180	-0.129	0.045
-508.770	-17.720	-0.107	-0.068
-507.756	-46.080	-0.173	-0.085
-506.741	-33.556	-0.205	-0.114
-505.726	754.997	-0.009	0.026
-504.712	280.671	-0.141	-0.253
-503.697	800.000	-0.115	-0.436
-502.683	-200.000	-0.030	-0.255
-501.668	49.854	0.108	-0.103
-500.653	800.000	-0.017	0.057
-499.639	-46.257	-0.046	-0.023
-498.624	-200.000	-0.011	0.093
-497.610	262.655	0.138	-0.240
-496.595	-200.000	0.024	-0.140
-495.581	712.196	-0.080	-0.213
-494.566	-25.942	-0.276	-0.163
-493.551	206.176	-0.098	0.152
-492.537	60.296	0.029	-0.029
-491.522	96.930	-0.240	-0.276
-490.508	-96.771	0.090	-0.024
-489.493	-113.938	0.305	-0.059
-488.478	-200.000	-0.004	0.240
-487.464	-56.538	0.104	-0.046
-486.449	-200.000	-0.026	0.202
-485.435	-200.000	0.016	-0.088
-484.420	-171.368	-0.371	0.012
-483.405	-109.217	0.059	0.013
-482.391	-200.000	0.008	-0.043
-481.376	-82.811	0.170	-0.055
-480.362	60.116	-0.083	-0.083
-479.347	-80.365	-0.436	-0.146
-478.332	649.332	0.113	0.289
-477.318	10.739	-0.109	0.084
-476.303	317.883	0.124	0.236
-475.289	-200.000	0.006	-0.104
-474.274	291.831	-0.078	0.143
-473.259	-100.296	0.276	-0.069
-472.245	-200.000	0.016	-0.111
-471.230	299.559	-0.031	-0.058
-470.216	421.386	-0.051	0.110
-469.201	316.517	-0.070	0.133
-468.186	270.979	0.113	-0.200
-467.172	-200.000	-0.096	-0.505
-466.157	-48.958	0.244	0.117
-465.143	800.000	-0.090	0.318
-464.128	-97.441	-0.474	0.124
-463.113	-200.000	-0.038	-0.199
-462.099	128.434	-0.152	-0.194
-461.084	144.106	0.135	-0.180
-460.070	301.570	-0.143	0.265
-459.055	-200.000	-0.015	-0.115
-458.040	33.997	-0.114	-0.099
-457.026	-90.015	0.241	-0.071
-456.011	-200.000	-0.062	-0.366
-454.997	-68.916	0.424	0.164
-453.982	-188.660	-0.226	0.003
-452.968	314.185	-0.252	0.476
-451.953	800.000	-0.035	0.129
-450.938	-125.543	-0.260	0.040
-449.924	-200.000	0.015	0.257
-448.909	-84.501	0.098	0.031
-447.895	-200.000	-0.267	0.001
-446.880	26.948	0.162	0.136
-445.865	-149.734	0.255	-0.020
-444.851	-54.072	-0.222	0.101
-443.836	800.000	-0.058	0.251
-442.822	-200.000	0.055	-0.286
-441.807	124.772	0.157	-0.197
-440.792	-200.000	-0.065	-0.399
-439.778	473.256	0.105	0.238
-438.763	69.396	0.194	0.200
-437.749	-131.129	0.074	-0.010
-436.734	272.172	-0.119	-0.210
-435.719	75.341	0.120	0.127
-434.705	-200.000	-0.005	0.325
-433.690	-50.808	-0.087	0.041
-432.676	-122.364	-0.273	-0.045
-431.661	-19.271	0.067	0.042
-430.646	72.860	-0.082	-0.086
-429.632	-200.000	0.035	0.325
-428.617	800.000	-0.006	0.019
-427.603	-43.183	0.108	-0.055
-426.588	190.432	0.035	-0.052
-425.573	-74.655	0.101	0.036
-424.559	-25.745	0.177	-0.105
-423.544	-161.843	-0.391	0.020
-422.530	-20.422	0.072	-0.044
-421.515	45.712	0.113	0.105
-420.500	-152.100	0.351	-0.026
-419.486	71.163	0.155	-0.160
-418.471	800.000	0.069	-0.252
-417.457	-73.282	-0.397	-0.145
-416.442	77.075	0.172	0.183
-415.428	40.551	0.261	0.235
-414.413	-127.404	0.274	0.040
-413.398	-127.278	-0.348	0.051
-412.384	-97.039	-0.153	-0.040
-411.369	-65.854	0.054	0.022
-410.355	-73.119	-0.195	0.072
-409.340	218.596	-0.220	-0.351
-408.325	-126.065	0.442	-0.066
-407.311	-86.136	0.536	-0.165
-406.296	-0.491	0.069	0.049
-405.282	-23.675	0.402	0.241
-404.267	391.658	-0.161	-0.334
-403.252	224.574	-0.148	-0.239
-402.238	17.219	0.212	0.168
-401.223	-200.000	0.003	-0.058
-400.209	-71.835	-0.383	-0.142
-399.194	183.067	0.147	-0.218
-398.179	-19.236	0.106	0.066
-397.165	-87.945	-0.099	0.030
-396.150	-200.000	-0.016	0.081
-395.136	32.169	0.181	0.156
-394.121	441.704	-0.097	-0.211
-393.106	800.000	-0.137	-0.404
-392.092	463.954	-0.137	-0.307
-391.077	800.000	0.023	0.097
-390.063	-77.329	-0.224	-0.078
-389.048	78.301	-0.133	0.142
-388.033	113.170	0.176	0.214
-387.019	14.790	-0.176	0.138
-386.004	-98.787	-0.180	-0.046
-384.990	0.468	0.222	-0.158
-383.975	800.000	0.111	-0.324
-382.960	283.746	0.126	-0.226
-381.946	32.753	0.065	0.056
-380.931	800.000	0.065	0.236
-379.917	583.261	-0.252	0.619
-378.902	379.022	0.161	-0.328
-377.888	14.821	0.195	-0.153
-376.873	248.012	0.205	0.346
-375.858	103.806	-0.183	0.214
-374.844	-99.011	-0.123	-0.031
-373.829	-151.301	-0.211	-0.016
-372.815	-121.456	0.028	-0.005
-371.800	-65.269	0.292	0.117
-370.785	47.039	-0.169	0.157
-369.771	44.614	-0.218	0.200
-368.756	314.863	-0.198	-0.372
-367.742	-72.962	-0.176	0.064
-366.727	-200.000	0.013	-0.086
-365.712	437.722	-0.051	-0.111
-364.698	800.000	0.068	0.191
-363.683	-145.726	0.065	-0.006
-362.669	-200.000	0.008	0.195
-361.654	89.435	-0.290	0.322
-360.639	-141.589	0.472	-0.048
-359.625	-26.461	0.280	-0.164
-358.610	-76.567	-0.282	0.099
-357.596	800.000	-0.127	-0.524
-356.581	-107.897	-0.139	0.030
-355.566	-200.000	0.041	-0.304
-354.552	116.414	-0.227	-0.278
-353.537	178.651	0.055	-0.080
-352.523	107.880	-0.095	0.113
-351.508	11.731	0.184	0.141
-350.493	67.230	-0.199	-0.203
-349.479	800.000	-0.075	-0.302
-348.464	-52.910	0.243	0.112
-347.450	-92.668	0.107	-0.030
-346.435	25.431	-0.168	0.139
-345.420	-37.568	-0.155	-0.082
-344.406	-200.000	0.019	-0.135
-343.391	220.942	-0.120	-0.192
-342.377	800.000	-0.085	-0.292
-341.362	-141.581	-0.328	-0.033
-340.348	-52.996	0.332	-0.152
-339.333	69.157	-0.164	0.168
-338.318	800.000	-0.081	0.251
-337.304	291.696	-0.179	-0.326
-336.289	-187.420	0.375	0.005
-335.275	-80.698	-0.340	-0.113
-334.260	481.295	0.058	-0.131
-333.245	-175.509	0.373	-0.010
-332.231	-16.068	0.127	-0.081
-331.216	2.802	-0.107	0.077
-330.202	394.658	0.136	-0.283
-329.187	-33.183	0.506	-0.279
-328.172	452.350	-0.179	0.395
-327.158	800.000	0.091	0.350
-326.143	-69.884	0.346	-0.131
-325.129	-152.222	0.181	0.013
-324.114	-200.000	-0.006	0.059
-323.099	483.376	0.057	0.129
-322.085	352.016	0.120	-0.236
-321.070	17.876	-0.255	0.202
-320.056	224.722	0.061	0.097
-319.041	-82.520	0.361	0.117
-318.026	236.730	-0.127	0.209
-317.012	-200.000	0.039	0.000
-315.997	38.999	-0.179	-0.159
-314.983	96.612	0.129	0.147
-313.968	-14.078	-0.132	0.085
-312.953	-157.107	-0.284	-0.017
-311.939	-134.521	0.034	0.004
-310.924	208.335	0.198	-0.308
-309.910	124.498	0.109	0.136
-308.895	-74.637	0.125	0.045
-307.880	-126.920	0.167	0.024
-306.866	776.519	-0.144	-0.392
-305.851	-9.691	0.280	-0.186
-304.837	396.793	-0.028	0.059
-303.822	47.087	-0.079	-0.073
-302.807	506.180	-0.137	0.316
-301.793	-200.000	0.052	0.754
-300.778	67.942	-0.045	0.046
-299.764	545.011	0.074	-0.175
-298.749	-96.668	0.199	0.052
-297.735	-29.474	-0.235	-0.134
-296.720	-187.987	-0.068	0.001
-295.705	-79.703	-0.176	-0.059
-294.691	-200.000	0.040	0.226
-293.676	-100.736	0.343	-0.084
-292.662	205.025	0.070	0.107
-291.647	-200.000	-0.049	0.221
-290.632	459.464	0.098	0.217
-289.618	80.871	-0.223	-0.239
-288.603	28.956	0.177	-0.149
-287.589	-200.000	0.009	-0.262
-286.574	-135.306	-0.178	0.021
-285.559	800.000	0.055	-0.193
-284.545	-118.213	-0.082	0.015
-283.530	-43.155	-0.383	-0.193
-282.516	800.000	-0.009	0.025
-281.501	6.615	-0.262	0.194
-280.486	239.433	-0.199	0.329
-279.472	-143.531	-0.271	-0.026
-278.457	-101.724	0.133	0.032
-277.443	160.933	-0.076	0.106
-276.428	233.877	0.155	0.254
-275.413	253.032	-0.182	0.310
-274.399	16.706	-0.145	0.114
-273.384	-16.061	0.175	-0.111
-272.370	-197.236	-0.074	-0.000
-271.355	-42.065	-0.155	0.079
-270.340	-81.979	0.385	-0.125
-269.326	800.000	-0.053	-0.163
-268.311	800.000	0.045	-0.137
-267.297	-46.517	-0.227	0.111
-266.282	-7.004	-0.064	-0.043
-265.267	-68.271	-0.276	-0.107
-264.253	285.693	-0.116	0.208
-263.238	21.749	-0.247	0.200
-262.224	-4.127	-0.131	0.090
-261.209	-109.943	-0.125	-0.026
-260.195	-83.740	-0.173	-0.055
-259.180	46.583	-0.163	-0.150
-258.165	-108.723	-0.143	-0.030
-257.151	-200.000	0.065	0.419
-256.136	313.894	0.114	0.214
-255.122	-200.000	-0.000	0.481
-254.107	-59.913	0.479	0.203
-253.092	-115.000	-0.196	-0.037
-252.078	58.505	-0.258	0.252
-251.063	-98.251	-0.143	-0.036
-250.049	-200.000	0.023	0.329
-249.034	-79.961	0.145	-0.048
-248.019	-200.000	-0.022	-0.333
-247.005	-72.221	0.112	0.041
-245.990	286.720	0.035	-0.062
-244.976	-68.787	0.168	-0.065
-243.961	580.800	-0.029	0.071
-242.946	800.000	0.099	0.292
-241.932	-200.000	0.094	0.418
-240.917	-99.340	0.051	0.013
-239.903	-183.891	0.311	-0.005
-238.888	-200.000	-0.042	0.227
-237.873	446.901	0.089	0.195
-236.859	-121.473	0.105	-0.017
-235.844	-200.000	0.049	0.306
-234.830	252.366	-0.166	0.280
-233.815	-11.205	-0.085	-0.056
-232.800	-149.517	0.216	-0.017
-231.786	85.577	0.084	0.091
-230.771	115.358	0.171	0.207
-229.757	215.366	-0.115	0.182
-228.742	-82.403	0.162	-0.052
-227.727	-155.741	0.197	-0.012
-226.713	55.525	0.231	0.222
-225.698	100.260	0.114	0.131
-224.684	448.922	0.043	0.094
-223.669	28.124	-0.097	0.081
-222.655	-72.314	0.210	-0.077
-221.640	-106.112	0.325	0.072
-220.625	117.313	0.154	-0.188
-219.611	-200.000	0.007	-0.339
-218.596	-200.000	0.001	-0.118
-217.582	198.978	0.031	-0.048
-216.567	800.000	-0.036	0.120
-215.552	191.217	-0.019	-0.028
-214.538	800.000	-0.042	0.158
-213.523	-111.074	-0.166	-0.034
-212.509	-128.100	0.272	-0.039
-211.494	219.319	-0.160	0.253
-210.479	618.310	0.104	0.260
-209.465	-200.000	-0.033	-0.225
-208.450	67.857	0.257	-0.261
-207.436	-200.000	-0.015	-0.183
-206.421	382.880	0.187	-0.381
-205.406	-24.229	0.120	0.071
-204.392	-200.000	0.002	0.158
-203.377	57.215	-0.171	0.165
-202.363	-162.893	-0.083	0.004
-201.348	-200.000	-0.007	-0.133
-200.333	42.558	-0.088	-0.080
-199.319	-114.637	-0.370	0.070
-198.304	-200.000	0.070	-0.528
-197.290	-31.362	0.258	-0.144
-196.275	496.390	0.085	0.193
-195.260	-102.615	-0.219	0.052
-194.246	-147.205	0.308	-0.026
-193.231	140.983	0.058	0.077
-192.217	-28.567	0.308	-0.176
-191.202	5.367	0.200	0.146
-190.187	-200.000	-0.028	-0.184
-189.173	59.575	-0.049	0.048
-188.158	-127.773	-0.084	0.012
-187.144	-34.311	0.129	0.070
-186.129	800.000	0.054	-0.200
-185.114	-200.000	-0.031	-0.294
-184.100	-127.919	0.163	0.023
-183.085	135.986	-0.130	-0.168
-182.071	-163.757	0.322	0.015
-181.056	-159.234	0.166	-0.009
-180.042	-143.127	0.293	0.028
-179.027	-200.000	0.014	0.138
-178.012	-49.551	-0.218	-0.103
-176.998	-71.019	0.088	-0.033
-175.983	-95.466	-0.300	0.080
-174.969	800.000	0.047	0.203
-173.954	-49.281	-0.213	0.101
-172.939	-172.364	0.142	-0.004
-171.925	-48.239	-0.103	-0.049
-170.910	-19.632	0.124	-0.076
-169.896	-130.233	0.008	0.001
-168.881	-22.424	-0.195	0.117
-167.866	-114.349	0.240	0.046
-166.852	24.312	0.278	0.228
-165.837	800.000	-0.062	-0.189
-164.823	-200.000	0.003	0.284
-163.808	148.165	0.069	0.092
-162.793	302.956	0.070	-0.129
-161.779	-98.480	0.250	0.063
-160.764	-21.235	0.217	-0.131
-159.750	122.654	0.090	-0.111
-158.735	134.665	0.150	0.193
-157.720	-104.093	-0.020	-0.005
-156.706	-200.000	0.029	-0.408
-155.691	-200.000	-0.021	0.132
-154.677	-188.620	-0.241	0.003
-153.662	86.519	0.077	-0.084
-152.647	-200.000	0.019	0.379
-151.633	145.871	-0.177	0.235
-150.618	800.000	0.042	0.117
-149.604	366.559	-0.141	0.281
-148.589	-88.453	0.161	0.048
-147.574	-27.839	-0.162	0.093
-146.560	-135.844	0.250	-0.029
-145.545	32.125	-0.234	-0.199
-144.531	86.505	0.102	-0.111
-143.516	381.265	0.129	-0.263
-142.502	-69.146	-0.049	-0.019
-141.487	-200.000	-0.027	0.167
-140.472	145.400	0.055	0.073
-139.458	48.194	0.073	-0.067
-138.443	229.752	-0.123	-0.199
-137.429	800.000	0.104	-0.299
-136.414	153.443	0.155	0.210
-135.399	47.248	0.251	0.231
-134.385	-200.000	0.002	0.203
-133.370	-103.098	0.195	0.046
-132.356	434.577	0.055	-0.117
-131.341	138.864	-0.085	0.111
-130.326	276.939	0.176	0.310
-129.312	-189.419	-0.190	0.002
-128.297	800.000	0.038	0.161
-127.283	-200.000	-0.027	0.166
-126.268	-62.344	0.354	0.146
-125.253	800.000	-0.059	-0.171
-124.239	535.150	-0.037	0.087
-123.224	-75.875	0.123	0.043
-122.210	-131.370	0.340	0.044
-121.195	704.313	0.020	-0.052
