DTS Sentinel unit serial number:	SN413079Multiplexer serial number:	ORYXHardware model number:	OX4-SRSoftware version number:	ORYX F/W v4.00 Oryx Data Collector v3.7.2.0data status	okinstallation	princeton_trtdifferential loss correction	single-endedforward channel	channel 2reverse channel	N/Adate	2019/09/18time	06:03:34forward acquisition time	60.00reverse acquisition time	0.00gamma	496.2192k internal	0.2349k external	0.2349temperature offset calibration	0.9984default loss term (dB/km)	0.3790temperature slope calibration	1.0000multiplexer offset coefficient	1.0000multiplexer slope coefficient	1.0000fibre end	0.00T internal ref (°C)	23.19T ext. ref 1 (°C)	0.19T ext. ref 2 (°C)	17.65length (m)	temperature (°C)	Stokes	anti-Stokes-747.200	-200.000	0.008	0.178
-746.185	-26.755	-0.146	0.085
-745.171	40.608	0.069	-0.062
-744.156	329.751	-0.173	0.333
-743.142	-26.458	0.188	-0.110
-742.127	35.260	-0.142	0.125
-741.112	-3.111	-0.126	0.088
-740.098	-30.344	-0.352	0.200
-739.083	800.000	-0.088	0.323
-738.069	-78.201	-0.228	0.078
-737.054	457.877	-0.017	-0.038
-736.039	800.000	0.070	0.300
-735.025	-99.301	-0.116	0.029
-734.010	-97.364	0.094	-0.024
-732.996	-142.066	0.031	0.003
-731.981	185.498	0.023	-0.034
-730.966	-83.621	-0.051	0.016
-729.952	-111.470	0.109	0.022
-728.937	148.713	0.131	0.177
-727.923	-131.557	-0.141	0.019
-726.908	64.999	-0.204	0.206
-725.894	-127.775	-0.480	0.069
-724.879	467.700	0.027	-0.061
-723.864	-105.608	-0.219	0.050
-722.850	-79.406	0.099	0.034
-721.835	-54.429	0.036	0.016
-720.821	800.000	-0.135	-0.396
-719.806	21.501	-0.228	0.185
-718.791	-200.000	-0.012	0.088
-717.777	516.326	-0.053	0.124
-716.762	261.276	-0.087	-0.151
-715.748	800.000	0.091	0.295
-714.733	800.000	0.100	-0.328
-713.718	496.661	-0.111	-0.254
-712.704	47.575	0.207	0.193
-711.689	196.180	-0.061	0.093
-710.675	76.033	0.171	-0.180
-709.660	-55.611	-0.107	-0.048
-708.645	140.090	0.163	0.214
-707.631	-48.385	0.312	0.150
-706.616	-80.215	-0.135	-0.045
-705.602	284.107	0.036	0.065
-704.587	-61.568	0.137	-0.057
-703.572	14.672	-0.380	0.296
-702.558	-36.508	0.195	-0.105
-701.543	-200.000	0.004	-0.367
-700.529	-111.874	0.512	-0.103
-699.514	113.230	-0.238	0.287
-698.499	800.000	0.030	0.126
-697.485	44.350	-0.027	0.024
-696.470	79.251	0.224	-0.240
-695.456	69.405	0.091	0.094
-694.441	113.248	0.118	-0.143
-693.426	-34.640	-0.464	-0.253
-692.412	800.000	0.093	-0.361
-691.397	378.339	0.028	-0.057
-690.383	75.521	-0.174	-0.183
-689.368	299.360	-0.069	-0.126
-688.354	358.248	0.008	-0.017
-687.339	-71.577	-0.348	0.130
-686.324	-50.142	0.051	0.024
-685.310	15.881	0.126	0.099
-684.295	177.879	-0.147	-0.214
-683.281	44.576	0.280	-0.256
-682.266	-200.000	-0.019	-0.236
-681.251	800.000	-0.073	-0.221
-680.237	-200.000	0.054	0.357
-679.222	-45.717	0.327	-0.161
-678.208	-15.151	-0.074	-0.047
-677.193	-155.111	0.073	-0.005
-676.178	336.318	0.091	0.176
-675.164	-117.017	-0.193	-0.035
-674.149	62.219	-0.165	0.164
-673.135	-129.484	0.267	0.037
-672.120	-42.436	-0.282	-0.143
-671.105	800.000	-0.035	-0.118
-670.091	375.289	-0.013	0.026
-669.076	29.190	-0.095	-0.080
-668.062	-59.260	-0.136	0.058
-667.047	-67.245	-0.164	0.064
-666.032	-200.000	0.081	-0.363
-665.018	288.271	0.129	-0.233
-664.003	302.624	0.111	0.204
-662.989	36.020	0.037	-0.032
-661.974	-5.540	-0.291	0.199
-660.959	-200.000	0.042	-0.251
-659.945	-200.000	0.048	-0.389
-658.930	-0.580	-0.305	-0.215
-657.916	800.000	-0.130	-0.389
-656.901	-43.645	-0.113	-0.057
-655.886	91.580	0.013	-0.015
-654.872	-100.353	0.037	0.009
-653.857	-111.327	0.314	0.064
-652.843	-155.809	-0.143	-0.009
-651.828	-97.137	-0.261	-0.068
-650.814	13.096	0.120	-0.092
-649.799	47.405	-0.375	-0.348
-648.784	-79.590	-0.228	0.077
-647.770	-156.371	-0.050	-0.003
-646.755	21.475	-0.180	-0.146
-645.741	-110.296	0.074	-0.015
-644.726	140.603	-0.143	0.188
-643.711	117.636	0.069	0.085
-642.697	332.200	-0.042	0.080
-641.682	192.100	0.019	0.029
-640.668	-91.645	-0.158	-0.045
-639.653	-138.010	-0.234	0.026
-638.638	417.362	0.050	0.107
-637.624	800.000	0.044	0.154
-636.609	316.020	-0.086	0.162
-635.595	-3.310	-0.199	-0.138
-634.580	800.000	0.172	-0.537
-633.565	-200.000	-0.035	-0.167
-632.551	-50.354	-0.253	-0.119
-631.536	-55.018	-0.225	-0.101
-630.522	800.000	-0.060	0.249
-629.507	-64.346	0.282	0.114
-628.492	164.788	0.160	-0.225
-627.478	87.047	-0.280	-0.308
-626.463	-200.000	0.062	-0.397
-625.449	800.000	0.073	-0.273
-624.434	140.934	0.184	-0.241
-623.419	-48.181	0.245	0.117
-622.405	476.901	0.126	0.283
-621.390	476.295	0.068	-0.153
-620.376	800.000	-0.039	-0.163
-619.361	81.822	0.225	0.242
-618.346	78.847	0.019	-0.020
-617.332	-163.552	-0.343	0.016
-616.317	-30.530	-0.289	0.163
-615.303	-102.738	-0.128	0.030
-614.288	-200.000	-0.037	0.187
-613.273	-84.833	0.156	0.049
-612.259	46.199	-0.060	0.055
-611.244	-121.887	-0.278	0.046
-610.230	-16.372	-0.303	-0.191
-609.215	643.226	0.117	0.297
-608.201	-51.915	-0.141	-0.065
-607.186	14.730	-0.161	0.125
-606.171	68.685	-0.082	0.084
-605.157	154.990	0.331	-0.452
-604.142	-99.940	0.540	0.134
-603.128	-91.125	-0.303	0.086
-602.113	-120.309	0.081	0.014
-601.098	-200.000	0.013	0.219
-600.084	-158.034	-0.221	-0.013
-599.069	155.555	-0.085	-0.117
-598.055	-4.033	0.137	0.094
-597.040	29.600	-0.097	-0.082
-596.025	255.634	-0.076	-0.130
-595.011	800.000	-0.026	0.075
-593.996	-64.923	-0.210	0.084
-592.982	800.000	0.026	-0.089
-591.967	141.779	-0.246	-0.324
-590.952	69.176	0.323	0.330
-589.938	800.000	0.137	0.454
-588.923	-136.889	0.403	-0.046
-587.909	33.914	-0.259	0.224
-586.894	-95.015	-0.340	-0.091
-585.879	62.397	0.132	-0.131
-584.865	-200.000	0.020	-0.090
-583.850	151.772	0.058	-0.079
-582.836	-170.782	0.248	0.008
-581.821	-69.870	-0.117	-0.044
-580.806	-145.704	0.059	-0.005
-579.792	380.648	-0.094	0.191
-578.777	-55.389	0.383	0.171
-577.763	-130.847	-0.167	0.022
-576.748	-99.599	0.064	0.016
-575.733	-200.000	-0.055	0.326
-574.719	-90.046	-0.146	0.042
-573.704	62.294	0.198	0.196
-572.690	794.214	0.051	0.140
-571.675	273.350	0.072	-0.127
-570.661	-200.000	-0.061	-0.319
-569.646	-200.000	0.016	-0.231
-568.631	50.077	0.047	-0.044
-567.617	181.333	0.066	0.096
-566.602	-100.854	-0.090	-0.022
-565.588	12.271	0.123	0.094
-564.573	-200.000	-0.053	-0.423
-563.558	-35.620	0.200	-0.107
-562.544	-13.351	0.102	0.065
-561.529	-109.568	-0.210	0.044
-560.515	34.275	0.133	-0.115
-559.500	-149.712	0.348	-0.027
-558.485	189.061	-0.189	0.281
-557.471	-9.026	0.135	0.090
-556.456	-200.000	-0.045	-0.239
-555.442	-26.313	0.069	-0.040
-554.427	144.345	-0.069	-0.092
-553.412	32.627	0.267	0.229
-552.398	-39.826	-0.013	0.007
-551.383	-200.000	-0.041	-0.264
-550.369	12.494	0.148	0.113
-549.354	84.807	-0.109	-0.118
-548.339	-39.445	0.097	-0.051
-547.325	274.047	-0.210	-0.368
-546.310	-200.000	-0.018	-0.253
-545.296	-68.070	0.305	0.118
-544.281	-108.131	0.288	0.062
-543.266	128.978	0.114	0.144
-542.252	379.306	-0.088	-0.179
-541.237	-200.000	0.031	0.172
-540.223	-200.000	-0.041	0.241
-539.208	-81.390	-0.355	0.116
-538.193	-200.000	0.012	-0.195
-537.179	-58.166	0.311	0.134
-536.164	358.035	-0.076	-0.150
-535.150	-200.000	-0.015	0.471
-534.135	-29.662	0.228	-0.129
-533.121	-22.579	0.233	-0.140
-532.106	-200.000	0.003	0.168
-531.091	-87.258	0.096	0.029
-530.077	148.407	-0.229	-0.306
-529.062	-200.000	0.017	-0.284
-528.048	-162.125	-0.534	0.027
-527.033	-117.667	-0.224	-0.040
-526.018	-136.148	-0.173	0.020
-525.004	54.531	0.162	0.155
-523.989	-200.000	0.037	0.458
-522.975	315.227	0.120	-0.224
-521.960	588.118	-0.038	-0.093
-520.945	208.882	0.154	0.239
-519.931	328.453	-0.022	0.041
-518.916	-50.609	0.301	-0.140
-517.902	-91.802	0.090	-0.025
-516.887	-11.877	-0.074	-0.048
-515.872	-72.585	-0.110	-0.040
-514.858	-42.438	-0.056	0.028
-513.843	526.526	-0.077	0.180
-512.829	14.842	-0.278	0.215
-511.814	-50.041	0.286	0.134
-510.799	370.199	-0.071	0.142
-509.785	800.000	-0.025	0.086
-508.770	-77.400	0.043	0.015
-507.756	-200.000	0.008	0.283
-506.741	-32.581	0.224	-0.123
-505.726	586.130	-0.056	0.135
-504.712	56.579	0.143	0.137
-503.697	800.000	0.051	0.175
-502.683	-66.531	-0.340	-0.133
-501.668	463.058	-0.010	0.021
-500.653	300.324	-0.120	0.218
-499.639	-149.092	-0.368	0.029
-498.624	-30.119	0.052	-0.030
-497.610	-200.000	-0.031	-0.320
-496.595	-200.000	-0.031	-0.218
-495.581	-200.000	0.058	0.328
-494.566	84.265	0.208	0.225
-493.551	800.000	-0.079	0.238
-492.537	181.790	0.090	-0.131
-491.522	-101.384	-0.195	0.047
-490.508	800.000	0.023	0.088
-489.493	18.559	0.257	0.204
-488.478	-26.831	0.245	0.141
-487.464	-33.097	0.263	0.144
-486.449	433.193	-0.005	-0.010
-485.435	-14.530	0.191	0.122
-484.420	-100.990	-0.125	-0.030
-483.405	227.246	0.044	0.071
-482.391	-23.305	-0.359	0.214
-481.376	203.752	0.039	0.060
-480.362	240.029	0.169	-0.278
-479.347	-98.354	0.075	-0.019
-478.332	-74.649	-0.390	0.139
-477.318	75.009	-0.356	-0.370
-476.303	70.155	0.146	-0.149
-475.289	-101.211	-0.465	-0.112
-474.274	177.789	0.127	-0.183
-473.259	707.462	0.100	-0.261
-472.245	37.006	-0.280	-0.245
-471.230	-92.061	0.266	-0.074
-470.216	97.732	0.079	0.089
-469.201	454.910	-0.044	-0.097
-468.186	144.431	-0.244	0.322
-467.172	109.745	0.170	0.201
-466.157	-200.000	0.041	0.000
-465.143	37.530	-0.212	0.186
-464.128	326.417	-0.109	0.207
-463.113	0.169	-0.014	-0.010
-462.099	51.303	-0.296	0.278
-461.084	-61.050	-0.098	-0.041
-460.070	122.053	-0.161	0.198
-459.055	800.000	-0.113	-0.353
-458.040	-37.231	0.277	-0.146
-457.026	-200.000	0.019	0.119
-456.011	423.945	-0.052	0.111
-454.997	-81.766	0.269	-0.087
-453.982	188.645	0.064	-0.094
-452.968	373.776	-0.151	-0.304
-451.953	247.171	0.099	-0.165
-450.938	-79.298	0.271	0.091
-449.924	28.931	-0.521	0.436
-448.909	-76.343	0.058	0.020
-447.895	221.285	0.089	0.142
-446.880	55.830	0.185	0.177
-445.865	-17.119	-0.164	-0.102
-444.851	-43.639	0.215	0.107
-443.836	-115.904	0.120	-0.022
-442.822	135.550	0.097	0.125
-441.807	419.383	-0.013	-0.027
-440.792	221.814	0.168	0.266
-439.778	240.348	-0.081	-0.133
-438.763	28.926	-0.152	0.127
-437.749	37.337	-0.040	-0.035
-436.734	445.162	-0.041	-0.090
-435.719	-78.329	0.293	-0.099
-434.705	297.764	0.076	0.137
-433.690	-90.125	0.441	0.127
-432.676	4.883	-0.109	0.079
-431.661	-16.985	-0.344	0.215
-430.646	39.217	-0.062	-0.054
-429.632	-151.026	0.249	0.019
-428.617	-200.000	-0.020	-0.193
-427.603	-78.278	-0.092	-0.031
-426.588	83.904	-0.124	0.133
-425.573	-200.000	-0.017	0.348
-424.559	109.024	-0.141	-0.167
-423.544	248.470	-0.072	0.120
-422.530	-47.192	-0.288	-0.138
-421.515	12.581	-0.235	0.179
-420.500	546.891	-0.156	0.368
-419.486	-200.000	0.005	0.201
-418.471	-148.517	-0.039	-0.003
-417.457	117.023	-0.132	-0.160
-416.442	-112.445	0.303	-0.060
-415.428	-200.000	-0.066	0.295
-414.413	30.747	0.191	0.162
-413.398	-70.234	0.112	-0.042
-412.384	-109.934	0.075	0.015
-411.369	-94.863	0.144	-0.038
-410.355	633.587	-0.052	0.131
-409.340	468.666	0.129	-0.284
-408.325	394.534	-0.083	0.171
-407.311	329.201	-0.094	-0.178
-406.296	-77.471	-0.150	-0.051
-405.282	-200.000	0.072	-0.386
-404.267	22.739	-0.289	0.233
-403.252	434.770	-0.078	-0.167
-402.238	-200.000	0.016	-0.147
-401.223	-39.810	-0.114	-0.059
-400.209	-200.000	-0.040	-0.291
-399.194	461.334	-0.133	-0.292
-398.179	800.000	-0.046	0.149
-397.165	-21.903	-0.194	0.116
-396.150	113.017	0.036	0.043
-395.136	800.000	-0.057	-0.197
-394.121	168.391	0.094	-0.132
-393.106	-178.520	0.111	-0.003
-392.092	-107.495	0.347	-0.075
-391.077	249.747	-0.104	-0.174
-390.063	20.364	0.112	0.089
-389.048	-39.047	0.260	0.135
-388.033	-200.000	0.028	0.322
-387.019	-132.490	0.272	-0.034
-386.004	36.653	0.168	-0.146
-384.990	196.798	-0.151	-0.226
-383.975	800.000	0.130	-0.383
-382.960	-87.144	-0.157	0.047
-381.946	800.000	-0.058	-0.181
-380.931	341.617	0.126	-0.242
-379.917	-115.188	0.198	-0.037
-378.902	-200.000	0.145	-0.001
-377.888	-170.703	-0.179	0.006
-376.873	-200.000	0.035	0.210
-375.858	-62.179	0.173	-0.071
-374.844	-146.297	-0.058	0.005
-373.829	-11.249	0.281	0.182
-372.815	98.259	0.117	-0.132
-371.800	-200.000	-0.096	-0.434
-370.785	-177.438	0.251	0.006
-369.771	800.000	0.021	0.072
-368.756	-200.000	0.016	-0.079
-367.742	-200.000	0.027	0.259
-366.727	0.222	-0.035	0.025
-365.712	-113.863	-0.122	-0.023
-364.698	3.695	-0.073	0.053
-363.683	-95.479	-0.033	-0.009
-362.669	-123.262	-0.171	0.027
-361.654	55.045	-0.185	0.176
-360.639	97.107	0.192	-0.216
-359.625	-118.357	0.167	0.029
-358.610	800.000	0.049	-0.133
-357.596	167.427	-0.064	-0.089
-356.581	-72.047	-0.149	-0.054
-355.566	185.480	-0.301	0.439
-354.552	-200.000	0.030	0.503
-353.537	-72.507	-0.239	-0.087
-352.523	800.000	-0.031	0.119
-351.508	800.000	-0.057	0.161
-350.493	50.983	-0.198	0.184
-349.479	146.145	0.120	0.158
-348.464	-3.164	0.082	-0.056
-347.450	28.870	0.185	0.154
-346.435	800.000	0.081	0.322
-345.420	210.796	0.114	0.177
-344.406	-200.000	-0.043	-0.302
-343.391	-96.950	-0.221	-0.057
-342.377	-59.383	-0.093	0.039
-341.362	108.635	0.149	0.175
-340.348	19.720	0.281	-0.223
-339.333	-63.185	0.135	-0.055
-338.318	-45.032	-0.154	0.075
-337.304	458.449	0.043	-0.093
-336.289	-29.382	0.152	0.085
-335.275	686.099	-0.077	0.198
-334.260	269.608	-0.244	-0.421
-333.245	-91.998	-0.264	-0.073
-332.231	42.083	0.385	-0.344
-331.216	177.535	0.086	0.123
-330.202	-200.000	-0.012	0.259
-329.187	-0.987	0.035	-0.024
-328.172	-31.988	-0.038	0.021
-327.158	213.980	-0.141	0.219
-326.143	175.016	-0.154	-0.219
-325.129	-48.129	0.176	0.083
-324.114	800.000	0.060	0.247
-323.099	450.547	0.090	-0.195
-322.085	169.268	0.185	-0.259
-321.070	-127.556	0.008	-0.001
-320.056	136.810	-0.122	0.156
-319.041	249.086	0.206	0.342
-318.026	223.663	0.388	0.615
-317.012	-113.217	-0.165	0.032
-315.997	-100.993	0.039	-0.010
-314.983	-190.764	0.143	-0.001
-313.968	429.774	0.076	-0.161
-312.953	99.470	-0.101	-0.114
-311.939	105.473	-0.094	-0.109
-310.924	800.000	0.105	-0.313
-309.910	-58.502	0.323	0.138
-308.895	-138.185	0.323	0.035
-307.880	3.202	0.186	0.133
-306.866	65.450	0.311	-0.309
-305.851	93.239	-0.106	-0.118
-304.837	-36.929	-0.135	0.071
-303.822	-166.779	-0.143	-0.006
-302.807	681.111	-0.110	0.282
-301.793	-200.000	-0.004	-0.109
-300.778	-186.765	-0.312	0.004
-299.764	69.313	-0.162	-0.164
-298.749	-94.216	-0.044	0.012
-297.735	200.416	-0.092	0.139
-296.720	-64.282	-0.140	-0.056
-295.705	-115.747	0.301	0.055
-294.691	89.979	0.026	-0.028
-293.676	98.832	-0.157	0.178
-292.662	595.909	0.144	-0.350
-291.647	-140.381	-0.236	0.024
-290.632	54.776	-0.247	-0.234
-289.618	102.739	0.107	0.123
-288.603	-158.462	0.146	-0.008
-287.589	10.658	-0.060	0.045
-286.574	-24.695	0.111	0.065
-285.559	-56.588	-0.168	-0.073
-284.545	532.361	0.025	-0.058
-283.530	373.079	-0.062	-0.123
-282.516	375.850	-0.094	-0.189
-281.501	-143.862	0.351	-0.032
-280.486	-72.880	0.283	-0.102
-279.472	-200.000	0.018	-0.282
-278.457	-42.397	0.146	-0.073
-277.443	-200.000	-0.017	-0.221
-276.428	470.526	0.141	0.312
-275.413	-47.010	-0.334	0.160
-274.399	60.086	-0.090	0.088
-273.384	-146.422	-0.440	-0.038
-272.370	16.878	0.120	0.093
-271.355	-91.443	0.310	-0.087
-270.340	-51.647	-0.197	-0.090
-269.326	41.095	0.282	-0.250
-268.311	800.000	-0.099	-0.295
-267.297	-11.496	0.297	-0.191
-266.282	402.872	-0.098	-0.201
-265.267	-14.467	0.262	0.165
-264.253	-200.000	0.021	-0.164
-263.238	-200.000	0.013	-0.129
-262.224	800.000	0.135	-0.547
-261.209	-134.312	-0.303	0.036
-260.195	172.553	0.084	-0.119
-259.180	104.733	-0.203	0.235
-258.165	-200.000	0.013	-0.194
-257.151	-200.000	0.002	0.316
-256.136	32.344	-0.232	-0.196
-255.122	800.000	0.046	-0.164
-254.107	-200.000	-0.004	-0.038
-253.092	-21.939	0.239	0.142
-252.078	-128.563	-0.195	-0.027
-251.063	-200.000	-0.006	-0.133
-250.049	144.473	-0.187	-0.245
-249.034	7.963	-0.247	0.181
-248.019	314.687	0.097	0.180
-247.005	420.835	-0.120	0.252
-245.990	53.370	0.256	0.240
-244.976	800.000	-0.057	-0.187
-243.961	-200.000	0.044	0.232
-242.946	-139.715	-0.169	0.018
-241.932	-126.161	0.186	-0.027
-240.917	-150.913	-0.076	0.006
-239.903	117.895	0.203	-0.245
-238.888	-200.000	-0.002	-0.168
-237.873	-137.110	0.070	-0.008
-236.859	107.525	0.259	-0.301
-235.844	33.770	-0.264	0.225
-234.830	332.887	0.053	0.100
-233.815	-79.433	0.388	0.129
-232.800	142.846	-0.184	0.239
-231.786	-1.026	0.212	-0.147
-230.771	-29.954	-0.145	0.081
-229.757	144.137	0.254	0.331
-228.742	21.184	-0.041	-0.033
-227.727	-24.977	-0.080	-0.047
-226.713	76.717	0.259	-0.269
-225.698	-148.512	0.326	-0.026
-224.684	-200.000	0.014	-0.091
-223.669	78.961	-0.175	0.183
-222.655	-200.000	-0.100	0.466
-221.640	78.441	-0.066	0.069
-220.625	26.908	-0.177	-0.145
-219.611	800.000	0.089	0.295
-218.596	-132.621	0.173	-0.022
-217.582	411.521	-0.130	0.270
-216.567	-200.000	0.032	0.143
-215.552	800.000	0.033	-0.126
-214.538	-42.773	0.254	0.126
-213.523	422.635	-0.016	0.033
-212.509	175.395	0.103	0.145
-211.494	24.068	-0.225	0.182
-210.479	-200.000	-0.005	0.176
-209.465	343.785	0.159	-0.305
-208.450	54.448	0.097	0.092
-207.436	32.752	0.163	-0.138
-206.421	200.856	0.233	-0.350
-205.406	-71.120	-0.073	0.027
-204.392	800.000	0.059	-0.162
-203.377	-69.716	0.212	0.079
-202.363	-24.472	-0.390	0.227
-201.348	-200.000	-0.047	0.538
-200.333	166.206	0.126	-0.174
-199.319	-112.603	-0.106	-0.021
-198.304	48.107	0.275	0.251
-197.290	-84.776	0.153	-0.047
-196.275	-200.000	0.055	-0.526
-195.260	30.962	-0.151	-0.126
-194.246	0.275	-0.035	-0.024
-193.231	114.711	-0.100	-0.119
-192.217	-200.000	-0.014	-0.066
-191.202	-200.000	-0.060	-0.285
-190.187	-40.005	-0.257	-0.131
-189.173	9.080	-0.156	-0.115
-188.158	-153.279	-0.050	-0.003
-187.144	-200.000	-0.044	0.467
-186.129	-68.039	-0.233	0.089
-185.114	-139.136	-0.181	0.019
-184.100	-135.277	-0.215	0.025
-183.085	-108.232	0.212	0.045
-182.071	248.219	0.218	-0.361
-181.056	-14.992	-0.132	0.082
-180.042	374.072	0.047	-0.093
-179.027	800.000	0.026	-0.093
-178.012	233.451	-0.124	-0.199
-176.998	133.380	0.090	0.114
-175.983	-200.000	-0.002	0.071
-174.969	-36.338	-0.213	-0.112
-173.954	77.329	0.096	-0.100
-172.939	314.267	-0.045	0.082
-171.925	-137.974	0.138	-0.015
-170.910	-67.685	-0.193	-0.074
-169.896	57.524	0.220	-0.210
-168.881	318.718	0.224	0.414
-167.866	-200.000	-0.007	0.394
-166.852	800.000	-0.097	-0.403
-165.837	14.949	-0.246	0.188
-164.823	-125.639	-0.246	0.036
-163.808	210.164	-0.145	-0.223
-162.793	285.600	-0.233	-0.410
-161.779	-200.000	0.067	-0.312
-160.764	-200.000	-0.004	0.234
-159.750	-22.060	0.239	0.142
-158.735	-200.000	0.044	-0.225
-157.720	14.523	-0.311	-0.237
-156.706	138.994	-0.230	-0.295
-155.691	250.217	0.163	0.270
-154.677	123.375	0.121	-0.148
-153.662	178.822	-0.088	0.125
-152.647	-160.066	-0.212	-0.011
-151.633	800.000	0.040	-0.164
-150.618	92.459	0.110	-0.121
-149.604	100.660	-0.137	-0.156
-148.589	71.109	-0.246	-0.249
-147.574	800.000	0.108	-0.413
-146.560	-200.000	0.028	0.229
-145.545	452.592	-0.106	0.228
-144.531	754.782	0.091	-0.239
-143.516	-48.866	-0.309	-0.144
-142.502	-60.337	0.305	-0.127
-141.487	-79.584	0.402	0.132
-140.472	40.074	-0.227	0.199
-139.458	800.000	-0.012	-0.035
-138.443	96.540	0.152	0.170
-137.429	-46.138	0.236	-0.113
-136.414	272.690	-0.096	0.166
-135.399	-80.738	-0.196	0.064
-134.385	82.806	-0.223	-0.236
-133.370	-200.000	-0.038	-0.226
-132.356	-38.282	-0.242	-0.125
-131.341	-200.000	0.028	-0.131
-130.326	-48.957	-0.315	-0.147
-129.312	-200.000	0.032	-0.381
-128.297	-29.037	0.231	0.129
-127.283	-200.000	0.058	-0.299
-126.268	42.455	0.109	-0.097
-125.253	-190.802	-0.260	-0.003
-124.239	-34.837	-0.272	-0.145
-123.224	39.254	0.317	-0.277
-122.210	50.737	-0.223	0.206
-121.195	-99.322	0.177	-0.044
-120.180	-200.000	-0.022	0.097
