DTS Sentinel unit serial number:	SN413079Multiplexer serial number:	ORYXHardware model number:	OX4-SRSoftware version number:	ORYX F/W v4.00 Oryx Data Collector v3.7.2.0data status	okinstallation	princeton_trtdifferential loss correction	single-endedforward channel	channel 2reverse channel	N/Adate	2019/09/16time	17:31:34forward acquisition time	60.00reverse acquisition time	0.00gamma	496.2192k internal	0.2311k external	0.2311temperature offset calibration	0.9948default loss term (dB/km)	0.3790temperature slope calibration	1.0000multiplexer offset coefficient	1.0000multiplexer slope coefficient	1.0000fibre end	0.00T internal ref (°C)	38.44T ext. ref 1 (°C)	15.47T ext. ref 2 (°C)	32.44length (m)	temperature (°C)	Stokes	anti-Stokes-747.200	21.009	0.145	-0.120
-746.185	155.145	0.133	0.186
-745.171	305.165	0.040	-0.076
-744.156	62.574	-0.320	0.325
-743.142	-200.000	0.022	-0.192
-742.127	229.067	-0.085	0.141
-741.112	-137.636	-0.515	-0.059
-740.098	226.564	-0.161	0.265
-739.083	183.734	-0.066	-0.099
-738.069	-55.193	-0.142	-0.065
-737.054	30.734	-0.212	-0.184
-736.039	-127.915	-0.145	0.021
-735.025	-109.074	-0.189	0.041
-734.010	-200.000	-0.015	0.152
-732.996	623.035	0.050	-0.128
-731.981	208.732	-0.141	-0.224
-730.966	-40.625	-0.101	-0.053
-729.952	-90.779	0.179	0.052
-728.937	-126.488	0.215	0.032
-727.923	800.000	-0.137	-0.458
-726.908	-89.132	-0.180	0.054
-725.894	-145.789	0.222	-0.020
-724.879	69.631	-0.156	-0.163
-723.864	-28.989	0.153	-0.089
-722.850	17.187	0.286	-0.230
-721.835	-200.000	-0.027	-0.248
-720.821	-24.050	-0.165	-0.100
-719.806	-105.878	0.325	0.074
-718.791	-200.000	-0.044	-0.216
-717.777	-200.000	0.040	0.177
-716.762	194.725	0.072	0.111
-715.748	78.666	-0.139	-0.151
-714.733	-83.675	-0.249	-0.081
-713.718	800.000	-0.052	0.203
-712.704	43.180	0.139	0.128
-711.689	34.388	-0.199	-0.176
-710.675	137.292	-0.267	-0.354
-709.660	800.000	-0.047	0.151
-708.645	135.374	0.080	0.105
-707.631	208.205	-0.215	-0.341
-706.616	-111.346	0.280	0.058
-705.602	-194.832	0.249	-0.002
-704.587	-77.947	0.234	-0.082
-703.572	389.065	0.164	0.344
-702.558	93.986	0.136	-0.156
-701.543	-55.356	0.192	0.087
-700.529	-54.401	0.148	0.068
-699.514	-52.182	-0.051	-0.024
-698.499	107.120	-0.257	-0.309
-697.485	800.000	0.069	-0.277
-696.470	-31.690	0.334	-0.190
-695.456	714.533	-0.061	0.163
-694.441	471.809	0.170	0.388
-693.426	-45.758	-0.222	-0.111
-692.412	185.450	-0.129	-0.194
-691.397	800.000	-0.012	0.054
-690.383	800.000	-0.092	-0.378
-689.368	-200.000	-0.007	-0.230
-688.354	-16.925	0.116	0.074
-687.339	-200.000	-0.024	-0.182
-686.324	-200.000	-0.004	0.030
-685.310	-61.511	-0.374	0.159
-684.295	99.190	0.118	-0.138
-683.281	-200.000	0.005	-0.140
-682.266	-120.687	-0.235	0.040
-681.251	-83.217	-0.242	-0.079
-680.237	233.289	-0.022	0.037
-679.222	-200.000	0.001	0.102
-678.208	184.474	-0.129	0.194
-677.193	-200.000	0.032	0.301
-676.178	-200.000	0.034	-0.226
-675.164	-40.638	-0.173	-0.091
-674.149	-200.000	0.019	-0.415
-673.135	-200.000	0.110	-0.512
-672.120	123.796	0.172	-0.218
-671.105	-139.302	0.338	-0.037
-670.091	-200.000	0.025	-0.114
-669.076	-200.000	-0.029	0.322
-668.062	-136.612	-0.136	-0.016
-667.047	-200.000	-0.027	0.250
-666.032	5.707	0.157	-0.117
-665.018	-65.832	-0.233	-0.094
-664.003	-145.881	0.235	0.021
-662.989	-71.738	0.212	0.080
-661.974	-29.249	0.233	-0.135
-660.959	-25.689	-0.337	-0.201
-659.945	-82.145	-0.030	0.010
-658.930	-200.000	0.062	0.283
-657.916	480.070	-0.043	0.099
-656.901	-108.707	0.284	0.062
-655.886	-47.144	0.157	0.077
-654.872	-131.631	-0.146	0.019
-653.857	37.708	-0.177	0.159
-652.843	-177.775	-0.376	0.009
-651.828	-20.166	-0.052	-0.033
-650.814	17.773	0.134	-0.108
-649.799	-53.903	-0.327	0.151
-648.784	800.000	0.041	0.138
-647.770	800.000	-0.062	0.270
-646.755	-78.410	-0.106	-0.037
-645.741	-23.017	-0.162	-0.099
-644.726	332.516	0.189	-0.369
-643.711	362.232	0.108	0.218
-642.697	-200.000	0.020	-0.130
-641.682	-131.459	-0.087	0.012
-640.668	617.198	0.088	-0.224
-639.653	79.087	-0.026	-0.028
-638.638	-200.000	-0.008	-0.094
-637.624	77.700	-0.065	0.070
-636.609	567.773	-0.100	0.245
-635.595	800.000	-0.124	-0.456
-634.580	-127.962	-0.306	0.044
-633.565	58.282	-0.008	-0.008
-632.551	-50.989	0.130	-0.062
-631.536	-32.908	0.064	0.036
-630.522	168.656	0.136	-0.197
-629.507	0.265	0.347	0.251
-628.492	-79.851	-0.147	-0.050
-627.478	-66.169	-0.278	-0.112
-626.463	-42.620	-0.140	0.072
-625.449	737.379	0.096	-0.259
-624.434	104.633	0.191	-0.227
-623.419	282.803	0.174	-0.316
-622.405	155.020	-0.069	-0.096
-621.390	-157.371	-0.265	0.016
-620.376	314.631	-0.123	0.235
-619.361	-28.440	0.136	0.079
-618.346	-200.000	0.023	-0.114
-617.332	-200.000	-0.002	-0.124
-616.317	-111.010	0.287	-0.060
-615.303	-163.180	0.237	0.012
-614.288	-43.373	0.233	-0.119
-613.273	-116.133	0.102	-0.019
-612.259	543.951	0.070	-0.170
-611.244	-200.000	0.012	-0.275
-610.230	-57.530	0.157	0.070
-609.215	-199.866	-0.398	0.002
-608.201	1.647	0.083	0.060
-607.186	116.615	0.144	-0.178
-606.171	-22.288	-0.146	0.089
-605.157	-169.087	0.392	-0.015
-604.142	100.165	-0.105	-0.123
-603.128	44.618	-0.077	0.071
-602.113	31.634	0.193	-0.167
-601.098	-200.000	-0.030	-0.220
-600.084	-178.042	0.094	-0.002
-599.069	29.129	-0.196	0.168
-598.055	322.316	0.078	-0.149
-597.040	-92.998	-0.214	0.060
-596.025	-200.000	0.026	-0.134
-595.011	-15.271	0.110	0.071
-593.996	179.453	-0.079	-0.116
-592.982	-38.047	-0.152	0.081
-591.967	471.407	0.188	0.428
-590.952	157.849	0.152	-0.213
-589.938	800.000	-0.139	-0.484
-588.923	-27.173	-0.201	0.118
-587.909	-8.108	-0.279	0.190
-586.894	603.504	0.153	0.383
-585.879	800.000	-0.027	0.091
-584.865	47.999	0.223	-0.210
-583.850	-72.241	0.365	0.137
-582.836	194.995	0.059	-0.091
-581.821	-200.000	-0.024	-0.166
-580.806	800.000	0.036	0.155
-579.792	109.738	0.154	0.186
-578.777	-1.471	-0.030	0.021
-577.763	258.727	-0.130	0.227
-576.748	-158.328	-0.333	0.020
-575.733	-200.000	0.011	-0.127
-574.719	7.135	-0.254	-0.191
-573.704	-109.395	0.150	-0.032
-572.690	-200.000	-0.011	-0.140
-571.675	-200.000	-0.022	0.215
-570.661	21.213	-0.253	0.207
-569.646	-42.081	-0.313	-0.161
-568.631	-86.789	-0.079	0.024
-567.617	102.673	-0.216	0.255
-566.602	-200.000	-0.012	0.190
-565.588	338.379	-0.061	0.119
-564.573	-113.439	-0.050	-0.010
-563.558	-107.038	0.219	0.049
-562.544	-142.725	0.298	0.029
-561.529	-189.787	-0.171	-0.002
-560.515	103.677	-0.122	0.144
-559.500	113.386	0.229	-0.280
-558.485	-200.000	-0.017	-0.364
-557.471	-200.000	0.027	-0.161
-556.456	800.000	0.074	-0.260
-555.442	-200.000	0.022	0.152
-554.427	-95.619	-0.233	0.063
-553.412	800.000	-0.074	-0.281
-552.398	-200.000	-0.036	-0.282
-551.383	800.000	-0.035	-0.102
-550.369	-29.275	0.341	-0.197
-549.354	16.430	0.377	0.300
-548.339	-76.320	-0.139	-0.049
-547.325	-200.000	-0.018	0.221
-546.310	-200.000	-0.027	-0.256
-545.296	800.000	0.170	0.479
-544.281	-200.000	-0.015	0.168
-543.266	32.425	-0.243	-0.212
-542.252	133.942	-0.138	-0.180
-541.237	-12.289	0.112	-0.074
-540.223	14.181	-0.262	0.206
-539.208	20.937	-0.091	-0.075
-538.193	187.157	-0.098	-0.147
-537.179	-200.000	-0.037	-0.341
-536.164	-136.493	-0.194	0.023
-535.150	-200.000	-0.002	-0.088
-534.135	58.819	-0.090	0.089
-533.121	800.000	-0.103	0.308
-532.106	-44.724	0.132	-0.066
-531.091	-142.666	-0.172	0.017
-530.077	-76.880	-0.161	0.057
-529.062	800.000	0.023	-0.085
-528.048	793.203	-0.121	-0.334
-527.033	-200.000	-0.014	-0.360
-526.018	-124.206	0.101	-0.016
-525.004	-119.887	0.490	-0.085
-523.989	-166.482	0.013	0.001
-522.975	-106.738	-0.070	-0.016
-521.960	563.019	-0.117	0.284
-520.945	23.091	0.332	-0.275
-519.931	-144.387	-0.372	-0.035
-518.916	-200.000	0.024	0.296
-517.902	261.997	0.100	-0.175
-516.887	-200.000	0.038	-0.168
-515.872	-170.631	-0.082	-0.003
-514.858	25.470	0.102	-0.085
-513.843	-200.000	-0.008	0.144
-512.829	800.000	0.050	-0.168
-511.814	455.488	0.094	-0.211
-510.799	257.254	0.164	0.283
-509.785	-158.739	-0.099	-0.006
-508.770	6.752	-0.062	0.046
-507.756	161.540	0.232	0.327
-506.741	84.297	-0.304	0.335
-505.726	-148.572	-0.433	0.036
-504.712	112.167	0.050	-0.060
-503.697	515.449	0.164	-0.386
-502.683	-200.000	0.005	-0.071
-501.668	-120.773	0.320	-0.054
-500.653	619.313	-0.131	-0.331
-499.639	-44.810	-0.213	0.107
-498.624	10.867	0.208	-0.159
-497.610	-23.707	-0.178	-0.107
-496.595	-143.892	-0.095	0.009
-495.581	800.000	-0.055	0.161
-494.566	-200.000	0.007	-0.346
-493.551	200.473	-0.110	-0.171
-492.537	294.791	-0.086	0.158
-491.522	-200.000	0.005	0.079
-490.508	-111.563	-0.076	-0.016
-489.493	513.433	-0.084	0.196
-488.478	-123.919	0.188	-0.030
-487.464	800.000	0.104	-0.398
-486.449	134.237	-0.108	-0.141
-485.435	451.422	-0.084	0.187
-484.420	-66.096	-0.235	-0.094
-483.405	-200.000	0.011	-0.073
-482.391	37.076	0.047	-0.041
-481.376	-200.000	-0.007	0.154
-480.362	-107.675	-0.201	0.044
-479.347	27.505	-0.280	0.237
-478.332	-28.198	0.144	-0.084
-477.318	24.648	-0.084	-0.070
-476.303	462.955	-0.020	0.046
-475.289	800.000	0.023	-0.078
-474.274	481.779	0.055	-0.126
-473.259	323.537	-0.041	0.078
-472.245	40.558	0.106	-0.096
-471.230	-45.663	0.178	-0.088
-470.216	-200.000	0.039	-0.262
-469.201	-54.808	-0.527	-0.239
-468.186	-200.000	0.075	-0.419
-467.172	480.826	0.027	-0.062
-466.157	-200.000	-0.062	0.332
-465.143	64.857	-0.135	-0.137
-464.128	-138.525	-0.343	0.038
-463.113	306.495	0.083	0.154
-462.099	-200.000	-0.015	0.092
-461.084	-200.000	0.002	-0.065
-460.070	-200.000	0.023	-0.169
-459.055	-125.201	0.341	0.052
-458.040	-8.622	-0.024	-0.016
-457.026	-200.000	0.009	-0.193
-456.011	369.351	0.080	-0.163
-454.997	-22.315	0.118	-0.072
-453.982	-200.000	0.001	-0.096
-452.968	-200.000	-0.014	-0.152
-451.953	609.616	-0.023	0.058
-450.938	359.303	-0.214	0.430
-449.924	447.765	0.190	0.421
-448.909	58.795	-0.048	-0.048
-447.895	800.000	-0.079	-0.234
-446.880	-200.000	-0.005	-0.449
-445.865	-129.694	-0.139	0.019
-444.851	-26.896	-0.407	0.238
-443.836	800.000	0.010	0.043
-442.822	-200.000	0.005	0.274
-441.807	-64.601	0.109	-0.044
-440.792	200.533	0.230	0.355
-439.778	23.153	0.216	-0.178
-438.763	325.287	-0.133	0.255
-437.749	60.785	0.200	0.199
-436.734	-139.582	-0.116	-0.012
-435.719	-100.994	0.289	-0.071
-434.705	247.067	-0.122	0.206
-433.690	119.466	-0.143	0.177
-432.676	800.000	0.018	0.072
-431.661	-200.000	-0.191	0.001
-430.646	-200.000	-0.029	0.253
-429.632	-12.769	-0.107	-0.070
-428.617	378.760	0.066	0.135
-427.603	800.000	-0.079	-0.228
-426.588	800.000	0.083	-0.241
-425.573	800.000	0.094	-0.296
-424.559	-90.846	-0.428	0.124
-423.544	800.000	0.095	0.308
-422.530	800.000	-0.027	0.105
-421.515	98.740	0.126	0.145
-420.500	800.000	-0.008	-0.031
-419.486	-110.508	0.149	-0.031
-418.471	-200.000	-0.026	0.181
-417.457	800.000	0.116	0.430
-416.442	94.404	0.072	-0.082
-415.428	32.860	0.308	-0.268
-414.413	72.378	0.115	0.120
-413.398	-107.302	-0.192	0.042
-412.384	141.911	0.207	0.274
-411.369	800.000	0.019	0.072
-410.355	800.000	-0.058	-0.212
-409.340	-7.012	-0.296	-0.201
-408.325	800.000	0.051	0.167
-407.311	315.995	0.052	0.098
-406.296	-82.171	0.126	-0.041
-405.282	38.090	-0.100	0.089
-404.267	-35.807	0.079	-0.043
-403.252	800.000	-0.099	-0.283
-402.238	-69.129	0.162	-0.062
-401.223	-48.704	-0.140	0.067
-400.209	-200.000	-0.044	0.331
-399.194	45.575	0.069	-0.064
-398.179	-91.293	0.527	0.151
-397.165	449.653	-0.096	0.211
-396.150	38.143	0.169	-0.151
-395.136	-101.872	0.369	-0.089
-394.121	800.000	0.099	0.276
-393.106	770.353	0.107	0.293
-392.092	198.575	-0.054	0.083
-391.077	-102.219	0.180	-0.043
-390.063	-200.000	0.048	-0.294
-389.048	2.834	0.162	0.118
-388.033	800.000	-0.121	0.420
-387.019	-200.000	0.004	0.501
-386.004	316.137	-0.154	0.291
-384.990	98.202	0.325	0.374
-383.975	110.322	-0.142	-0.171
-382.960	-200.000	-0.038	-0.530
-381.946	-132.883	0.318	-0.041
-380.931	202.480	-0.038	0.059
-379.917	128.966	0.257	-0.328
-378.902	800.000	-0.076	0.239
-377.888	60.666	-0.227	-0.225
-376.873	800.000	0.024	-0.077
-375.858	-130.742	0.265	0.036
-374.844	-200.000	0.013	0.128
-373.829	-31.817	-0.148	-0.083
-372.815	-56.277	-0.250	0.111
-371.800	-136.159	0.192	0.022
-370.785	303.401	-0.188	0.349
-369.771	-49.915	0.054	-0.026
-368.756	608.761	-0.027	-0.068
-367.742	-105.507	0.367	-0.083
-366.727	-50.381	0.142	0.067
-365.712	-95.911	0.063	0.017
-364.698	-64.015	0.259	-0.106
-363.683	21.819	0.135	0.110
-362.669	-200.000	-0.026	0.392
-361.654	10.157	-0.099	0.075
-360.639	-115.853	-0.270	-0.050
-359.625	-47.956	0.082	0.040
-358.610	232.309	0.070	0.116
-357.596	228.750	0.168	0.273
-356.581	331.059	-0.037	-0.071
-355.566	73.889	0.196	0.206
-354.552	-6.222	-0.219	0.149
-353.537	510.706	-0.134	-0.312
-352.523	9.972	0.128	-0.097
-351.508	-105.710	0.063	0.014
-350.493	0.237	-0.086	0.061
-349.479	19.278	0.292	-0.235
-348.464	-51.221	0.120	0.056
-347.450	-200.000	-0.003	-0.298
-346.435	99.316	0.035	-0.040
-345.420	-161.961	0.184	0.009
-344.406	-122.355	-0.292	-0.048
-343.391	17.210	-0.111	-0.088
-342.377	642.543	0.056	-0.143
-341.362	-72.145	0.129	-0.048
-340.348	-18.290	0.075	0.047
-339.333	37.533	-0.130	0.115
-338.318	203.433	0.239	-0.369
-337.304	156.802	0.125	0.172
-336.289	-117.219	0.202	-0.037
-335.275	-75.988	0.239	-0.084
-334.260	480.821	0.108	-0.245
-333.245	35.943	-0.108	0.095
-332.231	-200.000	0.006	0.224
-331.216	-200.000	-0.009	-0.127
-330.202	800.000	0.069	-0.211
-329.187	-62.491	0.034	-0.014
-328.172	-200.000	0.007	-0.166
-327.158	-54.339	0.194	-0.088
-326.143	55.116	0.342	0.331
-325.129	-77.018	0.099	0.035
-324.114	-67.609	-0.188	0.073
-323.099	44.143	-0.126	-0.116
-322.085	-22.752	-0.216	-0.130
-321.070	41.779	-0.149	0.135
-320.056	-125.437	0.149	-0.023
-319.041	800.000	0.052	0.224
-318.026	-130.045	-0.268	-0.037
-317.012	74.002	-0.080	-0.083
-315.997	-103.141	0.423	-0.100
-314.983	-121.907	-0.147	0.024
-313.968	-103.540	0.135	0.032
-312.953	-161.841	0.288	-0.015
-311.939	-111.064	-0.439	-0.090
-310.924	-200.000	0.042	0.273
-309.910	231.825	-0.146	0.239
-308.895	82.788	0.083	-0.090
-307.880	248.277	-0.030	-0.051
-306.866	-200.000	0.047	0.247
-305.851	-79.973	0.213	-0.072
-304.837	-131.723	-0.038	0.005
-303.822	293.213	-0.083	0.151
-302.807	-200.000	-0.004	0.184
-301.793	800.000	0.065	0.235
-300.778	29.569	0.164	-0.139
-299.764	-200.000	0.003	-0.025
-298.749	339.801	0.189	-0.367
-297.735	319.484	-0.083	-0.156
-296.720	497.087	-0.015	-0.035
-295.705	-130.735	-0.227	0.030
-294.691	-64.967	0.369	0.149
-293.676	800.000	0.119	0.403
-292.662	-23.524	0.153	0.092
-291.647	-131.186	-0.331	-0.044
-290.632	78.207	-0.029	-0.031
-289.618	-200.000	0.013	0.243
-288.603	800.000	0.056	-0.223
-287.589	-137.474	0.052	-0.006
-286.574	-32.390	0.234	-0.130
-285.559	-200.000	0.035	0.335
-284.545	800.000	-0.058	-0.171
-283.530	-38.277	-0.177	0.093
-282.516	62.013	-0.231	0.229
-281.501	-81.068	-0.274	0.090
-280.486	-66.113	-0.132	0.052
-279.472	548.464	-0.194	-0.464
-278.457	85.086	-0.138	-0.150
-277.443	512.590	0.120	0.279
-276.428	180.113	0.120	0.176
-275.413	-200.000	0.013	0.189
-274.399	-133.734	0.111	-0.014
-273.384	-200.000	-0.075	0.399
-272.370	409.646	-0.155	0.328
-271.355	-200.000	-0.025	0.338
-270.340	73.094	-0.208	-0.216
-269.326	141.264	0.088	-0.116
-268.311	-12.690	0.338	0.220
-267.297	-151.524	-0.093	-0.007
-266.282	-125.539	-0.341	0.052
-265.267	-10.391	0.315	0.208
-264.253	275.683	-0.170	0.301
-263.238	800.000	-0.050	-0.165
-262.224	800.000	-0.128	-0.387
-261.209	93.674	-0.187	0.210
-260.195	292.475	-0.079	0.143
-259.180	573.814	0.033	-0.080
-258.165	-43.361	-0.220	-0.111
-257.151	172.159	-0.135	0.194
-256.136	248.217	-0.255	-0.430
-255.122	-165.520	-0.196	-0.008
-254.107	-196.667	0.232	-0.002
-253.092	703.716	-0.105	0.275
-252.078	-200.000	0.022	0.151
-251.063	790.317	-0.122	-0.335
-250.049	-96.457	0.382	-0.101
-249.034	-200.000	0.022	-0.135
-248.019	-88.041	0.088	0.026
-247.005	800.000	0.103	-0.293
-245.990	98.791	0.243	0.279
-244.976	-21.766	0.128	0.078
-243.961	-142.344	0.267	0.026
-242.946	13.769	-0.218	0.169
-241.932	800.000	0.112	-0.319
-240.917	800.000	-0.130	0.358
-239.903	-132.488	0.434	-0.056
-238.888	24.580	-0.174	-0.144
-237.873	744.830	0.085	-0.228
-236.859	-200.000	-0.076	-0.357
-235.844	-19.409	-0.217	-0.134
-234.830	-37.288	0.138	0.074
-233.815	359.557	-0.052	-0.104
-232.800	521.289	-0.111	0.260
-231.786	410.494	0.093	-0.196
-230.771	142.271	0.176	0.232
-229.757	800.000	0.061	0.236
-228.742	800.000	0.105	0.344
-227.727	81.959	-0.335	0.361
-226.713	199.170	-0.067	-0.102
-225.698	-33.148	-0.083	0.046
-224.684	-180.017	-0.037	-0.001
-223.669	800.000	0.068	-0.198
-222.655	7.512	-0.265	-0.197
-221.640	-2.643	-0.130	0.090
-220.625	-180.879	0.389	0.008
-219.611	-123.061	-0.077	-0.012
-218.596	-154.600	0.062	0.004
-217.582	128.222	0.053	0.067
-216.567	-138.318	-0.081	-0.009
-215.552	-194.016	-0.263	0.002
-214.538	-64.229	0.090	0.037
-213.523	-200.000	-0.010	-0.071
-212.509	112.738	0.050	0.060
-211.494	-89.802	0.273	-0.079
-210.479	170.720	0.118	-0.168
-209.465	-151.488	0.196	-0.014
-208.450	793.166	0.047	-0.128
-207.436	28.482	-0.060	-0.051
-206.421	-59.406	0.250	0.107
-205.406	-52.828	0.324	0.148
-204.392	-16.593	-0.274	-0.173
-203.377	-96.146	-0.241	-0.064
-202.363	-48.028	0.120	-0.058
-201.348	40.919	0.179	-0.160
-200.333	-200.000	0.012	-0.143
-199.319	135.485	0.209	-0.271
-198.304	-200.000	-0.098	0.673
-197.290	132.768	0.183	0.234
-196.275	61.239	-0.132	0.131
-195.260	62.799	-0.107	0.106
-194.246	-2.271	0.129	0.090
-193.231	-157.611	-0.148	-0.009
-192.217	-113.902	0.339	-0.065
-191.202	-200.000	-0.028	0.167
-190.187	337.991	-0.056	0.108
-189.173	78.602	0.121	0.128
-188.158	37.560	0.394	0.348
-187.144	90.334	-0.101	0.112
-186.129	-200.000	-0.014	-0.076
-185.114	31.724	-0.071	0.060
-184.100	800.000	-0.089	-0.341
-183.085	-200.000	-0.043	-0.222
-182.071	800.000	-0.092	-0.255
-181.056	800.000	-0.099	-0.307
-180.042	255.707	-0.200	-0.341
-179.027	747.002	0.116	0.312
-178.012	-25.185	0.048	0.028
-176.998	-7.687	0.140	0.094
-175.983	33.026	-0.377	0.324
-174.969	-26.524	-0.131	-0.076
-173.954	117.057	-0.172	-0.210
-172.939	-200.000	0.002	-0.014
-171.925	800.000	0.088	-0.348
-170.910	-70.801	-0.260	-0.097
-169.896	717.969	-0.159	0.418
-168.881	153.584	0.091	-0.123
-167.866	269.492	-0.233	-0.407
-166.852	116.597	-0.348	0.423
-165.837	-51.598	-0.239	-0.111
-164.823	183.677	0.171	0.251
-163.808	-114.338	0.093	-0.018
-162.793	-200.000	0.004	-0.272
-161.779	-200.000	-0.014	-0.366
-160.764	472.653	-0.126	-0.281
-159.750	370.881	-0.092	0.185
-158.735	-200.000	-0.021	0.233
-157.720	-51.932	-0.249	0.115
-156.706	273.518	-0.196	0.344
-155.691	800.000	-0.083	-0.331
-154.677	104.402	-0.175	-0.205
-153.662	-34.151	-0.085	0.046
-152.647	58.599	0.176	-0.172
-151.633	-103.971	-0.052	0.012
-150.618	516.339	0.113	0.263
-149.604	78.669	-0.164	-0.174
-148.589	450.115	0.202	0.441
-147.574	494.686	0.142	0.323
-146.560	158.264	-0.174	-0.240
-145.545	-140.719	-0.173	-0.018
-144.531	119.795	-0.192	0.236
-143.516	-6.457	0.057	-0.039
-142.502	-70.440	-0.085	0.032
-141.487	-32.103	0.284	0.157
-140.472	215.455	-0.102	0.161
-139.458	-6.783	0.124	0.084
-138.443	-25.306	-0.221	-0.129
-137.429	-129.944	-0.162	-0.022
-136.414	-200.000	0.041	0.211
-135.399	362.202	-0.019	0.038
-134.385	563.590	-0.131	0.314
-133.370	-200.000	-0.009	0.366
-132.356	-172.577	-0.326	0.010
-131.341	60.685	-0.188	0.185
-130.326	208.701	0.051	0.079
-129.312	-107.005	-0.172	0.038
-128.297	572.208	0.110	-0.264
-127.283	44.944	0.159	-0.145
-126.268	-155.892	0.238	-0.015
-125.253	800.000	-0.066	0.223
-124.239	-101.714	0.212	0.051
-123.224	-200.000	-0.039	-0.223
-122.210	-200.000	-0.016	0.088
