DTS Sentinel unit serial number:	SN413079Multiplexer serial number:	ORYXHardware model number:	OX4-SRSoftware version number:	ORYX F/W v4.00 Oryx Data Collector v3.7.2.0data status	okinstallation	princeton_trtdifferential loss correction	single-endedforward channel	channel 2reverse channel	N/Adate	2019/09/15time	18:43:35forward acquisition time	60.00reverse acquisition time	0.00gamma	496.2192k internal	0.2287k external	0.2287temperature offset calibration	0.9924default loss term (dB/km)	0.3790temperature slope calibration	1.0000multiplexer offset coefficient	1.0000multiplexer slope coefficient	1.0000fibre end	0.00T internal ref (°C)	43.53T ext. ref 1 (°C)	6.87T ext. ref 2 (°C)	36.07length (m)	temperature (°C)	Stokes	anti-Stokes-747.200	-138.010	-0.370	-0.042
-746.185	800.000	-0.119	0.406
-745.171	-6.138	0.264	-0.185
-744.156	-200.000	0.015	0.092
-743.142	-159.570	-0.187	0.011
-742.127	-48.835	-0.346	0.170
-741.112	218.311	-0.037	-0.061
-740.098	-61.126	0.131	0.057
-739.083	-113.102	0.218	0.044
-738.069	800.000	0.088	0.306
-737.054	-47.726	-0.185	0.092
-736.039	83.533	-0.079	-0.088
-735.025	387.290	0.151	0.320
-734.010	56.592	0.099	-0.099
-732.996	157.133	-0.089	-0.126
-731.981	56.131	-0.108	-0.108
-730.966	-200.000	0.039	-0.288
-729.952	-26.376	0.088	-0.053
-728.937	635.368	-0.027	-0.070
-727.923	64.171	0.241	-0.249
-726.908	800.000	-0.041	-0.170
-725.894	98.154	-0.212	-0.250
-724.879	130.303	-0.121	-0.159
-723.864	559.019	-0.125	0.308
-722.850	2.590	-0.108	-0.080
-721.835	-200.000	-0.021	-0.114
-720.821	176.279	-0.025	-0.038
-719.806	-200.000	-0.009	-0.355
-718.791	800.000	0.035	-0.121
-717.777	-200.000	0.007	0.078
-716.762	-200.000	0.027	0.131
-715.748	-200.000	-0.034	-0.225
-714.733	800.000	-0.136	-0.468
-713.718	-166.181	0.063	0.003
-712.704	-135.364	0.436	0.053
-711.689	-200.000	-0.069	-0.387
-710.675	-139.013	0.323	0.036
-709.660	-85.289	-0.250	0.080
-708.645	40.182	-0.121	-0.112
-707.631	-200.000	0.010	-0.384
-706.616	800.000	0.066	0.186
-705.602	-116.953	0.150	-0.028
-704.587	70.802	-0.072	-0.077
-703.572	644.476	-0.069	-0.181
-702.558	-53.591	-0.065	0.031
-701.543	-153.122	-0.263	-0.019
-700.529	800.000	-0.033	-0.126
-699.514	-69.395	-0.221	-0.087
-698.499	-162.668	-0.241	0.012
-697.485	-79.871	0.259	-0.089
-696.470	800.000	0.057	-0.181
-695.456	-100.532	-0.274	0.069
-694.441	230.767	-0.077	-0.129
-693.426	-103.410	0.059	-0.014
-692.412	800.000	0.024	0.105
-691.397	47.809	0.276	0.264
-690.383	-158.923	-0.095	-0.006
-689.368	-200.000	-0.008	-0.187
-688.354	253.764	0.037	-0.065
-687.339	-165.377	-0.448	0.020
-686.324	58.525	-0.181	-0.182
-685.310	-83.713	0.261	0.085
-684.295	49.070	0.036	0.035
-683.281	-200.000	-0.022	0.173
-682.266	613.058	-0.039	0.100
-681.251	-102.746	0.149	-0.036
-680.237	521.554	0.106	-0.255
-679.222	-112.004	0.099	0.020
-678.208	-200.000	0.013	0.267
-677.193	-61.229	0.061	0.026
-676.178	800.000	0.068	-0.208
-675.164	29.665	-0.098	-0.085
-674.149	-200.000	-0.068	0.334
-673.135	-184.524	-0.085	0.001
-672.120	-81.343	0.361	-0.122
-671.105	-200.000	-0.004	-0.052
-670.091	80.590	0.296	-0.327
-669.076	60.492	-0.195	-0.197
-668.062	-200.000	-0.024	-0.249
-667.047	-200.000	-0.008	0.310
-666.032	791.430	0.077	-0.216
-665.018	69.459	-0.165	0.174
-664.003	371.662	-0.030	0.063
-662.989	-91.548	-0.096	0.028
-661.974	-16.376	0.090	0.058
-660.959	149.967	-0.194	0.268
-659.945	800.000	-0.040	-0.177
-658.930	55.932	-0.270	0.268
-657.916	-200.000	0.067	-0.000
-656.901	-3.455	-0.157	0.112
-655.886	436.654	-0.009	0.021
-654.872	-80.033	0.290	-0.099
-653.857	86.946	0.132	-0.149
-652.843	-200.000	0.001	-0.160
-651.828	-102.970	0.123	0.030
-650.814	-81.283	-0.177	0.060
-649.799	-106.254	-0.184	0.042
-648.784	-200.000	0.013	0.206
-647.770	-121.185	-0.294	-0.050
-646.755	441.953	0.163	0.365
-645.741	-49.508	-0.171	-0.083
-644.726	428.777	-0.203	-0.449
-643.711	-5.411	0.116	0.082
-642.697	-200.000	0.045	0.513
-641.682	19.575	-0.273	-0.225
-640.668	-123.268	-0.160	0.026
-639.653	-126.791	0.364	-0.055
-638.638	-196.043	0.175	-0.001
-637.624	800.000	-0.027	0.106
-636.609	135.981	-0.227	-0.302
-635.595	-132.556	-0.189	0.025
-634.580	76.394	-0.204	0.220
-633.565	-200.000	0.023	0.365
-632.551	-200.000	-0.047	0.234
-631.536	258.751	-0.161	0.283
-630.522	-54.339	0.147	0.068
-629.507	800.000	0.109	-0.436
-628.492	-106.539	-0.162	0.037
-627.478	163.500	-0.046	0.066
-626.463	241.769	0.246	0.421
-625.449	127.009	-0.101	0.130
-624.434	114.382	0.193	-0.240
-623.419	-88.988	0.342	-0.103
-622.405	800.000	-0.086	-0.356
-621.390	14.973	0.155	0.123
-620.376	46.782	0.188	-0.179
-619.361	-200.000	-0.020	0.129
-618.346	80.675	0.166	-0.183
-617.332	-7.332	0.225	-0.156
-616.317	-87.361	-0.270	-0.083
-615.303	109.688	-0.241	-0.294
-614.288	-200.000	-0.052	0.379
-613.273	-200.000	-0.008	-0.099
-612.259	-102.104	0.078	0.019
-611.244	-200.000	0.040	-0.214
-610.230	176.683	-0.255	-0.378
-609.215	-200.000	-0.002	0.184
-608.201	-193.785	-0.232	-0.002
-607.186	-54.131	0.045	-0.021
-606.171	-180.344	0.247	0.005
-605.157	475.284	0.173	-0.399
-604.142	101.376	-0.057	-0.068
-603.128	800.000	-0.051	-0.171
-602.113	-21.013	0.048	0.030
-601.098	-33.393	0.353	0.199
-600.084	-78.792	0.399	-0.139
-599.069	-134.564	-0.212	0.026
-598.055	-200.000	0.014	0.105
-597.040	-57.337	0.315	0.141
-596.025	-39.197	-0.170	0.091
-595.011	-86.294	0.277	-0.087
-593.996	42.544	0.112	-0.104
-592.982	800.000	0.028	-0.116
-591.967	-42.230	-0.325	-0.170
-590.952	-131.857	0.399	-0.053
-589.938	-147.141	0.399	0.035
-588.923	79.978	-0.247	-0.270
-587.909	-82.538	-0.176	-0.058
-586.894	-153.381	0.268	-0.019
-585.879	101.395	0.301	-0.357
-584.865	117.587	-0.145	0.181
-583.850	48.473	0.094	0.089
-582.836	769.531	-0.160	0.443
-581.821	129.222	0.042	-0.054
-580.806	800.000	0.047	-0.149
-579.792	-132.046	-0.270	-0.036
-578.777	317.200	-0.144	-0.278
-577.763	-73.505	-0.147	-0.055
-576.748	-183.615	-0.272	-0.005
-575.733	800.000	-0.034	-0.114
-574.719	-5.206	0.338	0.237
-573.704	-90.057	-0.222	0.066
-572.690	2.939	-0.292	0.216
-571.675	-42.210	-0.201	-0.105
-570.661	85.739	0.254	0.285
-569.646	168.051	0.118	-0.171
-568.631	-200.000	0.018	0.406
-567.617	-66.627	-0.012	-0.005
-566.602	-200.000	-0.011	0.210
-565.588	-200.000	0.003	-0.332
-564.573	800.000	-0.047	-0.192
-563.558	-102.226	-0.097	0.024
-562.544	475.751	-0.138	-0.316
-561.529	-141.107	0.088	0.009
-560.515	-200.000	-0.001	-0.172
-559.500	473.878	-0.242	0.556
-558.485	315.944	-0.101	0.195
-557.471	-31.685	0.185	0.106
-556.456	287.438	-0.176	-0.323
-555.442	30.111	-0.245	0.213
-554.427	-200.000	0.000	-0.240
-553.412	-200.000	-0.044	-0.226
-552.398	133.925	-0.155	0.204
-551.383	-122.115	0.204	0.034
-550.369	-69.948	-0.061	-0.024
-549.354	14.251	0.077	-0.061
-548.339	111.207	0.056	-0.069
-547.325	-119.150	-0.180	-0.032
-546.310	323.927	0.082	0.158
-545.296	-81.593	-0.222	0.074
-544.281	-122.883	0.154	0.025
-543.266	-143.971	-0.067	0.006
-542.252	-181.043	-0.074	-0.002
-541.237	800.000	0.106	0.335
-540.223	677.328	0.164	0.434
-539.208	-59.209	0.153	-0.067
-538.193	19.649	0.256	-0.210
-537.179	800.000	-0.051	0.180
-536.164	410.607	-0.089	0.192
-535.150	-97.249	-0.060	-0.016
-534.135	41.167	0.131	-0.120
-533.121	68.852	-0.172	-0.179
-532.106	-8.485	0.135	0.092
-531.091	-183.876	-0.470	-0.008
-530.077	247.986	0.203	0.349
-529.062	-111.939	-0.230	-0.047
-528.048	-57.794	-0.322	-0.143
-527.033	201.646	0.156	0.244
-526.018	800.000	-0.108	-0.426
-525.004	-200.000	-0.010	-0.075
-523.989	537.004	-0.026	-0.062
-522.975	-124.246	0.065	0.010
-521.960	-76.844	0.237	-0.084
-520.945	56.630	0.120	0.119
-519.931	-200.000	0.012	0.060
-518.916	186.798	-0.186	0.282
-517.902	-200.000	0.015	0.258
-516.887	-135.280	0.144	0.018
-515.872	-53.389	0.135	0.063
-514.858	68.847	-0.056	-0.059
-513.843	457.056	-0.105	0.237
-512.829	679.780	0.148	0.392
-511.814	-50.058	0.234	-0.113
-510.799	163.755	0.043	0.061
-509.785	800.000	-0.013	-0.049
-508.770	-17.958	-0.221	-0.141
-507.756	717.728	0.031	-0.085
-506.741	167.954	-0.260	0.376
-505.726	-200.000	-0.009	-0.215
-504.712	301.870	-0.098	0.184
-503.697	-200.000	-0.006	0.066
-502.683	336.391	-0.044	-0.088
-501.668	-200.000	0.061	-0.306
-500.653	47.742	-0.144	0.137
-499.639	-4.307	-0.152	0.107
-498.624	-34.268	-0.260	0.145
-497.610	367.090	0.022	0.044
-496.595	-187.394	0.276	-0.004
-495.581	-200.000	0.031	0.236
-494.566	-126.443	-0.293	0.044
-493.551	-115.069	0.023	-0.004
-492.537	-110.994	0.153	0.032
-491.522	-87.813	-0.103	-0.032
-490.508	82.256	-0.179	0.197
-489.493	800.000	-0.078	-0.270
-488.478	-107.116	-0.329	-0.074
-487.464	-22.176	0.317	0.195
-486.449	800.000	-0.048	-0.175
-485.435	-200.000	0.006	-0.501
-484.420	-83.774	-0.146	0.047
-483.405	-200.000	-0.027	-0.283
-482.391	-131.134	-0.427	0.058
-481.376	-36.780	-0.034	-0.018
-480.362	-2.857	0.223	0.158
-479.347	-22.612	0.075	0.046
-478.332	-23.676	-0.193	-0.118
-477.318	800.000	-0.020	-0.083
-476.303	449.754	-0.094	0.210
-475.289	-121.820	0.148	0.025
-474.274	-200.000	-0.036	0.250
-473.259	-199.264	0.389	-0.002
-472.245	108.331	0.215	0.260
-471.230	-10.622	-0.219	-0.147
-470.216	758.240	-0.097	-0.266
-469.201	-200.000	-0.003	-0.078
-468.186	-69.072	0.019	-0.007
-467.172	-200.000	0.019	-0.094
-466.157	-87.944	0.288	-0.088
-465.143	-24.106	-0.094	-0.057
-464.128	-200.000	-0.333	-0.001
-463.113	173.971	-0.178	0.260
-462.099	-93.120	0.095	-0.027
-461.084	-200.000	0.002	-0.020
-460.070	-170.531	0.078	0.003
-459.055	800.000	-0.095	-0.303
-458.040	-52.768	0.509	-0.238
-457.026	-200.000	0.010	0.177
-456.011	214.934	-0.086	-0.138
-454.997	635.844	-0.097	0.250
-453.982	-129.095	-0.114	-0.016
-452.968	-124.126	-0.129	0.020
-451.953	44.091	-0.109	-0.101
-450.938	-56.798	-0.214	-0.096
-449.924	-200.000	0.069	0.397
-448.909	202.968	-0.222	-0.348
-447.895	4.062	0.148	0.110
-446.880	-200.000	-0.015	0.066
-445.865	92.883	-0.061	-0.070
-444.851	514.837	0.013	0.031
-443.836	800.000	-0.116	-0.369
-442.822	-131.553	-0.231	-0.031
-441.807	-22.990	0.075	-0.046
-440.792	-117.351	0.208	0.038
-439.778	-130.048	0.156	-0.022
-438.763	800.000	0.095	-0.352
-437.749	324.786	-0.157	0.304
-436.734	-134.406	0.288	-0.036
-435.719	-93.490	-0.129	0.036
-434.705	720.920	0.071	-0.192
-433.690	21.296	-0.096	-0.079
-432.676	-102.152	-0.397	-0.097
-431.661	222.210	0.095	0.155
-430.646	-87.781	0.382	0.117
-429.632	354.742	-0.019	0.038
-428.617	-67.812	0.120	-0.047
-427.603	-5.944	-0.365	-0.253
-426.588	-200.000	-0.053	-0.290
-425.573	-141.065	0.162	0.017
-424.559	110.733	0.066	-0.080
-423.544	13.552	-0.153	-0.120
-422.530	-75.157	-0.246	-0.089
-421.515	6.818	0.298	0.225
-420.500	-116.044	-0.272	-0.051
-419.486	38.922	-0.236	-0.213
-418.471	-29.108	-0.102	0.059
-417.457	800.000	0.058	-0.256
-416.442	800.000	0.061	0.210
-415.428	5.115	0.136	-0.101
-414.413	-200.000	0.035	-0.221
-413.398	-200.000	-0.041	-0.293
-412.384	-200.000	-0.042	0.190
-411.369	-49.167	-0.245	-0.119
-410.355	179.708	-0.203	-0.301
-409.340	800.000	0.016	0.051
-408.325	800.000	-0.099	0.321
-407.311	-90.595	-0.297	0.087
-406.296	86.709	0.102	-0.114
-405.282	-103.652	-0.106	-0.025
-404.267	-60.799	-0.277	0.119
-403.252	800.000	-0.012	0.051
-402.238	800.000	0.093	0.348
-401.223	-126.429	0.227	0.034
-400.209	-200.000	-0.021	-0.184
-399.194	-167.182	0.204	-0.008
-398.179	-138.232	0.085	-0.010
-397.165	-200.000	-0.003	-0.339
-396.150	60.768	0.363	0.364
-395.136	-136.844	-0.202	0.024
-394.121	-94.694	-0.091	-0.025
-393.106	-139.768	0.328	-0.035
-392.092	35.729	0.143	-0.127
-391.077	-98.930	-0.115	0.030
-390.063	-200.000	0.022	-0.391
-389.048	-173.778	-0.229	-0.007
-388.033	-200.000	-0.020	-0.270
-387.019	291.270	0.125	-0.229
-386.004	-19.897	0.350	-0.219
-384.990	527.452	-0.040	-0.095
-383.975	-59.213	-0.047	-0.020
-382.960	-36.770	-0.157	0.085
-381.946	-14.858	-0.327	-0.212
-380.931	-97.105	0.233	-0.062
-379.917	63.768	-0.301	0.306
-378.902	800.000	0.088	-0.328
-377.888	-158.331	0.076	-0.004
-376.873	-9.154	-0.174	-0.118
-375.858	149.072	-0.109	-0.149
-374.844	-200.000	0.020	0.107
-373.829	-128.402	-0.082	0.012
-372.815	-200.000	0.058	-0.265
-371.800	373.539	0.093	0.192
-370.785	800.000	0.111	-0.365
-369.771	502.928	0.067	-0.156
-368.756	423.700	-0.067	-0.145
-367.742	800.000	-0.064	0.234
-366.727	-107.725	0.168	-0.037
-365.712	353.897	0.071	0.143
-364.698	-200.000	-0.015	-0.227
-363.683	-200.000	-0.013	0.159
-362.669	-97.534	0.134	0.035
-361.654	-200.000	-0.051	0.387
-360.639	-105.573	-0.519	0.119
-359.625	-200.000	-0.193	0.001
-358.610	-49.275	0.390	-0.188
-357.596	166.737	0.053	0.076
-356.581	-21.443	0.141	0.087
-355.566	18.571	-0.162	-0.131
-354.552	-133.260	-0.066	-0.008
-353.537	-127.068	0.314	0.047
-352.523	80.593	0.135	-0.147
-351.508	-28.385	-0.153	0.089
-350.493	0.588	-0.300	-0.217
-349.479	-102.042	0.158	-0.038
-348.464	-86.306	0.318	-0.099
-347.450	-200.000	0.031	0.171
-346.435	149.587	0.064	0.088
-345.420	300.610	0.120	-0.223
-344.406	-169.525	-0.010	0.000
-343.391	-107.960	-0.206	-0.045
-342.377	28.743	0.189	0.161
-341.362	800.000	-0.042	0.158
-340.348	-200.000	0.166	-0.001
-339.333	125.540	0.063	0.080
-338.318	-30.810	0.092	0.053
-337.304	42.471	-0.108	0.100
-336.289	-180.706	-0.025	-0.001
-335.275	629.934	0.086	-0.221
-334.260	-200.000	-0.012	-0.064
-333.245	-77.313	-0.129	0.045
-332.231	-120.927	0.108	-0.018
-331.216	-100.486	-0.182	-0.046
-330.202	-200.000	0.009	-0.188
-329.187	136.826	0.119	-0.157
-328.172	537.106	0.043	0.102
-327.158	-13.499	-0.254	-0.166
-326.143	-35.425	0.182	-0.100
-325.129	-70.714	0.182	0.069
-324.114	667.020	0.128	0.334
-323.099	183.393	-0.081	-0.121
-322.085	-200.000	0.012	0.058
-321.070	330.830	-0.123	0.239
-320.056	-96.636	-0.277	-0.074
-319.041	-200.000	-0.022	0.201
-318.026	-86.564	0.178	0.055
-317.012	558.273	0.038	-0.092
-315.997	-92.965	-0.148	0.042
-314.983	315.408	-0.052	0.099
-313.968	-117.187	-0.076	-0.014
-312.953	-17.160	0.166	0.106
-311.939	-138.787	-0.164	0.018
-310.924	800.000	-0.039	-0.171
-309.910	-45.104	-0.253	-0.127
-308.895	11.049	-0.285	0.220
-307.880	-113.263	0.138	-0.027
-306.866	800.000	-0.080	0.277
-305.851	253.582	0.113	-0.195
-304.837	-14.703	0.245	-0.158
-303.822	-39.811	-0.189	-0.099
-302.807	18.092	0.186	0.149
-301.793	42.054	0.118	-0.108
-300.778	145.579	0.132	0.179
-299.764	-9.737	0.098	0.066
-298.749	-200.000	-0.012	-0.278
-297.735	423.936	-0.123	0.267
-296.720	-12.596	0.196	-0.129
-295.705	-74.927	0.415	0.150
-294.691	-200.000	-0.003	0.304
-293.676	234.091	-0.306	0.509
-292.662	153.303	-0.246	0.340
-291.647	144.649	0.058	0.077
-290.632	94.495	0.146	0.167
-289.618	403.540	0.073	-0.154
-288.603	-200.000	-0.031	-0.250
-287.589	800.000	-0.119	0.459
-286.574	457.886	0.081	0.182
-285.559	-120.668	0.340	-0.058
-284.545	-1.691	0.135	-0.096
-283.530	75.302	0.074	0.079
-282.516	127.118	0.171	0.218
-281.501	9.960	0.149	0.114
-280.486	26.018	-0.132	-0.111
-279.472	-61.286	0.126	-0.054
-278.457	-200.000	-0.014	0.141
-277.443	130.252	-0.105	0.136
-276.428	8.498	0.137	0.104
-275.413	-130.836	0.216	-0.029
-274.399	-121.926	-0.272	0.045
-273.384	-22.642	0.175	-0.106
-272.370	800.000	-0.051	-0.176
-271.355	-200.000	-0.004	0.026
-270.340	-188.092	-0.197	-0.003
-269.326	404.929	0.097	-0.207
-268.311	800.000	0.037	-0.163
-267.297	49.821	0.185	-0.176
-266.282	45.888	-0.079	0.074
-265.267	-167.074	0.125	0.005
-264.253	-200.000	0.053	0.434
-263.238	334.980	-0.042	0.083
-262.224	26.920	-0.101	-0.085
-261.209	-39.123	0.201	0.106
-260.195	-125.529	0.195	0.030
-259.180	-200.000	-0.030	0.193
-258.165	-27.361	0.190	-0.111
-257.151	-138.709	-0.446	0.049
-256.136	-61.546	-0.192	0.081
-255.122	-2.917	-0.102	-0.072
-254.107	6.100	0.177	0.132
-253.092	-126.597	-0.248	-0.037
-252.078	500.576	-0.093	0.217
-251.063	-91.333	-0.253	0.073
-250.049	-200.000	0.004	0.415
-249.034	800.000	0.036	0.103
-248.019	-200.000	-0.029	0.285
-247.005	-14.714	-0.109	-0.070
-245.990	262.176	0.061	0.106
-244.976	-101.002	0.187	-0.046
-243.961	800.000	-0.053	0.171
-242.946	-110.034	-0.305	-0.064
-241.932	-110.754	0.426	0.088
-240.917	800.000	0.024	-0.080
-239.903	800.000	-0.006	-0.024
-238.888	-200.000	-0.074	0.339
-237.873	-116.021	0.433	-0.081
-236.859	-137.638	0.094	0.011
-235.844	145.855	-0.147	-0.198
-234.830	-104.281	0.339	0.079
-233.815	-24.838	0.075	-0.045
-232.800	-145.681	-0.440	0.040
-231.786	44.035	0.253	-0.234
-230.771	715.172	0.050	-0.132
-229.757	800.000	0.023	-0.084
-228.742	-97.468	-0.370	0.097
-227.727	71.064	-0.246	-0.256
-226.713	243.504	0.168	0.283
-225.698	668.163	0.008	0.022
-224.684	529.794	-0.125	-0.297
-223.669	36.305	0.245	-0.217
-222.655	-80.022	0.248	0.084
-221.640	-200.000	-0.002	0.033
-220.625	360.076	0.043	-0.087
-219.611	-28.190	0.243	-0.141
-218.596	200.060	0.231	-0.357
-217.582	-155.750	-0.367	-0.024
-216.567	585.224	0.118	0.292
-215.552	-112.785	0.245	-0.049
-214.538	101.834	-0.042	0.049
-213.523	-200.000	-0.055	-0.339
-212.509	116.521	0.124	0.152
-211.494	27.359	-0.180	-0.152
-210.479	201.236	-0.049	0.075
-209.465	-87.374	0.121	-0.037
-208.450	8.744	-0.258	-0.195
-207.436	-60.866	-0.417	0.177
-206.421	-200.000	0.006	-0.269
-205.406	107.365	0.065	0.077
-204.392	800.000	-0.044	0.190
-203.377	800.000	-0.033	0.114
-202.363	250.728	-0.122	0.209
-201.348	-23.715	-0.102	0.061
-200.333	497.112	0.069	-0.159
-199.319	-69.505	-0.219	-0.084
-198.304	184.263	-0.088	-0.130
-197.290	45.317	0.191	-0.177
-196.275	-125.987	-0.099	0.015
-195.260	-14.598	-0.288	-0.186
-194.246	429.877	0.069	0.151
-193.231	-121.548	0.037	0.006
-192.217	-48.441	0.249	0.120
-191.202	-70.495	-0.168	0.064
-190.187	-8.802	0.142	-0.096
-189.173	-158.910	-0.389	0.022
-188.158	53.905	0.215	0.207
-187.144	-49.495	0.243	0.116
-186.129	322.085	0.124	-0.236
-185.114	-196.151	0.130	-0.001
-184.100	521.686	-0.067	-0.157
-183.085	800.000	-0.097	0.399
-182.071	-119.334	0.407	-0.071
-181.056	800.000	0.104	0.336
-180.042	339.173	0.078	0.152
-179.027	-121.139	-0.221	-0.037
-178.012	-200.000	0.006	-0.081
-176.998	800.000	-0.150	-0.563
-175.983	-37.565	0.236	-0.126
-174.969	354.585	0.104	-0.208
-173.954	-200.000	0.039	0.204
-172.939	-126.129	0.158	0.024
-171.925	306.151	-0.067	-0.124
-170.910	309.061	0.191	0.359
-169.896	-97.507	-0.123	-0.032
-168.881	-101.807	-0.241	-0.058
-167.866	-200.000	-0.024	-0.190
-166.852	-66.189	-0.115	-0.046
-165.837	-91.085	0.240	-0.069
-164.823	-173.468	-0.107	0.003
-163.808	167.431	0.195	-0.277
-162.793	-200.000	-0.045	0.403
-161.779	-15.049	0.122	-0.078
-160.764	-70.411	-0.189	-0.072
-159.750	791.556	0.101	0.278
-158.735	15.815	0.258	-0.204
-157.720	396.709	0.090	-0.189
-156.706	313.316	0.039	-0.074
-155.691	-31.043	-0.210	0.119
-154.677	-102.203	0.077	-0.019
-153.662	-29.541	0.131	0.075
-152.647	800.000	0.027	0.095
-151.633	40.798	0.344	0.311
-150.618	-40.868	0.170	0.088
-149.604	87.252	-0.164	0.182
-148.589	-121.218	0.273	-0.046
-147.574	-75.100	-0.186	-0.067
-146.560	342.755	-0.144	-0.282
-145.545	39.179	-0.082	-0.074
-144.531	-39.954	0.241	-0.126
-143.516	138.046	0.024	0.032
-142.502	113.355	-0.140	-0.170
-141.487	800.000	0.088	-0.258
-140.472	-200.000	0.202	0.000
-139.458	800.000	-0.036	0.111
-138.443	-86.460	-0.176	-0.054
-137.429	289.424	-0.124	-0.225
-136.414	-200.000	-0.150	-0.000
-135.399	-76.197	-0.158	0.056
-134.385	-124.143	0.258	-0.040
-133.370	39.818	-0.083	0.074
-132.356	-200.000	-0.011	0.371
-131.341	-82.501	0.204	0.066
-130.326	130.350	0.044	0.057
-129.312	-54.645	0.154	0.070
-128.297	-194.873	-0.285	0.002
-127.283	252.817	-0.054	0.093
-126.268	185.098	0.077	0.114
-125.253	321.711	0.049	0.094
-124.239	-180.668	0.042	0.001
-123.224	169.979	-0.037	0.053
