DTS Sentinel unit serial number:	SN413079Multiplexer serial number:	ORYXHardware model number:	OX4-SRSoftware version number:	ORYX F/W v4.00 Oryx Data Collector v3.7.2.0data status	okinstallation	princeton_trtdifferential loss correction	single-endedforward channel	channel 2reverse channel	N/Adate	2019/09/15time	16:03:35forward acquisition time	60.00reverse acquisition time	0.00gamma	496.2192k internal	0.2288k external	0.2288temperature offset calibration	0.9945default loss term (dB/km)	0.3790temperature slope calibration	1.0000multiplexer offset coefficient	1.0000multiplexer slope coefficient	1.0000fibre end	0.00T internal ref (°C)	42.87T ext. ref 1 (°C)	5.34T ext. ref 2 (°C)	40.02length (m)	temperature (°C)	Stokes	anti-Stokes-747.200	-70.438	-0.314	0.122
-746.185	186.045	0.181	0.276
-745.171	800.000	-0.049	0.145
-744.156	21.421	0.162	0.135
-743.142	423.765	0.071	-0.157
-742.127	231.972	0.096	0.162
-741.112	-200.000	-0.008	-0.267
-740.098	15.491	0.087	0.070
-739.083	-46.832	-0.172	-0.086
-738.069	-105.218	-0.161	0.038
-737.054	-28.884	0.130	0.077
-736.039	800.000	-0.051	-0.164
-735.025	620.026	-0.013	-0.034
-734.010	38.930	-0.127	0.116
-732.996	-126.439	0.426	0.065
-731.981	182.154	-0.105	-0.158
-730.966	173.649	-0.148	-0.219
-729.952	14.734	0.241	-0.193
-728.937	-124.143	-0.259	0.042
-727.923	-111.988	0.211	0.044
-726.908	-111.967	-0.168	-0.035
-725.894	800.000	0.080	-0.304
-724.879	-200.000	0.045	-0.350
-723.864	-95.449	-0.233	0.064
-722.850	48.742	-0.253	0.244
-721.835	-58.905	0.135	0.060
-720.821	-12.313	-0.158	-0.106
-719.806	-200.000	0.052	-0.243
-718.791	166.535	0.122	-0.177
-717.777	323.772	-0.167	-0.327
-716.762	157.248	-0.061	-0.086
-715.748	-75.081	0.075	0.027
-714.733	39.871	0.155	-0.142
-713.718	-128.190	0.385	-0.056
-712.704	-87.317	-0.186	0.058
-711.689	-104.061	-0.301	0.072
-710.675	-55.465	0.137	-0.063
-709.660	-87.755	0.265	0.082
-708.645	265.640	0.086	-0.154
-707.631	369.674	-0.212	-0.440
-706.616	800.000	0.067	-0.271
-705.602	320.541	0.095	-0.184
-704.587	-200.000	0.007	-0.520
-703.572	-118.479	-0.088	-0.016
-702.558	541.950	-0.039	0.094
-701.543	-23.126	0.348	-0.214
-700.529	-26.297	0.271	0.163
-699.514	34.498	-0.123	0.110
-698.499	205.023	0.226	0.358
-697.485	401.618	-0.061	-0.132
-696.470	284.737	-0.181	-0.334
-695.456	-75.696	0.228	-0.083
-694.441	-108.796	0.232	0.051
-693.426	-166.588	-0.157	-0.007
-692.412	800.000	-0.054	0.179
-691.397	3.959	-0.078	0.059
-690.383	52.075	-0.180	-0.175
-689.368	-200.000	-0.038	0.181
-688.354	-62.799	0.324	-0.137
-687.339	-122.986	-0.144	0.024
-686.324	537.533	-0.056	0.136
-685.310	20.482	0.199	0.164
-684.295	179.361	-0.129	-0.193
-683.281	44.181	-0.155	-0.146
-682.266	-200.000	0.041	-0.223
-681.251	381.911	-0.082	-0.172
-680.237	790.844	-0.086	-0.242
-679.222	-72.792	0.036	-0.014
-678.208	34.018	0.116	-0.103
-677.193	-46.891	-0.203	0.102
-676.178	-114.404	-0.125	0.025
-675.164	732.144	-0.071	-0.193
-674.149	-200.000	0.011	-0.303
-673.135	-47.329	-0.043	-0.021
-672.120	210.938	-0.145	0.233
-671.105	110.916	0.078	-0.096
-670.091	-104.936	-0.282	-0.066
-669.076	694.579	0.033	-0.088
-668.062	138.547	-0.071	-0.096
-667.047	306.051	0.061	0.117
-666.032	376.795	-0.073	0.152
-665.018	714.154	-0.052	0.142
-664.003	-66.560	0.337	0.137
-662.989	50.413	0.064	0.062
-661.974	800.000	0.053	-0.221
-660.959	-107.937	-0.178	-0.040
-659.945	265.399	-0.043	-0.076
-658.930	89.063	-0.134	0.153
-657.916	-78.853	-0.221	0.077
-656.901	-142.199	0.282	0.029
-655.886	-200.000	-0.023	-0.199
-654.872	-93.640	-0.083	0.024
-653.857	800.000	-0.067	0.216
-652.843	-46.447	0.060	0.030
-651.828	79.087	-0.105	-0.115
-650.814	800.000	0.106	-0.468
-649.799	-53.258	0.124	0.058
-648.784	-102.460	0.179	-0.044
-647.770	-34.105	0.153	0.086
-646.755	314.441	0.059	-0.113
-645.741	138.787	0.113	0.152
-644.726	-69.694	-0.163	-0.064
-643.711	16.410	0.161	0.130
-642.697	68.771	-0.152	-0.159
-641.682	353.494	0.104	-0.211
-640.668	5.069	0.157	-0.118
-639.653	48.232	0.027	-0.026
-638.638	-38.503	-0.029	-0.016
-637.624	-200.000	0.001	0.396
-636.609	170.218	0.075	-0.109
-635.595	356.392	0.127	-0.258
-634.580	-200.000	-0.009	-0.212
-633.565	-116.581	-0.084	0.016
-632.551	194.813	-0.107	-0.166
-631.536	24.621	0.243	-0.205
-630.522	123.155	-0.184	-0.236
-629.507	-5.483	-0.120	0.084
-628.492	800.000	0.065	-0.207
-627.478	-200.000	0.060	-0.373
-626.463	-200.000	0.014	0.067
-625.449	79.629	0.075	0.082
-624.434	-0.327	-0.169	-0.123
-623.419	-200.000	-0.019	0.174
-622.405	-200.000	0.126	-0.000
-621.390	-200.000	-0.008	0.190
-620.376	-175.915	0.192	-0.005
-619.361	10.753	-0.244	0.190
-618.346	512.364	0.040	0.096
-617.332	84.640	0.059	0.066
-616.317	-200.000	0.032	0.412
-615.303	-143.273	0.096	0.009
-614.288	-179.083	-0.290	0.007
-613.273	-58.733	0.037	0.016
-612.259	113.929	-0.256	-0.317
-611.244	759.761	-0.090	-0.248
-610.230	-200.000	0.011	0.353
-609.215	672.344	-0.140	0.369
-608.201	-200.000	-0.019	-0.353
-607.186	-142.128	-0.041	0.004
-606.171	175.517	0.080	0.119
-605.157	-200.000	-0.021	0.306
-604.142	-200.000	-0.016	-0.233
-603.128	-200.000	-0.063	-0.407
-602.113	220.726	-0.055	-0.089
-601.098	-57.398	0.278	-0.125
-600.084	-200.000	0.019	0.249
-599.069	398.210	0.071	0.151
-598.055	20.281	-0.070	0.057
-597.040	24.154	0.258	-0.217
-596.025	-200.000	0.006	-0.210
-595.011	800.000	-0.073	-0.220
-593.996	-147.826	-0.257	0.022
-592.982	210.837	-0.121	-0.194
-591.967	-85.638	0.234	0.074
-590.952	527.817	0.104	-0.249
-589.938	-164.637	-0.142	-0.007
-588.923	-200.000	-0.013	0.279
-587.909	355.136	0.152	-0.308
-586.894	143.065	0.176	-0.239
-585.879	-138.006	-0.258	0.029
-584.865	-52.868	-0.040	-0.019
-583.850	-124.848	-0.188	-0.030
-582.836	267.896	-0.210	0.374
-581.821	-200.000	-0.001	-0.067
-580.806	800.000	0.071	-0.292
-579.792	199.533	-0.219	0.342
-578.777	14.363	0.088	0.070
-577.763	-67.074	-0.229	0.092
-576.748	120.325	-0.327	0.413
-575.733	778.333	-0.014	-0.038
-574.719	-200.000	-0.007	-0.100
-573.704	23.329	-0.218	-0.182
-572.690	211.404	0.097	-0.156
-571.675	-17.281	-0.293	-0.188
-570.661	10.181	0.022	0.017
-569.646	-98.854	0.103	-0.027
-568.631	-137.733	-0.275	-0.031
-567.617	-2.866	0.229	0.163
-566.602	2.018	-0.225	-0.165
-565.588	-97.479	0.168	-0.045
-564.573	1.198	0.097	0.071
-563.558	-126.001	0.065	0.010
-562.544	-121.330	0.360	0.061
-561.529	-200.000	-0.011	0.188
-560.515	-98.885	-0.179	-0.046
-559.500	81.651	-0.145	0.159
-558.485	-132.163	-0.073	0.010
-557.471	-106.150	0.295	0.067
-556.456	91.307	-0.222	-0.253
-555.442	76.414	-0.214	-0.231
-554.427	-200.000	-0.013	-0.254
-553.412	83.939	0.210	0.233
-552.398	-200.000	0.111	-0.000
-551.383	-188.670	-0.080	0.001
-550.369	-50.588	-0.352	0.169
-549.354	226.041	0.146	0.240
-548.339	-200.000	-0.032	0.171
-547.325	-92.523	0.223	-0.064
-546.310	-120.280	-0.242	0.042
-545.296	800.000	-0.046	0.155
-544.281	-200.000	-0.084	0.397
-543.266	460.326	0.008	-0.019
-542.252	277.565	-0.112	-0.203
-541.237	151.374	-0.051	-0.071
-540.223	53.203	0.076	-0.074
-539.208	-200.000	-0.041	-0.193
-538.193	-40.227	-0.165	0.087
-537.179	-13.220	-0.204	0.134
-536.164	-68.185	-0.259	0.102
-535.150	109.137	-0.083	0.102
-534.135	-177.657	0.026	0.001
-533.121	360.126	-0.073	0.148
-532.106	107.512	-0.227	0.274
-531.091	344.399	-0.021	0.041
-530.077	800.000	0.030	0.130
-529.062	355.421	0.015	0.029
-528.048	-72.650	-0.288	0.108
-527.033	185.048	-0.181	0.273
-526.018	241.433	0.199	0.338
-525.004	147.012	-0.135	-0.184
-523.989	-200.000	-0.023	0.128
-522.975	-200.000	-0.020	-0.186
-521.960	74.880	0.063	-0.067
-520.945	367.220	-0.110	-0.226
-519.931	800.000	-0.120	-0.442
-518.916	-169.530	-0.261	-0.010
-517.902	1.228	0.209	0.152
-516.887	-86.570	-0.140	0.044
-515.872	-93.055	0.297	0.084
-514.858	-200.000	-0.012	-0.079
-513.843	800.000	-0.077	-0.293
-512.829	112.428	0.114	-0.140
-511.814	-21.384	0.174	0.108
-510.799	-85.926	0.297	-0.093
-509.785	535.935	-0.190	-0.458
-508.770	-78.503	-0.213	0.074
-507.756	145.442	0.116	0.158
-506.741	-200.000	-0.071	0.363
-505.726	41.746	-0.190	0.175
-504.712	-76.746	-0.224	-0.080
-503.697	549.368	-0.192	-0.467
-502.683	-166.295	0.177	-0.008
-501.668	-88.707	-0.156	-0.047
-500.653	534.524	0.139	-0.335
-499.639	33.433	-0.080	-0.070
-498.624	120.709	-0.049	0.062
-497.610	-68.744	-0.121	0.048
-496.595	54.091	-0.051	0.049
-495.581	6.294	0.193	-0.146
-494.566	-200.000	0.022	0.250
-493.551	302.814	0.052	-0.097
-492.537	-133.244	-0.110	-0.014
-491.522	800.000	0.052	-0.162
-490.508	248.393	-0.044	0.076
-489.493	-116.154	0.168	0.032
-488.478	130.239	0.115	-0.149
-487.464	-12.441	0.061	-0.041
-486.449	800.000	0.071	-0.238
-485.435	29.789	-0.148	0.128
-484.420	-200.000	-0.014	0.177
-483.405	370.184	0.108	-0.222
-482.391	-23.188	0.225	0.137
-481.376	549.761	-0.010	0.025
-480.362	-56.197	-0.285	-0.129
-479.347	-200.000	-0.021	-0.301
-478.332	-200.000	-0.027	-0.180
-477.318	-200.000	0.038	-0.195
-476.303	555.803	-0.037	0.090
-475.289	-50.656	0.354	-0.169
-474.274	52.852	-0.187	-0.181
-473.259	249.120	0.067	-0.115
-472.245	794.519	0.098	-0.273
-471.230	22.018	-0.086	-0.071
-470.216	-66.474	-0.077	0.031
-469.201	580.578	-0.037	-0.093
-468.186	3.913	-0.104	-0.077
-467.172	51.490	-0.041	0.039
-466.157	93.264	-0.148	0.170
-465.143	278.649	0.059	-0.106
-464.128	93.262	-0.380	-0.436
-463.113	-128.279	0.307	-0.044
-462.099	242.462	0.131	0.222
-461.084	-88.290	0.333	0.101
-460.070	486.678	0.119	0.276
-459.055	-61.615	0.431	-0.184
-458.040	8.992	-0.152	0.117
-457.026	-64.243	0.102	-0.042
-456.011	-117.487	0.226	0.041
-454.997	-61.734	0.141	0.060
-453.982	-200.000	0.003	-0.023
-452.968	-129.793	-0.125	0.017
-451.953	-115.193	0.226	-0.043
-450.938	-156.743	-0.113	-0.007
-449.924	403.298	0.145	-0.309
-448.909	190.902	-0.088	-0.134
-447.895	-153.883	-0.131	-0.009
-446.880	-83.096	-0.114	0.037
-445.865	-200.000	0.014	-0.083
-444.851	-58.667	0.355	0.156
-443.836	-104.419	0.106	-0.025
-442.822	210.038	-0.192	0.305
-441.807	17.697	-0.381	-0.307
-440.792	800.000	0.060	0.175
-439.778	-152.629	0.177	-0.013
-438.763	-59.796	-0.199	-0.086
-437.749	800.000	0.129	0.420
-436.734	800.000	-0.058	-0.195
-435.719	318.424	-0.099	-0.190
-434.705	152.986	0.122	0.169
-433.690	-200.000	-0.018	0.234
-432.676	-62.999	0.302	0.126
-431.661	197.328	-0.156	0.241
-430.646	317.949	0.018	-0.034
-429.632	65.647	-0.270	0.277
-428.617	73.674	0.205	0.217
-427.603	-176.923	0.231	0.006
-426.588	-13.262	-0.249	-0.164
-425.573	-200.000	-0.063	-0.000
-424.559	-118.798	0.152	0.027
-423.544	-57.175	-0.653	0.291
-422.530	500.985	-0.081	-0.190
-421.515	74.883	-0.164	0.174
-420.500	449.545	0.194	-0.433
-419.486	-200.000	0.020	-0.115
-418.471	69.407	-0.078	0.081
-417.457	429.645	-0.197	0.431
-416.442	-114.291	0.337	-0.066
-415.428	-94.598	0.064	-0.018
-414.413	440.600	0.131	-0.290
-413.398	800.000	-0.062	0.270
-412.384	-200.000	0.079	0.351
-411.369	-145.157	0.301	0.028
-410.355	-10.722	-0.146	-0.098
-409.340	173.003	0.117	-0.171
-408.325	-181.120	-0.141	0.003
-407.311	800.000	-0.039	-0.166
-406.296	-115.355	-0.305	-0.058
-405.282	-35.543	0.265	-0.146
-404.267	-4.598	0.170	0.119
-403.252	800.000	-0.075	-0.221
-402.238	221.745	0.123	-0.200
-401.223	285.652	0.176	0.321
-400.209	-200.000	-0.002	-0.243
-399.194	-21.949	0.251	-0.154
-398.179	-145.896	-0.251	0.023
-397.165	-55.119	0.125	-0.057
-396.150	52.864	0.234	0.226
-395.136	408.664	0.066	0.141
-394.121	800.000	-0.027	0.109
-393.106	102.879	-0.299	0.354
-392.092	-19.669	0.188	0.118
-391.077	605.141	-0.115	0.290
-390.063	-2.938	0.222	-0.157
-389.048	486.838	-0.018	0.042
-388.033	-36.628	-0.201	-0.109
-387.019	74.846	0.068	0.072
-386.004	800.000	0.083	0.343
-384.990	343.820	0.097	0.192
-383.975	8.568	-0.206	-0.157
-382.960	-200.000	0.066	-0.415
-381.946	-200.000	0.028	-0.148
-380.931	68.531	-0.105	0.109
-379.917	49.102	0.080	-0.076
-378.902	15.031	-0.110	0.087
-377.888	124.686	0.127	-0.162
-376.873	-116.216	0.310	0.058
-375.858	-35.499	0.163	-0.090
-374.844	89.058	0.028	-0.032
-373.829	317.897	-0.125	-0.239
-372.815	-156.190	0.191	0.012
-371.800	131.754	0.198	-0.257
-370.785	800.000	-0.049	-0.148
-369.771	137.522	0.211	-0.278
-368.756	146.793	-0.200	0.271
-367.742	-6.333	0.138	-0.095
-366.727	405.279	0.045	0.095
-365.712	-6.134	0.216	0.149
-364.698	2.379	-0.053	0.039
-363.683	-191.506	-0.171	-0.002
-362.669	20.534	-0.071	0.058
-361.654	405.771	0.161	-0.342
-360.639	-177.634	0.044	-0.001
-359.625	800.000	-0.050	0.160
-358.610	73.680	0.165	-0.175
-357.596	800.000	-0.039	0.131
-356.581	-200.000	0.043	-0.269
-355.566	-200.000	-0.008	0.138
-354.552	9.568	0.068	0.052
-353.537	-122.683	0.122	-0.020
-352.523	97.191	0.074	0.086
-351.508	481.707	-0.092	0.210
-350.493	-91.422	-0.327	-0.094
-349.479	152.778	-0.146	0.201
-348.464	10.866	0.192	0.148
-347.450	-138.909	-0.312	0.034
-346.435	671.944	0.116	-0.303
-345.420	-200.000	-0.064	0.326
-344.406	-78.663	0.100	-0.035
-343.391	-200.000	0.013	-0.328
-342.377	-200.000	0.009	-0.113
-341.362	-33.299	-0.136	-0.076
-340.348	-15.893	0.187	-0.120
-339.333	457.080	-0.084	-0.188
-338.318	800.000	-0.016	-0.071
-337.304	83.475	0.070	-0.077
-336.289	-71.341	-0.073	-0.027
-335.275	427.858	0.129	-0.281
-334.260	59.285	0.168	-0.167
-333.245	-57.375	0.109	0.048
-332.231	26.822	0.162	0.137
-331.216	800.000	0.062	0.220
-330.202	271.601	-0.181	0.322
-329.187	-69.399	-0.629	-0.244
-328.172	-134.011	0.105	-0.013
-327.158	-0.885	0.260	0.186
-326.143	-200.000	0.060	-0.323
-325.129	85.922	0.074	0.082
-324.114	-59.984	0.366	0.158
-323.099	-200.000	-0.032	-0.216
-322.085	-200.000	-0.012	-0.079
-321.070	-125.219	-0.429	-0.066
-320.056	-103.510	-0.353	0.084
-319.041	-52.919	-0.225	0.105
-318.026	-200.000	0.060	-0.268
-317.012	-83.880	0.180	-0.058
-315.997	800.000	-0.105	-0.369
-314.983	184.754	-0.056	0.084
-313.968	619.762	0.078	-0.198
-312.953	-200.000	0.003	-0.013
-311.939	-83.792	-0.321	0.103
-310.924	-85.497	-0.226	-0.071
-309.910	-200.000	-0.015	0.140
-308.895	26.654	-0.256	-0.216
-307.880	-62.228	-0.185	0.078
-306.866	685.634	0.099	0.260
-305.851	55.913	-0.149	-0.146
-304.837	471.699	0.069	-0.157
-303.822	209.684	0.145	-0.229
-302.807	-42.562	-0.102	-0.052
-301.793	-73.023	0.063	-0.023
-300.778	-200.000	-0.007	0.252
-299.764	-44.051	0.194	-0.098
-298.749	-88.030	-0.202	-0.061
-297.735	-200.000	0.006	-0.186
-296.720	-44.469	-0.115	0.058
-295.705	339.975	0.152	0.299
-294.691	-200.000	0.018	-0.107
-293.676	-63.709	0.156	0.065
-292.662	800.000	0.097	-0.271
-291.647	-200.000	0.041	0.222
-290.632	-150.394	0.353	0.027
-289.618	366.809	-0.051	0.105
-288.603	-47.232	0.163	0.080
-287.589	800.000	0.056	0.162
-286.574	-17.375	0.055	0.035
-285.559	-188.037	0.341	0.004
-284.545	-200.000	-0.003	-0.144
-283.530	594.959	0.110	0.273
-282.516	408.846	0.059	-0.125
-281.501	-80.553	0.327	-0.110
-280.486	-200.000	0.006	-0.236
-279.472	19.354	0.144	0.116
-278.457	-200.000	-0.001	-0.252
-277.443	174.548	0.085	0.124
-276.428	62.617	0.068	-0.068
-275.413	92.183	0.128	0.145
-274.399	378.258	-0.131	-0.270
-273.384	-132.351	0.115	0.015
-272.370	-35.694	0.165	0.090
-271.355	-200.000	0.022	-0.141
-270.340	-200.000	-0.006	0.294
-269.326	-95.569	-0.025	0.007
-268.311	-155.069	0.126	0.008
-267.297	49.743	-0.217	-0.206
-266.282	5.307	-0.124	0.092
-265.267	145.655	0.157	-0.211
-264.253	645.411	-0.073	-0.187
-263.238	-141.126	-0.164	0.017
-262.224	-200.000	0.017	0.158
-261.209	596.543	0.098	-0.245
-260.195	-200.000	0.018	0.180
-259.180	160.677	0.139	0.195
-258.165	-98.660	-0.214	0.055
-257.151	-200.000	0.080	0.459
-256.136	-54.566	0.346	0.157
-255.122	612.613	-0.242	0.608
-254.107	567.999	0.064	0.156
-253.092	-200.000	-0.009	-0.209
-252.078	-5.316	-0.129	-0.089
-251.063	800.000	-0.026	0.089
-250.049	90.446	-0.259	-0.292
-249.034	351.419	0.054	-0.107
-248.019	-200.000	-0.032	-0.352
-247.005	-68.526	-0.282	-0.110
-245.990	58.239	0.198	-0.195
-244.976	314.712	0.023	0.044
-243.961	-49.946	0.265	0.127
-242.946	446.351	0.055	-0.121
-241.932	-22.422	-0.135	0.082
-240.917	-200.000	0.068	-0.397
-239.903	-2.995	0.215	0.151
-238.888	-77.164	0.089	-0.031
-237.873	-124.408	0.180	-0.028
-236.859	37.243	-0.087	0.077
-235.844	-54.562	-0.195	0.089
-234.830	-129.119	0.266	0.037
-233.815	-23.258	0.219	0.132
-232.800	45.728	0.150	-0.140
-231.786	-28.120	-0.085	0.050
-230.771	800.000	-0.043	-0.136
-229.757	800.000	-0.041	-0.138
-228.742	572.590	0.143	0.350
-227.727	456.597	0.074	-0.165
-226.713	180.090	-0.248	0.365
-225.698	-91.669	-0.203	-0.058
-224.684	800.000	0.105	-0.342
-223.669	-114.956	-0.207	0.040
-222.655	74.759	0.023	-0.024
-221.640	-36.151	0.155	-0.084
-220.625	682.436	0.018	0.048
-219.611	0.564	0.143	0.103
-218.596	80.676	-0.086	0.093
-217.582	-200.000	-0.095	0.481
-216.567	800.000	0.083	0.315
-215.552	-11.059	-0.129	0.086
-214.538	80.455	-0.095	0.102
-213.523	-177.818	0.146	-0.004
-212.509	89.747	-0.075	-0.084
-211.494	349.102	0.045	0.089
-210.479	800.000	-0.065	-0.238
-209.465	81.838	-0.093	-0.101
-208.450	-200.000	-0.020	-0.186
-207.436	-200.000	0.004	-0.032
-206.421	178.973	0.038	0.055
-205.406	-120.310	-0.367	0.063
-204.392	234.245	-0.053	0.088
-203.377	-34.708	-0.101	0.055
-202.363	800.000	0.041	-0.137
-201.348	800.000	-0.065	0.284
-200.333	213.749	0.098	-0.156
-199.319	382.731	-0.088	0.182
-198.304	767.016	-0.054	0.147
-197.290	-153.047	0.028	0.002
-196.275	171.922	0.151	0.218
-195.260	364.841	-0.146	0.295
-194.246	747.905	0.194	0.525
-193.231	-144.502	-0.054	-0.005
-192.217	75.326	-0.254	-0.269
-191.202	117.307	0.297	0.367
-190.187	-126.054	-0.257	0.039
-189.173	-73.816	-0.093	-0.034
-188.158	336.211	0.030	0.059
-187.144	800.000	-0.061	0.190
-186.129	-46.183	0.116	0.057
-185.114	-109.552	-0.340	0.072
-184.100	-72.669	0.150	0.056
-183.085	-176.890	0.089	0.002
-182.071	72.600	0.208	-0.218
-181.056	24.676	-0.276	-0.229
-180.042	-15.878	0.226	-0.144
-179.027	2.404	0.287	0.209
-178.012	-107.439	-0.085	-0.019
-176.998	800.000	-0.067	0.194
-175.983	192.088	0.166	-0.252
-174.969	-9.019	-0.210	-0.141
-173.954	-8.706	-0.047	0.032
-172.939	-200.000	0.021	0.253
-171.925	-171.961	0.210	-0.007
-170.910	800.000	-0.027	0.085
-169.896	-34.066	-0.319	0.176
-168.881	800.000	-0.031	0.108
-167.866	66.434	-0.228	0.233
-166.852	163.664	-0.132	0.186
-165.837	-80.970	0.025	-0.008
-164.823	109.231	-0.138	-0.165
-163.808	33.540	0.177	-0.154
-162.793	-200.000	-0.026	0.278
-161.779	-169.412	0.136	0.005
-160.764	-64.532	0.189	0.077
-159.750	203.227	0.185	-0.287
-158.735	-31.809	-0.088	0.049
-157.720	126.626	-0.257	0.327
-156.706	-119.695	0.444	0.077
-155.691	4.151	-0.202	-0.148
-154.677	193.500	-0.191	0.289
-153.662	-200.000	0.043	-0.252
-152.647	416.269	-0.209	0.448
-151.633	-69.033	0.212	0.082
-150.618	216.419	0.210	-0.335
-149.604	800.000	0.094	0.277
-148.589	338.173	-0.140	0.274
-147.574	562.150	0.042	-0.102
-146.560	-119.352	-0.105	-0.018
-145.545	619.678	-0.117	-0.296
-144.531	82.111	0.229	0.249
-143.516	800.000	-0.030	0.096
-142.502	510.959	0.100	-0.233
-141.487	294.607	-0.140	-0.256
-140.472	-200.000	0.005	-0.243
-139.458	800.000	-0.054	0.156
-138.443	-120.483	-0.467	-0.079
-137.429	-63.396	-0.101	-0.042
-136.414	-3.095	0.207	-0.145
-135.399	-200.000	0.020	0.096
-134.385	201.508	-0.106	0.163
-133.370	549.246	-0.091	0.218
-132.356	-48.228	-0.116	0.056
-131.341	800.000	-0.057	0.186
-130.326	149.553	-0.168	0.228
-129.312	-200.000	-0.021	-0.146
-128.297	-200.000	-0.019	-0.289
-127.283	14.729	0.022	0.017
-126.268	162.410	-0.093	0.131
-125.253	-200.000	0.023	-0.180
-124.239	-90.259	0.204	-0.059
-123.224	223.803	0.126	-0.204
-122.210	800.000	0.017	0.048
-121.195	-98.283	0.409	-0.105
