DTS Sentinel unit serial number:	SN413079Multiplexer serial number:	ORYXHardware model number:	OX4-SRSoftware version number:	ORYX F/W v4.00 Oryx Data Collector v3.7.2.0data status	okinstallation	princeton_trtdifferential loss correction	single-endedforward channel	channel 2reverse channel	N/Adate	2019/09/16time	03:59:34forward acquisition time	60.00reverse acquisition time	0.00gamma	496.2192k internal	0.2335k external	0.2335temperature offset calibration	0.9974default loss term (dB/km)	0.3790temperature slope calibration	1.0000multiplexer offset coefficient	1.0000multiplexer slope coefficient	1.0000fibre end	0.00T internal ref (°C)	27.50T ext. ref 1 (°C)	10.70T ext. ref 2 (°C)	21.48length (m)	temperature (°C)	Stokes	anti-Stokes-747.200	296.457	0.102	0.187
-746.185	-200.000	-0.043	0.483
-745.171	61.651	0.374	0.374
-744.156	-43.914	-0.199	0.101
-743.142	-200.000	-0.013	0.125
-742.127	-200.000	-0.004	0.062
-741.112	145.842	0.215	0.289
-740.098	-53.582	-0.138	0.063
-739.083	718.600	0.043	0.115
-738.069	-45.648	-0.011	0.005
-737.054	-179.130	-0.118	0.003
-736.039	40.416	-0.358	-0.324
-735.025	73.062	-0.067	-0.070
-734.010	179.910	0.142	-0.209
-732.996	-176.314	-0.471	-0.012
-731.981	-11.436	-0.142	0.094
-730.966	80.249	-0.115	-0.124
-729.952	800.000	-0.033	0.091
-728.937	28.624	-0.151	0.128
-727.923	244.596	0.077	0.129
-726.908	19.645	-0.048	-0.039
-725.894	-18.089	0.348	-0.219
-724.879	-37.172	-0.223	0.120
-723.864	310.985	0.042	-0.080
-722.850	-104.934	0.126	0.029
-721.835	-200.000	0.003	-0.434
-720.821	125.728	-0.142	0.180
-719.806	-172.754	-0.242	-0.008
-718.791	-200.000	-0.035	-0.241
-717.777	-96.171	0.441	-0.118
-716.762	19.948	-0.351	-0.284
-715.748	800.000	-0.112	0.318
-714.733	-6.152	0.405	0.278
-713.718	-101.711	-0.122	0.030
-712.704	333.903	0.158	0.306
-711.689	290.673	-0.110	0.200
-710.675	564.731	-0.091	-0.221
-709.660	-200.000	0.037	-0.163
-708.645	61.397	0.220	0.219
-707.631	-107.716	-0.210	0.046
-706.616	800.000	0.032	0.115
-705.602	-108.773	-0.347	-0.074
-704.587	-10.937	-0.132	0.087
-703.572	-43.072	-0.176	-0.089
-702.558	-200.000	0.003	0.538
-701.543	-200.000	-0.049	0.235
-700.529	-183.294	0.209	0.004
-699.514	-72.698	0.334	0.124
-698.499	161.653	0.099	0.139
-697.485	-109.679	-0.136	-0.029
-696.470	206.986	0.264	-0.413
-695.456	-200.000	-0.017	0.125
-694.441	127.898	-0.062	-0.079
-693.426	-71.570	-0.075	0.028
-692.412	450.598	0.054	-0.119
-691.397	-13.055	-0.397	-0.259
-690.383	-30.014	-0.074	0.042
-689.368	104.654	0.163	-0.192
-688.354	-200.000	0.010	-0.372
-687.339	184.305	-0.159	-0.237
-686.324	-66.624	0.241	-0.096
-685.310	-105.745	-0.218	-0.049
-684.295	196.111	-0.079	0.121
-683.281	33.995	0.238	0.207
-682.266	-157.328	0.129	0.008
-681.251	-200.000	0.022	-0.169
-680.237	-17.448	0.241	0.152
-679.222	582.380	0.034	-0.083
-678.208	-200.000	-0.022	0.257
-677.193	353.277	-0.142	-0.283
-676.178	39.484	0.057	-0.051
-675.164	239.344	-0.098	-0.164
-674.149	25.833	0.077	-0.065
-673.135	317.753	-0.141	0.268
-672.120	-200.000	0.041	0.363
-671.105	279.231	0.077	-0.137
-670.091	-140.342	-0.220	-0.023
-669.076	-132.989	0.373	-0.047
-668.062	305.894	0.082	0.153
-667.047	-142.318	-0.255	-0.025
-666.032	-79.060	-0.261	0.089
-665.018	151.271	-0.104	0.142
-664.003	-143.065	-0.086	0.008
-662.989	800.000	0.047	-0.148
-661.974	27.085	-0.262	-0.220
-660.959	-72.457	0.149	0.055
-659.945	76.123	-0.120	-0.127
-658.930	-105.791	0.175	0.040
-657.916	800.000	-0.048	0.158
-656.901	664.410	0.158	0.408
-655.886	-164.824	0.370	-0.017
-654.872	279.986	-0.043	-0.076
-653.857	-67.131	0.229	-0.090
-652.843	-5.872	0.072	0.049
-651.828	-200.000	0.065	-0.288
-650.814	-66.325	0.142	0.056
-649.799	-107.616	0.174	-0.038
-648.784	-94.837	-0.232	-0.063
-647.770	-77.748	-0.088	0.030
-646.755	-113.077	0.309	-0.061
-645.741	57.203	-0.156	-0.152
-644.726	46.931	0.208	0.193
-643.711	800.000	-0.011	0.040
-642.697	-77.253	-0.201	-0.070
-641.682	-105.508	-0.103	-0.023
-640.668	-200.000	-0.029	0.150
-639.653	-130.441	0.214	0.029
-638.638	-200.000	0.017	0.170
-637.624	-200.000	0.010	0.371
-636.609	-200.000	0.067	0.444
-635.595	-92.087	-0.334	0.094
-634.580	234.383	-0.067	0.110
-633.565	213.957	-0.260	0.411
-632.551	339.342	0.134	0.261
-631.536	256.960	0.110	0.189
-630.522	-200.000	0.013	0.123
-629.507	-115.175	-0.087	0.016
-628.492	375.627	0.108	-0.221
-627.478	116.554	0.193	-0.237
-626.463	82.655	-0.280	-0.304
-625.449	-131.388	0.178	-0.024
-624.434	-200.000	0.049	0.283
-623.419	4.999	0.419	0.309
-622.405	-49.746	-0.119	0.056
-621.390	-38.691	-0.263	-0.139
-620.376	-187.564	-0.053	0.001
-619.361	36.573	-0.236	-0.208
-618.346	-197.057	0.258	-0.002
-617.332	-124.462	-0.562	0.087
-616.317	-200.000	0.028	0.132
-615.303	67.501	-0.068	-0.069
-614.288	-110.229	0.227	0.047
-613.273	8.969	0.078	0.059
-612.259	-63.405	-0.227	0.094
-611.244	800.000	-0.047	0.141
-610.230	150.983	-0.166	-0.226
-609.215	6.473	-0.102	-0.076
-608.201	-79.954	-0.132	0.044
-607.186	727.433	0.031	-0.082
-606.171	-115.277	-0.124	0.023
-605.157	127.190	0.195	-0.248
-604.142	316.825	0.042	-0.080
-603.128	-200.000	0.039	-0.248
-602.113	-200.000	-0.013	0.091
-601.098	-153.508	-0.201	0.014
-600.084	-200.000	0.015	-0.232
-599.069	800.000	-0.055	-0.216
-598.055	-70.568	0.150	0.057
-597.040	72.021	-0.278	-0.289
-596.025	800.000	-0.073	-0.229
-595.011	-197.636	0.213	0.001
-593.996	124.262	-0.020	0.025
-592.982	-71.877	0.063	0.023
-591.967	78.751	-0.043	0.046
-590.952	-22.634	0.195	-0.118
-589.938	-45.414	-0.289	0.143
-588.923	185.557	-0.170	-0.253
-587.909	-200.000	-0.027	0.181
-586.894	231.851	0.216	0.354
-585.879	-3.327	0.230	-0.160
-584.865	271.887	0.150	-0.264
-583.850	-81.644	-0.075	-0.025
-582.836	-96.315	-0.249	-0.066
-581.821	85.782	-0.179	-0.197
-580.806	-13.111	-0.355	-0.230
-579.792	-63.917	-0.247	-0.101
-578.777	64.261	-0.060	0.060
-577.763	-47.595	0.216	-0.105
-576.748	83.837	0.178	0.194
-575.733	-200.000	-0.036	-0.258
-574.719	800.000	0.058	0.250
-573.704	-80.882	-0.396	0.131
-572.690	137.512	-0.135	0.176
-571.675	800.000	-0.128	-0.418
-570.661	800.000	-0.162	0.490
-569.646	-3.912	-0.022	0.015
-568.631	-200.000	0.015	0.168
-567.617	-200.000	0.009	0.252
-566.602	-31.010	-0.287	0.162
-565.588	-64.565	0.293	-0.119
-564.573	-200.000	-0.069	-0.519
-563.558	-68.977	-0.424	0.163
-562.544	319.257	0.099	-0.188
-561.529	52.488	-0.038	0.036
-560.515	800.000	0.040	0.116
-559.500	386.181	0.201	0.414
-558.485	268.562	-0.097	0.170
-557.471	-60.583	0.047	-0.020
-556.456	-200.000	-0.001	0.063
-555.442	800.000	0.042	-0.150
-554.427	-30.943	0.259	-0.146
-553.412	9.773	-0.091	-0.069
-552.398	800.000	0.060	0.192
-551.383	-49.961	-0.117	-0.055
-550.369	22.683	0.238	-0.194
-549.354	-93.339	0.345	0.095
-548.339	213.437	-0.150	0.236
-547.325	-200.000	0.024	0.111
-546.310	-200.000	-0.001	0.230
-545.296	143.308	-0.081	-0.108
-544.281	-121.949	-0.228	0.037
-543.266	800.000	-0.130	0.364
-542.252	-59.156	0.320	-0.137
-541.237	-200.000	-0.040	0.192
-540.223	14.360	0.198	0.154
-539.208	-32.780	0.053	0.029
-538.193	-37.025	-0.293	-0.157
-537.179	-200.000	-0.039	-0.386
-536.164	14.309	-0.036	-0.028
-535.150	29.633	0.266	-0.226
-534.135	-62.290	0.313	0.130
-533.121	-200.000	-0.055	0.371
-532.106	-92.285	0.281	-0.079
-531.091	-200.000	-0.039	-0.236
-530.077	-66.769	-0.240	-0.094
-529.062	-200.000	0.007	0.134
-528.048	640.882	0.125	0.317
-527.033	135.152	-0.109	0.141
-526.018	-200.000	-0.018	-0.200
-525.004	18.055	-0.214	0.170
-523.989	256.914	-0.146	-0.249
-522.975	800.000	0.040	-0.140
-521.960	-200.000	-0.012	0.097
-520.945	-93.125	-0.249	-0.069
-519.931	-77.827	0.185	0.064
-518.916	-22.901	0.108	-0.065
-517.902	74.264	0.175	0.183
-516.887	-52.688	0.370	0.170
-515.872	290.236	-0.026	0.047
-514.858	-163.472	-0.189	-0.009
-513.843	-46.452	0.260	-0.127
-512.829	507.834	0.011	0.025
-511.814	-127.854	0.434	0.062
-510.799	-132.407	-0.244	-0.031
-509.785	78.579	0.241	0.257
-508.770	-200.000	0.007	-0.103
-507.756	-52.113	-0.198	0.091
-506.741	-0.262	-0.082	0.058
-505.726	13.629	-0.202	-0.156
-504.712	357.082	-0.096	-0.190
-503.697	350.218	0.038	-0.076
-502.683	-83.838	-0.246	-0.078
-501.668	-70.845	-0.023	-0.009
-500.653	-145.840	-0.147	0.013
-499.639	135.965	0.044	-0.057
-498.624	-200.000	0.024	0.264
-497.610	343.483	-0.075	-0.147
-496.595	800.000	-0.023	0.099
-495.581	-132.766	-0.364	-0.046
-494.566	-116.460	-0.465	0.085
-493.551	-200.000	0.047	-0.296
-492.537	59.811	0.199	-0.196
-491.522	-144.832	-0.193	0.018
-490.508	-54.352	-0.350	0.158
-489.493	438.905	0.021	0.045
-488.478	10.485	-0.319	-0.242
-487.464	-164.413	0.388	0.018
-486.449	131.619	-0.086	-0.110
-485.435	-111.290	-0.150	-0.031
-484.420	-200.000	0.007	0.137
-483.405	153.980	-0.126	-0.171
-482.391	182.536	0.133	0.195
-481.376	0.612	0.244	0.174
-480.362	-200.000	-0.045	0.461
-479.347	800.000	0.040	0.110
-478.332	-99.659	0.289	0.072
-477.318	766.043	0.082	0.221
-476.303	-116.889	0.336	0.061
-475.289	-9.599	0.053	-0.035
-474.274	63.071	-0.099	-0.099
-473.259	502.233	0.123	0.282
-472.245	189.256	0.140	0.208
-471.230	94.818	-0.084	0.095
-470.216	58.471	-0.102	-0.099
-469.201	-12.550	0.313	-0.203
-468.186	-142.337	0.072	0.007
-467.172	-13.545	0.223	-0.144
-466.157	800.000	0.076	0.227
-465.143	-45.088	-0.388	-0.192
-464.128	20.560	-0.273	0.220
-463.113	-50.635	-0.118	-0.055
-462.099	-129.632	-0.016	-0.002
-461.084	271.943	0.063	-0.111
-460.070	-200.000	0.044	0.216
-459.055	178.558	-0.143	-0.208
-458.040	45.076	-0.106	0.097
-457.026	-81.493	-0.241	0.079
-456.011	-200.000	-0.004	0.046
-454.997	-124.748	0.158	-0.024
-453.982	800.000	-0.116	0.324
-452.968	-200.000	-0.037	0.447
-451.953	31.398	-0.047	-0.040
-450.938	111.537	0.150	0.180
-449.924	-181.594	-0.194	-0.004
-448.909	18.941	0.270	0.215
-447.895	-62.175	-0.336	-0.139
-446.880	32.835	-0.080	-0.069
-445.865	-164.566	-0.144	0.006
-444.851	116.997	-0.070	-0.085
-443.836	-108.167	-0.093	-0.020
-442.822	-183.849	0.095	0.002
-441.807	-200.000	-0.018	-0.190
-440.792	75.850	0.100	0.105
-439.778	35.899	-0.120	0.105
-438.763	-200.000	-0.005	0.131
-437.749	-200.000	0.046	-0.218
-436.734	-200.000	0.023	-0.355
-435.719	-51.851	-0.069	0.032
-434.705	-25.453	-0.132	0.078
-433.690	-78.871	0.299	-0.101
-432.676	-34.499	-0.298	0.162
-431.661	-70.692	-0.090	-0.034
-430.646	193.333	-0.209	0.315
-429.632	800.000	0.042	-0.143
-428.617	-81.063	-0.164	-0.054
-427.603	-79.792	0.222	0.074
-426.588	800.000	0.023	0.083
-425.573	427.130	0.118	0.252
-424.559	-99.481	0.381	0.095
-423.544	-80.035	-0.162	-0.054
-422.530	-47.693	-0.147	0.071
-421.515	-65.226	-0.106	-0.042
-420.500	-17.849	0.118	0.073
-419.486	-200.000	0.002	-0.125
-418.471	300.451	0.050	0.092
-417.457	138.012	-0.038	0.050
-416.442	-200.000	0.001	-0.452
-415.428	154.081	0.066	-0.090
-414.413	-70.129	0.185	-0.070
-413.398	333.111	0.055	-0.106
-412.384	168.128	-0.081	0.114
-411.369	-123.001	0.054	-0.009
-410.355	676.075	0.072	0.185
-409.340	-52.630	-0.161	-0.074
-408.325	43.179	-0.202	0.183
-407.311	75.723	0.132	0.139
-406.296	329.862	0.095	0.181
-405.282	-142.189	0.281	-0.028
-404.267	800.000	-0.066	-0.250
-403.252	-88.594	-0.370	0.109
-402.238	-36.362	-0.024	0.013
-401.223	203.474	-0.157	-0.240
-400.209	-33.618	-0.079	-0.043
-399.194	75.358	0.288	-0.301
-398.179	-74.341	-0.026	-0.009
-397.165	35.102	0.046	-0.040
-396.150	-200.000	-0.028	0.225
-395.136	137.203	0.094	0.122
-394.121	-200.000	0.041	0.367
-393.106	-85.223	0.280	-0.087
-392.092	-40.683	0.196	0.101
-391.077	-72.064	0.299	-0.110
-390.063	-8.941	-0.035	0.023
-389.048	763.925	-0.021	0.057
-388.033	-200.000	0.010	-0.047
-387.019	-200.000	0.008	-0.099
-386.004	-64.401	-0.302	-0.122
-384.990	-155.494	-0.097	0.006
-383.975	-200.000	-0.004	-0.097
-382.960	-85.963	0.163	0.050
-381.946	-104.179	-0.169	-0.039
-380.931	-109.480	0.390	-0.082
-379.917	-93.245	-0.193	0.053
-378.902	-38.400	-0.066	-0.034
-377.888	513.280	0.214	0.494
-376.873	412.542	0.038	0.080
-375.858	456.365	0.055	-0.121
-374.844	315.107	-0.073	0.136
-373.829	125.425	-0.075	-0.093
-372.815	-22.661	-0.037	-0.022
-371.800	41.446	-0.286	-0.257
-370.785	583.430	-0.104	-0.253
-369.771	-200.000	0.217	-0.001
-368.756	-121.090	0.213	-0.035
-367.742	-35.874	0.083	0.045
-366.727	63.683	0.178	-0.177
-365.712	9.476	-0.378	-0.283
-364.698	-200.000	-0.002	-0.014
-363.683	-163.272	-0.062	0.003
-362.669	404.981	0.130	-0.272
-361.654	-54.752	-0.311	-0.139
-360.639	480.375	-0.068	-0.152
-359.625	-144.828	-0.309	0.028
-358.610	800.000	-0.031	0.099
-357.596	-200.000	0.041	0.443
-356.581	345.765	0.014	0.028
-355.566	800.000	0.097	0.295
-354.552	-74.420	0.236	0.084
-353.537	-139.919	0.179	-0.019
-352.523	47.716	-0.124	-0.114
-351.508	224.010	-0.058	0.092
-350.493	-18.094	0.411	-0.255
-349.479	113.966	0.231	-0.278
-348.464	-155.543	0.141	0.009
-347.450	-200.000	0.024	-0.153
-346.435	594.232	0.038	-0.094
-345.420	-35.032	-0.158	0.085
-344.406	105.945	-0.283	-0.332
-343.391	-140.727	-0.215	-0.022
-342.377	8.438	0.137	0.102
-341.362	46.111	-0.132	0.121
-340.348	332.588	0.107	-0.205
-339.333	-20.162	0.090	-0.055
-338.318	-129.003	-0.132	-0.018
-337.304	-72.983	-0.452	-0.164
-336.289	-126.256	0.352	-0.052
-335.275	182.195	-0.103	0.150
-334.260	-73.234	0.326	-0.118
-333.245	-53.929	-0.287	-0.129
-332.231	-105.420	-0.100	-0.023
-331.216	-93.345	0.070	0.019
-330.202	800.000	-0.057	-0.178
-329.187	174.170	0.185	0.265
-328.172	-61.221	-0.206	0.086
-327.158	-200.000	0.012	-0.223
-326.143	289.790	-0.147	-0.264
-325.129	-200.000	0.057	-0.281
-324.114	-95.927	0.141	-0.037
-323.099	-19.315	-0.236	0.145
-322.085	372.795	-0.088	-0.177
-321.070	5.020	-0.193	-0.141
-320.056	-188.801	-0.175	-0.002
-319.041	-200.000	-0.004	-0.048
-318.026	800.000	0.013	0.054
-317.012	-200.000	-0.009	0.089
-315.997	-166.165	0.261	0.011
-314.983	-174.562	-0.125	0.004
-313.968	267.695	-0.141	-0.244
-312.953	-104.150	-0.330	0.076
-311.939	800.000	-0.053	0.156
-310.924	-81.121	-0.136	0.044
-309.910	91.724	0.050	-0.055
-308.895	-200.000	-0.002	-0.066
-307.880	-73.777	0.178	0.064
-306.866	-126.971	-0.148	-0.022
-305.851	-82.697	0.175	-0.056
-304.837	800.000	-0.063	0.193
-303.822	553.243	0.120	0.286
-302.807	-152.399	-0.150	0.011
-301.793	-56.879	-0.149	0.065
-300.778	-91.725	0.244	0.069
-299.764	-200.000	0.037	0.161
-298.749	157.113	-0.093	-0.127
-297.735	-200.000	-0.004	0.022
-296.720	-65.859	0.108	0.043
-295.705	-200.000	0.047	-0.302
-294.691	-44.044	0.179	0.089
-293.676	-200.000	-0.008	0.041
-292.662	69.421	0.273	-0.277
-291.647	597.162	-0.114	0.280
-290.632	-47.662	0.112	0.054
-289.618	1.862	-0.399	-0.284
-288.603	-26.367	0.167	0.097
-287.589	43.586	0.169	-0.153
-286.574	-157.275	0.058	-0.003
-285.559	-152.057	0.323	-0.023
-284.545	-35.090	-0.088	0.047
-283.530	435.624	0.035	0.075
-282.516	331.745	-0.124	0.237
-281.501	-91.679	0.234	0.066
-280.486	-194.311	-0.171	-0.001
-279.472	-200.000	-0.017	0.285
-278.457	434.104	0.075	0.160
-277.443	-153.828	0.193	0.013
-276.428	-84.280	0.253	-0.079
-275.413	29.974	-0.031	0.026
-274.399	-94.459	0.242	0.065
-273.384	-24.055	0.066	-0.039
-272.370	26.137	0.158	0.130
-271.355	800.000	-0.069	-0.229
-270.340	-200.000	0.008	-0.294
-269.326	800.000	-0.054	-0.206
-268.311	-200.000	-0.016	-0.200
-267.297	-148.882	0.230	0.018
-266.282	274.367	-0.130	-0.226
-265.267	-200.000	-0.006	-0.168
-264.253	800.000	0.089	-0.257
-263.238	-43.704	0.331	0.164
-262.224	247.605	0.217	0.361
-261.209	-28.792	-0.195	-0.111
-260.195	45.936	-0.050	-0.046
-259.180	-21.377	-0.125	-0.075
-258.165	358.191	0.139	-0.273
-257.151	-187.199	-0.378	-0.005
-256.136	-200.000	0.019	0.181
-255.122	-38.310	-0.350	0.183
-254.107	-200.000	0.015	-0.338
-253.092	401.012	0.039	-0.081
-252.078	44.121	0.134	0.121
-251.063	800.000	-0.059	0.245
-250.049	-37.185	-0.065	0.034
-249.034	-138.210	-0.140	0.015
-248.019	153.758	0.124	0.168
-247.005	-144.795	0.100	0.009
-245.990	173.728	0.061	-0.086
-244.976	364.877	-0.117	-0.232
-243.961	800.000	0.101	-0.316
-242.946	-64.660	0.217	0.087
-241.932	-200.000	-0.003	0.120
-240.917	-149.359	0.062	0.005
-239.903	198.111	0.033	0.050
-238.888	-94.377	0.221	-0.059
-237.873	213.445	0.143	-0.222
-236.859	-200.000	-0.030	0.207
-235.844	800.000	-0.039	0.157
-234.830	37.287	0.292	-0.255
-233.815	38.836	-0.149	-0.131
-232.800	219.043	0.033	0.052
-231.786	-88.699	0.222	0.065
-230.771	-26.196	-0.253	-0.147
-229.757	119.666	-0.211	-0.257
-228.742	800.000	0.127	-0.390
-227.727	-200.000	0.039	0.345
-226.713	-39.080	0.387	0.200
-225.698	-40.645	-0.245	0.125
-224.684	90.934	-0.176	0.195
-223.669	-80.083	-0.095	-0.031
-222.655	246.783	0.159	0.263
-221.640	-41.809	0.178	-0.090
-220.625	41.102	0.234	0.208
-219.611	43.928	-0.242	0.218
-218.596	-200.000	-0.005	0.243
-217.582	800.000	-0.092	-0.373
-216.567	492.712	0.193	-0.435
-215.552	-200.000	-0.005	-0.081
-214.538	36.123	0.180	-0.156
-213.523	71.546	0.264	0.270
-212.509	187.190	0.134	-0.196
-211.494	-200.000	-0.021	-0.410
-210.479	-10.571	-0.126	0.082
-209.465	-41.422	-0.089	0.045
-208.450	-200.000	0.034	-0.223
-207.436	-88.101	0.281	0.083
-206.421	-73.754	-0.357	-0.128
-205.406	349.768	0.131	0.255
-204.392	-61.943	-0.214	0.088
-203.377	-49.943	0.134	-0.062
-202.363	800.000	-0.087	0.302
-201.348	321.989	0.131	-0.245
-200.333	180.186	-0.095	0.137
-199.319	44.854	0.374	0.338
-198.304	-96.240	-0.257	-0.067
-197.290	800.000	-0.093	-0.270
-196.275	72.958	0.163	-0.167
-195.260	-200.000	0.003	0.116
-194.246	412.550	-0.054	0.113
-193.231	-111.973	-0.134	0.027
-192.217	-200.000	0.002	-0.144
-191.202	131.918	0.229	0.289
-190.187	143.616	0.126	0.165
-189.173	-199.998	0.572	0.003
-188.158	800.000	0.081	0.238
-187.144	126.877	-0.285	-0.355
-186.129	-41.106	0.375	0.190
-185.114	800.000	0.076	-0.219
-184.100	-46.729	0.149	-0.072
-183.085	-200.000	0.012	-0.277
-182.071	-44.523	0.093	-0.046
-181.056	194.972	0.251	-0.374
-180.042	280.874	0.064	0.113
-179.027	25.829	0.181	-0.148
-178.012	328.200	-0.185	-0.348
-176.998	136.852	-0.144	-0.185
-175.983	-139.403	-0.043	0.005
-174.969	-172.282	0.373	-0.012
-173.954	107.188	-0.124	0.145
-172.939	-95.377	-0.251	0.066
-171.925	17.284	-0.246	0.192
-170.910	800.000	0.104	-0.351
-169.896	-190.321	0.369	0.004
-168.881	-123.173	-0.304	-0.048
-167.866	-200.000	-0.003	0.096
-166.852	-61.467	-0.102	0.042
-165.837	2.617	-0.302	-0.215
-164.823	202.455	0.072	0.109
-163.808	-148.970	0.271	0.021
-162.793	115.784	-0.049	0.059
-161.779	-145.725	-0.109	-0.010
-160.764	302.173	0.108	0.196
-159.750	23.030	-0.135	-0.109
-158.735	35.708	0.167	0.144
-157.720	92.492	-0.084	-0.093
-156.706	-141.943	-0.146	0.014
-155.691	-200.000	-0.097	-0.000
-154.677	3.636	-0.092	0.066
-153.662	285.187	0.206	0.365
-152.647	-200.000	-0.027	-0.399
-151.633	122.464	-0.215	0.264
-150.618	-200.000	-0.075	0.433
-149.604	-148.809	-0.053	-0.004
-148.589	-200.000	-0.008	-0.210
-147.574	112.079	0.061	0.072
-146.560	-125.306	-0.468	-0.070
-145.545	-200.000	-0.016	-0.156
-144.531	800.000	0.041	0.145
-143.516	141.634	-0.116	0.150
-142.502	113.790	0.198	-0.236
-141.487	183.874	-0.081	0.118
-140.472	-86.870	0.364	0.109
-139.458	-200.000	-0.061	0.274
-138.443	481.050	-0.067	-0.150
-137.429	717.377	0.115	-0.299
-136.414	-200.000	-0.016	-0.163
-135.399	800.000	-0.026	0.105
-134.385	-80.046	-0.167	-0.055
-133.370	285.423	-0.081	0.144
-132.356	-55.236	-0.358	0.158
-131.341	800.000	0.078	-0.222
-130.326	14.825	0.276	-0.212
-129.312	-93.338	0.360	-0.098
-128.297	800.000	-0.106	0.337
-127.283	396.386	0.154	-0.316
-126.268	123.206	-0.289	-0.355
-125.253	-69.549	0.169	-0.064
-124.239	-115.046	0.128	0.024
-123.224	-200.000	-0.003	0.174
-122.210	40.440	-0.040	0.036
