DTS Sentinel unit serial number:	SN413079Multiplexer serial number:	ORYXHardware model number:	OX4-SRSoftware version number:	ORYX F/W v4.00 Oryx Data Collector v3.7.2.0data status	okinstallation	princeton_trtdifferential loss correction	single-endedforward channel	channel 2reverse channel	N/Adate	2019/09/11time	14:33:11forward acquisition time	60.00reverse acquisition time	0.00gamma	496.2192k internal	0.2290k external	0.2290temperature offset calibration	1.0007default loss term (dB/km)	0.3790temperature slope calibration	1.0000multiplexer offset coefficient	1.0000multiplexer slope coefficient	1.0000fibre end	0.00T internal ref (°C)	42.25T ext. ref 1 (°C)	0.89T ext. ref 2 (°C)	37.50length (m)	temperature (°C)	Stokes	anti-Stokes-747.200	800.000	-0.125	0.359
-746.185	188.306	0.160	0.245
-745.171	-200.000	0.004	0.181
-744.156	-117.436	-0.199	0.037
-743.142	-200.000	-0.023	0.119
-742.127	800.000	0.080	0.285
-741.112	-152.539	-0.331	-0.024
-740.098	800.000	0.084	0.329
-739.083	-130.082	-0.288	-0.040
-738.069	17.242	0.257	-0.209
-737.054	195.507	0.050	-0.077
-736.039	301.553	-0.179	-0.339
-735.025	800.000	0.025	0.103
-734.010	134.886	-0.048	0.064
-732.996	-159.119	-0.054	-0.003
-731.981	147.229	0.075	0.103
-730.966	-188.820	-0.284	0.004
-729.952	-200.000	-0.017	0.147
-728.937	-128.015	-0.324	0.048
-727.923	-136.578	-0.117	-0.014
-726.908	-6.985	0.098	0.068
-725.894	-142.243	-0.261	0.026
-724.879	-78.069	0.429	-0.151
-723.864	-114.319	-0.257	0.051
-722.850	-200.000	0.054	-0.245
-721.835	-141.824	-0.158	0.016
-720.821	9.276	-0.245	0.190
-719.806	-200.000	-0.007	0.039
-718.791	55.366	-0.103	-0.102
-717.777	-200.000	-0.004	0.159
-716.762	-44.268	0.086	-0.044
-715.748	154.065	0.076	0.106
-714.733	800.000	0.085	-0.363
-713.718	800.000	-0.112	-0.459
-712.704	-29.246	-0.118	0.069
-711.689	800.000	0.063	-0.184
-710.675	74.784	-0.173	0.187
-709.660	-126.101	-0.193	-0.030
-708.645	800.000	-0.107	-0.348
-707.631	-49.044	0.390	0.191
-706.616	16.001	-0.262	-0.211
-705.602	-74.492	0.289	-0.106
-704.587	-136.012	-0.214	0.026
-703.572	-49.377	-0.284	0.139
-702.558	42.505	0.230	0.214
-701.543	-26.147	0.039	0.024
-700.529	800.000	-0.065	0.256
-699.514	-200.000	-0.016	0.178
-698.499	-146.756	-0.114	-0.010
-697.485	107.802	-0.371	-0.452
-696.470	278.640	0.099	-0.180
-695.456	-88.235	0.383	-0.117
-694.441	451.814	-0.066	-0.149
-693.426	45.226	0.208	-0.196
-692.412	-151.801	-0.306	-0.023
-691.397	19.438	-0.164	-0.135
-690.383	6.012	-0.063	-0.048
-689.368	310.123	0.100	-0.191
-688.354	-155.293	0.230	-0.015
-687.339	-193.729	-0.092	0.001
-686.324	-200.000	0.037	-0.199
-685.310	-101.161	0.160	-0.040
-684.295	-48.773	0.063	-0.031
-683.281	-5.688	-0.261	-0.183
-682.266	-111.109	0.127	0.027
-681.251	-177.376	-0.185	0.005
-680.237	56.844	0.066	-0.065
-679.222	183.391	-0.141	0.213
-678.208	75.527	0.092	0.099
-677.193	-150.169	0.300	0.024
-676.178	786.228	0.077	0.215
-675.164	-155.917	0.254	0.017
-674.149	69.328	0.159	-0.167
-673.135	165.619	-0.072	0.104
-672.120	168.359	-0.116	0.169
-671.105	595.844	0.005	0.014
-670.091	-200.000	0.047	-0.370
-669.076	-200.000	-0.062	-0.296
-668.062	-200.000	0.009	0.048
-667.047	-73.969	-0.357	-0.132
-666.032	-7.333	-0.342	-0.237
-665.018	-200.000	-0.067	-0.378
-664.003	-37.684	0.371	-0.202
-662.989	-104.236	0.240	0.057
-661.974	800.000	0.043	-0.156
-660.959	-190.158	-0.044	0.000
-659.945	-144.613	0.165	0.016
-658.930	-127.315	-0.718	-0.107
-657.916	800.000	0.008	0.022
-656.901	61.650	0.160	-0.163
-655.886	-200.000	0.014	0.178
-654.872	-32.653	-0.133	-0.076
-653.857	800.000	0.068	-0.304
-652.843	-200.000	-0.046	-0.407
-651.828	-200.000	-0.315	-0.001
-650.814	-200.000	-0.026	-0.307
-649.799	-140.864	-0.195	-0.020
-648.784	-200.000	-0.084	0.380
-647.770	371.661	-0.044	-0.091
-646.755	800.000	-0.099	0.345
-645.741	-73.234	-0.361	0.135
-644.726	25.172	-0.060	0.051
-643.711	800.000	0.094	0.312
-642.697	800.000	-0.047	0.181
-641.682	800.000	0.038	-0.141
-640.668	-4.780	-0.181	0.127
-639.653	33.784	-0.352	-0.312
-638.638	-200.000	0.022	-0.177
-637.624	-200.000	0.023	0.135
-636.609	3.508	-0.134	-0.099
-635.595	-163.497	-0.266	-0.013
-634.580	399.406	0.065	-0.139
-633.565	133.712	0.101	-0.133
-632.551	20.131	-0.164	0.135
-631.536	-40.185	0.216	0.115
-630.522	62.978	0.116	-0.118
-629.507	-200.000	0.048	-0.269
-628.492	-200.000	-0.013	0.400
-627.478	-9.307	0.239	-0.163
-626.463	-97.156	-0.373	-0.099
-625.449	-129.778	-0.133	0.019
-624.434	114.689	0.163	0.203
-623.419	-200.000	0.064	-0.463
-622.405	800.000	0.045	-0.174
-621.390	103.351	0.115	-0.138
-620.376	-133.621	-0.200	0.026
-619.361	15.719	-0.202	0.162
-618.346	-29.311	-0.086	-0.050
-617.332	-5.910	-0.221	0.154
-616.317	-200.000	-0.006	-0.101
-615.303	75.764	0.176	-0.190
-614.288	-200.000	-0.023	-0.224
-613.273	800.000	0.049	0.155
-612.259	-3.899	0.288	-0.203
-611.244	296.222	0.081	0.151
-610.230	-162.924	-0.307	-0.015
-609.215	-106.213	0.281	-0.064
-608.201	46.019	0.234	-0.220
-607.186	-66.059	-0.150	-0.061
-606.171	-13.948	-0.128	-0.084
-605.157	-134.721	0.566	0.070
-604.142	-10.003	0.129	0.087
-603.128	-200.000	-0.022	0.310
-602.113	-111.717	-0.258	0.053
-601.098	-122.428	-0.267	0.044
-600.084	-80.687	0.133	-0.045
-599.069	1.648	-0.204	-0.150
-598.055	102.510	-0.280	0.334
-597.040	65.200	0.170	-0.175
-596.025	44.622	0.255	-0.239
-595.011	354.045	-0.124	-0.251
-593.996	182.905	-0.139	0.208
-592.982	189.770	-0.164	-0.251
-591.967	-2.992	-0.152	-0.108
-590.952	-29.558	0.204	-0.119
-589.938	-57.121	0.429	-0.192
-588.923	800.000	-0.045	-0.135
-587.909	-126.951	0.307	-0.046
-586.894	-200.000	0.025	-0.436
-585.879	-183.058	0.208	0.004
-584.865	103.839	-0.109	-0.130
-583.850	-57.056	0.268	-0.120
-582.836	-72.057	0.396	0.150
-581.821	160.033	0.089	-0.127
-580.806	-200.000	-0.012	0.249
-579.792	-200.000	-0.009	0.130
-578.777	-93.810	-0.085	-0.024
-577.763	17.728	-0.094	0.076
-576.748	-105.728	-0.416	-0.096
-575.733	-70.850	-0.163	-0.062
-574.719	155.218	0.041	0.057
-573.704	522.921	-0.064	-0.154
-572.690	800.000	0.042	0.140
-571.675	-200.000	0.029	0.306
-570.661	-50.752	0.081	0.039
-569.646	-200.000	0.069	0.315
-568.631	440.869	0.172	0.382
-567.617	800.000	0.028	-0.087
-566.602	-200.000	0.042	0.205
-565.588	21.089	-0.444	0.367
-564.573	15.908	0.031	-0.024
-563.558	525.835	-0.063	-0.151
-562.544	-0.542	-0.238	0.172
-561.529	144.473	-0.132	0.179
-560.515	800.000	0.086	-0.303
-559.500	111.372	-0.129	0.158
-558.485	-52.030	0.087	0.041
-557.471	-56.636	-0.122	-0.055
-556.456	738.290	0.102	0.279
-555.442	-105.657	-0.211	0.049
-554.427	-116.012	-0.194	0.037
-553.412	800.000	-0.061	-0.189
-552.398	-2.289	0.269	-0.192
-551.383	-95.863	-0.111	0.030
-550.369	-200.000	-0.007	0.247
-549.354	-68.064	0.256	-0.102
-548.339	-23.993	-0.024	-0.015
-547.325	-66.722	-0.211	0.085
-546.310	-27.734	0.075	-0.044
-545.296	438.348	0.069	-0.153
-544.281	369.716	-0.069	-0.142
-543.266	28.550	-0.183	0.158
-542.252	61.253	0.135	-0.136
-541.237	-105.214	-0.286	0.066
-540.223	8.706	0.122	0.093
-539.208	-116.542	0.178	0.033
-538.193	167.505	-0.096	-0.139
-537.179	297.135	0.142	0.264
-536.164	282.844	-0.195	-0.356
-535.150	-200.000	-0.015	-0.405
-534.135	-200.000	-0.012	-0.117
-533.121	208.898	-0.028	0.045
-532.106	-138.099	0.096	0.011
-531.091	-200.000	-0.045	0.314
-530.077	50.932	-0.330	0.318
-529.062	-49.009	-0.273	0.133
-528.048	800.000	0.050	-0.140
-527.033	800.000	-0.051	0.161
-526.018	258.188	0.125	0.219
-525.004	119.609	-0.069	0.087
-523.989	72.169	-0.155	0.163
-522.975	419.715	-0.080	0.173
-521.960	-63.818	-0.196	-0.082
-520.945	-200.000	0.009	-0.220
-519.931	-27.174	0.256	0.151
-518.916	-102.357	0.215	0.052
-517.902	-75.700	-0.195	0.070
-516.887	-72.156	-0.119	0.045
-515.872	89.524	-0.060	0.068
-514.858	119.912	-0.102	-0.128
-513.843	800.000	0.059	-0.169
-512.829	51.921	-0.263	-0.254
-511.814	800.000	-0.088	0.250
-510.799	144.987	-0.149	-0.203
-509.785	72.823	-0.028	-0.029
-508.770	117.224	-0.107	0.134
-507.756	-91.808	0.359	0.104
-506.741	-200.000	0.001	0.185
-505.726	564.201	0.026	-0.063
-504.712	465.353	0.071	-0.161
-503.697	319.100	-0.072	-0.138
-502.683	143.275	0.096	-0.129
-501.668	-31.886	-0.143	-0.081
-500.653	-57.507	0.074	0.033
-499.639	-105.205	0.242	0.056
-498.624	800.000	0.065	-0.191
-497.610	-132.360	-0.107	0.014
-496.595	-200.000	-0.023	-0.137
-495.581	-200.000	0.032	0.145
-494.566	-94.793	-0.234	-0.064
-493.551	32.068	-0.076	0.066
-492.537	800.000	0.052	0.207
-491.522	-21.235	-0.207	-0.128
-490.508	-75.636	-0.170	0.061
-489.493	-157.228	-0.332	0.020
-488.478	-135.675	0.224	-0.027
-487.464	800.000	0.059	0.178
-486.449	-200.000	0.105	-0.489
-485.435	-59.351	-0.238	-0.104
-484.420	-32.116	-0.189	0.107
-483.405	800.000	-0.089	-0.382
-482.391	455.871	-0.148	-0.333
-481.376	28.750	-0.190	-0.163
-480.362	-176.779	0.255	0.007
-479.347	546.123	0.044	0.106
-478.332	-200.000	-0.042	-0.225
-477.318	-97.925	-0.162	0.042
-476.303	-200.000	0.015	0.104
-475.289	800.000	0.090	0.327
-474.274	-200.000	0.017	-0.366
-473.259	-93.451	0.044	0.012
-472.245	-58.346	-0.055	0.024
-471.230	-128.510	0.029	-0.004
-470.216	-200.000	0.072	0.387
-469.201	64.318	-0.051	0.052
-468.186	150.749	-0.223	-0.307
-467.172	-62.015	0.133	0.056
-466.157	-172.998	-0.046	-0.001
-465.143	-200.000	0.001	0.116
-464.128	-10.427	0.119	0.080
-463.113	-200.000	-0.014	0.158
-462.099	-200.000	0.044	0.275
-461.084	5.644	-0.055	0.041
-460.070	-41.368	0.153	-0.080
-459.055	-200.000	-0.010	0.194
-458.040	-200.000	0.009	0.165
-457.026	800.000	0.036	-0.158
-456.011	-200.000	0.030	0.351
-454.997	67.900	0.107	0.111
-453.982	-200.000	-0.003	0.120
-452.968	-90.440	0.351	-0.103
-451.953	-144.732	-0.386	-0.036
-450.938	-200.000	0.019	-0.105
-449.924	-25.340	-0.339	-0.203
-448.909	236.685	0.192	0.322
-447.895	-60.513	0.178	0.076
-446.880	-200.000	-0.013	0.310
-445.865	155.902	0.076	0.106
-444.851	-28.953	-0.246	0.143
-443.836	-167.984	0.156	-0.006
-442.822	104.403	0.093	0.111
-441.807	58.309	-0.025	-0.025
-440.792	-84.721	0.111	-0.035
-439.778	473.235	0.134	-0.307
-438.763	-98.891	0.380	0.098
-437.749	21.975	-0.253	-0.209
-436.734	60.726	0.132	-0.132
-435.719	-200.000	0.026	0.136
-434.705	-124.656	-0.167	0.026
-433.690	67.759	0.045	-0.047
-432.676	-200.000	0.009	-0.087
-431.661	-20.166	-0.145	-0.090
-430.646	-47.303	-0.202	-0.099
-429.632	-200.000	-0.023	-0.153
-428.617	-94.997	0.207	0.057
-427.603	-91.698	0.278	0.080
-426.588	800.000	-0.061	0.265
-425.573	306.145	-0.018	-0.033
-424.559	-31.197	0.254	-0.145
-423.544	800.000	-0.073	-0.295
-422.530	124.181	0.079	-0.101
-421.515	-200.000	-0.064	0.306
-420.500	171.818	0.087	-0.127
-419.486	47.846	0.227	0.214
-418.471	-200.000	-0.052	-0.444
-417.457	-73.512	-0.220	-0.081
-416.442	-138.758	0.105	0.012
-415.428	331.455	0.064	-0.126
-414.413	-200.000	0.000	-0.200
-413.398	760.072	-0.092	-0.253
-412.384	260.236	-0.088	0.154
-411.369	79.648	0.084	0.091
-410.355	-59.845	-0.143	-0.062
-409.340	-74.523	0.233	-0.085
-408.325	-60.029	0.176	0.076
-407.311	12.536	-0.157	-0.122
-406.296	31.432	0.097	-0.084
-405.282	800.000	0.083	0.289
-404.267	105.239	-0.202	-0.240
-403.252	241.005	-0.104	-0.176
-402.238	-200.000	0.040	-0.377
-401.223	-200.000	-0.027	-0.204
-400.209	-200.000	-0.008	0.075
-399.194	800.000	0.065	0.238
-398.179	-200.000	0.069	0.380
-397.165	-200.000	-0.001	0.135
-396.150	800.000	0.062	-0.197
-395.136	-153.355	0.138	0.010
-394.121	-95.170	-0.288	0.079
-393.106	-200.000	-0.037	0.199
-392.092	-200.000	-0.020	0.164
-391.077	11.771	0.228	-0.177
-390.063	-200.000	-0.002	-0.253
-389.048	-55.814	0.484	-0.219
-388.033	-8.358	0.249	-0.169
-387.019	493.654	0.180	0.418
-386.004	-200.000	0.091	0.573
-384.990	250.688	0.284	-0.488
-383.975	-146.549	0.214	0.019
-382.960	-111.930	-0.296	-0.060
-381.946	279.225	-0.103	-0.185
-380.931	-49.693	0.380	-0.182
-379.917	142.095	-0.155	-0.208
-378.902	348.212	0.194	-0.386
-377.888	30.128	0.150	-0.129
-376.873	-38.979	-0.123	-0.065
-375.858	-125.026	-0.326	0.051
-374.844	256.016	0.209	0.362
-373.829	-200.000	0.034	0.156
-372.815	449.633	-0.110	0.245
-371.800	-126.963	-0.077	-0.011
-370.785	206.681	0.034	0.053
-369.771	-47.975	0.191	0.093
-368.756	800.000	0.100	-0.375
-367.742	-189.546	-0.343	-0.004
-366.727	-200.000	-0.032	0.280
-365.712	-96.799	0.075	-0.020
-364.698	800.000	-0.086	-0.317
-363.683	-80.390	0.161	-0.054
-362.669	98.164	-0.005	0.006
-361.654	-104.014	-0.394	0.093
-360.639	441.913	0.177	-0.390
-359.625	-73.824	0.419	0.154
-358.610	59.082	-0.172	-0.171
-357.596	800.000	0.052	0.182
-356.581	17.794	-0.058	0.047
-355.566	467.798	-0.051	-0.116
-354.552	41.634	-0.200	-0.183
-353.537	-25.158	-0.033	-0.020
-352.523	61.391	-0.237	-0.238
-351.508	182.319	-0.044	-0.065
-350.493	-161.523	0.488	-0.025
-349.479	119.380	-0.112	-0.140
-348.464	-200.000	0.002	0.111
-347.450	-200.000	-0.028	-0.503
-346.435	524.514	0.114	0.270
-345.420	-74.965	0.178	0.064
-344.406	165.125	0.241	-0.343
-343.391	-118.033	-0.163	0.029
-342.377	200.005	-0.030	-0.047
-341.362	-67.617	-0.187	-0.074
-340.348	-200.000	-0.014	0.271
-339.333	328.810	-0.147	0.284
-338.318	-75.422	-0.226	0.081
-337.304	60.005	0.041	-0.041
-336.289	-65.881	-0.212	-0.085
-335.275	6.851	0.073	0.055
-334.260	-116.666	-0.062	-0.012
-333.245	81.053	0.230	-0.250
-332.231	10.417	0.252	0.194
-331.216	-98.366	0.338	0.087
-330.202	-84.527	-0.103	0.033
-329.187	-65.395	0.140	-0.057
-328.172	-154.449	-0.611	-0.041
-327.158	-43.644	-0.189	0.096
-326.143	-24.361	0.156	-0.094
-325.129	-37.757	0.273	-0.146
-324.114	652.475	0.070	-0.181
-323.099	58.486	-0.119	0.118
-322.085	-114.004	0.059	0.012
-321.070	-200.000	-0.012	0.285
-320.056	427.359	0.173	-0.376
-319.041	84.112	-0.227	0.249
-318.026	800.000	0.099	0.399
-317.012	-192.251	-0.464	0.004
-315.997	199.523	0.263	-0.407
-314.983	800.000	0.073	-0.248
-313.968	-200.000	0.015	-0.216
-312.953	-9.325	0.069	0.046
-311.939	458.855	0.146	-0.326
-310.924	800.000	0.023	0.096
-309.910	-87.537	-0.180	-0.055
-308.895	154.083	0.172	-0.238
-307.880	26.534	-0.133	0.112
-306.866	-84.355	0.295	0.094
-305.851	-4.620	0.120	-0.084
-304.837	-133.505	-0.218	-0.028
-303.822	-200.000	-0.044	0.289
-302.807	176.568	-0.215	-0.315
-301.793	36.695	-0.010	0.009
-300.778	43.842	0.270	0.249
-299.764	800.000	0.036	-0.104
-298.749	-74.293	-0.169	-0.061
-297.735	800.000	0.006	0.021
-296.720	45.145	-0.174	0.162
-295.705	23.595	-0.079	-0.065
-294.691	-56.279	-0.124	0.056
-293.676	-157.061	-0.122	-0.008
-292.662	139.455	-0.183	-0.242
-291.647	-86.340	-0.300	-0.093
-290.632	-155.717	-0.462	-0.030
-289.618	-56.445	0.331	0.148
-288.603	-185.237	-0.209	0.003
-287.589	-124.619	-0.135	0.021
-286.574	-200.000	-0.032	0.323
-285.559	800.000	0.047	0.176
-284.545	71.152	-0.281	0.293
-283.530	-200.000	-0.023	-0.129
-282.516	-20.861	-0.353	0.218
-281.501	-35.073	0.319	0.175
-280.486	447.448	0.141	0.312
-279.472	353.089	0.196	-0.391
-278.457	-4.598	0.176	0.122
-277.443	-105.188	0.260	0.060
-276.428	-172.239	-0.170	0.005
-275.413	-38.429	0.344	-0.183
-274.399	46.859	0.098	-0.091
-273.384	800.000	-0.080	-0.234
-272.370	-125.339	0.262	0.040
-271.355	342.304	0.059	0.116
-270.340	-200.000	-0.004	0.020
-269.326	155.782	-0.031	-0.042
-268.311	357.577	0.141	-0.283
-267.297	149.011	-0.145	-0.197
-266.282	-44.971	-0.130	-0.065
-265.267	3.769	0.289	0.212
-264.253	346.342	-0.104	-0.205
-263.238	-62.339	0.216	-0.090
-262.224	-200.000	-0.021	-0.148
-261.209	-200.000	-0.008	0.108
-260.195	35.262	0.225	0.198
-259.180	-106.506	0.099	0.022
-258.165	800.000	0.038	0.142
-257.151	-126.039	-0.283	0.043
-256.136	-66.891	0.152	0.060
-255.122	-148.334	-0.256	-0.021
-254.107	-200.000	-0.017	-0.088
-253.092	-88.497	0.091	0.027
-252.078	333.190	0.137	-0.266
-251.063	-14.811	0.163	-0.105
-250.049	-200.000	0.035	0.284
-249.034	28.872	-0.261	-0.222
-248.019	250.978	0.164	0.279
-247.005	507.847	0.112	0.260
-245.990	-14.311	0.232	0.150
-244.976	-73.417	0.082	-0.030
-243.961	-200.000	-0.019	0.272
-242.946	239.237	-0.151	0.252
-241.932	-200.000	0.028	0.195
-240.917	-200.000	0.046	-0.255
-239.903	27.858	-0.194	0.164
-238.888	20.505	0.048	-0.039
-237.873	282.080	0.211	-0.380
-236.859	-166.034	-0.051	-0.002
-235.844	164.085	0.149	0.211
-234.830	-200.000	-0.068	0.435
-233.815	-97.300	0.129	-0.034
-232.800	283.176	-0.072	0.130
-231.786	69.675	-0.180	-0.186
-230.771	-132.127	-0.138	-0.018
-229.757	41.435	-0.134	0.122
-228.742	-26.239	-0.054	0.032
-227.727	3.034	0.247	-0.180
-226.713	51.189	0.202	0.193
-225.698	-144.144	0.265	0.025
-224.684	-200.000	-0.040	0.258
-223.669	-100.650	-0.110	-0.027
-222.655	19.779	0.212	0.171
-221.640	91.286	0.194	-0.218
-220.625	-91.085	-0.042	0.012
-219.611	71.515	-0.071	-0.074
-218.596	85.925	-0.368	0.406
-217.582	495.506	-0.040	0.093
-216.567	136.306	-0.129	-0.169
-215.552	683.443	-0.049	0.129
-214.538	-200.000	0.114	-0.001
-213.523	-39.750	0.166	0.087
-212.509	-200.000	0.036	0.220
-211.494	-41.160	0.125	-0.065
-210.479	265.097	-0.014	-0.024
-209.465	81.486	-0.187	-0.203
-208.450	147.371	-0.166	-0.225
-207.436	132.535	-0.044	0.057
-206.421	-132.265	0.126	0.016
-205.406	42.216	0.035	-0.032
-204.392	-129.586	-0.257	0.036
-203.377	6.548	0.201	0.150
-202.363	106.922	-0.271	0.323
-201.348	64.861	-0.073	-0.074
-200.333	40.296	0.175	-0.158
-199.319	682.774	0.097	-0.253
-198.304	-41.649	0.230	-0.119
-197.290	-115.286	-0.345	-0.065
-196.275	-75.997	0.297	0.105
-195.260	44.261	0.425	-0.391
-194.246	-77.155	0.185	0.065
-193.231	134.692	0.251	-0.327
-192.217	-77.303	-0.061	-0.021
-191.202	26.898	0.255	0.215
-190.187	370.117	0.192	0.390
-189.173	-200.000	0.002	0.201
-188.158	-132.897	-0.104	0.013
-187.144	-99.418	0.206	0.052
-186.129	-200.000	-0.004	0.275
-185.114	-200.000	-0.047	-0.295
-184.100	135.302	0.122	0.159
-183.085	16.250	-0.112	0.089
-182.071	61.903	0.183	0.183
-181.056	-200.000	0.009	-0.043
-180.042	212.057	-0.097	-0.153
-179.027	-74.112	-0.461	-0.167
-178.012	-47.248	0.074	-0.036
-176.998	-50.521	0.011	0.005
-175.983	287.393	-0.152	-0.275
-174.969	274.724	-0.079	-0.141
-173.954	-149.442	0.170	0.014
-172.939	800.000	0.103	-0.299
-171.925	-135.048	-0.034	-0.004
-170.910	32.956	0.024	-0.020
-169.896	-200.000	-0.015	0.157
-168.881	-79.341	-0.087	-0.029
-167.866	558.352	0.131	0.317
-166.852	-200.000	-0.009	0.052
-165.837	-159.455	-0.203	0.011
-164.823	238.082	-0.206	0.342
-163.808	-40.094	0.212	0.111
-162.793	-200.000	0.024	0.142
-161.779	-200.000	0.011	0.171
-160.764	-39.961	-0.199	-0.104
-159.750	-200.000	-0.001	-0.173
-158.735	-147.666	-0.252	0.021
-157.720	209.252	-0.089	-0.139
-156.706	-200.000	0.003	0.371
-155.691	-159.966	-0.151	-0.008
-154.677	40.137	0.170	-0.153
-153.662	227.864	0.032	0.053
-152.647	63.381	0.071	0.071
-151.633	-31.814	-0.035	0.020
-150.618	-144.739	-0.366	0.034
-149.604	-68.839	-0.287	0.111
-148.589	-121.894	0.306	-0.051
-147.574	-93.676	-0.276	0.076
-146.560	73.687	0.222	0.233
-145.545	-35.816	-0.202	-0.110
-144.531	800.000	0.036	-0.124
-143.516	221.124	0.166	-0.267
-142.502	-200.000	-0.024	0.236
-141.487	252.331	0.140	-0.239
-140.472	-200.000	0.027	0.173
-139.458	229.565	0.178	-0.291
-138.443	665.151	-0.070	-0.181
-137.429	-175.579	-0.036	-0.001
-136.414	168.108	0.291	0.414
-135.399	-115.346	0.245	-0.046
-134.385	-17.679	0.165	-0.104
-133.370	-200.000	0.007	-0.149
-132.356	-52.593	-0.202	-0.094
-131.341	-116.713	0.133	0.025
-130.326	-42.114	0.235	0.120
-129.312	-42.746	-0.293	0.149
-128.297	3.381	0.222	0.161
-127.283	290.507	-0.142	-0.257
-126.268	800.000	0.037	0.113
-125.253	-48.433	-0.097	0.047
-124.239	-81.153	0.208	-0.069
-123.224	10.729	-0.170	-0.130
-122.210	-37.696	0.203	-0.108
