DTS Sentinel unit serial number:	SN413079Multiplexer serial number:	ORYXHardware model number:	OX4-SRSoftware version number:	ORYX F/W v4.00 Oryx Data Collector v3.7.2.0data status	okinstallation	princeton_trtdifferential loss correction	single-endedforward channel	channel 2reverse channel	N/Adate	2019/09/12time	17:17:11forward acquisition time	60.00reverse acquisition time	0.00gamma	496.2192k internal	0.2324k external	0.2324temperature offset calibration	1.0128default loss term (dB/km)	0.3790temperature slope calibration	1.0000multiplexer offset coefficient	1.0000multiplexer slope coefficient	1.0000fibre end	0.00T internal ref (°C)	35.06T ext. ref 1 (°C)	2.84T ext. ref 2 (°C)	28.86length (m)	temperature (°C)	Stokes	anti-Stokes-747.200	-42.012	-0.042	-0.022
-746.185	114.610	-0.252	0.310
-745.171	-170.538	0.102	-0.004
-744.156	301.959	-0.282	0.526
-743.142	61.796	0.170	-0.171
-742.127	652.817	-0.079	0.205
-741.112	-7.425	0.218	0.149
-740.098	-118.851	0.177	0.031
-739.083	71.721	0.058	-0.060
-738.069	-200.000	-0.015	-0.099
-737.054	-160.485	-0.175	0.009
-736.039	-33.563	-0.249	0.139
-735.025	38.970	0.115	0.104
-734.010	-57.828	0.197	-0.087
-732.996	236.608	-0.083	0.139
-731.981	124.786	0.153	-0.194
-730.966	-73.867	-0.268	-0.098
-729.952	-79.941	-0.416	-0.141
-728.937	-110.309	-0.254	0.053
-727.923	10.447	0.203	-0.156
-726.908	-4.555	-0.102	0.071
-725.894	800.000	-0.063	-0.223
-724.879	-200.000	-0.006	0.165
-723.864	51.332	-0.268	0.257
-722.850	439.449	0.029	0.064
-721.835	206.900	-0.110	0.173
-720.821	-200.000	0.030	-0.222
-719.806	-155.901	-0.247	0.016
-718.791	62.272	0.086	0.087
-717.777	-0.151	0.081	-0.058
-716.762	599.217	-0.071	-0.178
-715.748	414.526	-0.029	0.063
-714.733	-200.000	-0.095	-0.458
-713.718	312.933	-0.132	0.250
-712.704	182.991	0.122	-0.181
-711.689	-200.000	-0.024	-0.111
-710.675	-114.284	-0.080	-0.015
-709.660	2.119	-0.109	-0.079
-708.645	800.000	-0.010	-0.030
-707.631	36.658	0.111	-0.099
-706.616	-200.000	0.036	-0.185
-705.602	63.504	-0.135	0.137
-704.587	13.025	-0.342	0.267
-703.572	-28.033	-0.178	-0.104
-702.558	199.611	0.095	0.146
-701.543	448.901	0.028	-0.062
-700.529	-0.008	-0.080	-0.058
-699.514	770.463	-0.086	-0.237
-698.499	-57.180	0.288	0.128
-697.485	92.495	0.140	-0.159
-696.470	-200.000	0.013	0.129
-695.456	-138.052	-0.280	0.031
-694.441	-200.000	-0.005	-0.263
-693.426	106.611	0.219	0.261
-692.412	-200.000	0.047	0.263
-691.397	-155.129	-0.294	-0.019
-690.383	47.860	-0.167	-0.157
-689.368	20.572	0.240	-0.195
-688.354	-200.000	0.025	-0.222
-687.339	-114.575	-0.547	0.106
-686.324	73.726	-0.204	0.215
-685.310	38.929	0.103	0.093
-684.295	-200.000	0.042	-0.299
-683.281	213.149	-0.278	-0.442
-682.266	800.000	-0.099	-0.354
-681.251	800.000	-0.033	0.106
-680.237	800.000	-0.047	0.155
-679.222	-200.000	0.002	-0.254
-678.208	218.389	0.053	-0.085
-677.193	22.947	0.202	-0.167
-676.178	-200.000	-0.012	0.180
-675.164	-95.810	0.170	-0.046
-674.149	595.413	0.112	-0.278
-673.135	393.292	0.098	-0.205
-672.120	-200.000	-0.000	-0.135
-671.105	182.252	-0.070	0.104
-670.091	190.714	0.033	-0.049
-669.076	-200.000	-0.023	-0.405
-668.062	297.893	-0.084	-0.156
-667.047	-171.112	-0.115	-0.004
-666.032	-150.038	0.537	-0.042
-665.018	800.000	-0.057	0.205
-664.003	-144.344	0.158	0.015
-662.989	-200.000	-0.023	-0.113
-661.974	-200.000	0.055	0.269
-660.959	-200.000	-0.007	0.135
-659.945	286.080	-0.142	-0.257
-658.930	157.433	-0.071	-0.100
-657.916	550.996	0.144	0.348
-656.901	-76.558	-0.243	-0.086
-655.886	580.873	-0.011	0.028
-654.872	-86.667	0.218	-0.067
-653.857	-32.881	-0.121	-0.067
-652.843	800.000	-0.054	-0.159
-651.828	278.589	0.118	-0.211
-650.814	-200.000	-0.104	-0.462
-649.799	603.817	0.045	-0.112
-648.784	-111.178	0.147	-0.030
-647.770	-18.863	0.238	-0.149
-646.755	800.000	-0.083	0.272
-645.741	34.163	-0.233	0.204
-644.726	-142.385	0.373	0.037
-643.711	-200.000	-0.017	0.089
-642.697	323.024	-0.137	0.262
-641.682	486.819	-0.058	-0.132
-640.668	-1.821	-0.276	0.196
-639.653	272.621	0.090	0.160
-638.638	-200.000	-0.034	-0.348
-637.624	-15.458	0.046	0.029
-636.609	79.701	-0.033	-0.036
-635.595	-117.339	0.189	0.034
-634.580	-200.000	-0.046	0.230
-633.565	-110.520	-0.149	0.031
-632.551	-25.046	-0.093	-0.055
-631.536	78.700	0.151	0.162
-630.522	-22.562	0.072	-0.044
-629.507	800.000	-0.072	-0.233
-628.492	-108.330	0.220	0.048
-627.478	-200.000	0.064	-0.327
-626.463	-157.207	-0.137	-0.008
-625.449	185.812	0.074	0.110
-624.434	-5.043	-0.114	0.079
-623.419	800.000	-0.033	0.103
-622.405	-65.011	-0.098	0.040
-621.390	-200.000	-0.000	0.154
-620.376	12.885	0.324	-0.252
-619.361	-0.682	0.182	0.129
-618.346	-51.166	0.286	-0.135
-617.332	-200.000	0.057	-0.470
-616.317	386.593	0.014	-0.030
-615.303	6.947	-0.129	-0.097
-614.288	145.128	0.107	0.144
-613.273	277.710	-0.120	0.214
-612.259	-0.221	0.405	0.289
-611.244	-123.917	-0.275	0.043
-610.230	-7.999	-0.063	0.043
-609.215	-154.382	-0.377	-0.025
-608.201	-200.000	-0.022	-0.196
-607.186	62.292	0.050	0.050
-606.171	-200.000	-0.016	-0.130
-605.157	63.474	-0.131	-0.132
-604.142	-200.000	0.015	-0.177
-603.128	395.043	0.042	0.089
-602.113	-141.376	0.288	-0.029
-601.098	3.868	-0.269	0.197
-600.084	111.170	-0.179	0.217
-599.069	-200.000	0.014	-0.153
-598.055	-24.758	-0.133	-0.079
-597.040	-200.000	0.049	-0.324
-596.025	-5.726	0.135	0.093
-595.011	-47.166	0.151	-0.074
-593.996	-73.170	0.172	0.063
-592.982	-52.650	-0.558	-0.258
-591.967	228.183	-0.069	0.113
-590.952	-200.000	-0.021	0.244
-589.938	-200.000	-0.072	0.332
-588.923	112.515	0.132	0.160
-587.909	-200.000	-0.010	0.095
-586.894	142.867	-0.088	-0.117
-585.879	191.788	-0.122	0.184
-584.865	800.000	-0.177	-0.615
-583.850	-200.000	0.036	-0.297
-582.836	-107.627	-0.242	-0.053
-581.821	209.151	-0.127	0.200
-580.806	-83.535	0.245	0.079
-579.792	167.750	-0.035	-0.050
-578.777	-127.030	-0.268	0.039
-577.763	-200.000	-0.037	-0.287
-576.748	106.866	0.179	-0.213
-575.733	-99.109	0.005	-0.001
-574.719	103.645	-0.227	-0.267
-573.704	315.902	0.123	-0.234
-572.690	-81.299	-0.136	0.045
-571.675	276.490	0.097	0.173
-570.661	-80.816	-0.321	0.107
-569.646	-200.000	0.030	0.251
-568.631	800.000	-0.064	-0.252
-567.617	460.672	-0.099	0.221
-566.602	-145.715	0.181	0.016
-565.588	90.055	-0.133	-0.149
-564.573	-101.920	0.206	0.050
-563.558	-148.003	0.240	0.020
-562.544	-71.714	-0.355	0.133
-561.529	800.000	0.066	0.190
-560.515	-134.847	-0.165	-0.020
-559.500	-145.423	-0.225	0.020
-558.485	-200.000	-0.004	-0.309
-557.471	-141.192	0.189	0.019
-556.456	249.505	0.106	0.180
-555.442	229.159	0.087	-0.141
-554.427	-117.927	-0.269	0.048
-553.412	14.868	-0.178	0.139
-552.398	-100.483	0.350	-0.087
-551.383	6.913	-0.181	-0.135
-550.369	176.365	-0.066	0.096
-549.354	122.966	-0.182	0.228
-548.339	800.000	-0.094	-0.308
-547.325	426.584	-0.076	0.165
-546.310	-162.608	-0.275	-0.014
-545.296	323.355	0.073	0.140
-544.281	11.380	-0.208	0.160
-543.266	-200.000	0.022	0.201
-542.252	47.765	0.114	-0.106
-541.237	-0.691	-0.346	-0.246
-540.223	800.000	0.076	0.279
-539.208	800.000	-0.056	0.185
-538.193	87.660	0.160	-0.177
-537.179	-73.725	-0.409	-0.149
-536.164	100.573	-0.192	0.223
-535.150	-95.089	-0.316	-0.085
-534.135	-97.331	0.399	-0.104
-533.121	784.103	-0.252	0.691
-532.106	-111.509	0.102	-0.021
-531.091	124.117	-0.067	-0.085
-530.077	314.180	-0.108	-0.204
-529.062	800.000	0.064	-0.176
-528.048	279.071	-0.081	-0.144
-527.033	-200.000	-0.001	0.244
-526.018	800.000	0.055	-0.189
-525.004	-200.000	-0.004	-0.024
-523.989	-200.000	-0.010	-0.114
-522.975	-200.000	0.043	-0.321
-521.960	-62.804	0.560	-0.232
-520.945	-137.432	-0.436	-0.049
-519.931	-97.356	-0.339	-0.088
-518.916	800.000	0.069	0.277
-517.902	-0.026	0.199	0.142
-516.887	-49.497	-0.197	0.094
-515.872	147.707	-0.149	0.201
-514.858	589.742	-0.019	-0.047
-513.843	10.327	0.277	0.211
-512.829	55.425	-0.244	0.236
-511.814	152.266	0.154	0.211
-510.799	-200.000	0.031	-0.250
-509.785	800.000	-0.035	0.102
-508.770	-29.771	0.214	-0.122
-507.756	-53.416	0.324	0.149
-506.741	-200.000	-0.040	-0.204
-505.726	-200.000	-0.051	0.279
-504.712	-144.302	0.358	-0.033
-503.697	13.653	0.408	0.317
-502.683	12.819	-0.321	0.248
-501.668	-12.435	-0.258	0.169
-500.653	-90.368	0.190	-0.055
-499.639	800.000	0.119	0.350
-498.624	-71.609	0.205	-0.077
-497.610	-61.927	-0.407	0.170
-496.595	800.000	-0.089	0.291
-495.581	626.110	0.088	-0.221
-494.566	-200.000	0.011	0.146
-493.551	800.000	-0.039	-0.153
-492.537	-91.374	-0.290	-0.083
-491.522	800.000	-0.016	-0.051
-490.508	-90.774	0.477	-0.137
-489.493	-104.777	-0.256	0.059
-488.478	-1.413	-0.017	-0.012
-487.464	-200.000	-0.214	-0.000
-486.449	800.000	-0.009	-0.031
-485.435	-58.352	-0.045	-0.019
-484.420	-200.000	0.054	0.365
-483.405	44.928	-0.233	0.215
-482.391	274.318	0.073	0.129
-481.376	-87.140	0.140	0.043
-480.362	-55.040	-0.193	0.087
-479.347	-73.298	0.221	0.081
-478.332	-200.000	0.112	0.506
-477.318	339.598	-0.092	0.180
-476.303	-175.235	0.487	-0.013
-475.289	-200.000	0.020	-0.193
-474.274	358.543	-0.092	0.183
-473.259	-123.799	-0.074	0.012
-472.245	240.424	-0.221	-0.368
-471.230	258.732	-0.132	0.227
-470.216	-140.346	0.111	-0.012
-469.201	-90.992	-0.137	0.039
-468.186	-17.561	-0.342	-0.215
-467.172	8.482	-0.159	-0.119
-466.157	-200.000	0.010	-0.104
-465.143	-47.650	-0.227	-0.110
-464.128	-200.000	0.008	0.351
-463.113	138.530	-0.124	0.163
-462.099	177.702	0.088	-0.128
-461.084	-8.535	0.194	0.130
-460.070	-200.000	-0.052	0.353
-459.055	800.000	-0.077	0.230
-458.040	-7.018	0.107	-0.072
-457.026	-98.899	0.245	-0.062
-456.011	-171.036	-0.353	0.012
-454.997	233.459	-0.101	-0.166
-453.982	81.546	0.264	0.285
-452.968	-26.742	-0.174	-0.101
-451.953	-200.000	0.012	-0.345
-450.938	-0.571	0.282	-0.200
-449.924	120.943	-0.127	0.158
-448.909	-57.550	-0.206	0.090
-447.895	-200.000	-0.013	-0.181
-446.880	-200.000	-0.018	0.258
-445.865	-152.100	-0.384	-0.028
-444.851	-135.184	0.270	0.032
-443.836	-5.923	0.181	0.124
-442.822	771.428	-0.139	-0.378
-441.807	226.068	-0.063	-0.101
-440.792	139.282	0.054	0.071
-439.778	-108.778	-0.141	-0.030
-438.763	800.000	0.093	0.373
-437.749	88.391	-0.051	-0.056
-436.734	21.986	0.252	0.205
-435.719	124.365	-0.018	-0.023
-434.705	90.410	-0.052	-0.058
-433.690	-47.857	-0.047	-0.023
-432.676	-122.595	-0.506	0.082
-431.661	-200.000	0.023	0.214
-430.646	-17.148	-0.311	0.196
-429.632	-200.000	-0.005	0.105
-428.617	274.732	-0.187	0.330
-427.603	131.853	0.082	-0.105
-426.588	97.471	-0.186	-0.213
-425.573	297.215	-0.123	0.225
-424.559	26.189	-0.216	0.180
-423.544	800.000	0.038	0.135
-422.530	-73.352	-0.092	-0.033
-421.515	-200.000	-0.005	-0.033
-420.500	-168.921	0.202	0.008
-419.486	16.996	0.173	0.136
-418.471	-100.000	-0.353	-0.088
-417.457	56.812	0.200	0.194
-416.442	237.248	-0.015	-0.025
-415.428	-85.780	-0.149	0.046
-414.413	-39.504	0.149	-0.078
-413.398	-39.647	-0.296	0.154
-412.384	-200.000	0.059	0.406
-411.369	800.000	0.001	-0.002
-410.355	-11.573	-0.051	-0.033
-409.340	-125.714	-0.128	0.019
-408.325	-91.904	-0.068	0.019
-407.311	-110.541	0.303	0.063
-406.296	800.000	-0.037	0.155
-405.282	-200.000	0.023	-0.409
-404.267	-102.387	-0.382	0.091
-403.252	-152.036	-0.218	0.016
-402.238	-200.000	0.091	-0.584
-401.223	-50.232	-0.169	-0.080
-400.209	-41.637	0.131	0.067
-399.194	511.005	0.089	-0.207
-398.179	-98.581	0.526	-0.134
-397.165	-150.849	-0.130	-0.010
-396.150	-200.000	0.004	0.250
-395.136	670.385	0.080	-0.207
-394.121	-172.814	0.291	0.009
-393.106	-200.000	-0.039	0.184
-392.092	-6.164	0.187	0.127
-391.077	153.101	0.113	-0.154
-390.063	800.000	0.055	0.237
-389.048	206.637	0.172	-0.267
-388.033	3.704	-0.098	-0.071
-387.019	-53.764	-0.134	-0.061
-386.004	-48.793	-0.265	0.126
-384.990	-119.165	0.253	0.044
-383.975	-40.952	0.194	-0.100
-382.960	800.000	-0.095	0.349
-381.946	-200.000	0.046	0.271
-380.931	193.025	0.034	0.051
-379.917	-200.000	0.006	-0.203
-378.902	-130.426	-0.098	0.013
-377.888	-112.493	-0.371	-0.074
-376.873	-200.000	-0.022	-0.195
-375.858	-200.000	0.004	-0.087
-374.844	125.182	0.222	0.279
-373.829	6.163	-0.149	-0.110
-372.815	800.000	-0.147	-0.415
-371.800	178.604	0.106	0.154
-370.785	471.570	-0.102	-0.228
-369.771	-100.838	0.313	0.077
-368.756	61.272	0.112	0.110
-367.742	800.000	-0.075	0.250
-366.727	-200.000	-0.028	-0.152
-365.712	-200.000	-0.057	-0.300
-364.698	470.571	-0.188	-0.421
-363.683	-123.655	0.209	-0.033
-362.669	-24.909	0.257	0.151
-361.654	800.000	0.131	-0.498
-360.639	484.500	-0.063	-0.142
-359.625	207.249	0.112	0.173
-358.610	33.711	0.127	0.110
-357.596	-172.406	-0.554	0.018
-356.581	-16.414	0.234	0.147
-355.566	-137.114	0.147	-0.017
-354.552	367.919	0.055	-0.111
-353.537	-32.103	0.214	-0.119
-352.523	72.491	0.146	-0.151
-351.508	-200.000	0.007	0.031
-350.493	-200.000	-0.025	-0.445
-349.479	800.000	-0.049	-0.142
-348.464	152.618	0.232	0.315
-347.450	800.000	-0.059	-0.181
-346.435	186.498	0.097	-0.144
-345.420	-104.301	0.379	-0.087
-344.406	800.000	-0.059	-0.198
-343.391	481.558	0.024	0.054
-342.377	-92.623	0.292	0.081
-341.362	-1.589	0.134	-0.094
-340.348	-200.000	0.011	0.063
-339.333	49.470	0.142	0.133
-338.318	-73.769	-0.225	-0.081
-337.304	-16.838	-0.155	0.097
-336.289	-113.236	-0.112	-0.022
-335.275	-22.991	-0.230	-0.138
-334.260	-111.107	-0.398	0.081
-333.245	-47.289	0.145	-0.070
-332.231	716.261	0.075	0.197
-331.216	41.201	-0.220	0.198
-330.202	19.578	-0.374	-0.299
-329.187	-183.255	-0.212	0.004
-328.172	-139.528	-0.168	-0.018
-327.158	-146.013	-0.171	0.015
-326.143	-101.992	-0.237	0.057
-325.129	114.066	0.096	0.116
-324.114	-200.000	0.045	0.211
-323.099	-35.272	-0.129	0.070
-322.085	20.347	0.105	0.084
-321.070	111.008	0.194	-0.232
-320.056	-113.757	-0.314	-0.061
-319.041	-200.000	0.037	-0.368
-318.026	52.362	0.135	-0.128
-317.012	22.296	0.249	0.202
-315.997	-51.922	-0.272	-0.126
-314.983	-152.895	0.404	0.028
-313.968	78.662	-0.112	0.119
-312.953	212.218	0.057	0.089
-311.939	-122.084	0.322	-0.052
-310.924	71.236	0.132	-0.135
-309.910	-97.431	-0.175	0.045
-308.895	-200.000	-0.065	0.426
-307.880	-134.930	0.184	0.022
-306.866	11.008	0.287	-0.218
-305.851	19.446	0.250	-0.199
-304.837	800.000	-0.123	0.376
-303.822	-200.000	0.073	0.541
-302.807	329.721	0.219	-0.419
-301.793	231.092	0.257	-0.417
-300.778	-141.924	-0.165	-0.016
-299.764	75.847	0.324	0.340
-298.749	16.210	0.121	0.095
-297.735	129.215	-0.166	-0.210
-296.720	248.619	0.042	-0.071
-295.705	105.386	0.144	-0.168
-294.691	106.871	-0.065	-0.076
-293.676	192.925	0.188	-0.282
-292.662	161.557	0.182	-0.253
-291.647	299.968	0.170	-0.310
-290.632	-97.502	-0.144	-0.037
-289.618	800.000	-0.079	0.226
-288.603	540.961	0.195	-0.459
-287.589	800.000	0.015	0.063
-286.574	-200.000	0.012	-0.364
-285.559	-75.450	-0.122	-0.043
-284.545	-135.496	-0.342	0.040
-283.530	138.579	-0.184	0.239
-282.516	165.240	-0.153	0.215
-281.501	336.358	0.038	0.073
-280.486	-76.325	0.083	-0.029
-279.472	332.309	0.041	-0.078
-278.457	-61.562	0.310	-0.129
-277.443	-26.075	-0.171	-0.099
-276.428	38.415	-0.245	0.216
-275.413	800.000	-0.070	-0.199
-274.399	31.956	-0.345	0.295
-273.384	-35.660	0.085	0.046
-272.370	103.016	-0.226	-0.262
-271.355	106.353	-0.146	-0.171
-270.340	783.896	-0.123	0.333
-269.326	-51.184	-0.193	0.089
-268.311	86.268	0.234	-0.255
-267.297	800.000	-0.076	-0.270
-266.282	259.502	0.176	0.301
-265.267	-78.090	-0.119	-0.041
-264.253	-56.404	-0.185	0.081
-263.238	396.140	0.193	-0.400
-262.224	800.000	0.107	-0.296
-261.209	-188.875	-0.312	-0.004
-260.195	473.637	0.128	-0.286
-259.180	245.307	-0.176	-0.293
-258.165	17.703	-0.208	0.164
-257.151	128.656	-0.239	-0.302
-256.136	-200.000	0.021	0.107
-255.122	-4.390	0.194	-0.133
-254.107	-134.908	0.311	0.037
-253.092	-28.516	0.173	0.099
-252.078	-73.536	-0.210	0.076
-251.063	-42.258	-0.168	0.085
-250.049	127.892	0.140	0.176
-249.034	-122.456	0.147	-0.024
-248.019	-7.964	0.207	0.138
-247.005	505.603	-0.160	-0.367
-245.990	-4.627	-0.276	0.189
-244.976	-200.000	0.031	0.167
-243.961	800.000	0.034	-0.114
-242.946	-70.179	-0.228	0.086
-241.932	662.268	0.036	0.092
-240.917	89.886	-0.068	0.075
-239.903	800.000	-0.029	-0.116
-238.888	-200.000	0.021	-0.247
-237.873	-93.074	0.238	0.066
-236.859	295.230	0.116	-0.210
-235.844	454.249	-0.043	-0.094
-234.830	-189.053	-0.341	-0.004
-233.815	-200.000	-0.008	0.153
-232.800	800.000	0.051	0.198
-231.786	144.595	0.076	0.101
-230.771	-5.825	0.214	0.145
-229.757	748.832	-0.119	0.317
-228.742	-31.857	0.098	-0.055
-227.727	234.991	-0.091	-0.149
-226.713	-54.803	0.485	0.217
-225.698	71.230	-0.232	-0.238
-224.684	444.445	0.089	0.194
-223.669	-200.000	-0.025	0.138
-222.655	7.674	-0.073	-0.054
-221.640	-19.012	0.202	-0.124
-220.625	-91.327	0.089	0.025
-219.611	800.000	0.006	0.018
-218.596	708.595	0.087	0.227
-217.582	-200.000	-0.077	0.393
-216.567	-103.520	-0.126	0.029
-215.552	123.029	-0.147	-0.182
-214.538	124.453	0.137	0.170
-213.523	-37.947	-0.125	-0.066
-212.509	-84.090	-0.118	0.037
-211.494	800.000	-0.095	0.279
-210.479	-78.558	0.294	0.099
-209.465	-200.000	0.107	-0.482
-208.450	71.311	-0.215	-0.220
-207.436	-200.000	-0.046	-0.294
-206.421	36.761	0.167	-0.146
-205.406	-95.250	0.279	0.074
-204.392	800.000	0.047	-0.172
-203.377	800.000	-0.032	0.131
-202.363	158.739	-0.092	0.126
-201.348	-200.000	0.021	0.172
-200.333	397.227	0.014	-0.029
-199.319	-164.979	0.064	0.003
-198.304	-30.009	0.402	-0.226
-197.290	-156.871	0.377	-0.023
-196.275	292.649	0.097	0.175
-195.260	58.432	0.169	-0.164
-194.246	-123.805	-0.208	0.032
-193.231	-200.000	-0.028	-0.211
-192.217	90.146	-0.157	0.173
-191.202	800.000	-0.033	0.105
-190.187	-74.639	-0.247	0.088
-189.173	318.690	0.100	0.186
-188.158	-53.258	0.272	0.123
-187.144	-200.000	0.051	-0.339
-186.129	110.576	-0.181	-0.214
-185.114	51.189	0.113	-0.106
-184.100	-200.000	0.005	0.072
-183.085	-181.924	0.070	0.001
-182.071	-23.242	0.110	-0.065
-181.056	-200.000	-0.010	-0.276
-180.042	-155.734	0.133	0.008
-179.027	-180.705	0.155	-0.003
-178.012	800.000	-0.026	0.072
-176.998	-200.000	-0.018	0.143
-175.983	275.123	-0.112	0.196
-174.969	48.095	-0.189	0.174
-173.954	-200.000	0.413	0.000
-172.939	210.101	0.153	-0.237
-171.925	268.924	0.095	-0.164
-170.910	-33.101	0.255	-0.139
-169.896	-134.213	0.096	0.012
-168.881	453.098	0.025	0.054
-167.866	-85.147	0.299	0.092
-166.852	-22.709	0.276	-0.164
-165.837	-200.000	-0.041	-0.260
-164.823	-200.000	0.056	0.368
-163.808	-200.000	0.035	0.276
-162.793	-82.616	0.191	-0.061
-161.779	800.000	-0.066	-0.256
-160.764	463.017	0.234	0.517
-159.750	-80.018	0.188	-0.062
-158.735	92.167	0.212	-0.236
-157.720	10.072	0.200	-0.150
-156.706	-90.218	-0.121	-0.035
-155.691	83.056	0.133	-0.143
-154.677	-200.000	0.003	-0.352
-153.662	-104.352	-0.363	-0.083
-152.647	-200.000	-0.016	0.197
-151.633	21.473	0.236	-0.189
-150.618	186.423	-0.114	0.168
-149.604	-42.328	0.197	-0.099
-148.589	660.364	0.147	-0.373
-147.574	-109.194	0.021	-0.004
-146.560	-115.989	0.250	-0.046
-145.545	-106.997	0.315	0.069
-144.531	237.913	0.154	-0.252
-143.516	566.703	0.128	-0.306
-142.502	-200.000	0.003	0.161
-141.487	0.701	-0.289	0.204
-140.472	-77.568	-0.304	0.104
-139.458	696.862	0.099	-0.255
-138.443	83.402	-0.155	-0.167
-137.429	-200.000	0.014	0.313
-136.414	800.000	0.059	0.185
-135.399	-200.000	-0.005	0.223
-134.385	42.446	0.255	0.229
-133.370	-45.525	0.225	-0.110
-132.356	-42.387	0.095	0.048
-131.341	799.452	0.063	0.171
-130.326	539.589	0.080	0.188
-129.312	-153.992	0.052	0.004
-128.297	800.000	-0.050	0.193
-127.283	-4.974	0.104	0.071
-126.268	-92.453	-0.041	-0.011
-125.253	-49.073	0.179	0.085
-124.239	116.155	-0.083	0.101
-123.224	571.406	0.061	0.146
-122.210	-200.000	0.029	-0.271
