DTS Sentinel unit serial number:	SN413079Multiplexer serial number:	ORYXHardware model number:	OX4-SRSoftware version number:	ORYX F/W v4.00 Oryx Data Collector v3.7.2.0data status	okinstallation	princeton_trtdifferential loss correction	single-endedforward channel	channel 2reverse channel	N/Adate	2019/09/17time	16:27:35forward acquisition time	60.00reverse acquisition time	0.00gamma	496.2192k internal	0.2293k external	0.2293temperature offset calibration	0.9985default loss term (dB/km)	0.3790temperature slope calibration	1.0000multiplexer offset coefficient	1.0000multiplexer slope coefficient	1.0000fibre end	0.00T internal ref (°C)	41.42T ext. ref 1 (°C)	0.36T ext. ref 2 (°C)	38.52length (m)	temperature (°C)	Stokes	anti-Stokes-747.200	-200.000	0.029	-0.142
-746.185	449.536	-0.131	0.295
-745.171	7.524	0.122	-0.094
-744.156	800.000	-0.038	-0.134
-743.142	204.444	-0.131	0.208
-742.127	-2.473	0.339	0.243
-741.112	-200.000	-0.066	0.381
-740.098	133.523	-0.131	0.173
-739.083	-8.886	-0.235	-0.161
-738.069	-67.454	0.223	0.090
-737.054	800.000	-0.051	0.168
-736.039	303.586	-0.291	-0.552
-735.025	47.364	-0.206	0.196
-734.010	-200.000	-0.012	0.140
-732.996	-112.824	-0.268	0.054
-731.981	-200.000	0.032	-0.168
-730.966	-127.290	0.294	-0.044
-729.952	-128.464	-0.170	0.025
-728.937	4.454	-0.268	0.201
-727.923	439.653	-0.090	0.201
-726.908	-65.539	-0.332	0.136
-725.894	53.279	0.128	-0.125
-724.879	241.579	0.116	0.199
-723.864	14.238	-0.398	0.317
-722.850	-200.000	0.004	-0.092
-721.835	800.000	0.068	-0.192
-720.821	800.000	-0.096	-0.277
-719.806	41.162	0.326	-0.301
-718.791	188.418	-0.078	-0.120
-717.777	-136.953	0.288	0.034
-716.762	800.000	0.093	0.299
-715.748	47.714	0.092	0.088
-714.733	171.795	-0.011	-0.017
-713.718	5.946	-0.101	0.076
-712.704	-132.009	-0.195	-0.026
-711.689	108.113	0.104	0.127
-710.675	-180.701	-0.281	0.006
-709.660	-200.000	-0.019	-0.156
-708.645	-200.000	0.022	0.231
-707.631	-200.000	-0.081	0.480
-706.616	-200.000	-0.062	-0.593
-705.602	18.564	0.215	0.176
-704.587	42.048	0.063	-0.058
-703.572	-115.278	-0.206	-0.040
-702.558	68.656	-0.129	0.135
-701.543	-30.899	0.143	0.083
-700.529	-200.000	0.015	-0.075
-699.514	-157.755	-0.115	-0.007
-698.499	-137.757	0.129	0.015
-697.485	386.134	-0.170	-0.359
-696.470	-132.853	-0.196	-0.026
-695.456	46.190	0.184	0.174
-694.441	800.000	0.032	-0.121
-693.426	-34.054	0.121	-0.068
-692.412	-72.016	0.315	0.120
-691.397	-200.000	0.032	0.162
-690.383	800.000	0.055	0.193
-689.368	364.492	0.043	0.088
-688.354	267.701	-0.105	-0.187
-687.339	-93.040	-0.227	0.064
-686.324	-28.922	-0.242	-0.142
-685.310	146.590	0.034	-0.046
-684.295	-36.115	-0.416	-0.229
-683.281	67.274	-0.176	-0.183
-682.266	-176.723	0.112	0.003
-681.251	25.823	-0.136	0.116
-680.237	-200.000	0.011	-0.261
-679.222	800.000	-0.073	-0.211
-678.208	60.288	0.100	0.101
-677.193	-137.200	-0.119	-0.014
-676.178	-200.000	0.066	-0.357
-675.164	-120.212	-0.361	0.063
-674.149	-139.467	0.100	-0.011
-673.135	-46.093	-0.261	0.131
-672.120	215.834	0.091	-0.148
-671.105	-138.487	0.295	-0.033
-670.091	331.063	0.123	-0.241
-669.076	-200.000	-0.076	-0.427
-668.062	76.680	-0.077	0.083
-667.047	-200.000	-0.022	-0.098
-666.032	61.706	0.089	-0.090
-665.018	-187.971	-0.069	-0.001
-664.003	53.222	0.218	-0.213
-662.989	32.501	0.084	-0.074
-661.974	4.432	0.117	-0.087
-660.959	-200.000	0.041	-0.254
-659.945	-11.615	0.285	-0.191
-658.930	-146.987	0.143	-0.012
-657.916	140.946	0.060	-0.081
-656.901	509.522	0.081	-0.192
-655.886	-200.000	0.020	-0.292
-654.872	-69.293	0.124	0.049
-653.857	-91.099	0.178	0.052
-652.843	178.351	0.132	-0.196
-651.828	55.811	0.121	0.120
-650.814	147.733	-0.081	0.112
-649.799	-24.081	-0.224	-0.136
-648.784	800.000	-0.035	-0.128
-647.770	266.917	0.180	-0.321
-646.755	223.916	-0.077	-0.127
-645.741	-200.000	-0.068	-0.306
-644.726	69.841	-0.187	0.197
-643.711	155.301	0.122	-0.171
-642.697	151.504	-0.171	-0.237
-641.682	800.000	0.030	0.129
-640.668	-200.000	-0.006	-0.056
-639.653	228.469	0.092	0.153
-638.638	-79.493	-0.104	0.036
-637.624	800.000	-0.113	0.503
-636.609	-141.436	-0.294	0.030
-635.595	800.000	-0.075	-0.219
-634.580	14.196	-0.406	-0.322
-633.565	-94.018	0.194	-0.054
-632.551	156.385	0.189	0.265
-631.536	-84.759	0.126	-0.040
-630.522	-200.000	0.016	0.091
-629.507	-200.000	-0.036	-0.284
-628.492	-200.000	-0.004	-0.191
-627.478	279.870	-0.109	-0.198
-626.463	-102.114	0.235	0.058
-625.449	-71.933	-0.314	-0.119
-624.434	-200.000	0.026	-0.482
-623.419	-68.497	-0.109	-0.043
-622.405	393.196	-0.064	0.135
-621.390	-200.000	0.017	0.145
-620.376	-200.000	-0.016	-0.149
-619.361	-6.344	0.411	0.286
-618.346	225.139	-0.128	0.212
-617.332	198.572	-0.038	0.059
-616.317	-200.000	-0.034	-0.265
-615.303	-126.239	-0.165	-0.025
-614.288	68.003	0.052	-0.054
-613.273	341.563	-0.092	-0.183
-612.259	10.049	0.196	0.152
-611.244	129.208	-0.198	-0.258
-610.230	-200.000	0.023	0.129
-609.215	760.339	-0.043	0.117
-608.201	5.133	0.274	0.205
-607.186	-121.818	0.179	-0.030
-606.171	-78.099	0.146	0.051
-605.157	800.000	-0.071	0.251
-604.142	2.972	0.090	0.067
-603.128	-200.000	0.005	-0.095
-602.113	-110.521	0.021	0.004
-601.098	-200.000	-0.020	0.110
-600.084	-126.777	0.141	-0.021
-599.069	-141.516	0.089	0.009
-598.055	800.000	-0.155	0.473
-597.040	541.055	-0.130	0.315
-596.025	800.000	0.039	0.168
-595.011	29.034	-0.048	0.041
-593.996	153.597	-0.200	-0.279
-592.982	5.060	-0.210	0.158
-591.967	266.379	0.059	-0.105
-590.952	-176.978	0.108	0.003
-589.938	-8.723	0.054	-0.037
-588.923	-2.839	-0.069	-0.049
-587.909	222.669	-0.080	0.131
-586.894	225.583	0.164	0.271
-585.879	800.000	-0.085	-0.252
-584.865	350.094	-0.226	-0.454
-583.850	497.387	0.139	0.325
-582.836	-22.592	0.195	-0.120
-581.821	198.056	0.072	-0.112
-580.806	111.355	0.188	-0.231
-579.792	367.947	0.049	-0.101
-578.777	161.590	-0.219	-0.312
-577.763	-114.011	-0.027	-0.005
-576.748	800.000	-0.102	0.353
-575.733	395.300	-0.156	0.330
-574.719	540.463	-0.181	0.439
-573.704	-27.286	-0.126	0.075
-572.690	60.276	-0.320	0.322
-571.675	-155.493	0.119	0.008
-570.661	-200.000	-0.017	0.092
-569.646	188.252	-0.144	-0.219
-568.631	-200.000	-0.002	-0.093
-567.617	-200.000	-0.168	0.000
-566.602	-200.000	-0.006	0.198
-565.588	-200.000	0.013	-0.142
-564.573	279.039	-0.057	-0.104
-563.558	70.123	-0.078	-0.082
-562.544	362.827	0.041	-0.084
-561.529	-200.000	0.029	0.204
-560.515	261.272	0.032	0.056
-559.500	-200.000	0.005	0.156
-558.485	136.923	0.276	0.367
-557.471	-136.765	-0.119	-0.014
-556.456	542.529	0.076	-0.184
-555.442	326.846	-0.060	-0.116
-554.427	108.352	0.100	-0.121
-553.412	-179.904	-0.117	-0.003
-552.398	-65.651	-0.042	0.017
-551.383	-200.000	-0.009	0.064
-550.369	-200.000	0.033	-0.165
-549.354	-10.697	0.270	0.181
-548.339	-200.000	0.022	-0.132
-547.325	-200.000	0.001	-0.217
-546.310	-200.000	0.028	0.253
-545.296	31.553	-0.294	-0.257
-544.281	-35.171	-0.316	0.175
-543.266	-74.520	-0.244	0.089
-542.252	-130.485	-0.129	-0.018
-541.237	35.832	-0.202	-0.180
-540.223	60.246	-0.093	-0.094
-539.208	-200.000	-0.048	-0.419
-538.193	-122.586	-0.298	0.049
-537.179	636.197	0.063	-0.162
-536.164	-200.000	-0.054	0.319
-535.150	472.401	0.083	-0.189
-534.135	-200.000	0.009	-0.112
-533.121	473.374	-0.047	-0.107
-532.106	20.528	0.164	-0.135
-531.091	119.829	-0.161	-0.202
-530.077	800.000	0.099	-0.303
-529.062	-167.095	-0.330	0.014
-528.048	800.000	-0.044	-0.127
-527.033	-200.000	0.005	-0.375
-526.018	800.000	-0.073	-0.283
-525.004	147.766	-0.198	0.270
-523.989	-7.821	0.096	0.066
-522.975	-200.000	0.009	0.071
-521.960	-114.334	-0.211	-0.041
-520.945	104.436	-0.071	0.085
-519.931	-4.079	0.214	0.150
-518.916	-93.225	0.132	0.037
-517.902	416.055	-0.055	-0.119
-516.887	55.759	-0.185	-0.182
-515.872	-167.334	0.053	0.002
-514.858	-63.079	-0.260	0.109
-513.843	-200.000	-0.068	0.405
-512.829	38.061	-0.239	-0.216
-511.814	-45.953	-0.131	0.065
-510.799	107.372	0.039	0.047
-509.785	-200.000	0.035	-0.319
-508.770	-149.156	-0.329	-0.027
-507.756	78.522	0.178	-0.193
-506.741	-128.662	-0.255	-0.036
-505.726	-17.463	-0.290	-0.185
-504.712	78.977	0.137	-0.148
-503.697	109.996	-0.165	-0.201
-502.683	-160.458	0.368	0.020
-501.668	-200.000	-0.037	-0.325
-500.653	-166.712	-0.107	-0.004
-499.639	-45.052	-0.173	-0.087
-498.624	236.761	0.103	0.173
-497.610	397.190	-0.078	0.165
-496.595	-200.000	0.007	-0.045
-495.581	-151.442	0.082	-0.006
-494.566	800.000	-0.072	0.232
-493.551	-33.336	0.168	-0.094
-492.537	17.979	0.186	-0.150
-491.522	11.563	0.234	-0.182
-490.508	-200.000	0.003	-0.067
-489.493	-200.000	-0.043	0.222
-488.478	-144.029	-0.263	0.025
-487.464	-172.698	0.115	0.004
-486.449	92.774	-0.079	0.090
-485.435	-200.000	0.035	-0.232
-484.420	800.000	0.110	-0.375
-483.405	-49.595	-0.219	0.106
-482.391	-108.576	0.262	0.057
-481.376	800.000	-0.021	0.079
-480.362	283.300	-0.093	0.170
-479.347	-116.559	0.060	0.011
-478.332	-200.000	-0.006	-0.168
-477.318	-67.582	-0.288	-0.114
-476.303	-200.000	-0.008	-0.253
-475.289	-200.000	0.315	-0.000
-474.274	-119.526	0.161	-0.028
-473.259	-200.000	0.066	-0.323
-472.245	800.000	-0.033	-0.094
-471.230	-200.000	-0.039	-0.341
-470.216	-53.097	0.284	-0.132
-469.201	800.000	-0.042	0.179
-468.186	-146.848	0.304	0.027
-467.172	-200.000	-0.076	0.379
-466.157	800.000	-0.132	0.553
-465.143	-35.262	-0.166	-0.092
-464.128	-142.487	0.182	0.018
-463.113	61.725	-0.069	-0.069
-462.099	-25.061	0.304	-0.183
-461.084	800.000	-0.029	-0.099
-460.070	-120.218	0.099	0.017
-459.055	35.043	-0.223	-0.198
-458.040	184.842	-0.115	0.172
-457.026	800.000	-0.046	0.194
-456.011	800.000	0.055	-0.239
-454.997	800.000	-0.040	0.142
-453.982	800.000	-0.105	0.323
-452.968	740.957	-0.098	-0.265
-451.953	18.713	-0.180	-0.146
-450.938	-108.618	-0.235	-0.051
-449.924	209.853	0.032	0.050
-448.909	340.729	-0.131	0.258
-447.895	378.724	-0.040	0.084
-446.880	-100.467	0.160	-0.040
-445.865	-96.609	-0.372	-0.099
-444.851	-200.000	0.042	-0.216
-443.836	800.000	0.188	-0.565
-442.822	-169.325	0.198	0.007
-441.807	-10.178	0.118	-0.079
-440.792	-50.664	-0.331	-0.158
-439.778	-87.834	0.062	-0.019
-438.763	-200.000	0.059	-0.314
-437.749	200.353	-0.113	-0.175
-436.734	121.052	0.101	0.127
-435.719	-17.320	-0.260	0.165
-434.705	-71.281	0.262	0.099
-433.690	800.000	-0.057	0.203
-432.676	27.432	-0.274	0.233
-431.661	442.823	0.128	0.283
-430.646	800.000	-0.099	0.364
-429.632	133.833	0.093	-0.122
-428.617	800.000	-0.052	0.224
-427.603	-46.657	0.158	-0.078
-426.588	399.259	-0.072	0.153
-425.573	304.590	-0.081	-0.151
-424.559	72.584	0.256	-0.270
-423.544	142.991	-0.105	0.142
-422.530	-68.460	-0.352	0.138
-421.515	800.000	0.049	-0.182
-420.500	403.929	-0.094	-0.200
-419.486	-35.860	0.085	-0.046
-418.471	-200.000	0.001	0.091
-417.457	-55.199	0.351	0.160
-416.442	-28.963	-0.229	-0.133
-415.428	90.728	-0.050	0.057
-414.413	-119.976	0.203	0.035
-413.398	732.808	-0.074	0.200
-412.384	553.952	0.089	0.216
-411.369	-200.000	-0.043	0.241
-410.355	800.000	-0.121	0.407
-409.340	116.415	0.162	-0.200
-408.325	-70.639	-0.172	0.065
-407.311	142.660	-0.199	0.268
-406.296	-130.065	-0.125	-0.017
-405.282	41.932	0.345	-0.316
-404.267	20.480	0.144	-0.118
-403.252	-89.787	-0.179	0.053
-402.238	49.496	0.083	-0.078
-401.223	-2.574	-0.091	-0.064
-400.209	38.412	-0.123	0.111
-399.194	107.012	0.109	0.131
-398.179	-111.803	0.041	0.008
-397.165	121.663	0.163	0.205
-396.150	665.182	0.084	-0.219
-395.136	-82.581	-0.242	-0.079
-394.121	-200.000	-0.003	-0.051
-393.106	479.981	0.108	0.247
-392.092	-113.331	0.272	0.054
-391.077	800.000	-0.060	0.176
-390.063	-110.041	-0.086	0.018
-389.048	457.604	0.028	0.063
-388.033	-200.000	0.008	0.151
-387.019	260.428	-0.095	0.165
-386.004	-90.460	0.351	-0.103
-384.990	218.982	-0.090	0.146
-383.975	-200.000	0.025	-0.120
-382.960	-104.646	0.083	-0.019
-381.946	-99.991	0.469	-0.118
-380.931	9.587	0.090	0.069
-379.917	-200.000	-0.008	-0.133
-378.902	-108.898	0.265	-0.057
-377.888	-200.000	0.009	-0.191
-376.873	23.554	0.150	0.124
-375.858	-3.541	0.112	0.078
-374.844	-157.976	-0.169	0.010
-373.829	72.340	0.106	-0.111
-372.815	-200.000	0.030	-0.276
-371.800	-164.043	0.227	0.011
-370.785	229.321	0.122	-0.200
-369.771	433.131	0.064	0.140
-368.756	125.251	-0.063	0.080
-367.742	-133.720	-0.322	-0.041
-366.727	534.958	-0.104	-0.249
-365.712	112.082	0.104	0.127
-364.698	-66.034	-0.181	0.073
-363.683	800.000	-0.085	-0.284
-362.669	370.944	0.136	0.279
-361.654	-200.000	0.039	0.330
-360.639	75.851	-0.186	0.199
-359.625	-186.495	0.118	-0.002
-358.610	800.000	-0.097	-0.329
-357.596	393.333	-0.141	0.296
-356.581	28.419	-0.050	-0.043
-355.566	271.071	-0.078	0.139
-354.552	800.000	-0.049	0.141
-353.537	88.484	-0.121	-0.135
-352.523	75.901	0.268	0.285
-351.508	297.334	0.084	0.155
-350.493	309.853	0.070	0.132
-349.479	636.537	0.038	0.096
-348.464	-199.377	0.228	-0.001
-347.450	-129.159	-0.075	0.011
-346.435	-101.176	0.178	-0.044
-345.420	-75.029	-0.126	0.046
-344.406	800.000	-0.051	-0.210
-343.391	33.082	0.367	0.321
-342.377	-105.578	-0.195	-0.045
-341.362	-37.732	-0.054	0.029
-340.348	142.464	0.139	-0.186
-339.333	-63.355	-0.251	-0.104
-338.318	-115.332	0.084	-0.016
-337.304	102.674	-0.247	0.291
-336.289	-200.000	0.010	-0.303
-335.275	193.779	0.166	0.254
-334.260	599.851	0.100	0.249
-333.245	800.000	0.047	-0.188
-332.231	-103.538	0.142	0.033
-331.216	-29.274	0.072	0.041
-330.202	165.239	0.144	0.205
-329.187	-200.000	0.038	0.226
-328.172	-131.318	0.196	-0.026
-327.158	211.771	-0.085	-0.134
-326.143	-70.761	-0.056	-0.021
-325.129	144.662	0.089	-0.120
-324.114	-32.928	0.444	0.248
-323.099	11.899	-0.056	0.044
-322.085	-95.798	0.317	-0.085
-321.070	-45.064	-0.247	0.124
-320.056	-200.000	0.036	0.257
-319.041	-90.242	0.118	0.034
-318.026	-200.000	-0.168	0.000
-317.012	250.604	0.170	0.290
-315.997	29.771	-0.295	0.252
-314.983	109.548	0.071	0.086
-313.968	242.643	0.057	0.096
-312.953	-11.201	0.006	0.004
-311.939	676.300	0.019	-0.050
-310.924	-21.336	0.094	-0.058
-309.910	-58.917	0.263	-0.114
-308.895	494.669	-0.036	0.084
-307.880	99.635	0.097	0.113
-306.866	-146.532	-0.436	-0.038
-305.851	-54.588	-0.335	0.152
-304.837	35.443	0.135	-0.119
-303.822	-22.150	0.198	0.121
-302.807	-141.969	0.288	0.029
-301.793	663.589	0.091	0.236
-300.778	-200.000	0.006	0.188
-299.764	101.273	-0.036	-0.042
-298.749	21.532	-0.178	-0.146
-297.735	-138.352	-0.222	0.025
-296.720	-151.131	0.195	-0.015
-295.705	4.643	-0.166	0.123
-294.691	338.709	-0.218	0.427
-293.676	-3.016	0.201	0.141
-292.662	-100.793	0.308	0.076
-291.647	-177.228	0.195	0.005
-290.632	800.000	0.057	0.162
-289.618	-200.000	-0.003	-0.083
-288.603	169.614	-0.110	-0.158
-287.589	-159.251	0.281	0.016
-286.574	-36.022	0.375	0.204
-285.559	-111.384	-0.198	0.041
-284.545	218.994	0.146	-0.234
-283.530	30.547	0.178	-0.153
-282.516	-82.348	0.101	0.033
-281.501	443.877	0.083	0.182
-280.486	17.366	-0.077	0.062
-279.472	-51.371	-0.080	0.038
-278.457	800.000	-0.041	-0.150
-277.443	57.378	-0.119	-0.117
-276.428	46.176	-0.074	-0.069
-275.413	-110.889	0.189	-0.039
-274.399	-200.000	-0.028	0.224
-273.384	-86.276	0.105	0.032
-272.370	800.000	-0.068	0.298
-271.355	-200.000	-0.049	-0.285
-270.340	690.043	0.164	-0.431
-269.326	-200.000	-0.039	0.320
-268.311	-200.000	-0.040	0.183
-267.297	24.911	-0.067	0.056
-266.282	21.423	-0.138	0.113
-265.267	-79.333	-0.309	-0.105
-264.253	430.048	0.222	-0.482
-263.238	130.294	-0.213	-0.274
-262.224	83.158	0.192	-0.210
-261.209	-7.001	-0.136	-0.093
-260.195	-173.618	-0.219	-0.007
-259.180	-200.000	-0.022	0.241
-258.165	-105.112	-0.151	-0.035
-257.151	-200.000	0.027	0.218
-256.136	800.000	0.060	-0.255
-255.122	-134.462	-0.106	-0.013
-254.107	800.000	0.052	0.154
-253.092	9.430	-0.036	-0.027
-252.078	800.000	-0.091	0.280
-251.063	-200.000	-0.000	0.403
-250.049	800.000	-0.072	0.307
-249.034	76.529	-0.139	-0.148
-248.019	683.015	-0.055	-0.145
-247.005	-8.768	0.284	0.191
-245.990	677.218	-0.019	0.049
-244.976	-115.315	0.163	0.031
-243.961	501.033	0.108	0.250
-242.946	-172.438	0.173	-0.006
-241.932	-137.290	-0.125	-0.014
-240.917	145.258	-0.221	0.297
-239.903	-132.220	-0.184	-0.024
-238.888	-77.693	-0.134	0.046
-237.873	291.035	0.034	-0.061
-236.859	71.150	-0.172	0.179
-235.844	-200.000	0.025	0.242
-234.830	163.185	-0.175	0.246
-233.815	426.797	0.091	-0.197
-232.800	64.673	0.213	-0.215
-231.786	800.000	0.043	-0.174
-230.771	-65.700	-0.112	-0.045
-229.757	-200.000	0.004	0.383
-228.742	45.641	0.130	-0.120
-227.727	283.492	-0.017	0.030
-226.713	-200.000	0.030	-0.156
-225.698	-126.628	0.218	0.032
-224.684	21.658	0.184	-0.150
-223.669	-200.000	0.004	0.056
-222.655	-200.000	0.099	0.436
-221.640	623.876	0.032	-0.081
-220.625	800.000	-0.037	-0.163
-219.611	-200.000	-0.049	0.221
-218.596	-0.917	0.237	0.168
-217.582	800.000	-0.094	0.285
-216.567	-82.796	-0.063	-0.020
-215.552	-68.135	-0.251	-0.098
-214.538	-174.608	-0.136	-0.004
-213.523	-163.552	-0.405	0.019
-212.509	-44.341	-0.218	-0.109
-211.494	-6.633	-0.182	-0.124
-210.479	734.047	0.055	-0.146
-209.465	-200.000	0.001	-0.145
-208.450	-132.983	-0.132	-0.017
-207.436	24.913	0.360	-0.299
-206.421	-85.963	0.186	-0.058
-205.406	269.824	-0.060	-0.106
-204.392	-18.121	0.136	-0.085
-203.377	592.058	0.095	-0.234
-202.363	249.961	-0.178	-0.302
-201.348	-128.205	0.176	-0.025
-200.333	59.316	0.086	0.085
-199.319	-17.987	0.152	0.095
-198.304	-200.000	-0.020	-0.401
-197.290	-200.000	-0.012	0.273
-196.275	-7.152	0.328	0.223
-195.260	-13.529	-0.184	0.119
-194.246	221.042	-0.108	-0.173
-193.231	-200.000	-0.007	-0.068
-192.217	-19.711	0.098	0.060
-191.202	800.000	0.058	-0.200
-190.187	-98.308	0.206	0.053
-189.173	25.938	0.207	-0.173
-188.158	-109.855	0.199	0.042
-187.144	106.344	0.102	-0.121
-186.129	602.974	0.116	0.290
-185.114	4.784	0.137	-0.101
-184.100	-187.212	-0.404	-0.006
-183.085	-121.294	0.204	-0.034
-182.071	17.232	-0.334	-0.265
-181.056	-48.007	0.106	0.051
-180.042	-43.109	0.130	-0.066
-179.027	477.415	-0.067	0.152
-178.012	81.167	-0.087	0.094
-176.998	362.592	0.053	-0.106
-175.983	-108.378	-0.427	-0.092
-174.969	-91.010	0.399	0.115
-173.954	-137.967	0.331	0.037
-172.939	800.000	0.082	-0.260
-171.925	-88.416	-0.021	-0.006
-170.910	233.951	0.203	0.334
-169.896	-33.227	0.101	-0.056
-168.881	-143.462	-0.198	-0.019
-167.866	-135.635	0.245	-0.029
-166.852	-108.174	0.260	0.056
-165.837	148.517	-0.108	-0.146
-164.823	-200.000	-0.013	-0.101
-163.808	174.494	-0.195	-0.282
-162.793	-103.620	-0.142	0.033
-161.779	800.000	0.090	-0.290
-160.764	105.304	0.079	-0.093
-159.750	376.049	0.160	0.327
-158.735	79.183	0.160	-0.172
-157.720	-200.000	-0.027	0.247
-156.706	-149.327	0.094	0.008
-155.691	5.095	-0.232	-0.171
-154.677	439.635	-0.208	-0.454
-153.662	-200.000	-0.005	-0.249
-152.647	37.844	0.159	-0.141
-151.633	-23.442	0.218	0.131
-150.618	228.235	0.150	0.244
-149.604	-200.000	-0.033	0.150
-148.589	114.925	0.103	-0.126
-147.574	8.369	0.212	-0.159
-146.560	-200.000	0.048	-0.293
-145.545	-106.431	0.185	0.041
-144.531	-80.510	0.133	0.044
-143.516	-200.000	-0.041	0.299
-142.502	-102.657	-0.082	0.020
-141.487	-111.535	0.220	0.045
-140.472	30.080	0.034	0.029
-139.458	-200.000	0.033	-0.231
-138.443	-33.560	0.393	0.217
-137.429	480.599	0.190	0.431
-136.414	-127.679	0.273	0.039
-135.399	179.634	0.311	-0.455
-134.385	-200.000	0.027	-0.196
-133.370	557.330	0.036	0.086
-132.356	114.717	0.129	-0.157
-131.341	800.000	-0.038	0.148
-130.326	-64.243	0.313	-0.128
-129.312	-112.843	-0.210	-0.042
-128.297	-169.814	-0.126	0.005
-127.283	80.952	-0.101	-0.108
-126.268	-136.984	0.487	0.056
-125.253	-200.000	0.012	0.264
-124.239	57.839	0.296	0.289
-123.224	800.000	-0.040	0.114
-122.210	-200.000	0.003	0.095
