DTS Sentinel unit serial number:	SN413079Multiplexer serial number:	ORYXHardware model number:	OX4-SRSoftware version number:	ORYX F/W v4.00 Oryx Data Collector v3.7.2.0data status	okinstallation	princeton_trtdifferential loss correction	single-endedforward channel	channel 2reverse channel	N/Adate	2019/09/14time	23:03:34forward acquisition time	60.00reverse acquisition time	0.00gamma	496.2192k internal	0.2324k external	0.2324temperature offset calibration	1.0057default loss term (dB/km)	0.3790temperature slope calibration	1.0000multiplexer offset coefficient	1.0000multiplexer slope coefficient	1.0000fibre end	0.00T internal ref (°C)	32.44T ext. ref 1 (°C)	4.68T ext. ref 2 (°C)	27.45length (m)	temperature (°C)	Stokes	anti-Stokes-747.200	-107.505	-0.183	0.041
-746.185	32.763	0.165	0.144
-745.171	-175.195	0.501	0.014
-744.156	800.000	0.073	0.303
-743.142	709.733	-0.147	-0.392
-742.127	228.033	0.072	-0.119
-741.112	-151.671	-0.346	-0.026
-740.098	-14.283	-0.128	0.083
-739.083	-63.723	0.189	0.078
-738.069	95.295	-0.110	0.127
-737.054	-23.232	0.278	-0.169
-736.039	-129.397	-0.297	0.042
-735.025	800.000	0.009	0.028
-734.010	179.429	-0.141	-0.208
-732.996	-43.088	0.080	0.041
-731.981	-80.763	-0.290	-0.097
-730.966	-200.000	-0.050	0.428
-729.952	4.733	-0.111	-0.082
-728.937	-101.733	-0.212	-0.052
-727.923	-95.999	-0.393	0.106
-726.908	-177.535	-0.070	-0.002
-725.894	22.768	0.158	0.131
-724.879	-95.418	0.210	-0.057
-723.864	-11.997	-0.105	-0.070
-722.850	-129.804	-0.444	-0.062
-721.835	-200.000	0.092	-0.443
-720.821	-50.731	-0.231	-0.110
-719.806	56.368	-0.142	-0.139
-718.791	17.816	0.107	-0.086
-717.777	-51.177	-0.259	0.123
-716.762	778.503	0.182	-0.502
-715.748	-143.297	-0.265	-0.026
-714.733	-200.000	-0.010	-0.068
-713.718	14.729	-0.084	0.066
-712.704	46.951	-0.043	-0.040
-711.689	-6.301	0.292	-0.201
-710.675	-200.000	0.010	-0.065
-709.660	713.236	0.037	-0.100
-708.645	-200.000	-0.022	-0.201
-707.631	-69.843	-0.080	0.031
-706.616	46.623	-0.155	-0.145
-705.602	800.000	0.040	-0.133
-704.587	-102.789	-0.300	0.072
-703.572	-174.633	0.188	0.005
-702.558	-200.000	-0.002	0.059
-701.543	-88.622	-0.540	-0.162
-700.529	-116.103	0.253	-0.047
-699.514	-55.857	0.155	-0.070
-698.499	501.090	0.108	0.251
-697.485	800.000	0.058	0.205
-696.470	-142.207	-0.038	-0.004
-695.456	-67.985	-0.171	0.067
-694.441	-200.000	0.049	-0.282
-693.426	370.546	0.047	-0.097
-692.412	-8.149	-0.100	-0.068
-691.397	-76.811	0.288	-0.102
-690.383	301.495	0.088	-0.164
-689.368	164.328	-0.091	0.130
-688.354	800.000	0.013	0.056
-687.339	419.281	-0.166	-0.359
-686.324	-70.750	0.127	-0.048
-685.310	203.721	0.328	0.512
-684.295	-83.142	0.054	0.018
-683.281	65.236	-0.147	-0.150
-682.266	192.270	0.092	-0.140
-681.251	-123.628	-0.277	0.044
-680.237	-94.524	0.058	-0.016
-679.222	-168.142	0.198	0.008
-678.208	530.551	-0.099	0.236
-677.193	-200.000	-0.015	0.116
-676.178	-98.870	0.370	0.095
-675.164	134.156	0.246	-0.321
-674.149	-162.968	-0.078	-0.004
-673.135	10.573	0.177	-0.135
-672.120	46.447	-0.131	0.122
-671.105	-62.310	-0.144	-0.060
-670.091	-200.000	-0.026	-0.249
-669.076	-33.297	0.071	-0.040
-668.062	483.895	-0.113	-0.259
-667.047	290.725	0.165	-0.301
-666.032	-24.392	0.412	-0.247
-665.018	800.000	-0.092	-0.335
-664.003	-200.000	0.045	-0.233
-662.989	-26.429	-0.036	-0.021
-661.974	-150.545	0.278	-0.021
-660.959	7.845	-0.392	0.296
-659.945	800.000	-0.081	0.326
-658.930	800.000	-0.108	0.367
-657.916	-200.000	0.038	0.190
-656.901	318.544	-0.124	0.236
-655.886	-120.206	-0.272	0.047
-654.872	-70.456	-0.085	0.033
-653.857	204.477	0.093	-0.146
-652.843	-103.220	-0.208	-0.049
-651.828	-145.521	0.160	0.014
-650.814	-187.861	-0.166	-0.002
-649.799	800.000	-0.069	-0.208
-648.784	-82.383	0.206	-0.067
-647.770	-157.805	-0.140	0.008
-646.755	164.476	-0.155	0.219
-645.741	565.558	0.045	-0.110
-644.726	-1.788	-0.296	-0.210
-643.711	-12.535	0.234	0.154
-642.697	287.525	-0.062	0.112
-641.682	-141.814	-0.351	-0.035
-640.668	236.363	0.148	-0.247
-639.653	-11.344	-0.302	0.200
-638.638	-31.107	0.063	0.036
-637.624	-77.855	-0.069	-0.024
-636.609	371.936	-0.202	0.413
-635.595	35.764	0.048	-0.043
-634.580	-90.541	-0.241	0.070
-633.565	800.000	-0.045	0.182
-632.551	73.175	-0.265	-0.278
-631.536	800.000	-0.033	0.125
-630.522	281.634	-0.071	0.128
-629.507	-8.412	-0.273	-0.184
-628.492	18.178	-0.355	-0.284
-627.478	-77.445	-0.132	0.046
-626.463	-105.650	-0.452	-0.103
-625.449	107.430	-0.203	-0.243
-624.434	440.500	0.173	0.381
-623.419	296.283	-0.155	0.285
-622.405	22.451	-0.051	-0.042
-621.390	70.646	0.143	-0.149
-620.376	-200.000	0.001	0.290
-619.361	-162.457	0.263	0.013
-618.346	-85.300	-0.044	-0.014
-617.332	32.129	0.216	0.188
-616.317	-132.934	-0.149	-0.019
-615.303	-131.372	0.392	-0.052
-614.288	-35.743	-0.124	-0.067
-613.273	-83.669	-0.354	-0.114
-612.259	5.326	-0.314	0.233
-611.244	-18.184	-0.213	-0.134
-610.230	-165.849	-0.329	-0.014
-609.215	77.491	-0.144	0.154
-608.201	20.293	0.243	-0.197
-607.186	-65.586	-0.421	0.170
-606.171	-200.000	-0.009	0.317
-605.157	138.712	0.094	-0.123
-604.142	800.000	0.103	-0.307
-603.128	-200.000	-0.039	-0.286
-602.113	37.171	-0.031	0.027
-601.098	13.325	-0.170	-0.132
-600.084	-200.000	-0.025	0.248
-599.069	800.000	0.090	-0.269
-598.055	800.000	0.112	-0.480
-597.040	-64.078	0.108	-0.044
-596.025	-200.000	0.053	-0.237
-595.011	47.548	-0.121	0.114
-593.996	800.000	0.051	-0.150
-592.982	-115.672	-0.060	-0.011
-591.967	562.899	-0.057	0.139
-590.952	36.116	-0.095	-0.084
-589.938	81.795	0.348	0.378
-588.923	39.301	-0.148	0.133
-587.909	-200.000	0.026	0.328
-586.894	757.655	-0.035	-0.095
-585.879	-112.523	-0.131	-0.026
-584.865	-29.994	-0.239	0.137
-583.850	673.036	0.130	-0.337
-582.836	36.599	-0.148	-0.131
-581.821	800.000	0.048	-0.173
-580.806	306.153	0.084	-0.158
-579.792	800.000	0.064	-0.253
-578.777	196.095	0.176	-0.269
-577.763	3.628	0.181	0.133
-576.748	-138.948	-0.197	-0.021
-575.733	800.000	0.056	-0.194
-574.719	325.985	0.074	-0.142
-573.704	528.944	0.099	0.235
-572.690	-23.201	0.184	0.111
-571.675	-61.047	0.076	0.032
-570.661	-116.529	0.287	-0.053
-569.646	-32.351	0.290	-0.162
-568.631	255.657	-0.267	0.458
-567.617	64.111	-0.205	-0.207
-566.602	8.296	0.080	-0.060
-565.588	1.334	0.083	0.060
-564.573	183.868	-0.099	0.146
-563.558	152.430	0.155	0.213
-562.544	-94.106	-0.383	0.105
-561.529	266.774	-0.107	0.187
-560.515	-21.324	-0.056	-0.034
-559.500	334.139	-0.164	-0.318
-558.485	-200.000	0.005	-0.369
-557.471	-200.000	-0.004	0.017
-556.456	-52.230	0.191	-0.089
-555.442	110.648	0.179	-0.216
-554.427	-125.126	-0.193	-0.030
-553.412	-108.128	0.270	-0.059
-552.398	-137.191	-0.269	0.031
-551.383	-43.035	-0.271	-0.138
-550.369	-34.838	-0.115	-0.063
-549.354	40.937	0.110	-0.099
-548.339	626.261	0.030	-0.077
-547.325	800.000	-0.030	-0.115
-546.310	7.592	0.038	0.029
-545.296	800.000	0.048	-0.153
-544.281	-200.000	0.015	-0.151
-543.266	-85.295	-0.217	0.068
-542.252	601.254	-0.027	-0.067
-541.237	-200.000	-0.017	-0.252
-540.223	0.279	0.208	0.149
-539.208	-200.000	0.036	0.223
-538.193	-200.000	-0.064	-0.301
-537.179	-200.000	-0.028	-0.170
-536.164	92.821	-0.078	-0.088
-535.150	-35.893	-0.359	0.195
-534.135	-200.000	0.003	-0.034
-533.121	-200.000	-0.022	-0.187
-532.106	5.264	0.133	0.098
-531.091	-5.660	0.030	0.021
-530.077	-200.000	-0.261	0.000
-529.062	-200.000	-0.049	0.443
-528.048	-87.969	0.191	-0.057
-527.033	66.003	0.217	0.221
-526.018	465.203	0.067	-0.151
-525.004	-156.244	-0.293	0.018
-523.989	47.870	-0.068	-0.064
-522.975	-107.691	-0.243	-0.053
-521.960	139.459	-0.164	0.216
-520.945	-3.938	0.075	-0.052
-519.931	0.255	0.254	0.181
-518.916	-128.683	-0.322	0.046
-517.902	160.723	-0.074	0.103
-516.887	-200.000	0.004	-0.103
-515.872	-109.461	0.082	-0.017
-514.858	23.947	-0.071	0.058
-513.843	-64.615	-0.108	-0.044
-512.829	-200.000	0.045	-0.307
-511.814	-17.676	-0.135	0.085
-510.799	800.000	0.067	0.199
-509.785	-200.000	0.008	0.075
-508.770	800.000	-0.031	-0.088
-507.756	-139.024	0.225	0.024
-506.741	371.037	-0.141	0.287
-505.726	526.664	0.139	0.328
-504.712	-200.000	0.003	0.303
-503.697	288.846	0.149	-0.269
-502.683	-177.308	0.236	0.006
-501.668	-200.000	-0.005	-0.133
-500.653	-103.089	0.295	-0.070
-499.639	-80.420	-0.154	0.052
-498.624	800.000	-0.075	-0.239
-497.610	-102.432	0.038	-0.009
-496.595	-1.010	0.148	0.104
-495.581	-107.723	-0.229	-0.050
-494.566	76.564	0.297	-0.314
-493.551	800.000	-0.047	0.139
-492.537	57.844	-0.162	-0.159
-491.522	4.127	0.263	-0.193
-490.508	-84.365	-0.039	-0.012
-489.493	800.000	0.029	-0.107
-488.478	178.988	-0.025	-0.037
-487.464	-48.428	-0.133	-0.064
-486.449	-41.544	-0.164	-0.084
-485.435	-62.356	-0.283	0.118
-484.420	220.931	-0.190	0.304
-483.405	618.353	0.043	-0.107
-482.391	-18.323	-0.238	-0.149
-481.376	75.907	-0.127	0.135
-480.362	-110.628	0.094	0.019
-479.347	-61.963	0.203	0.085
-478.332	362.008	0.240	0.481
-477.318	5.273	-0.210	0.154
-476.303	-87.124	-0.314	-0.095
-475.289	601.577	-0.037	0.091
-474.274	-79.297	0.072	-0.024
-473.259	-145.477	-0.346	0.031
-472.245	101.344	0.181	-0.210
-471.230	-200.000	-0.027	-0.129
-470.216	-14.387	-0.322	0.207
-469.201	-147.957	-0.192	0.016
-468.186	-200.000	0.041	0.360
-467.172	-135.013	0.299	-0.036
-466.157	91.670	0.079	-0.088
-465.143	-200.000	0.052	0.280
-464.128	-141.386	0.113	0.011
-463.113	53.201	0.399	0.381
-462.099	-92.338	0.222	-0.062
-461.084	251.835	0.103	0.174
-460.070	-109.773	-0.105	-0.022
-459.055	104.472	0.134	-0.157
-458.040	130.494	-0.196	-0.251
-457.026	-23.411	0.278	-0.167
-456.011	800.000	0.057	-0.199
-454.997	800.000	0.123	-0.414
-453.982	-17.802	-0.176	-0.110
-452.968	106.014	-0.094	-0.111
-451.953	-128.731	0.230	0.032
-450.938	-200.000	-0.004	0.158
-449.924	-14.898	0.090	0.058
-448.909	-200.000	0.029	-0.183
-447.895	402.451	0.117	0.245
-446.880	439.319	0.262	0.571
-445.865	800.000	0.015	0.048
-444.851	-200.000	-0.017	-0.255
-443.836	69.434	0.252	-0.258
-442.822	-197.186	0.172	0.001
-441.807	-34.229	0.298	0.163
-440.792	-200.000	-0.022	-0.351
-439.778	-152.040	-0.158	0.011
-438.763	-85.441	-0.142	0.044
-437.749	-129.649	0.171	-0.024
-436.734	-64.746	0.320	-0.129
-435.719	2.368	0.300	0.216
-434.705	-200.000	-0.028	-0.136
-433.690	-51.544	-0.276	0.128
-432.676	-107.360	-0.121	0.027
-431.661	415.297	0.114	0.242
-430.646	331.930	-0.047	-0.090
-429.632	-52.414	-0.342	0.158
-428.617	9.879	-0.159	0.120
-427.603	-122.609	-0.240	0.039
-426.588	-125.124	0.494	0.076
-425.573	-8.547	-0.064	0.043
-424.559	-200.000	-0.108	0.532
-423.544	-200.000	-0.020	0.299
-422.530	-123.099	0.234	0.037
-421.515	-135.136	0.256	-0.031
-420.500	232.627	0.026	0.043
-419.486	-200.000	-0.035	0.312
-418.471	-132.589	0.260	-0.033
-417.457	62.023	-0.027	0.027
-416.442	-186.286	-0.202	-0.003
-415.428	3.914	0.229	0.167
-414.413	-200.000	-0.029	0.229
-413.398	121.837	0.240	-0.298
-412.384	-96.410	0.283	0.075
-411.369	365.232	-0.050	0.101
-410.355	244.476	-0.123	0.206
-409.340	-4.075	0.070	0.048
-408.325	800.000	0.083	0.280
-407.311	-83.212	0.244	0.078
-406.296	-0.628	-0.098	0.069
-405.282	-36.636	-0.160	-0.086
-404.267	-2.967	0.082	-0.057
-403.252	217.493	0.116	0.184
-402.238	-102.341	-0.232	0.056
-401.223	389.302	-0.152	0.314
-400.209	355.326	0.139	-0.275
-399.194	-101.763	-0.259	-0.062
-398.179	35.366	0.325	0.284
-397.165	-121.163	0.187	0.031
-396.150	80.057	0.210	-0.225
-395.136	389.473	-0.006	-0.013
-394.121	-77.124	0.146	0.051
-393.106	-121.429	-0.333	-0.055
-392.092	469.438	0.093	-0.209
-391.077	42.784	0.275	-0.249
-390.063	-6.305	-0.179	-0.122
-389.048	800.000	0.074	-0.289
-388.033	382.187	0.038	0.077
-387.019	37.064	0.205	0.181
-386.004	163.044	-0.038	0.053
-384.990	66.091	0.088	-0.089
-383.975	46.374	-0.133	-0.123
-382.960	-91.442	0.335	-0.095
-381.946	99.623	0.097	0.112
-380.931	-48.560	0.076	0.037
-379.917	76.626	0.052	-0.054
-378.902	668.046	-0.110	0.284
-377.888	18.000	-0.253	-0.200
-376.873	-11.209	0.111	-0.073
-375.858	62.381	0.140	0.140
-374.844	123.923	0.124	-0.155
-373.829	4.509	0.181	0.132
-372.815	45.041	-0.094	-0.086
-371.800	800.000	0.075	0.212
-370.785	-200.000	-0.047	-0.306
-369.771	800.000	0.088	-0.321
-368.756	-200.000	0.065	0.418
-367.742	92.243	0.135	-0.152
-366.727	-37.285	-0.116	-0.062
-365.712	-71.053	0.063	0.023
-364.698	34.717	0.023	-0.020
-363.683	-147.433	-0.443	0.037
-362.669	188.778	0.120	-0.178
-361.654	44.168	0.255	-0.233
-360.639	-45.438	-0.254	0.125
-359.625	800.000	0.035	0.112
-358.610	180.085	0.071	-0.104
-357.596	97.141	0.303	0.346
-356.581	37.517	-0.131	0.116
-355.566	-140.024	-0.319	-0.033
-354.552	394.439	0.092	-0.190
-353.537	407.143	-0.050	-0.106
-352.523	22.045	-0.182	-0.148
-351.508	284.885	-0.037	-0.067
-350.493	213.620	-0.100	-0.157
-349.479	-92.619	-0.110	0.031
-348.464	-200.000	-0.030	-0.331
-347.450	-200.000	0.003	0.082
-346.435	21.385	-0.149	0.120
-345.420	-200.000	0.021	0.331
-344.406	-10.721	-0.175	-0.115
-343.391	-132.155	-0.253	-0.033
-342.377	-200.000	-0.006	0.250
-341.362	-200.000	-0.009	0.071
-340.348	-123.271	-0.275	0.044
-339.333	-50.644	-0.136	-0.064
-338.318	-35.254	0.066	0.035
-337.304	172.017	0.047	-0.067
-336.289	311.175	-0.216	0.403
-335.275	-112.179	-0.122	0.024
-334.260	517.420	0.111	0.259
-333.245	-156.439	0.243	0.015
-332.231	-200.000	0.161	-0.001
-331.216	-80.109	0.064	-0.021
-330.202	-135.698	0.237	0.028
-329.187	327.770	-0.180	-0.342
-328.172	12.562	0.169	-0.130
-327.158	-131.050	-0.209	-0.028
-326.143	202.286	0.116	0.178
-325.129	-200.000	-0.041	0.246
-324.114	213.291	-0.039	-0.061
-323.099	154.890	-0.173	-0.236
-322.085	585.684	0.100	-0.244
-321.070	-200.000	-0.022	0.269
-320.056	800.000	-0.048	-0.182
-319.041	-200.000	-0.028	-0.138
-318.026	-200.000	-0.006	0.412
-317.012	-200.000	0.026	0.195
-315.997	-136.188	0.086	-0.010
-314.983	360.066	0.023	-0.045
-313.968	-183.961	0.299	-0.005
-312.953	127.495	-0.307	-0.387
-311.939	147.556	0.136	-0.182
-310.924	-100.055	-0.118	-0.029
-309.910	-81.197	0.323	-0.106
-308.895	35.858	0.121	-0.106
-307.880	-200.000	-0.038	-0.206
-306.866	-55.032	-0.233	-0.104
-305.851	-200.000	-0.076	0.592
-304.837	-7.478	-0.096	0.064
-303.822	15.178	0.269	-0.209
-302.807	55.100	-0.170	-0.163
-301.793	800.000	0.053	-0.195
-300.778	131.684	-0.119	-0.151
-299.764	193.532	-0.055	-0.083
-298.749	-98.557	0.259	-0.066
-297.735	-121.837	0.145	0.024
-296.720	65.606	0.286	0.287
-295.705	-133.323	-0.223	0.028
-294.691	95.173	0.150	0.169
-293.676	347.509	-0.150	0.294
-292.662	264.328	0.147	0.253
-291.647	297.257	-0.102	-0.186
-290.632	-140.186	-0.115	-0.012
-289.618	154.078	-0.229	-0.311
-288.603	-43.989	0.151	-0.075
-287.589	43.653	0.111	0.101
-286.574	-200.000	-0.045	0.559
-285.559	800.000	-0.033	-0.125
-284.545	159.503	0.222	0.306
-283.530	352.927	-0.046	-0.090
-282.516	-200.000	0.013	-0.106
-281.501	-92.508	-0.284	0.079
-280.486	104.953	0.149	-0.174
-279.472	-158.325	-0.268	0.015
-278.457	114.941	0.188	0.227
-277.443	800.000	-0.022	0.091
-276.428	15.799	0.095	0.074
-275.413	86.617	0.143	-0.156
-274.399	329.925	-0.157	-0.299
-273.384	18.083	-0.112	-0.089
-272.370	-42.711	-0.293	-0.148
-271.355	-33.747	0.205	-0.112
-270.340	37.323	0.303	0.266
-269.326	-167.013	-0.254	0.010
-268.311	168.939	0.246	-0.348
-267.297	800.000	0.027	-0.097
-266.282	-108.658	-0.241	-0.051
-265.267	-87.366	-0.296	0.089
-264.253	117.931	-0.118	-0.143
-263.238	-200.000	0.000	-0.328
-262.224	62.149	0.123	-0.122
-261.209	-200.000	-0.012	-0.095
-260.195	-33.303	0.154	0.084
-259.180	464.576	0.091	-0.202
-258.165	-200.000	-0.005	0.103
-257.151	-61.451	0.370	-0.154
-256.136	798.559	0.093	-0.254
-255.122	-200.000	-0.030	-0.349
-254.107	-200.000	0.000	-0.215
-253.092	231.214	0.146	-0.237
-252.078	-165.771	0.230	0.010
-251.063	288.084	-0.101	-0.181
-250.049	-112.800	0.182	-0.036
-249.034	-145.662	-0.061	0.005
-248.019	-86.734	0.154	-0.047
-247.005	258.431	-0.150	0.255
-245.990	309.302	-0.120	0.223
-244.976	-113.971	-0.287	0.055
-243.961	-22.033	0.181	-0.109
-242.946	76.651	-0.142	0.149
-241.932	-43.040	-0.093	-0.047
-240.917	-200.000	-0.007	-0.166
-239.903	-124.130	-0.172	0.027
-238.888	-118.187	0.359	-0.063
-237.873	-68.559	0.074	0.028
-236.859	-200.000	-0.051	0.253
-235.844	800.000	0.087	0.248
-234.830	800.000	0.107	0.301
-233.815	1.361	0.175	-0.125
-232.800	59.982	-0.107	0.105
-231.786	31.908	0.132	0.112
-230.771	792.200	0.074	0.200
-229.757	-74.096	-0.284	0.102
-228.742	157.132	-0.076	0.105
-227.727	-115.116	-0.057	0.011
-226.713	126.619	-0.055	-0.069
-225.698	-103.830	-0.143	-0.033
-224.684	-200.000	0.005	0.059
-223.669	327.982	0.067	-0.128
-222.655	302.650	-0.113	-0.208
-221.640	-116.646	0.492	0.089
-220.625	800.000	0.030	-0.092
-219.611	800.000	0.038	0.132
-218.596	231.739	-0.130	0.210
-217.582	424.122	-0.090	-0.192
-216.567	800.000	-0.094	-0.258
-215.552	-16.483	-0.132	-0.083
-214.538	-106.621	0.374	-0.082
-213.523	328.591	-0.217	0.412
-212.509	-200.000	0.059	0.478
-211.494	700.187	-0.042	-0.109
-210.479	2.272	0.216	-0.154
-209.465	155.652	-0.019	-0.026
-208.450	-170.089	-0.120	0.004
-207.436	-18.428	-0.239	-0.147
-206.421	-52.785	0.232	-0.106
-205.406	-200.000	0.025	0.160
-204.392	-102.307	0.357	-0.085
-203.377	-32.716	0.182	0.100
-202.363	-15.393	-0.185	-0.117
-201.348	-200.000	-0.010	0.237
-200.333	48.726	-0.144	-0.133
-199.319	281.711	0.127	-0.226
-198.304	800.000	-0.032	0.095
-197.290	-16.100	-0.219	-0.138
-196.275	-57.136	0.367	0.160
-195.260	-200.000	0.055	0.239
-194.246	113.690	0.132	0.159
-193.231	64.755	-0.150	-0.149
-192.217	51.459	0.080	-0.075
-191.202	43.015	-0.047	0.042
-190.187	-16.970	0.202	0.126
-189.173	-200.000	0.011	-0.232
-188.158	800.000	-0.098	0.336
-187.144	-28.422	0.479	-0.273
-186.129	15.955	-0.341	0.265
-185.114	336.432	-0.081	0.155
-184.100	-200.000	-0.049	-0.239
-183.085	-148.939	0.181	0.014
-182.071	480.343	0.042	-0.094
-181.056	-200.000	-0.007	0.096
-180.042	623.652	0.084	0.208
-179.027	30.871	0.095	0.081
-178.012	-21.920	-0.117	0.070
-176.998	257.767	-0.098	0.167
-175.983	441.208	0.031	0.066
-174.969	43.082	-0.275	-0.248
-173.954	152.547	-0.124	0.167
-172.939	-200.000	0.013	0.273
-171.925	132.539	0.095	0.122
-170.910	-12.877	-0.076	-0.049
-169.896	-200.000	-0.047	-0.321
-168.881	17.963	0.111	-0.087
-167.866	-200.000	0.004	-0.126
-166.852	-200.000	0.000	0.354
-165.837	-18.003	-0.185	0.114
-164.823	280.079	-0.148	0.261
-163.808	52.645	-0.193	0.182
-162.793	-146.773	0.260	0.022
-161.779	310.372	-0.131	-0.241
-160.764	-68.690	-0.141	-0.054
-159.750	-158.239	0.150	0.009
-158.735	-200.000	-0.061	-0.331
-157.720	-97.580	0.462	0.118
-156.706	-130.967	0.137	-0.018
-155.691	112.589	0.145	0.173
-154.677	247.724	-0.090	-0.150
-153.662	-200.000	0.065	-0.584
-152.647	-86.088	0.042	0.013
-151.633	-36.130	-0.077	0.041
-150.618	73.645	-0.110	-0.114
-149.604	800.000	0.092	0.315
-148.589	433.095	-0.102	0.219
-147.574	-109.612	0.250	-0.052
-146.560	258.989	0.116	-0.197
-145.545	-125.506	-0.245	-0.037
-144.531	-139.151	-0.062	0.007
-143.516	48.936	0.178	-0.164
-142.502	417.391	0.052	-0.109
-141.487	-33.690	0.111	-0.060
-140.472	182.777	-0.032	0.046
-139.458	239.699	0.121	0.198
-138.443	-66.205	-0.203	0.080
-137.429	-200.000	-0.166	-0.000
-136.414	57.679	0.089	-0.086
-135.399	74.737	0.189	0.196
-134.385	-200.000	-0.004	0.190
-133.370	-200.000	0.015	0.115
-132.356	146.217	0.100	0.132
-131.341	-45.500	-0.120	0.058
-130.326	800.000	0.088	0.285
-129.312	-200.000	0.031	0.219
-128.297	-200.000	-0.011	0.413
-127.283	-64.148	0.332	-0.134
-126.268	-200.000	0.068	-0.382
-125.253	800.000	-0.086	-0.280
-124.239	-42.076	0.077	0.039
-123.224	-141.483	-0.032	-0.003
-122.210	181.841	0.043	-0.063
-121.195	-91.360	0.135	0.038
