DTS Sentinel unit serial number:	SN413079Multiplexer serial number:	ORYXHardware model number:	OX4-SRSoftware version number:	ORYX F/W v4.00 Oryx Data Collector v3.7.2.0data status	okinstallation	princeton_trtdifferential loss correction	single-endedforward channel	channel 2reverse channel	N/Adate	2019/09/16time	04:27:34forward acquisition time	60.00reverse acquisition time	0.00gamma	496.2192k internal	0.2335k external	0.2335temperature offset calibration	0.9975default loss term (dB/km)	0.3790temperature slope calibration	1.0000multiplexer offset coefficient	1.0000multiplexer slope coefficient	1.0000fibre end	0.00T internal ref (°C)	27.27T ext. ref 1 (°C)	10.82T ext. ref 2 (°C)	21.35length (m)	temperature (°C)	Stokes	anti-Stokes-747.200	-0.401	-0.407	0.290
-746.185	84.062	-0.339	0.373
-745.171	-164.659	0.136	0.006
-744.156	-16.173	-0.168	0.107
-743.142	80.639	-0.100	-0.108
-742.127	-47.398	-0.392	0.192
-741.112	46.732	-0.085	-0.079
-740.098	147.522	-0.142	0.192
-739.083	-200.000	0.001	-0.125
-738.069	-49.967	-0.380	0.181
-737.054	-34.373	-0.040	-0.022
-736.039	-200.000	0.045	0.424
-735.025	101.776	0.141	-0.166
-734.010	-200.000	-0.015	0.084
-732.996	-70.055	-0.205	0.079
-731.981	-200.000	-0.041	-0.269
-730.966	-200.000	-0.007	-0.082
-729.952	800.000	0.050	-0.203
-728.937	333.072	-0.202	-0.392
-727.923	76.826	-0.085	-0.090
-726.908	-28.877	-0.288	-0.166
-725.894	-101.050	-0.275	0.068
-724.879	-21.259	0.139	0.085
-723.864	-115.165	-0.123	0.023
-722.850	800.000	0.049	-0.200
-721.835	800.000	-0.049	-0.180
-720.821	92.382	0.165	-0.187
-719.806	-60.428	0.109	0.047
-718.791	53.671	0.075	-0.072
-717.777	800.000	-0.035	-0.111
-716.762	146.283	-0.111	0.150
-715.748	-120.732	0.183	-0.031
-714.733	-200.000	0.007	-0.296
-713.718	800.000	0.075	-0.248
-712.704	169.399	-0.076	0.109
-711.689	-33.947	-0.458	0.253
-710.675	-47.171	0.186	-0.091
-709.660	800.000	0.110	-0.346
-708.645	140.000	0.150	-0.198
-707.631	-200.000	-0.019	0.251
-706.616	85.962	-0.227	0.251
-705.602	-200.000	-0.003	-0.117
-704.587	71.377	-0.271	0.282
-703.572	-126.086	-0.233	-0.035
-702.558	40.343	0.258	0.233
-701.543	-38.810	-0.202	-0.107
-700.529	273.496	0.121	-0.214
-699.514	-174.321	-0.276	0.008
-698.499	800.000	0.066	-0.223
-697.485	101.259	-0.113	0.132
-696.470	-140.912	-0.356	0.037
-695.456	-115.129	0.298	0.057
-694.441	69.381	-0.048	0.049
-693.426	312.317	0.205	-0.386
-692.412	-38.109	-0.173	0.092
-691.397	41.467	-0.124	0.113
-690.383	-16.362	-0.295	-0.188
-689.368	800.000	0.115	0.353
-688.354	-200.000	0.008	-0.205
-687.339	-70.706	-0.079	0.030
-686.324	-74.807	-0.135	0.049
-685.310	-123.177	-0.009	-0.001
-684.295	-200.000	0.033	0.205
-683.281	197.085	-0.155	0.237
-682.266	-200.000	-0.038	-0.284
-681.251	-96.051	-0.129	-0.034
-680.237	-200.000	-0.035	0.289
-679.222	193.636	-0.244	0.371
-678.208	800.000	0.045	-0.133
-677.193	-109.385	0.115	0.024
-676.178	8.193	-0.237	-0.178
-675.164	558.775	-0.141	-0.340
-674.149	-75.938	0.184	0.065
-673.135	337.261	-0.090	0.175
-672.120	-200.000	0.046	-0.389
-671.105	134.417	0.030	0.039
-670.091	800.000	0.037	0.136
-669.076	60.138	-0.210	0.208
-668.062	2.331	0.134	0.097
-667.047	-48.380	-0.181	-0.087
-666.032	-119.744	0.122	0.021
-665.018	800.000	0.094	-0.264
-664.003	175.976	0.244	-0.354
-662.989	-75.122	-0.079	0.028
-661.974	53.518	0.075	0.072
-660.959	-80.860	0.085	0.028
-659.945	-73.027	0.271	0.100
-658.930	161.372	-0.103	-0.144
-657.916	-65.626	0.225	-0.090
-656.901	-119.539	-0.550	0.095
-655.886	23.588	0.145	0.119
-654.872	-49.803	0.097	0.046
-653.857	-18.207	-0.220	-0.138
-652.843	153.689	0.080	-0.110
-651.828	234.366	-0.127	-0.209
-650.814	800.000	0.107	-0.389
-649.799	125.628	0.168	-0.212
-648.784	-129.910	-0.134	-0.018
-647.770	-200.000	0.088	-0.474
-646.755	-200.000	0.002	0.247
-645.741	135.655	-0.233	0.304
-644.726	-123.100	-0.084	0.013
-643.711	542.484	0.092	-0.220
-642.697	-100.502	-0.052	-0.013
-641.682	-20.644	-0.188	0.116
-640.668	-200.000	0.052	-0.242
-639.653	800.000	0.031	-0.100
-638.638	-23.282	-0.467	-0.281
-637.624	-200.000	0.018	0.350
-636.609	51.232	-0.016	0.015
-635.595	17.836	0.134	-0.107
-634.580	-200.000	-0.123	0.582
-633.565	-200.000	-0.049	0.286
-632.551	-200.000	-0.018	0.083
-631.536	275.820	0.111	0.196
-630.522	-39.240	0.179	-0.094
-629.507	-85.227	0.367	0.115
-628.492	-200.000	0.048	0.296
-627.478	207.426	-0.099	-0.155
-626.463	-200.000	0.000	-0.348
-625.449	-87.212	-0.164	-0.050
-624.434	-52.542	0.295	-0.137
-623.419	-73.242	0.385	0.141
-622.405	78.097	-0.243	0.259
-621.390	-200.000	0.064	-0.299
-620.376	-51.909	-0.362	-0.168
-619.361	-65.413	0.166	0.067
-618.346	-104.151	0.016	-0.004
-617.332	269.038	-0.132	-0.231
-616.317	69.149	-0.136	-0.140
-615.303	61.696	-0.117	0.117
-614.288	258.782	0.271	-0.468
-613.273	139.381	0.194	-0.255
-612.259	-57.660	-0.281	0.123
-611.244	-200.000	-0.077	-0.340
-610.230	-200.000	-0.001	0.082
-609.215	800.000	0.138	-0.422
-608.201	800.000	0.025	0.094
-607.186	46.831	0.103	-0.095
-606.171	-8.594	0.538	0.361
-605.157	-200.000	0.017	0.204
-604.142	754.998	-0.026	0.070
-603.128	-200.000	0.001	-0.065
-602.113	61.746	0.077	-0.077
-601.098	203.241	0.001	-0.002
-600.084	-106.201	0.189	0.042
-599.069	-140.513	0.062	0.006
-598.055	-131.247	-0.185	-0.024
-597.040	607.010	-0.088	0.220
-596.025	95.239	-0.046	-0.052
-595.011	-43.342	-0.200	0.101
-593.996	800.000	-0.097	0.310
-592.982	800.000	-0.041	0.117
-591.967	56.826	0.047	0.046
-590.952	-91.116	0.182	0.052
-589.938	29.340	-0.172	0.146
-588.923	291.085	-0.064	-0.116
-587.909	166.588	0.048	-0.068
-586.894	800.000	-0.111	0.356
-585.879	84.512	-0.041	-0.045
-584.865	220.134	0.285	0.457
-583.850	-27.703	-0.241	0.140
-582.836	26.503	-0.245	0.205
-581.821	150.481	-0.138	-0.187
-580.806	-42.777	0.244	-0.124
-579.792	-56.746	-0.223	-0.098
-578.777	800.000	-0.093	-0.309
-577.763	138.266	-0.086	-0.113
-576.748	168.811	-0.183	-0.261
-575.733	190.759	-0.153	0.229
-574.719	-40.452	0.096	-0.050
-573.704	-46.385	0.166	-0.081
-572.690	-138.061	0.126	0.014
-571.675	-200.000	0.111	-0.499
-570.661	-200.000	0.028	0.330
-569.646	800.000	0.110	0.311
-568.631	-38.662	0.174	-0.092
-567.617	230.149	-0.156	0.254
-566.602	-181.485	0.284	-0.006
-565.588	-51.584	0.245	-0.114
-564.573	30.339	-0.295	-0.252
-563.558	-200.000	0.024	0.271
-562.544	-200.000	0.002	-0.085
-561.529	522.095	-0.138	0.324
-560.515	800.000	0.062	-0.236
-559.500	800.000	-0.027	-0.094
-558.485	262.317	-0.057	-0.099
-557.471	-23.204	-0.073	0.044
-556.456	-109.275	-0.353	-0.075
-555.442	-114.267	-0.267	0.051
-554.427	276.175	-0.020	-0.036
-553.412	190.657	-0.199	-0.298
-552.398	422.336	0.028	0.060
-551.383	98.580	0.105	0.121
-550.369	-39.631	0.135	0.070
-549.354	17.045	-0.196	0.155
-548.339	-200.000	0.008	-0.254
-547.325	-42.245	0.168	-0.086
-546.310	-9.182	-0.134	0.089
-545.296	536.042	0.081	-0.191
-544.281	-200.000	0.029	0.479
-543.266	131.036	-0.099	0.127
-542.252	-97.091	0.453	-0.118
-541.237	132.545	-0.054	-0.070
-540.223	-7.566	-0.176	-0.119
-539.208	-193.122	0.150	0.001
-538.193	74.192	0.162	0.170
-537.179	55.091	-0.050	-0.048
-536.164	23.614	0.061	0.050
-535.150	800.000	0.063	-0.206
-534.135	-30.839	-0.215	0.121
-533.121	-38.066	0.182	0.097
-532.106	-3.472	-0.183	-0.127
-531.091	800.000	0.109	-0.397
-530.077	258.722	-0.162	-0.278
-529.062	135.431	-0.030	-0.039
-528.048	754.536	0.055	0.148
-527.033	-108.708	-0.213	0.046
-526.018	-30.648	-0.176	0.099
-525.004	654.931	0.059	-0.152
-523.989	-20.388	0.213	-0.130
-522.975	-147.475	-0.056	-0.005
-521.960	-200.000	-0.042	0.295
-520.945	575.702	0.060	0.145
-519.931	178.562	-0.046	0.067
-518.916	-3.080	0.171	-0.119
-517.902	-200.000	0.062	-0.302
-516.887	-32.436	0.098	-0.055
-515.872	611.719	-0.068	0.170
-514.858	-200.000	0.026	-0.198
-513.843	17.137	0.459	-0.363
-512.829	800.000	0.091	-0.261
-511.814	-200.000	-0.001	0.230
-510.799	317.677	0.079	0.150
-509.785	128.187	0.043	0.054
-508.770	379.850	0.149	0.305
-507.756	-108.112	0.098	-0.021
-506.741	800.000	0.051	0.174
-505.726	-200.000	-0.005	-0.189
-504.712	48.623	0.041	0.039
-503.697	582.739	-0.130	-0.317
-502.683	-200.000	-0.014	0.268
-501.668	18.669	0.222	-0.177
-500.653	343.255	0.137	0.266
-499.639	-30.582	-0.128	0.072
-498.624	-14.411	0.269	-0.172
-497.610	-40.146	0.084	0.043
-496.595	-200.000	0.005	-0.121
-495.581	-163.240	-0.397	0.019
-494.566	-90.700	-0.139	-0.040
-493.551	-200.000	0.035	0.269
-492.537	116.763	0.132	-0.162
-491.522	132.057	0.105	-0.134
-490.508	-110.021	-0.242	0.050
-489.493	-35.868	0.361	0.195
-488.478	177.495	0.089	0.129
-487.464	760.023	0.113	0.305
-486.449	59.257	0.106	0.104
-485.435	98.555	-0.107	-0.123
-484.420	5.718	0.040	-0.030
-483.405	-200.000	-0.012	-0.096
-482.391	-44.240	-0.489	0.244
-481.376	223.393	-0.017	0.026
-480.362	-127.749	0.499	0.072
-479.347	275.308	-0.084	0.148
-478.332	204.793	0.045	0.070
-477.318	94.121	0.056	0.063
-476.303	-22.789	0.343	-0.206
-475.289	800.000	-0.058	-0.165
-474.274	787.105	0.115	0.313
-473.259	-147.165	-0.106	0.009
-472.245	-148.495	-0.109	0.009
-471.230	-62.384	0.014	-0.006
-470.216	-56.845	-0.130	-0.057
-469.201	575.930	0.026	0.064
-468.186	-111.425	0.122	-0.025
-467.172	114.302	-0.188	0.227
-466.157	5.705	0.130	0.095
-465.143	-47.727	-0.205	0.099
-464.128	-88.341	0.301	0.089
-463.113	332.271	-0.225	0.431
-462.099	69.503	-0.042	0.043
-461.084	-200.000	0.005	0.029
-460.070	719.692	0.049	0.130
-459.055	10.551	0.129	-0.097
-458.040	800.000	-0.032	-0.100
-457.026	800.000	0.045	-0.176
-456.011	800.000	0.047	-0.146
-454.997	-44.888	-0.271	-0.134
-453.982	384.734	-0.048	-0.097
-452.968	-117.475	-0.153	-0.027
-451.953	116.436	-0.069	-0.084
-450.938	86.976	-0.102	-0.112
-449.924	173.807	-0.130	0.186
-448.909	-200.000	0.032	-0.243
-447.895	28.354	0.225	0.189
-446.880	800.000	0.123	0.387
-445.865	800.000	-0.039	0.141
-444.851	181.894	-0.061	0.089
-443.836	-2.545	-0.330	-0.230
-442.822	-200.000	-0.004	-0.108
-441.807	-6.610	-0.204	-0.138
-440.792	313.988	-0.223	-0.417
-439.778	180.647	-0.148	-0.215
-438.763	59.915	0.038	0.037
-437.749	-50.720	0.227	0.106
-436.734	-200.000	-0.080	-0.490
-435.719	139.626	0.138	-0.181
-434.705	59.600	-0.200	-0.195
-433.690	78.963	-0.131	-0.140
-432.676	362.142	0.232	-0.462
-431.661	318.136	0.133	-0.250
-430.646	-57.428	-0.229	0.100
-429.632	3.726	0.188	0.136
-428.617	-200.000	0.072	-0.378
-427.603	-124.262	-0.104	-0.016
-426.588	-81.133	-0.278	0.091
-425.573	-34.970	-0.139	0.075
-424.559	93.521	0.088	-0.099
-423.544	-74.788	0.072	0.026
-422.530	-200.000	-0.052	0.405
-421.515	232.276	0.102	-0.166
-420.500	-91.106	0.304	-0.087
-419.486	107.732	0.126	0.149
-418.471	33.632	-0.185	0.160
-417.457	457.632	0.122	-0.270
-416.442	-94.456	-0.266	-0.072
-415.428	-200.000	0.013	-0.138
-414.413	-67.325	-0.135	-0.053
-413.398	64.308	-0.054	0.054
-412.384	-200.000	-0.040	0.302
-411.369	-29.911	0.024	-0.014
-410.355	370.204	-0.086	-0.172
-409.340	-109.099	-0.115	-0.024
-408.325	456.209	-0.089	0.195
-407.311	104.909	-0.092	-0.107
-406.296	59.026	0.181	0.177
-405.282	-7.087	-0.049	-0.033
-404.267	268.269	-0.083	0.144
-403.252	-200.000	-0.002	0.039
-402.238	37.171	-0.055	-0.048
-401.223	-200.000	0.022	0.143
-400.209	2.662	0.123	0.089
-399.194	-56.977	-0.163	0.071
-398.179	262.472	-0.079	0.136
-397.165	286.823	0.211	0.377
-396.150	-47.413	0.319	-0.154
-395.136	111.163	0.038	-0.046
-394.121	22.099	0.077	0.062
-393.106	-107.086	-0.162	-0.035
-392.092	73.779	-0.179	-0.186
-391.077	-157.836	-0.101	-0.006
-390.063	-200.000	0.006	0.124
-389.048	156.250	0.192	-0.262
-388.033	33.304	0.056	-0.049
-387.019	457.758	-0.126	-0.278
-386.004	17.508	-0.076	0.060
-384.990	163.051	0.092	0.129
-383.975	-90.961	0.313	0.089
-382.960	-200.000	-0.064	-0.300
-381.946	800.000	-0.141	0.399
-380.931	499.770	-0.080	0.184
-379.917	-75.798	0.278	0.098
-378.902	-200.000	0.003	0.080
-377.888	91.347	-0.090	0.100
-376.873	-200.000	0.017	-0.123
-375.858	-87.063	0.029	0.009
-374.844	-69.637	0.345	0.131
-373.829	-29.700	-0.170	0.096
-372.815	-135.382	0.117	0.014
-371.800	-51.871	0.458	-0.211
-370.785	-120.711	0.044	0.007
-369.771	800.000	-0.081	-0.253
-368.756	107.636	-0.176	0.208
-367.742	597.596	0.128	-0.314
-366.727	560.951	0.049	-0.116
-365.712	151.277	0.140	-0.189
-364.698	-85.095	0.361	0.112
-363.683	69.973	-0.297	-0.303
-362.669	800.000	-0.065	-0.192
-361.654	-87.561	-0.266	0.080
-360.639	-200.000	-0.001	0.401
-359.625	-76.421	0.221	-0.077
-358.610	17.092	-0.170	0.133
-357.596	132.714	0.203	-0.260
-356.581	800.000	-0.040	-0.128
-355.566	-200.000	-0.006	-0.394
-354.552	27.968	0.058	0.048
-353.537	-177.349	-0.320	0.008
-352.523	-135.219	0.126	-0.015
-351.508	-200.000	-0.005	-0.321
-350.493	103.078	-0.235	-0.272
-349.479	-142.232	0.106	0.010
-348.464	35.620	-0.088	0.076
-347.450	800.000	0.044	-0.169
-346.435	686.275	-0.080	-0.207
-345.420	-113.737	0.289	0.056
-344.406	-45.493	-0.252	0.123
-343.391	28.305	0.115	0.096
-342.377	-200.000	-0.023	0.222
-341.362	44.295	0.120	-0.109
-340.348	-135.192	-0.396	0.047
-339.333	-200.000	-0.013	0.115
-338.318	156.012	-0.043	0.059
-337.304	-34.587	-0.170	0.092
-336.289	-130.093	0.197	0.027
-335.275	317.822	0.158	-0.295
-334.260	-67.008	0.174	-0.068
-333.245	-48.188	0.305	0.145
-332.231	290.615	0.069	0.125
-331.216	-200.000	-0.020	0.287
-330.202	-134.273	0.291	-0.035
-329.187	-182.873	0.236	-0.004
-328.172	-77.713	0.259	0.089
-327.158	235.661	0.189	0.309
-326.143	-107.894	0.296	0.064
-325.129	322.253	-0.096	-0.181
-324.114	-33.277	0.336	0.184
-323.099	-200.000	-0.011	0.304
-322.085	-93.762	-0.148	0.040
-321.070	-123.456	-0.179	0.028
-320.056	758.532	0.077	-0.206
-319.041	-102.505	-0.176	0.042
-318.026	63.895	-0.142	-0.141
-317.012	47.677	0.084	-0.078
-315.997	-200.000	-0.032	-0.169
-314.983	-190.945	-0.291	-0.003
-313.968	-20.656	0.260	-0.158
-312.953	-172.228	0.240	-0.008
-311.939	-16.061	-0.313	-0.196
-310.924	48.615	0.107	-0.099
-309.910	-102.341	-0.209	0.050
-308.895	-99.704	-0.082	-0.020
-307.880	780.144	-0.057	-0.154
-306.866	-8.937	-0.316	0.209
-305.851	-200.000	-0.055	0.284
-304.837	-55.703	-0.163	0.072
-303.822	769.671	0.040	-0.108
-302.807	800.000	-0.088	0.287
-301.793	169.989	0.122	0.173
-300.778	303.652	-0.091	0.167
-299.764	-81.336	-0.124	0.040
-298.749	-95.510	0.449	0.119
-297.735	194.441	-0.082	-0.123
-296.720	-83.009	0.189	-0.060
-295.705	-200.000	-0.009	0.132
-294.691	44.022	-0.268	0.243
-293.676	279.154	-0.222	0.391
-292.662	-61.601	0.079	0.033
-291.647	59.830	0.331	-0.323
-290.632	8.755	-0.080	-0.060
-289.618	18.319	0.260	-0.205
-288.603	-30.192	0.316	0.177
-287.589	-83.235	0.173	-0.055
-286.574	-162.035	0.256	0.013
-285.559	644.827	-0.024	0.060
-284.545	-200.000	-0.013	-0.331
-283.530	201.511	0.096	-0.146
-282.516	-85.618	0.122	-0.037
-281.501	-29.206	-0.228	-0.129
-280.486	-119.016	-0.205	-0.035
-279.472	-59.022	-0.606	0.258
-278.457	721.849	0.069	-0.181
-277.443	188.421	0.184	-0.271
-276.428	-200.000	0.017	0.170
-275.413	-200.000	0.030	0.146
-274.399	247.491	-0.006	-0.011
-273.384	800.000	0.034	0.115
-272.370	-77.330	0.049	0.017
-271.355	436.973	-0.098	-0.210
-270.340	-200.000	0.018	0.123
-269.326	99.818	0.113	-0.129
-268.311	-200.000	0.010	0.064
-267.297	28.964	-0.104	-0.087
-266.282	-6.266	-0.184	0.124
-265.267	-19.200	0.017	-0.011
-264.253	-129.561	-0.295	-0.040
-263.238	-43.552	-0.171	-0.085
-262.224	30.289	-0.216	0.182
-261.209	-28.687	-0.232	0.132
-260.195	-84.762	0.202	0.063
-259.180	45.951	0.339	0.310
-258.165	-200.000	-0.029	-0.354
-257.151	-200.000	-0.006	0.190
-256.136	42.411	0.148	-0.133
-255.122	-7.940	-0.056	0.037
-254.107	296.685	-0.244	0.442
-253.092	-138.040	-0.139	0.015
-252.078	-200.000	-0.014	-0.138
-251.063	403.908	-0.121	0.250
-250.049	233.879	0.143	-0.232
-249.034	-69.696	-0.225	0.085
-248.019	800.000	0.072	0.224
-247.005	-97.368	-0.199	-0.051
-245.990	-106.629	0.123	-0.027
-244.976	800.000	0.031	0.121
-243.961	-200.000	0.021	0.244
-242.946	198.833	0.077	0.116
-241.932	46.255	-0.209	0.191
-240.917	-66.539	0.060	-0.023
-239.903	-7.706	-0.092	0.061
-238.888	-158.215	0.304	0.017
-237.873	78.265	-0.173	0.182
-236.859	800.000	0.085	0.338
-235.844	800.000	-0.063	0.241
-234.830	-200.000	0.080	-0.390
-233.815	153.446	-0.095	-0.128
-232.800	43.152	-0.121	0.109
-231.786	-113.643	0.055	0.010
-230.771	665.110	-0.068	-0.172
-229.757	-6.287	0.189	0.127
-228.742	3.721	-0.211	-0.151
-227.727	196.695	-0.127	0.191
-226.713	-200.000	0.047	0.224
-225.698	-145.649	0.307	-0.027
-224.684	-200.000	0.004	0.374
-223.669	8.807	-0.137	0.102
-222.655	209.463	-0.026	0.039
-221.640	-120.041	-0.125	0.021
-220.625	-115.302	-0.219	-0.041
-219.611	-200.000	-0.043	0.229
-218.596	-163.282	0.160	0.008
-217.582	-200.000	0.047	0.207
-216.567	800.000	0.086	-0.273
-215.552	192.450	0.146	-0.216
-214.538	-200.000	-0.035	-0.208
-213.523	208.722	0.036	0.056
-212.509	-28.224	0.154	-0.087
-211.494	-200.000	-0.034	-0.333
-210.479	25.126	-0.225	-0.184
-209.465	-67.817	0.271	-0.104
-208.450	515.735	-0.061	-0.140
-207.436	-200.000	0.007	-0.094
-206.421	228.208	-0.212	-0.340
-205.406	76.049	-0.242	-0.252
-204.392	715.801	0.071	-0.184
-203.377	253.881	-0.185	-0.312
-202.363	-88.188	-0.311	-0.092
-201.348	167.109	-0.035	-0.049
-200.333	-55.979	-0.169	0.074
-199.319	-184.787	0.182	-0.003
-198.304	388.361	0.074	0.151
-197.290	-38.323	0.107	-0.056
-196.275	800.000	-0.087	-0.322
-195.260	94.525	0.085	-0.095
-194.246	-111.669	0.257	0.051
-193.231	-170.898	-0.153	0.005
-192.217	-200.000	0.004	-0.188
-191.202	-61.229	-0.281	-0.117
-190.187	98.277	-0.046	0.053
-189.173	-93.682	-0.231	-0.063
-188.158	-112.717	-0.321	-0.063
-187.144	-99.335	-0.232	0.058
-186.129	-200.000	0.068	-0.440
-185.114	-200.000	-0.026	-0.147
-184.100	-86.710	0.264	0.079
-183.085	-88.953	0.110	0.032
-182.071	-96.641	0.093	-0.024
-181.056	-200.000	0.060	-0.282
-180.042	-172.981	-0.302	0.009
-179.027	-120.390	0.258	-0.043
-178.012	-151.586	0.402	0.029
-176.998	291.873	-0.139	0.250
-175.983	-72.362	0.433	0.157
-174.969	-10.152	0.131	-0.086
-173.954	800.000	-0.046	0.138
-172.939	-45.062	0.228	0.112
-171.925	-53.530	-0.140	0.063
-170.910	610.033	0.103	0.252
-169.896	56.637	0.049	0.047
-168.881	800.000	0.041	0.114
-167.866	-9.151	-0.180	-0.118
-166.852	43.056	-0.271	0.243
-165.837	-124.235	0.141	0.022
-164.823	-59.441	0.119	0.050
-163.808	-58.849	0.161	0.068
-162.793	281.693	-0.156	0.274
-161.779	41.089	-0.090	-0.080
-160.764	104.609	-0.179	-0.208
-159.750	98.859	-0.100	0.114
-158.735	-31.336	-0.331	0.183
-157.720	-200.000	0.016	0.236
-156.706	288.477	0.033	0.059
-155.691	461.459	-0.058	-0.127
-154.677	-108.653	0.116	-0.025
-153.662	-200.000	-0.011	0.342
-152.647	-155.249	-0.164	0.010
-151.633	-9.421	0.212	-0.139
-150.618	-200.000	0.004	-0.025
-149.604	-126.700	-0.104	-0.015
-148.589	-57.455	0.129	0.056
-147.574	36.859	0.230	0.199
-146.560	260.451	0.060	0.102
-145.545	37.033	0.128	0.111
-144.531	199.998	0.113	0.171
-143.516	-200.000	0.030	-0.165
-142.502	-108.653	0.086	0.018
-141.487	-71.827	0.190	0.070
-140.472	-200.000	0.007	-0.292
-139.458	-142.687	-0.248	-0.024
-138.443	238.513	0.208	-0.339
-137.429	32.822	0.131	0.111
-136.414	114.409	0.160	-0.191
-135.399	-2.139	0.168	0.116
-134.385	-200.000	0.006	-0.473
-133.370	331.545	-0.080	0.151
-132.356	117.963	-0.048	0.058
-131.341	-200.000	-0.040	-0.220
-130.326	-152.309	-0.209	0.015
-129.312	118.465	-0.173	-0.209
-128.297	-36.510	-0.234	-0.124
-127.283	-169.504	-0.228	-0.008
-126.268	120.145	0.313	-0.381
-125.253	112.118	-0.184	0.218
-124.239	-99.112	-0.154	-0.038
-123.224	60.456	0.182	0.177
-122.210	-200.000	-0.004	-0.128
-121.195	-139.017	0.352	0.037
-120.180	202.425	0.151	0.228
