DTS Sentinel unit serial number:	SN413079Multiplexer serial number:	ORYXHardware model number:	OX4-SRSoftware version number:	ORYX F/W v4.00 Oryx Data Collector v3.7.2.0data status	okinstallation	princeton_trtdifferential loss correction	single-endedforward channel	channel 2reverse channel	N/Adate	2019/09/19time	10:51:35forward acquisition time	60.00reverse acquisition time	0.00gamma	496.2192k internal	0.2342k external	0.2342temperature offset calibration	1.0009default loss term (dB/km)	0.3790temperature slope calibration	1.0000multiplexer offset coefficient	1.0000multiplexer slope coefficient	1.0000fibre end	0.00T internal ref (°C)	24.75T ext. ref 1 (°C)	0.74T ext. ref 2 (°C)	20.17length (m)	temperature (°C)	Stokes	anti-Stokes-747.200	141.689	0.260	0.344
-746.185	-115.574	-0.127	0.024
-745.171	-200.000	0.015	0.141
-744.156	-109.571	-0.291	0.061
-743.142	800.000	0.022	0.087
-742.127	-124.925	-0.233	-0.036
-741.112	177.334	0.257	-0.376
-740.098	-114.616	-0.453	0.087
-739.083	-93.025	-0.062	-0.017
-738.069	-97.727	-0.400	-0.104
-737.054	-200.000	-0.044	-0.245
-736.039	-70.730	-0.313	0.118
-735.025	65.140	0.184	0.186
-734.010	-200.000	-0.005	-0.430
-732.996	368.616	0.046	0.092
-731.981	-76.410	-0.632	0.223
-730.966	303.966	0.078	0.145
-729.952	9.063	0.367	-0.277
-728.937	-200.000	-0.029	-0.365
-727.923	800.000	-0.169	-0.698
-726.908	-10.334	-0.082	-0.055
-725.894	-120.715	0.041	-0.007
-724.879	354.953	0.037	0.073
-723.864	10.097	-0.152	-0.116
-722.850	-35.389	0.237	0.129
-721.835	311.814	0.050	0.094
-720.821	800.000	-0.030	0.103
-719.806	-158.332	0.346	0.020
-718.791	27.500	-0.291	-0.245
-717.777	666.832	-0.060	-0.154
-716.762	-129.125	-0.119	0.017
-715.748	800.000	0.070	0.291
-714.733	-22.495	0.047	0.029
-713.718	-200.000	-0.075	0.332
-712.704	-200.000	0.030	-0.270
-711.689	85.411	0.104	0.115
-710.675	-200.000	-0.006	-0.189
-709.660	188.244	0.074	-0.111
-708.645	800.000	0.051	0.175
-707.631	9.285	0.086	-0.065
-706.616	-12.794	0.204	0.133
-705.602	-75.377	-0.283	0.101
-704.587	14.652	-0.109	0.085
-703.572	-59.810	0.062	-0.026
-702.558	-187.170	-0.146	0.002
-701.543	23.108	-0.266	0.218
-700.529	-76.508	0.203	0.071
-699.514	-200.000	0.002	-0.014
-698.499	0.220	-0.023	-0.016
-697.485	-50.707	0.198	0.093
-696.470	-91.246	0.284	-0.081
-695.456	247.240	0.125	-0.211
-694.441	-10.859	0.201	0.133
-693.426	-89.778	-0.336	-0.098
-692.412	-131.654	0.075	0.010
-691.397	54.265	0.212	0.204
-690.383	43.216	0.214	-0.195
-689.368	-200.000	0.011	-0.300
-688.354	800.000	0.074	-0.267
-687.339	-68.459	0.138	-0.053
-686.324	-8.013	-0.155	0.104
-685.310	-181.781	0.168	0.003
-684.295	-200.000	0.006	-0.177
-683.281	-46.026	-0.113	-0.055
-682.266	800.000	-0.053	0.187
-681.251	-200.000	-0.025	0.158
-680.237	800.000	0.047	-0.132
-679.222	76.621	0.115	0.122
-678.208	221.771	-0.228	0.366
-677.193	800.000	-0.132	-0.366
-676.178	800.000	0.057	-0.204
-675.164	227.903	0.023	-0.038
-674.149	-200.000	0.003	0.080
-673.135	-66.895	-0.348	-0.137
-672.120	-35.763	0.262	0.142
-671.105	471.034	0.115	0.259
-670.091	800.000	-0.038	-0.139
-669.076	-200.000	0.031	0.170
-668.062	-44.999	-0.173	-0.086
-667.047	-42.319	-0.306	-0.156
-666.032	-200.000	0.015	-0.110
-665.018	14.051	0.063	0.049
-664.003	-200.000	-0.026	0.367
-662.989	124.079	0.137	-0.172
-661.974	-200.000	-0.008	-0.114
-660.959	-61.905	0.292	0.122
-659.945	760.562	0.046	-0.126
-658.930	-148.482	0.189	0.015
-657.916	-64.581	-0.027	-0.011
-656.901	-200.000	0.028	0.150
-655.886	60.846	-0.031	-0.030
-654.872	54.638	-0.095	0.091
-653.857	-15.380	0.225	-0.143
-652.843	-200.000	0.007	0.075
-651.828	29.816	0.156	-0.133
-650.814	30.096	0.226	0.192
-649.799	111.944	-0.037	0.045
-648.784	-31.888	0.392	-0.219
-647.770	-143.544	-0.333	0.032
-646.755	-132.475	-0.333	-0.043
-645.741	271.442	-0.083	0.146
-644.726	624.605	-0.020	0.050
-643.711	112.528	-0.039	-0.047
-642.697	-200.000	-0.003	-0.300
-641.682	-50.649	-0.108	-0.051
-640.668	-60.421	0.132	0.056
-639.653	-161.517	-0.378	-0.019
-638.638	-17.346	0.168	0.106
-637.624	90.401	0.250	0.279
-636.609	261.932	-0.088	-0.153
-635.595	95.885	0.285	-0.325
-634.580	189.329	0.081	0.120
-633.565	599.052	-0.077	0.190
-632.551	48.883	0.298	-0.279
-631.536	245.218	-0.165	-0.277
-630.522	201.957	-0.078	-0.120
-629.507	311.306	-0.131	-0.244
-628.492	800.000	0.074	-0.211
-627.478	-200.000	0.012	0.110
-626.463	800.000	0.058	-0.204
-625.449	-50.349	-0.069	0.033
-624.434	333.478	0.012	0.024
-623.419	35.914	0.139	-0.122
-622.405	-73.600	0.340	-0.123
-621.390	-91.577	-0.060	0.017
-620.376	13.496	0.131	-0.101
-619.361	1.281	-0.256	-0.184
-618.346	800.000	0.083	0.244
-617.332	800.000	-0.098	0.298
-616.317	-50.781	0.189	-0.088
-615.303	-24.794	0.288	-0.171
-614.288	31.100	0.116	-0.099
-613.273	132.844	-0.196	0.252
-612.259	-35.482	-0.289	-0.157
-611.244	-90.999	-0.171	-0.049
-610.230	800.000	-0.045	-0.164
-609.215	-200.000	-0.005	0.031
-608.201	-200.000	0.022	0.263
-607.186	800.000	0.038	0.133
-606.171	800.000	-0.081	-0.242
-605.157	-0.608	0.143	0.101
-604.142	96.719	-0.095	0.108
-603.128	-54.729	0.251	-0.113
-602.113	10.418	-0.293	-0.222
-601.098	-113.574	0.252	0.049
-600.084	484.695	0.105	0.239
-599.069	-200.000	0.038	0.192
-598.055	-200.000	-0.012	-0.301
-597.040	-200.000	0.021	-0.200
-596.025	688.535	-0.070	-0.183
-595.011	-200.000	0.000	0.041
-593.996	-63.798	-0.091	-0.037
-592.982	-200.000	0.063	0.384
-591.967	29.768	0.124	-0.105
-590.952	800.000	0.024	0.100
-589.938	4.255	-0.095	-0.069
-588.923	203.458	-0.138	0.212
-587.909	56.943	0.128	0.124
-586.894	3.245	0.259	0.187
-585.879	-90.883	-0.257	-0.074
-584.865	-128.093	-0.261	-0.037
-583.850	-200.000	-0.021	-0.099
-582.836	362.663	0.011	-0.022
-581.821	-200.000	-0.032	-0.282
-580.806	-4.354	0.172	-0.119
-579.792	-68.825	-0.074	0.028
-578.777	-85.590	-0.207	-0.064
-577.763	481.117	0.217	-0.491
-576.748	800.000	-0.128	-0.385
-575.733	-74.165	-0.195	0.070
-574.719	86.671	-0.107	-0.118
-573.704	-142.822	-0.090	0.009
-572.690	-70.158	-0.535	-0.202
-571.675	21.970	-0.126	-0.103
-570.661	-200.000	0.000	-0.346
-569.646	14.707	0.032	-0.025
-568.631	3.760	-0.121	-0.088
-567.617	180.055	0.051	-0.075
-566.602	33.128	-0.086	0.074
-565.588	-142.949	0.153	-0.015
-564.573	-104.459	-0.377	-0.087
-563.558	-200.000	0.034	-0.230
-562.544	-138.557	0.231	-0.025
-561.529	180.096	-0.102	-0.149
-560.515	85.406	-0.298	-0.326
-559.500	84.064	-0.255	0.277
-558.485	-200.000	-0.034	-0.186
-557.471	-200.000	-0.005	-0.087
-556.456	-85.125	-0.246	-0.077
-555.442	-148.228	-0.053	-0.004
-554.427	3.577	-0.248	-0.180
-553.412	-82.698	-0.178	0.057
-552.398	-131.778	-0.214	0.028
-551.383	53.789	-0.084	-0.080
-550.369	-26.399	0.231	0.135
-549.354	122.344	-0.106	-0.132
-548.339	766.214	-0.087	0.235
-547.325	-65.592	-0.271	0.108
-546.310	184.203	0.147	-0.217
-545.296	-12.867	0.144	0.093
-544.281	-200.000	-0.029	-0.134
-543.266	-101.733	-0.064	0.015
-542.252	800.000	-0.081	-0.293
-541.237	39.826	0.208	-0.186
-540.223	-200.000	0.010	0.145
-539.208	14.383	-0.178	-0.138
-538.193	56.513	0.256	-0.248
-537.179	-29.988	-0.168	-0.095
-536.164	-111.421	-0.124	-0.025
-535.150	-30.323	0.059	0.033
-534.135	444.092	-0.040	0.087
-533.121	-62.105	0.261	0.108
-532.106	-65.453	-0.248	0.099
-531.091	-200.000	0.011	0.179
-530.077	800.000	0.062	0.254
-529.062	-200.000	-0.030	-0.315
-528.048	-52.819	0.454	-0.208
-527.033	-85.947	0.400	0.123
-526.018	158.419	0.243	0.334
-525.004	-50.114	0.160	0.075
-523.989	620.929	-0.020	0.051
-522.975	407.253	-0.077	0.163
-521.960	-17.620	0.107	-0.067
-520.945	554.227	0.131	0.313
-519.931	-88.721	-0.170	-0.050
-518.916	-95.775	-0.225	0.060
-517.902	-14.117	0.186	-0.119
-516.887	-103.897	0.074	-0.017
-515.872	250.231	-0.020	-0.033
-514.858	263.607	-0.043	0.073
-513.843	-8.421	0.145	0.097
-512.829	72.290	0.279	0.288
-511.814	433.308	-0.074	0.159
-510.799	186.434	-0.197	0.291
-509.785	35.293	-0.113	0.098
-508.770	800.000	0.084	0.307
-507.756	-200.000	-0.014	-0.069
-506.741	-44.609	0.145	0.072
-505.726	-71.152	-0.154	-0.058
-504.712	601.570	0.167	-0.411
-503.697	-200.000	0.029	-0.422
-502.683	563.270	-0.042	-0.102
-501.668	800.000	0.028	0.097
-500.653	-51.905	0.152	0.070
-499.639	-155.931	-0.084	-0.005
-498.624	-158.566	-0.120	-0.007
-497.610	20.875	0.048	0.038
-496.595	800.000	0.055	0.231
-495.581	-70.043	-0.330	0.125
-494.566	-200.000	-0.039	-0.351
-493.551	800.000	0.069	-0.215
-492.537	800.000	-0.029	-0.099
-491.522	-51.995	-0.102	-0.047
-490.508	751.881	-0.016	-0.042
-489.493	-200.000	-0.020	0.119
-488.478	37.413	-0.135	-0.118
-487.464	77.022	0.189	0.199
-486.449	-24.864	-0.173	0.102
-485.435	-26.991	-0.268	-0.155
-484.420	74.449	0.129	-0.135
-483.405	139.867	0.275	0.359
-482.391	-200.000	0.001	-0.030
-481.376	-200.000	-0.005	-0.075
-480.362	-95.184	-0.115	-0.031
-479.347	-13.845	-0.109	-0.070
-478.332	34.813	0.286	0.248
-477.318	-200.000	-0.025	-0.116
-476.303	179.567	-0.120	0.175
-475.289	-77.134	-0.180	-0.062
-474.274	800.000	0.074	-0.298
-473.259	196.890	0.090	0.137
-472.245	-110.399	0.087	0.018
-471.230	-24.136	0.183	0.109
-470.216	118.583	-0.162	0.198
-469.201	280.758	0.120	0.213
-468.186	800.000	-0.020	-0.073
-467.172	44.131	0.167	-0.152
-466.157	168.825	0.184	-0.260
-465.143	452.033	-0.056	-0.122
-464.128	518.073	-0.087	0.202
-463.113	-3.970	0.220	-0.151
-462.099	1.139	0.085	0.061
-461.084	-73.487	-0.178	0.064
-460.070	86.816	-0.168	0.184
-459.055	-158.211	0.291	-0.017
-458.040	-200.000	-0.051	-0.314
-457.026	-157.149	-0.061	-0.004
-456.011	142.777	0.192	-0.253
-454.997	-18.915	0.060	0.037
-453.982	-63.719	0.383	0.155
-452.968	800.000	-0.094	0.273
-451.953	-82.913	0.293	0.094
-450.938	-2.079	0.036	-0.025
-449.924	51.436	-0.174	-0.164
-448.909	131.887	-0.012	-0.016
-447.895	97.778	-0.076	0.087
-446.880	-200.000	0.061	-0.465
-445.865	106.074	0.107	0.126
-444.851	79.224	0.119	0.126
-443.836	84.115	0.092	0.099
-442.822	-62.009	0.218	0.090
-441.807	-200.000	-0.012	0.162
-440.792	-18.156	0.200	0.124
-439.778	-13.089	0.243	0.157
-438.763	-200.000	-0.007	0.259
-437.749	-9.027	0.346	-0.229
-436.734	-168.559	0.135	0.005
-435.719	-159.315	-0.618	0.034
-434.705	-61.972	0.135	-0.056
-433.690	0.342	0.146	-0.103
-432.676	-28.434	0.129	0.074
-431.661	-164.734	0.234	-0.010
-430.646	264.503	0.045	0.078
-429.632	13.069	0.044	0.034
-428.617	-200.000	-0.056	-0.368
-427.603	-56.681	-0.206	-0.090
-426.588	-70.055	-0.262	0.099
-425.573	93.896	-0.355	0.398
-424.559	158.116	0.063	0.086
-423.544	-25.028	0.250	-0.147
-422.530	-39.770	-0.327	0.169
-421.515	-41.927	-0.063	-0.032
-420.500	-5.421	0.072	-0.049
-419.486	800.000	-0.035	-0.142
-418.471	-157.901	-0.360	-0.021
-417.457	-123.652	-0.264	-0.041
-416.442	168.582	-0.050	-0.070
-415.428	-200.000	-0.005	-0.060
-414.413	-25.340	-0.218	0.128
-413.398	-131.462	-0.101	0.013
-412.384	11.047	-0.053	-0.040
-411.369	-99.850	-0.065	0.016
-410.355	-200.000	0.036	-0.310
-409.340	19.283	-0.147	0.117
-408.325	-74.638	0.017	0.006
-407.311	-200.000	-0.002	-0.072
-406.296	-12.069	0.103	-0.067
-405.282	99.634	-0.111	0.127
-404.267	-200.000	0.036	0.241
-403.252	525.416	-0.048	0.112
-402.238	129.430	0.037	0.047
-401.223	93.233	-0.080	-0.090
-400.209	-200.000	-0.002	0.251
-399.194	111.062	0.121	0.144
-398.179	-182.513	-0.521	-0.009
-397.165	-64.788	-0.069	0.027
-396.150	69.968	0.167	0.170
-395.136	190.525	-0.081	-0.120
-394.121	-115.162	-0.211	0.040
-393.106	-55.922	-0.190	-0.084
-392.092	1.934	0.047	0.033
-391.077	9.490	0.235	-0.176
-390.063	79.464	-0.372	0.394
-389.048	-200.000	-0.026	0.405
-388.033	517.026	0.098	-0.226
-387.019	327.357	0.148	-0.281
-386.004	38.718	-0.101	-0.089
-384.990	669.825	-0.046	0.117
-383.975	-200.000	-0.023	-0.107
-382.960	75.122	0.242	-0.251
-381.946	-200.000	0.024	-0.203
-380.931	430.116	-0.105	0.223
-379.917	-71.183	-0.125	0.046
-378.902	-200.000	-0.021	0.114
-377.888	-200.000	-0.015	0.381
-376.873	800.000	-0.012	0.044
-375.858	88.221	0.101	0.110
-374.844	242.947	-0.127	0.210
-373.829	-195.123	-0.226	0.002
-372.815	-57.701	-0.543	0.235
-371.800	-63.574	-0.343	0.139
-370.785	-200.000	-0.039	0.189
-369.771	574.435	-0.075	0.179
-368.756	800.000	-0.091	-0.339
-367.742	-50.858	-0.033	0.015
-366.727	-54.684	-0.100	-0.044
-365.712	-200.000	0.021	0.251
-364.698	-75.216	-0.159	0.056
-363.683	-27.149	-0.169	0.097
-362.669	618.683	-0.070	-0.174
-361.654	-118.775	-0.149	0.026
-360.639	5.512	-0.394	0.287
-359.625	228.923	0.054	-0.088
-358.610	-89.215	0.198	0.058
-357.596	122.149	0.120	-0.148
-356.581	-142.101	0.257	0.025
-355.566	30.620	-0.122	0.103
-354.552	-200.000	-0.031	0.194
-353.537	78.049	0.190	0.200
-352.523	330.845	0.130	0.248
-351.508	5.057	0.166	0.120
-350.493	-17.933	-0.280	-0.173
-349.479	-86.397	0.060	-0.018
-348.464	289.986	0.083	-0.148
-347.450	29.156	-0.112	-0.094
-346.435	53.369	-0.073	0.069
-345.420	-200.000	-0.003	0.144
-344.406	473.230	-0.073	-0.163
-343.391	14.954	0.259	-0.200
-342.377	413.443	0.050	-0.104
-341.362	800.000	-0.133	-0.407
-340.348	-200.000	-0.015	-0.169
-339.333	27.132	0.125	0.103
-338.318	-200.000	0.002	-0.028
-337.304	18.211	0.298	0.235
-336.289	18.476	-0.208	-0.164
-335.275	772.316	-0.097	-0.260
-334.260	36.878	-0.259	0.226
-333.245	-200.000	0.105	-0.469
-332.231	343.743	-0.087	0.168
-331.216	74.294	0.260	-0.270
-330.202	-15.389	0.202	-0.127
-329.187	146.628	0.075	-0.099
-328.172	800.000	0.002	-0.006
-327.158	800.000	-0.034	-0.107
-326.143	-200.000	0.033	0.268
-325.129	79.256	-0.053	-0.056
-324.114	7.459	0.067	0.050
-323.099	44.026	0.253	-0.229
-322.085	360.665	0.107	0.210
-321.070	-87.084	0.239	0.072
-320.056	88.612	0.220	-0.241
-319.041	-23.081	-0.182	-0.108
-318.026	800.000	-0.023	0.071
-317.012	-140.079	0.346	-0.036
-315.997	-200.000	-0.010	0.067
-314.983	-200.000	0.044	0.265
-313.968	-140.711	0.148	-0.015
-312.953	297.053	0.053	-0.095
-311.939	44.871	0.174	0.158
-310.924	-74.232	0.358	-0.128
-309.910	-200.000	0.036	-0.194
-308.895	-200.000	0.008	0.153
-307.880	471.654	0.069	-0.153
-306.866	-200.000	0.017	0.196
-305.851	365.702	-0.082	0.162
-304.837	-200.000	0.044	-0.200
-303.822	29.029	0.156	0.131
-302.807	-140.606	-0.313	0.032
-301.793	-126.233	-0.175	-0.026
-300.778	181.978	0.055	0.080
-299.764	-200.000	0.017	-0.312
-298.749	800.000	0.091	-0.271
-297.735	237.818	0.051	0.084
-296.720	-111.867	-0.073	0.014
-295.705	4.261	0.390	0.281
-294.691	-61.651	-0.054	0.022
-293.676	548.924	-0.108	0.255
-292.662	5.397	-0.051	0.037
-291.647	667.709	0.031	0.078
-290.632	-75.678	-0.259	0.091
-289.618	14.339	0.154	0.118
-288.603	122.705	0.053	0.066
-287.589	109.195	-0.034	-0.040
-286.574	-110.231	-0.213	0.044
-285.559	-70.357	-0.112	-0.042
-284.545	326.692	-0.162	0.305
-283.530	400.406	0.101	-0.209
-282.516	800.000	0.023	-0.069
-281.501	197.810	0.058	0.087
-280.486	-200.000	-0.047	0.231
-279.472	-154.322	0.116	0.008
-278.457	800.000	-0.113	-0.420
-277.443	-200.000	-0.005	0.136
-276.428	-200.000	0.008	0.156
-275.413	-73.754	-0.225	-0.080
-274.399	-200.000	-0.080	-0.459
-273.384	-76.169	-0.174	-0.060
-272.370	-200.000	-0.012	-0.361
-271.355	-95.110	0.381	0.101
-270.340	-85.591	0.250	0.076
-269.326	286.650	-0.123	-0.219
-268.311	-55.756	0.156	0.068
-267.297	-74.956	-0.347	-0.122
-266.282	-123.886	0.292	-0.045
-265.267	-175.779	0.122	0.003
-264.253	-31.773	0.187	0.103
-263.238	-200.000	0.002	0.177
-262.224	443.230	-0.069	0.149
-261.209	21.961	0.163	-0.130
-260.195	44.202	0.225	-0.203
-259.180	-30.872	-0.214	0.119
-258.165	-58.700	-0.188	0.080
-257.151	-88.742	0.200	-0.058
-256.136	-140.933	0.192	0.019
-255.122	-105.134	-0.425	-0.096
-254.107	501.101	0.158	-0.359
-253.092	97.688	-0.200	-0.226
-252.078	55.005	-0.167	0.159
-251.063	-118.956	-0.048	-0.008
-250.049	97.412	0.103	0.116
-249.034	50.797	0.305	0.284
-248.019	-3.207	0.073	-0.050
-247.005	-138.236	0.136	-0.015
-245.990	-200.000	0.032	0.213
-244.976	-113.590	0.153	-0.029
-243.961	-13.463	0.305	0.194
-242.946	-200.000	-0.010	0.160
-241.932	187.358	0.178	0.261
-240.917	-42.249	-0.360	0.180
-239.903	-12.953	-0.131	-0.083
-238.888	-4.297	0.139	0.095
-237.873	-200.000	-0.013	0.393
-236.859	-200.000	0.043	-0.257
-235.844	145.503	-0.060	-0.079
-234.830	800.000	0.043	0.148
-233.815	119.209	0.349	-0.424
-232.800	-0.159	-0.175	-0.122
-231.786	136.911	0.081	-0.104
-230.771	459.028	0.051	0.111
-229.757	-26.388	-0.166	0.096
-228.742	50.275	0.254	-0.236
-227.727	-10.073	0.100	-0.065
-226.713	440.621	-0.123	0.264
-225.698	-119.718	0.106	0.018
-224.684	-31.403	-0.199	0.110
-223.669	-57.809	0.528	0.227
-222.655	-200.000	-0.038	0.220
-221.640	400.066	-0.103	-0.213
-220.625	-55.493	-0.248	-0.109
-219.611	13.842	-0.194	0.148
-218.596	-200.000	0.068	0.361
-217.582	-194.434	0.257	-0.002
-216.567	-118.115	0.309	0.054
-215.552	-33.280	0.030	0.016
-214.538	-22.002	0.098	-0.059
-213.523	-68.297	0.179	-0.068
-212.509	-191.298	-0.212	-0.002
-211.494	-85.836	-0.231	-0.070
-210.479	-173.266	-0.153	0.005
-209.465	712.922	-0.012	0.032
-208.450	-59.286	-0.146	-0.062
-207.436	-121.160	0.058	-0.009
-206.421	-13.496	0.035	0.022
-205.406	128.131	-0.108	0.134
-204.392	-82.462	-0.142	0.045
-203.377	-200.000	-0.023	-0.586
-202.363	-14.688	0.259	-0.163
-201.348	438.593	0.075	-0.161
-200.333	-1.586	0.207	0.143
-199.319	-200.000	-0.061	0.334
-198.304	-6.280	0.076	-0.051
-197.290	-200.000	-0.060	-0.320
-196.275	37.025	-0.162	-0.141
-195.260	51.965	0.312	0.291
-194.246	739.228	0.043	0.114
-193.231	-200.000	0.013	0.107
-192.217	151.392	0.208	-0.278
-191.202	39.029	0.312	0.274
-190.187	800.000	0.047	0.200
-189.173	87.244	-0.148	-0.161
-188.158	184.095	-0.035	-0.051
-187.144	-171.618	0.415	-0.013
-186.129	-110.634	-0.150	-0.030
-185.114	321.858	-0.091	-0.170
-184.100	-100.505	-0.161	-0.039
-183.085	-200.000	-0.053	-0.263
-182.071	140.737	0.210	-0.272
-181.056	787.667	0.073	-0.196
-180.042	-200.000	-0.005	0.148
-179.027	117.457	0.294	0.355
-178.012	-110.082	0.337	-0.069
-176.998	234.829	-0.105	-0.169
-175.983	8.965	-0.284	0.210
-174.969	-40.690	0.084	-0.043
-173.954	269.744	0.088	0.151
-172.939	47.590	0.052	0.047
-171.925	705.050	0.112	0.290
-170.910	-137.230	-0.086	0.010
-169.896	-200.000	-0.030	-0.265
-168.881	108.328	-0.268	0.313
-167.866	32.373	-0.276	0.234
-166.852	-169.510	0.111	-0.004
-165.837	-62.280	0.168	0.068
-164.823	147.533	-0.092	0.122
-163.808	-112.533	-0.194	-0.038
-162.793	-200.000	0.077	0.463
-161.779	800.000	0.018	0.076
-160.764	12.981	-0.103	0.078
-159.750	-45.846	0.188	-0.091
-158.735	800.000	0.047	0.159
-157.720	39.687	0.130	0.114
-156.706	121.535	-0.208	-0.253
-155.691	-99.852	-0.178	0.043
-154.677	-44.337	-0.379	0.186
-153.662	1.515	0.192	-0.135
-152.647	-91.667	-0.168	0.047
-151.633	800.000	-0.085	0.261
-150.618	227.024	-0.059	-0.093
-149.604	77.818	0.065	-0.068
-148.589	-102.878	-0.092	-0.021
-147.574	-37.800	-0.164	0.086
-146.560	256.535	-0.151	0.254
-145.545	79.431	0.136	0.143
-144.531	-2.047	0.109	-0.075
-143.516	-53.269	0.171	-0.077
-142.502	-65.930	0.175	0.068
-141.487	254.791	0.237	0.397
-140.472	52.394	0.369	0.345
-139.458	145.211	-0.177	-0.231
-138.443	273.178	0.119	-0.206
-137.429	-153.118	-0.314	-0.022
-136.414	518.237	-0.023	0.053
-135.399	-200.000	0.012	-0.128
-134.385	-161.461	0.366	0.018
-133.370	-80.011	-0.234	-0.077
-132.356	147.525	0.104	0.137
-131.341	55.008	0.093	0.088
-130.326	-200.000	0.004	0.023
-129.312	-67.351	0.085	-0.033
-128.297	223.667	0.122	-0.192
-127.283	26.558	0.134	0.109
-126.268	-200.000	0.003	0.031
-125.253	638.950	0.131	-0.325
-124.239	-50.486	0.340	-0.157
-123.224	-200.000	0.019	0.110
-122.210	772.669	0.077	0.206
-121.195	41.883	-0.079	0.070
-120.180	-88.321	0.141	0.041
-119.166	-82.186	0.123	-0.039
