DTS Sentinel unit serial number:	SN413079Multiplexer serial number:	ORYXHardware model number:	OX4-SRSoftware version number:	ORYX F/W v4.00 Oryx Data Collector v3.7.2.0data status	okinstallation	princeton_trtdifferential loss correction	single-endedforward channel	channel 2reverse channel	N/Adate	2019/09/15time	12:31:34forward acquisition time	60.00reverse acquisition time	0.00gamma	496.2192k internal	0.2312k external	0.2312temperature offset calibration	1.0007default loss term (dB/km)	0.3790temperature slope calibration	1.0000multiplexer offset coefficient	1.0000multiplexer slope coefficient	1.0000fibre end	0.00T internal ref (°C)	35.19T ext. ref 1 (°C)	5.06T ext. ref 2 (°C)	33.03length (m)	temperature (°C)	Stokes	anti-Stokes-747.200	-82.950	-0.187	-0.061
-746.185	316.325	0.117	0.225
-745.171	-131.566	0.141	0.019
-744.156	164.951	-0.101	0.145
-743.142	800.000	-0.041	0.147
-742.127	-80.988	-0.200	0.067
-741.112	450.929	0.159	0.356
-740.098	-105.759	-0.387	0.089
-739.083	-18.249	0.160	-0.102
-738.069	-62.997	0.175	-0.073
-737.054	-200.000	0.037	0.356
-736.039	-52.696	-0.178	0.084
-735.025	800.000	0.031	-0.121
-734.010	-151.006	-0.318	0.024
-732.996	241.126	-0.229	-0.387
-731.981	547.031	0.029	0.070
-730.966	197.550	-0.085	-0.132
-729.952	-200.000	0.021	-0.228
-728.937	-147.704	-0.240	0.020
-727.923	-24.031	-0.038	0.023
-726.908	-200.000	-0.012	0.114
-725.894	-78.241	-0.157	-0.055
-724.879	800.000	-0.034	0.123
-723.864	-200.000	-0.076	0.397
-722.850	-70.071	-0.324	0.125
-721.835	94.341	0.167	0.192
-720.821	-115.852	-0.238	-0.045
-719.806	125.682	-0.140	-0.179
-718.791	-200.000	-0.006	-0.386
-717.777	-200.000	0.024	0.229
-716.762	-18.781	0.125	-0.079
-715.748	-55.220	-0.052	-0.024
-714.733	422.592	-0.064	0.138
-713.718	-200.000	0.032	-0.236
-712.704	55.518	0.194	-0.190
-711.689	-126.946	0.061	0.009
-710.675	-200.000	0.012	-0.094
-709.660	713.791	-0.046	-0.122
-708.645	800.000	-0.195	-0.553
-707.631	-84.423	-0.105	0.034
-706.616	-13.856	0.151	0.099
-705.602	-57.398	-0.267	0.119
-704.587	-190.385	0.146	0.002
-703.572	-200.000	-0.009	0.084
-702.558	-138.446	-0.027	-0.003
-701.543	-200.000	0.008	-0.133
-700.529	546.781	-0.004	-0.011
-699.514	-200.000	0.009	-0.144
-698.499	184.568	-0.121	0.181
-697.485	-141.628	-0.191	0.019
-696.470	-136.081	-0.151	-0.018
-695.456	34.400	0.061	0.054
-694.441	43.331	0.102	-0.095
-693.426	791.229	0.093	-0.258
-692.412	-32.317	-0.215	-0.121
-691.397	669.565	-0.131	-0.344
-690.383	-200.000	-0.005	-0.361
-689.368	90.147	-0.128	-0.145
-688.354	214.190	-0.063	-0.102
-687.339	800.000	-0.055	-0.197
-686.324	-126.845	0.198	-0.030
-685.310	180.024	0.025	-0.038
-684.295	246.710	-0.245	-0.418
-683.281	-41.882	-0.046	-0.024
-682.266	800.000	0.096	0.272
-681.251	-127.750	-0.125	-0.018
-680.237	800.000	0.069	-0.275
-679.222	800.000	0.063	0.247
-678.208	338.043	-0.031	0.060
-677.193	-69.309	0.146	-0.057
-676.178	-10.891	-0.169	-0.113
-675.164	-115.543	0.251	-0.048
-674.149	65.910	0.246	0.252
-673.135	-200.000	-0.012	-0.266
-672.120	800.000	-0.014	0.042
-671.105	-90.571	-0.092	0.027
-670.091	123.238	-0.176	-0.223
-669.076	800.000	0.083	0.334
-668.062	-99.434	-0.088	-0.022
-667.047	-100.790	0.123	-0.031
-666.032	45.191	0.129	-0.120
-665.018	291.292	0.163	0.299
-664.003	-125.166	-0.259	-0.040
-662.989	-200.000	-0.058	-0.260
-661.974	-105.578	-0.154	-0.035
-660.959	179.773	-0.147	-0.218
-659.945	10.198	-0.244	0.188
-658.930	-200.000	0.020	-0.309
-657.916	-96.841	-0.302	0.080
-656.901	-200.000	0.007	-0.211
-655.886	552.570	0.022	-0.053
-654.872	800.000	0.025	-0.076
-653.857	32.708	0.267	-0.233
-652.843	-86.139	0.163	0.051
-651.828	42.975	0.093	0.086
-650.814	-5.478	0.176	0.122
-649.799	-88.459	-0.185	-0.056
-648.784	-200.000	-0.041	0.204
-647.770	-200.000	-0.000	0.218
-646.755	-125.887	-0.271	0.041
-645.741	-78.403	0.184	0.064
-644.726	111.105	-0.114	-0.138
-643.711	-65.237	0.279	0.114
-642.697	555.329	-0.083	-0.201
-641.682	347.965	-0.040	-0.079
-640.668	-67.115	0.226	-0.090
-639.653	-35.541	0.212	0.117
-638.638	41.202	-0.098	-0.089
-637.624	-25.180	0.212	0.127
-636.609	-49.145	-0.259	0.125
-635.595	185.627	0.198	0.297
-634.580	-71.749	-0.172	0.065
-633.565	-138.495	-0.154	-0.017
-632.551	92.554	0.129	-0.147
-631.536	109.538	-0.059	-0.072
-630.522	-131.304	-0.224	-0.030
-629.507	-103.388	0.180	-0.043
-628.492	-154.914	-0.258	-0.017
-627.478	-91.284	-0.337	0.097
-626.463	33.164	-0.203	0.178
-625.449	-77.878	0.175	0.061
-624.434	-130.284	0.144	0.020
-623.419	323.231	0.101	-0.194
-622.405	-44.172	0.157	-0.079
-621.390	-180.790	-0.246	-0.005
-620.376	-200.000	0.010	0.073
-619.361	-9.456	0.159	0.107
-618.346	-200.000	-0.111	-0.617
-617.332	800.000	-0.034	-0.143
-616.317	-68.680	0.169	0.066
-615.303	-14.065	0.299	-0.195
-614.288	420.585	-0.091	0.196
-613.273	-39.690	0.146	0.077
-612.259	123.607	0.243	-0.308
-611.244	254.896	-0.106	-0.183
-610.230	-1.669	0.302	-0.214
-609.215	432.676	0.032	0.071
-608.201	509.464	0.215	-0.504
-607.186	19.275	0.332	0.269
-606.171	-151.756	-0.306	-0.023
-605.157	251.445	-0.153	0.263
-604.142	77.841	-0.078	0.084
-603.128	-34.396	-0.111	0.061
-602.113	-73.558	0.196	0.072
-601.098	-67.266	-0.107	-0.042
-600.084	168.400	0.071	0.102
-599.069	275.044	-0.083	-0.149
-598.055	-131.008	-0.090	-0.012
-597.040	-124.227	-0.185	0.029
-596.025	43.137	0.220	-0.203
-595.011	624.464	0.036	-0.093
-593.996	-67.780	0.071	0.028
-592.982	6.625	-0.188	0.141
-591.967	115.586	-0.270	0.333
-590.952	-18.250	-0.104	0.066
-589.938	-50.973	0.161	0.076
-588.923	-200.000	-0.003	0.066
-587.909	-14.115	-0.242	-0.157
-586.894	-200.000	-0.095	-0.473
-585.879	233.376	-0.154	0.256
-584.865	46.888	-0.034	0.032
-583.850	800.000	0.030	-0.103
-582.836	54.133	-0.217	-0.210
-581.821	-200.000	0.037	-0.186
-580.806	-71.514	-0.268	-0.101
-579.792	31.736	-0.265	0.230
-578.777	-59.331	0.077	0.034
-577.763	-135.872	0.261	-0.031
-576.748	-100.989	-0.291	-0.072
-575.733	31.967	-0.273	-0.237
-574.719	-0.726	0.375	0.268
-573.704	-61.532	-0.073	0.031
-572.690	-200.000	0.001	0.058
-571.675	800.000	0.035	-0.107
-570.661	236.317	-0.090	0.150
-569.646	-10.332	0.274	-0.183
-568.631	-137.046	-0.295	-0.034
-567.617	-160.169	0.334	0.018
-566.602	-24.215	-0.122	-0.073
-565.588	-200.000	0.067	-0.307
-564.573	-69.108	-0.085	-0.033
-563.558	380.191	0.160	0.330
-562.544	88.603	-0.052	-0.058
-561.529	131.297	-0.319	0.412
-560.515	-200.000	-0.049	0.415
-559.500	17.683	-0.151	0.121
-558.485	-40.774	-0.384	-0.200
-557.471	21.505	-0.139	0.114
-556.456	-145.559	-0.138	0.012
-555.442	11.759	-0.031	0.024
-554.427	157.600	-0.121	-0.169
-553.412	108.205	-0.171	-0.205
-552.398	-30.156	0.272	0.156
-551.383	-173.908	0.129	-0.004
-550.369	-93.998	0.084	0.023
-549.354	-200.000	-0.059	-0.561
-548.339	389.154	-0.097	-0.202
-547.325	-22.350	-0.258	0.158
-546.310	-200.000	-0.022	0.161
-545.296	304.250	0.088	-0.165
-544.281	-200.000	0.013	-0.072
-543.266	266.156	-0.132	0.232
-542.252	-112.485	-0.252	0.051
-541.237	194.530	-0.170	0.259
-540.223	-160.688	-0.230	0.012
-539.208	166.813	0.031	0.044
-538.193	-200.000	0.019	-0.201
-537.179	-200.000	0.010	0.061
-536.164	151.132	-0.091	0.125
-535.150	-27.721	-0.424	0.248
-534.135	49.175	0.183	0.173
-533.121	-27.657	-0.185	-0.108
-532.106	-44.941	-0.191	-0.096
-531.091	1.415	-0.147	0.106
-530.077	-19.723	0.540	0.336
-529.062	387.853	0.045	-0.093
-528.048	-23.294	-0.256	-0.155
-527.033	-200.000	-0.062	-0.337
-526.018	393.823	-0.051	-0.108
-525.004	116.186	-0.197	-0.242
-523.989	185.757	-0.081	0.121
-522.975	800.000	0.058	-0.233
-521.960	56.405	0.293	0.286
-520.945	-113.770	0.226	0.044
-519.931	-200.000	0.019	0.087
-518.916	-145.190	-0.234	-0.021
-517.902	-108.985	0.194	0.042
-516.887	70.725	0.135	-0.140
-515.872	-98.541	0.181	0.046
-514.858	-8.720	-0.205	0.138
-513.843	800.000	-0.046	-0.127
-512.829	800.000	0.044	-0.164
-511.814	789.158	0.038	0.104
-510.799	17.241	0.214	-0.171
-509.785	-87.663	0.224	-0.068
-508.770	140.344	-0.188	0.249
-507.756	-75.683	0.177	-0.063
-506.741	292.396	-0.025	-0.046
-505.726	-95.640	0.200	-0.054
-504.712	-180.129	-0.182	0.004
-503.697	424.083	0.202	0.437
-502.683	277.216	-0.041	0.074
-501.668	-98.426	-0.307	-0.079
-500.653	22.412	-0.131	0.108
-499.639	-200.000	0.028	-0.143
-498.624	86.552	-0.122	0.135
-497.610	-81.455	0.118	0.039
-496.595	-82.420	0.230	-0.075
-495.581	800.000	-0.067	-0.196
-494.566	97.353	0.102	0.117
-493.551	-57.197	0.180	0.080
-492.537	318.044	-0.094	-0.179
-491.522	-87.562	0.324	0.098
-490.508	-5.328	0.214	0.148
-489.493	-99.275	0.193	0.049
-488.478	-57.194	0.037	-0.016
-487.464	115.869	-0.137	0.168
-486.449	403.960	0.152	-0.320
-485.435	-112.139	0.201	0.041
-484.420	-6.600	-0.035	-0.024
-483.405	800.000	-0.074	0.220
-482.391	-103.043	-0.352	0.084
-481.376	-32.424	0.114	0.064
-480.362	454.224	0.050	0.111
-479.347	-107.400	0.223	0.049
-478.332	800.000	-0.027	-0.109
-477.318	-193.453	-0.135	0.001
-476.303	122.071	-0.080	0.100
-475.289	-34.925	-0.251	-0.137
-474.274	-42.396	0.228	0.117
-473.259	800.000	0.049	-0.180
-472.245	138.759	0.173	-0.228
-471.230	64.563	0.113	0.114
-470.216	197.707	-0.174	0.266
-469.201	-200.000	0.008	0.128
-468.186	108.022	0.166	0.198
-467.172	-164.666	-0.154	-0.007
-466.157	148.668	0.200	0.271
-465.143	-200.000	0.031	0.225
-464.128	-29.691	-0.245	-0.140
-463.113	-200.000	0.035	-0.366
-462.099	296.660	-0.136	-0.251
-461.084	-45.462	0.375	-0.187
-460.070	273.058	0.164	0.290
-459.055	498.365	0.044	0.102
-458.040	234.602	0.049	-0.081
-457.026	75.026	-0.057	0.060
-456.011	246.689	0.142	-0.241
-454.997	130.333	-0.179	0.230
-453.982	53.467	-0.192	0.184
-452.968	51.282	0.059	0.056
-451.953	-71.402	-0.264	0.099
-450.938	-39.221	-0.243	-0.128
-449.924	-200.000	0.033	0.168
-448.909	556.941	-0.069	-0.166
-447.895	-99.106	0.407	-0.103
-446.880	209.431	0.109	0.172
-445.865	1.521	0.156	-0.113
-444.851	-13.761	-0.135	-0.087
-443.836	-164.903	-0.300	-0.013
-442.822	-200.000	0.040	0.207
-441.807	93.636	0.184	0.209
-440.792	-24.260	0.034	0.020
-439.778	-63.471	0.258	0.106
-438.763	-200.000	0.008	0.058
-437.749	-149.358	0.253	-0.020
-436.734	71.546	0.112	0.117
-435.719	18.025	-0.072	0.058
-434.705	-18.293	-0.085	-0.054
-433.690	71.324	0.041	-0.043
-432.676	-160.527	0.324	-0.017
-431.661	800.000	0.065	-0.284
-430.646	-88.638	0.315	-0.094
-429.632	800.000	-0.106	-0.415
-428.617	100.776	-0.021	-0.024
-427.603	69.984	0.390	0.403
-426.588	121.232	-0.082	0.102
-425.573	357.672	0.113	0.225
-424.559	800.000	0.056	0.169
-423.544	229.995	0.163	-0.266
-422.530	-200.000	-0.034	-0.261
-421.515	362.871	0.091	-0.183
-420.500	-200.000	-0.023	-0.206
-419.486	-134.172	0.082	-0.010
-418.471	519.463	0.058	0.136
-417.457	135.012	-0.175	-0.227
-416.442	-200.000	0.010	0.063
-415.428	-174.691	0.240	-0.007
-414.413	181.949	0.244	-0.360
-413.398	53.508	-0.114	-0.110
-412.384	484.014	0.026	-0.059
-411.369	-200.000	0.072	0.382
-410.355	-38.252	0.056	0.029
-409.340	-106.274	0.247	0.055
-408.325	-200.000	0.001	0.209
-407.311	-49.397	0.192	-0.092
-406.296	-200.000	0.014	-0.321
-405.282	-200.000	-0.282	0.001
-404.267	7.603	-0.215	-0.161
-403.252	800.000	0.091	0.264
-402.238	155.256	0.202	-0.278
-401.223	-80.087	0.171	-0.058
-400.209	266.825	0.221	-0.387
-399.194	-83.795	0.268	-0.086
-398.179	-103.366	-0.151	0.036
-397.165	-200.000	-0.007	-0.232
-396.150	-57.361	0.128	-0.056
-395.136	233.931	-0.196	-0.323
-394.121	800.000	-0.044	-0.183
-393.106	-171.015	-0.066	0.002
-392.092	37.616	-0.272	-0.241
-391.077	-19.497	0.166	-0.103
-390.063	800.000	-0.027	0.083
-389.048	-137.016	-0.284	0.032
-388.033	800.000	-0.057	-0.164
-387.019	164.389	-0.032	-0.045
-386.004	800.000	-0.014	0.057
-384.990	-64.849	-0.205	-0.083
-383.975	131.271	0.039	0.050
-382.960	800.000	-0.088	0.354
-381.946	19.189	0.248	0.199
-380.931	-200.000	0.025	0.203
-379.917	-97.825	0.246	0.064
-378.902	100.343	-0.053	0.062
-377.888	-200.000	-0.010	0.215
-376.873	-92.374	0.158	0.045
-375.858	72.778	-0.077	0.080
-374.844	127.596	0.050	0.064
-373.829	386.508	-0.136	-0.281
-372.815	-4.568	-0.179	0.124
-371.800	-62.651	-0.201	-0.083
-370.785	0.870	-0.273	0.196
-369.771	218.571	0.099	0.158
-368.756	183.798	-0.273	-0.403
-367.742	-85.883	0.012	-0.004
-366.727	366.000	-0.045	0.092
-365.712	-200.000	-0.025	-0.169
-364.698	-138.523	-0.520	0.057
-363.683	-1.448	-0.129	0.091
-362.669	104.268	0.241	-0.283
-361.654	-69.392	0.353	0.135
-360.639	192.349	0.107	0.161
-359.625	800.000	-0.022	-0.082
-358.610	-105.056	0.125	0.028
-357.596	-200.000	0.074	0.364
-356.581	-140.445	0.273	-0.028
-355.566	168.052	-0.071	0.101
-354.552	800.000	0.113	0.400
-353.537	-200.000	-0.070	-0.373
-352.523	-200.000	-0.034	-0.301
-351.508	800.000	-0.047	0.169
-350.493	74.551	-0.213	-0.224
-349.479	-91.743	0.193	-0.055
-348.464	800.000	-0.070	0.261
-347.450	-129.073	0.015	-0.002
-346.435	247.998	-0.142	0.240
-345.420	-16.597	0.125	-0.079
-344.406	27.822	-0.190	0.160
-343.391	280.673	-0.175	-0.313
-342.377	-200.000	-0.003	-0.077
-341.362	117.906	-0.173	0.213
-340.348	151.289	-0.085	0.115
-339.333	74.568	-0.050	-0.053
-338.318	255.476	-0.088	0.150
-337.304	338.259	0.124	-0.242
-336.289	-200.000	-0.028	-0.290
-335.275	-200.000	-0.002	-0.087
-334.260	-49.442	-0.279	-0.133
-333.245	208.025	-0.112	0.175
-332.231	-22.115	0.313	-0.190
-331.216	34.428	-0.212	-0.185
-330.202	-36.919	0.148	0.079
-329.187	-118.569	-0.249	0.044
-328.172	489.827	-0.050	0.113
-327.158	479.504	-0.039	-0.089
-326.143	117.059	-0.067	-0.083
-325.129	613.778	-0.002	0.006
-324.114	-168.218	0.192	-0.007
-323.099	32.297	-0.422	-0.363
-322.085	91.757	-0.287	0.322
-321.070	103.491	0.163	0.191
-320.056	800.000	-0.112	0.337
-319.041	57.502	-0.254	-0.248
-318.026	-33.807	0.311	-0.171
-317.012	146.631	0.112	0.150
-315.997	-58.319	0.246	0.107
-314.983	-200.000	-0.005	0.080
-313.968	278.473	-0.131	-0.233
-312.953	800.000	0.074	-0.229
-311.939	533.898	0.142	0.336
-310.924	6.266	0.044	0.033
-309.910	-200.000	-0.015	0.081
-308.895	-200.000	-0.071	-0.573
-307.880	57.345	0.207	0.202
-306.866	97.616	0.043	0.049
-305.851	110.175	0.135	0.161
-304.837	-200.000	0.009	-0.197
-303.822	54.319	0.096	-0.093
-302.807	5.773	0.167	-0.123
-301.793	-65.070	-0.314	0.126
-300.778	-61.691	0.234	0.098
-299.764	13.081	0.133	0.103
-298.749	-8.536	-0.141	-0.095
-297.735	128.888	0.109	0.139
-296.720	-26.667	-0.195	0.114
-295.705	-32.733	-0.243	0.135
-294.691	87.695	0.147	0.162
-293.676	308.533	0.143	-0.266
-292.662	-200.000	-0.028	0.188
-291.647	-35.307	0.160	-0.087
-290.632	800.000	0.075	0.206
-289.618	-87.443	0.167	0.050
-288.603	800.000	-0.058	-0.180
-287.589	-70.757	-0.144	0.054
-286.574	800.000	0.047	-0.147
-285.559	-41.361	-0.094	0.049
-284.545	-33.063	0.245	-0.136
-283.530	18.781	0.075	-0.060
-282.516	-143.437	0.176	-0.017
-281.501	-101.552	-0.217	-0.052
-280.486	-200.000	0.014	0.128
-279.472	504.029	-0.112	0.257
-278.457	185.447	-0.088	-0.129
-277.443	-90.444	-0.015	0.004
-276.428	-200.000	-0.012	0.145
-275.413	-200.000	0.025	-0.525
-274.399	-62.726	0.143	-0.059
-273.384	800.000	0.061	0.176
-272.370	231.241	-0.003	0.005
-271.355	151.744	0.086	-0.116
-270.340	-200.000	-0.009	0.119
-269.326	-60.103	0.262	-0.111
-268.311	800.000	0.120	-0.342
-267.297	-63.839	0.293	-0.119
-266.282	579.997	-0.038	-0.094
-265.267	-200.000	0.024	0.207
-264.253	-171.395	0.460	-0.015
-263.238	254.626	0.049	-0.083
-262.224	800.000	0.083	-0.322
-261.209	147.542	0.087	-0.116
-260.195	258.722	0.190	0.326
-259.180	171.192	-0.048	-0.069
-258.165	800.000	0.048	0.194
-257.151	-11.340	-0.319	-0.209
-256.136	647.571	0.109	-0.277
-255.122	-104.478	-0.083	-0.019
-254.107	12.201	0.151	0.116
-253.092	-0.370	0.085	0.060
-252.078	-68.735	0.075	0.029
-251.063	14.068	0.225	0.174
-250.049	-39.689	-0.291	0.152
-249.034	183.966	-0.164	-0.242
-248.019	-200.000	-0.036	-0.173
-247.005	71.275	-0.197	0.204
-245.990	-49.518	0.216	-0.102
-244.976	21.625	0.068	0.055
-243.961	-200.000	0.032	-0.289
-242.946	9.891	-0.268	-0.203
-241.932	65.601	-0.058	-0.059
-240.917	-200.000	0.090	0.000
-239.903	-200.000	0.022	-0.109
-238.888	126.551	0.076	0.096
-237.873	217.825	-0.086	0.137
-236.859	21.463	0.126	0.102
-235.844	45.860	0.050	-0.046
-234.830	-101.322	-0.487	0.118
-233.815	24.123	-0.056	-0.046
-232.800	70.186	0.123	0.126
-231.786	-180.169	0.156	-0.003
-230.771	18.577	0.042	0.033
-229.757	800.000	-0.081	-0.259
-228.742	19.239	-0.169	-0.135
-227.727	-37.884	-0.155	0.082
-226.713	327.135	-0.032	0.061
-225.698	67.757	-0.119	-0.121
-224.684	-116.879	0.261	0.047
-223.669	-153.123	-0.257	0.018
-222.655	173.409	0.051	-0.073
-221.640	-165.229	-0.247	-0.011
-220.625	-132.327	0.409	0.053
-219.611	-25.112	-0.166	-0.098
-218.596	-99.094	0.100	0.025
-217.582	-27.180	0.248	0.144
-216.567	17.283	0.113	0.089
-215.552	-105.125	-0.055	-0.012
-214.538	-200.000	0.001	-0.107
-213.523	-114.466	0.239	-0.046
-212.509	266.967	-0.103	0.179
-211.494	-200.000	0.028	0.295
-210.479	-85.973	0.377	-0.116
-209.465	122.783	-0.101	-0.125
-208.450	-65.532	0.135	0.054
-207.436	334.394	0.056	0.107
-206.421	800.000	-0.031	0.096
-205.406	360.216	0.151	0.300
-204.392	800.000	-0.132	-0.416
-203.377	-200.000	0.002	-0.097
-202.363	-69.919	-0.163	-0.062
-201.348	-200.000	0.018	-0.163
-200.333	-200.000	-0.012	-0.114
-199.319	-200.000	-0.014	0.199
-198.304	-21.328	0.286	0.173
-197.290	-200.000	0.018	-0.128
-196.275	99.549	-0.137	-0.157
-195.260	121.735	-0.068	0.084
-194.246	-10.402	0.084	0.055
-193.231	-112.284	0.070	0.014
-192.217	34.635	-0.045	0.039
-191.202	56.549	-0.105	0.102
-190.187	206.474	-0.043	0.066
-189.173	248.288	-0.260	0.436
-188.158	4.972	-0.198	0.145
-187.144	-163.542	0.164	-0.008
-186.129	-176.214	-0.398	-0.010
-185.114	-156.241	0.185	0.012
-184.100	8.742	0.182	-0.136
-183.085	48.412	-0.057	0.053
-182.071	122.963	0.076	-0.095
-181.056	445.367	0.116	0.252
-180.042	-200.000	0.029	-0.136
-179.027	28.037	-0.154	-0.129
-178.012	-11.690	0.099	-0.064
-176.998	1.319	0.145	-0.103
-175.983	7.891	0.028	-0.021
-174.969	-13.269	-0.074	0.048
-173.954	-54.386	0.384	0.173
-172.939	-200.000	0.014	-0.155
-171.925	-170.446	0.047	0.002
-170.910	-55.816	-0.165	0.073
-169.896	-64.927	-0.313	0.126
-168.881	-86.252	-0.202	0.062
-167.866	-143.619	-0.107	0.010
-166.852	-54.275	-0.454	0.204
-165.837	800.000	0.040	0.126
-164.823	-19.393	0.095	0.059
-163.808	800.000	-0.049	0.193
-162.793	-155.212	-0.133	-0.009
-161.779	-109.547	0.248	-0.052
-160.764	-103.461	-0.293	0.068
-159.750	-200.000	-0.046	0.270
-158.735	800.000	0.063	0.194
-157.720	800.000	0.077	-0.216
-156.706	-108.239	-0.323	0.069
-155.691	-94.200	0.046	0.012
-154.677	-95.944	-0.279	-0.074
-153.662	44.870	-0.114	0.104
-152.647	28.355	-0.329	0.276
-151.633	-17.511	0.171	-0.106
-150.618	-26.582	-0.158	-0.092
-149.604	-29.321	-0.175	0.099
-148.589	-150.225	-0.064	0.005
-147.574	-75.404	0.026	0.009
-146.560	12.887	-0.228	-0.175
-145.545	-150.762	-0.264	0.020
-144.531	209.026	-0.103	-0.160
-143.516	584.791	0.110	0.267
-142.502	129.762	-0.168	-0.212
-141.487	14.469	0.033	0.026
-140.472	3.620	0.083	-0.060
-139.458	-68.088	-0.175	0.068
-138.443	-200.000	-0.006	-0.070
-137.429	242.203	0.119	-0.198
-136.414	-44.509	-0.049	-0.024
-135.399	114.999	-0.125	-0.152
-134.385	-48.094	-0.248	0.118
-133.370	-200.000	0.004	0.028
-132.356	130.790	0.094	0.120
-131.341	-0.465	0.176	0.124
-130.326	145.688	0.184	0.245
-129.312	-200.000	-0.006	-0.084
-128.297	-112.130	0.109	0.022
-127.283	-73.923	0.152	0.055
-126.268	34.724	-0.276	-0.239
-125.253	-36.764	-0.197	-0.105
-124.239	-100.755	-0.157	0.038
-123.224	30.639	0.147	0.125
-122.210	99.887	-0.218	0.250
-121.195	1.392	0.100	-0.071
-120.180	-21.325	0.082	0.050
