DTS Sentinel unit serial number:	SN413079Multiplexer serial number:	ORYXHardware model number:	OX4-SRSoftware version number:	ORYX F/W v4.00 Oryx Data Collector v3.7.2.0data status	okinstallation	princeton_trtdifferential loss correction	single-endedforward channel	channel 2reverse channel	N/Adate	2019/09/13time	00:35:34forward acquisition time	60.00reverse acquisition time	0.00gamma	496.2192k internal	0.2332k external	0.2332temperature offset calibration	1.0165default loss term (dB/km)	0.3790temperature slope calibration	1.0000multiplexer offset coefficient	1.0000multiplexer slope coefficient	1.0000fibre end	0.00T internal ref (°C)	28.31T ext. ref 1 (°C)	3.70T ext. ref 2 (°C)	22.91length (m)	temperature (°C)	Stokes	anti-Stokes-747.200	103.860	-0.152	-0.179
-746.185	38.212	0.221	-0.198
-745.171	35.853	-0.164	-0.145
-744.156	-6.768	0.047	-0.032
-743.142	606.569	-0.037	-0.093
-742.127	800.000	0.157	0.484
-741.112	-141.177	0.159	0.016
-740.098	219.705	0.124	-0.200
-739.083	649.438	-0.068	-0.175
-738.069	-176.153	0.177	0.005
-737.054	-74.092	-0.242	0.088
-736.039	707.286	0.109	0.290
-735.025	800.000	0.072	0.232
-734.010	-127.949	-0.499	-0.072
-732.996	800.000	-0.038	0.135
-731.981	-59.976	0.077	0.033
-730.966	800.000	-0.061	-0.210
-729.952	-38.929	0.097	-0.051
-728.937	118.083	-0.208	-0.258
-727.923	-22.302	0.119	0.073
-726.908	53.168	-0.061	0.059
-725.894	800.000	-0.077	-0.304
-724.879	206.693	0.202	-0.316
-723.864	-58.943	-0.125	-0.054
-722.850	-159.586	0.292	-0.016
-721.835	-44.106	-0.031	-0.016
-720.821	109.416	0.106	0.128
-719.806	-139.975	-0.226	0.024
-718.791	-0.194	-0.219	-0.157
-717.777	-95.226	0.331	-0.090
-716.762	40.411	-0.099	-0.090
-715.748	-33.775	0.290	0.161
-714.733	106.069	0.082	-0.097
-713.718	145.667	-0.151	0.203
-712.704	75.050	0.211	-0.223
-711.689	209.791	-0.201	-0.317
-710.675	-200.000	-0.079	-0.392
-709.660	-82.923	0.023	0.008
-708.645	-200.000	0.012	-0.249
-707.631	800.000	-0.046	0.196
-706.616	-18.380	0.145	-0.091
-705.602	32.310	0.066	0.058
-704.587	510.381	-0.041	-0.097
-703.572	-200.000	0.000	-0.174
-702.558	-145.140	0.086	-0.008
-701.543	-200.000	0.016	-0.083
-700.529	-101.397	-0.269	0.066
-699.514	-200.000	0.024	-0.523
-698.499	-200.000	0.008	-0.286
-697.485	72.572	-0.300	0.314
-696.470	800.000	-0.056	-0.176
-695.456	-138.696	0.237	-0.026
-694.441	2.597	0.120	0.087
-693.426	-106.671	-0.225	-0.050
-692.412	-200.000	0.007	-0.203
-691.397	70.331	0.183	-0.190
-690.383	143.357	-0.218	-0.292
-689.368	-200.000	0.062	-0.278
-688.354	-23.925	-0.418	-0.251
-687.339	-59.355	-0.350	0.151
-686.324	-200.000	0.003	-0.112
-685.310	-200.000	-0.034	-0.194
-684.295	-200.000	-0.037	-0.184
-683.281	-95.273	-0.119	0.032
-682.266	66.154	0.212	0.216
-681.251	-53.641	-0.402	0.184
-680.237	-200.000	0.012	0.123
-679.222	93.642	0.172	0.196
-678.208	203.256	0.157	0.244
-677.193	-200.000	-0.005	-0.326
-676.178	-174.450	-0.431	-0.012
-675.164	-11.989	-0.149	0.098
-674.149	726.992	-0.039	-0.105
-673.135	800.000	-0.103	-0.371
-672.120	172.496	-0.055	-0.080
-671.105	-200.000	-0.011	0.107
-670.091	385.394	0.169	0.349
-669.076	118.487	0.140	-0.173
-668.062	26.990	-0.113	-0.095
-667.047	117.166	-0.071	-0.088
-666.032	64.424	0.106	-0.107
-665.018	800.000	-0.013	-0.043
-664.003	-48.216	-0.175	-0.085
-662.989	-200.000	-0.039	-0.239
-661.974	-200.000	-0.036	-0.214
-660.959	-93.957	-0.123	-0.034
-659.945	24.753	-0.209	0.173
-658.930	262.024	0.003	0.005
-657.916	-83.208	0.062	0.020
-656.901	-200.000	-0.025	-0.139
-655.886	101.123	-0.027	-0.031
-654.872	-72.372	-0.289	-0.107
-653.857	-109.344	0.091	-0.019
-652.843	-17.640	0.152	0.096
-651.828	264.931	-0.070	-0.123
-650.814	-75.824	-0.118	0.042
-649.799	-75.573	0.206	-0.074
-648.784	-200.000	0.000	0.080
-647.770	154.836	-0.129	0.178
-646.755	-157.860	-0.017	0.001
-645.741	800.000	-0.049	0.173
-644.726	72.045	0.205	0.214
-643.711	-200.000	0.067	-0.350
-642.697	800.000	-0.061	-0.237
-641.682	-200.000	-0.019	0.446
-640.668	-62.394	-0.117	-0.049
-639.653	-46.509	0.186	0.091
-638.638	-66.691	-0.089	0.035
-637.624	800.000	-0.144	0.409
-636.609	-63.415	-0.023	-0.009
-635.595	-200.000	0.034	0.286
-634.580	-200.000	0.052	0.457
-633.565	-62.904	-0.254	0.105
-632.551	-200.000	-0.053	-0.305
-631.536	-125.876	0.056	-0.008
-630.522	-51.541	0.198	-0.092
-629.507	184.424	0.072	0.107
-628.492	-200.000	0.004	-0.020
-627.478	243.716	0.146	-0.246
-626.463	-45.625	-0.183	-0.091
-625.449	-155.763	0.153	-0.010
-624.434	101.541	-0.112	0.130
-623.419	70.679	0.199	-0.206
-622.405	130.040	-0.173	0.222
-621.390	-107.418	-0.284	-0.062
-620.376	222.223	0.014	-0.023
-619.361	184.153	-0.062	-0.092
-618.346	246.574	-0.126	0.212
-617.332	-200.000	-0.001	-0.171
-616.317	33.009	0.253	-0.220
-615.303	-31.451	0.091	0.051
-614.288	5.956	-0.167	0.124
-613.273	336.451	0.041	0.079
-612.259	800.000	-0.079	-0.272
-611.244	-200.000	-0.009	-0.197
-610.230	-151.022	0.325	-0.025
-609.215	147.823	-0.234	0.315
-608.201	-200.000	0.024	-0.430
-607.186	-200.000	0.040	0.364
-606.171	85.350	0.212	0.232
-605.157	-8.021	0.422	-0.285
-604.142	203.092	0.100	0.155
-603.128	-93.639	-0.354	0.098
-602.113	-104.176	0.129	0.030
-601.098	-6.098	0.235	-0.161
-600.084	129.693	-0.175	-0.224
-599.069	-99.546	-0.209	0.053
-598.055	247.399	-0.058	0.098
-597.040	35.184	-0.321	-0.281
-596.025	-200.000	-0.013	-0.247
-595.011	800.000	0.166	-0.476
-593.996	-200.000	0.042	0.193
-592.982	-148.455	0.198	0.016
-591.967	-46.823	0.198	0.097
-590.952	-200.000	-0.037	0.371
-589.938	-200.000	0.030	-0.288
-588.923	2.426	0.258	0.187
-587.909	-78.476	-0.381	0.130
-586.894	-200.000	0.010	-0.138
-585.879	344.340	-0.149	0.293
-584.865	-31.427	-0.148	-0.083
-583.850	28.818	-0.133	-0.113
-582.836	-200.000	0.024	0.286
-581.821	-64.865	0.097	-0.039
-580.806	-160.603	-0.229	0.012
-579.792	-139.328	-0.056	-0.006
-578.777	427.141	0.046	-0.098
-577.763	596.986	-0.081	-0.200
-576.748	800.000	-0.021	-0.070
-575.733	800.000	0.058	-0.185
-574.719	80.348	0.176	0.189
-573.704	-200.000	-0.005	0.136
-572.690	11.510	-0.122	-0.093
-571.675	579.968	0.096	-0.235
-570.661	225.303	0.149	-0.242
-569.646	800.000	-0.087	-0.329
-568.631	26.019	-0.150	0.125
-567.617	44.396	-0.237	0.218
-566.602	-96.017	-0.188	0.050
-565.588	800.000	0.104	0.370
-564.573	-49.331	0.166	0.079
-563.558	-200.000	-0.035	0.160
-562.544	-177.393	0.271	-0.007
-561.529	-200.000	-0.040	-0.200
-560.515	-12.325	0.232	0.151
-559.500	-152.445	-0.081	-0.006
-558.485	-129.253	0.173	0.024
-557.471	796.590	0.050	0.138
-556.456	258.982	0.116	-0.200
-555.442	68.726	0.043	-0.044
-554.427	650.327	-0.154	0.394
-553.412	-200.000	-0.010	0.147
-552.398	-200.000	-0.011	-0.186
-551.383	-92.729	0.359	0.100
-550.369	74.090	0.221	-0.232
-549.354	-25.988	0.056	-0.033
-548.339	-52.872	0.089	0.041
-547.325	155.357	0.107	0.147
-546.310	58.868	-0.061	-0.060
-545.296	-200.000	-0.032	-0.148
-544.281	-200.000	-0.038	0.334
-543.266	800.000	0.095	0.330
-542.252	178.621	0.125	-0.182
-541.237	-3.833	0.060	0.041
-540.223	-105.573	-0.234	-0.053
-539.208	108.025	0.200	-0.237
-538.193	67.489	0.130	-0.132
-537.179	-200.000	0.012	0.058
-536.164	-200.000	-0.021	-0.144
-535.150	44.153	0.264	-0.241
-534.135	-200.000	0.038	0.207
-533.121	-200.000	-0.085	-0.418
-532.106	800.000	-0.091	-0.364
-531.091	-114.821	0.386	0.074
-530.077	38.398	0.093	-0.083
-529.062	800.000	0.041	0.122
-528.048	-200.000	-0.013	0.175
-527.033	192.116	-0.107	-0.161
-526.018	-3.818	-0.154	-0.107
-525.004	-112.797	0.087	0.017
-523.989	-71.528	-0.409	0.153
-522.975	684.189	0.120	0.313
-521.960	-200.000	0.004	0.176
-520.945	-64.558	-0.105	-0.043
-519.931	246.679	-0.040	0.067
-518.916	779.137	0.108	0.296
-517.902	-78.422	-0.164	-0.056
-516.887	-99.494	-0.387	-0.097
-515.872	45.459	0.269	-0.248
-514.858	160.206	0.127	-0.177
-513.843	-200.000	-0.017	-0.188
-512.829	213.784	-0.195	-0.307
-511.814	106.435	0.129	-0.153
-510.799	120.115	0.097	-0.119
-509.785	-6.538	0.221	0.150
-508.770	462.446	0.085	0.190
-507.756	20.916	0.178	-0.144
-506.741	-158.394	0.214	-0.012
-505.726	-200.000	-0.013	0.202
-504.712	-63.812	-0.367	0.150
-503.697	77.589	0.189	0.201
-502.683	-200.000	-0.000	-0.042
-501.668	213.708	0.161	-0.254
-500.653	568.800	-0.075	-0.182
-499.639	472.861	0.083	-0.186
-498.624	234.862	0.129	-0.213
-497.610	-7.293	-0.077	0.052
-496.595	-105.339	-0.385	0.087
-495.581	-183.618	0.296	0.005
-494.566	-68.255	-0.138	0.053
-493.551	136.999	0.248	-0.323
-492.537	374.932	0.150	-0.304
-491.522	205.283	0.167	0.259
-490.508	257.867	0.172	-0.295
-489.493	-200.000	0.009	-0.114
-488.478	-14.599	-0.307	0.196
-487.464	-200.000	0.044	-0.216
-486.449	-114.606	0.259	-0.049
-485.435	290.227	0.156	-0.281
-484.420	128.695	-0.184	0.234
-483.405	-200.000	0.011	-0.140
-482.391	-75.455	0.148	0.053
-481.376	431.495	-0.066	0.142
-480.362	45.012	-0.078	-0.071
-479.347	464.820	-0.125	-0.279
-478.332	-200.000	-0.050	-0.251
-477.318	800.000	0.044	0.124
-476.303	-56.276	-0.058	0.025
-475.289	-200.000	-0.034	0.181
-474.274	-78.540	0.094	-0.032
-473.259	-169.252	-0.520	-0.019
-472.245	72.148	0.209	-0.216
-471.230	243.406	0.196	0.327
-470.216	-200.000	0.042	0.528
-469.201	-123.307	-0.137	0.022
-468.186	-200.000	-0.002	-0.168
-467.172	-15.049	0.276	0.176
-466.157	7.161	-0.118	0.088
-465.143	424.058	-0.207	-0.444
-464.128	-21.524	0.159	-0.096
-463.113	-200.000	-0.011	0.104
-462.099	800.000	-0.075	0.274
-461.084	333.478	-0.123	0.236
-460.070	-200.000	-0.018	0.190
-459.055	-135.626	-0.209	0.025
-458.040	-163.616	-0.090	-0.004
-457.026	-73.030	-0.320	-0.117
-456.011	32.413	-0.135	-0.116
-454.997	113.062	0.021	0.026
-453.982	-78.535	0.300	0.102
-452.968	146.165	0.233	0.311
-451.953	800.000	-0.025	-0.077
-450.938	85.894	0.139	-0.153
-449.924	-42.930	-0.306	-0.154
-448.909	-25.449	-0.243	-0.143
-447.895	-200.000	-0.003	-0.077
-446.880	-38.734	0.260	-0.136
-445.865	-101.489	-0.112	0.027
-444.851	316.727	-0.093	0.174
-443.836	139.723	0.217	0.284
-442.822	-47.141	-0.117	-0.057
-441.807	-154.839	0.243	0.016
-440.792	-200.000	-0.051	-0.271
-439.778	-121.004	0.464	0.078
-438.763	-129.646	0.207	0.028
-437.749	-98.291	0.091	0.023
-436.734	4.852	0.013	0.009
-435.719	-157.039	-0.324	-0.020
-434.705	-22.244	-0.072	-0.044
-433.690	91.274	0.060	-0.067
-432.676	41.311	-0.265	-0.238
-431.661	800.000	0.070	0.225
-430.646	-77.526	-0.383	-0.132
-429.632	49.067	0.244	0.228
-428.617	357.709	0.100	0.199
-427.603	367.067	-0.126	-0.254
-426.588	-92.008	-0.110	0.031
-425.573	-183.553	-0.300	0.005
-424.559	800.000	-0.039	0.141
-423.544	-200.000	-0.020	-0.163
-422.530	253.426	0.127	0.216
-421.515	-200.000	-0.033	0.335
-420.500	-83.011	0.165	0.053
-419.486	800.000	-0.128	0.415
-418.471	800.000	-0.115	0.384
-417.457	-121.640	-0.082	0.013
-416.442	-58.428	-0.130	-0.056
-415.428	-107.001	-0.043	0.009
-414.413	800.000	-0.041	0.120
-413.398	-130.641	0.135	-0.018
-412.384	-200.000	-0.012	0.059
-411.369	-65.871	-0.096	0.038
-410.355	-79.722	0.213	-0.071
-409.340	10.222	-0.216	0.163
-408.325	800.000	0.087	-0.251
-407.311	-157.750	0.260	-0.015
-406.296	102.899	-0.265	-0.308
-405.282	-200.000	-0.074	-0.328
-404.267	800.000	0.030	0.095
-403.252	-200.000	-0.031	0.254
-402.238	150.288	-0.131	0.176
-401.223	25.475	-0.168	-0.139
-400.209	9.974	-0.224	-0.169
-399.194	-141.556	0.371	0.037
-398.179	800.000	0.033	-0.092
-397.165	-200.000	-0.008	-0.096
-396.150	-132.057	0.225	0.029
-395.136	-86.261	0.163	0.050
-394.121	-64.677	-0.278	0.112
-393.106	-24.886	-0.127	-0.075
-392.092	-200.000	-0.029	0.127
-391.077	-15.072	-0.335	-0.213
-390.063	194.538	-0.105	0.158
-389.048	-108.286	-0.266	0.057
-388.033	-86.923	-0.244	0.074
-387.019	800.000	0.039	-0.130
-386.004	-63.943	0.240	0.097
-384.990	-65.048	0.093	-0.037
-383.975	-7.657	0.383	0.257
-382.960	-158.101	0.343	0.020
-381.946	-36.397	-0.059	-0.031
-380.931	45.785	-0.144	-0.132
-379.917	336.098	0.077	-0.147
-378.902	771.552	-0.076	-0.205
-377.888	-99.367	0.146	-0.037
-376.873	800.000	0.062	0.232
-375.858	283.272	0.075	0.133
-374.844	-200.000	-0.006	0.175
-373.829	-200.000	-0.005	0.184
-372.815	-200.000	-0.024	0.299
-371.800	-200.000	0.011	0.223
-370.785	136.141	-0.172	-0.223
-369.771	-34.009	0.252	-0.137
-368.756	-114.981	-0.234	0.044
-367.742	-17.165	-0.121	-0.076
-366.727	-38.109	-0.271	-0.143
-365.712	555.840	0.074	-0.177
-364.698	11.775	0.140	-0.107
-363.683	-200.000	0.021	-0.306
-362.669	-4.102	0.115	0.079
-361.654	-122.524	0.135	0.022
-360.639	142.237	0.112	-0.147
-359.625	-43.116	0.030	0.015
-358.610	71.983	-0.098	-0.101
-357.596	35.966	-0.069	-0.060
-356.581	784.742	0.022	-0.058
-355.566	55.270	0.182	0.174
-354.552	-200.000	-0.055	-0.253
-353.537	-21.181	-0.218	-0.132
-352.523	-44.730	-0.368	0.182
-351.508	-89.947	-0.276	-0.080
-350.493	219.972	0.028	0.044
-349.479	-184.048	-0.378	0.006
-348.464	-200.000	0.009	-0.117
-347.450	110.860	-0.137	0.163
-346.435	-102.816	0.240	0.056
-345.420	-160.796	-0.155	-0.008
-344.406	78.529	0.141	0.149
-343.391	-73.007	-0.219	-0.079
-342.377	-26.164	0.123	-0.071
-341.362	-88.956	0.283	-0.083
-340.348	-32.652	-0.219	0.121
-339.333	375.838	0.038	-0.076
-338.318	206.079	0.036	0.056
-337.304	-200.000	-0.008	-0.057
-336.289	-163.516	-0.037	0.002
-335.275	-56.229	-0.137	0.060
-334.260	-200.000	0.001	0.098
-333.245	800.000	0.077	0.260
-332.231	-126.698	0.325	0.048
-331.216	-16.053	0.153	0.097
-330.202	-15.740	-0.340	0.215
-329.187	228.378	-0.036	0.058
-328.172	84.944	-0.136	0.148
-327.158	-98.455	-0.283	-0.072
-326.143	83.456	-0.130	-0.140
-325.129	219.134	-0.119	-0.189
-324.114	-162.144	-0.425	-0.021
-323.099	8.242	0.247	-0.183
-322.085	-78.402	-0.253	0.086
-321.070	9.627	0.110	0.082
-320.056	544.974	0.066	-0.156
-319.041	-79.997	-0.326	-0.108
-318.026	268.922	0.087	0.151
-317.012	33.765	0.094	-0.081
-315.997	187.291	0.078	-0.115
-314.983	-42.363	-0.048	-0.024
-313.968	144.887	-0.111	0.147
-312.953	602.771	-0.065	-0.159
-311.939	-200.000	0.016	-0.445
-310.924	737.001	-0.047	0.125
-309.910	-110.119	-0.202	0.042
-308.895	-111.302	0.155	0.031
-307.880	188.120	0.175	0.258
-306.866	-46.537	-0.185	0.090
-305.851	-140.426	0.104	-0.011
-304.837	800.000	-0.026	0.093
-303.822	94.774	-0.218	0.245
-302.807	-49.510	0.104	-0.049
-301.793	51.877	0.020	-0.019
-300.778	-200.000	-0.021	0.168
-299.764	450.529	-0.143	-0.312
-298.749	-150.141	0.259	0.020
-297.735	-133.338	0.354	0.044
-296.720	-53.005	-0.240	-0.109
-295.705	234.575	-0.097	-0.158
-294.691	223.098	0.029	0.047
-293.676	100.813	-0.143	-0.164
-292.662	-200.000	-0.203	-0.001
-291.647	740.786	-0.100	-0.264
-290.632	-19.745	-0.290	0.177
-289.618	-98.065	-0.080	-0.020
-288.603	-102.530	0.213	0.050
-287.589	-138.262	0.070	0.008
-286.574	502.386	0.052	-0.118
-285.559	-117.636	-0.362	-0.064
-284.545	-0.164	0.076	-0.053
-283.530	-200.000	-0.020	0.368
-282.516	-167.400	0.388	-0.015
-281.501	306.971	-0.026	-0.048
-280.486	129.681	0.096	-0.121
-279.472	-73.020	-0.115	0.042
-278.457	-31.399	0.373	-0.207
-277.443	229.255	0.103	0.166
-276.428	265.286	-0.084	-0.145
-275.413	-200.000	-0.006	-0.262
-274.399	-87.236	-0.125	0.037
-273.384	120.827	-0.077	-0.095
-272.370	-21.654	0.256	-0.154
-271.355	7.847	-0.268	-0.199
-270.340	569.520	-0.041	0.098
-269.326	-159.064	-0.068	0.004
-268.311	800.000	0.029	-0.103
-267.297	14.648	-0.240	0.185
-266.282	-118.131	-0.407	0.072
-265.267	-148.808	-0.303	-0.024
-264.253	-103.145	0.295	0.069
-263.238	88.898	-0.302	0.332
-262.224	301.261	-0.160	0.291
-261.209	-108.890	-0.253	-0.053
-260.195	-133.828	0.305	0.037
-259.180	-20.738	-0.188	0.114
-258.165	-6.040	-0.233	-0.157
-257.151	-144.021	-0.161	-0.015
-256.136	-200.000	0.008	-0.069
-255.122	5.403	0.220	-0.160
-254.107	-200.000	-0.018	0.291
-253.092	-22.801	-0.214	-0.127
-252.078	-200.000	-0.010	-0.088
-251.063	-178.966	0.295	-0.007
-250.049	-116.459	-0.058	0.011
-249.034	-114.823	0.390	0.074
-248.019	-73.642	-0.329	0.118
-247.005	168.363	-0.232	-0.326
-245.990	241.374	-0.193	-0.318
-244.976	800.000	0.029	0.103
-243.961	800.000	-0.029	-0.091
-242.946	-105.429	-0.057	0.013
-241.932	-75.934	0.273	0.095
-240.917	800.000	0.048	-0.161
-239.903	84.275	0.087	0.093
-238.888	40.214	0.187	-0.166
-237.873	-121.883	-0.135	-0.022
-236.859	-139.752	0.035	0.004
-235.844	-3.088	0.034	-0.023
-234.830	544.258	0.089	0.210
-233.815	466.881	-0.099	-0.220
-232.800	291.894	0.108	-0.194
-231.786	-56.159	-0.088	-0.039
-230.771	69.759	-0.134	0.137
-229.757	-101.383	-0.073	0.018
-228.742	292.815	0.058	0.104
-227.727	65.214	0.324	0.323
-226.713	-164.586	0.201	0.009
-225.698	-92.852	0.176	0.049
-224.684	-200.000	-0.023	-0.145
-223.669	-107.627	0.270	-0.058
-222.655	609.719	0.041	-0.102
-221.640	-59.941	-0.107	0.045
-220.625	-200.000	0.074	0.352
-219.611	734.971	-0.063	-0.165
-218.596	-94.332	0.118	-0.032
-217.582	-16.177	0.161	-0.101
-216.567	-109.587	0.337	0.070
-215.552	266.430	0.139	-0.239
-214.538	35.065	-0.136	-0.117
-213.523	218.388	0.066	0.104
-212.509	-49.266	-0.086	-0.040
-211.494	-77.093	-0.145	-0.050
-210.479	515.585	-0.053	0.122
-209.465	-200.000	0.015	-0.212
-208.450	-60.032	0.346	0.145
-207.436	-38.990	0.112	0.058
-206.421	800.000	-0.055	0.223
-205.406	42.082	0.279	0.250
-204.392	-20.596	0.199	0.121
-203.377	191.534	0.107	0.159
-202.363	485.218	0.077	0.173
-201.348	-28.815	-0.352	0.199
-200.333	800.000	-0.151	-0.462
-199.319	166.486	-0.088	-0.123
-198.304	-163.740	-0.110	-0.005
-197.290	-39.333	-0.315	-0.163
-196.275	-91.210	0.270	-0.076
-195.260	-89.179	-0.383	-0.111
-194.246	-129.747	0.277	-0.038
-193.231	-83.645	0.284	0.089
-192.217	-24.887	0.127	0.074
-191.202	-2.705	-0.075	-0.052
-190.187	278.969	-0.044	0.077
-189.173	-163.444	-0.148	-0.007
-188.158	-31.849	0.095	0.052
-187.144	60.936	-0.186	0.182
-186.129	-163.656	-0.171	0.008
-185.114	-8.001	0.137	-0.091
-184.100	91.800	0.222	0.246
-183.085	-80.930	-0.196	0.064
-182.071	84.471	0.187	0.201
-181.056	-117.399	0.168	-0.030
-180.042	67.623	0.148	-0.149
-179.027	37.427	-0.232	0.202
-178.012	-150.523	0.180	-0.014
-176.998	-14.048	0.353	-0.224
-175.983	-200.000	-0.030	-0.143
-174.969	-10.337	-0.208	0.136
-173.954	-91.150	0.325	0.092
-172.939	-19.333	-0.272	-0.166
-171.925	-20.070	0.267	-0.162
-170.910	-6.742	-0.143	-0.096
-169.896	-32.961	0.152	-0.083
-168.881	52.351	0.107	0.100
-167.866	-85.452	0.428	0.131
-166.852	-47.813	-0.164	-0.078
-165.837	183.727	0.044	-0.064
-164.823	363.040	0.100	0.198
-163.808	67.881	-0.232	0.233
-162.793	230.689	0.037	0.059
-161.779	-25.047	-0.095	0.055
-160.764	46.281	-0.118	-0.108
-159.750	800.000	-0.054	-0.196
-158.735	-200.000	-0.007	-0.096
-157.720	43.742	-0.115	-0.103
-156.706	-49.781	0.194	0.091
-155.691	161.357	-0.091	0.126
-154.677	-200.000	0.048	0.213
-153.662	-130.909	0.022	-0.003
-152.647	-108.566	0.220	0.046
-151.633	-200.000	-0.019	-0.105
-150.618	-78.207	0.188	0.064
-149.604	-7.605	0.200	-0.133
-148.589	-12.173	0.188	-0.121
-147.574	-77.853	0.411	-0.140
-146.560	800.000	-0.154	0.438
-145.545	-100.197	-0.318	-0.078
-144.531	-200.000	-0.077	0.499
-143.516	-200.000	-0.003	0.192
-142.502	800.000	-0.033	-0.113
-141.487	-108.085	0.154	-0.033
-140.472	-200.000	0.005	-0.237
-139.458	-200.000	-0.036	0.195
-138.443	800.000	-0.056	-0.232
-137.429	-60.221	-0.059	-0.025
-136.414	-200.000	0.017	-0.220
-135.399	-67.265	0.390	-0.151
-134.385	-68.160	0.132	0.050
-133.370	-82.137	-0.029	-0.009
-132.356	53.911	0.176	-0.166
-131.341	-133.306	-0.217	-0.027
-130.326	419.617	0.084	0.178
-129.312	-136.107	-0.404	0.047
-128.297	419.281	0.114	0.240
-127.283	-98.501	0.215	-0.054
-126.268	-92.034	-0.187	-0.052
-125.253	200.789	-0.087	0.132
-124.239	-200.000	0.009	0.055
-123.224	-156.145	0.310	-0.019
