DTS Sentinel unit serial number:	SN413079Multiplexer serial number:	ORYXHardware model number:	OX4-SRSoftware version number:	ORYX F/W v4.00 Oryx Data Collector v3.7.2.0data status	okinstallation	princeton_trtdifferential loss correction	single-endedforward channel	channel 2reverse channel	N/Adate	2019/09/15time	13:03:34forward acquisition time	60.00reverse acquisition time	0.00gamma	496.2192k internal	0.2310k external	0.2310temperature offset calibration	1.0001default loss term (dB/km)	0.3790temperature slope calibration	1.0000multiplexer offset coefficient	1.0000multiplexer slope coefficient	1.0000fibre end	0.00T internal ref (°C)	36.61T ext. ref 1 (°C)	4.99T ext. ref 2 (°C)	34.93length (m)	temperature (°C)	Stokes	anti-Stokes-747.200	-10.834	-0.088	0.059
-746.185	-200.000	-0.053	0.461
-745.171	-136.839	0.304	0.036
-744.156	-53.260	-0.146	-0.068
-743.142	136.710	0.076	-0.101
-742.127	-99.019	-0.182	0.047
-741.112	268.506	-0.238	0.424
-740.098	-80.994	0.103	-0.035
-739.083	-30.573	-0.180	-0.103
-738.069	-116.846	0.237	-0.044
-737.054	-129.094	-0.229	0.033
-736.039	42.577	0.139	-0.129
-735.025	84.560	-0.085	-0.095
-734.010	800.000	-0.133	-0.487
-732.996	431.542	-0.041	-0.090
-731.981	139.656	0.127	-0.169
-730.966	-100.492	-0.168	-0.042
-729.952	-100.922	-0.143	-0.036
-728.937	-59.659	0.141	-0.061
-727.923	2.003	0.131	0.096
-726.908	-200.000	-0.034	-0.163
-725.894	-75.499	0.153	0.055
-724.879	-15.424	-0.326	0.211
-723.864	264.358	-0.092	0.163
-722.850	101.437	-0.074	-0.087
-721.835	-133.289	-0.164	0.021
-720.821	800.000	0.049	0.148
-719.806	101.538	-0.149	-0.176
-718.791	-117.156	-0.136	0.025
-717.777	15.597	0.062	-0.050
-716.762	-22.214	-0.214	-0.131
-715.748	-125.033	0.312	0.049
-714.733	800.000	-0.018	0.061
-713.718	511.281	0.162	-0.382
-712.704	26.816	-0.063	0.054
-711.689	0.311	-0.109	-0.079
-710.675	-65.216	-0.069	0.028
-709.660	196.810	-0.283	-0.438
-708.645	-200.000	0.013	-0.388
-707.631	443.853	0.232	-0.516
-706.616	20.413	-0.080	-0.065
-705.602	-159.745	-0.087	-0.005
-704.587	-27.846	-0.141	-0.083
-703.572	8.732	0.263	-0.201
-702.558	-116.742	0.229	0.043
-701.543	-96.525	-0.203	0.054
-700.529	90.578	0.096	-0.110
-699.514	-49.916	0.444	0.214
-698.499	-76.326	-0.242	0.086
-697.485	33.839	-0.182	0.161
-696.470	800.000	0.035	0.100
-695.456	254.863	-0.056	0.097
-694.441	31.647	-0.238	0.207
-693.426	677.904	0.070	0.185
-692.412	-109.821	0.229	-0.049
-691.397	262.109	0.108	0.190
-690.383	632.562	-0.084	0.216
-689.368	800.000	-0.070	-0.282
-688.354	-191.806	0.126	0.001
-687.339	-43.452	-0.338	0.173
-686.324	-11.084	-0.359	0.240
-685.310	162.580	-0.285	-0.405
-684.295	-6.279	-0.163	-0.113
-683.281	-154.728	-0.020	-0.001
-682.266	488.008	-0.224	0.518
-681.251	-200.000	-0.045	0.226
-680.237	-76.534	-0.235	-0.084
-679.222	62.472	0.171	0.173
-678.208	197.348	-0.140	-0.217
-677.193	141.350	0.222	0.298
-676.178	-55.178	-0.236	0.108
-675.164	-60.578	-0.087	-0.037
-674.149	345.070	-0.077	-0.153
-673.135	172.600	0.098	0.143
-672.120	106.188	-0.113	-0.135
-671.105	437.292	0.087	0.192
-670.091	-8.312	-0.356	-0.242
-669.076	27.459	0.193	-0.165
-668.062	299.072	-0.192	0.358
-667.047	-200.000	-0.160	-0.000
-666.032	205.922	-0.048	0.075
-665.018	-63.391	0.435	-0.181
-664.003	19.539	0.131	0.107
-662.989	370.407	-0.110	0.226
-661.974	76.558	-0.105	0.112
-660.959	-25.001	-0.219	-0.132
-659.945	-130.650	-0.329	-0.045
-658.930	397.727	0.143	0.302
-657.916	-10.072	0.180	-0.121
-656.901	-200.000	0.016	-0.113
-655.886	-200.000	-0.052	-0.283
-654.872	-105.179	0.033	0.008
-653.857	-200.000	-0.010	0.047
-652.843	-29.656	-0.314	0.181
-651.828	-141.395	0.037	0.004
-650.814	-200.000	-0.017	0.089
-649.799	308.977	-0.191	0.361
-648.784	537.189	0.065	0.157
-647.770	-127.792	0.186	-0.027
-646.755	-74.001	-0.132	0.048
-645.741	-22.788	-0.222	0.136
-644.726	508.671	0.076	-0.180
-643.711	-86.345	-0.166	-0.052
-642.697	40.167	0.196	-0.178
-641.682	-132.737	0.346	-0.045
-640.668	-34.023	-0.154	0.086
-639.653	-176.059	0.208	0.006
-638.638	-90.513	0.123	0.036
-637.624	172.638	-0.212	0.309
-636.609	-39.716	-0.197	-0.104
-635.595	9.634	0.166	0.127
-634.580	45.847	0.476	-0.445
-633.565	156.389	-0.202	-0.282
-632.551	185.520	0.148	-0.222
-631.536	2.952	-0.035	-0.026
-630.522	-91.725	0.350	0.101
-629.507	-200.000	-0.013	0.081
-628.492	148.249	0.034	-0.046
-627.478	800.000	-0.056	-0.163
-626.463	-200.000	0.010	0.093
-625.449	95.185	-0.040	0.046
-624.434	105.877	-0.131	0.157
-623.419	-26.238	0.210	0.125
-622.405	38.551	-0.218	-0.197
-621.390	-200.000	0.016	0.243
-620.376	20.259	0.145	-0.118
-619.361	738.549	-0.053	-0.144
-618.346	800.000	0.025	0.089
-617.332	64.831	-0.191	-0.195
-616.317	12.842	0.229	-0.179
-615.303	-200.000	-0.002	-0.363
-614.288	-91.569	-0.302	0.087
-613.273	3.237	-0.229	0.169
-612.259	-200.000	0.018	0.176
-611.244	-21.167	0.146	0.090
-610.230	208.021	-0.017	0.027
-609.215	-44.132	0.079	0.040
-608.201	-26.513	-0.148	-0.088
-607.186	109.216	-0.091	-0.110
-606.171	-195.071	-0.190	-0.001
-605.157	-200.000	0.002	0.237
-604.142	57.029	-0.181	0.179
-603.128	-154.343	-0.444	-0.030
-602.113	-134.653	-0.242	-0.030
-601.098	-13.384	0.113	-0.074
-600.084	-28.948	0.231	0.134
-599.069	-24.357	0.288	-0.173
-598.055	103.523	0.298	-0.353
-597.040	-111.902	-0.257	0.052
-596.025	112.209	0.132	-0.161
-595.011	239.240	0.207	-0.348
-593.996	278.552	-0.108	-0.194
-592.982	11.778	-0.161	0.125
-591.967	-103.339	0.211	0.050
-590.952	190.081	-0.067	0.102
-589.938	-59.285	0.095	0.041
-588.923	-200.000	0.024	0.297
-587.909	79.382	-0.024	-0.025
-586.894	314.053	0.118	0.223
-585.879	-129.754	-0.161	0.022
-584.865	2.668	-0.113	-0.083
-583.850	633.966	-0.053	0.136
-582.836	47.355	-0.127	0.119
-581.821	-200.000	0.000	-0.345
-580.806	-111.128	0.123	-0.025
-579.792	-127.173	0.096	0.014
-578.777	590.826	0.131	0.326
-577.763	-165.631	-0.216	-0.009
-576.748	-91.795	0.092	-0.026
-575.733	2.197	-0.248	0.181
-574.719	-159.822	0.368	0.020
-573.704	-175.320	-0.363	-0.010
-572.690	-62.518	-0.039	0.016
-571.675	-200.000	0.007	-0.049
-570.661	-200.000	-0.012	-0.088
-569.646	503.616	-0.095	-0.221
-568.631	800.000	0.023	-0.097
-567.617	476.200	0.057	-0.130
-566.602	-31.168	0.157	-0.089
-565.588	115.470	0.196	-0.242
-564.573	120.520	-0.151	-0.189
-563.558	136.827	0.190	-0.250
-562.544	-200.000	-0.006	-0.243
-561.529	68.526	-0.154	0.159
-560.515	800.000	-0.116	-0.325
-559.500	-200.000	0.077	-0.343
-558.485	-132.515	-0.357	0.046
-557.471	-155.821	-0.161	-0.010
-556.456	180.423	0.159	0.236
-555.442	92.397	0.284	0.323
-554.427	-114.849	0.339	-0.065
-553.412	217.846	-0.136	-0.219
-552.398	-200.000	-0.026	-0.168
-551.383	86.720	-0.057	0.064
-550.369	407.002	-0.248	0.528
-549.354	125.182	-0.162	0.206
-548.339	84.891	0.179	-0.198
-547.325	-200.000	-0.034	-0.274
-546.310	-136.777	-0.145	0.017
-545.296	-134.387	-0.311	0.038
-544.281	-200.000	0.009	0.321
-543.266	-200.000	-0.027	-0.171
-542.252	36.936	-0.160	-0.142
-541.237	-61.472	-0.194	0.082
-540.223	390.879	0.094	0.196
-539.208	-53.582	-0.078	0.036
-538.193	23.839	0.041	-0.034
-537.179	34.958	-0.306	0.270
-536.164	-200.000	-0.048	-0.235
-535.150	-200.000	-0.026	0.181
-534.135	118.870	0.007	0.009
-533.121	-200.000	-0.015	-0.283
-532.106	-105.414	-0.178	-0.041
-531.091	-13.139	0.118	-0.077
-530.077	609.198	0.094	-0.237
-529.062	430.538	0.047	-0.103
-528.048	2.802	-0.106	0.077
-527.033	-200.000	0.009	0.193
-526.018	800.000	0.084	0.283
-525.004	72.409	0.092	0.097
-523.989	-124.767	-0.234	0.036
-522.975	191.494	0.112	-0.170
-521.960	105.157	0.115	-0.137
-520.945	-200.000	0.014	0.248
-519.931	585.339	-0.095	0.235
-518.916	-168.664	0.260	-0.010
-517.902	77.606	0.219	-0.235
-516.887	-17.698	-0.072	0.046
-515.872	285.347	0.153	-0.278
-514.858	528.676	0.099	0.236
-513.843	-166.212	-0.085	-0.004
-512.829	639.008	0.071	0.181
-511.814	70.467	0.081	-0.084
-510.799	-12.971	0.079	-0.052
-509.785	-200.000	-0.009	-0.062
-508.770	-10.416	0.238	0.159
-507.756	-22.065	0.140	0.085
-506.741	-92.947	0.242	-0.068
-505.726	236.248	-0.107	0.179
-504.712	-0.184	-0.082	0.059
-503.697	123.284	-0.178	0.225
-502.683	662.158	-0.048	-0.125
-501.668	-95.130	-0.230	0.063
-500.653	195.779	-0.125	-0.191
-499.639	-149.770	-0.065	0.005
-498.624	-10.323	0.177	-0.118
-497.610	-146.668	0.089	-0.008
-496.595	24.923	0.119	0.099
-495.581	-25.163	-0.283	-0.169
-494.566	251.239	0.085	-0.146
-493.551	305.606	-0.078	-0.146
-492.537	-124.144	0.294	0.046
-491.522	-193.347	0.143	0.001
-490.508	41.110	-0.171	0.156
-489.493	72.695	-0.165	-0.173
-488.478	90.927	-0.267	-0.302
-487.464	-14.072	-0.354	-0.230
-486.449	-39.513	0.069	0.037
-485.435	-145.933	0.129	0.011
-484.420	-110.936	-0.138	-0.029
-483.405	-17.681	-0.395	0.250
-482.391	164.648	-0.267	-0.378
-481.376	262.337	-0.085	-0.148
-480.362	128.493	-0.157	-0.200
-479.347	-59.377	0.080	0.035
-478.332	800.000	0.015	-0.052
-477.318	-200.000	-0.033	0.253
-476.303	18.048	-0.313	0.251
-475.289	-140.467	-0.213	-0.022
-474.274	-59.109	0.294	-0.127
-473.259	-200.000	0.084	0.412
-472.245	237.711	0.026	0.043
-471.230	229.798	-0.106	-0.174
-470.216	800.000	0.044	0.187
-469.201	244.578	0.178	0.301
-468.186	-89.666	0.176	-0.052
-467.172	-200.000	0.017	0.359
-466.157	70.046	0.216	0.224
-465.143	-114.969	0.030	0.006
-464.128	-72.539	-0.379	0.140
-463.113	-99.922	-0.331	-0.083
-462.099	-139.578	0.105	0.011
-461.084	-200.000	0.252	-0.001
-460.070	800.000	-0.050	0.212
-459.055	-58.273	-0.110	-0.048
-458.040	-200.000	-0.015	-0.259
-457.026	-79.239	-0.116	0.039
-456.011	171.200	0.084	0.121
-454.997	453.697	-0.079	0.175
-453.982	188.030	-0.101	-0.152
-452.968	-200.000	-0.050	-0.399
-451.953	-200.000	0.002	-0.025
-450.938	174.516	-0.197	-0.286
-449.924	-40.623	0.155	-0.081
-448.909	520.180	-0.107	0.253
-447.895	628.967	0.024	-0.062
-446.880	102.036	0.197	0.230
-445.865	-200.000	-0.021	-0.330
-444.851	403.251	-0.149	-0.314
-443.836	-100.242	0.118	-0.029
-442.822	800.000	0.041	-0.123
-441.807	70.795	0.256	-0.266
-440.792	-167.686	-0.345	-0.014
-439.778	-39.961	-0.249	0.130
-438.763	21.188	0.196	0.160
-437.749	279.331	-0.061	0.109
-436.734	325.967	0.081	-0.156
-435.719	-200.000	0.004	-0.239
-434.705	233.343	-0.184	-0.304
-433.690	-7.017	0.397	0.271
-432.676	-200.000	-0.020	0.160
-431.661	-9.744	-0.059	0.040
-430.646	-93.472	0.249	0.069
-429.632	-137.485	-0.221	0.025
-428.617	232.576	0.161	-0.266
-427.603	-105.890	-0.110	0.025
-426.588	800.000	0.100	0.303
-425.573	199.196	0.126	0.194
-424.559	-133.299	0.169	0.021
-423.544	800.000	0.078	0.248
-422.530	-200.000	-0.014	0.348
-421.515	-192.637	0.126	-0.001
-420.500	-97.774	-0.323	-0.084
-419.486	-200.000	0.038	-0.186
-418.471	-144.645	-0.185	-0.017
-417.457	-4.789	-0.147	0.102
-416.442	226.276	0.061	-0.100
-415.428	62.940	0.104	-0.105
-414.413	-118.117	-0.310	0.056
-413.398	-69.469	0.137	-0.053
-412.384	75.542	0.112	0.118
-411.369	-80.667	-0.160	0.053
-410.355	212.814	-0.143	-0.226
-409.340	-136.674	-0.235	0.027
-408.325	-178.715	0.126	0.003
-407.311	-51.845	-0.115	-0.054
-406.296	-43.078	0.206	-0.105
-405.282	-28.731	-0.269	0.155
-404.267	-11.464	0.042	-0.028
-403.252	73.931	-0.067	-0.070
-402.238	439.294	-0.201	-0.440
-401.223	179.440	-0.308	0.451
-400.209	145.190	0.110	-0.147
-399.194	-200.000	0.018	0.255
-398.179	-108.897	-0.289	-0.062
-397.165	-182.685	-0.040	-0.001
-396.150	13.551	-0.245	0.190
-395.136	800.000	-0.015	0.062
-394.121	-200.000	-0.017	-0.087
-393.106	436.514	0.023	0.049
-392.092	-72.494	-0.088	0.033
-391.077	-4.961	-0.466	0.321
-390.063	39.750	-0.151	-0.136
-389.048	105.536	0.189	-0.224
-388.033	-23.721	0.239	-0.143
-387.019	181.224	0.121	-0.179
-386.004	-53.712	-0.357	0.163
-384.990	211.412	0.080	0.125
-383.975	301.275	-0.041	-0.076
-382.960	-200.000	-0.023	-0.100
-381.946	-32.006	0.115	0.064
-380.931	-57.187	0.270	0.119
-379.917	-52.801	0.055	0.025
-378.902	96.856	-0.163	-0.187
-377.888	-124.891	-0.193	0.030
-376.873	-179.738	0.116	-0.002
-375.858	-70.127	0.375	-0.143
-374.844	-200.000	0.073	-0.560
-373.829	82.774	-0.037	0.040
-372.815	-89.997	0.286	-0.083
-371.800	-200.000	-0.037	-0.284
-370.785	-12.327	-0.084	-0.055
-369.771	733.114	-0.049	-0.131
-368.756	800.000	0.081	-0.244
-367.742	-11.740	0.265	0.174
-366.727	-54.476	-0.109	0.049
-365.712	-175.237	0.330	0.009
-364.698	65.590	-0.267	-0.271
-363.683	-50.449	0.454	0.215
-362.669	-200.000	-0.083	0.456
-361.654	32.875	0.159	0.137
-360.639	-64.633	0.128	0.052
-359.625	-36.119	-0.048	0.026
-358.610	12.485	0.149	-0.115
-357.596	800.000	0.070	-0.194
-356.581	3.626	0.041	0.030
-355.566	-29.010	0.443	0.254
-354.552	-200.000	-0.016	0.226
-353.537	-104.486	-0.284	0.066
-352.523	42.219	0.128	0.117
-351.508	-200.000	-0.007	-0.046
-350.493	-200.000	-0.013	0.333
-349.479	58.317	0.115	0.112
-348.464	-34.800	0.307	0.168
-347.450	312.336	0.109	0.205
-346.435	-200.000	-0.039	0.276
-345.420	-92.046	0.163	0.046
-344.406	-200.000	-0.013	-0.068
-343.391	-200.000	0.033	-0.187
-342.377	457.351	-0.110	-0.243
-341.362	-134.399	0.345	-0.042
-340.348	698.931	0.054	-0.141
-339.333	-83.565	-0.095	-0.030
-338.318	-200.000	-0.000	-0.095
-337.304	-1.347	0.266	0.187
-336.289	-18.194	0.178	-0.111
-335.275	-61.245	0.154	-0.065
-334.260	-50.793	-0.245	0.115
-333.245	-88.129	-0.329	0.099
-332.231	-55.769	-0.164	-0.073
-331.216	-200.000	-0.002	0.137
-330.202	157.728	0.087	0.120
-329.187	119.400	0.220	0.272
-328.172	604.574	0.103	0.256
-327.158	-75.001	0.258	0.092
-326.143	782.267	0.117	-0.321
-325.129	-200.000	0.022	-0.172
-324.114	495.606	-0.102	-0.235
-323.099	52.143	-0.084	-0.080
-322.085	313.840	-0.022	-0.041
-321.070	4.626	0.268	-0.196
-320.056	26.274	-0.107	-0.089
-319.041	15.047	-0.195	-0.153
-318.026	-110.910	-0.207	-0.043
-317.012	258.658	-0.123	0.212
-315.997	-135.072	0.351	-0.042
-314.983	-38.178	0.327	0.173
-313.968	-116.532	0.147	0.027
-312.953	800.000	0.022	0.091
-311.939	-87.910	0.103	0.031
-310.924	275.611	-0.048	0.085
-309.910	-88.095	-0.333	0.100
-308.895	11.881	0.251	0.193
-307.880	-128.419	0.272	-0.039
-306.866	17.853	0.030	-0.024
-305.851	108.973	-0.097	0.116
-304.837	-79.408	-0.110	0.037
-303.822	800.000	0.054	0.212
-302.807	134.050	0.081	0.105
-301.793	800.000	0.071	-0.214
-300.778	349.298	-0.065	-0.127
-299.764	-200.000	0.035	0.219
-298.749	350.144	-0.059	0.115
-297.735	13.928	-0.020	-0.015
-296.720	-8.180	0.052	-0.035
-295.705	-31.647	-0.200	-0.112
-294.691	-66.629	0.056	0.022
-293.676	-128.007	-0.195	0.028
-292.662	305.844	-0.181	0.335
-291.647	-51.061	0.091	0.042
-290.632	120.677	-0.170	-0.211
-289.618	538.386	-0.073	-0.173
-288.603	-100.518	0.119	-0.029
-287.589	287.315	0.095	0.171
-286.574	567.324	0.061	-0.148
-285.559	-48.891	0.431	-0.206
-284.545	-17.413	0.037	0.024
-283.530	65.235	-0.145	0.146
-282.516	142.194	0.205	0.272
-281.501	-66.851	-0.242	0.095
-280.486	380.827	0.085	-0.175
-279.472	-200.000	-0.010	-0.230
-278.457	-43.630	-0.135	-0.068
-277.443	-110.851	-0.175	0.036
-276.428	-200.000	-0.010	-0.104
-275.413	-200.000	-0.024	0.299
-274.399	260.069	-0.040	-0.069
-273.384	-124.517	0.154	0.024
-272.370	-151.529	0.202	0.015
-271.355	-200.000	-0.031	0.193
-270.340	-145.462	-0.122	0.011
-269.326	-200.000	0.045	-0.234
-268.311	599.456	-0.031	-0.077
-267.297	562.788	0.048	0.117
-266.282	-40.236	-0.218	0.113
-265.267	800.000	-0.034	-0.104
-264.253	-200.000	-0.005	-0.359
-263.238	153.917	0.069	0.094
-262.224	-200.000	0.006	0.162
-261.209	-27.984	0.065	0.037
-260.195	498.711	-0.124	0.286
-259.180	-184.379	-0.162	-0.003
-258.165	80.680	0.118	0.127
-257.151	-200.000	0.013	-0.274
-256.136	800.000	0.035	-0.128
-255.122	-200.000	0.041	-0.188
-254.107	34.807	0.068	-0.059
-253.092	-200.000	-0.018	0.116
-252.078	800.000	-0.045	0.158
-251.063	-33.971	-0.204	-0.112
-250.049	800.000	0.044	0.158
-249.034	-200.000	0.015	0.240
-248.019	-23.762	-0.153	0.091
-247.005	316.902	-0.024	0.046
-245.990	770.094	0.070	-0.191
-244.976	-101.816	-0.270	0.065
-243.961	645.767	0.065	0.166
-242.946	91.153	0.181	0.203
-241.932	-152.493	0.144	-0.010
-240.917	69.026	-0.136	0.139
-239.903	-117.830	0.064	0.011
-238.888	110.208	-0.127	0.152
-237.873	-97.345	0.113	-0.029
-236.859	800.000	0.073	0.269
-235.844	800.000	-0.064	-0.203
-234.830	800.000	0.050	-0.142
-233.815	-48.030	-0.173	0.083
-232.800	513.646	-0.098	0.226
-231.786	112.719	0.270	0.325
-230.771	344.596	0.095	-0.185
-229.757	-54.025	-0.402	-0.182
-228.742	76.501	0.080	0.085
-227.727	800.000	0.062	-0.267
-226.713	-200.000	-0.029	-0.322
-225.698	84.462	0.199	-0.216
-224.684	-200.000	-0.070	0.412
-223.669	-83.527	-0.047	-0.015
-222.655	207.738	0.219	-0.340
-221.640	-200.000	0.005	-0.089
-220.625	800.000	0.102	0.335
-219.611	-51.299	-0.137	-0.064
-218.596	613.804	-0.085	0.212
-217.582	-69.193	-0.128	0.049
-216.567	531.946	-0.088	-0.207
-215.552	-102.970	0.361	-0.085
-214.538	-101.280	0.215	-0.052
-213.523	-200.000	0.016	-0.108
-212.509	571.781	0.082	0.198
-211.494	0.365	0.183	-0.130
-210.479	-200.000	0.034	-0.214
-209.465	63.561	0.171	-0.171
-208.450	-68.292	-0.203	-0.078
-207.436	-50.720	0.159	0.075
-206.421	320.466	0.153	0.289
-205.406	-61.573	-0.198	0.083
-204.392	-200.000	0.012	-0.138
-203.377	-152.366	-0.355	0.025
-202.363	-94.062	-0.030	-0.008
-201.348	-16.884	-0.190	0.119
-200.333	800.000	0.063	-0.198
-199.319	-55.299	0.337	-0.150
-198.304	377.224	0.103	0.208
-197.290	-165.991	-0.114	-0.005
-196.275	-148.398	-0.142	0.012
-195.260	-200.000	-0.014	0.066
-194.246	217.201	0.040	0.063
-193.231	-82.675	0.361	-0.116
-192.217	52.001	0.146	-0.138
-191.202	-33.727	-0.088	0.048
-190.187	-200.000	-0.008	0.280
-189.173	-200.000	0.033	0.215
-188.158	126.662	-0.219	0.276
-187.144	-123.365	0.297	0.047
-186.129	-200.000	0.042	0.601
-185.114	154.935	0.170	0.232
-184.100	-200.000	0.000	0.098
-183.085	-133.824	0.125	-0.015
-182.071	97.681	-0.059	-0.067
-181.056	101.937	0.075	-0.087
-180.042	139.333	-0.124	-0.162
-179.027	-76.070	0.107	-0.037
-178.012	27.870	-0.051	0.042
-176.998	-83.798	-0.223	-0.071
-175.983	-198.301	-0.332	-0.002
-174.969	191.355	0.053	0.079
-173.954	-49.578	0.109	0.052
-172.939	800.000	-0.039	0.142
-171.925	-100.875	0.203	-0.050
-170.910	17.124	-0.031	0.024
-169.896	-56.224	-0.094	-0.042
-168.881	800.000	-0.098	-0.299
-167.866	116.032	0.073	0.089
-166.852	31.198	-0.170	-0.145
-165.837	192.179	-0.120	-0.179
-164.823	-200.000	-0.035	-0.197
-163.808	57.522	0.225	-0.219
-162.793	-200.000	0.000	0.342
-161.779	127.593	0.188	-0.237
-160.764	-200.000	-0.007	-0.120
-159.750	-185.608	-0.176	-0.003
-158.735	10.004	-0.531	-0.400
-157.720	64.525	-0.105	0.105
-156.706	800.000	-0.008	-0.035
-155.691	-200.000	0.023	0.113
-154.677	277.823	-0.123	-0.218
-153.662	-47.787	0.364	-0.175
-152.647	-118.703	0.139	-0.024
-151.633	-101.621	-0.055	-0.013
-150.618	-114.259	-0.139	0.027
-149.604	-174.993	0.026	-0.001
-148.589	-174.829	0.215	0.006
-147.574	4.249	0.173	-0.126
-146.560	159.528	-0.204	-0.281
-145.545	-29.894	0.122	-0.069
-144.531	-187.001	-0.124	0.002
-143.516	-200.000	-0.001	-0.243
-142.502	-124.142	-0.560	-0.087
-141.487	-98.717	-0.103	-0.026
-140.472	-120.700	-0.130	-0.022
-139.458	109.009	0.158	0.188
-138.443	-149.340	-0.345	-0.027
-137.429	113.779	-0.259	0.312
-136.414	-132.811	0.236	0.030
-135.399	-200.000	-0.002	0.117
-134.385	-120.715	0.201	-0.034
-133.370	47.970	-0.238	0.220
-132.356	-200.000	-0.025	0.328
-131.341	-200.000	-0.175	0.000
-130.326	-108.279	0.171	-0.037
-129.312	172.200	-0.027	0.038
-128.297	222.909	-0.150	0.240
-127.283	21.454	-0.262	-0.211
-126.268	-200.000	-0.006	-0.047
-125.253	550.502	-0.050	-0.119
-124.239	-76.714	0.127	0.044
-123.224	-188.400	0.133	0.002
-122.210	-116.583	-0.167	0.030
