DTS Sentinel unit serial number:	SN413079Multiplexer serial number:	ORYXHardware model number:	OX4-SRSoftware version number:	ORYX F/W v4.00 Oryx Data Collector v3.7.2.0data status	okinstallation	princeton_trtdifferential loss correction	single-endedforward channel	channel 2reverse channel	N/Adate	2019/09/14time	20:11:35forward acquisition time	60.00reverse acquisition time	0.00gamma	496.2192k internal	0.2321k external	0.2321temperature offset calibration	1.0093default loss term (dB/km)	0.3790temperature slope calibration	1.0000multiplexer offset coefficient	1.0000multiplexer slope coefficient	1.0000fibre end	0.00T internal ref (°C)	33.87T ext. ref 1 (°C)	4.87T ext. ref 2 (°C)	28.28length (m)	temperature (°C)	Stokes	anti-Stokes-747.200	-45.987	-0.268	-0.133
-746.185	466.892	-0.092	0.208
-745.171	800.000	0.143	-0.429
-744.156	248.571	-0.117	0.200
-743.142	-84.401	-0.106	0.034
-742.127	288.081	-0.086	0.158
-741.112	4.290	-0.220	-0.163
-740.098	236.584	0.100	-0.167
-739.083	193.333	-0.314	-0.479
-738.069	54.742	-0.191	-0.186
-737.054	2.513	-0.345	0.253
-736.039	-38.627	-0.152	0.081
-735.025	-200.000	-0.009	0.143
-734.010	13.140	0.160	0.125
-732.996	-200.000	-0.043	0.293
-731.981	344.870	-0.067	0.133
-730.966	33.994	-0.242	-0.213
-729.952	-56.861	0.156	-0.069
-728.937	-140.171	0.113	0.012
-727.923	800.000	0.032	-0.122
-726.908	-200.000	0.023	-0.250
-725.894	-62.211	-0.424	0.178
-724.879	397.452	-0.300	-0.633
-723.864	-200.000	-0.018	-0.152
-722.850	18.725	0.336	0.271
-721.835	7.234	0.161	-0.121
-720.821	-54.552	-0.257	0.117
-719.806	131.397	0.063	0.082
-718.791	-135.602	-0.272	0.033
-717.777	-49.472	-0.297	0.143
-716.762	302.311	-0.081	-0.150
-715.748	132.336	0.022	0.029
-714.733	289.380	0.118	-0.216
-713.718	37.515	0.070	0.063
-712.704	-115.740	-0.343	0.065
-711.689	800.000	0.023	-0.087
-710.675	-200.000	-0.046	-0.324
-709.660	-54.420	-0.246	0.113
-708.645	800.000	-0.043	-0.135
-707.631	-32.466	0.237	0.133
-706.616	-149.574	-0.315	-0.025
-705.602	218.618	0.060	0.097
-704.587	86.709	-0.246	-0.274
-703.572	-200.000	0.025	0.137
-702.558	-130.816	-0.315	-0.043
-701.543	800.000	-0.082	-0.245
-700.529	12.174	0.375	-0.291
-699.514	350.851	-0.124	-0.247
-698.499	-41.043	-0.264	-0.138
-697.485	800.000	-0.077	0.298
-696.470	-32.011	-0.164	0.092
-695.456	3.127	-0.112	-0.082
-694.441	-126.201	-0.304	0.046
-693.426	254.332	-0.153	-0.265
-692.412	725.827	-0.057	-0.154
-691.397	-148.453	-0.067	-0.006
-690.383	134.826	0.090	0.118
-689.368	-199.466	-0.463	0.002
-688.354	-39.064	-0.393	-0.208
-687.339	591.592	0.124	0.308
-686.324	-200.000	-0.030	0.204
-685.310	-200.000	-0.001	0.046
-684.295	1.337	-0.091	0.066
-683.281	587.525	-0.211	-0.524
-682.266	800.000	0.034	-0.100
-681.251	6.110	0.169	-0.126
-680.237	-123.980	0.072	0.011
-679.222	0.480	0.059	0.043
-678.208	800.000	0.073	-0.321
-677.193	-200.000	-0.054	-0.422
-676.178	110.501	0.151	0.183
-675.164	800.000	-0.056	-0.245
-674.149	-85.412	-0.404	0.127
-673.135	800.000	0.092	-0.313
-672.120	-39.074	-0.341	0.181
-671.105	67.788	0.140	0.144
-670.091	624.906	0.162	0.412
-669.076	800.000	-0.032	0.138
-668.062	-113.397	-0.091	0.018
-667.047	3.713	-0.124	-0.091
-666.032	219.810	0.070	-0.112
-665.018	-110.782	-0.167	0.035
-664.003	-176.478	-0.081	-0.002
-662.989	310.502	0.196	-0.370
-661.974	92.128	0.145	0.165
-660.959	-200.000	0.023	0.107
-659.945	451.633	-0.079	-0.176
-658.930	-143.209	0.219	0.021
-657.916	-36.784	-0.170	0.092
-656.901	-106.125	-0.291	-0.066
-655.886	58.937	0.057	-0.057
-654.872	-60.490	-0.093	-0.040
-653.857	-127.285	0.136	-0.020
-652.843	-130.108	0.316	-0.043
-651.828	-200.000	-0.008	-0.162
-650.814	-17.369	-0.162	0.103
-649.799	-200.000	-0.017	0.347
-648.784	107.249	-0.012	-0.015
-647.770	78.673	0.156	0.168
-646.755	191.457	-0.120	-0.181
-645.741	-38.182	0.334	-0.178
-644.726	15.302	0.132	0.104
-643.711	101.147	-0.157	0.184
-642.697	800.000	0.070	-0.310
-641.682	469.846	0.105	-0.237
-640.668	-200.000	0.019	-0.138
-639.653	-200.000	0.022	-0.285
-638.638	-123.780	-0.426	-0.068
-637.624	342.571	-0.054	-0.105
-636.609	-200.000	-0.032	-0.298
-635.595	33.463	-0.072	-0.063
-634.580	-106.432	-0.087	0.020
-633.565	94.073	-0.183	-0.209
-632.551	-127.407	0.367	-0.054
-631.536	-200.000	-0.007	0.075
-630.522	239.690	0.132	-0.221
-629.507	-139.207	-0.320	-0.035
-628.492	-86.643	0.245	0.076
-627.478	88.334	0.090	0.100
-626.463	-200.000	0.029	0.485
-625.449	60.384	0.107	0.107
-624.434	-150.029	-0.448	-0.035
-623.419	104.458	0.310	-0.367
-622.405	-33.415	0.189	-0.105
-621.390	22.097	-0.385	-0.316
-620.376	-112.570	0.184	0.037
-619.361	-200.000	-0.042	-0.291
-618.346	-200.000	-0.088	-0.394
-617.332	800.000	-0.039	-0.151
-616.317	29.807	0.363	0.311
-615.303	96.237	-0.282	-0.324
-614.288	112.268	-0.231	-0.281
-613.273	-198.287	0.133	-0.001
-612.259	-122.316	0.123	0.020
-611.244	91.678	-0.106	0.120
-610.230	-116.770	0.229	-0.042
-609.215	-200.000	0.019	0.287
-608.201	142.683	0.107	-0.143
-607.186	41.389	0.166	0.151
-606.171	-140.746	0.163	0.017
-605.157	-200.000	-0.001	0.133
-604.142	54.034	-0.140	0.135
-603.128	-56.048	-0.250	-0.112
-602.113	-200.000	0.030	-0.170
-601.098	-114.392	0.139	0.027
-600.084	-37.256	-0.308	0.165
-599.069	-63.194	0.166	0.069
-598.055	301.507	0.130	0.241
-597.040	63.451	0.152	-0.153
-596.025	-106.400	-0.157	-0.035
-595.011	3.200	-0.074	0.054
-593.996	633.444	-0.068	-0.174
-592.982	-200.000	-0.039	0.386
-591.967	564.740	0.142	0.346
-590.952	-123.012	-0.156	0.025
-589.938	39.465	0.143	-0.129
-588.923	-200.000	0.005	0.376
-587.909	26.311	0.184	-0.154
-586.894	-200.000	0.038	0.192
-585.879	315.256	0.050	0.094
-584.865	-47.968	-0.171	-0.083
-583.850	7.810	-0.109	-0.082
-582.836	153.443	-0.175	0.241
-581.821	-80.700	-0.173	0.058
-580.806	-200.000	0.032	-0.239
-579.792	-81.380	0.448	-0.148
-578.777	-108.704	-0.307	-0.066
-577.763	-36.518	0.104	0.056
-576.748	-69.566	0.200	-0.077
-575.733	494.939	-0.078	-0.180
-574.719	-58.832	-0.310	-0.135
-573.704	-140.830	-0.354	-0.037
-572.690	-8.342	-0.277	-0.187
-571.675	282.750	-0.128	-0.231
-570.661	67.422	0.011	0.011
-569.646	-42.666	-0.122	0.062
-568.631	65.948	0.085	-0.086
-567.617	-154.979	-0.240	-0.016
-566.602	-73.476	-0.124	-0.045
-565.588	429.498	0.161	-0.349
-564.573	-200.000	0.041	0.287
-563.558	-69.933	-0.044	0.017
-562.544	-4.561	-0.192	-0.133
-561.529	-200.000	-0.023	-0.171
-560.515	-11.206	-0.109	0.072
-559.500	103.815	0.188	-0.222
-558.485	-91.858	-0.117	0.033
-557.471	-85.493	0.242	0.076
-556.456	9.462	-0.039	0.030
-555.442	-24.684	-0.290	0.173
-554.427	185.443	-0.047	0.071
-553.412	126.957	-0.274	-0.348
-552.398	-13.966	-0.312	-0.202
-551.383	275.981	-0.150	0.268
-550.369	-43.797	0.257	-0.130
-549.354	-155.260	0.101	-0.007
-548.339	84.662	-0.111	-0.121
-547.325	1.646	0.107	0.077
-546.310	-200.000	-0.000	-0.132
-545.296	-200.000	-0.036	0.200
-544.281	-138.263	-0.115	0.013
-543.266	-200.000	0.010	0.084
-542.252	-200.000	-0.042	-0.305
-541.237	12.191	-0.069	0.053
-540.223	-22.253	-0.048	0.029
-539.208	73.342	-0.117	-0.122
-538.193	-18.536	0.112	-0.070
-537.179	-183.981	-0.155	-0.003
-536.164	38.395	0.202	0.180
-535.150	-178.427	-0.200	0.005
-534.135	-200.000	-0.006	-0.112
-533.121	-200.000	-0.018	-0.133
-532.106	-73.684	-0.251	0.091
-531.091	-165.722	0.330	0.014
-530.077	-72.541	0.120	0.044
-529.062	-200.000	-0.002	-0.296
-528.048	800.000	-0.051	0.215
-527.033	674.334	-0.095	0.248
-526.018	248.099	0.040	0.068
-525.004	-156.026	0.043	0.003
-523.989	-200.000	0.042	0.188
-522.975	800.000	0.035	0.146
-521.960	-190.918	0.384	-0.004
-520.945	359.276	0.131	-0.262
-519.931	-95.937	-0.147	0.039
-518.916	-126.729	-0.217	0.032
-517.902	-27.373	0.051	-0.030
-516.887	-98.870	-0.247	0.063
-515.872	-200.000	0.056	-0.443
-514.858	51.603	0.244	0.232
-513.843	-179.148	0.284	0.006
-512.829	-140.166	-0.112	-0.012
-511.814	-111.728	-0.297	0.060
-510.799	-200.000	-0.005	0.100
-509.785	-136.282	-0.066	0.008
-508.770	90.440	0.024	0.027
-507.756	-134.335	0.083	-0.010
-506.741	-92.020	0.191	-0.054
-505.726	82.380	-0.200	0.217
-504.712	800.000	-0.019	-0.066
-503.697	263.293	0.109	-0.189
-502.683	58.929	0.224	0.221
-501.668	800.000	-0.027	0.096
-500.653	-73.166	-0.043	0.016
-499.639	539.084	0.049	-0.116
-498.624	-101.934	-0.205	0.049
-497.610	78.064	-0.151	0.161
-496.595	43.012	0.300	-0.274
-495.581	101.408	0.253	0.295
-494.566	-200.000	-0.031	-0.270
-493.551	57.794	-0.367	-0.359
-492.537	-63.719	-0.353	0.145
-491.522	504.729	-0.110	-0.256
-490.508	-102.548	-0.191	-0.046
-489.493	-156.141	-0.127	-0.008
-488.478	-171.482	0.180	0.006
-487.464	38.359	-0.135	-0.120
-486.449	-120.905	-0.392	-0.066
-485.435	-200.000	-0.078	-0.398
-484.420	-116.352	0.376	-0.070
-483.405	800.000	-0.056	-0.168
-482.391	188.218	-0.235	0.352
-481.376	-200.000	0.002	-0.256
-480.362	-200.000	0.014	0.129
-479.347	-200.000	0.020	0.274
-478.332	-70.486	-0.247	0.094
-477.318	-64.083	-0.274	-0.112
-476.303	-158.362	0.075	0.004
-475.289	800.000	-0.007	-0.027
-474.274	800.000	0.033	0.107
-473.259	800.000	0.080	0.298
-472.245	-40.624	0.195	0.101
-471.230	80.142	-0.102	0.109
-470.216	-106.806	0.197	-0.044
-469.201	-200.000	-0.003	0.032
-468.186	-200.000	0.007	0.147
-467.172	478.782	-0.030	0.068
-466.157	628.370	-0.048	-0.121
-465.143	-200.000	-0.019	-0.151
-464.128	-200.000	-0.075	-0.361
-463.113	76.917	-0.060	0.063
-462.099	-178.229	0.445	-0.010
-461.084	38.496	0.055	-0.049
-460.070	-122.621	-0.294	-0.048
-459.055	-200.000	0.030	0.189
-458.040	-200.000	0.028	0.179
-457.026	-49.997	0.262	0.124
-456.011	-82.584	0.175	-0.057
-454.997	48.184	0.124	-0.116
-453.982	-200.000	0.040	0.340
-452.968	632.336	-0.070	0.177
-451.953	-63.798	0.133	0.054
-450.938	-200.000	-0.008	0.101
-449.924	-120.535	0.329	-0.056
-448.909	1.906	0.149	-0.107
-447.895	800.000	-0.066	-0.279
-446.880	-19.551	0.230	0.142
-445.865	-87.393	-0.295	0.089
-444.851	154.280	0.082	-0.112
-443.836	438.560	-0.087	0.190
-442.822	240.449	-0.077	0.128
-441.807	-200.000	0.016	-0.204
-440.792	-200.000	-0.026	-0.133
-439.778	-69.276	-0.031	-0.012
-438.763	518.227	-0.064	-0.149
-437.749	-200.000	-0.013	-0.119
-436.734	96.808	0.172	0.196
-435.719	-158.596	-0.254	0.015
-434.705	-190.210	0.191	-0.002
-433.690	-20.509	-0.143	0.088
-432.676	570.118	0.050	-0.122
-431.661	313.267	-0.144	0.271
-430.646	800.000	0.046	0.165
-429.632	-200.000	-0.008	-0.337
-428.617	-200.000	0.049	0.258
-427.603	-200.000	-0.011	0.050
-426.588	158.640	-0.186	-0.258
-425.573	98.231	-0.127	0.146
-424.559	271.879	0.211	0.371
-423.544	137.650	-0.218	-0.285
-422.530	166.322	-0.094	-0.132
-421.515	800.000	0.133	0.401
-420.500	-123.068	-0.167	0.027
-419.486	-200.000	-0.005	-0.162
-418.471	3.202	-0.019	0.013
-417.457	364.958	-0.055	0.111
-416.442	329.271	0.047	0.091
-415.428	800.000	-0.010	0.031
-414.413	-200.000	-0.018	-0.097
-413.398	-200.000	0.017	-0.174
-412.384	33.880	0.224	0.195
-411.369	-131.307	-0.344	-0.045
-410.355	-29.386	-0.130	0.074
-409.340	800.000	0.046	0.158
-408.325	-49.542	0.082	-0.039
-407.311	-66.094	-0.262	0.104
-406.296	0.477	0.379	0.270
-405.282	69.596	0.166	-0.171
-404.267	576.533	0.019	-0.047
-403.252	-113.232	-0.247	0.048
-402.238	-12.336	-0.303	0.197
-401.223	-44.409	-0.264	-0.132
-400.209	-46.505	-0.239	-0.117
-399.194	402.211	-0.141	-0.295
-398.179	-75.080	-0.288	0.103
-397.165	-97.554	0.383	0.099
-396.150	-136.467	0.078	0.009
-395.136	307.684	-0.071	0.132
-394.121	349.777	-0.150	-0.295
-393.106	800.000	0.031	0.126
-392.092	-200.000	-0.016	0.093
-391.077	-56.610	0.401	-0.177
-390.063	233.278	-0.077	-0.127
-389.048	-22.807	-0.033	0.020
-388.033	-112.896	0.278	0.055
-387.019	-46.871	-0.367	-0.179
-386.004	-8.889	0.033	-0.022
-384.990	150.138	-0.182	0.246
-383.975	25.527	-0.266	-0.221
-382.960	-134.082	0.173	-0.021
-381.946	-200.000	-0.037	0.443
-380.931	19.144	0.044	-0.035
-379.917	-121.633	0.199	-0.033
-378.902	375.203	-0.147	-0.299
-377.888	317.161	-0.012	0.022
-376.873	-7.011	-0.225	-0.152
-375.858	-200.000	0.022	0.178
-374.844	-200.000	-0.013	0.208
-373.829	800.000	-0.021	0.071
-372.815	369.590	0.184	-0.371
-371.800	-131.714	-0.098	0.013
-370.785	-27.277	-0.108	0.063
-369.771	-200.000	0.001	0.010
-368.756	367.898	0.044	-0.090
-367.742	162.984	-0.119	-0.167
-366.727	356.095	-0.074	-0.148
-365.712	32.817	0.207	0.179
-364.698	83.717	0.178	0.193
-363.683	-111.146	-0.171	0.035
-362.669	-61.774	-0.236	-0.098
-361.654	-37.198	0.231	-0.123
-360.639	-59.272	-0.253	-0.109
-359.625	237.867	-0.131	0.216
-358.610	-200.000	-0.069	0.350
-357.596	-102.952	0.008	-0.002
-356.581	-200.000	0.012	-0.060
-355.566	-69.825	-0.262	0.100
-354.552	6.305	-0.064	0.047
-353.537	-48.077	0.216	-0.104
-352.523	800.000	-0.140	-0.386
-351.508	95.123	0.146	-0.165
-350.493	606.064	-0.052	-0.128
-349.479	29.322	0.092	0.078
-348.464	668.314	-0.050	0.128
-347.450	174.127	0.254	-0.365
-346.435	125.715	-0.080	-0.101
-345.420	-200.000	0.074	-0.425
-344.406	-117.427	-0.479	-0.086
-343.391	-13.974	0.093	-0.060
-342.377	-46.110	0.142	0.070
-341.362	-200.000	0.037	0.162
-340.348	-200.000	0.042	0.202
-339.333	429.740	0.064	-0.138
-338.318	440.352	-0.075	-0.164
-337.304	-200.000	-0.030	-0.244
-336.289	-158.469	-0.527	0.030
-335.275	-3.522	0.217	0.150
-334.260	54.632	0.139	0.134
-333.245	100.839	0.118	0.136
-332.231	800.000	0.063	0.244
-331.216	-131.929	-0.032	0.004
-330.202	-159.077	0.215	-0.012
-329.187	-200.000	0.009	0.225
-328.172	-200.000	-0.018	0.240
-327.158	748.498	-0.044	-0.117
-326.143	-39.143	0.278	0.145
-325.129	-49.185	-0.277	0.132
-324.114	118.281	0.234	-0.287
-323.099	-55.806	0.167	-0.074
-322.085	-104.985	0.102	0.023
-321.070	-100.295	0.197	-0.049
-320.056	-137.715	0.138	-0.015
-319.041	265.219	0.113	-0.196
-318.026	-112.709	-0.297	0.059
-317.012	-132.474	0.291	0.037
-315.997	62.116	0.128	0.127
-314.983	177.656	-0.125	0.180
-313.968	-118.039	0.098	-0.017
-312.953	-200.000	-0.010	0.252
-311.939	-4.230	0.231	0.159
-310.924	-200.000	0.001	-0.131
-309.910	262.729	0.003	-0.006
-308.895	215.620	-0.117	0.185
-307.880	-36.608	-0.249	-0.133
-306.866	-26.664	0.262	0.152
-305.851	-5.900	-0.143	0.097
-304.837	12.541	0.109	0.084
-303.822	458.293	0.029	-0.064
-302.807	800.000	0.029	0.081
-301.793	-200.000	-0.051	-0.305
-300.778	-200.000	-0.004	0.121
-299.764	-200.000	0.059	0.327
-298.749	704.742	-0.105	-0.274
-297.735	-25.940	-0.325	-0.190
-296.720	18.571	0.155	-0.123
-295.705	4.741	0.300	-0.219
-294.691	-53.037	0.221	-0.101
-293.676	295.862	0.097	-0.176
-292.662	50.201	0.396	0.371
-291.647	-91.715	0.283	0.080
-290.632	-31.677	-0.131	0.073
-289.618	-200.000	0.021	0.181
-288.603	170.904	0.090	-0.128
-287.589	10.049	-0.203	-0.153
-286.574	-89.249	-0.162	0.047
-285.559	-150.261	0.190	0.015
-284.545	-8.234	0.210	-0.141
-283.530	-97.180	0.227	0.059
-282.516	-200.000	0.049	0.493
-281.501	69.693	0.100	0.103
-280.486	15.024	-0.124	0.096
-279.472	-88.661	0.182	0.054
-278.457	800.000	-0.031	0.116
-277.443	-200.000	-0.026	0.387
-276.428	62.008	0.189	-0.187
-275.413	27.284	-0.125	-0.104
-274.399	165.119	-0.038	-0.053
-273.384	800.000	-0.038	-0.136
-272.370	-122.656	-0.305	-0.049
-271.355	-47.099	0.172	0.083
-270.340	-200.000	0.006	-0.228
-269.326	123.404	-0.117	-0.146
-268.311	81.848	0.177	0.191
-267.297	118.552	-0.283	0.346
-266.282	-200.000	-0.009	-0.062
-265.267	-12.027	0.152	0.099
-264.253	800.000	0.054	0.190
-263.238	-148.229	0.171	-0.014
-262.224	-83.502	-0.120	-0.038
-261.209	800.000	-0.103	0.317
-260.195	-105.487	-0.217	0.049
-259.180	59.457	0.219	-0.214
-258.165	-114.966	0.358	0.067
-257.151	800.000	-0.016	-0.047
-256.136	-200.000	0.021	-0.149
-255.122	-200.000	0.034	-0.162
-254.107	-200.000	0.036	-0.186
-253.092	247.804	0.148	0.249
-252.078	495.574	0.080	-0.183
-251.063	-71.996	0.245	-0.090
-250.049	-155.789	0.085	-0.005
-249.034	-200.000	0.046	-0.438
-248.019	384.156	-0.090	-0.183
-247.005	-12.398	0.104	-0.067
-245.990	102.295	0.178	-0.207
-244.976	-39.100	0.143	0.075
-243.961	-118.143	0.191	-0.034
-242.946	-140.243	0.132	-0.014
-241.932	-185.214	-0.268	0.004
-240.917	-55.788	-0.005	0.002
-239.903	-200.000	-0.000	-0.029
-238.888	68.885	-0.089	-0.090
-237.873	164.324	-0.079	0.111
-236.859	11.097	-0.303	-0.229
-235.844	344.421	0.061	0.118
-234.830	-175.675	-0.164	-0.004
-233.815	-104.905	0.158	0.036
-232.800	135.829	0.134	-0.173
-231.786	800.000	-0.059	-0.243
-230.771	-200.000	0.040	-0.250
-229.757	341.549	0.124	-0.241
-228.742	14.619	0.295	0.228
-227.727	384.588	0.110	-0.225
-226.713	-200.000	0.027	0.143
-225.698	42.862	0.152	0.138
-224.684	592.454	0.137	0.336
-223.669	403.152	0.198	0.411
-222.655	-128.123	-0.108	-0.015
-221.640	-200.000	-0.035	-0.210
-220.625	-14.205	-0.211	0.135
-219.611	117.512	-0.167	-0.203
-218.596	64.673	0.163	0.163
-217.582	152.548	-0.019	-0.026
-216.567	-124.371	-0.212	0.033
-215.552	147.239	-0.045	0.060
-214.538	-25.551	0.323	0.189
-213.523	-65.881	0.183	-0.072
-212.509	-38.149	-0.100	0.053
-211.494	-1.341	-0.280	-0.195
-210.479	349.156	-0.025	0.048
-209.465	329.467	-0.042	0.080
-208.450	373.925	0.078	0.158
-207.436	-200.000	-0.027	0.145
-206.421	29.372	-0.154	0.130
-205.406	-200.000	0.061	-0.349
-204.392	-159.464	0.241	-0.013
-203.377	-99.598	0.396	-0.098
-202.363	-200.000	-0.089	0.572
-201.348	-190.055	-0.298	-0.003
-200.333	251.912	0.106	-0.179
-199.319	-200.000	-0.041	0.182
-198.304	-200.000	0.004	0.044
-197.290	-17.517	-0.224	0.140
-196.275	-105.559	0.277	0.062
-195.260	303.684	0.078	-0.143
-194.246	59.741	-0.059	-0.057
-193.231	-122.391	-0.070	0.011
-192.217	-200.000	0.049	0.349
-191.202	-103.049	-0.501	-0.117
-190.187	117.842	0.177	-0.215
-189.173	-50.510	0.114	0.053
-188.158	-55.509	0.136	0.060
-187.144	628.142	-0.081	0.203
-186.129	-23.121	-0.352	-0.210
-185.114	-124.822	-0.352	-0.054
-184.100	-80.371	-0.148	-0.049
-183.085	204.563	0.055	0.085
-182.071	701.773	0.063	0.165
-181.056	-59.805	-0.050	-0.021
-180.042	299.347	0.068	-0.124
-179.027	61.844	0.109	0.107
-178.012	186.895	0.233	0.343
-176.998	-1.562	-0.052	-0.036
-175.983	0.279	-0.082	0.058
-174.969	-185.972	-0.134	-0.002
-173.954	-108.832	-0.039	-0.008
-172.939	151.657	-0.071	0.096
-171.925	-71.806	0.188	-0.069
-170.910	-189.231	0.327	0.004
-169.896	-163.881	-0.027	0.001
-168.881	800.000	-0.060	0.174
-167.866	800.000	-0.058	-0.238
-166.852	-134.187	-0.233	-0.028
-165.837	100.592	0.143	0.164
-164.823	-145.332	0.374	0.033
-163.808	-32.255	0.146	-0.081
-162.793	-200.000	0.018	-0.140
-161.779	181.778	-0.128	-0.186
-160.764	-143.872	-0.091	-0.008
-159.750	-8.611	0.074	-0.049
-158.735	-200.000	0.043	0.468
-157.720	-30.501	-0.332	0.186
-156.706	-200.000	0.067	0.310
-155.691	-5.860	0.139	0.094
-154.677	-102.006	0.189	-0.045
-153.662	69.266	0.116	0.118
-152.647	-108.179	-0.173	-0.037
-151.633	800.000	-0.038	0.133
-150.618	10.914	-0.199	-0.150
-149.604	354.679	0.304	-0.598
-148.589	-46.422	0.247	0.120
-147.574	-200.000	-0.011	-0.313
-146.560	-105.852	-0.251	0.056
-145.545	-200.000	0.014	0.351
-144.531	10.518	-0.029	-0.022
-143.516	-57.928	-0.475	0.205
-142.502	-182.111	0.270	0.005
-141.487	526.858	-0.075	0.175
-140.472	298.733	-0.043	0.078
-139.458	53.600	0.431	0.408
-138.443	159.238	-0.226	0.310
-137.429	-200.000	-0.032	-0.271
-136.414	334.840	-0.079	-0.151
-135.399	-200.000	-0.013	-0.471
-134.385	-169.466	0.087	-0.003
-133.370	161.376	0.247	0.341
-132.356	-200.000	-0.019	0.088
-131.341	205.187	-0.164	-0.251
-130.326	7.666	-0.234	-0.173
-129.312	573.393	-0.120	0.288
-128.297	-76.701	0.189	0.065
-127.283	-19.001	-0.055	0.034
-126.268	-134.878	0.261	-0.031
-125.253	800.000	0.106	-0.314
-124.239	78.095	0.110	0.116
-123.224	213.955	-0.133	0.208
-122.210	173.948	-0.099	-0.141
