DTS Sentinel unit serial number:	SN413079Multiplexer serial number:	ORYXHardware model number:	OX4-SRSoftware version number:	ORYX F/W v4.00 Oryx Data Collector v3.7.2.0data status	okinstallation	princeton_trtdifferential loss correction	single-endedforward channel	channel 2reverse channel	N/Adate	2019/09/14time	16:03:34forward acquisition time	60.00reverse acquisition time	0.00gamma	496.2192k internal	0.2306k external	0.2306temperature offset calibration	1.0134default loss term (dB/km)	0.3790temperature slope calibration	1.0000multiplexer offset coefficient	1.0000multiplexer slope coefficient	1.0000fibre end	0.00T internal ref (°C)	38.50T ext. ref 1 (°C)	5.08T ext. ref 2 (°C)	32.88length (m)	temperature (°C)	Stokes	anti-Stokes-747.200	-200.000	-0.083	0.498
-746.185	60.074	0.303	0.305
-745.171	46.458	-0.089	0.084
-744.156	310.552	0.078	0.149
-743.142	163.479	-0.169	-0.241
-742.127	151.920	0.133	0.185
-741.112	126.700	-0.238	0.307
-740.098	800.000	0.113	0.320
-739.083	-106.444	-0.305	-0.069
-738.069	-200.000	-0.004	0.117
-737.054	305.621	0.122	0.231
-736.039	-200.000	-0.010	0.083
-735.025	-63.026	0.091	-0.038
-734.010	15.141	0.093	0.074
-732.996	800.000	0.060	-0.205
-731.981	800.000	0.053	0.231
-730.966	3.193	-0.168	0.124
-729.952	-96.524	-0.142	-0.038
-728.937	-200.000	0.005	-0.051
-727.923	78.136	0.025	-0.027
-726.908	-200.000	-0.007	-0.168
-725.894	-200.000	-0.013	0.201
-724.879	570.579	0.071	0.176
-723.864	401.774	-0.183	0.390
-722.850	23.895	-0.233	0.195
-721.835	146.625	-0.166	-0.227
-720.821	225.998	-0.152	-0.250
-719.806	-200.000	-0.024	-0.148
-718.791	-174.443	0.369	-0.011
-717.777	-133.931	-0.124	0.016
-716.762	-200.000	-0.003	0.304
-715.748	39.616	-0.222	-0.202
-714.733	130.396	0.143	0.186
-713.718	8.368	0.166	-0.127
-712.704	800.000	-0.041	0.150
-711.689	-200.000	-0.022	0.105
-710.675	137.989	0.162	0.216
-709.660	44.392	-0.047	-0.044
-708.645	-59.116	-0.314	-0.137
-707.631	599.330	-0.032	0.081
-706.616	32.847	-0.049	0.043
-705.602	36.820	0.035	0.031
-704.587	-88.191	0.025	-0.008
-703.572	-41.736	0.221	-0.115
-702.558	-91.444	0.313	0.091
-701.543	-200.000	0.049	0.375
-700.529	-200.000	0.015	0.271
-699.514	48.658	-0.016	0.015
-698.499	-116.368	-0.142	0.027
-697.485	-200.000	0.013	0.116
-696.470	121.159	-0.263	0.333
-695.456	-72.873	0.209	-0.078
-694.441	-152.524	0.177	-0.013
-693.426	58.210	-0.063	-0.063
-692.412	-13.878	0.097	-0.063
-691.397	401.631	-0.042	0.089
-690.383	-98.157	0.352	0.092
-689.368	-200.000	-0.026	-0.168
-688.354	-200.000	-0.043	-0.248
-687.339	-65.895	-0.212	-0.086
-686.324	306.141	0.121	0.229
-685.310	-102.015	0.208	-0.051
-684.295	-146.639	-0.147	0.013
-683.281	415.960	0.112	-0.242
-682.266	356.203	0.127	-0.257
-681.251	-18.081	0.282	-0.179
-680.237	-120.005	0.297	-0.052
-679.222	-81.731	-0.355	0.118
-678.208	-148.980	0.260	0.021
-677.193	-67.479	0.166	-0.066
-676.178	-94.508	0.337	-0.093
-675.164	800.000	-0.047	-0.143
-674.149	-142.943	0.226	-0.022
-673.135	72.846	0.173	0.183
-672.120	-92.269	-0.088	-0.025
-671.105	800.000	-0.122	0.417
-670.091	-200.000	0.004	0.207
-669.076	-165.301	-0.211	0.009
-668.062	333.375	-0.101	-0.198
-667.047	-42.868	-0.301	-0.155
-666.032	98.256	-0.270	-0.316
-665.018	-109.453	-0.214	-0.046
-664.003	800.000	-0.002	-0.005
-662.989	507.754	-0.115	-0.272
-661.974	58.647	0.295	0.294
-660.959	-104.062	-0.066	-0.015
-659.945	-138.217	-0.228	0.026
-658.930	-16.116	-0.273	-0.176
-657.916	800.000	0.018	-0.071
-656.901	800.000	0.080	0.284
-655.886	-15.305	-0.168	-0.109
-654.872	24.348	-0.153	0.128
-653.857	278.224	0.089	0.160
-652.843	136.221	0.045	-0.060
-651.828	64.093	0.067	-0.068
-650.814	-77.897	0.106	0.037
-649.799	65.182	-0.080	0.082
-648.784	36.119	0.121	0.108
-647.770	543.635	-0.068	0.164
-646.755	-101.652	-0.097	0.024
-645.741	2.535	0.175	-0.129
-644.726	-200.000	-0.032	0.199
-643.711	139.234	-0.156	-0.208
-642.697	-200.000	-0.057	-0.375
-641.682	800.000	-0.129	-0.376
-640.668	88.460	-0.209	-0.235
-639.653	256.403	-0.117	-0.204
-638.638	-54.934	0.266	0.122
-637.624	-67.942	0.207	0.082
-636.609	-77.282	-0.273	0.096
-635.595	94.824	0.036	0.041
-634.580	-156.818	0.330	-0.021
-633.565	-146.611	0.127	0.011
-632.551	-200.000	0.041	0.193
-631.536	109.492	-0.239	0.290
-630.522	514.110	-0.045	0.107
-629.507	-200.000	-0.045	-0.309
-628.492	99.488	-0.144	-0.169
-627.478	-109.542	-0.156	-0.033
-626.463	-200.000	-0.000	-0.031
-625.449	-31.720	-0.146	-0.083
-624.434	-105.443	-0.360	0.083
-623.419	-25.849	0.210	-0.125
-622.405	132.689	-0.116	-0.152
-621.390	-127.727	-0.091	-0.013
-620.376	25.181	-0.208	-0.174
-619.361	-29.784	0.279	-0.161
-618.346	-200.000	0.013	0.067
-617.332	-200.000	-0.035	0.298
-616.317	-68.540	0.263	0.103
-615.303	-160.713	0.175	0.009
-614.288	537.586	0.049	-0.117
-613.273	800.000	0.026	0.086
-612.259	-200.000	0.137	-0.001
-611.244	340.157	-0.056	-0.110
-610.230	529.620	-0.061	-0.145
-609.215	-141.977	-0.274	-0.028
-608.201	473.050	0.100	-0.228
-607.186	8.208	-0.201	0.152
-606.171	60.579	-0.125	-0.125
-605.157	210.845	-0.123	-0.196
-604.142	-79.312	-0.337	0.116
-603.128	-55.334	-0.134	0.061
-602.113	-61.801	-0.352	-0.149
-601.098	136.168	-0.275	0.362
-600.084	-79.846	-0.250	0.085
-599.069	733.710	-0.083	0.225
-598.055	6.241	-0.269	-0.201
-597.040	270.902	0.171	-0.305
-596.025	577.333	0.064	-0.158
-595.011	58.593	0.337	-0.335
-593.996	332.793	0.004	-0.007
-592.982	-165.720	-0.121	-0.005
-591.967	104.706	0.136	0.162
-590.952	-200.000	0.015	0.088
-589.938	241.727	-0.086	-0.145
-588.923	-147.147	-0.339	0.029
-587.909	31.180	0.093	0.080
-586.894	-144.071	0.140	-0.013
-585.879	-41.383	-0.156	-0.081
-584.865	108.413	-0.046	-0.056
-583.850	-89.757	0.382	0.113
-582.836	104.735	-0.195	0.233
-581.821	-37.374	-0.196	0.106
-580.806	-200.000	0.066	0.393
-579.792	-200.000	-0.018	0.221
-578.777	-150.886	-0.226	-0.017
-577.763	-2.279	-0.183	0.129
-576.748	-200.000	-0.089	-0.414
-575.733	471.138	-0.035	-0.080
-574.719	-35.786	-0.351	-0.192
-573.704	-77.280	-0.220	0.077
-572.690	-11.747	-0.286	-0.189
-571.675	317.217	-0.119	-0.227
-570.661	355.952	-0.093	-0.188
-569.646	-88.214	0.302	0.091
-568.631	60.076	-0.084	0.083
-567.617	32.613	-0.056	0.049
-566.602	-93.630	-0.233	0.065
-565.588	151.203	0.176	0.242
-564.573	-200.000	-0.112	-0.557
-563.558	-100.823	-0.118	-0.029
-562.544	80.124	0.064	0.070
-561.529	-138.528	0.307	0.034
-560.515	101.476	-0.068	0.080
-559.500	-140.453	0.443	0.047
-558.485	98.652	-0.086	0.100
-557.471	-200.000	0.007	0.060
-556.456	552.292	0.088	-0.214
-555.442	384.700	-0.059	0.123
-554.427	-200.000	0.023	-0.246
-553.412	-200.000	0.012	-0.345
-552.398	-149.554	-0.350	0.028
-551.383	73.322	-0.245	0.258
-550.369	-200.000	-0.014	-0.183
-549.354	73.169	0.198	0.209
-548.339	18.320	0.222	-0.179
-547.325	-144.634	-0.237	-0.022
-546.310	-200.000	0.009	-0.128
-545.296	13.909	0.233	0.183
-544.281	-123.163	-0.167	-0.027
-543.266	-79.238	-0.161	0.055
-542.252	4.539	0.095	0.070
-541.237	17.647	0.104	-0.083
-540.223	-35.120	-0.209	0.115
-539.208	55.689	0.119	-0.116
-538.193	-200.000	0.002	0.187
-537.179	67.541	0.147	0.152
-536.164	61.062	0.170	-0.170
-535.150	-103.765	-0.026	0.006
-534.135	-200.000	-0.001	-0.017
-533.121	108.099	-0.080	-0.097
-532.106	800.000	-0.036	0.110
-531.091	800.000	-0.070	-0.262
-530.077	800.000	0.045	0.129
-529.062	-200.000	-0.035	-0.224
-528.048	-61.388	-0.126	0.053
-527.033	800.000	-0.070	-0.199
-526.018	-14.017	0.280	-0.182
-525.004	-122.121	-0.086	-0.014
-523.989	-200.000	0.050	-0.320
-522.975	46.935	-0.228	-0.214
-521.960	192.414	0.115	-0.175
-520.945	-146.085	-0.236	-0.021
-519.931	-200.000	0.002	0.240
-518.916	106.555	-0.215	-0.257
-517.902	41.070	0.072	0.066
-516.887	1.903	0.054	-0.039
-515.872	-20.299	0.032	0.020
-514.858	-64.903	0.220	-0.090
-513.843	-66.569	0.335	-0.134
-512.829	-200.000	-0.019	0.208
-511.814	77.625	-0.098	-0.105
-510.799	-49.917	-0.149	0.071
-509.785	18.275	-0.204	-0.164
-508.770	-126.849	-0.017	0.003
-507.756	311.019	0.133	0.252
-506.741	-134.935	0.450	0.055
-505.726	231.293	0.115	0.190
-504.712	83.803	0.277	0.305
-503.697	-46.130	-0.128	0.064
-502.683	58.596	-0.294	-0.290
-501.668	-71.753	-0.121	-0.045
-500.653	-139.070	-0.154	0.017
-499.639	435.638	0.124	0.272
-498.624	-38.861	0.129	-0.068
-497.610	-93.886	0.181	0.050
-496.595	-71.246	-0.206	-0.078
-495.581	-200.000	-0.013	-0.082
-494.566	-110.614	0.297	-0.062
-493.551	-32.777	-0.215	0.121
-492.537	-37.802	0.286	0.153
-491.522	22.511	-0.178	0.146
-490.508	-100.971	0.421	0.104
-489.493	-200.000	0.010	-0.396
-488.478	-74.707	-0.219	0.079
-487.464	45.746	0.181	-0.168
-486.449	-99.532	0.112	0.028
-485.435	-87.502	0.255	-0.078
-484.420	-3.621	0.093	-0.065
-483.405	-123.860	-0.347	-0.055
-482.391	311.463	0.085	-0.160
-481.376	-53.033	0.103	-0.048
-480.362	582.710	-0.081	-0.200
-479.347	405.363	0.148	-0.315
-478.332	-148.622	0.317	0.026
-477.318	94.427	0.106	-0.122
-476.303	12.727	0.130	-0.101
-475.289	48.499	-0.148	0.139
-474.274	-200.000	0.008	0.311
-473.259	-78.550	-0.156	0.054
-472.245	-56.170	0.039	-0.017
-471.230	-200.000	0.002	-0.081
-470.216	-122.788	0.215	-0.035
-469.201	800.000	-0.042	0.166
-468.186	-100.013	0.177	-0.044
-467.172	79.674	0.112	-0.121
-466.157	800.000	0.027	0.087
-465.143	-29.471	-0.102	-0.059
-464.128	311.068	-0.127	-0.239
-463.113	-15.850	0.164	-0.105
-462.099	-105.141	-0.056	-0.013
-461.084	800.000	-0.088	0.280
-460.070	116.432	-0.107	-0.132
-459.055	-90.036	0.390	0.114
-458.040	390.990	0.160	-0.334
-457.026	405.024	-0.058	-0.124
-456.011	8.086	-0.243	0.184
-454.997	46.144	0.111	0.104
-453.982	-163.072	-0.249	0.012
-452.968	800.000	-0.067	-0.242
-451.953	-113.161	-0.264	-0.052
-450.938	202.125	-0.087	-0.135
-449.924	-200.000	-0.008	-0.131
-448.909	-200.000	-0.001	-0.295
-447.895	39.648	0.132	-0.119
-446.880	-12.495	-0.142	0.093
-445.865	-29.565	0.182	0.104
-444.851	-200.000	-0.022	0.358
-443.836	-200.000	-0.020	0.137
-442.822	800.000	0.040	0.152
-441.807	-200.000	0.027	0.213
-440.792	-87.646	0.131	0.040
-439.778	-109.183	0.252	-0.054
-438.763	170.203	-0.148	0.213
-437.749	-145.239	-0.154	-0.014
-436.734	270.939	-0.100	-0.177
-435.719	-89.848	-0.212	-0.062
-434.705	176.228	-0.127	-0.185
-433.690	96.077	0.101	0.116
-432.676	-166.010	0.310	-0.013
-431.661	-97.231	0.211	0.055
-430.646	15.878	0.266	-0.210
-429.632	-200.000	-0.022	0.119
-428.617	221.801	0.112	0.181
-427.603	-70.961	0.157	0.060
-426.588	197.517	0.082	0.125
-425.573	310.488	-0.096	0.180
-424.559	-82.934	0.181	0.059
-423.544	-35.941	-0.127	0.069
-422.530	342.679	0.136	-0.268
-421.515	0.465	0.210	-0.151
-420.500	-20.049	0.032	0.020
-419.486	-200.000	-0.025	-0.184
-418.471	-132.359	-0.050	0.006
-417.457	-99.569	0.027	-0.007
-416.442	140.653	-0.077	-0.102
-415.428	-23.617	0.071	-0.043
-414.413	32.719	0.084	-0.073
-413.398	247.632	0.172	-0.292
-412.384	32.121	-0.311	-0.270
-411.369	-200.000	0.031	-0.352
-410.355	-128.514	0.135	-0.019
-409.340	800.000	0.049	0.179
-408.325	77.255	0.162	0.173
-407.311	16.975	-0.278	0.221
-406.296	176.186	0.266	-0.387
-405.282	800.000	0.068	0.210
-404.267	91.454	0.219	0.247
-403.252	14.759	0.089	0.070
-402.238	-33.587	-0.253	-0.140
-401.223	-200.000	-0.006	-0.300
-400.209	-143.290	-0.044	0.004
-399.194	51.252	-0.107	0.102
-398.179	-53.480	0.148	0.068
-397.165	-100.369	0.326	0.081
-396.150	46.917	-0.098	-0.092
-395.136	179.653	-0.080	-0.118
-394.121	297.571	-0.109	0.200
-393.106	-200.000	0.000	0.070
-392.092	-49.032	0.095	0.045
-391.077	-200.000	-0.033	-0.205
-390.063	-200.000	0.003	-0.071
-389.048	-101.439	0.381	-0.093
-388.033	83.617	-0.206	0.225
-387.019	-200.000	-0.023	0.359
-386.004	-200.000	0.038	0.262
-384.990	-200.000	-0.050	-0.312
-383.975	609.532	0.019	-0.048
-382.960	-87.741	0.032	-0.010
-381.946	240.418	-0.064	-0.107
-380.931	-18.267	0.237	-0.148
-379.917	-200.000	-0.008	-0.121
-378.902	23.133	0.094	-0.077
-377.888	-78.677	0.286	-0.098
-376.873	-69.375	-0.295	0.113
-375.858	800.000	-0.077	0.286
-374.844	-8.528	-0.123	0.083
-373.829	70.617	-0.128	0.133
-372.815	-102.675	-0.265	0.063
-371.800	114.693	-0.075	0.092
-370.785	-91.297	-0.169	0.049
-369.771	-200.000	0.025	-0.228
-368.756	-200.000	-0.047	0.408
-367.742	-110.843	-0.167	0.034
-366.727	800.000	0.034	-0.104
-365.712	-200.000	-0.010	0.325
-364.698	-200.000	0.033	0.300
-363.683	-200.000	-0.057	0.296
-362.669	235.079	-0.011	-0.018
-361.654	-83.416	-0.382	0.123
-360.639	-50.177	0.303	-0.144
-359.625	74.528	-0.216	0.228
-358.610	-94.380	0.206	0.056
-357.596	-9.133	0.144	0.096
-356.581	-188.663	-0.054	-0.001
-355.566	210.476	-0.135	-0.213
-354.552	-200.000	-0.006	-0.112
-353.537	800.000	-0.048	0.179
-352.523	800.000	-0.108	0.374
-351.508	-131.218	0.333	-0.044
-350.493	211.647	0.087	-0.137
-349.479	-73.453	-0.489	-0.179
-348.464	67.979	0.133	0.136
-347.450	-200.000	-0.010	0.161
-346.435	39.988	-0.266	0.240
-345.420	34.656	-0.285	-0.249
-344.406	-200.000	0.011	-0.189
-343.391	65.303	0.126	-0.128
-342.377	-200.000	-0.048	0.324
-341.362	800.000	-0.054	0.162
-340.348	-19.436	-0.230	-0.143
-339.333	-177.564	0.306	0.007
-338.318	-35.014	-0.110	0.060
-337.304	154.667	0.136	-0.187
-336.289	117.093	-0.182	0.224
-335.275	-83.567	-0.230	-0.074
-334.260	321.661	0.041	0.077
-333.245	-55.898	0.180	-0.081
-332.231	-77.319	-0.286	0.099
-331.216	-39.040	0.138	-0.073
-330.202	330.089	0.077	-0.148
-329.187	33.267	0.132	-0.115
-328.172	-1.227	0.153	-0.108
-327.158	22.475	-0.255	-0.209
-326.143	800.000	-0.153	-0.543
-325.129	-118.628	0.175	-0.031
-324.114	-55.807	-0.170	-0.076
-323.099	-98.612	-0.139	0.035
-322.085	66.125	0.088	-0.089
-321.070	17.754	-0.151	0.120
-320.056	72.867	0.103	0.108
-319.041	-84.550	0.242	-0.076
-318.026	37.747	-0.261	0.232
-317.012	120.291	0.088	-0.109
-315.997	-36.569	-0.102	0.055
-314.983	120.116	0.170	-0.211
-313.968	-13.219	-0.385	-0.250
-312.953	800.000	-0.064	-0.243
-311.939	800.000	-0.036	-0.131
-310.924	449.765	-0.042	-0.093
-309.910	104.585	0.132	0.155
-308.895	-79.146	0.146	0.050
-307.880	49.465	-0.088	-0.083
-306.866	625.621	-0.077	-0.194
-305.851	-200.000	0.021	-0.196
-304.837	-16.113	0.255	0.162
-303.822	398.550	-0.061	-0.128
-302.807	379.630	-0.092	0.188
-301.793	800.000	-0.067	0.259
-300.778	-44.259	-0.135	-0.068
-299.764	487.720	-0.047	-0.107
-298.749	800.000	0.011	-0.039
-297.735	-30.154	0.073	-0.042
-296.720	262.188	-0.140	0.243
-295.705	-200.000	0.062	0.342
-294.691	-44.413	-0.333	0.167
-293.676	-35.796	-0.067	0.036
-292.662	-200.000	0.025	0.172
-291.647	122.196	0.153	0.191
-290.632	-200.000	-0.009	0.157
-289.618	342.417	0.110	0.216
-288.603	-200.000	-0.006	-0.228
-287.589	-200.000	-0.019	-0.285
-286.574	136.743	0.289	0.377
-285.559	-32.318	-0.178	-0.099
-284.545	129.238	0.153	0.195
-283.530	800.000	-0.106	-0.425
-282.516	-178.454	0.068	-0.002
-281.501	235.206	-0.174	0.288
-280.486	-200.000	-0.010	0.142
-279.472	-200.000	-0.021	0.176
-278.457	77.653	-0.222	-0.236
-277.443	-159.182	-0.059	0.003
-276.428	-200.000	-0.029	0.301
-275.413	800.000	0.116	-0.342
-274.399	-200.000	0.028	0.391
-273.384	-200.000	0.031	-0.250
-272.370	-37.867	-0.142	-0.075
-271.355	800.000	0.069	-0.234
-270.340	205.510	-0.085	0.132
-269.326	68.758	0.132	0.135
-268.311	-200.000	0.008	0.095
-267.297	-0.159	0.275	-0.196
-266.282	-200.000	-0.055	0.281
-265.267	-9.184	0.102	-0.068
-264.253	-151.875	-0.187	0.014
-263.238	66.952	-0.176	-0.178
-262.224	-119.189	0.295	0.051
-261.209	800.000	-0.035	0.123
-260.195	-55.004	0.178	-0.080
-259.180	-0.857	0.227	-0.161
-258.165	165.918	0.247	-0.349
-257.151	800.000	-0.037	-0.140
-256.136	-200.000	0.033	-0.218
-255.122	89.563	0.148	-0.165
-254.107	800.000	-0.115	-0.352
-253.092	-200.000	-0.019	-0.120
-252.078	-85.700	0.234	-0.073
-251.063	800.000	0.062	-0.193
-250.049	63.617	0.075	-0.075
-249.034	34.067	-0.245	0.213
-248.019	-200.000	0.029	-0.130
-247.005	198.133	-0.050	-0.077
-245.990	-89.742	0.177	0.052
-244.976	-97.861	-0.113	-0.029
-243.961	-7.109	0.050	0.034
-242.946	-172.309	0.342	0.011
-241.932	800.000	0.070	-0.201
-240.917	800.000	-0.194	0.547
-239.903	171.483	-0.226	0.324
-238.888	92.001	0.156	-0.175
-237.873	474.760	-0.061	-0.138
-236.859	800.000	-0.025	0.098
-235.844	-42.978	0.321	0.162
-234.830	277.008	-0.051	0.090
-233.815	167.711	0.191	0.270
-232.800	-70.671	-0.139	0.052
-231.786	-200.000	-0.074	0.537
-230.771	155.120	0.074	0.102
-229.757	-200.000	0.015	0.312
-228.742	-200.000	-0.064	0.338
-227.727	256.494	0.063	-0.107
-226.713	170.580	0.181	-0.259
-225.698	56.510	0.190	-0.184
-224.684	-22.084	0.187	0.113
-223.669	-3.661	0.265	-0.184
-222.655	-200.000	-0.042	0.223
-221.640	-112.735	0.123	0.024
-220.625	348.248	-0.105	0.206
-219.611	597.443	-0.040	-0.099
-218.596	-115.993	-0.309	-0.057
-217.582	-24.654	0.150	0.089
-216.567	-147.060	0.295	-0.025
-215.552	205.135	-0.190	0.293
-214.538	-93.885	-0.410	0.112
-213.523	800.000	-0.053	-0.209
-212.509	70.003	0.049	-0.050
-211.494	90.112	0.109	-0.122
-210.479	-166.289	0.334	0.014
-209.465	541.179	0.137	0.325
-208.450	-55.602	-0.275	-0.123
-207.436	-22.202	-0.257	0.155
-206.421	800.000	0.078	-0.296
-205.406	90.076	-0.079	-0.088
-204.392	483.811	0.090	-0.205
-203.377	-200.000	0.036	-0.165
-202.363	800.000	0.082	-0.230
-201.348	-200.000	0.006	0.038
-200.333	800.000	-0.156	0.462
-199.319	170.375	-0.072	-0.102
-198.304	207.925	-0.047	0.073
-197.290	-29.848	-0.246	-0.140
-196.275	4.527	0.099	-0.072
-195.260	197.231	-0.246	0.373
-194.246	16.656	0.093	0.073
-193.231	-23.125	0.150	0.090
-192.217	-7.306	0.168	-0.113
-191.202	800.000	-0.026	-0.112
-190.187	326.460	0.080	-0.152
-189.173	-114.937	0.071	0.013
-188.158	-84.139	0.282	-0.089
-187.144	145.541	0.063	0.085
-186.129	43.029	-0.378	0.343
-185.114	-109.547	0.224	0.047
-184.100	-102.350	0.174	-0.042
-183.085	-96.026	0.166	-0.044
-182.071	800.000	-0.033	-0.114
-181.056	194.638	0.197	-0.298
-180.042	800.000	0.055	-0.168
-179.027	36.369	0.200	-0.175
-178.012	-200.000	0.029	0.241
-176.998	7.364	-0.068	0.050
-175.983	-57.903	0.206	-0.089
-174.969	2.107	0.225	0.162
-173.954	141.431	-0.172	0.226
-172.939	-15.125	0.216	0.138
-171.925	-115.446	-0.243	0.046
-170.910	105.712	0.089	0.104
-169.896	362.841	0.119	-0.237
-168.881	-19.540	-0.147	0.091
-167.866	122.856	0.145	0.180
-166.852	414.448	-0.175	-0.370
-165.837	51.231	-0.198	0.187
-164.823	-90.202	-0.054	0.016
-163.808	800.000	0.048	0.178
-162.793	247.836	-0.151	0.253
-161.779	-200.000	0.022	0.151
-160.764	42.305	0.162	-0.146
-159.750	117.208	0.138	0.169
-158.735	-200.000	-0.010	-0.091
-157.720	245.467	-0.267	0.446
-156.706	800.000	-0.169	0.698
-155.691	-7.816	0.205	0.138
-154.677	125.705	-0.138	0.173
-153.662	29.532	0.188	0.159
-152.647	100.933	0.198	0.229
-151.633	-200.000	-0.023	-0.206
-150.618	-42.590	0.180	0.091
-149.604	514.188	0.057	-0.131
-148.589	-1.843	0.045	0.031
-147.574	229.242	0.156	-0.253
-146.560	82.799	-0.111	0.120
-145.545	18.135	-0.048	-0.038
-144.531	-61.781	0.131	-0.055
-143.516	409.348	0.134	0.281
-142.502	480.222	0.048	0.109
-141.487	59.724	-0.160	0.157
-140.472	111.210	-0.144	0.172
-139.458	-200.000	-0.056	-0.272
-138.443	800.000	0.047	0.181
-137.429	-70.284	-0.115	0.043
-136.414	130.265	0.045	-0.057
-135.399	-127.033	-0.207	-0.030
-134.385	-200.000	-0.011	0.114
-133.370	-72.737	-0.417	-0.153
-132.356	348.486	-0.006	-0.012
-131.341	3.536	-0.168	-0.122
-130.326	155.652	0.263	0.360
-129.312	800.000	-0.099	0.371
-128.297	334.868	0.121	0.233
-127.283	-38.077	-0.388	0.205
-126.268	103.923	-0.198	-0.231
-125.253	404.613	-0.129	-0.270
-124.239	-200.000	-0.004	0.045
-123.224	-10.702	0.130	-0.085
-122.210	-58.987	-0.013	-0.006
-121.195	452.087	0.096	-0.211
