DTS Sentinel unit serial number:	SN413079Multiplexer serial number:	ORYXHardware model number:	OX4-SRSoftware version number:	ORYX F/W v4.00 Oryx Data Collector v3.7.2.0data status	okinstallation	princeton_trtdifferential loss correction	single-endedforward channel	channel 2reverse channel	N/Adate	2019/09/13time	10:43:35forward acquisition time	60.00reverse acquisition time	0.00gamma	496.2192k internal	0.2324k external	0.2324temperature offset calibration	1.0189default loss term (dB/km)	0.3790temperature slope calibration	1.0000multiplexer offset coefficient	1.0000multiplexer slope coefficient	1.0000fibre end	0.00T internal ref (°C)	31.53T ext. ref 1 (°C)	4.59T ext. ref 2 (°C)	28.41length (m)	temperature (°C)	Stokes	anti-Stokes-747.200	270.532	0.156	0.277
-746.185	-200.000	0.031	0.468
-745.171	94.760	0.091	0.104
-744.156	92.153	0.128	0.145
-743.142	800.000	0.072	0.223
-742.127	33.666	-0.137	0.120
-741.112	195.978	-0.092	0.141
-740.098	34.314	-0.219	0.193
-739.083	-68.572	-0.172	-0.067
-738.069	800.000	0.067	0.230
-737.054	638.810	0.055	0.142
-736.039	28.181	-0.136	-0.116
-735.025	-200.000	-0.002	0.032
-734.010	70.731	-0.065	-0.068
-732.996	97.220	-0.155	-0.180
-731.981	-121.426	-0.359	-0.060
-730.966	60.337	-0.262	-0.262
-729.952	-200.000	-0.009	0.089
-728.937	505.985	-0.139	-0.325
-727.923	-58.402	0.308	0.135
-726.908	767.687	0.124	-0.341
-725.894	350.362	-0.110	0.219
-724.879	98.500	-0.166	0.193
-723.864	-86.611	-0.234	-0.072
-722.850	2.291	0.056	0.041
-721.835	-170.156	-0.353	0.013
-720.821	-74.618	-0.316	-0.115
-719.806	-133.043	0.308	0.039
-718.791	-77.239	0.245	-0.086
-717.777	-62.938	-0.147	-0.061
-716.762	69.542	0.305	0.317
-715.748	-120.955	0.271	-0.046
-714.733	-200.000	0.021	-0.125
-713.718	-200.000	0.025	0.123
-712.704	-98.239	-0.182	0.047
-711.689	-200.000	-0.035	-0.352
-710.675	-200.000	0.021	0.174
-709.660	-200.000	0.015	-0.141
-708.645	35.666	0.072	-0.064
-707.631	-42.152	-0.361	-0.186
-706.616	-73.228	-0.274	-0.101
-705.602	-65.993	-0.338	-0.136
-704.587	-200.000	0.011	-0.055
-703.572	-180.066	0.215	0.005
-702.558	552.771	0.059	0.144
-701.543	4.614	0.103	0.076
-700.529	146.907	-0.180	-0.245
-699.514	-200.000	0.036	0.245
-698.499	90.213	0.208	0.235
-697.485	-96.129	0.284	0.076
-696.470	-200.000	0.015	0.261
-695.456	-200.000	-0.007	-0.175
-694.441	-130.335	-0.288	0.039
-693.426	-138.626	0.093	-0.010
-692.412	77.831	-0.232	-0.249
-691.397	121.571	0.162	-0.203
-690.383	-12.488	-0.200	-0.132
-689.368	-42.469	0.226	-0.116
-688.354	800.000	0.034	-0.116
-687.339	31.161	-0.112	0.097
-686.324	-200.000	0.008	-0.053
-685.310	-36.599	-0.218	0.118
-684.295	-200.000	-0.010	0.269
-683.281	753.731	0.020	0.055
-682.266	-200.000	-0.013	-0.189
-681.251	-36.028	-0.154	0.084
-680.237	76.616	-0.058	-0.061
-679.222	-76.956	-0.178	0.063
-678.208	-105.073	-0.195	0.045
-677.193	-139.553	0.185	0.020
-676.178	-200.000	-0.036	0.235
-675.164	800.000	0.056	0.175
-674.149	-68.243	-0.397	0.155
-673.135	-200.000	-0.031	0.163
-672.120	237.826	-0.195	0.326
-671.105	-200.000	-0.022	0.366
-670.091	132.460	-0.180	0.233
-669.076	171.060	0.163	0.236
-668.062	282.705	0.128	0.231
-667.047	153.024	-0.164	0.226
-666.032	740.032	0.103	-0.278
-665.018	-200.000	0.026	-0.214
-664.003	-100.575	0.056	0.014
-662.989	-35.576	0.158	0.086
-661.974	-50.404	0.206	-0.098
-660.959	49.745	0.231	0.219
-659.945	85.141	0.145	0.160
-658.930	13.123	-0.147	0.115
-657.916	-65.376	-0.167	-0.067
-656.901	101.658	-0.238	-0.279
-655.886	-22.981	-0.254	0.154
-654.872	-6.648	0.133	-0.091
-653.857	-115.169	-0.128	-0.024
-652.843	37.736	0.248	0.222
-651.828	-116.967	-0.168	0.031
-650.814	-200.000	-0.000	0.115
-649.799	67.506	-0.035	0.036
-648.784	-22.239	-0.346	-0.211
-647.770	72.828	-0.069	0.072
-646.755	12.263	-0.082	0.063
-645.741	-131.937	0.190	0.025
-644.726	129.422	0.110	-0.141
-643.711	-108.060	-0.108	0.024
-642.697	99.533	-0.210	0.244
-641.682	41.897	-0.205	0.187
-640.668	705.747	-0.150	-0.397
-639.653	-132.714	0.141	0.018
-638.638	-111.680	0.212	-0.043
-637.624	119.796	0.288	-0.359
-636.609	-83.036	0.280	-0.091
-635.595	-141.363	0.156	-0.016
-634.580	-95.178	-0.431	-0.117
-633.565	-200.000	0.003	0.081
-632.551	-25.110	-0.162	-0.096
-631.536	67.149	0.106	-0.108
-630.522	-62.666	-0.230	0.096
-629.507	-200.000	-0.018	0.154
-628.492	-200.000	0.016	0.082
-627.478	304.053	-0.137	0.256
-626.463	-16.421	0.118	0.075
-625.449	552.676	0.058	-0.139
-624.434	-91.955	0.562	0.160
-623.419	-15.200	-0.063	0.040
-622.405	-200.000	0.076	0.419
-621.390	-162.347	0.435	0.022
-620.376	90.077	-0.148	-0.166
-619.361	-94.381	-0.078	0.021
-618.346	-71.438	-0.174	0.065
-617.332	-72.442	-0.174	-0.065
-616.317	-161.016	-0.301	0.016
-615.303	-200.000	-0.032	-0.217
-614.288	-29.203	-0.117	-0.067
-613.273	-113.571	-0.105	0.021
-612.259	118.517	-0.282	-0.350
-611.244	74.343	-0.063	-0.066
-610.230	214.317	-0.034	-0.055
-609.215	-200.000	0.014	-0.294
-608.201	-200.000	-0.034	0.180
-607.186	299.544	0.156	-0.289
-606.171	-58.855	-0.627	0.272
-605.157	472.600	0.044	0.100
-604.142	486.342	0.068	0.156
-603.128	90.942	0.188	-0.212
-602.113	24.159	-0.169	-0.140
-601.098	85.950	0.045	0.049
-600.084	-89.617	0.190	-0.056
-599.069	-33.879	0.025	0.014
-598.055	-200.000	0.015	-0.108
-597.040	-14.107	0.058	-0.037
-596.025	-134.561	-0.324	-0.040
-595.011	-142.303	0.295	0.029
-593.996	800.000	-0.016	-0.048
-592.982	-200.000	-0.026	-0.354
-591.967	800.000	0.060	0.178
-590.952	354.927	-0.025	-0.049
-589.938	-35.493	-0.157	0.086
-588.923	800.000	0.054	0.226
-587.909	5.755	-0.179	-0.133
-586.894	-56.857	0.203	0.090
-585.879	163.714	-0.047	-0.067
-584.865	-82.839	-0.164	-0.053
-583.850	-18.359	-0.159	-0.100
-582.836	800.000	0.044	0.182
-581.821	800.000	-0.091	-0.324
-580.806	-120.616	-0.205	0.035
-579.792	153.680	-0.138	0.190
-578.777	-97.467	0.124	0.032
-577.763	351.328	0.145	0.288
-576.748	-144.443	0.069	-0.006
-575.733	-44.461	0.262	-0.131
-574.719	-121.231	-0.331	-0.056
-573.704	-31.721	-0.042	0.024
-572.690	-200.000	0.009	-0.096
-571.675	305.225	0.135	0.251
-570.661	800.000	0.021	-0.085
-569.646	800.000	-0.065	-0.213
-568.631	-200.000	-0.001	-0.383
-567.617	83.868	0.089	0.097
-566.602	-93.233	0.043	0.012
-565.588	-149.006	-0.399	0.032
-564.573	-200.000	-0.016	-0.098
-563.558	38.199	0.249	0.222
-562.544	20.159	0.089	-0.072
-561.529	-94.545	-0.354	0.097
-560.515	-116.635	-0.203	0.037
-559.500	198.666	0.206	0.316
-558.485	800.000	0.052	0.167
-557.471	-98.605	0.430	-0.110
-556.456	269.510	-0.027	-0.048
-555.442	2.851	-0.259	0.188
-554.427	523.705	0.047	0.111
-553.412	328.189	0.232	0.447
-552.398	-119.063	-0.144	0.025
-551.383	-200.000	-0.024	-0.159
-550.369	-200.000	-0.060	0.422
-549.354	252.049	0.142	0.243
-548.339	375.003	0.117	0.238
-547.325	177.085	-0.056	0.081
-546.310	-104.667	-0.109	0.025
-545.296	539.070	-0.033	0.078
-544.281	-200.000	-0.025	-0.401
-543.266	-200.000	-0.054	0.315
-542.252	497.020	-0.071	0.163
-541.237	-200.000	0.007	0.237
-540.223	800.000	-0.046	-0.181
-539.208	-100.105	-0.110	0.027
-538.193	194.346	-0.100	0.152
-537.179	-149.568	0.201	-0.016
-536.164	-26.766	-0.232	-0.136
-535.150	661.311	-0.059	-0.152
-534.135	-83.464	-0.225	-0.072
-533.121	192.902	0.111	0.168
-532.106	-187.140	-0.113	0.002
-531.091	-130.081	0.139	-0.019
-530.077	-27.789	-0.328	-0.190
-529.062	-136.361	0.532	0.062
-528.048	142.910	0.123	-0.164
-527.033	170.698	0.250	-0.359
-526.018	800.000	0.118	-0.335
-525.004	-80.444	0.313	0.104
-523.989	-54.791	-0.158	-0.071
-522.975	278.385	-0.090	-0.161
-521.960	800.000	0.038	0.162
-520.945	-200.000	0.072	-0.341
-519.931	800.000	-0.101	-0.281
-518.916	19.774	0.263	-0.212
-517.902	-41.223	-0.151	-0.078
-516.887	217.001	0.133	0.212
-515.872	30.211	-0.123	0.105
-514.858	-168.077	-0.262	0.010
-513.843	341.448	-0.122	-0.239
-512.829	-9.523	-0.317	0.212
-511.814	-73.174	-0.060	-0.022
-510.799	-119.972	-0.266	-0.046
-509.785	-40.180	-0.237	0.123
-508.770	-173.073	-0.366	0.011
-507.756	-200.000	0.062	-0.456
-506.741	337.714	-0.189	-0.368
-505.726	-73.969	-0.253	-0.092
-504.712	-161.515	0.311	0.016
-503.697	26.919	0.055	0.046
-502.683	541.255	0.082	0.196
-501.668	199.419	-0.059	0.091
-500.653	16.264	0.142	-0.112
-499.639	800.000	-0.008	0.031
-498.624	-104.074	0.184	-0.043
-497.610	122.509	0.265	0.332
-496.595	-74.502	0.060	-0.022
-495.581	-200.000	0.050	0.401
-494.566	-133.758	0.325	0.040
-493.551	-61.644	-0.337	-0.141
-492.537	-71.368	-0.122	-0.046
-491.522	-130.490	-0.242	0.033
-490.508	-200.000	-0.003	-0.055
-489.493	274.860	0.183	-0.325
-488.478	429.813	-0.196	-0.423
-487.464	-68.234	0.221	0.086
-486.449	57.562	0.162	-0.159
-485.435	-108.593	-0.239	-0.051
-484.420	800.000	-0.119	-0.398
-483.405	-200.000	-0.000	-0.202
-482.391	375.565	0.086	-0.176
-481.376	-19.033	0.072	0.045
-480.362	31.283	0.235	-0.202
-479.347	324.586	0.080	-0.153
-478.332	-200.000	-0.014	-0.279
-477.318	-30.696	-0.181	-0.102
-476.303	36.525	-0.100	-0.088
-475.289	73.270	0.278	0.291
-474.274	-200.000	-0.026	-0.283
-473.259	26.073	0.140	-0.117
-472.245	-171.112	-0.338	-0.011
-471.230	15.688	-0.248	-0.195
-470.216	105.741	-0.252	-0.297
-469.201	296.489	-0.139	-0.254
-468.186	-8.561	-0.259	0.174
-467.172	-200.000	0.029	0.198
-466.157	-18.923	0.193	0.120
-465.143	55.640	-0.098	0.095
-464.128	800.000	-0.065	0.216
-463.113	-200.000	-0.080	-0.444
-462.099	197.563	0.122	-0.186
-461.084	-200.000	-0.026	-0.325
-460.070	-200.000	0.021	-0.234
-459.055	-200.000	-0.022	0.244
-458.040	-99.810	-0.310	-0.077
-457.026	-134.067	0.163	-0.020
-456.011	-99.906	-0.112	0.028
-454.997	-37.742	0.109	-0.058
-453.982	82.969	-0.172	0.187
-452.968	-47.125	0.050	-0.024
-451.953	9.968	0.110	-0.083
-450.938	-75.267	-0.303	-0.108
-449.924	-200.000	0.019	-0.455
-448.909	-200.000	0.036	0.330
-447.895	116.218	-0.225	-0.275
-446.880	-121.910	0.406	-0.067
-445.865	-107.054	0.408	-0.090
-444.851	-101.366	0.238	-0.058
-443.836	-82.399	-0.358	0.116
-442.822	-48.757	0.267	-0.128
-441.807	36.829	0.210	-0.186
-440.792	-79.273	-0.097	-0.033
-439.778	-118.057	-0.523	-0.093
-438.763	189.807	-0.119	0.178
-437.749	-200.000	0.048	-0.262
-436.734	-153.574	-0.251	0.017
-435.719	346.451	0.196	-0.385
-434.705	-93.089	0.022	-0.006
-433.690	-51.062	0.297	0.139
-432.676	-87.321	0.177	-0.054
-431.661	740.209	0.073	-0.196
-430.646	-118.029	-0.106	-0.019
-429.632	100.700	-0.171	0.199
-428.617	800.000	-0.087	0.297
-427.603	54.090	-0.209	0.200
-426.588	-2.385	-0.086	-0.060
-425.573	157.441	0.101	0.140
-424.559	-200.000	0.024	0.281
-423.544	800.000	-0.037	0.159
-422.530	-200.000	-0.044	0.366
-421.515	763.897	0.058	0.157
-420.500	-200.000	-0.016	-0.080
-419.486	-200.000	-0.010	0.168
-418.471	-200.000	-0.003	0.093
-417.457	-77.622	0.326	0.113
-416.442	-142.792	0.187	0.018
-415.428	-14.894	0.075	0.048
-414.413	-152.551	-0.188	-0.013
-413.398	661.450	-0.103	0.265
-412.384	-1.611	0.283	0.198
-411.369	117.959	-0.151	0.186
-410.355	312.142	0.149	0.279
-409.340	800.000	-0.052	0.211
-408.325	188.415	-0.277	-0.413
-407.311	-200.000	0.003	0.098
-406.296	89.371	-0.102	-0.114
-405.282	800.000	0.065	-0.202
-404.267	731.986	0.174	0.464
-403.252	106.967	0.149	0.177
-402.238	67.107	-0.148	0.150
-401.223	-127.534	-0.327	0.047
-400.209	-135.418	-0.422	0.050
-399.194	87.735	-0.061	-0.067
-398.179	800.000	-0.089	-0.267
-397.165	-200.000	0.016	0.134
-396.150	-40.765	0.151	-0.078
-395.136	-124.933	-0.192	-0.030
-394.121	205.157	0.119	0.184
-393.106	800.000	0.029	-0.109
-392.092	-27.232	-0.240	0.139
-391.077	-68.780	-0.427	-0.164
-390.063	256.138	0.117	-0.200
-389.048	1.606	-0.136	0.097
-388.033	-108.144	-0.189	-0.041
-387.019	-200.000	-0.010	0.123
-386.004	800.000	0.094	-0.292
-384.990	104.537	0.174	0.204
-383.975	-23.335	0.289	0.173
-382.960	-55.006	0.197	0.088
-381.946	65.346	-0.116	-0.117
-380.931	52.949	-0.263	0.250
-379.917	122.084	0.078	0.097
-378.902	-108.296	-0.314	0.067
-377.888	62.515	0.221	0.220
-376.873	-128.666	0.284	-0.040
-375.858	365.824	0.148	0.297
-374.844	538.038	0.024	-0.057
-373.829	638.305	0.074	-0.188
-372.815	700.314	0.092	0.242
-371.800	606.625	-0.131	-0.324
-370.785	259.853	0.010	-0.017
-369.771	207.195	0.084	0.130
-368.756	-2.999	0.360	0.250
-367.742	-115.996	-0.343	0.064
-366.727	-200.000	-0.005	0.102
-365.712	-166.712	0.157	-0.006
-364.698	-200.000	0.011	-0.179
-363.683	6.807	0.305	0.226
-362.669	22.016	-0.017	-0.014
-361.654	18.280	-0.222	-0.176
-360.639	770.388	0.102	0.275
-359.625	149.672	-0.114	0.153
-358.610	646.835	-0.173	0.440
-357.596	8.284	-0.129	0.097
-356.581	308.589	-0.158	-0.294
-355.566	-74.746	-0.250	0.089
-354.552	-153.316	0.137	0.009
-353.537	17.175	0.352	-0.277
-352.523	-119.177	-0.167	-0.029
-351.508	37.120	0.158	0.139
-350.493	115.504	0.052	0.063
-349.479	800.000	-0.037	-0.136
-348.464	753.929	0.031	0.082
-347.450	-56.600	0.128	0.056
-346.435	57.813	-0.068	0.066
-345.420	-189.620	0.434	-0.005
-344.406	99.810	0.126	-0.145
-343.391	-13.559	0.066	-0.042
-342.377	155.536	-0.114	0.156
-341.362	-27.152	-0.205	-0.119
-340.348	-55.899	-0.198	-0.088
-339.333	-91.084	0.195	-0.056
-338.318	-148.522	-0.398	-0.032
-337.304	-200.000	0.006	-0.205
-336.289	222.365	0.078	0.124
-335.275	-200.000	-0.080	0.377
-334.260	752.807	0.185	-0.497
-333.245	800.000	-0.086	0.308
-332.231	-126.074	-0.156	0.023
-331.216	108.040	-0.189	0.223
-330.202	-10.299	0.240	0.158
-329.187	522.227	0.087	0.204
-328.172	308.056	-0.024	0.045
-327.158	-55.037	-0.078	0.035
-326.143	-200.000	-0.009	0.147
-325.129	-55.152	0.355	0.159
-324.114	150.238	0.139	-0.188
-323.099	-14.337	-0.119	0.076
-322.085	354.440	-0.045	0.088
-321.070	800.000	-0.035	-0.107
-320.056	116.638	0.132	-0.161
-319.041	1.276	-0.022	-0.015
-318.026	-200.000	-0.002	0.159
-317.012	-90.272	0.188	0.054
-315.997	48.490	0.217	0.202
-314.983	-2.325	-0.234	0.163
-313.968	-141.065	0.111	-0.011
-312.953	223.132	0.044	-0.070
-311.939	140.061	0.107	-0.140
-310.924	-73.270	0.169	0.061
-309.910	800.000	0.054	0.226
-308.895	795.960	0.027	0.075
-307.880	603.278	0.083	0.204
-306.866	-61.781	0.353	-0.147
-305.851	9.540	0.352	-0.265
-304.837	-36.641	-0.179	0.095
-303.822	123.687	0.144	-0.180
-302.807	-200.000	0.017	0.238
-301.793	-46.199	-0.099	0.048
-300.778	220.426	0.051	0.081
-299.764	147.918	-0.085	0.114
-298.749	-200.000	-0.001	0.026
-297.735	-200.000	-0.001	0.056
-296.720	-77.655	0.106	0.036
-295.705	800.000	0.105	0.322
-294.691	-200.000	0.043	-0.313
-293.676	-63.007	-0.138	0.056
-292.662	114.657	-0.111	0.134
-291.647	-75.213	-0.417	-0.148
-290.632	-34.487	-0.323	-0.175
-289.618	-115.360	0.635	-0.119
-288.603	800.000	0.080	0.344
-287.589	558.996	0.055	0.132
-286.574	403.331	0.205	-0.428
-285.559	800.000	-0.065	-0.189
-284.545	-51.324	0.146	0.068
-283.530	-65.694	-0.237	0.094
-282.516	-200.000	-0.002	-0.052
-281.501	136.180	0.185	0.239
-280.486	59.020	-0.028	0.027
-279.472	-122.937	0.120	0.019
-278.457	56.062	0.272	-0.262
-277.443	-20.176	0.249	-0.152
-276.428	800.000	0.124	0.468
-275.413	708.365	-0.044	-0.115
-274.399	137.444	0.121	-0.157
-273.384	-58.147	0.367	0.159
-272.370	-62.376	-0.309	-0.127
-271.355	-200.000	0.016	0.075
-270.340	137.351	0.194	-0.252
-269.326	672.367	0.129	-0.331
-268.311	712.409	0.122	-0.321
-267.297	-2.276	-0.141	-0.098
-266.282	-172.014	-0.081	0.003
-265.267	800.000	0.053	0.201
-264.253	-61.353	0.088	0.037
-263.238	-200.000	0.023	-0.288
-262.224	-200.000	-0.017	0.091
-261.209	402.355	0.036	-0.075
-260.195	77.141	-0.226	0.237
-259.180	63.366	0.170	-0.169
-258.165	-200.000	0.026	0.294
-257.151	277.245	-0.098	0.173
-256.136	-128.622	0.448	0.063
-255.122	-56.483	0.237	0.104
-254.107	96.734	-0.193	-0.219
-253.092	-45.435	-0.046	0.023
-252.078	800.000	0.039	-0.166
-251.063	50.142	-0.179	0.168
-250.049	800.000	-0.168	0.465
-249.034	-200.000	0.015	0.250
-248.019	-112.626	0.129	-0.025
-247.005	236.307	-0.070	0.115
-245.990	-200.000	-0.052	0.324
-244.976	-200.000	-0.007	-0.138
-243.961	18.051	0.045	0.035
-242.946	-2.910	0.256	-0.177
-241.932	380.930	0.070	0.142
-240.917	735.188	-0.102	0.270
-239.903	800.000	0.072	-0.232
-238.888	86.216	-0.269	-0.293
-237.873	-65.974	-0.223	0.088
-236.859	800.000	0.102	-0.288
-235.844	-200.000	-0.035	-0.229
-234.830	472.524	-0.029	0.065
-233.815	795.615	0.221	0.603
-232.800	-200.000	-0.001	-0.061
-231.786	555.522	-0.036	0.085
-230.771	-70.419	-0.112	0.042
-229.757	399.020	0.176	-0.365
-228.742	-65.504	-0.205	0.081
-227.727	800.000	-0.089	-0.358
-226.713	687.045	-0.021	0.055
-225.698	-200.000	-0.009	-0.328
-224.684	-200.000	0.006	-0.240
-223.669	-54.586	0.045	0.020
-222.655	-20.482	0.002	-0.001
-221.640	-200.000	-0.003	0.302
-220.625	55.316	0.146	-0.139
-219.611	-200.000	-0.047	-0.243
-218.596	75.731	-0.057	0.060
-217.582	221.181	0.224	-0.356
-216.567	-172.875	0.058	0.002
-215.552	-116.268	0.137	-0.025
-214.538	-200.000	0.048	0.280
-213.523	-164.371	-0.355	0.016
-212.509	-200.000	0.253	-0.001
-211.494	134.186	0.085	-0.108
-210.479	-90.142	-0.254	-0.073
-209.465	6.023	0.075	-0.055
-208.450	231.768	0.161	-0.261
-207.436	-200.000	-0.019	-0.094
-206.421	-156.989	-0.270	-0.016
-205.406	-200.000	-0.011	0.127
-204.392	800.000	0.068	-0.272
-203.377	-153.739	0.224	-0.015
-202.363	289.033	0.288	0.517
-201.348	38.162	-0.348	0.306
-200.333	-50.703	0.205	0.095
-199.319	424.791	-0.167	-0.356
-198.304	800.000	0.075	-0.313
-197.290	52.972	0.099	-0.094
-196.275	-99.897	0.411	0.101
-195.260	365.170	0.153	0.304
-194.246	136.120	-0.260	-0.335
-193.231	67.138	-0.151	-0.153
-192.217	-38.857	-0.052	-0.027
-191.202	67.235	0.207	0.209
-190.187	800.000	0.108	-0.315
-189.173	-81.588	-0.180	0.058
-188.158	-8.969	-0.418	-0.276
-187.144	-86.439	-0.374	0.113
-186.129	187.233	-0.037	0.055
-185.114	-17.773	-0.065	-0.041
-184.100	178.995	0.254	0.367
-183.085	251.265	0.045	-0.076
-182.071	-94.511	0.417	-0.112
-181.056	-131.435	-0.400	-0.052
-180.042	-115.168	-0.294	0.055
-179.027	-29.269	0.219	-0.124
-178.012	98.516	0.023	0.026
-176.998	-87.363	0.430	-0.129
-175.983	800.000	-0.079	0.248
-174.969	11.267	0.199	0.151
-173.954	800.000	0.081	0.342
-172.939	-114.175	-0.381	0.073
-171.925	800.000	0.019	-0.075
-170.910	-118.392	0.133	0.023
-169.896	-2.456	-0.205	0.142
-168.881	-200.000	0.039	-0.181
-167.866	-200.000	0.013	0.221
-166.852	62.064	-0.119	0.117
-165.837	82.968	0.259	-0.278
-164.823	-124.240	0.048	0.007
-163.808	-200.000	-0.015	-0.070
-162.793	-200.000	0.049	0.219
-161.779	800.000	0.025	-0.073
-160.764	-46.000	-0.398	0.194
-159.750	-200.000	0.153	-0.000
-158.735	-200.000	-0.057	0.333
-157.720	-143.857	-0.134	0.012
-156.706	-200.000	-0.016	0.082
-155.691	-134.404	0.119	-0.014
-154.677	-55.325	-0.044	-0.020
-153.662	-200.000	0.031	-0.310
-152.647	105.728	0.110	-0.128
-151.633	360.303	0.048	0.094
-150.618	-200.000	-0.058	0.251
-149.604	800.000	-0.089	0.384
-148.589	-135.075	-0.163	0.019
-147.574	-27.319	-0.216	0.124
-146.560	638.023	0.072	-0.181
-145.545	12.413	-0.255	0.194
-144.531	42.410	0.200	-0.180
-143.516	-95.083	-0.129	-0.034
-142.502	-57.007	-0.174	0.076
-141.487	-6.541	0.097	-0.065
-140.472	138.793	0.206	-0.266
-139.458	-200.000	0.060	0.349
-138.443	786.040	-0.126	-0.340
-137.429	363.756	0.100	0.199
-136.414	192.743	0.133	0.198
-135.399	-200.000	0.032	0.278
-134.385	246.686	-0.069	0.114
-133.370	668.115	0.093	0.237
-132.356	-161.619	-0.236	0.012
-131.341	58.124	0.301	-0.290
-130.326	-84.931	-0.174	0.054
-129.312	55.863	-0.196	0.187
-128.297	122.642	0.180	-0.222
-127.283	800.000	0.089	0.273
-126.268	-120.958	-0.252	-0.042
-125.253	94.560	-0.305	-0.341
-124.239	369.012	-0.113	0.226
-123.224	15.551	-0.092	-0.071
-122.210	605.743	0.112	0.276
-121.195	306.772	0.061	0.112
-120.180	-179.718	-0.289	-0.006
