DTS Sentinel unit serial number:	SN413079Multiplexer serial number:	ORYXHardware model number:	OX4-SRSoftware version number:	ORYX F/W v4.00 Oryx Data Collector v3.7.2.0data status	okinstallation	princeton_trtdifferential loss correction	single-endedforward channel	channel 2reverse channel	N/Adate	2019/09/15time	23:07:35forward acquisition time	60.00reverse acquisition time	0.00gamma	496.2192k internal	0.2335k external	0.2335temperature offset calibration	0.9952default loss term (dB/km)	0.3790temperature slope calibration	1.0000multiplexer offset coefficient	1.0000multiplexer slope coefficient	1.0000fibre end	0.00T internal ref (°C)	28.48T ext. ref 1 (°C)	9.02T ext. ref 2 (°C)	22.18length (m)	temperature (°C)	Stokes	anti-Stokes-747.200	-53.357	0.154	-0.071
-746.185	800.000	-0.057	0.248
-745.171	-137.182	-0.367	0.042
-744.156	105.168	-0.051	0.061
-743.142	-200.000	0.000	0.173
-742.127	-200.000	0.046	0.416
-741.112	101.312	-0.295	0.345
-740.098	346.129	-0.164	0.325
-739.083	215.731	0.060	0.096
-738.069	-82.870	-0.124	0.040
-737.054	-85.398	-0.154	-0.048
-736.039	28.716	-0.189	-0.160
-735.025	577.490	-0.109	0.268
-734.010	-93.317	-0.126	-0.035
-732.996	-168.965	-0.334	-0.013
-731.981	584.394	0.102	0.251
-730.966	397.822	-0.096	0.202
-729.952	170.838	-0.143	0.205
-728.937	800.000	0.086	0.249
-727.923	-150.633	-0.241	-0.018
-726.908	84.462	-0.054	0.059
-725.894	31.642	0.283	0.245
-724.879	-200.000	-0.037	-0.176
-723.864	168.415	0.123	-0.176
-722.850	6.039	0.294	-0.219
-721.835	-161.068	0.086	-0.005
-720.821	21.621	-0.289	-0.236
-719.806	800.000	-0.124	-0.543
-718.791	-200.000	-0.011	0.062
-717.777	678.140	0.017	-0.045
-716.762	-88.905	0.152	0.045
-715.748	-200.000	-0.004	0.245
-714.733	-27.879	-0.116	-0.067
-713.718	22.471	0.136	-0.111
-712.704	382.660	-0.125	-0.257
-711.689	-168.004	-0.267	0.010
-710.675	173.264	0.059	0.086
-709.660	-134.048	-0.277	0.034
-708.645	-102.025	0.156	-0.038
-707.631	-200.000	-0.052	0.335
-706.616	59.188	-0.277	-0.273
-705.602	406.851	0.152	-0.322
-704.587	-163.880	0.255	0.012
-703.572	185.739	-0.010	-0.014
-702.558	-122.623	0.072	-0.012
-701.543	297.735	0.203	-0.374
-700.529	295.175	-0.066	0.121
-699.514	295.251	0.186	-0.342
-698.499	-111.294	-0.308	0.063
-697.485	24.033	0.235	0.195
-696.470	800.000	0.102	-0.394
-695.456	37.076	-0.128	0.113
-694.441	800.000	-0.047	0.195
-693.426	26.279	0.104	0.087
-692.412	-137.474	0.203	0.023
-691.397	351.144	-0.015	0.030
-690.383	-18.241	0.094	0.059
-689.368	-200.000	0.019	-0.097
-688.354	240.857	0.008	-0.013
-687.339	800.000	-0.062	-0.211
-686.324	-25.103	-0.148	-0.088
-685.310	-105.487	-0.142	-0.032
-684.295	85.516	0.187	0.206
-683.281	-82.572	0.091	0.029
-682.266	66.857	0.098	-0.100
-681.251	800.000	-0.094	-0.354
-680.237	212.434	0.096	-0.151
-679.222	-163.111	-0.195	0.009
-678.208	24.756	0.147	-0.122
-677.193	111.373	0.061	-0.074
-676.178	-162.142	0.256	-0.013
-675.164	-37.392	-0.209	0.112
-674.149	-83.003	-0.224	-0.072
-673.135	-2.398	0.210	-0.148
-672.120	-111.803	0.133	0.027
-671.105	99.735	-0.058	0.067
-670.091	-200.000	0.025	0.152
-669.076	-122.760	-0.240	0.039
-668.062	-166.296	0.086	0.004
-667.047	-200.000	-0.006	0.030
-666.032	159.276	0.102	0.143
-665.018	800.000	-0.075	-0.216
-664.003	411.120	-0.103	-0.219
-662.989	496.854	-0.034	0.078
-661.974	56.392	0.053	-0.052
-660.959	4.535	0.275	-0.202
-659.945	66.415	0.365	0.372
-658.930	405.390	-0.118	-0.250
-657.916	-71.011	0.309	-0.117
-656.901	-113.939	0.103	-0.020
-655.886	-171.767	0.314	0.010
-654.872	-200.000	0.086	0.486
-653.857	159.484	0.061	-0.085
-652.843	95.215	-0.041	-0.047
-651.828	-200.000	0.011	-0.095
-650.814	-200.000	0.010	-0.076
-649.799	760.227	0.044	-0.119
-648.784	-141.889	-0.292	0.029
-647.770	513.682	-0.061	-0.142
-646.755	-84.263	0.386	-0.122
-645.741	-102.447	-0.020	-0.005
-644.726	-52.695	-0.190	-0.088
-643.711	27.252	-0.025	-0.021
-642.697	318.398	0.115	-0.218
-641.682	800.000	-0.090	-0.255
-640.668	119.272	-0.190	0.235
-639.653	-137.244	0.428	-0.049
-638.638	-179.721	-0.229	-0.005
-637.624	690.595	0.135	-0.353
-636.609	-122.788	0.076	0.012
-635.595	156.637	0.107	-0.147
-634.580	800.000	-0.089	0.326
-633.565	-109.264	0.060	0.013
-632.551	800.000	0.034	0.122
-631.536	126.425	0.081	-0.102
-630.522	37.208	-0.102	-0.090
-629.507	-200.000	0.060	-0.361
-628.492	-23.287	0.067	0.040
-627.478	-200.000	0.037	-0.321
-626.463	-8.735	0.122	0.082
-625.449	-168.766	-0.402	0.015
-624.434	-4.077	0.096	0.067
-623.419	0.425	-0.227	0.162
-622.405	-42.528	0.323	-0.165
-621.390	210.807	-0.182	-0.286
-620.376	155.207	-0.137	0.188
-619.361	-164.355	-0.128	0.006
-618.346	-58.725	0.107	-0.046
-617.332	-143.377	-0.298	0.029
-616.317	1.251	-0.014	0.010
-615.303	-5.739	0.228	-0.156
-614.288	-130.200	-0.088	0.012
-613.273	-12.562	-0.345	0.225
-612.259	-200.000	-0.023	-0.160
-611.244	-45.768	0.073	-0.036
-610.230	-81.311	0.138	0.045
-609.215	38.533	-0.161	-0.144
-608.201	-13.689	-0.157	-0.102
-607.186	346.894	-0.148	0.292
-606.171	-143.173	0.361	-0.035
-605.157	9.419	-0.222	-0.168
-604.142	223.390	0.043	-0.069
-603.128	181.657	-0.059	0.087
-602.113	-200.000	-0.031	0.267
-601.098	210.370	0.035	-0.055
-600.084	-95.650	-0.181	-0.048
-599.069	-179.747	-0.286	-0.006
-598.055	-119.067	0.203	0.035
-597.040	-130.719	0.107	-0.014
-596.025	-200.000	-0.022	0.113
-595.011	128.301	0.093	-0.118
-593.996	46.133	0.350	-0.324
-592.982	-62.152	-0.195	-0.081
-591.967	323.261	-0.033	0.064
-590.952	-179.460	0.226	0.005
-589.938	800.000	0.025	0.081
-588.923	800.000	-0.057	-0.212
-587.909	-67.646	-0.035	-0.014
-586.894	-200.000	0.045	0.257
-585.879	-22.006	0.200	0.122
-584.865	800.000	0.133	0.367
-583.850	477.658	0.173	0.391
-582.836	-200.000	-0.024	-0.191
-581.821	-5.723	-0.188	0.128
-580.806	-200.000	0.028	0.143
-579.792	-200.000	-0.050	0.247
-578.777	785.587	-0.050	0.138
-577.763	5.246	0.103	0.075
-576.748	-58.934	-0.253	-0.109
-575.733	800.000	0.114	-0.372
-574.719	-51.000	0.223	-0.105
-573.704	-200.000	-0.060	-0.324
-572.690	92.344	-0.180	0.203
-571.675	-159.781	0.256	0.014
-570.661	-64.066	-0.166	-0.068
-569.646	151.002	0.076	0.103
-568.631	-33.880	-0.264	0.145
-567.617	-165.889	0.254	-0.011
-566.602	123.011	-0.185	-0.231
-565.588	8.076	0.334	-0.250
-564.573	49.564	0.268	0.252
-563.558	800.000	0.025	-0.092
-562.544	35.207	-0.115	-0.100
-561.529	-21.901	-0.238	-0.144
-560.515	800.000	0.038	-0.121
-559.500	-177.290	0.196	0.005
-558.485	-133.491	0.071	-0.009
-557.471	65.730	-0.212	0.214
-556.456	29.659	-0.151	0.129
-555.442	8.021	-0.224	0.168
-554.427	-200.000	0.036	-0.316
-553.412	235.192	0.033	-0.055
-552.398	-67.918	0.095	0.037
-551.383	18.082	-0.143	-0.114
-550.369	-200.000	0.040	-0.218
-549.354	-53.724	-0.258	-0.118
-548.339	-116.454	0.084	-0.016
-547.325	-178.944	0.037	0.001
-546.310	-63.547	0.107	0.044
-545.296	-64.930	-0.294	-0.118
-544.281	800.000	-0.042	-0.121
-543.266	-57.386	-0.283	-0.124
-542.252	175.255	0.157	-0.227
-541.237	800.000	0.089	0.262
-540.223	-96.365	-0.055	-0.015
-539.208	93.059	0.113	-0.127
-538.193	300.362	-0.053	-0.098
-537.179	-107.895	0.039	0.008
-536.164	-26.283	0.163	-0.095
-535.150	-56.311	0.190	0.084
-534.135	137.785	0.029	0.038
-533.121	488.412	-0.077	-0.174
-532.106	-101.354	0.386	-0.094
-531.091	5.562	0.085	0.063
-530.077	-200.000	-0.002	-0.024
-529.062	-200.000	-0.019	-0.115
-528.048	-200.000	-0.004	-0.045
-527.033	23.775	0.236	-0.194
-526.018	-17.768	-0.160	-0.100
-525.004	-120.521	0.080	0.013
-523.989	-2.363	0.372	0.260
-522.975	121.147	0.178	0.220
-521.960	514.959	-0.173	-0.401
-520.945	701.377	-0.078	-0.206
-519.931	10.571	-0.165	0.125
-518.916	192.791	-0.102	-0.154
-517.902	-124.057	0.246	0.038
-516.887	-170.170	-0.330	-0.012
-515.872	-94.293	0.198	0.054
-514.858	241.062	-0.185	-0.307
-513.843	89.201	0.067	0.074
-512.829	800.000	0.039	-0.112
-511.814	-96.817	0.358	0.094
-510.799	-69.273	-0.199	-0.076
-509.785	76.762	-0.223	0.236
-508.770	164.947	-0.062	0.087
-507.756	328.450	0.069	0.131
-506.741	-76.635	0.209	-0.073
-505.726	34.599	-0.331	-0.288
-504.712	305.914	-0.113	0.209
-503.697	147.155	0.129	-0.172
-502.683	-58.446	-0.172	-0.074
-501.668	-17.882	-0.120	-0.075
-500.653	157.293	-0.233	-0.321
-499.639	84.889	0.173	-0.189
-498.624	217.567	-0.230	-0.365
-497.610	-2.879	0.215	0.149
-496.595	123.257	0.221	0.276
-495.581	381.257	0.054	-0.109
-494.566	-71.574	-0.111	-0.041
-493.551	41.945	0.258	0.233
-492.537	726.156	-0.165	0.438
-491.522	225.856	0.078	0.126
-490.508	-40.222	-0.153	0.079
-489.493	-68.690	0.087	-0.033
-488.478	-200.000	-0.052	-0.234
-487.464	615.190	0.110	-0.274
-486.449	-200.000	0.032	0.209
-485.435	35.077	-0.146	0.127
-484.420	-70.972	-0.108	0.040
-483.405	-179.030	-0.156	-0.003
-482.391	381.184	0.105	0.214
-481.376	165.613	-0.128	0.180
-480.362	640.502	0.050	-0.126
-479.347	-117.284	0.195	-0.035
-478.332	-181.442	0.125	-0.002
-477.318	-200.000	0.021	0.201
-476.303	-118.788	0.424	-0.074
-475.289	-200.000	-0.023	-0.153
-474.274	800.000	0.064	0.273
-473.259	-90.856	-0.190	-0.055
-472.245	100.311	0.171	0.197
-471.230	-200.000	0.007	0.091
-470.216	-200.000	-0.048	0.214
-469.201	489.845	-0.042	-0.096
-468.186	196.265	-0.084	-0.127
-467.172	-189.049	-0.142	0.002
-466.157	600.318	-0.110	0.272
-465.143	-200.000	-0.027	0.180
-464.128	0.975	0.160	0.114
-463.113	16.802	-0.042	0.033
-462.099	-94.188	-0.164	-0.045
-461.084	142.185	0.169	-0.223
-460.070	615.633	-0.085	-0.212
-459.055	-39.057	0.226	-0.118
-458.040	10.280	0.061	0.046
-457.026	800.000	0.063	0.234
-456.011	-179.505	0.339	0.007
-454.997	598.614	-0.067	0.166
-453.982	-134.013	-0.407	0.050
-452.968	36.705	0.229	-0.201
-451.953	800.000	-0.064	-0.203
-450.938	-79.014	-0.268	-0.091
-449.924	-54.047	-0.071	0.032
-448.909	249.093	0.079	0.133
-447.895	-175.527	0.079	-0.002
-446.880	558.998	-0.182	-0.436
-445.865	800.000	0.108	-0.369
-444.851	485.939	0.090	0.203
-443.836	90.108	-0.032	0.036
-442.822	212.417	-0.092	-0.144
-441.807	38.156	0.034	0.030
-440.792	-200.000	-0.002	-0.085
-439.778	140.500	-0.119	0.156
-438.763	800.000	0.114	0.380
-437.749	-98.362	0.240	0.061
-436.734	-25.614	-0.247	-0.145
-435.719	-28.449	-0.066	0.038
-434.705	800.000	-0.037	-0.132
-433.690	-127.476	0.281	-0.041
-432.676	696.095	0.004	-0.010
-431.661	-125.066	-0.237	0.036
-430.646	800.000	-0.078	0.311
-429.632	-133.604	-0.196	-0.024
-428.617	108.979	0.073	-0.087
-427.603	800.000	0.090	-0.292
-426.588	-103.455	-0.201	-0.047
-425.573	140.624	-0.070	-0.092
-424.559	800.000	0.026	0.084
-423.544	-200.000	-0.063	-0.532
-422.530	800.000	-0.059	0.180
-421.515	-144.816	-0.226	-0.021
-420.500	800.000	-0.045	0.166
-419.486	-2.393	0.223	-0.155
-418.471	-200.000	0.073	0.645
-417.457	-0.193	0.203	0.144
-416.442	800.000	0.110	-0.325
-415.428	12.299	0.123	-0.094
-414.413	-65.821	-0.175	-0.070
-413.398	-200.000	0.037	-0.211
-412.384	-71.010	-0.068	-0.025
-411.369	69.169	-0.149	-0.152
-410.355	-141.623	0.282	-0.028
-409.340	-5.193	-0.279	0.190
-408.325	17.168	0.223	0.176
-407.311	-60.395	0.116	-0.049
-406.296	555.444	-0.056	-0.135
-405.282	191.340	-0.055	0.083
-404.267	381.036	-0.128	0.261
-403.252	-193.592	0.163	-0.001
-402.238	-2.585	-0.167	-0.116
-401.223	-68.882	0.303	0.116
-400.209	121.865	0.187	-0.231
-399.194	-38.982	-0.329	0.172
-398.179	800.000	0.085	-0.282
-397.165	29.887	0.149	-0.126
-396.150	74.329	-0.305	0.317
-395.136	237.501	-0.142	0.233
-394.121	-118.677	-0.193	-0.034
-393.106	-74.953	-0.342	0.121
-392.092	401.941	0.129	-0.269
-391.077	-200.000	0.007	-0.116
-390.063	-129.846	0.013	-0.002
-389.048	-106.822	-0.109	0.024
-388.033	-93.224	0.166	0.046
-387.019	4.150	0.345	0.250
-386.004	-14.313	-0.048	-0.031
-384.990	153.606	0.108	-0.147
-383.975	-200.000	0.023	-0.376
-382.960	-104.302	0.115	-0.026
-381.946	179.344	0.017	-0.024
-380.931	-125.569	0.107	-0.016
-379.917	-105.758	-0.357	0.080
-378.902	-200.000	-0.046	0.204
-377.888	-166.976	0.012	0.001
-376.873	131.269	0.427	-0.543
-375.858	310.989	-0.099	-0.183
-374.844	-16.236	-0.034	0.022
-373.829	-200.000	-0.026	-0.238
-372.815	-35.497	0.282	-0.152
-371.800	766.470	-0.101	-0.272
-370.785	-163.131	-0.129	-0.006
-369.771	115.907	0.215	0.260
-368.756	-58.808	-0.147	0.063
-367.742	-33.841	0.127	0.069
-366.727	-141.140	0.085	0.009
-365.712	287.152	0.146	-0.261
-364.698	57.318	-0.102	-0.099
-363.683	94.295	0.141	0.158
-362.669	565.872	0.106	0.255
-361.654	-200.000	0.007	0.249
-360.639	-100.804	0.132	0.032
-359.625	-200.000	0.028	0.235
-358.610	-30.374	-0.144	0.081
-357.596	77.396	0.167	0.176
-356.581	243.944	0.082	0.136
-355.566	-123.822	0.080	0.013
-354.552	-81.231	-0.243	0.079
-353.537	-200.000	0.024	0.194
-352.523	800.000	0.121	0.353
-351.508	39.633	-0.259	0.230
-350.493	448.829	0.106	-0.231
-349.479	800.000	-0.012	0.042
-348.464	-13.466	-0.234	-0.150
-347.450	205.613	-0.158	0.242
-346.435	424.987	0.023	0.049
-345.420	-200.000	-0.028	-0.306
-344.406	168.461	-0.050	0.071
-343.391	103.185	0.113	0.131
-342.377	349.765	-0.076	0.148
-341.362	800.000	-0.054	0.163
-340.348	18.436	-0.282	-0.223
-339.333	19.808	0.247	-0.197
-338.318	800.000	0.069	0.232
-337.304	-200.000	-0.054	0.368
-336.289	-51.592	-0.315	0.145
-335.275	-200.000	-0.043	0.288
-334.260	-35.776	-0.102	-0.055
-333.245	172.896	0.068	-0.096
-332.231	-200.000	-0.025	0.355
-331.216	-200.000	0.026	-0.264
-330.202	800.000	-0.124	-0.356
-329.187	-161.029	-0.164	0.009
-328.172	-128.551	0.297	0.042
-327.158	-126.476	0.108	-0.016
-326.143	-52.203	-0.377	-0.173
-325.129	-200.000	-0.017	0.216
-324.114	-152.400	0.373	0.027
-323.099	-91.986	0.138	-0.039
-322.085	-9.110	-0.226	-0.149
-321.070	-200.000	0.010	0.058
-320.056	-99.445	0.414	0.103
-319.041	800.000	-0.024	0.102
-318.026	800.000	0.011	0.040
-317.012	-71.672	-0.229	-0.084
-315.997	800.000	0.102	0.352
-314.983	-2.360	0.073	-0.051
-313.968	-74.668	0.256	-0.091
-312.953	-164.683	-0.208	0.009
-311.939	-80.660	0.110	0.036
-310.924	800.000	0.074	-0.256
-309.910	150.038	-0.135	-0.181
-308.895	409.930	-0.069	-0.143
-307.880	-126.409	-0.228	-0.034
-306.866	512.183	0.041	-0.095
-305.851	167.678	-0.185	-0.260
-304.837	-22.202	0.129	0.078
-303.822	800.000	-0.067	-0.186
-302.807	800.000	-0.160	0.449
-301.793	685.326	-0.229	0.591
-300.778	5.389	0.329	0.240
-299.764	-45.581	-0.158	-0.077
-298.749	-40.131	-0.161	0.083
-297.735	-65.625	0.105	0.041
-296.720	-141.813	0.068	0.007
-295.705	275.876	0.155	-0.272
-294.691	59.234	0.152	0.148
-293.676	187.620	-0.101	-0.148
-292.662	67.367	0.154	-0.155
-291.647	-200.000	0.004	0.284
-290.632	-66.854	-0.153	0.060
-289.618	106.957	0.166	-0.195
-288.603	12.294	0.099	0.075
-287.589	-28.675	0.057	-0.032
-286.574	207.381	0.056	-0.086
-285.559	271.567	-0.112	-0.194
-284.545	800.000	-0.110	0.417
-283.530	50.887	0.064	-0.060
-282.516	-50.135	-0.198	-0.093
-281.501	330.074	0.068	-0.129
-280.486	800.000	0.065	0.201
-279.472	-200.000	0.055	-0.282
-278.457	-200.000	-0.062	0.395
-277.443	-5.025	0.116	0.079
-276.428	-200.000	-0.036	-0.182
-275.413	-200.000	0.001	0.061
-274.399	74.899	-0.022	-0.023
-273.384	59.432	0.106	-0.103
-272.370	800.000	0.074	0.228
-271.355	-59.703	-0.081	-0.034
-270.340	108.956	-0.169	0.199
-269.326	-54.010	0.113	-0.051
-268.311	103.517	-0.030	0.034
-267.297	-200.000	0.017	0.450
-266.282	314.889	0.144	0.268
-265.267	-200.000	-0.037	0.293
-264.253	-110.190	-0.286	-0.059
-263.238	-14.813	-0.420	-0.265
-262.224	-135.767	0.054	-0.006
-261.209	-15.460	-0.288	0.181
-260.195	-56.086	0.296	-0.130
-259.180	570.797	-0.076	0.181
-258.165	-175.138	0.160	0.004
-257.151	17.425	0.200	0.157
-256.136	-169.292	-0.320	0.012
-255.122	661.120	0.047	-0.120
-254.107	800.000	0.119	0.360
-253.092	463.240	0.121	-0.267
-252.078	-200.000	-0.015	0.108
-251.063	800.000	-0.088	0.274
-250.049	-200.000	-0.001	0.100
-249.034	-90.478	-0.413	0.118
-248.019	158.412	0.071	0.097
-247.005	262.961	-0.076	-0.130
-245.990	-200.000	0.036	-0.236
-244.976	-140.018	0.335	-0.035
-243.961	536.473	0.094	0.219
-242.946	224.077	0.133	0.211
-241.932	-33.478	-0.204	0.111
-240.917	-81.460	-0.047	0.015
-239.903	800.000	-0.079	-0.257
-238.888	347.208	0.176	0.342
-237.873	-5.564	0.155	0.105
-236.859	-200.000	0.001	0.356
-235.844	-115.212	-0.087	-0.016
-234.830	-200.000	-0.014	0.336
-233.815	-185.490	0.350	0.005
-232.800	219.478	0.333	-0.525
-231.786	66.388	0.067	0.067
-230.771	800.000	-0.054	0.233
-229.757	-142.993	-0.262	0.025
-228.742	195.070	-0.149	-0.223
-227.727	523.819	0.056	-0.130
-226.713	82.031	0.120	-0.128
-225.698	-17.671	0.102	-0.063
-224.684	-133.792	-0.423	0.052
-223.669	800.000	-0.021	0.075
-222.655	-199.955	0.192	-0.001
-221.640	-37.490	-0.311	-0.163
-220.625	10.084	-0.137	-0.102
-219.611	-200.000	0.037	-0.254
-218.596	-200.000	0.007	-0.077
-217.582	56.244	-0.092	-0.088
-216.567	-78.007	-0.175	-0.059
-215.552	-71.523	-0.267	0.098
-214.538	60.341	-0.209	0.203
-213.523	-132.930	-0.231	-0.029
-212.509	6.235	0.095	0.069
-211.494	-200.000	0.095	0.506
-210.479	-87.361	0.274	-0.082
-209.465	800.000	0.134	-0.422
-208.450	-88.773	-0.186	-0.054
-207.436	436.874	-0.144	0.309
-206.421	-108.457	0.312	-0.066
-205.406	-27.933	0.105	-0.060
-204.392	-200.000	0.047	0.308
-203.377	-46.120	0.095	-0.046
-202.363	-200.000	0.020	0.105
-201.348	30.841	0.229	-0.193
-200.333	-106.897	0.048	0.010
-199.319	-75.994	0.154	0.054
-198.304	-69.776	-0.150	-0.056
-197.290	498.339	0.068	0.155
-196.275	306.295	-0.064	-0.116
-195.260	-24.055	-0.173	0.101
-194.246	190.113	0.138	-0.203
-193.231	573.408	0.087	-0.209
-192.217	-0.463	0.066	-0.046
-191.202	-200.000	0.011	-0.160
-190.187	149.890	0.059	0.079
-189.173	-90.168	0.166	-0.047
-188.158	-26.700	-0.091	-0.052
-187.144	88.905	0.132	0.144
-186.129	-110.736	0.235	0.048
-185.114	-68.643	-0.115	-0.044
-184.100	-31.053	0.030	-0.017
-183.085	-106.425	-0.339	0.074
-182.071	-112.428	-0.428	0.084
-181.056	-89.544	-0.142	-0.041
-180.042	-26.399	0.251	0.144
-179.027	-200.000	0.010	0.065
-178.012	-133.521	0.203	-0.025
-176.998	93.491	-0.116	0.129
-175.983	90.731	-0.023	-0.025
-174.969	560.525	0.121	0.286
-173.954	-200.000	-0.034	-0.170
-172.939	-200.000	0.002	0.257
-171.925	112.203	-0.119	0.141
-170.910	-200.000	-0.027	0.179
-169.896	-200.000	-0.017	-0.266
-168.881	88.350	0.295	-0.322
-167.866	-80.734	-0.214	0.070
-166.852	-46.986	-0.024	-0.012
-165.837	-167.187	0.284	-0.011
-164.823	182.351	0.109	0.157
-163.808	800.000	0.049	0.210
-162.793	-62.744	-0.258	0.105
-161.779	170.883	-0.036	0.050
-160.764	191.529	0.128	-0.189
-159.750	151.727	-0.088	-0.117
-158.735	800.000	-0.122	-0.373
-157.720	-200.000	-0.014	0.072
-156.706	-5.904	0.253	-0.170
-155.691	37.786	0.084	0.074
-154.677	8.427	0.402	-0.297
-153.662	217.735	-0.175	-0.273
-152.647	-9.533	-0.366	-0.240
-151.633	-122.242	-0.171	-0.027
-150.618	37.754	0.091	0.079
-149.604	-52.404	-0.149	-0.068
-148.589	687.682	-0.175	0.450
-147.574	92.632	0.213	0.236
-146.560	-200.000	0.028	-0.136
-145.545	800.000	0.033	-0.112
-144.531	202.363	-0.045	-0.068
-143.516	83.371	0.351	0.375
-142.502	194.220	-0.055	0.082
-141.487	800.000	0.031	0.129
-140.472	-36.888	0.409	-0.215
-139.458	-89.825	0.095	-0.027
-138.443	-17.188	-0.007	-0.004
-137.429	-200.000	0.051	0.228
-136.414	278.264	0.178	0.310
-135.399	158.118	-0.165	0.224
-134.385	800.000	-0.053	0.205
-133.370	-80.723	-0.107	0.035
-132.356	83.568	0.138	-0.147
-131.341	-200.000	-0.030	0.357
-130.326	401.902	-0.078	0.160
-129.312	-78.920	0.219	-0.073
-128.297	-140.364	-0.195	0.020
-127.283	800.000	0.033	0.131
-126.268	-86.796	-0.137	-0.041
-125.253	800.000	-0.058	0.182
-124.239	800.000	0.016	-0.053
-123.224	545.902	-0.062	0.146
-122.210	-50.153	0.159	-0.074
-121.195	-200.000	-0.034	0.174
