DTS Sentinel unit serial number:	SN413079Multiplexer serial number:	ORYXHardware model number:	OX4-SRSoftware version number:	ORYX F/W v4.00 Oryx Data Collector v3.7.2.0data status	okinstallation	princeton_trtdifferential loss correction	single-endedforward channel	channel 2reverse channel	N/Adate	2019/09/13time	06:15:34forward acquisition time	60.00reverse acquisition time	0.00gamma	496.2192k internal	0.2338k external	0.2338temperature offset calibration	1.0192default loss term (dB/km)	0.3790temperature slope calibration	1.0000multiplexer offset coefficient	1.0000multiplexer slope coefficient	1.0000fibre end	0.00T internal ref (°C)	26.12T ext. ref 1 (°C)	4.08T ext. ref 2 (°C)	20.86length (m)	temperature (°C)	Stokes	anti-Stokes-747.200	-146.259	0.249	-0.022
-746.185	462.235	-0.032	0.071
-745.171	-165.319	0.175	-0.008
-744.156	-70.691	-0.211	-0.080
-743.142	31.361	0.175	-0.151
-742.127	144.865	0.042	0.056
-741.112	332.609	-0.200	-0.387
-740.098	-138.183	-0.269	-0.030
-739.083	-74.047	0.282	-0.102
-738.069	326.166	-0.062	0.119
-737.054	339.152	-0.143	-0.279
-736.039	-200.000	0.006	-0.164
-735.025	67.274	0.205	0.210
-734.010	-43.106	-0.115	0.058
-732.996	-200.000	-0.016	-0.157
-731.981	-200.000	-0.060	-0.291
-730.966	-144.753	-0.059	-0.005
-729.952	-24.822	-0.251	0.150
-728.937	18.959	0.181	0.146
-727.923	-156.477	-0.023	-0.001
-726.908	-110.649	-0.064	0.013
-725.894	-160.005	-0.427	-0.023
-724.879	-200.000	0.025	-0.110
-723.864	-200.000	0.001	-0.406
-722.850	114.310	-0.185	-0.226
-721.835	-135.663	-0.039	-0.005
-720.821	63.665	-0.170	0.171
-719.806	241.620	0.049	0.081
-718.791	-88.379	-0.402	-0.121
-717.777	-69.166	-0.086	-0.033
-716.762	-71.365	-0.413	0.155
-715.748	-200.000	0.037	-0.298
-714.733	-117.002	0.094	0.017
-713.718	399.335	-0.079	-0.166
-712.704	-200.000	-0.025	0.130
-711.689	152.171	0.159	-0.218
-710.675	74.565	-0.326	-0.344
-709.660	-12.228	-0.217	0.142
-708.645	-200.000	0.010	-0.177
-707.631	29.673	-0.325	-0.277
-706.616	-103.698	0.176	0.041
-705.602	-200.000	-0.049	0.263
-704.587	-95.932	-0.242	0.065
-703.572	800.000	-0.121	0.436
-702.558	-55.272	0.155	0.070
-701.543	-200.000	0.014	0.354
-700.529	-57.252	-0.057	0.025
-699.514	800.000	-0.046	0.140
-698.499	560.773	0.104	-0.251
-697.485	-85.595	-0.325	-0.101
-696.470	800.000	-0.040	-0.125
-695.456	-52.370	-0.155	0.072
-694.441	151.056	-0.212	-0.289
-693.426	-115.618	0.157	-0.030
-692.412	364.711	-0.035	0.070
-691.397	700.872	0.126	-0.333
-690.383	-119.288	0.473	-0.083
-689.368	209.907	-0.181	-0.284
-688.354	255.511	-0.111	-0.190
-687.339	-20.067	-0.247	0.153
-686.324	18.477	0.147	-0.118
-685.310	-200.000	0.019	0.209
-684.295	-68.256	-0.264	0.103
-683.281	-21.094	0.306	-0.188
-682.266	-200.000	0.036	-0.201
-681.251	7.425	-0.161	0.120
-680.237	800.000	-0.059	-0.230
-679.222	271.113	-0.087	0.154
-678.208	800.000	-0.088	0.290
-677.193	8.475	0.174	-0.131
-676.178	-151.032	-0.565	0.043
-675.164	163.744	-0.038	0.054
-674.149	-178.534	0.077	0.002
-673.135	800.000	0.040	0.127
-672.120	588.812	-0.123	0.304
-671.105	-200.000	0.001	-0.354
-670.091	92.320	-0.192	-0.217
-669.076	-57.622	-0.189	-0.083
-668.062	-200.000	0.021	-0.325
-667.047	-18.481	-0.217	0.136
-666.032	42.332	-0.226	-0.206
-665.018	-200.000	0.010	-0.147
-664.003	-1.129	-0.267	-0.189
-662.989	800.000	0.099	0.316
-661.974	519.957	-0.018	0.041
-660.959	69.859	-0.121	0.124
-659.945	164.062	-0.157	-0.221
-658.930	-112.760	0.141	0.028
-657.916	265.716	0.084	-0.146
-656.901	-1.821	-0.318	0.224
-655.886	274.112	-0.086	-0.152
-654.872	-166.163	0.044	-0.002
-653.857	24.456	0.152	-0.125
-652.843	-200.000	-0.026	-0.278
-651.828	372.793	0.116	-0.235
-650.814	-66.347	0.212	-0.084
-649.799	-114.407	0.165	0.032
-648.784	-111.262	-0.179	0.037
-647.770	-200.000	0.038	0.225
-646.755	-12.524	-0.210	-0.137
-645.741	234.580	0.150	0.247
-644.726	-73.928	-0.094	-0.034
-643.711	182.364	0.086	0.127
-642.697	92.741	-0.127	0.143
-641.682	89.500	0.158	0.176
-640.668	-87.252	-0.202	-0.061
-639.653	-200.000	-0.042	0.208
-638.638	-39.200	-0.173	-0.091
-637.624	-136.070	0.453	-0.053
-636.609	-70.047	-0.362	-0.138
-635.595	48.198	-0.055	0.051
-634.580	800.000	-0.088	-0.255
-633.565	-117.653	0.245	-0.044
-632.551	800.000	-0.239	-0.748
-631.536	678.232	0.130	-0.339
-630.522	26.633	-0.185	0.155
-629.507	800.000	0.071	-0.271
-628.492	-4.019	-0.163	-0.113
-627.478	-126.771	-0.414	0.061
-626.463	84.562	0.132	0.144
-625.449	96.240	-0.077	0.088
-624.434	320.771	-0.183	-0.348
-623.419	-3.525	0.072	-0.050
-622.405	-63.911	-0.194	-0.079
-621.390	-23.241	-0.149	-0.090
-620.376	73.242	-0.119	0.124
-619.361	53.728	-0.077	-0.073
-618.346	-200.000	0.040	-0.219
-617.332	99.220	0.171	0.198
-616.317	-37.760	-0.367	0.195
-615.303	595.223	-0.203	0.501
-614.288	-139.360	-0.149	-0.016
-613.273	184.302	-0.221	0.327
-612.259	-200.000	-0.039	0.501
-611.244	-1.645	-0.223	0.157
-610.230	800.000	-0.059	0.177
-609.215	-200.000	0.032	0.160
-608.201	-106.156	0.327	-0.073
-607.186	-200.000	-0.023	-0.330
-606.171	22.687	-0.091	-0.074
-605.157	-200.000	-0.020	-0.204
-604.142	224.802	0.138	-0.223
-603.128	40.019	0.020	0.018
-602.113	-200.000	0.005	-0.312
-601.098	9.511	-0.225	0.170
-600.084	-3.858	-0.141	0.097
-599.069	635.458	0.088	0.224
-598.055	72.211	0.023	0.024
-597.040	219.129	-0.186	-0.297
-596.025	15.662	-0.189	-0.148
-595.011	800.000	-0.067	0.202
-593.996	564.051	-0.070	-0.169
-592.982	-188.557	-0.431	-0.005
-591.967	15.838	-0.051	0.040
-590.952	28.155	0.268	0.225
-589.938	-98.408	-0.380	0.097
-588.923	150.637	-0.255	0.346
-587.909	-50.643	-0.064	0.030
-586.894	440.365	0.116	-0.253
-585.879	56.757	0.153	-0.148
-584.865	-200.000	-0.113	0.575
-583.850	64.232	0.152	0.153
-582.836	53.847	0.176	0.169
-581.821	-20.867	-0.126	0.077
-580.806	-72.552	0.217	0.080
-579.792	122.630	0.243	0.303
-578.777	-16.374	-0.013	0.008
-577.763	41.422	0.157	-0.142
-576.748	-15.605	0.105	-0.067
-575.733	800.000	-0.108	-0.421
-574.719	-144.406	-0.429	-0.040
-573.704	741.471	-0.031	0.084
-572.690	-91.707	-0.082	-0.023
-571.675	166.444	-0.124	0.175
-570.661	-130.626	-0.365	0.049
-569.646	278.170	-0.137	-0.243
-568.631	-26.254	0.237	0.139
-567.617	800.000	-0.032	-0.118
-566.602	-84.375	0.128	0.040
-565.588	-141.989	0.075	0.007
-564.573	-200.000	-0.006	0.000
-563.558	-200.000	-0.034	-0.522
-562.544	402.330	0.106	-0.221
-561.529	107.859	-0.233	0.276
-560.515	119.692	-0.136	0.168
-559.500	27.189	0.204	-0.171
-558.485	-200.000	-0.013	-0.127
-557.471	269.342	-0.091	-0.159
-556.456	210.375	-0.163	-0.255
-555.442	-200.000	-0.020	-0.256
-554.427	800.000	0.037	-0.125
-553.412	153.655	0.137	0.187
-552.398	-70.369	-0.205	-0.077
-551.383	226.847	0.104	0.169
-550.369	124.584	-0.267	0.335
-549.354	-23.326	0.264	-0.158
-548.339	800.000	0.065	0.266
-547.325	-43.072	-0.068	-0.034
-546.310	0.096	-0.376	-0.267
-545.296	-148.637	0.120	0.010
-544.281	268.414	-0.208	-0.363
-543.266	3.330	-0.071	-0.051
-542.252	37.249	-0.221	0.195
-541.237	800.000	0.009	0.038
-540.223	-12.626	0.154	0.100
-539.208	-200.000	-0.006	0.308
-538.193	-62.401	0.190	0.079
-537.179	-200.000	-0.049	-0.239
-536.164	-200.000	-0.064	-0.292
-535.150	-200.000	0.045	0.284
-534.135	137.868	-0.089	-0.116
-533.121	-200.000	-0.036	-0.190
-532.106	73.806	0.250	-0.260
-531.091	409.023	-0.097	-0.205
-530.077	156.157	0.160	-0.220
-529.062	-200.000	-0.014	-0.150
-528.048	384.924	-0.048	-0.099
-527.033	800.000	0.029	-0.109
-526.018	-83.632	-0.351	0.112
-525.004	-200.000	0.029	0.188
-523.989	-200.000	0.019	-0.297
-522.975	75.718	0.229	0.240
-521.960	-53.536	0.033	-0.015
-520.945	-174.249	-0.059	0.002
-519.931	-200.000	0.037	-0.175
-518.916	573.612	-0.145	0.351
-517.902	-58.081	0.234	-0.102
-516.887	130.604	-0.160	-0.204
-515.872	800.000	0.063	-0.223
-514.858	-87.162	-0.220	0.066
-513.843	301.923	0.145	-0.267
-512.829	10.936	0.151	0.114
-511.814	-17.152	-0.269	0.168
-510.799	-167.141	0.233	0.009
-509.785	-52.442	-0.134	0.062
-508.770	191.161	-0.082	-0.122
-507.756	-90.594	-0.573	-0.165
-506.741	-200.000	-0.043	-0.259
-505.726	101.683	-0.257	0.298
-504.712	-200.000	-0.013	-0.121
-503.697	-200.000	0.003	0.168
-502.683	-27.621	0.093	0.053
-501.668	-200.000	0.000	0.067
-500.653	-200.000	0.014	0.133
-499.639	115.202	0.060	0.073
-498.624	15.028	-0.118	0.092
-497.610	739.064	0.128	0.341
-496.595	-65.513	-0.150	0.060
-495.581	-200.000	0.021	-0.096
-494.566	9.163	0.223	0.167
-493.551	-200.000	0.366	-0.002
-492.537	-200.000	-0.017	0.226
-491.522	465.462	0.061	-0.136
-490.508	212.588	0.044	-0.069
-489.493	800.000	0.042	-0.118
-488.478	-3.560	0.200	-0.138
-487.464	86.037	0.092	-0.101
-486.449	373.255	-0.116	0.235
-485.435	91.689	0.181	0.202
-484.420	42.237	-0.124	0.112
-483.405	-65.483	0.424	0.169
-482.391	395.404	-0.064	0.132
-481.376	-48.809	-0.035	-0.017
-480.362	800.000	0.100	0.331
-479.347	30.598	-0.171	0.145
-478.332	-54.701	0.149	0.067
-477.318	-105.063	-0.487	-0.111
-476.303	17.370	-0.317	0.250
-475.289	-56.328	0.188	0.083
-474.274	171.925	0.090	-0.129
-473.259	-130.743	-0.383	-0.051
-472.245	-19.153	-0.168	0.103
-471.230	387.719	0.165	0.338
-470.216	-78.965	0.267	-0.090
-469.201	800.000	-0.030	0.126
-468.186	-106.803	-0.128	-0.028
-467.172	-52.910	0.117	0.054
-466.157	-174.769	0.278	-0.008
-465.143	343.942	0.149	0.289
-464.128	-169.353	-0.274	0.010
-463.113	-200.000	0.007	-0.076
-462.099	-146.298	0.320	-0.028
-461.084	-58.599	-0.327	-0.141
-460.070	-48.005	-0.035	-0.017
-459.055	-198.456	-0.158	0.001
-458.040	50.960	-0.161	0.151
-457.026	800.000	0.093	-0.278
-456.011	207.798	0.021	-0.033
-454.997	-62.275	0.112	0.046
-453.982	-5.907	-0.202	-0.137
-452.968	-57.236	-0.264	0.115
-451.953	-142.446	0.194	0.019
-450.938	-200.000	-0.016	-0.084
-449.924	-47.447	0.158	0.076
-448.909	74.811	-0.100	-0.104
-447.895	-31.843	0.351	0.195
-446.880	800.000	0.061	0.213
-445.865	53.025	0.251	-0.238
-444.851	-196.633	-0.314	0.002
-443.836	-144.150	0.167	-0.016
-442.822	-117.144	0.224	0.040
-441.807	-177.102	-0.225	-0.006
-440.792	30.919	0.248	0.210
-439.778	487.011	-0.064	0.146
-438.763	51.377	0.265	0.249
-437.749	362.573	0.143	-0.286
-436.734	-200.000	-0.024	0.109
-435.719	576.668	-0.053	-0.129
-434.705	-200.000	-0.001	0.053
-433.690	26.562	0.193	-0.160
-432.676	-70.913	-0.083	-0.031
-431.661	736.603	0.098	0.261
-430.646	-96.474	0.163	0.043
-429.632	495.282	-0.208	-0.474
-428.617	17.865	-0.148	-0.117
-427.603	705.391	-0.131	0.344
-426.588	25.852	0.211	-0.175
-425.573	13.068	-0.133	0.102
-424.559	-43.147	-0.063	-0.031
-423.544	-96.196	-0.245	-0.064
-422.530	545.839	0.149	-0.352
-421.515	84.695	0.087	0.095
-420.500	-12.930	0.054	0.035
-419.486	49.871	0.183	0.171
-418.471	-3.017	0.178	-0.123
-417.457	-114.458	-0.339	-0.064
-416.442	-162.242	-0.111	0.005
-415.428	-142.701	0.147	-0.014
-414.413	217.069	0.189	0.298
-413.398	-25.422	-0.081	-0.047
-412.384	-200.000	0.003	-0.180
-411.369	319.016	0.285	-0.535
-410.355	800.000	0.098	-0.403
-409.340	-200.000	-0.039	-0.277
-408.325	-50.355	0.094	0.044
-407.311	800.000	0.031	-0.096
-406.296	-98.327	-0.150	0.038
-405.282	-200.000	-0.013	0.130
-404.267	151.554	-0.084	0.113
-403.252	-12.506	0.060	0.039
-402.238	-93.418	-0.360	-0.099
-401.223	-200.000	0.008	0.201
-400.209	-101.446	0.142	-0.034
-399.194	-200.000	0.096	0.417
-398.179	194.798	0.168	0.252
-397.165	800.000	0.027	0.084
-396.150	-200.000	0.026	-0.135
-395.136	800.000	0.113	-0.439
-394.121	-200.000	-0.027	-0.162
-393.106	-36.594	-0.112	0.060
-392.092	239.239	-0.146	0.240
-391.077	-129.576	-0.572	-0.078
-390.063	-69.184	-0.051	0.019
-389.048	-200.000	-0.008	-0.259
-388.033	-200.000	0.020	0.166
-387.019	-47.458	-0.387	-0.186
-386.004	800.000	0.031	0.096
-384.990	-56.545	-0.271	0.119
-383.975	414.259	0.091	0.191
-382.960	-200.000	-0.003	-0.018
-381.946	800.000	-0.055	-0.180
-380.931	-200.000	-0.025	0.246
-379.917	800.000	0.063	0.238
-378.902	-199.592	0.076	-0.000
-377.888	-138.071	0.350	0.039
-376.873	-79.220	0.020	0.007
-375.858	800.000	0.084	-0.277
-374.844	105.841	-0.120	-0.141
-373.829	-71.365	0.198	-0.073
-372.815	-72.687	-0.228	-0.083
-371.800	-106.915	0.087	-0.019
-370.785	-8.019	-0.104	-0.069
-369.771	-106.405	0.088	0.019
-368.756	24.866	-0.164	-0.134
-367.742	-200.000	-0.020	0.286
-366.727	-75.289	0.255	0.090
-365.712	-172.355	-0.278	0.009
-364.698	800.000	0.062	0.187
-363.683	-200.000	0.038	-0.320
-362.669	165.845	0.061	-0.085
-361.654	44.318	-0.167	-0.152
-360.639	131.422	0.144	-0.183
-359.625	800.000	-0.025	0.101
-358.610	434.290	0.109	0.234
-357.596	-200.000	-0.095	0.000
-356.581	1.022	0.309	-0.219
-355.566	-56.996	-0.131	0.057
-354.552	-112.862	0.134	0.026
-353.537	133.961	-0.162	-0.207
-352.523	551.344	-0.112	0.266
-351.508	800.000	0.087	-0.319
-350.493	-3.683	-0.239	0.164
-349.479	30.547	0.071	-0.060
-348.464	800.000	-0.021	-0.060
-347.450	11.891	0.161	-0.122
-346.435	312.586	-0.068	0.126
-345.420	-158.290	-0.276	0.016
-344.406	385.620	0.054	-0.110
-343.391	800.000	0.036	-0.153
-342.377	45.645	-0.322	-0.294
-341.362	-200.000	-0.018	0.151
-340.348	-200.000	0.030	0.241
-339.333	636.443	0.060	0.150
-338.318	-79.606	0.183	0.061
-337.304	-66.814	0.165	-0.065
-336.289	800.000	-0.085	0.338
-335.275	126.079	-0.138	-0.172
-334.260	-71.825	-0.179	0.066
-333.245	-200.000	0.034	-0.156
-332.231	-107.784	-0.185	-0.040
-331.216	286.114	0.094	0.167
-330.202	178.571	0.052	0.075
-329.187	-200.000	-0.008	0.166
-328.172	453.158	-0.070	-0.153
-327.158	-1.404	0.220	-0.154
-326.143	16.573	0.139	-0.108
-325.129	-200.000	-0.006	-0.288
-324.114	59.732	0.195	0.190
-323.099	-158.867	-0.300	0.017
-322.085	-200.000	0.022	-0.203
-321.070	-98.332	-0.081	-0.020
-320.056	-117.737	0.269	-0.048
-319.041	113.049	-0.248	-0.297
-318.026	64.028	0.323	0.321
-317.012	-133.071	0.211	-0.026
-315.997	-105.190	-0.137	-0.031
-314.983	622.111	0.072	-0.179
-313.968	-83.599	0.209	-0.066
-312.953	-200.000	-0.023	0.146
-311.939	-80.585	0.159	0.052
-310.924	-200.000	-0.060	0.298
-309.910	22.796	0.130	-0.105
-308.895	12.646	-0.084	-0.064
-307.880	-61.854	0.348	-0.143
-306.866	77.237	0.246	0.258
-305.851	-191.148	0.283	0.003
-304.837	800.000	-0.055	-0.157
-303.822	-115.774	-0.195	0.036
-302.807	-35.125	-0.194	0.104
-301.793	-46.046	0.147	0.072
-300.778	-89.385	0.125	0.036
-299.764	-57.279	0.182	-0.079
-298.749	54.620	0.099	0.094
-297.735	800.000	-0.038	0.117
-296.720	84.784	-0.153	-0.165
-295.705	54.762	0.121	-0.115
-294.691	800.000	0.071	-0.237
-293.676	150.644	0.214	0.287
-292.662	-105.509	0.363	0.081
-291.647	-73.147	0.315	0.114
-290.632	-200.000	0.028	-0.126
-289.618	-99.683	0.374	0.092
-288.603	99.241	0.007	-0.007
-287.589	-200.000	-0.062	-0.533
-286.574	76.370	0.118	0.123
-285.559	789.903	0.066	0.180
-284.545	262.464	-0.067	-0.115
-283.530	-200.000	0.062	0.329
-282.516	-200.000	-0.007	-0.063
-281.501	523.516	-0.071	-0.164
-280.486	152.829	0.088	-0.118
-279.472	-7.857	-0.250	0.167
-278.457	-194.573	0.133	0.001
-277.443	540.052	0.069	0.161
-276.428	800.000	-0.066	-0.193
-275.413	-200.000	0.017	-0.126
-274.399	-171.919	0.249	-0.008
-273.384	-55.142	-0.318	0.141
-272.370	227.630	-0.021	0.034
-271.355	-200.000	0.045	0.250
-270.340	-10.903	0.359	-0.233
-269.326	-110.367	-0.232	0.048
-268.311	502.959	0.127	-0.290
-267.297	313.774	-0.070	-0.129
-266.282	4.207	0.115	0.083
-265.267	270.376	0.173	-0.300
-264.253	-90.812	-0.052	-0.015
-263.238	727.876	0.166	-0.437
-262.224	-200.000	-0.044	-0.582
-261.209	82.167	0.302	0.323
-260.195	800.000	0.030	0.082
-259.180	-10.860	0.086	-0.056
-258.165	-45.415	-0.159	-0.078
-257.151	103.929	0.175	0.202
-256.136	800.000	-0.058	0.165
-255.122	-7.133	-0.066	0.044
-254.107	-200.000	-0.027	-0.234
-253.092	720.282	0.191	-0.499
-252.078	400.592	-0.095	0.196
-251.063	-46.090	-0.101	-0.049
-250.049	289.293	-0.241	-0.430
-249.034	140.278	-0.156	-0.202
-248.019	-200.000	-0.059	-0.464
-247.005	-200.000	0.019	-0.126
-245.990	60.815	0.036	-0.035
-244.976	-95.904	0.211	-0.055
-243.961	-0.941	0.136	0.095
-242.946	-200.000	-0.001	0.299
-241.932	224.829	-0.056	-0.089
-240.917	-44.784	0.131	-0.064
-239.903	382.049	0.050	-0.100
-238.888	19.372	0.235	0.186
-237.873	427.965	0.064	0.135
-236.859	195.936	0.086	-0.128
-235.844	-200.000	0.005	-0.154
-234.830	362.080	-0.113	0.223
-233.815	124.809	-0.105	0.130
-232.800	627.092	-0.072	0.180
-231.786	-134.961	0.115	-0.014
-230.771	-200.000	0.043	0.189
-229.757	-30.340	-0.311	-0.174
-228.742	-200.000	0.025	0.354
-227.727	-45.863	0.082	-0.040
-226.713	-122.530	0.108	0.017
-225.698	-72.931	0.048	-0.017
-224.684	119.495	0.089	-0.109
-223.669	-158.974	0.499	0.028
-222.655	126.357	0.226	0.281
-221.640	-97.466	-0.398	-0.102
-220.625	-200.000	0.010	0.073
-219.611	18.967	-0.103	0.081
-218.596	-42.821	-0.176	0.088
-217.582	234.485	0.059	-0.095
-216.567	-200.000	-0.024	0.159
-215.552	-200.000	0.009	0.114
-214.538	89.574	0.152	-0.167
-213.523	800.000	0.123	0.474
-212.509	177.722	-0.110	-0.158
-211.494	195.968	-0.120	0.180
-210.479	800.000	-0.127	0.350
-209.465	-14.897	-0.153	-0.097
-208.450	-200.000	-0.022	-0.160
-207.436	-175.472	0.321	0.009
-206.421	800.000	-0.081	-0.228
-205.406	-200.000	-0.015	0.097
-204.392	-119.251	0.273	0.047
-203.377	-146.900	-0.218	0.018
-202.363	-99.042	-0.275	-0.068
-201.348	-200.000	-0.093	-0.458
-200.333	374.798	0.097	-0.193
-199.319	28.346	-0.199	0.165
-198.304	-163.924	-0.134	0.006
-197.290	-7.682	0.032	-0.021
-196.275	-127.540	-0.248	0.035
-195.260	-6.957	0.282	0.188
-194.246	-68.669	0.076	-0.029
-193.231	-78.472	0.165	0.055
-192.217	317.297	0.081	0.151
-191.202	-86.916	0.125	-0.037
-190.187	6.979	-0.178	0.130
-189.173	-149.379	0.154	-0.012
-188.158	377.682	0.036	0.072
-187.144	478.898	0.149	0.331
-186.129	619.412	0.073	0.179
-185.114	43.732	0.155	0.139
-184.100	-20.932	0.139	-0.084
-183.085	421.304	0.097	-0.205
-182.071	-41.103	0.080	0.041
-181.056	-200.000	-0.054	0.311
-180.042	-99.024	-0.306	-0.076
-179.027	-200.000	-0.035	0.153
-178.012	-12.899	-0.141	-0.090
-176.998	113.132	-0.008	0.010
-175.983	-200.000	0.011	-0.120
-174.969	-6.896	-0.393	0.262
-173.954	107.801	0.162	0.190
-172.939	-109.080	0.190	0.040
-171.925	-128.088	-0.291	-0.041
-170.910	275.922	-0.264	-0.460
-169.896	84.867	0.109	0.117
-168.881	104.099	0.140	-0.161
-167.866	93.436	-0.222	0.247
-166.852	363.571	0.137	-0.270
-165.837	530.086	-0.106	-0.245
-164.823	800.000	0.094	0.317
-163.808	538.503	0.056	0.130
-162.793	324.085	-0.101	0.188
-161.779	-200.000	-0.030	-0.240
-160.764	71.715	-0.075	0.077
-159.750	-8.413	0.061	-0.040
-158.735	-192.913	-0.285	0.003
-157.720	-5.434	0.075	-0.051
-156.706	473.721	-0.026	-0.058
-155.691	-117.709	0.316	0.056
-154.677	710.822	-0.024	0.061
-153.662	124.906	0.257	0.318
-152.647	128.318	0.308	0.384
-151.633	-200.000	0.253	-0.001
-150.618	262.138	-0.215	-0.365
-149.604	153.950	0.092	-0.124
-148.589	-130.474	0.577	0.077
-147.574	-168.823	0.086	0.003
-146.560	-67.702	-0.224	-0.086
-145.545	-87.237	-0.199	0.059
-144.531	800.000	0.019	0.060
-143.516	800.000	-0.021	0.073
-142.502	800.000	-0.070	0.254
-141.487	-134.077	0.112	0.014
-140.472	-48.972	0.306	-0.144
-139.458	-200.000	-0.046	-0.238
-138.443	800.000	0.050	-0.194
-137.429	-200.000	0.057	-0.274
-136.414	-49.012	0.099	-0.046
-135.399	-200.000	0.023	0.203
-134.385	-81.607	0.082	-0.026
-133.370	-179.114	0.376	-0.008
-132.356	-94.037	-0.162	-0.044
-131.341	65.696	-0.188	0.186
-130.326	98.552	0.103	0.116
-129.312	18.221	-0.196	0.153
-128.297	681.584	0.109	0.279
-127.283	374.794	-0.064	-0.128
-126.268	-151.562	0.055	0.004
-125.253	-123.288	-0.318	-0.050
-124.239	171.765	-0.288	0.405
-123.224	45.314	-0.300	-0.271
-122.210	135.574	-0.026	-0.033
-121.195	167.491	-0.185	-0.258
