DTS Sentinel unit serial number:	SN413079Multiplexer serial number:	ORYXHardware model number:	OX4-SRSoftware version number:	ORYX F/W v4.00 Oryx Data Collector v3.7.2.0data status	okinstallation	princeton_trtdifferential loss correction	single-endedforward channel	channel 2reverse channel	N/Adate	2019/09/18time	01:07:35forward acquisition time	60.00reverse acquisition time	0.00gamma	496.2192k internal	0.2350k external	0.2350temperature offset calibration	0.9984default loss term (dB/km)	0.3790temperature slope calibration	1.0000multiplexer offset coefficient	1.0000multiplexer slope coefficient	1.0000fibre end	0.00T internal ref (°C)	23.25T ext. ref 1 (°C)	0.17T ext. ref 2 (°C)	16.91length (m)	temperature (°C)	Stokes	anti-Stokes-747.200	-124.050	0.159	0.025
-746.185	-86.326	-0.186	0.057
-745.171	342.723	0.091	0.179
-744.156	800.000	-0.206	0.698
-743.142	-143.657	0.178	-0.017
-742.127	-138.740	-0.120	0.013
-741.112	-200.000	0.044	-0.382
-740.098	-38.031	-0.164	-0.087
-739.083	202.587	-0.085	0.131
-738.069	-88.030	-0.190	0.057
-737.054	-121.170	0.129	-0.022
-736.039	97.317	-0.202	-0.231
-735.025	-74.461	0.264	0.095
-734.010	-85.210	-0.221	-0.069
-732.996	16.485	-0.221	-0.174
-731.981	-34.299	-0.286	-0.156
-730.966	-54.475	0.160	-0.073
-729.952	-183.679	0.115	-0.002
-728.937	-200.000	0.011	0.206
-727.923	-139.407	0.128	-0.014
-726.908	21.110	-0.219	0.178
-725.894	163.949	-0.184	0.259
-724.879	-120.377	-0.161	-0.027
-723.864	72.392	-0.153	-0.159
-722.850	-25.004	-0.400	-0.237
-721.835	-138.022	-0.451	0.050
-720.821	108.631	-0.150	0.179
-719.806	-24.661	0.410	-0.243
-718.791	36.514	-0.103	0.091
-717.777	5.412	0.083	0.061
-716.762	-40.793	-0.043	0.022
-715.748	21.476	0.232	0.188
-714.733	163.760	-0.215	0.301
-713.718	22.957	-0.156	-0.127
-712.704	-70.524	-0.280	-0.106
-711.689	800.000	0.061	-0.248
-710.675	48.841	-0.132	0.123
-709.660	-74.469	0.132	0.047
-708.645	28.026	0.296	-0.249
-707.631	248.814	0.024	0.040
-706.616	52.183	0.024	-0.022
-705.602	236.890	-0.091	0.150
-704.587	132.263	-0.178	-0.228
-703.572	57.212	-0.114	-0.111
-702.558	133.339	0.146	-0.188
-701.543	-200.000	0.047	-0.297
-700.529	-113.725	-0.492	0.096
-699.514	14.708	0.208	0.162
-698.499	-12.242	-0.140	0.091
-697.485	358.015	0.221	0.440
-696.470	-25.154	0.191	0.113
-695.456	-200.000	0.039	0.230
-694.441	9.392	-0.254	-0.192
-693.426	-77.650	0.195	-0.067
-692.412	332.191	-0.153	0.294
-691.397	-200.000	-0.058	-0.375
-690.383	119.440	-0.072	0.089
-689.368	395.330	-0.054	0.112
-688.354	303.467	-0.079	0.146
-687.339	-170.132	-0.156	-0.006
-686.324	-200.000	0.007	0.051
-685.310	-142.400	-0.104	0.010
-684.295	-112.365	0.144	0.029
-683.281	800.000	-0.063	0.177
-682.266	-200.000	0.002	-0.461
-681.251	-13.937	0.160	-0.103
-680.237	-2.830	-0.447	0.311
-679.222	162.456	0.244	0.341
-678.208	193.917	-0.088	-0.133
-677.193	142.553	0.122	-0.161
-676.178	-79.992	0.362	-0.121
-675.164	55.218	-0.115	-0.111
-674.149	83.565	0.322	-0.349
-673.135	800.000	-0.043	0.131
-672.120	-200.000	0.026	-0.122
-671.105	-54.796	0.036	0.016
-670.091	-38.486	0.202	0.106
-669.076	-200.000	-0.047	-0.282
-668.062	-130.048	0.139	-0.019
-667.047	-200.000	0.004	-0.199
-666.032	800.000	0.040	-0.166
-665.018	800.000	-0.016	-0.062
-664.003	-117.079	0.215	0.039
-662.989	-33.803	-0.235	-0.129
-661.974	-78.268	0.293	-0.100
-660.959	14.223	0.220	0.171
-659.945	286.082	-0.113	-0.203
-658.930	192.188	0.086	0.129
-657.916	-70.805	-0.144	0.054
-656.901	-113.063	0.192	0.038
-655.886	20.071	-0.083	0.066
-654.872	-21.575	-0.277	0.168
-653.857	-55.435	0.492	0.219
-652.843	44.744	0.068	-0.062
-651.828	-51.836	0.350	0.162
-650.814	773.527	-0.117	-0.318
-649.799	29.377	0.235	0.198
-648.784	-77.209	-0.116	-0.040
-647.770	564.881	-0.114	-0.275
-646.755	-62.705	-0.216	0.089
-645.741	87.800	0.089	-0.098
-644.726	-93.893	-0.108	-0.030
-643.711	-200.000	-0.042	-0.296
-642.697	-80.921	0.222	-0.073
-641.682	800.000	-0.074	-0.215
-640.668	163.601	0.067	0.093
-639.653	-200.000	0.023	0.369
-638.638	41.662	-0.240	0.216
-637.624	144.662	0.115	0.152
-636.609	800.000	0.066	-0.248
-635.595	518.727	0.147	0.342
-634.580	800.000	0.048	0.203
-633.565	36.073	0.129	0.113
-632.551	141.053	-0.177	0.233
-631.536	196.213	-0.152	0.231
-630.522	-60.143	-0.238	0.101
-629.507	-123.650	0.387	-0.061
-628.492	-130.859	0.373	0.050
-627.478	-135.671	0.345	0.041
-626.463	76.038	-0.147	-0.155
-625.449	-200.000	0.012	0.133
-624.434	-200.000	0.022	-0.138
-623.419	-26.601	-0.156	0.091
-622.405	-18.349	-0.227	0.141
-621.390	133.808	-0.094	-0.121
-620.376	32.389	0.106	-0.091
-619.361	19.084	-0.275	-0.219
-618.346	770.127	-0.040	-0.107
-617.332	-18.036	0.109	-0.068
-616.317	494.149	-0.017	-0.040
-615.303	-200.000	-0.004	-0.091
-614.288	-200.000	-0.021	-0.260
-613.273	800.000	0.094	-0.296
-612.259	800.000	-0.137	-0.406
-611.244	-186.992	0.158	0.002
-610.230	-125.203	0.038	-0.006
-609.215	133.292	-0.139	-0.179
-608.201	-185.666	0.230	-0.003
-607.186	-31.598	0.209	-0.116
-606.171	-85.149	0.319	-0.099
-605.157	-200.000	0.061	-0.643
-604.142	733.400	-0.017	0.046
-603.128	74.995	-0.200	0.209
-602.113	118.441	0.205	-0.252
-601.098	-125.783	0.193	0.029
-600.084	-200.000	0.030	0.144
-599.069	800.000	0.025	-0.075
-598.055	223.437	-0.052	-0.083
-597.040	-95.840	-0.334	0.088
-596.025	662.961	0.062	-0.160
-595.011	-200.000	0.004	0.349
-593.996	128.044	-0.222	-0.280
-592.982	668.503	0.030	-0.077
-591.967	-200.000	0.017	0.095
-590.952	72.026	0.159	-0.164
-589.938	-64.492	0.032	-0.013
-588.923	1.348	-0.105	0.075
-587.909	310.974	-0.048	0.090
-586.894	-125.440	-0.148	0.022
-585.879	800.000	-0.119	0.337
-584.865	64.459	-0.076	0.076
-583.850	30.260	0.291	-0.247
-582.836	242.458	0.158	0.262
-581.821	72.215	0.038	-0.039
-580.806	-54.721	-0.277	-0.124
-579.792	-165.231	-0.176	0.008
-578.777	85.290	-0.051	-0.056
-577.763	-50.430	-0.199	-0.093
-576.748	800.000	-0.042	0.164
-575.733	34.016	-0.178	0.154
-574.719	244.945	-0.110	0.184
-573.704	800.000	0.038	-0.150
-572.690	52.548	-0.273	-0.258
-571.675	-48.682	-0.125	-0.060
-570.661	16.305	0.222	0.174
-569.646	-200.000	0.008	-0.330
-568.631	-200.000	-0.031	-0.242
-567.617	-200.000	-0.044	-0.203
-566.602	-60.172	-0.049	-0.021
-565.588	92.896	-0.150	-0.168
-564.573	-200.000	0.001	-0.159
-563.558	-4.128	-0.178	-0.122
-562.544	-76.567	0.228	0.079
-561.529	800.000	-0.056	-0.188
-560.515	-59.067	-0.064	-0.027
-559.500	-90.966	0.132	-0.038
-558.485	146.827	0.132	0.176
-557.471	461.118	0.104	0.231
-556.456	-200.000	-0.005	-0.160
-555.442	800.000	0.071	0.210
-554.427	211.409	-0.330	0.514
-553.412	800.000	-0.014	0.049
-552.398	212.617	-0.234	-0.366
-551.383	-200.000	0.027	-0.281
-550.369	225.057	0.172	0.275
-549.354	205.217	0.083	0.128
-548.339	-98.979	-0.185	-0.047
-547.325	-18.117	0.175	-0.109
-546.310	88.674	-0.063	0.069
-545.296	595.334	-0.125	-0.306
-544.281	-200.000	0.002	-0.249
-543.266	228.918	-0.053	-0.085
-542.252	-38.773	0.301	0.157
-541.237	107.534	0.178	-0.210
-540.223	37.125	0.222	-0.194
-539.208	800.000	0.071	-0.285
-538.193	-71.391	0.297	-0.110
-537.179	-200.000	-0.055	0.304
-536.164	104.321	0.199	-0.232
-535.150	-17.635	0.105	-0.065
-534.135	-200.000	0.002	-0.161
-533.121	257.403	0.169	0.287
-532.106	56.007	-0.145	-0.140
-531.091	148.989	0.149	-0.199
-530.077	-156.728	0.050	0.003
-529.062	7.689	-0.187	0.139
-528.048	800.000	0.040	-0.113
-527.033	324.100	0.104	-0.197
-526.018	171.918	-0.159	0.226
-525.004	-200.000	0.075	0.354
-523.989	10.430	0.123	0.093
-522.975	800.000	0.068	-0.192
-521.960	278.207	-0.167	-0.294
-520.945	-200.000	0.061	0.279
-519.931	40.300	-0.156	0.139
-518.916	187.518	0.176	-0.260
-517.902	11.739	-0.024	0.018
-516.887	193.247	-0.101	0.151
-515.872	-181.845	0.058	-0.001
-514.858	800.000	-0.041	0.141
-513.843	200.595	-0.219	0.333
-512.829	-53.850	-0.130	-0.059
-511.814	-78.710	-0.511	0.173
-510.799	39.777	-0.251	-0.223
-509.785	-4.452	0.241	-0.165
-508.770	250.473	0.107	0.179
-507.756	-50.621	0.086	0.040
-506.741	22.205	-0.143	-0.115
-505.726	-83.914	0.221	0.069
-504.712	-157.271	-0.230	0.014
-503.697	328.317	-0.122	-0.232
-502.683	61.559	-0.213	-0.210
-501.668	-161.204	0.189	0.010
-500.653	800.000	0.064	-0.271
-499.639	15.763	-0.233	0.181
-498.624	-89.912	0.169	0.049
-497.610	800.000	0.039	-0.138
-496.595	78.405	-0.235	-0.248
-495.581	25.106	-0.207	0.170
-494.566	-1.043	0.163	0.114
-493.551	-33.529	-0.204	-0.112
-492.537	-7.861	-0.302	0.202
-491.522	-40.068	0.213	0.110
-490.508	800.000	0.038	0.140
-489.493	18.641	0.285	-0.225
-488.478	103.424	0.037	-0.043
-487.464	41.204	-0.286	0.255
-486.449	4.315	-0.212	0.154
-485.435	24.995	0.172	0.141
-484.420	-21.805	-0.228	0.137
-483.405	435.268	-0.062	-0.132
-482.391	366.332	-0.034	0.068
-481.376	-131.639	-0.312	0.040
-480.362	-200.000	0.015	-0.257
-479.347	-103.688	0.179	-0.041
-478.332	-32.279	0.064	0.035
-477.318	-80.653	0.088	-0.029
-476.303	56.270	-0.303	-0.291
-475.289	422.872	-0.146	-0.310
-474.274	-200.000	0.038	0.168
-473.259	212.079	0.147	0.229
-472.245	202.086	-0.076	0.115
-471.230	-15.251	0.239	-0.151
-470.216	-107.629	0.140	0.030
-469.201	-127.188	0.266	-0.038
-468.186	-122.146	-0.252	-0.041
-467.172	34.095	0.088	0.076
-466.157	57.375	0.133	0.128
-465.143	130.091	-0.161	-0.203
-464.128	666.455	-0.115	-0.295
-463.113	-20.534	0.135	0.082
-462.099	46.717	-0.090	-0.082
-461.084	18.777	-0.301	0.238
-460.070	117.715	-0.210	0.255
-459.055	-97.814	-0.111	0.028
-458.040	-34.515	-0.183	0.099
-457.026	202.729	-0.150	0.229
-456.011	268.811	0.084	-0.145
-454.997	-102.203	0.155	-0.037
-453.982	-159.079	0.120	-0.007
-452.968	-57.676	-0.215	-0.093
-451.953	109.612	0.193	-0.228
-450.938	-40.724	-0.160	0.082
-449.924	143.812	-0.121	0.159
-448.909	-66.429	-0.342	-0.134
-447.895	-13.816	-0.116	0.074
-446.880	800.000	0.032	-0.094
-445.865	-103.863	0.072	0.017
-444.851	-69.132	0.267	0.101
-443.836	-148.450	0.355	-0.029
-442.822	800.000	0.047	-0.134
-441.807	-25.774	0.343	-0.200
-440.792	115.980	0.135	0.163
-439.778	-61.352	-0.304	-0.126
-438.763	-200.000	-0.003	-0.214
-437.749	281.952	0.022	0.038
-436.734	178.804	0.081	0.117
-435.719	-153.851	0.169	0.011
-434.705	32.756	-0.109	-0.093
-433.690	6.834	0.089	0.065
-432.676	391.047	0.093	-0.191
-431.661	-200.000	0.052	-0.525
-430.646	129.864	0.107	-0.135
-429.632	452.671	-0.108	0.235
-428.617	-41.474	0.279	0.141
-427.603	-200.000	0.028	-0.370
-426.588	34.804	0.071	-0.061
-425.573	226.599	0.109	0.175
-424.559	147.157	-0.103	-0.137
-423.544	-200.000	-0.013	0.229
-422.530	-131.002	0.228	-0.030
-421.515	50.515	0.328	0.306
-420.500	-35.396	-0.404	-0.217
-419.486	-3.367	0.167	-0.115
-418.471	800.000	-0.114	0.313
-417.457	-59.450	0.187	0.079
-416.442	800.000	-0.013	0.043
-415.428	-84.720	0.177	0.055
-414.413	576.654	0.055	0.131
-413.398	-92.572	-0.135	0.037
-412.384	-103.494	0.252	0.058
-411.369	-130.709	0.196	0.026
-410.355	800.000	0.030	0.118
-409.340	-35.490	0.117	-0.063
-408.325	-72.633	-0.100	0.036
-407.311	223.547	-0.171	0.272
-406.296	50.066	-0.180	0.168
-405.282	-120.853	-0.207	0.034
-404.267	15.257	0.021	-0.016
-403.252	29.177	-0.032	0.027
-402.238	-110.821	-0.257	-0.052
-401.223	-109.329	-0.576	0.120
-400.209	-119.548	-0.236	0.040
-399.194	-19.645	0.276	0.169
-398.179	18.202	0.142	-0.112
-397.165	785.426	0.073	0.196
-396.150	-171.423	-0.291	-0.010
-395.136	60.025	0.050	0.049
-394.121	23.999	-0.185	0.151
-393.106	410.986	0.144	-0.301
-392.092	-165.269	0.351	0.015
-391.077	-163.849	-0.172	-0.008
-390.063	800.000	0.115	-0.418
-389.048	525.183	0.175	-0.406
-388.033	-53.397	-0.361	-0.163
-387.019	12.274	0.078	-0.059
-386.004	176.379	-0.221	0.316
-384.990	118.827	-0.141	-0.172
-383.975	-42.603	0.056	0.028
-382.960	96.161	-0.104	-0.117
-381.946	-200.000	-0.008	0.058
-380.931	147.778	-0.213	-0.283
-379.917	-9.274	0.165	0.109
-378.902	86.416	0.345	-0.375
-377.888	512.072	0.182	0.418
-376.873	-200.000	0.002	0.095
-375.858	105.273	-0.203	0.236
-374.844	-163.454	-0.067	-0.003
-373.829	-200.000	-0.007	0.128
-372.815	-90.988	0.592	-0.167
-371.800	168.377	-0.207	0.290
-370.785	800.000	0.073	0.277
-369.771	171.481	-0.139	0.196
-368.756	32.410	-0.217	-0.185
-367.742	27.645	0.105	-0.087
-366.727	559.302	-0.075	-0.179
-365.712	-168.630	0.176	-0.007
-364.698	97.447	-0.162	-0.184
-363.683	-200.000	0.062	0.376
-362.669	128.301	0.066	-0.083
-361.654	321.854	0.123	-0.230
-360.639	-200.000	-0.022	0.133
-359.625	-22.673	0.288	-0.171
-358.610	-59.864	0.313	0.132
-357.596	800.000	0.026	-0.094
-356.581	-67.271	-0.246	0.095
-355.566	152.205	-0.159	-0.213
-354.552	68.637	-0.145	0.146
-353.537	-200.000	0.035	0.221
-352.523	800.000	0.013	-0.054
-351.508	800.000	0.121	-0.350
-350.493	800.000	-0.024	-0.097
-349.479	-146.053	0.235	-0.020
-348.464	800.000	0.059	-0.240
-347.450	800.000	0.094	0.258
-346.435	57.841	-0.247	0.237
-345.420	134.602	0.156	-0.200
-344.406	-86.192	0.180	0.055
-343.391	110.841	-0.217	-0.256
-342.377	162.709	-0.081	0.112
-341.362	-98.885	-0.424	-0.106
-340.348	-166.580	0.222	-0.009
-339.333	-130.043	-0.307	0.041
-338.318	323.474	-0.100	0.187
-337.304	494.020	0.136	-0.307
-336.289	-120.370	-0.143	0.024
-335.275	-112.294	-0.363	-0.071
-334.260	-84.583	-0.079	-0.025
-333.245	5.964	0.239	-0.174
-332.231	800.000	-0.039	0.135
-331.216	190.390	-0.139	-0.205
-330.202	-16.530	0.227	0.141
-329.187	800.000	0.030	0.102
-328.172	-36.465	-0.073	-0.038
-327.158	220.429	0.108	-0.170
-326.143	312.466	0.061	-0.113
-325.129	-151.862	0.226	-0.016
-324.114	204.917	0.160	-0.244
-323.099	-35.207	0.239	-0.128
-322.085	-171.709	-0.137	0.004
-321.070	-17.600	-0.044	-0.027
-320.056	269.850	-0.239	0.413
-319.041	29.300	-0.196	-0.164
-318.026	-43.103	0.233	-0.116
-317.012	226.324	-0.122	0.195
-315.997	212.430	-0.077	0.119
-314.983	-200.000	0.051	-0.264
-313.968	-161.233	0.248	-0.013
-312.953	-39.299	0.157	-0.081
-311.939	-6.470	0.263	-0.176
-310.924	8.019	-0.210	0.154
-309.910	800.000	-0.075	0.314
-308.895	73.684	-0.125	0.128
-307.880	-40.063	0.152	0.078
-306.866	800.000	0.103	-0.351
-305.851	-200.000	0.044	-0.227
-304.837	-36.788	0.167	-0.088
-303.822	800.000	0.113	-0.310
-302.807	45.553	0.182	0.165
-301.793	220.250	0.126	0.198
-300.778	-51.951	-0.234	-0.107
-299.764	398.339	0.183	-0.375
-298.749	-94.989	-0.266	-0.071
-297.735	-60.136	0.071	-0.030
-296.720	-85.390	-0.222	0.068
-295.705	-200.000	0.019	0.245
-294.691	-200.000	0.052	0.317
-293.676	-200.000	0.008	0.303
-292.662	556.291	-0.057	0.134
-291.647	41.761	-0.025	-0.023
-290.632	-158.490	-0.088	0.005
-289.618	27.112	0.225	0.185
-288.603	-200.000	0.004	-0.041
-287.589	-19.325	-0.137	-0.083
-286.574	-200.000	-0.029	0.255
-285.559	-170.305	0.180	0.006
-284.545	-116.778	-0.155	-0.028
-283.530	-139.863	-0.104	0.011
-282.516	784.660	0.099	-0.265
-281.501	116.565	-0.149	0.179
-280.486	-200.000	-0.017	0.226
-279.472	10.376	0.249	0.186
-278.457	77.149	0.178	-0.185
-277.443	323.430	0.111	-0.208
-276.428	249.756	0.074	0.122
-275.413	233.379	-0.102	0.165
-274.399	-200.000	0.005	0.183
-273.384	156.508	0.033	0.044
-272.370	56.150	-0.262	0.249
-271.355	-200.000	-0.002	0.178
-270.340	340.224	-0.062	0.119
-269.326	337.880	0.077	0.147
-268.311	67.219	0.425	-0.424
-267.297	-200.000	0.067	-0.358
-266.282	49.526	-0.186	-0.172
-265.267	-200.000	0.045	0.388
-264.253	-107.645	0.245	-0.052
-263.238	65.190	-0.239	0.237
-262.224	120.719	0.190	-0.231
-261.209	800.000	0.064	-0.181
-260.195	270.242	-0.175	-0.302
-259.180	410.607	-0.115	-0.238
-258.165	-127.421	0.165	-0.024
-257.151	15.945	-0.454	0.350
-256.136	-31.927	0.192	0.106
-255.122	800.000	0.117	0.341
-254.107	800.000	0.075	0.215
-253.092	7.587	0.102	0.075
-252.078	800.000	0.107	0.381
-251.063	197.943	-0.048	-0.072
-250.049	36.177	-0.145	0.125
-249.034	-200.000	0.081	0.581
-248.019	193.415	-0.063	0.093
-247.005	228.322	-0.080	-0.128
-245.990	21.838	-0.096	-0.077
-244.976	-23.180	0.215	-0.127
-243.961	113.903	0.236	-0.281
-242.946	-200.000	-0.035	-0.250
-241.932	285.241	0.164	0.290
-240.917	130.779	-0.132	0.166
-239.903	113.326	-0.189	0.224
-238.888	68.290	-0.140	0.140
-237.873	351.610	-0.101	-0.196
-236.859	-173.339	0.386	-0.011
-235.844	218.156	0.127	0.199
-234.830	137.252	0.061	0.078
-233.815	16.590	0.365	-0.283
-232.800	88.566	0.124	-0.135
-231.786	800.000	-0.054	-0.159
-230.771	-18.816	-0.046	-0.028
-229.757	15.825	-0.178	0.137
-228.742	147.303	0.201	0.265
-227.727	-200.000	-0.001	0.177
-226.713	-200.000	-0.042	0.239
-225.698	-169.537	0.211	0.008
-224.684	-87.117	-0.130	0.039
-223.669	25.954	-0.208	-0.170
-222.655	-200.000	0.007	-0.179
-221.640	-138.659	0.044	0.005
-220.625	367.045	0.144	0.284
-219.611	758.243	-0.028	0.073
-218.596	385.892	0.154	0.312
-217.582	-29.984	-0.214	0.119
-216.567	-200.000	0.055	-0.309
-215.552	800.000	0.032	-0.103
-214.538	130.917	-0.312	0.392
-213.523	-200.000	-0.001	0.022
-212.509	800.000	0.039	0.124
-211.494	-4.425	-0.041	-0.028
-210.479	138.985	-0.097	0.125
-209.465	303.633	-0.132	0.239
-208.450	-11.287	-0.107	0.069
-207.436	-200.000	0.045	0.380
-206.421	800.000	0.053	-0.186
-205.406	-200.000	-0.007	-0.329
-204.392	43.630	-0.236	-0.211
-203.377	-0.426	0.065	0.045
-202.363	208.118	0.255	-0.389
-201.348	47.192	0.023	-0.021
-200.333	-184.838	-0.250	-0.004
-199.319	-106.016	0.086	0.019
-198.304	-160.220	-0.272	0.014
-197.290	106.279	0.097	0.113
-196.275	-137.488	-0.155	-0.017
-195.260	407.659	-0.021	0.043
-194.246	-172.620	0.218	-0.007
-193.231	-170.080	-0.173	-0.006
-192.217	-35.167	-0.548	-0.292
-191.202	-162.233	-0.254	0.012
-190.187	-55.034	0.124	0.055
-189.173	-49.745	-0.292	-0.135
-188.158	-118.326	-0.241	0.042
-187.144	800.000	0.003	-0.011
-186.129	49.073	0.088	0.081
-185.114	15.345	-0.017	0.013
-184.100	-200.000	0.035	0.283
-183.085	20.200	-0.239	0.188
-182.071	21.525	0.178	0.141
-181.056	-160.614	0.087	0.005
-180.042	119.627	0.171	0.207
-179.027	-139.733	-0.111	-0.011
-178.012	192.453	-0.265	-0.391
-176.998	-39.930	0.146	0.074
-175.983	-200.000	-0.003	0.164
-174.969	-200.000	-0.024	-0.128
-173.954	-200.000	-0.006	0.246
-172.939	-7.769	0.245	0.162
-171.925	-65.166	-0.039	-0.015
-170.910	-68.289	-0.073	-0.028
-169.896	53.492	-0.054	-0.050
-168.881	486.569	0.111	0.247
-167.866	-189.800	0.037	0.000
-166.852	136.188	-0.214	0.272
-165.837	-200.000	0.057	0.281
-164.823	-5.167	0.099	0.066
-163.808	-200.000	-0.003	0.042
-162.793	163.398	0.291	-0.399
-161.779	800.000	0.008	0.031
-160.764	-21.017	-0.024	0.014
-159.750	440.345	0.014	-0.030
-158.735	-134.861	0.345	0.041
-157.720	313.992	0.159	0.291
-156.706	-89.572	-0.122	-0.035
-155.691	-61.627	0.172	0.071
-154.677	69.463	-0.089	-0.089
-153.662	-148.026	-0.137	0.011
-152.647	-105.484	0.456	-0.101
-151.633	504.801	-0.213	-0.481
-150.618	266.194	-0.045	0.077
-149.604	169.503	0.120	-0.167
-148.589	75.606	0.094	-0.097
-147.574	145.001	-0.071	0.093
-146.560	-200.000	-0.026	-0.116
-145.545	-200.000	0.023	0.147
-144.531	119.197	0.323	0.389
-143.516	-8.206	-0.317	0.208
-142.502	54.916	0.202	0.190
-141.487	52.338	0.065	-0.061
-140.472	323.996	0.081	0.151
-139.458	745.123	0.047	0.123
-138.443	-10.776	0.208	0.134
-137.429	-10.713	-0.166	0.107
-136.414	205.628	0.140	-0.212
-135.399	-151.969	0.104	0.007
-134.385	-102.977	0.319	-0.074
-133.370	595.636	0.101	-0.244
-132.356	178.879	0.202	0.288
-131.341	227.453	-0.142	0.226
-130.326	-113.576	-0.106	0.020
-129.312	513.487	-0.117	0.265
-128.297	30.109	0.224	0.186
-127.283	-17.964	-0.290	0.177
-126.268	-101.410	-0.143	0.034
-125.253	226.168	-0.033	0.052
-124.239	-200.000	0.233	-0.000
-123.224	130.774	-0.249	0.312
-122.210	156.932	0.063	-0.084
-121.195	-200.000	-0.036	0.179
-120.180	800.000	0.123	-0.434
-119.166	108.400	-0.220	-0.256
