DTS Sentinel unit serial number:	SN413079Multiplexer serial number:	ORYXHardware model number:	OX4-SRSoftware version number:	ORYX F/W v4.00 Oryx Data Collector v3.7.2.0data status	okinstallation	princeton_trtdifferential loss correction	single-endedforward channel	channel 2reverse channel	N/Adate	2019/09/17time	18:59:35forward acquisition time	60.00reverse acquisition time	0.00gamma	496.2192k internal	0.2302k external	0.2302temperature offset calibration	0.9989default loss term (dB/km)	0.3790temperature slope calibration	1.0000multiplexer offset coefficient	1.0000multiplexer slope coefficient	1.0000fibre end	0.00T internal ref (°C)	40.75T ext. ref 1 (°C)	0.28T ext. ref 2 (°C)	29.20length (m)	temperature (°C)	Stokes	anti-Stokes-747.200	800.000	-0.083	0.292
-746.185	41.512	-0.357	0.330
-745.171	758.628	-0.034	-0.095
-744.156	-166.344	0.112	0.005
-743.142	443.856	-0.037	-0.083
-742.127	-80.665	0.281	-0.095
-741.112	-70.984	-0.466	0.179
-740.098	366.352	0.066	0.135
-739.083	102.462	-0.114	-0.136
-738.069	283.855	0.235	0.431
-737.054	-41.409	0.462	0.242
-736.039	216.450	0.225	0.365
-735.025	-104.412	0.545	0.128
-734.010	4.098	-0.050	0.037
-732.996	427.262	-0.026	-0.056
-731.981	-200.000	-0.000	0.345
-730.966	376.019	0.093	-0.194
-729.952	800.000	0.076	0.253
-728.937	-89.485	-0.217	-0.065
-727.923	-6.819	0.195	-0.135
-726.908	-200.000	-0.010	0.061
-725.894	-51.754	0.369	-0.175
-724.879	800.000	-0.038	-0.129
-723.864	-33.742	-0.205	0.115
-722.850	-200.000	0.043	-0.250
-721.835	-88.419	-0.095	0.029
-720.821	606.586	0.095	-0.242
-719.806	-82.540	-0.445	-0.147
-718.791	19.810	0.280	-0.229
-717.777	59.857	0.285	-0.287
-716.762	-103.416	-0.075	-0.018
-715.748	-30.733	-0.258	-0.148
-714.733	285.381	-0.047	-0.085
-713.718	49.072	0.013	-0.012
-712.704	12.063	-0.152	-0.119
-711.689	100.728	-0.208	0.247
-710.675	365.458	0.097	0.198
-709.660	-23.733	-0.185	-0.113
-708.645	595.608	0.110	0.278
-707.631	800.000	-0.091	-0.333
-706.616	98.189	0.187	-0.219
-705.602	372.155	-0.072	0.149
-704.587	544.616	-0.073	-0.177
-703.572	-28.135	0.378	-0.222
-702.558	800.000	0.042	0.138
-701.543	-200.000	0.013	-0.167
-700.529	-105.036	-0.046	0.011
-699.514	-104.718	-0.125	0.029
-698.499	150.315	-0.082	-0.114
-697.485	-200.000	-0.091	-0.436
-696.470	-200.000	0.045	-0.255
-695.456	-200.000	0.047	0.217
-694.441	-200.000	0.009	0.129
-693.426	-169.520	-0.327	-0.012
-692.412	-31.409	-0.349	0.199
-691.397	-47.465	0.162	-0.080
-690.383	-46.955	-0.187	0.093
-689.368	578.599	-0.041	-0.101
-688.354	-200.000	-0.023	-0.109
-687.339	-200.000	-0.046	-0.393
-686.324	102.134	-0.268	-0.318
-685.310	0.949	-0.227	-0.165
-684.295	603.329	0.068	-0.173
-683.281	-75.631	-0.120	0.043
-682.266	289.959	-0.142	0.261
-681.251	-163.129	-0.180	0.009
-680.237	-200.000	0.001	-0.044
-679.222	-150.643	-0.160	-0.012
-678.208	-3.365	0.242	-0.171
-677.193	49.149	0.216	0.206
-676.178	-58.188	0.101	-0.045
-675.164	-114.696	-0.149	-0.029
-674.149	-131.386	-0.071	-0.010
-673.135	-6.483	0.154	0.107
-672.120	-157.491	-0.060	0.004
-671.105	454.113	0.064	-0.143
-670.091	-127.341	0.136	-0.020
-669.076	-34.433	-0.155	0.086
-668.062	-200.000	-0.041	0.212
-667.047	55.640	0.150	-0.147
-666.032	-200.000	-0.058	-0.336
-665.018	-200.000	0.040	-0.412
-664.003	-27.168	0.149	-0.088
-662.989	523.932	0.085	-0.202
-661.974	-58.151	0.299	-0.133
-660.959	17.535	0.047	0.038
-659.945	-116.880	-0.278	-0.052
-658.930	237.147	-0.202	0.340
-657.916	131.962	-0.124	0.162
-656.901	-59.558	-0.224	-0.098
-655.886	98.712	-0.103	-0.121
-654.872	89.141	0.186	-0.210
-653.857	-200.000	-0.030	-0.242
-652.843	-99.987	0.165	-0.042
-651.828	-117.736	-0.224	-0.041
-650.814	-200.000	0.040	-0.345
-649.799	362.239	-0.058	0.119
-648.784	-17.146	-0.285	-0.182
-647.770	-135.909	0.080	-0.010
-646.755	0.043	0.174	-0.126
-645.741	800.000	0.106	-0.319
-644.726	166.144	0.192	0.276
-643.711	800.000	-0.069	0.244
-642.697	-147.602	0.085	-0.007
-641.682	302.012	-0.137	-0.258
-640.668	-114.123	-0.330	0.065
-639.653	53.937	-0.245	-0.239
-638.638	-69.866	-0.122	0.047
-637.624	322.134	-0.100	-0.194
-636.609	-10.581	-0.491	0.330
-635.595	800.000	-0.066	0.238
-634.580	40.239	-0.117	-0.107
-633.565	800.000	-0.091	-0.288
-632.551	-89.413	0.286	-0.085
-631.536	205.348	0.101	0.158
-630.522	-200.000	0.024	-0.201
-629.507	-200.000	0.009	0.114
-628.492	-13.240	-0.202	0.133
-627.478	662.513	-0.070	-0.184
-626.463	96.561	0.073	-0.085
-625.449	-200.000	-0.017	0.087
-624.434	-144.866	-0.428	-0.040
-623.419	-124.187	0.525	0.083
-622.405	271.177	0.081	-0.145
-621.390	-100.759	-0.365	0.091
-620.376	252.512	0.104	-0.180
-619.361	-170.244	0.256	0.009
-618.346	-99.882	-0.200	0.051
-617.332	5.058	0.151	-0.113
-616.317	-67.988	-0.182	-0.072
-615.303	236.929	-0.134	-0.225
-614.288	-104.771	-0.102	-0.024
-613.273	4.730	0.046	0.034
-612.259	-66.783	0.303	-0.121
-611.244	-42.615	0.210	-0.109
-610.230	-38.145	-0.328	-0.176
-609.215	-200.000	0.054	-0.288
-608.201	-86.905	-0.139	0.043
-607.186	-139.926	-0.155	0.017
-606.171	-200.000	-0.028	-0.220
-605.157	-117.189	0.178	0.033
-604.142	-200.000	0.032	-0.307
-603.128	-150.159	-0.546	-0.043
-602.113	-70.049	0.038	0.015
-601.098	38.501	-0.201	-0.181
-600.084	24.601	0.197	0.165
-599.069	-124.453	0.238	-0.038
-598.055	129.633	0.116	-0.150
-597.040	-121.114	0.298	-0.051
-596.025	-76.749	0.205	0.073
-595.011	800.000	-0.112	0.428
-593.996	-200.000	0.026	-0.247
-592.982	-200.000	0.081	0.369
-591.967	294.360	0.027	0.049
-590.952	-67.526	-0.275	0.109
-589.938	90.735	0.121	-0.137
-588.923	-19.510	0.189	-0.118
-587.909	784.663	-0.011	0.030
-586.894	318.449	-0.116	-0.223
-585.879	800.000	0.071	-0.260
-584.865	-41.676	-0.243	0.126
-583.850	-127.527	-0.302	0.044
-582.836	-93.911	-0.243	-0.068
-581.821	-78.760	0.371	0.128
-580.806	800.000	0.043	0.184
-579.792	800.000	-0.040	0.112
-578.777	273.084	-0.065	-0.117
-577.763	226.810	0.079	0.129
-576.748	-96.894	0.290	0.077
-575.733	-200.000	-0.033	-0.340
-574.719	767.139	-0.028	0.076
-573.704	-1.672	0.165	0.118
-572.690	-200.000	0.015	-0.130
-571.675	-151.108	0.184	0.014
-570.661	-121.492	-0.058	-0.010
-569.646	-35.350	-0.232	-0.128
-568.631	65.746	-0.054	0.055
-567.617	-20.861	-0.082	-0.051
-566.602	178.898	0.153	-0.226
-565.588	-200.000	0.015	0.266
-564.573	271.635	-0.139	0.248
-563.558	49.225	0.189	0.180
-562.544	171.626	0.106	0.153
-561.529	-200.000	0.006	0.031
-560.515	-200.000	-0.057	-0.267
-559.500	20.600	-0.085	0.070
-558.485	800.000	0.052	0.219
-557.471	-200.000	-0.033	0.148
-556.456	-200.000	0.010	0.059
-555.442	800.000	-0.105	-0.399
-554.427	-200.000	-0.010	-0.068
-553.412	-5.741	-0.030	-0.021
-552.398	-69.612	-0.214	0.083
-551.383	-200.000	-0.012	0.113
-550.369	201.855	0.102	0.159
-549.354	-103.301	0.174	0.041
-548.339	162.221	0.142	-0.202
-547.325	-89.990	0.196	-0.058
-546.310	122.180	0.145	0.183
-545.296	-27.838	0.021	0.012
-544.281	-200.000	-0.002	-0.099
-543.266	-69.496	0.249	-0.096
-542.252	20.415	-0.101	0.083
-541.237	16.560	-0.073	0.059
-540.223	31.199	0.080	-0.069
-539.208	-18.177	-0.071	-0.045
-538.193	74.899	0.121	-0.129
-537.179	150.397	-0.146	-0.200
-536.164	-68.541	0.236	-0.092
-535.150	-47.689	0.047	-0.023
-534.135	185.010	0.155	-0.233
-533.121	-173.036	-0.306	0.010
-532.106	106.014	0.067	0.080
-531.091	-200.000	0.027	0.135
-530.077	-105.573	-0.177	0.041
-529.062	-187.744	-0.116	0.002
-528.048	-200.000	-0.011	0.177
-527.033	-126.340	-0.250	-0.038
-526.018	-131.260	-0.119	-0.016
-525.004	28.052	0.288	-0.245
-523.989	-200.000	0.019	0.214
-522.975	14.480	-0.117	-0.092
-521.960	-200.000	0.030	0.278
-520.945	563.800	0.051	0.125
-519.931	-74.559	-0.341	-0.124
-518.916	643.390	0.008	0.021
-517.902	800.000	-0.142	-0.560
-516.887	-126.476	-0.279	-0.042
-515.872	-200.000	-0.011	-0.210
-514.858	-126.443	-0.239	-0.036
-513.843	31.775	-0.087	0.076
-512.829	-200.000	0.033	0.193
-511.814	347.280	-0.078	-0.154
-510.799	800.000	0.099	0.351
-509.785	374.375	0.094	0.194
-508.770	-200.000	-0.008	0.057
-507.756	-200.000	-0.037	-0.383
-506.741	800.000	-0.040	0.128
-505.726	-13.755	0.284	-0.185
-504.712	82.397	-0.132	-0.145
-503.697	7.272	0.138	-0.104
-502.683	-74.771	-0.469	0.170
-501.668	69.671	-0.364	-0.378
-500.653	800.000	-0.052	-0.166
-499.639	174.256	0.088	0.129
-498.624	-200.000	-0.023	-0.220
-497.610	110.461	0.244	0.296
-496.595	0.662	-0.161	0.117
-495.581	-168.959	-0.384	0.015
-494.566	-119.270	-0.367	0.065
-493.551	-71.629	0.243	0.092
-492.537	-200.000	0.002	0.151
-491.522	10.138	-0.085	-0.065
-490.508	133.844	-0.125	-0.163
-489.493	457.912	0.077	0.173
-488.478	226.030	0.164	-0.269
-487.464	-86.926	-0.029	0.009
-486.449	800.000	-0.028	0.119
-485.435	24.140	-0.252	-0.210
-484.420	-39.138	-0.107	-0.057
-483.405	62.431	0.073	-0.074
-482.391	-46.950	-0.013	-0.006
-481.376	217.303	-0.046	-0.073
-480.362	-200.000	-0.003	-0.108
-479.347	90.145	-0.226	-0.255
-478.332	103.286	0.127	0.151
-477.318	-58.159	-0.343	0.151
-476.303	-86.897	0.156	-0.048
-475.289	-200.000	0.038	-0.201
-474.274	346.756	0.118	-0.235
-473.259	-76.735	0.152	-0.054
-472.245	151.174	-0.144	-0.198
-471.230	145.779	-0.211	-0.285
-470.216	-122.673	0.257	-0.042
-469.201	-16.069	0.257	0.165
-468.186	195.571	-0.235	0.360
-467.172	-84.767	-0.140	-0.044
-466.157	-127.840	-0.320	-0.047
-465.143	-117.089	0.180	0.033
-464.128	-119.974	-0.215	0.037
-463.113	-54.363	0.232	-0.106
-462.099	304.668	-0.091	-0.171
-461.084	-100.374	0.101	0.025
-460.070	26.335	0.219	0.185
-459.055	-200.000	-0.011	0.112
-458.040	104.298	0.119	0.141
-457.026	55.784	-0.172	0.168
-456.011	-56.615	0.158	-0.071
-454.997	23.757	0.094	-0.078
-453.982	86.609	-0.176	-0.195
-452.968	-10.373	-0.089	-0.059
-451.953	-117.365	-0.112	0.021
-450.938	595.954	0.062	0.154
-449.924	140.800	0.145	0.193
-448.909	800.000	-0.045	0.168
-447.895	-200.000	0.004	0.179
-446.880	560.190	0.067	0.162
-445.865	-2.971	-0.083	-0.059
-444.851	-25.726	0.161	0.096
-443.836	-18.394	-0.057	0.036
-442.822	-40.891	-0.183	0.096
-441.807	800.000	0.067	-0.275
-440.792	-200.000	-0.022	-0.215
-439.778	22.260	0.209	-0.172
-438.763	-127.798	-0.303	-0.044
-437.749	-200.000	0.003	0.074
-436.734	800.000	-0.043	-0.180
-435.719	800.000	-0.009	0.029
-434.705	96.397	-0.065	-0.075
-433.690	-5.112	-0.138	-0.096
-432.676	-38.289	0.191	-0.102
-431.661	-40.399	-0.210	-0.110
-430.646	267.342	0.054	-0.095
-429.632	24.767	0.098	0.081
-428.617	-15.006	-0.227	0.147
-427.603	-200.000	-0.001	0.095
-426.588	-200.000	0.009	-0.090
-425.573	244.003	-0.077	0.130
-424.559	-32.269	-0.087	0.049
-423.544	30.219	0.164	0.141
-422.530	78.436	0.111	0.120
-421.515	-79.476	-0.018	-0.006
-420.500	33.520	-0.294	-0.257
-419.486	-200.000	0.021	-0.439
-418.471	800.000	0.085	0.245
-417.457	-3.117	0.205	0.144
-416.442	-6.761	-0.048	0.033
-415.428	-102.858	0.103	-0.025
-414.413	119.743	-0.146	-0.182
-413.398	63.958	-0.203	0.206
-412.384	68.481	-0.187	-0.193
-411.369	-200.000	0.001	0.157
-410.355	23.760	0.163	0.135
-409.340	74.216	-0.074	-0.078
-408.325	-142.883	-0.254	-0.025
-407.311	35.824	0.152	0.134
-406.296	4.202	0.152	-0.112
-405.282	-126.115	-0.477	-0.072
-404.267	-142.285	0.303	0.030
-403.252	-124.719	0.172	-0.027
-402.238	800.000	-0.045	-0.168
-401.223	-146.337	-0.227	-0.020
-400.209	-98.554	-0.012	-0.003
-399.194	800.000	0.042	0.120
-398.179	-41.131	-0.102	0.053
-397.165	-64.193	-0.349	-0.143
-396.150	-117.248	0.465	-0.085
-395.136	-123.583	-0.090	-0.014
-394.121	-39.227	0.088	0.046
-393.106	626.779	-0.092	-0.233
-392.092	-200.000	0.019	0.123
-391.077	437.969	0.150	0.329
-390.063	32.270	-0.134	-0.116
-389.048	-91.271	-0.057	0.016
-388.033	-179.173	0.422	0.009
-387.019	86.243	-0.230	0.254
-386.004	-200.000	0.013	0.289
-384.990	800.000	0.076	-0.300
-383.975	767.859	-0.121	-0.330
-382.960	493.852	0.097	-0.224
-381.946	52.779	0.193	-0.185
-380.931	800.000	-0.028	0.085
-379.917	110.389	-0.089	0.107
-378.902	-72.293	0.173	-0.064
-377.888	-200.000	0.002	0.235
-376.873	487.563	-0.107	-0.245
-375.858	32.451	0.158	-0.137
-374.844	-14.733	0.177	0.114
-373.829	800.000	-0.038	0.163
-372.815	82.117	-0.148	0.162
-371.800	-140.756	0.174	0.018
-370.785	565.702	0.110	-0.268
-369.771	-81.738	0.113	0.037
-368.756	-98.971	-0.170	-0.043
-367.742	63.146	-0.127	0.128
-366.727	7.517	-0.114	-0.085
-365.712	106.606	-0.276	-0.329
-364.698	-164.492	-0.074	-0.003
-363.683	-10.393	-0.219	-0.146
-362.669	13.541	0.062	0.048
-361.654	239.491	0.025	-0.041
-360.639	100.083	-0.120	-0.139
-359.625	33.453	-0.259	-0.226
-358.610	-200.000	-0.015	0.095
-357.596	-200.000	-0.001	0.027
-356.581	-115.260	-0.143	0.027
-355.566	-30.992	0.163	-0.093
-354.552	97.871	0.191	-0.221
-353.537	247.558	0.039	-0.067
-352.523	-34.611	0.169	0.093
-351.508	16.352	0.015	0.012
-350.493	-200.000	-0.014	-0.287
-349.479	388.612	-0.095	0.198
-348.464	29.120	-0.294	0.250
-347.450	-200.000	-0.002	-0.159
-346.435	12.562	0.075	0.058
-345.420	67.266	-0.106	-0.108
-344.406	194.825	-0.096	0.146
-343.391	-48.999	-0.220	0.106
-342.377	45.583	0.126	0.117
-341.362	-200.000	0.052	0.261
-340.348	-52.645	0.206	-0.095
-339.333	-56.652	0.153	-0.068
-338.318	-140.644	-0.358	0.037
-337.304	24.103	-0.182	0.150
-336.289	232.192	0.108	0.177
-335.275	800.000	-0.045	0.139
-334.260	-36.709	-0.084	0.045
-333.245	800.000	-0.078	0.224
-332.231	47.308	0.095	0.089
-331.216	-11.712	0.282	0.186
-330.202	5.262	0.086	-0.063
-329.187	-63.039	0.078	0.032
-328.172	800.000	0.108	0.338
-327.158	-161.400	-0.233	-0.012
-326.143	800.000	0.039	-0.123
-325.129	371.877	0.160	-0.326
-324.114	-83.911	0.158	-0.051
-323.099	154.354	-0.118	0.163
-322.085	-146.379	0.382	-0.033
-321.070	-79.233	0.144	-0.049
-320.056	-200.000	-0.011	0.340
-319.041	-110.308	-0.209	-0.044
-318.026	-200.000	0.003	-0.094
-317.012	-120.299	-0.302	-0.052
-315.997	-50.953	0.184	0.087
-314.983	115.663	-0.111	0.136
-313.968	-178.914	0.364	-0.008
-312.953	223.811	-0.093	0.151
-311.939	-63.366	0.244	0.101
-310.924	55.456	-0.105	-0.102
-309.910	64.545	-0.071	0.072
-308.895	-30.707	0.377	0.214
-307.880	186.074	0.035	0.053
-306.866	-200.000	-0.020	-0.309
-305.851	316.076	0.115	0.218
-304.837	385.127	0.163	0.336
-303.822	800.000	-0.062	0.185
-302.807	269.762	-0.023	-0.041
-301.793	602.092	0.058	-0.145
-300.778	-64.220	-0.217	-0.088
-299.764	24.643	0.176	0.146
-298.749	-200.000	-0.015	0.263
-297.735	-63.509	0.072	0.030
-296.720	113.556	-0.113	0.138
-295.705	530.147	0.062	0.146
-294.691	-82.929	0.131	0.042
-293.676	-123.155	-0.291	0.047
-292.662	7.942	-0.233	-0.175
-291.647	-54.887	0.267	0.121
-290.632	800.000	0.016	-0.045
-289.618	388.222	-0.088	0.182
-288.603	800.000	0.040	-0.132
-287.589	-1.233	0.245	0.173
-286.574	-54.582	0.200	0.091
-285.559	-106.508	0.276	-0.062
-284.545	58.806	0.240	-0.236
-283.530	800.000	0.052	-0.189
-282.516	-200.000	-0.009	-0.195
-281.501	85.499	0.324	-0.357
-280.486	-200.000	-0.031	0.238
-279.472	0.928	0.204	0.147
-278.457	-112.478	0.093	0.019
-277.443	-200.000	-0.033	-0.247
-276.428	164.326	0.142	-0.201
-275.413	-15.196	0.089	-0.057
-274.399	-146.279	-0.117	-0.010
-273.384	-195.708	-0.137	-0.001
-272.370	-200.000	-0.011	0.083
-271.355	634.183	-0.071	-0.181
-270.340	-177.504	0.074	-0.002
-269.326	106.161	-0.107	0.126
-268.311	-24.439	-0.179	-0.107
-267.297	40.794	-0.247	-0.223
-266.282	-200.000	0.013	0.230
-265.267	-200.000	0.027	-0.122
-264.253	-48.819	-0.106	0.051
-263.238	-200.000	-0.029	0.223
-262.224	40.821	0.159	0.143
-261.209	-200.000	-0.007	-0.151
-260.195	366.445	-0.076	0.153
-259.180	10.143	-0.131	-0.100
-258.165	-145.929	-0.196	0.017
-257.151	-47.933	0.116	-0.056
-256.136	50.831	0.114	0.108
-255.122	39.029	0.100	-0.090
-254.107	-145.676	0.167	0.015
-253.092	15.528	-0.186	0.146
-252.078	-200.000	0.049	-0.245
-251.063	-162.369	-0.080	-0.004
-250.049	82.964	0.187	-0.203
-249.034	-171.005	0.313	-0.011
-248.019	224.837	-0.082	0.132
-247.005	239.478	-0.122	-0.204
-245.990	53.591	-0.168	-0.161
-244.976	-105.188	0.116	0.026
-243.961	-138.988	0.234	0.025
-242.946	117.891	0.129	0.159
-241.932	800.000	-0.014	-0.061
-240.917	2.693	-0.318	-0.230
-239.903	344.130	0.163	0.319
-238.888	258.436	0.096	0.166
-237.873	-18.963	-0.118	-0.073
-236.859	6.109	-0.082	-0.061
-235.844	-178.567	0.136	-0.003
-234.830	-200.000	0.003	-0.096
-233.815	800.000	0.013	-0.052
-232.800	-44.230	0.220	-0.110
-231.786	109.268	-0.169	0.202
-230.771	-15.750	-0.150	-0.096
-229.757	654.230	0.114	0.293
-228.742	360.376	0.144	-0.287
-227.727	800.000	0.052	0.159
-226.713	242.595	-0.272	0.455
-225.698	800.000	0.040	0.123
-224.684	-200.000	0.027	-0.119
-223.669	-200.000	0.013	0.293
-222.655	332.351	0.082	0.158
-221.640	98.020	-0.215	-0.247
-220.625	-138.928	0.388	-0.042
-219.611	479.261	0.062	-0.140
-218.596	-200.000	-0.069	0.410
-217.582	117.560	-0.189	0.232
-216.567	-98.818	0.302	-0.077
-215.552	-200.000	-0.016	-0.224
-214.538	-95.054	0.281	0.076
-213.523	95.484	0.099	0.113
-212.509	800.000	-0.028	-0.078
-211.494	800.000	-0.022	0.080
-210.479	76.467	-0.056	0.059
-209.465	-138.741	0.279	-0.030
-208.450	-12.037	0.031	-0.020
-207.436	132.945	-0.066	-0.085
-206.421	1.141	0.379	-0.272
-205.406	189.334	-0.083	-0.125
-204.392	-200.000	0.009	0.222
-203.377	-103.009	0.070	0.017
-202.363	-200.000	0.018	-0.110
-201.348	-77.571	-0.255	-0.088
-200.333	92.636	-0.098	-0.110
-199.319	-200.000	0.045	0.266
-198.304	-158.444	0.132	0.008
-197.290	-117.990	0.441	0.079
-196.275	-187.533	-0.242	-0.003
-195.260	25.007	0.158	-0.130
-194.246	4.612	0.143	0.104
-193.231	14.232	-0.227	0.177
-192.217	12.700	-0.147	0.113
-191.202	800.000	-0.063	0.208
-190.187	800.000	-0.014	-0.058
-189.173	-200.000	-0.012	0.344
-188.158	-138.151	0.208	0.023
-187.144	64.036	0.136	-0.136
-186.129	-200.000	0.002	0.257
-185.114	206.193	-0.092	-0.142
-184.100	-73.540	0.063	-0.023
-183.085	800.000	0.116	0.435
-182.071	98.986	0.130	0.150
-181.056	110.470	0.252	0.303
-180.042	-200.000	-0.011	0.147
-179.027	800.000	0.043	-0.123
-178.012	800.000	-0.048	0.138
-176.998	-93.433	0.134	-0.037
-175.983	682.883	-0.031	0.080
-174.969	31.992	0.112	-0.096
-173.954	54.887	-0.160	-0.154
-172.939	106.571	0.213	-0.252
-171.925	-132.611	-0.190	0.024
-170.910	22.306	-0.177	0.144
-169.896	-200.000	0.027	0.160
-168.881	-71.484	-0.381	-0.142
-167.866	-200.000	0.020	-0.325
-166.852	30.509	0.074	-0.063
-165.837	-57.039	-0.072	-0.032
-164.823	261.587	-0.073	0.126
-163.808	232.755	0.067	0.110
-162.793	71.067	0.161	0.166
-161.779	-200.000	-0.058	0.284
-160.764	-200.000	0.002	-0.194
-159.750	-70.044	0.157	-0.059
-158.735	-149.529	0.217	-0.017
-157.720	-200.000	-0.009	-0.205
-156.706	-200.000	0.056	0.258
-155.691	-200.000	0.003	0.337
-154.677	-78.041	0.205	-0.070
-153.662	-42.462	0.017	-0.009
-152.647	-128.436	-0.185	-0.026
-151.633	-20.605	0.047	0.029
-150.618	60.135	0.165	-0.162
-149.604	-200.000	-0.007	-0.096
-148.589	364.983	0.197	-0.394
-147.574	-103.440	0.152	0.036
-146.560	-135.470	-0.319	0.038
-145.545	132.703	0.049	0.064
-144.531	279.626	-0.115	0.204
-143.516	-71.298	0.148	0.055
-142.502	76.971	-0.090	-0.095
-141.487	66.688	0.177	-0.179
-140.472	-165.772	-0.288	-0.012
-139.458	-128.628	-0.102	0.014
-138.443	-168.460	0.241	0.009
-137.429	-99.528	-0.337	-0.084
-136.414	-200.000	-0.014	-0.123
-135.399	144.144	-0.159	0.211
-134.385	800.000	-0.065	-0.201
-133.370	-10.155	0.101	-0.067
-132.356	800.000	0.035	-0.119
-131.341	-146.601	0.047	0.004
-130.326	-34.605	0.145	-0.079
-129.312	-200.000	-0.006	0.153
-128.297	80.649	0.135	-0.145
-127.283	18.949	-0.179	0.143
-126.268	197.825	-0.336	0.510
-125.253	249.193	-0.066	0.111
-124.239	360.659	-0.138	0.275
-123.224	78.807	0.224	0.238
-122.210	-78.789	0.176	-0.060
-121.195	26.696	0.081	-0.067
