DTS Sentinel unit serial number:	SN413079Multiplexer serial number:	ORYXHardware model number:	OX4-SRSoftware version number:	ORYX F/W v4.00 Oryx Data Collector v3.7.2.0data status	okinstallation	princeton_trtdifferential loss correction	single-endedforward channel	channel 2reverse channel	N/Adate	2019/09/12time	22:59:34forward acquisition time	60.00reverse acquisition time	0.00gamma	496.2192k internal	0.2331k external	0.2331temperature offset calibration	1.0178default loss term (dB/km)	0.3790temperature slope calibration	1.0000multiplexer offset coefficient	1.0000multiplexer slope coefficient	1.0000fibre end	0.00T internal ref (°C)	29.31T ext. ref 1 (°C)	3.74T ext. ref 2 (°C)	23.97length (m)	temperature (°C)	Stokes	anti-Stokes-747.200	-200.000	0.001	-0.120
-746.185	-200.000	0.062	0.312
-745.171	48.338	-0.226	0.213
-744.156	297.790	0.169	0.312
-743.142	-56.611	-0.166	0.074
-742.127	-200.000	-0.032	0.268
-741.112	-200.000	-0.086	-0.383
-740.098	94.885	0.183	0.209
-739.083	800.000	0.060	-0.190
-738.069	-200.000	0.002	-0.233
-737.054	-200.000	0.021	-0.190
-736.039	129.408	-0.195	-0.251
-735.025	-175.264	0.428	0.012
-734.010	-200.000	-0.026	0.305
-732.996	-200.000	0.076	-0.336
-731.981	-121.184	0.197	0.033
-730.966	-137.721	-0.242	0.027
-729.952	-109.737	-0.195	0.041
-728.937	-5.440	-0.143	-0.099
-727.923	417.789	-0.040	0.087
-726.908	411.013	0.081	0.173
-725.894	-200.000	0.009	0.085
-724.879	-165.690	-0.293	0.013
-723.864	29.577	0.061	-0.052
-722.850	-58.655	-0.140	0.061
-721.835	250.760	0.031	0.053
-720.821	-37.340	0.234	-0.126
-719.806	413.695	0.131	0.281
-718.791	-160.345	-0.028	0.001
-717.777	-157.189	0.138	0.008
-716.762	-168.058	-0.144	0.006
-715.748	92.960	0.100	0.113
-714.733	12.732	-0.032	0.025
-713.718	-111.245	-0.194	0.040
-712.704	200.252	0.176	-0.272
-711.689	278.413	0.158	-0.283
-710.675	35.532	0.149	0.132
-709.660	250.419	-0.050	-0.085
-708.645	-113.610	-0.196	0.038
-707.631	-200.000	0.026	0.131
-706.616	-176.036	0.173	-0.005
-705.602	157.580	-0.212	0.295
-704.587	-37.102	-0.318	-0.171
-703.572	-160.804	0.291	-0.015
-702.558	-133.841	0.389	0.049
-701.543	109.492	0.139	0.168
-700.529	-200.000	0.013	-0.130
-699.514	19.739	0.075	0.061
-698.499	-200.000	0.001	0.350
-697.485	-55.874	-0.220	0.099
-696.470	-53.622	-0.149	0.069
-695.456	621.791	0.093	-0.235
-694.441	763.764	0.049	-0.133
-693.426	343.873	0.143	0.282
-692.412	-38.208	0.164	0.087
-691.397	544.845	-0.146	0.350
-690.383	189.139	-0.046	-0.069
-689.368	-143.902	-0.038	-0.004
-688.354	87.345	-0.056	0.062
-687.339	324.863	-0.027	0.051
-686.324	-162.310	0.137	0.007
-685.310	90.985	0.204	-0.229
-684.295	-122.429	0.135	0.022
-683.281	800.000	-0.055	-0.218
-682.266	-200.000	-0.007	-0.494
-681.251	-52.262	-0.288	0.134
-680.237	327.606	0.195	0.376
-679.222	-200.000	-0.027	-0.261
-678.208	-200.000	0.015	0.099
-677.193	-200.000	0.056	0.390
-676.178	263.989	0.149	0.260
-675.164	-200.000	-0.028	-0.171
-674.149	193.080	-0.103	-0.157
-673.135	800.000	-0.073	-0.261
-672.120	-111.878	-0.184	0.037
-671.105	-64.601	-0.204	0.083
-670.091	800.000	-0.029	0.093
-669.076	-200.000	-0.003	-0.088
-668.062	94.787	-0.166	-0.190
-667.047	-112.553	0.099	0.020
-666.032	-72.963	0.099	0.036
-665.018	254.102	0.095	0.163
-664.003	-153.348	-0.442	0.031
-662.989	63.332	0.100	-0.101
-661.974	-90.511	-0.382	-0.111
-660.959	-9.739	0.261	0.175
-659.945	197.954	0.179	-0.274
-658.930	70.218	-0.294	0.304
-657.916	-81.263	0.220	0.073
-656.901	-11.454	-0.417	0.275
-655.886	800.000	-0.053	-0.168
-654.872	63.906	-0.122	-0.123
-653.857	24.087	0.154	-0.128
-652.843	255.592	0.059	0.102
-651.828	347.010	-0.146	0.289
-650.814	-127.170	-0.374	0.055
-649.799	-200.000	-0.059	-0.294
-648.784	429.786	0.074	0.160
-647.770	-200.000	-0.023	0.130
-646.755	-38.784	0.063	-0.033
-645.741	85.383	0.040	-0.044
-644.726	208.344	0.167	0.262
-643.711	-56.097	0.182	-0.081
-642.697	800.000	-0.162	-0.457
-641.682	-154.394	-0.304	0.020
-640.668	0.518	0.094	-0.067
-639.653	800.000	0.090	-0.277
-638.638	419.864	0.151	-0.324
-637.624	-155.941	0.072	0.005
-636.609	-46.619	-0.126	-0.062
-635.595	-66.655	0.335	0.133
-634.580	91.344	-0.032	-0.035
-633.565	800.000	0.087	-0.352
-632.551	-140.154	0.368	-0.039
-631.536	-2.471	-0.286	0.201
-630.522	-200.000	-0.037	0.320
-629.507	41.316	-0.100	0.091
-628.492	230.789	-0.074	0.121
-627.478	-53.465	0.126	-0.058
-626.463	800.000	-0.072	-0.295
-625.449	16.473	0.091	0.072
-624.434	800.000	0.043	0.127
-623.419	-200.000	0.024	0.163
-622.405	74.018	-0.357	-0.376
-621.390	800.000	-0.033	-0.098
-620.376	-144.068	-0.216	0.020
-619.361	35.624	-0.259	0.228
-618.346	-106.603	0.275	0.061
-617.332	-2.174	0.054	-0.038
-616.317	-59.186	-0.317	-0.137
-615.303	-125.416	-0.190	-0.029
-614.288	259.600	-0.210	-0.363
-613.273	178.644	-0.068	-0.100
-612.259	800.000	-0.039	0.160
-611.244	-1.039	-0.289	-0.205
-610.230	-18.351	-0.452	-0.283
-609.215	-200.000	-0.011	-0.126
-608.201	-7.817	0.121	0.082
-607.186	503.477	-0.039	-0.089
-606.171	-138.093	0.218	0.024
-605.157	-86.130	0.370	0.114
-604.142	511.186	0.094	-0.219
-603.128	25.712	-0.176	0.147
-602.113	27.323	-0.223	0.187
-601.098	123.171	0.137	0.171
-600.084	-200.000	-0.031	-0.195
-599.069	-156.166	0.068	0.004
-598.055	115.952	-0.108	0.132
-597.040	-200.000	-0.005	0.178
-596.025	800.000	-0.097	0.316
-595.011	-97.334	-0.151	-0.039
-593.996	-27.587	0.054	0.031
-592.982	800.000	0.165	-0.489
-591.967	182.986	0.069	-0.101
-590.952	472.170	-0.158	-0.356
-589.938	800.000	0.016	-0.067
-588.923	17.213	-0.076	0.060
-587.909	0.014	-0.123	0.087
-586.894	39.627	-0.133	0.119
-585.879	-200.000	-0.006	-0.211
-584.865	85.568	-0.206	-0.227
-583.850	149.289	0.123	-0.166
-582.836	492.336	0.022	-0.051
-581.821	-175.808	0.295	-0.008
-580.806	-200.000	0.097	-0.466
-579.792	-16.459	-0.086	0.055
-578.777	800.000	0.022	-0.092
-577.763	-75.745	-0.135	-0.048
-576.748	-56.591	0.111	0.049
-575.733	-73.986	-0.090	0.033
-574.719	-130.487	0.271	0.037
-573.704	49.394	0.066	0.062
-572.690	106.612	-0.250	0.297
-571.675	-54.453	-0.235	-0.106
-570.661	182.740	-0.083	0.122
-569.646	81.992	0.091	-0.099
-568.631	293.032	-0.079	-0.143
-567.617	61.655	0.086	-0.085
-566.602	-8.681	-0.015	0.010
-565.588	-69.933	-0.216	-0.082
-564.573	800.000	-0.155	-0.477
-563.558	180.248	-0.205	-0.300
-562.544	38.667	0.094	-0.084
-561.529	-59.923	-0.357	-0.153
-560.515	186.015	-0.058	0.086
-559.500	651.972	0.058	-0.147
-558.485	99.785	0.076	0.088
-557.471	411.278	0.098	-0.209
-556.456	-20.581	0.138	0.085
-555.442	140.694	-0.059	0.078
-554.427	-200.000	-0.019	0.123
-553.412	-200.000	-0.011	-0.203
-552.398	-170.140	0.159	0.006
-551.383	-60.404	0.238	-0.101
-550.369	17.191	-0.075	0.059
-549.354	272.098	-0.104	-0.184
-548.339	-200.000	0.009	-0.171
-547.325	-92.834	0.303	-0.085
-546.310	-65.656	-0.369	-0.148
-545.296	153.514	-0.079	0.108
-544.281	-138.609	-0.275	-0.030
-543.266	112.073	0.061	0.074
-542.252	-54.212	-0.184	-0.084
-541.237	30.196	0.321	0.273
-540.223	-200.000	0.040	0.232
-539.208	-82.547	-0.199	0.064
-538.193	436.303	0.127	-0.275
-537.179	29.255	0.056	0.048
-536.164	84.790	-0.039	-0.043
-535.150	-0.609	0.133	-0.094
-534.135	-195.828	-0.250	0.002
-533.121	188.245	-0.220	-0.329
-532.106	-30.233	0.120	0.068
-531.091	800.000	-0.008	0.024
-530.077	800.000	-0.114	-0.364
-529.062	281.598	0.151	-0.270
-528.048	-49.138	-0.206	-0.098
-527.033	-25.501	-0.151	0.089
-526.018	-200.000	0.006	0.089
-525.004	296.404	-0.041	0.076
-523.989	-48.395	0.094	0.045
-522.975	153.958	-0.032	0.044
-521.960	-77.643	-0.240	-0.083
-520.945	-200.000	-0.024	-0.183
-519.931	-52.272	0.257	-0.119
-518.916	-200.000	-0.005	0.055
-517.902	-35.641	-0.220	-0.119
-516.887	-200.000	0.022	-0.367
-515.872	12.742	-0.071	0.054
-514.858	-65.454	-0.164	-0.066
-513.843	49.902	-0.166	0.156
-512.829	-32.407	-0.122	0.068
-511.814	-153.423	-0.210	-0.015
-510.799	-31.094	0.207	0.116
-509.785	-25.755	0.078	-0.046
-508.770	37.086	0.042	0.037
-507.756	-130.375	0.124	-0.017
-506.741	13.304	0.127	0.098
-505.726	419.678	0.137	0.292
-504.712	55.870	0.223	-0.216
-503.697	57.179	0.278	-0.270
-502.683	-153.278	-0.279	0.019
-501.668	800.000	-0.007	-0.027
-500.653	-41.132	0.068	-0.035
-499.639	-200.000	-0.048	0.221
-498.624	-200.000	-0.002	0.055
-497.610	-200.000	-0.016	0.078
-496.595	-54.919	-0.238	0.107
-495.581	420.812	-0.044	-0.093
-494.566	-200.000	0.026	0.181
-493.551	-200.000	-0.010	0.288
-492.537	52.962	-0.300	-0.286
-491.522	-200.000	-0.002	0.190
-490.508	-200.000	0.014	0.091
-489.493	-24.185	0.235	0.140
-488.478	-200.000	0.003	-0.252
-487.464	515.551	0.142	0.331
-486.449	-200.000	-0.031	-0.158
-485.435	37.584	0.200	-0.177
-484.420	800.000	-0.056	-0.235
-483.405	102.541	0.088	-0.103
-482.391	-38.428	0.423	0.223
-481.376	800.000	-0.037	0.109
-480.362	-200.000	0.071	-0.456
-479.347	14.300	0.213	-0.165
-478.332	-10.777	-0.140	-0.092
-477.318	92.368	0.115	0.130
-476.303	-200.000	-0.046	0.266
-475.289	112.131	-0.147	0.177
-474.274	-78.661	-0.040	0.013
-473.259	-76.975	0.441	-0.153
-472.245	800.000	-0.036	-0.115
-471.230	-42.495	-0.205	0.104
-470.216	800.000	0.029	0.107
-469.201	-200.000	-0.015	-0.070
-468.186	416.291	0.064	0.135
-467.172	402.965	0.100	0.209
-466.157	360.976	-0.131	-0.262
-465.143	475.745	0.137	-0.307
-464.128	-57.378	0.130	-0.057
-463.113	-101.963	-0.157	0.038
-462.099	39.828	0.058	-0.052
-461.084	-57.553	-0.181	0.079
-460.070	16.261	-0.052	0.041
-459.055	81.643	-0.125	-0.134
-458.040	89.950	0.192	-0.214
-457.026	-13.239	-0.094	-0.061
-456.011	-200.000	-0.036	-0.301
-454.997	373.476	-0.187	-0.378
-453.982	-200.000	-0.039	-0.223
-452.968	215.378	-0.080	0.126
-451.953	-22.546	-0.076	0.045
-450.938	800.000	-0.066	-0.241
-449.924	28.606	0.149	-0.126
-448.909	-149.957	0.113	0.009
-447.895	-200.000	0.028	-0.174
-446.880	-9.736	-0.417	-0.276
-445.865	206.642	-0.067	-0.104
-444.851	165.869	-0.047	-0.066
-443.836	800.000	0.064	-0.209
-442.822	-200.000	0.006	0.081
-441.807	133.730	0.013	0.017
-440.792	-110.897	0.228	0.047
-439.778	800.000	0.048	0.134
-438.763	800.000	-0.052	-0.191
-437.749	378.194	0.009	0.018
-436.734	21.585	-0.151	-0.122
-435.719	-103.147	0.176	-0.041
-434.705	-60.862	-0.188	0.079
-433.690	203.407	0.052	-0.080
-432.676	2.141	-0.229	-0.165
-431.661	55.710	0.186	-0.179
-430.646	44.946	0.166	-0.152
-429.632	53.143	-0.206	0.196
-428.617	-200.000	-0.069	0.314
-427.603	-112.674	0.169	-0.033
-426.588	-63.710	-0.330	0.135
-425.573	655.292	-0.062	-0.158
-424.559	-200.000	-0.002	-0.172
-423.544	144.552	0.151	0.201
-422.530	-118.783	0.056	0.010
-421.515	-95.161	-0.156	-0.042
-420.500	800.000	0.051	-0.219
-419.486	12.245	-0.296	0.227
-418.471	-91.647	0.313	0.088
-417.457	-56.146	-0.170	-0.075
-416.442	-200.000	0.039	-0.250
-415.428	800.000	0.037	0.133
-414.413	800.000	-0.060	0.196
-413.398	322.950	-0.065	0.123
-412.384	-43.740	-0.108	0.054
-411.369	84.877	-0.263	0.287
-410.355	-39.997	0.302	0.156
-409.340	800.000	0.095	-0.280
-408.325	-24.292	0.152	0.090
-407.311	-129.557	0.202	0.028
-406.296	294.777	-0.073	0.133
-405.282	66.932	0.116	-0.117
-404.267	36.776	-0.100	-0.088
-403.252	-200.000	0.011	0.065
-402.238	-63.096	0.082	0.034
-401.223	-40.206	-0.284	0.147
-400.209	-200.000	0.054	0.360
-399.194	800.000	0.070	0.216
-398.179	28.361	0.281	-0.236
-397.165	102.092	-0.256	0.297
-396.150	209.612	-0.216	0.336
-395.136	8.786	-0.082	-0.061
-394.121	-66.149	0.180	-0.071
-393.106	800.000	-0.066	0.216
-392.092	-114.719	-0.113	0.022
-391.077	293.913	-0.118	-0.214
-390.063	-135.468	-0.162	0.019
-389.048	-90.352	0.279	0.080
-388.033	-50.171	-0.153	-0.072
-387.019	-23.090	-0.147	0.088
-386.004	-85.533	-0.240	0.074
-384.990	-161.513	0.175	-0.009
-383.975	-8.581	-0.120	0.080
-382.960	90.151	-0.118	0.131
-381.946	-147.334	0.113	-0.009
-380.931	-150.541	0.060	0.005
-379.917	-76.744	-0.239	-0.083
-378.902	800.000	0.059	-0.175
-377.888	-164.598	-0.063	0.003
-376.873	296.203	-0.199	0.363
-375.858	-200.000	0.036	0.341
-374.844	531.686	-0.080	0.188
-373.829	-140.739	-0.181	0.019
-372.815	-200.000	-0.002	-0.216
-371.800	-110.706	-0.119	-0.024
-370.785	161.742	0.129	0.179
-369.771	84.098	0.257	-0.278
-368.756	-116.888	-0.213	-0.039
-367.742	800.000	-0.023	0.100
-366.727	-148.089	0.030	0.002
-365.712	800.000	0.087	0.245
-364.698	184.722	0.119	-0.175
-363.683	-163.384	0.298	0.014
-362.669	339.165	0.117	0.226
-361.654	169.132	0.172	0.244
-360.639	77.196	0.328	-0.346
-359.625	-127.129	0.034	0.005
-358.610	77.515	0.083	-0.088
-357.596	-184.089	0.189	0.003
-356.581	-200.000	-0.044	-0.322
-355.566	800.000	-0.023	0.074
-354.552	-30.455	0.268	0.150
-353.537	-32.981	0.403	-0.222
-352.523	273.425	0.079	0.138
-351.508	-200.000	0.056	0.287
-350.493	242.517	-0.046	-0.076
-349.479	800.000	-0.140	0.454
-348.464	800.000	0.027	0.078
-347.450	-17.371	0.309	-0.192
-346.435	-117.015	0.277	-0.050
-345.420	-200.000	-0.076	0.349
-344.406	453.642	-0.076	0.166
-343.391	1.731	-0.294	0.210
-342.377	-200.000	-0.041	0.403
-341.362	447.219	-0.062	0.135
-340.348	37.234	-0.017	0.015
-339.333	552.811	-0.100	-0.239
-338.318	800.000	0.112	0.307
-337.304	132.872	0.101	0.129
-336.289	137.082	0.360	-0.466
-335.275	-200.000	-0.029	0.252
-334.260	800.000	-0.031	0.119
-333.245	-200.000	-0.019	-0.369
-332.231	11.497	0.160	-0.121
-331.216	-200.000	-0.023	0.457
-330.202	-156.384	-0.035	0.002
-329.187	-119.790	0.259	0.044
-328.172	-200.000	-0.053	-0.242
-327.158	339.093	0.032	-0.061
-326.143	-24.981	0.053	0.031
-325.129	800.000	0.059	0.244
-324.114	-68.555	0.173	-0.066
-323.099	-113.462	0.224	-0.043
-322.085	-33.066	0.202	-0.111
-321.070	-200.000	0.041	-0.246
-320.056	-200.000	0.028	0.156
-319.041	-114.932	0.249	0.047
-318.026	-200.000	-0.002	-0.244
-317.012	24.062	0.125	0.102
-315.997	-85.872	0.223	0.068
-314.983	-136.273	-0.250	0.029
-313.968	167.899	0.155	0.218
-312.953	-115.835	-0.172	0.032
-311.939	-200.000	0.002	-0.010
-310.924	22.564	-0.302	0.245
-309.910	187.731	0.157	-0.231
-308.895	-148.700	-0.059	-0.005
-307.880	-92.113	-0.036	-0.010
-306.866	143.175	-0.109	-0.144
-305.851	800.000	-0.025	-0.096
-304.837	-146.045	-0.229	0.020
-303.822	214.417	-0.146	-0.229
-302.807	-176.469	0.290	0.007
-301.793	70.573	0.221	0.227
-300.778	-193.975	0.270	-0.002
-299.764	32.056	-0.230	0.196
-298.749	-189.372	-0.243	0.003
-297.735	-49.840	-0.269	-0.126
-296.720	211.935	0.147	0.229
-295.705	49.574	-0.224	0.208
-294.691	-200.000	-0.032	-0.238
-293.676	-200.000	-0.019	0.173
-292.662	-38.631	0.246	-0.128
-291.647	-200.000	-0.057	0.277
-290.632	-46.413	-0.068	0.033
-289.618	800.000	-0.018	0.071
-288.603	-0.684	0.198	0.139
-287.589	401.786	0.040	-0.083
-286.574	493.541	-0.171	-0.387
-285.559	-137.019	0.297	0.034
-284.545	800.000	-0.038	0.114
-283.530	-167.483	-0.089	0.004
-282.516	800.000	0.056	0.180
-281.501	169.120	-0.100	-0.141
-280.486	-93.701	-0.496	0.135
-279.472	776.608	0.088	-0.236
-278.457	-56.836	-0.162	-0.071
-277.443	67.282	0.422	0.425
-276.428	-107.480	0.101	0.022
-275.413	46.046	-0.028	-0.026
-274.399	-200.000	-0.004	-0.080
-273.384	251.233	0.117	0.196
-272.370	95.190	0.359	0.404
-271.355	800.000	-0.049	-0.156
-270.340	5.211	-0.147	0.107
-269.326	800.000	0.090	-0.377
-268.311	-54.969	0.225	0.100
-267.297	-200.000	0.024	-0.380
-266.282	-117.505	0.463	0.083
-265.267	401.954	0.148	0.308
-264.253	-69.682	0.411	-0.155
-263.238	-200.000	0.010	0.054
-262.224	20.849	0.343	-0.274
-261.209	72.902	-0.173	-0.179
-260.195	-41.186	-0.193	0.098
-259.180	-24.110	-0.274	0.162
-258.165	95.423	0.161	-0.181
-257.151	-66.691	-0.336	-0.131
-256.136	-24.576	0.295	-0.173
-255.122	22.944	0.093	-0.076
-254.107	-84.614	-0.025	0.008
-253.092	86.911	0.045	0.049
-252.078	800.000	-0.085	0.316
-251.063	-200.000	0.006	-0.141
-250.049	-200.000	-0.023	-0.233
-249.034	800.000	0.118	0.368
-248.019	800.000	-0.064	0.234
-247.005	-29.147	-0.437	0.247
-245.990	800.000	-0.015	0.058
-244.976	-181.414	0.205	0.004
-243.961	-69.195	0.175	0.066
-242.946	-73.008	-0.130	0.047
-241.932	5.088	0.359	-0.261
-240.917	570.365	0.103	0.246
-239.903	-143.494	-0.340	0.032
-238.888	-128.095	-0.401	0.057
-237.873	-73.296	0.305	0.110
-236.859	-133.247	0.318	0.040
-235.844	-200.000	0.027	-0.212
-234.830	39.836	0.064	-0.056
-233.815	-13.905	-0.380	-0.242
-232.800	-200.000	-0.039	0.254
-231.786	91.332	0.067	0.074
-230.771	704.901	-0.002	0.006
-229.757	-200.000	0.042	-0.225
-228.742	-71.191	0.285	0.105
-227.727	201.138	-0.152	-0.231
-226.713	800.000	0.039	-0.143
-225.698	-53.743	-0.173	-0.078
-224.684	-93.199	0.164	-0.045
-223.669	125.046	-0.145	0.180
-222.655	-107.421	0.164	0.035
-221.640	-25.078	-0.283	0.166
-220.625	-200.000	-0.196	-0.000
-219.611	-65.497	-0.086	0.034
-218.596	190.755	-0.094	0.139
-217.582	14.700	0.271	0.209
-216.567	633.262	-0.036	0.089
-215.552	800.000	0.173	0.525
-214.538	-39.188	0.328	-0.170
-213.523	-1.651	-0.279	0.194
-212.509	-200.000	0.056	0.262
-211.494	-127.229	0.122	0.018
-210.479	-153.393	0.114	0.008
-209.465	281.253	0.122	-0.215
-208.450	94.511	-0.128	-0.144
-207.436	34.678	0.291	-0.251
-206.421	562.331	0.044	0.104
-205.406	39.951	-0.193	-0.171
-204.392	-39.119	-0.082	-0.042
-203.377	233.890	-0.165	-0.267
-202.363	-200.000	0.020	0.115
-201.348	-200.000	0.016	0.118
-200.333	-55.565	0.149	-0.066
-199.319	5.254	-0.147	-0.107
-198.304	-200.000	-0.013	0.328
-197.290	58.323	0.129	-0.124
-196.275	-91.071	-0.365	0.103
-195.260	-50.782	-0.169	-0.078
-194.246	305.265	-0.065	0.119
-193.231	-200.000	-0.017	0.087
-192.217	-130.027	0.327	0.044
-191.202	800.000	-0.042	-0.121
-190.187	800.000	-0.043	0.120
-189.173	-200.000	0.039	-0.246
-188.158	129.342	0.045	0.057
-187.144	-130.395	0.398	-0.053
-186.129	784.351	0.166	0.448
-185.114	-120.349	-0.056	-0.009
-184.100	57.398	-0.284	0.273
-183.085	-57.255	0.172	-0.074
-182.071	800.000	0.125	0.354
-181.056	649.825	-0.109	-0.275
-180.042	-200.000	0.023	-0.180
-179.027	-200.000	0.020	-0.318
-178.012	44.054	-0.310	0.279
-176.998	-200.000	0.023	0.201
-175.983	-77.089	0.554	-0.190
-174.969	-24.950	-0.351	0.205
-173.954	-92.409	0.331	0.092
-172.939	-200.000	-0.003	-0.079
-171.925	474.512	-0.131	0.291
-170.910	0.163	0.131	-0.092
-169.896	193.950	-0.131	-0.195
-168.881	34.975	0.176	0.152
-167.866	-42.952	-0.252	0.126
-166.852	-176.430	-0.099	0.003
-165.837	800.000	-0.052	-0.216
-164.823	75.460	-0.196	0.203
-163.808	-185.481	-0.402	0.006
-162.793	18.939	0.282	-0.222
-161.779	718.163	-0.181	0.473
-160.764	800.000	0.148	0.430
-159.750	495.938	-0.059	0.134
-158.735	-200.000	-0.008	-0.099
-157.720	800.000	0.034	0.114
-156.706	124.215	-0.140	-0.173
-155.691	63.179	0.098	0.096
-154.677	-200.000	0.084	0.428
-153.662	-126.362	-0.103	-0.015
-152.647	-74.793	-0.265	0.093
-151.633	-110.030	-0.361	0.074
-150.618	-200.000	0.050	0.402
-149.604	-72.172	0.335	0.122
-148.589	438.336	-0.118	-0.253
-147.574	211.962	-0.154	-0.239
-146.560	-200.000	-0.042	0.195
-145.545	-11.703	0.233	0.150
-144.531	658.103	-0.031	-0.078
-143.516	-13.865	0.295	-0.187
-142.502	588.918	-0.057	-0.139
-141.487	-28.841	-0.396	0.224
-140.472	98.084	0.174	-0.197
-139.458	24.812	-0.216	0.176
-138.443	-15.162	0.290	0.182
-137.429	-67.913	-0.167	0.064
-136.414	-200.000	-0.040	0.209
-135.399	73.958	-0.338	0.348
-134.385	381.693	0.074	0.149
-133.370	265.351	0.097	-0.166
-132.356	-57.397	-0.186	0.080
-131.341	145.100	0.087	0.114
-130.326	-200.000	0.055	0.242
-129.312	-145.398	-0.191	0.017
-128.297	-74.381	0.182	-0.065
-127.283	-32.288	-0.153	-0.084
-126.268	800.000	0.051	-0.216
-125.253	74.739	-0.395	-0.408
-124.239	-143.510	-0.256	-0.024
-123.224	-120.239	0.205	-0.034
-122.210	34.023	0.331	-0.283
-121.195	214.247	0.063	0.098
-120.180	286.022	-0.087	-0.154
