DTS Sentinel unit serial number:	SN413079Multiplexer serial number:	ORYXHardware model number:	OX4-SRSoftware version number:	ORYX F/W v4.00 Oryx Data Collector v3.7.2.0data status	okinstallation	princeton_trtdifferential loss correction	single-endedforward channel	channel 2reverse channel	N/Adate	2019/09/16time	16:07:35forward acquisition time	60.00reverse acquisition time	0.00gamma	496.2192k internal	0.2300k external	0.2300temperature offset calibration	0.9943default loss term (dB/km)	0.3790temperature slope calibration	1.0000multiplexer offset coefficient	1.0000multiplexer slope coefficient	1.0000fibre end	0.00T internal ref (°C)	40.83T ext. ref 1 (°C)	14.94T ext. ref 2 (°C)	35.01length (m)	temperature (°C)	Stokes	anti-Stokes-747.200	-200.000	-0.027	0.505
-746.185	-200.000	-0.019	0.211
-745.171	-164.207	-0.389	0.018
-744.156	276.497	-0.124	0.226
-743.142	-135.572	0.091	0.011
-742.127	395.753	-0.110	0.235
-741.112	-49.771	-0.222	0.108
-740.098	482.526	-0.070	0.163
-739.083	190.886	0.128	0.196
-738.069	800.000	0.093	0.310
-737.054	-112.741	0.202	0.041
-736.039	-7.201	-0.209	-0.145
-735.025	-162.155	0.185	-0.009
-734.010	800.000	0.055	0.181
-732.996	-54.694	-0.224	-0.103
-731.981	-200.000	0.033	-0.154
-730.966	-49.602	-0.181	0.088
-729.952	-200.000	0.007	0.196
-728.937	4.917	-0.213	-0.160
-727.923	-141.120	0.037	0.004
-726.908	-60.258	-0.067	-0.029
-725.894	-116.378	-0.234	0.044
-724.879	256.128	-0.160	0.281
-723.864	120.889	-0.258	0.327
-722.850	-6.505	-0.176	0.122
-721.835	-114.471	-0.187	0.037
-720.821	-200.000	0.027	0.417
-719.806	360.060	0.125	-0.255
-718.791	-200.000	0.053	0.291
-717.777	714.607	0.151	-0.409
-716.762	49.101	-0.063	0.060
-715.748	-10.311	-0.373	0.252
-714.733	-79.210	-0.027	0.009
-713.718	257.973	-0.137	-0.240
-712.704	-137.250	0.236	-0.027
-711.689	38.006	-0.356	-0.322
-710.675	537.344	0.053	-0.128
-709.660	-79.357	0.133	-0.046
-708.645	675.683	0.044	0.117
-707.631	45.236	0.109	-0.102
-706.616	-147.821	-0.224	-0.019
-705.602	70.156	-0.119	0.125
-704.587	24.355	-0.120	-0.101
-703.572	-18.284	0.155	0.099
-702.558	-200.000	-0.016	-0.191
-701.543	-95.873	-0.187	-0.051
-700.529	800.000	0.088	-0.328
-699.514	-2.546	-0.058	-0.041
-698.499	54.183	0.066	-0.065
-697.485	339.439	-0.010	-0.019
-696.470	-76.567	-0.063	-0.023
-695.456	-117.557	0.239	-0.044
-694.441	800.000	-0.034	-0.102
-693.426	46.723	0.211	-0.200
-692.412	67.337	-0.116	-0.121
-691.397	-130.829	0.235	0.032
-690.383	-58.010	0.257	0.114
-689.368	-178.442	-0.048	-0.001
-688.354	-24.228	0.205	0.125
-687.339	-41.956	0.098	0.051
-686.324	-126.727	0.097	-0.015
-685.310	-141.805	-0.125	0.013
-684.295	-200.000	-0.004	-0.050
-683.281	-200.000	0.027	0.281
-682.266	-53.546	-0.170	-0.079
-681.251	122.997	-0.165	-0.210
-680.237	11.105	-0.229	0.179
-679.222	-200.000	-0.015	0.095
-678.208	352.394	0.090	-0.182
-677.193	194.675	-0.223	-0.344
-676.178	76.755	-0.209	0.225
-675.164	800.000	0.071	0.279
-674.149	-125.249	0.178	-0.028
-673.135	-52.999	0.069	-0.032
-672.120	-200.000	-0.021	0.461
-671.105	128.457	-0.093	-0.121
-670.091	-49.021	-0.114	-0.055
-669.076	427.168	0.091	0.199
-668.062	-200.000	-0.012	0.402
-667.047	-200.000	0.096	0.457
-666.032	142.168	0.119	-0.160
-665.018	146.889	-0.199	0.272
-664.003	323.744	-0.142	-0.275
-662.989	338.164	0.014	0.028
-661.974	800.000	-0.033	0.129
-660.959	146.897	-0.101	0.138
-659.945	60.840	-0.053	0.054
-658.930	504.791	-0.099	0.233
-657.916	800.000	-0.012	0.040
-656.901	800.000	0.059	-0.177
-655.886	-179.963	0.118	0.003
-654.872	-40.785	-0.083	-0.044
-653.857	164.148	0.153	0.220
-652.843	11.477	-0.249	0.194
-651.828	-117.572	-0.303	0.056
-650.814	419.983	-0.207	0.450
-649.799	57.873	-0.111	0.110
-648.784	-103.261	-0.162	0.039
-647.770	14.663	0.143	0.114
-646.755	-174.434	-0.131	-0.004
-645.741	133.071	0.293	0.384
-644.726	-47.403	-0.017	0.008
-643.711	-38.238	0.354	0.191
-642.697	800.000	0.012	-0.052
-641.682	-50.132	-0.345	0.166
-640.668	-200.000	-0.000	0.227
-639.653	318.312	-0.175	-0.337
-638.638	14.274	0.241	-0.191
-637.624	28.246	0.129	0.111
-636.609	45.006	-0.240	-0.225
-635.595	335.182	-0.149	0.293
-634.580	-41.529	-0.158	0.082
-633.565	34.047	-0.064	-0.057
-632.551	800.000	0.039	0.173
-631.536	-16.633	-0.339	0.218
-630.522	-57.991	0.123	-0.054
-629.507	-45.009	0.183	-0.093
-628.492	-96.746	-0.102	0.027
-627.478	343.902	-0.065	-0.130
-626.463	-113.029	-0.253	0.051
-625.449	59.699	0.153	-0.153
-624.434	-179.454	0.401	0.009
-623.419	158.472	-0.027	-0.037
-622.405	90.469	-0.166	-0.189
-621.390	-200.000	-0.035	0.290
-620.376	-30.132	-0.458	0.265
-619.361	252.558	0.104	0.179
-618.346	46.376	-0.301	-0.283
-617.332	-200.000	0.021	0.099
-616.317	315.881	-0.118	0.227
-615.303	-76.282	-0.063	-0.022
-614.288	-200.000	0.011	-0.092
-613.273	800.000	0.056	-0.242
-612.259	297.792	-0.087	-0.162
-611.244	-20.260	-0.130	0.081
-610.230	129.641	0.265	0.344
-609.215	128.928	0.105	-0.136
-608.201	-126.212	-0.097	-0.015
-607.186	800.000	-0.050	0.181
-606.171	-200.000	-0.007	0.111
-605.157	346.311	-0.076	0.152
-604.142	87.301	0.094	-0.106
-603.128	31.485	-0.119	0.104
-602.113	15.381	0.302	0.240
-601.098	-48.357	-0.264	0.129
-600.084	-34.495	-0.407	-0.226
-599.069	-78.435	-0.329	-0.114
-598.055	109.569	0.239	0.291
-597.040	-74.310	0.148	0.054
-596.025	134.123	0.071	-0.093
-595.011	352.289	-0.143	0.288
-593.996	385.423	0.068	0.142
-592.982	800.000	-0.062	-0.185
-591.967	-200.000	0.005	0.234
-590.952	111.176	-0.247	0.302
-589.938	-200.000	0.047	-0.222
-588.923	-108.892	-0.217	0.047
-587.909	-200.000	0.021	0.514
-586.894	-119.290	0.240	0.042
-585.879	368.927	0.113	0.232
-584.865	800.000	0.070	-0.246
-583.850	161.026	-0.188	-0.266
-582.836	238.615	-0.176	0.296
-581.821	800.000	0.053	0.154
-580.806	-200.000	-0.017	0.254
-579.792	-200.000	-0.003	0.033
-578.777	432.704	0.105	-0.232
-577.763	6.565	0.157	-0.118
-576.748	-140.175	0.124	-0.013
-575.733	83.697	-0.041	-0.045
-574.719	155.047	-0.069	-0.096
-573.704	132.292	-0.037	0.048
-572.690	8.496	-0.203	0.155
-571.675	-200.000	0.005	-0.154
-570.661	-6.877	0.446	-0.307
-569.646	32.400	0.226	-0.198
-568.631	-173.040	0.125	0.004
-567.617	800.000	-0.011	0.048
-566.602	-30.917	-0.061	-0.035
-565.588	548.469	-0.090	0.217
-564.573	-196.724	-0.250	0.002
-563.558	-58.284	-0.100	-0.044
-562.544	211.080	0.158	-0.252
-561.529	800.000	-0.119	-0.516
-560.515	141.176	0.086	-0.115
-559.500	-53.182	-0.149	0.069
-558.485	2.989	-0.030	0.022
-557.471	-17.943	-0.240	0.152
-556.456	-117.234	-0.217	0.040
-555.442	-72.230	0.392	0.147
-554.427	3.836	0.206	-0.153
-553.412	-200.000	-0.002	0.110
-552.398	-200.000	0.035	-0.157
-551.383	-28.543	0.181	-0.105
-550.369	-97.475	-0.060	-0.016
-549.354	-138.002	0.416	0.047
-548.339	-165.350	0.106	-0.005
-547.325	800.000	0.107	-0.313
-546.310	-200.000	0.011	0.057
-545.296	-136.109	-0.311	-0.037
-544.281	219.594	-0.097	0.158
-543.266	-200.000	-0.048	0.296
-542.252	282.539	0.164	0.298
-541.237	-148.882	-0.312	-0.025
-540.223	448.562	0.107	-0.238
-539.208	-200.000	0.006	-0.227
-538.193	510.615	0.067	0.157
-537.179	155.722	-0.135	0.188
-536.164	-102.609	-0.100	-0.024
-535.150	-39.276	0.067	-0.036
-534.135	-149.199	-0.188	0.015
-533.121	28.181	-0.401	0.343
-532.106	127.309	-0.086	-0.111
-531.091	-179.627	-0.308	-0.007
-530.077	43.492	-0.253	0.234
-529.062	-200.000	0.013	-0.187
-528.048	-200.000	-0.008	0.078
-527.033	-171.517	-0.178	0.006
-526.018	231.169	0.093	-0.154
-525.004	327.600	0.078	-0.152
-523.989	353.230	-0.066	-0.133
-522.975	18.981	0.074	0.060
-521.960	-101.458	0.059	-0.014
-520.945	-200.000	0.050	-0.355
-519.931	-121.291	-0.125	-0.021
-518.916	-152.040	0.075	0.006
-517.902	647.177	0.159	0.411
-516.887	43.035	-0.114	0.105
-515.872	-200.000	0.042	-0.516
-514.858	-200.000	-0.009	0.243
-513.843	115.819	-0.231	0.286
-512.829	-88.116	0.233	-0.071
-511.814	-67.942	0.247	0.098
-510.799	54.718	-0.182	0.178
-509.785	634.509	-0.023	0.060
-508.770	-162.707	0.173	-0.009
-507.756	-200.000	0.031	-0.172
-506.741	112.665	0.062	0.076
-505.726	800.000	0.132	0.442
-504.712	-200.000	0.019	-0.268
-503.697	-200.000	-0.044	0.376
-502.683	-200.000	0.001	-0.330
-501.668	661.713	-0.131	-0.341
-500.653	-78.193	-0.092	0.032
-499.639	245.024	-0.030	-0.050
-498.624	12.459	0.105	0.082
-497.610	83.934	-0.105	0.116
-496.595	-173.723	-0.220	-0.007
-495.581	-200.000	0.010	0.069
-494.566	-123.859	0.105	-0.017
-493.551	275.333	0.026	0.046
-492.537	-200.000	0.078	-0.493
-491.522	13.132	0.189	-0.148
-490.508	-123.839	-0.668	-0.106
-489.493	107.160	-0.189	-0.227
-488.478	-94.577	0.153	0.042
-487.464	531.848	0.037	0.089
-486.449	302.897	0.076	0.143
-485.435	-133.451	0.148	-0.019
-484.420	-52.558	0.172	0.080
-483.405	800.000	-0.031	0.135
-482.391	-145.344	-0.314	-0.029
-481.376	-15.449	0.294	0.189
-480.362	115.163	0.145	-0.179
-479.347	184.374	-0.125	-0.186
-478.332	137.222	-0.107	-0.141
-477.318	-76.271	0.177	-0.063
-476.303	387.869	0.072	-0.149
-475.289	-83.072	-0.067	-0.022
-474.274	800.000	0.051	0.191
-473.259	39.280	-0.204	0.185
-472.245	119.858	0.036	-0.046
-471.230	-44.009	-0.196	-0.100
-470.216	800.000	-0.100	0.342
-469.201	131.937	0.085	-0.110
-468.186	20.989	-0.157	-0.128
-467.172	46.653	-0.064	0.060
-466.157	447.459	0.079	0.176
-465.143	-200.000	0.011	-0.058
-464.128	-86.488	0.247	-0.077
-463.113	-53.161	0.142	-0.066
-462.099	-200.000	0.044	0.237
-461.084	82.141	0.136	-0.149
-460.070	-35.257	-0.189	-0.104
-459.055	-162.069	-0.362	-0.018
-458.040	165.553	0.125	-0.178
-457.026	37.010	0.261	0.233
-456.011	-1.644	0.127	-0.090
-454.997	-85.828	-0.225	0.070
-453.982	418.657	-0.051	-0.110
-452.968	676.605	-0.069	-0.180
-451.953	233.149	-0.075	0.124
-450.938	800.000	-0.165	-0.511
-449.924	800.000	0.080	-0.232
-448.909	3.994	0.105	0.078
-447.895	131.372	0.258	0.334
-446.880	-32.706	-0.137	-0.077
-445.865	-36.411	-0.207	0.113
-444.851	-200.000	-0.032	-0.187
-443.836	-23.502	0.057	-0.035
-442.822	48.423	-0.182	-0.172
-441.807	-200.000	0.016	0.103
-440.792	800.000	-0.073	0.268
-439.778	-22.957	0.163	0.099
-438.763	-62.886	-0.083	-0.035
-437.749	-105.896	-0.320	0.073
-436.734	173.774	-0.114	0.167
-435.719	74.287	0.153	-0.162
-434.705	-95.959	-0.296	0.079
-433.690	-200.000	-0.013	0.315
-432.676	-98.811	-0.529	0.136
-431.661	-200.000	-0.024	-0.297
-430.646	161.416	-0.210	0.296
-429.632	55.446	0.203	0.198
-428.617	-177.161	0.209	0.005
-427.603	-200.000	0.012	0.353
-426.588	4.194	-0.261	0.193
-425.573	158.343	0.128	-0.179
-424.559	800.000	-0.046	0.166
-423.544	800.000	0.105	0.364
-422.530	-27.316	-0.196	-0.115
-421.515	-200.000	0.039	-0.467
-420.500	-200.000	0.050	-0.247
-419.486	-124.279	0.083	-0.013
-418.471	-87.022	-0.440	0.135
-417.457	-80.146	0.056	0.019
-416.442	-78.203	0.055	0.019
-415.428	-68.230	-0.277	0.108
-414.413	437.368	0.064	-0.141
-413.398	712.069	-0.025	0.067
-412.384	800.000	-0.128	-0.504
-411.369	209.493	-0.056	-0.088
-410.355	-125.409	-0.416	0.064
-409.340	77.729	-0.173	0.185
-408.325	-200.000	0.040	0.266
-407.311	131.653	0.187	0.242
-406.296	-143.522	-0.134	-0.013
-405.282	-145.416	-0.212	0.019
-404.267	-200.000	-0.008	-0.170
-403.252	272.856	0.063	0.113
-402.238	-67.033	0.247	0.098
-401.223	800.000	0.073	-0.317
-400.209	51.273	-0.112	-0.107
-399.194	32.209	-0.109	-0.095
-398.179	101.225	0.116	-0.136
-397.165	-36.820	0.204	0.110
-396.150	150.937	-0.167	-0.229
-395.136	-86.795	-0.192	0.059
-394.121	24.951	0.055	-0.046
-393.106	492.493	-0.122	0.281
-392.092	-157.448	0.286	-0.017
-391.077	-108.985	-0.099	-0.021
-390.063	14.374	-0.165	0.130
-389.048	-200.000	-0.026	0.303
-388.033	110.235	-0.227	0.274
-387.019	101.024	0.208	-0.243
-386.004	109.617	0.160	-0.193
-384.990	40.654	-0.211	0.191
-383.975	800.000	0.085	0.335
-382.960	-16.616	-0.275	-0.175
-381.946	-101.826	-0.246	0.060
-380.931	800.000	-0.114	-0.319
-379.917	-200.000	-0.030	-0.228
-378.902	133.810	-0.142	0.185
-377.888	-200.000	0.040	0.473
-376.873	-200.000	0.010	0.133
-375.858	245.590	0.133	0.226
-374.844	110.461	-0.119	0.144
-373.829	-61.299	0.147	0.062
-372.815	-135.539	0.274	0.033
-371.800	-31.716	0.051	0.029
-370.785	-57.522	0.231	-0.102
-369.771	-168.161	-0.075	-0.003
-368.756	-200.000	0.037	0.293
-367.742	-17.507	0.107	0.068
-366.727	204.112	-0.154	-0.240
-365.712	-146.260	0.351	-0.031
-364.698	800.000	0.050	-0.178
-363.683	113.036	0.050	-0.061
-362.669	-200.000	0.000	0.307
-361.654	37.277	-0.159	-0.142
-360.639	-40.768	0.150	-0.078
-359.625	-103.519	0.192	0.045
-358.610	-200.000	-0.008	0.243
-357.596	128.269	-0.018	0.022
-356.581	4.098	-0.212	0.156
-355.566	-160.199	-0.366	0.020
-354.552	800.000	-0.036	-0.156
-353.537	-130.983	-0.207	-0.028
-352.523	81.321	0.210	0.228
-351.508	366.617	-0.084	-0.170
-350.493	-200.000	0.016	0.146
-349.479	-89.202	0.146	-0.043
-348.464	443.556	0.108	0.239
-347.450	800.000	-0.099	-0.306
-346.435	-106.064	0.258	-0.058
-345.420	113.121	0.063	-0.077
-344.406	248.997	-0.165	-0.281
-343.391	431.259	0.146	-0.317
-342.377	-200.000	0.050	-0.253
-341.362	-200.000	0.035	0.194
-340.348	-183.756	-0.072	0.001
-339.333	-200.000	0.000	-0.137
-338.318	800.000	0.060	-0.213
-337.304	-56.107	-0.216	-0.097
-336.289	136.607	-0.076	-0.100
-335.275	193.882	0.141	0.214
-334.260	-200.000	0.010	-0.307
-333.245	354.371	0.020	-0.040
-332.231	-200.000	-0.072	-0.369
-331.216	-25.454	0.294	-0.174
-330.202	-31.769	-0.114	0.064
-329.187	-200.000	-0.033	0.149
-328.172	613.128	-0.079	-0.199
-327.158	-56.900	0.093	-0.041
-326.143	-61.710	-0.242	0.102
-325.129	-200.000	-0.022	-0.164
-324.114	-41.349	0.329	-0.170
-323.099	-139.388	0.175	-0.019
-322.085	99.640	-0.089	0.104
-321.070	-200.000	-0.008	0.129
-320.056	-87.849	0.229	-0.069
-319.041	800.000	-0.080	-0.278
-318.026	-98.224	0.207	-0.053
-317.012	277.857	-0.016	-0.028
-315.997	21.066	0.114	-0.092
-314.983	-200.000	-0.002	0.119
-313.968	-5.258	0.241	0.166
-312.953	-44.279	0.231	-0.116
-311.939	-149.133	-0.038	-0.003
-310.924	95.495	0.027	-0.031
-309.910	-200.000	-0.005	0.122
-308.895	-200.000	0.040	-0.224
-307.880	121.027	0.066	-0.083
-306.866	-112.800	0.344	-0.068
-305.851	800.000	-0.119	-0.486
-304.837	-200.000	-0.024	0.294
-303.822	-178.328	0.223	0.005
-302.807	-98.443	0.104	0.027
-301.793	-34.978	-0.266	-0.146
-300.778	60.546	-0.149	0.148
-299.764	-200.000	0.023	0.127
-298.749	172.205	0.075	-0.108
-297.735	-200.000	-0.058	-0.305
-296.720	-101.232	0.278	0.068
-295.705	-11.752	-0.286	0.188
-294.691	-200.000	-0.015	0.313
-293.676	800.000	0.046	0.163
-292.662	-163.035	0.206	0.010
-291.647	97.538	-0.295	0.340
-290.632	-200.000	0.031	-0.360
-289.618	-128.186	0.361	-0.052
-288.603	3.491	-0.285	0.208
-287.589	-79.155	0.262	-0.089
-286.574	45.412	-0.010	0.009
-285.559	-175.851	-0.137	-0.004
-284.545	-66.347	0.078	-0.031
-283.530	-135.830	0.357	-0.042
-282.516	42.291	0.314	0.286
-281.501	189.266	-0.135	0.202
-280.486	665.943	-0.055	0.142
-279.472	-141.054	0.047	-0.005
-278.457	322.016	-0.094	-0.179
-277.443	800.000	-0.046	-0.195
-276.428	-141.093	0.186	0.019
-275.413	-66.211	-0.060	-0.024
-274.399	-53.738	0.061	0.028
-273.384	-200.000	-0.001	-0.124
-272.370	62.965	-0.229	0.230
-271.355	-50.100	0.288	-0.137
-270.340	298.979	0.093	-0.172
-269.326	-62.916	-0.286	0.119
-268.311	53.826	0.082	-0.079
-267.297	-5.371	-0.115	0.079
-266.282	-69.271	-0.411	-0.158
-265.267	306.361	-0.147	-0.273
-264.253	16.897	-0.086	-0.068
-263.238	137.255	-0.107	-0.141
-262.224	800.000	-0.096	-0.333
-261.209	71.222	-0.211	0.219
-260.195	142.264	-0.261	0.346
-259.180	-200.000	-0.078	0.466
-258.165	-118.818	0.012	-0.002
-257.151	-200.000	-0.008	-0.077
-256.136	-200.000	-0.041	-0.234
-255.122	-125.797	0.264	0.040
-254.107	-60.178	0.065	0.028
-253.092	153.977	0.263	-0.361
-252.078	-39.624	0.181	0.095
-251.063	232.220	-0.193	0.317
-250.049	-105.315	-0.072	0.017
-249.034	8.077	0.142	-0.107
-248.019	-33.721	-0.143	-0.079
-247.005	-126.053	-0.175	0.026
-245.990	44.954	-0.304	-0.281
-244.976	131.361	0.113	-0.145
-243.961	208.056	0.051	0.080
-242.946	-68.443	-0.601	0.233
-241.932	73.023	0.241	0.252
-240.917	337.402	0.040	0.078
-239.903	-15.177	0.089	0.057
-238.888	124.026	0.152	-0.191
-237.873	147.904	-0.110	-0.148
-236.859	24.890	0.135	0.112
-235.844	-63.863	0.299	-0.122
-234.830	-127.653	0.135	0.019
-233.815	49.382	0.070	-0.066
-232.800	11.186	0.238	-0.182
-231.786	-83.232	0.142	-0.046
-230.771	-111.719	0.094	0.019
-229.757	-200.000	-0.054	0.239
-228.742	-99.711	0.358	0.090
-227.727	-62.431	0.217	-0.090
-226.713	800.000	-0.030	0.124
-225.698	275.553	0.050	0.089
-224.684	179.014	-0.012	-0.017
-223.669	800.000	0.017	0.062
-222.655	-86.872	0.331	0.101
-221.640	307.884	-0.049	-0.092
-220.625	-64.650	0.356	0.144
-219.611	11.810	0.047	0.036
-218.596	-200.000	-0.033	-0.277
-217.582	2.119	0.228	0.165
-216.567	-200.000	-0.003	-0.050
-215.552	-108.015	-0.235	0.051
-214.538	800.000	0.061	-0.217
-213.523	-200.000	-0.019	-0.182
-212.509	6.033	-0.215	-0.159
-211.494	-105.164	0.172	-0.039
-210.479	323.209	-0.071	0.135
-209.465	-90.207	-0.189	-0.055
-208.450	262.160	0.036	-0.062
-207.436	-200.000	0.024	0.238
-206.421	261.277	0.116	0.200
-205.406	-8.309	0.260	0.175
-204.392	-200.000	0.003	-0.567
-203.377	114.173	-0.068	-0.083
-202.363	-80.829	0.054	-0.018
-201.348	-200.000	0.040	0.292
-200.333	38.069	0.161	0.143
-199.319	185.997	-0.080	0.119
-198.304	-56.436	0.069	0.030
-197.290	800.000	-0.099	-0.388
-196.275	-66.079	0.197	0.078
-195.260	-108.992	0.158	-0.034
-194.246	-200.000	0.008	-0.214
-193.231	-200.000	0.055	-0.352
-192.217	111.947	-0.287	0.346
-191.202	-33.871	0.187	-0.103
-190.187	61.024	0.225	0.223
-189.173	-113.472	0.062	-0.012
-188.158	214.206	0.178	0.281
-187.144	69.350	-0.221	-0.227
-186.129	37.149	0.085	-0.075
-185.114	-124.684	0.243	-0.038
-184.100	-124.431	-0.317	-0.049
-183.085	494.634	0.155	0.356
-182.071	233.641	0.286	-0.470
-181.056	-80.017	0.072	0.024
-180.042	-61.784	-0.085	0.036
-179.027	152.239	0.242	-0.330
-178.012	-200.000	-0.005	-0.162
-176.998	7.278	0.310	-0.231
-175.983	0.270	0.127	0.091
-174.969	-137.331	-0.255	0.029
-173.954	411.829	0.052	-0.110
-172.939	435.024	0.180	-0.391
-171.925	-182.391	0.199	-0.004
-170.910	-200.000	-0.060	-0.440
-169.896	-14.490	-0.216	0.139
-168.881	-200.000	0.016	-0.104
-167.866	382.298	0.077	0.158
-166.852	103.271	0.222	0.260
-165.837	-17.819	-0.079	-0.050
-164.823	-137.782	0.550	0.061
-163.808	-170.724	0.243	0.008
-162.793	-61.317	-0.106	0.045
-161.779	-130.266	0.225	0.030
-160.764	-181.944	0.115	-0.002
-159.750	296.457	-0.140	0.257
-158.735	-92.993	-0.133	-0.037
-157.720	-55.879	-0.301	-0.134
-156.706	-145.899	0.283	-0.025
-155.691	-46.575	-0.381	-0.186
-154.677	-188.060	-0.077	-0.001
-153.662	130.919	-0.123	0.157
-152.647	664.474	0.042	0.108
-151.633	800.000	-0.066	-0.253
-150.618	-17.955	-0.205	-0.128
-149.604	8.770	0.104	-0.078
-148.589	82.701	0.270	-0.293
-147.574	800.000	0.091	0.255
-146.560	28.559	-0.311	-0.262
-145.545	91.196	-0.042	0.047
-144.531	-200.000	-0.052	-0.237
-143.516	-148.444	0.191	0.016
-142.502	-144.896	-0.172	-0.016
-141.487	16.317	0.191	0.150
-140.472	-98.312	0.332	0.085
-139.458	31.541	-0.112	0.096
-138.443	-96.817	0.299	0.078
-137.429	-200.000	-0.000	-0.116
-136.414	18.144	-0.196	0.156
-135.399	299.565	-0.164	0.301
-134.385	-94.072	-0.418	0.114
-133.370	-200.000	0.002	-0.150
-132.356	135.898	-0.069	-0.090
-131.341	800.000	0.020	-0.086
-130.326	-200.000	0.000	0.011
-129.312	-38.772	0.107	0.056
-128.297	800.000	-0.053	-0.221
-127.283	-200.000	0.014	0.075
-126.268	-200.000	0.011	0.176
-125.253	-146.377	0.088	-0.008
-124.239	206.022	0.034	0.053
-123.224	106.744	0.055	-0.065
-122.210	7.504	-0.258	-0.192
-121.195	600.702	0.078	0.193
