DTS Sentinel unit serial number:	SN413079Multiplexer serial number:	ORYXHardware model number:	OX4-SRSoftware version number:	ORYX F/W v4.00 Oryx Data Collector v3.7.2.0data status	okinstallation	princeton_trtdifferential loss correction	single-endedforward channel	channel 2reverse channel	N/Adate	2019/09/15time	11:43:35forward acquisition time	60.00reverse acquisition time	0.00gamma	496.2192k internal	0.2315k external	0.2315temperature offset calibration	1.0018default loss term (dB/km)	0.3790temperature slope calibration	1.0000multiplexer offset coefficient	1.0000multiplexer slope coefficient	1.0000fibre end	0.00T internal ref (°C)	34.31T ext. ref 1 (°C)	5.03T ext. ref 2 (°C)	29.86length (m)	temperature (°C)	Stokes	anti-Stokes-747.200	487.281	-0.129	-0.298
-746.185	-86.147	0.145	-0.045
-745.171	800.000	0.031	0.120
-744.156	-97.107	-0.221	0.059
-743.142	-76.814	-0.221	-0.078
-742.127	32.112	0.094	0.082
-741.112	-7.011	-0.169	0.116
-740.098	-86.449	0.302	-0.094
-739.083	-84.990	-0.217	0.069
-738.069	-76.987	0.264	0.094
-737.054	290.416	-0.104	0.192
-736.039	145.543	-0.078	-0.106
-735.025	-142.678	0.336	-0.033
-734.010	-67.794	-0.192	-0.076
-732.996	212.544	-0.167	-0.266
-731.981	33.901	0.201	-0.177
-730.966	76.643	0.136	0.147
-729.952	-200.000	0.039	0.206
-728.937	26.428	-0.315	-0.266
-727.923	449.517	-0.097	0.218
-726.908	-32.587	-0.289	-0.163
-725.894	-66.486	0.287	0.116
-724.879	800.000	-0.039	-0.115
-723.864	-56.126	0.174	-0.078
-722.850	2.265	-0.253	-0.185
-721.835	-90.236	0.190	0.056
-720.821	-200.000	0.013	0.267
-719.806	-88.745	-0.550	0.165
-718.791	-61.978	0.071	-0.030
-717.777	-200.000	-0.002	0.428
-716.762	-86.512	-0.358	0.111
-715.748	-126.071	-0.090	-0.014
-714.733	-58.206	-0.175	-0.077
-713.718	280.514	-0.142	0.257
-712.704	-159.917	-0.313	-0.017
-711.689	-62.702	-0.167	0.070
-710.675	57.525	-0.032	-0.031
-709.660	-87.292	0.272	0.083
-708.645	444.378	-0.033	-0.074
-707.631	-152.970	-0.397	0.028
-706.616	-47.429	0.061	0.030
-705.602	34.993	0.145	-0.129
-704.587	-105.429	0.324	-0.075
-703.572	-153.578	-0.149	-0.010
-702.558	401.029	0.065	-0.138
-701.543	-200.000	0.016	0.216
-700.529	175.271	-0.083	-0.121
-699.514	-147.876	0.413	-0.035
-698.499	-77.255	-0.062	0.022
-697.485	-200.000	-0.181	0.000
-696.470	3.666	-0.118	0.087
-695.456	-200.000	-0.067	0.422
-694.441	-200.000	0.022	0.258
-693.426	14.595	-0.217	0.171
-692.412	-200.000	-0.053	0.409
-691.397	-200.000	0.023	0.149
-690.383	252.454	-0.104	-0.179
-689.368	-200.000	0.019	0.350
-688.354	-200.000	0.031	-0.188
-687.339	-114.906	0.484	0.093
-686.324	551.122	0.049	-0.120
-685.310	-143.344	0.084	-0.008
-684.295	-102.601	-0.219	0.053
-683.281	-200.000	-0.044	-0.287
-682.266	29.853	0.017	-0.015
-681.251	-200.000	-0.005	-0.084
-680.237	154.309	0.150	-0.208
-679.222	51.618	0.113	-0.109
-678.208	-51.234	-0.158	0.075
-677.193	-77.834	-0.190	-0.066
-676.178	82.795	0.163	0.179
-675.164	90.708	-0.126	0.143
-674.149	-85.043	0.165	-0.052
-673.135	-25.118	0.201	-0.120
-672.120	-39.832	0.355	0.187
-671.105	-127.915	0.344	-0.050
-670.091	-200.000	-0.013	-0.264
-669.076	-35.925	-0.203	0.111
-668.062	6.399	-0.273	-0.205
-667.047	-99.106	0.366	0.094
-666.032	411.339	0.172	0.369
-665.018	787.179	-0.051	0.141
-664.003	107.809	0.189	-0.227
-662.989	-94.611	-0.044	-0.012
-661.974	617.563	0.098	-0.248
-660.959	580.661	0.179	-0.443
-659.945	-200.000	-0.001	-0.017
-658.930	-156.350	-0.249	0.016
-657.916	40.261	-0.204	-0.185
-656.901	13.982	-0.195	0.153
-655.886	-103.839	-0.041	0.010
-654.872	-200.000	-0.002	0.120
-653.857	800.000	-0.070	-0.221
-652.843	67.577	0.134	0.138
-651.828	-63.204	-0.218	-0.091
-650.814	152.632	0.117	-0.162
-649.799	81.028	0.233	-0.254
-648.784	-3.484	-0.210	0.147
-647.770	221.633	-0.132	0.215
-646.755	800.000	-0.055	-0.171
-645.741	-200.000	-0.000	0.266
-644.726	208.439	-0.178	0.281
-643.711	88.237	-0.218	-0.244
-642.697	24.951	0.313	0.262
-641.682	800.000	0.125	-0.364
-640.668	800.000	0.038	0.112
-639.653	800.000	0.049	-0.201
-638.638	299.174	-0.157	-0.292
-637.624	-200.000	-0.034	0.208
-636.609	332.963	0.198	0.386
-635.595	154.074	-0.143	-0.198
-634.580	60.958	-0.176	-0.177
-633.565	66.282	0.115	0.118
-632.551	-200.000	-0.026	-0.171
-631.536	106.272	0.129	0.154
-630.522	7.983	-0.174	0.132
-629.507	33.419	-0.207	0.182
-628.492	82.196	-0.213	0.233
-627.478	-23.884	-0.228	-0.137
-626.463	12.691	-0.073	-0.057
-625.449	-123.193	0.212	0.034
-624.434	53.657	-0.203	-0.197
-623.419	203.863	0.075	0.118
-622.405	142.214	-0.153	0.205
-621.390	226.100	-0.177	0.289
-620.376	-165.670	0.364	0.016
-619.361	-148.686	-0.306	-0.025
-618.346	179.849	0.077	-0.113
-617.332	-200.000	-0.001	0.165
-616.317	-200.000	0.001	0.250
-615.303	-119.436	-0.147	0.026
-614.288	-115.388	-0.119	0.023
-613.273	327.993	-0.029	-0.055
-612.259	-120.221	-0.293	-0.050
-611.244	800.000	-0.054	0.219
-610.230	-8.674	-0.244	0.165
-609.215	170.131	-0.203	-0.292
-608.201	188.904	-0.144	-0.217
-607.186	-37.763	-0.080	0.043
-606.171	-106.625	0.173	0.039
-605.157	-200.000	0.089	0.498
-604.142	104.373	-0.187	0.222
-603.128	-86.492	-0.260	0.080
-602.113	-94.796	-0.249	0.068
-601.098	77.906	0.229	-0.246
-600.084	-41.733	-0.311	-0.161
-599.069	143.693	0.121	0.162
-598.055	-23.849	0.153	0.092
-597.040	-108.166	-0.167	-0.036
-596.025	339.216	0.188	-0.370
-595.011	800.000	0.036	-0.155
-593.996	79.893	0.216	-0.234
-592.982	514.731	0.034	0.080
-591.967	-31.381	0.223	0.127
-590.952	-5.587	-0.198	-0.137
-589.938	-69.084	-0.175	0.068
-588.923	-67.811	0.042	-0.017
-587.909	114.056	0.095	-0.117
-586.894	-12.818	-0.139	0.091
-585.879	126.982	0.073	0.093
-584.865	-200.000	-0.013	-0.255
-583.850	-48.813	-0.236	-0.114
-582.836	-115.544	0.322	0.061
-581.821	165.589	-0.157	0.224
-580.806	102.537	-0.116	0.137
-579.792	-189.737	-0.245	-0.003
-578.777	-117.053	-0.170	-0.031
-577.763	-200.000	-0.021	0.347
-576.748	-111.692	-0.049	-0.010
-575.733	-136.542	-0.209	0.024
-574.719	-136.244	0.057	-0.007
-573.704	59.209	0.230	0.228
-572.690	58.124	0.116	0.114
-571.675	-106.379	0.363	-0.082
-570.661	-17.960	-0.104	-0.066
-569.646	181.197	0.091	-0.135
-568.631	800.000	-0.102	-0.377
-567.617	8.287	-0.151	0.114
-566.602	-134.154	-0.062	-0.008
-565.588	391.992	0.139	-0.291
-564.573	800.000	-0.050	-0.212
-563.558	-105.990	0.440	-0.100
-562.544	329.303	0.139	-0.269
-561.529	-14.755	-0.120	-0.078
-560.515	58.329	-0.071	-0.070
-559.500	93.485	-0.083	0.094
-558.485	84.637	0.025	-0.027
-557.471	-3.161	-0.279	0.196
-556.456	169.787	0.151	0.217
-555.442	-137.864	0.120	0.014
-554.427	24.375	-0.123	0.102
-553.412	282.420	0.163	-0.295
-552.398	-23.507	0.041	-0.025
-551.383	322.687	0.063	-0.120
-550.369	186.810	0.106	0.159
-549.354	128.050	0.057	-0.072
-548.339	-77.672	0.190	0.066
-547.325	-200.000	-0.013	0.208
-546.310	-130.377	0.210	0.029
-545.296	-57.603	0.195	-0.086
-544.281	-125.436	-0.199	-0.030
-543.266	277.819	-0.025	-0.045
-542.252	48.374	0.066	-0.062
-541.237	10.581	0.224	0.171
-540.223	-134.547	0.298	-0.037
-539.208	637.704	-0.135	-0.345
-538.193	189.200	-0.111	-0.167
-537.179	-76.093	0.151	-0.054
-536.164	316.639	0.070	0.133
-535.150	-117.041	-0.491	-0.090
-534.135	800.000	0.031	-0.133
-533.121	-15.954	-0.183	-0.117
-532.106	-158.867	0.226	0.013
-531.091	-108.612	0.125	-0.027
-530.077	-175.209	0.162	0.004
-529.062	-79.659	0.173	-0.058
-528.048	800.000	0.130	-0.441
-527.033	-156.742	0.393	0.024
-526.018	192.408	-0.193	-0.293
-525.004	-14.655	0.020	0.013
-523.989	-54.603	-0.186	-0.084
-522.975	483.324	-0.081	0.185
-521.960	61.687	0.260	0.260
-520.945	-14.193	-0.144	0.093
-519.931	400.281	-0.126	0.266
-518.916	612.506	-0.152	-0.383
-517.902	-200.000	0.148	0.000
-516.887	-200.000	0.015	0.407
-515.872	39.406	-0.067	-0.060
-514.858	392.626	0.192	0.401
-513.843	155.659	0.065	-0.090
-512.829	228.267	0.068	0.111
-511.814	-16.144	-0.197	-0.126
-510.799	232.597	0.155	0.255
-509.785	167.471	-0.179	0.255
-508.770	-200.000	0.034	0.273
-507.756	-43.648	-0.214	0.108
-506.741	-99.018	0.051	-0.013
-505.726	800.000	-0.109	0.342
-504.712	236.216	0.264	-0.438
-503.697	433.525	-0.039	-0.085
-502.683	-87.180	0.035	-0.011
-501.668	29.784	0.173	-0.148
-500.653	164.585	0.271	-0.383
-499.639	-100.466	-0.058	0.014
-498.624	-36.957	0.018	-0.010
-497.610	290.312	0.003	0.005
-496.595	-4.195	-0.130	0.090
-495.581	-33.017	-0.029	-0.016
-494.566	-94.617	0.261	-0.071
-493.551	-120.628	0.329	0.056
-492.537	-200.000	-0.009	-0.230
-491.522	-116.141	-0.191	0.036
-490.508	-200.000	-0.037	0.168
-489.493	-63.488	-0.067	-0.027
-488.478	540.158	-0.093	0.221
-487.464	-10.649	0.057	0.038
-486.449	-158.228	-0.241	0.014
-485.435	258.909	-0.176	-0.304
-484.420	95.154	0.144	0.165
-483.405	6.368	0.292	0.218
-482.391	-200.000	0.020	0.160
-481.376	72.088	0.250	0.261
-480.362	8.720	0.140	0.106
-479.347	800.000	-0.022	0.085
-478.332	-200.000	0.043	0.247
-477.318	68.926	-0.165	-0.170
-476.303	131.772	-0.269	0.347
-475.289	-74.567	0.150	-0.054
-474.274	-54.378	0.045	0.021
-473.259	-125.457	-0.230	-0.035
-472.245	238.117	0.005	0.008
-471.230	611.469	0.112	0.280
-470.216	-2.893	0.133	-0.093
-469.201	80.397	0.196	-0.211
-468.186	-7.106	0.068	0.046
-467.172	-200.000	-0.006	-0.276
-466.157	-73.472	-0.209	0.076
-465.143	126.493	0.097	-0.123
-464.128	800.000	0.128	-0.414
-463.113	-40.057	0.154	-0.080
-462.099	-200.000	-0.013	-0.252
-461.084	358.742	-0.051	0.101
-460.070	4.921	-0.102	0.076
-459.055	-66.354	0.161	0.064
-458.040	285.972	-0.082	0.148
-457.026	177.509	-0.117	-0.171
-456.011	611.860	0.009	0.023
-454.997	800.000	0.038	-0.124
-453.982	-36.258	-0.239	-0.129
-452.968	-27.924	0.301	-0.175
-451.953	83.231	0.141	0.154
-450.938	-200.000	0.033	-0.286
-449.924	-52.410	-0.097	0.045
-448.909	-88.135	0.095	-0.029
-447.895	-39.781	0.029	0.015
-446.880	59.331	0.075	0.074
-445.865	-68.336	0.161	0.063
-444.851	-135.391	-0.044	0.005
-443.836	74.443	-0.123	0.129
-442.822	-65.218	0.342	-0.138
-441.807	-117.710	0.619	0.112
-440.792	800.000	0.010	-0.041
-439.778	-159.776	-0.307	-0.017
-438.763	800.000	-0.035	-0.138
-437.749	-200.000	-0.260	0.001
-436.734	47.784	-0.051	-0.048
-435.719	37.494	-0.202	0.180
-434.705	-1.179	-0.190	-0.134
-433.690	-50.711	0.186	-0.088
-432.676	747.499	-0.203	-0.547
-431.661	80.854	-0.178	-0.192
-430.646	59.340	-0.101	-0.100
-429.632	412.632	-0.136	-0.290
-428.617	-39.343	-0.095	0.050
-427.603	84.148	0.137	0.150
-426.588	-200.000	-0.061	0.287
-425.573	-200.000	-0.043	-0.286
-424.559	800.000	-0.116	0.402
-423.544	-8.911	0.047	0.032
-422.530	392.084	0.070	0.145
-421.515	171.036	0.046	-0.065
-420.500	-200.000	0.048	-0.332
-419.486	124.103	0.120	-0.150
-418.471	151.797	0.055	0.075
-417.457	566.922	0.109	-0.264
-416.442	-200.000	0.046	-0.292
-415.428	714.956	-0.118	-0.314
-414.413	3.577	0.028	-0.020
-413.398	470.230	0.054	0.122
-412.384	130.227	-0.197	0.252
-411.369	345.800	0.094	-0.184
-410.355	-88.232	0.104	0.031
-409.340	378.461	-0.169	-0.347
-408.325	-113.411	0.341	-0.067
-407.311	199.084	0.126	-0.193
-406.296	205.602	-0.091	-0.142
-405.282	132.475	-0.015	-0.020
-404.267	-200.000	0.041	-0.198
-403.252	-74.040	0.153	-0.056
-402.238	168.020	0.154	0.219
-401.223	35.518	0.136	0.119
-400.209	-68.015	-0.307	0.120
-399.194	-52.715	0.036	0.016
-398.179	-200.000	0.102	-0.643
-397.165	-46.316	0.233	-0.114
-396.150	-200.000	-0.010	0.067
-395.136	800.000	-0.055	0.218
-394.121	-200.000	-0.002	-0.207
-393.106	-200.000	-0.002	-0.155
-392.092	-200.000	0.008	0.053
-391.077	-163.225	-0.294	0.014
-390.063	-200.000	-0.052	0.283
-389.048	82.280	-0.088	-0.095
-388.033	-82.894	0.255	0.082
-387.019	-200.000	0.026	-0.241
-386.004	256.053	0.147	0.252
-384.990	16.871	-0.127	-0.100
-383.975	800.000	-0.062	0.215
-382.960	6.497	0.346	0.257
-381.946	372.194	-0.105	0.214
-380.931	-120.608	-0.121	0.020
-379.917	-69.642	-0.111	0.042
-378.902	111.533	0.248	0.299
-377.888	-200.000	-0.004	-0.092
-376.873	-107.946	-0.259	-0.056
-375.858	143.957	-0.338	-0.450
-374.844	-154.201	0.200	-0.014
-373.829	15.547	0.090	0.071
-372.815	-158.456	-0.277	0.016
-371.800	-105.260	0.276	0.063
-370.785	-49.525	0.103	-0.049
-369.771	-63.031	-0.238	0.098
-368.756	800.000	0.080	-0.233
-367.742	-130.030	0.068	-0.009
-366.727	800.000	0.042	0.165
-365.712	-53.379	-0.159	0.073
-364.698	-74.306	0.087	0.031
-363.683	10.401	-0.201	-0.153
-362.669	211.126	-0.133	-0.209
-361.654	800.000	0.105	-0.454
-360.639	665.641	-0.051	0.132
-359.625	103.713	-0.108	0.126
-358.610	800.000	-0.126	0.386
-357.596	-200.000	-0.037	0.311
-356.581	54.444	-0.195	-0.188
-355.566	426.115	0.075	0.162
-354.552	-200.000	0.030	-0.238
-353.537	800.000	0.028	-0.101
-352.523	584.918	-0.116	-0.285
-351.508	-44.429	0.409	0.204
-350.493	180.374	-0.052	0.076
-349.479	-93.967	-0.449	0.123
-348.464	60.221	0.144	-0.142
-347.450	-103.163	0.241	-0.057
-346.435	50.848	0.241	-0.227
-345.420	-166.570	0.233	0.010
-344.406	80.174	0.074	-0.079
-343.391	567.030	0.102	-0.248
-342.377	344.505	-0.164	0.321
-341.362	158.888	0.060	0.083
-340.348	-66.667	-0.251	-0.099
-339.333	424.110	-0.053	-0.113
-338.318	800.000	-0.017	-0.064
-337.304	385.470	0.134	-0.276
-336.289	-95.522	0.139	0.037
-335.275	-200.000	0.026	0.195
-334.260	-14.050	-0.196	0.126
-333.245	-200.000	0.003	0.136
-332.231	256.769	-0.082	-0.141
-331.216	713.006	-0.087	0.230
-330.202	244.993	0.144	0.241
-329.187	-47.794	-0.219	-0.106
-328.172	-10.595	0.258	-0.170
-327.158	64.193	-0.068	-0.069
-326.143	-116.844	-0.054	0.010
-325.129	-33.760	0.212	-0.116
-324.114	143.501	0.181	-0.240
-323.099	339.925	-0.095	-0.185
-322.085	-73.972	0.371	-0.134
-321.070	201.768	0.104	0.159
-320.056	-200.000	0.012	0.086
-319.041	-200.000	0.030	0.178
-318.026	122.831	0.216	-0.269
-317.012	256.127	0.076	-0.130
-315.997	-138.255	-0.254	0.028
-314.983	-200.000	-0.040	-0.197
-313.968	612.828	0.104	0.259
-312.953	-39.393	0.153	-0.080
-311.939	89.307	0.144	-0.160
-310.924	23.618	-0.279	-0.229
-309.910	-81.149	0.046	-0.015
-308.895	-200.000	0.064	0.371
-307.880	60.248	-0.168	0.165
-306.866	-200.000	0.024	0.331
-305.851	-41.427	0.227	0.116
-304.837	-200.000	-0.008	-0.163
-303.822	70.530	-0.082	0.084
-302.807	37.363	0.237	0.209
-301.793	-191.221	-0.261	-0.003
-300.778	-158.323	0.106	0.006
-299.764	463.783	-0.063	-0.141
-298.749	-70.245	-0.245	0.093
-297.735	310.271	-0.099	-0.185
-296.720	313.766	-0.024	-0.045
-295.705	29.902	0.082	0.070
-294.691	195.431	-0.140	-0.213
-293.676	800.000	0.046	0.142
-292.662	16.858	-0.319	0.252
-291.647	343.703	0.189	-0.368
-290.632	800.000	0.049	-0.150
-289.618	106.888	-0.085	0.101
-288.603	-37.006	-0.176	0.094
-287.589	63.631	-0.130	-0.129
-286.574	-118.921	0.171	-0.030
-285.559	800.000	-0.075	-0.321
-284.545	411.693	0.133	0.281
-283.530	-200.000	0.017	0.289
-282.516	107.517	0.170	-0.201
-281.501	-151.906	-0.082	-0.006
-280.486	-200.000	0.031	0.297
-279.472	-54.548	0.247	0.111
-278.457	800.000	-0.077	0.290
-277.443	-24.185	0.276	0.164
-276.428	99.935	0.139	0.160
-275.413	-160.144	0.132	-0.007
-274.399	25.556	0.044	-0.036
-273.384	0.456	-0.138	-0.098
-272.370	167.952	0.173	-0.245
-271.355	108.913	-0.168	-0.200
-270.340	-74.508	-0.199	0.071
-269.326	62.877	-0.213	0.212
-268.311	263.680	-0.082	-0.141
-267.297	-55.889	0.203	-0.090
-266.282	26.094	0.345	-0.286
-265.267	-200.000	0.020	-0.219
-264.253	148.101	-0.178	0.240
-263.238	800.000	0.071	0.198
-262.224	-106.021	0.385	-0.086
-261.209	-59.761	0.201	-0.086
-260.195	117.947	0.265	0.324
-259.180	-53.832	-0.172	0.078
-258.165	-9.467	-0.112	-0.075
-257.151	116.362	0.130	-0.158
-256.136	81.836	-0.072	0.077
-255.122	443.255	-0.101	-0.220
-254.107	800.000	0.098	0.355
-253.092	31.848	-0.110	0.094
-252.078	184.090	0.163	0.239
-251.063	800.000	0.036	0.110
-250.049	315.046	0.129	0.241
-249.034	8.469	-0.088	0.066
-248.019	800.000	0.038	-0.109
-247.005	171.727	-0.189	0.269
-245.990	38.779	0.277	-0.246
-244.976	15.971	-0.248	-0.194
-243.961	-200.000	0.025	-0.229
-242.946	8.703	0.240	0.180
-241.932	-12.189	-0.123	0.080
-240.917	-56.497	0.106	-0.047
-239.903	-82.344	0.158	-0.051
-238.888	-200.000	-0.079	-0.415
-237.873	-200.000	-0.054	-0.248
-236.859	0.595	-0.136	0.096
-235.844	-12.360	-0.339	0.220
-234.830	800.000	0.047	0.133
-233.815	-56.470	-0.330	-0.146
-232.800	109.090	-0.127	0.150
-231.786	-58.289	0.348	0.150
-230.771	-22.474	-0.308	0.185
-229.757	-147.973	-0.135	0.011
-228.742	-200.000	-0.007	-0.068
-227.727	-116.589	-0.137	0.025
-226.713	119.540	-0.026	-0.031
-225.698	-200.000	0.010	0.125
-224.684	228.952	0.078	0.127
-223.669	-60.139	-0.373	0.158
-222.655	800.000	-0.034	0.133
-221.640	800.000	0.042	0.146
-220.625	800.000	0.088	0.325
-219.611	-179.087	-0.462	0.010
-218.596	-200.000	0.010	-0.134
-217.582	-96.315	-0.505	-0.133
-216.567	-200.000	-0.014	-0.108
-215.552	40.960	0.241	0.216
-214.538	-90.817	0.408	-0.117
-213.523	-200.000	-0.023	0.297
-212.509	739.573	0.100	0.268
-211.494	32.699	0.063	-0.054
-210.479	47.254	-0.256	0.236
-209.465	-105.211	-0.076	-0.017
-208.450	101.736	0.171	-0.198
-207.436	275.048	0.047	-0.082
-206.421	252.372	-0.064	0.109
-205.406	-121.672	0.132	0.022
-204.392	-200.000	0.040	-0.178
-203.377	800.000	-0.070	0.224
-202.363	-10.095	0.374	0.246
-201.348	-170.766	0.414	0.014
-200.333	-200.000	-0.090	0.443
-199.319	539.208	0.149	0.352
-198.304	-31.691	0.118	-0.066
-197.290	-76.298	-0.170	0.059
-196.275	356.240	-0.054	0.106
-195.260	36.377	0.144	-0.126
-194.246	-112.426	0.150	-0.030
-193.231	-68.879	-0.291	0.111
-192.217	-200.000	0.053	0.265
-191.202	-156.357	-0.170	0.011
-190.187	13.599	0.293	0.226
-189.173	-200.000	0.046	-0.258
-188.158	-200.000	-0.024	-0.186
-187.144	345.807	-0.094	0.182
-186.129	-200.000	0.018	-0.244
-185.114	292.558	-0.109	-0.197
-184.100	-200.000	0.014	-0.069
-183.085	60.034	0.012	0.012
-182.071	-166.480	-0.401	-0.017
-181.056	-125.633	-0.245	0.037
-180.042	114.982	-0.200	0.242
-179.027	-55.799	0.091	-0.041
-178.012	4.826	-0.364	0.265
-176.998	43.539	-0.253	-0.229
-175.983	29.275	-0.225	-0.189
-174.969	-200.000	0.031	-0.405
-173.954	-200.000	0.043	-0.246
-172.939	-110.405	-0.192	-0.039
-171.925	517.542	-0.065	-0.151
-170.910	-200.000	-0.046	0.465
-169.896	800.000	-0.018	-0.051
-168.881	-22.063	0.230	0.138
-167.866	336.004	0.054	-0.104
-166.852	257.083	0.075	-0.128
-165.837	-125.861	0.323	0.048
-164.823	-138.250	0.100	-0.011
-163.808	84.919	0.108	-0.117
-162.793	32.137	0.210	0.179
-161.779	67.283	-0.164	0.166
-160.764	77.229	0.162	-0.170
-159.750	111.786	-0.110	0.131
-158.735	-173.280	0.127	-0.004
-157.720	-114.717	-0.160	0.030
-156.706	-200.000	-0.035	-0.198
-155.691	-200.000	-0.032	-0.285
-154.677	-53.283	-0.089	-0.040
-153.662	-99.386	-0.031	0.008
-152.647	-80.828	-0.419	-0.138
-151.633	800.000	-0.018	0.055
-150.618	-200.000	-0.036	0.345
-149.604	-129.180	0.162	-0.022
-148.589	26.699	-0.237	-0.196
-147.574	-124.636	-0.303	-0.046
-146.560	-107.210	0.094	-0.020
-145.545	43.623	-0.273	0.247
-144.531	-112.634	-0.012	-0.002
-143.516	-200.000	-0.005	0.111
-142.502	16.759	-0.224	-0.176
-141.487	768.279	0.092	0.249
-140.472	-200.000	-0.060	-0.347
-139.458	800.000	-0.077	-0.222
-138.443	313.608	0.063	-0.118
-137.429	-49.884	0.415	0.195
-136.414	37.815	0.228	-0.200
-135.399	134.638	0.273	0.350
-134.385	-11.591	-0.151	0.098
-133.370	800.000	-0.051	0.163
-132.356	-48.829	-0.263	0.125
-131.341	-37.396	0.066	-0.035
-130.326	-200.000	0.034	0.227
-129.312	-58.798	0.166	-0.071
-128.297	-98.131	-0.066	-0.017
-127.283	-4.552	0.041	-0.028
-126.268	468.863	-0.117	0.260
-125.253	-15.734	0.257	0.162
-124.239	229.637	-0.105	-0.169
-123.224	-76.661	0.316	0.110
-122.210	119.797	-0.154	-0.188
-121.195	-32.645	0.337	0.185
-120.180	-70.181	-0.443	0.167
