DTS Sentinel unit serial number:	SN413079Multiplexer serial number:	ORYXHardware model number:	OX4-SRSoftware version number:	ORYX F/W v4.00 Oryx Data Collector v3.7.2.0data status	okinstallation	princeton_trtdifferential loss correction	single-endedforward channel	channel 2reverse channel	N/Adate	2019/09/16time	07:19:34forward acquisition time	60.00reverse acquisition time	0.00gamma	496.2192k internal	0.2334k external	0.2334temperature offset calibration	0.9977default loss term (dB/km)	0.3790temperature slope calibration	1.0000multiplexer offset coefficient	1.0000multiplexer slope coefficient	1.0000fibre end	0.00T internal ref (°C)	27.44T ext. ref 1 (°C)	11.57T ext. ref 2 (°C)	22.66length (m)	temperature (°C)	Stokes	anti-Stokes-747.200	171.322	0.219	0.315
-746.185	428.577	-0.042	0.091
-745.171	48.654	0.199	0.188
-744.156	800.000	0.039	0.148
-743.142	-113.741	0.177	0.035
-742.127	-66.748	-0.150	0.059
-741.112	800.000	0.043	0.131
-740.098	-69.181	-0.349	-0.135
-739.083	-75.579	0.486	-0.174
-738.069	-200.000	-0.056	0.245
-737.054	-121.515	0.075	0.013
-736.039	-89.081	-0.207	-0.062
-735.025	800.000	0.093	-0.394
-734.010	-115.110	0.219	-0.042
-732.996	49.623	-0.089	-0.085
-731.981	-15.922	-0.328	-0.210
-730.966	-55.151	-0.219	0.099
-729.952	800.000	-0.030	0.101
-728.937	-171.999	-0.171	0.006
-727.923	-125.338	0.191	0.029
-726.908	-104.808	0.282	0.065
-725.894	97.131	0.113	-0.130
-724.879	800.000	0.130	-0.428
-723.864	-64.929	0.307	0.125
-722.850	583.765	0.121	0.298
-721.835	-97.682	-0.382	-0.099
-720.821	-200.000	-0.019	0.135
-719.806	-200.000	0.033	0.226
-718.791	-47.331	-0.349	-0.171
-717.777	-66.377	-0.287	0.115
-716.762	-200.000	-0.005	0.214
-715.748	62.863	-0.019	-0.019
-714.733	-46.913	0.255	-0.125
-713.718	-94.156	-0.316	0.087
-712.704	-200.000	-0.027	0.120
-711.689	800.000	-0.024	-0.072
-710.675	-162.325	-0.114	0.006
-709.660	-89.287	0.327	0.097
-708.645	-35.197	-0.214	0.117
-707.631	18.552	0.228	-0.183
-706.616	800.000	0.057	-0.192
-705.602	-200.000	0.010	0.064
-704.587	-129.913	-0.361	-0.050
-703.572	291.561	0.152	-0.278
-702.558	-200.000	0.000	-0.240
-701.543	-6.151	0.140	-0.096
-700.529	-175.183	0.168	0.005
-699.514	800.000	0.033	0.135
-698.499	13.103	0.225	0.175
-697.485	-58.376	-0.067	0.029
-696.470	78.726	0.157	-0.169
-695.456	69.742	-0.103	-0.106
-694.441	292.548	-0.067	0.122
-693.426	651.482	-0.024	-0.061
-692.412	87.884	-0.205	0.228
-691.397	-56.174	-0.378	0.169
-690.383	-200.000	-0.075	-0.448
-689.368	38.071	0.147	-0.131
-688.354	20.594	-0.254	-0.206
-687.339	35.708	-0.065	0.057
-686.324	-22.031	-0.527	-0.321
-685.310	480.020	-0.057	-0.129
-684.295	-200.000	0.020	0.147
-683.281	-132.375	0.122	-0.016
-682.266	404.387	0.159	-0.336
-681.251	492.127	0.049	-0.112
-680.237	91.660	0.034	0.039
-679.222	311.166	0.077	-0.144
-678.208	103.055	-0.187	0.220
-677.193	-200.000	0.046	-0.226
-676.178	686.409	0.059	0.155
-675.164	422.509	-0.209	0.450
-674.149	71.859	0.134	0.140
-673.135	379.973	0.138	0.284
-672.120	-54.377	0.246	0.112
-671.105	370.044	-0.057	0.115
-670.091	-6.752	0.057	-0.039
-669.076	117.427	0.218	0.268
-668.062	-127.648	-0.017	-0.002
-667.047	535.509	0.042	-0.100
-666.032	-102.062	-0.113	-0.027
-665.018	800.000	0.079	-0.312
-664.003	155.300	0.129	-0.177
-662.989	-74.808	-0.259	0.093
-661.974	0.122	-0.225	0.161
-660.959	-16.142	0.096	0.061
-659.945	532.014	-0.126	0.299
-658.930	-200.000	0.025	-0.230
-657.916	-92.909	0.296	-0.083
-656.901	-200.000	0.003	0.143
-655.886	-102.811	-0.496	-0.118
-654.872	800.000	0.126	-0.365
-653.857	347.313	0.111	0.219
-652.843	800.000	-0.096	0.311
-651.828	121.120	-0.125	0.156
-650.814	-200.000	-0.007	0.138
-649.799	800.000	-0.047	-0.153
-648.784	296.752	-0.057	-0.105
-647.770	-62.998	-0.303	-0.126
-646.755	-54.385	0.385	0.175
-645.741	-103.476	0.203	0.048
-644.726	187.928	0.130	0.194
-643.711	537.702	0.124	-0.295
-642.697	-48.282	-0.261	-0.126
-641.682	102.690	-0.038	0.044
-640.668	665.994	0.013	0.032
-639.653	-113.945	-0.387	0.075
-638.638	-134.607	-0.498	0.061
-637.624	283.136	0.079	-0.143
-636.609	-200.000	-0.027	-0.284
-635.595	21.111	-0.133	0.108
-634.580	361.289	-0.083	-0.167
-633.565	-200.000	-0.021	0.099
-632.551	-83.583	0.197	-0.063
-631.536	-200.000	0.000	0.114
-630.522	16.737	-0.206	0.163
-629.507	-200.000	-0.025	0.311
-628.492	799.676	-0.047	0.131
-627.478	-5.463	0.004	-0.002
-626.463	-137.328	-0.132	-0.015
-625.449	294.548	-0.176	0.323
-624.434	800.000	0.031	-0.098
-623.419	483.220	-0.086	-0.195
-622.405	533.946	-0.049	0.116
-621.390	-141.833	0.213	-0.021
-620.376	-50.017	-0.322	0.152
-619.361	53.033	-0.109	0.105
-618.346	-7.817	0.154	0.104
-617.332	-200.000	0.007	0.286
-616.317	176.126	0.126	-0.183
-615.303	233.426	-0.093	-0.153
-614.288	359.967	-0.047	-0.094
-613.273	-42.675	0.243	-0.124
-612.259	-125.361	0.047	-0.007
-611.244	115.099	-0.148	-0.180
-610.230	208.575	-0.133	0.208
-609.215	-200.000	-0.010	-0.218
-608.201	256.664	0.054	0.092
-607.186	-116.756	-0.219	-0.040
-606.171	-90.645	0.246	-0.071
-605.157	-10.828	-0.126	-0.083
-604.142	-137.138	-0.477	-0.054
-603.128	-189.043	0.241	-0.003
-602.113	-50.502	0.125	-0.059
-601.098	-200.000	-0.013	0.117
-600.084	-200.000	0.033	0.157
-599.069	-159.645	0.114	0.006
-598.055	64.083	0.368	0.370
-597.040	-200.000	0.015	0.244
-596.025	-95.938	-0.272	-0.072
-595.011	-200.000	0.016	-0.272
-593.996	413.653	0.102	0.217
-592.982	155.217	0.147	-0.203
-591.967	-200.000	-0.026	0.221
-590.952	9.673	-0.159	-0.120
-589.938	83.206	-0.172	0.187
-588.923	-54.957	0.152	-0.069
-587.909	-153.019	-0.278	-0.020
-586.894	96.511	0.107	0.122
-585.879	290.685	-0.117	0.212
-584.865	-30.345	-0.179	0.102
-583.850	-99.563	0.068	0.017
-582.836	-69.802	-0.287	-0.109
-581.821	17.025	0.301	-0.238
-580.806	180.429	-0.289	0.424
-579.792	-102.728	-0.184	-0.044
-578.777	4.812	-0.156	0.114
-577.763	800.000	0.132	0.393
-576.748	748.762	0.019	0.052
-575.733	-64.988	-0.147	-0.059
-574.719	169.011	0.152	-0.216
-573.704	-200.000	-0.070	0.310
-572.690	-200.000	0.003	-0.087
-571.675	-84.099	-0.307	-0.097
-570.661	-138.944	0.192	-0.021
-569.646	-24.911	-0.226	-0.134
-568.631	43.128	0.146	-0.133
-567.617	-199.524	-0.061	0.000
-566.602	-42.081	-0.332	-0.170
-565.588	-71.625	0.253	-0.094
-564.573	-112.677	0.055	0.011
-563.558	-63.669	0.080	0.033
-562.544	180.903	0.166	-0.244
-561.529	-48.188	-0.067	-0.032
-560.515	800.000	0.048	-0.156
-559.500	38.226	-0.202	0.180
-558.485	747.733	0.115	-0.309
-557.471	-200.000	-0.037	0.299
-556.456	112.457	-0.151	-0.183
-555.442	-200.000	0.018	0.394
-554.427	-200.000	0.002	0.049
-553.412	-80.779	-0.278	0.092
-552.398	-69.442	-0.268	0.102
-551.383	-200.000	-0.025	0.332
-550.369	-200.000	-0.001	-0.019
-549.354	-200.000	-0.025	0.125
-548.339	-125.316	0.077	-0.012
-547.325	-121.819	0.355	-0.058
-546.310	-79.136	0.322	-0.109
-545.296	-17.760	0.441	0.276
-544.281	383.683	-0.044	0.090
-543.266	-46.553	-0.255	-0.125
-542.252	800.000	0.017	0.062
-541.237	120.983	-0.318	-0.395
-540.223	-100.670	0.074	-0.018
-539.208	-6.181	-0.411	-0.280
-538.193	-112.426	0.147	-0.029
-537.179	800.000	0.030	0.104
-536.164	-200.000	-0.030	-0.347
-535.150	-75.342	0.218	0.077
-534.135	-133.767	-0.346	-0.043
-533.121	-200.000	0.054	0.602
-532.106	-200.000	0.047	-0.216
-531.091	-116.882	0.210	-0.038
-530.077	60.506	0.224	0.221
-529.062	-159.715	0.407	-0.022
-528.048	-69.754	-0.201	-0.076
-527.033	209.997	-0.121	-0.190
-526.018	-200.000	0.016	0.081
-525.004	-62.325	-0.069	-0.029
-523.989	-21.552	-0.295	-0.179
-522.975	-200.000	-0.028	-0.230
-521.960	200.768	-0.046	-0.071
-520.945	407.483	-0.156	-0.328
-519.931	1.204	0.045	-0.032
-518.916	800.000	0.150	-0.496
-517.902	-200.000	-0.043	-0.207
-516.887	415.838	-0.111	0.235
-515.872	800.000	0.005	-0.023
-514.858	-46.868	-0.086	0.042
-513.843	-106.945	0.176	0.039
-512.829	-200.000	0.050	-0.399
-511.814	800.000	-0.037	-0.133
-510.799	-99.252	0.186	0.047
-509.785	26.249	-0.190	0.158
-508.770	-91.016	0.209	-0.060
-507.756	-57.831	-0.144	-0.063
-506.741	-200.000	-0.021	-0.417
-505.726	-200.000	0.039	0.286
-504.712	220.547	0.044	-0.070
-503.697	598.158	-0.039	0.097
-502.683	-39.109	0.161	-0.084
-501.668	-3.470	-0.319	-0.221
-500.653	-200.000	0.026	-0.169
-499.639	-24.455	-0.058	0.034
-498.624	531.234	-0.129	0.304
-497.610	94.339	-0.266	-0.300
-496.595	-153.573	0.039	0.003
-495.581	268.273	-0.163	-0.285
-494.566	-76.806	-0.215	-0.075
-493.551	-67.231	-0.074	0.029
-492.537	800.000	-0.027	-0.116
-491.522	98.810	-0.099	-0.114
-490.508	-54.508	0.243	0.109
-489.493	142.732	-0.064	-0.084
-488.478	-57.873	-0.021	0.009
-487.464	290.271	0.137	-0.247
-486.449	231.910	-0.109	-0.177
-485.435	-96.140	0.099	-0.026
-484.420	-71.687	-0.271	-0.101
-483.405	800.000	0.069	0.299
-482.391	-72.456	-0.128	0.047
-481.376	146.055	0.094	0.126
-480.362	-80.022	-0.339	-0.113
-479.347	-161.727	0.066	0.003
-478.332	44.554	0.176	-0.161
-477.318	-64.366	0.166	0.067
-476.303	-112.873	0.237	0.047
-475.289	-64.329	-0.242	0.098
-474.274	215.337	-0.188	0.296
-473.259	800.000	-0.010	0.035
-472.245	28.727	0.145	-0.122
-471.230	-113.835	0.224	0.043
-470.216	-119.203	0.451	0.078
-469.201	-50.562	0.195	-0.091
-468.186	212.836	0.084	-0.132
-467.172	77.799	-0.109	-0.115
-466.157	-200.000	0.011	0.063
-465.143	-200.000	0.066	0.378
-464.128	565.365	0.075	-0.181
-463.113	204.303	-0.053	0.082
-462.099	-169.648	0.206	0.007
-461.084	-123.526	-0.303	-0.048
-460.070	25.804	-0.158	0.131
-459.055	-49.425	-0.422	0.200
-458.040	90.125	-0.108	-0.120
-457.026	-39.806	-0.181	-0.094
-456.011	27.370	0.118	-0.098
-454.997	-200.000	0.018	-0.180
-453.982	-36.165	-0.122	0.065
-452.968	244.150	0.063	-0.105
-451.953	248.169	0.150	-0.253
-450.938	-154.154	0.164	0.011
-449.924	266.815	-0.152	0.265
-448.909	349.950	0.152	0.298
-447.895	-10.390	-0.327	-0.215
-446.880	-117.314	0.103	0.019
-445.865	157.330	0.092	0.126
-444.851	128.061	0.189	-0.239
-443.836	3.329	0.183	-0.132
-442.822	-200.000	-0.011	0.047
-441.807	-90.137	0.259	0.075
-440.792	-190.791	0.064	-0.001
-439.778	-45.289	0.300	-0.148
-438.763	265.938	-0.041	-0.072
-437.749	55.243	0.074	-0.071
-436.734	-200.000	-0.004	0.078
-435.719	-200.000	-0.034	0.263
-434.705	-37.962	-0.188	-0.099
-433.690	-127.591	0.291	0.042
-432.676	800.000	-0.031	0.129
-431.661	-149.246	0.068	0.005
-430.646	195.534	0.014	0.022
-429.632	117.057	-0.112	0.137
-428.617	-30.245	-0.098	0.056
-427.603	800.000	-0.058	0.225
-426.588	-127.957	0.310	-0.044
-425.573	-200.000	0.009	-0.053
-424.559	42.558	-0.051	0.046
-423.544	-107.382	-0.101	0.022
-422.530	-103.423	-0.214	-0.050
-421.515	-13.708	0.194	-0.125
-420.500	173.422	-0.068	-0.097
-419.486	-39.447	0.189	0.098
-418.471	332.146	-0.025	-0.048
-417.457	-6.104	-0.117	-0.079
-416.442	0.940	-0.283	0.201
-415.428	525.120	-0.045	0.104
-414.413	82.706	0.126	-0.136
-413.398	800.000	-0.010	-0.037
-412.384	211.792	0.036	0.057
-411.369	-200.000	-0.114	-0.537
-410.355	394.148	0.112	-0.232
-409.340	36.346	-0.044	0.038
-408.325	-11.667	0.225	-0.147
-407.311	39.265	0.313	-0.278
-406.296	-99.900	0.295	-0.073
-405.282	-168.142	-0.270	0.010
-404.267	-182.792	0.170	-0.003
-403.252	55.355	-0.415	-0.398
-402.238	-118.716	-0.242	0.042
-401.223	481.640	-0.091	0.205
-400.209	96.505	-0.229	0.260
-399.194	-108.869	0.360	0.076
-398.179	800.000	0.075	-0.278
-397.165	165.156	-0.088	-0.123
-396.150	181.254	0.114	0.167
-395.136	-66.485	0.146	-0.058
-394.121	253.954	-0.111	-0.189
-393.106	27.369	0.310	0.258
-392.092	800.000	0.063	0.256
-391.077	-132.195	0.192	0.025
-390.063	800.000	-0.015	0.051
-389.048	678.707	0.033	0.086
-388.033	118.004	0.079	-0.097
-387.019	-113.247	0.304	0.059
-386.004	6.474	-0.032	0.024
-384.990	-153.592	-0.043	-0.003
-383.975	-200.000	-0.045	0.282
-382.960	-117.570	-0.261	-0.047
-381.946	-55.248	-0.236	-0.105
-380.931	-122.797	0.040	-0.006
-379.917	-3.543	0.196	-0.135
-378.902	178.904	-0.187	-0.271
-377.888	-31.148	0.112	0.063
-376.873	-65.363	-0.463	0.185
-375.858	-82.055	-0.157	-0.051
-374.844	49.362	0.252	-0.235
-373.829	328.844	0.126	0.239
-372.815	404.673	0.060	-0.125
-371.800	8.467	0.125	-0.093
-370.785	-200.000	0.022	0.126
-369.771	219.332	-0.157	-0.249
-368.756	-200.000	0.023	0.158
-367.742	-26.735	0.189	0.109
-366.727	-200.000	0.023	0.198
-365.712	60.817	-0.103	-0.101
-364.698	401.755	0.297	-0.617
-363.683	800.000	0.064	0.250
-362.669	250.477	-0.176	-0.295
-361.654	800.000	0.118	0.364
-360.639	-200.000	0.054	-0.273
-359.625	800.000	-0.065	0.269
-358.610	91.428	-0.120	-0.133
-357.596	-43.639	0.197	-0.099
-356.581	130.439	-0.081	0.102
-355.566	117.155	0.013	0.015
-354.552	-200.000	0.058	0.368
-353.537	800.000	-0.013	0.048
-352.523	-200.000	-0.011	0.198
-351.508	800.000	-0.091	0.292
-350.493	246.507	0.099	0.166
-349.479	-200.000	-0.005	0.310
-348.464	-200.000	-0.015	0.277
-347.450	-128.331	0.195	0.028
-346.435	-124.025	0.245	0.038
-345.420	800.000	-0.067	-0.238
-344.406	-200.000	0.004	-0.266
-343.391	-200.000	-0.008	0.110
-342.377	-42.960	0.381	-0.191
-341.362	-149.302	0.217	0.017
-340.348	800.000	0.028	-0.096
-339.333	800.000	0.016	0.053
-338.318	-158.945	0.034	-0.002
-337.304	162.204	0.046	-0.064
-336.289	-91.125	0.126	-0.036
-335.275	4.988	-0.228	-0.166
-334.260	-26.744	0.030	-0.017
-333.245	-144.701	-0.477	-0.043
-332.231	-116.594	0.380	0.069
-331.216	120.895	0.086	-0.106
-330.202	63.098	-0.350	0.347
-329.187	-200.000	-0.036	-0.170
-328.172	-89.075	0.288	0.084
-327.158	-200.000	0.006	0.154
-326.143	93.095	-0.261	0.291
-325.129	344.189	-0.201	0.391
-324.114	214.437	0.106	0.166
-323.099	77.336	0.160	-0.168
-322.085	-108.538	0.181	0.039
-321.070	-27.946	-0.252	-0.144
-320.056	-55.965	0.015	-0.007
-319.041	-72.280	0.486	0.178
-318.026	-34.885	-0.252	0.136
-317.012	-21.690	-0.143	0.086
-315.997	151.459	-0.061	-0.082
-314.983	800.000	0.074	0.307
-313.968	-171.989	0.199	0.006
-312.953	-200.000	-0.214	0.001
-311.939	-7.808	0.084	-0.056
-310.924	277.161	-0.210	0.369
-309.910	-59.658	0.331	0.140
-308.895	-154.523	0.046	0.003
-307.880	39.681	0.173	0.153
-306.866	-10.634	-0.311	0.204
-305.851	509.665	0.035	0.080
-304.837	-8.502	0.186	-0.124
-303.822	-109.971	0.090	0.019
-302.807	415.773	-0.051	0.107
-301.793	-58.813	-0.109	-0.047
-300.778	229.794	-0.076	-0.122
-299.764	-150.754	0.215	-0.016
-298.749	154.703	-0.022	0.030
-297.735	75.843	-0.114	0.119
-296.720	-200.000	0.032	-0.239
-295.705	-125.729	-0.261	-0.039
-294.691	-116.832	0.163	-0.029
-293.676	-4.886	-0.086	-0.058
-292.662	1.798	-0.216	-0.154
-291.647	-86.089	-0.029	0.009
-290.632	29.240	0.043	-0.036
-289.618	-3.196	-0.077	0.053
-288.603	-66.314	0.628	0.247
-287.589	36.138	-0.184	0.160
-286.574	31.026	-0.198	0.168
-285.559	-134.541	0.318	-0.038
-284.545	-74.537	-0.072	-0.026
-283.530	22.295	-0.186	0.150
-282.516	800.000	-0.025	0.094
-281.501	-200.000	-0.013	0.228
-280.486	125.235	-0.148	-0.185
-279.472	800.000	-0.019	0.052
-278.457	160.957	-0.067	-0.093
-277.443	241.632	-0.065	-0.106
-276.428	51.888	-0.285	-0.268
-275.413	-200.000	-0.053	-0.530
-274.399	-200.000	0.025	0.246
-273.384	-101.575	0.080	0.019
-272.370	-42.211	0.277	-0.140
-271.355	-200.000	0.007	-0.158
-270.340	232.668	0.246	-0.399
-269.326	-99.995	-0.354	0.087
-268.311	153.119	0.271	0.365
-267.297	21.869	0.123	0.099
-266.282	9.785	0.388	-0.290
-265.267	-200.000	-0.038	0.282
-264.253	-136.239	0.295	0.034
-263.238	-63.718	-0.061	-0.025
-262.224	-200.000	0.058	0.267
-261.209	-6.660	-0.085	-0.057
-260.195	80.251	-0.352	-0.374
-259.180	-71.118	-0.258	-0.095
-258.165	23.314	0.118	0.095
-257.151	-200.000	0.003	-0.204
-256.136	725.419	0.072	0.189
-255.122	68.051	-0.156	-0.158
-254.107	800.000	0.064	-0.274
-253.092	-167.387	0.344	-0.014
-252.078	-0.526	0.170	0.119
-251.063	800.000	0.054	0.178
-250.049	-200.000	0.024	0.188
-249.034	281.261	-0.066	-0.117
-248.019	589.562	-0.088	0.213
-247.005	-93.196	-0.259	-0.071
-245.990	133.253	-0.073	0.093
-244.976	544.730	0.052	0.123
-243.961	800.000	0.088	-0.348
-242.946	800.000	-0.073	-0.228
-241.932	800.000	0.066	0.187
-240.917	-20.856	0.292	0.176
-239.903	-172.483	-0.325	0.010
-238.888	-155.616	0.148	0.009
-237.873	-4.102	0.330	0.225
-236.859	653.038	-0.057	-0.143
-235.844	5.098	0.264	0.191
-234.830	-200.000	-0.033	-0.163
-233.815	-3.926	-0.190	0.130
-232.800	800.000	0.114	-0.325
-231.786	-139.487	-0.065	0.007
-230.771	144.857	-0.126	0.166
-229.757	469.635	0.052	0.115
-228.742	75.207	0.112	-0.116
-227.727	41.461	-0.163	-0.145
-226.713	-74.804	0.243	-0.086
-225.698	-75.631	-0.234	-0.082
-224.684	-124.986	-0.251	0.038
-223.669	-89.450	-0.239	0.069
-222.655	537.412	-0.157	0.368
-221.640	492.608	-0.071	-0.161
-220.625	39.195	-0.163	-0.143
-219.611	4.644	-0.191	-0.138
-218.596	-61.351	-0.124	0.051
-217.582	-200.000	0.022	0.332
-216.567	-32.753	0.179	-0.098
-215.552	-90.966	-0.405	0.115
-214.538	27.156	-0.094	-0.078
-213.523	-158.492	-0.082	0.005
-212.509	87.686	-0.147	-0.160
-211.494	-78.375	0.226	0.076
-210.479	10.069	0.177	-0.132
-209.465	-200.000	-0.013	-0.202
-208.450	-200.000	-0.053	-0.233
-207.436	74.233	0.187	0.193
-206.421	-35.458	-0.112	-0.060
-205.406	49.873	0.250	-0.232
-204.392	-16.717	-0.228	0.142
-203.377	232.297	0.065	-0.106
-202.363	115.050	0.257	-0.309
-201.348	800.000	0.037	0.151
-200.333	-200.000	0.068	0.327
-199.319	136.518	0.207	0.266
-198.304	-110.818	-0.325	0.066
-197.290	44.575	-0.025	0.023
-196.275	79.120	-0.090	-0.095
-195.260	28.132	-0.167	-0.139
-194.246	-28.237	0.306	0.174
-193.231	-200.000	0.026	0.334
-192.217	16.633	0.154	0.120
-191.202	407.895	0.103	-0.214
-190.187	7.840	0.010	0.008
-189.173	-137.216	-0.074	-0.008
-188.158	800.000	0.088	-0.269
-187.144	454.997	0.087	-0.189
-186.129	-99.445	0.035	-0.009
-185.114	254.896	-0.063	0.107
-184.100	-147.380	-0.160	-0.013
-183.085	800.000	-0.069	0.286
-182.071	-65.626	-0.323	0.127
-181.056	-151.200	0.156	0.011
-180.042	180.660	0.301	-0.434
-179.027	800.000	0.106	-0.349
-178.012	241.490	0.101	0.165
-176.998	34.787	0.088	0.076
-175.983	220.741	0.201	0.317
-174.969	800.000	0.079	0.312
-173.954	665.847	0.073	0.186
-172.939	-148.862	-0.156	-0.012
-171.925	191.936	-0.183	-0.271
-170.910	-200.000	0.035	0.340
-169.896	800.000	0.068	0.237
-168.881	-200.000	0.006	-0.193
-167.866	-124.503	-0.389	0.059
-166.852	800.000	-0.025	-0.090
-165.837	-146.360	-0.226	-0.019
-164.823	-200.000	0.271	-0.001
-163.808	238.812	0.068	0.112
-162.793	-200.000	0.002	0.098
-161.779	-96.587	-0.263	-0.068
-160.764	-8.649	0.209	-0.138
-159.750	-200.000	0.001	-0.111
-158.735	-7.409	0.219	-0.146
-157.720	-54.424	-0.165	0.074
-156.706	242.766	0.175	-0.288
-155.691	-85.869	-0.027	0.008
-154.677	-65.675	0.059	-0.023
-153.662	237.772	0.133	0.217
-152.647	-66.199	0.243	-0.095
-151.633	770.583	0.082	-0.219
-150.618	294.344	0.127	0.228
-149.604	-91.916	-0.097	-0.027
-148.589	100.817	0.248	0.283
-147.574	-113.319	-0.398	-0.077
-146.560	-112.524	-0.287	0.056
-145.545	-200.000	0.020	0.212
-144.531	-200.000	0.029	-0.254
-143.516	-120.308	0.358	0.060
-142.502	195.853	0.058	0.086
-141.487	-200.000	-0.040	-0.391
-140.472	-77.344	0.161	-0.055
-139.458	-94.590	-0.322	0.086
-138.443	-200.000	-0.059	0.277
-137.429	-27.839	0.126	-0.072
-136.414	-200.000	0.008	-0.214
-135.399	-159.477	-0.247	-0.013
-134.385	-83.294	0.434	-0.137
-133.370	-41.820	0.122	0.061
-132.356	800.000	0.038	-0.110
-131.341	-115.047	-0.234	0.044
-130.326	-198.037	0.114	0.001
-129.312	-98.495	0.278	0.070
-128.297	49.796	-0.216	0.200
-127.283	-44.670	-0.177	0.087
-126.268	59.710	-0.095	-0.092
-125.253	-200.000	0.043	0.268
-124.239	-108.359	0.019	-0.004
-123.224	-113.586	0.274	-0.053
-122.210	-200.000	-0.011	-0.075
-121.195	-126.445	-0.032	-0.005
