DTS Sentinel unit serial number:	SN413079Multiplexer serial number:	ORYXHardware model number:	OX4-SRSoftware version number:	ORYX F/W v4.00 Oryx Data Collector v3.7.2.0data status	okinstallation	princeton_trtdifferential loss correction	single-endedforward channel	channel 2reverse channel	N/Adate	2019/09/12time	03:05:11forward acquisition time	60.00reverse acquisition time	0.00gamma	496.2192k internal	0.2326k external	0.2326temperature offset calibration	1.0093default loss term (dB/km)	0.3790temperature slope calibration	1.0000multiplexer offset coefficient	1.0000multiplexer slope coefficient	1.0000fibre end	0.00T internal ref (°C)	32.30T ext. ref 1 (°C)	2.11T ext. ref 2 (°C)	27.41length (m)	temperature (°C)	Stokes	anti-Stokes-747.200	-23.442	0.250	0.152
-746.185	-200.000	-0.026	0.279
-745.171	-102.054	0.074	0.018
-744.156	-88.646	0.064	-0.019
-743.142	291.603	-0.300	-0.551
-742.127	186.715	0.035	0.053
-741.112	142.430	0.176	-0.235
-740.098	249.428	0.189	0.323
-739.083	-57.888	0.081	-0.036
-738.069	482.373	0.056	-0.129
-737.054	-200.000	-0.030	0.176
-736.039	-126.194	0.031	-0.005
-735.025	-200.000	-0.003	0.070
-734.010	97.447	-0.101	-0.116
-732.996	-200.000	0.001	-0.105
-731.981	13.006	-0.225	0.176
-730.966	-85.961	-0.204	-0.064
-729.952	235.584	0.072	0.119
-728.937	-70.001	-0.274	-0.105
-727.923	73.688	0.225	-0.238
-726.908	-200.000	0.013	0.212
-725.894	-32.173	-0.256	-0.144
-724.879	7.779	-0.091	-0.068
-723.864	-200.000	-0.025	-0.416
-722.850	-200.000	-0.004	0.548
-721.835	800.000	0.008	0.028
-720.821	-119.551	0.167	-0.029
-719.806	-0.378	-0.240	-0.172
-718.791	-200.000	-0.001	0.058
-717.777	-142.307	-0.298	-0.030
-716.762	300.399	-0.111	0.207
-715.748	-200.000	0.019	-0.291
-714.733	-36.884	0.090	-0.049
-713.718	723.432	0.070	-0.187
-712.704	387.541	-0.095	-0.197
-711.689	-70.452	-0.253	-0.097
-710.675	-200.000	-0.021	0.136
-709.660	800.000	0.063	0.180
-708.645	115.510	0.200	0.246
-707.631	-27.474	-0.207	-0.121
-706.616	-120.847	-0.298	0.050
-705.602	800.000	-0.077	-0.302
-704.587	800.000	0.058	-0.184
-703.572	-69.923	0.090	-0.034
-702.558	36.857	0.264	-0.235
-701.543	-200.000	0.058	-0.517
-700.529	-140.934	0.084	0.009
-699.514	-200.000	-0.022	-0.193
-698.499	134.969	0.061	-0.079
-697.485	203.124	-0.024	-0.037
-696.470	300.670	-0.170	-0.316
-695.456	-33.926	0.211	-0.117
-694.441	-163.562	0.304	0.014
-693.426	-200.000	0.022	-0.125
-692.412	-200.000	0.005	0.158
-691.397	164.708	-0.241	0.342
-690.383	-102.527	0.265	-0.064
-689.368	173.402	0.067	0.098
-688.354	209.649	0.090	-0.141
-687.339	252.516	0.163	0.279
-686.324	-44.996	0.178	0.089
-685.310	-200.000	0.041	-0.257
-684.295	453.550	-0.145	0.322
-683.281	-200.000	0.047	-0.238
-682.266	-87.174	-0.167	-0.051
-681.251	119.491	-0.180	-0.225
-680.237	-16.327	-0.182	0.116
-679.222	-3.137	0.043	0.030
-678.208	-177.848	0.298	0.007
-677.193	582.654	0.028	-0.068
-676.178	-90.332	0.303	-0.088
-675.164	-77.084	0.044	0.015
-674.149	-44.001	0.356	-0.180
-673.135	-58.913	-0.186	-0.081
-672.120	-200.000	-0.063	0.484
-671.105	-121.689	0.499	-0.083
-670.091	-200.000	-0.021	-0.106
-669.076	-116.368	0.273	0.051
-668.062	761.478	-0.086	-0.235
-667.047	114.293	-0.180	0.220
-666.032	210.810	-0.104	-0.164
-665.018	163.445	0.122	-0.173
-664.003	-200.000	0.073	-0.405
-662.989	37.185	-0.241	-0.214
-661.974	327.857	0.096	-0.186
-660.959	34.630	0.247	-0.217
-659.945	-200.000	-0.004	-0.346
-658.930	487.270	0.081	-0.186
-657.916	-69.716	0.167	-0.064
-656.901	-72.435	-0.253	0.094
-655.886	154.286	0.164	0.226
-654.872	800.000	0.108	-0.418
-653.857	-17.100	0.302	-0.192
-652.843	-19.569	-0.070	0.044
-651.828	-129.298	-0.252	0.035
-650.814	-161.555	0.226	0.012
-649.799	-104.017	0.004	-0.001
-648.784	251.399	0.139	-0.237
-647.770	800.000	-0.033	-0.097
-646.755	224.798	0.098	0.159
-645.741	800.000	-0.056	0.239
-644.726	800.000	0.013	-0.037
-643.711	-170.395	0.010	-0.000
-642.697	-147.580	-0.177	0.015
-641.682	-144.860	0.036	0.003
-640.668	390.787	0.146	0.304
-639.653	64.456	-0.149	0.151
-638.638	800.000	0.040	0.155
-637.624	800.000	-0.118	0.352
-636.609	173.065	0.051	-0.074
-635.595	23.159	0.100	-0.082
-634.580	-114.146	-0.098	0.019
-633.565	24.501	-0.250	-0.208
-632.551	157.421	0.098	-0.137
-631.536	800.000	0.018	0.064
-630.522	-107.064	0.235	0.052
-629.507	-152.946	-0.382	-0.027
-628.492	90.532	0.128	-0.144
-627.478	800.000	-0.121	0.402
-626.463	54.432	-0.164	0.159
-625.449	800.000	0.124	-0.350
-624.434	147.246	-0.050	-0.068
-623.419	661.067	-0.079	-0.204
-622.405	-45.334	-0.223	-0.111
-621.390	118.425	-0.041	-0.050
-620.376	-82.712	0.210	-0.068
-619.361	-44.345	-0.181	0.091
-618.346	800.000	-0.058	0.164
-617.332	-63.305	0.168	0.069
-616.317	-11.949	-0.317	-0.209
-615.303	-200.000	0.041	-0.183
-614.288	-200.000	0.022	-0.128
-613.273	89.175	-0.099	0.110
-612.259	-14.861	-0.164	0.106
-611.244	76.510	-0.080	0.085
-610.230	-120.628	-0.181	0.031
-609.215	-200.000	-0.004	-0.088
-608.201	-55.471	-0.149	-0.067
-607.186	-50.790	0.366	0.173
-606.171	352.297	-0.163	-0.324
-605.157	367.382	-0.127	-0.258
-604.142	-116.032	-0.104	0.019
-603.128	-25.165	0.044	-0.026
-602.113	800.000	-0.119	0.369
-601.098	-106.098	0.096	0.022
-600.084	-73.530	0.327	0.120
-599.069	-51.629	0.172	-0.080
-598.055	-49.157	-0.114	0.055
-597.040	-105.137	0.197	0.045
-596.025	-200.000	-0.038	0.273
-595.011	85.081	0.105	-0.116
-593.996	-200.000	0.003	-0.146
-592.982	41.971	0.227	-0.207
-591.967	-25.362	0.099	-0.059
-590.952	-92.025	-0.282	-0.080
-589.938	-80.233	-0.128	-0.043
-588.923	-86.521	-0.065	0.020
-587.909	-200.000	0.029	-0.482
-586.894	-76.069	-0.176	-0.062
-585.879	34.183	0.087	-0.076
-584.865	800.000	0.044	0.145
-583.850	11.368	-0.247	0.189
-582.836	800.000	-0.057	-0.186
-581.821	-85.261	-0.369	-0.116
-580.806	-200.000	0.008	0.307
-579.792	175.073	-0.178	-0.259
-578.777	525.294	0.029	-0.067
-577.763	-22.905	0.150	0.090
-576.748	208.232	0.304	0.476
-575.733	47.664	-0.191	-0.179
-574.719	-200.000	-0.006	-0.230
-573.704	-76.814	0.140	-0.049
-572.690	-188.810	-0.103	0.001
-571.675	307.739	0.024	0.044
-570.661	-168.018	0.260	0.010
-569.646	213.295	-0.163	-0.259
-568.631	0.939	-0.442	-0.317
-567.617	504.214	0.031	0.072
-566.602	150.143	-0.076	-0.103
-565.588	-28.142	-0.163	-0.095
-564.573	83.585	-0.160	0.175
-563.558	-186.344	0.074	-0.001
-562.544	20.976	0.122	-0.099
-561.529	82.798	0.245	0.266
-560.515	312.738	-0.035	-0.066
-559.500	8.538	-0.239	-0.180
-558.485	118.562	-0.036	-0.044
-557.471	54.053	0.178	-0.171
-556.456	-72.742	0.178	-0.066
-555.442	147.998	0.131	0.177
-554.427	264.943	0.032	0.056
-553.412	-200.000	-0.004	0.079
-552.398	-200.000	0.035	-0.207
-551.383	753.348	0.120	0.324
-550.369	-200.000	-0.011	-0.200
-549.354	186.661	0.119	-0.178
-548.339	21.110	-0.305	-0.247
-547.325	-92.799	-0.323	-0.090
-546.310	607.880	0.105	-0.262
-545.296	-143.913	0.142	-0.013
-544.281	20.157	0.217	0.175
-543.266	800.000	0.064	0.243
-542.252	-200.000	-0.022	-0.171
-541.237	-76.727	-0.154	-0.054
-540.223	214.580	0.078	-0.123
-539.208	292.967	-0.098	-0.179
-538.193	204.920	-0.150	0.232
-537.179	138.178	-0.040	0.052
-536.164	-88.329	0.259	0.077
-535.150	130.082	0.269	0.345
-534.135	800.000	-0.054	-0.159
-533.121	245.635	0.126	-0.212
-532.106	121.087	0.197	-0.246
-531.091	-167.384	-0.195	0.008
-530.077	178.358	-0.011	-0.016
-529.062	13.760	0.096	0.075
-528.048	-9.438	-0.336	0.224
-527.033	-163.965	0.175	0.008
-526.018	-200.000	0.000	0.054
-525.004	-200.000	0.031	-0.200
-523.989	-200.000	-0.013	0.073
-522.975	-163.804	-0.143	-0.007
-521.960	-44.194	0.203	-0.102
-520.945	-130.104	-0.095	-0.013
-519.931	-142.425	-0.115	-0.011
-518.916	-200.000	-0.069	0.441
-517.902	-139.076	0.394	0.043
-516.887	240.747	-0.074	0.123
-515.872	-40.352	-0.270	-0.140
-514.858	-28.254	0.146	-0.084
-513.843	-175.991	0.282	-0.007
-512.829	385.618	0.050	0.104
-511.814	-107.573	-0.160	-0.035
-510.799	800.000	-0.066	0.202
-509.785	227.641	0.269	0.437
-508.770	-200.000	-0.001	0.198
-507.756	-115.169	-0.260	0.049
-506.741	134.940	-0.126	0.163
-505.726	800.000	0.010	0.029
-504.712	800.000	-0.058	-0.201
-503.697	-101.319	0.155	-0.038
-502.683	-55.509	-0.359	0.161
-501.668	800.000	-0.008	-0.028
-500.653	-200.000	0.003	-0.224
-499.639	9.785	0.354	-0.268
-498.624	-110.430	0.137	-0.029
-497.610	760.598	-0.081	0.219
-496.595	-56.672	-0.308	-0.136
-495.581	-106.562	-0.278	0.062
-494.566	-200.000	-0.083	-0.484
-493.551	12.717	0.200	-0.154
-492.537	-200.000	0.022	-0.204
-491.522	-200.000	-0.004	0.083
-490.508	51.133	-0.036	-0.034
-489.493	-50.598	0.194	0.091
-488.478	652.665	0.159	-0.406
-487.464	800.000	0.049	-0.186
-486.449	91.054	-0.161	-0.180
-485.435	-41.504	0.203	-0.104
-484.420	-143.254	0.269	0.026
-483.405	-152.837	-0.204	0.014
-482.391	800.000	-0.078	0.246
-481.376	-85.974	0.408	0.126
-480.362	-200.000	0.023	0.216
-479.347	793.172	0.067	0.184
-478.332	160.797	-0.039	0.054
-477.318	-65.434	0.337	0.135
-476.303	-118.957	-0.207	-0.036
-475.289	-90.191	-0.105	0.031
-474.274	-200.000	0.008	-0.479
-473.259	104.628	-0.063	-0.074
-472.245	800.000	-0.100	0.309
-471.230	-120.054	-0.060	-0.010
-470.216	-200.000	0.016	0.535
-469.201	-17.113	-0.156	0.098
-468.186	-130.474	-0.179	0.024
-467.172	-200.000	-0.021	0.344
-466.157	451.599	-0.050	0.111
-465.143	64.727	-0.166	0.167
-464.128	-1.266	0.179	0.126
-463.113	87.342	0.256	-0.283
-462.099	-125.695	0.287	-0.043
-461.084	-200.000	-0.023	-0.131
-460.070	550.497	-0.015	0.037
-459.055	-52.935	0.074	-0.034
-458.040	-27.566	-0.280	-0.162
-457.026	800.000	0.028	0.082
-456.011	-81.266	-0.217	-0.071
-454.997	-20.111	-0.255	-0.157
-453.982	-163.959	-0.234	-0.011
-452.968	-73.764	-0.345	-0.125
-451.953	-200.000	-0.014	-0.523
-450.938	-114.529	-0.068	-0.013
-449.924	-46.512	-0.245	-0.120
-448.909	-168.045	0.273	-0.011
-447.895	21.235	-0.135	-0.109
-446.880	338.835	-0.084	0.163
-445.865	-200.000	-0.027	0.251
-444.851	17.929	0.128	-0.102
-443.836	800.000	-0.090	-0.292
-442.822	-25.765	-0.188	0.110
-441.807	-109.411	0.158	0.033
-440.792	549.149	0.172	0.410
-439.778	210.858	0.077	0.121
-438.763	69.479	-0.069	0.071
-437.749	-4.338	0.359	-0.248
-436.734	548.492	-0.002	0.005
-435.719	-55.532	-0.213	0.095
-434.705	-200.000	0.002	-0.134
-433.690	31.987	0.272	-0.234
-432.676	43.422	-0.049	-0.045
-431.661	800.000	0.081	0.223
-430.646	-35.223	-0.371	0.201
-429.632	-56.766	0.545	-0.240
-428.617	656.976	0.080	-0.206
-427.603	-183.911	-0.175	0.003
-426.588	-200.000	0.197	0.001
-425.573	-123.108	-0.236	0.038
-424.559	-167.258	-0.304	-0.012
-423.544	-200.000	-0.033	0.288
-422.530	55.221	-0.103	-0.099
-421.515	-200.000	-0.024	-0.135
-420.500	-24.371	0.311	-0.185
-419.486	-59.094	0.350	-0.150
-418.471	143.156	-0.201	-0.267
-417.457	429.460	0.131	0.282
-416.442	-176.800	0.185	-0.005
-415.428	9.241	0.145	0.109
-414.413	209.758	-0.156	-0.244
-413.398	-200.000	0.011	-0.233
-412.384	-137.232	0.151	0.017
-411.369	27.467	0.148	-0.124
-410.355	591.284	-0.075	0.183
-409.340	89.846	-0.225	0.250
-408.325	-164.982	-0.299	0.013
-407.311	17.298	0.183	-0.144
-406.296	-38.982	-0.154	0.081
-405.282	456.666	-0.128	0.284
-404.267	-78.510	0.113	0.038
-403.252	800.000	0.022	-0.095
-402.238	-189.577	-0.174	-0.002
-401.223	-119.398	0.279	0.048
-400.209	-200.000	-0.078	0.367
-399.194	-200.000	0.014	0.297
-398.179	-116.928	-0.163	-0.030
-397.165	800.000	-0.141	0.405
-396.150	75.300	-0.235	0.246
-395.136	-135.006	0.556	-0.067
-394.121	800.000	-0.111	-0.395
-393.106	-69.630	0.113	-0.043
-392.092	65.613	0.076	-0.076
-391.077	-131.458	-0.316	0.041
-390.063	15.834	-0.306	0.240
-389.048	221.721	0.107	-0.171
-388.033	-200.000	-0.032	-0.287
-387.019	-200.000	0.000	-0.011
-386.004	82.495	0.260	-0.281
-384.990	590.886	-0.041	-0.099
-383.975	-105.646	-0.206	-0.046
-382.960	800.000	0.106	0.304
-381.946	-110.060	0.146	-0.030
-380.931	-200.000	0.009	0.356
-379.917	31.236	0.305	0.260
-378.902	273.760	-0.152	0.267
-377.888	-200.000	0.054	-0.428
-376.873	-60.662	0.018	-0.008
-375.858	-40.296	-0.328	0.170
-374.844	513.626	0.086	-0.200
-373.829	-97.781	0.386	0.099
-372.815	6.264	-0.120	-0.089
-371.800	388.744	0.013	-0.027
-370.785	330.342	0.123	-0.236
-369.771	-200.000	-0.015	-0.123
-368.756	129.650	0.138	0.175
-367.742	-33.692	-0.076	0.042
-366.727	-124.490	0.061	-0.009
-365.712	263.371	-0.147	0.254
-364.698	-114.320	0.194	0.037
-363.683	-132.940	0.158	-0.020
-362.669	-13.887	0.101	-0.065
-361.654	800.000	-0.069	-0.190
-360.639	148.210	0.124	0.167
-359.625	-129.253	-0.166	0.023
-358.610	-82.282	-0.118	0.038
-357.596	-172.406	-0.242	0.008
-356.581	151.923	0.082	0.110
-355.566	-159.103	0.176	-0.010
-354.552	-200.000	-0.003	-0.070
-353.537	191.744	0.118	-0.176
-352.523	-200.000	-0.053	0.329
-351.508	147.113	0.198	0.265
-350.493	-171.752	-0.283	-0.009
-349.479	-200.000	0.027	-0.136
-348.464	-121.283	-0.081	-0.013
-347.450	70.920	0.154	-0.159
-346.435	-40.200	0.103	0.054
-345.420	17.394	-0.132	-0.104
-344.406	355.801	0.009	-0.019
-343.391	800.000	-0.027	-0.079
-342.377	-81.468	-0.071	-0.023
-341.362	3.516	0.092	-0.067
-340.348	224.720	0.086	-0.139
-339.333	-135.970	0.106	-0.012
-338.318	150.778	-0.065	-0.088
-337.304	-10.513	-0.222	-0.146
-336.289	-27.229	0.122	-0.070
-335.275	192.744	0.176	0.264
-334.260	-128.405	-0.248	-0.035
-333.245	161.420	0.110	-0.152
-332.231	-33.771	-0.193	0.105
-331.216	241.539	-0.029	-0.048
-330.202	-200.000	0.067	-0.303
-329.187	57.537	0.108	0.105
-328.172	79.896	-0.096	-0.103
-327.158	89.168	-0.168	-0.186
-326.143	458.434	-0.095	0.210
-325.129	-153.109	-0.344	-0.024
-324.114	-60.568	0.261	0.110
-323.099	-89.834	0.188	0.055
-322.085	-36.418	-0.126	-0.067
-321.070	160.957	-0.337	0.467
-320.056	-5.088	0.120	-0.082
-319.041	94.879	0.283	0.320
-318.026	-200.000	0.086	-0.393
-317.012	-158.427	0.177	0.010
-315.997	382.869	0.146	0.298
-314.983	23.700	-0.355	0.290
-313.968	-50.134	-0.121	0.057
-312.953	46.741	0.064	0.059
-311.939	22.266	0.097	-0.078
-310.924	-113.879	-0.251	0.048
-309.910	800.000	0.034	-0.123
-308.895	-135.790	0.233	-0.027
-307.880	-200.000	0.067	-0.297
-306.866	-45.287	-0.269	-0.133
-305.851	74.340	0.069	-0.072
-304.837	-2.767	-0.039	0.027
-303.822	400.394	0.112	0.234
-302.807	-200.000	-0.015	0.133
-301.793	-200.000	0.028	-0.171
-300.778	129.191	0.047	0.060
-299.764	-200.000	0.024	-0.240
-298.749	82.419	0.049	0.052
-297.735	-55.830	-0.204	0.090
-296.720	294.255	-0.109	-0.198
-295.705	-112.951	-0.183	-0.036
-294.691	-200.000	-0.029	0.340
-293.676	-67.559	0.079	-0.031
-292.662	-61.019	-0.255	-0.107
-291.647	33.992	0.153	-0.132
-290.632	99.633	0.263	-0.302
-289.618	-200.000	0.005	-0.057
-288.603	53.643	-0.084	0.080
-287.589	161.806	-0.088	0.122
-286.574	402.301	-0.092	-0.191
-285.559	350.049	-0.084	-0.165
-284.545	646.408	0.038	-0.096
-283.530	-37.331	0.214	-0.113
-282.516	-41.351	-0.315	-0.161
-281.501	393.543	0.023	-0.047
-280.486	-50.190	0.236	0.111
-279.472	-101.209	0.109	-0.026
-278.457	-20.057	-0.206	0.126
-277.443	26.807	-0.292	0.242
-276.428	134.116	0.247	-0.317
-275.413	-123.853	0.353	0.055
-274.399	664.142	-0.078	0.201
-273.384	-141.553	-0.080	0.008
-272.370	76.978	-0.219	-0.231
-271.355	-200.000	0.065	-0.443
-270.340	-18.416	-0.128	0.079
-269.326	800.000	0.043	-0.144
-268.311	-79.009	0.278	0.094
-267.297	-200.000	-0.007	0.271
-266.282	-44.088	-0.134	-0.067
-265.267	800.000	-0.077	-0.275
-264.253	226.389	-0.117	0.188
-263.238	-19.266	0.330	-0.203
-262.224	194.729	-0.096	-0.144
-261.209	-73.273	-0.227	-0.082
-260.195	223.774	-0.035	-0.056
-259.180	-92.886	-0.276	0.076
-258.165	-92.162	-0.375	-0.105
-257.151	502.353	0.069	0.159
-256.136	154.476	-0.083	0.112
-255.122	-51.890	-0.395	0.182
-254.107	800.000	-0.076	0.207
-253.092	90.042	0.032	0.036
-252.078	323.151	0.105	0.199
-251.063	145.177	-0.134	-0.177
-250.049	-200.000	0.058	0.312
-249.034	800.000	-0.091	0.300
-248.019	-200.000	-0.012	-0.442
-247.005	-94.868	-0.148	-0.040
-245.990	503.953	0.188	0.431
-244.976	69.801	0.248	0.253
-243.961	-21.660	0.040	-0.024
-242.946	335.507	0.012	-0.022
-241.932	50.369	-0.136	-0.127
-240.917	-121.333	-0.196	-0.032
-239.903	37.559	-0.047	0.041
-238.888	-49.964	-0.126	0.059
-237.873	51.232	0.198	-0.186
-236.859	141.002	-0.181	0.236
-235.844	-18.989	-0.272	0.167
-234.830	-167.892	-0.213	0.008
-233.815	-166.765	0.401	0.016
-232.800	673.754	-0.107	0.275
-231.786	-13.286	-0.258	-0.165
-230.771	236.448	0.193	-0.316
-229.757	-81.128	-0.241	0.079
-228.742	88.737	-0.045	-0.049
-227.727	215.754	-0.146	-0.229
-226.713	203.071	-0.059	-0.090
-225.698	-200.000	-0.068	-0.356
-224.684	99.090	-0.149	0.170
-223.669	-174.931	0.158	0.004
-222.655	-137.958	-0.661	0.073
-221.640	-178.323	0.549	0.013
-220.625	-81.171	0.204	-0.067
-219.611	800.000	-0.019	0.063
-218.596	7.226	0.177	0.130
-217.582	-16.178	-0.352	0.221
-216.567	81.667	0.297	-0.318
-215.552	-22.149	-0.019	0.011
-214.538	197.643	-0.051	-0.077
-213.523	113.357	0.197	-0.237
-212.509	800.000	0.046	0.179
-211.494	153.105	0.262	0.354
-210.479	-63.752	0.148	-0.060
-209.465	167.352	0.067	0.094
-208.450	50.252	0.105	-0.098
-207.436	-108.991	0.347	0.073
-206.421	171.020	0.235	0.333
-205.406	-15.323	0.196	-0.124
-204.392	-84.951	0.123	0.038
-203.377	800.000	0.040	0.121
-202.363	282.567	0.026	-0.045
-201.348	526.864	-0.049	0.114
-200.333	105.753	0.284	-0.332
-199.319	166.752	0.071	-0.100
-198.304	415.236	-0.104	0.218
-197.290	-21.580	-0.162	-0.098
-196.275	800.000	-0.049	0.173
-195.260	-200.000	-0.002	0.120
-194.246	90.067	-0.219	0.242
-193.231	-19.080	0.166	-0.102
-192.217	-165.724	0.270	0.012
-191.202	-25.814	-0.038	-0.022
-190.187	73.959	-0.189	-0.196
-189.173	-200.000	0.009	0.099
-188.158	-28.736	-0.151	0.086
-187.144	75.803	0.378	0.395
-186.129	85.491	0.124	0.134
-185.114	95.554	-0.044	-0.049
-184.100	-163.938	0.377	0.017
-183.085	54.470	-0.291	0.277
-182.071	-85.755	0.205	-0.063
-181.056	800.000	0.056	-0.159
-180.042	7.934	0.158	-0.117
-179.027	74.709	0.198	0.205
-178.012	800.000	0.043	-0.180
-176.998	-114.147	0.313	0.060
-175.983	-47.014	0.037	0.018
-174.969	-59.646	-0.292	0.123
-173.954	-116.678	-0.304	-0.055
-172.939	-57.825	0.081	0.035
-171.925	800.000	0.093	0.317
-170.910	800.000	0.101	-0.312
-169.896	-151.285	-0.199	0.015
-168.881	94.568	0.107	-0.119
-167.866	-32.349	0.195	-0.108
-166.852	82.848	-0.184	-0.197
-165.837	-200.000	-0.004	-0.101
-164.823	67.329	0.221	-0.222
-163.808	-91.583	-0.140	0.039
-162.793	800.000	0.045	0.160
-161.779	17.010	-0.127	-0.099
-160.764	-111.303	0.266	0.053
-159.750	-34.220	0.312	0.169
-158.735	-22.499	-0.106	-0.063
-157.720	205.580	0.135	0.207
-156.706	-200.000	-0.063	0.530
-155.691	-108.527	0.080	-0.017
-154.677	-101.754	-0.061	-0.014
-153.662	277.060	0.063	0.111
-152.647	2.291	0.331	-0.236
-151.633	60.103	0.184	0.179
-150.618	-200.000	0.001	0.106
-149.604	124.909	-0.227	0.281
-148.589	-78.683	-0.188	0.063
-147.574	137.854	-0.228	0.295
-146.560	146.978	0.061	0.081
-145.545	800.000	-0.059	0.210
-144.531	-200.000	0.000	-0.373
-143.516	-80.294	0.257	0.084
-142.502	800.000	0.037	-0.129
-141.487	677.791	-0.072	-0.185
-140.472	360.236	0.167	-0.330
-139.458	-119.868	-0.189	0.032
-138.443	-200.000	-0.010	0.184
-137.429	-94.696	0.410	-0.110
-136.414	-200.000	-0.066	0.350
-135.399	239.936	-0.119	-0.196
-134.385	-113.150	0.147	0.029
-133.370	454.826	0.046	0.101
-132.356	-26.998	-0.215	0.124
-131.341	-45.548	-0.154	-0.075
-130.326	-51.015	0.223	0.103
-129.312	-49.115	-0.369	0.174
-128.297	45.676	-0.164	0.149
-127.283	64.096	-0.155	-0.153
-126.268	-31.422	0.360	-0.200
-125.253	800.000	0.088	-0.284
-124.239	42.844	0.097	0.087
-123.224	46.287	0.091	0.083
-122.210	-200.000	0.042	0.199
