DTS Sentinel unit serial number:	SN413079Multiplexer serial number:	ORYXHardware model number:	OX4-SRSoftware version number:	ORYX F/W v4.00 Oryx Data Collector v3.7.2.0data status	okinstallation	princeton_trtdifferential loss correction	single-endedforward channel	channel 2reverse channel	N/Adate	2019/09/19time	02:19:34forward acquisition time	60.00reverse acquisition time	0.00gamma	496.2192k internal	0.2354k external	0.2354temperature offset calibration	1.0012default loss term (dB/km)	0.3790temperature slope calibration	1.0000multiplexer offset coefficient	1.0000multiplexer slope coefficient	1.0000fibre end	0.00T internal ref (°C)	21.11T ext. ref 1 (°C)	0.67T ext. ref 2 (°C)	14.57length (m)	temperature (°C)	Stokes	anti-Stokes-747.200	130.153	0.115	0.146
-746.185	-84.592	-0.236	0.074
-745.171	-70.318	0.413	0.156
-744.156	-114.837	0.112	-0.021
-743.142	-83.067	0.160	0.051
-742.127	5.746	-0.208	0.153
-741.112	625.604	-0.178	-0.448
-740.098	800.000	-0.054	0.199
-739.083	-112.731	0.313	0.062
-738.069	800.000	0.021	-0.081
-737.054	-115.830	-0.350	0.065
-736.039	51.999	-0.292	0.277
-735.025	103.557	-0.252	0.294
-734.010	-34.219	-0.189	-0.103
-732.996	371.547	0.102	-0.206
-731.981	-200.000	-0.084	0.476
-730.966	261.779	-0.211	-0.364
-729.952	-200.000	0.019	-0.284
-728.937	12.199	0.246	0.189
-727.923	126.354	0.068	0.086
-726.908	-62.973	-0.308	-0.127
-725.894	-43.041	-0.196	0.099
-724.879	223.783	0.017	-0.028
-723.864	-200.000	0.017	-0.103
-722.850	480.590	-0.094	-0.211
-721.835	194.446	-0.167	-0.252
-720.821	800.000	0.109	-0.305
-719.806	-200.000	0.007	0.038
-718.791	14.936	-0.094	0.073
-717.777	22.722	0.033	0.027
-716.762	-200.000	-0.086	0.445
-715.748	800.000	-0.072	0.249
-714.733	-200.000	-0.015	-0.272
-713.718	133.131	-0.136	0.175
-712.704	301.880	-0.264	-0.485
-711.689	797.500	-0.035	-0.097
-710.675	123.352	-0.088	-0.110
-709.660	-104.509	-0.078	0.018
-708.645	-71.185	-0.420	0.157
-707.631	-128.148	-0.431	-0.061
-706.616	178.447	-0.201	-0.292
-705.602	800.000	-0.013	-0.046
-704.587	800.000	-0.067	-0.267
-703.572	350.510	0.120	0.235
-702.558	147.632	-0.167	-0.224
-701.543	32.926	-0.245	-0.211
-700.529	-200.000	-0.049	-0.479
-699.514	-81.639	0.360	-0.118
-698.499	-200.000	0.073	-0.417
-697.485	800.000	-0.015	0.057
-696.470	55.219	-0.181	-0.174
-695.456	414.690	0.059	0.125
-694.441	-200.000	-0.021	0.113
-693.426	52.075	-0.226	-0.214
-692.412	-200.000	-0.070	0.446
-691.397	-12.973	-0.278	0.180
-690.383	62.308	0.155	0.154
-689.368	-200.000	-0.030	0.275
-688.354	67.864	-0.256	-0.261
-687.339	244.328	-0.205	-0.343
-686.324	51.455	0.118	-0.111
-685.310	-52.924	-0.233	0.107
-684.295	-81.373	0.167	0.055
-683.281	635.633	0.033	-0.082
-682.266	236.113	-0.145	0.239
-681.251	135.069	0.078	0.101
-680.237	-58.603	-0.084	-0.036
-679.222	-200.000	-0.066	0.384
-678.208	721.201	-0.082	-0.216
-677.193	172.057	0.142	-0.203
-676.178	191.470	0.172	-0.258
-675.164	-39.345	-0.208	0.108
-674.149	-200.000	0.013	0.110
-673.135	-85.411	-0.038	0.012
-672.120	549.496	-0.158	-0.377
-671.105	11.271	0.201	-0.153
-670.091	92.620	0.125	-0.140
-669.076	-200.000	-0.041	-0.245
-668.062	167.050	-0.204	-0.288
-667.047	-88.966	-0.211	-0.062
-666.032	379.587	0.058	-0.118
-665.018	-27.570	-0.214	-0.124
-664.003	-100.278	-0.218	0.054
-662.989	4.220	-0.236	0.172
-661.974	533.620	-0.083	0.195
-660.959	60.370	-0.054	0.053
-659.945	184.366	0.320	0.471
-658.930	230.368	-0.128	0.209
-657.916	81.608	0.196	0.210
-656.901	-49.378	-0.209	0.099
-655.886	464.452	-0.173	-0.384
-654.872	-200.000	0.039	-0.186
-653.857	800.000	-0.060	-0.229
-652.843	773.960	-0.142	0.385
-651.828	-64.957	0.157	0.063
-650.814	-200.000	0.015	-0.105
-649.799	300.971	-0.109	0.199
-648.784	-33.150	0.089	-0.049
-647.770	184.363	-0.173	0.255
-646.755	131.277	0.050	-0.063
-645.741	206.951	0.022	0.034
-644.726	-200.000	-0.072	-0.325
-643.711	136.367	0.152	0.196
-642.697	107.543	0.244	-0.289
-641.682	-35.040	0.085	-0.046
-640.668	-161.777	-0.037	0.002
-639.653	-82.069	-0.400	-0.130
-638.638	-106.103	-0.186	0.041
-637.624	539.766	-0.022	0.052
-636.609	-71.627	-0.648	0.240
-635.595	-31.209	-0.032	-0.018
-634.580	428.402	-0.223	0.478
-633.565	228.470	-0.063	0.102
-632.551	-178.570	-0.088	0.002
-631.536	800.000	0.066	-0.286
-630.522	-137.513	-0.222	0.025
-629.507	33.409	0.045	-0.039
-628.492	649.988	0.081	-0.205
-627.478	-74.673	0.130	0.047
-626.463	75.956	0.214	0.225
-625.449	-134.049	0.209	0.026
-624.434	-115.656	0.356	0.066
-623.419	-29.536	-0.226	-0.128
-622.405	-2.272	0.198	-0.138
-621.390	75.513	-0.061	-0.064
-620.376	496.288	0.045	0.103
-619.361	-131.926	0.022	-0.003
-618.346	-35.808	-0.160	-0.086
-617.332	-40.943	0.118	-0.061
-616.317	-122.696	-0.323	-0.052
-615.303	8.934	-0.161	-0.121
-614.288	-31.058	-0.094	0.053
-613.273	800.000	-0.043	0.119
-612.259	-158.955	-0.138	-0.008
-611.244	243.300	-0.050	-0.084
-610.230	139.506	0.118	-0.154
-609.215	-38.611	-0.331	-0.173
-608.201	219.763	0.199	0.317
-607.186	235.211	-0.093	0.152
-606.171	329.440	0.045	-0.085
-605.157	169.864	0.041	-0.058
-604.142	800.000	0.101	-0.286
-603.128	-109.106	-0.083	-0.018
-602.113	-104.231	-0.191	0.044
-601.098	-32.596	-0.281	-0.155
-600.084	7.353	-0.131	-0.097
-599.069	-33.027	0.183	-0.101
-598.055	800.000	0.121	0.366
-597.040	800.000	0.026	-0.089
-596.025	-200.000	0.047	0.230
-595.011	-46.871	0.108	-0.052
-593.996	800.000	-0.063	0.201
-592.982	-200.000	-0.016	-0.149
-591.967	107.371	0.352	-0.414
-590.952	-76.631	-0.380	0.132
-589.938	-200.000	0.021	-0.644
-588.923	-36.226	-0.349	0.186
-587.909	-160.124	-0.122	-0.007
-586.894	-157.275	-0.155	0.009
-585.879	-200.000	-0.022	-0.257
-584.865	153.276	0.032	0.044
-583.850	59.355	0.207	0.202
-582.836	267.936	0.063	0.109
-581.821	756.292	0.066	0.177
-580.806	-200.000	0.003	0.077
-579.792	-200.000	0.022	0.128
-578.777	100.639	-0.133	-0.154
-577.763	49.819	0.047	-0.044
-576.748	13.160	0.299	0.229
-575.733	306.019	-0.138	-0.254
-574.719	-200.000	-0.023	-0.110
-573.704	8.471	0.148	0.110
-572.690	33.854	0.223	0.193
-571.675	-200.000	-0.033	0.564
-570.661	-12.499	0.157	-0.101
-569.646	-55.891	0.030	-0.013
-568.631	472.874	-0.136	0.304
-567.617	-200.000	-0.005	-0.035
-566.602	144.215	-0.213	-0.282
-565.588	800.000	-0.167	0.553
-564.573	90.591	0.244	-0.270
-563.558	-112.013	-0.347	-0.069
-562.544	-66.686	-0.035	-0.014
-561.529	638.728	0.072	0.180
-560.515	-17.039	-0.058	-0.036
-559.500	800.000	-0.065	-0.207
-558.485	48.028	0.060	0.056
-557.471	-117.876	0.307	0.055
-556.456	192.314	0.063	0.094
-555.442	-200.000	-0.024	0.311
-554.427	513.790	-0.056	-0.130
-553.412	-124.416	0.147	-0.023
-552.398	197.843	-0.191	0.289
-551.383	-25.886	-0.100	-0.058
-550.369	208.063	-0.184	-0.284
-549.354	-148.117	0.345	-0.028
-548.339	736.665	0.032	0.085
-547.325	177.699	-0.141	0.204
-546.310	-2.243	-0.259	-0.179
-545.296	-67.428	-0.058	-0.022
-544.281	-200.000	-0.044	0.410
-543.266	652.676	-0.088	-0.223
-542.252	-115.421	-0.117	0.022
-541.237	50.235	-0.125	-0.116
-540.223	84.205	0.133	0.144
-539.208	-184.918	0.186	0.003
-538.193	-66.412	0.079	-0.031
-537.179	27.856	-0.254	0.212
-536.164	185.083	0.034	0.049
-535.150	800.000	-0.065	-0.199
-534.135	-18.117	-0.211	0.131
-533.121	-40.924	-0.141	0.072
-532.106	-19.258	0.207	0.127
-531.091	-11.459	-0.285	-0.185
-530.077	-75.302	0.179	0.063
-529.062	115.230	0.065	-0.079
-528.048	-80.027	-0.140	0.046
-527.033	-136.326	0.122	0.014
-526.018	165.067	-0.125	0.175
-525.004	800.000	0.087	-0.278
-523.989	-200.000	0.009	-0.120
-522.975	-142.721	-0.170	-0.016
-521.960	-134.494	-0.261	-0.031
-520.945	-200.000	0.016	0.156
-519.931	-74.557	0.281	-0.100
-518.916	-143.987	-0.157	0.015
-517.902	-5.397	0.321	-0.218
-516.887	767.265	-0.160	-0.430
-515.872	280.088	-0.097	-0.171
-514.858	219.869	-0.211	0.334
-513.843	-47.368	0.359	0.173
-512.829	-176.338	-0.198	-0.005
-511.814	61.924	0.159	-0.156
-510.799	800.000	0.051	-0.195
-509.785	430.600	0.016	-0.035
-508.770	-29.753	0.451	0.254
-507.756	89.977	0.374	-0.413
-506.741	303.110	0.032	-0.059
-505.726	-200.000	0.050	-0.312
-504.712	637.089	0.034	0.086
-503.697	57.173	0.229	-0.221
-502.683	-92.222	0.316	-0.088
-501.668	-18.114	0.147	-0.091
-500.653	-22.648	0.228	-0.136
-499.639	-133.265	-0.066	-0.008
-498.624	11.209	0.168	0.127
-497.610	5.322	-0.184	0.134
-496.595	-200.000	0.015	-0.087
-495.581	40.813	0.390	-0.347
-494.566	171.442	-0.129	-0.183
-493.551	126.072	-0.149	0.186
-492.537	-64.776	-0.356	-0.142
-491.522	-116.413	-0.440	-0.080
-490.508	32.614	0.073	0.063
-489.493	-200.000	0.025	-0.211
-488.478	153.386	0.064	0.086
-487.464	4.812	0.188	0.136
-486.449	114.387	-0.177	0.213
-485.435	800.000	-0.058	0.202
-484.420	34.472	-0.098	-0.084
-483.405	237.432	0.251	-0.410
-482.391	-1.719	0.167	-0.116
-481.376	132.490	-0.077	-0.098
-480.362	249.787	0.247	0.414
-479.347	40.846	0.055	-0.049
-478.332	67.022	-0.136	-0.136
-477.318	-46.219	-0.099	0.048
-476.303	-200.000	0.004	-0.115
-475.289	529.643	0.082	0.191
-474.274	-123.715	-0.271	-0.042
-473.259	-129.382	0.120	0.016
-472.245	-86.302	0.375	-0.114
-471.230	-127.677	-0.091	0.013
-470.216	800.000	-0.083	-0.259
-469.201	-200.000	-0.012	0.257
-468.186	108.341	0.224	-0.264
-467.172	-200.000	0.031	-0.171
-466.157	-107.955	0.261	-0.056
-465.143	-200.000	0.001	-0.164
-464.128	-63.728	-0.209	-0.084
-463.113	769.685	-0.022	-0.060
-462.099	157.351	-0.145	-0.198
-461.084	-118.139	-0.078	-0.014
-460.070	-200.000	-0.030	-0.219
-459.055	-52.875	0.054	-0.025
-458.040	-76.480	0.274	0.095
-457.026	-91.155	-0.307	-0.087
-456.011	-151.720	0.371	-0.027
-454.997	78.638	-0.291	-0.307
-453.982	105.370	0.076	0.089
-452.968	-119.057	0.164	-0.028
-451.953	800.000	0.029	0.106
-450.938	-7.911	0.116	0.077
-449.924	-8.344	-0.357	0.237
-448.909	342.740	-0.161	0.310
-447.895	-88.006	-0.209	0.062
-446.880	785.639	-0.079	-0.213
-445.865	435.323	0.094	-0.202
-444.851	-50.434	-0.160	0.075
-443.836	747.659	-0.123	-0.327
-442.822	39.857	-0.064	0.057
-441.807	358.792	0.019	-0.038
-440.792	-80.421	-0.249	-0.082
-439.778	299.788	-0.075	-0.136
-438.763	76.311	0.132	0.138
-437.749	-200.000	0.000	-0.392
-436.734	-130.929	-0.194	-0.026
-435.719	-200.000	0.000	-0.154
-434.705	7.378	0.353	-0.260
-433.690	800.000	-0.025	0.076
-432.676	-99.387	-0.383	0.095
-431.661	800.000	0.096	0.287
-430.646	11.388	-0.275	-0.207
-429.632	-23.351	-0.174	0.103
-428.617	-197.966	-0.311	-0.002
-427.603	-34.983	0.191	-0.103
-426.588	-39.801	0.284	0.146
-425.573	-200.000	0.008	0.227
-424.559	-95.476	0.036	0.009
-423.544	-42.706	-0.203	-0.101
-422.530	282.092	-0.087	-0.153
-421.515	-103.423	0.337	0.078
-420.500	41.492	-0.235	0.210
-419.486	225.053	0.099	-0.158
-418.471	5.750	0.098	0.071
-417.457	99.525	0.158	0.179
-416.442	-100.014	0.361	0.088
-415.428	800.000	-0.175	-0.481
-414.413	379.144	-0.035	-0.071
-413.398	220.002	0.088	-0.138
-412.384	418.976	-0.023	0.047
-411.369	4.225	0.092	0.066
-410.355	-98.113	0.208	0.053
-409.340	-75.547	0.247	-0.087
-408.325	-106.432	-0.189	0.041
-407.311	-123.113	0.421	0.066
-406.296	800.000	-0.039	0.133
-405.282	44.351	-0.017	0.015
-404.267	501.069	0.101	0.230
-403.252	-200.000	-0.035	0.231
-402.238	-48.752	-0.278	0.131
-401.223	-52.936	-0.295	0.134
-400.209	-118.809	-0.054	-0.009
-399.194	82.027	0.322	0.343
-398.179	-200.000	-0.018	0.160
-397.165	-18.657	-0.160	-0.098
-396.150	-200.000	0.022	0.110
-395.136	125.879	-0.073	0.091
-394.121	-33.863	-0.174	-0.094
-393.106	322.562	-0.184	0.345
-392.092	800.000	0.088	-0.244
-391.077	800.000	-0.077	-0.210
-390.063	-200.000	0.045	0.206
-389.048	-145.112	-0.168	-0.015
-388.033	165.901	-0.151	-0.210
-387.019	20.015	-0.044	0.035
-386.004	-200.000	-0.004	-0.115
-384.990	-200.000	-0.026	0.328
-383.975	-66.588	-0.337	0.131
-382.960	85.799	-0.086	-0.093
-381.946	70.608	-0.271	-0.276
-380.931	122.331	-0.148	-0.181
-379.917	272.474	-0.189	-0.327
-378.902	-200.000	-0.017	-0.163
-377.888	66.505	-0.161	0.161
-376.873	29.287	0.093	0.078
-375.858	-103.651	0.184	-0.042
-374.844	95.414	-0.168	0.188
-373.829	118.705	-0.058	0.071
-372.815	70.541	0.217	0.220
-371.800	202.238	-0.194	0.294
-370.785	84.458	-0.176	-0.189
-369.771	21.747	0.086	0.069
-368.756	243.768	-0.008	0.012
-367.742	209.459	0.040	-0.062
-366.727	-179.268	0.316	-0.007
-365.712	-49.696	-0.231	0.108
-364.698	-78.494	-0.277	-0.093
-363.683	-22.619	-0.288	0.171
-362.669	52.765	-0.141	-0.132
-361.654	98.456	-0.257	0.291
-360.639	-61.126	0.228	0.094
-359.625	-116.389	-0.306	-0.056
-358.610	78.043	-0.300	-0.314
-357.596	800.000	0.106	-0.313
-356.581	522.219	-0.086	-0.198
-355.566	239.825	0.128	-0.209
-354.552	417.141	0.265	0.556
-353.537	-123.447	0.210	0.033
-352.523	-32.511	-0.062	0.034
-351.508	151.369	0.092	0.123
-350.493	-94.045	-0.448	0.121
-349.479	136.778	-0.155	-0.199
-348.464	-13.124	-0.550	-0.351
-347.450	-200.000	0.013	0.168
-346.435	-200.000	0.011	0.344
-345.420	-107.444	0.110	-0.024
-344.406	-1.545	0.146	0.101
-343.391	82.521	0.128	0.137
-342.377	-140.716	-0.223	0.023
-341.362	-200.000	0.033	-0.570
-340.348	327.084	-0.166	0.313
-339.333	557.299	-0.135	0.320
-338.318	-62.580	0.250	-0.102
-337.304	-55.451	-0.239	0.105
-336.289	730.609	0.113	-0.298
-335.275	72.940	-0.051	-0.052
-334.260	-40.551	-0.463	0.236
-333.245	486.938	0.097	0.217
-332.231	524.943	-0.059	0.136
-331.216	-113.969	0.279	-0.053
-330.202	292.626	0.073	-0.131
-329.187	-94.815	0.027	0.007
-328.172	800.000	-0.085	0.331
-327.158	71.083	0.110	-0.111
-326.143	212.346	0.158	-0.244
-325.129	125.923	-0.075	-0.093
-324.114	-200.000	0.057	-0.596
-323.099	150.743	0.024	0.032
-322.085	139.771	-0.275	0.356
-321.070	174.525	0.208	0.295
-320.056	-200.000	0.000	-0.192
-319.041	800.000	0.059	0.165
-318.026	-76.364	0.277	0.096
-317.012	31.061	-0.234	-0.197
-315.997	14.007	-0.015	-0.012
-314.983	181.570	-0.203	0.293
-313.968	800.000	0.125	-0.446
-312.953	-200.000	-0.102	0.446
-311.939	2.322	-0.141	-0.100
-310.924	800.000	-0.062	-0.171
-309.910	-140.371	0.518	0.053
-308.895	-28.375	-0.113	0.064
-307.880	345.349	-0.043	0.083
-306.866	-125.541	0.168	0.025
-305.851	45.281	0.006	-0.005
-304.837	-30.525	0.234	0.130
-303.822	-133.267	-0.172	-0.021
-302.807	294.756	0.134	-0.240
-301.793	200.674	0.214	-0.322
-300.778	50.055	0.036	0.033
-299.764	0.319	0.140	-0.098
-298.749	87.495	-0.126	0.137
-297.735	69.629	0.246	-0.248
-296.720	-5.067	0.197	0.133
-295.705	-37.822	-0.210	0.109
-294.691	-105.144	0.192	-0.043
-293.676	-200.000	-0.016	-0.099
-292.662	79.013	-0.094	0.099
-291.647	-22.673	0.371	0.219
-290.632	-200.000	0.007	0.073
-289.618	135.262	0.152	-0.193
-288.603	-63.127	-0.331	0.134
-287.589	165.625	-0.180	-0.249
-286.574	-200.000	0.060	-0.347
-285.559	8.632	0.129	-0.095
-284.545	238.771	0.082	-0.134
-283.530	-61.861	-0.099	-0.041
-282.516	-46.788	0.049	0.023
-281.501	-17.075	0.276	-0.171
-280.486	-13.486	0.332	-0.211
-279.472	800.000	0.060	0.177
-278.457	44.139	0.165	-0.148
-277.443	-104.539	-0.328	0.074
-276.428	23.048	0.208	0.167
-275.413	484.959	0.062	-0.137
-274.399	67.078	-0.198	-0.198
-273.384	800.000	-0.067	-0.242
-272.370	71.836	0.090	0.091
-271.355	328.159	0.096	0.181
-270.340	28.163	0.278	-0.229
-269.326	67.563	0.119	0.119
-268.311	717.178	-0.136	0.354
-267.297	47.044	-0.073	0.066
-266.282	-169.493	0.360	0.013
-265.267	276.600	0.108	0.187
-264.253	83.345	-0.101	-0.107
-263.238	-54.007	-0.104	-0.046
-262.224	256.082	0.096	-0.161
-261.209	300.404	-0.101	0.183
-260.195	-25.593	-0.091	-0.052
-259.180	-119.883	0.142	-0.024
-258.165	-81.317	0.179	-0.058
-257.151	246.548	0.097	-0.160
-256.136	-150.847	-0.215	-0.016
-255.122	-36.687	-0.262	-0.138
-254.107	147.104	0.254	0.334
-253.092	208.047	0.052	0.080
-252.078	407.148	-0.067	-0.138
-251.063	-189.278	-0.185	-0.002
-250.049	-51.464	0.269	-0.123
-249.034	53.644	-0.084	0.079
-248.019	-114.454	0.202	0.038
-247.005	-200.000	0.006	0.154
-245.990	-165.675	0.146	0.006
-244.976	449.748	0.102	-0.219
-243.961	34.663	-0.287	0.245
-242.946	32.502	-0.125	0.106
-241.932	235.954	0.117	0.189
-240.917	405.406	-0.085	-0.175
-239.903	-141.089	0.354	-0.035
-238.888	-200.000	-0.043	0.416
-237.873	59.125	0.174	-0.167
-236.859	236.221	-0.162	0.262
-235.844	800.000	0.018	-0.051
-234.830	800.000	0.013	0.054
-233.815	800.000	0.096	-0.389
-232.800	184.986	-0.072	0.104
-231.786	-58.591	0.089	-0.038
-230.771	-5.929	-0.096	0.064
-229.757	107.095	0.245	0.284
-228.742	-35.964	0.195	-0.103
-227.727	300.122	-0.042	0.075
-226.713	800.000	0.135	0.425
-225.698	301.675	0.060	-0.108
-224.684	129.930	-0.100	-0.125
-223.669	-150.550	-0.130	0.010
-222.655	62.966	-0.167	0.163
-221.640	-88.939	-0.256	-0.074
-220.625	67.424	0.164	0.163
-219.611	267.703	-0.030	0.051
-218.596	378.179	-0.059	-0.118
-217.582	-79.900	0.039	0.013
-216.567	-200.000	0.007	-0.135
-215.552	-66.667	0.018	0.007
-214.538	-200.000	-0.001	0.189
-213.523	-200.000	-0.016	0.100
-212.509	-150.368	0.339	0.025
-211.494	125.129	0.182	-0.223
-210.479	-200.000	-0.040	-0.228
-209.465	124.983	0.176	-0.216
-208.450	-23.324	0.229	-0.135
-207.436	-127.608	-0.245	0.035
-206.421	39.316	0.272	0.238
-205.406	-81.415	0.205	-0.066
-204.392	-109.195	0.186	0.039
-203.377	800.000	-0.025	0.106
-202.363	57.853	-0.074	-0.070
-201.348	121.093	0.285	-0.346
-200.333	762.714	0.037	-0.099
-199.319	800.000	0.078	-0.284
-198.304	-108.946	0.201	0.042
-197.290	800.000	-0.077	0.223
-196.275	-139.597	0.261	-0.027
-195.260	-200.000	0.030	0.227
-194.246	268.266	0.286	0.489
-193.231	83.303	0.177	0.188
-192.217	-74.095	0.252	-0.089
-191.202	-29.696	-0.075	-0.042
-190.187	-200.000	-0.023	-0.171
-189.173	18.790	0.086	0.067
-188.158	-180.238	0.424	0.009
-187.144	-189.834	0.183	0.002
-186.129	-200.000	-0.061	0.407
-185.114	-125.139	-0.245	-0.037
-184.100	781.719	-0.213	0.568
-183.085	-200.000	-0.042	0.323
-182.071	-25.715	-0.167	-0.096
-181.056	107.845	0.195	0.227
-180.042	-25.079	-0.319	-0.184
-179.027	-32.127	0.098	-0.053
-178.012	-37.758	-0.171	0.088
-176.998	800.000	-0.072	-0.221
-175.983	51.685	0.176	0.164
-174.969	-200.000	0.007	0.163
-173.954	-38.217	-0.171	0.088
-172.939	800.000	0.072	0.205
-171.925	-61.396	0.111	-0.045
-170.910	800.000	-0.077	-0.233
-169.896	-13.194	-0.012	-0.008
-168.881	-94.742	-0.136	-0.036
-167.866	495.482	0.057	0.128
-166.852	106.353	-0.175	0.202
-165.837	-200.000	-0.010	0.162
-164.823	-71.718	0.123	-0.045
-163.808	682.756	-0.179	-0.456
-162.793	800.000	0.035	0.144
-161.779	800.000	-0.040	0.125
-160.764	370.540	-0.106	0.210
-159.750	-116.536	0.318	0.057
-158.735	330.665	-0.184	-0.346
-157.720	124.783	-0.046	-0.057
-156.706	113.450	0.286	0.338
-155.691	-31.854	-0.204	-0.111
-154.677	-88.636	0.485	-0.141
-153.662	127.518	-0.196	-0.242
-152.647	-73.125	-0.161	0.057
-151.633	-161.074	-0.310	0.016
-150.618	488.837	-0.060	-0.134
-149.604	-133.843	0.230	0.028
-148.589	320.940	-0.102	0.190
-147.574	-55.897	-0.029	-0.013
-146.560	-58.399	0.394	0.167
-145.545	-200.000	0.026	-0.273
-144.531	-200.000	-0.001	-0.188
-143.516	-131.164	-0.187	-0.024
-142.502	800.000	0.031	0.112
-141.487	-15.488	-0.101	0.063
-140.472	-25.619	-0.049	0.028
-139.458	-91.510	-0.202	-0.056
-138.443	800.000	-0.102	0.305
-137.429	-200.000	0.023	0.155
-136.414	-44.681	0.248	0.120
-135.399	-200.000	-0.056	0.300
-134.385	4.662	-0.080	-0.057
-133.370	-79.630	0.295	-0.097
-132.356	142.910	0.413	0.535
-131.341	59.606	0.081	-0.077
-130.326	-147.832	-0.099	-0.008
-129.312	266.608	-0.117	-0.199
-128.297	8.574	-0.050	-0.036
-127.283	800.000	-0.025	0.077
-126.268	24.237	0.057	-0.046
-125.253	24.466	-0.223	-0.179
-124.239	87.492	-0.134	-0.144
-123.224	800.000	0.106	-0.297
-122.210	445.653	-0.087	-0.186
-121.195	800.000	0.092	-0.368
-120.180	128.862	0.117	-0.146
