DTS Sentinel unit serial number:	SN413079Multiplexer serial number:	ORYXHardware model number:	OX4-SRSoftware version number:	ORYX F/W v4.00 Oryx Data Collector v3.7.2.0data status	okinstallation	princeton_trtdifferential loss correction	single-endedforward channel	channel 2reverse channel	N/Adate	2019/09/15time	07:55:34forward acquisition time	60.00reverse acquisition time	0.00gamma	496.2192k internal	0.2325k external	0.2325temperature offset calibration	1.0031default loss term (dB/km)	0.3790temperature slope calibration	1.0000multiplexer offset coefficient	1.0000multiplexer slope coefficient	1.0000fibre end	0.00T internal ref (°C)	30.69T ext. ref 1 (°C)	4.97T ext. ref 2 (°C)	26.13length (m)	temperature (°C)	Stokes	anti-Stokes-747.200	-118.375	-0.214	-0.038
-746.185	800.000	-0.031	0.125
-745.171	352.375	0.105	-0.210
-744.156	-200.000	0.039	0.177
-743.142	-200.000	0.031	-0.183
-742.127	-71.639	-0.136	0.051
-741.112	53.750	0.069	-0.067
-740.098	0.417	0.176	0.127
-739.083	-200.000	-0.010	0.264
-738.069	800.000	0.088	0.327
-737.054	-114.538	0.166	-0.032
-736.039	691.681	-0.101	-0.266
-735.025	-200.000	0.056	0.390
-734.010	-95.891	0.227	0.061
-732.996	-143.724	-0.186	-0.018
-731.981	118.124	-0.097	-0.121
-730.966	246.965	-0.204	0.347
-729.952	-22.977	-0.151	-0.092
-728.937	52.971	0.196	-0.189
-727.923	-146.172	0.161	-0.014
-726.908	153.769	0.030	-0.041
-725.894	-89.625	-0.295	0.087
-724.879	-29.415	-0.242	0.139
-723.864	-108.498	-0.104	0.023
-722.850	800.000	0.033	0.117
-721.835	-59.269	-0.342	-0.149
-720.821	75.436	0.084	0.090
-719.806	-42.745	-0.443	0.227
-718.791	186.418	-0.082	0.123
-717.777	192.302	0.047	0.072
-716.762	-89.685	0.276	0.082
-715.748	-26.858	0.146	0.086
-714.733	-77.728	-0.505	-0.176
-713.718	160.181	0.326	0.459
-712.704	345.633	-0.046	0.091
-711.689	88.417	-0.024	-0.027
-710.675	83.527	-0.141	-0.155
-709.660	54.599	0.103	-0.100
-708.645	40.590	0.167	-0.151
-707.631	800.000	-0.098	0.295
-706.616	505.634	0.054	0.126
-705.602	800.000	-0.108	0.354
-704.587	130.919	0.080	-0.104
-703.572	181.301	-0.259	-0.384
-702.558	800.000	0.013	-0.044
-701.543	-80.243	-0.305	-0.103
-700.529	-128.543	0.176	-0.025
-699.514	48.687	0.086	0.082
-698.499	-0.670	0.083	0.059
-697.485	800.000	-0.025	-0.107
-696.470	-200.000	-0.045	-0.235
-695.456	154.274	0.041	-0.057
-694.441	-200.000	-0.009	0.530
-693.426	-119.587	-0.354	0.062
-692.412	-144.813	-0.170	-0.016
-691.397	-27.271	-0.169	-0.099
-690.383	27.792	-0.180	-0.153
-689.368	26.008	-0.189	0.159
-688.354	-23.691	-0.118	0.071
-687.339	-108.759	0.064	0.014
-686.324	137.198	0.198	-0.261
-685.310	222.201	-0.190	-0.308
-684.295	66.760	0.269	-0.276
-683.281	343.145	0.125	-0.246
-682.266	-82.256	0.172	-0.056
-681.251	800.000	0.065	-0.185
-680.237	146.705	-0.147	-0.198
-679.222	28.685	-0.244	-0.208
-678.208	-109.806	-0.057	-0.012
-677.193	-200.000	-0.004	0.237
-676.178	-34.097	-0.092	0.051
-675.164	-89.696	-0.106	0.031
-674.149	-66.861	0.100	0.040
-673.135	-15.777	-0.239	-0.153
-672.120	-113.204	-0.268	0.053
-671.105	-91.879	0.144	-0.041
-670.091	800.000	-0.027	0.078
-669.076	197.670	-0.068	-0.105
-668.062	-65.605	0.306	0.123
-667.047	-63.399	-0.171	-0.071
-666.032	-90.565	-0.106	0.031
-665.018	-9.522	0.144	-0.097
-664.003	-35.075	0.095	-0.052
-662.989	800.000	-0.072	-0.215
-661.974	173.656	0.100	-0.145
-660.959	-200.000	-0.006	0.140
-659.945	-65.858	0.320	-0.129
-658.930	-113.689	0.238	-0.047
-657.916	704.331	-0.100	0.265
-656.901	-98.046	-0.165	-0.043
-655.886	150.053	-0.147	-0.200
-654.872	-48.627	-0.166	-0.080
-653.857	800.000	0.093	0.285
-652.843	800.000	0.065	0.236
-651.828	184.937	-0.180	-0.268
-650.814	14.668	0.152	0.119
-649.799	400.194	0.187	-0.393
-648.784	570.523	0.023	-0.056
-647.770	-73.214	-0.144	0.053
-646.755	352.209	-0.096	0.191
-645.741	366.132	0.033	0.067
-644.726	800.000	-0.045	0.178
-643.711	800.000	-0.030	0.088
-642.697	800.000	-0.045	-0.170
-641.682	-200.000	0.102	0.000
-640.668	-153.176	0.226	-0.016
-639.653	-200.000	-0.010	-0.304
-638.638	-115.239	-0.278	-0.053
-637.624	-200.000	-0.013	0.296
-636.609	31.674	-0.250	-0.216
-635.595	-98.845	-0.252	0.064
-634.580	-116.911	0.087	0.016
-633.565	97.411	0.244	0.282
-632.551	-13.006	0.184	0.120
-631.536	-52.909	-0.266	0.123
-630.522	-19.190	-0.223	-0.139
-629.507	-200.000	-0.031	0.186
-628.492	-200.000	-0.044	-0.239
-627.478	-67.047	-0.280	-0.111
-626.463	-84.578	0.340	-0.108
-625.449	-38.110	0.159	-0.085
-624.434	477.259	-0.068	-0.154
-623.419	-189.063	-0.161	-0.002
-622.405	25.652	0.076	-0.063
-621.390	-141.121	-0.175	0.018
-620.376	800.000	0.038	-0.159
-619.361	-140.626	-0.105	0.011
-618.346	-136.947	-0.289	0.033
-617.332	-147.963	0.423	-0.035
-616.317	236.994	-0.041	-0.069
-615.303	800.000	0.026	-0.113
-614.288	401.446	0.040	-0.084
-613.273	190.739	-0.227	0.343
-612.259	-80.936	0.163	0.054
-611.244	-14.551	-0.112	-0.072
-610.230	800.000	-0.064	0.254
-609.215	-149.271	-0.106	-0.008
-608.201	-6.747	0.110	0.075
-607.186	-61.337	0.180	0.076
-606.171	369.117	-0.018	0.037
-605.157	117.042	-0.222	-0.274
-604.142	-200.000	0.085	0.376
-603.128	407.897	-0.065	-0.137
-602.113	-200.000	0.054	-0.256
-601.098	400.235	-0.026	-0.054
-600.084	-40.632	-0.254	0.132
-599.069	358.417	-0.080	-0.161
-598.055	-77.904	0.277	0.096
-597.040	-51.140	0.410	-0.193
-596.025	2.816	-0.177	0.129
-595.011	-65.514	0.245	-0.099
-593.996	-73.898	0.227	0.083
-592.982	33.712	-0.224	-0.195
-591.967	137.457	-0.090	0.118
-590.952	116.056	-0.072	0.089
-589.938	-200.000	0.024	-0.294
-588.923	393.668	-0.118	-0.247
-587.909	-167.444	-0.397	0.016
-586.894	-77.069	0.260	-0.091
-585.879	-200.000	0.055	0.346
-584.865	73.111	-0.119	-0.124
-583.850	264.278	-0.103	-0.180
-582.836	369.202	0.035	0.071
-581.821	-74.278	0.269	0.098
-580.806	79.063	0.106	-0.113
-579.792	76.039	0.090	0.095
-578.777	800.000	0.039	-0.164
-577.763	-17.637	0.152	0.096
-576.748	800.000	0.034	-0.147
-575.733	88.602	-0.043	0.047
-574.719	-130.547	-0.113	0.015
-573.704	210.637	0.035	-0.055
-572.690	-138.446	0.106	-0.012
-571.675	27.564	-0.036	0.031
-570.661	-77.586	-0.258	-0.090
-569.646	-100.003	0.497	-0.124
-568.631	-200.000	-0.020	0.118
-567.617	-51.750	-0.198	-0.092
-566.602	10.472	0.254	0.194
-565.588	209.674	0.075	-0.117
-564.573	274.711	0.211	0.375
-563.558	197.510	0.113	-0.174
-562.544	312.757	-0.026	-0.050
-561.529	-89.730	-0.115	-0.034
-560.515	800.000	0.065	0.205
-559.500	-119.894	-0.100	-0.017
-558.485	-200.000	0.082	0.408
-557.471	-125.110	0.205	0.032
-556.456	-200.000	-0.023	0.198
-555.442	58.504	-0.377	0.371
-554.427	-200.000	-0.017	0.460
-553.412	800.000	0.058	0.174
-552.398	-200.000	-0.006	-0.092
-551.383	25.670	-0.141	-0.117
-550.369	-23.842	0.150	-0.090
-549.354	65.108	-0.054	-0.055
-548.339	153.419	0.100	-0.137
-547.325	800.000	0.002	-0.006
-546.310	94.584	0.134	-0.152
-545.296	-86.505	-0.258	-0.079
-544.281	665.690	0.059	-0.153
-543.266	-200.000	0.034	-0.210
-542.252	-78.823	0.176	0.060
-541.237	800.000	0.059	-0.165
-540.223	-131.433	0.595	-0.079
-539.208	-56.294	0.282	-0.126
-538.193	82.239	0.311	-0.338
-537.179	800.000	0.044	-0.122
-536.164	215.742	0.107	0.169
-535.150	381.187	-0.008	0.016
-534.135	-200.000	-0.007	0.557
-533.121	-37.261	0.236	0.126
-532.106	-30.083	0.214	-0.122
-531.091	-200.000	-0.052	-0.260
-530.077	24.101	-0.126	0.104
-529.062	-102.990	0.232	0.055
-528.048	-123.843	0.181	0.029
-527.033	800.000	-0.056	-0.225
-526.018	235.641	-0.194	0.321
-525.004	-66.074	0.257	0.103
-523.989	-9.496	0.323	-0.215
-522.975	-130.410	0.405	0.055
-521.960	364.582	-0.159	0.320
-520.945	75.590	-0.136	0.144
-519.931	-96.353	-0.193	-0.051
-518.916	-200.000	0.270	-0.001
-517.902	-90.160	0.243	-0.071
-516.887	-58.126	0.234	-0.102
-515.872	800.000	0.069	-0.245
-514.858	283.251	-0.176	-0.317
-513.843	5.466	-0.040	0.030
-512.829	100.094	-0.045	0.053
-511.814	-141.877	0.234	0.023
-510.799	-41.585	-0.385	0.198
-509.785	447.663	0.063	-0.138
-508.770	-80.660	0.087	-0.029
-507.756	-46.361	-0.079	-0.039
-506.741	800.000	-0.139	-0.409
-505.726	-200.000	-0.043	-0.301
-504.712	-95.295	-0.109	0.029
-503.697	128.093	0.066	-0.084
-502.683	-200.000	-0.086	-0.431
-501.668	-69.381	0.277	-0.106
-500.653	35.155	-0.367	0.321
-499.639	-50.136	0.339	-0.160
-498.624	-200.000	0.018	-0.163
-497.610	800.000	-0.022	0.080
-496.595	-129.850	0.245	0.034
-495.581	181.129	0.096	0.141
-494.566	-96.530	-0.040	0.011
-493.551	5.901	-0.315	-0.233
-492.537	83.948	-0.294	-0.321
-491.522	-37.865	-0.307	-0.163
-490.508	479.026	0.060	0.136
-489.493	-200.000	0.034	0.319
-488.478	800.000	-0.084	-0.245
-487.464	606.694	0.043	0.108
-486.449	471.162	0.082	-0.185
-485.435	-35.663	0.217	-0.117
-484.420	554.298	0.110	-0.265
-483.405	-7.789	-0.055	0.037
-482.391	-50.939	-0.200	-0.094
-481.376	-50.663	0.147	0.069
-480.362	-200.000	-0.058	0.276
-479.347	266.627	0.121	-0.211
-478.332	-200.000	-0.022	-0.294
-477.318	-141.501	-0.235	0.024
-476.303	19.301	-0.232	-0.186
-475.289	-200.000	-0.047	-0.243
-474.274	417.420	-0.179	0.381
-473.259	800.000	0.052	-0.217
-472.245	-200.000	0.012	0.272
-471.230	13.538	0.218	0.169
-470.216	-163.659	-0.291	-0.014
-469.201	-69.532	0.289	-0.110
-468.186	17.118	-0.293	-0.232
-467.172	-200.000	-0.089	-0.406
-466.157	190.993	0.217	0.325
-465.143	-200.000	-0.003	0.095
-464.128	-96.148	0.187	0.050
-463.113	276.684	-0.198	0.351
-462.099	354.488	0.052	-0.103
-461.084	92.474	-0.084	0.095
-460.070	8.227	0.115	0.086
-459.055	800.000	0.014	-0.058
-458.040	346.809	-0.121	-0.238
-457.026	800.000	-0.035	0.114
-456.011	95.272	-0.112	-0.127
-454.997	-84.399	-0.246	-0.078
-453.982	151.722	-0.030	-0.041
-452.968	104.534	-0.279	0.328
-451.953	-67.386	-0.256	0.100
-450.938	69.212	0.146	-0.150
-449.924	15.016	-0.134	-0.105
-448.909	34.493	-0.176	-0.154
-447.895	-200.000	-0.093	0.503
-446.880	-200.000	0.013	0.121
-445.865	-200.000	-0.015	0.077
-444.851	-76.350	0.260	0.091
-443.836	-31.118	0.176	0.099
-442.822	-200.000	0.015	-0.214
-441.807	793.258	0.072	-0.198
-440.792	140.902	0.112	-0.148
-439.778	-200.000	0.029	0.134
-438.763	800.000	0.015	0.050
-437.749	-181.490	-0.193	-0.004
-436.734	800.000	0.044	-0.161
-435.719	-132.054	-0.275	0.036
-434.705	-50.117	-0.317	-0.150
-433.690	-67.528	-0.464	0.181
-432.676	360.286	-0.128	-0.255
-431.661	687.771	-0.096	0.249
-430.646	-200.000	0.028	0.201
-429.632	-27.184	-0.355	0.206
-428.617	11.421	-0.345	-0.263
-427.603	419.246	-0.069	0.147
-426.588	800.000	0.120	0.368
-425.573	403.123	0.093	0.196
-424.559	-62.520	-0.145	-0.060
-423.544	26.560	-0.304	0.254
-422.530	800.000	-0.113	0.462
-421.515	37.097	0.232	-0.205
-420.500	92.301	0.233	0.262
-419.486	800.000	-0.067	-0.257
-418.471	-82.673	-0.334	0.108
-417.457	-40.079	0.206	0.107
-416.442	-62.252	-0.060	-0.025
-415.428	156.248	0.128	0.176
-414.413	-72.948	-0.316	-0.116
-413.398	62.905	0.227	-0.227
-412.384	-135.554	0.125	-0.015
-411.369	-84.210	-0.204	0.064
-410.355	-69.338	-0.116	-0.044
-409.340	-53.788	0.217	0.099
-408.325	-18.624	0.350	0.218
-407.311	218.581	-0.118	-0.187
-406.296	103.598	-0.088	0.103
-405.282	-64.363	-0.216	-0.088
-404.267	-106.140	-0.291	-0.065
-403.252	592.322	0.063	0.155
-402.238	-200.000	0.033	0.271
-401.223	241.495	0.016	0.027
-400.209	191.753	-0.128	0.191
-399.194	-69.050	-0.226	0.087
-398.179	-138.224	0.238	0.026
-397.165	-126.848	-0.244	0.036
-396.150	-25.701	0.400	0.235
-395.136	-88.836	0.114	-0.034
-394.121	-200.000	-0.162	-0.000
-393.106	-200.000	-0.023	-0.171
-392.092	-98.286	0.261	-0.067
-391.077	-84.985	0.379	0.118
-390.063	177.585	-0.063	0.092
-389.048	198.002	0.171	0.260
-388.033	47.585	0.119	0.110
-387.019	154.493	0.199	0.273
-386.004	418.700	0.093	-0.197
-384.990	214.957	-0.159	-0.251
-383.975	-183.602	0.182	0.003
-382.960	-59.491	-0.221	-0.094
-381.946	-200.000	0.011	-0.093
-380.931	214.825	-0.087	-0.137
-379.917	-200.000	-0.000	-0.027
-378.902	-78.911	-0.402	-0.136
-377.888	318.750	-0.062	-0.116
-376.873	-34.838	-0.292	-0.159
-375.858	-173.182	-0.556	-0.017
-374.844	291.359	0.128	0.231
-373.829	-142.319	-0.080	-0.008
-372.815	-131.121	0.322	0.043
-371.800	-119.778	-0.259	-0.044
-370.785	-20.567	0.120	-0.073
-369.771	225.816	-0.097	-0.157
-368.756	-81.004	0.318	0.105
-367.742	800.000	0.022	-0.093
-366.727	38.098	0.199	-0.176
-365.712	-32.939	0.294	-0.163
-364.698	614.142	-0.129	-0.321
-363.683	26.068	-0.322	-0.267
-362.669	-165.320	-0.304	0.013
-361.654	-200.000	0.006	-0.074
-360.639	800.000	-0.055	0.208
-359.625	19.921	-0.146	-0.117
-358.610	-200.000	-0.018	0.215
-357.596	323.663	0.128	-0.244
-356.581	-159.143	0.146	-0.008
-355.566	-200.000	-0.013	-0.166
-354.552	-200.000	-0.015	0.483
-353.537	-144.445	0.253	-0.023
-352.523	-60.983	0.137	-0.058
-351.508	345.684	0.066	-0.128
-350.493	56.615	-0.126	0.122
-349.479	-200.000	0.011	-0.178
-348.464	-200.000	0.041	-0.187
-347.450	103.612	0.076	-0.089
-346.435	177.520	-0.243	-0.352
-345.420	-200.000	0.027	-0.180
-344.406	-200.000	0.010	0.210
-343.391	217.473	-0.106	-0.168
-342.377	-155.011	0.410	-0.027
-341.362	-29.244	0.244	0.139
-340.348	61.888	-0.052	-0.052
-339.333	-151.645	-0.237	0.017
-338.318	698.906	0.139	-0.364
-337.304	-28.635	0.229	-0.131
-336.289	424.973	-0.166	0.354
-335.275	-132.298	-0.136	-0.018
-334.260	-50.400	0.374	0.175
-333.245	98.662	-0.146	0.168
-332.231	109.928	-0.071	0.085
-331.216	-200.000	-0.037	0.307
-330.202	-200.000	-0.035	0.392
-329.187	235.006	0.076	0.125
-328.172	-200.000	-0.021	-0.276
-327.158	-73.901	-0.310	0.112
-326.143	800.000	0.073	0.309
-325.129	240.990	0.169	0.280
-324.114	-99.464	0.194	-0.048
-323.099	17.238	0.137	-0.108
-322.085	264.341	-0.301	-0.521
-321.070	-22.719	-0.119	0.072
-320.056	5.933	0.336	-0.247
-319.041	204.169	-0.139	-0.214
-318.026	107.755	-0.082	-0.097
-317.012	-200.000	0.360	0.000
-315.997	389.429	0.041	0.085
-314.983	-22.915	0.210	0.126
-313.968	800.000	-0.039	-0.155
-312.953	53.992	-0.028	0.026
-311.939	-132.053	-0.163	0.021
-310.924	27.576	0.084	-0.070
-309.910	800.000	-0.057	-0.169
-308.895	296.373	-0.379	-0.690
-307.880	-43.773	0.087	-0.043
-306.866	-200.000	-0.028	-0.214
-305.851	-100.988	-0.169	0.041
-304.837	2.632	-0.250	0.180
-303.822	-29.966	-0.162	0.091
-302.807	-146.997	0.354	0.030
-301.793	-7.497	-0.077	-0.052
-300.778	124.899	-0.137	-0.171
-299.764	279.213	-0.117	0.206
-298.749	764.348	-0.034	-0.092
-297.735	-68.380	0.078	0.030
-296.720	800.000	0.023	-0.087
-295.705	-200.000	-0.015	-0.128
-294.691	238.766	-0.272	-0.448
-293.676	-67.729	-0.376	0.146
-292.662	317.547	0.092	0.172
-291.647	53.760	0.284	-0.270
-290.632	532.391	-0.058	-0.136
-289.618	149.737	0.166	0.223
-288.603	35.675	0.177	-0.155
-287.589	-83.947	-0.104	0.033
-286.574	-18.748	-0.281	0.173
-285.559	211.965	0.134	0.210
-284.545	43.422	0.267	0.242
-283.530	18.633	-0.055	-0.043
-282.516	-200.000	-0.099	-0.470
-281.501	213.203	0.241	0.378
-280.486	-200.000	-0.066	-0.343
-279.472	-110.461	0.193	-0.040
-278.457	-6.528	-0.134	0.090
-277.443	112.434	-0.299	0.359
-276.428	-37.705	-0.292	-0.154
-275.413	243.454	0.128	0.212
-274.399	89.670	0.124	0.137
-273.384	-48.096	-0.095	0.046
-272.370	-80.713	0.170	0.056
-271.355	-137.105	0.078	0.009
-270.340	-91.978	-0.153	0.043
-269.326	361.991	0.083	0.166
-268.311	-92.715	-0.220	-0.061
-267.297	-89.867	0.168	0.049
-266.282	557.444	0.088	-0.210
-265.267	42.283	0.118	-0.106
-264.253	-87.430	-0.372	-0.112
-263.238	-76.002	-0.335	-0.117
-262.224	-200.000	-0.021	0.117
-261.209	-200.000	0.016	-0.087
-260.195	267.718	0.137	0.238
-259.180	-142.293	0.185	-0.018
-258.165	-36.346	-0.246	-0.131
-257.151	1.814	0.154	-0.110
-256.136	-13.745	0.081	0.052
-255.122	800.000	-0.028	0.080
-254.107	540.539	-0.040	0.095
-253.092	-200.000	-0.001	-0.024
-252.078	-98.444	-0.446	-0.113
-251.063	-200.000	0.007	-0.121
-250.049	-84.411	0.307	-0.096
-249.034	-23.345	-0.287	-0.171
-248.019	522.456	0.073	0.170
-247.005	-36.241	-0.065	-0.035
-245.990	229.469	0.024	-0.038
-244.976	591.523	-0.112	-0.275
-243.961	77.838	0.409	0.432
-242.946	-3.409	-0.235	0.162
-241.932	800.000	0.161	0.459
-240.917	42.277	-0.135	-0.121
-239.903	-107.872	0.271	-0.058
-238.888	800.000	-0.055	-0.212
-237.873	800.000	-0.096	0.278
-236.859	-141.627	0.195	0.019
-235.844	800.000	0.090	0.351
-234.830	59.417	-0.172	0.167
-233.815	80.540	-0.271	-0.288
-232.800	725.478	0.073	-0.194
-231.786	-200.000	0.005	-0.187
-230.771	-200.000	-0.022	0.188
-229.757	99.404	-0.123	-0.141
-228.742	-124.777	0.381	-0.058
-227.727	-4.485	0.217	-0.148
-226.713	22.833	0.179	-0.145
-225.698	-126.081	0.226	-0.034
-224.684	-138.061	-0.351	-0.039
-223.669	800.000	0.048	-0.197
-222.655	-200.000	0.039	0.313
-221.640	800.000	-0.069	0.210
-220.625	-78.184	-0.198	0.067
-219.611	-87.726	0.395	-0.118
-218.596	-200.000	-0.018	-0.131
-217.582	9.802	-0.171	0.128
-216.567	565.788	-0.116	-0.279
-215.552	-106.211	0.130	0.029
-214.538	-112.376	-0.020	-0.004
-213.523	800.000	-0.065	0.247
-212.509	314.597	0.209	0.389
-211.494	-84.405	-0.346	0.108
-210.479	-200.000	-0.009	-0.092
-209.465	-132.034	0.071	0.009
-208.450	-90.436	-0.127	0.036
-207.436	-139.065	-0.068	0.007
-206.421	188.863	-0.128	-0.189
-205.406	81.797	-0.057	-0.061
-204.392	-200.000	0.032	0.163
-203.377	800.000	-0.082	0.266
-202.363	201.520	0.203	-0.309
-201.348	-57.960	-0.227	0.098
-200.333	-95.236	0.219	-0.058
-199.319	-89.115	0.117	-0.034
-198.304	-96.795	0.154	0.040
-197.290	-89.558	-0.372	0.108
-196.275	-200.000	0.015	0.295
-195.260	296.084	-0.066	-0.120
-194.246	-94.365	0.286	0.077
-193.231	-154.551	0.383	-0.025
-192.217	-200.000	-0.023	0.108
-191.202	208.619	-0.120	0.186
-190.187	-152.509	0.079	0.006
-189.173	-87.297	-0.344	-0.103
-188.158	575.944	0.028	0.068
-187.144	-56.265	0.179	-0.079
-186.129	1.852	-0.051	-0.037
-185.114	-75.888	0.258	-0.090
-184.100	-35.968	-0.220	-0.118
-183.085	-200.000	0.009	-0.281
-182.071	800.000	0.041	-0.150
-181.056	800.000	0.086	0.297
-180.042	-22.977	0.349	0.208
-179.027	246.165	-0.097	0.162
-178.012	-68.853	0.564	-0.215
-176.998	-18.164	-0.202	0.125
-175.983	231.904	-0.065	0.105
-174.969	-200.000	0.008	0.343
-173.954	-113.999	0.183	0.035
-172.939	-200.000	-0.009	-0.058
-171.925	62.347	-0.181	0.179
-170.910	-25.793	-0.119	0.069
-169.896	800.000	0.047	-0.135
-168.881	-129.720	-0.134	0.018
-167.866	-200.000	0.037	0.243
-166.852	800.000	0.016	0.057
-165.837	211.462	0.060	0.093
-164.823	630.833	0.034	0.084
-163.808	-75.321	0.292	0.103
-162.793	386.928	-0.133	0.271
-161.779	-200.000	0.063	0.273
-160.764	-200.000	-0.009	-0.094
-159.750	-134.716	0.079	-0.010
-158.735	800.000	0.060	0.251
-157.720	800.000	-0.034	-0.136
-156.706	342.980	-0.192	0.370
-155.691	299.735	0.083	-0.151
-154.677	-57.818	0.293	0.126
-153.662	10.048	-0.154	-0.115
-152.647	-69.913	-0.116	0.044
-151.633	-10.198	0.253	-0.166
-150.618	-98.866	-0.436	-0.109
-149.604	-39.289	-0.154	0.080
-148.589	-36.888	0.507	-0.268
-147.574	-200.000	-0.009	0.236
-146.560	190.374	-0.095	0.140
-145.545	46.138	0.104	0.095
-144.531	-148.409	-0.181	0.015
-143.516	6.378	0.106	0.078
-142.502	-200.000	0.020	0.274
-141.487	97.842	-0.173	0.196
-140.472	-200.000	-0.048	-0.242
-139.458	-19.474	0.195	0.119
-138.443	-10.041	-0.144	0.094
-137.429	800.000	-0.039	0.140
-136.414	48.171	-0.037	0.034
-135.399	-58.640	0.398	0.170
-134.385	208.721	-0.108	0.166
-133.370	-59.447	0.201	-0.085
-132.356	267.820	-0.185	-0.320
-131.341	-2.513	0.320	0.221
-130.326	-32.547	-0.105	0.058
-129.312	-200.000	0.021	0.140
-128.297	-199.958	-0.123	-0.001
-127.283	32.871	-0.213	-0.182
-126.268	800.000	-0.050	-0.164
-125.253	-19.986	0.501	-0.304
-124.239	274.271	0.178	0.310
-123.224	363.283	0.100	0.198
-122.210	-45.624	0.162	0.079
-121.195	-7.876	0.199	-0.132
