DTS Sentinel unit serial number:	SN413079Multiplexer serial number:	ORYXHardware model number:	OX4-SRSoftware version number:	ORYX F/W v4.00 Oryx Data Collector v3.7.2.0data status	okinstallation	princeton_trtdifferential loss correction	single-endedforward channel	channel 2reverse channel	N/Adate	2019/09/12time	21:15:35forward acquisition time	60.00reverse acquisition time	0.00gamma	496.2192k internal	0.2328k external	0.2328temperature offset calibration	1.0168default loss term (dB/km)	0.3790temperature slope calibration	1.0000multiplexer offset coefficient	1.0000multiplexer slope coefficient	1.0000fibre end	0.00T internal ref (°C)	30.62T ext. ref 1 (°C)	3.61T ext. ref 2 (°C)	25.21length (m)	temperature (°C)	Stokes	anti-Stokes-747.200	-66.383	0.371	-0.149
-746.185	-4.085	-0.282	0.197
-745.171	-91.097	0.276	-0.080
-744.156	145.595	0.172	0.232
-743.142	469.042	0.149	0.337
-742.127	228.901	-0.124	-0.203
-741.112	-69.334	0.202	0.078
-740.098	800.000	0.037	-0.141
-739.083	-200.000	-0.002	0.235
-738.069	-137.930	0.046	0.005
-737.054	284.651	-0.037	0.067
-736.039	73.380	-0.193	0.203
-735.025	-82.421	0.142	0.046
-734.010	-162.278	0.073	0.004
-732.996	537.680	-0.060	0.144
-731.981	-115.283	-0.233	0.044
-730.966	800.000	0.033	0.136
-729.952	-200.000	0.009	-0.330
-728.937	286.113	-0.133	-0.241
-727.923	-165.246	0.013	0.001
-726.908	82.415	0.176	-0.192
-725.894	79.715	-0.091	0.098
-724.879	34.602	0.155	-0.136
-723.864	-200.000	-0.009	0.333
-722.850	-64.191	-0.125	0.051
-721.835	341.204	0.082	-0.161
-720.821	-200.000	0.058	0.260
-719.806	-24.070	-0.303	-0.182
-718.791	-200.000	-0.051	0.228
-717.777	-102.982	-0.214	-0.051
-716.762	148.002	-0.085	0.115
-715.748	214.618	-0.072	-0.115
-714.733	-64.785	0.005	0.002
-713.718	-200.000	0.011	0.253
-712.704	800.000	-0.057	-0.184
-711.689	-73.439	0.208	-0.077
-710.675	-15.398	0.119	-0.076
-709.660	-152.558	0.180	-0.013
-708.645	-57.739	0.265	-0.117
-707.631	-94.769	0.186	0.051
-706.616	128.148	-0.170	0.218
-705.602	-138.421	-0.141	-0.016
-704.587	-200.000	-0.036	0.255
-703.572	-89.975	-0.177	-0.052
-702.558	-109.240	-0.283	0.060
-701.543	800.000	0.034	-0.142
-700.529	-96.615	-0.319	-0.085
-699.514	9.328	-0.169	-0.128
-698.499	-129.670	0.088	0.012
-697.485	-104.054	-0.180	-0.042
-696.470	239.480	-0.035	-0.059
-695.456	-180.238	0.079	-0.002
-694.441	-200.000	0.084	0.413
-693.426	-85.508	0.325	0.102
-692.412	-154.541	0.182	0.012
-691.397	-9.405	-0.262	-0.176
-690.383	-200.000	0.028	-0.171
-689.368	-200.000	0.011	-0.069
-688.354	91.015	0.141	0.160
-687.339	114.422	0.044	-0.053
-686.324	144.287	-0.196	0.262
-685.310	543.595	-0.151	0.363
-684.295	449.551	0.091	0.201
-683.281	-64.806	0.049	0.020
-682.266	-103.850	-0.046	0.011
-681.251	-200.000	0.024	-0.266
-680.237	267.342	-0.164	0.288
-679.222	-116.012	-0.100	0.019
-678.208	-89.976	-0.298	-0.087
-677.193	66.073	0.465	-0.475
-676.178	-97.738	-0.297	-0.077
-675.164	271.113	0.085	0.150
-674.149	-49.313	0.097	0.047
-673.135	143.316	0.090	-0.121
-672.120	29.395	-0.147	-0.125
-671.105	-166.343	-0.467	-0.020
-670.091	1.691	-0.213	-0.154
-669.076	324.944	-0.230	0.442
-668.062	800.000	0.162	0.462
-667.047	50.867	-0.305	-0.291
-666.032	-154.319	-0.139	0.009
-665.018	72.611	0.144	0.150
-664.003	-147.410	0.179	-0.015
-662.989	-52.811	0.039	-0.018
-661.974	-81.855	0.024	0.008
-660.959	-125.661	0.071	0.011
-659.945	-127.702	0.133	-0.019
-658.930	225.838	0.019	-0.031
-657.916	-105.390	0.146	-0.033
-656.901	761.531	-0.126	-0.343
-655.886	287.430	-0.071	0.128
-654.872	-90.448	0.183	-0.053
-653.857	329.056	-0.103	-0.198
-652.843	-150.569	0.322	0.025
-651.828	126.351	0.096	0.122
-650.814	100.048	-0.040	-0.047
-649.799	-83.837	0.286	0.091
-648.784	-200.000	-0.013	0.135
-647.770	-55.801	0.275	0.123
-646.755	-7.217	-0.243	0.165
-645.741	74.012	0.057	-0.060
-644.726	85.852	0.184	0.204
-643.711	-54.329	-0.147	0.067
-642.697	677.195	0.073	-0.190
-641.682	673.289	0.108	-0.280
-640.668	95.679	-0.206	0.236
-639.653	-200.000	-0.008	0.089
-638.638	25.593	0.108	0.091
-637.624	-40.355	-0.485	0.253
-636.609	800.000	-0.055	0.212
-635.595	-51.695	-0.068	-0.032
-634.580	-200.000	0.048	0.275
-633.565	165.031	-0.065	-0.092
-632.551	16.164	0.167	0.132
-631.536	-156.031	-0.258	-0.016
-630.522	1.293	0.150	-0.108
-629.507	-121.851	-0.099	-0.016
-628.492	778.061	0.010	0.026
-627.478	-200.000	-0.022	0.170
-626.463	-52.275	0.046	0.021
-625.449	800.000	0.033	-0.110
-624.434	800.000	-0.050	-0.198
-623.419	-105.336	-0.366	0.084
-622.405	-98.945	0.184	0.047
-621.390	-24.502	-0.072	-0.043
-620.376	-139.569	0.188	0.020
-619.361	306.514	-0.064	0.120
-618.346	-117.909	-0.094	0.017
-617.332	-20.791	-0.052	-0.032
-616.317	800.000	-0.065	0.229
-615.303	-200.000	-0.043	-0.334
-614.288	800.000	-0.119	0.396
-613.273	-139.109	-0.270	0.029
-612.259	-34.235	0.300	-0.165
-611.244	-105.653	-0.520	-0.118
-610.230	157.355	0.150	-0.208
-609.215	96.303	-0.085	-0.097
-608.201	14.697	0.259	0.203
-607.186	-35.782	0.040	0.022
-606.171	800.000	0.083	-0.299
-605.157	156.191	-0.174	-0.241
-604.142	6.925	-0.054	0.040
-603.128	94.454	0.087	-0.099
-602.113	595.226	0.060	-0.149
-601.098	-11.254	0.120	0.079
-600.084	-200.000	-0.009	0.118
-599.069	-68.969	-0.234	-0.090
-598.055	-200.000	0.023	-0.308
-597.040	184.708	-0.171	-0.254
-596.025	-200.000	0.014	-0.123
-595.011	-86.513	-0.232	0.071
-593.996	-177.126	0.375	-0.009
-592.982	-103.724	-0.192	-0.045
-591.967	758.173	-0.067	-0.182
-590.952	383.133	0.091	-0.188
-589.938	-26.436	0.100	-0.058
-588.923	-147.426	-0.157	-0.013
-587.909	800.000	0.050	0.194
-586.894	321.231	0.149	-0.283
-585.879	-190.910	0.180	0.002
-584.865	302.774	0.045	0.083
-583.850	-151.466	-0.372	0.028
-582.836	-57.920	0.310	-0.135
-581.821	-200.000	0.043	0.252
-580.806	490.112	-0.132	0.303
-579.792	-44.299	-0.145	0.073
-578.777	150.735	0.128	0.174
-577.763	48.863	-0.208	-0.196
-576.748	-200.000	-0.024	0.146
-575.733	5.195	-0.225	0.166
-574.719	-200.000	-0.015	-0.119
-573.704	-200.000	-0.003	-0.021
-572.690	503.865	-0.042	-0.096
-571.675	-8.722	0.199	0.134
-570.661	109.177	0.149	-0.179
-569.646	-83.428	-0.521	-0.167
-568.631	-200.000	-0.001	0.219
-567.617	-118.808	-0.083	0.015
-566.602	129.538	-0.042	-0.054
-565.588	-49.239	-0.405	0.194
-564.573	800.000	-0.037	0.151
-563.558	-161.732	0.206	0.010
-562.544	-112.985	0.122	0.024
-561.529	-200.000	-0.294	-0.000
-560.515	-124.984	-0.270	-0.042
-559.500	89.417	0.115	0.128
-558.485	-98.970	-0.227	-0.058
-557.471	-20.632	-0.184	-0.113
-556.456	340.903	-0.082	0.161
-555.442	-79.167	-0.292	-0.099
-554.427	-72.364	0.180	0.067
-553.412	-200.000	0.003	-0.044
-552.398	-200.000	-0.023	0.288
-551.383	-101.092	-0.090	-0.022
-550.369	29.651	0.349	-0.297
-549.354	-145.831	-0.195	-0.017
-548.339	-81.548	0.275	-0.091
-547.325	67.468	-0.415	0.424
-546.310	18.982	0.229	0.184
-545.296	-85.466	0.130	-0.041
-544.281	-147.243	0.349	0.030
-543.266	-0.888	-0.131	-0.093
-542.252	128.870	-0.095	0.121
-541.237	-157.782	-0.013	-0.001
-540.223	-42.387	0.170	-0.087
-539.208	-200.000	-0.013	-0.203
-538.193	800.000	-0.051	-0.180
-537.179	-31.073	-0.110	0.062
-536.164	-64.321	0.231	-0.094
-535.150	-141.094	0.206	-0.021
-534.135	-20.847	-0.230	0.141
-533.121	-53.505	-0.438	0.200
-532.106	12.379	0.089	0.069
-531.091	800.000	-0.018	-0.052
-530.077	-200.000	0.007	-0.247
-529.062	-200.000	-0.034	-0.230
-528.048	800.000	0.063	-0.174
-527.033	-111.465	-0.273	0.056
-526.018	-23.978	-0.208	0.125
-525.004	77.740	-0.103	0.110
-523.989	35.430	0.241	0.211
-522.975	190.968	0.295	0.444
-521.960	-80.129	-0.067	0.022
-520.945	-103.267	0.258	0.061
-519.931	80.538	0.404	0.435
-518.916	-52.728	0.171	0.079
-517.902	-14.055	-0.219	-0.141
-516.887	224.895	-0.215	0.347
-515.872	-78.213	0.154	-0.053
-514.858	45.740	-0.079	-0.073
-513.843	229.097	-0.165	-0.268
-512.829	-200.000	0.062	-0.293
-511.814	494.103	0.034	-0.079
-510.799	-25.619	0.111	0.066
-509.785	777.214	-0.091	0.248
-508.770	-184.114	0.176	0.003
-507.756	-200.000	0.332	0.000
-506.741	214.173	-0.154	-0.244
-505.726	-156.782	0.174	0.011
-504.712	-200.000	-0.024	-0.109
-503.697	-98.583	-0.081	-0.021
-502.683	645.963	-0.067	0.171
-501.668	-134.180	0.092	-0.011
-500.653	250.214	0.174	0.295
-499.639	675.789	-0.079	-0.204
-498.624	-135.386	0.290	-0.035
-497.610	-68.202	0.288	0.112
-496.595	-179.863	-0.078	-0.002
-495.581	-33.894	0.121	-0.067
-494.566	-200.000	0.047	0.305
-493.551	98.818	-0.145	-0.167
-492.537	-90.456	-0.132	0.038
-491.522	-98.199	0.162	0.042
-490.508	298.010	-0.124	-0.227
-489.493	800.000	-0.034	-0.130
-488.478	-76.581	0.019	-0.007
-487.464	-200.000	0.043	-0.256
-486.449	391.124	0.193	-0.400
-485.435	-148.673	-0.323	-0.026
-484.420	-75.121	-0.191	-0.068
-483.405	-8.797	-0.218	-0.146
-482.391	-130.327	-0.315	0.043
-481.376	-73.427	-0.135	0.049
-480.362	800.000	0.026	0.091
-479.347	-4.440	-0.188	0.130
-478.332	186.163	0.067	0.100
-477.318	-16.434	0.360	-0.228
-476.303	-23.321	-0.053	-0.032
-475.289	-139.810	0.255	-0.027
-474.274	649.664	0.129	0.329
-473.259	-74.850	0.221	0.079
-472.245	402.540	0.117	-0.245
-471.230	554.576	0.062	0.148
-470.216	-127.422	0.357	-0.052
-469.201	128.680	-0.039	0.049
-468.186	-200.000	-0.025	-0.247
-467.172	3.376	-0.060	0.043
-466.157	202.261	-0.222	0.342
-465.143	14.129	0.106	0.082
-464.128	-174.211	0.088	-0.003
-463.113	697.950	0.128	-0.335
-462.099	84.511	0.088	-0.096
-461.084	233.548	0.070	-0.115
-460.070	-112.105	-0.245	0.049
-459.055	-200.000	-0.029	0.299
-458.040	156.681	-0.102	0.141
-457.026	430.498	-0.082	0.178
-456.011	641.976	-0.095	0.241
-454.997	-200.000	-0.049	-0.248
-453.982	481.324	0.166	-0.375
-452.968	-148.716	0.158	0.013
-451.953	-68.101	-0.068	0.026
-450.938	-200.000	0.015	-0.088
-449.924	13.807	-0.064	-0.049
-448.909	196.909	0.207	0.314
-447.895	80.025	-0.164	0.176
-446.880	184.756	-0.104	-0.154
-445.865	-200.000	-0.005	0.222
-444.851	800.000	-0.097	0.286
-443.836	-86.875	-0.608	0.185
-442.822	268.632	0.159	-0.278
-441.807	800.000	-0.042	0.171
-440.792	460.141	-0.051	-0.113
-439.778	-81.295	0.243	-0.080
-438.763	800.000	0.074	0.248
-437.749	800.000	-0.027	-0.089
-436.734	303.648	0.131	-0.243
-435.719	76.139	0.010	0.011
-434.705	0.562	-0.179	0.127
-433.690	-54.893	-0.208	0.093
-432.676	307.325	-0.011	0.020
-431.661	699.404	-0.081	-0.212
-430.646	-200.000	-0.059	-0.320
-429.632	-200.000	-0.036	0.217
-428.617	-42.250	0.158	-0.080
-427.603	198.665	0.156	-0.238
-426.588	-121.173	-0.379	0.063
-425.573	54.204	0.086	0.082
-424.559	470.447	-0.143	0.320
-423.544	171.601	0.247	-0.353
-422.530	171.224	0.044	0.062
-421.515	149.297	-0.217	-0.292
-420.500	-142.205	0.252	0.025
-419.486	-88.827	-0.061	0.018
-418.471	-200.000	0.007	0.089
-417.457	-104.049	-0.061	0.014
-416.442	-93.578	0.199	0.055
-415.428	-160.320	0.194	-0.010
-414.413	-174.978	-0.121	-0.003
-413.398	-51.349	0.098	-0.046
-412.384	36.796	-0.191	-0.168
-411.369	291.400	-0.168	0.304
-410.355	90.927	0.020	-0.022
-409.340	-99.010	-0.152	0.038
-408.325	107.945	0.075	0.089
-407.311	-134.481	-0.034	-0.004
-406.296	-85.390	0.101	0.031
-405.282	-148.368	0.196	0.016
-404.267	127.437	0.107	0.135
-403.252	800.000	0.073	0.257
-402.238	-57.313	0.193	0.085
-401.223	55.079	-0.232	0.223
-400.209	-72.667	-0.199	-0.073
-399.194	-127.135	0.368	-0.054
-398.179	-54.394	-0.221	0.100
-397.165	726.574	-0.029	-0.077
-396.150	251.972	0.071	0.120
-395.136	-141.702	-0.212	0.021
-394.121	-200.000	-0.003	-0.084
-393.106	169.537	0.103	-0.146
-392.092	36.596	0.310	-0.272
-391.077	62.427	0.184	-0.183
-390.063	-137.389	-0.128	0.014
-389.048	-17.681	0.071	0.044
-388.033	246.947	-0.170	0.286
-387.019	-72.897	-0.050	-0.018
-386.004	289.807	-0.073	-0.132
-384.990	-163.712	-0.140	-0.007
-383.975	438.929	0.077	-0.166
-382.960	316.537	0.101	-0.190
-381.946	-84.288	0.199	0.063
-380.931	631.185	-0.063	-0.157
-379.917	-200.000	-0.012	0.058
-378.902	800.000	0.053	0.189
-377.888	-200.000	-0.006	0.132
-376.873	589.894	-0.081	0.199
-375.858	-200.000	-0.064	-0.450
-374.844	-8.196	-0.117	0.079
-373.829	106.505	0.059	0.070
-372.815	181.569	0.150	-0.220
-371.800	68.710	0.050	-0.051
-370.785	-200.000	0.045	-0.352
-369.771	-74.895	0.250	0.089
-368.756	270.916	-0.189	0.330
-367.742	-40.211	0.037	0.019
-366.727	197.759	0.213	0.324
-365.712	-38.338	0.279	-0.147
-364.698	179.689	0.083	0.120
-363.683	68.072	-0.203	0.207
-362.669	168.026	0.037	0.053
-361.654	375.171	-0.055	-0.112
-360.639	-103.160	0.351	-0.082
-359.625	171.978	0.061	0.086
-358.610	-200.000	0.010	-0.282
-357.596	36.040	0.184	-0.161
-356.581	800.000	-0.033	0.092
-355.566	-200.000	-0.072	-0.422
-354.552	-149.710	-0.194	-0.015
-353.537	-200.000	-0.033	0.312
-352.523	438.288	-0.034	0.074
-351.508	-113.795	0.230	0.044
-350.493	-63.150	-0.249	0.102
-349.479	800.000	0.018	0.060
-348.464	-172.964	-0.334	-0.010
-347.450	2.165	-0.095	0.068
-346.435	122.105	-0.070	-0.086
-345.420	143.292	0.181	-0.239
-344.406	-200.000	0.039	0.410
-343.391	108.060	-0.263	-0.311
-342.377	239.986	-0.167	0.275
-341.362	-200.000	-0.015	0.104
-340.348	-200.000	0.034	-0.320
-339.333	-147.305	0.164	0.014
-338.318	-110.856	-0.036	-0.007
-337.304	-137.454	-0.238	0.027
-336.289	119.803	0.182	-0.223
-335.275	-200.000	0.001	0.189
-334.260	18.745	0.130	0.104
-333.245	195.674	0.270	0.407
-332.231	52.806	0.141	0.134
-331.216	256.965	-0.118	0.200
-330.202	-200.000	0.001	-0.189
-329.187	-92.972	-0.023	0.006
-328.172	64.187	-0.129	-0.129
-327.158	-164.669	0.183	0.008
-326.143	219.509	-0.136	-0.215
-325.129	4.089	-0.037	0.027
-324.114	-40.020	0.480	0.248
-323.099	-200.000	-0.009	0.282
-322.085	800.000	-0.032	0.112
-321.070	771.736	0.014	0.039
-320.056	212.725	-0.102	-0.160
-319.041	272.615	0.064	0.112
-318.026	-78.226	0.031	-0.011
-317.012	-20.193	-0.430	0.262
-315.997	800.000	-0.148	-0.479
-314.983	-200.000	0.020	-0.181
-313.968	203.823	-0.064	0.099
-312.953	114.235	0.023	-0.028
-311.939	-67.922	0.219	0.085
-310.924	-117.074	0.462	-0.083
-309.910	681.035	-0.046	0.118
-308.895	-75.184	0.348	0.123
-307.880	-34.210	0.169	0.092
-306.866	800.000	0.101	-0.436
-305.851	-200.000	-0.050	-0.317
-304.837	-131.096	0.314	-0.041
-303.822	-200.000	-0.010	0.289
-302.807	-40.409	-0.178	-0.092
-301.793	-200.000	-0.000	0.132
-300.778	-200.000	0.005	-0.091
-299.764	23.518	0.272	0.221
-298.749	58.335	0.087	0.084
-297.735	800.000	0.036	-0.130
-296.720	365.763	-0.132	0.262
-295.705	-200.000	0.012	-0.092
-294.691	-13.153	-0.396	-0.255
-293.676	800.000	-0.023	0.090
-292.662	114.827	-0.109	0.131
-291.647	153.638	0.158	-0.214
-290.632	67.771	-0.103	0.104
-289.618	227.703	-0.122	0.196
-288.603	108.639	0.175	0.207
-287.589	-97.765	-0.283	0.072
-286.574	-61.654	-0.399	0.166
-285.559	800.000	0.050	0.190
-284.545	-47.998	-0.211	-0.101
-283.530	86.745	-0.300	-0.328
-282.516	-61.740	-0.180	0.074
-281.501	28.089	0.230	-0.192
-280.486	-116.883	0.207	0.038
-279.472	133.871	0.172	0.220
-278.457	-200.000	0.008	-0.122
-277.443	-134.001	0.159	0.020
-276.428	50.280	0.179	-0.167
-275.413	800.000	-0.171	-0.476
-274.399	412.916	0.090	0.190
-273.384	-32.567	-0.134	0.074
-272.370	-151.931	0.079	-0.006
-271.355	164.319	-0.115	0.161
-270.340	-85.038	0.096	0.030
-269.326	-200.000	0.031	-0.231
-268.311	237.690	-0.148	-0.242
-267.297	-141.875	0.387	-0.038
-266.282	800.000	-0.043	0.176
-265.267	224.222	0.046	-0.074
-264.253	179.751	0.075	-0.109
-263.238	345.485	-0.098	-0.191
-262.224	270.322	-0.060	-0.105
-261.209	800.000	0.063	0.201
-260.195	-171.792	-0.175	0.006
-259.180	-200.000	-0.079	-0.355
-258.165	800.000	0.077	-0.223
-257.151	-154.322	-0.294	0.020
-256.136	264.168	0.136	0.234
-255.122	167.837	0.199	0.280
-254.107	-96.938	0.059	-0.015
-253.092	-13.748	-0.120	0.077
-252.078	-43.011	-0.422	0.211
-251.063	800.000	0.073	0.222
-250.049	800.000	0.147	0.429
-249.034	-200.000	-0.011	-0.070
-248.019	-143.950	-0.366	-0.034
-247.005	-200.000	-0.057	0.273
-245.990	-200.000	0.068	0.360
-244.976	-99.150	-0.127	0.032
-243.961	-84.829	-0.056	-0.017
-242.946	800.000	-0.034	-0.135
-241.932	-156.383	-0.311	-0.019
-240.917	-80.140	0.061	0.020
-239.903	-29.798	0.109	-0.061
-238.888	193.522	0.121	-0.181
-237.873	800.000	-0.108	-0.313
-236.859	36.316	0.150	0.131
-235.844	55.377	-0.200	-0.191
-234.830	244.389	0.149	0.247
-233.815	302.132	0.235	0.429
-232.800	800.000	0.120	0.333
-231.786	734.715	0.134	0.354
-230.771	420.192	-0.033	0.070
-229.757	94.488	0.172	-0.193
-228.742	-40.306	-0.121	-0.062
-227.727	111.107	0.136	0.162
-226.713	-200.000	0.038	0.249
-225.698	453.220	0.123	-0.268
-224.684	27.396	-0.081	-0.067
-223.669	334.705	0.087	0.166
-222.655	557.422	-0.052	-0.125
-221.640	800.000	0.057	-0.229
-220.625	41.273	-0.137	-0.122
-219.611	192.958	0.063	0.094
-218.596	-200.000	0.036	0.386
-217.582	-82.245	-0.260	0.084
-216.567	-21.306	0.255	-0.154
-215.552	-97.383	-0.120	-0.031
-214.538	800.000	-0.034	0.097
-213.523	125.494	0.272	-0.339
-212.509	800.000	-0.033	-0.095
-211.494	-93.401	-0.281	-0.077
-210.479	-200.000	0.048	-0.218
-209.465	800.000	-0.031	0.126
-208.450	-200.000	-0.004	0.067
-207.436	-11.518	-0.391	-0.254
-206.421	381.248	0.038	0.076
-205.406	-200.000	0.018	0.089
-204.392	-200.000	0.008	-0.081
-203.377	-200.000	0.020	0.205
-202.363	-127.447	-0.325	0.047
-201.348	-200.000	-0.016	-0.189
-200.333	800.000	-0.114	-0.356
-199.319	800.000	0.112	0.390
-198.304	61.584	-0.062	-0.061
-197.290	537.068	-0.099	0.231
-196.275	167.986	0.086	-0.121
-195.260	108.527	-0.070	-0.082
-194.246	-200.000	-0.005	-0.116
-193.231	235.102	0.161	-0.262
-192.217	33.085	0.150	0.128
-191.202	41.970	0.090	0.081
-190.187	-90.242	0.474	0.136
-189.173	11.336	0.042	0.031
-188.158	800.000	0.047	-0.170
-187.144	800.000	-0.029	0.116
-186.129	-49.480	0.367	-0.173
-185.114	448.711	0.112	-0.243
-184.100	-114.496	0.265	0.050
-183.085	800.000	0.095	-0.408
-182.071	800.000	0.113	-0.438
-181.056	800.000	-0.045	0.153
-180.042	-200.000	0.033	-0.383
-179.027	800.000	-0.119	-0.328
-178.012	-43.337	0.187	-0.093
-176.998	-200.000	0.053	-0.263
-175.983	-200.000	-0.017	-0.185
-174.969	249.882	-0.055	-0.092
-173.954	-140.657	-0.158	0.016
-172.939	422.147	-0.127	-0.268
-171.925	-16.645	-0.199	-0.124
-170.910	501.466	-0.035	-0.081
-169.896	-200.000	-0.026	0.338
-168.881	509.689	-0.080	0.183
-167.866	-15.433	0.164	0.103
-166.852	635.857	-0.150	-0.376
-165.837	800.000	-0.052	-0.184
-164.823	-138.319	-0.500	0.054
-163.808	-107.641	0.096	0.021
-162.793	-200.000	0.038	0.189
-161.779	-200.000	0.080	-0.382
-160.764	-28.516	0.196	0.111
-159.750	449.742	0.112	-0.244
-158.735	-1.140	0.040	-0.028
-157.720	800.000	-0.009	-0.032
-156.706	-200.000	0.009	0.106
-155.691	476.763	-0.124	-0.276
-154.677	800.000	0.042	0.151
-153.662	-146.792	0.077	-0.007
-152.647	-200.000	0.113	0.537
-151.633	-200.000	0.007	-0.291
-150.618	59.784	0.132	0.128
-149.604	-17.115	0.283	0.176
-148.589	328.827	0.016	0.031
-147.574	800.000	-0.080	-0.250
-146.560	-3.974	0.134	-0.092
-145.545	105.913	0.055	-0.064
-144.531	-133.983	-0.162	-0.020
-143.516	96.808	0.112	-0.127
-142.502	48.208	0.302	0.278
-141.487	-185.883	0.306	-0.004
-140.472	13.536	-0.184	0.140
-139.458	-99.060	0.184	0.046
-138.443	123.662	-0.214	0.264
-137.429	344.184	-0.026	0.049
-136.414	-168.562	0.013	0.000
-135.399	485.169	0.091	0.203
-134.385	394.701	0.130	0.268
-133.370	-200.000	0.054	-0.234
-132.356	-98.810	-0.242	0.061
-131.341	665.907	-0.011	-0.027
-130.326	800.000	-0.066	0.229
-129.312	-200.000	0.004	0.227
-128.297	210.551	0.212	0.328
-127.283	-200.000	0.006	0.308
-126.268	800.000	0.071	-0.258
-125.253	-200.000	-0.048	0.348
-124.239	-131.209	-0.253	-0.033
-123.224	24.231	-0.223	0.181
-122.210	-17.707	0.219	-0.135
-121.195	-115.507	0.426	-0.079
