DTS Sentinel unit serial number:	SN413079Multiplexer serial number:	ORYXHardware model number:	OX4-SRSoftware version number:	ORYX F/W v4.00 Oryx Data Collector v3.7.2.0data status	okinstallation	princeton_trtdifferential loss correction	single-endedforward channel	channel 2reverse channel	N/Adate	2019/09/15time	11:31:35forward acquisition time	60.00reverse acquisition time	0.00gamma	496.2192k internal	0.2315k external	0.2315temperature offset calibration	1.0015default loss term (dB/km)	0.3790temperature slope calibration	1.0000multiplexer offset coefficient	1.0000multiplexer slope coefficient	1.0000fibre end	0.00T internal ref (°C)	34.31T ext. ref 1 (°C)	5.00T ext. ref 2 (°C)	29.88length (m)	temperature (°C)	Stokes	anti-Stokes-747.200	43.103	0.036	-0.033
-746.185	224.519	-0.259	0.424
-745.171	-195.156	0.228	0.002
-744.156	73.429	-0.062	-0.066
-743.142	34.264	0.185	0.163
-742.127	92.141	0.162	0.185
-741.112	-8.781	-0.063	0.043
-740.098	-61.346	-0.084	0.036
-739.083	800.000	0.065	0.185
-738.069	293.472	-0.138	0.255
-737.054	-18.285	0.133	-0.084
-736.039	-32.419	-0.158	0.089
-735.025	-77.599	0.087	0.030
-734.010	800.000	-0.143	-0.451
-732.996	365.563	-0.155	0.317
-731.981	800.000	-0.105	-0.358
-730.966	92.618	-0.228	-0.261
-729.952	-200.000	0.005	0.158
-728.937	-138.732	-0.403	0.045
-727.923	-200.000	-0.013	-0.286
-726.908	8.403	0.162	-0.124
-725.894	800.000	0.037	0.112
-724.879	168.330	0.180	-0.259
-723.864	75.512	0.121	-0.129
-722.850	85.453	0.250	-0.278
-721.835	135.039	-0.244	-0.321
-720.821	503.627	-0.112	-0.261
-719.806	-200.000	0.012	0.205
-718.791	7.015	-0.235	0.177
-717.777	231.127	0.078	-0.130
-716.762	55.958	-0.175	-0.172
-715.748	-123.527	0.099	-0.016
-714.733	55.064	-0.146	0.143
-713.718	800.000	0.050	0.170
-712.704	-107.116	-0.103	0.023
-711.689	-55.291	-0.216	-0.098
-710.675	-13.689	-0.124	-0.081
-709.660	-200.000	-0.040	-0.319
-708.645	-200.000	0.008	-0.235
-707.631	621.834	-0.093	-0.236
-706.616	56.828	0.289	-0.285
-705.602	37.291	-0.183	-0.164
-704.587	-123.222	0.225	-0.036
-703.572	-154.731	-0.228	0.015
-702.558	209.234	-0.088	-0.140
-701.543	-60.408	-0.090	-0.039
-700.529	96.981	0.200	-0.232
-699.514	-200.000	0.044	-0.257
-698.499	68.564	0.209	-0.217
-697.485	-116.845	-0.357	0.066
-696.470	-112.384	-0.092	0.019
-695.456	800.000	-0.065	-0.257
-694.441	-68.263	-0.081	0.032
-693.426	62.658	0.103	0.104
-692.412	333.065	-0.102	0.199
-691.397	86.792	0.111	-0.124
-690.383	19.858	-0.211	-0.172
-689.368	-117.755	-0.295	0.054
-688.354	-40.728	-0.171	-0.089
-687.339	-200.000	-0.004	0.066
-686.324	288.728	-0.109	-0.200
-685.310	-146.273	-0.583	-0.052
-684.295	-200.000	0.039	-0.205
-683.281	-40.055	0.184	-0.097
-682.266	172.889	0.155	-0.226
-681.251	-16.879	0.250	-0.160
-680.237	194.223	-0.168	-0.257
-679.222	161.222	-0.175	-0.247
-678.208	800.000	-0.084	-0.301
-677.193	-200.000	-0.021	-0.396
-676.178	-35.603	-0.190	0.104
-675.164	6.994	0.025	-0.019
-674.149	-110.355	-0.048	0.010
-673.135	-200.000	0.011	-0.269
-672.120	70.407	-0.136	-0.142
-671.105	-200.000	0.037	-0.216
-670.091	-33.929	-0.268	0.149
-669.076	89.139	-0.079	0.089
-668.062	-200.000	-0.007	0.320
-667.047	-82.424	0.158	-0.052
-666.032	50.261	0.150	-0.143
-665.018	89.351	0.068	0.076
-664.003	236.085	-0.088	0.148
-662.989	-109.227	-0.198	-0.042
-661.974	107.945	0.112	0.134
-660.959	83.696	0.193	-0.212
-659.945	-200.000	-0.006	-0.038
-658.930	-200.000	-0.041	-0.276
-657.916	37.950	-0.201	-0.180
-656.901	-78.120	0.212	-0.074
-655.886	-167.818	-0.224	-0.009
-654.872	-121.018	-0.318	0.054
-653.857	386.969	-0.128	0.268
-652.843	-67.383	0.318	0.126
-651.828	-200.000	-0.002	0.288
-650.814	326.455	-0.108	-0.208
-649.799	-124.492	-0.438	-0.069
-648.784	-37.317	0.188	-0.101
-647.770	-200.000	-0.010	-0.342
-646.755	-166.952	-0.238	0.010
-645.741	-146.798	0.063	-0.006
-644.726	800.000	0.025	0.105
-643.711	98.101	0.349	-0.405
-642.697	34.036	-0.296	0.260
-641.682	800.000	-0.149	-0.657
-640.668	-105.229	-0.247	-0.057
-639.653	-200.000	-0.032	0.484
-638.638	800.000	0.053	0.201
-637.624	-127.965	-0.250	0.036
-636.609	22.105	-0.067	-0.055
-635.595	800.000	0.037	-0.128
-634.580	217.844	0.106	-0.171
-633.565	-200.000	0.016	0.078
-632.551	-163.512	-0.250	-0.012
-631.536	-77.936	-0.220	-0.077
-630.522	-35.423	0.220	-0.121
-629.507	-128.547	0.238	0.034
-628.492	800.000	0.058	0.213
-627.478	800.000	-0.033	-0.106
-626.463	182.137	0.114	-0.169
-625.449	-75.692	-0.171	0.061
-624.434	-162.001	-0.174	-0.009
-623.419	644.162	-0.088	-0.225
-622.405	-200.000	-0.072	-0.356
-621.390	-71.829	-0.169	-0.064
-620.376	-200.000	-0.033	0.333
-619.361	62.928	0.179	0.181
-618.346	-14.246	-0.070	-0.045
-617.332	-38.873	0.284	0.151
-616.317	63.679	-0.181	-0.184
-615.303	426.999	0.150	-0.327
-614.288	235.976	0.079	-0.132
-613.273	-28.154	-0.184	-0.107
-612.259	-86.661	-0.245	-0.076
-611.244	800.000	-0.081	-0.257
-610.230	-141.294	-0.214	0.022
-609.215	-42.266	0.618	-0.318
-608.201	-177.978	-0.119	0.003
-607.186	80.094	0.320	0.347
-606.171	800.000	-0.121	0.367
-605.157	248.827	-0.086	0.147
-604.142	-200.000	-0.023	-0.192
-603.128	-200.000	-0.034	-0.201
-602.113	24.506	0.132	-0.110
-601.098	252.088	-0.049	0.085
-600.084	-97.380	0.232	0.061
-599.069	88.005	-0.050	-0.056
-598.055	-200.000	-0.012	-0.412
-597.040	-155.206	-0.375	-0.025
-596.025	-200.000	0.023	-0.184
-595.011	57.712	-0.087	0.086
-593.996	-129.018	0.145	0.021
-592.982	387.858	-0.098	-0.204
-591.967	-163.744	0.333	0.016
-590.952	-53.411	0.129	-0.059
-589.938	-200.000	-0.028	0.350
-588.923	-149.350	-0.314	0.025
-587.909	-200.000	0.002	-0.149
-586.894	47.869	0.077	0.072
-585.879	665.718	0.096	0.249
-584.865	800.000	-0.038	0.130
-583.850	-200.000	0.016	-0.121
-582.836	-200.000	0.046	-0.408
-581.821	-179.740	-0.077	0.002
-580.806	-69.374	0.186	0.072
-579.792	-200.000	-0.003	-0.067
-578.777	800.000	-0.071	-0.262
-577.763	390.156	-0.098	-0.204
-576.748	-41.462	0.168	0.087
-575.733	-200.000	-0.020	-0.200
-574.719	-50.632	0.242	-0.115
-573.704	-107.206	-0.376	-0.083
-572.690	503.465	0.021	0.048
-571.675	45.453	-0.318	0.296
-570.661	10.170	-0.432	-0.330
-569.646	-200.000	0.023	0.213
-568.631	75.981	0.243	-0.259
-567.617	800.000	0.106	-0.333
-566.602	129.970	0.059	-0.076
-565.588	3.452	-0.157	0.115
-564.573	228.880	0.011	-0.018
-563.558	-153.852	0.328	0.023
-562.544	-200.000	-0.015	-0.217
-561.529	-89.387	-0.104	-0.031
-560.515	66.797	0.023	-0.024
-559.500	139.658	0.148	-0.197
-558.485	183.809	-0.162	0.241
-557.471	800.000	-0.076	0.249
-556.456	-119.074	-0.265	-0.047
-555.442	122.760	-0.174	-0.219
-554.427	323.631	-0.113	-0.217
-553.412	-187.810	-0.403	-0.005
-552.398	-17.005	-0.304	0.193
-551.383	121.760	-0.171	0.215
-550.369	-200.000	-0.027	-0.256
-549.354	-104.685	0.521	0.121
-548.339	-156.043	-0.053	0.003
-547.325	-200.000	-0.020	0.285
-546.310	-73.087	-0.224	-0.083
-545.296	800.000	0.064	0.193
-544.281	118.724	0.174	0.216
-543.266	-47.497	-0.305	-0.149
-542.252	-113.932	-0.306	0.060
-541.237	-74.055	0.330	0.120
-540.223	64.689	0.109	0.110
-539.208	-125.304	0.153	0.023
-538.193	297.393	-0.106	-0.195
-537.179	-200.000	-0.048	-0.252
-536.164	68.109	0.261	-0.268
-535.150	211.060	0.226	-0.357
-534.135	-86.782	-0.156	0.048
-533.121	9.220	-0.169	0.128
-532.106	-110.702	-0.158	0.033
-531.091	-57.419	0.499	-0.220
-530.077	289.305	-0.082	-0.150
-529.062	634.417	-0.069	-0.177
-528.048	-151.017	0.306	-0.023
-527.033	-162.537	0.264	0.013
-526.018	-71.454	0.370	-0.139
-525.004	202.219	-0.170	0.263
-523.989	169.805	0.073	0.105
-522.975	103.432	-0.115	0.136
-521.960	-200.000	0.014	0.180
-520.945	-34.176	-0.249	-0.137
-519.931	-186.242	-0.109	0.002
-518.916	800.000	-0.011	-0.033
-517.902	74.368	0.266	0.280
-516.887	-111.067	0.035	-0.007
-515.872	25.047	-0.129	-0.108
-514.858	800.000	0.111	0.350
-513.843	-200.000	-0.011	-0.324
-512.829	233.450	-0.028	0.047
-511.814	-200.000	0.021	0.134
-510.799	-2.160	-0.109	-0.077
-509.785	-200.000	-0.053	0.549
-508.770	800.000	0.059	-0.188
-507.756	388.382	-0.081	0.169
-506.741	-200.000	0.008	-0.193
-505.726	800.000	-0.043	0.158
-504.712	-17.405	-0.201	0.127
-503.697	-200.000	0.060	-0.298
-502.683	-26.598	-0.243	0.143
-501.668	481.556	-0.202	-0.461
-500.653	-67.190	-0.202	-0.080
-499.639	800.000	0.035	0.122
-498.624	-200.000	0.053	0.319
-497.610	120.084	0.078	-0.097
-496.595	-115.980	-0.113	0.021
-495.581	-19.246	-0.178	0.111
-494.566	140.221	0.189	0.250
-493.551	350.879	-0.097	-0.193
-492.537	-103.900	-0.072	-0.017
-491.522	656.582	0.153	0.394
-490.508	301.580	0.093	0.173
-489.493	-68.589	-0.204	0.079
-488.478	28.128	-0.217	0.184
-487.464	-200.000	0.006	0.147
-486.449	-105.970	-0.176	0.040
-485.435	-200.000	-0.016	0.211
-484.420	-92.515	-0.128	-0.036
-483.405	800.000	-0.049	0.212
-482.391	800.000	0.041	0.169
-481.376	800.000	-0.055	0.161
-480.362	121.317	-0.044	-0.055
-479.347	418.204	0.113	0.243
-478.332	-130.497	0.223	0.030
-477.318	-92.096	-0.291	-0.083
-476.303	800.000	0.069	-0.271
-475.289	-200.000	0.011	0.133
-474.274	54.407	-0.087	0.084
-473.259	-66.514	0.400	0.159
-472.245	-161.474	0.029	0.002
-471.230	267.351	-0.096	-0.169
-470.216	-173.075	0.032	-0.001
-469.201	-96.098	-0.198	-0.053
-468.186	440.182	0.047	-0.103
-467.172	-102.816	-0.337	0.080
-466.157	498.320	0.086	0.199
-465.143	-200.000	-0.008	0.162
-464.128	-200.000	0.021	0.280
-463.113	-200.000	0.028	0.180
-462.099	-78.007	0.025	0.009
-461.084	208.028	0.088	-0.138
-460.070	-67.135	0.125	-0.049
-459.055	-9.927	-0.105	-0.070
-458.040	-200.000	0.009	-0.137
-457.026	-91.874	0.033	-0.009
-456.011	-42.418	0.093	0.048
-454.997	-13.639	-0.283	0.183
-453.982	190.144	-0.040	-0.060
-452.968	-200.000	0.006	0.100
-451.953	-200.000	0.026	0.343
-450.938	-26.960	0.176	0.103
-449.924	-21.408	0.275	-0.168
-448.909	800.000	0.085	0.257
-447.895	34.124	-0.063	0.055
-446.880	380.685	0.055	-0.113
-445.865	-200.000	0.036	-0.279
-444.851	-200.000	-0.017	-0.253
-443.836	800.000	0.021	-0.090
-442.822	-200.000	0.010	0.060
-441.807	478.001	0.107	0.244
-440.792	-40.978	-0.151	-0.078
-439.778	161.869	-0.090	-0.126
-438.763	263.893	0.194	-0.337
-437.749	69.640	0.111	0.115
-436.734	56.661	0.161	0.157
-435.719	-61.735	-0.358	-0.150
-434.705	-124.684	0.365	0.057
-433.690	65.132	0.129	-0.130
-432.676	-101.114	-0.271	0.066
-431.661	-170.639	0.174	-0.006
-430.646	310.239	-0.119	0.222
-429.632	-107.424	-0.193	0.042
-428.617	-63.295	-0.170	0.070
-427.603	800.000	-0.079	0.308
-426.588	-200.000	0.005	0.138
-425.573	80.619	0.171	0.185
-424.559	-4.265	0.092	0.064
-423.544	-9.813	-0.201	0.134
-422.530	-33.744	0.212	0.117
-421.515	-200.000	0.014	-0.232
-420.500	-200.000	-0.016	0.296
-419.486	-28.756	0.118	-0.068
-418.471	644.823	0.148	0.377
-417.457	-82.659	0.137	0.044
-416.442	-115.597	-0.246	-0.046
-415.428	-15.039	-0.146	-0.093
-414.413	220.252	0.106	0.170
-413.398	-200.000	0.001	0.061
-412.384	-43.652	0.290	-0.146
-411.369	51.530	0.087	-0.082
-410.355	41.251	0.250	0.226
-409.340	-90.847	-0.347	-0.100
-408.325	56.706	0.122	0.119
-407.311	800.000	0.042	-0.127
-406.296	800.000	0.010	-0.037
-405.282	-70.087	-0.292	-0.111
-404.267	-27.099	0.252	0.147
-403.252	-73.772	-0.220	-0.080
-402.238	114.317	0.089	0.108
-401.223	-140.027	0.124	0.013
-400.209	800.000	0.046	0.191
-399.194	18.084	-0.393	0.313
-398.179	-23.557	0.086	-0.052
-397.165	80.885	0.217	0.234
-396.150	-200.000	-0.008	0.263
-395.136	-101.473	0.313	0.076
-394.121	-78.952	0.222	0.075
-393.106	37.775	0.081	0.072
-392.092	246.614	0.060	-0.102
-391.077	-200.000	-0.030	0.202
-390.063	-158.243	0.095	-0.006
-389.048	370.558	0.128	0.259
-388.033	95.344	-0.121	-0.138
-387.019	-173.925	-0.444	0.013
-386.004	181.349	0.143	-0.210
-384.990	-200.000	-0.063	0.303
-383.975	800.000	-0.111	-0.338
-382.960	-200.000	-0.028	-0.206
-381.946	-73.010	-0.162	0.059
-380.931	290.101	-0.100	-0.182
-379.917	-109.925	-0.454	0.095
-378.902	-42.711	0.127	-0.064
-377.888	-103.965	0.080	-0.019
-376.873	163.080	0.061	-0.085
-375.858	-5.616	-0.058	0.040
-374.844	-79.672	0.360	-0.121
-373.829	273.920	-0.147	-0.260
-372.815	686.498	0.110	-0.286
-371.800	-149.457	0.355	0.028
-370.785	-75.418	-0.189	-0.067
-369.771	-117.990	0.191	-0.034
-368.756	-75.390	-0.161	0.057
-367.742	800.000	0.075	0.257
-366.727	-40.565	-0.152	-0.079
-365.712	47.034	-0.323	-0.300
-364.698	-146.909	-0.076	-0.006
-363.683	38.998	-0.211	-0.188
-362.669	-40.465	0.020	-0.010
-361.654	-74.806	-0.254	0.091
-360.639	182.583	-0.122	0.180
-359.625	-110.003	0.136	-0.028
-358.610	-189.898	0.260	-0.003
-357.596	-86.221	0.210	0.064
-356.581	-102.988	0.055	-0.013
-355.566	223.825	-0.077	-0.125
-354.552	169.340	-0.088	-0.126
-353.537	216.106	0.167	0.264
-352.523	-28.942	0.313	0.179
-351.508	-21.598	-0.159	-0.097
-350.493	-163.030	0.055	-0.003
-349.479	-122.524	0.209	-0.034
-348.464	-97.091	0.359	0.094
-347.450	205.231	-0.056	-0.086
-346.435	-200.000	0.021	-0.339
-345.420	148.947	0.159	-0.214
-344.406	-200.000	0.038	-0.189
-343.391	20.195	0.247	0.199
-342.377	26.849	-0.180	-0.150
-341.362	-13.852	0.211	-0.136
-340.348	-200.000	0.000	0.227
-339.333	800.000	-0.018	-0.056
-338.318	154.671	-0.128	0.175
-337.304	800.000	-0.104	0.353
-336.289	-73.379	0.217	-0.079
-335.275	-51.121	0.260	-0.122
-334.260	42.479	-0.173	-0.157
-333.245	-64.666	-0.143	0.058
-332.231	370.623	0.101	-0.205
-331.216	24.968	-0.361	-0.299
-330.202	-183.591	0.396	-0.007
-329.187	355.465	0.140	0.278
-328.172	-42.820	0.189	-0.096
-327.158	319.613	0.101	0.191
-326.143	428.328	0.106	-0.228
-325.129	-24.411	0.128	-0.076
-324.114	-151.834	0.191	0.014
-323.099	229.234	-0.197	0.321
-322.085	174.114	-0.261	0.376
-321.070	-128.414	-0.145	0.021
-320.056	800.000	-0.104	-0.330
-319.041	114.978	0.056	-0.068
-318.026	-200.000	-0.014	-0.139
-317.012	-96.717	-0.102	0.027
-315.997	256.345	0.173	0.295
-314.983	25.043	-0.287	0.237
-313.968	-138.244	-0.056	-0.006
-312.953	800.000	-0.049	-0.165
-311.939	15.074	-0.231	0.180
-310.924	-200.000	0.011	-0.077
-309.910	472.687	-0.165	-0.371
-308.895	2.697	0.400	-0.289
-307.880	-200.000	-0.001	0.188
-306.866	-200.000	0.001	0.056
-305.851	38.173	-0.242	0.215
-304.837	-200.000	0.008	-0.310
-303.822	-26.492	-0.159	-0.093
-302.807	800.000	0.049	-0.166
-301.793	-28.352	-0.016	-0.009
-300.778	99.254	0.266	0.306
-299.764	-200.000	-0.045	-0.233
-298.749	222.311	0.063	0.101
-297.735	-28.095	0.124	0.071
-296.720	-164.936	0.127	-0.006
-295.705	96.673	0.318	-0.363
-294.691	-24.365	-0.218	0.129
-293.676	48.409	-0.072	-0.067
-292.662	-187.166	-0.014	-0.000
-291.647	72.461	0.100	0.104
-290.632	299.706	-0.049	0.089
-289.618	50.268	-0.163	-0.154
-288.603	-49.169	0.267	0.127
-287.589	67.792	-0.172	-0.175
-286.574	-200.000	-0.044	0.305
-285.559	-200.000	0.047	-0.242
-284.545	-67.118	-0.218	-0.086
-283.530	64.218	-0.153	0.153
-282.516	800.000	-0.116	0.339
-281.501	-141.925	0.216	-0.021
-280.486	-175.553	-0.246	0.007
-279.472	-132.653	-0.209	-0.027
-278.457	262.741	0.132	0.228
-277.443	79.943	0.083	0.088
-276.428	-20.917	0.229	0.140
-275.413	95.715	-0.306	0.348
-274.399	-90.490	0.085	-0.025
-273.384	179.425	0.087	0.126
-272.370	46.064	-0.056	0.051
-271.355	-200.000	-0.013	-0.160
-270.340	43.674	-0.102	0.093
-269.326	-77.479	-0.155	-0.053
-268.311	-26.309	-0.317	-0.185
-267.297	-81.525	0.212	0.069
-266.282	-200.000	-0.085	-0.483
-265.267	-61.897	0.191	0.079
-264.253	-80.012	-0.264	-0.088
-263.238	98.404	-0.063	0.072
-262.224	-86.843	0.370	-0.112
-261.209	-28.349	-0.146	0.084
-260.195	-67.767	0.334	-0.130
-259.180	51.276	-0.082	0.078
-258.165	351.955	0.074	0.146
-257.151	-200.000	-0.008	0.054
-256.136	0.736	-0.185	0.132
-255.122	-121.907	0.305	0.050
-254.107	288.229	-0.126	0.227
-253.092	99.674	-0.086	0.099
-252.078	-114.467	0.334	0.064
-251.063	-83.978	0.333	-0.105
-250.049	5.886	0.120	-0.088
-249.034	-126.747	0.080	0.012
-248.019	800.000	-0.037	-0.124
-247.005	-200.000	-0.013	0.345
-245.990	-77.580	-0.116	0.040
-244.976	-200.000	0.030	-0.405
-243.961	-137.952	-0.052	0.006
-242.946	-145.157	-0.291	0.026
-241.932	-109.873	-0.096	0.020
-240.917	180.645	-0.118	-0.172
-239.903	-200.000	0.025	-0.161
-238.888	87.772	-0.206	0.226
-237.873	-119.574	0.232	0.040
-236.859	67.863	-0.083	0.084
-235.844	-200.000	0.020	-0.338
-234.830	-133.622	-0.104	0.013
-233.815	8.291	0.192	0.144
-232.800	-152.674	0.232	-0.016
-231.786	-16.010	-0.115	-0.073
-230.771	-107.642	0.389	0.084
-229.757	800.000	-0.039	0.159
-228.742	-49.566	-0.167	0.079
-227.727	-86.017	0.243	-0.074
-226.713	-104.096	-0.036	0.008
-225.698	-87.709	0.260	-0.078
-224.684	273.333	0.203	-0.356
-223.669	-155.042	0.170	0.011
-222.655	-107.317	0.090	-0.020
-221.640	-73.460	-0.056	0.020
-220.625	-119.744	0.096	0.016
-219.611	-180.698	0.458	0.009
-218.596	-200.000	0.008	0.143
-217.582	-143.131	-0.103	0.010
-216.567	-64.087	0.156	0.063
-215.552	574.211	0.086	-0.208
-214.538	178.626	-0.124	0.180
-213.523	97.553	-0.262	-0.299
-212.509	654.274	0.029	-0.075
-211.494	127.333	-0.095	0.120
-210.479	7.586	-0.203	0.151
-209.465	31.823	0.284	0.243
-208.450	46.163	-0.097	0.090
-207.436	387.488	-0.012	-0.025
-206.421	-200.000	-0.024	-0.195
-205.406	428.718	-0.093	-0.199
-204.392	-169.679	0.187	0.007
-203.377	-126.664	0.478	-0.070
-202.363	255.449	0.141	-0.239
-201.348	-82.761	-0.192	-0.062
-200.333	-200.000	-0.010	0.132
-199.319	121.885	-0.328	0.406
-198.304	328.579	0.063	0.119
-197.290	-79.347	-0.214	0.072
-196.275	-112.406	0.283	-0.056
-195.260	800.000	0.044	-0.144
-194.246	70.517	0.079	0.081
-193.231	-53.701	0.132	0.060
-192.217	-118.906	0.113	0.020
-191.202	114.927	-0.083	-0.101
-190.187	393.344	0.013	-0.027
-189.173	-141.713	-0.316	-0.031
-188.158	-200.000	-0.068	-0.475
-187.144	-92.291	0.179	0.050
-186.129	-9.754	0.139	-0.092
-185.114	-182.796	-0.056	0.001
-184.100	-20.080	-0.222	0.136
-183.085	760.534	0.096	-0.258
-182.071	800.000	0.065	-0.213
-181.056	-200.000	0.038	0.219
-180.042	800.000	0.077	0.219
-179.027	-13.965	0.182	0.117
-178.012	-189.862	0.076	-0.001
-176.998	318.367	-0.087	0.163
-175.983	164.674	-0.129	0.181
-174.969	346.284	-0.107	-0.208
-173.954	800.000	-0.038	-0.143
-172.939	-2.940	-0.203	0.141
-171.925	-73.014	0.149	-0.054
-170.910	3.788	-0.253	0.183
-169.896	-200.000	-0.016	-0.264
-168.881	-86.134	-0.232	-0.071
-167.866	2.983	0.144	0.104
-166.852	486.366	-0.050	0.112
-165.837	-39.163	0.226	0.118
-164.823	1.907	-0.087	-0.062
-163.808	800.000	-0.031	-0.085
-162.793	-200.000	0.009	0.096
-161.779	-74.933	0.208	0.074
-160.764	182.477	-0.077	-0.112
-159.750	-116.050	-0.134	-0.025
-158.735	-50.670	-0.077	-0.036
-157.720	-155.508	-0.196	0.012
-156.706	-137.340	0.076	-0.008
-155.691	-200.000	-0.002	0.139
-154.677	530.149	0.092	-0.216
-153.662	-200.000	0.030	0.177
-152.647	72.961	-0.236	-0.244
-151.633	249.961	0.115	-0.193
-150.618	-200.000	0.035	-0.278
-149.604	-139.983	-0.203	-0.021
-148.589	800.000	-0.129	-0.504
-147.574	-200.000	0.021	0.139
-146.560	-11.502	0.166	0.108
-145.545	310.723	0.057	-0.106
-144.531	33.441	-0.145	-0.125
-143.516	-100.815	0.137	0.033
-142.502	163.463	-0.133	0.185
-141.487	-67.642	0.482	0.187
-140.472	-56.018	0.112	0.049
-139.458	-32.681	0.150	-0.083
-138.443	530.519	0.074	0.173
-137.429	-0.733	0.098	0.068
-136.414	-114.966	0.186	0.035
-135.399	-193.959	0.067	-0.001
-134.385	41.534	0.168	-0.151
-133.370	0.746	0.152	0.107
-132.356	25.330	0.131	-0.108
-131.341	-38.013	0.362	0.190
-130.326	-157.695	-0.204	-0.012
-129.312	781.094	-0.120	0.325
-128.297	-46.213	0.190	0.093
-127.283	-61.208	-0.120	-0.050
-126.268	-200.000	-0.049	-0.313
-125.253	-78.398	-0.162	-0.055
-124.239	-137.089	-0.189	0.021
-123.224	-43.033	0.090	-0.045
-122.210	-98.671	0.077	0.020
