DTS Sentinel unit serial number:	SN413079Multiplexer serial number:	ORYXHardware model number:	OX4-SRSoftware version number:	ORYX F/W v4.00 Oryx Data Collector v3.7.2.0data status	okinstallation	princeton_trtdifferential loss correction	single-endedforward channel	channel 2reverse channel	N/Adate	2019/09/16time	07:15:34forward acquisition time	60.00reverse acquisition time	0.00gamma	496.2192k internal	0.2334k external	0.2334temperature offset calibration	0.9978default loss term (dB/km)	0.3790temperature slope calibration	1.0000multiplexer offset coefficient	1.0000multiplexer slope coefficient	1.0000fibre end	0.00T internal ref (°C)	27.37T ext. ref 1 (°C)	11.56T ext. ref 2 (°C)	22.24length (m)	temperature (°C)	Stokes	anti-Stokes-747.200	-99.865	-0.112	0.028
-746.185	-200.000	-0.018	0.088
-745.171	106.826	0.084	0.100
-744.156	-200.000	0.033	0.508
-743.142	800.000	0.063	0.241
-742.127	-200.000	-0.021	0.185
-741.112	800.000	0.038	0.153
-740.098	-92.746	-0.096	-0.027
-739.083	151.882	-0.151	-0.207
-738.069	-200.000	0.040	0.239
-737.054	-24.762	-0.423	0.253
-736.039	50.855	-0.237	-0.225
-735.025	58.835	0.166	0.164
-734.010	-200.000	-0.018	-0.110
-732.996	-55.401	-0.168	0.076
-731.981	124.371	0.207	-0.261
-730.966	19.230	0.130	0.105
-729.952	-9.775	-0.196	-0.131
-728.937	-200.000	-0.021	0.404
-727.923	121.152	0.170	0.212
-726.908	300.698	0.108	0.200
-725.894	800.000	-0.041	-0.135
-724.879	89.502	0.079	-0.089
-723.864	-157.597	0.056	-0.003
-722.850	-107.970	-0.142	-0.031
-721.835	-200.000	0.010	0.103
-720.821	-200.000	-0.042	-0.343
-719.806	473.001	-0.082	0.187
-718.791	-200.000	0.012	0.283
-717.777	-134.063	-0.225	-0.028
-716.762	252.878	0.067	0.116
-715.748	158.489	0.037	0.051
-714.733	-37.603	-0.188	0.101
-713.718	129.019	-0.093	0.119
-712.704	31.117	0.152	0.130
-711.689	-85.139	-0.066	-0.021
-710.675	-49.413	-0.308	-0.147
-709.660	-157.142	-0.181	0.011
-708.645	-200.000	0.016	-0.089
-707.631	-14.957	-0.038	0.025
-706.616	-200.000	0.015	-0.417
-705.602	148.283	-0.122	-0.165
-704.587	-77.929	-0.115	-0.040
-703.572	-118.474	0.098	-0.017
-702.558	-200.000	-0.006	-0.360
-701.543	13.214	0.298	0.232
-700.529	800.000	-0.155	-0.568
-699.514	800.000	-0.069	0.236
-698.499	-130.073	0.219	-0.030
-697.485	-53.689	-0.194	-0.089
-696.470	800.000	-0.076	-0.212
-695.456	296.630	0.159	-0.293
-694.441	-45.462	-0.233	0.116
-693.426	-200.000	0.001	0.110
-692.412	-83.795	0.213	0.068
-691.397	-96.204	-0.041	0.011
-690.383	-200.000	0.001	0.283
-689.368	156.324	-0.064	-0.089
-688.354	-37.842	-0.075	-0.040
-687.339	-49.373	-0.221	-0.106
-686.324	-140.847	0.284	0.029
-685.310	-64.776	-0.049	0.020
-684.295	-137.362	-0.239	-0.027
-683.281	800.000	-0.036	-0.152
-682.266	800.000	0.102	-0.294
-681.251	-67.392	0.130	0.051
-680.237	395.244	-0.104	0.218
-679.222	-8.626	0.165	-0.111
-678.208	-78.363	-0.220	-0.076
-677.193	87.781	-0.209	0.232
-676.178	-200.000	-0.048	0.210
-675.164	-200.000	-0.018	-0.319
-674.149	53.630	0.131	-0.127
-673.135	426.348	0.019	-0.041
-672.120	71.633	-0.078	-0.081
-671.105	-144.907	0.255	0.023
-670.091	47.899	-0.191	-0.179
-669.076	-158.742	-0.234	0.013
-668.062	-200.000	0.021	-0.116
-667.047	-200.000	-0.022	-0.368
-666.032	-84.131	0.566	0.180
-665.018	-200.000	0.053	0.434
-664.003	-200.000	-0.079	0.353
-662.989	407.691	-0.064	-0.136
-661.974	-88.143	0.416	0.125
-660.959	66.058	0.227	0.231
-659.945	256.241	-0.057	0.098
-658.930	-66.969	-0.200	-0.079
-657.916	139.016	0.194	0.256
-656.901	-26.441	-0.014	-0.008
-655.886	-39.089	-0.189	0.099
-654.872	-30.366	-0.052	0.029
-653.857	-15.606	0.090	-0.057
-652.843	800.000	-0.109	-0.321
-651.828	226.845	0.105	-0.171
-650.814	800.000	-0.110	0.325
-649.799	344.193	-0.045	0.088
-648.784	192.701	-0.164	0.248
-647.770	126.356	0.200	0.254
-646.755	35.695	-0.263	0.231
-645.741	-19.107	-0.292	-0.182
-644.726	-52.068	-0.229	0.107
-643.711	-121.018	0.390	-0.066
-642.697	-200.000	-0.009	-0.103
-641.682	-200.000	-0.047	0.338
-640.668	-129.160	0.336	0.047
-639.653	-80.926	0.080	-0.027
-638.638	353.717	0.100	0.199
-637.624	145.380	0.049	0.066
-636.609	5.861	-0.316	0.234
-635.595	13.292	-0.425	-0.330
-634.580	291.403	-0.130	0.237
-633.565	-73.991	-0.085	0.031
-632.551	247.643	0.171	-0.289
-631.536	800.000	0.062	-0.198
-630.522	410.534	-0.110	-0.233
-629.507	-66.544	-0.023	0.009
-628.492	-92.167	0.352	0.100
-627.478	-33.735	-0.327	0.180
-626.463	122.607	0.180	-0.225
-625.449	21.179	0.258	-0.210
-624.434	-200.000	-0.036	0.423
-623.419	-200.000	-0.023	0.264
-622.405	-74.298	0.138	-0.050
-621.390	70.867	0.129	-0.134
-620.376	591.645	-0.050	-0.123
-619.361	800.000	0.006	0.020
-618.346	-109.891	0.102	-0.021
-617.332	16.059	-0.295	-0.232
-616.317	-35.189	-0.033	-0.018
-615.303	285.181	-0.218	-0.393
-614.288	124.085	0.121	-0.152
-613.273	-200.000	0.017	-0.083
-612.259	49.516	0.166	0.156
-611.244	14.796	0.224	0.175
-610.230	205.385	-0.173	-0.269
-609.215	-92.212	0.220	0.062
-608.201	-200.000	0.012	-0.193
-607.186	-61.166	-0.083	-0.035
-606.171	236.362	-0.072	-0.119
-605.157	-112.554	0.389	0.078
-604.142	-1.627	0.176	-0.124
-603.128	48.104	-0.244	-0.228
-602.113	277.401	0.070	-0.124
-601.098	42.606	0.067	0.061
-600.084	207.826	-0.140	0.219
-599.069	-41.501	0.358	-0.184
-598.055	-13.594	-0.071	-0.046
-597.040	-146.935	0.129	0.011
-596.025	800.000	0.040	-0.134
-595.011	800.000	-0.091	-0.353
-593.996	-157.264	-0.136	0.008
-592.982	658.033	-0.115	-0.296
-591.967	-121.369	-0.182	-0.030
-590.952	-147.553	0.053	0.004
-589.938	84.534	-0.161	-0.176
-588.923	-200.000	0.022	-0.141
-587.909	82.731	-0.200	0.217
-586.894	169.688	-0.053	-0.076
-585.879	-21.350	0.200	-0.122
-584.865	-200.000	0.094	0.532
-583.850	136.906	0.263	-0.343
-582.836	-23.526	-0.249	-0.150
-581.821	-91.394	0.154	-0.044
-580.806	-124.375	-0.126	0.020
-579.792	800.000	-0.033	0.110
-578.777	250.751	-0.019	-0.032
-577.763	-200.000	0.025	0.334
-576.748	-64.086	0.075	-0.031
-575.733	800.000	-0.044	-0.133
-574.719	23.154	-0.084	-0.069
-573.704	38.347	-0.059	0.052
-572.690	-150.261	0.084	0.007
-571.675	112.492	0.180	-0.217
-570.661	800.000	-0.065	0.182
-569.646	-200.000	-0.204	-0.001
-568.631	-72.717	0.217	-0.080
-567.617	-0.999	-0.315	-0.223
-566.602	192.323	0.207	0.312
-565.588	-76.075	0.101	0.036
-564.573	118.516	0.155	-0.191
-563.558	-17.988	0.286	-0.179
-562.544	-141.148	0.152	-0.015
-561.529	800.000	-0.135	0.376
-560.515	54.361	-0.231	0.222
-559.500	136.187	-0.050	-0.066
-558.485	-23.985	0.269	0.160
-557.471	-200.000	-0.013	0.124
-556.456	289.390	0.113	0.204
-555.442	647.948	0.092	0.235
-554.427	596.487	0.050	0.124
-553.412	356.770	-0.258	-0.513
-552.398	-177.565	-0.139	0.003
-551.383	639.939	-0.190	0.482
-550.369	-200.000	0.025	-0.267
-549.354	289.918	-0.102	0.186
-548.339	-78.657	-0.185	-0.063
-547.325	318.629	-0.119	0.226
-546.310	-3.519	0.231	0.160
-545.296	88.221	0.153	-0.170
-544.281	-77.244	-0.126	-0.044
-543.266	252.169	0.085	-0.144
-542.252	-32.333	-0.184	-0.103
-541.237	800.000	-0.038	0.135
-540.223	-59.953	0.109	-0.046
-539.208	63.185	0.295	0.295
-538.193	65.309	-0.274	-0.276
-537.179	17.640	-0.157	-0.125
-536.164	219.079	-0.033	0.052
-535.150	39.091	0.063	-0.057
-534.135	-200.000	-0.017	0.159
-533.121	-53.807	-0.191	0.087
-532.106	-103.841	0.252	-0.059
-531.091	-112.679	0.166	0.033
-530.077	-200.000	-0.011	-0.248
-529.062	-65.046	-0.197	0.079
-528.048	-83.492	-0.142	0.045
-527.033	75.707	0.077	-0.081
-526.018	800.000	0.037	0.127
-525.004	-200.000	-0.054	-0.272
-523.989	291.809	0.117	-0.212
-522.975	-200.000	0.025	0.172
-521.960	467.724	-0.063	-0.140
-520.945	-200.000	0.025	0.214
-519.931	800.000	0.043	-0.124
-518.916	-33.801	0.199	0.109
-517.902	175.258	-0.298	0.430
-516.887	58.216	-0.130	-0.127
-515.872	-141.911	-0.304	0.030
-514.858	-52.923	-0.131	0.060
-513.843	-200.000	0.025	0.170
-512.829	451.272	0.127	-0.280
-511.814	107.041	-0.110	-0.130
-510.799	800.000	-0.062	-0.197
-509.785	-1.608	-0.106	-0.074
-508.770	90.324	0.177	-0.197
-507.756	56.694	-0.090	0.087
-506.741	-200.000	-0.012	-0.259
-505.726	50.428	0.213	0.200
-504.712	32.873	-0.240	-0.207
-503.697	-64.152	-0.125	-0.051
-502.683	-171.638	-0.255	-0.008
-501.668	665.036	-0.041	0.105
-500.653	-15.797	0.109	-0.069
-499.639	191.283	-0.141	0.211
-498.624	274.213	0.097	-0.172
-497.610	170.321	-0.066	-0.094
-496.595	608.218	0.073	0.182
-495.581	497.513	-0.056	-0.129
-494.566	146.456	0.098	-0.130
-493.551	113.827	0.231	-0.280
-492.537	-131.170	-0.113	0.015
-491.522	-91.375	0.094	-0.027
-490.508	-10.277	-0.132	0.087
-489.493	-200.000	-0.352	0.001
-488.478	796.618	0.091	-0.250
-487.464	598.067	0.107	0.265
-486.449	-200.000	-0.056	-0.430
-485.435	800.000	-0.127	0.368
-484.420	217.603	-0.167	0.265
-483.405	-3.174	0.208	-0.144
-482.391	160.287	0.115	0.159
-481.376	786.961	-0.075	-0.204
-480.362	200.876	-0.241	-0.368
-479.347	307.532	-0.158	-0.293
-478.332	14.617	0.051	0.040
-477.318	800.000	0.018	-0.055
-476.303	800.000	-0.028	-0.081
-475.289	-20.833	-0.268	0.164
-474.274	-200.000	0.012	0.168
-473.259	204.064	-0.055	-0.085
-472.245	-139.757	0.442	-0.047
-471.230	-161.584	-0.383	0.020
-470.216	-200.000	0.017	0.251
-469.201	33.911	0.154	0.134
-468.186	-177.640	-0.163	-0.004
-467.172	521.049	-0.059	0.137
-466.157	55.907	0.081	0.078
-465.143	-22.788	0.031	0.019
-464.128	-200.000	0.001	-0.059
-463.113	-125.177	0.177	-0.027
-462.099	213.508	-0.153	0.241
-461.084	-17.320	0.040	-0.025
-460.070	800.000	0.101	0.367
-459.055	-108.255	-0.393	0.085
-458.040	800.000	-0.103	-0.407
-457.026	399.904	0.189	-0.394
-456.011	-54.989	0.181	-0.081
-454.997	-129.792	-0.169	0.023
-453.982	-160.794	-0.190	0.010
-452.968	40.583	-0.050	0.045
-451.953	321.256	0.121	0.229
-450.938	34.787	-0.093	-0.081
-449.924	800.000	-0.091	-0.279
-448.909	-5.124	-0.269	-0.184
-447.895	-200.000	-0.007	-0.252
-446.880	126.305	-0.030	-0.038
-445.865	5.704	-0.085	-0.062
-444.851	800.000	-0.043	-0.179
-443.836	-130.337	0.075	0.010
-442.822	-96.908	-0.395	0.103
-441.807	163.834	0.192	-0.269
-440.792	100.576	0.073	-0.084
-439.778	-76.023	-0.118	-0.041
-438.763	63.747	0.122	0.122
-437.749	-19.151	-0.121	-0.075
-436.734	-57.959	-0.070	0.030
-435.719	-84.323	0.105	-0.033
-434.705	-14.252	0.100	0.064
-433.690	-45.023	0.154	-0.076
-432.676	478.570	0.015	0.034
-431.661	-67.576	-0.224	-0.087
-430.646	800.000	-0.023	0.085
-429.632	800.000	0.066	-0.275
-428.617	-33.883	-0.295	0.161
-427.603	-56.743	0.337	0.148
-426.588	-123.999	-0.409	-0.064
-425.573	-200.000	-0.015	-0.153
-424.559	-70.561	0.276	-0.104
-423.544	-78.058	-0.263	0.090
-422.530	-200.000	0.015	0.197
-421.515	109.996	0.087	-0.103
-420.500	553.444	0.135	0.321
-419.486	800.000	0.038	0.137
-418.471	-200.000	-0.041	0.273
-417.457	-72.672	0.118	-0.043
-416.442	46.102	0.085	-0.078
-415.428	-11.004	-0.101	0.066
-414.413	-160.210	0.171	0.009
-413.398	546.398	0.019	-0.045
-412.384	9.629	-0.220	-0.165
-411.369	-200.000	0.041	-0.548
-410.355	-101.076	-0.253	0.062
-409.340	-200.000	-0.027	-0.345
-408.325	-124.641	0.151	0.023
-407.311	800.000	-0.123	-0.428
-406.296	800.000	-0.039	-0.167
-405.282	-17.303	-0.139	-0.087
-404.267	-200.000	-0.010	0.267
-403.252	129.529	-0.067	-0.085
-402.238	-50.853	-0.411	0.191
-401.223	800.000	0.025	0.096
-400.209	231.987	-0.080	0.131
-399.194	-184.433	0.151	-0.002
-398.179	151.938	-0.214	-0.289
-397.165	-122.922	0.168	0.027
-396.150	-200.000	0.001	-0.061
-395.136	-6.469	0.062	0.042
-394.121	-42.909	-0.116	0.058
-393.106	-126.537	0.292	0.043
-392.092	-200.000	0.059	-0.362
-391.077	601.151	-0.091	-0.224
-390.063	-54.038	0.325	0.147
-389.048	-63.201	0.295	0.120
-388.033	-14.011	0.011	0.007
-387.019	-200.000	-0.073	-0.424
-386.004	-157.836	-0.250	-0.015
-384.990	-164.593	0.292	0.013
-383.975	-148.896	0.152	0.012
-382.960	-107.629	0.256	-0.055
-381.946	7.067	0.420	0.310
-380.931	141.562	-0.149	-0.196
-379.917	-58.187	-0.248	-0.107
-378.902	-70.206	0.257	-0.097
-377.888	-0.310	-0.137	-0.097
-376.873	800.000	-0.058	0.239
-375.858	67.641	-0.118	-0.120
-374.844	-82.332	0.226	0.073
-373.829	-53.548	0.157	0.071
-372.815	296.027	0.116	0.211
-371.800	-21.778	0.268	-0.162
-370.785	-41.513	0.264	0.134
-369.771	461.544	-0.068	-0.150
-368.756	-69.663	0.204	-0.077
-367.742	800.000	0.034	-0.136
-366.727	-200.000	-0.004	-0.157
-365.712	-130.242	-0.144	0.019
-364.698	-119.665	-0.071	-0.012
-363.683	-200.000	0.007	0.231
-362.669	-61.122	-0.079	-0.033
-361.654	-70.234	-0.525	0.198
-360.639	-200.000	-0.071	0.530
-359.625	228.022	-0.026	0.042
-358.610	423.818	0.158	0.337
-357.596	-22.041	0.188	-0.113
-356.581	203.620	0.047	0.072
-355.566	-143.269	-0.088	-0.008
-354.552	-2.290	-0.244	-0.169
-353.537	268.154	0.096	0.166
-352.523	800.000	0.013	0.039
-351.508	337.368	0.007	0.013
-350.493	800.000	0.082	-0.282
-349.479	-151.988	0.158	0.011
-348.464	-107.846	0.171	0.037
-347.450	85.288	0.083	0.090
-346.435	514.783	-0.103	0.239
-345.420	120.465	-0.224	-0.275
-344.406	43.736	-0.031	-0.028
-343.391	-18.329	-0.071	-0.044
-342.377	-90.165	-0.348	-0.100
-341.362	-200.000	0.030	-0.303
-340.348	-81.573	-0.186	-0.060
-339.333	-67.272	0.154	-0.060
-338.318	-91.516	-0.268	-0.076
-337.304	-113.726	0.125	-0.024
-336.289	174.599	0.319	-0.457
-335.275	-145.461	0.294	-0.026
-334.260	-200.000	0.002	-0.056
-333.245	9.849	-0.144	0.108
-332.231	246.021	-0.055	0.092
-331.216	-125.154	0.378	0.057
-330.202	-182.877	0.088	-0.002
-329.187	-156.070	-0.135	-0.008
-328.172	-114.280	0.285	-0.054
-327.158	206.253	0.088	0.136
-326.143	-100.118	-0.237	-0.058
-325.129	0.748	0.128	-0.091
-324.114	33.888	0.193	-0.166
-323.099	50.681	-0.130	-0.122
-322.085	-69.128	-0.412	0.157
-321.070	144.699	0.176	0.233
-320.056	96.757	-0.418	-0.474
-319.041	-186.935	0.088	-0.001
-318.026	-63.139	-0.345	-0.141
-317.012	39.786	0.282	0.250
-315.997	800.000	0.110	0.384
-314.983	-19.123	0.135	-0.083
-313.968	221.756	-0.070	0.111
-312.953	87.742	0.124	-0.136
-311.939	800.000	-0.047	0.157
-310.924	-53.037	0.289	-0.131
-309.910	296.165	0.111	-0.201
-308.895	-200.000	-0.018	0.173
-307.880	689.651	0.089	0.230
-306.866	330.886	0.106	0.202
-305.851	239.364	-0.140	0.229
-304.837	214.787	-0.116	-0.182
-303.822	-178.774	-0.069	0.002
-302.807	457.246	0.110	-0.240
-301.793	579.352	0.174	0.421
-300.778	324.619	-0.107	-0.203
-299.764	-13.684	0.286	0.183
-298.749	279.241	0.242	-0.426
-297.735	-79.139	0.303	0.102
-296.720	800.000	-0.044	0.174
-295.705	-200.000	0.088	0.477
-294.691	368.558	0.026	0.051
-293.676	67.230	-0.131	0.131
-292.662	-7.680	0.075	0.050
-291.647	336.395	0.099	-0.190
-290.632	800.000	0.144	-0.535
-289.618	-45.582	0.340	0.166
-288.603	-182.220	-0.113	-0.002
-287.589	310.873	-0.117	-0.217
-286.574	-200.000	0.037	0.393
-285.559	115.638	0.186	0.225
-284.545	-118.065	-0.157	0.028
-283.530	22.752	-0.136	0.110
-282.516	29.059	0.071	0.059
-281.501	-130.997	0.331	-0.044
-280.486	2.809	0.203	-0.145
-279.472	208.185	-0.138	0.213
-278.457	31.894	0.172	-0.146
-277.443	90.625	0.235	0.260
-276.428	57.410	-0.240	0.231
-275.413	-200.000	-0.033	-0.248
-274.399	-95.758	0.197	0.052
-273.384	-135.863	-0.484	0.056
-272.370	-13.726	-0.247	-0.158
-271.355	788.734	0.145	0.392
-270.340	84.221	-0.077	-0.083
-269.326	800.000	0.081	-0.312
-268.311	-83.936	-0.110	-0.034
-267.297	-36.193	-0.212	-0.113
-266.282	-49.961	-0.072	-0.034
-265.267	-200.000	-0.020	-0.238
-264.253	-70.117	0.072	-0.027
-263.238	129.098	0.260	-0.328
-262.224	-144.532	0.079	0.007
-261.209	-200.000	-0.073	0.416
-260.195	453.475	-0.206	0.451
-259.180	-107.285	0.249	0.054
-258.165	-27.214	-0.223	0.128
-257.151	421.641	-0.050	0.106
-256.136	800.000	0.087	0.330
-255.122	264.825	-0.171	0.294
-254.107	249.378	0.127	-0.213
-253.092	-200.000	-0.086	-0.375
-252.078	-200.000	0.049	0.225
-251.063	-200.000	0.000	-0.022
-250.049	-9.987	-0.218	0.143
-249.034	51.671	-0.061	0.057
-248.019	800.000	-0.045	-0.140
-247.005	169.617	-0.226	0.319
-245.990	22.616	0.056	-0.045
-244.976	327.420	0.139	-0.262
-243.961	-52.499	-0.418	-0.190
-242.946	-164.661	-0.238	0.011
-241.932	800.000	-0.084	0.243
-240.917	537.120	-0.037	0.086
-239.903	-184.627	-0.169	-0.003
-238.888	393.159	-0.065	0.134
-237.873	-138.796	0.120	-0.013
-236.859	-29.413	-0.147	0.083
-235.844	800.000	0.083	-0.286
-234.830	13.055	0.172	-0.131
-233.815	-33.051	-0.182	0.099
-232.800	-40.653	-0.319	0.163
-231.786	53.093	0.072	-0.068
-230.771	-119.086	0.105	-0.018
-229.757	-79.557	-0.124	0.041
-228.742	800.000	0.094	-0.297
-227.727	-62.367	0.072	0.029
-226.713	24.565	0.351	0.286
-225.698	88.714	0.254	-0.278
-224.684	421.825	0.086	0.181
-223.669	16.548	0.346	0.269
-222.655	-160.274	-0.149	-0.008
-221.640	-68.821	0.091	0.035
-220.625	64.541	-0.239	0.237
-219.611	766.665	0.037	0.100
-218.596	-200.000	0.025	-0.227
-217.582	-35.687	0.411	-0.219
-216.567	800.000	-0.082	0.283
-215.552	800.000	-0.044	0.167
-214.538	108.594	0.069	-0.081
-213.523	-116.413	-0.473	-0.086
-212.509	-35.458	0.060	0.032
-211.494	-200.000	-0.000	-0.132
-210.479	-129.390	0.215	0.029
-209.465	-96.151	0.452	0.118
-208.450	-117.347	0.132	0.024
-207.436	-200.000	-0.048	0.232
-206.421	496.673	-0.029	0.067
-205.406	800.000	0.044	0.177
-204.392	-75.599	0.340	0.119
-203.377	15.140	-0.114	-0.088
-202.363	-200.000	-0.021	-0.095
-201.348	-200.000	0.033	0.180
-200.333	143.433	0.135	-0.177
-199.319	306.749	-0.041	0.074
-198.304	-142.124	0.359	-0.035
-197.290	-200.000	0.028	-0.380
-196.275	-63.068	-0.234	-0.095
-195.260	-116.866	-0.043	-0.008
-194.246	-200.000	-0.040	-0.225
-193.231	-106.309	0.095	0.021
-192.217	15.041	-0.353	0.272
-191.202	-154.312	0.132	-0.009
-190.187	-200.000	-0.025	0.233
-189.173	-200.000	0.045	-0.264
-188.158	-124.500	-0.422	0.065
-187.144	-200.000	0.013	0.150
-186.129	-53.442	-0.129	-0.058
-185.114	289.305	0.035	0.063
-184.100	-58.070	-0.281	-0.120
-183.085	-200.000	0.025	-0.296
-182.071	60.893	0.057	0.056
-181.056	-200.000	-0.008	-0.098
-180.042	-124.808	-0.156	-0.024
-179.027	472.696	-0.035	-0.079
-178.012	127.648	-0.112	0.139
-176.998	5.500	0.099	-0.072
-175.983	102.972	-0.169	0.194
-174.969	171.039	0.161	-0.227
-173.954	-10.124	-0.212	0.139
-172.939	387.045	-0.185	0.377
-171.925	-41.774	0.555	0.280
-170.910	800.000	-0.035	0.109
-169.896	-94.244	-0.261	0.070
-168.881	332.880	0.055	-0.104
-167.866	-22.482	-0.234	-0.139
-166.852	800.000	-0.010	-0.028
-165.837	102.068	0.111	0.128
-164.823	-200.000	0.014	0.445
-163.808	277.791	0.020	0.034
-162.793	122.218	0.311	0.381
-161.779	197.170	0.126	-0.190
-160.764	581.604	0.085	0.204
-159.750	-28.207	0.267	0.152
-158.735	-151.326	0.207	-0.015
-157.720	45.878	-0.152	0.138
-156.706	-192.688	0.166	-0.002
-155.691	183.563	-0.049	-0.071
-154.677	-26.395	-0.160	0.092
-153.662	-77.178	0.082	0.028
-152.647	-86.956	0.119	-0.036
-151.633	25.508	-0.182	0.149
-150.618	-95.994	0.308	-0.080
-149.604	11.020	0.236	0.177
-148.589	-43.644	0.177	-0.088
-147.574	351.239	0.109	0.212
-146.560	-130.411	0.384	-0.051
-145.545	-200.000	-0.052	0.391
-144.531	-46.033	0.132	-0.064
-143.516	-192.372	-0.248	0.002
-142.502	131.468	0.133	-0.167
-141.487	-174.315	-0.144	-0.004
-140.472	-200.000	-0.038	0.211
-139.458	56.292	0.021	0.020
-138.443	-200.000	0.023	0.243
-137.429	-166.449	0.334	0.014
-136.414	50.156	0.103	0.095
-135.399	464.738	0.093	0.204
-134.385	-80.595	-0.112	0.037
-133.370	-125.338	0.041	0.006
-132.356	220.875	0.051	0.081
-131.341	-156.823	0.117	-0.007
-130.326	-200.000	0.520	-0.000
-129.312	107.417	-0.225	0.263
-128.297	-172.947	0.225	-0.007
-127.283	106.738	0.120	0.139
-126.268	-200.000	0.055	-0.237
-125.253	-200.000	-0.017	0.148
-124.239	-200.000	0.039	-0.213
-123.224	-59.475	-0.075	0.032
-122.210	53.129	0.296	0.278
-121.195	-36.465	0.189	0.100
