DTS Sentinel unit serial number:	SN413079Multiplexer serial number:	ORYXHardware model number:	OX4-SRSoftware version number:	ORYX F/W v4.00 Oryx Data Collector v3.7.2.0data status	okinstallation	princeton_trtdifferential loss correction	single-endedforward channel	channel 2reverse channel	N/Adate	2019/09/11time	13:53:11forward acquisition time	60.00reverse acquisition time	0.00gamma	496.2192k internal	0.2293k external	0.2293temperature offset calibration	1.0002default loss term (dB/km)	0.3790temperature slope calibration	1.0000multiplexer offset coefficient	1.0000multiplexer slope coefficient	1.0000fibre end	0.00T internal ref (°C)	41.87T ext. ref 1 (°C)	0.83T ext. ref 2 (°C)	35.80length (m)	temperature (°C)	Stokes	anti-Stokes-747.200	151.976	-0.142	-0.198
-746.185	-163.060	-0.339	0.017
-745.171	295.732	-0.024	0.045
-744.156	-136.807	-0.265	0.031
-743.142	-200.000	0.045	0.217
-742.127	-200.000	-0.024	0.427
-741.112	-123.625	-0.182	0.030
-740.098	800.000	0.096	0.293
-739.083	-129.992	0.229	-0.032
-738.069	-35.498	0.108	-0.060
-737.054	-132.082	-0.388	0.052
-736.039	-106.809	-0.328	-0.074
-735.025	-33.412	0.389	0.220
-734.010	800.000	-0.066	-0.265
-732.996	-88.083	-0.393	-0.121
-731.981	53.755	0.123	-0.121
-730.966	511.408	0.022	-0.052
-729.952	77.692	-0.046	-0.050
-728.937	-126.974	-0.256	-0.038
-727.923	549.923	0.046	0.113
-726.908	-191.712	0.375	0.004
-725.894	-117.144	-0.179	0.033
-724.879	63.400	-0.038	-0.039
-723.864	700.351	-0.114	-0.306
-722.850	703.148	0.032	-0.086
-721.835	-200.000	0.041	-0.289
-720.821	-137.317	0.113	-0.013
-719.806	-112.295	-0.256	-0.052
-718.791	-103.430	0.114	0.027
-717.777	-92.488	0.221	0.063
-716.762	28.522	-0.124	-0.107
-715.748	800.000	0.072	0.321
-714.733	577.418	-0.122	0.304
-713.718	-89.905	-0.151	-0.045
-712.704	253.078	-0.158	-0.276
-711.689	-27.529	0.086	0.051
-710.675	-45.915	0.050	-0.025
-709.660	141.242	-0.082	0.111
-708.645	-70.667	0.211	0.081
-707.631	120.326	0.211	0.267
-706.616	-200.000	-0.033	-0.167
-705.602	-69.200	0.304	0.120
-704.587	-200.000	0.008	-0.515
-703.572	-107.766	-0.230	-0.051
-702.558	94.223	0.152	0.176
-701.543	-52.915	0.246	0.116
-700.529	28.982	0.061	0.053
-699.514	-200.000	0.039	-0.304
-698.499	-31.687	-0.139	-0.080
-697.485	-1.672	-0.307	-0.221
-696.470	258.751	-0.028	0.049
-695.456	168.499	-0.071	0.103
-694.441	-55.486	-0.165	-0.076
-693.426	800.000	0.046	0.142
-692.412	169.727	0.053	0.077
-691.397	-13.629	-0.145	-0.096
-690.383	-26.051	-0.216	-0.129
-689.368	150.658	0.215	-0.298
-688.354	-116.630	-0.409	-0.077
-687.339	-80.381	-0.085	0.029
-686.324	-162.375	-0.452	0.023
-685.310	-143.831	0.199	0.019
-684.295	278.433	-0.089	-0.162
-683.281	-200.000	0.011	-0.372
-682.266	-200.000	0.002	-0.254
-681.251	-114.337	-0.237	-0.047
-680.237	326.537	-0.218	-0.426
-679.222	-200.000	0.037	-0.219
-678.208	-8.634	-0.252	-0.172
-677.193	334.145	-0.072	0.142
-676.178	163.311	-0.058	0.084
-675.164	81.332	0.064	0.070
-674.149	-22.704	-0.147	-0.091
-673.135	709.477	-0.085	-0.230
-672.120	480.772	0.099	0.230
-671.105	-164.548	-0.109	0.005
-670.091	-76.525	-0.130	0.047
-669.076	-109.222	-0.257	-0.056
-668.062	-200.000	0.018	0.098
-667.047	800.000	0.116	-0.348
-666.032	-97.320	0.202	0.054
-665.018	46.770	0.203	0.192
-664.003	-24.920	-0.301	-0.182
-662.989	-114.590	-0.511	-0.100
-661.974	800.000	0.084	0.258
-660.959	-200.000	-0.015	0.161
-659.945	-162.753	-0.165	0.008
-658.930	93.686	0.039	-0.045
-657.916	-200.000	0.038	0.302
-656.901	-200.000	0.002	-0.298
-655.886	29.416	0.013	0.011
-654.872	-200.000	0.018	-0.193
-653.857	291.443	-0.266	0.493
-652.843	665.394	-0.061	0.160
-651.828	176.659	0.291	-0.431
-650.814	11.587	-0.167	0.130
-649.799	22.434	0.105	-0.087
-648.784	10.230	-0.347	-0.269
-647.770	-153.493	-0.245	0.017
-646.755	-149.880	0.069	0.005
-645.741	800.000	-0.035	0.145
-644.726	298.178	-0.044	0.082
-643.711	-125.199	-0.352	-0.055
-642.697	-57.506	0.256	0.115
-641.682	52.515	0.211	-0.206
-640.668	-21.809	-0.148	-0.092
-639.653	-32.963	-0.276	0.156
-638.638	-175.781	-0.157	-0.004
-637.624	-90.279	-0.264	-0.078
-636.609	-60.791	0.268	-0.116
-635.595	-61.512	-0.314	-0.134
-634.580	-55.466	0.098	-0.045
-633.565	246.161	-0.107	-0.183
-632.551	68.892	0.229	-0.239
-631.536	52.367	0.166	0.161
-630.522	-200.000	0.037	0.209
-629.507	152.271	0.170	-0.237
-628.492	511.308	0.053	0.127
-627.478	-87.144	-0.072	0.022
-626.463	11.738	0.138	-0.108
-625.449	-200.000	0.006	0.130
-624.434	-200.000	-0.011	0.119
-623.419	109.257	0.080	0.097
-622.405	-200.000	-0.045	-0.210
-621.390	48.386	-0.290	-0.277
-620.376	-200.000	0.000	0.151
-619.361	-131.164	0.299	0.040
-618.346	46.648	0.113	-0.107
-617.332	-116.293	0.239	-0.045
-616.317	218.546	0.098	0.160
-615.303	-200.000	-0.050	-0.242
-614.288	495.495	-0.039	0.092
-613.273	-41.787	0.207	0.108
-612.259	-30.122	0.161	-0.093
-611.244	-38.985	0.143	-0.076
-610.230	-42.617	-0.090	0.047
-609.215	-28.348	-0.164	-0.096
-608.201	5.772	0.108	0.081
-607.186	51.440	-0.153	0.148
-606.171	-41.028	-0.251	0.132
-605.157	38.152	-0.139	-0.126
-604.142	163.984	-0.113	-0.162
-603.128	252.832	0.092	0.160
-602.113	73.751	0.139	0.148
-601.098	800.000	-0.096	0.314
-600.084	-53.848	0.166	-0.077
-599.069	800.000	0.093	-0.312
-598.055	-200.000	-0.004	-0.094
-597.040	411.634	-0.196	0.424
-596.025	800.000	-0.088	0.352
-595.011	248.543	-0.005	-0.009
-593.996	-200.000	-0.006	0.113
-592.982	-13.136	-0.285	0.188
-591.967	244.465	-0.034	0.058
-590.952	241.212	0.198	-0.337
-589.938	-69.860	0.312	0.121
-588.923	-200.000	-0.026	-0.365
-587.909	122.002	0.095	0.120
-586.894	-80.364	-0.371	-0.126
-585.879	593.320	-0.132	0.331
-584.865	60.366	-0.136	0.137
-583.850	-200.000	0.011	-0.369
-582.836	-57.909	-0.059	-0.026
-581.821	-189.222	0.430	-0.005
-580.806	405.540	0.020	0.043
-579.792	-200.000	0.021	-0.307
-578.777	111.889	-0.062	0.076
-577.763	-76.605	0.136	0.049
-576.748	6.442	-0.417	0.315
-575.733	-113.784	0.255	-0.050
-574.719	37.816	-0.030	-0.027
-573.704	800.000	0.060	-0.171
-572.690	-200.000	0.032	0.240
-571.675	-200.000	-0.002	0.020
-570.661	-141.047	0.129	-0.013
-569.646	-68.239	-0.041	-0.016
-568.631	-70.060	-0.074	0.029
-567.617	10.509	-0.137	0.106
-566.602	-25.811	-0.294	-0.176
-565.588	227.292	0.166	0.275
-564.573	-57.610	0.057	0.025
-563.558	30.027	-0.162	-0.140
-562.544	112.219	-0.066	-0.081
-561.529	103.826	0.084	0.100
-560.515	-165.750	-0.256	0.011
-559.500	30.397	0.235	-0.204
-558.485	-200.000	0.007	-0.202
-557.471	-200.000	0.001	-0.072
-556.456	268.523	-0.099	0.176
-555.442	132.770	-0.077	-0.101
-554.427	-56.728	-0.140	0.063
-553.412	199.074	-0.060	0.093
-552.398	-140.350	0.329	-0.035
-551.383	-93.964	0.171	0.048
-550.369	-72.958	-0.285	0.106
-549.354	574.746	-0.073	-0.181
-548.339	800.000	-0.069	0.233
-547.325	-32.324	-0.424	0.240
-546.310	-200.000	-0.019	0.394
-545.296	-200.000	0.017	-0.305
-544.281	-104.925	0.161	-0.037
-543.266	-183.102	0.156	-0.003
-542.252	800.000	-0.081	0.265
-541.237	-155.978	0.191	-0.012
-540.223	19.945	-0.097	-0.080
-539.208	349.258	-0.156	0.313
-538.193	-16.341	0.204	0.131
-537.179	800.000	0.091	0.313
-536.164	37.765	0.180	-0.162
-535.150	351.933	0.106	-0.213
-534.135	23.671	0.155	-0.129
-533.121	122.391	-0.243	-0.309
-532.106	751.969	0.076	-0.207
-531.091	113.284	-0.038	0.047
-530.077	263.799	-0.075	0.132
-529.062	120.188	0.083	0.105
-528.048	-46.773	0.088	-0.044
-527.033	-52.165	0.113	-0.053
-526.018	152.773	0.172	0.239
-525.004	-147.361	-0.074	-0.006
-523.989	268.059	-0.163	-0.290
-522.975	800.000	-0.073	0.217
-521.960	46.177	0.058	0.054
-520.945	60.429	0.192	-0.193
-519.931	800.000	0.075	-0.261
-518.916	-117.253	0.129	0.024
-517.902	-73.155	-0.318	-0.118
-516.887	154.688	0.152	0.212
-515.872	-162.069	0.389	0.020
-514.858	-86.372	-0.326	0.101
-513.843	253.980	-0.079	0.137
-512.829	160.620	-0.159	-0.224
-511.814	800.000	-0.040	0.153
-510.799	-54.921	0.187	-0.085
-509.785	117.248	0.160	0.199
-508.770	33.849	0.208	-0.183
-507.756	60.953	0.142	0.143
-506.741	95.077	-0.200	0.231
-505.726	-48.911	0.142	-0.069
-504.712	-81.545	0.288	0.096
-503.697	417.374	-0.089	0.193
-502.683	24.985	-0.194	-0.163
-501.668	-88.190	-0.062	0.019
-500.653	-200.000	-0.035	0.192
-499.639	-112.212	-0.133	-0.027
-498.624	800.000	-0.093	-0.298
-497.610	-135.863	0.189	0.023
-496.595	-112.287	-0.083	-0.017
-495.581	-46.228	-0.134	0.067
-494.566	-200.000	0.043	0.321
-493.551	24.135	-0.164	0.137
-492.537	-200.000	-0.034	-0.398
-491.522	-200.000	0.026	-0.152
-490.508	114.337	0.174	-0.215
-489.493	-13.265	0.166	0.109
-488.478	-136.373	-0.471	0.055
-487.464	97.189	-0.126	-0.146
-486.449	-45.904	-0.117	-0.058
-485.435	356.167	0.213	-0.429
-484.420	395.257	0.212	-0.448
-483.405	-8.898	0.177	0.120
-482.391	-200.000	0.035	-0.242
-481.376	-200.000	0.017	0.126
-480.362	121.683	0.218	-0.275
-479.347	-131.004	-0.180	0.024
-478.332	199.614	0.121	-0.188
-477.318	800.000	-0.040	-0.120
-476.303	240.400	-0.195	0.328
-475.289	800.000	0.034	0.121
-474.274	-130.655	-0.171	0.023
-473.259	800.000	-0.097	0.324
-472.245	-78.832	-0.292	0.101
-471.230	43.733	0.223	0.206
-470.216	2.914	0.103	-0.076
-469.201	-46.489	0.378	0.188
-468.186	-61.690	0.221	-0.094
-467.172	344.897	-0.206	-0.410
-466.157	136.089	-0.210	0.277
-465.143	-48.679	-0.150	-0.073
-464.128	332.034	0.062	-0.122
-463.113	70.012	-0.032	-0.033
-462.099	-119.802	0.195	0.034
-461.084	-79.402	-0.213	0.073
-460.070	-6.456	-0.321	-0.222
-459.055	-200.000	-0.023	-0.196
-458.040	-165.682	0.366	-0.016
-457.026	-42.933	0.295	-0.152
-456.011	-49.432	-0.122	0.059
-454.997	201.482	0.102	0.159
-453.982	800.000	0.140	0.409
-452.968	58.240	-0.163	0.162
-451.953	800.000	-0.022	0.075
-450.938	145.769	0.028	0.038
-449.924	800.000	0.037	-0.154
-448.909	-200.000	-0.007	0.301
-447.895	-11.733	-0.190	-0.126
-446.880	5.792	-0.121	0.090
-445.865	-119.290	-0.187	-0.033
-444.851	-0.665	0.242	-0.173
-443.836	800.000	-0.066	-0.203
-442.822	-117.820	-0.267	-0.048
-441.807	713.254	0.140	-0.374
-440.792	45.260	0.267	-0.249
-439.778	80.608	0.145	0.158
-438.763	357.043	0.081	0.163
-437.749	-128.165	-0.259	0.037
-436.734	430.657	0.144	-0.314
-435.719	-28.147	-0.110	-0.064
-434.705	-56.640	-0.400	-0.179
-433.690	-50.685	0.249	0.118
-432.676	800.000	-0.019	-0.054
-431.661	501.317	0.118	-0.275
-430.646	-26.099	0.355	-0.211
-429.632	-136.507	0.123	-0.014
-428.617	54.092	-0.161	-0.157
-427.603	-118.953	0.359	0.064
-426.588	-149.978	0.295	0.023
-425.573	75.161	-0.195	-0.208
-424.559	-118.873	0.281	0.050
-423.544	-200.000	0.033	0.175
-422.530	192.207	-0.097	0.148
-421.515	126.332	-0.165	0.211
-420.500	-29.740	-0.321	0.185
-419.486	-47.601	0.129	0.063
-418.471	800.000	-0.130	0.456
-417.457	-80.857	-0.045	-0.015
-416.442	-24.500	0.115	-0.069
-415.428	-71.303	0.241	-0.091
-414.413	-7.655	0.167	-0.114
-413.398	373.312	0.040	0.081
-412.384	117.540	0.102	-0.126
-411.369	800.000	0.043	0.189
-410.355	-40.321	0.135	-0.071
-409.340	-47.364	0.040	0.020
-408.325	41.151	0.057	0.052
-407.311	52.345	-0.291	-0.281
-406.296	109.593	-0.089	-0.107
-405.282	800.000	0.048	-0.180
-404.267	-93.249	0.145	0.041
-403.252	-200.000	-0.004	-0.554
-402.238	297.245	-0.054	-0.100
-401.223	-156.540	-0.104	-0.007
-400.209	9.812	-0.278	-0.213
-399.194	-18.536	0.054	-0.034
-398.179	-68.258	-0.313	0.123
-397.165	-117.570	0.117	0.021
-396.150	-112.624	0.147	0.030
-395.136	-16.313	-0.105	-0.067
-394.121	-101.984	0.193	0.047
-393.106	56.092	-0.052	-0.051
-392.092	-45.869	-0.044	-0.022
-391.077	126.392	-0.134	-0.171
-390.063	224.351	0.092	-0.150
-389.048	-200.000	0.064	-0.316
-388.033	606.523	0.049	0.124
-387.019	-24.034	0.103	0.062
-386.004	-63.275	-0.172	-0.072
-384.990	-97.219	0.069	-0.018
-383.975	81.067	0.204	0.222
-382.960	86.306	-0.060	-0.066
-381.946	-97.567	-0.062	-0.016
-380.931	-186.520	-0.237	-0.003
-379.917	-103.819	0.447	-0.105
-378.902	-108.599	-0.290	0.063
-377.888	800.000	-0.015	0.060
-376.873	780.699	0.047	0.130
-375.858	48.279	0.259	0.245
-374.844	800.000	-0.018	0.074
-373.829	-125.070	-0.507	-0.079
-372.815	800.000	0.067	0.294
-371.800	-31.873	-0.442	-0.250
-370.785	-126.628	-0.253	0.038
-369.771	105.803	-0.214	-0.255
-368.756	161.215	0.107	-0.151
-367.742	488.895	0.031	-0.072
-366.727	-83.334	-0.256	-0.083
-365.712	800.000	-0.106	0.339
-364.698	-200.000	0.073	0.365
-363.683	-200.000	0.017	0.260
-362.669	-121.808	-0.045	-0.008
-361.654	495.910	0.094	-0.218
-360.639	800.000	-0.056	0.159
-359.625	-128.118	0.076	-0.011
-358.610	800.000	0.158	-0.445
-357.596	-149.598	-0.171	0.014
-356.581	-126.364	-0.225	-0.034
-355.566	712.244	-0.006	0.017
-354.552	584.499	-0.026	0.064
-353.537	-200.000	-0.036	0.229
-352.523	-200.000	0.013	0.352
-351.508	-101.145	0.026	-0.006
-350.493	28.962	-0.094	0.080
-349.479	579.794	-0.083	-0.204
-348.464	65.499	0.144	-0.147
-347.450	470.634	-0.047	0.106
-346.435	800.000	0.040	-0.138
-345.420	-65.768	-0.257	-0.104
-344.406	-12.495	-0.286	-0.188
-343.391	-92.226	0.387	0.110
-342.377	-200.000	-0.026	0.134
-341.362	71.414	-0.189	0.197
-340.348	103.031	-0.165	0.195
-339.333	244.980	-0.069	0.117
-338.318	-54.785	-0.462	-0.210
-337.304	91.455	0.154	-0.174
-336.289	800.000	-0.051	0.173
-335.275	380.654	-0.149	-0.308
-334.260	-103.946	0.224	-0.053
-333.245	800.000	-0.042	0.173
-332.231	14.573	-0.074	0.058
-331.216	-5.012	-0.341	-0.236
-330.202	63.478	-0.116	-0.117
-329.187	-200.000	-0.081	-0.371
-328.172	-137.968	-0.091	0.010
-327.158	-31.015	-0.011	0.006
-326.143	-163.187	0.313	0.015
-325.129	-108.339	0.248	0.054
-324.114	-200.000	0.003	-0.155
-323.099	-83.485	-0.221	-0.071
-322.085	203.453	-0.069	0.107
-321.070	-200.000	-0.113	0.574
-320.056	800.000	0.051	-0.153
-319.041	340.319	-0.200	0.393
-318.026	-43.951	0.051	-0.026
-317.012	800.000	-0.068	-0.287
-315.997	22.311	-0.108	0.088
-314.983	-200.000	-0.052	-0.240
-313.968	-200.000	-0.012	-0.152
-312.953	-51.010	-0.189	-0.089
-311.939	728.518	0.053	0.143
-310.924	-200.000	-0.003	0.224
-309.910	156.064	0.227	0.314
-308.895	190.843	0.040	-0.060
-307.880	-7.105	-0.324	-0.221
-306.866	34.070	-0.132	0.116
-305.851	-200.000	0.032	0.000
-304.837	301.649	-0.112	0.209
-303.822	257.547	-0.070	-0.121
-302.807	800.000	-0.043	-0.166
-301.793	-99.450	0.218	0.055
-300.778	-200.000	-0.067	0.361
-299.764	134.971	0.105	0.138
-298.749	61.292	0.077	0.077
-297.735	-50.448	-0.531	-0.252
-296.720	-200.000	0.010	-0.571
-295.705	-10.581	0.237	0.158
-294.691	140.788	0.121	0.161
-293.676	173.087	-0.051	0.074
-292.662	800.000	-0.099	0.372
-291.647	-54.854	0.225	0.102
-290.632	-200.000	0.013	0.203
-289.618	16.285	-0.102	0.081
-288.603	-21.249	-0.120	-0.074
-287.589	9.062	0.120	0.091
-286.574	33.296	0.079	0.069
-285.559	171.330	0.181	0.262
-284.545	-13.752	-0.069	0.045
-283.530	-200.000	0.031	-0.259
-282.516	-26.814	0.240	-0.141
-281.501	800.000	-0.125	0.534
-280.486	-34.762	0.164	-0.090
-279.472	159.976	0.061	-0.086
-278.457	94.045	-0.188	-0.214
-277.443	800.000	-0.072	0.284
-276.428	-200.000	0.012	-0.131
-275.413	800.000	-0.081	0.260
-274.399	-21.859	-0.145	0.088
-273.384	-70.984	0.291	0.110
-272.370	-0.387	0.215	0.153
-271.355	-133.833	-0.605	0.076
-270.340	-200.000	-0.042	0.269
-269.326	-75.140	-0.155	-0.056
-268.311	-146.043	0.213	0.019
-267.297	-56.347	0.273	0.122
-266.282	-102.344	-0.086	-0.021
-265.267	-93.543	-0.284	-0.079
-264.253	800.000	0.058	-0.174
-263.238	462.656	-0.082	-0.184
-262.224	142.970	-0.124	0.166
-261.209	-100.911	0.158	-0.039
-260.195	-27.127	0.329	0.193
-259.180	800.000	0.094	-0.315
-258.165	92.207	-0.079	0.089
-257.151	-16.696	0.158	0.100
-256.136	100.939	0.217	0.253
-255.122	13.467	-0.206	0.160
-254.107	-22.008	0.152	0.093
-253.092	-200.000	0.001	0.008
-252.078	60.158	0.105	0.104
-251.063	90.842	0.502	0.564
-250.049	800.000	0.098	0.303
-249.034	-43.088	-0.221	-0.113
-248.019	800.000	0.120	0.355
-247.005	-138.521	0.328	0.036
-245.990	37.503	-0.261	-0.232
-244.976	-66.229	0.133	-0.053
-243.961	-61.619	0.207	-0.087
-242.946	-124.559	-0.330	-0.051
-241.932	-200.000	0.005	-0.080
-240.917	13.717	0.223	0.174
-239.903	-60.859	0.335	-0.142
-238.888	-94.717	-0.201	-0.055
-237.873	-200.000	-0.001	-0.040
-236.859	263.696	-0.091	-0.158
-235.844	-200.000	-0.062	-0.359
-234.830	724.515	0.008	-0.023
-233.815	633.982	-0.115	-0.292
-232.800	178.777	-0.111	-0.162
-231.786	-143.344	0.294	-0.028
-230.771	56.546	-0.139	0.135
-229.757	-7.845	0.214	-0.145
-228.742	800.000	-0.096	-0.293
-227.727	456.230	0.089	0.197
-226.713	-94.312	0.073	-0.020
-225.698	545.640	-0.063	-0.152
-224.684	800.000	0.077	0.289
-223.669	-80.592	0.326	-0.109
-222.655	171.992	0.324	0.467
-221.640	-200.000	-0.028	0.231
-220.625	-4.931	-0.276	0.190
-219.611	-200.000	-0.026	0.182
-218.596	580.070	0.190	-0.465
-217.582	-85.913	0.028	0.009
-216.567	275.294	0.018	0.033
-215.552	-200.000	-0.014	0.239
-214.538	-84.922	-0.043	-0.013
-213.523	251.419	0.182	0.310
-212.509	33.609	-0.161	-0.140
-211.494	-85.311	0.183	0.057
-210.479	-11.462	0.238	0.157
-209.465	301.092	-0.186	-0.345
-208.450	-184.669	0.156	-0.003
-207.436	-56.059	0.169	0.075
-206.421	-16.344	0.195	0.124
-205.406	-90.700	0.412	-0.119
-204.392	154.801	0.146	-0.201
-203.377	240.012	0.119	-0.199
-202.363	-200.000	0.004	0.147
-201.348	-44.935	0.014	-0.007
-200.333	-200.000	-0.012	0.277
-199.319	-110.847	0.076	-0.016
-198.304	-200.000	-0.065	0.300
-197.290	-125.116	0.234	-0.036
-196.275	-200.000	0.015	0.104
-195.260	-200.000	-0.022	-0.335
-194.246	-3.955	-0.196	0.136
-193.231	-128.488	-0.052	-0.007
-192.217	70.158	0.177	0.183
-191.202	91.901	-0.100	-0.113
-190.187	-143.579	-0.377	0.036
-189.173	41.450	-0.050	-0.045
-188.158	594.521	-0.082	-0.204
-187.144	-39.170	-0.182	-0.096
-186.129	52.407	0.181	0.173
-185.114	800.000	-0.041	0.153
-184.100	-200.000	-0.053	0.240
-183.085	800.000	-0.035	-0.151
-182.071	100.060	0.244	-0.283
-181.056	-77.786	0.335	0.116
-180.042	-44.592	0.206	0.103
-179.027	-200.000	0.043	0.289
-178.012	-200.000	0.011	-0.095
-176.998	-102.151	-0.051	0.012
-175.983	800.000	0.083	-0.263
-174.969	10.322	0.073	-0.056
-173.954	-110.710	-0.361	-0.075
-172.939	-145.457	-0.322	-0.029
-171.925	-66.772	-0.166	0.066
-170.910	-62.897	0.483	-0.200
-169.896	-115.046	0.073	0.014
-168.881	-200.000	-0.009	-0.333
-167.866	-115.553	-0.108	-0.020
-166.852	53.149	-0.297	-0.284
-165.837	125.445	0.093	0.117
-164.823	-200.000	-0.044	-0.218
-163.808	-200.000	-0.204	0.000
-162.793	0.223	-0.232	-0.166
-161.779	-64.219	0.287	-0.117
-160.764	-152.096	0.399	-0.029
-159.750	-134.161	-0.241	0.030
-158.735	-177.260	-0.171	0.004
-157.720	37.823	-0.215	0.191
-156.706	-12.904	0.042	0.027
-155.691	113.743	-0.244	-0.296
-154.677	800.000	-0.014	0.048
-153.662	97.819	0.158	-0.181
-152.647	-104.260	0.172	-0.040
-151.633	166.739	-0.050	-0.071
-150.618	607.217	0.065	-0.162
-149.604	-157.757	-0.220	-0.013
-148.589	-121.315	-0.180	-0.030
-147.574	29.458	-0.168	0.143
-146.560	75.971	0.105	0.111
-145.545	-200.000	0.043	0.334
-144.531	682.547	-0.113	-0.294
-143.516	800.000	0.044	-0.164
-142.502	85.331	-0.212	-0.233
-141.487	491.944	-0.069	-0.158
-140.472	56.934	0.071	-0.069
-139.458	597.407	0.081	-0.200
-138.443	-12.296	-0.185	0.121
-137.429	-25.199	-0.149	-0.088
-136.414	800.000	0.135	0.399
-135.399	98.251	0.116	-0.134
-134.385	67.514	-0.198	0.202
-133.370	-200.000	-0.054	-0.274
-132.356	412.110	-0.088	0.186
-131.341	21.700	-0.076	-0.062
-130.326	-200.000	0.027	-0.123
-129.312	-146.847	0.226	0.019
-128.297	19.111	0.176	0.141
-127.283	-200.000	0.015	-0.273
-126.268	14.371	0.190	-0.148
-125.253	68.710	-0.161	0.165
-124.239	-200.000	0.054	-0.243
-123.224	-31.101	-0.093	0.052
-122.210	157.210	0.168	-0.232
-121.195	292.771	-0.099	-0.179
