DTS Sentinel unit serial number:	SN413079Multiplexer serial number:	ORYXHardware model number:	OX4-SRSoftware version number:	ORYX F/W v4.00 Oryx Data Collector v3.7.2.0data status	okinstallation	princeton_trtdifferential loss correction	single-endedforward channel	channel 2reverse channel	N/Adate	2019/09/17time	18:27:35forward acquisition time	60.00reverse acquisition time	0.00gamma	496.2192k internal	0.2289k external	0.2289temperature offset calibration	0.9979default loss term (dB/km)	0.3790temperature slope calibration	1.0000multiplexer offset coefficient	1.0000multiplexer slope coefficient	1.0000fibre end	0.00T internal ref (°C)	43.11T ext. ref 1 (°C)	0.30T ext. ref 2 (°C)	36.19length (m)	temperature (°C)	Stokes	anti-Stokes-747.200	-4.166	0.073	-0.052
-746.185	112.818	-0.086	0.107
-745.171	14.703	0.100	-0.080
-744.156	455.223	0.118	0.268
-743.142	-200.000	-0.050	0.261
-742.127	-200.000	0.020	0.113
-741.112	-200.000	0.006	-0.656
-740.098	196.375	-0.275	0.429
-739.083	-153.664	-0.018	-0.001
-738.069	800.000	0.103	0.417
-737.054	255.616	-0.061	0.106
-736.039	-200.000	-0.004	-0.229
-735.025	800.000	0.110	-0.331
-734.010	303.145	-0.051	-0.098
-732.996	-200.000	0.035	-0.225
-731.981	-105.557	-0.248	0.058
-730.966	187.854	0.059	-0.090
-729.952	800.000	-0.046	0.164
-728.937	220.891	0.128	-0.211
-727.923	-27.842	-0.208	0.124
-726.908	-200.000	-0.056	-0.276
-725.894	270.866	-0.048	-0.087
-724.879	196.446	-0.096	-0.149
-723.864	258.376	-0.203	0.358
-722.850	800.000	0.059	0.179
-721.835	800.000	0.039	0.172
-720.821	-84.874	-0.212	-0.068
-719.806	-6.489	0.086	0.060
-718.791	-200.000	-0.010	-0.112
-717.777	-27.830	-0.219	-0.130
-716.762	-157.518	0.221	-0.014
-715.748	-68.280	0.393	-0.156
-714.733	41.400	0.191	-0.176
-713.718	-200.000	0.187	-0.000
-712.704	53.538	0.172	-0.169
-711.689	-200.000	-0.007	-0.368
-710.675	-200.000	-0.060	-0.313
-709.660	-200.000	0.019	-0.168
-708.645	68.625	0.066	0.069
-707.631	-149.734	0.325	0.026
-706.616	800.000	-0.110	-0.331
-705.602	-100.846	-0.217	-0.055
-704.587	5.122	-0.252	0.190
-703.572	-200.000	-0.001	0.118
-702.558	111.069	0.057	0.070
-701.543	-81.330	-0.080	0.027
-700.529	-200.000	0.062	0.300
-699.514	-200.000	-0.026	0.215
-698.499	-41.371	-0.443	0.233
-697.485	-39.781	0.198	0.106
-696.470	406.917	0.166	-0.358
-695.456	800.000	-0.013	-0.046
-694.441	-14.543	0.232	-0.153
-693.426	-200.000	0.031	-0.330
-692.412	-78.497	0.134	0.047
-691.397	800.000	-0.059	-0.184
-690.383	-200.000	0.046	0.297
-689.368	800.000	-0.055	0.182
-688.354	-200.000	0.020	0.192
-687.339	800.000	-0.023	-0.072
-686.324	-17.580	0.150	-0.097
-685.310	-152.401	-0.288	-0.021
-684.295	66.505	0.102	-0.106
-683.281	-200.000	-0.074	-0.486
-682.266	-200.000	-0.033	-0.336
-681.251	116.330	-0.150	0.188
-680.237	705.017	-0.083	0.225
-679.222	94.603	0.072	-0.083
-678.208	-91.321	-0.252	0.074
-677.193	-80.967	0.653	-0.221
-676.178	215.425	0.078	-0.127
-675.164	371.630	0.040	-0.082
-674.149	800.000	0.053	0.196
-673.135	289.353	-0.140	-0.260
-672.120	-14.770	-0.095	0.063
-671.105	277.648	-0.067	0.122
-670.091	43.891	-0.119	-0.111
-669.076	-155.502	0.217	-0.014
-668.062	74.772	-0.208	-0.224
-667.047	-192.813	0.345	-0.003
-666.032	73.892	0.059	0.063
-665.018	-169.695	-0.103	-0.004
-664.003	451.718	0.095	-0.215
-662.989	486.741	0.185	-0.432
-661.974	116.913	0.188	-0.236
-660.959	321.231	0.177	-0.344
-659.945	-200.000	0.006	-0.216
-658.930	272.012	0.067	0.120
-657.916	48.741	0.143	0.137
-656.901	-200.000	0.021	0.248
-655.886	-27.944	-0.200	-0.119
-654.872	-78.711	-0.091	-0.032
-653.857	-7.642	-0.298	0.206
-652.843	-200.000	0.015	-0.150
-651.828	-119.121	-0.150	-0.027
-650.814	-200.000	0.040	-0.289
-649.799	414.986	-0.030	-0.065
-648.784	-86.208	0.157	0.049
-647.770	594.470	-0.008	-0.020
-646.755	-200.000	-0.017	0.244
-645.741	15.533	0.183	-0.146
-644.726	-200.000	0.014	-0.085
-643.711	800.000	-0.134	0.550
-642.697	82.163	-0.264	0.292
-641.682	330.993	-0.034	0.067
-640.668	800.000	-0.073	-0.224
-639.653	23.603	0.112	-0.094
-638.638	-200.000	-0.006	-0.236
-637.624	48.967	0.091	0.087
-636.609	18.691	0.099	0.081
-635.595	73.033	-0.174	-0.185
-634.580	136.327	-0.300	0.400
-633.565	69.906	0.238	0.251
-632.551	102.573	0.097	0.116
-631.536	-37.560	-0.287	-0.156
-630.522	88.143	-0.143	0.162
-629.507	64.321	-0.146	0.150
-628.492	86.721	-0.084	-0.094
-627.478	-34.453	-0.074	0.041
-626.463	800.000	0.067	-0.277
-625.449	-200.000	-0.020	-0.174
-624.434	-200.000	0.009	0.061
-623.419	104.104	-0.196	-0.235
-622.405	-161.407	-0.375	0.020
-621.390	-200.000	0.074	-0.336
-620.376	-200.000	0.028	-0.243
-619.361	-64.258	-0.155	-0.064
-618.346	800.000	-0.087	0.263
-617.332	-46.719	-0.626	-0.313
-616.317	138.497	0.111	-0.149
-615.303	800.000	0.052	0.180
-614.288	-135.775	0.457	0.055
-613.273	-150.497	0.081	0.006
-612.259	-200.000	-0.079	-0.393
-611.244	-36.883	-0.211	0.116
-610.230	-12.639	0.104	0.069
-609.215	104.018	-0.126	-0.151
-608.201	548.053	-0.139	-0.339
-607.186	-58.653	-0.132	-0.058
-606.171	-181.074	0.141	0.003
-605.157	58.146	0.222	-0.222
-604.142	547.043	0.055	0.133
-603.128	4.691	0.121	-0.091
-602.113	-200.000	-0.000	-0.123
-601.098	58.357	0.205	0.204
-600.084	-139.874	-0.404	-0.044
-599.069	-92.166	-0.373	-0.107
-598.055	-136.734	-0.296	0.035
-597.040	-6.144	-0.289	-0.201
-596.025	-92.473	-0.222	-0.064
-595.011	800.000	-0.060	-0.208
-593.996	133.284	-0.031	0.041
-592.982	-60.866	-0.467	0.201
-591.967	-200.000	0.006	-0.044
-590.952	-45.470	0.136	0.069
-589.938	-200.000	-0.022	-0.274
-588.923	4.843	-0.409	0.306
-587.909	-104.212	0.262	0.062
-586.894	-86.639	-0.493	0.154
-585.879	-143.673	0.215	0.021
-584.865	-92.014	-0.199	0.057
-583.850	504.412	0.048	-0.113
-582.836	-200.000	-0.028	-0.149
-581.821	-200.000	-0.016	0.269
-580.806	-200.000	0.039	0.323
-579.792	226.716	-0.041	0.067
-578.777	-14.223	0.273	0.180
-577.763	40.063	0.065	0.059
-576.748	50.461	-0.160	-0.154
-575.733	-49.346	0.309	-0.150
-574.719	18.439	-0.081	0.066
-573.704	183.280	0.162	0.244
-572.690	800.000	-0.159	0.544
-571.675	234.296	-0.160	0.269
-570.661	-138.478	0.101	0.011
-569.646	-43.220	-0.251	-0.129
-568.631	175.972	-0.241	-0.357
-567.617	-76.576	0.111	0.040
-566.602	640.012	-0.080	0.208
-565.588	-18.820	0.370	0.234
-564.573	691.593	0.134	0.358
-563.558	-119.282	-0.113	0.020
-562.544	-80.608	-0.104	-0.035
-561.529	397.126	0.033	-0.069
-560.515	-62.269	-0.150	0.064
-559.500	2.574	0.051	-0.037
-558.485	-21.987	0.111	-0.068
-557.471	127.607	-0.191	-0.247
-556.456	-6.772	0.347	-0.240
-555.442	-200.000	0.030	0.184
-554.427	103.985	0.072	-0.086
-553.412	-162.496	-0.143	0.007
-552.398	-200.000	-0.037	-0.345
-551.383	448.581	0.108	-0.243
-550.369	-27.158	-0.136	-0.081
-549.354	800.000	-0.051	-0.161
-548.339	-200.000	0.036	-0.332
-547.325	-91.481	-0.082	0.024
-546.310	-59.639	-0.369	-0.161
-545.296	-105.721	-0.217	-0.050
-544.281	-33.824	-0.140	-0.079
-543.266	-130.787	0.262	0.036
-542.252	47.569	-0.181	-0.172
-541.237	-200.000	-0.022	-0.278
-540.223	-200.000	-0.036	0.233
-539.208	-200.000	-0.012	0.099
-538.193	-159.558	0.251	0.014
-537.179	800.000	0.091	-0.330
-536.164	20.572	-0.070	0.058
-535.150	-200.000	-0.011	0.129
-534.135	800.000	-0.060	0.261
-533.121	-130.889	0.347	-0.047
-532.106	-200.000	-0.003	-0.074
-531.091	-81.635	0.088	0.029
-530.077	98.312	-0.114	-0.133
-529.062	108.760	0.132	-0.161
-528.048	-117.017	0.144	-0.027
-527.033	346.344	-0.057	-0.115
-526.018	-98.958	0.085	0.022
-525.004	182.433	0.314	0.471
-523.989	-59.269	0.163	-0.071
-522.975	498.671	-0.166	0.389
-521.960	-79.744	-0.294	-0.101
-520.945	15.170	-0.166	-0.132
-519.931	-109.538	0.197	0.042
-518.916	800.000	0.020	0.057
-517.902	-90.126	0.263	0.078
-516.887	741.998	-0.108	0.296
-515.872	57.576	0.095	0.095
-514.858	-200.000	0.033	-0.262
-513.843	-200.000	0.026	0.287
-512.829	-123.153	-0.234	-0.038
-511.814	313.455	-0.027	0.052
-510.799	-129.447	0.175	0.025
-509.785	85.803	-0.108	-0.120
-508.770	-200.000	-0.023	-0.153
-507.756	-38.040	-0.237	-0.128
-506.741	-200.000	0.020	0.563
-505.726	-27.705	-0.075	0.044
-504.712	-200.000	0.005	-0.410
-503.697	-65.262	-0.225	0.092
-502.683	-51.270	-0.296	0.141
-501.668	-164.674	-0.173	-0.008
-500.653	-73.241	0.132	-0.049
-499.639	294.703	-0.070	-0.130
-498.624	-15.188	0.127	0.082
-497.610	-175.264	0.368	-0.010
-496.595	-62.577	0.178	0.075
-495.581	51.134	-0.080	-0.077
-494.566	-200.000	0.056	-0.314
-493.551	800.000	-0.033	0.121
-492.537	8.927	0.098	0.075
-491.522	-44.312	0.249	-0.127
-490.508	-102.073	0.202	0.049
-489.493	-89.253	0.220	0.066
-488.478	-200.000	0.008	-0.200
-487.464	-141.562	0.140	-0.014
-486.449	-54.288	0.161	0.074
-485.435	-19.256	0.173	0.109
-484.420	-149.882	0.137	0.011
-483.405	477.841	0.103	-0.236
-482.391	103.228	-0.209	-0.249
-481.376	144.744	-0.012	0.016
-480.362	-200.000	-0.028	0.253
-479.347	-200.000	0.010	-0.178
-478.332	-107.767	0.285	0.063
-477.318	800.000	0.116	-0.384
-476.303	26.486	-0.060	-0.051
-475.289	455.418	0.129	0.290
-474.274	-69.754	-0.059	-0.023
-473.259	-70.617	0.157	-0.060
-472.245	133.647	-0.066	-0.086
-471.230	800.000	0.035	0.127
-470.216	60.230	-0.149	0.149
-469.201	-200.000	0.030	-0.300
-468.186	800.000	-0.063	0.198
-467.172	248.307	0.047	0.080
-466.157	-200.000	-0.013	-0.139
-465.143	-200.000	-0.004	-0.090
-464.128	-163.087	0.169	-0.008
-463.113	148.683	0.150	0.206
-462.099	-200.000	0.015	0.186
-461.084	722.565	-0.136	0.367
-460.070	66.516	0.128	-0.132
-459.055	-47.227	0.252	0.124
-458.040	308.518	0.028	-0.052
-457.026	-116.028	0.288	-0.054
-456.011	-110.130	-0.143	-0.030
-454.997	-69.629	-0.299	0.116
-453.982	-26.599	-0.206	-0.122
-452.968	800.000	-0.014	0.060
-451.953	-82.311	-0.141	0.047
-450.938	190.520	-0.101	0.154
-449.924	-200.000	0.023	0.117
-448.909	800.000	0.068	-0.262
-447.895	4.561	0.048	-0.036
-446.880	800.000	0.140	-0.422
-445.865	-200.000	-0.036	-0.219
-444.851	30.500	-0.186	-0.161
-443.836	38.894	0.046	-0.042
-442.822	-75.490	0.181	0.065
-441.807	-48.634	0.060	0.029
-440.792	800.000	-0.064	0.244
-439.778	-104.544	-0.081	0.019
-438.763	-101.933	-0.117	0.029
-437.749	-7.316	0.268	0.184
-436.734	-28.214	0.135	0.079
-435.719	-200.000	0.019	0.096
-434.705	-200.000	-0.005	-0.197
-433.690	378.042	-0.150	-0.311
-432.676	-44.989	-0.039	-0.020
-431.661	800.000	0.058	-0.174
-430.646	-110.051	0.225	-0.048
-429.632	395.949	-0.115	-0.243
-428.617	-41.761	0.243	0.126
-427.603	-12.489	0.262	0.173
-426.588	532.590	0.079	-0.189
-425.573	800.000	0.014	0.052
-424.559	373.278	0.129	-0.266
-423.544	-200.000	0.017	-0.342
-422.530	-200.000	-0.019	-0.103
-421.515	800.000	-0.079	0.240
-420.500	-91.320	-0.240	0.069
-419.486	-200.000	-0.037	-0.227
-418.471	518.813	-0.129	-0.305
-417.457	360.652	-0.029	0.059
-416.442	278.490	0.091	0.163
-415.428	-192.800	-0.203	-0.002
-414.413	173.858	-0.093	-0.135
-413.398	-1.435	0.089	-0.064
-412.384	-200.000	0.086	0.397
-411.369	479.936	-0.039	-0.089
-410.355	16.807	-0.041	0.033
-409.340	327.956	-0.111	0.215
-408.325	272.738	0.127	-0.226
-407.311	-91.672	-0.188	-0.054
-406.296	82.578	0.163	0.179
-405.282	-0.555	0.208	-0.150
-404.267	-134.521	-0.268	0.033
-403.252	800.000	-0.041	-0.137
-402.238	-124.956	0.170	0.026
-401.223	800.000	-0.061	-0.241
-400.209	-75.804	0.084	-0.030
-399.194	583.179	0.120	-0.298
-398.179	-88.015	0.317	-0.096
-397.165	269.642	-0.142	-0.253
-396.150	187.589	-0.088	0.133
-395.136	120.018	-0.183	-0.229
-394.121	12.339	-0.123	-0.096
-393.106	-200.000	0.007	0.107
-392.092	169.976	0.064	-0.093
-391.077	467.154	-0.105	0.238
-390.063	74.503	0.055	0.059
-389.048	156.680	-0.120	0.167
-388.033	-200.000	-0.011	0.159
-387.019	800.000	0.130	-0.455
-386.004	-200.000	0.001	-0.319
-384.990	-114.458	0.242	0.047
-383.975	107.192	-0.014	0.017
-382.960	-94.604	-0.291	-0.080
-381.946	-200.000	0.003	0.085
-380.931	-114.985	-0.590	0.113
-379.917	-185.555	-0.236	-0.004
-378.902	-182.538	-0.331	0.006
-377.888	315.789	-0.104	-0.198
-376.873	13.815	-0.234	0.183
-375.858	388.977	-0.139	-0.291
-374.844	221.633	0.106	-0.173
-373.829	-92.622	0.071	-0.020
-372.815	33.037	-0.233	-0.204
-371.800	-200.000	0.014	-0.123
-370.785	-112.563	-0.137	0.027
-369.771	800.000	0.057	-0.245
-368.756	-105.279	-0.313	0.072
-367.742	260.988	-0.099	0.173
-366.727	-73.302	-0.123	0.045
-365.712	800.000	0.101	0.418
-364.698	6.905	0.230	-0.173
-363.683	-42.065	0.228	-0.118
-362.669	25.340	-0.082	0.069
-361.654	-29.184	0.062	-0.036
-360.639	-147.351	0.091	0.008
-359.625	30.566	0.111	-0.096
-358.610	7.942	0.371	0.281
-357.596	800.000	0.095	0.350
-356.581	70.843	-0.084	0.088
-355.566	312.764	0.211	0.401
-354.552	-200.000	-0.083	-0.433
-353.537	-36.841	0.084	-0.046
-352.523	0.046	0.104	-0.075
-351.508	-52.288	-0.199	-0.093
-350.493	326.114	0.070	0.136
-349.479	-67.900	-0.218	-0.086
-348.464	-15.005	0.138	0.089
-347.450	-143.742	0.069	-0.007
-346.435	800.000	0.037	-0.137
-345.420	-107.180	0.336	-0.075
-344.406	160.403	0.153	0.216
-343.391	-200.000	-0.004	0.256
-342.377	-77.857	0.085	0.030
-341.362	-141.574	-0.221	-0.022
-340.348	144.920	0.187	-0.252
-339.333	-99.862	-0.299	-0.076
-338.318	-90.232	-0.249	-0.073
-337.304	722.954	0.056	-0.149
-336.289	800.000	-0.070	-0.280
-335.275	1.744	-0.212	-0.154
-334.260	-52.136	-0.154	-0.072
-333.245	-200.000	-0.043	0.229
-332.231	92.762	-0.160	0.183
-331.216	103.857	-0.060	-0.071
-330.202	458.085	0.064	-0.144
-329.187	-19.227	0.185	0.116
-328.172	136.889	-0.196	0.258
-327.158	171.861	-0.215	0.312
-326.143	-61.936	0.406	0.171
-325.129	-200.000	0.005	0.227
-324.114	35.051	-0.084	0.074
-323.099	-25.867	-0.419	-0.249
-322.085	90.585	0.114	0.129
-321.070	120.725	-0.018	0.023
-320.056	-132.278	-0.174	-0.023
-319.041	518.742	0.143	0.338
-318.026	-71.831	-0.286	0.107
-317.012	39.619	0.214	-0.193
-315.997	258.961	0.070	-0.122
-314.983	71.657	0.080	0.083
-313.968	800.000	0.109	0.339
-312.953	-131.423	-0.380	-0.051
-311.939	-41.240	-0.405	0.211
-310.924	-55.932	-0.154	-0.069
-309.910	-55.185	0.256	-0.116
-308.895	117.720	-0.117	0.145
-307.880	-200.000	0.045	-0.352
-306.866	-200.000	-0.056	0.327
-305.851	-99.065	-0.312	0.080
-304.837	-138.620	-0.134	0.015
-303.822	-42.186	-0.212	-0.109
-302.807	229.459	0.172	-0.283
-301.793	13.394	0.215	0.168
-300.778	488.902	-0.048	-0.110
-299.764	36.368	0.347	0.308
-298.749	-170.346	-0.194	-0.007
-297.735	539.166	-0.033	-0.079
-296.720	-8.828	0.142	0.096
-295.705	521.889	-0.052	0.123
-294.691	83.465	-0.033	-0.036
-293.676	-110.319	-0.268	-0.056
-292.662	-10.725	0.227	-0.151
-291.647	10.489	0.271	0.208
-290.632	34.243	-0.179	0.157
-289.618	-60.919	0.123	0.053
-288.603	360.578	-0.097	0.196
-287.589	-200.000	0.004	-0.046
-286.574	-200.000	0.006	0.154
-285.559	62.021	-0.044	-0.044
-284.545	-15.607	0.127	0.082
-283.530	341.739	-0.049	-0.096
-282.516	42.787	0.140	0.129
-281.501	112.348	0.113	0.137
-280.486	-200.000	0.051	-0.312
-279.472	-85.572	0.249	-0.078
-278.457	-200.000	0.000	0.477
-277.443	133.595	0.057	0.074
-276.428	-82.725	0.130	0.042
-275.413	-147.471	0.196	0.017
-274.399	483.726	0.109	-0.249
-273.384	445.275	-0.042	-0.093
-272.370	-71.222	-0.202	0.076
-271.355	64.242	0.128	0.129
-270.340	-98.053	-0.261	0.068
-269.326	192.335	0.104	-0.158
-268.311	188.670	-0.028	-0.042
-267.297	170.065	0.067	0.096
-266.282	226.596	-0.060	0.098
-265.267	-50.898	0.017	-0.008
-264.253	78.177	0.042	-0.046
-263.238	-3.213	0.469	0.329
-262.224	-200.000	0.045	-0.317
-261.209	800.000	0.068	-0.277
-260.195	282.030	-0.040	-0.072
-259.180	-200.000	0.201	-0.001
-258.165	-200.000	0.012	0.071
-257.151	-9.783	-0.048	-0.032
-256.136	485.187	0.096	-0.220
-255.122	428.360	0.165	0.358
-254.107	-95.762	-0.110	-0.029
-253.092	173.983	0.178	0.259
-252.078	-200.000	0.011	0.217
-251.063	-20.528	-0.341	0.210
-250.049	293.487	-0.058	0.106
-249.034	800.000	0.062	0.222
-248.019	-200.000	0.030	0.175
-247.005	83.738	0.081	0.089
-245.990	-105.149	-0.459	0.105
-244.976	-98.818	0.252	-0.064
-243.961	-86.581	0.310	0.096
-242.946	121.802	0.050	-0.063
-241.932	800.000	-0.083	-0.237
-240.917	-0.142	-0.149	-0.106
-239.903	-200.000	-0.057	0.272
-238.888	-33.740	0.245	0.136
-237.873	800.000	0.061	0.203
-236.859	-15.630	-0.373	-0.239
-235.844	4.561	0.177	-0.130
-234.830	4.447	-0.229	-0.169
-233.815	-200.000	-0.032	-0.194
-232.800	-8.213	0.324	0.219
-231.786	-20.022	-0.182	0.113
-230.771	-2.415	-0.069	0.048
-229.757	35.289	-0.256	0.225
-228.742	-117.795	0.077	0.014
-227.727	119.345	0.189	0.235
-226.713	-69.605	0.315	-0.121
-225.698	96.916	0.260	0.300
-224.684	-52.576	-0.295	0.137
-223.669	-76.126	0.025	0.009
-222.655	240.434	0.100	0.167
-221.640	-87.445	0.166	0.051
-220.625	-200.000	0.046	0.210
-219.611	405.994	-0.041	-0.088
-218.596	80.380	0.068	0.073
-217.582	-9.889	-0.225	0.150
-216.567	-76.953	-0.141	-0.049
-215.552	56.957	-0.152	-0.148
-214.538	55.224	-0.176	-0.170
-213.523	-146.758	-0.167	0.014
-212.509	-200.000	-0.002	0.176
-211.494	7.544	0.126	-0.095
-210.479	-200.000	0.019	-0.146
-209.465	800.000	-0.155	-0.663
-208.450	-50.437	0.053	0.025
-207.436	-56.064	0.183	-0.082
-206.421	-200.000	-0.007	-0.096
-205.406	-200.000	-0.008	-0.413
-204.392	800.000	0.026	-0.099
-203.377	800.000	0.043	0.181
-202.363	-200.000	0.021	0.259
-201.348	444.331	0.226	0.498
-200.333	33.665	0.287	0.250
-199.319	695.995	0.032	0.085
-198.304	-87.105	-0.228	-0.070
-197.290	-200.000	0.008	-0.192
-196.275	432.365	-0.162	-0.352
-195.260	-98.272	0.281	0.072
-194.246	-188.970	-0.102	0.001
-193.231	-102.925	0.373	0.089
-192.217	13.434	0.187	-0.145
-191.202	-159.787	0.405	0.022
-190.187	800.000	0.006	0.025
-189.173	323.691	-0.106	-0.202
-188.158	86.504	0.316	0.349
-187.144	13.438	-0.251	0.195
-186.129	101.117	0.123	0.143
-185.114	800.000	-0.048	0.157
-184.100	-94.899	-0.086	0.023
-183.085	-39.373	0.435	0.229
-182.071	503.610	-0.100	-0.232
-181.056	-200.000	0.041	0.198
-180.042	348.265	0.051	-0.101
-179.027	-104.770	0.074	-0.017
-178.012	250.455	0.152	-0.259
-176.998	296.824	0.027	-0.050
-175.983	800.000	-0.125	-0.386
-174.969	-112.985	-0.057	0.011
-173.954	-102.284	-0.281	0.068
-172.939	117.365	0.095	-0.117
-171.925	120.572	-0.177	0.221
-170.910	-87.982	0.417	-0.126
-169.896	-113.654	-0.153	0.030
-168.881	-194.180	0.170	-0.001
-167.866	71.074	0.224	-0.233
-166.852	-3.037	-0.116	0.081
-165.837	-200.000	-0.061	0.437
-164.823	73.644	-0.021	0.022
-163.808	-15.852	0.156	0.100
-162.793	-200.000	-0.014	0.111
-161.779	90.381	-0.249	-0.279
-160.764	82.826	0.426	-0.463
-159.750	800.000	-0.076	0.254
-158.735	-36.217	0.316	-0.171
-157.720	-70.391	0.268	-0.102
-156.706	-24.291	-0.164	-0.098
-155.691	50.496	0.025	-0.023
-154.677	-33.065	0.208	-0.115
-153.662	76.073	-0.221	0.234
-152.647	114.071	0.131	-0.159
-151.633	-120.950	-0.178	-0.030
-150.618	-200.000	0.002	-0.133
-149.604	291.598	-0.096	-0.176
-148.589	215.576	0.088	0.140
-147.574	-131.748	-0.339	0.045
-146.560	691.611	0.032	0.083
-145.545	21.532	0.244	-0.199
-144.531	-27.020	0.202	0.118
-143.516	-200.000	0.001	-0.055
-142.502	-146.014	0.053	0.005
-141.487	-117.441	0.093	-0.017
-140.472	437.576	0.123	0.269
-139.458	289.660	0.040	0.072
-138.443	-65.016	0.330	0.134
-137.429	29.638	0.148	-0.126
-136.414	404.074	0.076	0.160
-135.399	-88.551	-0.191	0.057
-134.385	-36.625	0.158	0.085
-133.370	-35.440	-0.116	0.063
-132.356	584.550	-0.076	0.186
-131.341	-75.081	0.106	0.038
-130.326	-66.115	-0.294	-0.117
-129.312	-21.239	0.252	-0.154
-128.297	-200.000	0.000	-0.048
-127.283	-66.687	0.326	0.129
-126.268	-117.446	-0.303	-0.055
-125.253	-200.000	-0.007	0.134
-124.239	-67.659	-0.474	0.186
-123.224	-158.703	0.272	0.016
-122.210	-31.144	-0.228	-0.128
-121.195	123.801	0.299	0.375
