DTS Sentinel unit serial number:	SN413079Multiplexer serial number:	ORYXHardware model number:	OX4-SRSoftware version number:	ORYX F/W v4.00 Oryx Data Collector v3.7.2.0data status	okinstallation	princeton_trtdifferential loss correction	single-endedforward channel	channel 2reverse channel	N/Adate	2019/09/12time	19:32:48forward acquisition time	15.00reverse acquisition time	0.00gamma	496.2192k internal	0.2327k external	0.2327temperature offset calibration	1.0159default loss term (dB/km)	0.3790temperature slope calibration	1.0000multiplexer offset coefficient	1.0000multiplexer slope coefficient	1.0000fibre end	0.00T internal ref (°C)	32.25T ext. ref 1 (°C)	3.37T ext. ref 2 (°C)	26.77length (m)	temperature (°C)	Stokes	anti-Stokes-747.200	-6.088	1.212	0.835
-746.185	-53.090	0.212	0.098
-745.171	-50.165	0.880	0.420
-744.156	118.714	-0.395	0.491
-743.142	-74.750	-1.071	-0.388
-742.127	-0.004	0.445	0.320
-741.112	38.741	-1.012	-0.911
-740.098	-139.947	-0.026	-0.003
-739.083	800.000	-0.157	0.620
-738.069	273.395	-0.279	-0.498
-737.054	2.973	-0.117	-0.086
-736.039	43.342	-0.291	-0.268
-735.025	214.055	0.369	0.588
-734.010	-39.138	0.405	-0.214
-732.996	-21.432	-0.122	-0.075
-731.981	800.000	-0.221	0.743
-730.966	146.836	-0.348	0.471
-729.952	-157.285	0.484	-0.030
-728.937	-200.000	0.018	-0.087
-727.923	-86.259	-0.501	0.156
-726.908	-132.938	1.069	0.137
-725.894	-21.208	-0.285	-0.176
-724.879	12.055	0.045	-0.035
-723.864	-142.719	0.248	0.024
-722.850	-159.407	0.287	-0.016
-721.835	-200.000	-0.035	-0.330
-720.821	-144.310	0.889	0.083
-719.806	-200.000	-0.084	0.525
-718.791	-174.026	-0.399	-0.012
-717.777	24.912	-0.671	0.561
-716.762	674.055	-0.153	0.400
-715.748	95.026	0.367	-0.421
-714.733	32.807	-0.219	0.191
-713.718	144.135	-0.796	1.069
-712.704	-200.000	-0.077	-0.359
-711.689	34.961	-0.233	0.206
-710.675	-82.185	-0.679	0.223
-709.660	53.114	0.768	0.740
-708.645	-105.057	-0.605	-0.139
-707.631	-45.951	0.225	0.112
-706.616	800.000	0.075	0.224
-705.602	-13.325	-0.378	0.247
-704.587	-43.424	-0.366	-0.186
-703.572	99.000	0.380	0.442
-702.558	-170.312	0.195	-0.007
-701.543	-167.001	0.384	0.016
-700.529	800.000	0.081	-0.267
-699.514	174.928	-0.341	0.498
-698.499	72.211	-0.441	0.463
-697.485	800.000	-0.107	0.427
-696.470	-9.473	-0.701	0.471
-695.456	199.946	0.164	0.254
-694.441	-96.218	-0.903	-0.241
-693.426	51.909	-0.515	-0.494
-692.412	-89.377	-0.689	-0.204
-691.397	682.517	0.182	-0.477
-690.383	800.000	0.164	-0.512
-689.368	97.490	0.121	-0.140
-688.354	415.254	0.108	-0.232
-687.339	-152.637	0.510	0.037
-686.324	358.938	0.314	0.631
-685.310	-200.000	-0.000	0.350
-684.295	65.832	0.465	0.474
-683.281	-200.000	-0.020	-0.992
-682.266	-45.886	-0.506	-0.251
-681.251	-60.169	-0.310	-0.133
-680.237	617.650	-0.193	-0.488
-679.222	59.977	0.460	0.457
-678.208	-160.226	-0.243	0.013
-677.193	-46.159	0.158	-0.078
-676.178	410.829	-0.387	-0.825
-675.164	181.623	-0.284	0.421
-674.149	-96.013	0.423	0.113
-673.135	-136.249	-0.826	-0.097
-672.120	-200.000	-0.014	0.678
-671.105	-136.426	0.544	0.064
-670.091	-80.897	-0.173	0.058
-669.076	-193.348	0.074	0.001
-668.062	117.318	-0.505	-0.624
-667.047	-128.308	-0.531	-0.076
-666.032	-97.188	0.606	-0.159
-665.018	-200.000	-0.018	-0.413
-664.003	-155.105	0.328	0.022
-662.989	-97.682	-0.873	0.227
-661.974	-200.000	0.050	-0.433
-660.959	268.970	0.417	-0.735
-659.945	-200.000	0.082	-0.482
-658.930	-200.000	0.044	-0.649
-657.916	693.861	-0.205	0.540
-656.901	-141.967	0.423	0.042
-655.886	7.062	0.482	0.361
-654.872	138.678	0.086	0.113
-653.857	-87.661	-0.420	-0.127
-652.843	20.207	-0.315	0.256
-651.828	150.375	-0.196	-0.268
-650.814	-101.668	0.457	-0.111
-649.799	559.863	-0.315	-0.763
-648.784	62.603	-0.377	0.379
-647.770	127.757	0.357	0.456
-646.755	-190.306	0.574	0.006
-645.741	-92.781	0.869	0.244
-644.726	-200.000	0.057	0.300
-643.711	368.579	-0.165	0.335
-642.697	-70.869	0.411	-0.156
-641.682	96.381	0.406	-0.466
-640.668	-200.000	0.145	-0.715
-639.653	108.235	0.254	0.305
-638.638	641.757	0.182	0.467
-637.624	121.519	0.243	0.304
-636.609	-200.000	-0.036	0.209
-635.595	339.417	0.417	0.817
-634.580	-184.699	0.365	0.006
-633.565	-53.720	0.059	0.027
-632.551	-45.417	-0.131	0.065
-631.536	-144.137	-0.850	-0.080
-630.522	-200.000	-0.104	0.723
-629.507	30.032	0.515	-0.441
-628.492	367.558	-0.089	0.181
-627.478	-200.000	-0.068	0.561
-626.463	39.285	-0.045	-0.040
-625.449	-200.000	0.020	-0.311
-624.434	184.662	-0.441	0.656
-623.419	-200.000	0.111	-1.019
-622.405	-135.809	0.545	-0.065
-621.390	-200.000	-0.036	0.161
-620.376	210.652	0.289	0.456
-619.361	252.941	-0.253	0.434
-618.346	-70.859	-0.456	0.173
-617.332	27.937	0.730	0.618
-616.317	-101.825	0.496	0.120
-615.303	-53.086	0.586	0.270
-614.288	6.666	-0.670	-0.500
-613.273	-200.000	0.173	-0.986
-612.259	-84.920	0.105	0.033
-611.244	-117.894	-0.616	-0.111
-610.230	-40.694	-0.292	-0.152
-609.215	-154.042	-0.029	-0.002
-608.201	-200.000	0.069	-0.406
-607.186	-8.342	-0.780	-0.526
-606.171	-7.935	-1.098	-0.743
-605.157	-192.568	0.455	0.004
-604.142	188.852	0.052	-0.079
-603.128	269.899	-0.290	0.512
-602.113	22.277	0.367	-0.301
-601.098	-136.041	0.581	-0.068
-600.084	-94.941	-1.214	-0.329
-599.069	252.734	0.325	-0.555
-598.055	155.364	0.369	-0.510
-597.040	-2.159	0.668	0.470
-596.025	316.773	-0.262	0.496
-595.011	469.946	-0.278	-0.627
-593.996	15.449	0.118	-0.093
-592.982	800.000	-0.019	0.076
-591.967	48.660	-0.364	0.342
-590.952	-200.000	0.085	0.710
-589.938	371.690	0.204	-0.415
-588.923	26.381	0.838	-0.702
-587.909	-200.000	0.029	0.679
-586.894	-12.847	0.572	0.373
-585.879	225.388	0.518	0.840
-584.865	-86.133	-0.060	0.019
-583.850	33.788	0.228	-0.199
-582.836	-124.247	-0.986	-0.155
-581.821	-27.063	-0.032	-0.019
-580.806	-180.217	-0.259	-0.005
-579.792	167.704	-0.039	0.056
-578.777	-133.622	-0.707	0.089
-577.763	-131.049	-0.444	-0.059
-576.748	86.826	0.316	0.349
-575.733	-200.000	0.110	-0.582
-574.719	-114.582	0.500	-0.096
-573.704	-200.000	-0.027	0.327
-572.690	266.926	0.402	-0.703
-571.675	-89.461	0.370	-0.109
-570.661	-91.974	-0.650	-0.185
-569.646	311.417	-0.411	-0.772
-568.631	-200.000	-0.045	0.733
-567.617	-100.449	-1.104	-0.274
-566.602	9.553	0.947	-0.718
-565.588	-69.361	-0.603	0.232
-564.573	724.271	-0.389	1.038
-563.558	31.636	0.224	-0.193
-562.544	-27.340	-0.179	0.105
-561.529	195.844	0.012	-0.019
-560.515	267.287	0.086	-0.151
-559.500	-200.000	-0.041	0.407
-558.485	-47.550	-0.301	-0.147
-557.471	-23.894	0.702	0.421
-556.456	-112.434	-0.126	-0.025
-555.442	482.167	-0.144	-0.328
-554.427	443.961	0.339	-0.744
-553.412	655.115	-0.074	0.191
-552.398	104.770	-0.572	0.675
-551.383	-141.083	0.460	-0.047
-550.369	-14.503	0.140	0.090
-549.354	-54.603	0.282	-0.128
-548.339	38.439	-0.938	0.837
-547.325	-13.059	0.279	0.181
-546.310	800.000	0.251	0.880
-545.296	111.904	0.436	-0.527
-544.281	-10.550	0.187	0.124
-543.266	-5.476	0.386	-0.265
-542.252	312.453	0.518	-0.973
-541.237	-40.785	0.486	0.252
-540.223	0.102	0.192	-0.137
-539.208	167.925	0.467	-0.665
-538.193	91.353	-0.370	0.416
-537.179	-93.199	-0.779	-0.216
-536.164	800.000	-0.112	0.318
-535.150	-57.847	-0.834	0.365
-534.135	-200.000	0.029	-0.451
-533.121	-94.050	-0.035	0.010
-532.106	-125.095	0.422	-0.065
-531.091	800.000	0.032	0.110
-530.077	-3.988	-0.186	-0.129
-529.062	-200.000	-0.055	-0.445
-528.048	55.609	0.397	-0.384
-527.033	-200.000	0.022	0.479
-526.018	33.162	0.387	0.335
-525.004	-200.000	0.083	-0.521
-523.989	22.656	-0.211	0.172
-522.975	2.754	-0.686	0.497
-521.960	549.160	0.173	-0.414
-520.945	-8.748	0.247	0.166
-519.931	-200.000	0.147	-0.822
-518.916	-200.000	0.021	0.511
-517.902	-128.489	-0.509	-0.072
-516.887	-14.413	-0.527	-0.339
-515.872	-51.754	0.869	0.404
-514.858	-80.804	0.942	0.313
-513.843	-118.275	0.466	-0.083
-512.829	-200.000	-0.090	0.913
-511.814	-97.468	-0.359	-0.093
-510.799	16.078	-0.392	-0.309
-509.785	800.000	0.080	-0.325
-508.770	434.556	0.165	0.359
-507.756	-80.789	-0.628	0.208
-506.741	239.087	-0.232	0.385
-505.726	-4.653	-0.217	0.150
-504.712	19.730	0.292	-0.235
-503.697	-200.000	-0.128	0.714
-502.683	702.891	-0.389	-1.025
-501.668	-21.986	0.140	-0.085
-500.653	135.668	-0.117	-0.151
-499.639	784.811	0.032	-0.087
-498.624	204.414	0.202	0.312
-497.610	-200.000	0.076	0.693
-496.595	-49.577	-0.381	-0.181
-495.581	382.933	-0.072	-0.149
-494.566	-200.000	-0.001	-0.351
-493.551	-200.000	0.082	-0.511
-492.537	113.638	0.737	0.893
-491.522	1.104	0.260	-0.186
-490.508	767.389	-0.224	-0.607
-489.493	-85.249	0.338	0.106
-488.478	-23.789	0.185	0.111
-487.464	-200.000	-0.096	0.565
-486.449	234.553	-0.551	0.906
-485.435	341.722	-0.200	-0.390
-484.420	-38.107	-0.083	-0.044
-483.405	-200.000	0.075	0.488
-482.391	-127.633	-0.321	-0.046
-481.376	-70.468	0.215	0.081
-480.362	29.654	-0.756	-0.642
-479.347	8.782	0.668	-0.502
-478.332	761.704	0.338	-0.915
-477.318	-89.156	-0.184	-0.054
-476.303	314.772	-0.045	0.084
-475.289	-57.638	-0.420	0.184
-474.274	114.479	-0.339	-0.411
-473.259	-166.590	0.148	0.006
-472.245	-88.867	-0.833	-0.247
-471.230	108.881	-0.124	-0.148
-470.216	-46.179	-0.368	0.181
-469.201	-200.000	0.027	-0.196
-468.186	1.598	0.452	0.324
-467.172	786.944	0.127	0.347
-466.157	-95.093	0.217	-0.058
-465.143	-21.232	-0.107	-0.065
-464.128	534.671	-0.234	0.553
-463.113	-31.965	-0.919	-0.513
-462.099	102.718	-0.577	0.673
-461.084	17.677	-0.268	0.213
-460.070	-200.000	-0.042	-0.612
-459.055	-71.540	0.152	-0.057
-458.040	-110.271	-0.124	0.026
-457.026	-200.000	-0.011	-0.448
-456.011	705.955	0.134	0.353
-454.997	-184.404	1.209	-0.020
-453.982	-6.349	-0.278	0.189
-452.968	336.964	0.137	0.266
-451.953	185.529	0.352	0.521
-450.938	-95.739	-0.360	-0.096
-449.924	-99.263	0.541	0.136
-448.909	32.774	-0.655	-0.565
-447.895	-200.000	0.054	-0.320
-446.880	19.131	-0.686	0.548
-445.865	-24.880	0.733	0.434
-444.851	17.132	-0.572	-0.452
-443.836	652.102	-0.305	0.778
-442.822	30.466	0.724	0.616
-441.807	-126.033	-0.025	-0.004
-440.792	29.077	0.632	-0.535
-439.778	402.062	0.220	-0.460
-438.763	-87.977	-0.338	0.101
-437.749	-70.854	0.107	-0.040
-436.734	-116.209	0.048	0.009
-435.719	153.341	0.257	-0.350
-434.705	-57.274	-0.805	0.353
-433.690	87.928	-0.435	0.480
-432.676	-200.000	-0.063	0.813
-431.661	-173.620	-0.918	-0.027
-430.646	-189.408	-0.515	-0.006
-429.632	127.863	-0.049	-0.063
-428.617	175.868	0.361	-0.521
-427.603	44.886	0.887	-0.813
-426.588	-200.000	0.045	1.147
-425.573	800.000	0.066	0.212
-424.559	-84.854	-0.122	-0.038
-423.544	209.621	0.223	0.348
-422.530	268.095	-0.128	0.224
-421.515	-129.534	0.474	-0.065
-420.500	-134.662	-0.893	-0.108
-419.486	-36.807	-0.596	0.318
-418.471	-200.000	0.068	-0.455
-417.457	90.662	0.359	-0.400
-416.442	718.621	0.355	0.939
-415.428	445.171	0.148	-0.324
-414.413	-105.584	-0.944	-0.213
-413.398	1.722	0.795	0.570
-412.384	-56.832	0.910	0.400
-411.369	-22.034	0.204	-0.123
-410.355	-27.222	-0.432	-0.250
-409.340	0.021	0.519	-0.368
-408.325	-117.377	-0.496	-0.089
-407.311	79.655	-0.373	-0.399
-406.296	-150.230	0.581	-0.045
-405.282	-200.000	-0.018	-0.864
-404.267	-6.988	0.508	-0.343
-403.252	165.464	-0.278	0.391
-402.238	135.950	-0.402	-0.520
-401.223	-85.917	0.430	0.132
-400.209	170.929	-0.175	-0.249
-399.194	638.779	-0.479	1.212
-398.179	-200.000	-0.144	0.823
-397.165	424.404	0.385	0.823
-396.150	170.186	0.670	-0.954
-395.136	623.763	-0.109	-0.273
-394.121	-58.288	-0.507	0.220
-393.106	-119.317	0.948	-0.164
-392.092	-68.509	0.317	-0.122
-391.077	-121.926	0.801	0.131
-390.063	-200.000	-0.042	0.614
-389.048	723.479	-0.114	-0.302
-388.033	368.972	0.103	0.208
-387.019	-117.390	0.717	-0.129
-386.004	-68.991	-0.897	-0.344
-384.990	240.935	-0.291	0.484
-383.975	61.764	-0.140	0.138
-382.960	-200.000	-0.001	-0.569
-381.946	-124.603	-0.641	0.099
-380.931	-146.512	-0.639	0.055
-379.917	-136.746	-0.690	-0.079
-378.902	163.344	-0.253	0.354
-377.888	377.158	-0.062	0.126
-376.873	-200.000	0.062	0.307
-375.858	-105.498	-0.866	-0.195
-374.844	-35.756	-0.454	-0.245
-373.829	800.000	0.152	-0.517
-372.815	39.621	0.616	0.549
-371.800	87.305	0.716	0.787
-370.785	-125.088	-0.412	0.063
-369.771	800.000	-0.296	0.998
-368.756	148.973	-0.476	0.639
-367.742	123.315	0.616	-0.767
-366.727	13.705	0.231	0.179
-365.712	215.210	-0.438	-0.690
-364.698	800.000	0.113	0.337
-363.683	-86.194	0.188	0.058
-362.669	-104.270	-1.030	-0.237
-361.654	-116.269	0.900	-0.166
-360.639	85.481	0.779	0.850
-359.625	-200.000	-0.015	-0.570
-358.610	259.699	-0.477	-0.818
-357.596	-112.309	0.763	-0.152
-356.581	-200.000	0.008	-0.060
-355.566	-108.914	-0.348	0.074
-354.552	472.863	-0.198	0.443
-353.537	91.285	0.341	-0.380
-352.523	-44.671	-0.639	0.317
-351.508	800.000	-0.171	0.515
-350.493	190.919	-0.263	0.393
-349.479	15.637	0.394	-0.308
-348.464	-33.954	-0.207	0.113
-347.450	-200.000	-0.098	0.813
-346.435	-103.405	0.065	0.015
-345.420	-67.918	-0.865	-0.335
-344.406	14.498	-0.269	0.208
-343.391	152.509	-0.387	-0.524
-342.377	204.980	0.174	-0.268
-341.362	-82.928	0.260	-0.083
-340.348	-43.012	0.548	-0.276
-339.333	-81.901	-0.590	-0.192
-338.318	371.790	0.074	0.149
-337.304	-176.410	-0.718	0.018
-336.289	-87.635	0.706	-0.212
-335.275	-87.976	-0.574	-0.171
-334.260	800.000	-0.023	0.098
-333.245	-178.069	-0.610	-0.014
-332.231	26.449	0.850	-0.706
-331.216	-124.719	-0.377	-0.058
-330.202	800.000	-0.118	-0.438
-329.187	405.695	-0.187	-0.391
-328.172	118.833	0.245	0.301
-327.158	800.000	-0.025	-0.072
-326.143	79.461	0.251	0.268
-325.129	800.000	-0.149	-0.531
-324.114	71.443	0.205	0.211
-323.099	800.000	0.252	0.722
-322.085	-122.630	-0.321	-0.052
-321.070	800.000	-0.163	-0.605
-320.056	800.000	0.083	0.230
-319.041	-200.000	0.015	-0.283
-318.026	248.578	-0.455	-0.764
-317.012	341.192	0.124	-0.241
-315.997	-122.332	0.402	0.065
-314.983	800.000	-0.053	0.226
-313.968	-115.381	0.626	0.117
-312.953	727.374	0.136	0.360
-311.939	-33.073	-0.428	0.235
-310.924	-65.685	0.234	-0.093
-309.910	53.968	-0.669	-0.638
-308.895	702.548	0.109	0.286
-307.880	-85.390	-0.727	-0.225
-306.866	369.782	0.345	-0.692
-305.851	75.134	0.256	-0.267
-304.837	-12.554	0.370	-0.239
-303.822	800.000	0.162	0.476
-302.807	-156.096	0.661	0.041
-301.793	-200.000	0.026	0.245
-300.778	-84.879	0.605	-0.188
-299.764	-200.000	-0.122	-0.777
-298.749	124.523	0.233	0.291
-297.735	-45.256	0.308	-0.151
-296.720	-123.447	0.174	0.027
-295.705	800.000	0.089	-0.356
-294.691	-118.628	-0.732	0.128
-293.676	47.191	-0.279	0.258
-292.662	-59.167	-0.697	0.298
-291.647	13.723	-0.255	-0.196
-290.632	-39.283	0.251	0.131
-289.618	800.000	-0.177	-0.674
-288.603	-105.835	-0.630	-0.141
-287.589	29.530	0.336	0.283
-286.574	43.035	-0.110	0.099
-285.559	-88.587	-0.564	-0.166
-284.545	642.488	0.261	0.659
-283.530	-127.191	0.572	0.083
-282.516	-200.000	0.034	-0.839
-281.501	-80.952	0.429	0.141
-280.486	-200.000	-0.019	-0.144
-279.472	800.000	0.212	-0.850
-278.457	49.020	-0.704	0.654
-277.443	45.762	0.367	0.336
-276.428	-98.746	0.875	-0.221
-275.413	286.288	0.176	0.314
-274.399	-47.398	-0.868	0.418
-273.384	29.924	0.301	-0.254
-272.370	-79.741	0.582	-0.194
-271.355	-87.233	-0.766	-0.230
-270.340	-9.479	0.459	-0.303
-269.326	179.740	-0.049	0.071
-268.311	-200.000	-0.029	0.152
-267.297	-96.017	-0.529	-0.139
-266.282	488.773	0.334	0.755
-265.267	-200.000	0.023	-0.302
-264.253	14.923	0.476	-0.368
-263.238	-105.932	-0.352	-0.078
-262.224	-82.502	-0.622	-0.200
-261.209	800.000	-0.076	-0.241
-260.195	521.638	-0.080	0.186
-259.180	307.726	-0.253	-0.468
-258.165	7.895	-0.174	0.129
-257.151	-117.402	-0.652	-0.117
-256.136	-41.218	-0.399	0.204
-255.122	166.729	0.199	0.279
-254.107	143.095	0.605	0.796
-253.092	-200.000	0.128	0.704
-252.078	-73.337	-0.249	0.090
-251.063	-125.881	-0.614	-0.092
-250.049	-200.000	0.034	-0.264
-249.034	-114.469	0.164	0.031
-248.019	-58.459	-0.730	0.314
-247.005	151.167	-0.322	-0.433
-245.990	-105.934	0.727	-0.162
-244.976	800.000	0.289	0.822
-243.961	-70.023	-0.224	0.084
-242.946	259.481	-0.340	0.580
-241.932	462.677	0.253	-0.558
-240.917	123.300	0.255	0.317
-239.903	-200.000	0.026	0.399
-238.888	56.403	0.154	-0.148
-237.873	0.882	0.591	-0.419
-236.859	15.661	-0.385	-0.299
-235.844	271.259	-0.047	-0.082
-234.830	-96.283	0.471	-0.123
-233.815	-200.000	-0.106	-0.483
-232.800	-200.000	-0.056	-1.046
-231.786	662.949	0.200	0.510
-230.771	-186.402	-0.728	0.010
-229.757	192.499	-0.600	-0.895
-228.742	-200.000	-0.039	0.648
-227.727	-40.902	0.307	0.157
-226.713	-200.000	-0.115	-0.794
-225.698	-96.227	-0.431	-0.113
-224.684	-74.706	-0.288	-0.102
-223.669	23.634	0.327	0.266
-222.655	-120.961	0.560	-0.093
-221.640	-20.093	-0.536	0.326
-220.625	-17.219	-1.001	-0.623
-219.611	91.594	0.982	1.090
-218.596	-30.858	0.116	-0.065
-217.582	-200.000	0.002	0.305
-216.567	308.013	0.274	0.505
-215.552	-139.204	0.710	0.076
-214.538	685.090	-0.290	-0.747
-213.523	-50.253	0.190	-0.089
-212.509	-200.000	0.030	0.218
-211.494	-78.380	0.018	0.006
-210.479	47.626	0.332	-0.306
-209.465	85.932	-0.250	-0.272
-208.450	148.774	-0.620	0.827
-207.436	-25.375	1.148	-0.670
-206.421	-200.000	0.088	-0.943
-205.406	-200.000	0.068	0.439
-204.392	-102.680	0.986	0.232
-203.377	-183.677	-0.191	-0.003
-202.363	-134.527	0.998	-0.120
-201.348	-106.271	-0.964	-0.213
-200.333	-11.436	-0.383	0.249
-199.319	-6.866	-0.279	0.187
-198.304	80.207	0.224	0.238
-197.290	207.618	-0.213	-0.328
-196.275	95.171	0.166	-0.186
-195.260	800.000	0.156	-0.478
-194.246	-97.038	0.175	-0.045
-193.231	-200.000	-0.013	-0.487
-192.217	-183.658	-0.620	-0.010
-191.202	-32.491	0.141	-0.077
-190.187	70.432	-0.040	-0.041
-189.173	-108.742	0.977	0.206
-188.158	800.000	-0.441	-1.204
-187.144	392.895	-0.360	-0.739
-186.129	-171.112	0.553	0.018
-185.114	-159.062	-0.855	0.048
-184.100	-122.405	-0.104	-0.017
-183.085	202.028	0.268	-0.408
-182.071	12.293	0.224	0.170
-181.056	-70.262	0.541	-0.203
-180.042	-200.000	0.056	0.418
-179.027	800.000	-0.139	0.469
-178.012	59.703	-0.515	0.501
-176.998	107.707	-0.243	0.285
-175.983	-154.694	0.873	0.057
-174.969	354.435	-0.135	-0.265
-173.954	800.000	0.093	0.287
-172.939	-55.971	0.528	-0.232
-171.925	800.000	-0.131	-0.384
-170.910	-22.132	0.560	0.335
-169.896	-87.035	0.490	-0.147
-168.881	-62.446	-0.575	0.236
-167.866	-200.000	0.013	0.117
-166.852	-90.782	-0.467	-0.133
-165.837	-200.000	-0.067	-0.839
-164.823	403.679	0.184	0.382
-163.808	257.614	0.288	-0.489
-162.793	255.014	-0.232	0.391
-161.779	800.000	0.236	-0.724
-160.764	-200.000	-0.025	-0.538
-159.750	148.511	-0.451	0.600
-158.735	800.000	0.066	-0.188
-157.720	-76.438	0.748	-0.259
-156.706	324.721	0.245	0.462
-155.691	800.000	0.137	0.396
-154.677	151.281	0.279	0.374
-153.662	764.718	0.431	1.154
-152.647	-77.898	-0.510	0.173
-151.633	800.000	-0.214	0.627
-150.618	800.000	-0.211	0.860
-149.604	-114.951	-0.485	-0.091
-148.589	180.369	-0.469	-0.678
-147.574	152.710	0.388	-0.522
-146.560	-146.226	-0.516	-0.045
-145.545	-132.784	0.369	-0.046
-144.531	99.050	-0.210	-0.239
-143.516	-200.000	0.103	-0.865
-142.502	277.889	0.162	-0.284
-141.487	-31.177	0.443	-0.246
-140.472	20.979	0.369	0.295
-139.458	182.464	-0.371	-0.538
-138.443	-188.963	0.684	0.008
-137.429	86.660	0.262	0.285
-136.414	800.000	0.129	0.411
-135.399	800.000	-0.379	-1.168
-134.385	324.634	-0.110	-0.208
-133.370	800.000	-0.111	0.345
-132.356	96.681	-0.324	0.366
-131.341	-107.674	-0.191	-0.041
-130.326	121.202	-0.255	-0.312
-129.312	-146.912	-0.200	-0.017
-128.297	44.609	-0.453	-0.410
-127.283	-74.221	0.271	0.096
-126.268	49.174	-0.433	0.400
-125.253	-41.036	0.725	0.368
-124.239	-55.360	0.278	0.123
-123.224	800.000	0.308	-0.879
-122.210	281.179	-0.195	-0.343
-121.195	-161.932	-0.474	0.024
