DTS Sentinel unit serial number:	SN413079Multiplexer serial number:	ORYXHardware model number:	OX4-SRSoftware version number:	ORYX F/W v4.00 Oryx Data Collector v3.7.2.0data status	okinstallation	princeton_trtdifferential loss correction	single-endedforward channel	channel 2reverse channel	N/Adate	2019/09/15time	00:43:34forward acquisition time	60.00reverse acquisition time	0.00gamma	496.2192k internal	0.2323k external	0.2323temperature offset calibration	1.0043default loss term (dB/km)	0.3790temperature slope calibration	1.0000multiplexer offset coefficient	1.0000multiplexer slope coefficient	1.0000fibre end	0.00T internal ref (°C)	32.06T ext. ref 1 (°C)	4.58T ext. ref 2 (°C)	27.04length (m)	temperature (°C)	Stokes	anti-Stokes-747.200	-11.934	-0.365	-0.242
-746.185	-63.165	0.195	-0.081
-745.171	390.646	-0.090	-0.189
-744.156	-58.225	0.206	0.090
-743.142	-2.633	-0.204	-0.144
-742.127	-94.095	-0.183	0.051
-741.112	109.065	0.245	0.295
-740.098	299.909	-0.301	0.561
-739.083	-200.000	0.026	0.282
-738.069	-70.052	-0.423	0.163
-737.054	-51.593	-0.150	-0.071
-736.039	-183.597	-0.467	-0.008
-735.025	-200.000	-0.012	0.087
-734.010	800.000	0.094	-0.297
-732.996	-66.078	0.092	0.037
-731.981	259.020	-0.227	-0.394
-730.966	-7.997	-0.088	-0.060
-729.952	-32.241	0.181	0.102
-728.937	800.000	-0.041	-0.160
-727.923	467.636	0.047	0.105
-726.908	379.433	-0.135	0.279
-725.894	-146.043	0.419	-0.037
-724.879	110.372	0.030	-0.036
-723.864	-200.000	-0.037	0.200
-722.850	66.252	-0.105	-0.108
-721.835	99.869	0.038	-0.045
-720.821	-200.000	-0.019	0.284
-719.806	-144.063	-0.084	0.008
-718.791	-101.031	0.216	0.054
-717.777	265.025	-0.048	-0.084
-716.762	-200.000	0.026	-0.184
-715.748	-146.045	0.372	-0.033
-714.733	413.204	-0.115	0.246
-713.718	767.489	-0.007	0.019
-712.704	31.614	0.111	0.096
-711.689	-200.000	-0.029	0.244
-710.675	457.383	-0.143	-0.321
-709.660	385.363	-0.166	0.345
-708.645	98.094	-0.230	-0.267
-707.631	-39.669	-0.169	0.089
-706.616	-200.000	0.024	-0.341
-705.602	-75.122	0.142	-0.051
-704.587	-200.000	0.069	0.340
-703.572	-24.159	-0.259	-0.156
-702.558	-71.080	0.142	0.054
-701.543	-36.228	0.083	-0.045
-700.529	-20.279	-0.154	-0.096
-699.514	-9.310	-0.020	-0.014
-698.499	351.794	0.076	-0.151
-697.485	-90.805	-0.020	0.006
-696.470	-100.985	0.341	-0.084
-695.456	-200.000	-0.013	-0.087
-694.441	483.857	0.065	0.150
-693.426	143.693	-0.066	-0.089
-692.412	322.779	0.070	-0.135
-691.397	-198.347	-0.188	0.001
-690.383	81.766	0.096	0.104
-689.368	621.822	-0.184	-0.467
-688.354	91.151	0.232	-0.262
-687.339	-200.000	-0.015	-0.069
-686.324	-57.440	0.158	0.070
-685.310	800.000	0.043	-0.152
-684.295	488.354	0.176	0.405
-683.281	-200.000	-0.009	-0.117
-682.266	-194.165	-0.540	0.004
-681.251	-35.773	0.247	0.135
-680.237	710.787	-0.085	-0.227
-679.222	524.193	-0.088	0.209
-678.208	71.051	-0.157	0.164
-677.193	-200.000	-0.019	-0.173
-676.178	15.029	-0.175	0.138
-675.164	20.244	-0.174	-0.142
-674.149	290.551	-0.080	-0.147
-673.135	150.912	-0.081	0.111
-672.120	-117.113	0.099	-0.018
-671.105	-33.582	0.206	-0.114
-670.091	-200.000	0.049	-0.271
-669.076	53.233	-0.185	-0.179
-668.062	494.367	0.035	-0.082
-667.047	762.090	0.160	-0.436
-666.032	800.000	0.054	0.208
-665.018	799.552	0.066	-0.183
-664.003	495.520	-0.072	0.166
-662.989	-158.954	0.099	0.006
-661.974	151.271	0.040	-0.054
-660.959	319.411	0.126	0.240
-659.945	96.808	-0.090	0.103
-658.930	56.283	-0.209	-0.205
-657.916	-200.000	0.034	-0.215
-656.901	95.638	-0.160	0.184
-655.886	-200.000	-0.017	-0.081
-654.872	-173.703	0.150	0.005
-653.857	36.798	-0.069	-0.061
-652.843	-200.000	-0.051	0.245
-651.828	587.078	-0.052	-0.129
-650.814	-34.801	0.190	-0.104
-649.799	-200.000	-0.013	-0.352
-648.784	-200.000	0.051	-0.306
-647.770	-39.590	0.046	0.024
-646.755	105.278	0.144	0.171
-645.741	93.333	0.020	-0.023
-644.726	-31.421	-0.268	0.152
-643.711	-34.602	-0.129	0.071
-642.697	-194.285	-0.152	0.001
-641.682	-148.264	-0.295	-0.024
-640.668	-153.279	0.066	0.005
-639.653	-9.375	-0.193	0.129
-638.638	184.230	0.282	0.419
-637.624	-60.054	0.018	-0.008
-636.609	-134.935	-0.070	-0.009
-635.595	786.589	-0.143	0.394
-634.580	800.000	0.039	0.135
-633.565	20.401	0.091	-0.074
-632.551	7.303	0.311	-0.234
-631.536	-90.750	0.168	0.049
-630.522	517.833	0.162	-0.380
-629.507	42.500	0.143	0.131
-628.492	-73.778	0.339	0.124
-627.478	-96.034	0.146	0.039
-626.463	2.271	-0.089	0.065
-625.449	160.207	0.226	-0.316
-624.434	800.000	0.095	0.410
-623.419	-200.000	0.019	0.096
-622.405	672.907	0.143	-0.373
-621.390	800.000	-0.047	0.140
-620.376	-169.449	0.126	0.005
-619.361	800.000	0.050	0.219
-618.346	111.035	-0.112	0.135
-617.332	105.819	0.056	-0.067
-616.317	-104.540	0.294	-0.068
-615.303	-200.000	0.017	0.189
-614.288	291.380	-0.061	-0.111
-613.273	236.849	-0.111	-0.185
-612.259	33.290	-0.185	-0.162
-611.244	-11.119	-0.223	-0.148
-610.230	48.380	-0.061	-0.057
-609.215	-41.151	0.144	0.074
-608.201	144.916	0.176	-0.237
-607.186	478.502	0.022	0.049
-606.171	-200.000	-0.026	-0.139
-605.157	800.000	-0.092	-0.259
-604.142	37.820	0.377	-0.337
-603.128	-21.105	0.140	-0.086
-602.113	66.163	-0.102	0.104
-601.098	-200.000	-0.002	-0.160
-600.084	75.388	0.069	-0.073
-599.069	-74.667	-0.318	0.115
-598.055	-92.529	0.370	0.104
-597.040	130.942	-0.055	-0.071
-596.025	-100.118	0.316	-0.079
-595.011	-63.685	0.146	0.060
-593.996	-64.506	0.183	0.075
-592.982	113.959	0.090	-0.110
-591.967	711.268	0.086	0.228
-590.952	-94.242	0.280	-0.077
-589.938	87.411	0.128	-0.143
-588.923	132.324	0.256	-0.331
-587.909	-200.000	0.001	-0.130
-586.894	109.700	-0.203	-0.244
-585.879	-5.509	0.197	0.136
-584.865	-82.986	-0.254	0.082
-583.850	-200.000	-0.015	-0.293
-582.836	-165.634	0.191	-0.008
-581.821	-52.448	0.264	-0.122
-580.806	-55.810	0.301	0.135
-579.792	5.477	0.199	-0.147
-578.777	-200.000	0.005	-0.135
-577.763	800.000	0.074	0.313
-576.748	-143.998	-0.131	0.012
-575.733	800.000	0.045	0.186
-574.719	-131.204	-0.216	-0.029
-573.704	-138.235	0.105	-0.012
-572.690	75.976	-0.218	-0.231
-571.675	114.853	-0.294	-0.360
-570.661	227.905	0.065	0.106
-569.646	-200.000	0.017	-0.083
-568.631	800.000	-0.048	0.146
-567.617	767.888	-0.061	-0.166
-566.602	168.430	-0.202	0.289
-565.588	323.582	-0.083	0.159
-564.573	58.572	-0.090	0.089
-563.558	-101.240	0.226	0.055
-562.544	106.487	-0.011	0.013
-561.529	230.498	0.038	0.062
-560.515	-6.834	0.186	-0.127
-559.500	255.962	0.107	0.184
-558.485	-93.778	0.231	0.064
-557.471	-200.000	-0.049	0.299
-556.456	-141.604	0.185	0.019
-555.442	33.417	0.148	-0.129
-554.427	-164.591	-0.170	0.008
-553.412	-200.000	0.005	-0.141
-552.398	138.694	-0.127	0.168
-551.383	103.123	0.241	0.283
-550.369	83.962	0.103	0.113
-549.354	9.304	-0.130	0.098
-548.339	-40.710	-0.376	0.195
-547.325	-78.878	-0.258	-0.088
-546.310	-99.976	-0.265	-0.066
-545.296	146.409	0.208	0.280
-544.281	-97.834	-0.321	0.083
-543.266	99.833	-0.177	0.205
-542.252	-200.000	-0.018	-0.152
-541.237	8.253	0.281	-0.211
-540.223	26.945	-0.116	-0.098
-539.208	430.224	0.116	0.250
-538.193	800.000	-0.049	-0.205
-537.179	-156.914	-0.155	0.010
-536.164	331.485	0.034	0.066
-535.150	-191.683	0.233	-0.002
-534.135	-6.146	0.165	0.113
-533.121	-85.817	-0.036	0.011
-532.106	26.653	0.113	0.095
-531.091	18.373	0.272	0.218
-530.077	-21.197	-0.415	-0.254
-529.062	800.000	-0.061	-0.182
-528.048	114.623	0.087	-0.106
-527.033	-200.000	-0.005	-0.081
-526.018	800.000	-0.083	0.259
-525.004	72.342	-0.166	0.173
-523.989	169.297	-0.016	-0.023
-522.975	44.343	-0.259	0.238
-521.960	87.885	-0.136	-0.151
-520.945	-156.794	0.401	-0.025
-519.931	19.588	-0.259	-0.209
-518.916	518.625	-0.058	0.135
-517.902	473.953	0.053	0.120
-516.887	-127.630	-0.307	0.045
-515.872	-200.000	-0.015	0.127
-514.858	-200.000	-0.026	0.122
-513.843	263.061	0.043	0.075
-512.829	-83.141	0.401	0.129
-511.814	195.242	-0.162	-0.246
-510.799	-89.898	-0.520	-0.152
-509.785	29.703	-0.141	0.120
-508.770	800.000	-0.027	0.103
-507.756	64.317	-0.048	-0.049
-506.741	-188.737	0.165	-0.002
-505.726	96.476	0.176	0.201
-504.712	601.084	0.024	0.059
-503.697	-44.677	0.206	-0.103
-502.683	581.680	0.205	0.503
-501.668	-52.511	0.044	-0.020
-500.653	-200.000	0.042	0.419
-499.639	-50.965	0.111	0.052
-498.624	19.108	-0.236	0.189
-497.610	23.874	0.094	-0.078
-496.595	248.508	-0.262	0.444
-495.581	-200.000	-0.044	0.000
-494.566	-53.933	-0.239	0.109
-493.551	41.842	-0.041	0.037
-492.537	-200.000	-0.019	-0.085
-491.522	114.191	0.163	0.198
-490.508	-86.265	0.066	0.020
-489.493	800.000	-0.016	-0.060
-488.478	196.120	-0.021	-0.032
-487.464	-88.205	-0.213	-0.064
-486.449	-79.193	-0.060	0.020
-485.435	-110.558	-0.125	0.026
-484.420	-200.000	-0.006	0.391
-483.405	-200.000	0.005	0.163
-482.391	-142.464	-0.347	-0.034
-481.376	110.226	-0.111	0.133
-480.362	-200.000	0.236	0.000
-479.347	-12.175	0.237	0.155
-478.332	-119.766	-0.031	0.005
-477.318	398.257	0.101	-0.212
-476.303	-25.274	-0.322	0.190
-475.289	-200.000	0.010	-0.130
-474.274	-108.073	-0.217	-0.047
-473.259	800.000	-0.016	0.071
-472.245	-90.610	0.454	-0.131
-471.230	-63.608	0.111	0.045
-470.216	94.691	0.015	0.017
-469.201	-140.890	0.121	-0.012
-468.186	-44.339	0.158	0.079
-467.172	300.556	-0.113	-0.209
-466.157	23.416	-0.230	0.189
-465.143	-168.738	-0.204	-0.008
-464.128	-110.837	0.258	-0.053
-463.113	94.394	-0.285	0.324
-462.099	-38.589	-0.218	-0.115
-461.084	789.399	0.046	-0.127
-460.070	-97.789	0.294	-0.076
-459.055	800.000	-0.069	0.302
-458.040	497.400	0.112	-0.257
-457.026	-169.252	-0.237	-0.009
-456.011	-155.620	0.239	0.015
-454.997	-64.525	-0.467	0.189
-453.982	109.911	-0.340	-0.408
-452.968	15.353	0.434	-0.340
-451.953	47.491	-0.151	-0.140
-450.938	168.779	-0.006	-0.009
-449.924	-112.527	-0.616	-0.123
-448.909	-104.770	0.233	0.054
-447.895	-200.000	-0.010	-0.625
-446.880	109.633	-0.173	-0.207
-445.865	223.727	-0.069	0.112
-444.851	-179.785	-0.097	0.002
-443.836	24.404	-0.073	-0.060
-442.822	-119.010	-0.389	0.068
-441.807	-101.119	0.199	0.049
-440.792	-80.010	0.243	0.081
-439.778	-87.485	-0.402	-0.121
-438.763	-200.000	0.037	-0.329
-437.749	370.885	-0.100	-0.201
-436.734	-200.000	-0.005	-0.051
-435.719	-10.729	0.284	0.187
-434.705	800.000	-0.070	0.293
-433.690	139.980	0.188	0.247
-432.676	-101.577	0.173	-0.042
-431.661	800.000	-0.024	0.083
-430.646	141.365	0.137	0.181
-429.632	31.243	0.240	-0.206
-428.617	761.106	0.045	-0.121
-427.603	-56.446	-0.185	0.082
-426.588	-200.000	-0.014	-0.245
-425.573	-102.833	-0.048	-0.011
-424.559	-200.000	0.011	0.136
-423.544	217.770	0.073	0.116
-422.530	-49.327	-0.153	-0.073
-421.515	800.000	0.048	-0.150
-420.500	-140.028	0.230	0.024
-419.486	-9.933	-0.142	-0.094
-418.471	-125.617	0.273	-0.041
-417.457	58.306	-0.182	0.178
-416.442	-144.802	-0.039	0.004
-415.428	439.898	-0.137	-0.299
-414.413	-10.455	-0.130	-0.086
-413.398	-141.515	-0.047	-0.005
-412.384	-200.000	0.015	0.150
-411.369	96.525	0.189	-0.216
-410.355	196.139	0.069	0.105
-409.340	7.150	-0.148	-0.110
-408.325	-26.355	0.163	-0.096
-407.311	-200.000	0.011	-0.290
-406.296	-14.001	-0.075	0.048
-405.282	-200.000	0.062	-0.283
-404.267	26.994	0.049	-0.041
-403.252	-122.057	0.358	0.059
-402.238	52.279	-0.124	-0.118
-401.223	-200.000	-0.051	-0.317
-400.209	213.471	-0.061	-0.096
-399.194	13.327	0.277	0.214
-398.179	-200.000	0.006	-0.119
-397.165	-128.158	0.127	-0.018
-396.150	94.286	0.151	-0.171
-395.136	-94.444	0.219	0.059
-394.121	-200.000	-0.011	0.227
-393.106	-7.538	0.293	0.198
-392.092	24.327	0.310	0.255
-391.077	-136.783	-0.347	0.040
-390.063	10.720	-0.112	0.085
-389.048	47.048	-0.303	-0.281
-388.033	-114.658	-0.329	-0.063
-387.019	499.118	-0.094	0.215
-386.004	276.133	-0.023	-0.041
-384.990	800.000	-0.053	0.193
-383.975	115.844	0.061	-0.074
-382.960	800.000	0.035	-0.133
-381.946	711.750	-0.041	-0.107
-380.931	-175.699	0.351	0.009
-379.917	-128.815	0.268	0.038
-378.902	-94.557	0.013	0.004
-377.888	67.265	0.044	-0.045
-376.873	-74.360	-0.076	0.027
-375.858	-130.831	-0.166	0.022
-374.844	351.530	-0.054	0.107
-373.829	-46.263	0.186	-0.091
-372.815	479.522	0.113	-0.254
-371.800	16.586	-0.157	0.123
-370.785	-200.000	0.059	0.323
-369.771	39.374	0.131	-0.117
-368.756	30.619	-0.160	-0.136
-367.742	-1.502	0.091	0.064
-366.727	43.781	-0.147	-0.134
-365.712	-200.000	0.050	0.251
-364.698	36.294	-0.140	-0.123
-363.683	52.986	-0.094	-0.090
-362.669	-176.704	0.150	-0.004
-361.654	70.337	0.259	0.266
-360.639	206.912	0.068	0.105
-359.625	-95.533	0.299	0.080
-358.610	25.618	0.056	0.047
-357.596	446.350	0.079	-0.172
-356.581	-134.207	0.314	0.038
-355.566	24.671	-0.282	-0.232
-354.552	-200.000	0.018	-0.272
-353.537	-109.303	0.158	-0.033
-352.523	-200.000	-0.009	-0.119
-351.508	35.002	0.068	-0.059
-350.493	-200.000	0.011	0.092
-349.479	64.962	-0.126	-0.126
-348.464	-102.179	-0.367	-0.088
-347.450	-27.923	0.184	0.106
-346.435	-200.000	0.008	-0.142
-345.420	-67.630	-0.316	0.123
-344.406	-180.886	-0.209	0.004
-343.391	-184.887	-0.075	0.001
-342.377	-61.202	-0.075	-0.031
-341.362	161.909	-0.156	0.217
-340.348	407.649	-0.012	-0.026
-339.333	13.706	-0.116	0.090
-338.318	170.477	-0.109	-0.154
-337.304	-200.000	-0.025	-0.161
-336.289	37.006	-0.100	-0.088
-335.275	800.000	-0.033	0.139
-334.260	-46.461	0.122	0.060
-333.245	-200.000	-0.024	0.265
-332.231	493.476	0.054	0.123
-331.216	12.178	0.328	0.251
-330.202	370.320	0.107	0.215
-329.187	-200.000	-0.010	-0.121
-328.172	-136.933	0.121	-0.014
-327.158	-137.093	-0.243	0.028
-326.143	-151.028	-0.086	-0.006
-325.129	144.758	0.058	-0.077
-324.114	-27.542	-0.302	-0.174
-323.099	-165.688	-0.128	-0.005
-322.085	-135.219	0.144	0.017
-321.070	-51.432	-0.125	0.058
-320.056	-134.457	-0.114	0.014
-319.041	134.818	-0.169	0.218
-318.026	702.951	0.062	0.163
-317.012	-104.042	0.245	0.057
-315.997	16.357	-0.234	0.184
-314.983	-76.633	-0.098	0.034
-313.968	-192.058	-0.149	-0.001
-312.953	402.707	-0.113	0.236
-311.939	16.265	0.118	0.092
-310.924	-200.000	-0.016	0.140
-309.910	-12.067	-0.115	-0.075
-308.895	-200.000	-0.025	-0.258
-307.880	-19.801	0.115	-0.071
-306.866	537.253	0.154	0.364
-305.851	577.346	0.091	-0.222
-304.837	167.739	0.383	-0.540
-303.822	100.690	-0.131	-0.151
-302.807	-200.000	-0.023	-0.139
-301.793	366.637	-0.159	0.319
-300.778	-147.175	-0.464	-0.039
-299.764	112.264	-0.126	0.152
-298.749	33.738	-0.163	-0.141
-297.735	-67.749	-0.302	-0.117
-296.720	-200.000	0.052	0.226
-295.705	-150.005	0.206	0.016
-294.691	-123.828	0.105	-0.016
-293.676	577.531	-0.073	0.176
-292.662	-59.664	-0.083	-0.035
-291.647	-63.606	0.217	0.088
-290.632	-139.072	-0.227	-0.024
-289.618	-200.000	0.047	-0.221
-288.603	-200.000	0.053	-0.364
-287.589	-47.153	-0.483	-0.234
-286.574	-158.911	0.258	0.015
-285.559	94.462	-0.134	-0.151
-284.545	21.688	-0.051	0.041
-283.530	-96.864	0.328	-0.086
-282.516	-200.000	0.009	-0.117
-281.501	-6.898	-0.266	-0.179
-280.486	49.566	-0.180	0.168
-279.472	-200.000	0.013	-0.183
-278.457	-121.698	-0.042	0.007
-277.443	688.442	-0.080	0.208
-276.428	252.960	-0.142	0.240
-275.413	41.615	-0.223	0.200
-274.399	-31.934	-0.257	0.143
-273.384	-122.072	0.132	-0.021
-272.370	357.214	0.133	0.263
-271.355	-24.331	0.207	0.123
-270.340	14.747	-0.091	-0.071
-269.326	-65.627	0.059	0.023
-268.311	-200.000	-0.019	0.212
-267.297	-200.000	-0.023	-0.331
-266.282	-200.000	-0.003	0.217
-265.267	-84.657	-0.206	-0.064
-264.253	-116.183	0.269	-0.050
-263.238	-94.227	0.187	-0.051
-262.224	169.336	-0.039	-0.055
-261.209	26.467	0.270	0.224
-260.195	-72.624	-0.097	-0.036
-259.180	79.698	0.150	0.159
-258.165	-152.909	0.171	-0.012
-257.151	385.475	-0.183	-0.373
-256.136	249.066	-0.171	-0.286
-255.122	693.376	-0.096	0.250
-254.107	16.641	0.137	-0.107
-253.092	-74.140	-0.166	0.060
-252.078	-97.983	-0.196	0.050
-251.063	800.000	-0.054	0.204
-250.049	-45.760	0.242	0.118
-249.034	741.287	-0.053	0.140
-248.019	-119.293	0.356	0.061
-247.005	-31.238	0.075	0.042
-245.990	173.067	-0.075	-0.107
-244.976	-163.196	-0.142	-0.007
-243.961	219.189	-0.086	-0.135
-242.946	19.009	-0.457	-0.363
-241.932	-39.342	-0.066	-0.034
-240.917	714.301	-0.087	0.229
-239.903	-42.437	0.176	0.089
-238.888	-119.898	0.394	-0.067
-237.873	-88.364	0.414	-0.122
-236.859	-200.000	-0.029	0.220
-235.844	75.177	0.067	0.070
-234.830	-142.064	-0.207	-0.020
-233.815	353.327	-0.083	0.163
-232.800	800.000	0.068	0.212
-231.786	52.830	0.214	-0.202
-230.771	8.637	-0.092	-0.069
-229.757	-16.430	0.275	-0.173
-228.742	62.480	0.069	-0.068
-227.727	-64.533	-0.129	0.052
-226.713	-200.000	-0.019	-0.182
-225.698	145.909	0.259	-0.343
-224.684	-74.639	0.112	0.040
-223.669	27.717	-0.346	-0.288
-222.655	232.738	-0.041	0.067
-221.640	291.475	0.111	0.200
-220.625	47.387	0.069	-0.063
-219.611	543.079	-0.108	-0.255
-218.596	-200.000	-0.006	-0.230
-217.582	-155.484	0.253	0.016
-216.567	-200.000	-0.011	-0.080
-215.552	-83.483	-0.091	-0.029
-214.538	-118.006	0.087	0.015
-213.523	452.109	-0.030	0.066
-212.509	800.000	-0.047	0.182
-211.494	8.716	0.223	-0.166
-210.479	-83.329	-0.195	-0.062
-209.465	-147.990	0.182	-0.015
-208.450	-122.003	0.207	0.034
-207.436	-91.787	-0.371	-0.104
-206.421	-35.542	-0.094	0.051
-205.406	-115.094	0.300	0.056
-204.392	323.994	0.141	-0.266
-203.377	-200.000	0.050	-0.267
-202.363	86.150	-0.118	-0.129
-201.348	-61.538	0.298	-0.124
-200.333	784.151	-0.064	0.174
-199.319	245.317	-0.053	-0.089
-198.304	-144.717	-0.177	0.016
-197.290	61.185	-0.142	-0.140
-196.275	800.000	0.018	-0.058
-195.260	288.009	0.054	-0.096
-194.246	90.545	0.028	0.031
-193.231	67.619	0.230	0.232
-192.217	-139.169	-0.291	0.031
-191.202	1.970	-0.099	0.071
-190.187	-200.000	0.015	-0.293
-189.173	800.000	-0.066	-0.184
-188.158	-52.426	-0.035	0.016
-187.144	497.002	-0.114	0.259
-186.129	309.492	-0.066	0.121
-185.114	-56.712	0.246	0.108
-184.100	-200.000	-0.021	0.126
-183.085	-13.354	0.211	-0.135
-182.071	24.878	0.036	0.030
-181.056	154.344	-0.148	0.200
-180.042	104.313	0.208	-0.242
-179.027	-32.373	0.073	0.040
-178.012	-66.147	0.318	-0.125
-176.998	-65.368	0.041	0.016
-175.983	4.990	-0.215	-0.156
-174.969	-101.135	0.168	-0.041
-173.954	800.000	0.080	0.255
-172.939	800.000	-0.033	0.140
-171.925	-200.000	0.012	-0.148
-170.910	174.974	-0.055	0.079
-169.896	-137.837	-0.243	0.027
-168.881	144.434	-0.119	-0.156
-167.866	-67.617	0.157	-0.061
-166.852	-200.000	-0.058	0.291
-165.837	-67.693	-0.302	-0.117
-164.823	754.769	0.096	-0.257
-163.808	-0.971	-0.141	0.099
-162.793	462.364	-0.086	0.190
-161.779	45.712	-0.119	0.109
-160.764	-137.120	0.299	0.034
-159.750	-200.000	-0.085	-0.392
-158.735	-92.125	0.157	0.044
-157.720	-200.000	-0.092	0.433
-156.706	299.223	-0.037	-0.066
-155.691	81.156	0.150	0.160
-154.677	65.465	-0.163	0.163
-153.662	351.318	-0.039	-0.077
-152.647	-50.736	-0.261	-0.121
-151.633	379.892	-0.164	0.331
-150.618	127.728	-0.104	-0.130
-149.604	-59.164	0.193	-0.082
-148.589	-37.721	-0.281	0.147
-147.574	800.000	-0.070	0.204
-146.560	368.860	0.060	-0.119
-145.545	-200.000	-0.007	0.132
-144.531	-106.534	0.303	0.067
-143.516	800.000	-0.021	-0.080
-142.502	295.203	-0.086	0.155
-141.487	130.728	-0.330	0.417
-140.472	-75.227	-0.035	0.012
-139.458	800.000	-0.061	-0.189
-138.443	21.708	-0.211	-0.170
-137.429	95.819	-0.106	-0.119
-136.414	248.349	0.057	0.095
-135.399	-47.560	0.113	0.054
-134.385	-112.943	0.173	-0.034
-133.370	113.224	0.063	0.076
-132.356	6.335	-0.156	0.114
-131.341	-153.753	0.190	-0.013
-130.326	3.186	0.161	0.116
-129.312	-148.266	0.127	0.010
-128.297	-200.000	0.023	0.218
-127.283	-200.000	-0.027	0.366
-126.268	-17.558	0.772	0.479
-125.253	-200.000	0.037	0.274
-124.239	-200.000	-0.016	0.175
-123.224	17.252	-0.058	0.046
-122.210	1.366	-0.138	0.097
-121.195	-104.177	-0.176	-0.040
