DTS Sentinel unit serial number:	SN413079Multiplexer serial number:	ORYXHardware model number:	OX4-SRSoftware version number:	ORYX F/W v4.00 Oryx Data Collector v3.7.2.0data status	okinstallation	princeton_trtdifferential loss correction	single-endedforward channel	channel 2reverse channel	N/Adate	2019/09/15time	13:59:35forward acquisition time	60.00reverse acquisition time	0.00gamma	496.2192k internal	0.2302k external	0.2302temperature offset calibration	0.9996default loss term (dB/km)	0.3790temperature slope calibration	1.0000multiplexer offset coefficient	1.0000multiplexer slope coefficient	1.0000fibre end	0.00T internal ref (°C)	38.44T ext. ref 1 (°C)	4.97T ext. ref 2 (°C)	35.17length (m)	temperature (°C)	Stokes	anti-Stokes-747.200	92.518	-0.014	0.017
-746.185	800.000	0.078	0.271
-745.171	-182.330	-0.281	0.005
-744.156	146.570	-0.146	-0.200
-743.142	-161.331	0.344	-0.018
-742.127	-46.236	-0.611	0.306
-741.112	800.000	-0.066	0.282
-740.098	-200.000	0.008	0.392
-739.083	75.329	-0.150	0.161
-738.069	270.295	-0.063	0.113
-737.054	-83.310	-0.270	0.088
-736.039	309.282	0.131	0.250
-735.025	382.964	-0.100	0.210
-734.010	800.000	-0.078	-0.268
-732.996	446.754	-0.077	0.172
-731.981	439.463	-0.108	-0.240
-730.966	-62.376	-0.199	0.084
-729.952	-200.000	-0.025	-0.339
-728.937	-97.616	-0.095	-0.025
-727.923	-72.182	-0.228	0.086
-726.908	800.000	0.053	-0.218
-725.894	-44.707	-0.235	0.120
-724.879	-0.283	-0.102	-0.074
-723.864	800.000	-0.082	-0.301
-722.850	85.058	0.174	-0.194
-721.835	503.142	-0.061	-0.143
-720.821	-200.000	-0.041	-0.283
-719.806	-35.748	0.248	0.137
-718.791	800.000	-0.075	-0.252
-717.777	-200.000	0.021	-0.139
-716.762	229.292	-0.047	-0.078
-715.748	433.014	-0.159	-0.352
-714.733	6.781	-0.275	-0.208
-713.718	-12.594	-0.317	-0.210
-712.704	-80.294	-0.221	-0.075
-711.689	382.354	-0.061	-0.128
-710.675	-200.000	-0.021	0.210
-709.660	-19.192	-0.054	-0.034
-708.645	-129.105	-0.266	-0.038
-707.631	142.476	0.254	-0.343
-706.616	-19.993	0.156	-0.098
-705.602	485.017	-0.035	-0.080
-704.587	-145.476	-0.053	0.005
-703.572	304.939	0.152	-0.288
-702.558	106.971	0.174	-0.210
-701.543	-6.660	0.130	-0.090
-700.529	-77.200	0.315	0.112
-699.514	-43.330	-0.089	0.046
-698.499	-48.755	0.050	0.025
-697.485	34.743	0.107	0.096
-696.470	428.562	0.115	0.254
-695.456	139.350	0.089	0.119
-694.441	129.263	-0.246	-0.319
-693.426	-200.000	0.038	0.284
-692.412	-200.000	-0.091	0.469
-691.397	153.030	0.138	-0.192
-690.383	-118.794	-0.128	-0.023
-689.368	800.000	-0.040	-0.167
-688.354	153.624	0.052	0.073
-687.339	191.870	-0.084	-0.129
-686.324	259.970	-0.037	-0.066
-685.310	412.558	0.148	0.320
-684.295	-141.702	-0.144	-0.015
-683.281	-74.945	-0.251	0.091
-682.266	39.058	-0.173	0.158
-681.251	-200.000	0.046	0.267
-680.237	-97.951	0.269	0.071
-679.222	-200.000	0.007	-0.073
-678.208	-3.620	0.292	0.206
-677.193	-175.075	-0.235	0.007
-676.178	395.101	-0.014	0.030
-675.164	-35.897	-0.123	0.067
-674.149	-126.254	-0.058	-0.009
-673.135	71.063	0.202	-0.213
-672.120	-158.946	0.270	0.016
-671.105	261.460	0.185	-0.325
-670.091	258.069	-0.096	-0.168
-669.076	-4.060	0.289	-0.203
-668.062	36.444	0.237	0.213
-667.047	800.000	-0.039	-0.172
-666.032	367.870	-0.184	0.378
-665.018	800.000	-0.091	-0.281
-664.003	800.000	0.094	0.386
-662.989	-68.884	-0.409	0.160
-661.974	-200.000	0.032	0.184
-660.959	774.854	-0.070	-0.194
-659.945	-6.887	0.174	0.120
-658.930	-44.905	0.326	-0.165
-657.916	-105.703	-0.226	-0.052
-656.901	-39.402	0.033	-0.018
-655.886	-109.759	-0.252	-0.054
-654.872	-141.600	0.090	-0.009
-653.857	-200.000	-0.007	-0.056
-652.843	-126.167	-0.288	-0.044
-651.828	-19.441	0.242	-0.152
-650.814	103.175	-0.099	0.118
-649.799	3.414	-0.173	0.128
-648.784	409.048	0.130	0.280
-647.770	-200.000	0.016	-0.141
-646.755	800.000	-0.032	0.117
-645.741	3.783	-0.103	-0.077
-644.726	-115.925	0.216	0.041
-643.711	-163.641	-0.207	0.010
-642.697	-131.194	0.219	-0.030
-641.682	478.906	-0.063	0.144
-640.668	127.796	0.160	0.206
-639.653	800.000	0.112	-0.334
-638.638	246.760	-0.100	0.171
-637.624	784.559	0.054	-0.151
-636.609	-154.052	0.410	-0.028
-635.595	-175.851	-0.236	-0.006
-634.580	-200.000	0.098	-0.502
-633.565	323.922	-0.060	0.117
-632.551	-77.302	-0.093	-0.033
-631.536	-65.016	0.464	0.190
-630.522	-200.000	-0.028	0.315
-629.507	-200.000	-0.003	0.248
-628.492	-111.703	-0.344	0.071
-627.478	46.688	0.186	-0.175
-626.463	-57.045	0.125	-0.056
-625.449	70.002	-0.353	-0.369
-624.434	357.415	-0.234	0.474
-623.419	-200.000	0.035	-0.243
-622.405	-100.886	-0.284	-0.071
-621.390	72.836	0.079	-0.084
-620.376	130.720	0.146	-0.190
-619.361	800.000	0.063	0.265
-618.346	-101.332	-0.119	-0.029
-617.332	93.500	-0.230	-0.264
-616.317	800.000	0.031	0.119
-615.303	-47.776	0.124	-0.061
-614.288	65.226	-0.042	-0.043
-613.273	-200.000	0.023	0.220
-612.259	713.149	0.062	-0.165
-611.244	800.000	-0.088	-0.295
-610.230	-200.000	-0.037	-0.210
-609.215	80.584	-0.040	-0.044
-608.201	-200.000	0.013	-0.219
-607.186	128.808	-0.159	-0.205
-606.171	163.716	-0.099	-0.141
-605.157	-14.053	0.142	0.093
-604.142	90.421	0.099	-0.112
-603.128	108.170	0.141	-0.170
-602.113	247.235	0.112	-0.191
-601.098	-200.000	0.046	0.287
-600.084	53.845	-0.114	0.111
-599.069	-200.000	0.003	-0.077
-598.055	-85.773	0.110	0.035
-597.040	-19.799	-0.193	0.121
-596.025	191.566	-0.162	-0.248
-595.011	-200.000	0.046	0.272
-593.996	153.505	-0.175	-0.243
-592.982	23.519	0.248	-0.207
-591.967	260.985	0.037	-0.065
-590.952	-40.974	0.098	0.051
-589.938	236.416	-0.105	-0.176
-588.923	108.501	-0.237	-0.286
-587.909	273.312	-0.016	0.028
-586.894	-148.434	0.132	0.011
-585.879	-175.971	-0.062	-0.002
-584.865	68.994	-0.223	-0.232
-583.850	97.182	-0.285	-0.331
-582.836	5.082	0.261	0.195
-581.821	-110.488	-0.300	-0.063
-580.806	800.000	-0.046	-0.164
-579.792	767.384	-0.012	-0.032
-578.777	800.000	-0.046	-0.191
-577.763	372.016	-0.020	0.041
-576.748	-67.864	-0.155	0.061
-575.733	800.000	-0.021	0.087
-574.719	41.144	-0.236	0.216
-573.704	-32.072	-0.013	0.007
-572.690	134.670	-0.128	-0.168
-571.675	370.535	0.189	-0.387
-570.661	41.778	-0.226	0.207
-569.646	-183.100	-0.371	0.007
-568.631	-200.000	-0.012	0.213
-567.617	587.720	-0.056	-0.141
-566.602	-72.467	-0.100	0.037
-565.588	800.000	-0.089	0.299
-564.573	-16.166	0.196	-0.126
-563.558	252.199	-0.163	0.281
-562.544	-58.988	-0.258	0.113
-561.529	800.000	-0.050	-0.169
-560.515	-200.000	-0.038	-0.273
-559.500	-200.000	0.000	0.224
-558.485	-113.525	-0.307	0.061
-557.471	-200.000	0.008	-0.212
-556.456	-90.244	0.453	-0.133
-555.442	-200.000	0.122	-0.545
-554.427	-46.387	-0.238	-0.118
-553.412	-56.122	-0.173	0.078
-552.398	-200.000	-0.032	0.324
-551.383	-141.568	-0.136	0.014
-550.369	307.549	0.106	0.199
-549.354	260.647	-0.110	0.192
-548.339	318.522	-0.094	-0.180
-547.325	-149.470	0.237	0.019
-546.310	800.000	0.069	-0.263
-545.296	800.000	-0.080	-0.226
-544.281	-20.251	0.060	-0.037
-543.266	-93.640	0.127	-0.036
-542.252	782.824	0.039	-0.108
-541.237	-126.148	-0.099	-0.015
-540.223	36.942	-0.142	-0.127
-539.208	-11.133	0.026	-0.017
-538.193	79.584	-0.063	-0.068
-537.179	-151.690	-0.368	0.027
-536.164	46.912	0.265	0.249
-535.150	14.173	-0.148	-0.117
-534.135	51.756	0.297	0.285
-533.121	-200.000	-0.027	0.145
-532.106	800.000	0.037	-0.128
-531.091	33.464	-0.039	-0.034
-530.077	-200.000	0.034	-0.219
-529.062	-73.459	-0.279	-0.103
-528.048	-54.095	-0.169	-0.078
-527.033	-82.805	0.155	-0.051
-526.018	453.782	0.053	-0.119
-525.004	-23.014	0.192	-0.117
-523.989	346.673	-0.165	-0.329
-522.975	800.000	-0.056	-0.178
-521.960	-29.675	0.062	-0.036
-520.945	-11.782	-0.116	-0.077
-519.931	-86.215	0.133	-0.041
-518.916	-200.000	-0.026	0.227
-517.902	-200.000	-0.047	0.235
-516.887	-200.000	0.004	-0.092
-515.872	211.388	0.151	-0.240
-514.858	160.473	-0.085	-0.120
-513.843	-25.121	-0.063	-0.037
-512.829	-200.000	0.006	0.103
-511.814	-17.663	0.161	0.102
-510.799	-200.000	0.056	0.413
-509.785	-200.000	0.015	-0.150
-508.770	-137.884	-0.409	0.046
-507.756	-38.878	-0.211	-0.112
-506.741	132.762	-0.156	-0.203
-505.726	-200.000	-0.020	0.109
-504.712	279.362	0.104	0.188
-503.697	474.180	-0.090	0.205
-502.683	-200.000	0.046	0.246
-501.668	-131.795	0.114	0.015
-500.653	-200.000	0.070	0.437
-499.639	-60.634	0.107	-0.046
-498.624	-200.000	0.032	-0.222
-497.610	547.409	0.014	-0.034
-496.595	33.622	-0.092	0.081
-495.581	411.481	0.060	-0.129
-494.566	-114.328	-0.106	-0.021
-493.551	-146.822	-0.205	0.018
-492.537	-53.187	0.148	0.069
-491.522	26.911	0.350	0.296
-490.508	-47.211	-0.230	-0.113
-489.493	69.994	0.171	0.178
-488.478	75.321	-0.253	0.270
-487.464	-93.436	0.242	-0.068
-486.449	178.581	0.065	0.095
-485.435	-32.668	0.372	0.209
-484.420	-200.000	0.054	-0.309
-483.405	178.405	-0.063	0.093
-482.391	-151.844	-0.211	-0.016
-481.376	-57.646	0.043	-0.019
-480.362	-95.846	0.362	0.098
-479.347	267.487	0.054	0.095
-478.332	-17.546	-0.071	-0.045
-477.318	-200.000	-0.005	0.172
-476.303	-53.865	0.259	0.119
-475.289	-109.033	-0.357	-0.077
-474.274	111.070	-0.054	0.065
-473.259	-102.977	-0.276	0.066
-472.245	-156.981	-0.243	0.015
-471.230	235.695	-0.080	-0.133
-470.216	-200.000	-0.068	0.358
-469.201	-123.933	0.274	-0.044
-468.186	-41.824	0.216	-0.112
-467.172	3.941	0.120	-0.088
-466.157	104.180	0.176	-0.209
-465.143	-84.860	-0.326	-0.103
-464.128	63.205	-0.075	-0.075
-463.113	299.601	-0.084	-0.155
-462.099	-39.543	-0.145	-0.076
-461.084	538.375	0.092	0.222
-460.070	-18.287	0.129	-0.081
-459.055	30.456	-0.362	-0.312
-458.040	-107.463	0.268	-0.059
-457.026	-112.329	0.248	-0.050
-456.011	-15.404	0.241	-0.155
-454.997	-102.383	-0.327	-0.079
-453.982	-87.421	-0.145	-0.044
-452.968	-200.000	0.067	-0.398
-451.953	78.484	0.189	-0.204
-450.938	-17.547	0.280	0.177
-449.924	-200.000	-0.028	0.245
-448.909	-200.000	0.016	-0.190
-447.895	-200.000	0.031	-0.148
-446.880	-139.419	0.186	-0.020
-445.865	213.916	-0.183	0.292
-444.851	42.535	-0.090	0.082
-443.836	-200.000	-0.004	0.273
-442.822	526.170	0.178	-0.422
-441.807	189.836	0.150	-0.227
-440.792	-200.000	-0.021	-0.141
-439.778	-61.791	-0.022	-0.009
-438.763	221.508	-0.061	0.099
-437.749	-200.000	0.045	-0.240
-436.734	133.144	-0.180	0.234
-435.719	-117.426	0.144	-0.026
-434.705	171.750	-0.034	-0.049
-433.690	65.365	0.051	-0.052
-432.676	-200.000	-0.020	-0.293
-431.661	-132.350	0.200	-0.026
-430.646	-14.351	-0.216	-0.140
-429.632	260.444	-0.095	0.165
-428.617	51.928	-0.180	0.172
-427.603	-59.020	0.167	-0.073
-426.588	-106.784	-0.122	-0.027
-425.573	179.251	0.167	0.246
-424.559	513.089	-0.072	-0.170
-423.544	-200.000	-0.009	-0.171
-422.530	-81.337	-0.245	0.081
-421.515	69.647	0.141	0.146
-420.500	-96.287	-0.390	0.104
-419.486	-200.000	-0.033	-0.177
-418.471	333.113	-0.048	0.092
-417.457	531.832	0.098	-0.232
-416.442	-127.117	-0.320	0.047
-415.428	-84.188	0.049	-0.016
-414.413	444.213	0.077	-0.169
-413.398	46.456	-0.268	-0.250
-412.384	-49.224	-0.027	-0.013
-411.369	-101.034	-0.369	-0.091
-410.355	-11.713	-0.351	0.231
-409.340	-88.584	-0.264	0.079
-408.325	32.303	-0.081	-0.071
-407.311	-200.000	0.011	0.202
-406.296	800.000	0.070	0.214
-405.282	-37.298	0.087	0.047
-404.267	756.915	0.005	-0.014
-403.252	-200.000	0.025	-0.319
-402.238	84.522	0.230	-0.253
-401.223	-68.568	0.273	-0.106
-400.209	-79.204	0.139	-0.048
-399.194	84.629	0.118	0.130
-398.179	57.986	-0.279	0.275
-397.165	-99.599	0.121	-0.031
-396.150	-99.922	0.096	-0.024
-395.136	39.407	-0.157	0.141
-394.121	-115.076	0.098	0.019
-393.106	-200.000	0.012	-0.075
-392.092	-200.000	0.053	0.362
-391.077	-65.309	-0.470	0.190
-390.063	-140.635	0.053	-0.006
-389.048	-128.196	-0.100	-0.014
-388.033	-69.885	-0.094	-0.036
-387.019	106.185	-0.171	0.203
-386.004	332.824	0.156	0.302
-384.990	-200.000	-0.028	0.238
-383.975	347.583	0.102	-0.203
-382.960	-200.000	-0.005	-0.090
-381.946	-110.977	0.263	-0.054
-380.931	291.904	0.063	0.116
-379.917	-41.968	0.041	0.021
-378.902	-61.094	-0.088	-0.037
-377.888	-107.026	-0.134	0.030
-376.873	-200.000	-0.045	0.273
-375.858	30.676	-0.189	0.162
-374.844	175.016	-0.010	-0.014
-373.829	-200.000	-0.019	-0.122
-372.815	-200.000	-0.044	-0.270
-371.800	-63.359	0.289	-0.119
-370.785	-50.786	0.127	0.060
-369.771	-200.000	-0.000	-0.085
-368.756	800.000	-0.068	0.190
-367.742	800.000	0.018	-0.067
-366.727	-16.405	0.153	-0.097
-365.712	-17.973	0.192	0.121
-364.698	123.252	0.168	-0.211
-363.683	13.669	0.197	-0.154
-362.669	-54.990	-0.177	-0.080
-361.654	173.143	0.226	0.327
-360.639	-7.707	-0.061	-0.041
-359.625	-93.215	-0.128	0.036
-358.610	-141.165	0.276	-0.028
-357.596	38.371	-0.032	0.028
-356.581	800.000	0.062	0.250
-355.566	-133.458	-0.104	-0.013
-354.552	-200.000	-0.007	-0.190
-353.537	557.348	0.087	-0.210
-352.523	800.000	0.054	-0.201
-351.508	-54.951	-0.199	0.090
-350.493	-6.406	-0.141	0.096
-349.479	-1.832	-0.353	0.249
-348.464	-66.866	0.173	-0.069
-347.450	-200.000	0.039	0.186
-346.435	-90.491	0.222	-0.065
-345.420	-91.328	-0.007	0.002
-344.406	263.583	0.229	0.399
-343.391	-86.891	0.172	0.053
-342.377	56.184	-0.134	0.131
-341.362	-200.000	-0.009	0.338
-340.348	4.720	-0.140	0.103
-339.333	-200.000	0.015	0.665
-338.318	-50.344	0.195	-0.092
-337.304	183.038	-0.167	0.248
-336.289	470.640	0.091	-0.204
-335.275	-200.000	-0.044	0.206
-334.260	271.408	-0.078	-0.138
-333.245	19.239	0.131	-0.105
-332.231	-135.953	-0.154	0.018
-331.216	800.000	-0.164	0.478
-330.202	-76.974	0.134	0.047
-329.187	118.780	-0.107	-0.132
-328.172	-0.266	0.041	0.030
-327.158	-0.873	-0.224	0.159
-326.143	-200.000	-0.003	0.057
-325.129	-2.040	0.219	-0.154
-324.114	-37.633	0.315	-0.168
-323.099	175.590	-0.138	0.200
-322.085	37.282	-0.163	-0.145
-321.070	33.146	0.058	-0.051
-320.056	169.537	0.129	-0.185
-319.041	588.185	0.064	-0.157
-318.026	-35.944	-0.281	0.152
-317.012	-143.394	-0.147	-0.014
-315.997	-89.478	0.203	0.060
-314.983	-136.455	0.069	0.008
-313.968	-184.028	0.152	-0.003
-312.953	67.428	0.095	-0.097
-311.939	-24.557	-0.164	0.098
-310.924	-85.963	0.281	0.087
-309.910	370.898	0.090	0.182
-308.895	-115.516	0.160	-0.030
-307.880	97.687	-0.006	0.006
-306.866	5.489	0.236	-0.175
-305.851	141.695	0.182	0.241
-304.837	-131.077	0.147	0.020
-303.822	116.334	-0.166	0.204
-302.807	151.775	-0.055	-0.075
-301.793	-200.000	0.072	-0.412
-300.778	181.346	-0.232	0.342
-299.764	800.000	0.032	-0.117
-298.749	303.203	-0.098	0.182
-297.735	-200.000	0.026	0.272
-296.720	-200.000	0.018	-0.195
-295.705	126.047	0.119	-0.151
-294.691	68.683	0.218	0.224
-293.676	-178.906	-0.349	-0.008
-292.662	-200.000	-0.033	0.275
-291.647	244.551	-0.079	0.132
-290.632	56.534	0.128	-0.124
-289.618	-97.498	0.462	0.120
-288.603	72.797	0.132	0.138
-287.589	349.978	-0.088	-0.175
-286.574	-144.421	-0.104	0.010
-285.559	-200.000	-0.005	-0.286
-284.545	120.365	-0.092	0.114
-283.530	-50.160	-0.157	0.075
-282.516	-9.976	0.160	-0.106
-281.501	-4.976	0.142	0.098
-280.486	800.000	-0.049	-0.187
-279.472	-98.970	-0.102	-0.026
-278.457	399.090	-0.176	0.368
-277.443	-114.189	0.119	0.023
-276.428	-146.389	-0.409	-0.036
-275.413	800.000	0.090	0.364
-274.399	-200.000	-0.044	0.217
-273.384	-108.521	-0.258	-0.056
-272.370	271.270	0.036	0.064
-271.355	765.397	-0.019	0.053
-270.340	361.138	-0.107	0.214
-269.326	212.520	0.116	0.182
-268.311	-200.000	0.002	0.249
-267.297	-200.000	-0.023	0.125
-266.282	-200.000	0.027	0.169
-265.267	-119.267	0.135	-0.023
-264.253	406.373	0.030	-0.064
-263.238	228.606	0.041	-0.067
-262.224	-18.455	-0.293	0.183
-261.209	157.039	0.032	0.045
-260.195	-200.000	-0.062	-0.449
-259.180	23.676	-0.228	-0.187
-258.165	34.114	0.051	0.044
-257.151	-21.359	0.342	0.209
-256.136	-72.074	-0.100	-0.037
-255.122	495.623	-0.054	-0.124
-254.107	-6.609	0.254	0.173
-253.092	-13.627	-0.165	-0.107
-252.078	488.031	0.101	-0.230
-251.063	-130.424	0.324	-0.044
-250.049	-200.000	0.031	0.153
-249.034	-86.140	-0.249	-0.077
-248.019	-17.145	0.282	0.178
-247.005	-19.870	0.326	0.201
-245.990	424.355	0.045	0.097
-244.976	83.023	0.073	0.080
-243.961	-200.000	-0.033	-0.355
-242.946	397.307	-0.062	-0.129
-241.932	-95.550	0.274	0.073
-240.917	77.260	0.100	0.106
-239.903	44.691	-0.152	-0.140
-238.888	-121.275	0.132	0.022
-237.873	34.219	0.210	-0.183
-236.859	343.443	0.174	0.341
-235.844	-114.359	-0.625	-0.120
-234.830	800.000	-0.009	-0.037
-233.815	-99.895	0.112	-0.028
-232.800	-37.035	0.139	-0.074
-231.786	-200.000	0.007	-0.055
-230.771	409.960	-0.055	0.117
-229.757	-83.827	0.267	-0.085
-228.742	354.788	-0.108	0.214
-227.727	597.005	-0.041	-0.100
-226.713	-42.120	-0.298	-0.152
-225.698	203.942	0.088	0.135
-224.684	66.458	-0.160	-0.162
-223.669	800.000	-0.048	-0.187
-222.655	6.929	0.434	0.323
-221.640	-170.350	0.259	-0.009
-220.625	-200.000	0.001	-0.218
-219.611	260.390	0.143	-0.247
-218.596	542.892	-0.044	-0.105
-217.582	-200.000	0.006	0.387
-216.567	800.000	0.050	0.171
-215.552	-200.000	-0.019	-0.450
-214.538	35.574	0.247	0.216
-213.523	34.121	0.108	0.094
-212.509	207.965	-0.071	0.110
-211.494	140.388	-0.180	-0.237
-210.479	-200.000	-0.026	0.160
-209.465	63.721	0.284	-0.285
-208.450	66.584	-0.217	0.220
-207.436	-40.551	0.292	0.151
-206.421	-112.864	0.104	-0.021
-205.406	-41.886	0.182	0.093
-204.392	-42.647	0.072	-0.037
-203.377	800.000	0.088	-0.252
-202.363	-200.000	0.023	0.227
-201.348	-57.371	-0.266	0.117
-200.333	800.000	0.108	-0.304
-199.319	800.000	-0.013	-0.046
-198.304	-91.287	0.275	-0.079
-197.290	5.490	0.127	0.094
-196.275	-12.120	-0.318	-0.207
-195.260	-115.656	0.224	-0.042
-194.246	800.000	-0.048	-0.158
-193.231	-27.932	0.077	0.044
-192.217	-200.000	0.039	0.274
-191.202	2.102	0.073	0.053
-190.187	-100.553	0.084	-0.021
-189.173	363.662	0.094	-0.188
-188.158	300.237	0.011	0.020
-187.144	362.803	0.105	0.210
-186.129	-3.909	0.128	-0.089
-185.114	69.531	0.112	0.115
-184.100	385.969	0.053	-0.109
-183.085	-159.347	-0.040	-0.002
-182.071	-141.272	-0.104	-0.011
-181.056	-114.921	0.183	-0.035
-180.042	-200.000	-0.038	0.240
-179.027	-79.487	0.010	-0.003
-178.012	359.189	0.069	-0.137
-176.998	43.799	-0.257	0.235
-175.983	-28.290	-0.197	0.113
-174.969	-200.000	-0.004	-0.072
-173.954	17.850	-0.159	0.126
-172.939	800.000	0.067	-0.194
-171.925	532.967	0.032	-0.076
-170.910	6.229	-0.121	0.089
-169.896	-0.252	-0.208	0.147
-168.881	-49.556	-0.377	0.179
-167.866	197.809	-0.199	0.302
-166.852	160.559	0.075	0.105
-165.837	-104.371	0.229	0.053
-164.823	119.635	-0.190	-0.235
-163.808	278.678	-0.086	-0.152
-162.793	183.506	0.192	0.282
-161.779	236.700	0.090	0.148
-160.764	-200.000	0.003	-0.102
-159.750	800.000	-0.040	-0.168
-158.735	71.589	0.118	-0.122
-157.720	-161.251	0.158	-0.008
-156.706	-36.225	-0.192	0.103
-155.691	800.000	-0.004	0.013
-154.677	800.000	0.109	-0.300
-153.662	800.000	-0.037	-0.108
-152.647	429.285	-0.131	-0.282
-151.633	263.667	0.221	-0.383
-150.618	-94.109	-0.285	0.078
-149.604	-122.760	0.068	-0.011
-148.589	-12.950	-0.066	-0.043
-147.574	-112.416	0.270	-0.054
-146.560	312.698	0.085	0.159
-145.545	800.000	-0.073	0.203
-144.531	-12.787	0.324	0.210
-143.516	-200.000	0.013	0.249
-142.502	-165.935	0.156	0.007
-141.487	-124.017	-0.075	-0.012
-140.472	404.911	-0.039	-0.081
-139.458	-200.000	0.040	0.356
-138.443	-200.000	-0.006	0.436
-137.429	-154.743	0.366	0.024
-136.414	40.448	0.113	0.101
-135.399	800.000	0.075	-0.230
-134.385	136.673	-0.083	-0.108
-133.370	-7.725	-0.359	-0.241
-132.356	-171.764	0.155	-0.005
-131.341	800.000	0.091	0.330
-130.326	-35.184	0.190	0.103
-129.312	-200.000	-0.031	-0.302
-128.297	-123.436	-0.330	-0.052
-127.283	74.614	0.027	-0.028
-126.268	-200.000	-0.019	-0.095
-125.253	-76.392	0.121	-0.043
-124.239	-200.000	-0.007	0.171
-123.224	-71.004	-0.182	0.068
-122.210	-3.533	0.152	-0.105
