DTS Sentinel unit serial number:	SN413079Multiplexer serial number:	ORYXHardware model number:	OX4-SRSoftware version number:	ORYX F/W v4.00 Oryx Data Collector v3.7.2.0data status	okinstallation	princeton_trtdifferential loss correction	single-endedforward channel	channel 2reverse channel	N/Adate	2019/09/17time	18:39:34forward acquisition time	60.00reverse acquisition time	0.00gamma	496.2192k internal	0.2291k external	0.2291temperature offset calibration	0.9983default loss term (dB/km)	0.3790temperature slope calibration	1.0000multiplexer offset coefficient	1.0000multiplexer slope coefficient	1.0000fibre end	0.00T internal ref (°C)	42.61T ext. ref 1 (°C)	0.30T ext. ref 2 (°C)	34.96length (m)	temperature (°C)	Stokes	anti-Stokes-747.200	-200.000	0.009	-0.118
-746.185	-20.127	-0.439	0.277
-745.171	655.298	-0.076	0.199
-744.156	190.194	-0.132	0.202
-743.142	165.558	0.118	0.170
-742.127	800.000	-0.075	-0.212
-741.112	-200.000	-0.036	-0.204
-740.098	69.878	0.187	0.198
-739.083	587.364	0.092	0.231
-738.069	36.265	-0.386	0.348
-737.054	-200.000	-0.065	-0.357
-736.039	-71.660	-0.297	0.113
-735.025	139.004	0.098	0.132
-734.010	454.607	-0.180	-0.407
-732.996	-40.999	0.060	0.032
-731.981	-163.398	0.434	0.021
-730.966	67.245	0.171	-0.179
-729.952	-121.776	0.226	0.038
-728.937	45.268	-0.198	-0.187
-727.923	-200.000	0.024	-0.331
-726.908	-86.418	-0.335	0.105
-725.894	-9.516	-0.264	-0.180
-724.879	-27.722	-0.364	-0.216
-723.864	-136.779	0.068	-0.008
-722.850	800.000	0.074	-0.271
-721.835	103.202	-0.168	-0.202
-720.821	800.000	0.092	0.284
-719.806	-200.000	-0.028	0.394
-718.791	800.000	0.049	0.153
-717.777	264.672	-0.108	-0.193
-716.762	800.000	0.020	-0.079
-715.748	800.000	-0.035	0.104
-714.733	-56.488	-0.122	0.055
-713.718	-200.000	0.046	0.304
-712.704	-64.464	0.458	-0.190
-711.689	7.346	0.110	0.084
-710.675	184.911	-0.057	0.087
-709.660	47.557	-0.241	0.229
-708.645	148.501	0.138	0.190
-707.631	563.646	0.141	0.348
-706.616	-170.659	-0.227	0.008
-705.602	-142.652	0.364	-0.036
-704.587	63.151	0.107	-0.110
-703.572	-66.415	-0.160	-0.065
-702.558	81.891	-0.243	-0.269
-701.543	99.775	0.179	-0.212
-700.529	195.871	-0.097	-0.151
-699.514	-200.000	-0.030	0.237
-698.499	80.548	0.038	0.042
-697.485	142.552	-0.130	0.176
-696.470	-169.724	-0.148	-0.005
-695.456	-73.687	0.122	0.045
-694.441	-68.817	0.101	-0.040
-693.426	-133.639	-0.198	0.025
-692.412	-109.016	-0.075	-0.016
-691.397	-200.000	0.028	-0.180
-690.383	800.000	-0.090	0.313
-689.368	800.000	0.079	0.287
-688.354	-111.100	0.143	-0.030
-687.339	-200.000	0.003	0.020
-686.324	-134.423	-0.447	0.056
-685.310	315.580	0.075	-0.144
-684.295	-153.306	-0.243	-0.017
-683.281	800.000	-0.117	-0.402
-682.266	-57.500	0.018	-0.008
-681.251	800.000	0.049	0.199
-680.237	-21.285	0.071	-0.044
-679.222	33.654	-0.526	-0.467
-678.208	299.032	-0.072	0.136
-677.193	-51.047	0.130	-0.062
-676.178	-200.000	0.031	-0.446
-675.164	-73.620	-0.252	-0.094
-674.149	458.894	-0.119	-0.271
-673.135	-161.185	0.074	0.004
-672.120	-108.229	-0.070	-0.015
-671.105	-81.783	-0.271	0.091
-670.091	52.081	-0.033	-0.033
-669.076	-41.794	-0.236	-0.124
-668.062	-105.646	-0.170	-0.039
-667.047	-100.570	0.279	-0.070
-666.032	227.163	-0.229	-0.380
-665.018	205.643	0.081	0.129
-664.003	-33.005	-0.420	-0.238
-662.989	-200.000	0.031	0.192
-661.974	103.451	-0.061	0.073
-660.959	-89.046	-0.050	-0.015
-659.945	449.192	0.061	-0.137
-658.930	-200.000	-0.042	-0.241
-657.916	-108.820	0.259	-0.056
-656.901	567.392	0.083	-0.205
-655.886	-200.000	-0.028	-0.222
-654.872	89.508	0.189	-0.215
-653.857	86.335	0.159	-0.179
-652.843	-200.000	-0.044	0.365
-651.828	-21.968	-0.072	0.045
-650.814	-142.502	-0.190	-0.019
-649.799	800.000	0.107	-0.454
-648.784	-200.000	0.021	0.208
-647.770	-200.000	0.065	0.425
-646.755	-34.942	0.186	0.104
-645.741	-53.296	-0.015	0.007
-644.726	344.100	-0.209	-0.419
-643.711	170.411	0.143	0.209
-642.697	-72.812	-0.343	0.129
-641.682	-71.347	0.066	-0.025
-640.668	-116.790	-0.260	0.049
-639.653	-123.087	-0.245	-0.040
-638.638	796.834	-0.028	0.079
-637.624	800.000	-0.011	-0.043
-636.609	-49.496	-0.169	-0.082
-635.595	502.775	0.105	-0.248
-634.580	-77.699	0.226	-0.080
-633.565	-3.239	0.206	0.147
-632.551	200.975	0.085	0.134
-631.536	6.991	-0.159	-0.121
-630.522	800.000	-0.030	0.108
-629.507	-31.421	-0.167	-0.096
-628.492	-82.530	-0.204	0.068
-627.478	-40.204	-0.200	-0.106
-626.463	173.237	0.053	-0.077
-625.449	182.802	0.220	0.331
-624.434	-200.000	0.004	0.044
-623.419	747.995	0.065	0.177
-622.405	-127.866	0.134	0.020
-621.390	-175.162	0.035	-0.001
-620.376	31.739	0.037	-0.033
-619.361	-121.773	0.094	-0.016
-618.346	-63.040	-0.105	-0.044
-617.332	-138.407	0.146	-0.016
-616.317	-119.374	0.205	0.036
-615.303	83.193	0.211	-0.235
-614.288	-200.000	0.028	-0.211
-613.273	-182.768	-0.070	-0.001
-612.259	-61.666	-0.162	0.069
-611.244	213.870	-0.005	-0.007
-610.230	-200.000	0.011	0.081
-609.215	-103.543	0.122	0.029
-608.201	759.865	-0.102	-0.283
-607.186	-59.088	0.248	-0.109
-606.171	447.516	0.104	-0.233
-605.157	-93.822	-0.263	-0.074
-604.142	7.456	0.126	0.096
-603.128	-114.133	-0.199	0.039
-602.113	-126.672	-0.323	-0.049
-601.098	800.000	0.014	0.043
-600.084	-200.000	0.041	-0.208
-599.069	388.455	-0.147	0.310
-598.055	263.332	-0.109	0.193
-597.040	177.644	-0.037	0.055
-596.025	-50.131	0.175	-0.085
-595.011	800.000	0.042	-0.134
-593.996	-57.637	0.136	0.061
-592.982	32.580	0.204	-0.180
-591.967	134.371	0.031	0.041
-590.952	136.060	-0.059	-0.079
-589.938	216.997	0.057	0.093
-588.923	52.398	-0.086	0.083
-587.909	-72.887	0.075	0.028
-586.894	-102.751	0.504	-0.122
-585.879	92.066	-0.103	-0.118
-584.865	-200.000	0.005	-0.037
-583.850	-200.000	0.051	0.250
-582.836	-0.537	0.382	-0.276
-581.821	-43.642	0.256	0.131
-580.806	788.137	-0.046	-0.128
-579.792	16.445	0.087	-0.070
-578.777	15.552	0.029	-0.023
-577.763	70.927	-0.098	-0.103
-576.748	-200.000	0.004	0.108
-575.733	17.762	0.086	0.070
-574.719	800.000	0.120	0.445
-573.704	132.095	0.202	-0.264
-572.690	800.000	-0.104	-0.417
-571.675	-200.000	0.005	-0.305
-570.661	800.000	-0.035	-0.139
-569.646	35.220	0.292	-0.260
-568.631	-200.000	0.005	0.107
-567.617	-51.976	-0.169	-0.080
-566.602	-81.819	0.288	0.096
-565.588	-41.350	0.223	-0.117
-564.573	-17.738	-0.220	-0.140
-563.558	209.362	0.165	0.263
-562.544	-151.271	0.329	-0.025
-561.529	-97.515	0.103	-0.027
-560.515	-200.000	-0.007	-0.146
-559.500	81.984	-0.075	-0.083
-558.485	297.998	0.131	-0.245
-557.471	8.604	0.222	0.170
-556.456	-200.000	-0.013	0.197
-555.442	-31.560	-0.373	0.213
-554.427	356.454	-0.092	0.186
-553.412	-200.000	0.028	-0.154
-552.398	-65.455	0.170	0.069
-551.383	-46.792	0.404	0.201
-550.369	-115.005	-0.498	0.096
-549.354	-97.088	-0.173	0.046
-548.339	-200.000	0.004	-0.278
-547.325	-200.000	0.006	0.129
-546.310	-106.973	0.132	-0.030
-545.296	41.264	-0.126	0.116
-544.281	-72.675	-0.215	-0.080
-543.266	141.736	0.114	0.154
-542.252	364.021	0.148	0.302
-541.237	192.422	0.219	0.335
-540.223	-86.390	-0.148	0.046
-539.208	42.789	-0.061	-0.056
-538.193	800.000	0.063	0.198
-537.179	-134.895	0.093	-0.011
-536.164	-3.760	0.340	0.240
-535.150	-85.090	-0.322	-0.103
-534.135	-21.515	-0.248	-0.154
-533.121	3.729	0.165	0.123
-532.106	286.229	0.174	-0.319
-531.091	-174.913	-0.373	0.011
-530.077	109.960	-0.216	0.263
-529.062	800.000	0.073	-0.315
-528.048	-200.000	0.012	-0.125
-527.033	388.876	0.070	0.147
-526.018	55.349	0.086	-0.085
-525.004	-147.253	-0.239	-0.021
-523.989	334.668	0.086	-0.169
-522.975	-62.957	0.155	-0.065
-521.960	20.038	-0.287	0.235
-520.945	119.873	-0.061	-0.077
-519.931	40.605	-0.346	-0.317
-518.916	-173.899	-0.221	0.007
-517.902	175.874	0.098	0.144
-516.887	-25.994	-0.100	0.060
-515.872	45.905	-0.033	0.031
-514.858	-200.000	-0.005	-0.374
-513.843	568.687	-0.068	-0.167
-512.829	77.215	-0.094	0.101
-511.814	291.178	-0.038	-0.071
-510.799	800.000	-0.198	0.592
-509.785	568.165	-0.131	-0.322
-508.770	-200.000	-0.026	0.350
-507.756	108.289	0.183	0.222
-506.741	561.417	0.048	-0.119
-505.726	-17.020	-0.170	0.109
-504.712	800.000	0.091	0.324
-503.697	-107.931	0.329	-0.072
-502.683	240.251	-0.112	-0.189
-501.668	94.785	0.203	-0.234
-500.653	-200.000	0.031	-0.425
-499.639	103.844	0.062	0.074
-498.624	68.751	0.107	0.111
-497.610	286.569	-0.103	0.189
-496.595	-200.000	0.054	0.254
-495.581	238.443	0.032	-0.054
-494.566	-200.000	-0.020	0.113
-493.551	378.025	-0.150	0.311
-492.537	-30.342	-0.342	0.197
-491.522	409.373	0.153	-0.330
-490.508	-65.243	0.256	-0.105
-489.493	800.000	-0.021	-0.064
-488.478	-74.387	0.059	0.022
-487.464	356.746	-0.160	-0.322
-486.449	-85.289	0.106	0.034
-485.435	21.622	0.137	-0.113
-484.420	-200.000	0.004	-0.250
-483.405	16.330	-0.098	0.078
-482.391	337.000	-0.041	-0.080
-481.376	56.413	0.261	0.257
-480.362	47.648	-0.127	-0.120
-479.347	284.939	-0.070	-0.127
-478.332	800.000	-0.064	-0.222
-477.318	-41.379	0.137	0.071
-476.303	205.879	-0.134	0.210
-475.289	287.039	-0.021	0.039
-474.274	-9.266	-0.350	-0.237
-473.259	-37.687	-0.025	-0.014
-472.245	-74.904	-0.352	-0.128
-471.230	230.286	-0.065	-0.107
-470.216	800.000	0.033	0.112
-469.201	-62.440	-0.200	-0.084
-468.186	800.000	-0.070	0.244
-467.172	-57.014	0.232	0.104
-466.157	356.734	0.027	0.055
-465.143	-200.000	0.007	-0.111
-464.128	800.000	-0.184	-0.539
-463.113	-153.403	0.271	-0.019
-462.099	68.560	-0.133	0.138
-461.084	-29.414	-0.328	-0.190
-460.070	126.788	-0.370	0.474
-459.055	74.313	0.119	0.126
-458.040	-51.912	-0.047	0.022
-457.026	-186.712	0.112	-0.002
-456.011	12.271	0.067	-0.052
-454.997	-200.000	-0.015	0.068
-453.982	-122.377	0.095	0.016
-452.968	-86.147	-0.065	-0.020
-451.953	-100.660	-0.235	0.059
-450.938	800.000	0.094	0.327
-449.924	-40.884	-0.083	0.043
-448.909	129.176	-0.033	0.043
-447.895	143.007	-0.212	0.285
-446.880	-185.971	0.250	0.004
-445.865	-137.146	0.247	0.029
-444.851	78.096	-0.189	0.204
-443.836	784.768	0.074	-0.206
-442.822	375.936	0.061	-0.126
-441.807	-200.000	-0.053	-0.299
-440.792	-135.959	-0.129	0.015
-439.778	-200.000	0.019	-0.192
-438.763	-200.000	0.002	-0.117
-437.749	-200.000	0.030	0.262
-436.734	501.559	-0.092	0.216
-435.719	33.747	0.111	-0.098
-434.705	-55.460	0.356	0.162
-433.690	-200.000	-0.037	0.375
-432.676	77.026	0.165	0.178
-431.661	-1.696	-0.033	0.023
-430.646	207.956	0.122	-0.193
-429.632	-155.010	0.398	-0.026
-428.617	-178.895	0.176	0.004
-427.603	-200.000	-0.005	-0.089
-426.588	-44.382	-0.157	-0.080
-425.573	-200.000	0.042	-0.372
-424.559	348.182	-0.012	0.023
-423.544	800.000	-0.034	0.111
-422.530	-200.000	-0.001	0.021
-421.515	99.499	0.247	-0.289
-420.500	13.347	-0.159	-0.125
-419.486	-200.000	0.070	0.000
-418.471	-32.024	0.275	-0.156
-417.457	-1.670	0.107	0.076
-416.442	-96.234	0.164	0.044
-415.428	461.781	0.029	0.065
-414.413	-19.827	0.081	0.050
-413.398	-187.632	0.104	-0.001
-412.384	-200.000	-0.023	-0.391
-411.369	88.621	-0.145	-0.162
-410.355	165.504	0.128	0.183
-409.340	-155.895	-0.105	-0.007
-408.325	98.299	-0.017	0.019
-407.311	264.206	0.159	0.280
-406.296	163.395	0.229	-0.326
-405.282	-127.738	0.236	-0.034
-404.267	800.000	0.050	-0.188
-403.252	222.321	-0.014	-0.023
-402.238	434.414	0.085	-0.187
-401.223	68.120	0.176	0.182
-400.209	800.000	0.050	-0.188
-399.194	800.000	0.044	0.171
-398.179	-56.469	-0.054	-0.024
-397.165	115.588	-0.188	-0.233
-396.150	70.929	0.047	-0.049
-395.136	-200.000	0.005	-0.063
-394.121	186.626	-0.180	0.270
-393.106	-57.232	0.144	0.064
-392.092	-184.927	-0.406	-0.006
-391.077	-200.000	0.035	0.201
-390.063	53.685	0.240	-0.233
-389.048	427.267	-0.011	0.023
-388.033	604.026	0.113	0.283
-387.019	800.000	0.136	0.434
-386.004	-156.030	-0.302	0.019
-384.990	-41.636	0.247	-0.128
-383.975	26.208	-0.088	-0.074
-382.960	800.000	-0.125	-0.423
-381.946	-200.000	0.139	-0.000
-380.931	26.773	0.039	0.033
-379.917	-154.002	-0.282	-0.019
-378.902	-81.228	0.197	-0.066
-377.888	800.000	0.025	0.090
-376.873	-138.244	-0.156	0.017
-375.858	740.779	-0.051	0.138
-374.844	436.644	0.027	0.060
-373.829	-76.418	0.045	0.016
-372.815	800.000	0.034	0.104
-371.800	58.705	-0.224	-0.222
-370.785	-44.319	-0.168	-0.085
-369.771	-112.244	0.179	-0.036
-368.756	-200.000	0.018	0.107
-367.742	800.000	-0.016	0.053
-366.727	85.073	-0.162	-0.179
-365.712	-68.912	-0.277	0.108
-364.698	-83.931	-0.217	-0.070
-363.683	-90.334	0.228	-0.067
-362.669	171.221	0.092	0.134
-361.654	-200.000	0.001	-0.060
-360.639	68.702	-0.104	0.108
-359.625	-200.000	0.043	0.510
-358.610	-109.717	-0.490	-0.104
-357.596	81.951	-0.206	-0.225
-356.581	-200.000	-0.036	-0.196
-355.566	-144.577	0.166	0.015
-354.552	-85.461	0.306	-0.096
-353.537	-200.000	0.058	-0.443
-352.523	166.125	0.139	-0.199
-351.508	-75.796	-0.406	-0.145
-350.493	45.105	-0.061	0.057
-349.479	237.355	-0.040	-0.067
-348.464	-200.000	0.001	-0.167
-347.450	-28.769	-0.141	0.082
-346.435	-93.789	0.220	0.061
-345.420	-200.000	-0.014	0.109
-344.406	171.237	0.137	0.199
-343.391	-93.489	0.126	-0.035
-342.377	11.745	-0.107	0.083
-341.362	-153.882	-0.294	-0.020
-340.348	40.118	0.134	-0.121
-339.333	57.087	-0.053	-0.052
-338.318	9.150	-0.070	-0.053
-337.304	-200.000	0.044	0.329
-336.289	81.550	0.180	0.197
-335.275	80.430	-0.072	0.078
-334.260	800.000	0.039	-0.111
-333.245	-200.000	-0.020	-0.153
-332.231	800.000	-0.049	0.151
-331.216	-200.000	-0.045	0.285
-330.202	-65.982	0.137	0.055
-329.187	-200.000	0.026	0.148
-328.172	47.847	-0.259	-0.244
-327.158	115.949	0.146	-0.180
-326.143	-29.425	0.118	-0.068
-325.129	246.019	0.066	-0.112
-324.114	32.309	-0.156	0.136
-323.099	266.394	0.147	0.258
-322.085	-71.079	0.131	0.049
-321.070	-83.773	0.095	0.031
-320.056	-200.000	-0.017	-0.134
-319.041	236.546	-0.095	0.158
-318.026	22.475	-0.083	0.068
-317.012	800.000	0.030	0.116
-315.997	-62.908	0.201	0.084
-314.983	-17.670	-0.209	-0.133
-313.968	-103.159	-0.152	-0.036
-312.953	-151.701	-0.223	-0.017
-311.939	-158.331	0.166	0.010
-310.924	-160.801	0.070	0.004
-309.910	-25.993	0.307	-0.182
-308.895	-34.922	0.324	0.178
-307.880	17.490	0.338	0.271
-306.866	32.430	-0.031	-0.027
-305.851	416.759	-0.132	-0.284
-304.837	-38.933	-0.149	-0.079
-303.822	-81.990	0.158	-0.052
-302.807	800.000	-0.078	0.307
-301.793	-200.000	-0.007	-0.133
-300.778	800.000	0.057	-0.168
-299.764	-102.910	-0.268	0.064
-298.749	-146.633	0.473	-0.041
-297.735	-18.663	0.170	0.107
-296.720	-200.000	-0.004	-0.043
-295.705	263.600	0.084	0.147
-294.691	-48.315	-0.285	0.138
-293.676	-70.718	0.363	-0.138
-292.662	30.923	0.187	-0.162
-291.647	-131.068	-0.090	0.012
-290.632	-36.803	-0.340	-0.184
-289.618	151.525	-0.093	0.128
-288.603	124.101	-0.183	0.232
-287.589	-200.000	-0.100	0.446
-286.574	-117.221	0.013	-0.002
-285.559	-9.571	0.120	-0.081
-284.545	104.077	0.037	0.043
-283.530	800.000	0.028	-0.105
-282.516	-111.385	0.103	-0.021
-281.501	-150.432	0.177	-0.014
-280.486	125.841	-0.312	0.397
-279.472	-106.543	0.229	-0.051
-278.457	-115.194	-0.396	-0.075
-277.443	-109.646	0.146	0.031
-276.428	-188.950	-0.021	-0.000
-275.413	-200.000	-0.008	-0.337
-274.399	-186.051	0.263	0.004
-273.384	13.666	0.464	-0.362
-272.370	-93.883	-0.240	0.066
-271.355	369.834	0.154	-0.313
-270.340	544.246	0.048	-0.116
-269.326	800.000	0.104	-0.315
-268.311	585.833	-0.166	-0.411
-267.297	-23.216	-0.429	-0.260
-266.282	-176.226	-0.246	-0.006
-265.267	145.250	-0.150	-0.201
-264.253	800.000	0.030	-0.120
-263.238	-1.968	-0.484	-0.342
-262.224	-200.000	0.061	0.389
-261.209	-4.420	-0.362	0.251
-260.195	69.528	-0.189	0.196
-259.180	-4.092	0.020	0.014
-258.165	-54.300	0.303	-0.138
-257.151	-74.247	0.139	0.050
-256.136	-200.000	0.008	0.042
-255.122	-23.410	0.134	0.081
-254.107	11.763	-0.354	-0.273
-253.092	-200.000	0.034	-0.221
-252.078	71.387	0.262	0.273
-251.063	800.000	0.107	0.298
-250.049	-82.039	-0.178	0.058
-249.034	17.845	-0.208	-0.166
-248.019	24.059	-0.080	-0.066
-247.005	-200.000	-0.042	0.212
-245.990	-116.242	0.227	-0.042
-244.976	-124.251	-0.165	0.026
-243.961	130.372	0.096	-0.124
-242.946	-200.000	-0.042	0.284
-241.932	240.757	-0.174	-0.291
-240.917	79.352	-0.181	-0.195
-239.903	60.714	-0.247	-0.246
-238.888	-96.241	-0.113	-0.030
-237.873	33.356	0.238	-0.207
-236.859	12.774	0.115	-0.089
-235.844	24.243	0.239	-0.198
-234.830	231.562	-0.197	-0.324
-233.815	138.510	-0.185	-0.244
-232.800	-23.601	0.161	-0.097
-231.786	-200.000	-0.031	0.224
-230.771	-108.531	-0.028	-0.006
-229.757	-55.595	0.074	-0.033
-228.742	-200.000	-0.030	0.335
-227.727	160.173	-0.180	0.252
-226.713	76.367	0.178	0.189
-225.698	458.728	-0.102	0.228
-224.684	-19.387	0.149	0.093
-223.669	-200.000	-0.007	0.140
-222.655	-65.528	0.275	0.111
-221.640	-200.000	0.001	-0.029
-220.625	-132.342	-0.208	0.027
-219.611	35.820	0.170	0.150
-218.596	-200.000	-0.034	0.313
-217.582	-200.000	0.006	0.068
-216.567	-200.000	-0.013	0.150
-215.552	800.000	0.029	0.125
-214.538	354.422	0.077	0.153
-213.523	-60.569	0.430	-0.183
-212.509	130.551	-0.081	-0.104
-211.494	-105.017	0.122	-0.028
-210.479	-141.358	-0.070	-0.007
-209.465	-200.000	0.023	-0.212
-208.450	-200.000	-0.022	-0.171
-207.436	87.877	0.048	0.053
-206.421	135.080	-0.149	-0.194
-205.406	-110.339	-0.305	0.063
-204.392	-26.482	0.110	0.065
-203.377	300.575	0.161	0.298
-202.363	-200.000	0.054	0.534
-201.348	800.000	-0.072	0.263
-200.333	271.801	-0.063	-0.112
-199.319	-133.918	-0.059	0.007
-198.304	-174.491	-0.360	0.010
-197.290	22.395	0.124	0.101
-196.275	800.000	-0.131	-0.401
-195.260	3.860	0.063	-0.046
-194.246	-141.686	0.261	0.026
-193.231	-37.401	-0.193	0.104
-192.217	225.163	0.191	-0.311
-191.202	646.748	0.183	0.470
-190.187	-19.302	0.213	0.133
-189.173	-107.220	-0.285	-0.063
-188.158	-200.000	-0.010	-0.376
-187.144	78.275	-0.277	-0.296
-186.129	29.910	-0.296	0.253
-185.114	-200.000	0.082	0.420
-184.100	-117.429	0.365	0.066
-183.085	-11.002	-0.248	-0.164
-182.071	-0.092	-0.142	0.101
-181.056	-127.934	0.208	-0.030
-180.042	-200.000	0.000	0.061
-179.027	-24.135	-0.067	-0.040
-178.012	30.721	-0.166	-0.142
-176.998	38.265	-0.122	-0.109
-175.983	-164.494	-0.362	-0.017
-174.969	-151.310	-0.396	-0.030
-173.954	27.897	-0.196	0.166
-172.939	76.997	0.228	-0.242
-171.925	800.000	-0.024	-0.106
-170.910	26.110	-0.145	-0.122
-169.896	-122.452	-0.261	-0.042
-168.881	-200.000	0.009	0.334
-167.866	-0.940	0.056	0.040
-166.852	-150.789	0.149	0.011
-165.837	-24.645	0.066	0.039
-164.823	11.705	-0.063	-0.049
-163.808	0.075	0.233	0.166
-162.793	-200.000	0.043	-0.346
-161.779	-31.517	0.225	-0.126
-160.764	-200.000	0.026	0.520
-159.750	-119.413	-0.213	0.037
-158.735	272.993	0.147	0.261
-157.720	184.742	0.154	0.228
-156.706	-144.071	0.086	0.008
-155.691	-147.364	-0.179	0.015
-154.677	-34.380	-0.241	0.132
-153.662	127.893	0.119	0.151
-152.647	-170.269	-0.089	0.003
-151.633	134.462	-0.109	0.141
-150.618	-144.647	0.279	-0.026
-149.604	800.000	-0.058	-0.179
-148.589	800.000	-0.034	-0.127
-147.574	-125.933	0.156	-0.023
-146.560	111.661	0.096	-0.115
-145.545	285.484	-0.145	-0.261
-144.531	-18.285	0.357	-0.223
-143.516	-37.781	-0.233	0.124
-142.502	-102.673	0.156	-0.037
-141.487	-6.109	0.182	0.125
-140.472	221.632	-0.228	-0.366
-139.458	-200.000	0.025	0.200
-138.443	-63.953	-0.375	-0.153
-137.429	-200.000	0.021	-0.304
-136.414	800.000	0.072	-0.203
-135.399	414.350	-0.128	0.272
-134.385	139.997	-0.098	-0.130
-133.370	-20.553	0.066	0.041
-132.356	602.570	-0.129	0.321
-131.341	-18.122	-0.213	-0.133
-130.326	86.166	0.170	-0.187
-129.312	-78.108	0.236	0.081
-128.297	745.028	0.160	0.430
-127.283	-200.000	0.017	-0.548
-126.268	125.901	0.130	0.164
-125.253	800.000	-0.092	-0.276
-124.239	-146.261	0.220	0.019
-123.224	-69.168	-0.087	0.033
-122.210	-79.426	-0.157	0.053
-121.195	189.253	-0.091	0.137
