DTS Sentinel unit serial number:	SN413079Multiplexer serial number:	ORYXHardware model number:	OX4-SRSoftware version number:	ORYX F/W v4.00 Oryx Data Collector v3.7.2.0data status	okinstallation	princeton_trtdifferential loss correction	single-endedforward channel	channel 2reverse channel	N/Adate	2019/09/18time	10:15:35forward acquisition time	60.00reverse acquisition time	0.00gamma	496.2192k internal	0.2333k external	0.2333temperature offset calibration	0.9981default loss term (dB/km)	0.3790temperature slope calibration	1.0000multiplexer offset coefficient	1.0000multiplexer slope coefficient	1.0000fibre end	0.00T internal ref (°C)	27.94T ext. ref 1 (°C)	0.33T ext. ref 2 (°C)	24.26length (m)	temperature (°C)	Stokes	anti-Stokes-747.200	800.000	-0.098	0.290
-746.185	-25.901	0.251	0.149
-745.171	800.000	0.136	0.379
-744.156	-189.940	-0.213	0.002
-743.142	-60.854	0.200	-0.085
-742.127	-92.586	-0.477	0.135
-741.112	-27.129	0.437	0.256
-740.098	-200.000	-0.085	0.438
-739.083	42.262	0.128	-0.117
-738.069	-127.844	-0.142	-0.021
-737.054	26.023	-0.052	-0.043
-736.039	-61.917	-0.197	-0.083
-735.025	552.106	-0.140	-0.339
-734.010	-3.579	0.146	-0.102
-732.996	106.762	-0.212	-0.253
-731.981	90.118	-0.208	0.234
-730.966	22.395	-0.171	-0.141
-729.952	-148.158	0.045	0.004
-728.937	-67.652	0.125	0.049
-727.923	70.807	-0.045	0.046
-726.908	800.000	0.071	-0.254
-725.894	-200.000	-0.113	-0.702
-724.879	-200.000	0.064	-0.357
-723.864	-29.953	0.255	0.146
-722.850	416.352	0.012	0.027
-721.835	39.794	0.059	-0.053
-720.821	-55.271	0.083	-0.037
-719.806	-200.000	-0.017	0.224
-718.791	-79.230	-0.093	-0.032
-717.777	-169.853	-0.174	0.006
-716.762	-2.999	-0.019	0.013
-715.748	-200.000	-0.019	0.142
-714.733	178.546	-0.106	0.156
-713.718	193.262	-0.244	-0.370
-712.704	250.331	0.073	-0.125
-711.689	-132.780	0.411	-0.053
-710.675	-200.000	0.036	-0.304
-709.660	-200.000	0.031	-0.208
-708.645	-109.651	-0.169	0.036
-707.631	-200.000	0.025	-0.111
-706.616	-200.000	0.006	0.099
-705.602	137.767	-0.116	-0.153
-704.587	800.000	-0.076	0.267
-703.572	-200.000	0.026	0.185
-702.558	80.147	0.259	-0.280
-701.543	-200.000	0.068	-0.424
-700.529	104.654	0.059	-0.070
-699.514	181.813	-0.152	0.225
-698.499	800.000	-0.060	0.216
-697.485	6.058	0.168	-0.125
-696.470	-16.121	0.287	-0.183
-695.456	-200.000	-0.029	0.317
-694.441	-29.737	0.180	0.103
-693.426	-119.675	-0.197	0.034
-692.412	-96.282	-0.260	-0.069
-691.397	-200.000	-0.031	-0.180
-690.383	800.000	-0.025	-0.085
-689.368	459.329	0.129	-0.287
-688.354	144.784	-0.093	0.124
-687.339	69.001	-0.195	-0.201
-686.324	-115.703	-0.127	-0.024
-685.310	656.133	-0.074	-0.191
-684.295	-64.057	-0.096	0.039
-683.281	345.641	-0.095	-0.187
-682.266	240.625	0.181	0.303
-681.251	36.805	0.109	0.097
-680.237	-200.000	0.009	-0.080
-679.222	6.225	-0.215	0.160
-678.208	-200.000	0.003	-0.029
-677.193	-200.000	-0.002	-0.189
-676.178	31.978	-0.160	-0.138
-675.164	-200.000	-0.075	-0.388
-674.149	28.150	-0.127	-0.107
-673.135	-34.448	-0.081	-0.045
-672.120	-93.753	0.338	0.094
-671.105	-75.095	-0.261	0.094
-670.091	55.623	0.024	0.024
-669.076	43.581	0.096	0.088
-668.062	-200.000	0.035	0.314
-667.047	-14.650	0.204	-0.131
-666.032	-200.000	0.003	0.045
-665.018	44.791	0.174	-0.160
-664.003	-92.315	-0.104	0.029
-662.989	-124.055	-0.158	0.025
-661.974	-200.000	0.010	0.057
-660.959	217.815	0.062	-0.100
-659.945	-101.287	-0.342	-0.084
-658.930	49.234	0.168	0.158
-657.916	71.484	0.170	-0.176
-656.901	-99.459	-0.148	0.037
-655.886	-159.453	-0.142	-0.008
-654.872	-24.189	0.211	0.126
-653.857	-52.059	-0.271	-0.126
-652.843	-9.501	0.094	-0.063
-651.828	-8.355	-0.102	-0.069
-650.814	55.787	0.068	-0.066
-649.799	299.142	0.113	-0.209
-648.784	72.277	-0.048	0.050
-647.770	800.000	0.022	0.066
-646.755	-141.416	0.294	0.030
-645.741	-67.880	-0.140	0.055
-644.726	243.378	0.028	0.048
-643.711	-16.679	-0.067	0.042
-642.697	-110.114	0.122	-0.026
-641.682	154.044	0.135	-0.186
-640.668	-200.000	0.003	-0.019
-639.653	-200.000	0.028	-0.311
-638.638	38.863	0.100	-0.089
-637.624	-181.550	-0.118	0.002
-636.609	-104.064	-0.245	-0.057
-635.595	683.061	-0.117	-0.305
-634.580	57.641	0.141	-0.138
-633.565	650.092	0.067	0.172
-632.551	21.415	0.222	-0.180
-631.536	381.594	0.168	-0.345
-630.522	93.150	-0.157	0.177
-629.507	-149.286	-0.151	0.012
-628.492	412.842	0.206	-0.437
-627.478	65.866	0.124	0.125
-626.463	-103.176	0.055	0.013
-625.449	-58.012	0.128	0.056
-624.434	37.769	-0.300	0.267
-623.419	-200.000	-0.028	-0.144
-622.405	24.215	0.011	0.009
-621.390	40.622	0.042	-0.038
-620.376	53.159	0.082	-0.079
-619.361	402.094	-0.090	-0.188
-618.346	-23.435	-0.249	-0.150
-617.332	-111.457	0.344	0.070
-616.317	-200.000	0.064	0.285
-615.303	-162.175	-0.152	0.008
-614.288	-108.563	0.072	0.015
-613.273	80.197	0.088	0.095
-612.259	-105.058	0.102	0.023
-611.244	-200.000	0.000	0.033
-610.230	-159.578	-0.090	-0.005
-609.215	800.000	-0.138	0.541
-608.201	-200.000	-0.060	0.310
-607.186	287.237	0.029	-0.053
-606.171	730.355	0.030	0.079
-605.157	-166.593	-0.315	0.013
-604.142	-200.000	0.002	0.234
-603.128	647.656	0.075	0.192
-602.113	-110.417	0.192	0.040
-601.098	21.488	0.076	0.062
-600.084	-50.735	-0.188	-0.088
-599.069	-21.985	-0.167	-0.102
-598.055	-121.058	0.108	0.018
-597.040	-200.000	-0.004	0.057
-596.025	418.427	-0.181	0.388
-595.011	-74.847	-0.163	-0.059
-593.996	66.845	-0.165	-0.168
-592.982	-200.000	-0.003	-0.066
-591.967	-200.000	0.023	-0.360
-590.952	-141.460	-0.222	-0.022
-589.938	140.100	-0.208	0.274
-588.923	46.555	0.124	-0.115
-587.909	-17.614	-0.106	0.066
-586.894	44.219	0.099	-0.091
-585.879	121.391	-0.104	0.129
-584.865	-122.586	-0.208	0.034
-583.850	165.639	-0.036	-0.052
-582.836	632.370	0.053	-0.133
-581.821	-200.000	0.075	0.347
-580.806	-200.000	-0.045	-0.242
-579.792	117.148	0.218	-0.268
-578.777	-196.302	-0.011	0.000
-577.763	-74.262	-0.083	0.030
-576.748	-200.000	-0.026	-0.175
-575.733	-47.880	-0.442	-0.214
-574.719	-38.485	0.060	0.032
-573.704	41.390	-0.282	-0.255
-572.690	-103.760	-0.192	-0.045
-571.675	52.203	-0.186	0.177
-570.661	440.721	-0.062	-0.136
-569.646	800.000	0.026	0.102
-568.631	27.494	0.282	0.237
-567.617	-163.456	0.073	0.003
-566.602	-12.799	0.324	-0.211
-565.588	-21.147	-0.278	0.170
-564.573	-130.362	0.048	0.006
-563.558	-200.000	0.042	-0.313
-562.544	-121.650	0.080	-0.013
-561.529	-45.060	-0.373	-0.185
-560.515	-200.000	-0.002	-0.104
-559.500	-200.000	-0.006	0.189
-558.485	205.473	-0.142	-0.220
-557.471	800.000	0.070	0.237
-556.456	-200.000	0.011	-0.336
-555.442	800.000	-0.030	0.084
-554.427	348.549	0.099	-0.194
-553.412	639.643	-0.131	-0.332
-552.398	800.000	-0.033	-0.108
-551.383	800.000	-0.008	-0.033
-550.369	-200.000	0.001	0.181
-549.354	102.854	-0.177	0.207
-548.339	-156.617	0.277	0.017
-547.325	-200.000	-0.044	0.351
-546.310	-118.249	-0.306	-0.054
-545.296	800.000	0.020	0.082
-544.281	-200.000	-0.014	-0.244
-543.266	148.084	0.125	-0.168
-542.252	-22.374	-0.174	0.105
-541.237	374.546	-0.122	0.248
-540.223	105.766	-0.119	0.141
-539.208	-106.984	0.310	0.068
-538.193	-71.243	0.091	0.034
-537.179	29.010	-0.263	-0.222
-536.164	52.926	-0.220	0.210
-535.150	553.055	0.052	0.124
-534.135	-93.280	0.351	0.097
-533.121	-43.103	-0.211	-0.107
-532.106	-48.778	-0.279	0.134
-531.091	-200.000	-0.042	0.296
-530.077	494.308	0.189	0.433
-529.062	68.214	-0.117	-0.120
-528.048	-149.061	0.119	-0.010
-527.033	-175.619	0.441	0.012
-526.018	800.000	-0.062	-0.195
-525.004	71.800	-0.139	0.144
-523.989	-90.867	-0.229	-0.066
-522.975	6.840	-0.174	0.129
-521.960	-135.843	-0.200	-0.024
-520.945	-125.985	-0.014	0.002
-519.931	-133.735	0.188	-0.023
-518.916	-76.092	-0.232	0.082
-517.902	-163.822	0.316	-0.015
-516.887	-79.235	0.354	0.120
-515.872	261.274	-0.322	0.555
-514.858	-200.000	-0.024	0.304
-513.843	-200.000	-0.012	-0.273
-512.829	140.827	-0.210	-0.276
-511.814	-27.847	-0.284	-0.164
-510.799	86.962	0.144	-0.159
-509.785	45.985	0.135	0.124
-508.770	58.706	-0.093	-0.091
-507.756	406.802	-0.053	-0.111
-506.741	218.494	-0.049	-0.078
-505.726	-200.000	-0.028	-0.155
-504.712	0.967	-0.215	0.154
-503.697	116.091	-0.156	-0.190
-502.683	-200.000	-0.047	0.316
-501.668	24.540	0.385	-0.317
-500.653	87.578	-0.177	-0.195
-499.639	-200.000	0.027	0.273
-498.624	-200.000	0.012	-0.128
-497.610	394.873	0.065	0.134
-496.595	86.230	0.059	0.064
-495.581	800.000	0.061	0.176
-494.566	-200.000	-0.042	-0.224
-493.551	800.000	-0.074	0.233
-492.537	166.084	0.054	-0.075
-491.522	125.125	-0.053	-0.066
-490.508	-101.032	0.132	-0.032
-489.493	-17.235	0.112	0.070
-488.478	-179.336	0.113	-0.002
-487.464	-55.244	0.161	-0.072
-486.449	214.287	0.052	0.081
-485.435	620.268	0.053	0.134
-484.420	-39.402	-0.410	-0.214
-483.405	207.387	-0.094	-0.145
-482.391	-178.781	0.325	-0.007
-481.376	-133.849	-0.424	0.052
-480.362	-164.972	-0.285	0.013
-479.347	-125.263	-0.264	-0.040
-478.332	-15.868	-0.232	0.147
-477.318	800.000	-0.026	0.089
-476.303	581.570	-0.057	-0.138
-475.289	-42.691	-0.050	0.025
-474.274	-37.590	0.131	0.069
-473.259	-62.231	-0.085	0.035
-472.245	283.682	0.082	0.146
-471.230	244.052	-0.098	0.164
-470.216	-89.393	0.295	0.086
-469.201	-90.013	0.163	0.047
-468.186	-100.822	0.063	-0.016
-467.172	-85.289	-0.192	-0.060
-466.157	-19.407	0.347	-0.214
-465.143	800.000	-0.072	-0.239
-464.128	-99.095	0.244	-0.061
-463.113	-175.539	0.129	-0.003
-462.099	19.454	0.169	-0.135
-461.084	-148.740	0.346	0.028
-460.070	387.946	-0.093	-0.191
-459.055	-59.037	0.226	0.097
-458.040	181.324	0.200	-0.292
-457.026	584.817	0.068	0.166
-456.011	-124.989	-0.192	0.029
-454.997	154.282	-0.111	-0.151
-453.982	-51.387	0.077	-0.036
-452.968	-135.646	-0.261	0.031
-451.953	-173.726	0.232	0.007
-450.938	-200.000	-0.022	0.246
-449.924	-200.000	0.036	0.261
-448.909	-67.396	0.090	0.035
-447.895	86.912	-0.141	0.155
-446.880	1.816	-0.216	0.155
-445.865	62.358	-0.131	0.130
-444.851	-18.078	-0.310	-0.193
-443.836	-127.038	0.147	0.021
-442.822	17.968	0.230	0.182
-441.807	-114.289	0.037	0.007
-440.792	-90.763	0.335	-0.096
-439.778	-41.227	-0.205	0.105
-438.763	56.925	-0.136	0.132
-437.749	-29.019	0.123	0.070
-436.734	403.961	-0.244	-0.510
-435.719	539.926	0.111	-0.263
-434.705	-190.965	0.178	-0.002
-433.690	-104.489	-0.184	-0.042
-432.676	132.660	0.124	0.159
-431.661	-115.485	0.147	-0.027
-430.646	800.000	0.034	0.094
-429.632	-200.000	-0.024	-0.130
-428.617	-48.853	-0.324	-0.154
-427.603	-200.000	0.006	0.379
-426.588	-44.489	0.143	0.071
-425.573	-71.620	-0.074	-0.027
-424.559	584.488	0.085	-0.207
-423.544	66.714	0.191	0.193
-422.530	-9.255	-0.212	-0.141
-421.515	-27.357	0.134	0.077
-420.500	-200.000	0.043	0.367
-419.486	-130.347	-0.187	-0.025
-418.471	-157.786	0.386	-0.023
-417.457	-200.000	-0.009	-0.215
-416.442	800.000	0.035	-0.127
-415.428	-64.277	-0.024	-0.010
-414.413	-72.550	-0.425	0.156
-413.398	84.690	-0.059	-0.064
-412.384	-97.581	0.229	-0.059
-411.369	800.000	-0.072	-0.228
-410.355	800.000	0.051	0.179
-409.340	209.390	0.085	-0.132
-408.325	-200.000	0.022	-0.331
-407.311	64.239	0.093	0.093
-406.296	-28.567	0.289	0.165
-405.282	-200.000	-0.004	0.258
-404.267	-200.000	-0.013	-0.083
-403.252	-200.000	-0.076	-0.483
-402.238	-129.900	0.137	0.019
-401.223	72.610	-0.098	0.102
-400.209	800.000	0.045	0.190
-399.194	-136.000	0.091	0.011
-398.179	575.523	0.047	0.113
-397.165	-24.384	-0.154	0.091
-396.150	109.531	-0.021	-0.025
-395.136	3.856	0.165	0.119
-394.121	290.721	0.183	-0.330
-393.106	-21.757	-0.258	0.156
-392.092	241.977	0.063	-0.104
-391.077	-43.218	0.093	0.047
-390.063	-63.417	0.106	0.043
-389.048	172.370	-0.052	0.074
-388.033	-82.672	0.236	0.076
-387.019	740.659	0.069	-0.183
-386.004	-76.029	-0.161	0.056
-384.990	-200.000	0.017	-0.141
-383.975	185.118	0.214	0.315
-382.960	16.286	-0.146	-0.114
-381.946	-200.000	-0.014	-0.140
-380.931	-106.801	-0.488	0.107
-379.917	-72.930	0.229	0.083
-378.902	-200.000	-0.031	-0.184
-377.888	800.000	0.131	0.363
-376.873	-60.087	0.352	0.149
-375.858	-58.618	0.319	0.137
-374.844	-149.932	0.081	0.006
-373.829	12.137	-0.178	-0.135
-372.815	1.424	-0.158	0.112
-371.800	233.212	-0.178	0.290
-370.785	-200.000	0.034	-0.273
-369.771	76.580	0.288	-0.302
-368.756	-79.612	-0.290	0.097
-367.742	-59.280	-0.387	-0.165
-366.727	-117.795	0.152	0.027
-365.712	195.441	0.099	0.149
-364.698	800.000	-0.049	-0.136
-363.683	278.497	-0.163	0.287
-362.669	-200.000	-0.054	-0.380
-361.654	284.073	0.100	0.178
-360.639	127.042	0.169	0.213
-359.625	800.000	-0.048	-0.177
-358.610	11.343	0.245	0.186
-357.596	23.102	-0.153	0.124
-356.581	-200.000	0.080	0.000
-355.566	-38.084	0.121	-0.064
-354.552	800.000	-0.072	-0.235
-353.537	800.000	0.019	0.051
-352.523	-141.965	-0.102	0.010
-351.508	-200.000	-0.033	-0.214
-350.493	800.000	0.040	-0.125
-349.479	142.250	-0.156	0.205
-348.464	344.512	-0.044	0.085
-347.450	54.850	0.112	0.107
-346.435	45.139	-0.171	0.156
-345.420	-132.573	-0.202	-0.026
-344.406	-77.420	-0.024	-0.008
-343.391	303.668	-0.120	0.221
-342.377	282.300	-0.061	0.109
-341.362	-71.442	-0.223	-0.083
-340.348	-48.590	0.376	0.179
-339.333	-18.921	0.281	0.173
-338.318	-65.330	0.052	-0.021
-337.304	143.108	0.211	0.278
-336.289	800.000	-0.108	-0.311
-335.275	-16.433	-0.389	-0.244
-334.260	-157.493	0.068	0.004
-333.245	-200.000	0.026	0.196
-332.231	126.275	0.169	0.212
-331.216	35.469	0.304	-0.264
-330.202	-88.022	0.108	0.032
-329.187	-28.809	0.239	0.136
-328.172	77.516	-0.028	0.030
-327.158	-50.745	-0.096	-0.045
-326.143	-30.918	-0.137	0.076
-325.129	-200.000	-0.000	-0.284
-324.114	-140.402	0.159	0.016
-323.099	-106.611	-0.214	0.047
-322.085	148.938	0.152	-0.203
-321.070	-125.187	0.067	-0.010
-320.056	-200.000	0.014	-0.200
-319.041	355.428	0.073	-0.144
-318.026	80.976	-0.237	0.253
-317.012	800.000	-0.041	-0.163
-315.997	-19.442	-0.265	-0.162
-314.983	-103.371	0.197	0.046
-313.968	-41.863	-0.336	-0.171
-312.953	-116.940	0.203	0.037
-311.939	-45.544	0.138	0.068
-310.924	419.084	-0.031	0.065
-309.910	177.100	0.135	-0.194
-308.895	-189.925	0.353	0.004
-307.880	-88.033	0.154	-0.046
-306.866	458.920	0.050	-0.110
-305.851	-96.769	-0.248	-0.064
-304.837	-188.596	-0.127	0.002
-303.822	-140.467	0.101	0.010
-302.807	-11.996	-0.156	-0.101
-301.793	-200.000	-0.020	-0.324
-300.778	800.000	-0.113	-0.462
-299.764	-200.000	-0.011	0.252
-298.749	-51.584	-0.192	0.089
-297.735	-2.176	-0.184	0.128
-296.720	605.702	0.116	-0.285
-295.705	244.788	0.087	-0.144
-294.691	129.071	-0.209	-0.264
-293.676	319.269	0.079	0.148
-292.662	92.005	-0.197	0.219
-291.647	378.366	-0.036	0.073
-290.632	-12.546	-0.131	0.084
-289.618	800.000	0.040	-0.129
-288.603	-200.000	0.026	-0.270
-287.589	197.459	0.237	-0.357
-286.574	-101.527	-0.215	0.052
-285.559	800.000	-0.048	-0.154
-284.545	-33.687	-0.219	0.119
-283.530	-47.183	-0.401	0.193
-282.516	-38.990	0.340	0.177
-281.501	28.114	0.074	0.061
-280.486	87.679	0.146	0.160
-279.472	75.549	-0.189	0.197
-278.457	-113.572	-0.095	0.018
-277.443	-81.554	-0.309	-0.100
-276.428	-112.793	0.086	-0.017
-275.413	109.038	-0.054	-0.064
-274.399	-74.056	-0.220	-0.079
-273.384	-200.000	0.042	0.195
-272.370	5.617	0.129	-0.094
-271.355	-200.000	-0.051	0.539
-270.340	-54.202	0.330	0.148
-269.326	-87.910	0.229	-0.068
-268.311	-85.109	-0.177	-0.055
-267.297	-200.000	0.019	-0.130
-266.282	-32.644	-0.224	-0.123
-265.267	-27.122	0.168	0.097
-264.253	246.712	0.111	-0.185
-263.238	-99.345	-0.132	-0.033
-262.224	199.853	-0.216	0.326
-261.209	-8.877	0.318	0.210
-260.195	467.953	0.095	0.211
-259.180	-77.413	0.341	0.117
-258.165	26.825	-0.488	-0.403
-257.151	800.000	-0.121	-0.459
-256.136	-29.594	0.241	-0.136
-255.122	738.273	0.080	-0.212
-254.107	6.523	-0.309	0.227
-253.092	-101.123	0.122	0.029
-252.078	-109.882	0.420	0.087
-251.063	325.842	0.153	0.290
-250.049	43.123	-0.064	-0.058
-249.034	25.492	0.245	-0.201
-248.019	152.965	-0.191	-0.257
-247.005	59.008	-0.209	-0.203
-245.990	146.530	0.159	-0.210
-244.976	-200.000	-0.035	0.184
-243.961	-66.658	0.115	-0.045
-242.946	-90.585	-0.187	-0.053
-241.932	790.035	-0.056	-0.153
-240.917	-79.471	0.413	-0.138
-239.903	-109.393	-0.246	0.051
-238.888	25.614	0.091	-0.075
-237.873	800.000	0.086	0.312
-236.859	-29.350	-0.211	0.119
-235.844	-57.996	-0.188	-0.081
-234.830	342.012	0.195	-0.376
-233.815	-17.312	0.139	-0.086
-232.800	296.120	0.142	-0.256
-231.786	-128.097	-0.346	-0.049
-230.771	-170.041	-0.229	0.008
-229.757	-82.116	-0.218	0.070
-228.742	800.000	-0.077	-0.257
-227.727	-194.918	-0.127	0.001
-226.713	163.731	-0.284	0.393
-225.698	-200.000	0.096	0.489
-224.684	17.961	-0.059	-0.046
-223.669	194.929	-0.103	-0.155
-222.655	-95.831	0.385	-0.101
-221.640	-60.651	0.213	0.089
-220.625	26.255	0.251	0.206
-219.611	473.688	-0.124	0.276
-218.596	352.833	0.077	-0.150
-217.582	-56.359	-0.187	-0.082
-216.567	-0.215	-0.072	0.051
-215.552	-35.650	-0.140	0.075
-214.538	29.166	0.142	-0.119
-213.523	653.056	0.137	0.346
-212.509	-200.000	-0.023	0.306
-211.494	0.979	0.122	0.086
-210.479	328.073	-0.014	-0.027
-209.465	11.271	-0.243	-0.183
-208.450	800.000	-0.060	-0.165
-207.436	-106.939	0.507	-0.110
-206.421	-18.997	-0.286	-0.175
-205.406	169.795	0.208	-0.293
-204.392	-1.439	0.138	0.096
-203.377	-106.666	0.354	-0.077
-202.363	-105.993	0.066	0.015
-201.348	-92.778	0.109	0.030
-200.333	162.544	0.073	0.101
-199.319	74.014	0.074	0.076
-198.304	752.606	-0.040	-0.106
-197.290	132.946	0.157	0.200
-196.275	-158.269	0.056	-0.003
-195.260	-165.630	-0.134	0.006
-194.246	-52.478	0.083	0.038
-193.231	-84.359	-0.182	0.057
-192.217	99.213	0.285	0.325
-191.202	185.121	0.216	0.316
-190.187	283.437	-0.036	0.064
-189.173	-138.625	-0.360	-0.039
-188.158	-95.157	-0.084	-0.022
-187.144	-200.000	-0.002	-0.186
-186.129	141.820	-0.158	-0.205
-185.114	-115.850	0.330	-0.061
-184.100	476.277	-0.073	0.161
-183.085	147.280	0.082	0.108
-182.071	-200.000	0.005	0.172
-181.056	-40.360	-0.217	-0.111
-180.042	578.723	-0.135	0.324
-179.027	88.836	0.150	-0.164
-178.012	-92.346	0.390	-0.108
-176.998	-200.000	0.020	0.138
-175.983	-200.000	0.103	-0.483
-174.969	147.164	0.197	-0.260
-173.954	-124.286	0.037	0.006
-172.939	11.536	-0.072	-0.055
-171.925	230.731	0.262	0.422
-170.910	-20.607	-0.139	0.084
-169.896	-84.007	-0.187	-0.059
-168.881	21.320	-0.179	0.143
-167.866	286.977	0.130	-0.231
-166.852	-200.000	-0.081	0.357
-165.837	115.680	-0.136	0.163
-164.823	800.000	-0.067	0.208
-163.808	-34.368	-0.287	-0.155
-162.793	220.828	-0.118	-0.186
-161.779	378.025	0.239	-0.480
-160.764	129.339	-0.066	-0.083
-159.750	-39.143	0.119	-0.061
-158.735	800.000	0.051	-0.162
-157.720	800.000	0.060	0.219
-156.706	218.147	0.070	-0.110
-155.691	-99.361	0.194	0.048
-154.677	16.436	0.071	-0.055
-153.662	-154.272	-0.116	-0.008
-152.647	492.855	0.194	0.437
-151.633	800.000	0.085	0.349
-150.618	-75.802	0.299	0.104
-149.604	214.388	0.042	-0.066
-148.589	565.613	0.096	-0.229
-147.574	-126.398	0.042	0.006
-146.560	21.772	-0.106	0.084
-145.545	-90.195	0.151	0.043
-144.531	120.943	-0.223	0.273
-143.516	-107.283	0.089	0.019
-142.502	41.377	0.113	-0.100
-141.487	-200.000	-0.014	0.338
-140.472	263.566	0.105	0.179
-139.458	10.868	0.168	-0.126
-138.443	39.285	0.232	0.204
-137.429	668.308	0.097	0.246
-136.414	540.540	-0.170	0.398
-135.399	49.684	-0.111	-0.103
-134.385	-162.639	-0.174	0.008
-133.370	661.450	0.110	0.279
-132.356	-200.000	0.018	0.100
-131.341	44.978	0.203	0.184
-130.326	-58.342	-0.075	-0.032
-129.312	89.854	-0.104	-0.114
-128.297	-172.402	0.216	-0.007
-127.283	3.334	0.283	-0.202
-126.268	800.000	0.071	0.204
-125.253	63.067	-0.172	0.170
-124.239	-62.102	-0.117	-0.048
-123.224	195.836	0.103	-0.154
-122.210	-200.000	-0.022	0.414
-121.195	-8.485	-0.276	0.182
-120.180	-56.627	0.230	-0.100
