DTS Sentinel unit serial number:	SN413079Multiplexer serial number:	ORYXHardware model number:	OX4-SRSoftware version number:	ORYX F/W v4.00 Oryx Data Collector v3.7.2.0data status	okinstallation	princeton_trtdifferential loss correction	single-endedforward channel	channel 2reverse channel	N/Adate	2019/09/17time	10:31:35forward acquisition time	60.00reverse acquisition time	0.00gamma	496.2192k internal	0.2325k external	0.2325temperature offset calibration	0.9975default loss term (dB/km)	0.3790temperature slope calibration	1.0000multiplexer offset coefficient	1.0000multiplexer slope coefficient	1.0000fibre end	0.00T internal ref (°C)	30.00T ext. ref 1 (°C)	0.17T ext. ref 2 (°C)	25.62length (m)	temperature (°C)	Stokes	anti-Stokes-747.200	38.727	-0.190	-0.171
-746.185	-23.386	-0.137	0.083
-745.171	-77.339	0.014	0.005
-744.156	110.106	0.324	0.393
-743.142	498.633	-0.075	0.175
-742.127	65.783	-0.108	0.110
-741.112	800.000	0.052	-0.160
-740.098	238.214	-0.165	0.276
-739.083	692.112	0.109	0.289
-738.069	104.997	0.301	0.359
-737.054	-96.676	-0.190	-0.050
-736.039	-101.232	-0.281	-0.069
-735.025	-94.672	0.268	0.073
-734.010	-100.790	-0.351	0.087
-732.996	800.000	-0.042	0.145
-731.981	-18.316	-0.306	0.193
-730.966	584.701	0.122	0.304
-729.952	-200.000	0.004	-0.030
-728.937	66.875	-0.150	-0.154
-727.923	-200.000	0.012	0.062
-726.908	59.827	0.207	0.206
-725.894	604.016	0.054	0.135
-724.879	-147.320	-0.220	0.019
-723.864	-52.490	-0.415	0.194
-722.850	329.396	-0.125	0.243
-721.835	-200.000	-0.222	0.001
-720.821	-179.545	0.203	0.004
-719.806	-93.021	-0.202	-0.057
-718.791	331.633	-0.047	-0.092
-717.777	268.573	0.150	0.265
-716.762	-14.231	0.265	0.172
-715.748	416.317	0.065	0.141
-714.733	104.064	-0.155	0.184
-713.718	365.232	0.084	-0.170
-712.704	177.635	0.078	0.114
-711.689	-85.990	0.088	-0.028
-710.675	8.139	0.270	-0.205
-709.660	-200.000	-0.027	-0.168
-708.645	800.000	-0.088	0.274
-707.631	-170.065	-0.171	-0.006
-706.616	784.173	-0.036	-0.100
-705.602	-200.000	-0.001	-0.335
-704.587	-177.292	-0.161	0.004
-703.572	63.777	-0.243	-0.246
-702.558	-144.332	0.087	0.008
-701.543	63.928	-0.376	0.381
-700.529	13.502	-0.079	0.062
-699.514	800.000	-0.050	-0.148
-698.499	-143.667	-0.166	-0.016
-697.485	426.634	-0.134	-0.290
-696.470	160.759	-0.154	-0.217
-695.456	-90.723	-0.078	0.023
-694.441	99.644	0.211	-0.246
-693.426	-23.488	0.193	0.116
-692.412	-97.623	-0.130	-0.034
-691.397	-72.290	0.359	-0.134
-690.383	114.215	0.189	0.232
-689.368	71.475	-0.122	0.128
-688.354	-52.375	0.215	0.100
-687.339	-94.063	-0.212	0.058
-686.324	192.512	-0.208	0.316
-685.310	218.536	-0.164	-0.264
-684.295	-200.000	-0.002	-0.041
-683.281	395.197	-0.136	0.286
-682.266	349.685	-0.123	0.244
-681.251	-51.335	-0.298	-0.140
-680.237	800.000	0.045	0.141
-679.222	-105.960	-0.259	0.059
-678.208	-200.000	0.010	-0.174
-677.193	-97.644	-0.298	-0.078
-676.178	-18.679	-0.072	0.045
-675.164	-102.074	-0.287	-0.070
-674.149	-103.377	-0.290	0.069
-673.135	-48.276	0.279	-0.135
-672.120	-81.933	0.223	0.073
-671.105	-143.865	0.025	-0.002
-670.091	-115.761	0.302	0.057
-669.076	-0.796	0.332	0.237
-668.062	800.000	-0.070	-0.248
-667.047	-166.614	-0.509	-0.021
-666.032	17.853	0.118	0.095
-665.018	-57.745	-0.096	0.042
-664.003	80.489	0.233	0.252
-662.989	-26.023	-0.240	-0.142
-661.974	800.000	0.118	-0.337
-660.959	349.682	-0.093	-0.186
-659.945	-200.000	0.011	0.075
-658.930	-200.000	0.010	-0.259
-657.916	-200.000	0.007	-0.091
-656.901	98.523	-0.205	-0.237
-655.886	-117.082	-0.472	-0.087
-654.872	-7.052	0.073	0.050
-653.857	0.931	0.087	0.063
-652.843	58.016	-0.334	0.329
-651.828	328.219	0.108	-0.208
-650.814	-116.382	0.274	0.051
-649.799	9.196	0.286	0.217
-648.784	7.874	0.222	-0.167
-647.770	293.287	0.084	-0.154
-646.755	288.367	0.028	-0.051
-645.741	-113.927	0.169	-0.033
-644.726	-131.981	-0.324	-0.042
-643.711	165.447	0.012	-0.017
-642.697	17.802	0.150	0.120
-641.682	-200.000	0.041	0.247
-640.668	-189.987	0.385	-0.004
-639.653	230.566	0.080	-0.131
-638.638	73.376	-0.047	0.050
-637.624	-71.611	0.098	-0.037
-636.609	-1.093	0.227	0.161
-635.595	-54.592	0.152	0.069
-634.580	800.000	-0.037	0.114
-633.565	800.000	0.065	0.191
-632.551	1.868	-0.228	0.165
-631.536	-106.873	-0.268	0.060
-630.522	250.336	-0.193	0.330
-629.507	-200.000	0.058	-0.399
-628.492	-27.277	-0.095	-0.056
-627.478	591.918	0.128	-0.316
-626.463	800.000	-0.051	0.142
-625.449	-90.042	0.272	-0.080
-624.434	-143.050	-0.234	-0.023
-623.419	-200.000	-0.028	-0.189
-622.405	-95.263	-0.138	-0.037
-621.390	-75.828	-0.160	-0.057
-620.376	743.347	0.049	0.132
-619.361	40.326	0.031	0.028
-618.346	-99.693	0.052	-0.013
-617.332	85.537	0.165	-0.182
-616.317	181.598	0.192	-0.284
-615.303	61.512	-0.326	-0.326
-614.288	423.510	0.207	-0.446
-613.273	15.366	-0.214	0.168
-612.259	93.598	-0.258	0.294
-611.244	-18.964	0.080	-0.050
-610.230	-155.448	0.154	-0.010
-609.215	32.661	0.153	-0.133
-608.201	-200.000	-0.042	-0.239
-607.186	114.286	-0.049	-0.060
-606.171	-62.441	0.130	0.054
-605.157	24.637	-0.262	-0.218
-604.142	-23.958	0.131	-0.079
-603.128	43.079	0.078	-0.071
-602.113	-200.000	0.025	-0.285
-601.098	-4.320	-0.067	-0.046
-600.084	-4.084	-0.277	0.193
-599.069	138.028	0.095	-0.126
-598.055	800.000	-0.043	0.158
-597.040	-200.000	-0.274	-0.001
-596.025	48.443	-0.083	0.078
-595.011	8.115	0.067	0.050
-593.996	150.876	-0.102	0.139
-592.982	-49.510	-0.201	0.096
-591.967	-200.000	-0.002	-0.070
-590.952	-60.807	0.133	0.057
-589.938	-200.000	0.062	0.296
-588.923	-200.000	-0.012	-0.224
-587.909	-128.060	0.266	0.038
-586.894	15.411	-0.098	-0.077
-585.879	539.220	0.068	-0.162
-584.865	-200.000	-0.004	0.243
-583.850	-200.000	-0.009	0.115
-582.836	-144.833	-0.131	0.012
-581.821	111.714	0.010	-0.012
-580.806	227.659	-0.077	-0.125
-579.792	46.204	0.262	-0.243
-578.777	800.000	0.024	-0.097
-577.763	99.844	-0.119	-0.138
-576.748	800.000	0.075	-0.320
-575.733	-66.844	0.139	-0.055
-574.719	-74.387	0.215	0.078
-573.704	46.722	0.352	-0.327
-572.690	92.630	-0.260	0.294
-571.675	115.816	0.200	0.245
-570.661	-8.475	-0.245	-0.165
-569.646	-13.965	0.403	-0.261
-568.631	-200.000	0.002	-0.201
-567.617	-127.705	0.441	0.064
-566.602	56.111	0.028	0.027
-565.588	800.000	-0.023	-0.065
-564.573	-61.310	0.074	0.031
-563.558	800.000	0.058	0.218
-562.544	-200.000	0.022	0.114
-561.529	-27.254	0.349	-0.204
-560.515	587.139	0.078	0.192
-559.500	-34.716	-0.121	0.066
-558.485	380.362	0.177	-0.363
-557.471	129.100	-0.204	0.261
-556.456	-45.748	-0.180	-0.089
-555.442	800.000	-0.097	0.277
-554.427	800.000	-0.046	-0.135
-553.412	-200.000	-0.022	0.139
-552.398	-9.419	-0.134	-0.090
-551.383	-11.489	-0.134	0.088
-550.369	-113.865	0.089	0.017
-549.354	800.000	0.011	-0.045
-548.339	264.540	-0.045	-0.078
-547.325	800.000	-0.027	0.119
-546.310	-200.000	-0.011	-0.226
-545.296	-139.432	-0.054	-0.006
-544.281	800.000	-0.034	-0.112
-543.266	-172.466	-0.160	-0.005
-542.252	-200.000	0.022	0.176
-541.237	-155.369	-0.277	-0.018
-540.223	3.163	0.197	0.144
-539.208	59.285	0.078	-0.077
-538.193	-192.768	-0.212	0.002
-537.179	33.286	-0.160	-0.139
-536.164	-45.672	-0.390	-0.193
-535.150	-148.424	-0.166	0.014
-534.135	523.098	0.048	0.113
-533.121	-43.245	-0.103	0.052
-532.106	754.091	-0.059	-0.159
-531.091	11.377	-0.170	0.130
-530.077	-200.000	0.003	0.024
-529.062	-200.000	0.010	-0.144
-528.048	-16.292	0.148	0.094
-527.033	-56.921	0.088	-0.039
-526.018	-81.917	0.077	-0.025
-525.004	-70.580	0.202	0.077
-523.989	327.584	-0.113	0.217
-522.975	63.597	-0.173	-0.174
-521.960	800.000	0.057	-0.211
-520.945	-200.000	-0.011	0.189
-519.931	-30.989	-0.217	-0.122
-518.916	505.253	-0.154	-0.356
-517.902	-141.965	-0.329	-0.033
-516.887	479.041	0.089	-0.202
-515.872	41.980	-0.322	0.292
-514.858	-200.000	0.068	-0.476
-513.843	800.000	0.088	-0.253
-512.829	20.486	0.137	0.111
-511.814	-98.165	-0.173	-0.045
-510.799	800.000	0.064	0.248
-509.785	-200.000	0.014	-0.212
-508.770	102.341	0.056	0.066
-507.756	-134.240	0.227	-0.028
-506.741	-200.000	0.020	-0.247
-505.726	-70.025	-0.310	-0.118
-504.712	-24.468	0.044	0.026
-503.697	410.843	0.154	-0.326
-502.683	-139.614	-0.246	-0.026
-501.668	59.731	-0.107	0.105
-500.653	800.000	0.050	-0.186
-499.639	-147.124	-0.328	-0.028
-498.624	115.430	-0.291	0.356
-497.610	-104.199	0.233	0.054
-496.595	-64.935	-0.201	-0.081
-495.581	198.298	0.040	0.062
-494.566	-40.688	0.123	0.064
-493.551	800.000	0.100	0.353
-492.537	181.167	-0.084	0.124
-491.522	-109.096	0.394	0.084
-490.508	29.048	0.190	0.161
-489.493	293.916	-0.056	0.103
-488.478	-200.000	0.005	-0.050
-487.464	800.000	0.030	-0.131
-486.449	3.791	0.317	-0.231
-485.435	-32.121	-0.348	0.194
-484.420	800.000	-0.025	-0.094
-483.405	800.000	0.040	-0.121
-482.391	-138.526	-0.318	-0.035
-481.376	50.095	-0.114	0.107
-480.362	800.000	-0.028	-0.083
-479.347	-200.000	0.020	-0.269
-478.332	-19.832	0.295	-0.182
-477.318	-87.708	0.259	0.078
-476.303	-200.000	-0.025	0.212
-475.289	570.487	-0.076	-0.185
-474.274	-200.000	-0.127	-0.561
-473.259	7.923	-0.094	-0.071
-472.245	108.480	-0.138	-0.164
-471.230	-104.065	0.206	0.048
-470.216	315.823	-0.078	-0.147
-469.201	-200.000	0.026	-0.282
-468.186	35.760	-0.247	0.217
-467.172	-200.000	-0.040	-0.256
-466.157	-162.061	-0.286	0.014
-465.143	-153.318	-0.258	0.018
-464.128	106.177	0.251	-0.297
-463.113	-135.189	0.274	-0.033
-462.099	-200.000	0.018	-0.161
-461.084	286.491	-0.045	-0.082
-460.070	105.058	-0.116	-0.137
-459.055	256.729	0.110	0.188
-458.040	-34.232	-0.356	0.195
-457.026	395.666	0.191	-0.398
-456.011	-57.525	-0.169	-0.074
-454.997	46.252	0.197	0.182
-453.982	27.388	-0.127	-0.106
-452.968	-52.052	-0.230	0.107
-451.953	104.453	0.093	-0.109
-450.938	-133.017	-0.138	0.018
-449.924	94.125	0.113	-0.128
-448.909	-200.000	-0.015	0.138
-447.895	110.895	0.115	-0.138
-446.880	-55.840	-0.214	-0.095
-445.865	417.248	0.066	-0.141
-444.851	762.502	-0.055	-0.150
-443.836	30.066	0.166	-0.142
-442.822	26.050	0.088	-0.073
-441.807	-92.024	-0.144	-0.041
-440.792	263.372	-0.157	-0.272
-439.778	23.655	-0.219	0.179
-438.763	-18.030	0.281	0.175
-437.749	500.256	0.107	-0.246
-436.734	800.000	0.022	0.064
-435.719	-127.510	0.150	-0.022
-434.705	-118.899	-0.172	0.030
-433.690	7.064	0.233	0.173
-432.676	43.156	-0.317	-0.289
-431.661	98.158	-0.041	0.047
-430.646	-61.322	-0.085	-0.036
-429.632	800.000	-0.072	-0.212
-428.617	111.542	0.180	0.217
-427.603	-200.000	0.046	0.358
-426.588	-6.764	0.170	0.115
-425.573	-200.000	-0.012	-0.292
-424.559	89.891	0.278	-0.309
-423.544	-135.271	0.090	0.011
-422.530	395.129	-0.058	0.121
-421.515	-103.349	-0.316	0.074
-420.500	-117.607	0.211	0.038
-419.486	154.651	-0.152	0.209
-418.471	800.000	0.070	-0.285
-417.457	138.671	-0.133	-0.174
-416.442	-5.141	-0.121	0.083
-415.428	-67.065	-0.155	0.061
-414.413	-94.411	0.239	-0.065
-413.398	594.556	-0.060	0.147
-412.384	168.331	0.029	0.041
-411.369	64.023	-0.168	-0.168
-410.355	-200.000	-0.023	0.142
-409.340	-74.003	0.327	0.118
-408.325	373.614	0.123	0.249
-407.311	49.376	-0.265	0.248
-406.296	148.638	0.109	-0.147
-405.282	-31.133	-0.150	-0.084
-404.267	110.898	-0.061	-0.074
-403.252	-68.444	-0.138	-0.053
-402.238	-135.509	-0.094	0.011
-401.223	-37.254	-0.099	0.053
-400.209	166.011	-0.270	0.380
-399.194	800.000	-0.034	-0.107
-398.179	-39.064	-0.280	0.147
-397.165	800.000	-0.026	0.104
-396.150	11.699	-0.051	-0.039
-395.136	-1.018	0.088	-0.062
-394.121	-200.000	0.037	-0.283
-393.106	-39.894	-0.160	-0.083
-392.092	-70.470	0.241	0.091
-391.077	-49.104	-0.279	-0.133
-390.063	-200.000	-0.002	0.332
-389.048	-153.281	-0.164	0.011
-388.033	332.497	-0.132	0.254
-387.019	444.600	0.091	0.200
-386.004	309.104	0.082	0.152
-384.990	-15.290	0.166	-0.106
-383.975	-87.900	0.329	-0.099
-382.960	-159.590	0.092	-0.005
-381.946	-20.617	0.246	-0.150
-380.931	569.006	0.094	-0.228
-379.917	133.165	-0.070	-0.090
-378.902	9.354	0.075	-0.056
-377.888	-72.630	-0.184	-0.068
-376.873	-200.000	-0.009	0.082
-375.858	20.307	0.246	0.197
-374.844	427.250	-0.136	-0.292
-373.829	-200.000	0.019	-0.102
-372.815	800.000	0.088	-0.364
-371.800	800.000	0.059	-0.172
-370.785	-200.000	-0.008	0.082
-369.771	246.447	-0.093	-0.156
-368.756	-43.386	-0.318	-0.160
-367.742	-71.724	-0.401	0.149
-366.727	143.434	0.066	0.088
-365.712	-84.787	0.080	-0.025
-364.698	11.201	0.018	-0.013
-363.683	116.423	0.172	0.210
-362.669	-91.843	-0.389	-0.110
-361.654	218.506	-0.053	0.084
-360.639	-94.732	0.309	-0.083
-359.625	-182.163	-0.039	-0.001
-358.610	800.000	0.079	-0.275
-357.596	-117.756	-0.223	0.040
-356.581	465.714	-0.119	-0.265
-355.566	93.032	-0.141	0.159
-354.552	-200.000	-0.024	0.274
-353.537	-65.923	0.249	-0.099
-352.523	-200.000	-0.006	0.203
-351.508	236.326	0.107	0.176
-350.493	-200.000	0.019	-0.094
-349.479	-138.151	-0.128	0.014
-348.464	174.068	0.156	-0.223
-347.450	-200.000	0.041	0.203
-346.435	800.000	-0.050	0.162
-345.420	-47.822	0.040	0.019
-344.406	-9.671	-0.347	-0.230
-343.391	-115.964	-0.114	0.021
-342.377	800.000	-0.114	-0.369
-341.362	-200.000	0.025	-0.245
-340.348	-200.000	0.031	0.172
-339.333	-200.000	-0.007	0.152
-338.318	-122.878	0.200	0.032
-337.304	-200.000	-0.005	0.127
-336.289	800.000	0.090	0.353
-335.275	75.341	-0.063	-0.066
-334.260	-11.273	0.053	-0.035
-333.245	-119.666	0.309	-0.053
-332.231	-54.118	-0.187	0.084
-331.216	696.193	-0.137	0.356
-330.202	-200.000	-0.019	0.188
-329.187	-70.557	-0.254	0.095
-328.172	-23.356	0.214	-0.128
-327.158	-32.871	0.370	-0.204
-326.143	152.298	-0.256	0.346
-325.129	-7.497	-0.054	0.036
-324.114	-135.893	0.066	0.008
-323.099	114.246	0.198	-0.239
-322.085	-200.000	0.010	0.062
-321.070	-200.000	-0.012	0.070
-320.056	-169.085	0.319	-0.012
-319.041	-200.000	-0.062	0.499
-318.026	-65.563	0.188	0.075
-317.012	130.216	0.077	-0.097
-315.997	14.208	-0.110	0.085
-314.983	2.064	0.270	-0.194
-313.968	114.890	0.176	0.214
-312.953	370.342	0.023	0.045
-311.939	318.841	0.093	-0.175
-310.924	-43.433	0.283	0.142
-309.910	6.155	-0.303	-0.223
-308.895	23.986	0.211	-0.173
-307.880	-184.411	0.030	-0.000
-306.866	-98.920	0.148	-0.037
-305.851	338.531	0.242	-0.467
-304.837	-47.409	-0.291	-0.141
-303.822	-157.325	0.454	-0.027
-302.807	-93.712	-0.431	-0.118
-301.793	-140.897	-0.363	-0.037
-300.778	-143.856	0.187	0.018
-299.764	-200.000	0.014	0.230
-298.749	110.435	0.159	0.189
-297.735	800.000	-0.046	0.181
-296.720	-200.000	-0.008	0.190
-295.705	-114.520	-0.223	-0.042
-294.691	252.747	-0.124	0.210
-293.676	-68.755	0.217	-0.083
-292.662	-151.401	-0.084	-0.006
-291.647	15.406	0.307	0.239
-290.632	536.149	0.203	0.477
-289.618	-200.000	-0.008	0.433
-288.603	-200.000	-0.010	0.090
-287.589	700.114	0.099	0.259
-286.574	-78.787	-0.118	0.040
-285.559	-48.109	-0.353	0.169
-284.545	-117.942	-0.151	0.027
-283.530	191.731	0.165	0.247
-282.516	48.229	0.192	0.178
-281.501	-200.000	0.023	0.174
-280.486	233.549	-0.069	-0.113
-279.472	588.563	-0.064	-0.157
-278.457	27.681	0.142	0.118
-277.443	41.677	0.239	0.215
-276.428	-93.156	0.259	0.071
-275.413	-200.000	0.024	0.263
-274.399	-195.472	0.143	0.001
-273.384	256.353	0.118	0.200
-272.370	-120.415	0.224	-0.038
-271.355	-200.000	0.006	0.047
-270.340	211.399	-0.336	-0.523
-269.326	57.171	0.077	-0.074
-268.311	266.434	-0.117	0.202
-267.297	74.024	0.161	-0.167
-266.282	-30.089	-0.301	0.170
-265.267	800.000	0.017	0.067
-264.253	568.961	0.032	0.077
-263.238	755.507	-0.094	-0.251
-262.224	-200.000	-0.038	-0.183
-261.209	-200.000	-0.000	0.066
-260.195	614.844	0.158	0.392
-259.180	-200.000	-0.007	0.312
-258.165	305.184	-0.099	0.183
-257.151	800.000	0.050	0.201
-256.136	800.000	-0.148	0.435
-255.122	-161.521	0.390	0.020
-254.107	-38.995	-0.314	-0.164
-253.092	800.000	0.062	-0.246
-252.078	344.837	0.061	-0.119
-251.063	40.173	-0.152	-0.136
-250.049	254.086	-0.066	-0.111
-249.034	-15.579	-0.176	0.111
-248.019	-127.419	0.095	0.014
-247.005	34.094	0.125	-0.107
-245.990	800.000	0.080	-0.294
-244.976	-200.000	-0.057	0.371
-243.961	800.000	-0.048	-0.141
-242.946	-200.000	0.004	0.102
-241.932	39.125	-0.433	0.383
-240.917	80.726	0.125	0.133
-239.903	422.951	0.118	0.251
-238.888	-88.455	-0.299	0.088
-237.873	116.566	0.106	-0.128
-236.859	85.798	-0.117	-0.127
-235.844	176.774	-0.065	-0.093
-234.830	-200.000	0.012	-0.144
-233.815	-2.917	0.297	0.205
-232.800	83.691	0.162	0.175
-231.786	-200.000	0.004	0.202
-230.771	30.386	0.159	-0.135
-229.757	41.874	-0.046	-0.041
-228.742	111.046	0.058	-0.069
-227.727	-182.317	-0.162	0.003
-226.713	-200.000	-0.003	-0.044
-225.698	65.512	-0.038	0.038
-224.684	249.083	0.043	-0.071
-223.669	-200.000	0.015	-0.281
-222.655	-200.000	-0.016	-0.244
-221.640	800.000	0.085	0.278
-220.625	-40.636	-0.125	-0.064
-219.611	279.339	0.162	0.285
-218.596	800.000	-0.070	0.288
-217.582	-200.000	-0.022	-0.150
-216.567	-120.577	0.126	0.021
-215.552	-67.243	0.402	-0.156
-214.538	-36.912	-0.124	-0.066
-213.523	-20.515	-0.412	0.251
-212.509	-200.000	0.020	-0.246
-211.494	-196.654	-0.517	-0.003
-210.479	-141.837	-0.032	-0.003
-209.465	31.422	-0.127	0.107
-208.450	-129.312	0.208	0.029
-207.436	790.591	0.153	0.416
-206.421	800.000	0.063	0.211
-205.406	-64.469	-0.264	0.106
-204.392	7.587	0.108	0.080
-203.377	-132.926	-0.144	-0.018
-202.363	55.532	-0.096	-0.091
-201.348	-69.879	-0.090	0.034
-200.333	800.000	-0.017	0.064
-199.319	53.175	-0.132	-0.125
-198.304	140.968	-0.114	0.149
-197.290	22.631	-0.032	0.026
-196.275	-143.525	0.369	0.035
-195.260	34.153	0.209	-0.180
-194.246	-82.580	-0.107	-0.034
-193.231	-143.068	0.521	0.050
-192.217	212.932	-0.084	-0.131
-191.202	446.218	-0.094	-0.205
-190.187	-83.840	-0.178	0.056
-189.173	-200.000	0.006	-0.201
-188.158	-109.045	-0.118	0.025
-187.144	203.985	0.113	0.173
-186.129	-190.862	0.310	0.003
-185.114	-200.000	0.038	0.175
-184.100	223.734	0.173	0.276
-183.085	800.000	-0.080	0.235
-182.071	800.000	0.023	-0.072
-181.056	147.651	-0.141	-0.188
-180.042	116.814	-0.104	0.126
-179.027	70.386	0.102	0.104
-178.012	58.828	-0.067	0.065
-176.998	187.642	-0.172	0.254
-175.983	-5.084	-0.159	-0.108
-174.969	-126.289	-0.161	0.024
-173.954	103.070	-0.129	0.149
-172.939	-140.135	0.328	-0.034
-171.925	-86.890	0.061	-0.018
-170.910	-101.095	-0.188	-0.045
-169.896	-12.089	0.165	-0.107
-168.881	-91.925	0.113	0.031
-167.866	-54.462	-0.122	0.054
-166.852	-200.000	-0.009	-0.204
-165.837	-200.000	0.000	-0.129
-164.823	-56.981	0.255	-0.111
-163.808	-11.565	-0.162	0.105
-162.793	499.125	0.169	-0.385
-161.779	800.000	0.070	0.234
-160.764	-169.513	-0.103	0.004
-159.750	-6.309	0.153	0.103
-158.735	369.909	0.023	0.045
-157.720	800.000	0.021	-0.086
-156.706	-200.000	0.031	0.190
-155.691	-72.574	-0.140	-0.051
-154.677	-195.187	0.259	-0.002
-153.662	-200.000	0.036	0.251
-152.647	-6.520	0.129	-0.086
-151.633	-138.150	0.049	-0.005
-150.618	-26.482	0.339	-0.196
-149.604	336.047	0.162	0.309
-148.589	204.391	-0.041	0.063
-147.574	-200.000	0.018	0.312
-146.560	125.031	0.106	-0.132
-145.545	10.276	-0.127	0.095
-144.531	-32.225	0.218	-0.120
-143.516	23.659	0.149	0.121
-142.502	339.303	0.143	-0.275
-141.487	30.158	0.239	-0.201
-140.472	-200.000	-0.012	0.168
-139.458	-200.000	-0.009	0.337
-138.443	36.030	-0.037	-0.032
-137.429	78.713	-0.095	0.100
-136.414	151.611	0.289	-0.387
-135.399	-15.464	-0.212	0.133
-134.385	128.311	0.144	-0.181
-133.370	-200.000	-0.044	-0.326
-132.356	-200.000	0.040	0.211
-131.341	-200.000	-0.027	0.244
-130.326	459.307	0.057	-0.124
-129.312	296.158	-0.102	0.184
-128.297	-35.504	0.208	0.111
-127.283	45.123	-0.325	0.295
-126.268	-89.171	0.082	0.024
-125.253	-63.979	0.321	-0.129
-124.239	800.000	-0.052	0.208
-123.224	-156.890	0.126	-0.008
-122.210	800.000	-0.008	-0.028
-121.195	-44.640	-0.275	0.135
-120.180	-100.456	0.054	0.013
