DTS Sentinel unit serial number:	SN413079Multiplexer serial number:	ORYXHardware model number:	OX4-SRSoftware version number:	ORYX F/W v4.00 Oryx Data Collector v3.7.2.0data status	okinstallation	princeton_trtdifferential loss correction	single-endedforward channel	channel 2reverse channel	N/Adate	2019/09/11time	06:41:11forward acquisition time	60.00reverse acquisition time	0.00gamma	496.2192k internal	0.2328k external	0.2328temperature offset calibration	0.9935default loss term (dB/km)	0.3790temperature slope calibration	1.0000multiplexer offset coefficient	1.0000multiplexer slope coefficient	1.0000fibre end	0.00T internal ref (°C)	29.75T ext. ref 1 (°C)	-0.17T ext. ref 2 (°C)	24.68length (m)	temperature (°C)	Stokes	anti-Stokes-747.200	-134.586	0.137	-0.017
-746.185	92.172	-0.071	-0.080
-745.171	-65.538	-0.309	0.125
-744.156	136.529	0.018	-0.024
-743.142	43.875	-0.033	-0.030
-742.127	-71.988	-0.228	0.085
-741.112	-74.906	0.178	-0.064
-740.098	800.000	-0.063	0.237
-739.083	-158.168	-0.160	-0.009
-738.069	122.356	-0.054	0.067
-737.054	800.000	-0.128	0.372
-736.039	-60.964	-0.250	-0.107
-735.025	46.397	0.057	0.053
-734.010	30.796	-0.145	-0.125
-732.996	276.360	-0.246	-0.440
-731.981	-200.000	0.001	0.009
-730.966	420.917	-0.121	0.261
-729.952	-200.000	0.015	0.072
-728.937	679.786	-0.057	0.149
-727.923	81.323	-0.088	-0.096
-726.908	19.474	-0.113	-0.091
-725.894	-200.000	-0.046	-0.294
-724.879	-179.572	-0.416	-0.009
-723.864	800.000	0.077	0.265
-722.850	-45.187	-0.172	0.086
-721.835	-65.600	-0.511	-0.206
-720.821	142.372	-0.080	0.107
-719.806	-98.345	-0.144	0.037
-718.791	-28.853	-0.462	0.268
-717.777	-153.349	0.152	0.011
-716.762	111.508	0.042	0.051
-715.748	263.640	-0.196	0.344
-714.733	-8.133	0.180	0.122
-713.718	99.982	0.111	-0.130
-712.704	-77.729	0.423	-0.147
-711.689	426.163	-0.141	-0.306
-710.675	-57.420	-0.123	-0.055
-709.660	-77.525	0.320	-0.112
-708.645	-107.547	-0.293	-0.064
-707.631	-200.000	-0.008	-0.295
-706.616	-16.739	0.181	0.115
-705.602	279.681	0.220	0.396
-704.587	242.927	-0.111	-0.187
-703.572	437.413	0.059	0.129
-702.558	-200.000	0.046	-0.245
-701.543	0.317	0.238	-0.171
-700.529	800.000	-0.055	-0.164
-699.514	-114.266	0.157	-0.031
-698.499	-200.000	0.017	-0.312
-697.485	800.000	-0.063	-0.248
-696.470	20.448	-0.273	0.222
-695.456	48.382	0.277	0.261
-694.441	81.410	0.190	-0.207
-693.426	-188.480	0.166	-0.002
-692.412	-100.872	0.342	-0.084
-691.397	23.302	-0.038	-0.031
-690.383	174.332	-0.037	0.054
-689.368	-200.000	-0.026	-0.295
-688.354	-39.096	-0.087	0.046
-687.339	202.902	-0.110	-0.171
-686.324	-96.595	-0.196	-0.052
-685.310	268.209	0.057	0.100
-684.295	250.239	-0.064	0.110
-683.281	313.287	-0.183	-0.347
-682.266	39.194	-0.146	-0.131
-681.251	-67.175	0.130	0.052
-680.237	-200.000	0.023	-0.366
-679.222	800.000	-0.013	-0.051
-678.208	-200.000	-0.014	-0.083
-677.193	3.130	-0.339	0.248
-676.178	-200.000	-0.085	-0.396
-675.164	-89.686	0.197	-0.058
-674.149	-86.899	-0.438	-0.134
-673.135	-166.739	0.286	-0.012
-672.120	-153.565	-0.098	-0.007
-671.105	-59.175	-0.217	-0.094
-670.091	-107.386	-0.255	-0.056
-669.076	-30.067	0.206	-0.118
-668.062	-200.000	0.007	-0.043
-667.047	548.658	0.057	0.137
-666.032	84.832	0.252	-0.277
-665.018	420.488	-0.122	0.262
-664.003	305.374	0.157	0.293
-662.989	78.103	-0.212	-0.227
-661.974	582.846	-0.131	-0.322
-660.959	800.000	-0.068	0.238
-659.945	-113.000	0.101	0.020
-658.930	-200.000	-0.001	-0.095
-657.916	-104.376	0.261	0.061
-656.901	-52.584	-0.089	-0.041
-655.886	-40.260	0.151	-0.079
-654.872	-44.950	0.401	0.200
-653.857	-157.973	0.334	0.020
-652.843	618.642	-0.106	-0.267
-651.828	-59.916	0.436	-0.187
-650.814	-200.000	-0.008	0.042
-649.799	-14.319	-0.216	-0.140
-648.784	-163.006	-0.156	-0.008
-647.770	-15.862	-0.373	-0.239
-646.755	800.000	0.044	-0.172
-645.741	-113.095	-0.064	0.013
-644.726	29.842	0.185	0.158
-643.711	800.000	0.032	-0.112
-642.697	8.051	-0.145	0.109
-641.682	297.814	0.062	-0.114
-640.668	-26.167	-0.167	0.099
-639.653	-200.000	0.009	-0.089
-638.638	-131.693	-0.303	0.040
-637.624	35.319	-0.021	-0.018
-636.609	-169.765	-0.275	-0.010
-635.595	234.249	0.049	-0.082
-634.580	487.733	-0.053	0.121
-633.565	-116.102	-0.197	0.037
-632.551	388.139	-0.047	-0.098
-631.536	-167.938	-0.393	0.015
-630.522	-200.000	-0.017	0.311
-629.507	247.338	0.055	0.093
-628.492	53.493	-0.222	-0.214
-627.478	-200.000	0.001	-0.212
-626.463	-3.591	0.198	-0.138
-625.449	-200.000	-0.021	-0.110
-624.434	25.549	-0.290	-0.242
-623.419	800.000	0.066	0.216
-622.405	241.295	0.171	-0.286
-621.390	-200.000	0.053	-0.354
-620.376	-25.656	-0.324	0.192
-619.361	73.975	-0.110	0.116
-618.346	101.678	0.129	-0.151
-617.332	535.442	-0.171	0.406
-616.317	-200.000	-0.028	0.296
-615.303	-200.000	0.047	0.435
-614.288	-60.834	-0.114	0.048
-613.273	-140.858	0.130	-0.013
-612.259	800.000	-0.033	0.122
-611.244	-179.750	0.114	-0.002
-610.230	-21.933	-0.270	-0.165
-609.215	-28.708	-0.275	0.158
-608.201	193.331	0.374	-0.568
-607.186	9.061	-0.068	-0.051
-606.171	-25.575	-0.217	0.128
-605.157	-53.011	0.118	0.054
-604.142	-200.000	0.033	-0.270
-603.128	-54.743	0.177	0.080
-602.113	-9.926	-0.300	0.200
-601.098	566.822	0.074	0.180
-600.084	-33.013	-0.211	-0.117
-599.069	698.683	0.030	-0.079
-598.055	-132.333	-0.246	0.032
-597.040	800.000	-0.055	0.238
-596.025	163.556	-0.180	-0.254
-595.011	45.372	0.094	-0.087
-593.996	800.000	-0.066	0.201
-592.982	199.289	0.014	0.021
-591.967	-0.950	-0.070	0.050
-590.952	-112.706	0.323	0.064
-589.938	156.329	-0.045	0.062
-588.923	-200.000	0.005	-0.327
-587.909	75.395	-0.087	0.092
-586.894	800.000	0.063	-0.215
-585.879	-68.052	-0.312	0.122
-584.865	-102.846	-0.144	-0.034
-583.850	-44.642	0.308	0.154
-582.836	-200.000	0.023	-0.232
-581.821	47.525	-0.138	0.128
-580.806	39.073	-0.139	0.125
-579.792	-1.885	-0.062	0.044
-578.777	-179.801	-0.170	-0.004
-577.763	-153.834	0.234	-0.016
-576.748	-97.728	-0.088	-0.023
-575.733	261.279	0.147	0.254
-574.719	12.777	0.100	0.077
-573.704	274.162	-0.049	0.086
-572.690	-200.000	-0.030	-0.247
-571.675	-8.877	-0.133	-0.089
-570.661	177.615	-0.066	-0.096
-569.646	225.463	0.172	-0.278
-568.631	133.738	0.022	0.028
-567.617	-35.676	-0.430	0.233
-566.602	84.963	-0.006	-0.007
-565.588	560.800	-0.025	-0.061
-564.573	-113.886	0.117	0.023
-563.558	785.857	0.045	0.123
-562.544	775.567	0.058	-0.159
-561.529	-124.696	0.090	-0.014
-560.515	800.000	0.008	-0.024
-559.500	-98.523	-0.243	-0.062
-558.485	-17.681	-0.221	-0.139
-557.471	553.932	0.057	0.138
-556.456	-14.639	-0.168	0.108
-555.442	-200.000	0.048	-0.369
-554.427	37.831	0.257	-0.229
-553.412	262.970	0.037	0.064
-552.398	10.876	-0.053	-0.040
-551.383	-161.237	0.128	0.007
-550.369	-150.213	-0.177	0.014
-549.354	119.245	-0.206	-0.256
-548.339	-152.597	-0.259	-0.018
-547.325	-88.609	-0.298	0.089
-546.310	176.207	0.101	-0.147
-545.296	-66.361	0.437	-0.174
-544.281	-200.000	0.014	-0.110
-543.266	426.682	-0.080	0.172
-542.252	-15.022	-0.175	0.112
-541.237	175.435	-0.044	0.064
-540.223	46.207	0.136	-0.126
-539.208	-59.061	-0.226	-0.098
-538.193	88.691	-0.051	-0.056
-537.179	-15.448	-0.275	0.176
-536.164	-200.000	-0.036	0.528
-535.150	369.597	-0.119	-0.241
-534.135	22.867	0.219	-0.179
-533.121	-200.000	0.002	0.134
-532.106	-87.608	-0.352	-0.106
-531.091	-200.000	-0.017	0.289
-530.077	115.781	-0.202	-0.247
-529.062	-79.274	0.316	-0.107
-528.048	-102.418	0.203	0.049
-527.033	-200.000	0.035	0.538
-526.018	-200.000	-0.034	-0.187
-525.004	-108.911	0.426	-0.091
-523.989	-200.000	-0.028	-0.169
-522.975	-200.000	0.010	0.051
-521.960	800.000	-0.126	0.447
-520.945	-73.564	-0.179	0.065
-519.931	-52.594	-0.187	-0.086
-518.916	-101.603	-0.184	0.045
-517.902	-149.667	-0.097	-0.008
-516.887	3.710	-0.286	-0.209
-515.872	-200.000	0.013	-0.212
-514.858	419.835	0.031	-0.066
-513.843	-77.826	0.104	0.036
-512.829	318.795	-0.248	-0.470
-511.814	-34.864	0.165	0.090
-510.799	179.991	-0.179	0.262
-509.785	-115.916	-0.186	0.035
-508.770	-58.058	0.191	0.083
-507.756	-47.376	-0.194	0.094
-506.741	-72.952	-0.228	0.083
-505.726	648.342	-0.096	0.246
-504.712	316.575	0.118	-0.222
-503.697	139.139	0.235	-0.308
-502.683	-15.625	0.145	-0.093
-501.668	-82.444	0.089	-0.029
-500.653	-145.676	0.078	0.007
-499.639	326.565	-0.038	-0.073
-498.624	156.591	-0.169	0.233
-497.610	-154.928	-0.333	-0.022
-496.595	800.000	-0.054	0.202
-495.581	-2.681	0.100	0.070
-494.566	-200.000	0.004	0.109
-493.551	272.997	-0.105	-0.185
-492.537	-73.887	0.011	0.004
-491.522	733.621	0.055	-0.148
-490.508	-48.582	0.054	-0.026
-489.493	309.329	-0.088	0.164
-488.478	14.839	-0.112	-0.087
-487.464	-50.303	-0.107	0.051
-486.449	336.638	-0.078	0.151
-485.435	-31.864	0.329	-0.184
-484.420	251.709	-0.100	-0.170
-483.405	800.000	-0.066	-0.232
-482.391	-55.961	-0.189	0.084
-481.376	303.685	-0.140	0.258
-480.362	-200.000	0.081	-0.554
-479.347	125.878	-0.167	-0.210
-478.332	-54.312	-0.282	-0.128
-477.318	279.367	0.219	0.390
-476.303	355.848	0.127	-0.252
-475.289	120.026	0.170	0.210
-474.274	7.413	-0.191	-0.142
-473.259	-86.450	0.160	0.049
-472.245	169.290	0.200	0.284
-471.230	-34.201	-0.046	-0.025
-470.216	-200.000	-0.002	-0.131
-469.201	-104.791	0.267	0.061
-468.186	800.000	0.015	-0.065
-467.172	0.197	-0.107	0.076
-466.157	-92.038	0.150	0.042
-465.143	29.197	-0.175	-0.148
-464.128	-200.000	-0.092	-0.582
-463.113	-200.000	0.038	-0.318
-462.099	-39.467	-0.164	-0.086
-461.084	-3.111	0.130	-0.090
-460.070	-32.775	-0.274	0.152
-459.055	358.115	-0.087	0.174
-458.040	-200.000	0.008	0.190
-457.026	-200.000	0.047	-0.281
-456.011	-73.865	-0.082	0.030
-454.997	-94.706	-0.378	-0.102
-453.982	64.399	0.394	-0.396
-452.968	-200.000	0.060	-0.287
-451.953	47.196	0.059	-0.054
-450.938	252.119	-0.179	0.304
-449.924	13.006	0.155	-0.120
-448.909	-161.868	-0.099	-0.005
-447.895	800.000	-0.046	0.135
-446.880	-86.360	-0.126	0.039
-445.865	33.154	-0.215	0.186
-444.851	-44.445	-0.302	0.150
-443.836	75.015	-0.083	0.087
-442.822	37.094	-0.220	0.194
-441.807	189.336	0.121	0.181
-440.792	12.218	-0.073	0.056
-439.778	139.461	0.075	0.098
-438.763	540.821	0.040	-0.095
-437.749	16.512	-0.396	-0.312
-436.734	457.333	0.070	0.154
-435.719	211.903	0.164	0.257
-434.705	641.569	0.069	0.175
-433.690	-27.847	0.105	0.061
-432.676	-2.973	0.245	-0.170
-431.661	-57.789	0.079	-0.034
-430.646	-91.369	-0.160	-0.045
-429.632	-200.000	-0.023	0.217
-428.617	410.941	-0.121	0.255
-427.603	106.359	0.150	0.177
-426.588	144.986	0.203	-0.270
-425.573	-58.027	0.194	-0.084
-424.559	-200.000	0.040	-0.210
-423.544	-20.385	0.410	-0.251
-422.530	726.465	0.123	-0.326
-421.515	481.285	-0.135	-0.306
-420.500	-200.000	0.032	-0.158
-419.486	-200.000	0.072	-0.340
-418.471	-165.859	0.245	-0.010
-417.457	-65.656	-0.266	-0.106
-416.442	800.000	0.086	-0.292
-415.428	204.473	-0.075	-0.115
-414.413	-14.262	0.388	-0.249
-413.398	481.807	-0.138	0.312
-412.384	160.197	-0.080	0.111
-411.369	-200.000	0.025	0.332
-410.355	332.958	-0.090	0.172
-409.340	800.000	-0.089	-0.316
-408.325	112.710	-0.062	-0.074
-407.311	-187.693	0.498	-0.007
-406.296	-200.000	0.038	-0.170
-405.282	-73.223	0.248	0.090
-404.267	16.829	-0.163	0.128
-403.252	-66.543	-0.125	-0.049
-402.238	157.885	-0.105	0.145
-401.223	-91.003	0.691	0.197
-400.209	178.516	0.090	-0.131
-399.194	-108.706	-0.143	0.031
-398.179	-27.761	-0.391	0.226
-397.165	190.040	-0.196	-0.293
-396.150	-200.000	-0.013	0.109
-395.136	18.290	-0.163	0.130
-394.121	131.521	0.181	0.232
-393.106	-62.313	0.337	-0.140
-392.092	261.058	-0.061	-0.106
-391.077	0.666	0.275	0.195
-390.063	-28.859	-0.152	-0.087
-389.048	-119.783	-0.057	-0.010
-388.033	-98.125	0.422	0.108
-387.019	-90.392	0.164	-0.047
-386.004	70.397	-0.104	-0.106
-384.990	-200.000	-0.008	-0.127
-383.975	23.235	0.132	0.107
-382.960	-104.649	0.271	0.062
-381.946	-43.799	-0.363	-0.182
-380.931	363.058	0.085	-0.169
-379.917	-134.535	0.102	-0.012
-378.902	16.206	-0.204	-0.160
-377.888	-83.688	0.182	-0.058
-376.873	-7.301	0.298	-0.200
-375.858	-53.517	-0.243	0.111
-374.844	195.130	0.044	-0.066
-373.829	-75.001	-0.322	0.115
-372.815	-70.762	-0.186	-0.070
-371.800	-58.417	-0.521	-0.225
-370.785	75.408	0.284	0.298
-369.771	800.000	0.093	-0.316
-368.756	334.304	0.039	-0.075
-367.742	-157.692	-0.194	0.011
-366.727	800.000	-0.077	-0.274
-365.712	800.000	0.066	0.255
-364.698	134.798	-0.072	-0.093
-363.683	118.131	0.208	-0.255
-362.669	-74.603	-0.237	0.085
-361.654	59.782	-0.032	0.031
-360.639	-113.943	0.157	-0.030
-359.625	-56.658	-0.272	-0.119
-358.610	70.459	0.215	-0.221
-357.596	-84.898	0.316	0.099
-356.581	-191.961	-0.400	-0.004
-355.566	-200.000	-0.024	0.145
-354.552	-142.368	-0.355	-0.035
-353.537	412.284	-0.083	0.176
-352.523	176.306	-0.052	-0.075
-351.508	-200.000	-0.002	-0.052
-350.493	-14.143	-0.302	0.194
-349.479	46.940	0.057	-0.053
-348.464	110.929	-0.073	0.087
-347.450	-16.293	-0.099	0.062
-346.435	-80.633	0.353	0.117
-345.420	-200.000	0.017	0.099
-344.406	-118.043	0.082	-0.015
-343.391	690.666	-0.072	0.187
-342.377	-100.588	-0.290	-0.071
-341.362	-79.854	0.233	0.078
-340.348	-31.287	0.230	-0.129
-339.333	-77.526	0.290	0.100
-338.318	-200.000	-0.028	0.349
-337.304	-47.460	-0.217	0.105
-336.289	800.000	0.030	-0.104
-335.275	-200.000	0.020	-0.152
-334.260	-15.050	0.150	-0.095
-333.245	63.687	0.190	0.189
-332.231	82.488	0.180	0.194
-331.216	525.459	0.102	0.239
-330.202	-200.000	-0.012	-0.054
-329.187	-116.925	-0.081	0.015
-328.172	-200.000	-0.005	-0.132
-327.158	-200.000	0.013	0.081
-326.143	800.000	-0.137	0.388
-325.129	106.028	0.081	0.095
-324.114	800.000	-0.091	0.366
-323.099	-90.454	-0.047	-0.013
-322.085	-31.620	-0.149	-0.083
-321.070	10.149	0.250	-0.188
-320.056	-159.461	0.242	0.013
-319.041	65.110	0.027	-0.027
-318.026	430.442	-0.062	0.134
-317.012	558.537	0.006	0.015
-315.997	117.605	0.258	0.315
-314.983	44.854	0.312	-0.285
-313.968	54.760	0.060	0.057
-312.953	107.572	0.145	0.171
-311.939	-151.249	-0.120	0.009
-310.924	210.227	0.056	0.086
-309.910	29.314	0.286	0.241
-308.895	-113.003	0.266	-0.052
-307.880	83.756	0.215	-0.232
-306.866	-78.749	0.275	0.093
-305.851	-85.839	0.509	-0.156
-304.837	-139.004	-0.473	0.051
-303.822	-187.177	0.066	-0.001
-302.807	-140.016	-0.266	0.028
-301.793	3.986	-0.064	0.046
-300.778	152.624	0.058	0.079
-299.764	-200.000	0.042	-0.187
-298.749	-118.565	0.241	-0.042
-297.735	800.000	-0.047	-0.144
-296.720	44.891	0.174	-0.159
-295.705	512.648	-0.035	-0.082
-294.691	147.226	0.147	0.196
-293.676	-14.894	-0.146	-0.093
-292.662	-9.183	0.185	0.122
-291.647	-4.026	-0.213	-0.147
-290.632	-200.000	-0.005	-0.089
-289.618	-126.148	0.279	-0.041
-288.603	69.276	0.184	0.187
-287.589	-107.811	0.091	-0.020
-286.574	-93.081	-0.097	-0.027
-285.559	137.679	0.180	0.233
-284.545	561.828	-0.030	0.073
-283.530	-185.342	-0.438	0.007
-282.516	-145.395	0.512	-0.046
-281.501	800.000	0.049	-0.210
-280.486	25.354	0.201	-0.166
-279.472	214.461	-0.160	0.251
-278.457	240.942	0.232	-0.383
-277.443	324.174	0.069	0.130
-276.428	419.933	0.124	0.263
-275.413	-78.784	0.250	0.084
-274.399	-200.000	-0.022	0.151
-273.384	3.530	0.196	0.141
-272.370	-121.524	-0.199	0.033
-271.355	-200.000	0.064	0.464
-270.340	-80.538	0.211	0.070
-269.326	800.000	-0.066	-0.232
-268.311	117.372	0.155	0.188
-267.297	-185.110	0.154	-0.002
-266.282	796.191	-0.098	-0.267
-265.267	-32.941	0.312	0.171
-264.253	85.367	-0.022	0.024
-263.238	-1.642	0.116	-0.081
-262.224	-67.066	0.437	0.170
-261.209	-114.789	0.359	-0.068
-260.195	-136.344	-0.158	-0.018
-259.180	114.318	-0.132	0.159
-258.165	-105.483	0.035	0.008
-257.151	-31.148	0.074	-0.041
-256.136	487.112	-0.093	0.209
-255.122	-89.762	-0.115	-0.033
-254.107	-113.594	-0.088	0.017
-253.092	-120.194	0.393	-0.066
-252.078	-106.743	-0.310	-0.068
-251.063	140.080	-0.082	0.107
-250.049	323.518	-0.204	0.384
-249.034	800.000	0.072	-0.231
-248.019	165.918	0.119	-0.166
-247.005	57.360	0.428	-0.413
-245.990	-200.000	0.025	-0.109
-244.976	-76.579	-0.147	0.051
-243.961	692.327	-0.100	0.258
-242.946	510.765	-0.090	0.206
-241.932	-200.000	0.032	-0.323
-240.917	-200.000	-0.011	-0.310
-239.903	-153.134	0.371	0.026
-238.888	76.918	0.079	0.083
-237.873	-200.000	-0.011	0.068
-236.859	201.510	0.148	-0.226
-235.844	800.000	0.038	-0.135
-234.830	245.528	-0.149	0.247
-233.815	-111.309	0.123	0.025
-232.800	800.000	-0.029	0.127
-231.786	-99.059	-0.324	0.081
-230.771	-175.402	0.291	-0.008
-229.757	-200.000	-0.002	-0.211
-228.742	380.200	0.140	-0.283
-227.727	66.607	0.063	0.063
-226.713	-28.949	-0.168	-0.096
-225.698	-200.000	-0.017	-0.107
-224.684	766.594	0.117	0.314
-223.669	-200.000	0.124	-0.544
-222.655	800.000	-0.033	0.144
-221.640	-134.844	-0.126	-0.015
-220.625	-7.432	0.256	-0.171
-219.611	-55.398	-0.196	-0.087
-218.596	-170.098	0.237	-0.008
-217.582	128.200	0.254	0.319
-216.567	287.204	0.109	0.194
-215.552	710.527	-0.140	-0.365
-214.538	362.202	-0.114	-0.226
-213.523	-121.832	-0.304	0.050
-212.509	180.800	-0.155	-0.225
-211.494	-92.347	-0.205	-0.057
-210.479	-138.716	-0.074	0.008
-209.465	2.050	0.027	-0.019
-208.450	159.645	-0.052	-0.071
-207.436	450.846	0.066	0.144
-206.421	800.000	0.049	0.144
-205.406	-47.207	0.260	0.125
-204.392	295.149	0.087	-0.158
-203.377	-120.946	-0.266	0.044
-202.363	298.467	0.260	-0.471
-201.348	30.971	0.284	-0.240
-200.333	403.925	-0.186	0.387
-199.319	30.814	-0.091	0.077
-198.304	-88.015	-0.346	0.103
-197.290	-190.380	0.390	0.004
-196.275	-43.675	0.185	0.092
-195.260	800.000	0.006	-0.022
-194.246	-42.546	-0.107	-0.054
-193.231	800.000	-0.117	-0.346
-192.217	229.006	0.113	-0.182
-191.202	-200.000	0.026	-0.380
-190.187	212.844	-0.210	0.327
-189.173	-200.000	0.011	0.081
-188.158	-200.000	-0.005	-0.323
-187.144	-88.920	-0.061	0.018
-186.129	-42.267	-0.272	0.137
-185.114	800.000	0.143	0.537
-184.100	237.386	0.096	0.157
-183.085	-111.061	-0.152	-0.031
-182.071	200.672	0.051	0.077
-181.056	64.004	-0.034	-0.034
-180.042	128.371	0.088	0.110
-179.027	-77.547	-0.531	-0.181
-178.012	-200.000	0.015	-0.145
-176.998	-119.376	-0.107	-0.018
-175.983	44.483	0.212	0.192
-174.969	-142.278	-0.204	0.020
-173.954	-200.000	0.025	0.155
-172.939	21.504	0.241	0.193
-171.925	37.855	0.329	0.288
-170.910	50.470	0.190	0.177
-169.896	-34.438	0.115	0.062
-168.881	10.773	0.344	0.259
-167.866	-76.081	-0.227	-0.079
-166.852	170.722	0.249	0.351
-165.837	-118.539	-0.263	0.046
-164.823	36.633	0.158	0.137
-163.808	389.262	0.086	-0.175
-162.793	47.342	-0.403	0.370
-161.779	-200.000	0.032	0.223
-160.764	-150.445	0.263	0.020
-159.750	800.000	-0.054	0.148
-158.735	-80.294	-0.344	0.113
-157.720	786.829	0.050	0.136
-156.706	-7.163	0.277	0.185
-155.691	74.718	-0.312	0.323
-154.677	79.981	0.078	0.083
-153.662	113.018	-0.101	-0.121
-152.647	-140.621	0.232	-0.024
-151.633	6.144	-0.169	-0.124
-150.618	56.562	-0.051	0.048
-149.604	-147.931	-0.213	0.017
-148.589	-200.000	0.046	-0.223
-147.574	284.156	0.022	0.038
-146.560	222.947	0.106	-0.169
-145.545	194.201	-0.075	0.111
-144.531	-146.535	-0.155	0.013
-143.516	35.663	0.070	0.061
-142.502	571.431	0.128	0.306
-141.487	-200.000	-0.025	-0.461
-140.472	-102.430	-0.169	-0.040
-139.458	-200.000	-0.028	-0.372
-138.443	-96.798	0.442	-0.114
-137.429	440.340	-0.157	0.338
-136.414	-70.696	0.095	0.035
-135.399	10.560	-0.332	0.249
-134.385	800.000	-0.077	0.296
-133.370	406.006	0.160	-0.332
-132.356	-85.019	0.114	-0.035
-131.341	-139.035	-0.191	-0.020
-130.326	85.287	0.065	0.070
-129.312	-15.886	0.300	0.188
-128.297	800.000	-0.097	0.360
-127.283	-9.896	-0.187	0.122
-126.268	13.724	0.071	-0.054
-125.253	373.198	-0.104	0.209
-124.239	97.541	-0.088	-0.099
-123.224	-120.905	0.335	0.055
-122.210	-200.000	-0.006	-0.119
-121.195	-58.943	0.118	-0.050
