DTS Sentinel unit serial number:	SN413079Multiplexer serial number:	ORYXHardware model number:	OX4-SRSoftware version number:	ORYX F/W v4.00 Oryx Data Collector v3.7.2.0data status	okinstallation	princeton_trtdifferential loss correction	single-endedforward channel	channel 2reverse channel	N/Adate	2019/09/18time	19:35:34forward acquisition time	60.00reverse acquisition time	0.00gamma	496.2192k internal	0.2331k external	0.2331temperature offset calibration	1.0037default loss term (dB/km)	0.3790temperature slope calibration	1.0000multiplexer offset coefficient	1.0000multiplexer slope coefficient	1.0000fibre end	0.00T internal ref (°C)	32.39T ext. ref 1 (°C)	1.09T ext. ref 2 (°C)	22.48length (m)	temperature (°C)	Stokes	anti-Stokes-747.200	-68.414	-0.179	-0.070
-746.185	-101.479	-0.202	0.049
-745.171	4.440	-0.119	0.087
-744.156	-28.737	-0.120	0.069
-743.142	139.169	-0.067	0.089
-742.127	800.000	0.110	0.458
-741.112	-18.050	-0.107	0.068
-740.098	254.480	-0.098	-0.168
-739.083	-28.246	0.104	0.060
-738.069	98.474	0.233	0.270
-737.054	-200.000	-0.010	0.093
-736.039	27.034	-0.307	-0.259
-735.025	9.451	0.246	0.187
-734.010	185.321	-0.067	0.099
-732.996	41.162	-0.167	-0.151
-731.981	-71.813	-0.156	0.058
-730.966	-12.109	-0.300	0.198
-729.952	188.224	-0.126	-0.189
-728.937	-96.499	-0.353	0.094
-727.923	469.806	0.056	-0.125
-726.908	800.000	0.041	0.147
-725.894	33.884	-0.307	0.268
-724.879	61.486	0.242	-0.242
-723.864	-77.486	0.144	-0.050
-722.850	-200.000	-0.023	-0.161
-721.835	-0.635	-0.057	0.041
-720.821	-200.000	-0.135	-0.000
-719.806	425.501	0.055	-0.119
-718.791	120.067	0.160	0.199
-717.777	-200.000	-0.025	-0.123
-716.762	525.767	0.180	-0.427
-715.748	-200.000	-0.017	-0.088
-714.733	-43.700	-0.185	0.094
-713.718	658.854	-0.147	-0.381
-712.704	-87.443	-0.075	-0.023
-711.689	504.617	-0.015	-0.035
-710.675	165.927	0.073	0.104
-709.660	83.415	-0.116	0.127
-708.645	-145.820	0.257	0.023
-707.631	508.157	0.074	0.174
-706.616	318.096	0.113	-0.215
-705.602	-30.507	-0.144	0.082
-704.587	54.645	0.296	0.286
-703.572	800.000	-0.034	0.108
-702.558	-200.000	0.010	0.079
-701.543	-196.075	-0.170	0.001
-700.529	-200.000	0.023	-0.271
-699.514	-200.000	-0.032	0.280
-698.499	-164.792	0.115	0.005
-697.485	800.000	0.069	-0.203
-696.470	207.825	0.091	-0.142
-695.456	-1.175	-0.268	-0.190
-694.441	-111.242	-0.206	0.042
-693.426	20.133	0.193	-0.156
-692.412	-124.225	0.171	0.027
-691.397	-129.395	-0.219	-0.031
-690.383	-200.000	-0.030	0.339
-689.368	-24.378	0.082	0.049
-688.354	-34.696	0.154	0.085
-687.339	-55.256	0.146	0.066
-686.324	-200.000	0.445	-0.001
-685.310	221.705	-0.108	-0.174
-684.295	-200.000	-0.031	-0.227
-683.281	-131.622	-0.263	-0.035
-682.266	53.659	0.228	0.220
-681.251	191.545	-0.117	0.177
-680.237	800.000	0.008	0.030
-679.222	-200.000	-0.051	-0.551
-678.208	158.988	-0.262	-0.365
-677.193	-200.000	0.017	-0.227
-676.178	407.762	-0.123	0.261
-675.164	318.916	-0.100	0.191
-674.149	274.580	0.072	0.129
-673.135	-200.000	0.025	0.170
-672.120	-59.723	0.330	0.142
-671.105	99.753	-0.259	-0.301
-670.091	206.871	-0.224	0.350
-669.076	89.155	0.228	-0.254
-668.062	-41.517	-0.072	0.037
-667.047	544.148	0.052	0.123
-666.032	10.072	-0.196	-0.149
-665.018	800.000	-0.168	0.529
-664.003	121.872	0.036	-0.045
-662.989	-200.000	-0.020	0.262
-661.974	-61.900	-0.393	0.165
-660.959	-81.043	-0.326	0.108
-659.945	-30.769	0.233	0.132
-658.930	-9.992	-0.317	-0.212
-657.916	7.703	0.127	0.096
-656.901	-110.296	-0.230	-0.048
-655.886	-25.873	-0.094	-0.055
-654.872	-9.971	-0.205	0.137
-653.857	-54.337	-0.324	0.147
-652.843	-120.611	-0.262	0.045
-651.828	323.962	-0.120	0.230
-650.814	-7.672	-0.236	0.160
-649.799	137.517	0.130	0.171
-648.784	-15.087	-0.021	-0.014
-647.770	405.124	-0.051	0.109
-646.755	268.954	0.017	0.030
-645.741	71.423	-0.076	-0.079
-644.726	755.265	0.132	0.359
-643.711	-121.452	-0.087	-0.015
-642.697	-117.872	-0.259	0.047
-641.682	554.644	0.039	-0.094
-640.668	142.306	0.090	-0.119
-639.653	-200.000	-0.007	0.076
-638.638	-78.275	-0.393	-0.135
-637.624	412.413	-0.174	-0.370
-636.609	-200.000	-0.033	-0.427
-635.595	-150.405	0.479	0.037
-634.580	-200.000	0.036	0.162
-633.565	800.000	0.028	0.087
-632.551	47.890	-0.268	0.250
-631.536	-116.186	0.217	0.040
-630.522	-100.887	0.110	0.027
-629.507	-154.617	-0.182	0.012
-628.492	-200.000	-0.062	-0.460
-627.478	47.787	0.242	-0.226
-626.463	-77.910	-0.314	-0.108
-625.449	-94.626	0.149	0.040
-624.434	39.481	0.155	-0.140
-623.419	-7.584	0.070	0.047
-622.405	-68.435	-0.212	-0.083
-621.390	62.477	0.096	-0.096
-620.376	-157.368	0.007	-0.000
-619.361	-90.055	-0.082	-0.024
-618.346	-200.000	0.004	0.136
-617.332	-68.393	0.239	-0.093
-616.317	116.091	0.031	-0.038
-615.303	-151.467	0.040	0.003
-614.288	800.000	0.099	0.281
-613.273	-96.749	-0.037	0.010
-612.259	-25.279	0.014	0.008
-611.244	800.000	0.093	-0.270
-610.230	-200.000	0.028	-0.131
-609.215	-69.789	-0.277	-0.106
-608.201	800.000	0.047	-0.189
-607.186	800.000	-0.057	-0.166
-606.171	-80.575	0.224	-0.075
-605.157	-200.000	0.036	-0.230
-604.142	-146.319	0.076	-0.007
-603.128	78.630	0.136	0.145
-602.113	800.000	-0.051	0.150
-601.098	800.000	-0.087	0.251
-600.084	-20.666	0.154	-0.095
-599.069	-119.870	-0.100	-0.017
-598.055	-200.000	-0.052	0.332
-597.040	239.607	0.060	0.100
-596.025	-26.448	0.134	0.079
-595.011	-30.067	0.102	-0.058
-593.996	-200.000	-0.005	0.144
-592.982	-97.382	0.218	-0.057
-591.967	235.623	0.100	-0.166
-590.952	661.648	-0.126	-0.326
-589.938	800.000	-0.080	0.249
-588.923	-59.175	-0.325	0.140
-587.909	4.225	0.065	0.048
-586.894	201.401	-0.199	-0.307
-585.879	-137.388	0.489	-0.055
-584.865	110.722	0.161	0.194
-583.850	256.015	0.128	-0.220
-582.836	294.755	0.173	-0.316
-581.821	163.886	0.023	0.033
-580.806	-200.000	-0.020	0.089
-579.792	-3.940	0.159	0.110
-578.777	-200.000	0.037	-0.167
-577.763	-29.330	-0.124	0.071
-576.748	-103.953	-0.263	0.061
-575.733	-122.068	0.240	0.039
-574.719	-30.692	-0.263	-0.149
-573.704	-108.601	0.198	-0.043
-572.690	-200.000	-0.016	-0.082
-571.675	-151.107	0.504	0.038
-570.661	102.235	0.089	0.104
-569.646	-90.068	-0.099	-0.029
-568.631	-200.000	-0.038	-0.328
-567.617	566.350	0.197	-0.477
-566.602	-43.090	0.151	-0.077
-565.588	-107.391	-0.324	-0.071
-564.573	593.268	-0.122	-0.302
-563.558	-200.000	-0.062	0.304
-562.544	12.628	-0.173	-0.134
-561.529	70.567	-0.126	0.130
-560.515	-122.874	0.199	0.032
-559.500	-200.000	0.005	-0.400
-558.485	800.000	-0.029	0.098
-557.471	20.059	-0.212	-0.171
-556.456	-81.205	-0.479	0.158
-555.442	165.941	-0.055	-0.078
-554.427	-200.000	-0.097	0.517
-553.412	14.959	-0.176	-0.138
-552.398	520.312	-0.032	-0.075
-551.383	403.736	0.103	-0.217
-550.369	-147.855	-0.183	-0.015
-549.354	544.610	0.142	-0.338
-548.339	-200.000	0.024	0.174
-547.325	-200.000	-0.055	-0.290
-546.310	-151.521	0.379	0.028
-545.296	-106.081	-0.188	0.042
-544.281	-81.655	-0.059	0.019
-543.266	800.000	-0.100	-0.361
-542.252	339.985	0.157	-0.306
-541.237	-140.299	-0.278	0.029
-540.223	-35.990	0.332	-0.179
-539.208	54.083	-0.271	0.260
-538.193	-53.655	-0.218	-0.100
-537.179	-200.000	0.377	0.000
-536.164	-75.845	0.140	-0.049
-535.150	-104.544	-0.413	-0.095
-534.135	-41.073	0.184	-0.095
-533.121	800.000	-0.035	-0.142
-532.106	14.765	-0.045	-0.035
-531.091	-132.187	0.239	-0.031
-530.077	-200.000	-0.046	-0.258
-529.062	112.981	-0.199	-0.241
-528.048	242.287	0.064	0.108
-527.033	-63.538	-0.106	0.043
-526.018	-135.833	-0.124	0.015
-525.004	299.363	-0.085	-0.157
-523.989	29.471	0.120	0.102
-522.975	111.567	0.217	-0.262
-521.960	21.278	0.036	-0.029
-520.945	-93.544	-0.179	-0.049
-519.931	-200.000	0.004	-0.016
-518.916	-200.000	0.005	0.045
-517.902	-200.000	-0.008	-0.146
-516.887	-19.347	0.357	0.221
-515.872	74.464	0.090	-0.094
-514.858	22.557	0.212	-0.173
-513.843	-171.467	-0.344	-0.011
-512.829	-42.063	-0.122	-0.062
-511.814	401.547	0.100	0.209
-510.799	158.210	-0.078	-0.107
-509.785	451.883	0.048	0.105
-508.770	-200.000	0.039	-0.181
-507.756	-7.013	0.039	0.026
-506.741	-107.913	-0.098	-0.021
-505.726	38.044	0.194	0.172
-504.712	54.371	0.337	-0.323
-503.697	-109.912	-0.205	-0.043
-502.683	-200.000	-0.031	-0.276
-501.668	-187.266	0.111	-0.001
-500.653	-135.472	0.092	0.011
-499.639	186.792	-0.027	-0.041
-498.624	800.000	-0.106	-0.378
-497.610	-116.457	-0.089	-0.016
-496.595	800.000	0.077	0.234
-495.581	800.000	-0.085	-0.271
-494.566	46.344	-0.243	0.225
-493.551	173.392	-0.218	0.313
-492.537	274.000	-0.064	0.113
-491.522	522.502	-0.070	0.165
-490.508	800.000	0.048	0.169
-489.493	-200.000	-0.020	0.271
-488.478	-163.684	0.108	0.005
-487.464	71.145	0.180	0.186
-486.449	320.569	0.034	-0.065
-485.435	-124.420	-0.225	-0.035
-484.420	-117.660	0.218	0.039
-483.405	452.093	-0.094	0.207
-482.391	-47.186	-0.080	0.039
-481.376	68.709	-0.146	-0.149
-480.362	71.977	0.092	-0.095
-479.347	-35.055	-0.053	0.029
-478.332	-29.518	0.189	-0.108
-477.318	-130.749	0.205	0.027
-476.303	41.085	0.029	-0.026
-475.289	31.089	0.008	0.007
-474.274	81.024	-0.209	0.224
-473.259	-111.261	-0.179	-0.036
-472.245	777.200	0.067	-0.183
-471.230	21.343	-0.347	-0.281
-470.216	-200.000	-0.026	0.221
-469.201	-200.000	0.012	-0.132
-468.186	482.466	-0.020	-0.046
-467.172	-6.110	-0.162	-0.110
-466.157	35.145	-0.154	-0.134
-465.143	502.898	0.154	0.354
-464.128	-54.997	0.179	0.080
-463.113	-31.328	-0.112	-0.063
-462.099	116.662	-0.082	-0.100
-461.084	138.795	-0.062	0.081
-460.070	11.246	0.631	0.480
-459.055	-200.000	-0.024	-0.208
-458.040	193.784	-0.053	-0.080
-457.026	-9.566	0.102	-0.067
-456.011	130.707	0.045	-0.058
-454.997	134.368	-0.020	-0.026
-453.982	30.121	-0.275	0.234
-452.968	-76.330	-0.380	-0.133
-451.953	-126.651	0.216	-0.032
-450.938	664.029	-0.126	0.324
-449.924	-200.000	-0.005	0.219
-448.909	595.812	-0.095	-0.235
-447.895	189.233	-0.154	0.229
-446.880	-66.787	0.380	0.150
-445.865	-99.675	-0.221	-0.055
-444.851	213.972	0.335	0.526
-443.836	17.961	0.110	-0.087
-442.822	171.674	0.094	0.134
-441.807	48.628	0.191	0.178
-440.792	-200.000	0.027	-0.176
-439.778	-129.207	0.214	-0.030
-438.763	-200.000	-0.019	-0.116
-437.749	-112.735	0.108	-0.021
-436.734	306.308	-0.131	0.242
-435.719	-200.000	0.063	-0.468
-434.705	-107.391	0.086	0.019
-433.690	800.000	-0.101	0.370
-432.676	-108.842	-0.121	-0.026
-431.661	21.702	-0.296	-0.240
-430.646	-79.486	0.224	0.075
-429.632	-200.000	0.003	0.057
-428.617	-200.000	0.082	-0.478
-427.603	2.842	-0.024	0.018
-426.588	-200.000	0.005	-0.167
-425.573	-74.484	-0.234	-0.084
-424.559	-74.529	0.316	0.113
-423.544	60.745	-0.106	0.105
-422.530	-169.337	0.106	-0.004
-421.515	45.839	0.162	-0.149
-420.500	-134.918	0.334	0.040
-419.486	800.000	0.018	0.071
-418.471	61.691	0.066	0.066
-417.457	-168.199	-0.173	-0.007
-416.442	-99.126	-0.231	-0.058
-415.428	-119.063	0.196	-0.034
-414.413	179.648	-0.110	-0.160
-413.398	-163.181	0.115	0.005
-412.384	-200.000	0.016	0.330
-411.369	-200.000	0.006	-0.092
-410.355	-13.954	-0.222	-0.142
-409.340	-8.563	0.357	0.238
-408.325	-40.499	0.229	-0.118
-407.311	218.766	-0.135	0.215
-406.296	259.035	0.223	0.383
-405.282	800.000	-0.059	0.163
-404.267	-101.060	0.356	0.087
-403.252	398.885	0.086	-0.180
-402.238	-116.285	0.189	0.035
-401.223	-97.903	0.223	-0.057
-400.209	172.329	-0.352	-0.503
-399.194	-56.587	-0.216	-0.095
-398.179	-110.978	-0.179	-0.036
-397.165	-200.000	-0.052	0.429
-396.150	-115.145	0.126	-0.024
-395.136	57.698	0.219	0.213
-394.121	-40.903	-0.453	0.233
-393.106	70.696	-0.116	0.119
-392.092	45.935	0.032	0.030
-391.077	-200.000	-0.048	0.302
-390.063	-75.619	-0.116	0.041
-389.048	194.797	0.088	0.132
-388.033	-200.000	0.009	0.175
-387.019	-200.000	-0.014	-0.195
-386.004	414.623	-0.135	0.286
-384.990	-200.000	-0.001	-0.181
-383.975	-82.650	0.203	0.065
-382.960	-190.898	-0.070	-0.001
-381.946	292.037	-0.030	0.055
-380.931	-23.284	0.076	-0.045
-379.917	7.022	-0.291	0.215
-378.902	38.746	0.197	0.175
-377.888	800.000	0.075	-0.207
-376.873	-133.252	-0.209	-0.026
-375.858	-200.000	0.043	0.264
-374.844	60.488	-0.207	-0.203
-373.829	701.348	-0.104	-0.271
-372.815	-200.000	-0.056	0.263
-371.800	37.734	-0.259	0.228
-370.785	726.456	-0.082	0.216
-369.771	3.267	-0.306	-0.221
-368.756	220.035	-0.109	0.173
-367.742	-200.000	-0.008	0.357
-366.727	88.308	-0.099	-0.109
-365.712	-199.384	-0.174	-0.001
-364.698	-200.000	0.049	0.227
-363.683	176.190	0.152	0.219
-362.669	-70.870	-0.242	-0.091
-361.654	-200.000	0.042	-0.256
-360.639	51.053	-0.093	0.088
-359.625	-100.361	0.189	0.046
-358.610	-67.064	0.260	-0.102
-357.596	-93.901	-0.103	-0.028
-356.581	800.000	-0.041	-0.144
-355.566	263.957	0.096	-0.165
-354.552	30.195	0.250	0.211
-353.537	-192.728	0.002	0.000
-352.523	33.512	0.205	0.177
-351.508	209.942	-0.029	0.044
-350.493	-116.908	-0.219	-0.040
-349.479	-200.000	-0.045	0.238
-348.464	6.762	0.088	0.065
-347.450	54.901	-0.111	0.106
-346.435	800.000	0.030	-0.092
-345.420	-95.978	0.126	0.033
-344.406	-121.454	-0.242	-0.040
-343.391	-25.028	-0.223	-0.131
-342.377	-200.000	-0.022	0.221
-341.362	-153.857	0.079	0.005
-340.348	-123.347	-0.197	0.031
-339.333	-36.255	-0.188	-0.100
-338.318	-60.368	-0.189	-0.079
-337.304	-200.000	-0.088	-0.404
-336.289	278.079	0.021	0.037
-335.275	-58.811	0.375	0.161
-334.260	520.788	0.106	-0.246
-333.245	73.322	-0.146	0.151
-332.231	-79.797	0.175	0.058
-331.216	273.640	0.094	0.165
-330.202	126.405	0.182	0.228
-329.187	-200.000	0.001	-0.038
-328.172	-136.662	-0.168	-0.019
-327.158	340.395	0.131	0.252
-326.143	-50.805	-0.207	-0.096
-325.129	-135.418	0.065	-0.008
-324.114	14.619	-0.424	0.328
-323.099	800.000	-0.027	0.094
-322.085	129.181	0.104	-0.131
-321.070	800.000	-0.091	-0.288
-320.056	-200.000	0.065	0.339
-319.041	-116.171	-0.322	-0.059
-318.026	-148.155	0.330	0.027
-317.012	510.753	-0.114	-0.262
-315.997	800.000	-0.084	-0.291
-314.983	-200.000	0.025	-0.113
-313.968	-48.931	-0.273	-0.129
-312.953	96.304	0.179	-0.203
-311.939	-122.519	0.097	-0.016
-310.924	27.585	0.047	0.039
-309.910	71.025	0.167	-0.171
-308.895	-12.145	0.075	0.048
-307.880	279.212	0.079	0.140
-306.866	-74.846	-0.088	0.031
-305.851	-98.817	-0.082	0.021
-304.837	-200.000	0.168	-0.001
-303.822	-7.452	-0.189	-0.127
-302.807	91.824	0.044	0.048
-301.793	-11.978	0.071	0.046
-300.778	-200.000	0.069	0.313
-299.764	256.405	0.185	-0.315
-298.749	-31.916	-0.318	0.176
-297.735	-200.000	0.080	-0.393
-296.720	-200.000	0.061	-0.373
-295.705	800.000	0.075	-0.317
-294.691	800.000	0.077	0.213
-293.676	800.000	0.073	-0.253
-292.662	800.000	-0.042	0.138
-291.647	250.846	0.141	0.237
-290.632	800.000	0.031	-0.105
-289.618	-200.000	0.028	-0.234
-288.603	57.714	0.057	0.055
-287.589	-86.556	-0.154	-0.047
-286.574	322.884	-0.153	-0.288
-285.559	-139.286	-0.152	0.016
-284.545	-200.000	0.016	0.257
-283.530	291.369	0.174	0.313
-282.516	99.597	0.253	0.289
-281.501	-1.253	0.210	-0.147
-280.486	-65.470	0.323	0.128
-279.472	57.148	-0.435	0.419
-278.457	800.000	0.028	-0.101
-277.443	800.000	0.095	-0.294
-276.428	-200.000	0.021	0.104
-275.413	-57.256	-0.183	-0.079
-274.399	-200.000	-0.031	-0.380
-273.384	728.387	-0.031	0.082
-272.370	-53.953	-0.192	0.086
-271.355	-41.903	0.041	-0.021
-270.340	51.346	0.083	0.078
-269.326	800.000	-0.078	0.280
-268.311	69.422	0.142	0.145
-267.297	267.715	-0.102	-0.177
-266.282	-108.941	0.216	0.046
-265.267	310.381	0.139	0.257
-264.253	4.685	0.273	0.198
-263.238	800.000	-0.035	0.145
-262.224	93.784	0.109	-0.122
-261.209	698.257	0.013	-0.034
-260.195	-24.751	0.109	-0.064
-259.180	125.968	0.212	0.264
-258.165	-0.857	0.242	0.169
-257.151	-200.000	-0.039	-0.222
-256.136	-119.078	0.259	0.045
-255.122	-195.324	-0.364	0.003
-254.107	-200.000	-0.024	-0.317
-253.092	-96.635	0.111	-0.029
-252.078	-178.409	0.233	-0.005
-251.063	-86.980	-0.146	-0.044
-250.049	121.402	0.092	0.113
-249.034	-110.044	-0.314	-0.065
-248.019	137.573	-0.308	-0.397
-247.005	-6.338	-0.084	-0.056
-245.990	604.308	-0.050	0.124
-244.976	800.000	0.040	0.124
-243.961	415.811	-0.029	-0.062
-242.946	-65.691	0.197	-0.078
-241.932	800.000	-0.096	-0.299
-240.917	800.000	0.041	-0.149
-239.903	-58.208	0.073	0.031
-238.888	5.223	-0.375	-0.273
-237.873	7.403	-0.253	-0.187
-236.859	-200.000	0.014	0.068
-235.844	278.916	0.035	-0.062
-234.830	42.960	0.036	0.032
-233.815	227.114	-0.186	-0.298
-232.800	-90.317	-0.296	-0.085
-231.786	-117.750	0.181	0.032
-230.771	-200.000	-0.050	0.248
-229.757	320.096	0.138	0.258
-228.742	800.000	0.051	0.163
-227.727	-121.133	-0.095	-0.016
-226.713	-200.000	-0.018	-0.122
-225.698	-175.490	-0.132	0.004
-224.684	105.320	0.021	0.025
-223.669	74.586	0.161	-0.167
-222.655	728.051	0.087	-0.229
-221.640	78.259	-0.210	0.221
-220.625	-79.436	-0.036	-0.012
-219.611	-146.442	0.093	-0.008
-218.596	176.678	-0.175	0.251
-217.582	164.614	0.206	-0.286
-216.567	-200.000	0.019	0.171
-215.552	-136.977	-0.206	0.023
-214.538	48.618	0.329	-0.304
-213.523	-200.000	-0.019	0.200
-212.509	-146.011	0.170	-0.015
-211.494	57.274	0.066	0.063
-210.479	9.455	-0.148	0.110
-209.465	-104.362	-0.229	0.052
-208.450	800.000	0.020	-0.085
-207.436	-88.311	-0.198	-0.058
-206.421	800.000	0.034	0.120
-205.406	800.000	0.041	0.146
-204.392	-200.000	-0.016	0.335
-203.377	-200.000	0.061	-0.394
-202.363	-75.412	0.223	0.078
-201.348	-28.783	-0.189	0.107
-200.333	782.355	-0.009	0.025
-199.319	-4.318	0.335	0.229
-198.304	-21.922	-0.121	0.073
-197.290	800.000	-0.097	0.352
-196.275	-159.195	-0.102	0.006
-195.260	-200.000	-0.040	-0.246
-194.246	-200.000	-0.021	-0.137
-193.231	-200.000	-0.017	0.093
-192.217	-115.968	0.098	0.018
-191.202	800.000	0.140	0.411
-190.187	16.051	0.229	0.178
-189.173	58.885	-0.169	0.164
-188.158	77.828	-0.307	0.322
-187.144	800.000	-0.066	0.182
-186.129	-96.379	0.265	0.069
-185.114	-0.262	-0.112	-0.078
-184.100	20.522	0.183	0.146
-183.085	25.144	0.195	-0.160
-182.071	-22.013	-0.193	0.116
-181.056	800.000	0.153	0.429
-180.042	82.902	0.073	0.078
-179.027	131.050	0.102	0.129
-178.012	-11.026	-0.210	-0.137
-176.998	-73.151	-0.477	-0.172
-175.983	298.576	-0.158	0.285
-174.969	10.423	0.140	-0.105
-173.954	800.000	0.075	-0.224
-172.939	-185.193	0.028	0.000
-171.925	800.000	-0.034	0.097
-170.910	-96.513	0.230	-0.060
-169.896	800.000	0.023	-0.099
-168.881	800.000	-0.101	0.297
-167.866	-200.000	0.059	0.494
-166.852	4.509	-0.082	-0.059
-165.837	211.954	-0.081	-0.126
-164.823	57.767	0.181	0.174
-163.808	-200.000	0.028	0.303
-162.793	33.571	0.046	-0.039
-161.779	-19.109	0.316	-0.193
-160.764	-9.972	-0.115	-0.075
-159.750	40.558	0.133	0.118
-158.735	-145.469	0.119	0.011
-157.720	800.000	0.009	-0.036
-156.706	143.117	-0.189	-0.248
-155.691	-173.599	-0.090	-0.003
-154.677	-200.000	-0.037	-0.196
-153.662	720.206	-0.038	-0.099
-152.647	-146.482	-0.280	-0.024
-151.633	800.000	-0.049	-0.144
-150.618	-200.000	0.007	-0.078
-149.604	516.779	-0.021	0.048
-148.589	80.290	-0.099	0.104
-147.574	-200.000	-0.014	-0.067
-146.560	-200.000	0.034	0.327
-145.545	-62.046	0.174	-0.071
-144.531	-200.000	-0.029	-0.179
-143.516	-31.756	-0.327	0.180
-142.502	-102.983	0.140	-0.033
-141.487	-200.000	-0.072	0.476
-140.472	800.000	0.018	-0.071
-139.458	73.719	-0.213	-0.220
-138.443	-69.442	-0.309	0.117
-137.429	-200.000	0.005	0.070
-136.414	-200.000	-0.051	0.282
-135.399	-200.000	-0.010	0.159
-134.385	-88.566	-0.232	-0.068
-133.370	-72.866	0.235	-0.085
-132.356	90.913	-0.045	0.049
-131.341	-200.000	0.002	-0.336
-130.326	-200.000	0.017	0.157
-129.312	-200.000	0.012	-0.212
-128.297	-114.691	-0.154	-0.029
-127.283	800.000	0.128	0.513
-126.268	83.692	-0.113	0.121
-125.253	-34.074	-0.215	-0.116
-124.239	125.576	0.222	-0.275
-123.224	2.673	0.158	-0.112
-122.210	-200.000	0.002	0.203
-121.195	66.078	0.100	0.099
