DTS Sentinel unit serial number:	SN413079Multiplexer serial number:	ORYXHardware model number:	OX4-SRSoftware version number:	ORYX F/W v4.00 Oryx Data Collector v3.7.2.0data status	okinstallation	princeton_trtdifferential loss correction	single-endedforward channel	channel 2reverse channel	N/Adate	2019/09/19time	10:27:35forward acquisition time	60.00reverse acquisition time	0.00gamma	496.2192k internal	0.2343k external	0.2343temperature offset calibration	1.0009default loss term (dB/km)	0.3790temperature slope calibration	1.0000multiplexer offset coefficient	1.0000multiplexer slope coefficient	1.0000fibre end	0.00T internal ref (°C)	24.31T ext. ref 1 (°C)	0.70T ext. ref 2 (°C)	19.80length (m)	temperature (°C)	Stokes	anti-Stokes-747.200	-22.890	0.176	-0.107
-746.185	2.040	-0.096	-0.069
-745.171	-28.208	0.034	-0.020
-744.156	800.000	0.109	0.331
-743.142	100.266	0.215	0.249
-742.127	-200.000	-0.032	0.250
-741.112	-62.216	0.123	-0.051
-740.098	-99.804	-0.299	-0.075
-739.083	-200.000	0.010	0.181
-738.069	800.000	-0.120	0.397
-737.054	275.355	0.142	0.252
-736.039	-106.318	-0.375	-0.084
-735.025	249.305	0.183	-0.311
-734.010	-105.238	-0.377	-0.086
-732.996	0.451	-0.134	-0.096
-731.981	182.025	0.138	-0.203
-730.966	-156.824	-0.223	-0.014
-729.952	-200.000	-0.001	-0.170
-728.937	800.000	0.034	-0.125
-727.923	114.466	-0.158	0.193
-726.908	800.000	-0.066	-0.208
-725.894	-75.659	0.144	0.051
-724.879	-94.983	-0.312	-0.084
-723.864	-164.638	-0.321	0.015
-722.850	16.673	0.147	-0.116
-721.835	-200.000	0.027	-0.254
-720.821	-200.000	0.012	-0.107
-719.806	-93.131	-0.147	0.041
-718.791	-200.000	0.010	-0.218
-717.777	-200.000	-0.010	0.063
-716.762	-96.897	0.205	-0.054
-715.748	176.714	0.088	0.128
-714.733	63.901	-0.050	-0.050
-713.718	-84.036	0.172	-0.055
-712.704	-162.528	-0.170	-0.008
-711.689	-200.000	0.070	0.321
-710.675	164.010	0.081	-0.114
-709.660	-76.537	-0.262	-0.092
-708.645	175.646	0.220	0.320
-707.631	-60.242	-0.151	-0.064
-706.616	-46.014	-0.101	-0.050
-705.602	-55.103	0.059	0.026
-704.587	800.000	0.063	0.238
-703.572	11.719	0.047	-0.036
-702.558	-200.000	0.057	-0.521
-701.543	-110.555	-0.185	0.038
-700.529	-200.000	0.028	-0.174
-699.514	-82.088	-0.393	-0.128
-698.499	31.633	0.194	-0.167
-697.485	-200.000	-0.026	-0.453
-696.470	800.000	0.054	-0.235
-695.456	-200.000	-0.017	0.271
-694.441	124.339	0.075	0.094
-693.426	800.000	0.157	0.437
-692.412	161.843	-0.158	0.222
-691.397	-24.923	-0.230	0.137
-690.383	189.011	-0.100	-0.150
-689.368	-200.000	-0.009	-0.110
-688.354	-86.903	0.054	0.016
-687.339	67.763	-0.330	0.337
-686.324	342.867	0.156	0.305
-685.310	-200.000	-0.047	0.306
-684.295	-141.922	0.065	-0.006
-683.281	354.696	-0.077	0.153
-682.266	199.716	0.011	0.018
-681.251	484.053	0.172	0.391
-680.237	-200.000	0.039	-0.357
-679.222	-124.653	0.244	0.038
-678.208	29.323	0.117	-0.099
-677.193	136.822	-0.108	-0.141
-676.178	165.529	-0.126	-0.178
-675.164	-52.883	0.259	-0.119
-674.149	-169.400	-0.047	-0.002
-673.135	225.346	-0.161	-0.261
-672.120	98.372	-0.108	0.124
-671.105	-200.000	-0.013	0.233
-670.091	182.843	0.227	0.334
-669.076	800.000	0.042	0.124
-668.062	79.372	0.227	0.243
-667.047	13.242	-0.197	-0.152
-666.032	73.043	0.217	-0.226
-665.018	282.901	0.062	-0.111
-664.003	-200.000	-0.002	-0.145
-662.989	276.357	-0.163	0.289
-661.974	-200.000	0.029	0.281
-660.959	-115.717	0.210	0.039
-659.945	-73.614	-0.174	-0.063
-658.930	-200.000	0.000	0.049
-657.916	-79.051	-0.310	-0.105
-656.901	-181.666	0.524	-0.010
-655.886	-54.405	0.236	0.107
-654.872	-98.290	0.339	-0.087
-653.857	-29.670	-0.205	0.117
-652.843	800.000	-0.042	-0.175
-651.828	-96.756	0.457	0.120
-650.814	-200.000	-0.014	-0.307
-649.799	196.213	-0.265	-0.403
-648.784	169.689	0.287	-0.410
-647.770	-67.113	0.102	0.040
-646.755	-135.825	0.184	0.022
-645.741	-66.143	0.062	-0.025
-644.726	161.069	0.093	-0.129
-643.711	229.766	-0.123	0.201
-642.697	494.396	0.157	0.360
-641.682	506.269	-0.063	-0.146
-640.668	724.567	0.060	0.159
-639.653	73.011	0.061	0.063
-638.638	-200.000	-0.009	-0.286
-637.624	-200.000	0.014	-0.086
-636.609	-79.705	-0.030	-0.010
-635.595	-200.000	0.003	-0.114
-634.580	-77.695	0.184	0.064
-633.565	303.646	-0.101	-0.187
-632.551	73.262	0.026	0.027
-631.536	-142.656	-0.196	-0.019
-630.522	-107.442	0.331	0.072
-629.507	-118.428	-0.141	-0.025
-628.492	800.000	-0.063	0.238
-627.478	-109.759	-0.158	-0.033
-626.463	800.000	0.017	-0.075
-625.449	10.630	-0.015	-0.011
-624.434	199.835	0.264	-0.403
-623.419	800.000	0.088	0.359
-622.405	14.286	-0.269	0.209
-621.390	-60.953	0.140	-0.059
-620.376	2.056	-0.364	0.262
-619.361	3.746	0.191	0.139
-618.346	-140.947	0.194	-0.020
-617.332	-5.738	-0.382	-0.261
-616.317	-35.853	-0.170	0.092
-615.303	-4.100	0.221	0.153
-614.288	-200.000	0.016	-0.102
-613.273	-9.407	0.292	0.194
-612.259	-145.318	-0.242	-0.022
-611.244	-200.000	-0.016	0.077
-610.230	138.515	0.077	-0.101
-609.215	16.633	-0.069	-0.054
-608.201	800.000	-0.125	-0.376
-607.186	401.058	-0.066	0.137
-606.171	-171.904	-0.091	0.003
-605.157	-139.351	0.048	0.005
-604.142	-200.000	0.015	-0.183
-603.128	-200.000	0.008	-0.272
-602.113	-119.912	0.214	-0.037
-601.098	17.398	0.032	0.025
-600.084	-40.951	-0.572	-0.295
-599.069	800.000	0.042	-0.129
-598.055	-20.560	-0.394	0.241
-597.040	-63.002	0.156	0.064
-596.025	131.119	0.145	-0.185
-595.011	692.523	-0.106	0.277
-593.996	-46.763	-0.185	0.090
-592.982	800.000	0.039	-0.118
-591.967	498.119	-0.082	-0.187
-590.952	-120.942	-0.150	-0.025
-589.938	-90.645	-0.339	0.098
-588.923	-71.385	-0.041	-0.015
-587.909	730.676	-0.029	-0.076
-586.894	179.837	0.071	-0.103
-585.879	266.031	-0.151	-0.262
-584.865	-74.711	0.424	0.152
-583.850	65.867	-0.122	0.123
-582.836	57.260	-0.073	-0.071
-581.821	-91.969	-0.136	0.038
-580.806	-18.793	0.402	0.249
-579.792	571.332	0.071	0.171
-578.777	-81.953	-0.260	0.085
-577.763	483.902	-0.094	-0.213
-576.748	1.808	-0.132	0.095
-575.733	-67.857	0.269	-0.104
-574.719	800.000	-0.125	-0.512
-573.704	720.391	-0.071	0.189
-572.690	294.581	-0.033	-0.059
-571.675	42.940	0.215	-0.195
-570.661	-125.592	-0.351	-0.053
-569.646	-94.862	-0.112	-0.030
-568.631	-61.186	0.356	0.149
-567.617	-42.600	0.342	0.173
-566.602	180.235	0.061	0.088
-565.588	800.000	0.119	0.371
-564.573	171.189	0.152	-0.217
-563.558	800.000	-0.022	-0.085
-562.544	-200.000	0.002	0.066
-561.529	157.505	0.096	-0.133
-560.515	124.729	0.083	-0.104
-559.500	-23.168	0.163	-0.097
-558.485	453.875	-0.069	0.153
-557.471	-76.647	-0.220	0.077
-556.456	449.009	-0.107	-0.235
-555.442	42.329	0.088	-0.079
-554.427	-200.000	-0.020	-0.280
-553.412	139.400	0.034	-0.044
-552.398	800.000	-0.047	-0.165
-551.383	-200.000	0.026	-0.120
-550.369	-200.000	-0.007	-0.212
-549.354	-200.000	-0.022	-0.101
-548.339	110.011	-0.125	-0.149
-547.325	-149.291	0.170	0.013
-546.310	-60.459	-0.226	0.095
-545.296	-109.838	-0.387	-0.081
-544.281	42.788	0.136	0.123
-543.266	-77.469	-0.109	0.037
-542.252	75.768	-0.109	0.115
-541.237	800.000	0.028	0.107
-540.223	800.000	-0.142	-0.588
-539.208	-48.386	0.236	-0.113
-538.193	233.944	-0.151	-0.246
-537.179	-29.976	-0.155	-0.088
-536.164	-200.000	-0.027	0.373
-535.150	301.598	0.155	0.284
-534.135	-97.015	-0.302	0.079
-533.121	-136.481	0.419	-0.048
-532.106	-200.000	-0.039	0.232
-531.091	116.836	0.224	0.273
-530.077	-14.052	-0.111	-0.071
-529.062	78.908	0.283	-0.301
-528.048	102.200	0.124	0.144
-527.033	-200.000	-0.004	0.031
-526.018	-120.020	-0.192	0.033
-525.004	-90.068	0.203	0.059
-523.989	639.206	0.072	0.182
-522.975	-17.243	0.302	-0.189
-521.960	159.103	-0.207	0.286
-520.945	142.145	-0.140	0.184
-519.931	589.604	0.057	0.139
-518.916	85.240	-0.249	-0.271
-517.902	-55.052	-0.236	-0.105
-516.887	-200.000	0.010	-0.249
-515.872	22.686	-0.206	0.167
-514.858	-200.000	-0.006	0.185
-513.843	241.794	0.094	-0.157
-512.829	194.551	0.136	-0.205
-511.814	-155.096	-0.074	0.005
-510.799	415.129	-0.024	-0.052
-509.785	-132.702	-0.069	-0.009
-508.770	440.886	-0.034	0.073
-507.756	-88.553	-0.369	0.109
-506.741	-121.721	0.199	0.033
-505.726	109.862	-0.094	0.111
-504.712	-200.000	0.017	0.090
-503.697	376.043	0.143	-0.288
-502.683	800.000	-0.034	-0.104
-501.668	485.806	-0.046	0.103
-500.653	-200.000	-0.003	0.088
-499.639	800.000	-0.111	-0.349
-498.624	800.000	0.126	-0.420
-497.610	-83.756	-0.152	-0.048
-496.595	-134.350	-0.175	-0.021
-495.581	335.740	-0.087	-0.167
-494.566	222.102	-0.193	-0.308
-493.551	-112.677	0.151	0.030
-492.537	146.119	0.190	0.252
-491.522	32.145	0.022	-0.019
-490.508	-200.000	-0.012	-0.118
-489.493	576.662	-0.069	-0.168
-488.478	-14.386	-0.079	0.051
-487.464	-200.000	-0.029	0.125
-486.449	-65.931	-0.236	0.094
-485.435	44.520	-0.142	0.129
-484.420	-28.214	0.256	0.147
-483.405	-200.000	-0.001	-0.036
-482.391	-200.000	0.079	0.359
-481.376	-71.025	-0.177	0.066
-480.362	14.333	0.295	-0.228
-479.347	424.050	-0.167	0.357
-478.332	-1.398	0.082	-0.058
-477.318	91.223	0.082	0.091
-476.303	-60.175	0.169	0.071
-475.289	-200.000	-0.016	0.123
-474.274	-106.976	0.291	-0.064
-473.259	-200.000	-0.026	-0.126
-472.245	-95.507	-0.212	0.056
-471.230	-38.796	0.158	-0.083
-470.216	623.554	0.049	-0.121
-469.201	177.916	0.142	0.205
-468.186	-83.579	0.428	0.136
-467.172	-200.000	0.003	-0.127
-466.157	100.994	0.123	-0.141
-465.143	-200.000	0.002	0.008
-464.128	3.257	-0.426	-0.307
-463.113	800.000	-0.072	-0.238
-462.099	800.000	-0.082	-0.251
-461.084	27.104	-0.105	-0.087
-460.070	261.331	-0.138	0.237
-459.055	251.236	-0.216	0.364
-458.040	-200.000	-0.022	0.203
-457.026	-200.000	-0.010	-0.097
-456.011	84.090	0.063	-0.068
-454.997	9.115	-0.108	0.081
-453.982	139.963	-0.091	0.118
-452.968	163.992	-0.013	0.018
-451.953	-200.000	0.029	-0.412
-450.938	-200.000	0.017	0.084
-449.924	-89.433	0.061	-0.018
-448.909	21.564	0.136	-0.110
-447.895	426.947	-0.116	-0.248
-446.880	126.079	-0.074	-0.092
-445.865	48.845	0.101	0.094
-444.851	-132.175	0.143	-0.018
-443.836	472.805	-0.166	-0.370
-442.822	196.152	-0.011	-0.017
-441.807	8.664	-0.245	-0.183
-440.792	68.449	0.146	0.148
-439.778	-92.512	0.181	-0.050
-438.763	-165.991	-0.100	0.004
-437.749	-70.869	-0.356	0.133
-436.734	-200.000	0.010	0.128
-435.719	-39.348	0.050	-0.026
-434.705	688.672	-0.071	-0.183
-433.690	-200.000	-0.010	-0.247
-432.676	-116.577	-0.064	0.012
-431.661	187.933	-0.065	-0.096
-430.646	-173.675	-0.108	-0.003
-429.632	-12.402	0.059	-0.038
-428.617	301.344	0.145	-0.265
-427.603	-200.000	-0.032	0.438
-426.588	495.671	0.160	-0.363
-425.573	-143.315	-0.080	-0.008
-424.559	139.558	-0.100	0.130
-423.544	-160.357	-0.298	0.016
-422.530	28.098	-0.289	-0.241
-421.515	29.639	-0.108	-0.091
-420.500	-85.377	0.087	0.027
-419.486	-56.501	0.148	0.065
-418.471	800.000	-0.042	0.146
-417.457	-200.000	0.053	0.249
-416.442	-40.865	0.158	0.081
-415.428	-200.000	-0.033	0.262
-414.413	800.000	-0.064	0.212
-413.398	28.327	0.036	-0.030
-412.384	560.133	0.022	0.053
-411.369	-149.698	-0.296	-0.023
-410.355	157.984	-0.104	-0.142
-409.340	42.367	-0.103	0.093
-408.325	800.000	-0.058	-0.191
-407.311	-37.250	-0.189	0.100
-406.296	-200.000	0.009	-0.146
-405.282	225.732	0.103	0.165
-404.267	-25.222	0.086	-0.050
-403.252	402.006	0.022	-0.046
-402.238	-131.191	0.356	0.047
-401.223	-200.000	-0.053	0.379
-400.209	241.022	0.126	-0.208
-399.194	710.743	0.102	-0.267
-398.179	-200.000	0.005	0.109
-397.165	17.905	-0.167	-0.132
-396.150	100.789	0.241	-0.277
-395.136	-69.909	0.070	0.026
-394.121	76.586	0.182	0.191
-393.106	-200.000	0.006	0.118
-392.092	-95.427	-0.062	-0.016
-391.077	105.948	-0.216	-0.253
-390.063	-105.583	-0.047	0.010
-389.048	549.362	0.081	-0.191
-388.033	593.080	0.033	-0.080
-387.019	-76.044	-0.278	0.097
-386.004	458.911	0.120	-0.263
-384.990	131.590	0.155	0.197
-383.975	-142.956	0.115	0.011
-382.960	-99.319	0.190	0.047
-381.946	-16.229	0.294	-0.184
-380.931	-200.000	-0.015	-0.068
-379.917	-11.678	-0.035	0.023
-378.902	-149.259	-0.185	-0.015
-377.888	-54.001	-0.180	-0.081
-376.873	522.168	0.021	0.049
-375.858	9.124	-0.084	-0.063
-374.844	1.465	0.214	0.152
-373.829	-23.195	-0.381	0.226
-372.815	-150.125	0.080	-0.006
-371.800	-200.000	0.002	0.086
-370.785	-32.374	-0.095	-0.052
-369.771	-101.463	-0.216	0.052
-368.756	683.367	-0.087	0.225
-367.742	-200.000	-0.003	-0.175
-366.727	-27.621	0.073	-0.042
-365.712	121.613	-0.235	-0.289
-364.698	125.091	-0.218	0.271
-363.683	-73.430	-0.033	-0.012
-362.669	-71.662	-0.159	0.058
-361.654	152.162	0.134	0.181
-360.639	-37.504	0.192	-0.101
-359.625	18.575	0.097	-0.076
-358.610	800.000	0.069	0.240
-357.596	242.961	-0.214	0.354
-356.581	-200.000	0.012	-0.214
-355.566	14.106	-0.067	0.052
-354.552	-200.000	0.002	0.247
-353.537	800.000	0.097	-0.267
-352.523	10.579	-0.121	-0.091
-351.508	-103.554	-0.036	-0.008
-350.493	-200.000	0.005	0.175
-349.479	266.652	0.235	0.405
-348.464	800.000	0.092	-0.341
-347.450	35.971	-0.073	0.063
-346.435	800.000	0.072	0.242
-345.420	-68.008	-0.048	0.018
-344.406	118.789	0.134	0.163
-343.391	-125.444	-0.172	-0.026
-342.377	-200.000	-0.057	-0.320
-341.362	-67.375	0.099	0.038
-340.348	-3.095	-0.309	-0.212
-339.333	-14.428	0.037	-0.023
-338.318	-84.136	-0.100	0.031
-337.304	160.319	-0.291	0.400
-336.289	4.724	0.036	0.026
-335.275	695.824	-0.062	-0.161
-334.260	-184.312	-0.120	-0.002
-333.245	-65.183	-0.282	-0.112
-332.231	137.615	0.066	-0.086
-331.216	54.097	0.212	-0.201
-330.202	216.415	0.160	0.250
-329.187	708.860	-0.010	-0.027
-328.172	791.896	0.013	-0.036
-327.158	-122.650	0.230	-0.037
-326.143	216.455	0.103	0.162
-325.129	-101.393	-0.153	0.037
-324.114	12.936	0.080	-0.061
-323.099	-200.000	-0.025	-0.218
-322.085	66.999	-0.062	-0.063
-321.070	10.215	-0.398	0.298
-320.056	493.442	-0.046	0.103
-319.041	-184.878	0.157	-0.002
-318.026	-134.451	-0.085	0.010
-317.012	-99.101	0.399	-0.099
-315.997	800.000	0.074	0.230
-314.983	-99.473	-0.245	-0.061
-313.968	-36.823	-0.185	0.098
-312.953	124.850	-0.117	0.145
-311.939	-200.000	0.019	0.406
-310.924	74.987	0.073	0.075
-309.910	0.504	0.364	0.256
-308.895	514.207	0.047	0.108
-307.880	173.832	0.029	-0.041
-306.866	-200.000	-0.007	0.196
-305.851	-97.109	0.252	0.065
-304.837	-97.026	0.297	-0.076
-303.822	-45.095	0.379	0.185
-302.807	485.388	0.067	-0.150
-301.793	-54.657	-0.249	0.111
-300.778	-200.000	-0.005	-0.120
-299.764	-46.649	0.327	0.158
-298.749	417.982	0.124	-0.260
-297.735	-200.000	0.022	-0.270
-296.720	800.000	0.085	0.244
-295.705	-75.135	0.087	0.031
-294.691	-87.275	0.139	-0.042
-293.676	-26.617	-0.171	0.098
-292.662	-32.498	0.315	0.173
-291.647	34.408	-0.118	0.102
-290.632	91.306	0.230	0.254
-289.618	410.147	0.103	0.215
-288.603	-164.151	-0.305	-0.014
-287.589	128.163	0.152	-0.190
-286.574	800.000	0.069	-0.226
-285.559	-17.523	0.072	-0.045
-284.545	-68.946	0.158	-0.060
-283.530	106.639	-0.030	0.036
-282.516	-200.000	0.042	-0.377
-281.501	-107.434	-0.198	0.043
-280.486	-36.786	0.177	0.093
-279.472	-127.889	-0.159	0.023
-278.457	676.337	0.127	0.324
-277.443	137.574	0.069	-0.088
-276.428	800.000	0.065	0.198
-275.413	-5.324	0.180	0.121
-274.399	340.878	0.069	0.132
-273.384	65.906	0.106	-0.106
-272.370	-104.690	0.402	0.091
-271.355	-47.348	0.138	-0.066
-270.340	106.470	0.197	-0.230
-269.326	-200.000	0.014	-0.447
-268.311	-18.053	0.187	-0.115
-267.297	-117.231	0.397	-0.071
-266.282	-121.978	0.390	0.063
-265.267	61.788	-0.122	-0.120
-264.253	-200.000	0.002	0.194
-263.238	142.727	0.187	0.245
-262.224	-200.000	0.017	-0.211
-261.209	-14.674	-0.103	0.065
-260.195	-200.000	-0.013	0.180
-259.180	-200.000	0.013	0.150
-258.165	-35.003	0.444	0.238
-257.151	-33.423	0.056	-0.031
-256.136	397.959	-0.006	0.011
-255.122	-122.691	-0.196	0.031
-254.107	22.361	-0.277	0.222
-253.092	800.000	-0.028	-0.081
-252.078	-182.700	0.104	0.002
-251.063	-31.355	0.102	-0.057
-250.049	58.349	0.120	0.116
-249.034	309.262	0.059	-0.109
-248.019	222.969	0.111	-0.176
-247.005	52.944	-0.256	-0.241
-245.990	-131.594	-0.193	0.025
-244.976	15.237	-0.298	-0.230
-243.961	286.387	0.221	0.392
-242.946	231.451	0.009	0.014
-241.932	9.158	0.263	-0.195
-240.917	65.001	-0.099	-0.098
-239.903	-78.363	0.190	0.064
-238.888	-51.942	0.149	0.068
-237.873	108.912	0.249	-0.293
-236.859	-174.676	-0.102	-0.003
-235.844	111.298	-0.116	0.137
-234.830	-44.860	0.244	-0.119
-233.815	281.309	-0.136	-0.239
-232.800	-114.784	-0.125	-0.023
-231.786	-149.636	0.116	0.009
-230.771	-200.000	0.025	0.137
-229.757	800.000	-0.113	-0.352
-228.742	-7.867	-0.208	-0.137
-227.727	-34.053	-0.038	-0.021
-226.713	109.780	0.198	-0.233
-225.698	174.909	-0.135	0.192
-224.684	-200.000	-0.003	0.117
-223.669	-200.000	0.110	0.577
-222.655	800.000	-0.089	0.261
-221.640	160.581	-0.056	-0.077
-220.625	-35.339	-0.111	0.059
-219.611	800.000	-0.080	0.221
-218.596	-168.480	-0.280	0.011
-217.582	-200.000	0.077	0.365
-216.567	355.309	0.140	0.273
-215.552	65.768	0.093	-0.092
-214.538	-20.530	-0.287	0.173
-213.523	739.017	-0.053	0.140
-212.509	64.056	-0.072	-0.071
-211.494	-32.176	0.379	0.207
-210.479	800.000	-0.102	-0.333
-209.465	-200.000	0.018	0.170
-208.450	-43.560	-0.270	0.134
-207.436	-200.000	-0.053	-0.485
-206.421	-200.000	0.004	0.175
-205.406	-178.514	-0.330	-0.007
-204.392	-155.767	-0.208	0.013
-203.377	-200.000	0.022	0.150
-202.363	-142.478	0.260	0.025
-201.348	800.000	0.072	0.266
-200.333	245.318	-0.066	-0.108
-199.319	-200.000	-0.048	0.319
-198.304	-200.000	-0.017	-0.280
-197.290	-80.112	0.212	-0.070
-196.275	-200.000	-0.001	0.129
-195.260	59.710	0.026	-0.025
-194.246	278.557	-0.073	-0.127
-193.231	-200.000	-0.034	0.393
-192.217	-48.974	0.068	-0.032
-191.202	213.103	0.262	-0.406
-190.187	800.000	0.046	0.157
-189.173	-7.835	-0.151	-0.100
-188.158	10.379	-0.247	0.184
-187.144	701.367	0.025	0.063
-186.129	-65.914	-0.070	-0.027
-185.114	114.837	-0.054	-0.064
-184.100	-168.718	-0.292	0.011
-183.085	-34.799	-0.154	0.083
-182.071	-107.447	-0.365	-0.078
-181.056	800.000	-0.047	0.133
-180.042	-200.000	0.038	-0.312
-179.027	-200.000	-0.017	-0.151
-178.012	622.869	0.083	-0.206
-176.998	-200.000	0.049	0.223
-175.983	-0.624	-0.115	0.080
-174.969	-107.750	-0.429	0.092
-173.954	61.398	0.041	-0.040
-172.939	-200.000	-0.036	-0.369
-171.925	584.390	-0.065	0.157
-170.910	-151.087	-0.347	-0.026
-169.896	63.237	0.161	-0.158
-168.881	-58.063	0.263	0.112
-167.866	-200.000	0.032	0.276
-166.852	228.633	-0.176	-0.281
-165.837	-141.907	0.281	-0.027
-164.823	-160.521	-0.191	0.010
-163.808	235.967	0.118	0.190
-162.793	323.539	0.101	0.188
-161.779	305.652	-0.064	-0.117
-160.764	-177.571	-0.196	-0.005
-159.750	-137.253	0.253	0.028
-158.735	-200.000	-0.020	-0.245
-157.720	-200.000	0.057	0.281
-156.706	-62.566	0.268	-0.109
-155.691	-200.000	0.038	0.377
-154.677	765.828	0.067	-0.178
-153.662	-78.305	0.223	0.075
-152.647	335.598	0.048	-0.091
-151.633	52.191	-0.116	0.108
-150.618	-54.632	0.093	0.041
-149.604	31.513	0.275	0.232
-148.589	188.110	0.145	0.213
-147.574	130.654	-0.056	0.070
-146.560	132.983	0.160	-0.202
-145.545	-43.851	0.079	-0.039
-144.531	82.229	0.079	-0.083
-143.516	-99.038	0.171	0.042
-142.502	800.000	-0.104	0.335
-141.487	-200.000	-0.006	0.043
-140.472	56.068	-0.196	-0.186
-139.458	38.262	0.092	-0.080
-138.443	800.000	-0.029	0.114
-137.429	-82.032	-0.269	0.086
-136.414	-200.000	-0.024	-0.163
-135.399	-200.000	-0.029	0.288
-134.385	800.000	-0.066	0.243
-133.370	383.433	-0.244	0.490
-132.356	-141.288	0.181	-0.018
-131.341	15.429	0.135	0.104
-130.326	40.369	-0.135	-0.119
-129.312	23.109	0.129	0.104
-128.297	-148.578	0.417	0.033
-127.283	72.507	-0.195	0.199
-126.268	-122.063	0.156	-0.025
-125.253	-200.000	0.010	-0.054
-124.239	-200.000	-0.020	0.088
-123.224	160.515	-0.045	-0.061
-122.210	412.618	-0.184	0.381
-121.195	101.021	-0.114	0.130
