DTS Sentinel unit serial number:	SN413079Multiplexer serial number:	ORYXHardware model number:	OX4-SRSoftware version number:	ORYX F/W v4.00 Oryx Data Collector v3.7.2.0data status	okinstallation	princeton_trtdifferential loss correction	single-endedforward channel	channel 2reverse channel	N/Adate	2019/09/16time	23:03:34forward acquisition time	60.00reverse acquisition time	0.00gamma	496.2192k internal	0.2329k external	0.2329temperature offset calibration	0.9974default loss term (dB/km)	0.3790temperature slope calibration	1.0000multiplexer offset coefficient	1.0000multiplexer slope coefficient	1.0000fibre end	0.00T internal ref (°C)	30.30T ext. ref 1 (°C)	0.09T ext. ref 2 (°C)	23.93length (m)	temperature (°C)	Stokes	anti-Stokes-747.200	-135.892	0.165	-0.020
-746.185	45.532	0.247	0.230
-745.171	-200.000	0.004	-0.085
-744.156	-42.193	-0.153	-0.079
-743.142	-32.106	0.186	0.105
-742.127	-140.528	-0.355	0.037
-741.112	-8.510	-0.309	0.209
-740.098	-200.000	0.045	0.277
-739.083	-200.000	-0.016	-0.157
-738.069	-200.000	-0.025	-0.124
-737.054	138.923	0.118	0.156
-736.039	88.649	0.027	-0.030
-735.025	-25.019	-0.110	0.066
-734.010	-200.000	0.025	-0.232
-732.996	91.645	-0.153	0.173
-731.981	17.161	-0.123	-0.098
-730.966	573.616	-0.083	-0.204
-729.952	46.346	-0.090	-0.084
-728.937	629.439	-0.112	-0.285
-727.923	-200.000	0.059	-0.332
-726.908	-77.809	-0.044	0.015
-725.894	-70.869	0.265	-0.101
-724.879	-45.637	-0.014	-0.007
-723.864	800.000	-0.036	-0.142
-722.850	-200.000	0.005	0.021
-721.835	401.669	0.049	-0.103
-720.821	-62.256	0.438	0.184
-719.806	186.702	0.013	-0.020
-718.791	-200.000	-0.009	0.070
-717.777	-200.000	-0.043	-0.220
-716.762	161.155	-0.207	0.291
-715.748	-82.220	-0.054	-0.018
-714.733	-200.000	0.009	-0.126
-713.718	379.699	0.094	0.193
-712.704	36.961	-0.218	0.194
-711.689	800.000	-0.102	-0.310
-710.675	-200.000	-0.028	0.216
-709.660	395.680	-0.117	-0.247
-708.645	158.691	-0.152	0.212
-707.631	-103.460	-0.196	0.046
-706.616	-61.069	0.261	-0.111
-705.602	-200.000	-0.080	0.376
-704.587	13.768	-0.145	0.113
-703.572	800.000	0.128	-0.360
-702.558	82.768	-0.084	-0.092
-701.543	-200.000	0.081	-0.519
-700.529	37.730	0.160	-0.143
-699.514	-122.938	-0.084	-0.014
-698.499	-141.492	0.211	-0.021
-697.485	-9.007	-0.190	-0.128
-696.470	88.073	0.084	0.094
-695.456	-123.671	0.037	0.006
-694.441	-90.123	-0.102	0.030
-693.426	29.150	0.029	-0.025
-692.412	35.311	-0.160	0.141
-691.397	-116.872	-0.095	-0.018
-690.383	386.083	0.191	-0.397
-689.368	800.000	0.023	0.095
-688.354	800.000	-0.076	-0.249
-687.339	-71.603	0.222	0.083
-686.324	-136.990	0.193	-0.022
-685.310	-200.000	0.001	-0.073
-684.295	431.851	-0.005	0.010
-683.281	107.675	0.222	0.265
-682.266	-15.991	-0.373	0.238
-681.251	80.811	0.065	0.071
-680.237	230.692	-0.201	0.330
-679.222	-96.186	-0.222	0.059
-678.208	199.476	-0.021	0.032
-677.193	-74.480	0.060	0.022
-676.178	-200.000	0.020	0.307
-675.164	30.421	-0.218	-0.187
-674.149	41.056	0.388	0.352
-673.135	-10.809	-0.197	0.131
-672.120	-172.357	-0.088	0.003
-671.105	800.000	-0.032	-0.136
-670.091	561.107	0.030	-0.072
-669.076	379.329	-0.196	-0.404
-668.062	-125.628	0.272	-0.041
-667.047	-135.166	0.100	-0.012
-666.032	-58.408	0.282	-0.123
-665.018	34.006	0.242	-0.212
-664.003	-67.464	-0.138	0.054
-662.989	-103.394	0.108	0.026
-661.974	-106.227	0.127	0.029
-660.959	-47.338	0.159	-0.078
-659.945	-87.152	0.242	0.074
-658.930	622.025	0.013	-0.034
-657.916	-110.750	0.112	-0.023
-656.901	-131.266	0.182	0.024
-655.886	-76.749	-0.230	0.081
-654.872	-115.047	0.186	0.035
-653.857	-39.025	-0.218	0.115
-652.843	101.736	-0.050	0.059
-651.828	220.333	0.046	-0.074
-650.814	800.000	0.052	-0.163
-649.799	-100.109	0.198	0.049
-648.784	-200.000	0.014	-0.251
-647.770	120.639	0.050	-0.062
-646.755	-187.214	-0.221	-0.003
-645.741	-200.000	-0.037	0.191
-644.726	47.582	-0.400	0.375
-643.711	800.000	-0.032	-0.100
-642.697	-102.899	-0.387	0.092
-641.682	3.260	-0.085	0.062
-640.668	-69.783	0.131	0.050
-639.653	-10.178	-0.182	0.121
-638.638	-41.572	0.240	-0.124
-637.624	106.384	-0.153	0.182
-636.609	20.687	0.121	-0.098
-635.595	-111.276	-0.229	0.047
-634.580	-73.698	-0.075	0.027
-633.565	285.369	0.016	-0.029
-632.551	800.000	-0.071	0.263
-631.536	149.789	-0.085	-0.116
-630.522	320.361	0.093	0.178
-629.507	-46.543	-0.192	0.094
-628.492	-161.853	0.278	-0.014
-627.478	-79.458	0.395	-0.134
-626.463	205.191	0.146	-0.227
-625.449	482.068	0.071	-0.161
-624.434	-77.927	0.353	-0.122
-623.419	129.124	0.035	0.044
-622.405	129.938	-0.064	0.083
-621.390	-54.043	-0.200	-0.091
-620.376	24.254	-0.285	-0.236
-619.361	319.458	0.140	-0.267
-618.346	-172.519	0.203	-0.006
-617.332	-46.515	0.167	0.082
-616.317	-100.563	0.182	0.045
-615.303	498.495	-0.193	0.446
-614.288	-200.000	-0.029	-0.161
-613.273	-150.484	0.278	-0.021
-612.259	75.555	-0.354	0.375
-611.244	464.338	-0.101	-0.226
-610.230	-3.101	-0.338	-0.236
-609.215	-122.491	-0.126	0.020
-608.201	30.472	-0.160	0.137
-607.186	-34.071	-0.319	0.176
-606.171	391.202	-0.017	-0.036
-605.157	-93.733	0.248	0.069
-604.142	95.100	0.093	-0.106
-603.128	-200.000	0.051	0.361
-602.113	-67.324	0.143	0.056
-601.098	800.000	-0.035	-0.134
-600.084	-51.054	0.144	0.068
-599.069	136.209	-0.224	-0.293
-598.055	-121.548	0.056	-0.009
-597.040	-89.537	0.063	0.018
-596.025	124.208	-0.058	0.073
-595.011	-57.360	0.070	0.031
-593.996	800.000	0.058	-0.181
-592.982	-108.033	-0.421	-0.091
-591.967	-147.822	0.244	0.020
-590.952	-9.792	-0.277	0.185
-589.938	-200.000	-0.007	0.096
-588.923	158.258	-0.157	-0.218
-587.909	-84.007	-0.304	-0.097
-586.894	-200.000	0.025	0.129
-585.879	800.000	-0.034	-0.136
-584.865	372.665	-0.058	-0.119
-583.850	-200.000	0.028	0.356
-582.836	-26.685	-0.154	0.090
-581.821	200.292	0.086	-0.133
-580.806	-154.129	0.396	0.027
-579.792	65.687	-0.186	-0.188
-578.777	800.000	-0.072	-0.309
-577.763	-200.000	-0.012	0.099
-576.748	-200.000	-0.018	-0.245
-575.733	-88.209	0.238	0.071
-574.719	-200.000	0.009	0.044
-573.704	-92.994	-0.097	-0.027
-572.690	-200.000	-0.033	0.159
-571.675	800.000	0.077	0.296
-570.661	-200.000	0.026	0.146
-569.646	71.830	-0.224	0.233
-568.631	-49.643	0.027	-0.013
-567.617	-200.000	-0.019	-0.237
-566.602	-42.013	0.271	0.139
-565.588	447.634	0.065	0.144
-564.573	188.868	0.222	-0.332
-563.558	-50.491	-0.354	-0.167
-562.544	37.792	0.331	-0.294
-561.529	80.555	0.131	-0.141
-560.515	239.429	0.060	-0.100
-559.500	498.448	-0.058	-0.133
-558.485	-4.623	0.181	0.125
-557.471	751.620	-0.061	-0.165
-556.456	294.047	0.053	-0.098
-555.442	-200.000	-0.007	-0.438
-554.427	255.848	-0.104	-0.178
-553.412	-145.354	0.299	0.027
-552.398	-12.162	-0.065	0.043
-551.383	-200.000	0.010	-0.324
-550.369	111.121	0.078	0.094
-549.354	800.000	-0.076	-0.283
-548.339	218.389	-0.085	0.136
-547.325	97.558	0.216	-0.248
-546.310	-147.142	-0.335	0.029
-545.296	-200.000	0.032	-0.289
-544.281	800.000	0.030	0.129
-543.266	99.964	-0.356	-0.412
-542.252	195.632	-0.078	0.119
-541.237	405.751	-0.141	0.297
-540.223	-14.483	0.274	0.176
-539.208	800.000	-0.069	0.197
-538.193	-200.000	0.011	0.134
-537.179	-163.422	-0.241	-0.011
-536.164	-200.000	-0.063	-0.391
-535.150	411.130	-0.102	-0.216
-534.135	-200.000	-0.003	0.043
-533.121	-105.837	-0.075	-0.017
-532.106	146.338	0.245	0.329
-531.091	800.000	-0.028	0.116
-530.077	284.954	-0.076	0.137
-529.062	-200.000	-0.002	-0.496
-528.048	-136.245	0.301	-0.035
-527.033	800.000	-0.085	-0.360
-526.018	800.000	0.050	0.177
-525.004	-200.000	0.072	-0.382
-523.989	440.056	-0.184	-0.401
-522.975	800.000	0.080	0.280
-521.960	-56.241	-0.066	0.030
-520.945	-70.131	-0.151	-0.057
-519.931	205.441	-0.049	-0.077
-518.916	800.000	0.075	-0.230
-517.902	62.289	-0.092	0.092
-516.887	55.453	-0.107	0.103
-515.872	485.127	-0.092	-0.210
-514.858	-109.820	-0.220	0.046
-513.843	-145.779	0.209	0.019
-512.829	-75.804	-0.320	-0.113
-511.814	-200.000	0.048	0.311
-510.799	-29.068	0.182	-0.104
-509.785	800.000	0.054	0.199
-508.770	-44.189	0.304	-0.152
-507.756	-44.669	-0.198	-0.099
-506.741	-91.252	0.290	-0.083
-505.726	-117.305	0.201	0.036
-504.712	110.594	0.252	0.302
-503.697	764.126	0.148	0.402
-502.683	36.852	-0.051	-0.045
-501.668	725.030	0.035	-0.092
-500.653	11.018	-0.383	0.292
-499.639	12.127	-0.279	-0.214
-498.624	151.106	-0.149	0.202
-497.610	65.329	-0.143	-0.144
-496.595	56.729	0.140	0.136
-495.581	-31.309	-0.161	0.090
-494.566	800.000	-0.068	0.297
-493.551	37.021	0.043	0.038
-492.537	13.343	-0.090	0.070
-491.522	33.598	-0.114	-0.099
-490.508	125.037	-0.144	-0.181
-489.493	800.000	0.122	0.527
-488.478	52.012	0.274	-0.260
-487.464	-200.000	-0.001	-0.485
-486.449	123.907	0.227	0.284
-485.435	226.175	-0.078	-0.127
-484.420	-88.354	0.319	-0.095
-483.405	310.970	-0.049	-0.091
-482.391	-200.000	0.005	0.249
-481.376	109.123	0.099	0.119
-480.362	-58.878	-0.073	0.031
-479.347	-25.200	-0.170	-0.100
-478.332	14.234	-0.193	-0.150
-477.318	10.422	-0.127	-0.096
-476.303	9.878	0.066	-0.050
-475.289	118.238	-0.114	-0.141
-474.274	-76.243	0.074	0.026
-473.259	201.470	-0.055	-0.085
-472.245	-36.413	-0.313	-0.168
-471.230	-200.000	-0.060	0.304
-470.216	-182.333	-0.182	0.003
-469.201	-9.626	-0.229	0.152
-468.186	-200.000	0.004	-0.047
-467.172	120.606	-0.114	-0.141
-466.157	129.041	-0.046	0.059
-465.143	-47.270	-0.307	0.149
-464.128	6.103	0.264	-0.195
-463.113	-121.778	-0.241	-0.040
-462.099	-159.243	0.174	0.010
-461.084	319.126	-0.025	0.046
-460.070	-200.000	0.017	-0.142
-459.055	-200.000	-0.003	0.125
-458.040	-200.000	0.019	0.181
-457.026	176.987	-0.159	-0.230
-456.011	18.297	0.266	0.211
-454.997	-200.000	0.140	0.000
-453.982	-168.806	-0.219	-0.008
-452.968	629.072	-0.127	0.319
-451.953	-55.319	0.193	0.086
-450.938	-70.659	-0.241	-0.091
-449.924	-166.702	0.084	-0.003
-448.909	-200.000	-0.047	-0.245
-447.895	-9.613	0.083	0.055
-446.880	800.000	0.022	0.066
-445.865	-156.056	0.145	0.009
-444.851	17.606	0.058	-0.046
-443.836	-200.000	0.007	0.046
-442.822	84.759	-0.034	-0.037
-441.807	165.871	0.122	-0.171
-440.792	-19.591	0.158	0.097
-439.778	800.000	-0.071	0.224
-438.763	403.969	0.083	-0.174
-437.749	-200.000	-0.047	-0.353
-436.734	-200.000	-0.042	-0.266
-435.719	426.180	0.069	0.149
-434.705	562.352	0.126	0.304
-433.690	155.226	-0.144	0.197
-432.676	15.092	-0.244	-0.190
-431.661	717.759	-0.092	0.243
-430.646	-200.000	-0.016	-0.118
-429.632	250.464	0.088	0.148
-428.617	71.693	0.097	-0.100
-427.603	593.000	0.063	0.154
-426.588	-32.910	-0.139	-0.077
-425.573	-200.000	0.028	0.167
-424.559	800.000	-0.054	0.161
-423.544	80.351	0.076	-0.082
-422.530	-200.000	-0.017	0.095
-421.515	-9.087	-0.092	0.061
-420.500	800.000	-0.073	0.249
-419.486	178.876	-0.183	0.265
-418.471	152.116	-0.038	-0.051
-417.457	317.763	0.087	0.163
-416.442	-200.000	-0.036	-0.226
-415.428	475.792	-0.125	-0.280
-414.413	-200.000	0.010	0.564
-413.398	-116.034	-0.183	0.034
-412.384	518.507	0.108	-0.251
-411.369	48.947	0.148	0.138
-410.355	77.044	0.114	0.121
-409.340	-109.104	-0.225	-0.048
-408.325	15.124	0.119	0.093
-407.311	-87.109	-0.279	-0.084
-406.296	28.154	-0.173	0.145
-405.282	118.701	-0.264	0.324
-404.267	161.043	-0.125	-0.174
-403.252	-200.000	-0.000	0.036
-402.238	800.000	-0.100	-0.323
-401.223	-200.000	-0.022	0.114
-400.209	-97.805	0.175	-0.045
-399.194	-200.000	0.077	-0.374
-398.179	-200.000	0.060	-0.262
-397.165	256.094	0.090	0.153
-396.150	-105.831	-0.103	0.023
-395.136	66.545	0.140	0.142
-394.121	800.000	-0.066	0.279
-393.106	299.697	0.024	-0.044
-392.092	124.233	0.105	0.131
-391.077	438.050	0.076	-0.165
-390.063	352.640	0.051	0.100
-389.048	-44.859	-0.149	0.074
-388.033	70.654	-0.127	-0.130
-387.019	-25.786	0.385	0.225
-386.004	95.014	-0.109	0.123
-384.990	238.745	-0.038	-0.062
-383.975	-200.000	-0.084	-0.569
-382.960	-2.484	0.330	-0.230
-381.946	-163.722	-0.209	-0.010
-380.931	-192.051	-0.114	-0.001
-379.917	7.722	0.242	0.180
-378.902	130.434	-0.147	-0.187
-377.888	199.015	0.059	-0.089
-376.873	140.221	0.138	0.181
-375.858	285.421	-0.113	-0.202
-374.844	-28.726	-0.157	0.090
-373.829	800.000	0.108	0.312
-372.815	-7.620	0.098	0.066
-371.800	-37.054	0.288	-0.153
-370.785	204.465	0.150	-0.231
-369.771	-38.961	0.403	-0.211
-368.756	16.872	-0.085	0.067
-367.742	-114.384	0.204	-0.039
-366.727	129.261	-0.219	-0.277
-365.712	-200.000	-0.035	-0.206
-364.698	-200.000	-0.024	0.163
-363.683	59.288	-0.086	0.084
-362.669	-107.009	0.144	-0.031
-361.654	401.980	-0.080	0.166
-360.639	100.161	0.228	-0.262
-359.625	800.000	0.039	-0.125
-358.610	-200.000	-0.035	-0.196
-357.596	-27.781	-0.101	-0.058
-356.581	65.774	-0.228	-0.230
-355.566	-136.747	0.237	-0.027
-354.552	-200.000	-0.017	0.115
-353.537	-11.278	-0.330	0.215
-352.523	-200.000	0.040	-0.381
-351.508	43.943	0.390	-0.354
-350.493	0.284	0.347	-0.246
-349.479	-164.176	-0.120	-0.005
-348.464	47.776	-0.181	-0.168
-347.450	113.848	0.136	-0.164
-346.435	-200.000	0.003	-0.061
-345.420	-161.243	0.397	-0.020
-344.406	-200.000	-0.006	-0.050
-343.391	578.824	-0.043	0.103
-342.377	-200.000	-0.020	0.203
-341.362	-128.895	0.384	-0.054
-340.348	-200.000	-0.051	0.257
-339.333	115.628	-0.104	0.126
-338.318	147.455	-0.308	0.411
-337.304	6.714	-0.058	0.043
-336.289	606.993	0.046	0.113
-335.275	376.945	0.100	0.203
-334.260	-55.899	0.031	-0.014
-333.245	67.456	-0.162	0.163
-332.231	466.767	0.122	-0.272
-331.216	135.134	0.237	-0.305
-330.202	800.000	0.053	-0.161
-329.187	357.534	-0.171	0.338
-328.172	-59.015	-0.223	0.095
-327.158	-103.310	0.138	0.032
-326.143	-53.171	0.103	0.047
-325.129	-101.564	0.123	0.030
-324.114	-176.913	0.271	0.007
-323.099	-76.908	-0.091	0.032
-322.085	20.575	0.108	0.086
-321.070	-200.000	0.022	-0.277
-320.056	16.625	-0.158	-0.124
-319.041	-200.000	-0.025	-0.211
-318.026	800.000	-0.125	0.409
-317.012	-6.593	-0.298	0.201
-315.997	-0.483	-0.209	0.147
-314.983	-60.344	-0.156	-0.066
-313.968	800.000	-0.033	-0.107
-312.953	18.857	-0.209	-0.166
-311.939	-200.000	0.028	0.208
-310.924	-137.356	0.066	0.007
-309.910	12.368	-0.294	-0.224
-308.895	-200.000	0.018	0.234
-307.880	800.000	0.053	0.148
-306.866	-67.672	-0.163	0.063
-305.851	-200.000	-0.007	0.167
-304.837	61.153	-0.223	0.219
-303.822	269.534	-0.132	-0.229
-302.807	98.285	-0.065	-0.074
-301.793	800.000	-0.073	0.201
-300.778	-123.994	-0.257	-0.040
-299.764	-162.621	-0.382	-0.019
-298.749	65.304	0.042	0.042
-297.735	-164.641	0.125	0.006
-296.720	83.701	0.144	-0.155
-295.705	-200.000	-0.011	-0.113
-294.691	72.327	-0.118	0.122
-293.676	-144.566	-0.119	-0.011
-292.662	40.840	0.250	-0.223
-291.647	156.023	0.163	-0.222
-290.632	-200.000	0.031	-0.143
-289.618	-42.532	0.084	-0.042
-288.603	78.806	0.092	-0.097
-287.589	327.695	-0.118	-0.223
-286.574	800.000	-0.091	-0.254
-285.559	-188.271	-0.114	0.001
-284.545	-200.000	-0.028	-0.131
-283.530	250.656	-0.052	0.087
-282.516	-200.000	-0.053	0.310
-281.501	624.118	0.112	0.279
-280.486	335.089	0.111	0.213
-279.472	800.000	-0.159	0.487
-278.457	-142.857	-0.125	0.012
-277.443	-200.000	0.016	0.213
-276.428	126.131	-0.109	-0.136
-275.413	126.617	-0.086	0.108
-274.399	-200.000	0.033	-0.157
-273.384	168.541	0.066	0.092
-272.370	70.703	0.066	0.067
-271.355	73.580	-0.085	-0.088
-270.340	7.077	-0.141	-0.104
-269.326	746.631	0.051	0.136
-268.311	800.000	-0.018	-0.062
-267.297	2.661	-0.153	-0.110
-266.282	-200.000	-0.075	-0.364
-265.267	9.079	-0.083	-0.062
-264.253	-60.821	0.385	0.161
-263.238	293.086	0.019	-0.035
-262.224	64.912	0.131	-0.131
-261.209	800.000	0.058	-0.169
-260.195	28.137	-0.349	0.291
-259.180	-32.710	0.178	-0.098
-258.165	-200.000	-0.009	0.441
-257.151	-56.558	0.270	-0.118
-256.136	-100.093	0.322	0.079
-255.122	-200.000	-0.012	0.111
-254.107	800.000	-0.062	-0.258
-253.092	800.000	0.048	0.186
-252.078	165.941	-0.036	-0.051
-251.063	-145.333	-0.183	-0.016
-250.049	800.000	0.052	0.141
-249.034	746.022	0.081	-0.217
-248.019	800.000	0.197	-0.564
-247.005	150.098	0.204	0.273
-245.990	-28.987	0.141	0.080
-244.976	-55.874	-0.149	0.066
-243.961	308.097	0.132	0.243
-242.946	312.044	-0.051	0.095
-241.932	73.060	-0.100	0.104
-240.917	44.924	-0.157	0.143
-239.903	415.237	0.168	0.354
-238.888	800.000	-0.074	-0.291
-237.873	-118.705	0.119	-0.021
-236.859	-54.973	0.141	0.063
-235.844	-191.721	0.105	-0.001
-234.830	-69.955	0.154	-0.058
-233.815	89.767	0.197	-0.218
-232.800	-102.234	0.140	0.033
-231.786	800.000	-0.097	0.383
-230.771	-33.239	-0.286	0.156
-229.757	119.059	-0.072	0.088
-228.742	411.983	0.146	0.306
-227.727	800.000	-0.024	0.080
-226.713	-88.240	0.244	-0.072
-225.698	-200.000	0.020	0.118
-224.684	-200.000	-0.219	0.000
-223.669	800.000	0.042	-0.124
-222.655	155.788	-0.028	-0.038
-221.640	-62.732	0.230	0.094
-220.625	-102.786	0.448	0.105
-219.611	70.597	0.137	-0.140
-218.596	244.285	-0.104	0.173
-217.582	800.000	0.031	-0.091
-216.567	-92.898	-0.235	-0.065
-215.552	-200.000	-0.016	-0.370
-214.538	169.663	0.176	-0.248
-213.523	-200.000	-0.067	-0.293
-212.509	56.133	-0.087	-0.083
-211.494	25.522	0.231	0.190
-210.479	74.654	0.402	-0.418
-209.465	171.308	-0.112	0.159
-208.450	800.000	0.018	-0.051
-207.436	124.094	-0.070	-0.087
-206.421	-200.000	0.039	-0.222
-205.406	-68.117	0.305	-0.117
-204.392	532.657	-0.038	0.090
-203.377	114.007	0.147	0.176
-202.363	-172.194	-0.097	0.003
-201.348	-129.735	-0.143	-0.019
-200.333	420.201	0.043	0.091
-199.319	-40.159	-0.186	0.095
-198.304	-51.861	-0.191	-0.088
-197.290	-200.000	-0.072	0.487
-196.275	-188.788	0.287	-0.003
-195.260	202.306	0.244	-0.371
-194.246	-200.000	0.023	0.305
-193.231	-110.559	-0.378	0.077
-192.217	-41.807	-0.258	-0.130
-191.202	409.216	0.082	-0.172
-190.187	26.101	0.032	0.026
-189.173	-62.218	0.095	0.039
-188.158	-90.509	0.151	-0.043
-187.144	448.361	0.083	-0.180
-186.129	800.000	-0.037	-0.102
-185.114	-22.765	0.162	0.097
-184.100	-77.760	-0.236	0.080
-183.085	-59.238	0.249	0.106
-182.071	141.576	0.247	0.322
-181.056	82.838	0.165	-0.177
-180.042	-21.713	-0.149	-0.089
-179.027	174.406	0.154	-0.220
-178.012	70.778	0.341	0.348
-176.998	-58.670	0.126	0.054
-175.983	76.377	-0.113	-0.118
-174.969	52.317	-0.236	0.222
-173.954	339.784	0.154	0.296
-172.939	-30.929	0.139	0.077
-171.925	-60.365	0.250	-0.105
-170.910	144.072	-0.368	0.483
-169.896	-17.081	0.048	-0.030
-168.881	-41.747	0.073	0.037
-167.866	74.515	-0.131	-0.136
-166.852	-63.347	-0.236	-0.096
-165.837	-27.574	-0.046	-0.026
-164.823	-68.819	0.200	0.076
-163.808	141.913	-0.220	0.288
-162.793	-16.722	0.141	0.088
-161.779	709.415	0.062	-0.160
-160.764	-118.650	0.069	-0.012
-159.750	-200.000	0.036	0.295
-158.735	800.000	-0.039	0.108
-157.720	800.000	0.042	0.128
-156.706	648.989	0.029	-0.073
-155.691	800.000	0.028	-0.081
-154.677	31.828	-0.142	-0.121
-153.662	149.708	0.216	0.288
-152.647	-102.076	-0.251	0.059
-151.633	-31.182	0.521	-0.289
-150.618	800.000	0.170	-0.509
-149.604	800.000	-0.077	-0.280
-148.589	123.736	0.079	-0.098
-147.574	216.921	-0.134	-0.209
-146.560	800.000	0.098	-0.319
-145.545	-24.670	-0.250	0.146
-144.531	-200.000	-0.028	-0.130
-143.516	800.000	-0.077	0.234
-142.502	211.824	-0.146	0.226
-141.487	-134.036	0.348	-0.042
-140.472	-144.148	0.239	0.022
-139.458	29.035	0.104	-0.086
-138.443	19.483	0.182	0.144
-137.429	13.473	-0.055	0.042
-136.414	10.551	0.181	0.136
-135.399	-181.951	0.402	0.008
-134.385	94.551	0.160	0.179
-133.370	522.779	-0.107	0.247
-132.356	-200.000	-0.033	0.218
-131.341	-200.000	0.018	-0.248
-130.326	363.496	-0.066	-0.130
-129.312	-200.000	0.013	0.334
-128.297	165.662	0.094	0.131
-127.283	-85.703	0.033	0.010
-126.268	14.220	0.245	0.187
-125.253	127.786	-0.224	-0.280
-124.239	-9.144	0.154	0.101
-123.224	-67.992	0.116	0.045
-122.210	-200.000	-0.014	-0.119
-121.195	-200.000	0.024	-0.233
-120.180	-80.410	0.281	0.092
