DTS Sentinel unit serial number:	SN413079Multiplexer serial number:	ORYXHardware model number:	OX4-SRSoftware version number:	ORYX F/W v4.00 Oryx Data Collector v3.7.2.0data status	okinstallation	princeton_trtdifferential loss correction	single-endedforward channel	channel 2reverse channel	N/Adate	2019/09/11time	06:37:11forward acquisition time	60.00reverse acquisition time	0.00gamma	496.2192k internal	0.2328k external	0.2328temperature offset calibration	0.9939default loss term (dB/km)	0.3790temperature slope calibration	1.0000multiplexer offset coefficient	1.0000multiplexer slope coefficient	1.0000fibre end	0.00T internal ref (°C)	29.69T ext. ref 1 (°C)	-0.15T ext. ref 2 (°C)	24.41length (m)	temperature (°C)	Stokes	anti-Stokes-747.200	-98.597	-0.117	0.030
-746.185	-130.599	0.156	-0.021
-745.171	43.043	-0.203	-0.186
-744.156	-200.000	0.002	0.184
-743.142	-41.860	0.072	-0.037
-742.127	-118.581	-0.548	0.098
-741.112	366.424	0.031	0.062
-740.098	-127.697	-0.168	0.024
-739.083	74.179	-0.081	-0.086
-738.069	155.668	0.108	-0.149
-737.054	-1.773	-0.066	-0.047
-736.039	31.902	0.109	-0.095
-735.025	-200.000	0.022	0.123
-734.010	17.860	-0.221	-0.177
-732.996	532.895	-0.184	-0.440
-731.981	86.057	0.183	0.202
-730.966	473.895	0.054	-0.124
-729.952	-45.935	-0.060	0.030
-728.937	-200.000	-0.003	-0.262
-727.923	152.245	-0.105	0.144
-726.908	336.583	0.148	0.289
-725.894	800.000	0.075	-0.260
-724.879	11.745	-0.157	-0.121
-723.864	-200.000	0.008	-0.178
-722.850	800.000	-0.068	-0.199
-721.835	-19.357	-0.373	0.233
-720.821	800.000	-0.095	-0.356
-719.806	-200.000	0.004	0.206
-718.791	14.424	-0.188	0.148
-717.777	11.647	0.084	0.065
-716.762	22.825	-0.276	-0.227
-715.748	-106.546	-0.216	-0.048
-714.733	-43.305	0.243	-0.124
-713.718	471.650	0.035	-0.079
-712.704	390.118	-0.081	0.169
-711.689	-200.000	0.013	-0.157
-710.675	-200.000	0.008	0.204
-709.660	281.657	0.198	-0.356
-708.645	-120.607	0.226	0.039
-707.631	-148.776	-0.329	-0.027
-706.616	-148.922	0.248	-0.020
-705.602	-200.000	0.004	-0.070
-704.587	-200.000	0.033	0.210
-703.572	-200.000	-0.014	-0.275
-702.558	-40.103	0.162	-0.085
-701.543	-43.096	0.232	0.118
-700.529	-200.000	0.033	-0.248
-699.514	436.371	-0.054	0.119
-698.499	-103.125	-0.528	-0.126
-697.485	800.000	-0.119	0.358
-696.470	-58.465	0.315	-0.137
-695.456	-136.974	0.122	-0.014
-694.441	-148.558	-0.544	0.045
-693.426	-200.000	0.025	0.171
-692.412	800.000	0.061	0.205
-691.397	800.000	0.093	-0.348
-690.383	-200.000	-0.042	-0.229
-689.368	-26.763	-0.366	-0.215
-688.354	-35.623	0.207	-0.113
-687.339	206.702	-0.112	-0.176
-686.324	800.000	-0.126	-0.437
-685.310	391.293	-0.090	-0.188
-684.295	-154.329	-0.250	0.017
-683.281	54.919	-0.015	-0.014
-682.266	-200.000	0.032	-0.182
-681.251	102.431	-0.146	-0.172
-680.237	-15.387	0.275	-0.177
-679.222	-78.980	0.031	-0.011
-678.208	67.480	-0.179	-0.184
-677.193	-68.857	0.365	-0.142
-676.178	261.469	-0.130	-0.226
-675.164	-111.982	-0.157	0.032
-674.149	800.000	0.055	-0.160
-673.135	-67.170	0.228	0.090
-672.120	-66.030	0.058	-0.023
-671.105	133.979	0.059	-0.077
-670.091	113.984	0.230	-0.281
-669.076	-25.087	0.054	0.032
-668.062	-163.962	-0.330	0.015
-667.047	355.150	0.123	0.246
-666.032	-200.000	0.082	-0.391
-665.018	800.000	0.067	0.204
-664.003	-80.036	0.334	-0.113
-662.989	212.927	0.229	-0.363
-661.974	480.985	0.043	-0.099
-660.959	-200.000	-0.044	-0.342
-659.945	-5.603	0.095	-0.065
-658.930	56.970	-0.152	0.149
-657.916	-9.907	0.314	-0.210
-656.901	535.772	0.113	0.268
-655.886	703.942	-0.120	0.318
-654.872	40.472	-0.085	-0.077
-653.857	196.979	0.104	-0.159
-652.843	26.993	-0.208	0.175
-651.828	-104.427	-0.340	0.079
-650.814	217.480	0.099	-0.159
-649.799	-108.224	-0.184	0.040
-648.784	-200.000	0.010	-0.125
-647.770	-29.582	-0.164	0.094
-646.755	-12.631	0.045	-0.030
-645.741	464.326	0.182	-0.409
-644.726	247.194	-0.167	0.284
-643.711	-69.063	0.309	0.120
-642.697	-48.201	0.138	0.067
-641.682	16.914	-0.096	-0.076
-640.668	314.230	-0.080	-0.151
-639.653	5.884	-0.213	-0.158
-638.638	-122.545	-0.190	0.031
-637.624	-2.713	-0.151	0.106
-636.609	110.410	-0.135	-0.163
-635.595	-7.090	-0.181	0.124
-634.580	89.520	0.154	-0.172
-633.565	361.266	-0.179	-0.360
-632.551	-200.000	0.069	-0.312
-631.536	-108.606	0.242	-0.052
-630.522	54.132	-0.211	0.204
-629.507	-116.642	-0.433	0.080
-628.492	800.000	0.005	-0.014
-627.478	-76.679	0.310	-0.109
-626.463	-88.721	-0.242	-0.072
-625.449	-200.000	0.036	-0.332
-624.434	201.606	-0.061	-0.095
-623.419	518.399	0.083	0.194
-622.405	238.602	-0.139	0.232
-621.390	800.000	0.028	0.087
-620.376	355.021	-0.091	0.181
-619.361	-126.568	0.212	-0.032
-618.346	-177.058	-0.013	0.000
-617.332	590.173	-0.128	-0.316
-616.317	-73.092	0.262	-0.096
-615.303	-83.459	0.249	0.080
-614.288	-200.000	0.007	0.221
-613.273	-111.722	-0.162	0.033
-612.259	-52.765	0.062	-0.029
-611.244	-200.000	0.021	0.128
-610.230	18.449	-0.315	-0.252
-609.215	-52.940	-0.206	-0.095
-608.201	-149.222	-0.213	-0.017
-607.186	35.702	-0.081	0.071
-606.171	44.900	-0.119	-0.110
-605.157	-115.533	-0.168	0.032
-604.142	-30.062	-0.276	0.157
-603.128	800.000	-0.100	-0.341
-602.113	-30.819	-0.281	-0.159
-601.098	167.843	0.097	0.138
-600.084	527.896	-0.089	0.211
-599.069	21.093	0.279	-0.227
-598.055	698.145	0.025	-0.065
-597.040	221.856	0.037	0.059
-596.025	707.029	0.020	0.054
-595.011	-200.000	0.021	0.375
-593.996	-200.000	-0.029	0.180
-592.982	-200.000	0.092	0.429
-591.967	-200.000	-0.007	0.167
-590.952	-121.554	-0.235	-0.039
-589.938	9.019	-0.133	-0.101
-588.923	30.442	0.187	0.160
-587.909	-1.529	0.330	-0.233
-586.894	15.147	-0.184	-0.144
-585.879	-47.301	0.204	0.099
-584.865	-67.550	-0.249	-0.098
-583.850	86.477	-0.066	-0.072
-582.836	38.428	0.238	-0.213
-581.821	-200.000	0.026	-0.157
-580.806	-115.266	0.393	0.074
-579.792	86.042	0.332	-0.366
-578.777	64.345	-0.084	0.085
-577.763	-200.000	0.016	0.108
-576.748	172.446	0.106	0.152
-575.733	800.000	0.056	-0.224
-574.719	165.664	-0.128	0.182
-573.704	800.000	-0.035	0.101
-572.690	146.544	0.068	0.091
-571.675	800.000	0.032	-0.098
-570.661	341.865	0.178	-0.349
-569.646	218.272	-0.032	0.051
-568.631	-200.000	-0.036	0.171
-567.617	-200.000	0.009	0.167
-566.602	426.354	-0.139	0.300
-565.588	-26.829	-0.121	-0.071
-564.573	24.427	-0.264	-0.219
-563.558	-58.319	-0.245	0.106
-562.544	287.718	-0.116	-0.210
-561.529	-77.849	0.058	0.020
-560.515	-200.000	-0.007	0.313
-559.500	-63.612	-0.391	0.160
-558.485	-102.441	0.097	0.023
-557.471	46.638	0.107	-0.099
-556.456	-63.463	-0.426	0.175
-555.442	-200.000	0.029	-0.266
-554.427	-200.000	-0.066	0.401
-553.412	-10.710	0.166	0.110
-552.398	-13.364	0.174	-0.113
-551.383	800.000	0.084	-0.235
-550.369	110.712	-0.104	0.125
-549.354	259.588	0.210	-0.362
-548.339	51.250	-0.044	0.042
-547.325	-16.469	-0.290	-0.184
-546.310	162.871	-0.122	-0.171
-545.296	-0.524	0.128	0.091
-544.281	-53.976	-0.213	0.097
-543.266	-130.815	0.282	0.038
-542.252	27.751	-0.141	-0.119
-541.237	-143.193	-0.312	0.030
-540.223	33.811	-0.099	0.086
-539.208	800.000	0.033	0.138
-538.193	264.214	-0.127	0.221
-537.179	202.302	-0.181	-0.279
-536.164	56.164	-0.163	0.158
-535.150	-54.878	-0.147	-0.066
-534.135	-70.495	-0.219	0.083
-533.121	-103.223	0.706	-0.167
-532.106	-114.978	0.078	-0.015
-531.091	226.773	-0.167	-0.272
-530.077	24.967	-0.213	-0.177
-529.062	-70.948	0.161	0.061
-528.048	120.642	0.108	-0.134
-527.033	-95.512	0.194	-0.052
-526.018	-2.724	-0.175	-0.123
-525.004	136.959	-0.077	-0.101
-523.989	230.846	0.138	0.226
-522.975	-46.783	0.197	-0.096
-521.960	426.791	0.092	-0.198
-520.945	-132.473	-0.217	0.028
-519.931	-49.365	-0.191	0.091
-518.916	-142.765	0.162	0.016
-517.902	-153.243	-0.159	-0.011
-516.887	-200.000	0.010	-0.209
-515.872	-146.438	0.075	0.007
-514.858	-200.000	-0.008	-0.047
-513.843	-106.533	0.180	-0.040
-512.829	800.000	0.023	0.071
-511.814	-115.695	-0.273	-0.051
-510.799	407.624	0.228	0.482
-509.785	-1.431	-0.165	-0.116
-508.770	725.191	0.071	0.190
-507.756	-90.193	0.162	0.047
-506.741	-200.000	0.048	-0.291
-505.726	-163.349	0.354	-0.017
-504.712	-32.777	-0.330	-0.183
-503.697	-20.279	-0.159	-0.098
-502.683	55.009	0.068	-0.065
-501.668	18.281	-0.017	0.014
-500.653	266.058	0.020	0.035
-499.639	-96.357	0.195	0.052
-498.624	-126.152	-0.277	-0.041
-497.610	800.000	0.126	0.378
-496.595	62.420	-0.222	-0.221
-495.581	141.641	-0.080	-0.106
-494.566	-15.207	0.199	-0.127
-493.551	800.000	-0.069	0.258
-492.537	11.743	0.136	0.104
-491.522	-98.286	-0.286	-0.073
-490.508	262.508	-0.213	0.369
-489.493	206.348	0.032	-0.049
-488.478	272.958	0.030	-0.053
-487.464	484.532	0.101	0.230
-486.449	-118.515	0.609	0.108
-485.435	39.539	0.081	-0.072
-484.420	182.013	0.151	0.221
-483.405	-98.391	-0.164	-0.042
-482.391	152.137	-0.078	0.106
-481.376	-76.336	-0.282	0.099
-480.362	29.157	0.086	-0.073
-479.347	-200.000	-0.054	-0.322
-478.332	-200.000	0.041	0.263
-477.318	32.889	-0.052	0.045
-476.303	-16.994	0.288	0.181
-475.289	-200.000	-0.018	-0.129
-474.274	32.417	0.147	0.126
-473.259	-200.000	0.012	0.064
-472.245	-200.000	0.015	0.266
-471.230	-200.000	0.036	0.404
-470.216	158.094	-0.047	-0.065
-469.201	-200.000	0.006	-0.109
-468.186	-200.000	0.001	-0.049
-467.172	800.000	-0.101	0.293
-466.157	-65.085	-0.352	-0.142
-465.143	-200.000	0.001	0.041
-464.128	-81.140	0.279	-0.092
-463.113	-142.844	0.190	-0.018
-462.099	128.461	-0.114	0.145
-461.084	113.217	0.057	0.069
-460.070	-133.637	-0.122	0.015
-459.055	800.000	-0.007	0.022
-458.040	523.880	-0.057	0.134
-457.026	73.644	0.281	-0.293
-456.011	278.333	-0.051	0.091
-454.997	-200.000	0.001	0.092
-453.982	-65.105	0.244	0.098
-452.968	-76.744	-0.128	-0.045
-451.953	800.000	0.048	0.159
-450.938	-53.432	0.157	-0.072
-449.924	-18.789	0.219	-0.136
-448.909	120.533	-0.160	-0.198
-447.895	800.000	-0.039	-0.128
-446.880	162.895	0.226	-0.316
-445.865	170.485	-0.014	-0.019
-444.851	-132.883	0.287	-0.036
-443.836	85.600	0.080	0.088
-442.822	-200.000	-0.003	0.129
-441.807	800.000	0.063	-0.183
-440.792	800.000	-0.030	-0.120
-439.778	115.960	0.078	-0.095
-438.763	-200.000	0.185	0.000
-437.749	89.663	-0.250	0.278
-436.734	561.373	-0.143	-0.344
-435.719	-95.875	0.180	0.048
-434.705	-84.645	-0.116	0.036
-433.690	67.850	-0.174	-0.177
-432.676	126.952	-0.025	-0.032
-431.661	305.185	0.138	0.256
-430.646	433.277	-0.167	-0.362
-429.632	340.601	-0.080	-0.156
-428.617	-175.310	0.337	0.009
-427.603	-43.119	-0.237	-0.119
-426.588	235.065	0.228	-0.375
-425.573	30.778	-0.214	0.183
-424.559	-133.302	0.193	0.024
-423.544	229.080	0.157	-0.255
-422.530	153.525	0.191	-0.260
-421.515	27.595	-0.182	0.152
-420.500	-200.000	0.061	-0.294
-419.486	408.244	-0.093	-0.195
-418.471	101.055	0.197	0.228
-417.457	-141.773	-0.241	0.024
-416.442	12.036	-0.188	-0.144
-415.428	-136.788	-0.101	-0.012
-414.413	-74.551	-0.051	0.018
-413.398	-123.219	-0.113	0.018
-412.384	800.000	-0.110	0.336
-411.369	-166.267	-0.120	-0.005
-410.355	-200.000	0.017	0.082
-409.340	-108.481	-0.128	0.027
-408.325	8.861	0.099	0.074
-407.311	-200.000	0.037	0.175
-406.296	-71.103	-0.311	0.116
-405.282	800.000	-0.115	-0.394
-404.267	-6.525	-0.160	-0.108
-403.252	40.909	0.083	-0.074
-402.238	-200.000	0.002	0.324
-401.223	-73.099	0.138	-0.050
-400.209	11.821	0.156	-0.119
-399.194	800.000	0.119	0.326
-398.179	-200.000	-0.017	0.314
-397.165	310.624	-0.013	0.025
-396.150	-200.000	0.139	-0.664
-395.136	-116.185	-0.192	0.035
-394.121	-73.889	0.087	0.031
-393.106	107.660	-0.155	0.183
-392.092	48.031	-0.195	0.181
-391.077	-114.011	0.427	0.082
-390.063	3.613	0.119	-0.086
-389.048	-41.054	-0.299	-0.154
-388.033	-77.920	0.268	0.092
-387.019	800.000	0.051	0.149
-386.004	417.219	0.020	0.043
-384.990	23.297	-0.205	0.167
-383.975	-58.128	-0.007	-0.003
-382.960	98.044	0.087	0.099
-381.946	749.887	-0.067	-0.179
-380.931	-182.714	-0.182	0.003
-379.917	553.487	0.087	0.207
-378.902	-106.101	-0.407	-0.091
-377.888	-11.676	0.154	0.100
-376.873	-46.922	-0.122	-0.059
-375.858	800.000	-0.065	-0.188
-374.844	11.508	-0.172	-0.131
-373.829	-99.739	-0.291	0.073
-372.815	-47.338	0.152	0.073
-371.800	-10.567	-0.187	0.123
-370.785	-76.886	0.200	0.069
-369.771	106.600	0.078	0.092
-368.756	175.116	0.236	0.340
-367.742	216.090	-0.260	0.410
-366.727	-35.253	-0.077	-0.042
-365.712	492.492	0.049	0.112
-364.698	-200.000	0.013	0.180
-363.683	-94.483	0.095	-0.026
-362.669	-106.637	0.120	0.026
-361.654	-67.328	0.134	-0.052
-360.639	-43.236	-0.147	-0.074
-359.625	-200.000	0.024	-0.121
-358.610	800.000	0.058	0.167
-357.596	800.000	0.127	0.349
-356.581	246.924	-0.028	-0.047
-355.566	21.557	-0.220	-0.178
-354.552	456.129	-0.069	0.153
-353.537	595.679	-0.035	0.085
-352.523	-7.612	0.259	0.174
-351.508	-172.232	-0.289	0.009
-350.493	-200.000	0.039	-0.391
-349.479	95.421	-0.144	0.163
-348.464	-110.658	-0.131	-0.027
-347.450	540.432	-0.108	-0.256
-346.435	800.000	-0.102	-0.281
-345.420	75.188	-0.235	0.245
-344.406	800.000	-0.087	0.352
-343.391	92.825	-0.252	-0.283
-342.377	-200.000	-0.000	-0.018
-341.362	-5.109	0.385	0.263
-340.348	-80.211	-0.165	0.055
-339.333	503.298	0.082	0.188
-338.318	41.921	0.293	0.264
-337.304	111.220	-0.104	-0.124
-336.289	760.829	-0.163	-0.438
-335.275	36.620	0.294	0.258
-334.260	140.132	-0.149	0.195
-333.245	18.867	0.406	-0.322
-332.231	-111.563	0.243	0.049
-331.216	86.464	0.086	-0.094
-330.202	-73.596	-0.327	0.118
-329.187	-149.282	0.427	-0.034
-328.172	52.177	-0.148	0.140
-327.158	32.832	-0.172	-0.148
-326.143	-3.230	-0.197	-0.136
-325.129	-47.183	0.259	0.125
-324.114	-200.000	-0.031	-0.207
-323.099	-200.000	-0.006	-0.167
-322.085	-70.559	0.146	-0.055
-321.070	-72.503	0.271	0.099
-320.056	583.142	-0.130	-0.317
-319.041	-77.274	-0.423	0.146
-318.026	-86.602	-0.047	0.014
-317.012	293.582	-0.116	0.210
-315.997	86.384	0.202	0.221
-314.983	395.011	-0.138	-0.284
-313.968	476.827	-0.098	-0.220
-312.953	392.326	-0.093	-0.191
-311.939	-200.000	0.060	-0.317
-310.924	-124.498	-0.138	0.021
-309.910	772.567	0.051	-0.139
-308.895	750.312	-0.174	0.466
-307.880	800.000	-0.067	0.234
-306.866	-114.820	-0.123	-0.023
-305.851	43.638	-0.168	-0.152
-304.837	128.993	-0.054	0.068
-303.822	-59.176	0.162	-0.069
-302.807	-112.047	-0.142	-0.028
-301.793	-59.040	0.136	0.058
-300.778	278.924	-0.068	0.121
-299.764	65.473	-0.133	-0.133
-298.749	713.461	0.046	0.120
-297.735	-36.448	-0.204	0.109
-296.720	-200.000	-0.075	-0.397
-295.705	37.795	0.101	-0.089
-294.691	-200.000	-0.058	-0.323
-293.676	733.648	0.116	0.306
-292.662	800.000	0.088	-0.313
-291.647	-123.928	-0.036	-0.006
-290.632	531.888	0.048	0.111
-289.618	-48.105	0.285	-0.136
-288.603	-155.539	0.216	0.014
-287.589	800.000	0.051	0.202
-286.574	-24.991	0.099	0.058
-285.559	61.478	0.061	-0.060
-284.545	-43.739	-0.244	-0.122
-283.530	32.798	0.203	-0.174
-282.516	16.460	-0.056	-0.044
-281.501	-200.000	-0.037	0.302
-280.486	-7.592	-0.108	0.072
-279.472	-112.009	0.274	0.055
-278.457	-119.917	-0.110	-0.019
-277.443	97.926	-0.053	-0.060
-276.428	135.155	0.169	-0.218
-275.413	-84.040	-0.199	0.063
-274.399	-200.000	0.028	-0.197
-273.384	69.269	-0.154	0.156
-272.370	566.156	0.020	0.049
-271.355	-66.810	-0.034	0.013
-270.340	260.611	0.077	0.132
-269.326	107.682	0.110	0.130
-268.311	-54.858	0.300	-0.134
-267.297	800.000	0.054	-0.223
-266.282	116.419	0.240	0.291
-265.267	48.559	-0.171	0.159
-264.253	34.911	0.034	0.029
-263.238	-120.410	0.047	-0.008
-262.224	298.565	0.151	-0.275
-261.209	55.788	-0.293	-0.281
-260.195	401.884	0.105	-0.217
-259.180	60.269	0.131	-0.128
-258.165	-200.000	-0.020	-0.148
-257.151	-80.644	-0.108	0.035
-256.136	138.560	0.045	0.059
-255.122	-200.000	0.119	0.000
-254.107	-88.600	0.154	0.045
-253.092	-54.790	-0.331	0.148
-252.078	-26.542	-0.230	-0.133
-251.063	-31.198	0.272	0.151
-250.049	-34.724	0.281	-0.152
-249.034	-3.321	-0.389	0.268
-248.019	-71.758	-0.244	0.090
-247.005	-200.000	-0.011	-0.118
-245.990	9.186	0.064	-0.048
-244.976	77.707	-0.235	0.247
-243.961	-124.800	-0.212	0.032
-242.946	-63.645	0.232	-0.094
-241.932	-200.000	-0.044	0.426
-240.917	30.072	0.079	-0.066
-239.903	-123.406	0.283	-0.045
-238.888	514.812	-0.128	0.294
-237.873	800.000	0.059	-0.223
-236.859	66.429	0.171	-0.172
-235.844	-24.822	0.268	0.157
-234.830	-57.291	0.091	-0.040
-233.815	-1.581	-0.070	-0.049
-232.800	-134.189	0.133	-0.016
-231.786	800.000	-0.091	0.307
-230.771	-200.000	-0.010	0.189
-229.757	40.648	-0.183	0.163
-228.742	-22.406	-0.247	-0.148
-227.727	-200.000	0.029	-0.345
-226.713	193.445	0.206	-0.308
-225.698	47.658	0.061	0.057
-224.684	-49.829	0.207	-0.097
-223.669	286.386	-0.146	-0.261
-222.655	-200.000	0.032	0.243
-221.640	66.299	0.219	-0.220
-220.625	11.593	0.065	0.050
-219.611	-200.000	0.053	0.464
-218.596	-114.635	-0.314	0.059
-217.582	78.135	-0.074	-0.078
-216.567	800.000	-0.072	0.256
-215.552	208.848	0.114	-0.175
-214.538	-200.000	0.028	-0.287
-213.523	785.476	0.067	-0.182
-212.509	8.914	0.228	0.170
-211.494	77.467	0.152	0.159
-210.479	147.236	-0.075	0.099
-209.465	-47.930	0.286	0.137
-208.450	92.222	-0.161	0.179
-207.436	103.220	-0.067	0.077
-206.421	-70.635	-0.169	0.063
-205.406	800.000	-0.028	0.079
-204.392	-67.244	-0.315	-0.122
-203.377	-56.087	-0.148	0.065
-202.363	31.101	-0.088	0.075
-201.348	-200.000	0.031	0.227
-200.333	-94.929	0.367	0.098
-199.319	-116.042	-0.200	0.037
-198.304	11.342	-0.410	-0.310
-197.290	-132.202	0.192	-0.025
-196.275	-40.900	0.264	-0.135
-195.260	-105.870	0.184	0.041
-194.246	553.800	0.143	-0.340
-193.231	123.564	-0.065	-0.081
-192.217	-85.677	0.390	0.120
-191.202	-200.000	-0.054	-0.250
-190.187	-64.027	-0.162	0.065
-189.173	-63.468	-0.295	0.120
-188.158	-140.731	0.161	-0.016
-187.144	30.317	-0.287	-0.242
-186.129	-101.230	0.057	-0.014
-185.114	-87.137	-0.081	-0.024
-184.100	800.000	0.044	-0.184
-183.085	-85.555	0.278	-0.085
-182.071	-200.000	0.289	0.000
-181.056	171.126	-0.099	-0.140
-180.042	102.071	-0.091	-0.105
-179.027	630.228	0.085	0.213
-178.012	800.000	0.085	0.282
-176.998	38.039	0.061	-0.054
-175.983	-86.248	0.040	0.012
-174.969	-47.483	0.200	0.096
-173.954	48.808	0.191	0.176
-172.939	30.446	0.250	0.210
-171.925	-117.694	-0.190	-0.034
-170.910	106.096	0.106	-0.124
-169.896	275.111	0.137	-0.240
-168.881	800.000	0.035	-0.109
-167.866	-83.197	0.582	-0.184
-166.852	2.291	0.058	0.041
-165.837	-170.811	0.512	-0.017
-164.823	75.803	0.134	-0.139
-163.808	-96.501	-0.457	0.119
-162.793	67.321	0.126	-0.127
-161.779	-200.000	0.040	-0.230
-160.764	800.000	-0.135	0.392
-159.750	-200.000	0.037	0.297
-158.735	-26.245	-0.229	-0.133
-157.720	-96.851	0.277	0.072
-156.706	-51.577	0.161	-0.074
-155.691	800.000	0.054	-0.183
-154.677	-82.337	-0.247	0.079
-153.662	86.988	0.084	0.092
-152.647	584.011	0.160	0.387
-151.633	307.886	0.062	0.114
-150.618	152.331	-0.051	0.069
-149.604	77.445	0.395	-0.413
-148.589	26.938	0.047	-0.039
-147.574	-172.077	-0.041	-0.001
-146.560	21.504	-0.245	-0.196
-145.545	69.953	-0.023	0.023
-144.531	-69.317	0.337	-0.128
-143.516	-187.023	-0.337	-0.005
-142.502	-12.261	0.196	-0.126
-141.487	10.224	-0.416	0.312
-140.472	-72.648	0.229	0.083
-139.458	395.515	0.069	0.141
-138.443	37.244	0.335	-0.292
-137.429	202.105	-0.152	-0.230
-136.414	-51.176	-0.151	0.070
-135.399	-17.139	-0.012	0.007
-134.385	553.809	-0.092	-0.217
-133.370	110.110	-0.194	-0.229
-132.356	800.000	0.035	-0.142
-131.341	66.913	0.048	-0.048
-130.326	-63.530	0.239	0.097
-129.312	-200.000	-0.012	-0.053
-128.297	-200.000	0.030	-0.000
-127.283	784.461	-0.063	0.169
-126.268	-115.532	-0.461	-0.085
-125.253	-0.625	-0.070	-0.049
-124.239	72.163	-0.102	-0.105
-123.224	57.921	0.124	0.119
-122.210	800.000	0.088	-0.337
-121.195	-58.694	0.287	-0.122
-120.180	80.737	-0.267	-0.283
