DTS Sentinel unit serial number:	SN413079Multiplexer serial number:	ORYXHardware model number:	OX4-SRSoftware version number:	ORYX F/W v4.00 Oryx Data Collector v3.7.2.0data status	okinstallation	princeton_trtdifferential loss correction	single-endedforward channel	channel 2reverse channel	N/Adate	2019/09/15time	01:07:34forward acquisition time	60.00reverse acquisition time	0.00gamma	496.2192k internal	0.2325k external	0.2325temperature offset calibration	1.0037default loss term (dB/km)	0.3790temperature slope calibration	1.0000multiplexer offset coefficient	1.0000multiplexer slope coefficient	1.0000fibre end	0.00T internal ref (°C)	31.98T ext. ref 1 (°C)	4.53T ext. ref 2 (°C)	26.84length (m)	temperature (°C)	Stokes	anti-Stokes-747.200	800.000	0.111	0.359
-746.185	616.788	-0.050	0.128
-745.171	44.922	0.043	0.040
-744.156	-94.546	0.113	0.031
-743.142	800.000	0.179	-0.507
-742.127	-1.384	-0.208	0.148
-741.112	393.996	-0.053	0.112
-740.098	800.000	0.103	0.304
-739.083	800.000	0.032	0.142
-738.069	588.973	-0.108	0.268
-737.054	124.288	-0.164	-0.208
-736.039	-116.871	-0.172	0.032
-735.025	-108.975	0.085	0.018
-734.010	-72.393	-0.296	0.111
-732.996	12.126	-0.293	-0.227
-731.981	12.247	-0.318	0.247
-730.966	9.475	-0.234	-0.179
-729.952	-135.516	-0.465	-0.056
-728.937	-50.460	0.093	0.044
-727.923	-200.000	0.006	-0.210
-726.908	257.831	0.150	0.260
-725.894	-61.597	-0.215	-0.091
-724.879	-12.357	0.199	0.131
-723.864	800.000	0.056	-0.218
-722.850	800.000	-0.079	-0.259
-721.835	-118.015	-0.446	-0.080
-720.821	-147.860	-0.387	-0.033
-719.806	-153.800	-0.414	0.029
-718.791	-86.089	0.186	-0.058
-717.777	222.671	-0.153	-0.248
-716.762	475.314	0.115	-0.261
-715.748	4.584	-0.156	-0.116
-714.733	800.000	-0.017	-0.065
-713.718	-200.000	-0.013	-0.258
-712.704	800.000	-0.031	-0.103
-711.689	-27.918	-0.146	0.085
-710.675	87.074	-0.181	0.202
-709.660	-200.000	0.061	-0.283
-708.645	90.027	-0.061	0.069
-707.631	79.046	-0.133	0.144
-706.616	-77.636	0.340	0.119
-705.602	-200.000	-0.008	0.037
-704.587	-97.536	0.015	-0.004
-703.572	189.051	-0.131	-0.197
-702.558	152.615	0.205	-0.282
-701.543	-200.000	0.033	0.227
-700.529	-7.868	-0.295	-0.201
-699.514	-200.000	-0.028	-0.202
-698.499	800.000	-0.014	-0.043
-697.485	-94.040	0.230	-0.063
-696.470	-200.000	-0.002	-0.189
-695.456	-157.222	0.099	-0.006
-694.441	46.898	-0.226	0.212
-693.426	-78.109	0.279	-0.097
-692.412	426.459	0.082	0.177
-691.397	489.976	0.116	-0.266
-690.383	-200.000	0.104	0.490
-689.368	-200.000	-0.044	0.213
-688.354	-86.933	-0.072	-0.022
-687.339	218.201	0.168	-0.270
-686.324	-117.547	0.184	0.033
-685.310	717.525	-0.045	-0.121
-684.295	159.456	-0.034	0.047
-683.281	201.884	0.275	-0.427
-682.266	-200.000	-0.008	-0.320
-681.251	-200.000	-0.002	-0.017
-680.237	-96.430	-0.236	0.063
-679.222	674.420	-0.051	-0.133
-678.208	-82.932	0.351	0.114
-677.193	-102.764	-0.157	0.038
-676.178	51.447	0.182	-0.174
-675.164	-200.000	0.003	0.106
-674.149	-200.000	-0.031	-0.261
-673.135	800.000	0.052	-0.173
-672.120	475.172	0.127	-0.288
-671.105	57.278	0.065	0.064
-670.091	-69.849	-0.318	-0.122
-669.076	-65.449	0.236	0.096
-668.062	-115.447	-0.246	0.047
-667.047	-200.000	0.004	0.091
-666.032	490.710	-0.063	-0.145
-665.018	800.000	-0.049	-0.139
-664.003	148.273	-0.233	-0.316
-662.989	-15.641	0.148	0.095
-661.974	-200.000	-0.008	0.069
-660.959	240.254	0.115	-0.193
-659.945	-200.000	0.019	0.091
-658.930	-200.000	-0.039	-0.205
-657.916	-21.134	-0.058	-0.036
-656.901	800.000	-0.028	-0.090
-655.886	366.189	0.078	-0.158
-654.872	291.223	-0.060	-0.110
-653.857	-48.111	-0.296	-0.144
-652.843	62.371	-0.141	-0.142
-651.828	-49.419	-0.195	-0.093
-650.814	-69.282	-0.073	0.028
-649.799	0.995	-0.320	-0.231
-648.784	-117.380	-0.295	-0.054
-647.770	92.064	0.063	-0.071
-646.755	132.386	-0.088	0.114
-645.741	-200.000	0.020	-0.095
-644.726	-200.000	-0.010	0.061
-643.711	126.745	-0.080	0.102
-642.697	163.462	0.088	0.124
-641.682	132.006	-0.081	-0.105
-640.668	800.000	0.100	0.423
-639.653	-200.000	-0.004	-0.047
-638.638	-55.126	-0.211	-0.096
-637.624	160.480	0.026	-0.036
-636.609	81.535	0.217	-0.236
-635.595	-12.929	0.093	-0.061
-634.580	133.662	0.198	-0.258
-633.565	-43.030	0.178	-0.091
-632.551	-27.830	-0.344	0.200
-631.536	334.419	0.166	-0.324
-630.522	-200.000	-0.049	-0.386
-629.507	-15.787	-0.227	-0.145
-628.492	224.187	0.049	0.080
-627.478	-17.889	-0.307	-0.193
-626.463	127.799	-0.084	-0.107
-625.449	-23.625	0.549	-0.331
-624.434	-7.757	0.249	0.169
-623.419	-111.593	-0.398	0.081
-622.405	18.528	0.221	-0.177
-621.390	800.000	0.046	-0.151
-620.376	374.424	0.047	0.096
-619.361	-98.169	-0.276	-0.071
-618.346	800.000	-0.090	-0.263
-617.332	-200.000	0.013	-0.137
-616.317	249.767	-0.202	0.344
-615.303	800.000	0.083	0.297
-614.288	-74.787	-0.076	-0.027
-613.273	-149.769	-0.310	-0.024
-612.259	-200.000	0.028	-0.256
-611.244	223.547	-0.149	0.242
-610.230	101.283	0.178	-0.208
-609.215	-146.707	-0.223	-0.019
-608.201	-95.243	-0.195	0.053
-607.186	384.820	-0.098	0.202
-606.171	-200.000	0.077	0.356
-605.157	40.488	0.170	0.154
-604.142	-200.000	0.018	0.132
-603.128	-10.061	0.047	-0.031
-602.113	-67.939	-0.218	0.086
-601.098	-86.002	0.265	0.082
-600.084	-144.163	-0.299	-0.028
-599.069	-176.138	-0.361	0.010
-598.055	133.942	0.215	-0.280
-597.040	800.000	0.054	0.233
-596.025	64.109	0.065	0.066
-595.011	23.017	-0.060	0.049
-593.996	82.857	-0.059	0.064
-592.982	46.094	-0.311	0.289
-591.967	154.818	-0.114	-0.157
-590.952	800.000	-0.041	0.122
-589.938	-120.223	0.360	0.062
-588.923	89.193	-0.288	0.322
-587.909	-46.492	-0.231	-0.114
-586.894	331.767	-0.201	-0.388
-585.879	541.473	-0.094	0.225
-584.865	352.176	-0.147	0.293
-583.850	46.184	-0.230	0.213
-582.836	800.000	0.062	-0.204
-581.821	73.947	0.094	-0.099
-580.806	-85.301	0.324	-0.102
-579.792	55.812	0.116	0.113
-578.777	-71.787	0.293	0.109
-577.763	416.631	0.154	0.330
-576.748	800.000	0.135	-0.550
-575.733	800.000	-0.026	0.084
-574.719	800.000	0.060	-0.201
-573.704	88.219	-0.236	-0.262
-572.690	-8.036	-0.149	-0.101
-571.675	-119.091	0.273	0.048
-570.661	11.685	0.270	0.208
-569.646	800.000	-0.041	-0.113
-568.631	800.000	0.059	-0.213
-567.617	48.825	0.328	-0.308
-566.602	554.994	-0.107	0.259
-565.588	137.293	-0.136	0.178
-564.573	-200.000	0.010	-0.215
-563.558	-130.412	0.129	0.018
-562.544	9.939	-0.188	0.143
-561.529	800.000	0.089	0.248
-560.515	-89.928	0.198	-0.058
-559.500	-200.000	-0.056	-0.331
-558.485	182.629	0.131	-0.193
-557.471	-200.000	0.014	0.190
-556.456	351.965	0.105	0.209
-555.442	-43.837	0.157	-0.079
-554.427	-169.581	-0.082	0.003
-553.412	111.035	0.287	0.346
-552.398	-49.161	0.084	-0.040
-551.383	-157.539	-0.244	-0.015
-550.369	-29.155	0.269	-0.154
-549.354	-52.751	0.086	-0.040
-548.339	31.111	0.127	0.109
-547.325	335.981	-0.177	-0.345
-546.310	-78.107	-0.259	-0.089
-545.296	544.659	-0.173	0.413
-544.281	-182.593	-0.055	-0.001
-543.266	-178.031	0.224	-0.005
-542.252	-69.328	-0.316	0.122
-541.237	-200.000	-0.006	-0.055
-540.223	145.064	-0.169	0.226
-539.208	-65.726	-0.217	-0.087
-538.193	660.634	-0.113	-0.292
-537.179	229.312	-0.120	-0.195
-536.164	17.815	-0.054	-0.043
-535.150	-145.752	0.063	0.006
-534.135	-54.438	-0.042	0.019
-533.121	53.658	-0.132	0.127
-532.106	-29.631	0.261	0.149
-531.091	-200.000	0.016	0.606
-530.077	269.468	-0.202	0.356
-529.062	3.800	0.151	-0.110
-528.048	-83.539	-0.214	-0.068
-527.033	800.000	-0.045	0.148
-526.018	-200.000	-0.003	-0.033
-525.004	-200.000	-0.001	-0.335
-523.989	69.214	-0.043	-0.044
-522.975	-200.000	-0.004	0.231
-521.960	116.578	-0.168	0.207
-520.945	-94.218	-0.138	0.038
-519.931	800.000	0.032	0.104
-518.916	140.498	0.086	-0.113
-517.902	-78.779	0.250	-0.085
-516.887	24.647	0.066	0.055
-515.872	800.000	-0.088	-0.324
-514.858	-25.882	-0.051	0.030
-513.843	138.780	-0.162	0.213
-512.829	122.709	0.026	0.033
-511.814	29.151	0.237	0.201
-510.799	-82.196	-0.082	-0.027
-509.785	165.546	-0.265	-0.375
-508.770	-159.228	-0.143	0.008
-507.756	263.398	-0.128	0.222
-506.741	-22.165	0.428	-0.260
-505.726	-200.000	0.003	-0.062
-504.712	-189.009	0.050	0.001
-503.697	-173.938	-0.117	0.003
-502.683	648.077	0.055	0.141
-501.668	-168.044	-0.182	-0.007
-500.653	1.539	-0.233	0.168
-499.639	-122.230	0.139	-0.023
-498.624	-52.838	-0.103	0.047
-497.610	-86.991	0.200	0.061
-496.595	-200.000	0.034	-0.474
-495.581	247.159	-0.147	-0.248
-494.566	-200.000	-0.017	-0.077
-493.551	303.599	0.158	-0.292
-492.537	60.683	-0.186	-0.184
-491.522	71.301	0.211	-0.219
-490.508	-55.683	-0.102	-0.046
-489.493	-101.157	0.268	0.066
-488.478	367.378	-0.125	-0.253
-487.464	86.886	0.186	0.205
-486.449	-6.785	0.216	-0.147
-485.435	-11.114	0.049	-0.032
-484.420	-35.799	0.234	0.126
-483.405	233.988	0.098	-0.161
-482.391	-200.000	0.014	-0.096
-481.376	-200.000	-0.008	-0.089
-480.362	-200.000	0.024	-0.484
-479.347	-200.000	-0.007	0.051
-478.332	82.407	-0.120	0.130
-477.318	152.515	-0.099	0.134
-476.303	11.473	-0.133	-0.102
-475.289	-200.000	-0.039	-0.369
-474.274	634.565	-0.178	-0.450
-473.259	-200.000	0.025	-0.296
-472.245	-89.440	0.233	0.068
-471.230	396.858	0.055	0.115
-470.216	40.062	-0.481	-0.431
-469.201	-146.947	0.197	0.017
-468.186	14.410	0.034	0.027
-467.172	-57.509	-0.193	0.084
-466.157	-72.191	-0.099	0.037
-465.143	102.210	-0.196	0.229
-464.128	0.486	-0.130	-0.093
-463.113	-166.278	-0.207	-0.009
-462.099	-58.588	-0.152	-0.066
-461.084	135.575	0.173	-0.224
-460.070	-200.000	0.005	-0.177
-459.055	295.834	-0.068	0.124
-458.040	-200.000	-0.040	0.192
-457.026	-96.774	-0.153	-0.040
-456.011	-50.459	-0.169	-0.080
-454.997	54.021	0.058	-0.055
-453.982	-25.396	0.036	0.022
-452.968	55.662	-0.216	-0.209
-451.953	301.606	0.092	0.169
-450.938	-154.239	-0.081	-0.005
-449.924	-184.464	0.246	-0.004
-448.909	2.232	0.250	-0.180
-447.895	153.774	-0.143	-0.195
-446.880	-32.153	-0.111	0.062
-445.865	800.000	0.074	-0.208
-444.851	-2.128	-0.184	0.129
-443.836	-180.122	0.084	-0.002
-442.822	-200.000	0.006	-0.174
-441.807	800.000	-0.133	0.491
-440.792	-200.000	-0.052	0.412
-439.778	-128.033	0.094	0.014
-438.763	-66.505	-0.356	0.141
-437.749	-38.529	-0.079	-0.042
-436.734	-140.654	-0.085	0.009
-435.719	-166.325	0.039	-0.002
-434.705	69.707	-0.091	0.093
-433.690	136.495	0.315	-0.410
-432.676	372.838	0.096	0.195
-431.661	359.908	-0.117	-0.234
-430.646	121.105	0.070	-0.087
-429.632	630.777	-0.147	0.371
-428.617	-71.526	-0.129	-0.048
-427.603	800.000	0.118	0.497
-426.588	16.034	0.067	-0.052
-425.573	-21.438	-0.259	-0.157
-424.559	321.517	-0.065	-0.124
-423.544	45.340	0.276	0.253
-422.530	-151.181	0.102	0.008
-421.515	-125.458	0.291	-0.044
-420.500	-48.859	0.365	0.174
-419.486	-0.686	0.260	-0.184
-418.471	710.211	0.155	0.409
-417.457	-63.273	-0.194	0.080
-416.442	131.576	-0.154	-0.198
-415.428	255.632	0.072	-0.123
-414.413	-97.144	0.292	-0.076
-413.398	51.543	-0.123	-0.117
-412.384	800.000	-0.040	-0.166
-411.369	-88.361	-0.496	0.148
-410.355	-123.348	0.146	0.023
-409.340	-3.608	0.244	0.169
-408.325	9.931	0.202	-0.153
-407.311	-200.000	-0.022	0.280
-406.296	457.998	-0.116	0.257
-405.282	-53.309	0.106	-0.048
-404.267	-25.290	0.141	0.083
-403.252	-133.827	0.176	-0.022
-402.238	-1.134	0.293	-0.207
-401.223	800.000	-0.069	-0.254
-400.209	-26.269	-0.295	-0.172
-399.194	-200.000	-0.007	-0.103
-398.179	-142.917	0.412	0.040
-397.165	-200.000	0.012	-0.312
-396.150	-68.697	0.382	0.147
-395.136	-123.463	0.080	0.013
-394.121	-39.261	-0.406	-0.212
-393.106	800.000	-0.042	0.181
-392.092	152.899	-0.088	-0.119
-391.077	59.963	0.274	-0.270
-390.063	-197.484	-0.043	-0.000
-389.048	77.174	0.129	0.136
-388.033	-40.720	0.137	-0.071
-387.019	60.508	-0.155	-0.152
-386.004	190.121	-0.071	0.107
-384.990	149.487	0.074	0.100
-383.975	-20.432	0.134	-0.082
-382.960	-137.800	0.141	-0.016
-381.946	65.321	0.085	0.085
-380.931	64.148	0.251	-0.252
-379.917	-200.000	-0.006	-0.088
-378.902	3.577	0.168	0.122
-377.888	-200.000	0.035	0.192
-376.873	-170.992	-0.346	0.012
-375.858	-140.781	0.273	-0.028
-374.844	-200.000	-0.012	-0.322
-373.829	-52.301	-0.165	0.076
-372.815	-161.782	0.199	-0.010
-371.800	6.022	-0.180	0.133
-370.785	-200.000	-0.014	-0.104
-369.771	-85.290	0.143	0.044
-368.756	-66.232	-0.325	-0.129
-367.742	800.000	-0.069	-0.258
-366.727	-28.995	-0.245	0.140
-365.712	-200.000	0.034	0.208
-364.698	243.781	-0.029	0.048
-363.683	-102.656	0.192	-0.046
-362.669	-200.000	-0.096	0.433
-361.654	-24.066	-0.062	0.037
-360.639	-6.137	-0.202	0.137
-359.625	800.000	-0.044	0.124
-358.610	234.361	0.036	0.058
-357.596	-69.484	-0.280	0.107
-356.581	709.654	0.042	0.110
-355.566	-115.829	-0.078	0.015
-354.552	89.972	0.210	0.233
-353.537	225.143	-0.128	-0.207
-352.523	76.970	0.116	0.122
-351.508	-200.000	0.052	-0.329
-350.493	360.838	-0.032	0.065
-349.479	-73.709	0.174	0.063
-348.464	-50.356	0.359	0.168
-347.450	236.170	0.287	0.471
-346.435	-200.000	-0.059	0.273
-345.420	-83.309	-0.379	0.121
-344.406	-120.056	0.313	0.053
-343.391	800.000	0.106	0.370
-342.377	-129.948	-0.240	0.033
-341.362	24.029	0.054	-0.044
-340.348	65.368	0.181	-0.182
-339.333	-27.511	0.312	-0.180
-338.318	-55.060	-0.258	-0.115
-337.304	800.000	-0.068	0.227
-336.289	-6.785	0.185	-0.125
-335.275	-162.377	-0.049	0.002
-334.260	125.594	-0.095	-0.119
-333.245	-145.949	-0.210	-0.019
-332.231	-121.729	0.174	0.029
-331.216	51.666	-0.427	0.403
-330.202	800.000	-0.024	0.100
-329.187	800.000	-0.117	-0.388
-328.172	101.647	0.068	-0.078
-327.158	-30.719	-0.269	0.151
-326.143	27.242	0.239	-0.199
-325.129	-200.000	-0.028	-0.281
-324.114	-39.478	-0.146	-0.076
-323.099	-127.581	-0.041	0.006
-322.085	800.000	-0.079	-0.256
-321.070	800.000	0.028	-0.080
-320.056	-200.000	0.029	0.482
-319.041	-4.100	0.199	0.137
-318.026	-80.541	0.194	-0.064
-317.012	173.408	0.142	0.203
-315.997	-18.879	-0.121	0.075
-314.983	430.429	0.152	-0.327
-313.968	-140.947	0.173	-0.018
-312.953	-181.466	0.220	-0.004
-311.939	-182.789	-0.084	0.001
-310.924	-200.000	-0.008	0.146
-309.910	573.790	-0.174	0.421
-308.895	71.166	0.204	0.210
-307.880	-11.896	0.204	0.133
-306.866	-56.307	-0.174	-0.077
-305.851	800.000	0.072	-0.202
-304.837	-200.000	0.047	-0.518
-303.822	-182.850	-0.292	0.005
-302.807	242.590	0.147	0.244
-301.793	-142.699	0.168	-0.016
-300.778	-63.729	-0.162	0.066
-299.764	-200.000	0.014	-0.143
-298.749	0.272	-0.166	-0.117
-297.735	247.837	-0.071	0.119
-296.720	200.682	0.042	-0.063
-295.705	-86.453	0.196	-0.060
-294.691	28.180	0.133	0.112
-293.676	-171.689	0.222	-0.007
-292.662	800.000	-0.055	0.188
-291.647	229.234	0.020	-0.033
-290.632	0.197	0.291	0.206
-289.618	422.294	-0.153	0.325
-288.603	540.053	0.054	0.127
-287.589	115.813	0.114	-0.138
-286.574	246.389	0.151	0.252
-285.559	-63.871	0.115	0.047
-284.545	-42.483	-0.242	-0.122
-283.530	800.000	-0.059	-0.165
-282.516	-113.045	0.382	0.075
-281.501	-54.764	-0.235	0.105
-280.486	-200.000	0.044	0.320
-279.472	-57.129	-0.217	0.095
-278.457	37.251	0.267	0.235
-277.443	-156.132	0.294	-0.018
-276.428	174.336	-0.185	0.265
-275.413	-154.678	0.137	-0.009
-274.399	11.914	0.029	0.022
-273.384	200.752	0.143	0.218
-272.370	91.021	-0.251	-0.279
-271.355	-62.267	-0.204	0.084
-270.340	-101.295	-0.076	0.018
-269.326	-91.962	-0.102	0.029
-268.311	-200.000	-0.029	-0.247
-267.297	800.000	0.024	-0.071
-266.282	-57.516	0.069	0.030
-265.267	-200.000	-0.036	-0.330
-264.253	7.057	0.350	-0.258
-263.238	-0.032	-0.035	0.024
-262.224	-200.000	-0.007	-0.285
-261.209	-95.812	-0.151	-0.040
-260.195	239.208	0.153	0.253
-259.180	88.012	-0.079	0.086
-258.165	349.335	0.159	-0.311
-257.151	-69.311	-0.159	-0.060
-256.136	571.378	-0.109	-0.263
-255.122	-52.522	-0.187	0.086
-254.107	34.496	0.103	0.089
-253.092	271.658	-0.110	0.193
-252.078	358.888	0.009	-0.018
-251.063	-54.160	-0.295	-0.133
-250.049	-40.655	0.214	-0.110
-249.034	-42.558	0.280	-0.141
-248.019	-41.040	-0.197	-0.101
-247.005	-200.000	0.007	-0.047
-245.990	-79.757	-0.022	-0.007
-244.976	-10.070	0.172	0.113
-243.961	-59.006	-0.078	-0.033
-242.946	-101.047	0.172	-0.042
-241.932	-200.000	0.019	-0.182
-240.917	-44.542	0.296	-0.147
-239.903	-200.000	-0.165	0.000
-238.888	-200.000	0.013	-0.135
-237.873	-81.796	0.173	0.056
-236.859	-45.482	-0.363	0.178
-235.844	124.948	0.127	-0.158
-234.830	206.983	-0.052	-0.081
-233.815	-75.870	-0.272	-0.095
-232.800	-149.031	-0.222	0.018
-231.786	-39.847	-0.068	-0.035
-230.771	-98.893	-0.066	0.017
-229.757	-200.000	-0.012	-0.117
-228.742	29.444	0.237	-0.200
-227.727	400.186	-0.189	-0.392
-226.713	529.858	0.066	-0.154
-225.698	288.557	-0.066	-0.118
-224.684	-144.394	-0.289	0.027
-223.669	111.026	-0.078	-0.093
-222.655	-118.571	0.081	0.014
-221.640	-169.055	0.208	-0.008
-220.625	-95.987	-0.210	-0.055
-219.611	800.000	0.048	-0.134
-218.596	800.000	-0.048	0.173
-217.582	-200.000	-0.003	0.190
-216.567	440.349	0.081	0.174
-215.552	214.640	0.178	0.279
-214.538	-200.000	0.073	0.439
-213.523	-30.058	0.113	0.063
-212.509	-55.829	-0.042	0.018
-211.494	105.375	-0.250	0.291
-210.479	800.000	-0.069	0.200
-209.465	25.961	0.206	-0.169
-208.450	278.489	0.118	0.208
-207.436	55.389	0.094	-0.090
-206.421	81.678	0.171	-0.183
-205.406	66.847	-0.108	-0.109
-204.392	76.228	0.074	-0.077
-203.377	-24.228	0.115	0.068
-202.363	-131.719	0.100	0.013
-201.348	525.047	-0.129	0.300
-200.333	354.936	-0.117	0.230
-199.319	382.871	-0.075	-0.152
-198.304	-200.000	-0.025	0.260
-197.290	-200.000	-0.027	0.320
-196.275	-108.848	-0.017	0.004
-195.260	305.814	-0.114	0.210
-194.246	228.338	0.141	-0.227
-193.231	-141.572	0.184	-0.018
-192.217	100.036	-0.280	0.320
-191.202	526.223	-0.103	0.240
-190.187	-139.761	0.086	-0.009
-189.173	-200.000	0.011	-0.335
-188.158	-72.887	-0.338	-0.123
-187.144	13.151	0.117	0.090
-186.129	670.966	0.014	-0.037
-185.114	80.681	-0.181	-0.193
-184.100	-119.065	0.241	-0.042
-183.085	800.000	-0.059	0.180
-182.071	-200.000	-0.006	-0.189
-181.056	-200.000	-0.008	0.570
-180.042	183.196	-0.077	-0.112
-179.027	0.193	0.199	0.140
-178.012	0.263	0.132	0.093
-176.998	-200.000	0.020	0.273
-175.983	468.772	-0.074	-0.164
-174.969	204.487	0.243	0.371
-173.954	-200.000	-0.006	0.142
-172.939	-65.107	0.129	0.051
-171.925	-100.648	0.199	0.048
-170.910	800.000	0.064	-0.200
-169.896	-13.874	-0.227	0.145
-168.881	45.471	0.091	-0.083
-167.866	46.266	0.027	0.025
-166.852	-47.454	0.248	-0.119
-165.837	-200.000	-0.012	-0.341
-164.823	-37.617	-0.253	0.133
-163.808	800.000	0.074	0.265
-162.793	-200.000	0.017	-0.392
-161.779	333.895	0.079	0.151
-160.764	-200.000	-0.017	0.129
-159.750	-129.064	-0.152	-0.021
-158.735	-63.084	0.041	0.017
-157.720	-200.000	-0.011	-0.159
-156.706	-48.579	-0.238	-0.113
-155.691	-121.243	0.268	0.044
-154.677	-9.948	-0.092	0.061
-153.662	22.035	-0.042	-0.034
-152.647	-138.610	-0.172	0.019
-151.633	-200.000	-0.013	-0.282
-150.618	-53.762	0.203	0.092
-149.604	52.624	0.048	-0.046
-148.589	-190.907	0.175	0.002
-147.574	-2.741	-0.308	0.213
-146.560	238.988	0.069	0.113
-145.545	749.032	0.077	0.205
-144.531	-200.000	0.001	-0.144
-143.516	31.702	0.198	-0.168
-142.502	-200.000	-0.006	0.166
-141.487	-200.000	-0.019	0.194
-140.472	800.000	-0.123	0.381
-139.458	-129.727	-0.189	0.026
-138.443	-13.495	-0.089	-0.057
-137.429	473.337	0.055	-0.122
-136.414	-25.035	-0.124	0.072
-135.399	-138.145	0.122	-0.013
-134.385	800.000	-0.038	0.138
-133.370	800.000	0.109	0.422
-132.356	1.057	0.201	0.142
-131.341	800.000	-0.044	0.140
-130.326	12.894	0.210	0.160
-129.312	438.117	-0.061	0.131
-128.297	-103.879	0.516	-0.119
-127.283	559.949	-0.023	0.056
-126.268	-155.144	0.399	0.026
-125.253	4.535	-0.112	-0.081
-124.239	236.729	0.089	-0.145
-123.224	-200.000	-0.027	-0.248
-122.210	57.830	-0.144	0.138
-121.195	-200.000	0.051	0.227
