DTS Sentinel unit serial number:	SN413079Multiplexer serial number:	ORYXHardware model number:	OX4-SRSoftware version number:	ORYX F/W v4.00 Oryx Data Collector v3.7.2.0data status	okinstallation	princeton_trtdifferential loss correction	single-endedforward channel	channel 2reverse channel	N/Adate	2019/09/13time	13:15:35forward acquisition time	60.00reverse acquisition time	0.00gamma	496.2192k internal	0.2314k external	0.2314temperature offset calibration	1.0210default loss term (dB/km)	0.3790temperature slope calibration	1.0000multiplexer offset coefficient	1.0000multiplexer slope coefficient	1.0000fibre end	0.00T internal ref (°C)	34.91T ext. ref 1 (°C)	4.57T ext. ref 2 (°C)	31.14length (m)	temperature (°C)	Stokes	anti-Stokes-747.200	-200.000	-0.035	-0.267
-746.185	-200.000	-0.008	0.051
-745.171	128.704	-0.122	-0.157
-744.156	-50.411	0.367	-0.176
-743.142	736.153	-0.042	-0.113
-742.127	80.011	-0.165	0.180
-741.112	20.880	0.266	-0.218
-740.098	88.560	-0.107	0.120
-739.083	-200.000	0.035	-0.295
-738.069	-200.000	-0.020	0.296
-737.054	272.089	-0.075	-0.134
-736.039	141.655	-0.074	-0.099
-735.025	-33.473	-0.136	-0.076
-734.010	-157.978	-0.327	-0.020
-732.996	-44.766	-0.347	-0.175
-731.981	-200.000	0.064	-0.390
-730.966	-113.661	-0.352	-0.070
-729.952	142.534	-0.182	0.245
-728.937	430.179	0.039	0.085
-727.923	-49.961	0.342	0.165
-726.908	89.022	0.058	-0.066
-725.894	-200.000	-0.010	-0.129
-724.879	124.983	-0.333	-0.425
-723.864	-98.926	-0.191	-0.049
-722.850	-200.000	0.068	0.422
-721.835	30.459	-0.144	-0.125
-720.821	215.043	-0.171	0.275
-719.806	-74.885	-0.071	0.026
-718.791	-91.101	-0.237	0.069
-717.777	-200.000	0.049	0.243
-716.762	150.546	-0.050	-0.069
-715.748	-26.101	-0.369	-0.219
-714.733	-98.558	-0.143	0.037
-713.718	800.000	0.164	0.459
-712.704	-38.416	0.103	-0.055
-711.689	318.355	-0.023	-0.045
-710.675	-69.015	0.197	-0.077
-709.660	-200.000	0.030	0.238
-708.645	611.964	0.100	-0.254
-707.631	36.187	-0.146	-0.130
-706.616	800.000	0.067	-0.216
-705.602	76.807	-0.096	0.103
-704.587	800.000	0.035	-0.117
-703.572	-27.800	-0.223	-0.131
-702.558	586.340	0.046	-0.115
-701.543	-200.000	0.020	-0.216
-700.529	800.000	0.064	-0.211
-699.514	-81.551	-0.166	0.055
-698.499	800.000	-0.053	-0.160
-697.485	-200.000	-0.023	-0.124
-696.470	233.938	0.171	-0.285
-695.456	-200.000	0.046	-0.292
-694.441	452.557	0.121	-0.272
-693.426	-116.334	0.477	-0.089
-692.412	98.103	-0.271	-0.315
-691.397	800.000	0.075	0.248
-690.383	-200.000	0.009	-0.050
-689.368	313.217	-0.160	0.304
-688.354	215.348	0.094	-0.150
-687.339	117.653	0.213	0.265
-686.324	175.883	0.088	0.129
-685.310	800.000	0.072	-0.263
-684.295	110.303	-0.115	-0.140
-683.281	7.629	0.138	0.104
-682.266	-80.556	-0.463	0.156
-681.251	63.014	-0.204	-0.207
-680.237	-200.000	-0.011	-0.281
-679.222	76.470	0.230	-0.246
-678.208	299.459	-0.194	0.362
-677.193	-14.670	-0.077	0.050
-676.178	483.152	-0.083	-0.190
-675.164	-26.347	0.105	-0.062
-674.149	57.202	0.278	-0.275
-673.135	-76.682	0.179	-0.063
-672.120	-116.671	-0.206	0.038
-671.105	268.148	0.023	-0.040
-670.091	-200.000	-0.034	-0.179
-669.076	-200.000	0.017	0.250
-668.062	-130.642	-0.227	-0.031
-667.047	800.000	-0.103	-0.315
-666.032	-172.182	-0.139	-0.005
-665.018	-97.155	0.139	-0.037
-664.003	-200.000	-0.033	0.162
-662.989	703.702	-0.055	-0.146
-661.974	-2.503	-0.207	-0.147
-660.959	-200.000	-0.019	-0.222
-659.945	-200.000	-0.016	-0.191
-658.930	101.159	-0.171	0.201
-657.916	-10.912	-0.121	-0.080
-656.901	120.019	-0.195	-0.244
-655.886	800.000	-0.067	-0.279
-654.872	800.000	-0.034	0.106
-653.857	-6.468	0.247	0.170
-652.843	82.692	-0.151	0.165
-651.828	34.686	-0.278	-0.246
-650.814	-141.632	0.434	0.044
-649.799	800.000	-0.044	-0.133
-648.784	154.357	-0.091	0.127
-647.770	-200.000	-0.009	-0.080
-646.755	-26.665	0.175	-0.103
-645.741	800.000	0.082	-0.330
-644.726	-49.937	0.152	0.073
-643.711	800.000	-0.002	-0.005
-642.697	-117.629	-0.010	-0.002
-641.682	-4.954	0.174	0.121
-640.668	-200.000	0.066	0.430
-639.653	-200.000	0.009	-0.159
-638.638	0.656	-0.166	-0.120
-637.624	-200.000	-0.002	0.153
-636.609	421.812	-0.061	0.131
-635.595	-0.701	0.128	0.091
-634.580	-114.982	-0.185	-0.036
-633.565	463.739	0.089	-0.201
-632.551	435.658	0.033	-0.072
-631.536	-161.065	-0.097	0.005
-630.522	-200.000	0.029	-0.172
-629.507	-53.361	0.223	0.103
-628.492	-197.543	-0.223	0.001
-627.478	83.838	-0.209	-0.230
-626.463	-56.545	0.015	0.007
-625.449	-26.479	-0.121	0.072
-624.434	-200.000	0.003	-0.151
-623.419	-24.874	0.167	-0.100
-622.405	268.533	0.142	-0.252
-621.390	800.000	0.090	0.264
-620.376	230.374	0.240	0.396
-619.361	77.800	-0.047	-0.050
-618.346	-139.071	-0.288	-0.031
-617.332	-72.145	-0.320	0.120
-616.317	-37.067	-0.346	0.187
-615.303	408.637	0.051	0.109
-614.288	459.796	0.048	-0.107
-613.273	-0.037	-0.163	-0.117
-612.259	29.172	0.321	-0.274
-611.244	-97.895	0.167	-0.043
-610.230	-115.058	-0.335	-0.064
-609.215	-138.585	-0.194	0.021
-608.201	-129.077	-0.107	-0.015
-607.186	95.841	-0.116	0.134
-606.171	-163.525	0.415	-0.020
-605.157	50.300	0.312	-0.297
-604.142	-200.000	0.008	-0.170
-603.128	-40.051	-0.061	0.032
-602.113	-167.136	0.147	-0.006
-601.098	76.300	0.360	-0.385
-600.084	71.063	0.118	0.123
-599.069	-182.628	0.181	-0.003
-598.055	-14.484	0.088	0.057
-597.040	800.000	0.070	-0.254
-596.025	412.017	0.045	-0.095
-595.011	-140.046	-0.093	-0.010
-593.996	29.944	-0.187	-0.161
-592.982	800.000	0.086	-0.258
-591.967	-129.781	0.157	-0.022
-590.952	581.865	0.029	0.072
-589.938	-200.000	0.033	0.178
-588.923	-121.004	-0.341	0.058
-587.909	800.000	0.065	-0.215
-586.894	-65.594	-0.190	0.077
-585.879	-27.848	-0.219	-0.128
-584.865	-37.094	0.128	0.069
-583.850	158.096	-0.157	0.220
-582.836	308.346	-0.062	-0.117
-581.821	-200.000	0.067	-0.355
-580.806	800.000	-0.019	-0.073
-579.792	8.084	0.128	0.097
-578.777	-97.571	0.325	0.085
-577.763	-38.767	-0.037	0.019
-576.748	128.696	-0.203	-0.261
-575.733	-61.658	-0.140	-0.059
-574.719	-72.140	-0.271	0.101
-573.704	42.488	-0.230	0.210
-572.690	-61.188	0.254	-0.108
-571.675	800.000	-0.108	0.349
-570.661	57.716	-0.129	0.127
-569.646	800.000	-0.071	-0.239
-568.631	800.000	-0.072	-0.310
-567.617	-52.285	0.108	0.050
-566.602	19.521	0.133	0.107
-565.588	667.769	-0.084	0.218
-564.573	-200.000	-0.055	0.279
-563.558	-200.000	0.027	0.265
-562.544	-31.463	-0.170	-0.096
-561.529	230.124	0.115	-0.189
-560.515	-101.430	0.137	0.034
-559.500	201.665	-0.211	0.328
-558.485	-200.000	-0.005	-0.035
-557.471	800.000	-0.148	0.513
-556.456	315.574	0.039	0.074
-555.442	-200.000	-0.046	0.333
-554.427	-200.000	0.030	0.339
-553.412	-78.640	-0.154	0.053
-552.398	-42.570	-0.148	-0.076
-551.383	-200.000	-0.001	-0.468
-550.369	-200.000	0.004	-0.286
-549.354	-126.294	0.109	0.016
-548.339	-24.826	-0.105	-0.063
-547.325	-140.572	0.261	-0.027
-546.310	46.982	-0.169	0.158
-545.296	-37.420	0.328	-0.176
-544.281	228.925	-0.049	0.080
-543.266	193.447	0.193	-0.294
-542.252	115.878	0.218	0.269
-541.237	-38.769	-0.089	0.047
-540.223	-200.000	-0.013	0.090
-539.208	-167.095	-0.212	0.009
-538.193	-200.000	0.010	0.145
-537.179	-200.000	-0.039	-0.176
-536.164	-125.885	0.267	0.040
-535.150	-117.404	-0.263	0.048
-534.135	-200.000	-0.022	0.210
-533.121	3.804	0.055	0.041
-532.106	135.064	0.232	-0.303
-531.091	263.468	-0.090	-0.157
-530.077	-200.000	0.003	0.084
-529.062	86.169	0.210	0.233
-528.048	116.158	0.246	-0.303
-527.033	121.725	0.108	0.135
-526.018	-125.867	-0.170	0.026
-525.004	213.529	-0.140	-0.222
-523.989	800.000	0.022	0.081
-522.975	-109.408	-0.269	-0.057
-521.960	-43.311	-0.188	0.096
-520.945	-92.201	-0.289	0.082
-519.931	89.894	-0.042	0.047
-518.916	800.000	-0.006	-0.024
-517.902	-26.231	0.239	0.141
-516.887	85.377	0.075	-0.082
-515.872	136.634	0.123	-0.161
-514.858	773.879	0.043	0.119
-513.843	-200.000	-0.006	-0.063
-512.829	-160.777	0.369	0.020
-511.814	6.539	-0.302	0.226
-510.799	-185.099	0.110	-0.002
-509.785	34.651	0.032	-0.028
-508.770	-23.737	-0.062	0.037
-507.756	317.739	-0.123	-0.233
-506.741	-158.548	0.152	0.009
-505.726	800.000	0.059	-0.227
-504.712	-64.111	0.302	0.124
-503.697	-37.320	-0.156	0.084
-502.683	27.454	-0.219	-0.185
-501.668	245.565	0.065	-0.109
-500.653	349.681	-0.152	-0.302
-499.639	-200.000	-0.028	0.172
-498.624	800.000	0.075	-0.267
-497.610	193.856	0.069	0.105
-496.595	-200.000	0.015	-0.145
-495.581	-168.321	-0.416	0.016
-494.566	800.000	0.068	0.223
-493.551	-138.479	-0.190	-0.021
-492.537	-200.000	-0.038	-0.364
-491.522	-34.897	0.083	-0.046
-490.508	92.976	-0.170	-0.192
-489.493	20.149	0.264	-0.214
-488.478	-200.000	-0.004	0.137
-487.464	-93.731	0.130	-0.036
-486.449	-84.497	0.179	0.057
-485.435	-24.578	-0.209	0.125
-484.420	-124.046	0.129	-0.020
-483.405	-200.000	-0.059	0.267
-482.391	-75.100	0.204	0.073
-481.376	382.083	0.078	0.161
-480.362	333.833	0.232	0.449
-479.347	-200.000	-0.047	0.381
-478.332	-200.000	0.002	0.070
-477.318	-72.370	-0.170	-0.063
-476.303	-34.417	-0.094	0.052
-475.289	-200.000	0.041	-0.194
-474.274	92.972	0.095	0.108
-473.259	-107.624	0.169	-0.037
-472.245	191.684	-0.101	-0.153
-471.230	17.236	-0.154	0.123
-470.216	-200.000	-0.017	-0.136
-469.201	83.942	-0.231	0.253
-468.186	800.000	-0.077	0.305
-467.172	61.639	-0.256	0.256
-466.157	-11.316	-0.210	-0.139
-465.143	-55.796	-0.070	-0.031
-464.128	48.567	-0.059	0.055
-463.113	800.000	0.058	0.221
-462.099	-90.999	-0.126	-0.036
-461.084	185.175	0.100	-0.148
-460.070	-43.083	-0.117	-0.059
-459.055	-12.506	0.243	-0.159
-458.040	-200.000	-0.000	-0.471
-457.026	800.000	-0.079	-0.287
-456.011	52.149	0.151	0.144
-454.997	-25.444	0.043	-0.026
-453.982	-200.000	-0.011	-0.260
-452.968	416.057	0.046	0.098
-451.953	436.669	-0.080	-0.174
-450.938	800.000	-0.055	-0.222
-449.924	-109.706	0.254	0.054
-448.909	101.580	-0.234	0.273
-447.895	-200.000	-0.012	-0.068
-446.880	-57.795	-0.283	-0.124
-445.865	50.059	-0.106	0.100
-444.851	573.460	-0.062	0.151
-443.836	109.713	-0.187	0.225
-442.822	209.335	0.170	-0.267
-441.807	-87.364	-0.227	0.069
-440.792	-37.299	-0.105	0.056
-439.778	108.994	-0.249	-0.298
-438.763	21.465	-0.112	-0.091
-437.749	18.757	0.118	-0.095
-436.734	-31.279	-0.236	0.133
-435.719	59.388	-0.282	0.278
-434.705	246.985	-0.120	-0.204
-433.690	-27.536	0.189	-0.110
-432.676	260.172	-0.063	0.110
-431.661	-56.782	-0.058	-0.026
-430.646	-200.000	-0.053	0.326
-429.632	91.294	-0.164	-0.184
-428.617	51.736	0.149	0.141
-427.603	13.411	0.108	0.084
-426.588	-200.000	0.023	0.231
-425.573	164.587	-0.108	0.153
-424.559	800.000	-0.030	-0.114
-423.544	-85.612	0.293	0.091
-422.530	-174.899	0.293	0.008
-421.515	-200.000	-0.000	0.067
-420.500	-113.356	-0.185	-0.036
-419.486	137.978	0.148	0.195
-418.471	-200.000	-0.016	0.265
-417.457	7.078	-0.263	0.196
-416.442	-200.000	-0.013	-0.205
-415.428	4.843	-0.388	-0.285
-414.413	54.564	0.099	0.095
-413.398	-133.675	-0.273	-0.034
-412.384	800.000	-0.074	-0.280
-411.369	63.563	-0.139	0.139
-410.355	155.730	-0.107	0.148
-409.340	-106.280	-0.051	0.011
-408.325	800.000	0.042	0.182
-407.311	-200.000	-0.000	0.016
-406.296	-82.383	-0.222	-0.072
-405.282	-79.745	-0.218	0.073
-404.267	-108.272	0.103	-0.022
-403.252	121.550	-0.092	-0.115
-402.238	-104.441	-0.162	-0.037
-401.223	48.839	-0.074	-0.070
-400.209	-48.102	-0.141	-0.068
-399.194	-94.329	0.097	-0.026
-398.179	501.652	0.087	0.202
-397.165	44.394	-0.067	0.062
-396.150	-149.441	0.261	-0.021
-395.136	687.408	0.054	0.140
-394.121	-177.957	0.307	-0.007
-393.106	8.033	-0.108	0.081
-392.092	800.000	0.068	-0.264
-391.077	-71.227	-0.159	-0.060
-390.063	-74.524	0.194	0.070
-389.048	-14.492	0.043	-0.028
-388.033	-103.027	0.181	-0.043
-387.019	-161.023	0.222	-0.012
-386.004	-62.810	0.351	0.145
-384.990	116.864	0.054	-0.066
-383.975	-34.085	0.157	-0.086
-382.960	-94.966	0.085	0.023
-381.946	-159.108	-0.477	-0.027
-380.931	-22.821	0.028	-0.017
-379.917	800.000	0.075	0.322
-378.902	17.008	-0.063	-0.049
-377.888	79.419	-0.078	-0.083
-376.873	800.000	0.041	0.125
-375.858	-196.896	-0.149	0.001
-374.844	-93.712	-0.109	0.030
-373.829	-109.516	0.103	-0.022
-372.815	-56.747	-0.246	-0.109
-371.800	-27.193	-0.062	0.036
-370.785	210.425	0.096	0.150
-369.771	126.110	0.222	-0.280
-368.756	35.593	0.048	-0.043
-367.742	239.776	0.125	-0.208
-366.727	87.786	-0.141	-0.156
-365.712	-104.420	0.280	-0.065
-364.698	800.000	-0.064	-0.227
-363.683	-200.000	-0.027	-0.194
-362.669	800.000	-0.124	-0.346
-361.654	-36.183	0.108	0.058
-360.639	800.000	0.074	0.271
-359.625	135.114	0.209	0.271
-358.610	-111.101	0.538	-0.110
-357.596	21.876	0.210	-0.171
-356.581	-200.000	0.024	0.262
-355.566	39.009	-0.035	0.031
-354.552	-173.102	0.176	0.005
-353.537	-83.946	-0.174	0.055
-352.523	-200.000	-0.003	-0.046
-351.508	-34.783	-0.137	0.075
-350.493	800.000	0.052	0.143
-349.479	384.186	-0.103	0.211
-348.464	277.939	0.111	0.197
-347.450	-200.000	-0.046	0.295
-346.435	-75.923	0.237	0.084
-345.420	-87.235	0.134	-0.041
-344.406	-200.000	0.019	-0.153
-343.391	689.843	-0.054	0.141
-342.377	-23.420	0.241	0.144
-341.362	-104.289	0.212	0.049
-340.348	-68.276	0.206	-0.080
-339.333	-200.000	0.001	-0.366
-338.318	-150.678	-0.288	-0.022
-337.304	351.388	-0.121	-0.240
-336.289	-200.000	0.016	0.095
-335.275	25.844	-0.079	-0.065
-334.260	-200.000	0.041	-0.268
-333.245	10.244	0.112	-0.085
-332.231	-3.323	-0.086	-0.060
-331.216	800.000	-0.063	-0.200
-330.202	-19.256	0.117	-0.072
-329.187	-184.945	0.456	-0.007
-328.172	-200.000	-0.007	-0.172
-327.158	15.997	0.209	-0.164
-326.143	-200.000	-0.025	0.136
-325.129	-148.899	0.198	-0.016
-324.114	-33.485	0.048	0.026
-323.099	-94.898	0.276	0.075
-322.085	-147.409	-0.531	0.045
-321.070	-26.156	0.169	-0.099
-320.056	498.416	-0.104	-0.238
-319.041	-69.841	0.423	-0.161
-318.026	-71.250	-0.057	0.021
-317.012	-115.728	0.143	-0.027
-315.997	-41.704	0.132	0.067
-314.983	-200.000	-0.024	0.131
-313.968	208.645	-0.146	0.227
-312.953	580.584	-0.058	-0.141
-311.939	64.864	0.162	0.163
-310.924	-200.000	-0.038	0.203
-309.910	-101.531	0.224	-0.054
-308.895	800.000	-0.097	0.281
-307.880	9.879	0.050	0.037
-306.866	-101.518	0.535	0.130
-305.851	-197.795	0.329	0.002
-304.837	150.110	-0.157	0.212
-303.822	-200.000	0.190	0.001
-302.807	800.000	-0.029	-0.106
-301.793	603.690	0.138	-0.343
-300.778	-200.000	-0.048	0.261
-299.764	-200.000	0.070	0.307
-298.749	226.696	0.076	-0.122
-297.735	-119.009	0.313	0.055
-296.720	-11.045	-0.408	-0.268
-295.705	-200.000	-0.001	-0.259
-294.691	-123.255	0.213	-0.034
-293.676	800.000	-0.145	-0.468
-292.662	-113.472	0.435	-0.085
-291.647	800.000	-0.025	0.104
-290.632	88.689	-0.027	-0.030
-289.618	-34.390	0.194	-0.106
-288.603	531.397	-0.186	-0.438
-287.589	-166.334	-0.203	0.009
-286.574	-186.988	-0.114	0.002
-285.559	13.205	0.041	-0.032
-284.545	-200.000	0.025	-0.321
-283.530	-200.000	-0.003	0.330
-282.516	-200.000	0.042	0.194
-281.501	-85.844	0.206	0.063
-280.486	-52.521	-0.246	-0.113
-279.472	-127.802	0.246	0.035
-278.457	-200.000	0.037	-0.282
-277.443	-200.000	0.033	-0.270
-276.428	-200.000	-0.013	0.279
-275.413	60.213	-0.179	0.176
-274.399	53.103	-0.118	0.112
-273.384	88.505	-0.139	0.154
-272.370	-29.425	-0.164	-0.093
-271.355	-200.000	-0.038	0.198
-270.340	-200.000	-0.007	-0.098
-269.326	-2.866	-0.177	-0.123
-268.311	80.897	-0.088	0.095
-267.297	800.000	0.048	0.160
-266.282	1.213	0.196	0.140
-265.267	-22.673	0.237	0.142
-264.253	-200.000	-0.007	0.079
-263.238	70.210	-0.115	-0.118
-262.224	-109.876	0.312	-0.065
-261.209	800.000	-0.086	0.303
-260.195	-200.000	0.355	0.000
-259.180	-52.427	-0.172	-0.079
-258.165	776.287	-0.087	-0.236
-257.151	-200.000	0.155	0.000
-256.136	-115.355	-0.333	-0.063
-255.122	-40.966	0.207	-0.107
-254.107	1.513	0.215	0.154
-253.092	85.400	0.098	0.107
-252.078	-200.000	-0.019	0.244
-251.063	-187.610	-0.063	-0.001
-250.049	-200.000	-0.040	-0.221
-249.034	175.420	-0.114	-0.165
-248.019	-154.860	0.272	0.018
-247.005	-50.754	0.327	0.153
-245.990	-67.178	-0.361	-0.141
-244.976	-5.401	0.355	0.242
-243.961	-25.245	-0.098	0.058
-242.946	-200.000	-0.020	0.291
-241.932	435.831	0.098	-0.211
-240.917	800.000	0.023	-0.080
-239.903	116.094	-0.163	0.198
-238.888	-200.000	0.004	0.300
-237.873	145.141	0.091	0.121
-236.859	-200.000	0.085	0.438
-235.844	-104.642	-0.216	0.049
-234.830	-81.296	-0.175	-0.057
-233.815	-82.804	-0.112	-0.036
-232.800	86.335	0.256	-0.280
-231.786	-11.181	0.163	0.107
-230.771	107.444	-0.186	0.220
-229.757	400.366	0.075	0.156
-228.742	800.000	-0.094	0.272
-227.727	-200.000	0.030	0.223
-226.713	269.747	0.055	-0.096
-225.698	-200.000	0.016	-0.114
-224.684	-95.372	-0.234	-0.062
-223.669	239.747	-0.087	-0.144
-222.655	682.559	0.067	0.175
-221.640	-101.231	-0.226	-0.055
-220.625	15.513	0.285	0.222
-219.611	-129.666	-0.343	-0.047
-218.596	800.000	0.152	0.483
-217.582	-200.000	0.027	-0.193
-216.567	721.321	-0.156	-0.413
-215.552	-49.342	-0.122	0.058
-214.538	-5.033	0.151	-0.103
-213.523	-140.873	0.174	0.018
-212.509	411.790	-0.047	-0.098
-211.494	-59.858	-0.131	-0.056
-210.479	26.661	-0.136	-0.113
-209.465	48.649	0.055	0.051
-208.450	800.000	-0.096	-0.307
-207.436	-34.756	-0.180	0.098
-206.421	584.839	-0.105	-0.257
-205.406	53.828	-0.145	0.138
-204.392	-75.510	-0.059	-0.021
-203.377	303.639	0.033	0.061
-202.363	144.014	0.120	0.159
-201.348	261.694	-0.243	-0.418
-200.333	348.610	-0.049	-0.096
-199.319	26.603	0.196	0.163
-198.304	-8.180	-0.067	-0.045
-197.290	800.000	-0.032	0.107
-196.275	294.140	0.299	-0.543
-195.260	-148.105	-0.165	0.014
-194.246	-12.100	-0.208	0.135
-193.231	32.126	0.114	-0.097
-192.217	-58.300	0.284	-0.122
-191.202	-107.298	-0.251	0.055
-190.187	560.817	0.024	-0.058
-189.173	-48.514	-0.202	0.096
-188.158	-88.311	-0.229	0.068
-187.144	40.343	-0.100	-0.089
-186.129	-182.799	-0.185	0.003
-185.114	-2.447	-0.077	0.053
-184.100	139.070	0.220	-0.287
-183.085	-136.908	0.388	0.044
-182.071	-0.345	-0.247	0.174
-181.056	-133.065	-0.301	-0.038
-180.042	-200.000	0.035	-0.209
-179.027	-43.747	-0.123	0.061
-178.012	-200.000	0.001	0.093
-176.998	288.924	-0.119	0.213
-175.983	800.000	0.039	-0.117
-174.969	-164.180	0.164	-0.007
-173.954	202.678	-0.046	-0.071
-172.939	-133.168	-0.338	0.042
-171.925	800.000	-0.040	0.154
-170.910	-77.841	0.235	0.080
-169.896	199.777	0.224	-0.340
-168.881	184.076	-0.213	0.313
-167.866	-200.000	0.036	0.165
-166.852	-200.000	0.011	-0.067
-165.837	23.045	-0.223	0.181
-164.823	328.163	-0.035	0.067
-163.808	800.000	-0.027	0.078
-162.793	-125.775	0.282	0.042
-161.779	-43.161	0.137	-0.069
-160.764	24.883	-0.417	-0.342
-159.750	32.312	-0.165	0.141
-158.735	-8.145	0.294	0.196
-157.720	-80.599	0.051	0.017
-156.706	-63.388	0.175	0.071
-155.691	-200.000	-0.006	-0.368
-154.677	227.489	0.067	-0.107
-153.662	-11.005	0.082	0.053
-152.647	-86.625	-0.275	0.084
-151.633	-161.966	-0.354	0.018
-150.618	12.089	0.091	-0.070
-149.604	-84.585	-0.224	0.070
-148.589	89.157	-0.139	0.153
-147.574	156.237	0.092	0.126
-146.560	211.109	0.063	0.098
-145.545	-30.041	-0.222	0.125
-144.531	22.689	-0.653	0.530
-143.516	281.888	-0.186	0.331
-142.502	800.000	-0.054	-0.199
-141.487	-52.244	-0.083	-0.038
-140.472	800.000	-0.017	-0.066
-139.458	67.982	0.184	-0.186
-138.443	-99.934	-0.285	-0.070
-137.429	-200.000	-0.060	0.337
-136.414	217.381	-0.196	-0.309
-135.399	-97.178	-0.148	0.038
-134.385	800.000	-0.042	0.132
-133.370	-200.000	0.092	0.428
-132.356	-71.287	-0.210	-0.078
-131.341	94.113	-0.152	0.171
-130.326	215.450	-0.135	0.212
-129.312	170.775	0.153	-0.216
-128.297	51.676	0.118	-0.111
-127.283	-200.000	-0.009	-0.065
-126.268	-13.147	-0.272	0.175
-125.253	800.000	-0.077	-0.283
-124.239	64.501	-0.072	0.072
-123.224	199.946	0.098	0.148
-122.210	-200.000	-0.046	-0.265
