DTS Sentinel unit serial number:	SN413079Multiplexer serial number:	ORYXHardware model number:	OX4-SRSoftware version number:	ORYX F/W v4.00 Oryx Data Collector v3.7.2.0data status	okinstallation	princeton_trtdifferential loss correction	single-endedforward channel	channel 2reverse channel	N/Adate	2019/09/18time	07:19:35forward acquisition time	60.00reverse acquisition time	0.00gamma	496.2192k internal	0.2349k external	0.2349temperature offset calibration	0.9984default loss term (dB/km)	0.3790temperature slope calibration	1.0000multiplexer offset coefficient	1.0000multiplexer slope coefficient	1.0000fibre end	0.00T internal ref (°C)	23.19T ext. ref 1 (°C)	0.20T ext. ref 2 (°C)	17.55length (m)	temperature (°C)	Stokes	anti-Stokes-747.200	-102.554	0.203	0.049
-746.185	-56.305	0.111	-0.049
-745.171	-8.072	0.337	0.227
-744.156	-200.000	0.020	0.112
-743.142	-200.000	0.084	0.440
-742.127	-200.000	-0.054	0.281
-741.112	-117.587	-0.153	0.028
-740.098	-200.000	-0.020	-0.146
-739.083	0.408	-0.245	-0.174
-738.069	-200.000	-0.015	-0.160
-737.054	800.000	0.037	0.153
-736.039	-125.268	-0.487	-0.074
-735.025	175.707	0.093	-0.134
-734.010	41.731	-0.234	-0.212
-732.996	-200.000	0.005	-0.368
-731.981	-144.883	-0.174	-0.016
-730.966	-94.047	-0.204	0.056
-729.952	233.236	-0.140	-0.230
-728.937	-9.102	0.085	-0.057
-727.923	800.000	0.098	-0.312
-726.908	-98.299	-0.426	0.109
-725.894	606.311	0.061	0.151
-724.879	-112.562	0.429	-0.085
-723.864	-136.044	-0.176	0.021
-722.850	528.838	0.072	0.170
-721.835	-55.811	-0.323	0.144
-720.821	-169.185	-0.248	0.009
-719.806	32.849	0.037	0.032
-718.791	-66.363	-0.178	0.071
-717.777	-200.000	0.009	-0.248
-716.762	-67.485	-0.205	-0.080
-715.748	-200.000	0.037	-0.202
-714.733	296.393	-0.185	0.339
-713.718	-127.839	0.255	0.037
-712.704	-54.514	-0.321	-0.145
-711.689	800.000	0.073	0.209
-710.675	-34.609	-0.238	-0.130
-709.660	-145.796	-0.465	-0.041
-708.645	43.870	-0.274	0.251
-707.631	283.244	-0.015	0.027
-706.616	27.014	-0.150	0.125
-705.602	800.000	-0.003	-0.010
-704.587	333.950	-0.130	-0.251
-703.572	-63.871	0.304	0.124
-702.558	800.000	0.097	0.378
-701.543	116.222	0.086	0.105
-700.529	341.135	-0.171	0.334
-699.514	267.893	0.188	-0.329
-698.499	-74.763	0.363	0.130
-697.485	-200.000	0.040	-0.219
-696.470	-176.212	-0.115	-0.003
-695.456	-200.000	-0.032	0.178
-694.441	84.394	0.097	-0.106
-693.426	320.235	0.187	-0.354
-692.412	-200.000	0.052	0.317
-691.397	-29.305	0.120	0.069
-690.383	561.729	0.096	-0.232
-689.368	116.168	-0.047	0.058
-688.354	-63.417	0.358	-0.147
-687.339	-37.886	-0.428	-0.227
-686.324	210.297	-0.209	-0.327
-685.310	-104.425	-0.269	-0.062
-684.295	200.524	0.211	-0.323
-683.281	-200.000	-0.009	-0.115
-682.266	-200.000	0.053	0.314
-681.251	-200.000	-0.010	0.097
-680.237	-10.203	-0.074	0.049
-679.222	-200.000	-0.055	-0.503
-678.208	-200.000	-0.070	-0.333
-677.193	325.310	0.062	-0.117
-676.178	-82.747	-0.073	0.024
-675.164	800.000	-0.061	0.209
-674.149	356.931	-0.127	0.252
-673.135	217.123	0.062	0.099
-672.120	664.573	-0.105	0.269
-671.105	800.000	-0.093	-0.358
-670.091	111.027	-0.301	-0.361
-669.076	65.518	0.297	0.299
-668.062	-172.368	-0.287	-0.009
-667.047	-109.350	0.528	0.111
-666.032	-1.068	-0.104	-0.073
-665.018	-200.000	0.003	-0.192
-664.003	-186.855	-0.093	0.001
-662.989	419.468	0.191	-0.407
-661.974	466.406	-0.086	-0.192
-660.959	-200.000	-0.067	-0.400
-659.945	-200.000	-0.102	-0.545
-658.930	-200.000	-0.034	0.180
-657.916	-130.267	0.274	-0.037
-656.901	70.937	-0.076	-0.079
-655.886	-69.072	-0.149	-0.057
-654.872	26.543	0.156	-0.130
-653.857	-200.000	-0.023	0.449
-652.843	719.248	0.128	0.337
-651.828	-140.530	0.361	-0.037
-650.814	-27.096	-0.378	-0.219
-649.799	-137.407	-0.195	0.022
-648.784	-200.000	-0.010	0.048
-647.770	-53.291	-0.245	0.112
-646.755	-0.005	0.126	-0.089
-645.741	-200.000	-0.011	0.131
-644.726	-63.306	-0.146	0.060
-643.711	12.909	0.099	-0.076
-642.697	-177.218	0.188	0.005
-641.682	-157.289	-0.066	0.004
-640.668	18.543	0.268	0.213
-639.653	-200.000	-0.029	0.152
-638.638	-200.000	-0.031	-0.482
-637.624	-123.389	0.253	0.040
-636.609	-27.853	-0.202	0.116
-635.595	295.250	-0.237	0.432
-634.580	-82.178	-0.197	-0.064
-633.565	-175.373	-0.320	0.009
-632.551	-79.617	0.336	0.113
-631.536	800.000	-0.099	-0.282
-630.522	-200.000	-0.022	-0.302
-629.507	800.000	-0.057	-0.191
-628.492	264.037	0.218	-0.378
-627.478	353.284	-0.062	0.123
-626.463	-200.000	0.020	-0.218
-625.449	421.818	0.053	-0.113
-624.434	-49.632	-0.301	-0.142
-623.419	30.970	-0.184	-0.157
-622.405	-74.059	-0.027	-0.010
-621.390	-65.516	-0.221	0.088
-620.376	-58.026	0.392	-0.170
-619.361	-200.000	0.000	0.018
-618.346	-42.609	-0.180	0.091
-617.332	-53.876	-0.250	-0.113
-616.317	8.793	0.195	0.146
-615.303	-125.660	-0.049	-0.007
-614.288	279.955	-0.093	-0.165
-613.273	-200.000	-0.008	0.179
-612.259	-92.143	0.088	-0.025
-611.244	99.218	-0.169	-0.194
-610.230	154.974	0.105	0.143
-609.215	330.410	-0.116	-0.221
-608.201	800.000	0.062	-0.241
-607.186	-167.947	-0.125	0.005
-606.171	-174.133	-0.047	0.001
-605.157	6.655	-0.246	-0.182
-604.142	181.933	-0.149	-0.218
-603.128	-200.000	0.023	0.346
-602.113	-120.818	-0.105	0.018
-601.098	-200.000	-0.020	-0.102
-600.084	800.000	0.029	-0.116
-599.069	-91.360	-0.330	0.094
-598.055	45.745	0.259	-0.238
-597.040	101.238	0.185	-0.213
-596.025	-23.951	0.062	-0.037
-595.011	-46.181	0.244	0.119
-593.996	-26.164	0.062	0.036
-592.982	43.513	-0.169	-0.154
-591.967	88.622	0.201	0.222
-590.952	519.096	0.099	0.230
-589.938	-83.611	-0.093	0.030
-588.923	-9.255	0.200	-0.133
-587.909	229.254	-0.186	0.301
-586.894	-131.825	-0.125	0.016
-585.879	-136.396	-0.283	0.033
-584.865	-106.818	0.054	0.012
-583.850	117.208	0.149	0.181
-582.836	800.000	-0.039	0.145
-581.821	-155.281	0.037	0.002
-580.806	-69.893	0.139	0.053
-579.792	-68.247	-0.093	-0.036
-578.777	46.098	0.187	-0.172
-577.763	-200.000	0.036	0.505
-576.748	-5.817	0.171	-0.116
-575.733	-200.000	-0.011	-0.293
-574.719	-59.929	-0.231	-0.098
-573.704	168.270	0.119	-0.168
-572.690	125.288	-0.236	0.295
-571.675	-24.988	-0.159	-0.094
-570.661	-83.741	0.281	-0.089
-569.646	301.484	-0.100	-0.184
-568.631	-144.596	0.413	-0.038
-567.617	-128.464	-0.221	0.031
-566.602	140.307	-0.103	-0.135
-565.588	-27.273	-0.129	-0.075
-564.573	0.080	-0.245	-0.173
-563.558	-105.536	0.197	-0.044
-562.544	-144.092	0.047	-0.004
-561.529	67.749	-0.026	0.026
-560.515	117.983	0.109	0.133
-559.500	-181.469	-0.267	-0.005
-558.485	-8.071	0.063	-0.042
-557.471	-142.201	-0.142	-0.014
-556.456	754.324	0.085	-0.229
-555.442	-153.787	-0.225	-0.015
-554.427	-54.082	-0.124	0.056
-553.412	121.772	0.300	0.371
-552.398	-200.000	-0.004	-0.052
-551.383	-124.983	0.359	0.055
-550.369	-75.086	-0.159	-0.056
-549.354	81.346	-0.146	-0.156
-548.339	-91.396	-0.320	0.091
-547.325	-200.000	-0.057	-0.276
-546.310	728.000	-0.088	0.234
-545.296	-97.801	-0.326	0.084
-544.281	-91.907	-0.372	0.105
-543.266	-200.000	-0.000	0.053
-542.252	392.510	0.058	-0.119
-541.237	63.830	-0.159	0.158
-540.223	-200.000	0.179	-0.000
-539.208	43.983	0.270	-0.245
-538.193	-200.000	0.004	-0.264
-537.179	-109.054	-0.241	-0.051
-536.164	-140.941	-0.278	-0.028
-535.150	-200.000	0.012	0.333
-534.135	211.651	0.180	-0.281
-533.121	-200.000	-0.046	0.324
-532.106	7.921	-0.207	-0.154
-531.091	-46.405	0.173	-0.084
-530.077	-200.000	0.056	0.283
-529.062	-67.154	-0.159	0.062
-528.048	398.506	0.170	-0.353
-527.033	223.407	-0.076	-0.122
-526.018	-122.779	0.360	0.058
-525.004	-143.550	0.232	0.022
-523.989	-56.870	0.203	-0.089
-522.975	-23.974	-0.139	-0.082
-521.960	174.212	-0.188	-0.269
-520.945	11.661	0.159	0.121
-519.931	21.048	0.218	0.175
-518.916	-200.000	0.020	0.133
-517.902	443.862	-0.163	0.354
-516.887	800.000	0.122	0.373
-515.872	-51.581	-0.086	-0.040
-514.858	-86.202	-0.148	0.045
-513.843	181.982	-0.248	-0.361
-512.829	-110.385	-0.311	0.064
-511.814	800.000	-0.030	0.109
-510.799	327.133	0.128	-0.243
-509.785	67.658	0.111	0.112
-508.770	800.000	0.155	-0.429
-507.756	6.512	-0.254	-0.187
-506.741	-90.054	0.283	0.082
-505.726	800.000	0.069	-0.211
-504.712	-149.558	0.357	0.028
-503.697	467.615	-0.103	-0.230
-502.683	-71.121	-0.143	0.053
-501.668	-91.384	0.111	-0.031
-500.653	-14.365	0.025	0.016
-499.639	-179.480	-0.395	0.009
-498.624	-16.112	-0.273	0.172
-497.610	-33.273	0.313	0.171
-496.595	-145.395	0.029	0.003
-495.581	96.967	-0.122	-0.138
-494.566	-168.950	0.212	-0.008
-493.551	11.276	0.238	0.180
-492.537	-200.000	-0.058	0.485
-491.522	800.000	0.017	-0.047
-490.508	-28.814	0.097	0.055
-489.493	249.214	-0.347	0.581
-488.478	-200.000	0.032	-0.352
-487.464	-155.525	0.371	-0.024
-486.449	800.000	-0.114	-0.330
-485.435	-200.000	-0.048	-0.364
-484.420	-200.000	0.347	-0.001
-483.405	-200.000	0.007	-0.103
-482.391	253.623	-0.097	-0.164
-481.376	800.000	-0.071	-0.242
-480.362	-200.000	-0.051	0.234
-479.347	-200.000	0.029	-0.487
-478.332	-147.993	-0.217	-0.018
-477.318	-115.325	0.419	-0.078
-476.303	-200.000	-0.007	-0.168
-475.289	-38.259	-0.101	-0.053
-474.274	-99.453	-0.211	0.052
-473.259	-186.643	0.131	-0.002
-472.245	241.199	-0.068	-0.112
-471.230	215.633	-0.209	-0.327
-470.216	-67.465	-0.323	-0.125
-469.201	191.689	0.077	-0.115
-468.186	67.480	-0.033	-0.034
-467.172	-4.295	-0.301	0.206
-466.157	-136.400	-0.190	0.022
-465.143	78.422	-0.220	-0.232
-464.128	39.051	-0.338	0.298
-463.113	800.000	-0.125	0.379
-462.099	41.552	0.227	-0.203
-461.084	284.776	0.071	-0.126
-460.070	-185.868	-0.109	-0.002
-459.055	193.350	0.092	-0.138
-458.040	-90.303	-0.111	-0.032
-457.026	54.405	-0.088	0.084
-456.011	19.018	-0.181	0.143
-454.997	228.742	0.084	-0.135
-453.982	296.108	-0.230	-0.416
-452.968	108.204	-0.057	0.067
-451.953	355.658	0.052	0.101
-450.938	-176.975	0.366	-0.009
-449.924	4.017	0.166	-0.120
-448.909	-200.000	-0.308	0.001
-447.895	226.974	-0.112	0.180
-446.880	323.410	-0.155	0.292
-445.865	413.194	-0.041	0.087
-444.851	-94.958	-0.195	-0.052
-443.836	-124.415	0.157	-0.024
-442.822	-165.132	0.341	-0.015
-441.807	-111.422	-0.190	-0.038
-440.792	59.336	0.076	-0.074
-439.778	125.570	-0.133	0.166
-438.763	-200.000	-0.045	0.280
-437.749	-34.679	0.060	0.033
-436.734	212.776	-0.122	0.189
-435.719	-146.118	0.280	0.024
-434.705	86.145	0.254	-0.276
-433.690	123.059	-0.142	-0.176
-432.676	127.760	0.225	0.282
-431.661	9.055	0.230	-0.172
-430.646	-200.000	0.020	-0.129
-429.632	-54.434	-0.332	-0.148
-428.617	24.040	0.236	-0.192
-427.603	25.895	0.088	-0.072
-426.588	-200.000	-0.018	0.165
-425.573	128.655	-0.276	-0.347
-424.559	-30.630	0.119	-0.067
-423.544	-93.942	-0.435	0.118
-422.530	578.368	0.065	-0.156
-421.515	509.870	0.033	-0.075
-420.500	800.000	-0.078	0.332
-419.486	-169.147	0.401	-0.015
-418.471	-200.000	-0.030	0.329
-417.457	-144.292	0.217	0.020
-416.442	-200.000	0.075	-0.467
-415.428	104.435	0.113	0.131
-414.413	68.463	0.100	0.101
-413.398	-99.323	0.268	0.067
-412.384	-200.000	-0.000	0.141
-411.369	777.140	0.115	0.310
-410.355	-200.000	0.038	0.261
-409.340	37.510	0.316	-0.276
-408.325	-200.000	-0.022	0.190
-407.311	800.000	-0.086	-0.255
-406.296	-19.611	-0.281	0.171
-405.282	33.494	0.135	-0.115
-404.267	203.218	-0.053	-0.081
-403.252	-200.000	-0.008	0.084
-402.238	1.951	-0.289	0.205
-401.223	-135.744	-0.376	0.044
-400.209	-197.946	0.387	-0.002
-399.194	369.629	0.046	-0.091
-398.179	-78.414	0.220	-0.074
-397.165	57.643	-0.133	-0.128
-396.150	-23.528	0.075	-0.044
-395.136	-148.795	0.165	-0.013
-394.121	116.154	-0.163	0.196
-393.106	400.050	0.115	-0.237
-392.092	-110.478	0.111	-0.023
-391.077	389.760	-0.193	-0.393
-390.063	190.354	0.112	0.166
-389.048	800.000	0.048	0.193
-388.033	148.717	0.192	0.255
-387.019	800.000	0.020	-0.088
-386.004	800.000	0.011	0.036
-384.990	-75.326	0.106	-0.037
-383.975	197.726	0.178	0.267
-382.960	-200.000	-0.003	-0.229
-381.946	79.493	0.106	0.112
-380.931	-145.643	0.473	0.042
-379.917	-188.675	0.229	0.003
-378.902	-200.000	-0.002	0.090
-377.888	361.206	-0.158	-0.313
-376.873	6.298	-0.240	0.175
-375.858	-61.684	0.157	0.065
-374.844	675.562	-0.044	-0.112
-373.829	-122.024	0.244	-0.039
-372.815	-200.000	0.003	0.052
-371.800	-200.000	-0.074	0.476
-370.785	-200.000	-0.022	0.157
-369.771	-200.000	-0.081	-0.452
-368.756	-200.000	0.021	-0.117
-367.742	145.652	0.137	0.181
-366.727	6.811	0.116	-0.085
-365.712	87.171	-0.170	-0.185
-364.698	38.704	0.269	-0.236
-363.683	800.000	-0.053	0.219
-362.669	-93.700	0.275	0.075
-361.654	-115.997	0.173	-0.032
-360.639	416.291	0.134	0.280
-359.625	-94.212	0.351	0.095
-358.610	106.151	-0.051	-0.060
-357.596	-71.495	-0.318	-0.117
-356.581	193.932	0.108	-0.161
-355.566	-100.264	0.158	-0.039
-354.552	464.751	-0.119	0.262
-353.537	338.737	0.075	-0.143
-352.523	-136.710	0.096	0.011
-351.508	-87.579	0.222	-0.066
-350.493	-25.788	0.177	0.103
-349.479	-103.252	-0.105	-0.024
-348.464	54.774	-0.086	0.082
-347.450	10.111	-0.047	-0.035
-346.435	731.970	0.072	0.189
-345.420	800.000	0.052	-0.165
-344.406	335.984	0.084	0.160
-343.391	22.955	-0.277	0.223
-342.377	-118.571	-0.327	0.057
-341.362	78.817	0.171	-0.180
-340.348	-200.000	0.020	0.112
-339.333	-42.833	-0.449	0.224
-338.318	800.000	0.030	0.110
-337.304	-200.000	0.021	0.232
-336.289	25.997	0.277	0.227
-335.275	204.833	0.099	-0.150
-334.260	-29.018	-0.255	0.144
-333.245	-200.000	-0.008	-0.038
-332.231	73.477	-0.182	0.187
-331.216	399.925	0.055	-0.114
-330.202	23.500	0.119	-0.096
-329.187	617.721	0.094	0.231
-328.172	800.000	0.129	-0.444
-327.158	-200.000	-0.020	0.220
-326.143	-93.791	0.073	0.020
-325.129	-59.051	-0.167	0.071
-324.114	800.000	-0.056	-0.226
-323.099	800.000	-0.033	-0.098
-322.085	57.185	-0.100	-0.096
-321.070	-200.000	-0.014	0.347
-320.056	113.501	0.077	-0.092
-319.041	111.422	-0.264	0.312
-318.026	-200.000	-0.017	-0.190
-317.012	-38.697	0.376	0.195
-315.997	-8.555	0.097	0.064
-314.983	-16.075	-0.204	-0.127
-313.968	-73.699	0.241	0.086
-312.953	45.152	0.242	0.219
-311.939	-200.000	-0.040	0.189
-310.924	13.460	-0.306	-0.233
-309.910	37.480	-0.239	-0.208
-308.895	-11.334	0.071	0.046
-307.880	9.485	0.102	-0.076
-306.866	184.323	-0.239	-0.348
-305.851	175.977	-0.058	0.083
-304.837	-147.787	0.152	-0.013
-303.822	81.155	-0.190	-0.202
-302.807	800.000	0.138	0.394
-301.793	288.695	-0.146	0.259
-300.778	-200.000	-0.081	0.363
-299.764	-200.000	-0.017	-0.177
-298.749	360.682	0.085	-0.167
-297.735	-200.000	-0.019	0.161
-296.720	-45.062	-0.132	-0.065
-295.705	-200.000	0.040	0.185
-294.691	800.000	0.087	0.320
-293.676	-147.519	-0.169	0.014
-292.662	12.554	0.234	0.177
-291.647	2.065	0.108	-0.076
-290.632	-200.000	0.046	0.402
-289.618	39.380	-0.101	0.089
-288.603	-156.656	0.233	-0.014
-287.589	220.950	-0.162	-0.256
-286.574	-137.442	0.225	-0.025
-285.559	-90.606	0.261	-0.074
-284.545	-81.698	-0.597	-0.192
-283.530	-72.460	0.092	-0.033
-282.516	800.000	0.036	0.145
-281.501	-200.000	0.033	0.188
-280.486	-172.039	0.022	0.001
-279.472	-17.164	0.329	-0.203
-278.457	64.084	0.223	-0.220
-277.443	-120.997	0.139	0.023
-276.428	800.000	0.040	-0.159
-275.413	334.375	-0.058	-0.111
-274.399	681.842	0.097	0.247
-273.384	49.785	0.171	-0.158
-272.370	-73.386	-0.207	0.074
-271.355	441.254	-0.063	-0.134
-270.340	800.000	-0.028	-0.107
-269.326	-152.788	-0.161	0.011
-268.311	793.972	-0.047	-0.126
-267.297	632.340	0.098	0.243
-266.282	-200.000	0.005	-0.219
-265.267	92.988	0.155	0.171
-264.253	46.547	0.080	0.073
-263.238	202.829	-0.090	-0.136
-262.224	-200.000	0.011	0.189
-261.209	-51.865	0.359	0.164
-260.195	-9.392	-0.049	-0.032
-259.180	-144.413	-0.146	0.013
-258.165	-200.000	-0.007	0.203
-257.151	800.000	0.060	0.257
-256.136	33.569	0.137	-0.117
-255.122	-89.560	-0.501	0.144
-254.107	-108.323	-0.145	-0.031
-253.092	287.954	0.052	0.092
-252.078	663.406	0.141	-0.356
-251.063	167.711	0.165	-0.229
-250.049	764.560	-0.145	0.387
-249.034	162.929	-0.146	0.200
-248.019	-72.547	0.270	0.098
-247.005	-200.000	0.039	-0.396
-245.990	-200.000	0.051	-0.322
-244.976	265.458	-0.063	0.107
-243.961	-104.660	0.100	0.023
-242.946	-21.214	-0.254	-0.152
-241.932	48.630	0.231	0.212
-240.917	15.434	-0.291	-0.224
-239.903	300.940	-0.072	-0.131
-238.888	800.000	0.069	0.213
-237.873	331.805	0.019	0.036
-236.859	-65.073	0.369	0.146
-235.844	-160.420	0.187	-0.010
-234.830	-109.249	0.072	0.015
-233.815	713.973	-0.098	-0.254
-232.800	-35.009	0.227	-0.121
-231.786	281.001	-0.053	-0.092
-230.771	-200.000	-0.013	-0.175
-229.757	-200.000	0.008	-0.246
-228.742	-200.000	-0.026	0.146
-227.727	-147.242	-0.174	0.015
-226.713	75.556	-0.015	0.015
-225.698	31.587	-0.196	-0.165
-224.684	-61.231	0.112	-0.046
-223.669	-117.485	0.037	-0.007
-222.655	-116.765	0.474	-0.085
-221.640	-31.730	-0.263	-0.144
-220.625	-45.742	0.298	-0.144
-219.611	-43.921	-0.067	0.033
-218.596	-105.536	0.302	0.067
-217.582	246.011	0.047	0.077
-216.567	-64.446	0.143	0.057
-215.552	-133.042	-0.022	-0.003
-214.538	205.420	-0.132	-0.200
-213.523	205.209	0.224	-0.340
-212.509	96.235	0.090	0.101
-211.494	-200.000	0.005	0.117
-210.479	86.932	-0.231	-0.250
-209.465	-60.853	-0.287	0.119
-208.450	-26.499	-0.312	-0.179
-207.436	-58.472	0.233	-0.099
-206.421	119.989	0.040	-0.048
-205.406	332.126	-0.120	-0.226
-204.392	-85.087	-0.347	0.106
-203.377	8.071	-0.245	0.180
-202.363	-200.000	0.012	0.152
-201.348	336.101	0.065	-0.122
-200.333	-169.205	-0.337	0.012
-199.319	700.479	-0.037	0.096
-198.304	6.989	-0.433	0.315
-197.290	-142.493	0.290	0.028
-196.275	-121.526	0.212	0.034
-195.260	-20.892	0.245	0.147
-194.246	-200.000	0.004	0.330
-193.231	103.113	0.227	-0.260
-192.217	-200.000	-0.003	-0.017
-191.202	-56.325	-0.207	-0.090
-190.187	-197.007	-0.216	0.001
-189.173	171.515	-0.133	0.187
-188.158	-200.000	0.016	0.195
-187.144	324.007	-0.259	0.484
-186.129	-18.445	-0.163	-0.100
-185.114	89.600	0.076	-0.082
-184.100	800.000	0.112	0.303
-183.085	192.609	0.020	-0.030
-182.071	-159.809	0.258	0.014
-181.056	210.052	0.180	0.276
-180.042	41.201	-0.144	0.127
-179.027	510.368	0.049	-0.111
-178.012	46.715	-0.030	0.027
-176.998	-142.845	0.306	0.029
-175.983	383.698	-0.230	0.463
-174.969	-36.141	0.147	-0.077
-173.954	369.262	0.185	0.366
-172.939	-128.502	-0.339	-0.047
-171.925	800.000	-0.084	0.251
-170.910	-101.016	-0.170	0.041
-169.896	-125.144	0.072	-0.011
-168.881	-95.859	-0.031	-0.008
-167.866	-103.525	-0.152	0.035
-166.852	-110.013	0.497	0.102
-165.837	-182.199	0.120	-0.002
-164.823	-113.498	-0.168	0.032
-163.808	116.729	0.197	-0.236
-162.793	19.340	0.286	-0.224
-161.779	69.465	-0.145	-0.146
-160.764	3.804	-0.287	-0.204
-159.750	-26.064	-0.371	0.213
-158.735	454.589	-0.150	0.325
-157.720	-18.716	0.199	0.121
-156.706	800.000	0.052	-0.209
-155.691	412.193	-0.021	0.044
-154.677	-200.000	-0.015	-0.206
-153.662	-23.551	-0.057	0.033
-152.647	562.053	0.123	-0.291
-151.633	81.483	-0.138	0.146
-150.618	-96.317	-0.111	0.029
-149.604	-26.989	-0.199	-0.114
-148.589	178.316	0.228	-0.325
-147.574	-200.000	-0.026	0.305
-146.560	74.371	-0.170	-0.174
-145.545	-150.682	-0.052	-0.004
-144.531	47.067	0.174	-0.158
-143.516	-175.215	-0.222	0.006
-142.502	-3.696	-0.151	-0.103
-141.487	769.302	-0.028	-0.074
-140.472	97.580	-0.076	0.086
-139.458	28.818	0.433	-0.358
-138.443	36.909	-0.070	0.060
-137.429	-116.011	-0.224	-0.041
-136.414	145.802	0.102	-0.134
-135.399	800.000	-0.096	0.328
-134.385	-200.000	-0.010	-0.289
-133.370	26.764	-0.265	-0.217
-132.356	-109.166	-0.196	0.041
-131.341	47.291	-0.136	-0.123
-130.326	-200.000	0.070	-0.439
-129.312	231.462	0.178	-0.285
-128.297	-173.789	-0.150	-0.004
-127.283	290.011	0.090	-0.159
-126.268	-200.000	0.028	-0.328
-125.253	-17.396	0.120	-0.074
-124.239	106.061	-0.090	-0.104
-123.224	800.000	-0.048	-0.148
-122.210	-200.000	0.051	0.257
