DTS Sentinel unit serial number:	SN413079Multiplexer serial number:	ORYXHardware model number:	OX4-SRSoftware version number:	ORYX F/W v4.00 Oryx Data Collector v3.7.2.0data status	okinstallation	princeton_trtdifferential loss correction	single-endedforward channel	channel 2reverse channel	N/Adate	2019/09/14time	02:43:35forward acquisition time	60.00reverse acquisition time	0.00gamma	496.2192k internal	0.2337k external	0.2337temperature offset calibration	1.0126default loss term (dB/km)	0.3790temperature slope calibration	1.0000multiplexer offset coefficient	1.0000multiplexer slope coefficient	1.0000fibre end	0.00T internal ref (°C)	26.56T ext. ref 1 (°C)	3.23T ext. ref 2 (°C)	21.59length (m)	temperature (°C)	Stokes	anti-Stokes-747.200	651.120	-0.042	-0.107
-746.185	151.308	0.072	-0.098
-745.171	800.000	-0.103	0.381
-744.156	800.000	-0.101	0.324
-743.142	191.376	-0.103	0.155
-742.127	-137.430	-0.130	-0.015
-741.112	-200.000	0.009	0.576
-740.098	30.341	-0.517	0.443
-739.083	234.868	-0.039	0.065
-738.069	-200.000	-0.011	0.345
-737.054	368.384	-0.237	0.480
-736.039	-81.892	-0.220	0.072
-735.025	-129.087	-0.190	0.027
-734.010	-95.633	-0.055	-0.015
-732.996	30.632	-0.009	-0.008
-731.981	-200.000	-0.016	0.081
-730.966	-133.571	-0.183	-0.023
-729.952	-200.000	-0.078	-0.424
-728.937	-200.000	0.009	-0.071
-727.923	540.512	0.067	-0.160
-726.908	-98.967	-0.170	0.043
-725.894	405.287	-0.145	-0.307
-724.879	8.266	-0.141	0.107
-723.864	-119.460	-0.060	0.010
-722.850	-98.645	-0.304	-0.078
-721.835	-156.130	0.088	0.006
-720.821	191.045	-0.075	-0.113
-719.806	800.000	0.138	-0.464
-718.791	491.668	0.053	-0.122
-717.777	395.384	-0.107	-0.223
-716.762	-127.393	-0.334	0.049
-715.748	28.366	-0.134	-0.114
-714.733	9.827	0.199	0.151
-713.718	-56.581	0.258	0.114
-712.704	24.124	0.118	0.098
-711.689	-200.000	-0.025	0.275
-710.675	-47.777	-0.254	-0.124
-709.660	0.643	0.253	0.182
-708.645	54.184	-0.198	-0.191
-707.631	145.714	0.149	-0.200
-706.616	-200.000	0.014	-0.292
-705.602	184.213	-0.183	0.271
-704.587	12.917	0.261	-0.202
-703.572	-200.000	0.019	0.206
-702.558	-140.029	-0.363	-0.038
-701.543	153.271	0.102	0.140
-700.529	236.158	-0.146	-0.243
-699.514	-25.021	-0.126	0.075
-698.499	28.870	-0.184	-0.156
-697.485	-200.000	-0.055	-0.304
-696.470	-130.495	-0.423	-0.057
-695.456	-200.000	0.006	0.167
-694.441	-136.707	-0.114	-0.013
-693.426	800.000	-0.136	0.409
-692.412	260.615	0.078	-0.135
-691.397	22.317	-0.044	-0.036
-690.383	-200.000	-0.015	0.133
-689.368	414.744	0.246	-0.524
-688.354	115.048	-0.052	0.063
-687.339	161.287	-0.064	-0.089
-686.324	-73.307	-0.370	0.136
-685.310	-200.000	-0.065	0.339
-684.295	-200.000	-0.011	0.134
-683.281	-72.273	0.239	-0.089
-682.266	3.799	0.077	0.057
-681.251	-72.678	-0.367	0.135
-680.237	-15.084	0.053	0.034
-679.222	37.236	-0.185	-0.165
-678.208	674.663	0.033	-0.085
-677.193	-112.871	0.086	-0.017
-676.178	-93.594	-0.198	-0.055
-675.164	-22.172	-0.385	0.234
-674.149	197.629	0.314	-0.480
-673.135	72.833	0.170	-0.178
-672.120	6.792	-0.144	-0.107
-671.105	495.897	-0.045	0.104
-670.091	-26.194	-0.171	0.100
-669.076	-75.762	-0.295	-0.105
-668.062	-200.000	-0.026	-0.174
-667.047	219.764	-0.032	-0.051
-666.032	343.793	0.189	0.370
-665.018	-83.843	-0.067	-0.021
-664.003	85.706	-0.100	0.110
-662.989	147.786	0.241	-0.326
-661.974	-80.922	-0.338	-0.112
-660.959	451.449	-0.063	-0.140
-659.945	-155.395	0.021	0.001
-658.930	-103.040	-0.261	0.062
-657.916	123.418	0.157	-0.197
-656.901	86.518	0.136	-0.150
-655.886	682.110	0.089	-0.233
-654.872	149.554	-0.116	-0.158
-653.857	-48.911	-0.095	0.046
-652.843	-119.106	-0.143	-0.025
-651.828	-132.886	0.151	-0.019
-650.814	-132.638	-0.128	-0.016
-649.799	315.130	0.129	-0.243
-648.784	227.435	-0.152	0.246
-647.770	800.000	-0.084	-0.235
-646.755	266.553	0.060	-0.105
-645.741	-48.407	0.169	-0.081
-644.726	-200.000	0.036	-0.429
-643.711	800.000	0.019	0.076
-642.697	103.833	-0.141	-0.166
-641.682	800.000	0.046	0.130
-640.668	-80.981	-0.394	-0.131
-639.653	91.572	-0.066	-0.074
-638.638	-200.000	0.006	0.178
-637.624	-7.704	-0.137	-0.092
-636.609	-106.904	0.194	-0.043
-635.595	741.264	0.134	-0.359
-634.580	747.452	0.088	-0.237
-633.565	227.647	0.107	-0.174
-632.551	-38.569	-0.137	-0.072
-631.536	24.182	0.275	-0.227
-630.522	175.701	-0.106	0.153
-629.507	378.083	-0.086	0.176
-628.492	-76.910	-0.196	-0.069
-627.478	-120.588	-0.115	0.019
-626.463	800.000	-0.072	-0.225
-625.449	89.981	0.154	0.172
-624.434	8.401	-0.066	-0.050
-623.419	223.333	0.042	-0.067
-622.405	-200.000	-0.014	0.120
-621.390	-200.000	0.005	-0.325
-620.376	47.386	0.090	-0.084
-619.361	800.000	-0.085	0.245
-618.346	68.134	-0.220	-0.225
-617.332	-90.884	0.067	-0.019
-616.317	-13.383	-0.152	0.099
-615.303	516.578	0.116	-0.270
-614.288	-200.000	0.003	-0.164
-613.273	0.737	0.286	0.204
-612.259	93.374	0.305	-0.345
-611.244	55.321	0.133	-0.129
-610.230	-63.495	0.190	0.078
-609.215	-200.000	0.016	-0.203
-608.201	-69.693	-0.265	-0.101
-607.186	167.817	0.154	0.219
-606.171	-200.000	0.066	-0.424
-605.157	-200.000	-0.028	-0.131
-604.142	-123.097	0.474	-0.076
-603.128	-2.501	0.014	-0.009
-602.113	416.356	-0.143	-0.304
-601.098	20.272	0.082	0.066
-600.084	699.235	0.077	0.201
-599.069	-200.000	-0.060	0.329
-598.055	162.045	-0.112	0.156
-597.040	141.647	0.099	0.131
-596.025	223.189	-0.117	-0.188
-595.011	-12.095	-0.094	0.062
-593.996	93.540	-0.260	0.294
-592.982	49.184	0.096	0.090
-591.967	129.765	0.189	0.241
-590.952	-117.832	-0.072	0.013
-589.938	38.741	0.175	-0.156
-588.923	340.451	-0.104	-0.203
-587.909	32.620	-0.174	0.150
-586.894	800.000	0.054	0.195
-585.879	-29.654	-0.208	0.119
-584.865	800.000	0.177	-0.609
-583.850	111.800	0.037	-0.045
-582.836	-200.000	-0.008	-0.056
-581.821	-200.000	-0.040	0.207
-580.806	-5.017	-0.365	0.251
-579.792	25.622	-0.053	0.044
-578.777	365.618	-0.039	0.078
-577.763	-19.783	-0.193	-0.119
-576.748	-200.000	0.018	-0.137
-575.733	-200.000	0.024	-0.108
-574.719	674.107	-0.123	0.319
-573.704	-34.046	-0.100	-0.055
-572.690	800.000	0.097	0.305
-571.675	800.000	-0.048	0.162
-570.661	-57.310	0.196	0.086
-569.646	-179.962	0.095	0.002
-568.631	-200.000	-0.015	-0.154
-567.617	-96.666	0.077	-0.020
-566.602	26.932	0.212	-0.177
-565.588	166.929	0.029	0.042
-564.573	-44.525	-0.171	0.085
-563.558	-84.143	0.091	-0.029
-562.544	-200.000	-0.006	0.110
-561.529	137.005	-0.045	0.058
-560.515	-124.103	-0.191	-0.030
-559.500	800.000	-0.043	0.166
-558.485	-3.419	-0.140	0.097
-557.471	607.611	0.043	-0.107
-556.456	442.452	0.025	-0.054
-555.442	-68.270	0.047	-0.018
-554.427	119.142	-0.019	0.024
-553.412	87.177	0.177	-0.194
-552.398	-165.746	-0.066	0.003
-551.383	800.000	0.035	0.143
-550.369	113.648	0.145	-0.175
-549.354	-86.856	0.402	-0.122
-548.339	-200.000	0.246	0.001
-547.325	-117.265	-0.255	0.046
-546.310	52.356	0.165	0.157
-545.296	-74.203	-0.156	0.056
-544.281	429.999	-0.020	0.042
-543.266	23.166	-0.232	0.190
-542.252	-31.674	0.028	0.016
-541.237	724.718	-0.068	-0.179
-540.223	-86.696	0.289	0.088
-539.208	160.974	-0.053	0.074
-538.193	800.000	-0.059	0.188
-537.179	435.053	0.033	-0.071
-536.164	325.528	-0.081	-0.154
-535.150	-200.000	-0.042	0.309
-534.135	88.024	0.061	0.068
-533.121	-99.145	-0.151	0.038
-532.106	-44.631	0.336	0.167
-531.091	-118.669	0.052	-0.009
-530.077	421.019	-0.041	0.089
-529.062	20.439	0.065	-0.052
-528.048	-58.493	-0.064	0.028
-527.033	12.899	-0.154	-0.119
-526.018	81.994	0.174	0.187
-525.004	-143.171	-0.053	-0.005
-523.989	86.262	-0.110	0.120
-522.975	-120.615	-0.514	-0.087
-521.960	73.235	-0.065	-0.068
-520.945	149.105	-0.179	-0.241
-519.931	-44.820	-0.184	-0.091
-518.916	29.618	-0.080	0.068
-517.902	800.000	-0.039	0.124
-516.887	695.415	-0.162	-0.424
-515.872	-153.330	-0.211	-0.015
-514.858	-200.000	0.037	0.184
-513.843	-159.785	-0.133	0.007
-512.829	-76.973	-0.263	0.091
-511.814	-200.000	0.026	-0.171
-510.799	19.622	0.044	0.035
-509.785	-125.511	0.531	0.080
-508.770	-70.833	-0.164	-0.061
-507.756	-49.579	0.227	-0.107
-506.741	800.000	0.016	-0.048
-505.726	-17.860	-0.040	0.025
-504.712	-200.000	0.057	0.380
-503.697	-29.531	-0.083	-0.047
-502.683	31.529	-0.294	0.252
-501.668	76.847	0.136	0.144
-500.653	-200.000	-0.000	-0.199
-499.639	301.651	0.179	0.330
-498.624	-112.034	0.608	-0.122
-497.610	-71.908	0.190	-0.070
-496.595	69.129	0.073	-0.075
-495.581	-36.517	-0.365	0.195
-494.566	-48.321	0.142	-0.068
-493.551	480.796	-0.142	0.320
-492.537	281.498	0.022	0.039
-491.522	-200.000	-0.010	0.106
-490.508	-200.000	0.003	0.316
-489.493	-33.802	-0.083	-0.046
-488.478	-200.000	-0.018	0.134
-487.464	-83.517	0.373	-0.119
-486.449	-200.000	0.027	0.271
-485.435	-91.830	-0.313	-0.088
-484.420	132.816	0.124	0.160
-483.405	624.336	-0.067	-0.167
-482.391	-193.477	-0.321	0.003
-481.376	800.000	-0.027	0.086
-480.362	-45.705	0.271	-0.133
-479.347	-200.000	0.002	0.325
-478.332	-69.654	0.444	-0.169
-477.318	-1.033	-0.266	0.187
-476.303	83.477	0.199	0.216
-475.289	-200.000	-0.005	0.254
-474.274	-39.744	-0.447	0.232
-473.259	-200.000	0.019	0.210
-472.245	66.859	-0.153	-0.155
-471.230	301.460	-0.125	0.230
-470.216	417.536	-0.055	-0.117
-469.201	21.686	0.072	-0.059
-468.186	55.870	0.048	-0.046
-467.172	-132.887	0.151	0.019
-466.157	276.549	-0.095	0.168
-465.143	478.083	0.095	-0.213
-464.128	661.714	-0.037	-0.095
-463.113	-26.802	-0.321	0.186
-462.099	-141.438	0.050	0.005
-461.084	29.036	-0.149	0.126
-460.070	156.092	-0.206	0.282
-459.055	-200.000	0.035	-0.249
-458.040	-117.310	0.167	-0.030
-457.026	26.727	-0.221	0.183
-456.011	67.043	0.051	-0.052
-454.997	-53.490	0.341	0.155
-453.982	0.065	0.174	0.123
-452.968	78.249	0.076	-0.081
-451.953	261.583	0.091	-0.157
-450.938	-163.529	0.105	0.005
-449.924	800.000	0.069	0.229
-448.909	445.831	-0.062	-0.134
-447.895	227.396	-0.185	-0.299
-446.880	-63.106	-0.187	-0.077
-445.865	568.474	-0.083	0.201
-444.851	662.117	-0.153	-0.393
-443.836	500.029	-0.153	-0.351
-442.822	784.483	0.064	-0.175
-441.807	6.617	0.172	0.127
-440.792	-99.685	0.126	-0.031
-439.778	-47.527	0.101	-0.049
-438.763	50.481	-0.103	-0.097
-437.749	73.190	0.184	0.191
-436.734	-59.310	-0.283	0.121
-435.719	-200.000	-0.022	0.218
-434.705	-119.171	-0.253	-0.044
-433.690	375.881	0.132	-0.266
-432.676	54.542	-0.074	-0.071
-431.661	112.357	0.236	0.284
-430.646	-200.000	-0.008	0.100
-429.632	-200.000	0.010	-0.058
-428.617	-9.644	0.127	0.084
-427.603	117.882	0.160	-0.196
-426.588	-13.690	0.075	0.048
-425.573	-11.339	-0.144	-0.094
-424.559	-154.616	-0.120	0.008
-423.544	511.903	-0.096	0.222
-422.530	-62.779	-0.179	-0.073
-421.515	31.460	0.112	-0.096
-420.500	625.811	-0.099	-0.248
-419.486	800.000	0.060	-0.201
-418.471	122.646	-0.207	-0.256
-417.457	-200.000	-0.020	0.163
-416.442	443.331	0.146	-0.318
-415.428	80.296	0.109	-0.116
-414.413	-50.303	-0.297	-0.139
-413.398	-151.607	0.088	-0.006
-412.384	-150.727	-0.118	-0.009
-411.369	-200.000	0.026	0.285
-410.355	108.883	-0.143	-0.169
-409.340	86.061	0.167	0.182
-408.325	-200.000	-0.001	-0.044
-407.311	69.487	0.141	0.144
-406.296	-85.702	0.085	0.026
-405.282	85.178	-0.223	-0.243
-404.267	-63.119	-0.059	0.024
-403.252	167.315	-0.104	0.147
-402.238	800.000	-0.046	0.188
-401.223	464.525	-0.067	0.149
-400.209	800.000	0.036	-0.124
-399.194	343.995	0.147	0.285
-398.179	257.681	0.037	-0.064
-397.165	-72.825	-0.021	0.008
-396.150	52.508	-0.067	0.063
-395.136	-200.000	-0.096	0.687
-394.121	257.652	0.119	-0.203
-393.106	-45.906	-0.167	0.082
-392.092	-200.000	-0.044	-0.358
-391.077	64.210	-0.101	-0.101
-390.063	-200.000	-0.035	0.217
-389.048	-103.720	0.068	0.016
-388.033	800.000	0.011	0.033
-387.019	-107.627	0.490	0.106
-386.004	24.514	-0.102	-0.084
-384.990	-100.504	0.167	0.041
-383.975	87.120	0.076	0.083
-382.960	748.482	0.022	0.059
-381.946	233.395	0.117	-0.191
-380.931	100.077	0.052	-0.060
-379.917	-200.000	-0.012	-0.393
-378.902	-2.074	-0.128	-0.089
-377.888	719.332	0.058	0.153
-376.873	-153.146	-0.116	-0.008
-375.858	-200.000	0.068	0.316
-374.844	800.000	0.025	-0.088
-373.829	368.061	0.115	0.231
-372.815	42.608	0.193	-0.173
-371.800	-200.000	-0.013	0.311
-370.785	-126.818	0.129	0.019
-369.771	-200.000	-0.000	0.175
-368.756	178.904	0.049	-0.071
-367.742	-200.000	0.007	-0.137
-366.727	113.542	0.043	0.052
-365.712	-200.000	0.013	0.088
-364.698	-200.000	-0.005	0.144
-363.683	-55.263	0.305	-0.136
-362.669	592.709	-0.114	-0.280
-361.654	-156.497	-0.205	0.013
-360.639	271.933	0.197	0.343
-359.625	800.000	-0.120	0.356
-358.610	-58.169	0.139	0.060
-357.596	-200.000	0.028	0.157
-356.581	139.593	-0.047	-0.061
-355.566	-97.234	-0.575	0.148
-354.552	-200.000	-0.050	0.000
-353.537	-200.000	-0.090	-0.414
-352.523	-59.079	0.211	0.090
-351.508	800.000	-0.061	0.179
-350.493	34.625	-0.377	0.326
-349.479	156.007	-0.140	-0.191
-348.464	304.613	-0.108	-0.198
-347.450	-200.000	-0.041	-0.399
-346.435	-200.000	-0.012	-0.094
-345.420	70.362	0.214	0.219
-344.406	-200.000	-0.014	0.312
-343.391	346.418	-0.083	0.162
-342.377	800.000	0.053	0.197
-341.362	-110.255	0.116	0.024
-340.348	-200.000	-0.022	-0.165
-339.333	428.813	-0.036	0.076
-338.318	-57.078	0.224	0.097
-337.304	800.000	0.028	0.117
-336.289	643.829	-0.172	-0.433
-335.275	-200.000	-0.063	-0.325
-334.260	138.904	0.083	-0.107
-333.245	64.187	0.157	0.156
-332.231	-4.815	-0.215	-0.146
-331.216	389.399	0.079	0.161
-330.202	800.000	0.020	0.065
-329.187	800.000	0.014	0.043
-328.172	57.689	0.103	0.100
-327.158	-200.000	-0.021	-0.095
-326.143	-156.359	-0.289	-0.018
-325.129	68.251	0.269	0.272
-324.114	-125.662	0.159	0.024
-323.099	-31.537	-0.058	0.032
-322.085	-160.738	0.126	-0.007
-321.070	-29.293	-0.321	0.182
-320.056	100.158	0.125	-0.143
-319.041	-200.000	0.080	-0.492
-318.026	-50.347	-0.296	0.138
-317.012	-44.155	-0.153	0.076
-315.997	-71.659	0.104	0.039
-314.983	-149.423	-0.204	-0.016
-313.968	404.422	0.118	-0.246
-312.953	34.249	-0.104	0.090
-311.939	85.584	0.082	-0.089
-310.924	-135.418	-0.243	-0.029
-309.910	-200.000	0.036	-0.321
-308.895	-120.184	-0.358	0.060
-307.880	110.685	0.128	-0.151
-306.866	-155.363	0.276	0.018
-305.851	-12.184	-0.223	-0.144
-304.837	6.078	0.303	-0.221
-303.822	-103.270	0.083	0.019
-302.807	-200.000	0.006	-0.190
-301.793	-69.747	-0.140	0.053
-300.778	-200.000	0.007	-0.121
-299.764	800.000	-0.078	-0.303
-298.749	270.561	0.137	-0.237
-297.735	-200.000	0.003	-0.300
-296.720	750.167	0.042	-0.113
-295.705	-13.572	0.264	-0.169
-294.691	383.731	-0.121	-0.247
-293.676	-181.918	-0.256	-0.005
-292.662	149.822	0.101	0.135
-291.647	-164.277	0.326	0.015
-290.632	-77.349	-0.322	-0.110
-289.618	-200.000	-0.029	0.306
-288.603	147.404	0.189	-0.251
-287.589	63.629	0.147	0.146
-286.574	128.430	-0.121	-0.151
-285.559	-102.383	0.302	0.071
-284.545	283.373	0.132	0.235
-283.530	800.000	0.041	0.129
-282.516	539.148	-0.041	0.096
-281.501	-170.695	-0.302	-0.010
-280.486	87.963	-0.140	-0.153
-279.472	-60.096	-0.542	0.228
-278.457	-14.879	0.201	0.127
-277.443	-15.334	-0.112	-0.070
-276.428	-4.896	-0.085	-0.058
-275.413	-200.000	0.028	0.234
-274.399	800.000	-0.090	0.290
-273.384	444.407	-0.127	0.274
-272.370	-34.990	-0.173	0.093
-271.355	384.697	0.051	-0.103
-270.340	-114.206	-0.195	0.037
-269.326	3.423	-0.124	-0.089
-268.311	307.929	0.036	0.066
-267.297	-200.000	-0.040	-0.324
-266.282	-118.916	0.404	0.070
-265.267	520.842	-0.052	-0.119
-264.253	-200.000	-0.001	-0.273
-263.238	226.154	0.328	0.524
-262.224	-30.765	0.077	-0.043
-261.209	-51.999	0.071	-0.033
-260.195	23.259	-0.028	0.023
-259.180	139.740	0.095	0.124
-258.165	708.675	0.073	-0.189
-257.151	183.401	0.123	-0.179
-256.136	-15.292	0.074	0.046
-255.122	-184.656	0.090	0.001
-254.107	55.646	-0.136	-0.130
-253.092	-106.578	-0.146	-0.032
-252.078	659.359	0.040	0.100
-251.063	336.707	0.015	0.030
-250.049	-200.000	-0.013	0.426
-249.034	478.972	0.120	0.268
-248.019	80.406	0.113	0.120
-247.005	-28.700	0.057	-0.032
-245.990	147.894	0.099	-0.131
-244.976	138.546	0.153	0.198
-243.961	800.000	0.089	-0.353
-242.946	-200.000	-0.003	0.142
-241.932	152.920	0.215	0.289
-240.917	-47.036	-0.163	-0.079
-239.903	134.223	-0.128	0.163
-238.888	-98.098	0.324	0.082
-237.873	54.061	0.255	0.242
-236.859	-138.197	0.146	0.016
-235.844	14.464	-0.044	0.034
-234.830	-52.779	-0.169	0.077
-233.815	150.680	-0.089	-0.119
-232.800	-47.896	0.228	-0.109
-231.786	-112.546	-0.449	0.088
-230.771	75.109	-0.192	0.199
-229.757	73.540	-0.015	-0.015
-228.742	47.227	-0.140	-0.128
-227.727	177.868	0.047	0.067
-226.713	-200.000	-0.001	0.033
-225.698	-120.117	-0.270	-0.045
-224.684	-151.232	0.070	0.005
-223.669	14.276	0.266	0.204
-222.655	6.029	-0.102	-0.074
-221.640	-185.436	-0.209	0.003
-220.625	-13.292	0.162	-0.104
-219.611	-112.462	-0.309	0.061
-218.596	-93.803	0.121	0.033
-217.582	-120.011	-0.368	0.062
-216.567	-29.617	0.297	-0.167
-215.552	271.589	0.053	-0.091
-214.538	-141.324	0.254	-0.025
-213.523	800.000	0.026	-0.087
-212.509	136.182	0.093	-0.119
-211.494	148.895	-0.167	-0.221
-210.479	-66.005	-0.045	-0.018
-209.465	392.000	-0.012	0.025
-208.450	-200.000	0.013	-0.195
-207.436	-12.778	0.119	-0.076
-206.421	-82.336	0.139	-0.045
-205.406	756.436	-0.091	-0.242
-204.392	-80.319	-0.253	-0.083
-203.377	-59.918	0.415	0.175
-202.363	484.362	-0.080	0.180
-201.348	28.212	-0.169	-0.140
-200.333	121.764	0.237	0.290
-199.319	201.081	0.107	0.161
-198.304	-45.462	0.199	-0.097
-197.290	1.627	0.353	-0.250
-196.275	-78.971	-0.215	-0.072
-195.260	113.196	-0.237	-0.283
-194.246	8.581	0.238	0.176
-193.231	-55.159	-0.089	0.039
-192.217	286.824	-0.183	-0.325
-191.202	220.447	-0.041	-0.065
-190.187	-51.281	0.153	-0.070
-189.173	-58.481	0.152	0.065
-188.158	-110.157	-0.134	0.027
-187.144	-12.094	0.057	-0.037
-186.129	-126.646	-0.437	0.064
-185.114	297.847	-0.211	-0.381
-184.100	-200.000	0.002	0.252
-183.085	-29.492	0.452	0.254
-182.071	35.326	-0.239	-0.206
-181.056	-97.680	0.099	-0.025
-180.042	-104.075	0.387	0.088
-179.027	294.441	-0.128	-0.230
-178.012	677.564	0.087	0.222
-176.998	-111.804	0.132	0.026
-175.983	52.965	-0.121	-0.113
-174.969	-200.000	-0.012	0.057
-173.954	104.751	0.291	-0.336
-172.939	800.000	-0.036	0.125
-171.925	-174.710	-0.263	-0.007
-170.910	-113.261	0.319	-0.062
-169.896	-18.620	0.244	-0.149
-168.881	800.000	0.037	-0.106
-167.866	6.770	-0.154	-0.112
-166.852	47.193	-0.132	0.120
-165.837	66.933	-0.108	-0.108
-164.823	110.158	0.139	0.164
-163.808	-9.336	-0.104	0.068
-162.793	99.450	0.243	0.276
-161.779	86.516	-0.131	-0.142
-160.764	-53.042	-0.131	0.059
-159.750	-115.309	-0.290	-0.054
-158.735	91.753	0.102	0.112
-157.720	-83.286	0.052	-0.016
-156.706	-182.049	0.302	-0.006
-155.691	800.000	0.065	-0.197
-154.677	-82.193	-0.339	0.108
-153.662	244.710	-0.203	0.335
-152.647	92.847	0.204	-0.226
-151.633	800.000	-0.015	-0.058
-150.618	-94.705	0.150	0.040
-149.604	800.000	-0.056	0.173
-148.589	-165.366	-0.201	0.009
-147.574	-200.000	0.002	-0.291
-146.560	93.278	-0.135	0.150
-145.545	18.483	0.201	0.157
-144.531	-136.833	0.204	0.023
-143.516	-155.179	0.010	-0.001
-142.502	-108.522	0.225	-0.047
-141.487	254.331	-0.088	0.148
-140.472	429.115	-0.074	0.157
-139.458	499.122	-0.061	-0.138
-138.443	38.241	0.097	0.085
-137.429	-37.934	-0.159	-0.083
-136.414	-200.000	0.012	0.356
-135.399	-200.000	-0.024	-0.237
-134.385	-0.460	-0.473	0.329
-133.370	458.666	0.050	-0.109
-132.356	-148.692	0.287	0.023
-131.341	-19.026	-0.416	-0.253
-130.326	113.385	-0.160	-0.190
-129.312	102.111	0.083	-0.095
-128.297	800.000	0.032	-0.132
-127.283	188.616	0.091	-0.133
-126.268	35.484	-0.073	-0.063
-125.253	116.351	0.053	0.063
-124.239	-39.506	-0.364	-0.187
-123.224	-82.316	0.406	-0.129
-122.210	-200.000	-0.056	-0.261
-121.195	-166.279	-0.142	0.006
