DTS Sentinel unit serial number:	SN413079Multiplexer serial number:	ORYXHardware model number:	OX4-SRSoftware version number:	ORYX F/W v4.00 Oryx Data Collector v3.7.2.0data status	okinstallation	princeton_trtdifferential loss correction	single-endedforward channel	channel 2reverse channel	N/Adate	2019/09/13time	00:43:34forward acquisition time	60.00reverse acquisition time	0.00gamma	496.2192k internal	0.2333k external	0.2333temperature offset calibration	1.0159default loss term (dB/km)	0.3790temperature slope calibration	1.0000multiplexer offset coefficient	1.0000multiplexer slope coefficient	1.0000fibre end	0.00T internal ref (°C)	28.25T ext. ref 1 (°C)	3.67T ext. ref 2 (°C)	22.79length (m)	temperature (°C)	Stokes	anti-Stokes-747.200	89.190	-0.021	0.023
-746.185	-79.852	0.117	0.039
-745.171	-142.355	0.090	0.009
-744.156	-86.835	0.194	0.060
-743.142	800.000	0.009	-0.029
-742.127	-102.980	-0.363	-0.087
-741.112	675.726	-0.147	-0.383
-740.098	-200.000	0.020	0.321
-739.083	22.966	0.319	0.263
-738.069	144.274	-0.126	0.170
-737.054	800.000	-0.101	-0.308
-736.039	226.159	-0.062	-0.102
-735.025	137.755	-0.178	0.235
-734.010	76.845	-0.058	0.062
-732.996	-31.143	-0.142	-0.080
-731.981	3.725	-0.029	-0.021
-730.966	-200.000	0.092	-0.406
-729.952	-42.656	-0.331	-0.169
-728.937	-48.443	-0.101	0.049
-727.923	-52.520	0.258	-0.120
-726.908	77.266	0.243	0.259
-725.894	-200.000	-0.044	0.226
-724.879	-95.035	-0.073	-0.020
-723.864	-11.477	-0.014	-0.009
-722.850	-59.618	0.346	0.149
-721.835	-24.842	-0.229	0.136
-720.821	-200.000	0.004	0.030
-719.806	65.574	-0.187	-0.190
-718.791	-5.754	0.086	0.059
-717.777	-60.318	-0.102	-0.044
-716.762	215.743	0.098	-0.157
-715.748	195.105	-0.265	-0.404
-714.733	-200.000	0.003	-0.061
-713.718	-105.231	-0.194	0.045
-712.704	-124.033	-0.258	-0.041
-711.689	-200.000	-0.024	-0.108
-710.675	108.334	0.036	-0.043
-709.660	322.754	-0.134	-0.257
-708.645	-74.444	0.127	0.046
-707.631	-42.260	0.242	-0.124
-706.616	800.000	-0.042	0.146
-705.602	-149.911	-0.272	-0.021
-704.587	-200.000	-0.002	-0.084
-703.572	-200.000	-0.001	-0.314
-702.558	-200.000	-0.000	0.221
-701.543	-200.000	-0.004	-0.288
-700.529	-200.000	-0.002	-0.048
-699.514	800.000	0.091	-0.328
-698.499	800.000	-0.009	-0.031
-697.485	800.000	-0.024	0.080
-696.470	121.726	0.064	-0.080
-695.456	-200.000	0.016	-0.232
-694.441	-109.531	-0.248	-0.052
-693.426	-1.901	0.083	0.058
-692.412	5.996	-0.123	0.091
-691.397	-150.817	-0.259	-0.020
-690.383	17.300	-0.386	-0.308
-689.368	20.679	0.223	0.182
-688.354	-200.000	-0.043	0.292
-687.339	506.307	0.075	0.174
-686.324	-2.815	0.139	0.097
-685.310	-92.536	-0.089	-0.025
-684.295	-200.000	0.004	0.152
-683.281	-39.380	-0.230	-0.121
-682.266	-25.631	0.109	-0.065
-681.251	453.871	0.075	-0.168
-680.237	-142.164	0.142	0.014
-679.222	463.195	0.060	-0.134
-678.208	-7.148	-0.108	0.073
-677.193	103.145	-0.208	-0.244
-676.178	-53.517	0.238	-0.109
-675.164	-126.916	-0.360	-0.053
-674.149	-153.929	-0.353	0.024
-673.135	-35.490	0.147	0.080
-672.120	66.154	-0.082	0.084
-671.105	-40.501	0.163	0.085
-670.091	-118.658	0.270	-0.048
-669.076	356.607	-0.166	-0.332
-668.062	264.841	-0.152	0.266
-667.047	-144.967	0.358	-0.033
-666.032	58.789	0.098	0.097
-665.018	-52.644	-0.222	-0.103
-664.003	232.631	-0.090	0.149
-662.989	-200.000	-0.006	-0.208
-661.974	-200.000	0.080	-0.371
-660.959	33.160	0.265	0.230
-659.945	800.000	0.039	0.172
-658.930	-200.000	-0.009	0.267
-657.916	-91.564	0.164	-0.047
-656.901	341.820	-0.028	0.055
-655.886	-200.000	-0.016	0.098
-654.872	648.547	-0.160	-0.409
-653.857	42.823	-0.214	-0.195
-652.843	2.193	0.145	-0.105
-651.828	-106.447	0.272	-0.061
-650.814	295.971	-0.086	0.159
-649.799	800.000	-0.036	0.149
-648.784	15.651	0.264	0.208
-647.770	-68.398	-0.158	0.062
-646.755	-110.714	0.580	-0.120
-645.741	63.156	-0.269	-0.270
-644.726	391.207	-0.096	-0.200
-643.711	-60.464	0.085	-0.036
-642.697	-200.000	0.017	-0.129
-641.682	170.089	0.089	-0.128
-640.668	800.000	-0.063	-0.235
-639.653	-51.915	-0.096	-0.045
-638.638	-137.253	0.035	-0.004
-637.624	232.051	-0.031	-0.051
-636.609	-77.004	0.184	0.064
-635.595	-25.291	0.122	-0.072
-634.580	-200.000	0.317	0.001
-633.565	-166.351	-0.218	-0.009
-632.551	-73.575	-0.166	0.061
-631.536	157.165	0.375	0.520
-630.522	-200.000	-0.005	0.072
-629.507	800.000	-0.039	0.125
-628.492	-109.792	0.226	-0.048
-627.478	35.386	0.126	0.111
-626.463	800.000	0.072	-0.255
-625.449	-68.926	0.225	0.087
-624.434	800.000	-0.069	0.194
-623.419	-174.942	0.090	0.003
-622.405	-87.323	-0.209	-0.063
-621.390	-22.464	0.299	-0.181
-620.376	-163.856	-0.040	-0.002
-619.361	-125.374	-0.117	-0.018
-618.346	312.664	0.059	0.111
-617.332	4.777	-0.101	-0.074
-616.317	-150.315	0.311	-0.024
-615.303	1.801	-0.223	-0.161
-614.288	-192.342	0.169	-0.002
-613.273	178.155	-0.186	0.271
-612.259	-112.174	-0.222	0.045
-611.244	296.112	-0.091	0.167
-610.230	-200.000	0.002	-0.054
-609.215	-8.529	-0.242	-0.163
-608.201	-200.000	0.003	0.092
-607.186	-167.326	-0.265	-0.011
-606.171	-75.612	-0.142	0.051
-605.157	800.000	0.011	-0.035
-604.142	-23.557	0.105	-0.063
-603.128	52.208	0.086	0.082
-602.113	56.076	0.123	-0.119
-601.098	800.000	-0.032	-0.130
-600.084	800.000	0.023	-0.063
-599.069	-200.000	0.003	0.140
-598.055	147.844	-0.253	-0.341
-597.040	-136.273	0.294	0.034
-596.025	-116.592	-0.157	-0.029
-595.011	-200.000	0.024	-0.260
-593.996	663.235	0.100	-0.258
-592.982	386.700	-0.188	-0.389
-591.967	-69.255	0.262	-0.101
-590.952	-200.000	0.012	0.232
-589.938	-144.255	0.561	-0.052
-588.923	24.184	-0.340	0.280
-587.909	652.791	-0.028	-0.072
-586.894	-200.000	0.009	0.123
-585.879	-81.884	0.363	-0.119
-584.865	-66.051	0.033	0.013
-583.850	134.447	0.067	0.087
-582.836	-87.799	0.115	-0.035
-581.821	-41.785	-0.155	-0.079
-580.806	800.000	0.051	0.170
-579.792	-49.954	0.047	0.022
-578.777	-200.000	0.089	0.527
-577.763	-43.633	0.373	-0.188
-576.748	-141.713	0.278	-0.028
-575.733	191.364	0.148	-0.223
-574.719	-200.000	-0.016	-0.223
-573.704	133.720	0.143	0.185
-572.690	-170.282	-0.038	-0.001
-571.675	-76.061	-0.223	-0.079
-570.661	477.819	-0.060	-0.135
-569.646	-66.056	0.089	-0.035
-568.631	-123.978	-0.395	0.062
-567.617	-14.168	0.261	-0.168
-566.602	48.355	0.210	-0.196
-565.588	-76.670	-0.270	0.094
-564.573	198.443	-0.077	0.118
-563.558	-200.000	0.040	0.396
-562.544	92.140	-0.234	0.263
-561.529	-7.752	-0.093	0.063
-560.515	-200.000	-0.011	-0.411
-559.500	-200.000	0.001	0.073
-558.485	675.137	-0.092	-0.238
-557.471	-20.807	-0.063	-0.039
-556.456	-200.000	-0.024	-0.127
-555.442	12.957	-0.063	-0.048
-554.427	800.000	-0.062	0.221
-553.412	-103.410	0.219	-0.051
-552.398	128.652	0.200	0.255
-551.383	595.680	0.045	0.111
-550.369	290.259	0.121	-0.219
-549.354	-200.000	0.021	0.284
-548.339	-200.000	-0.054	0.304
-547.325	-135.182	0.144	-0.017
-546.310	-23.413	-0.114	0.068
-545.296	73.797	-0.014	0.014
-544.281	84.528	-0.198	0.217
-543.266	492.572	-0.060	-0.137
-542.252	77.951	0.288	-0.307
-541.237	112.756	0.079	-0.096
-540.223	-64.621	0.223	-0.090
-539.208	487.900	-0.014	0.032
-538.193	-161.784	-0.322	0.016
-537.179	-47.962	0.228	-0.110
-536.164	16.746	0.231	0.182
-535.150	-89.097	-0.061	-0.018
-534.135	536.733	0.098	0.231
-533.121	460.080	-0.048	0.108
-532.106	126.112	-0.077	0.097
-531.091	-200.000	0.001	0.098
-530.077	118.359	-0.256	0.315
-529.062	-200.000	0.007	-0.323
-528.048	753.707	-0.035	-0.094
-527.033	736.904	-0.013	-0.035
-526.018	-90.759	0.132	0.038
-525.004	-47.185	-0.093	0.045
-523.989	42.630	0.237	0.215
-522.975	24.623	-0.297	0.245
-521.960	-200.000	0.047	0.382
-520.945	-200.000	-0.000	-0.071
-519.931	592.365	-0.033	-0.080
-518.916	-200.000	-0.030	-0.164
-517.902	-129.568	-0.458	-0.063
-516.887	-200.000	-0.052	-0.232
-515.872	20.902	0.056	0.045
-514.858	360.555	-0.147	-0.294
-513.843	379.165	0.080	-0.164
-512.829	-87.072	0.083	0.025
-511.814	152.924	-0.222	-0.303
-510.799	-81.956	-0.346	-0.113
-509.785	800.000	-0.035	0.124
-508.770	-31.945	-0.149	-0.083
-507.756	73.876	-0.149	0.155
-506.741	673.394	0.040	0.102
-505.726	118.072	-0.051	0.062
-504.712	-66.043	0.187	0.074
-503.697	52.532	0.301	0.286
-502.683	-72.627	0.119	-0.044
-501.668	800.000	0.121	-0.375
-500.653	-82.851	0.259	-0.083
-499.639	-82.174	0.348	0.113
-498.624	-98.800	-0.163	-0.041
-497.610	41.389	0.150	0.135
-496.595	-50.382	0.345	-0.162
-495.581	-49.684	-0.204	-0.097
-494.566	156.533	0.118	0.162
-493.551	-62.290	0.200	-0.083
-492.537	-91.921	-0.157	-0.044
-491.522	-200.000	0.024	0.194
-490.508	-108.746	0.247	-0.053
-489.493	-114.865	-0.260	0.049
-488.478	800.000	-0.077	-0.277
-487.464	336.360	-0.195	-0.376
-486.449	-75.747	0.086	0.030
-485.435	232.317	0.199	-0.325
-484.420	59.139	-0.038	-0.037
-483.405	-147.329	-0.377	-0.032
-482.391	450.242	0.082	0.179
-481.376	-47.079	-0.103	0.050
-480.362	189.997	-0.088	-0.131
-479.347	106.544	-0.079	-0.093
-478.332	-200.000	0.027	0.162
-477.318	-127.420	0.445	0.064
-476.303	0.694	-0.213	-0.152
-475.289	800.000	-0.013	-0.044
-474.274	-178.850	-0.300	-0.007
-473.259	800.000	-0.065	0.222
-472.245	470.471	-0.030	0.068
-471.230	90.696	-0.054	0.061
-470.216	-45.654	0.168	0.082
-469.201	-200.000	-0.049	-0.329
-468.186	-188.704	-0.228	-0.003
-467.172	-82.276	0.087	0.028
-466.157	-72.234	0.043	0.016
-465.143	800.000	-0.133	-0.412
-464.128	-28.484	-0.132	0.076
-463.113	-62.933	-0.045	-0.019
-462.099	-200.000	-0.003	0.294
-461.084	-36.594	-0.244	-0.130
-460.070	-8.234	0.277	-0.186
-459.055	-151.743	-0.193	0.014
-458.040	531.518	0.070	0.165
-457.026	800.000	-0.041	-0.160
-456.011	17.886	0.193	0.153
-454.997	-97.611	0.222	0.057
-453.982	65.523	-0.109	-0.110
-452.968	-200.000	0.001	-0.249
-451.953	-82.277	-0.252	0.081
-450.938	-59.775	-0.201	-0.086
-449.924	-129.709	-0.248	-0.034
-448.909	121.921	-0.051	0.063
-447.895	-52.350	0.169	-0.078
-446.880	246.692	0.239	-0.402
-445.865	621.564	0.067	0.168
-444.851	-90.629	-0.191	-0.055
-443.836	800.000	0.065	0.261
-442.822	731.360	-0.082	0.218
-441.807	364.607	0.193	0.386
-440.792	75.878	-0.128	-0.134
-439.778	-180.246	-0.141	-0.003
-438.763	-162.638	-0.413	0.020
-437.749	-2.539	0.085	-0.059
-436.734	-103.171	-0.367	-0.086
-435.719	-179.263	-0.200	-0.004
-434.705	9.631	-0.166	0.125
-433.690	-129.571	-0.102	-0.014
-432.676	-89.061	0.178	-0.052
-431.661	0.872	-0.305	-0.217
-430.646	30.255	0.042	0.035
-429.632	147.452	0.050	0.066
-428.617	94.575	0.131	-0.148
-427.603	-200.000	0.039	-0.368
-426.588	-200.000	0.009	-0.095
-425.573	-200.000	-0.019	-0.280
-424.559	74.275	-0.103	0.107
-423.544	-200.000	0.003	0.209
-422.530	-200.000	-0.027	-0.213
-421.515	-115.289	-0.118	-0.022
-420.500	-139.124	-0.292	0.031
-419.486	800.000	-0.071	-0.202
-418.471	-9.708	0.292	0.193
-417.457	248.643	0.080	-0.135
-416.442	125.856	-0.024	0.031
-415.428	-38.260	-0.127	0.067
-414.413	20.292	-0.227	0.182
-413.398	-200.000	-0.035	-0.227
-412.384	-200.000	-0.007	0.331
-411.369	39.574	0.129	0.115
-410.355	30.889	0.222	0.189
-409.340	800.000	0.016	-0.062
-408.325	735.395	-0.093	0.248
-407.311	-179.920	0.204	0.004
-406.296	149.303	0.079	-0.106
-405.282	-153.692	-0.206	-0.014
-404.267	-82.493	0.080	-0.026
-403.252	623.524	0.126	-0.314
-402.238	-29.930	0.457	-0.258
-401.223	-200.000	-0.022	0.317
-400.209	20.432	-0.393	0.315
-399.194	800.000	0.019	0.074
-398.179	-130.694	0.238	0.032
-397.165	137.924	-0.262	-0.340
-396.150	95.393	0.176	-0.199
-395.136	-20.285	0.188	-0.115
-394.121	-200.000	-0.003	0.231
-393.106	-200.000	-0.013	0.089
-392.092	-69.856	-0.148	-0.056
-391.077	-200.000	0.033	0.290
-390.063	-25.383	0.278	0.163
-389.048	-82.353	-0.213	-0.069
-388.033	11.894	0.103	0.079
-387.019	-41.807	-0.157	0.080
-386.004	-2.957	-0.333	0.231
-384.990	320.714	-0.024	-0.046
-383.975	-17.983	0.080	-0.050
-382.960	167.845	-0.194	0.273
-381.946	-76.542	0.297	0.104
-380.931	-159.706	0.062	-0.003
-379.917	-148.555	0.233	0.019
-378.902	-63.944	-0.231	0.093
-377.888	98.576	0.180	-0.206
-376.873	33.089	-0.234	-0.201
-375.858	-86.543	0.176	-0.054
-374.844	341.503	-0.101	0.196
-373.829	-200.000	-0.036	-0.194
-372.815	85.974	0.198	0.216
-371.800	-165.827	-0.163	-0.007
-370.785	-183.590	0.176	0.003
-369.771	-141.052	-0.484	0.049
-368.756	-117.095	-0.072	0.013
-367.742	-131.633	-0.210	0.027
-366.727	-62.644	0.248	-0.102
-365.712	310.006	0.075	0.139
-364.698	-148.569	-0.295	-0.024
-363.683	79.174	0.342	-0.363
-362.669	111.519	-0.142	-0.170
-361.654	-200.000	-0.009	0.157
-360.639	28.063	0.139	0.116
-359.625	-68.136	0.134	-0.052
-358.610	-12.625	0.400	-0.258
-357.596	53.423	-0.139	-0.132
-356.581	-200.000	0.051	0.308
-355.566	93.743	-0.191	-0.215
-354.552	-114.195	-0.180	0.034
-353.537	-4.230	-0.137	-0.094
-352.523	-200.000	0.007	0.147
-351.508	113.736	0.221	-0.266
-350.493	175.904	-0.111	-0.160
-349.479	87.480	0.115	0.126
-348.464	800.000	-0.094	0.299
-347.450	-200.000	-0.001	-0.112
-346.435	364.716	-0.139	0.277
-345.420	658.168	0.071	0.182
-344.406	-63.189	0.051	0.021
-343.391	141.248	0.205	0.269
-342.377	800.000	-0.064	0.252
-341.362	-4.734	-0.172	-0.117
-340.348	-161.362	0.258	0.013
-339.333	-200.000	-0.007	-0.147
-338.318	742.935	-0.058	-0.155
-337.304	566.914	0.119	-0.286
-336.289	159.749	0.266	-0.367
-335.275	60.831	0.024	-0.024
-334.260	-200.000	-0.011	-0.241
-333.245	-200.000	-0.010	-0.082
-332.231	246.229	0.096	0.161
-331.216	-200.000	-0.023	0.180
-330.202	184.191	0.127	0.186
-329.187	800.000	-0.065	0.248
-328.172	282.508	-0.124	-0.220
-327.158	-187.916	0.137	-0.002
-326.143	-46.890	-0.129	0.062
-325.129	712.279	-0.036	-0.094
-324.114	100.601	-0.166	0.191
-323.099	-43.645	0.194	-0.097
-322.085	174.525	0.244	0.348
-321.070	543.319	0.101	0.238
-320.056	439.317	-0.154	0.333
-319.041	800.000	0.053	-0.209
-318.026	186.239	0.168	0.247
-317.012	48.532	0.311	-0.288
-315.997	-49.733	-0.269	0.127
-314.983	-43.798	0.133	0.066
-313.968	800.000	-0.050	0.203
-312.953	-67.947	0.278	-0.107
-311.939	800.000	0.056	0.176
-310.924	241.641	0.163	0.270
-309.910	430.578	-0.123	0.263
-308.895	800.000	0.057	-0.180
-307.880	58.919	-0.006	-0.006
-306.866	162.050	-0.235	-0.326
-305.851	290.070	-0.191	0.342
-304.837	-200.000	0.321	0.000
-303.822	800.000	-0.106	-0.384
-302.807	192.649	-0.055	-0.082
-301.793	-24.884	-0.277	0.163
-300.778	117.641	0.126	0.154
-299.764	94.119	-0.143	0.161
-298.749	268.181	-0.023	0.039
-297.735	16.877	-0.255	-0.200
-296.720	88.893	-0.204	-0.224
-295.705	17.377	0.092	-0.072
-294.691	-141.864	0.088	-0.009
-293.676	-200.000	0.071	0.450
-292.662	452.750	0.046	-0.100
-291.647	-143.555	-0.147	0.014
-290.632	-152.424	0.290	0.021
-289.618	34.971	-0.353	0.305
-288.603	91.060	0.065	0.072
-287.589	-44.497	0.184	0.091
-286.574	-40.921	0.156	-0.080
-285.559	-57.087	-0.411	-0.179
-284.545	293.074	0.076	0.137
-283.530	303.935	0.086	-0.157
-282.516	32.306	0.112	-0.095
-281.501	396.251	0.249	0.513
-280.486	-200.000	0.060	0.267
-279.472	-200.000	0.019	0.089
-278.457	94.030	0.072	-0.080
-277.443	148.300	0.267	-0.356
-276.428	-16.147	-0.246	0.154
-275.413	-200.000	-0.034	0.168
-274.399	72.050	-0.144	-0.148
-273.384	457.950	-0.135	0.297
-272.370	88.526	0.160	-0.176
-271.355	183.746	0.154	-0.224
-270.340	-77.318	0.177	0.061
-269.326	438.062	-0.052	0.111
-268.311	23.342	-0.058	0.047
-267.297	-4.679	0.276	-0.188
-266.282	-200.000	0.026	-0.199
-265.267	-200.000	-0.027	0.173
-264.253	-133.546	-0.262	-0.032
-263.238	34.650	0.209	0.180
-262.224	-169.177	0.159	0.006
-261.209	514.247	0.098	-0.225
-260.195	96.734	0.269	0.304
-259.180	-68.862	-0.025	0.009
-258.165	-200.000	-0.069	0.330
-257.151	-48.994	-0.088	0.041
-256.136	-73.818	0.055	0.020
-255.122	-112.133	0.128	-0.025
-254.107	662.903	0.074	-0.189
-253.092	330.982	0.221	0.419
-252.078	3.313	0.116	0.083
-251.063	800.000	-0.084	-0.262
-250.049	-54.447	-0.022	0.010
-249.034	-113.909	-0.179	0.034
-248.019	177.008	0.233	0.335
-247.005	-187.931	-0.334	-0.004
-245.990	280.537	0.036	0.063
-244.976	426.479	0.114	0.243
-243.961	-200.000	-0.007	0.141
-242.946	-46.368	-0.155	-0.075
-241.932	800.000	0.072	0.280
-240.917	-21.776	-0.257	-0.154
-239.903	800.000	0.071	-0.264
-238.888	-128.392	0.028	0.004
-237.873	-54.629	0.079	0.035
-236.859	253.246	0.162	0.272
-235.844	-16.445	0.303	-0.190
-234.830	-95.265	-0.115	0.031
-233.815	-200.000	-0.006	0.168
-232.800	-200.000	-0.010	-0.163
-231.786	800.000	-0.063	-0.221
-230.771	-109.206	0.136	-0.028
-229.757	-52.148	-0.318	0.145
-228.742	127.660	0.011	0.013
-227.727	-29.803	0.065	0.036
-226.713	275.323	0.077	0.135
-225.698	-85.525	-0.290	-0.089
-224.684	-200.000	0.021	0.141
-223.669	-146.661	-0.094	-0.008
-222.655	-200.000	0.016	-0.276
-221.640	-200.000	0.006	-0.066
-220.625	-89.378	0.132	-0.038
-219.611	-200.000	-0.010	-0.209
-218.596	51.945	-0.225	0.211
-217.582	215.072	-0.194	0.303
-216.567	105.436	0.350	0.408
-215.552	264.914	-0.043	-0.074
-214.538	121.449	-0.070	0.086
-213.523	4.902	-0.226	-0.164
-212.509	168.959	-0.183	0.256
-211.494	-24.392	-0.119	0.070
-210.479	-6.620	0.128	-0.086
-209.465	-158.651	0.270	-0.015
-208.450	478.129	0.026	-0.057
-207.436	-107.020	0.179	-0.039
-206.421	43.354	-0.192	-0.173
-205.406	1.526	-0.273	-0.194
-204.392	73.592	0.207	-0.213
-203.377	-72.609	-0.312	0.113
-202.363	292.136	-0.056	-0.101
-201.348	-200.000	-0.012	0.271
-200.333	-154.186	-0.153	-0.010
-199.319	-38.287	0.251	-0.131
-198.304	154.952	-0.201	-0.272
-197.290	-144.636	-0.368	0.033
-196.275	-49.967	-0.202	-0.094
-195.260	-91.723	-0.213	-0.060
-194.246	-13.148	-0.243	0.155
-193.231	383.439	0.135	-0.273
-192.217	273.764	0.095	-0.165
-191.202	-200.000	-0.009	0.063
-190.187	24.429	-0.179	-0.146
-189.173	-200.000	0.032	0.228
-188.158	326.173	0.150	-0.282
-187.144	-55.818	0.090	0.040
-186.129	800.000	0.042	-0.170
-185.114	-137.717	-0.054	-0.006
-184.100	174.140	0.159	-0.225
-183.085	41.231	-0.182	0.162
-182.071	800.000	-0.075	-0.277
-181.056	449.216	0.107	-0.233
-180.042	800.000	-0.048	-0.167
-179.027	231.160	-0.126	-0.202
-178.012	108.378	0.244	-0.286
-176.998	-109.054	0.230	-0.048
-175.983	27.210	-0.238	-0.196
-174.969	30.341	-0.179	0.150
-173.954	657.405	-0.070	-0.178
-172.939	800.000	0.132	0.407
-171.925	800.000	0.085	0.291
-170.910	202.160	-0.114	0.172
-169.896	429.727	0.093	-0.198
-168.881	363.541	-0.127	-0.251
-167.866	355.090	-0.062	0.122
-166.852	-33.732	0.114	-0.062
-165.837	228.452	-0.072	0.115
-164.823	173.671	-0.114	0.162
-163.808	402.440	0.203	0.420
-162.793	800.000	-0.021	-0.064
-161.779	179.963	-0.113	-0.163
-160.764	297.030	0.048	0.087
-159.750	49.686	0.036	0.033
-158.735	480.362	-0.197	-0.438
-157.720	68.898	0.231	-0.233
-156.706	139.220	0.083	0.108
-155.691	-148.040	-0.142	0.012
-154.677	260.205	0.029	0.050
-153.662	579.123	-0.133	-0.319
-152.647	800.000	-0.052	-0.161
-151.633	130.600	-0.161	0.203
-150.618	314.014	-0.099	-0.182
-149.604	-200.000	-0.011	0.180
-148.589	-200.000	-0.000	-0.046
-147.574	-200.000	-0.004	0.469
-146.560	105.810	0.026	0.030
-145.545	-200.000	0.037	0.215
-144.531	-120.890	0.263	-0.043
-143.516	-124.609	0.364	-0.055
-142.502	457.441	-0.184	-0.403
-141.487	-200.000	0.013	-0.063
-140.472	262.999	0.086	0.147
-139.458	-52.914	0.441	0.199
-138.443	800.000	-0.019	0.055
-137.429	800.000	0.014	0.060
-136.414	325.651	0.134	0.252
-135.399	341.634	0.159	-0.306
-134.385	24.078	0.131	0.106
-133.370	288.348	-0.098	-0.173
-132.356	-200.000	-0.082	-0.391
-131.341	-109.892	0.235	-0.048
-130.326	-200.000	0.040	-0.290
-129.312	-200.000	0.036	0.192
-128.297	146.946	0.173	-0.228
-127.283	-93.774	0.145	-0.039
-126.268	503.455	0.101	-0.229
-125.253	-200.000	0.005	0.105
-124.239	263.684	0.096	0.164
-123.224	253.714	-0.143	-0.239
-122.210	-72.085	0.299	-0.109
