DTS Sentinel unit serial number:	SN413079Multiplexer serial number:	ORYXHardware model number:	OX4-SRSoftware version number:	ORYX F/W v4.00 Oryx Data Collector v3.7.2.0data status	okinstallation	princeton_trtdifferential loss correction	single-endedforward channel	channel 2reverse channel	N/Adate	2019/09/18time	04:47:35forward acquisition time	60.00reverse acquisition time	0.00gamma	496.2192k internal	0.2348k external	0.2348temperature offset calibration	0.9981default loss term (dB/km)	0.3790temperature slope calibration	1.0000multiplexer offset coefficient	1.0000multiplexer slope coefficient	1.0000fibre end	0.00T internal ref (°C)	23.44T ext. ref 1 (°C)	0.19T ext. ref 2 (°C)	17.90length (m)	temperature (°C)	Stokes	anti-Stokes-747.200	-200.000	-0.008	0.219
-746.185	-133.708	-0.402	-0.050
-745.171	587.971	-0.046	0.112
-744.156	-200.000	-0.001	0.027
-743.142	-151.829	-0.274	0.020
-742.127	-115.358	-0.288	-0.054
-741.112	-200.000	0.032	-0.156
-740.098	800.000	-0.135	0.506
-739.083	111.502	0.216	-0.260
-738.069	-200.000	-0.095	0.475
-737.054	-200.000	0.020	0.205
-736.039	110.110	-0.166	0.199
-735.025	-11.458	0.035	-0.023
-734.010	-114.605	-0.246	-0.047
-732.996	-29.679	0.338	0.193
-731.981	23.281	-0.129	-0.105
-730.966	-124.423	0.107	0.017
-729.952	-200.000	-0.074	-0.447
-728.937	-70.404	-0.109	0.041
-727.923	605.097	-0.037	-0.091
-726.908	-61.379	-0.154	-0.065
-725.894	74.217	-0.412	-0.432
-724.879	-40.733	0.200	-0.104
-723.864	-200.000	0.038	0.221
-722.850	-113.536	0.233	-0.045
-721.835	-66.897	0.080	0.032
-720.821	37.234	-0.052	0.046
-719.806	-12.233	-0.142	-0.093
-718.791	8.638	-0.164	-0.123
-717.777	-163.444	0.132	0.006
-716.762	74.668	-0.179	-0.188
-715.748	-51.584	0.111	-0.052
-714.733	-98.434	-0.141	0.036
-713.718	443.768	-0.056	-0.123
-712.704	-26.563	-0.292	-0.171
-711.689	-61.647	0.026	0.011
-710.675	10.645	-0.097	-0.074
-709.660	66.014	0.079	0.080
-708.645	53.805	0.041	-0.039
-707.631	800.000	-0.082	0.303
-706.616	-95.788	-0.316	-0.084
-705.602	-200.000	-0.003	-0.334
-704.587	-151.814	-0.505	-0.037
-703.572	-200.000	0.009	-0.451
-702.558	722.362	-0.110	-0.293
-701.543	42.561	-0.129	-0.118
-700.529	-58.114	-0.316	0.137
-699.514	59.319	-0.202	0.198
-698.499	153.908	-0.087	-0.119
-697.485	-6.250	0.243	-0.165
-696.470	554.635	-0.052	0.125
-695.456	-80.597	-0.399	-0.132
-694.441	-200.000	-0.001	0.118
-693.426	-200.000	-0.058	-0.329
-692.412	62.517	0.172	-0.172
-691.397	515.281	-0.013	-0.031
-690.383	268.805	0.210	0.367
-689.368	-200.000	-0.269	-0.001
-688.354	270.864	-0.144	-0.253
-687.339	-200.000	0.005	-0.055
-686.324	239.059	0.074	0.123
-685.310	156.208	0.095	-0.130
-684.295	84.003	0.253	-0.275
-683.281	-51.077	-0.159	0.074
-682.266	145.654	-0.208	-0.277
-681.251	-83.716	-0.137	-0.044
-680.237	261.274	-0.181	0.313
-679.222	-27.209	-0.098	0.057
-678.208	83.635	-0.175	-0.190
-677.193	-200.000	-0.008	0.178
-676.178	-200.000	0.007	-0.139
-675.164	-108.702	-0.175	-0.037
-674.149	40.900	0.383	0.345
-673.135	109.744	-0.136	-0.163
-672.120	-7.322	-0.043	-0.029
-671.105	35.743	0.292	-0.255
-670.091	-200.000	-0.004	-0.168
-669.076	80.430	-0.055	0.059
-668.062	-16.555	-0.164	-0.103
-667.047	57.373	-0.400	0.389
-666.032	109.965	-0.151	-0.180
-665.018	-52.491	0.230	-0.106
-664.003	-200.000	-0.029	-0.288
-662.989	-200.000	0.012	-0.384
-661.974	95.149	0.121	-0.137
-660.959	-200.000	-0.021	-0.109
-659.945	800.000	-0.099	0.344
-658.930	800.000	0.030	0.100
-657.916	-94.298	-0.078	0.021
-656.901	-138.093	0.346	0.038
-655.886	-127.574	-0.239	-0.034
-654.872	-5.505	0.037	-0.025
-653.857	27.405	-0.144	-0.120
-652.843	-75.834	0.148	-0.052
-651.828	-200.000	0.051	0.388
-650.814	-10.480	0.150	-0.099
-649.799	-200.000	0.024	0.106
-648.784	-200.000	-0.027	-0.127
-647.770	593.157	-0.100	0.245
-646.755	54.509	0.124	-0.119
-645.741	-200.000	-0.011	-0.286
-644.726	-200.000	0.022	-0.135
-643.711	-167.382	0.219	0.009
-642.697	262.964	-0.081	-0.139
-641.682	282.047	0.020	-0.036
-640.668	-200.000	-0.153	0.000
-639.653	30.074	0.217	0.184
-638.638	-79.259	-0.286	0.097
-637.624	-92.214	-0.404	0.114
-636.609	-121.235	0.434	-0.072
-635.595	-200.000	0.031	0.191
-634.580	-36.892	-0.221	-0.118
-633.565	-76.315	-0.318	0.111
-632.551	54.820	0.069	0.066
-631.536	800.000	-0.030	0.086
-630.522	155.953	-0.051	0.070
-629.507	140.496	0.188	-0.246
-628.492	-35.996	-0.106	-0.057
-627.478	-48.607	-0.195	0.093
-626.463	-158.215	0.233	0.014
-625.449	-147.253	0.131	-0.011
-624.434	-103.098	0.057	-0.013
-623.419	365.594	-0.151	0.302
-622.405	407.448	-0.077	0.163
-621.390	333.457	-0.127	0.245
-620.376	-92.752	-0.031	-0.009
-619.361	133.577	-0.056	-0.072
-618.346	-58.651	-0.265	0.114
-617.332	-200.000	0.001	-0.019
-616.317	538.177	0.111	0.262
-615.303	205.261	0.077	0.118
-614.288	-75.184	-0.197	0.070
-613.273	-200.000	0.010	0.122
-612.259	116.153	0.103	-0.125
-611.244	102.351	-0.126	-0.146
-610.230	-200.000	-0.000	0.159
-609.215	-200.000	0.035	-0.300
-608.201	-12.195	-0.219	-0.142
-607.186	231.408	-0.236	0.384
-606.171	340.012	0.075	0.146
-605.157	-77.404	-0.139	-0.048
-604.142	800.000	-0.055	0.190
-603.128	-200.000	-0.021	-0.360
-602.113	-200.000	-0.014	-0.379
-601.098	-71.227	-0.182	-0.068
-600.084	93.231	0.192	0.215
-599.069	139.108	0.148	0.194
-598.055	242.648	-0.189	0.315
-597.040	40.871	0.292	0.262
-596.025	395.266	-0.157	0.326
-595.011	139.375	-0.242	-0.316
-593.996	153.292	-0.059	-0.081
-592.982	-36.243	-0.134	0.072
-591.967	-200.000	0.041	0.183
-590.952	-124.554	-0.243	0.037
-589.938	69.057	-0.066	0.067
-588.923	15.577	0.082	-0.064
-587.909	-57.474	-0.295	-0.129
-586.894	86.600	0.283	-0.310
-585.879	218.093	-0.128	0.202
-584.865	125.276	-0.083	0.104
-583.850	642.413	-0.011	-0.027
-582.836	304.355	-0.096	-0.178
-581.821	-142.932	0.321	0.031
-580.806	-141.044	-0.352	-0.036
-579.792	36.760	-0.191	0.167
-578.777	-200.000	-0.044	-0.217
-577.763	306.857	-0.021	0.038
-576.748	-10.643	0.110	-0.072
-575.733	-106.121	0.219	0.049
-574.719	58.157	0.152	0.148
-573.704	-4.214	-0.258	-0.177
-572.690	112.506	-0.070	-0.084
-571.675	594.493	-0.054	0.133
-570.661	-63.841	0.230	0.094
-569.646	-25.858	-0.047	-0.027
-568.631	-161.598	-0.318	0.016
-567.617	57.158	0.192	0.185
-566.602	-12.741	-0.181	0.117
-565.588	-200.000	-0.007	-0.436
-564.573	800.000	0.048	0.203
-563.558	518.065	0.186	0.432
-562.544	-111.812	0.243	-0.049
-561.529	-128.856	0.268	-0.037
-560.515	-200.000	-0.274	0.000
-559.500	-7.613	-0.265	0.177
-558.485	-199.296	0.365	-0.002
-557.471	-117.044	-0.095	-0.017
-556.456	704.776	-0.050	0.130
-555.442	-64.296	0.269	-0.109
-554.427	44.109	-0.257	-0.234
-553.412	-59.458	0.182	0.078
-552.398	-92.778	0.296	-0.082
-551.383	-72.330	-0.251	-0.092
-550.369	-68.245	0.274	0.106
-549.354	-89.907	0.208	0.060
-548.339	3.408	0.176	-0.127
-547.325	-93.640	-0.117	0.032
-546.310	-95.658	-0.260	-0.069
-545.296	-136.808	0.283	-0.032
-544.281	-200.000	-0.056	-0.265
-543.266	-200.000	-0.023	-0.105
-542.252	-30.312	-0.147	-0.083
-541.237	-151.105	-0.227	-0.017
-540.223	-85.090	-0.165	0.051
-539.208	-71.041	-0.299	-0.112
-538.193	-200.000	0.023	-0.201
-537.179	61.486	-0.154	0.152
-536.164	-135.928	0.058	-0.007
-535.150	-200.000	0.040	0.281
-534.135	-200.000	-0.001	0.221
-533.121	-200.000	-0.030	-0.294
-532.106	97.320	-0.088	-0.100
-531.091	226.329	0.113	-0.182
-530.077	227.080	-0.111	-0.178
-529.062	-200.000	0.009	-0.263
-528.048	-169.541	0.136	0.005
-527.033	403.928	0.034	0.071
-526.018	-200.000	0.044	-0.229
-525.004	-107.186	-0.291	-0.063
-523.989	69.819	-0.239	0.245
-522.975	123.526	-0.152	0.189
-521.960	-112.128	-0.077	0.015
-520.945	13.521	0.250	-0.192
-519.931	412.913	0.143	0.301
-518.916	-200.000	-0.015	0.100
-517.902	93.411	-0.150	0.169
-516.887	79.732	0.205	0.218
-515.872	-200.000	-0.016	0.398
-514.858	544.706	-0.065	-0.153
-513.843	-70.141	0.262	-0.099
-512.829	482.349	-0.095	0.214
-511.814	-118.350	-0.164	-0.029
-510.799	800.000	0.064	-0.188
-509.785	-200.000	-0.168	0.000
-508.770	280.647	0.100	0.178
-507.756	-138.739	-0.397	0.043
-506.741	63.090	0.090	-0.089
-505.726	-32.687	0.134	0.074
-504.712	53.227	-0.108	-0.102
-503.697	-77.250	0.194	-0.067
-502.683	201.810	-0.210	0.320
-501.668	-200.000	-0.029	-0.133
-500.653	-99.898	0.388	-0.096
-499.639	101.154	0.115	0.133
-498.624	37.810	-0.312	0.274
-497.610	-200.000	-0.022	0.153
-496.595	35.201	0.240	0.208
-495.581	800.000	-0.061	0.211
-494.566	59.369	0.160	-0.156
-493.551	418.914	0.058	-0.122
-492.537	-65.211	-0.236	0.094
-491.522	-200.000	-0.036	0.180
-490.508	-200.000	0.049	-0.238
-489.493	-67.079	-0.164	-0.064
-488.478	26.938	0.082	0.068
-487.464	-200.000	0.124	-0.000
-486.449	-108.824	0.236	0.050
-485.435	-200.000	-0.004	-0.118
-484.420	-92.676	-0.201	0.056
-483.405	-200.000	0.005	0.183
-482.391	-34.293	0.239	-0.130
-481.376	237.878	-0.240	-0.393
-480.362	-200.000	-0.020	-0.188
-479.347	-16.540	0.144	-0.090
-478.332	800.000	0.061	-0.206
-477.318	-78.729	-0.149	0.050
-476.303	800.000	-0.071	-0.194
-475.289	-81.931	0.283	0.091
-474.274	-84.624	0.218	0.068
-473.259	-200.000	0.014	0.070
-472.245	-151.781	-0.389	0.028
-471.230	-35.131	-0.034	0.018
-470.216	267.039	0.085	0.147
-469.201	-86.130	-0.184	0.056
-468.186	213.751	-0.107	-0.167
-467.172	-175.412	0.407	0.011
-466.157	84.386	0.114	-0.123
-465.143	-89.544	0.210	0.061
-464.128	102.429	-0.099	-0.114
-463.113	239.461	0.263	0.433
-462.099	-200.000	0.009	0.181
-461.084	-110.032	0.121	0.025
-460.070	197.258	-0.191	-0.289
-459.055	800.000	-0.037	0.103
-458.040	800.000	0.034	-0.113
-457.026	156.903	0.066	-0.090
-456.011	800.000	0.099	-0.286
-454.997	800.000	-0.106	-0.336
-453.982	691.307	0.078	0.201
-452.968	310.220	-0.142	-0.262
-451.953	-83.451	0.099	-0.031
-450.938	800.000	0.052	0.153
-449.924	-52.739	-0.203	0.092
-448.909	-108.741	0.129	-0.027
-447.895	119.413	-0.109	0.133
-446.880	316.385	0.081	-0.151
-445.865	110.126	-0.170	-0.202
-444.851	-33.524	-0.129	-0.070
-443.836	-92.566	0.112	-0.031
-442.822	24.025	-0.134	-0.109
-441.807	210.287	0.183	0.283
-440.792	-72.578	-0.117	0.043
-439.778	-112.995	0.378	0.074
-438.763	-200.000	-0.046	-0.282
-437.749	800.000	-0.107	-0.306
-436.734	247.734	-0.107	0.178
-435.719	-137.427	0.297	-0.033
-434.705	-56.977	0.207	-0.090
-433.690	152.586	0.184	-0.249
-432.676	-140.249	-0.326	0.034
-431.661	800.000	0.107	0.426
-430.646	466.018	0.126	0.279
-429.632	182.491	-0.214	-0.312
-428.617	-43.382	0.072	0.036
-427.603	-200.000	0.038	0.230
-426.588	800.000	-0.031	-0.107
-425.573	-200.000	0.041	0.231
-424.559	800.000	0.028	0.087
-423.544	36.403	-0.158	0.137
-422.530	424.407	-0.116	-0.246
-421.515	-170.993	-0.131	-0.004
-420.500	279.253	0.133	-0.234
-419.486	21.314	-0.133	-0.107
-418.471	449.640	0.133	0.290
-417.457	273.310	0.191	0.334
-416.442	-42.762	0.337	0.169
-415.428	650.285	0.058	0.146
-414.413	-200.000	0.014	-0.175
-413.398	800.000	-0.089	0.277
-412.384	360.987	0.015	0.031
-411.369	-200.000	0.015	-0.332
-410.355	800.000	0.071	0.292
-409.340	47.240	0.327	-0.300
-408.325	32.163	-0.466	-0.396
-407.311	71.563	0.134	-0.138
-406.296	-200.000	-0.003	-0.251
-405.282	195.512	-0.197	0.296
-404.267	-200.000	0.079	-0.617
-403.252	-77.355	0.257	-0.088
-402.238	-113.654	-0.197	-0.038
-401.223	-200.000	-0.011	0.174
-400.209	359.854	0.148	-0.292
-399.194	19.872	-0.195	0.155
-398.179	192.606	-0.160	-0.238
-397.165	-41.847	-0.307	0.155
-396.150	-28.220	0.126	0.072
-395.136	350.583	0.088	0.172
-394.121	95.391	0.268	-0.301
-393.106	-135.213	-0.326	-0.039
-392.092	108.316	-0.188	-0.222
-391.077	-200.000	-0.006	0.069
-390.063	-12.659	0.136	0.088
-389.048	-38.373	-0.170	0.089
-388.033	100.484	-0.259	-0.296
-387.019	-39.355	-0.040	-0.021
-386.004	-200.000	-0.010	-0.102
-384.990	-194.489	0.013	0.000
-383.975	800.000	0.036	0.153
-382.960	487.430	-0.194	-0.437
-381.946	-200.000	-0.022	0.135
-380.931	150.831	-0.158	0.212
-379.917	800.000	-0.037	0.113
-378.902	-16.632	-0.022	-0.014
-377.888	90.428	-0.150	0.165
-376.873	-162.924	-0.055	-0.003
-375.858	486.842	-0.016	-0.036
-374.844	-147.804	-0.142	-0.012
-373.829	-98.293	0.244	-0.062
-372.815	-199.259	-0.180	0.001
-371.800	376.129	-0.141	0.283
-370.785	20.842	0.154	0.123
-369.771	800.000	-0.024	-0.091
-368.756	690.264	-0.052	0.135
-367.742	-129.416	0.241	-0.033
-366.727	-50.700	0.040	-0.018
-365.712	10.786	0.245	-0.184
-364.698	800.000	-0.052	-0.173
-363.683	134.960	-0.196	0.250
-362.669	269.034	-0.105	0.181
-361.654	23.821	0.108	-0.088
-360.639	273.353	0.173	0.301
-359.625	8.064	0.290	0.214
-358.610	234.816	-0.113	-0.184
-357.596	800.000	-0.006	-0.019
-356.581	-12.806	0.233	0.149
-355.566	42.840	0.390	-0.350
-354.552	-121.169	-0.203	-0.033
-353.537	-82.000	-0.326	-0.105
-352.523	-138.808	-0.391	0.042
-351.508	-121.602	0.181	-0.030
-350.493	-200.000	0.051	-0.337
-349.479	232.855	0.007	0.012
-348.464	-127.392	0.205	0.029
-347.450	126.456	0.139	0.173
-346.435	-72.013	0.135	-0.049
-345.420	-101.258	-0.495	0.119
-344.406	-200.000	0.012	-0.175
-343.391	68.297	-0.180	-0.181
-342.377	42.508	-0.105	-0.094
-341.362	-105.385	0.170	0.038
-340.348	-50.229	0.155	-0.072
-339.333	-200.000	0.006	-0.200
-338.318	-107.865	-0.237	-0.051
-337.304	49.737	-0.060	0.056
-336.289	-13.091	0.327	0.209
-335.275	-135.290	0.182	0.021
-334.260	40.120	-0.129	0.114
-333.245	187.757	0.088	-0.129
-332.231	159.929	-0.162	-0.222
-331.216	800.000	0.055	-0.233
-330.202	-200.000	0.024	-0.180
-329.187	-10.930	-0.190	0.123
-328.172	-105.831	-0.400	0.089
-327.158	800.000	0.078	-0.330
-326.143	503.671	-0.063	-0.142
-325.129	-67.640	0.072	0.028
-324.114	144.385	-0.172	0.226
-323.099	-63.647	0.055	0.022
-322.085	-93.890	0.254	-0.069
-321.070	-199.550	0.207	0.001
-320.056	72.431	0.103	-0.105
-319.041	-19.214	0.256	0.156
-318.026	-44.967	-0.337	0.165
-317.012	-167.545	-0.258	0.010
-315.997	-174.936	0.160	-0.004
-314.983	19.201	-0.076	-0.060
-313.968	-43.414	-0.305	0.151
-312.953	-78.821	0.215	0.072
-311.939	-66.683	-0.288	-0.112
-310.924	-161.442	-0.235	0.012
-309.910	456.841	-0.173	-0.378
-308.895	-200.000	0.005	-0.299
-307.880	800.000	-0.048	0.165
-306.866	63.652	-0.168	0.166
-305.851	-200.000	-0.004	-0.076
-304.837	-96.215	-0.346	-0.090
-303.822	-200.000	0.001	0.068
-302.807	800.000	-0.056	0.228
-301.793	-200.000	0.005	-0.245
-300.778	616.969	0.057	-0.140
-299.764	137.369	0.207	-0.266
-298.749	41.996	-0.121	0.107
-297.735	800.000	0.032	-0.104
-296.720	-200.000	-0.005	0.245
-295.705	-3.206	0.130	0.089
-294.691	-200.000	0.014	-0.095
-293.676	-200.000	0.028	-0.211
-292.662	-200.000	0.018	0.101
-291.647	-25.953	-0.269	0.155
-290.632	-131.805	-0.409	0.053
-289.618	172.715	0.133	-0.187
-288.603	304.946	-0.059	-0.108
-287.589	-200.000	0.026	0.214
-286.574	80.362	0.052	0.055
-285.559	-200.000	0.004	-0.032
-284.545	128.715	-0.197	-0.247
-283.530	381.730	-0.057	0.116
-282.516	164.198	-0.078	-0.109
-281.501	582.832	0.097	-0.234
-280.486	-65.651	-0.228	0.090
-279.472	7.116	0.374	0.274
-278.457	40.514	0.101	-0.090
-277.443	-200.000	0.022	-0.427
-276.428	-51.345	-0.259	0.119
-275.413	-200.000	-0.004	-0.090
-274.399	589.369	-0.074	-0.178
-273.384	-103.063	0.267	0.062
-272.370	60.036	0.253	-0.245
-271.355	38.557	-0.230	-0.202
-270.340	-143.713	0.289	-0.027
-269.326	-5.247	0.042	0.028
-268.311	-94.771	-0.096	0.026
-267.297	-105.141	-0.321	0.072
-266.282	-90.364	0.054	0.015
-265.267	-18.706	-0.162	-0.099
-264.253	800.000	0.066	0.243
-263.238	-200.000	-0.008	-0.155
-262.224	-44.526	-0.027	0.013
-261.209	-200.000	0.012	-0.091
-260.195	-76.343	0.255	0.088
-259.180	-97.038	0.081	0.021
-258.165	13.512	0.127	-0.097
-257.151	-136.849	0.347	0.039
-256.136	-26.727	0.224	0.129
-255.122	48.402	0.190	-0.174
-254.107	-148.664	0.188	-0.015
-253.092	187.939	-0.052	-0.076
-252.078	-100.199	0.200	0.049
-251.063	161.759	-0.127	0.174
-250.049	-192.821	0.068	0.001
-249.034	-50.361	-0.198	-0.092
-248.019	-42.333	0.180	-0.090
-247.005	97.745	0.036	-0.041
-245.990	-127.258	-0.149	-0.021
-244.976	800.000	0.072	0.258
-243.961	-103.990	-0.221	0.050
-242.946	73.130	-0.264	0.271
-241.932	183.158	0.164	-0.237
-240.917	-200.000	-0.005	0.174
-239.903	-100.621	-0.110	-0.027
-238.888	-74.006	0.141	0.050
-237.873	-121.443	0.119	-0.019
-236.859	-138.296	-0.264	0.029
-235.844	231.452	0.035	-0.057
-234.830	-101.814	0.524	-0.124
-233.815	106.735	-0.103	-0.119
-232.800	-38.335	-0.306	0.159
-231.786	-200.000	0.057	-0.392
-230.771	-131.850	-0.190	-0.024
-229.757	-38.393	0.317	0.164
-228.742	-200.000	-0.001	0.025
-227.727	510.591	-0.152	-0.345
-226.713	-12.028	-0.195	0.125
-225.698	-200.000	0.029	0.127
-224.684	-168.213	0.322	0.012
-223.669	800.000	-0.066	0.273
-222.655	-165.907	0.274	0.011
-221.640	-136.439	-0.252	-0.029
-220.625	64.747	0.257	0.253
-219.611	800.000	-0.036	0.115
-218.596	542.939	-0.021	0.050
-217.582	-200.000	0.003	-0.306
-216.567	-48.918	-0.120	-0.056
-215.552	800.000	-0.049	0.163
-214.538	330.137	0.064	-0.120
-213.523	-200.000	0.026	-0.221
-212.509	17.296	0.293	-0.227
-211.494	-200.000	0.029	0.200
-210.479	99.456	-0.051	0.057
-209.465	-168.293	-0.192	-0.007
-208.450	-38.141	0.070	0.036
-207.436	177.510	0.064	-0.091
-206.421	-108.031	-0.232	-0.049
-205.406	27.748	-0.037	-0.030
-204.392	-200.000	0.060	-0.302
-203.377	-200.000	-0.029	0.273
-202.363	-135.919	0.212	0.024
-201.348	51.082	0.238	0.221
-200.333	-194.342	-0.213	0.002
-199.319	330.807	-0.137	0.257
-198.304	-200.000	-0.006	0.053
-197.290	527.003	-0.056	-0.129
-196.275	-200.000	-0.010	0.161
-195.260	-200.000	0.055	0.324
-194.246	-151.262	0.399	-0.029
-193.231	40.860	0.244	-0.215
-192.217	-200.000	0.059	0.258
-191.202	-194.571	0.193	0.001
-190.187	738.651	0.104	-0.274
-189.173	176.039	-0.111	-0.157
-188.158	17.839	0.192	-0.150
-187.144	-118.483	-0.323	0.056
-186.129	-125.106	0.249	-0.037
-185.114	-2.419	0.275	-0.188
-184.100	-122.542	-0.189	0.030
-183.085	74.445	0.091	0.094
-182.071	-200.000	0.002	-0.355
-181.056	-83.716	-0.410	0.128
-180.042	51.319	0.285	0.264
-179.027	113.113	-0.206	0.244
-178.012	-111.117	0.167	-0.033
-176.998	-86.697	0.212	0.064
-175.983	-200.000	0.022	0.102
-174.969	706.825	0.144	0.371
-173.954	328.700	0.040	0.075
-172.939	-181.395	0.324	-0.006
-171.925	-200.000	-0.023	-0.473
-170.910	800.000	-0.025	0.072
-169.896	33.664	0.028	-0.024
-168.881	-200.000	-0.106	0.487
-167.866	31.832	0.236	0.198
-166.852	-200.000	-0.031	0.286
-165.837	163.480	-0.192	0.264
-164.823	-106.492	0.368	0.080
-163.808	497.889	0.063	-0.142
-162.793	-145.515	0.340	-0.030
-161.779	-100.233	0.158	-0.038
-160.764	211.505	0.080	-0.123
-159.750	-43.909	0.029	-0.014
-158.735	-200.000	-0.004	-0.064
-157.720	-26.774	0.152	-0.087
-156.706	800.000	0.091	0.352
-155.691	-200.000	0.001	0.161
-154.677	-83.475	-0.196	-0.061
-153.662	-200.000	-0.002	-0.142
-152.647	-200.000	-0.023	0.246
-151.633	-200.000	0.016	-0.096
-150.618	-200.000	0.013	0.121
-149.604	223.253	-0.205	0.322
-148.589	209.473	-0.163	0.249
-147.574	800.000	0.092	-0.262
-146.560	-200.000	-0.008	-0.051
-145.545	-10.792	0.259	-0.167
-144.531	332.327	0.051	0.095
-143.516	42.231	0.198	-0.175
-142.502	-104.460	0.108	-0.024
-141.487	50.305	-0.195	-0.180
-140.472	75.206	0.178	-0.183
-139.458	108.682	0.266	-0.310
-138.443	-2.478	-0.149	0.102
-137.429	105.407	0.175	0.201
-136.414	-200.000	-0.163	0.000
-135.399	74.615	0.141	-0.145
-134.385	187.286	0.144	0.210
-133.370	-72.216	-0.232	0.084
-132.356	212.813	0.158	0.243
-131.341	800.000	-0.074	0.218
-130.326	800.000	0.022	0.091
-129.312	800.000	0.099	0.280
-128.297	-118.887	0.177	0.030
-127.283	-14.106	0.262	-0.165
-126.268	36.587	0.120	-0.103
-125.253	67.960	0.071	-0.070
-124.239	-67.192	0.128	-0.049
-123.224	71.323	0.086	-0.087
