DTS Sentinel unit serial number:	SN413079Multiplexer serial number:	ORYXHardware model number:	OX4-SRSoftware version number:	ORYX F/W v4.00 Oryx Data Collector v3.7.2.0data status	okinstallation	princeton_trtdifferential loss correction	single-endedforward channel	channel 2reverse channel	N/Adate	2019/09/17time	04:19:34forward acquisition time	60.00reverse acquisition time	0.00gamma	496.2192k internal	0.2327k external	0.2327temperature offset calibration	0.9978default loss term (dB/km)	0.3790temperature slope calibration	1.0000multiplexer offset coefficient	1.0000multiplexer slope coefficient	1.0000fibre end	0.00T internal ref (°C)	29.75T ext. ref 1 (°C)	0.12T ext. ref 2 (°C)	24.24length (m)	temperature (°C)	Stokes	anti-Stokes-747.200	-11.277	-0.188	0.125
-746.185	-50.435	0.114	0.054
-745.171	800.000	0.051	-0.177
-744.156	-15.706	0.136	-0.087
-743.142	-113.033	0.277	0.055
-742.127	-200.000	-0.044	0.239
-741.112	138.879	-0.146	-0.194
-740.098	-25.108	0.165	-0.098
-739.083	-47.093	-0.203	-0.100
-738.069	430.049	-0.140	0.306
-737.054	-77.222	-0.258	0.090
-736.039	-62.594	-0.187	0.078
-735.025	-200.000	0.024	-0.193
-734.010	-21.160	-0.391	-0.241
-732.996	93.066	-0.272	-0.310
-731.981	213.417	-0.140	-0.223
-730.966	-10.979	0.157	0.105
-729.952	147.569	-0.271	0.368
-728.937	800.000	-0.162	-0.533
-727.923	-113.643	0.167	-0.033
-726.908	120.785	-0.062	0.078
-725.894	-117.430	-0.293	0.053
-724.879	329.176	-0.044	0.085
-723.864	-200.000	0.027	0.191
-722.850	263.520	-0.108	0.188
-721.835	-151.654	0.385	-0.029
-720.821	175.546	-0.231	0.338
-719.806	-12.236	0.117	-0.077
-718.791	-40.078	-0.017	-0.009
-717.777	420.657	-0.105	0.226
-716.762	697.413	0.146	0.387
-715.748	-200.000	-0.038	-0.170
-714.733	-10.853	0.351	0.234
-713.718	21.508	-0.087	0.071
-712.704	-22.990	0.176	-0.107
-711.689	-57.486	0.185	0.082
-710.675	-84.358	0.127	0.040
-709.660	316.879	0.124	0.237
-708.645	64.836	-0.087	-0.088
-707.631	-21.301	0.138	-0.085
-706.616	800.000	-0.089	-0.272
-705.602	-35.349	-0.176	0.096
-704.587	-200.000	0.025	0.139
-703.572	133.138	-0.132	-0.171
-702.558	800.000	-0.012	0.048
-701.543	153.230	0.074	-0.102
-700.529	-104.598	-0.229	-0.053
-699.514	43.382	-0.185	-0.170
-698.499	71.395	0.195	-0.204
-697.485	-179.361	0.460	0.010
-696.470	31.434	0.195	-0.169
-695.456	-200.000	-0.086	0.411
-694.441	191.510	0.096	-0.146
-693.426	-200.000	0.031	-0.185
-692.412	70.779	-0.064	0.067
-691.397	-68.498	0.154	0.060
-690.383	-82.178	-0.272	0.089
-689.368	-163.830	-0.186	0.009
-688.354	120.295	-0.096	-0.119
-687.339	800.000	0.114	-0.363
-686.324	-49.477	0.180	0.086
-685.310	-71.635	-0.068	-0.025
-684.295	276.013	-0.110	-0.197
-683.281	-36.995	0.243	0.131
-682.266	540.357	0.217	-0.519
-681.251	-200.000	-0.056	0.282
-680.237	178.109	-0.184	-0.271
-679.222	800.000	0.076	-0.213
-678.208	-3.661	0.075	-0.052
-677.193	71.988	-0.095	0.099
-676.178	-200.000	0.003	-0.068
-675.164	-129.325	0.340	0.048
-674.149	-200.000	0.011	-0.133
-673.135	-200.000	-0.043	0.382
-672.120	-43.204	-0.162	0.082
-671.105	56.972	-0.172	-0.169
-670.091	-95.035	-0.160	0.043
-669.076	-200.000	-0.021	0.183
-668.062	-200.000	-0.034	0.184
-667.047	-86.230	0.139	-0.043
-666.032	501.967	-0.072	0.168
-665.018	294.492	-0.090	-0.166
-664.003	-36.623	-0.448	-0.242
-662.989	800.000	-0.108	0.331
-661.974	-32.052	-0.281	0.158
-660.959	-48.971	-0.177	-0.085
-659.945	-31.952	-0.211	0.119
-658.930	-92.106	-0.212	-0.060
-657.916	-200.000	0.016	0.228
-656.901	315.442	0.056	0.106
-655.886	343.042	-0.095	0.187
-654.872	800.000	0.098	0.274
-653.857	-60.331	0.036	-0.015
-652.843	-73.124	0.167	-0.062
-651.828	-18.340	-0.102	-0.064
-650.814	43.536	0.353	0.325
-649.799	-39.994	0.216	-0.113
-648.784	557.199	-0.137	0.332
-647.770	-172.785	-0.247	-0.008
-646.755	13.473	0.200	-0.156
-645.741	800.000	-0.042	-0.152
-644.726	237.113	-0.121	0.202
-643.711	194.488	-0.063	0.096
-642.697	-62.720	-0.065	-0.027
-641.682	144.998	0.127	-0.171
-640.668	-117.353	-0.314	-0.057
-639.653	-86.760	-0.134	-0.041
-638.638	-133.555	0.368	0.046
-637.624	-82.009	-0.116	0.038
-636.609	235.730	-0.175	0.290
-635.595	-58.233	-0.284	-0.124
-634.580	252.103	0.036	-0.062
-633.565	-200.000	-0.002	0.319
-632.551	-97.567	-0.161	-0.042
-631.536	-200.000	-0.005	0.028
-630.522	800.000	0.089	-0.290
-629.507	14.279	0.104	-0.082
-628.492	-86.597	-0.136	0.042
-627.478	55.380	0.160	-0.156
-626.463	800.000	0.034	-0.121
-625.449	-20.548	-0.439	0.271
-624.434	-8.319	0.120	-0.081
-623.419	23.050	0.127	0.105
-622.405	-200.000	0.005	0.439
-621.390	0.226	-0.185	0.132
-620.376	-11.456	0.130	-0.086
-619.361	800.000	-0.030	-0.094
-618.346	-10.864	0.299	0.198
-617.332	800.000	-0.044	-0.164
-616.317	-10.846	-0.127	-0.084
-615.303	800.000	-0.133	0.383
-614.288	-127.670	-0.198	-0.029
-613.273	-138.305	0.177	-0.020
-612.259	-103.128	-0.230	-0.055
-611.244	396.713	0.055	-0.116
-610.230	-88.343	-0.055	0.017
-609.215	439.714	0.075	-0.164
-608.201	33.762	0.225	0.197
-607.186	277.182	-0.135	-0.241
-606.171	108.633	0.242	-0.290
-605.157	30.813	0.231	-0.199
-604.142	-9.727	0.091	0.061
-603.128	-94.277	0.410	0.113
-602.113	-153.239	-0.262	0.018
-601.098	-200.000	-0.009	-0.216
-600.084	-200.000	-0.013	-0.140
-599.069	184.481	-0.034	-0.050
-598.055	29.263	0.095	0.081
-597.040	-5.222	0.172	-0.119
-596.025	-89.034	-0.214	-0.064
-595.011	276.215	-0.158	-0.281
-593.996	-57.366	0.208	-0.092
-592.982	22.895	0.201	-0.166
-591.967	-105.941	0.332	-0.075
-590.952	319.385	-0.023	-0.043
-589.938	-200.000	-0.056	0.448
-588.923	-86.376	-0.336	-0.104
-587.909	88.204	0.125	-0.139
-586.894	-11.892	-0.460	0.302
-585.879	236.703	-0.141	-0.234
-584.865	-151.731	0.177	-0.013
-583.850	800.000	-0.052	0.145
-582.836	-94.482	0.293	-0.080
-581.821	800.000	0.078	0.234
-580.806	21.572	-0.038	0.031
-579.792	14.297	-0.132	0.103
-578.777	-153.268	0.463	-0.032
-577.763	394.036	0.037	0.077
-576.748	-37.446	-0.098	0.052
-575.733	177.664	0.169	0.247
-574.719	-200.000	-0.019	-0.192
-573.704	-195.351	-0.237	0.002
-572.690	762.649	-0.080	0.216
-571.675	21.451	-0.124	-0.101
-570.661	65.665	0.363	0.368
-569.646	-200.000	-0.011	0.273
-568.631	-89.697	0.363	0.107
-567.617	800.000	0.053	-0.151
-566.602	-200.000	0.018	0.146
-565.588	-141.337	-0.230	-0.023
-564.573	-200.000	-0.013	0.103
-563.558	9.002	-0.168	-0.127
-562.544	31.779	0.214	-0.184
-561.529	-74.606	0.346	0.125
-560.515	246.281	-0.112	-0.189
-559.500	220.884	-0.140	0.225
-558.485	757.977	0.029	0.078
-557.471	286.568	-0.155	0.279
-556.456	-70.638	0.063	0.024
-555.442	-104.618	0.123	-0.028
-554.427	-104.688	-0.232	-0.054
-553.412	175.352	-0.136	0.198
-552.398	-18.903	-0.040	-0.025
-551.383	223.504	0.221	-0.357
-550.369	-26.262	-0.194	0.114
-549.354	607.321	0.076	0.190
-548.339	-11.349	-0.301	-0.198
-547.325	-126.179	0.422	-0.063
-546.310	-200.000	-0.035	0.189
-545.296	406.441	0.036	0.077
-544.281	-159.809	0.100	-0.006
-543.266	28.485	0.138	-0.117
-542.252	36.041	0.309	0.272
-541.237	681.862	-0.136	0.354
-540.223	-57.281	-0.106	0.047
-539.208	0.932	0.223	-0.160
-538.193	-200.000	0.024	-0.427
-537.179	-47.289	-0.163	0.079
-536.164	76.833	-0.177	-0.188
-535.150	196.432	0.022	0.033
-534.135	-126.540	-0.415	0.062
-533.121	27.785	0.458	0.386
-532.106	8.245	-0.196	-0.147
-531.091	-113.079	-0.189	0.037
-530.077	-139.308	0.309	-0.033
-529.062	49.869	0.126	0.119
-528.048	239.437	0.038	-0.063
-527.033	108.252	0.202	-0.241
-526.018	147.878	0.122	-0.165
-525.004	609.028	0.101	0.253
-523.989	-70.982	0.246	0.093
-522.975	556.297	0.041	-0.100
-521.960	90.521	-0.193	0.216
-520.945	-139.294	0.157	0.017
-519.931	141.309	0.083	-0.109
-518.916	-71.576	-0.320	0.120
-517.902	-33.087	0.082	0.046
-516.887	224.810	0.187	-0.302
-515.872	29.654	-0.168	0.142
-514.858	-200.000	-0.003	0.136
-513.843	208.610	-0.159	0.249
-512.829	87.639	-0.165	-0.183
-511.814	106.727	0.194	-0.230
-510.799	170.187	-0.069	-0.099
-509.785	-105.297	-0.188	-0.043
-508.770	800.000	-0.034	-0.110
-507.756	-200.000	-0.098	-0.482
-506.741	97.324	0.133	0.152
-505.726	-200.000	0.041	-0.201
-504.712	106.957	-0.178	-0.211
-503.697	424.428	-0.074	0.159
-502.683	77.434	-0.136	0.145
-501.668	800.000	0.083	-0.356
-500.653	800.000	-0.067	-0.258
-499.639	-41.265	0.150	-0.077
-498.624	-200.000	0.001	0.122
-497.610	183.124	-0.140	-0.207
-496.595	-181.000	-0.066	0.001
-495.581	212.355	-0.096	-0.151
-494.566	186.712	-0.168	-0.250
-493.551	-200.000	-0.029	-0.219
-492.537	83.089	-0.157	-0.171
-491.522	361.796	0.156	-0.312
-490.508	-5.778	0.144	-0.098
-489.493	61.053	-0.197	0.195
-488.478	554.231	0.053	-0.128
-487.464	-125.462	-0.307	0.047
-486.449	800.000	-0.077	-0.217
-485.435	70.355	-0.113	0.117
-484.420	-79.979	0.151	-0.051
-483.405	-80.999	0.161	0.053
-482.391	38.215	-0.051	-0.045
-481.376	800.000	0.067	0.206
-480.362	48.413	-0.119	0.111
-479.347	110.147	0.064	-0.076
-478.332	-64.704	-0.293	0.118
-477.318	729.481	-0.129	0.343
-476.303	-36.697	-0.239	0.128
-475.289	-180.000	0.445	0.009
-474.274	-13.052	-0.116	0.075
-473.259	20.069	-0.175	0.141
-472.245	-56.620	-0.302	-0.133
-471.230	98.563	0.170	-0.196
-470.216	-200.000	-0.005	0.027
-469.201	-104.583	0.096	0.022
-468.186	-21.385	-0.313	0.191
-467.172	-83.000	0.251	0.081
-466.157	-145.765	0.122	0.011
-465.143	-143.469	0.091	-0.009
-464.128	168.828	0.220	-0.314
-463.113	65.017	-0.203	0.204
-462.099	14.147	0.366	-0.284
-461.084	-200.000	-0.016	0.100
-460.070	-29.221	0.247	0.141
-459.055	506.080	-0.151	0.348
-458.040	-67.791	0.289	-0.113
-457.026	91.785	0.084	-0.094
-456.011	196.397	-0.213	0.323
-454.997	-44.280	0.205	0.103
-453.982	-140.850	-0.319	-0.033
-452.968	-117.002	0.098	-0.018
-451.953	-42.767	-0.017	0.008
-450.938	800.000	-0.060	0.222
-449.924	-3.609	0.119	0.083
-448.909	18.842	-0.191	0.153
-447.895	-200.000	0.066	-0.314
-446.880	800.000	-0.088	0.373
-445.865	139.487	-0.314	0.411
-444.851	-200.000	-0.007	-0.288
-443.836	800.000	-0.035	-0.134
-442.822	339.643	0.132	0.257
-441.807	-5.793	0.379	-0.259
-440.792	774.455	-0.128	-0.348
-439.778	-145.701	0.265	0.024
-438.763	522.585	-0.070	0.165
-437.749	120.214	0.114	0.141
-436.734	-100.791	-0.314	-0.077
-435.719	-13.086	-0.046	0.030
-434.705	324.578	0.027	0.052
-433.690	84.698	0.203	-0.222
-432.676	633.748	0.154	0.390
-431.661	214.945	-0.128	-0.203
-430.646	800.000	0.041	-0.163
-429.632	-51.209	0.246	0.115
-428.617	800.000	0.051	-0.176
-427.603	-200.000	0.040	-0.200
-426.588	481.557	-0.118	0.266
-425.573	800.000	0.035	-0.097
-424.559	174.336	-0.125	-0.179
-423.544	-157.990	0.045	0.003
-422.530	629.668	0.081	0.205
-421.515	-200.000	0.021	0.221
-420.500	-53.070	0.107	-0.049
-419.486	571.474	-0.135	0.327
-418.471	-14.707	-0.315	0.201
-417.457	-200.000	-0.048	0.216
-416.442	800.000	0.092	-0.328
-415.428	21.082	-0.198	0.160
-414.413	-142.226	-0.058	0.006
-413.398	-4.422	0.206	0.142
-412.384	311.121	-0.171	0.320
-411.369	-45.517	-0.048	0.023
-410.355	800.000	-0.062	-0.269
-409.340	800.000	0.025	-0.073
-408.325	-87.867	-0.284	0.085
-407.311	148.947	0.086	-0.115
-406.296	70.527	-0.118	0.121
-405.282	-150.696	-0.213	0.016
-404.267	-59.280	0.287	-0.123
-403.252	489.215	0.204	0.464
-402.238	-108.588	-0.137	-0.029
-401.223	48.224	-0.061	0.057
-400.209	800.000	-0.038	0.129
-399.194	-151.107	-0.107	-0.008
-398.179	-60.148	0.111	-0.047
-397.165	800.000	0.039	0.123
-396.150	113.592	0.044	0.053
-395.136	45.333	-0.240	0.220
-394.121	49.515	0.198	-0.186
-393.106	-200.000	0.049	-0.305
-392.092	492.617	-0.197	-0.448
-391.077	134.882	-0.108	-0.139
-390.063	-34.863	0.212	-0.115
-389.048	-200.000	0.016	0.204
-388.033	204.105	0.232	0.357
-387.019	160.441	-0.128	-0.178
-386.004	114.420	0.117	-0.141
-384.990	-111.553	-0.175	0.035
-383.975	-19.612	-0.183	0.113
-382.960	47.247	0.259	-0.240
-381.946	800.000	-0.024	-0.101
-380.931	71.202	-0.271	0.279
-379.917	114.109	0.145	0.175
-378.902	71.679	-0.340	0.351
-377.888	65.636	0.041	-0.042
-376.873	254.788	0.104	0.178
-375.858	192.543	-0.211	-0.317
-374.844	800.000	-0.127	-0.362
-373.829	-78.006	-0.151	-0.052
-372.815	607.421	0.202	-0.500
-371.800	-200.000	-0.014	-0.177
-370.785	735.465	0.158	-0.420
-369.771	-130.200	0.061	0.008
-368.756	-133.842	0.092	-0.011
-367.742	624.355	0.060	-0.151
-366.727	-129.253	-0.071	0.010
-365.712	-169.359	-0.182	0.007
-364.698	46.954	-0.131	0.121
-363.683	21.068	0.048	-0.039
-362.669	-200.000	-0.053	0.447
-361.654	90.752	0.210	0.234
-360.639	-99.138	0.399	-0.100
-359.625	556.252	0.077	-0.184
-358.610	655.130	-0.048	-0.123
-357.596	322.123	0.094	-0.178
-356.581	318.239	-0.090	-0.169
-355.566	-104.572	0.456	-0.105
-354.552	-45.665	-0.199	0.098
-353.537	-155.891	-0.153	-0.010
-352.523	72.324	-0.109	0.113
-351.508	-162.124	0.157	0.008
-350.493	-38.692	0.161	0.084
-349.479	103.554	0.135	-0.158
-348.464	800.000	-0.006	-0.023
-347.450	800.000	-0.082	-0.257
-346.435	-49.415	-0.144	0.068
-345.420	-129.590	-0.233	-0.032
-344.406	159.904	0.121	-0.167
-343.391	800.000	-0.033	-0.108
-342.377	53.779	0.221	-0.211
-341.362	777.588	-0.041	0.112
-340.348	800.000	-0.033	-0.110
-339.333	-200.000	0.015	0.295
-338.318	-11.884	0.375	0.244
-337.304	800.000	-0.019	-0.060
-336.289	800.000	0.062	0.204
-335.275	-200.000	0.006	0.138
-334.260	210.147	0.086	-0.133
-333.245	6.231	-0.083	-0.061
-332.231	161.441	0.007	0.010
-331.216	-110.019	-0.240	0.050
-330.202	800.000	-0.109	-0.393
-329.187	361.805	-0.103	-0.206
-328.172	118.053	-0.214	0.262
-327.158	56.473	0.139	-0.134
-326.143	-12.040	0.300	-0.195
-325.129	102.789	-0.157	0.182
-324.114	57.538	-0.180	-0.174
-323.099	37.255	0.067	-0.059
-322.085	36.383	0.248	-0.217
-321.070	450.878	-0.156	-0.342
-320.056	800.000	-0.076	-0.233
-319.041	-56.158	0.254	0.112
-318.026	-200.000	-0.009	-0.120
-317.012	376.872	-0.097	0.196
-315.997	-56.949	-0.152	0.066
-314.983	658.268	0.133	0.338
-313.968	-92.796	0.167	0.046
-312.953	627.622	0.120	0.301
-311.939	-90.219	0.354	0.102
-310.924	468.087	0.040	0.089
-309.910	-54.006	0.263	0.119
-308.895	299.380	0.098	0.179
-307.880	-114.511	0.150	-0.029
-306.866	457.941	-0.099	-0.218
-305.851	40.623	-0.123	0.110
-304.837	800.000	0.066	-0.210
-303.822	215.134	0.099	-0.156
-302.807	-97.840	-0.303	-0.078
-301.793	-101.207	-0.283	0.069
-300.778	-35.268	-0.140	0.075
-299.764	-91.083	-0.207	0.059
-298.749	800.000	-0.022	0.077
-297.735	-70.286	0.106	-0.040
-296.720	-79.947	0.263	-0.088
-295.705	-136.136	0.079	-0.009
-294.691	-57.280	0.276	-0.120
-293.676	381.654	0.123	-0.250
-292.662	-117.042	-0.148	0.027
-291.647	-72.733	0.116	0.042
-290.632	-104.700	0.240	-0.055
-289.618	-104.324	0.089	0.020
-288.603	-200.000	-0.018	-0.323
-287.589	-9.664	0.196	-0.129
-286.574	-25.251	0.091	0.054
-285.559	-42.644	-0.122	-0.062
-284.545	784.192	0.082	0.223
-283.530	-200.000	0.032	0.156
-282.516	540.207	-0.141	-0.332
-281.501	-106.650	-0.228	0.050
-280.486	-80.775	0.110	-0.036
-279.472	94.263	-0.261	-0.294
-278.457	-200.000	0.027	0.196
-277.443	188.482	0.015	-0.022
-276.428	-124.040	0.354	0.055
-275.413	185.288	0.132	0.194
-274.399	-175.153	-0.177	0.005
-273.384	204.721	0.206	0.316
-272.370	-200.000	-0.066	0.498
-271.355	-200.000	-0.023	0.113
-270.340	800.000	-0.154	-0.445
-269.326	-21.431	0.116	0.070
-268.311	136.503	-0.242	-0.313
-267.297	2.999	0.134	0.097
-266.282	-200.000	0.026	0.289
-265.267	1.693	-0.107	0.076
-264.253	60.574	0.084	-0.082
-263.238	395.833	0.163	-0.337
-262.224	90.537	-0.164	-0.182
-261.209	30.938	-0.311	-0.264
-260.195	-73.067	-0.224	0.081
-259.180	-27.814	-0.217	0.125
-258.165	-80.893	-0.115	-0.038
-257.151	54.965	-0.107	-0.102
-256.136	135.208	-0.045	0.058
-255.122	-126.219	0.379	-0.056
-254.107	30.283	0.324	0.274
-253.092	57.629	0.156	0.151
-252.078	-200.000	0.007	0.097
-251.063	-18.033	-0.388	-0.241
-250.049	125.869	-0.201	0.251
-249.034	-200.000	-0.050	0.333
-248.019	-104.298	0.273	0.063
-247.005	-126.696	-0.142	0.021
-245.990	201.314	0.051	0.078
-244.976	10.253	0.237	-0.178
-243.961	800.000	-0.123	-0.396
-242.946	-199.997	-0.361	0.002
-241.932	-80.261	-0.176	0.058
-240.917	349.036	0.169	0.329
-239.903	-195.602	-0.140	0.001
-238.888	800.000	-0.042	-0.145
-237.873	346.943	0.074	0.143
-236.859	-200.000	0.013	0.084
-235.844	-38.805	0.081	0.042
-234.830	178.775	-0.143	0.207
-233.815	147.342	-0.169	-0.225
-232.800	456.085	0.102	-0.224
-231.786	273.600	-0.083	-0.146
-230.771	-79.402	0.054	0.018
-229.757	6.640	-0.328	0.241
-228.742	624.999	-0.126	-0.314
-227.727	-98.137	-0.076	0.019
-226.713	135.325	0.226	0.290
-225.698	-200.000	-0.011	0.194
-224.684	26.585	0.179	0.148
-223.669	-105.318	0.260	-0.058
-222.655	-118.224	-0.147	-0.026
-221.640	399.576	0.024	-0.050
-220.625	800.000	0.067	-0.202
-219.611	-200.000	-0.001	0.249
-218.596	719.278	0.036	-0.094
-217.582	-200.000	0.028	0.310
-216.567	88.999	0.088	-0.097
-215.552	800.000	0.074	-0.264
-214.538	-2.829	-0.154	-0.106
-213.523	16.537	-0.072	0.056
-212.509	83.333	-0.033	0.035
-211.494	-200.000	0.009	0.064
-210.479	523.073	0.028	-0.065
-209.465	304.502	-0.005	-0.010
-208.450	-200.000	-0.012	0.254
-207.436	-7.682	0.203	0.136
-206.421	-87.616	-0.121	-0.036
-205.406	47.463	0.224	-0.206
-204.392	136.422	0.014	-0.018
-203.377	800.000	-0.080	0.277
-202.363	-102.171	-0.279	-0.066
-201.348	178.182	0.023	-0.033
-200.333	-119.793	-0.301	-0.051
-199.319	-200.000	0.079	0.359
-198.304	-48.885	0.281	-0.133
-197.290	100.151	0.070	-0.080
-196.275	132.232	0.161	0.204
-195.260	-119.785	0.340	0.058
-194.246	206.026	0.093	-0.143
-193.231	-200.000	-0.002	-0.059
-192.217	182.271	0.073	-0.106
-191.202	800.000	0.091	-0.339
-190.187	800.000	0.056	0.183
-189.173	-21.632	0.226	0.136
-188.158	-39.022	-0.103	-0.054
-187.144	42.958	0.104	-0.093
-186.129	-200.000	0.041	-0.251
-185.114	-90.175	0.076	-0.022
-184.100	-78.746	-0.355	-0.119
-183.085	-200.000	0.026	0.145
-182.071	156.364	0.179	0.243
-181.056	126.531	-0.036	0.045
-180.042	800.000	0.018	-0.069
-179.027	-134.459	-0.162	0.020
-178.012	-200.000	-0.113	-0.488
-176.998	-70.863	0.130	0.048
-175.983	-85.705	-0.265	-0.081
-174.969	-133.247	0.075	0.009
-173.954	775.916	-0.066	0.177
-172.939	-200.000	0.018	-0.109
-171.925	237.508	0.144	0.236
-170.910	-19.848	-0.165	0.101
-169.896	-200.000	-0.050	-0.333
-168.881	-159.505	0.129	0.007
-167.866	-200.000	-0.007	0.110
-166.852	800.000	-0.105	0.439
-165.837	390.297	-0.041	0.083
-164.823	-200.000	-0.012	-0.248
-163.808	70.373	-0.140	-0.143
-162.793	-27.211	-0.408	0.234
-161.779	-200.000	-0.001	0.186
-160.764	701.042	0.037	-0.095
-159.750	-182.440	0.244	0.004
-158.735	-65.973	-0.137	-0.054
-157.720	-116.115	-0.151	0.028
-156.706	242.966	0.132	0.219
-155.691	152.525	-0.109	0.146
-154.677	175.307	-0.095	0.136
-153.662	-200.000	-0.041	-0.203
-152.647	236.712	-0.100	-0.163
-151.633	-114.493	-0.292	0.055
-150.618	-190.410	0.335	-0.004
-149.604	-200.000	0.042	0.199
-148.589	4.057	0.086	-0.062
-147.574	473.003	0.110	0.245
-146.560	76.531	0.119	0.124
-145.545	373.414	-0.017	-0.035
-144.531	-200.000	0.001	-0.057
-143.516	213.564	0.084	0.132
-142.502	15.030	0.150	0.116
-141.487	800.000	0.014	-0.038
-140.472	5.776	-0.255	0.186
-139.458	80.728	0.027	0.029
-138.443	-73.565	0.253	0.091
-137.429	678.249	-0.112	0.286
-136.414	-46.401	0.049	-0.024
-135.399	217.681	0.155	-0.244
-134.385	320.932	-0.103	0.193
-133.370	561.230	0.138	-0.328
-132.356	800.000	0.065	0.249
-131.341	-64.967	0.122	-0.048
-130.326	-200.000	-0.001	0.053
-129.312	409.573	-0.042	-0.089
-128.297	800.000	0.028	-0.096
-127.283	-55.745	0.328	0.144
-126.268	-122.756	0.354	0.056
-125.253	-16.809	0.132	-0.082
-124.239	800.000	0.068	0.240
-123.224	-200.000	-0.025	0.163
-122.210	-157.165	0.308	-0.018
-121.195	-75.505	0.159	0.056
-120.180	-200.000	0.014	-0.328
