DTS Sentinel unit serial number:	SN413079Multiplexer serial number:	ORYXHardware model number:	OX4-SRSoftware version number:	ORYX F/W v4.00 Oryx Data Collector v3.7.2.0data status	okinstallation	princeton_trtdifferential loss correction	single-endedforward channel	channel 2reverse channel	N/Adate	2019/09/12time	09:33:10forward acquisition time	60.00reverse acquisition time	0.00gamma	496.2192k internal	0.2315k external	0.2315temperature offset calibration	1.0064default loss term (dB/km)	0.3790temperature slope calibration	1.0000multiplexer offset coefficient	1.0000multiplexer slope coefficient	1.0000fibre end	0.00T internal ref (°C)	35.56T ext. ref 1 (°C)	1.81T ext. ref 2 (°C)	32.72length (m)	temperature (°C)	Stokes	anti-Stokes-747.200	-37.948	-0.179	0.096
-746.185	38.135	-0.406	0.366
-745.171	-11.947	0.121	0.080
-744.156	176.630	-0.154	0.226
-743.142	-13.101	-0.168	0.111
-742.127	21.335	-0.362	0.298
-741.112	-81.572	-0.129	0.043
-740.098	785.514	-0.126	0.351
-739.083	-126.608	-0.077	0.012
-738.069	473.489	0.091	0.208
-737.054	77.331	-0.020	-0.022
-736.039	21.498	-0.159	0.131
-735.025	-46.800	0.158	0.078
-734.010	243.174	0.139	-0.236
-732.996	-32.139	-0.319	-0.181
-731.981	466.044	-0.144	0.326
-730.966	-200.000	0.015	0.354
-729.952	-115.795	-0.350	-0.066
-728.937	-42.122	0.359	-0.186
-727.923	-95.811	-0.138	0.037
-726.908	-179.415	0.194	0.004
-725.894	342.670	-0.134	-0.265
-724.879	-40.880	-0.141	-0.074
-723.864	238.173	-0.096	-0.162
-722.850	22.822	-0.221	-0.183
-721.835	-145.546	-0.249	0.023
-720.821	33.338	-0.111	-0.097
-719.806	-140.901	-0.349	-0.036
-718.791	74.483	-0.115	0.122
-717.777	800.000	-0.135	0.391
-716.762	-200.000	0.008	0.129
-715.748	151.267	0.166	-0.228
-714.733	-129.830	0.154	0.021
-713.718	59.604	0.107	0.107
-712.704	-200.000	0.032	-0.187
-711.689	-101.937	-0.087	0.021
-710.675	-76.715	-0.261	0.092
-709.660	800.000	0.065	0.252
-708.645	216.076	-0.133	0.214
-707.631	-200.000	-0.039	0.270
-706.616	-74.180	-0.029	0.011
-705.602	800.000	0.045	-0.193
-704.587	-200.000	0.003	0.244
-703.572	487.345	0.032	0.074
-702.558	61.396	-0.063	-0.064
-701.543	299.663	-0.093	0.174
-700.529	-104.990	0.214	0.050
-699.514	225.782	0.156	0.256
-698.499	-173.514	0.174	-0.005
-697.485	-47.516	-0.232	0.114
-696.470	24.374	0.034	-0.029
-695.456	-200.000	-0.006	-0.053
-694.441	-198.690	-0.206	-0.001
-693.426	-166.528	-0.182	-0.008
-692.412	32.769	-0.213	-0.187
-691.397	-200.000	-0.000	0.040
-690.383	-44.281	0.098	-0.050
-689.368	56.249	0.283	-0.278
-688.354	-51.559	-0.237	-0.112
-687.339	-200.000	0.010	0.266
-686.324	-67.802	0.199	0.079
-685.310	270.106	-0.145	0.257
-684.295	-110.223	-0.301	0.063
-683.281	377.173	-0.178	0.369
-682.266	-200.000	-0.018	-0.115
-681.251	-112.590	-0.124	-0.025
-680.237	-148.944	0.351	0.029
-679.222	37.767	0.080	0.072
-678.208	800.000	-0.070	-0.237
-677.193	261.804	-0.114	0.199
-676.178	-129.642	-0.240	0.034
-675.164	57.280	0.057	0.056
-674.149	-155.527	-0.633	0.041
-673.135	800.000	0.019	0.060
-672.120	-80.127	0.055	0.019
-671.105	-114.563	0.180	0.035
-670.091	518.438	-0.133	0.314
-669.076	-200.000	-0.048	0.271
-668.062	148.565	-0.055	-0.075
-667.047	-14.525	-0.223	-0.145
-666.032	-19.783	0.165	0.103
-665.018	167.470	0.090	-0.129
-664.003	20.655	0.349	-0.285
-662.989	800.000	0.012	0.037
-661.974	744.109	-0.014	-0.039
-660.959	52.574	0.134	-0.129
-659.945	800.000	-0.025	-0.081
-658.930	-200.000	0.074	-0.382
-657.916	714.700	-0.079	0.211
-656.901	506.500	0.065	-0.153
-655.886	-92.275	-0.249	0.071
-654.872	-200.000	-0.017	0.077
-653.857	800.000	0.127	-0.374
-652.843	386.928	-0.057	-0.118
-651.828	-101.412	0.186	0.046
-650.814	-63.756	-0.143	-0.059
-649.799	198.543	0.108	0.167
-648.784	-74.614	-0.042	0.015
-647.770	40.649	0.141	0.128
-646.755	319.107	-0.062	-0.119
-645.741	-8.461	0.043	-0.029
-644.726	-200.000	-0.026	-0.181
-643.711	800.000	0.039	0.141
-642.697	377.140	0.126	-0.259
-641.682	800.000	0.030	-0.102
-640.668	629.114	0.035	-0.090
-639.653	-106.486	-0.192	0.043
-638.638	-83.508	0.276	-0.089
-637.624	616.145	0.057	-0.143
-636.609	-100.327	-0.225	-0.056
-635.595	-130.515	0.266	-0.036
-634.580	-200.000	-0.031	0.606
-633.565	-200.000	0.080	0.378
-632.551	-55.137	-0.058	-0.026
-631.536	-2.444	-0.224	0.159
-630.522	130.318	-0.115	-0.148
-629.507	359.391	-0.053	-0.107
-628.492	-147.828	0.171	0.014
-627.478	-36.642	-0.137	0.074
-626.463	-97.374	-0.247	-0.065
-625.449	-45.191	0.167	0.084
-624.434	-28.201	-0.123	-0.071
-623.419	800.000	-0.095	-0.266
-622.405	800.000	0.058	-0.164
-621.390	-96.381	0.314	0.084
-620.376	-103.701	-0.221	-0.052
-619.361	800.000	0.081	0.229
-618.346	-160.633	-0.201	-0.011
-617.332	88.530	-0.279	-0.312
-616.317	-39.538	0.181	-0.096
-615.303	-115.902	0.205	-0.039
-614.288	-56.558	-0.043	0.019
-613.273	553.411	0.107	0.260
-612.259	-187.428	0.172	-0.002
-611.244	-200.000	0.040	-0.249
-610.230	-82.113	0.295	0.097
-609.215	104.806	0.066	0.078
-608.201	800.000	-0.042	-0.164
-607.186	-200.000	-0.040	-0.474
-606.171	-132.548	-0.095	0.012
-605.157	125.149	0.037	0.047
-604.142	59.020	-0.115	-0.114
-603.128	-145.160	0.087	-0.008
-602.113	-200.000	-0.009	-0.377
-601.098	-112.505	0.507	0.102
-600.084	-44.780	-0.138	-0.069
-599.069	43.490	-0.014	-0.013
-598.055	-39.369	-0.244	-0.129
-597.040	75.581	0.279	0.297
-596.025	-49.692	-0.259	0.124
-595.011	-200.000	-0.019	0.413
-593.996	-150.787	0.249	0.019
-592.982	578.831	-0.227	-0.559
-591.967	-72.309	-0.399	0.149
-590.952	101.965	-0.021	-0.024
-589.938	117.081	-0.099	0.123
-588.923	129.691	0.104	0.134
-587.909	-56.142	-0.356	-0.160
-586.894	189.566	-0.172	0.260
-585.879	216.953	0.181	-0.291
-584.865	196.807	0.260	-0.399
-583.850	800.000	0.040	-0.149
-582.836	-200.000	-0.060	0.329
-581.821	-124.316	-0.285	-0.045
-580.806	16.808	-0.144	-0.115
-579.792	59.618	0.127	-0.126
-578.777	534.271	0.065	-0.155
-577.763	-200.000	0.034	0.243
-576.748	-158.704	0.242	0.014
-575.733	-200.000	0.023	0.122
-574.719	800.000	-0.046	-0.171
-573.704	234.505	-0.145	-0.241
-572.690	23.909	0.116	-0.096
-571.675	478.884	-0.072	0.164
-570.661	2.616	-0.285	0.208
-569.646	-200.000	0.004	0.066
-568.631	800.000	-0.059	0.254
-567.617	180.228	0.112	-0.166
-566.602	496.572	-0.095	-0.221
-565.588	800.000	0.062	-0.176
-564.573	201.815	-0.128	0.199
-563.558	-200.000	-0.035	-0.288
-562.544	2.244	-0.445	0.324
-561.529	-200.000	-0.020	0.230
-560.515	800.000	-0.080	-0.295
-559.500	81.887	-0.075	-0.082
-558.485	-71.710	0.418	0.157
-557.471	-77.230	-0.184	-0.064
-556.456	-64.007	0.130	-0.053
-555.442	800.000	-0.036	-0.153
-554.427	-18.321	-0.042	0.026
-553.412	-22.507	-0.229	0.139
-552.398	-136.597	0.108	0.013
-551.383	-94.580	0.396	-0.108
-550.369	-200.000	0.018	-0.100
-549.354	-200.000	0.017	0.198
-548.339	-99.042	-0.392	0.100
-547.325	-98.523	0.064	-0.016
-546.310	-200.000	-0.023	-0.145
-545.296	-45.590	-0.317	0.158
-544.281	800.000	-0.039	-0.133
-543.266	357.344	0.060	0.120
-542.252	-31.631	-0.366	-0.207
-541.237	-75.178	0.245	-0.088
-540.223	-105.553	-0.200	-0.046
-539.208	311.343	-0.135	-0.254
-538.193	800.000	0.046	-0.130
-537.179	81.393	0.211	-0.229
-536.164	342.255	-0.205	0.404
-535.150	92.757	0.064	0.072
-534.135	93.344	-0.150	0.171
-533.121	-171.623	0.252	0.008
-532.106	548.496	0.106	-0.255
-531.091	164.799	-0.182	-0.258
-530.077	177.815	0.139	-0.203
-529.062	706.973	0.053	0.140
-528.048	-200.000	-0.037	-0.171
-527.033	800.000	-0.054	0.197
-526.018	-61.929	-0.068	-0.029
-525.004	-157.220	0.283	0.017
-523.989	-200.000	0.054	-0.356
-522.975	-86.017	0.090	0.028
-521.960	77.404	-0.271	-0.289
-520.945	361.930	0.154	-0.309
-519.931	-200.000	0.032	0.147
-518.916	-200.000	0.010	0.507
-517.902	19.253	-0.209	-0.168
-516.887	-156.110	-0.260	0.017
-515.872	800.000	-0.038	0.161
-514.858	800.000	0.058	-0.198
-513.843	-51.117	0.384	-0.181
-512.829	-135.608	-0.257	-0.031
-511.814	-23.198	0.236	-0.143
-510.799	-161.045	0.125	0.007
-509.785	-1.237	-0.153	0.108
-508.770	-200.000	0.011	0.297
-507.756	800.000	-0.060	0.222
-506.741	-4.463	0.169	-0.117
-505.726	-3.575	-0.102	-0.071
-504.712	-48.377	0.191	0.092
-503.697	-200.000	0.020	-0.101
-502.683	800.000	0.112	-0.344
-501.668	107.143	0.129	0.154
-500.653	-83.091	0.342	-0.110
-499.639	162.467	0.066	0.093
-498.624	450.139	0.049	-0.108
-497.610	-128.971	-0.157	-0.022
-496.595	-5.026	-0.159	0.110
-495.581	-26.795	-0.258	-0.151
-494.566	23.639	-0.079	0.065
-493.551	-200.000	0.009	-0.047
-492.537	800.000	0.021	-0.090
-491.522	-25.354	0.296	0.176
-490.508	-80.062	0.225	-0.076
-489.493	788.354	-0.047	0.130
-488.478	274.415	-0.134	0.238
-487.464	-1.457	0.122	0.086
-486.449	-55.537	-0.113	-0.051
-485.435	800.000	0.143	0.403
-484.420	24.685	0.200	-0.166
-483.405	645.857	0.077	-0.197
-482.391	39.107	0.139	0.124
-481.376	-143.064	-0.161	0.016
-480.362	340.300	0.241	0.472
-479.347	800.000	-0.094	0.268
-478.332	27.341	-0.121	0.102
-477.318	-176.302	-0.233	0.006
-476.303	800.000	0.076	-0.218
-475.289	-200.000	-0.059	-0.271
-474.274	800.000	0.119	-0.379
-473.259	154.300	-0.320	0.440
-472.245	-200.000	0.002	-0.138
-471.230	800.000	0.025	0.074
-470.216	9.755	0.281	-0.213
-469.201	-159.750	-0.169	-0.009
-468.186	-200.000	0.027	-0.359
-467.172	-200.000	0.023	-0.134
-466.157	-200.000	0.025	-0.241
-465.143	550.300	-0.080	-0.193
-464.128	-200.000	-0.033	0.239
-463.113	-123.933	-0.274	0.043
-462.099	-152.818	-0.294	-0.021
-461.084	323.975	-0.100	-0.192
-460.070	-200.000	0.024	0.122
-459.055	-88.851	0.352	-0.105
-458.040	-167.930	-0.103	0.004
-457.026	-37.057	-0.138	-0.074
-456.011	-92.886	0.338	0.095
-454.997	-146.314	0.290	-0.025
-453.982	84.478	-0.180	0.198
-452.968	-4.189	0.057	-0.040
-451.953	-116.984	-0.078	0.014
-450.938	800.000	-0.041	-0.137
-449.924	53.117	-0.156	0.150
-448.909	-135.438	0.088	-0.011
-447.895	-81.527	-0.269	-0.088
-446.880	-167.563	-0.296	-0.012
-445.865	363.979	0.149	0.300
-444.851	208.991	0.096	0.151
-443.836	304.596	-0.209	0.388
-442.822	-112.277	-0.229	-0.046
-441.807	800.000	0.026	0.081
-440.792	-91.484	-0.147	-0.042
-439.778	-107.478	0.170	-0.037
-438.763	12.835	0.346	-0.268
-437.749	800.000	0.084	0.330
-436.734	554.564	-0.106	0.256
-435.719	58.013	0.070	0.069
-434.705	-200.000	-0.026	-0.151
-433.690	41.710	-0.228	0.207
-432.676	373.003	-0.167	0.340
-431.661	-108.780	0.391	0.084
-430.646	159.397	0.158	-0.220
-429.632	253.875	0.255	0.435
-428.617	438.702	0.139	0.304
-427.603	-93.745	-0.458	0.126
-426.588	-200.000	0.031	0.159
-425.573	59.188	-0.047	-0.047
-424.559	-200.000	0.194	0.001
-423.544	513.035	-0.047	-0.110
-422.530	51.239	-0.301	0.286
-421.515	-200.000	-0.010	-0.110
-420.500	711.583	-0.070	0.186
-419.486	644.429	0.164	0.419
-418.471	-77.355	0.154	0.054
-417.457	76.879	0.133	0.141
-416.442	159.341	-0.024	0.033
-415.428	-39.525	-0.114	-0.060
-414.413	708.503	0.054	0.142
-413.398	-173.155	-0.410	-0.013
-412.384	-132.596	-0.120	0.015
-411.369	-103.722	-0.062	0.014
-410.355	203.291	0.138	-0.213
-409.340	-200.000	-0.010	-0.134
-408.325	-200.000	-0.040	0.213
-407.311	159.502	0.190	-0.265
-406.296	-114.864	-0.308	0.059
-405.282	57.212	-0.238	0.232
-404.267	-83.664	0.379	0.121
-403.252	800.000	0.067	-0.254
-402.238	673.421	0.086	0.224
-401.223	584.975	-0.135	0.333
-400.209	-51.312	-0.221	-0.103
-399.194	800.000	0.129	-0.419
-398.179	93.505	-0.315	-0.356
-397.165	-146.077	-0.131	-0.012
-396.150	89.394	-0.229	-0.255
-395.136	800.000	0.055	0.213
-394.121	81.308	-0.109	0.118
-393.106	800.000	0.038	0.107
-392.092	-106.202	0.010	0.002
-391.077	81.654	0.083	0.090
-390.063	-200.000	-0.021	-0.101
-389.048	211.014	-0.206	-0.324
-388.033	-153.896	0.345	-0.024
-387.019	154.398	-0.061	0.084
-386.004	57.811	-0.272	0.266
-384.990	-124.026	-0.318	0.050
-383.975	800.000	0.092	0.257
-382.960	-82.565	-0.055	-0.018
-381.946	431.202	0.041	-0.089
-380.931	32.108	0.199	0.172
-379.917	19.587	0.185	0.148
-378.902	-200.000	-0.001	0.099
-377.888	37.473	0.163	0.144
-376.873	95.620	0.284	0.324
-375.858	120.890	-0.039	0.049
-374.844	-58.067	0.245	-0.107
-373.829	-37.983	-0.307	-0.163
-372.815	175.832	0.104	0.150
-371.800	208.926	-0.018	-0.029
-370.785	353.888	0.149	0.295
-369.771	421.191	-0.145	-0.311
-368.756	-200.000	0.003	-0.024
-367.742	-52.762	0.273	-0.126
-366.727	-73.455	0.099	-0.036
-365.712	-101.735	-0.178	0.043
-364.698	32.180	-0.172	-0.148
-363.683	-26.875	-0.246	-0.144
-362.669	800.000	-0.064	0.181
-361.654	-29.799	-0.074	-0.042
-360.639	-169.920	0.028	-0.001
-359.625	800.000	0.108	-0.333
-358.610	2.463	0.025	-0.018
-357.596	216.485	0.188	-0.299
-356.581	800.000	-0.044	0.180
-355.566	-200.000	0.067	0.310
-354.552	159.761	0.157	-0.218
-353.537	-113.859	0.317	0.061
-352.523	120.636	-0.106	-0.132
-351.508	-12.457	-0.120	0.078
-350.493	8.250	-0.056	-0.042
-349.479	7.814	0.173	0.129
-348.464	-30.496	-0.198	-0.112
-347.450	-200.000	0.367	0.000
-346.435	59.238	-0.076	0.075
-345.420	16.668	0.079	-0.062
-344.406	70.907	-0.334	0.345
-343.391	-97.346	-0.417	-0.108
-342.377	-200.000	0.004	-0.235
-341.362	-75.584	-0.121	-0.043
-340.348	156.836	0.033	-0.045
-339.333	-181.698	-0.323	-0.006
-338.318	111.741	0.161	0.194
-337.304	-181.968	0.652	0.012
-336.289	224.584	-0.189	-0.304
-335.275	636.128	0.104	-0.262
-334.260	-100.580	0.328	-0.081
-333.245	-111.547	-0.339	-0.069
-332.231	-45.900	0.301	0.148
-331.216	-139.219	0.186	-0.020
-330.202	-132.550	0.493	-0.063
-329.187	-93.586	0.100	0.028
-328.172	-51.042	0.238	-0.111
-327.158	155.798	0.098	0.134
-326.143	-73.245	0.091	-0.033
-325.129	-7.629	0.306	0.206
-324.114	-94.751	-0.227	0.061
-323.099	-57.531	-0.301	-0.132
-322.085	-187.653	0.210	-0.003
-321.070	-200.000	0.046	-0.282
-320.056	-12.223	0.308	0.201
-319.041	177.047	-0.167	0.242
-318.026	-62.220	0.126	-0.052
-317.012	128.027	-0.209	0.265
-315.997	-109.504	-0.403	0.085
-314.983	-182.408	0.224	-0.004
-313.968	-200.000	0.013	0.187
-312.953	-60.169	0.134	0.057
-311.939	221.834	-0.154	0.247
-310.924	-105.201	0.095	0.022
-309.910	342.468	0.035	0.068
-308.895	-200.000	-0.071	0.396
-307.880	-200.000	0.014	-0.064
-306.866	125.523	0.192	-0.241
-305.851	-145.628	0.272	0.024
-304.837	-30.992	-0.097	-0.054
-303.822	-200.000	-0.064	0.512
-302.807	582.662	-0.067	0.163
-301.793	-88.583	0.191	-0.057
-300.778	602.851	-0.041	-0.103
-299.764	-200.000	-0.062	0.000
-298.749	69.236	0.119	0.122
-297.735	800.000	-0.099	-0.333
-296.720	800.000	-0.134	-0.395
-295.705	800.000	0.072	0.248
-294.691	224.847	0.047	-0.076
-293.676	-120.710	-0.117	-0.020
-292.662	-156.622	0.283	-0.017
-291.647	-16.803	0.067	-0.042
-290.632	-139.426	0.064	-0.007
-289.618	266.423	-0.128	0.223
-288.603	-69.506	0.232	0.089
-287.589	-52.830	-0.169	-0.077
-286.574	-88.941	-0.101	-0.030
-285.559	70.606	-0.045	0.046
-284.545	800.000	-0.026	0.084
-283.530	-200.000	-0.059	-0.346
-282.516	164.752	-0.205	-0.288
-281.501	118.581	0.191	0.235
-280.486	-82.638	0.091	-0.029
-279.472	383.856	0.104	0.213
-278.457	-0.282	0.161	0.114
-277.443	47.678	0.214	0.199
-276.428	5.224	0.148	-0.108
-275.413	-27.587	-0.106	-0.061
-274.399	15.128	-0.093	-0.073
-273.384	-99.735	-0.087	-0.022
-272.370	-200.000	-0.044	0.381
-271.355	-200.000	0.006	0.274
-270.340	800.000	-0.016	0.056
-269.326	-51.488	-0.138	-0.064
-268.311	-95.509	-0.186	-0.050
-267.297	9.547	-0.219	-0.165
-266.282	-25.997	-0.299	-0.175
-265.267	-31.569	-0.250	0.140
-264.253	-99.216	0.282	0.071
-263.238	16.351	-0.181	-0.142
-262.224	-138.745	0.236	-0.026
-261.209	97.784	-0.082	0.093
-260.195	-161.563	-0.192	0.010
-259.180	85.101	-0.153	-0.167
-258.165	88.399	-0.082	-0.090
-257.151	724.450	0.050	-0.132
-256.136	-21.494	-0.059	0.036
-255.122	-101.497	0.440	0.106
-254.107	-121.149	0.181	-0.030
-253.092	-200.000	0.031	0.154
-252.078	436.394	0.085	0.183
-251.063	114.397	-0.028	-0.034
-250.049	-31.874	-0.213	-0.118
-249.034	-35.789	0.311	-0.167
-248.019	800.000	-0.035	0.099
-247.005	-200.000	-0.023	-0.337
-245.990	-23.230	-0.398	0.238
-244.976	-60.492	0.091	0.039
-243.961	343.090	0.166	-0.324
-242.946	-12.945	-0.185	-0.119
-241.932	-50.037	-0.114	-0.054
-240.917	520.791	0.051	-0.119
-239.903	-38.412	-0.217	-0.114
-238.888	-89.492	0.320	0.093
-237.873	-181.456	0.098	-0.002
-236.859	800.000	-0.099	-0.328
-235.844	-200.000	-0.045	-0.264
-234.830	-200.000	0.055	-0.344
-233.815	800.000	-0.118	-0.386
-232.800	342.599	-0.061	-0.119
-231.786	800.000	0.065	-0.218
-230.771	58.204	0.050	-0.048
-229.757	379.660	0.012	0.025
-228.742	-200.000	0.030	0.302
-227.727	-200.000	0.054	-0.274
-226.713	-200.000	-0.001	0.099
-225.698	-116.494	0.107	-0.020
-224.684	65.829	-0.235	-0.236
-223.669	-86.259	0.081	0.025
-222.655	-61.749	-0.190	0.079
-221.640	382.001	0.138	0.281
-220.625	800.000	-0.048	-0.185
-219.611	-200.000	-0.038	0.254
-218.596	18.772	0.045	-0.036
-217.582	-43.289	0.269	-0.135
-216.567	191.486	0.079	-0.118
-215.552	800.000	-0.043	-0.153
-214.538	-200.000	-0.031	-0.248
-213.523	-200.000	-0.011	-0.113
-212.509	40.998	-0.198	0.178
-211.494	470.617	0.058	0.130
-210.479	-200.000	-0.016	0.146
-209.465	-5.559	-0.302	0.206
-208.450	-164.102	-0.264	-0.012
-207.436	32.759	0.251	0.216
-206.421	28.488	-0.215	-0.181
-205.406	542.372	-0.024	-0.058
-204.392	-10.994	0.018	-0.012
-203.377	12.125	-0.170	0.130
-202.363	800.000	0.061	0.197
-201.348	171.007	0.098	-0.140
-200.333	5.567	0.204	-0.150
-199.319	-25.114	0.255	0.150
-198.304	800.000	-0.063	0.261
-197.290	-200.000	-0.007	0.073
-196.275	-70.383	0.225	0.085
-195.260	221.049	0.026	-0.042
-194.246	-200.000	0.013	0.057
-193.231	800.000	0.073	0.236
-192.217	-200.000	0.009	0.047
-191.202	-93.339	0.212	-0.058
-190.187	-92.327	0.410	0.115
-189.173	-200.000	-0.049	-0.370
-188.158	-104.231	-0.124	0.029
-187.144	-169.566	-0.407	0.015
-186.129	40.732	0.153	0.137
-185.114	-81.083	0.186	0.061
-184.100	86.869	-0.121	-0.133
-183.085	-64.435	0.113	0.046
-182.071	-145.347	-0.056	-0.005
-181.056	-200.000	-0.033	-0.200
-180.042	800.000	0.037	-0.137
-179.027	-162.557	0.155	0.008
-178.012	103.766	-0.361	-0.420
-176.998	-143.126	-0.143	0.014
-175.983	-72.155	-0.132	0.048
-174.969	-51.043	-0.347	-0.161
-173.954	-200.000	0.040	-0.394
-172.939	297.517	-0.061	0.110
-171.925	520.170	-0.032	0.074
-170.910	107.387	-0.160	-0.188
-169.896	-52.701	-0.100	-0.046
-168.881	1.629	0.285	0.203
-167.866	13.739	-0.158	-0.121
-166.852	-200.000	0.049	0.376
-165.837	219.505	0.243	0.385
-164.823	96.258	-0.109	0.124
-163.808	590.222	0.147	0.360
-162.793	129.367	0.011	0.014
-161.779	-10.930	-0.153	-0.100
-160.764	-200.000	0.006	-0.050
-159.750	-200.000	-0.044	0.337
-158.735	204.843	0.082	0.125
-157.720	21.612	-0.049	-0.039
-156.706	-2.894	0.091	-0.063
-155.691	105.773	0.031	-0.037
-154.677	318.726	-0.064	0.120
-153.662	-32.638	0.205	-0.113
-152.647	-4.968	0.133	-0.091
-151.633	490.126	-0.067	-0.151
-150.618	-117.504	0.118	-0.021
-149.604	544.708	0.094	-0.223
-148.589	800.000	0.072	0.206
-147.574	800.000	0.044	0.143
-146.560	162.058	-0.181	0.251
-145.545	-107.636	-0.028	0.006
-144.531	101.407	0.063	0.072
-143.516	-200.000	-0.062	-0.333
-142.502	58.460	-0.028	-0.028
-141.487	53.904	-0.184	-0.175
-140.472	-200.000	0.031	0.308
-139.458	40.900	0.247	0.221
-138.443	-200.000	-0.022	0.289
-137.429	103.251	-0.252	0.292
-136.414	-200.000	-0.034	0.248
-135.399	-57.074	-0.139	0.061
-134.385	383.627	0.117	0.238
-133.370	-200.000	-0.007	0.238
-132.356	147.916	-0.335	0.447
-131.341	-75.151	0.223	-0.079
-130.326	-75.433	0.265	-0.093
-129.312	-104.431	0.259	0.059
-128.297	54.100	-0.196	0.187
-127.283	613.334	0.052	-0.129
-126.268	-178.462	-0.376	0.009
-125.253	181.366	-0.153	-0.223
-124.239	-150.263	0.303	0.023
-123.224	-6.659	-0.220	0.148
-122.210	34.982	0.057	0.049
-121.195	-55.553	0.269	0.119
