DTS Sentinel unit serial number:	SN413079Multiplexer serial number:	ORYXHardware model number:	OX4-SRSoftware version number:	ORYX F/W v4.00 Oryx Data Collector v3.7.2.0data status	okinstallation	princeton_trtdifferential loss correction	single-endedforward channel	channel 2reverse channel	N/Adate	2019/09/14time	02:11:35forward acquisition time	60.00reverse acquisition time	0.00gamma	496.2192k internal	0.2337k external	0.2337temperature offset calibration	1.0128default loss term (dB/km)	0.3790temperature slope calibration	1.0000multiplexer offset coefficient	1.0000multiplexer slope coefficient	1.0000fibre end	0.00T internal ref (°C)	26.50T ext. ref 1 (°C)	3.23T ext. ref 2 (°C)	21.48length (m)	temperature (°C)	Stokes	anti-Stokes-747.200	24.479	-0.038	-0.031
-746.185	-200.000	0.028	-0.502
-745.171	257.281	0.128	0.221
-744.156	15.009	0.292	0.229
-743.142	-69.459	-0.136	0.052
-742.127	-155.660	0.120	0.008
-741.112	37.841	0.128	0.114
-740.098	-189.011	0.100	0.001
-739.083	-200.000	-0.014	0.097
-738.069	-112.539	0.348	0.070
-737.054	465.329	-0.060	-0.136
-736.039	-43.725	-0.110	0.056
-735.025	88.890	0.340	0.379
-734.010	39.179	-0.232	-0.208
-732.996	338.653	-0.095	0.186
-731.981	56.865	-0.230	-0.225
-730.966	-200.000	0.012	-0.121
-729.952	52.155	-0.116	-0.111
-728.937	-57.075	0.211	0.093
-727.923	-15.092	-0.179	-0.115
-726.908	172.891	-0.041	0.060
-725.894	-107.933	0.184	0.040
-724.879	65.167	-0.130	0.132
-723.864	-200.000	-0.016	-0.189
-722.850	-116.439	0.153	0.028
-721.835	233.331	-0.136	-0.224
-720.821	-96.180	0.119	-0.032
-719.806	381.553	0.048	0.099
-718.791	-200.000	-0.064	-0.379
-717.777	800.000	-0.134	-0.494
-716.762	267.036	0.162	-0.285
-715.748	-200.000	0.039	-0.262
-714.733	-121.507	0.316	-0.053
-713.718	422.088	-0.042	-0.090
-712.704	-200.000	0.031	-0.205
-711.689	151.408	0.035	-0.048
-710.675	-44.116	0.274	-0.138
-709.660	170.852	-0.060	-0.086
-708.645	-26.226	0.169	-0.099
-707.631	-200.000	0.060	-0.273
-706.616	164.578	0.080	-0.113
-705.602	-160.645	-0.291	-0.016
-704.587	-45.135	-0.168	0.083
-703.572	-90.896	-0.261	0.075
-702.558	-150.951	0.184	-0.014
-701.543	800.000	0.016	0.064
-700.529	-183.506	-0.077	-0.001
-699.514	-168.776	-0.086	-0.003
-698.499	146.005	0.125	-0.169
-697.485	429.676	0.024	-0.052
-696.470	33.069	0.105	0.091
-695.456	800.000	-0.078	0.228
-694.441	-200.000	-0.014	0.546
-693.426	175.960	0.036	-0.052
-692.412	-22.123	0.218	-0.133
-691.397	-148.969	-0.292	0.024
-690.383	-147.333	-0.352	0.030
-689.368	341.455	-0.168	-0.329
-688.354	800.000	-0.050	0.146
-687.339	800.000	-0.070	-0.207
-686.324	-200.000	0.027	-0.289
-685.310	-200.000	-0.001	-0.075
-684.295	800.000	-0.047	-0.159
-683.281	94.210	-0.079	-0.090
-682.266	-55.040	-0.308	-0.139
-681.251	-200.000	0.024	-0.301
-680.237	-145.063	-0.127	-0.012
-679.222	339.405	-0.034	-0.067
-678.208	-33.224	-0.091	0.051
-677.193	167.837	-0.210	-0.298
-676.178	-150.254	-0.489	0.038
-675.164	-150.783	0.073	0.006
-674.149	-110.710	0.255	-0.053
-673.135	204.185	0.117	0.182
-672.120	3.673	0.080	-0.058
-671.105	155.766	-0.019	0.026
-670.091	-200.000	0.058	-0.542
-669.076	800.000	-0.062	0.174
-668.062	800.000	-0.064	-0.260
-667.047	338.019	0.030	0.059
-666.032	40.718	0.100	0.090
-665.018	526.206	-0.011	0.027
-664.003	-100.363	0.120	-0.030
-662.989	523.557	0.074	0.175
-661.974	-136.376	0.390	0.045
-660.959	139.551	0.140	-0.184
-659.945	219.856	0.086	0.138
-658.930	63.738	0.248	0.249
-657.916	-103.898	0.107	0.025
-656.901	723.095	0.198	-0.527
-655.886	15.080	-0.377	-0.295
-654.872	-54.641	0.377	-0.171
-653.857	61.195	-0.204	-0.202
-652.843	-106.824	0.194	-0.043
-651.828	405.810	-0.163	0.344
-650.814	-200.000	-0.020	-0.118
-649.799	-116.447	-0.114	-0.021
-648.784	0.088	0.084	-0.060
-647.770	-88.083	-0.179	-0.054
-646.755	-200.000	0.015	0.302
-645.741	-154.340	0.485	0.033
-644.726	-24.261	-0.185	-0.110
-643.711	-200.000	-0.003	-0.224
-642.697	-200.000	-0.019	-0.223
-641.682	-44.404	-0.011	0.005
-640.668	-200.000	0.434	0.002
-639.653	-90.411	-0.354	0.102
-638.638	-5.185	0.201	0.138
-637.624	193.577	-0.119	0.180
-636.609	78.838	-0.188	0.201
-635.595	358.858	0.009	0.018
-634.580	-200.000	-0.014	0.248
-633.565	-93.050	-0.076	-0.021
-632.551	292.158	-0.035	-0.063
-631.536	-76.825	0.239	0.083
-630.522	-138.305	-0.239	-0.026
-629.507	-146.885	0.184	-0.016
-628.492	33.042	-0.265	-0.229
-627.478	-200.000	-0.015	-0.167
-626.463	28.262	0.148	0.125
-625.449	-62.165	0.199	0.083
-624.434	109.432	0.061	0.072
-623.419	-112.149	0.268	0.054
-622.405	394.449	-0.054	-0.113
-621.390	-200.000	0.046	0.448
-620.376	800.000	0.031	0.085
-619.361	113.227	0.103	-0.125
-618.346	-96.084	0.186	0.049
-617.332	800.000	-0.061	0.180
-616.317	-93.634	0.092	-0.025
-615.303	493.356	-0.126	-0.289
-614.288	-162.834	-0.191	-0.009
-613.273	193.922	0.137	-0.207
-612.259	-193.236	0.216	-0.002
-611.244	628.803	-0.085	-0.214
-610.230	454.956	-0.171	0.377
-609.215	316.120	0.034	0.063
-608.201	417.862	-0.112	-0.239
-607.186	-75.671	0.079	0.028
-606.171	-126.810	0.082	0.012
-605.157	-200.000	-0.021	-0.109
-604.142	-170.768	-0.156	0.005
-603.128	157.722	-0.102	0.140
-602.113	-99.747	0.182	-0.046
-601.098	-55.785	-0.126	-0.056
-600.084	227.339	-0.069	-0.112
-599.069	-50.382	0.182	0.086
-598.055	97.377	-0.240	0.275
-597.040	-200.000	-0.036	0.440
-596.025	800.000	-0.055	-0.160
-595.011	-200.000	-0.001	0.046
-593.996	-66.051	-0.203	0.081
-592.982	-105.077	0.103	0.023
-591.967	-94.890	-0.201	0.054
-590.952	126.622	0.138	0.175
-589.938	-92.239	0.148	0.042
-588.923	800.000	0.033	-0.093
-587.909	286.783	-0.087	0.158
-586.894	-63.532	-0.183	0.075
-585.879	-16.894	0.254	-0.160
-584.865	83.776	0.282	-0.307
-583.850	800.000	-0.084	0.329
-582.836	95.405	0.230	0.262
-581.821	-116.724	0.130	0.024
-580.806	73.522	-0.081	-0.084
-579.792	-128.674	-0.340	0.048
-578.777	685.331	-0.016	-0.042
-577.763	2.374	0.144	0.104
-576.748	800.000	0.092	0.257
-575.733	-92.145	-0.094	0.027
-574.719	340.767	0.017	-0.034
-573.704	-82.604	0.075	0.024
-572.690	-54.983	-0.143	-0.064
-571.675	800.000	0.103	-0.358
-570.661	81.109	-0.260	0.280
-569.646	-146.763	-0.149	-0.013
-568.631	-130.502	-0.266	-0.036
-567.617	-95.706	-0.137	-0.037
-566.602	-144.306	-0.134	0.012
-565.588	83.138	0.117	0.127
-564.573	-200.000	0.035	0.198
-563.558	108.874	-0.268	-0.319
-562.544	-43.240	0.198	-0.100
-561.529	-10.311	0.349	-0.231
-560.515	-200.000	-0.029	-0.242
-559.500	-116.206	-0.143	-0.027
-558.485	-91.039	0.154	-0.044
-557.471	60.577	-0.170	0.168
-556.456	43.626	-0.171	-0.156
-555.442	800.000	0.061	0.239
-554.427	-200.000	0.001	-0.226
-553.412	-42.278	0.098	-0.050
-552.398	-200.000	-0.005	-0.181
-551.383	205.279	0.111	0.171
-550.369	-200.000	0.018	0.138
-549.354	192.370	0.040	-0.060
-548.339	-200.000	-0.002	0.076
-547.325	-200.000	-0.007	0.095
-546.310	68.599	-0.151	0.154
-545.296	-176.990	0.155	0.004
-544.281	-164.823	-0.318	-0.014
-543.266	80.745	0.159	0.171
-542.252	93.058	0.220	-0.247
-541.237	60.413	-0.324	-0.319
-540.223	14.374	0.153	0.119
-539.208	-200.000	-0.059	-0.286
-538.193	-50.812	0.168	0.079
-537.179	-108.838	0.448	-0.095
-536.164	-59.496	-0.085	0.036
-535.150	80.065	0.035	-0.038
-534.135	77.935	0.135	-0.143
-533.121	-41.121	0.158	-0.081
-532.106	-200.000	-0.542	0.002
-531.091	-158.286	0.202	0.012
-530.077	-79.729	0.123	0.041
-529.062	-179.435	-0.229	-0.005
-528.048	-10.801	-0.241	-0.159
-527.033	-134.095	0.389	0.048
-526.018	-129.008	0.282	0.039
-525.004	-12.616	-0.219	-0.142
-523.989	106.167	-0.191	-0.225
-522.975	-99.342	0.206	-0.052
-521.960	-32.060	-0.209	0.117
-520.945	-200.000	-0.009	0.125
-519.931	-23.904	0.060	-0.036
-518.916	-200.000	-0.002	0.072
-517.902	-68.090	-0.154	-0.060
-516.887	-134.669	0.146	0.018
-515.872	-81.549	-0.086	0.028
-514.858	-126.784	0.125	-0.018
-513.843	800.000	-0.029	0.100
-512.829	-1.401	0.053	0.037
-511.814	800.000	0.139	-0.565
-510.799	-32.683	-0.077	-0.043
-509.785	800.000	0.109	-0.346
-508.770	-0.645	-0.239	-0.169
-507.756	-160.207	-0.129	-0.007
-506.741	255.142	-0.199	-0.338
-505.726	436.760	0.138	-0.300
-504.712	92.188	-0.182	-0.204
-503.697	49.248	-0.145	0.136
-502.683	-46.292	0.196	-0.096
-501.668	-126.512	-0.048	-0.007
-500.653	-113.951	0.210	-0.040
-499.639	-75.442	0.181	0.064
-498.624	416.243	-0.065	-0.137
-497.610	78.560	-0.138	-0.146
-496.595	-113.246	-0.371	0.073
-495.581	38.234	-0.112	-0.099
-494.566	-0.237	0.011	0.007
-493.551	-31.200	-0.041	0.023
-492.537	-200.000	-0.043	-0.338
-491.522	-126.073	0.355	-0.053
-490.508	-33.100	-0.182	0.100
-489.493	-200.000	-0.014	-0.330
-488.478	-100.675	-0.148	0.036
-487.464	-22.700	0.133	0.080
-486.449	105.452	0.105	-0.123
-485.435	239.773	-0.118	-0.195
-484.420	-99.369	-0.417	-0.105
-483.405	-43.642	0.140	0.070
-482.391	-63.364	0.134	0.055
-481.376	-133.269	0.202	-0.025
-480.362	364.748	-0.087	-0.173
-479.347	-64.051	0.231	-0.094
-478.332	-200.000	0.069	0.394
-477.318	-56.031	0.101	0.045
-476.303	-59.480	0.262	-0.112
-475.289	103.709	-0.044	0.051
-474.274	-200.000	-0.004	-0.134
-473.259	32.816	-0.224	0.192
-472.245	-200.000	0.024	0.223
-471.230	56.335	-0.250	-0.241
-470.216	-200.000	-0.018	-0.078
-469.201	800.000	-0.066	-0.194
-468.186	96.222	-0.126	-0.143
-467.172	-101.176	-0.297	0.072
-466.157	21.360	0.082	0.066
-465.143	67.707	0.081	-0.082
-464.128	-86.561	0.461	0.140
-463.113	155.959	0.089	-0.122
-462.099	119.747	0.085	0.104
-461.084	-77.621	-0.123	-0.042
-460.070	65.805	0.053	0.054
-459.055	-200.000	-0.038	-0.232
-458.040	-51.362	-0.327	0.152
-457.026	-37.870	0.088	-0.046
-456.011	52.461	0.206	-0.195
-454.997	-100.182	-0.081	-0.020
-453.982	-69.868	0.161	0.061
-452.968	-200.000	-0.011	-0.167
-451.953	322.446	-0.043	-0.082
-450.938	-62.421	-0.222	0.092
-449.924	168.939	0.092	0.131
-448.909	182.221	0.044	0.064
-447.895	-117.434	-0.375	0.067
-446.880	-200.000	0.051	-0.234
-445.865	-87.010	0.299	-0.090
-444.851	-172.805	-0.431	-0.013
-443.836	76.505	0.159	0.167
-442.822	-5.807	0.117	-0.079
-441.807	-200.000	0.026	0.308
-440.792	800.000	0.036	0.109
-439.778	-91.771	-0.264	0.074
-438.763	-137.537	-0.162	0.018
-437.749	-200.000	0.077	-0.406
-436.734	9.626	-0.153	-0.115
-435.719	-31.804	-0.116	-0.064
-434.705	800.000	-0.042	0.173
-433.690	91.150	0.228	0.253
-432.676	-35.376	-0.359	0.194
-431.661	-176.980	-0.076	-0.002
-430.646	-88.983	0.405	-0.119
-429.632	89.778	-0.153	0.169
-428.617	169.513	-0.162	0.230
-427.603	-200.000	0.015	0.066
-426.588	45.269	0.081	-0.074
-425.573	27.445	0.257	-0.214
-424.559	11.704	-0.196	0.149
-423.544	-65.586	-0.170	0.068
-422.530	-200.000	-0.001	0.150
-421.515	-87.147	0.134	0.040
-420.500	424.096	0.133	0.283
-419.486	-99.566	0.254	-0.063
-418.471	-146.327	-0.075	0.007
-417.457	-31.782	0.159	0.088
-416.442	17.988	-0.039	-0.031
-415.428	800.000	0.030	-0.095
-414.413	301.996	0.062	0.114
-413.398	-37.986	0.106	-0.056
-412.384	-200.000	0.026	0.151
-411.369	17.037	0.122	-0.095
-410.355	594.813	-0.039	-0.094
-409.340	51.847	-0.193	-0.182
-408.325	-58.934	-0.303	0.130
-407.311	408.988	-0.265	-0.557
-406.296	-102.053	-0.184	-0.044
-405.282	143.886	0.125	-0.165
-404.267	-200.000	-0.036	-0.362
-403.252	-6.913	-0.175	-0.118
-402.238	254.159	0.145	-0.246
-401.223	-200.000	-0.016	0.218
-400.209	35.417	-0.196	0.170
-399.194	739.625	-0.034	0.090
-398.179	800.000	-0.057	-0.168
-397.165	-38.952	0.452	-0.236
-396.150	-200.000	0.053	0.232
-395.136	-110.082	0.052	-0.011
-394.121	438.380	0.048	0.104
-393.106	-83.412	-0.276	0.088
-392.092	-100.095	0.132	0.032
-391.077	-39.996	-0.143	-0.074
-390.063	319.330	-0.111	-0.208
-389.048	-62.562	-0.314	0.129
-388.033	3.763	-0.363	-0.262
-387.019	-11.600	-0.109	-0.071
-386.004	26.633	0.023	-0.019
-384.990	199.370	-0.041	-0.062
-383.975	-51.234	0.144	-0.067
-382.960	61.563	0.085	0.084
-381.946	-200.000	0.027	-0.143
-380.931	-7.934	-0.181	0.121
-379.917	-129.207	0.035	0.005
-378.902	1.905	-0.138	-0.098
-377.888	2.806	0.222	0.160
-376.873	-149.778	0.327	0.025
-375.858	425.510	0.015	0.031
-374.844	-102.909	-0.418	-0.098
-373.829	-62.907	0.128	0.052
-372.815	143.837	-0.194	-0.256
-371.800	-168.463	-0.098	0.004
-370.785	122.282	0.160	-0.198
-369.771	-85.600	-0.218	-0.067
-368.756	-74.703	0.103	-0.037
-367.742	496.319	-0.052	-0.118
-366.727	-200.000	0.035	0.000
-365.712	479.840	-0.061	-0.138
-364.698	-63.943	0.358	0.145
-363.683	-44.202	-0.148	-0.073
-362.669	27.019	0.201	0.167
-361.654	800.000	-0.092	0.272
-360.639	139.514	-0.137	-0.178
-359.625	-44.296	0.167	0.083
-358.610	-129.704	0.070	0.010
-357.596	800.000	-0.152	-0.415
-356.581	230.172	-0.067	-0.109
-355.566	-200.000	0.044	-0.199
-354.552	-33.836	0.048	-0.026
-353.537	-68.559	0.114	0.044
-352.523	73.225	0.048	-0.049
-351.508	-121.239	0.268	-0.044
-350.493	36.959	0.257	-0.225
-349.479	-106.300	0.162	0.036
-348.464	-126.197	0.438	-0.065
-347.450	800.000	-0.089	0.339
-346.435	-200.000	-0.023	0.175
-345.420	-80.612	-0.159	0.052
-344.406	-24.853	-0.301	0.176
-343.391	88.736	-0.015	0.017
-342.377	-200.000	-0.011	-0.138
-341.362	-98.978	0.105	0.026
-340.348	-200.000	-0.048	-0.320
-339.333	51.012	0.244	0.228
-338.318	59.709	0.046	0.045
-337.304	-79.973	-0.119	-0.040
-336.289	-200.000	0.035	0.223
-335.275	-152.488	0.111	0.008
-334.260	478.234	-0.111	0.247
-333.245	1.377	0.261	-0.185
-332.231	-49.505	-0.344	-0.162
-331.216	-200.000	-0.001	-0.424
-330.202	-200.000	0.039	0.254
-329.187	486.396	-0.064	0.145
-328.172	-45.411	0.321	0.157
-327.158	-62.440	-0.160	-0.066
-326.143	800.000	0.058	0.198
-325.129	171.509	-0.175	0.248
-324.114	-5.560	-0.104	-0.071
-323.099	-200.000	0.027	-0.193
-322.085	122.287	-0.073	0.089
-321.070	-21.900	-0.141	-0.084
-320.056	-200.000	0.078	0.425
-319.041	24.873	0.210	0.172
-318.026	-146.514	0.571	-0.049
-317.012	523.337	0.126	0.291
-315.997	-200.000	-0.003	-0.296
-314.983	-39.542	0.214	0.110
-313.968	-200.000	0.013	-0.115
-312.953	279.073	0.095	0.167
-311.939	-200.000	-0.019	0.276
-310.924	-140.326	-0.293	0.030
-309.910	84.141	-0.222	0.239
-308.895	92.305	-0.074	-0.082
-307.880	-185.413	-0.257	0.004
-306.866	-72.444	0.254	0.093
-305.851	-158.393	0.448	-0.026
-304.837	-89.525	0.193	0.056
-303.822	800.000	0.114	-0.386
-302.807	665.094	-0.106	0.269
-301.793	-156.529	-0.055	-0.003
-300.778	-43.810	0.068	-0.034
-299.764	-200.000	-0.021	-0.197
-298.749	-60.213	0.075	-0.032
-297.735	-25.351	0.244	0.142
-296.720	147.864	0.033	0.044
-295.705	39.137	-0.171	0.151
-294.691	-200.000	0.012	-0.054
-293.676	-200.000	0.009	0.191
-292.662	-13.744	-0.202	-0.129
-291.647	16.372	-0.134	0.104
-290.632	-103.573	0.302	0.070
-289.618	-109.391	-0.351	-0.073
-288.603	36.960	-0.081	0.071
-287.589	282.107	-0.151	0.266
-286.574	113.740	-0.129	0.154
-285.559	800.000	0.086	-0.303
-284.545	25.692	-0.494	-0.406
-283.530	0.991	-0.097	0.068
-282.516	800.000	-0.031	-0.126
-281.501	-200.000	-0.000	-0.039
-280.486	-15.078	0.218	0.137
-279.472	-200.000	0.067	-0.299
-278.457	-86.880	-0.222	-0.067
-277.443	-44.081	-0.137	-0.068
-276.428	-90.078	0.143	-0.041
-275.413	4.223	-0.237	-0.171
-274.399	227.933	-0.161	0.258
-273.384	-40.952	0.213	0.109
-272.370	-156.880	0.213	-0.013
-271.355	-12.654	-0.073	0.047
-270.340	-53.925	0.311	0.140
-269.326	-46.385	-0.430	0.208
-268.311	-200.000	-0.052	0.251
-267.297	112.462	-0.005	0.006
-266.282	799.869	0.206	0.560
-265.267	558.939	-0.087	-0.208
-264.253	-183.500	-0.148	0.003
-263.238	800.000	0.044	-0.130
-262.224	-10.312	-0.196	-0.128
-261.209	-200.000	-0.026	0.110
-260.195	-8.352	0.073	0.049
-259.180	74.435	0.262	0.271
-258.165	-200.000	-0.065	0.426
-257.151	-200.000	-0.010	0.103
-256.136	-200.000	0.030	0.129
-255.122	-103.545	0.343	0.079
-254.107	-111.275	-0.273	0.055
-253.092	82.013	-0.080	0.085
-252.078	125.855	-0.040	-0.050
-251.063	-100.564	-0.408	0.099
-250.049	76.904	-0.118	-0.124
-249.034	800.000	-0.050	-0.146
-248.019	-108.031	0.169	0.036
-247.005	-62.809	0.124	0.051
-245.990	-69.655	0.157	-0.059
-244.976	-200.000	-0.016	0.220
-243.961	39.080	0.099	-0.087
-242.946	99.819	0.111	0.127
-241.932	800.000	-0.077	0.227
-240.917	2.394	0.235	-0.167
-239.903	-1.729	-0.205	0.142
-238.888	-7.122	-0.255	-0.171
-237.873	-200.000	-0.004	-0.047
-236.859	206.567	-0.200	-0.306
-235.844	30.951	0.308	0.259
-234.830	-65.759	-0.040	0.016
-233.815	-177.339	0.403	-0.010
-232.800	-14.232	0.315	0.199
-231.786	101.469	0.163	-0.187
-230.771	22.300	-0.038	0.030
-229.757	-126.355	0.230	0.034
-228.742	-38.543	-0.293	-0.152
-227.727	255.215	0.149	0.252
-226.713	60.771	-0.131	0.127
-225.698	40.907	0.309	0.274
-224.684	-200.000	0.056	0.410
-223.669	800.000	-0.070	0.256
-222.655	-50.274	-0.184	0.085
-221.640	800.000	-0.028	0.097
-220.625	119.238	-0.014	0.017
-219.611	-200.000	-0.012	0.059
-218.596	-148.419	0.326	0.026
-217.582	118.335	-0.068	0.082
-216.567	345.298	0.084	0.162
-215.552	800.000	0.020	-0.054
-214.538	-76.501	-0.222	-0.077
-213.523	240.276	0.043	-0.071
-212.509	-200.000	-0.032	-0.361
-211.494	313.876	-0.094	-0.173
-210.479	405.156	0.106	-0.220
-209.465	112.187	-0.032	-0.038
-208.450	-200.000	-0.013	-0.119
-207.436	73.200	-0.139	-0.143
-206.421	-122.213	-0.190	0.031
-205.406	-182.471	0.164	0.003
-204.392	-200.000	0.026	0.193
-203.377	63.450	-0.136	-0.134
-202.363	-200.000	0.082	-0.451
-201.348	-37.979	0.209	-0.109
-200.333	-200.000	-0.009	0.189
-199.319	-123.546	0.174	-0.027
-198.304	238.560	0.144	0.234
-197.290	22.058	0.086	0.069
-196.275	-93.742	-0.204	0.055
-195.260	-190.373	0.221	0.002
-194.246	681.714	-0.094	0.241
-193.231	-37.121	-0.103	0.054
-192.217	314.852	0.103	0.191
-191.202	149.893	-0.154	-0.205
-190.187	-87.908	0.152	-0.045
-189.173	-200.000	-0.176	-0.000
-188.158	52.734	0.223	-0.209
-187.144	-58.972	-0.311	0.132
-186.129	56.306	-0.145	0.139
-185.114	19.038	0.088	-0.069
-184.100	-103.964	0.011	0.003
-183.085	-131.118	-0.523	-0.068
-182.071	67.167	-0.160	0.160
-181.056	-110.384	-0.251	-0.051
-180.042	-175.488	0.156	0.004
-179.027	800.000	-0.039	-0.152
-178.012	-200.000	0.000	0.132
-176.998	-135.959	0.255	0.030
-175.983	-175.938	0.385	-0.010
-174.969	-9.116	-0.124	-0.081
-173.954	182.872	0.083	-0.120
-172.939	16.549	0.198	0.153
-171.925	116.566	-0.148	-0.178
-170.910	-200.000	-0.016	0.134
-169.896	-8.125	0.177	0.117
-168.881	-113.249	0.035	-0.007
-167.866	-172.543	0.101	0.003
-166.852	-45.615	0.083	-0.040
-165.837	-200.000	-0.037	0.185
-164.823	-116.082	0.219	0.040
-163.808	-200.000	-0.000	0.039
-162.793	-147.445	0.288	-0.024
-161.779	30.156	-0.095	0.079
-160.764	-200.000	-0.019	0.085
-159.750	18.097	-0.366	-0.286
-158.735	115.140	0.055	-0.066
-157.720	85.232	-0.109	0.117
-156.706	195.820	-0.071	0.107
-155.691	-200.000	0.029	0.394
-154.677	-179.955	0.269	0.006
-153.662	399.923	0.084	-0.173
-152.647	335.992	-0.174	-0.331
-151.633	94.040	-0.183	-0.204
-150.618	-200.000	-0.016	0.109
-149.604	-114.729	0.092	-0.017
-148.589	-15.476	-0.230	0.144
-147.574	-172.041	0.088	-0.003
-146.560	-200.000	0.024	-0.508
-145.545	-91.106	0.323	-0.091
-144.531	100.065	-0.039	0.044
-143.516	57.953	-0.030	-0.029
-142.502	-118.129	-0.198	0.035
-141.487	-132.470	-0.112	0.014
-140.472	800.000	-0.014	0.048
-139.458	800.000	0.088	0.266
-138.443	-62.972	-0.059	-0.024
-137.429	-82.597	0.137	0.044
-136.414	685.927	-0.156	-0.400
-135.399	174.038	-0.238	0.336
-134.385	563.679	0.089	0.212
-133.370	-76.031	-0.070	0.024
-132.356	-200.000	0.028	-0.190
-131.341	800.000	0.024	0.073
-130.326	-72.330	0.089	-0.032
-129.312	-37.309	0.153	-0.080
-128.297	254.493	0.273	0.458
-127.283	51.104	0.111	0.103
-126.268	192.981	0.089	0.132
-125.253	800.000	-0.066	0.241
-124.239	-200.000	-0.061	-0.350
-123.224	800.000	-0.100	-0.410
-122.210	750.693	0.038	0.100
-121.195	-64.017	0.420	0.168
