DTS Sentinel unit serial number:	SN413079Multiplexer serial number:	ORYXHardware model number:	OX4-SRSoftware version number:	ORYX F/W v4.00 Oryx Data Collector v3.7.2.0data status	okinstallation	princeton_trtdifferential loss correction	single-endedforward channel	channel 2reverse channel	N/Adate	2019/09/16time	18:47:34forward acquisition time	60.00reverse acquisition time	0.00gamma	496.2192k internal	0.2322k external	0.2322temperature offset calibration	0.9966default loss term (dB/km)	0.3790temperature slope calibration	1.0000multiplexer offset coefficient	1.0000multiplexer slope coefficient	1.0000fibre end	0.00T internal ref (°C)	36.03T ext. ref 1 (°C)	0.08T ext. ref 2 (°C)	29.36length (m)	temperature (°C)	Stokes	anti-Stokes-747.200	-1.377	-0.062	-0.044
-746.185	-146.897	0.112	0.010
-745.171	-116.266	-0.047	0.009
-744.156	347.391	-0.011	-0.022
-743.142	559.099	0.104	-0.254
-742.127	-141.051	-0.232	-0.024
-741.112	-21.497	-0.155	-0.096
-740.098	-47.230	-0.426	0.209
-739.083	52.544	0.227	-0.219
-738.069	768.978	0.133	0.366
-737.054	-200.000	-0.007	-0.111
-736.039	168.203	-0.130	0.187
-735.025	490.861	-0.173	0.401
-734.010	800.000	-0.068	-0.202
-732.996	65.578	-0.222	-0.227
-731.981	-124.850	-0.210	0.033
-730.966	109.269	0.138	-0.166
-729.952	800.000	0.043	-0.148
-728.937	800.000	-0.038	-0.107
-727.923	67.938	0.139	-0.143
-726.908	59.401	0.133	0.133
-725.894	109.318	0.101	0.122
-724.879	-200.000	0.025	-0.145
-723.864	-200.000	-0.001	-0.143
-722.850	322.703	-0.156	-0.300
-721.835	-200.000	-0.034	0.476
-720.821	-25.238	-0.071	-0.042
-719.806	-200.000	-0.006	0.236
-718.791	-138.819	-0.317	0.035
-717.777	-69.525	-0.179	-0.069
-716.762	-200.000	0.015	-0.127
-715.748	-84.336	0.371	0.119
-714.733	-134.257	0.187	0.023
-713.718	350.529	-0.120	-0.239
-712.704	-158.990	-0.347	0.020
-711.689	13.392	0.225	-0.176
-710.675	800.000	0.105	-0.295
-709.660	-161.111	0.164	-0.009
-708.645	-94.091	-0.366	0.101
-707.631	800.000	0.119	-0.457
-706.616	-143.040	-0.373	-0.036
-705.602	-3.967	-0.140	-0.098
-704.587	-70.314	-0.085	-0.032
-703.572	224.765	0.161	0.263
-702.558	1.246	-0.192	0.139
-701.543	800.000	0.045	0.177
-700.529	-200.000	0.051	-0.289
-699.514	-88.493	-0.095	0.029
-698.499	-65.251	0.142	-0.058
-697.485	202.661	0.043	0.067
-696.470	61.237	0.110	0.110
-695.456	24.511	-0.140	0.117
-694.441	-95.972	-0.076	-0.020
-693.426	87.026	-0.167	-0.186
-692.412	-185.466	0.020	-0.000
-691.397	106.732	0.165	-0.197
-690.383	241.067	-0.116	-0.195
-689.368	227.020	-0.100	-0.163
-688.354	-200.000	0.004	0.126
-687.339	-165.342	0.223	0.010
-686.324	94.541	-0.175	0.200
-685.310	616.378	-0.067	0.170
-684.295	-156.639	0.458	0.029
-683.281	-200.000	-0.030	-0.165
-682.266	35.015	0.278	-0.245
-681.251	800.000	0.088	-0.274
-680.237	14.542	0.254	-0.200
-679.222	-144.554	-0.072	-0.007
-678.208	-16.031	0.270	0.173
-677.193	-125.842	-0.306	0.046
-676.178	138.904	0.234	-0.310
-675.164	800.000	-0.055	0.174
-674.149	-112.679	-0.141	0.028
-673.135	78.405	-0.022	-0.024
-672.120	-200.000	0.021	-0.152
-671.105	32.771	0.124	0.108
-670.091	119.306	-0.124	0.155
-669.076	75.398	0.056	0.059
-668.062	314.789	0.167	0.317
-667.047	-200.000	-0.037	-0.221
-666.032	-200.000	0.005	-0.144
-665.018	-24.565	0.241	0.144
-664.003	-77.287	0.201	0.071
-662.989	-200.000	0.027	-0.121
-661.974	17.384	0.166	0.133
-660.959	-200.000	0.012	0.137
-659.945	-157.917	-0.241	0.014
-658.930	109.945	-0.250	0.303
-657.916	-31.712	-0.113	0.064
-656.901	-80.324	0.196	-0.066
-655.886	-169.261	-0.303	0.011
-654.872	449.466	-0.156	0.346
-653.857	144.880	0.266	0.357
-652.843	-152.883	-0.240	-0.017
-651.828	123.148	-0.075	0.095
-650.814	-115.426	0.079	0.015
-649.799	57.144	-0.157	-0.154
-648.784	-80.104	-0.484	0.163
-647.770	7.708	-0.251	-0.189
-646.755	235.407	0.204	0.339
-645.741	61.862	0.205	-0.205
-644.726	800.000	0.020	0.077
-643.711	-200.000	-0.006	-0.178
-642.697	57.429	0.253	-0.249
-641.682	-97.133	-0.311	0.082
-640.668	339.943	0.191	0.374
-639.653	-177.213	0.238	-0.006
-638.638	800.000	0.106	-0.323
-637.624	563.823	0.092	0.225
-636.609	75.124	0.095	-0.100
-635.595	-66.458	0.320	0.128
-634.580	9.346	0.341	0.259
-633.565	800.000	-0.055	-0.205
-632.551	549.315	-0.073	0.175
-631.536	-76.897	-0.515	0.181
-630.522	-37.698	-0.095	-0.051
-629.507	98.676	0.090	0.105
-628.492	-200.000	0.003	-0.252
-627.478	-154.340	-0.241	0.016
-626.463	-45.182	0.226	0.113
-625.449	155.583	0.139	-0.193
-624.434	-102.755	-0.142	-0.034
-623.419	800.000	0.025	0.095
-622.405	667.332	-0.007	-0.018
-621.390	68.457	-0.124	-0.128
-620.376	800.000	-0.077	0.232
-619.361	-200.000	0.030	0.280
-618.346	-171.185	0.120	0.004
-617.332	224.044	0.171	-0.278
-616.317	-10.923	-0.067	-0.045
-615.303	597.090	-0.042	0.104
-614.288	-91.559	0.233	-0.067
-613.273	-43.510	-0.187	-0.095
-612.259	-105.850	-0.186	-0.042
-611.244	-200.000	-0.025	-0.265
-610.230	-110.658	-0.293	0.061
-609.215	-109.021	0.088	-0.019
-608.201	290.493	0.027	0.050
-607.186	-32.878	0.168	-0.094
-606.171	-137.770	-0.227	0.026
-605.157	800.000	-0.137	-0.409
-604.142	43.555	-0.041	0.038
-603.128	405.275	0.046	0.098
-602.113	307.761	0.034	-0.064
-601.098	-21.609	0.104	0.064
-600.084	251.953	0.055	0.094
-599.069	474.720	0.036	-0.082
-598.055	17.923	0.108	-0.086
-597.040	-97.201	-0.251	0.066
-596.025	174.797	0.049	0.071
-595.011	-29.945	-0.082	0.047
-593.996	-110.265	0.209	-0.044
-592.982	-27.687	-0.167	-0.097
-591.967	73.956	-0.070	-0.074
-590.952	-67.653	0.217	0.085
-589.938	800.000	0.061	-0.228
-588.923	-59.633	-0.080	0.034
-587.909	591.630	-0.176	-0.436
-586.894	-200.000	0.043	-0.200
-585.879	-200.000	-0.022	0.173
-584.865	166.258	0.092	0.131
-583.850	-78.415	-0.350	-0.120
-582.836	-112.759	0.104	0.021
-581.821	-161.417	-0.333	-0.017
-580.806	-150.926	-0.260	-0.020
-579.792	117.343	-0.119	-0.147
-578.777	68.469	0.069	-0.071
-577.763	338.185	-0.141	0.276
-576.748	538.846	-0.069	-0.166
-575.733	-25.513	0.320	0.190
-574.719	-200.000	0.004	-0.241
-573.704	-23.616	-0.230	-0.139
-572.690	800.000	-0.126	0.359
-571.675	-12.512	-0.106	-0.069
-570.661	-46.944	-0.165	0.081
-569.646	11.503	-0.022	-0.017
-568.631	374.162	0.156	0.319
-567.617	-72.247	-0.255	0.095
-566.602	-200.000	-0.041	-0.211
-565.588	5.613	0.152	-0.112
-564.573	88.429	0.394	0.438
-563.558	182.980	-0.172	0.255
-562.544	160.032	0.078	0.110
-561.529	60.708	0.291	-0.290
-560.515	-20.707	0.070	0.043
-559.500	370.388	-0.165	0.336
-558.485	-93.742	0.175	0.048
-557.471	-164.239	-0.230	0.011
-556.456	-38.332	0.188	-0.100
-555.442	-73.882	-0.350	0.127
-554.427	-200.000	-0.021	0.148
-553.412	-200.000	-0.065	-0.368
-552.398	75.596	0.175	-0.185
-551.383	-120.774	0.124	-0.021
-550.369	800.000	-0.071	-0.299
-549.354	-64.036	0.226	0.092
-548.339	317.697	-0.110	-0.209
-547.325	-74.180	0.130	-0.047
-546.310	-200.000	-0.002	0.054
-545.296	-172.546	-0.232	-0.007
-544.281	-136.955	0.175	0.020
-543.266	-38.115	0.175	-0.093
-542.252	-36.040	-0.209	-0.113
-541.237	48.421	0.054	-0.051
-540.223	-8.122	-0.137	0.092
-539.208	-152.360	0.135	0.010
-538.193	583.852	0.042	0.103
-537.179	91.701	0.062	0.069
-536.164	204.148	-0.103	-0.160
-535.150	-170.318	-0.023	-0.001
-534.135	35.025	-0.060	-0.052
-533.121	82.509	-0.193	0.210
-532.106	363.106	-0.035	0.071
-531.091	470.011	-0.079	0.178
-530.077	69.293	-0.134	-0.138
-529.062	-200.000	-0.057	0.256
-528.048	-14.145	0.196	0.127
-527.033	189.622	0.121	0.182
-526.018	800.000	-0.104	0.293
-525.004	-107.787	-0.267	-0.058
-523.989	466.738	-0.163	-0.367
-522.975	217.253	-0.139	-0.221
-521.960	500.313	-0.113	-0.262
-520.945	-35.817	-0.093	-0.050
-519.931	-200.000	0.018	0.193
-518.916	-111.540	-0.126	-0.026
-517.902	4.786	-0.219	-0.161
-516.887	92.254	0.030	0.033
-515.872	-200.000	-0.083	0.378
-514.858	-200.000	0.022	-0.434
-513.843	181.244	0.067	-0.099
-512.829	-49.770	0.458	0.218
-511.814	2.351	-0.220	-0.159
-510.799	-68.054	0.199	-0.078
-509.785	-125.559	-0.242	0.037
-508.770	800.000	-0.021	-0.092
-507.756	170.041	0.171	0.245
-506.741	-143.790	-0.154	0.015
-505.726	192.686	0.182	0.275
-504.712	-87.761	0.024	0.007
-503.697	-8.483	-0.247	-0.166
-502.683	6.903	-0.152	-0.114
-501.668	-200.000	-0.034	-0.229
-500.653	-48.755	0.385	-0.185
-499.639	740.829	-0.023	-0.062
-498.624	529.440	-0.089	0.211
-497.610	-10.889	-0.201	0.133
-496.595	-200.000	-0.071	-0.354
-495.581	296.738	-0.069	0.127
-494.566	-21.436	-0.184	-0.112
-493.551	57.916	0.103	-0.101
-492.537	-200.000	-0.073	0.563
-491.522	800.000	-0.013	-0.048
-490.508	-46.563	-0.126	0.062
-489.493	92.008	0.377	0.424
-488.478	-3.811	0.094	-0.065
-487.464	-79.971	-0.142	0.048
-486.449	800.000	-0.033	-0.134
-485.435	112.520	-0.290	0.351
-484.420	-94.969	-0.184	-0.050
-483.405	-200.000	-0.033	-0.342
-482.391	660.202	0.034	-0.088
-481.376	800.000	-0.083	0.328
-480.362	-63.640	-0.042	0.017
-479.347	-200.000	-0.006	-0.161
-478.332	10.525	0.145	-0.110
-477.318	-200.000	0.007	-0.385
-476.303	-148.876	-0.403	0.033
-475.289	-200.000	0.007	-0.422
-474.274	-172.324	0.193	-0.006
-473.259	-38.357	-0.281	-0.149
-472.245	-20.570	-0.307	-0.189
-471.230	-200.000	-0.046	0.348
-470.216	-14.862	-0.422	-0.271
-469.201	67.473	-0.142	0.145
-468.186	367.341	-0.060	0.122
-467.172	-36.571	-0.305	0.164
-466.157	800.000	-0.156	-0.531
-465.143	-109.586	-0.033	0.007
-464.128	800.000	-0.037	-0.104
-463.113	800.000	-0.019	-0.082
-462.099	-63.162	0.103	0.042
-461.084	-200.000	0.010	-0.097
-460.070	6.206	0.203	0.151
-459.055	257.636	-0.254	-0.436
-458.040	800.000	-0.073	0.208
-457.026	136.226	-0.194	-0.253
-456.011	-3.562	-0.120	-0.084
-454.997	800.000	-0.042	-0.124
-453.982	95.492	0.033	-0.037
-452.968	-72.468	0.034	-0.013
-451.953	-200.000	0.031	-0.184
-450.938	95.738	-0.141	0.161
-449.924	135.720	0.083	0.108
-448.909	-200.000	-0.007	0.075
-447.895	-21.016	0.330	-0.202
-446.880	800.000	0.061	-0.242
-445.865	677.498	-0.051	0.131
-444.851	138.756	-0.176	-0.231
-443.836	319.457	0.038	-0.072
-442.822	635.985	-0.025	0.063
-441.807	-200.000	0.034	-0.176
-440.792	-200.000	0.073	0.385
-439.778	-200.000	0.010	0.081
-438.763	-92.076	0.093	0.026
-437.749	-200.000	-0.024	-0.120
-436.734	-86.936	-0.341	-0.104
-435.719	415.807	-0.025	0.052
-434.705	675.376	-0.092	-0.238
-433.690	-197.822	0.134	-0.001
-432.676	286.543	-0.070	-0.127
-431.661	-124.949	0.260	0.040
-430.646	-114.675	0.425	-0.081
-429.632	800.000	0.010	-0.028
-428.617	800.000	-0.045	-0.180
-427.603	800.000	-0.097	0.302
-426.588	177.248	0.208	-0.302
-425.573	-25.543	-0.239	0.141
-424.559	-114.141	0.214	0.041
-423.544	-200.000	-0.012	0.356
-422.530	28.373	0.055	0.046
-421.515	80.169	-0.106	0.114
-420.500	-7.366	-0.189	-0.128
-419.486	361.165	-0.110	-0.220
-418.471	-200.000	0.003	0.236
-417.457	5.545	0.046	0.034
-416.442	216.248	-0.110	-0.175
-415.428	-83.799	0.300	0.095
-414.413	-117.053	0.289	-0.053
-413.398	748.130	0.146	-0.394
-412.384	305.540	-0.132	0.244
-411.369	-10.355	-0.234	0.154
-410.355	352.420	0.153	0.302
-409.340	800.000	0.033	0.106
-408.325	-200.000	-0.001	-0.131
-407.311	55.403	0.056	0.054
-406.296	-62.627	0.178	0.074
-405.282	-145.503	-0.276	-0.025
-404.267	800.000	0.029	0.089
-403.252	18.526	-0.095	0.075
-402.238	800.000	-0.095	0.268
-401.223	27.891	0.281	0.236
-400.209	-200.000	-0.022	-0.102
-399.194	0.109	0.247	-0.175
-398.179	114.707	-0.138	0.168
-397.165	27.112	0.203	0.170
-396.150	85.528	0.153	-0.167
-395.136	-200.000	-0.039	-0.257
-394.121	48.898	0.270	0.252
-393.106	111.081	-0.223	0.267
-392.092	126.028	-0.164	0.207
-391.077	-200.000	-0.013	-0.064
-390.063	95.126	-0.120	0.137
-389.048	800.000	0.023	-0.085
-388.033	187.034	-0.200	0.297
-387.019	-121.630	-0.280	0.046
-386.004	6.646	0.286	-0.212
-384.990	171.022	0.165	0.235
-383.975	114.822	0.212	0.257
-382.960	-200.000	0.018	-0.131
-381.946	-134.070	0.286	-0.035
-380.931	57.164	0.127	-0.124
-379.917	800.000	-0.034	0.125
-378.902	-88.123	-0.065	0.019
-377.888	-119.833	-0.169	0.029
-376.873	-39.259	0.250	0.131
-375.858	-131.101	-0.246	-0.033
-374.844	12.340	-0.236	-0.181
-373.829	475.705	0.054	0.122
-372.815	188.627	-0.237	0.353
-371.800	513.575	-0.033	-0.077
-370.785	-2.445	-0.041	0.028
-369.771	-26.509	0.194	-0.113
-368.756	-53.829	0.166	-0.075
-367.742	-200.000	-0.012	-0.105
-366.727	-200.000	-0.030	0.191
-365.712	-48.160	-0.276	-0.133
-364.698	267.909	0.032	0.057
-363.683	-23.867	0.114	-0.068
-362.669	-112.278	0.258	0.051
-361.654	-200.000	0.021	0.133
-360.639	-57.379	0.550	-0.240
-359.625	-37.679	0.366	0.194
-358.610	-30.856	0.093	-0.052
-357.596	-200.000	-0.002	0.344
-356.581	40.988	0.012	-0.011
-355.566	-46.284	0.258	-0.126
-354.552	-94.765	-0.189	-0.051
-353.537	-115.465	-0.191	0.036
-352.523	-32.323	0.095	-0.053
-351.508	800.000	-0.014	-0.050
-350.493	6.179	0.212	0.157
-349.479	-183.800	-0.019	-0.000
-348.464	207.823	-0.182	0.282
-347.450	-200.000	0.043	-0.389
-346.435	55.857	0.194	-0.187
-345.420	-116.156	-0.031	0.006
-344.406	206.022	-0.081	-0.126
-343.391	-33.474	-0.189	0.104
-342.377	245.979	0.091	-0.152
-341.362	-40.767	0.104	0.054
-340.348	800.000	-0.019	-0.052
-339.333	-122.562	0.306	0.049
-338.318	1.291	0.212	-0.151
-337.304	-200.000	-0.011	-0.419
-336.289	-71.907	-0.186	-0.069
-335.275	421.777	0.013	0.028
-334.260	-54.770	0.267	0.120
-333.245	800.000	0.026	-0.082
-332.231	-200.000	0.051	-0.349
-331.216	800.000	0.055	-0.197
-330.202	-109.139	0.106	0.022
-329.187	52.449	-0.227	0.216
-328.172	653.628	-0.071	0.181
-327.158	-23.171	0.188	-0.113
-326.143	267.054	-0.123	-0.213
-325.129	-66.910	0.229	0.090
-324.114	800.000	-0.096	-0.376
-323.099	-84.458	0.079	-0.025
-322.085	112.431	0.231	0.278
-321.070	-200.000	0.025	0.195
-320.056	599.683	0.111	0.275
-319.041	-6.755	-0.481	0.325
-318.026	-143.947	0.264	0.025
-317.012	-56.675	0.076	-0.033
-315.997	67.093	-0.371	-0.376
-314.983	83.384	0.064	0.069
-313.968	-32.151	0.298	-0.165
-312.953	34.193	-0.183	-0.159
-311.939	-51.271	-0.176	0.082
-310.924	281.287	-0.080	0.143
-309.910	-136.024	-0.059	-0.007
-308.895	100.305	0.030	-0.034
-307.880	-60.382	0.109	-0.046
-306.866	291.959	0.087	-0.158
-305.851	-104.149	0.266	0.061
-304.837	-100.709	-0.100	0.024
-303.822	189.196	-0.318	-0.473
-302.807	-200.000	0.046	-0.240
-301.793	568.794	0.047	-0.112
-300.778	-200.000	-0.036	-0.163
-299.764	-200.000	0.024	0.218
-298.749	-18.294	-0.401	-0.249
-297.735	177.947	0.055	-0.080
-296.720	-145.850	0.457	-0.040
-295.705	-200.000	-0.085	0.396
-294.691	800.000	0.110	-0.439
-293.676	209.944	0.068	0.106
-292.662	-48.633	0.206	0.098
-291.647	-75.310	-0.365	-0.129
-290.632	281.397	-0.070	0.124
-289.618	109.526	-0.190	-0.226
-288.603	-63.965	-0.336	-0.136
-287.589	-200.000	0.038	0.224
-286.574	63.984	0.168	-0.167
-285.559	-142.638	0.178	-0.017
-284.545	-82.531	0.159	0.051
-283.530	446.008	0.104	0.227
-282.516	-200.000	0.082	-0.428
-281.501	348.744	0.036	-0.070
-280.486	-166.760	0.057	0.002
-279.472	800.000	-0.068	-0.202
-278.457	-71.149	-0.271	0.101
-277.443	-38.136	-0.285	-0.150
-276.428	-200.000	0.005	-0.190
-275.413	800.000	-0.061	-0.232
-274.399	-200.000	0.006	0.422
-273.384	-117.404	0.264	0.047
-272.370	4.402	-0.278	-0.202
-271.355	-200.000	0.001	0.424
-270.340	800.000	-0.052	0.183
-269.326	160.608	-0.155	0.215
-268.311	-71.860	0.135	0.050
-267.297	-68.871	0.239	-0.092
-266.282	-200.000	-0.031	0.296
-265.267	43.953	-0.137	-0.125
-264.253	-125.969	0.314	0.047
-263.238	37.847	0.075	0.066
-262.224	-172.324	-0.088	0.003
-261.209	-132.611	0.461	0.059
-260.195	-45.366	0.165	-0.081
-259.180	-115.695	-0.183	0.034
-258.165	-200.000	0.003	-0.248
-257.151	800.000	0.030	0.100
-256.136	114.561	-0.061	0.074
-255.122	57.232	0.097	-0.093
-254.107	270.145	-0.186	0.325
-253.092	14.616	-0.058	-0.045
-252.078	-200.000	0.012	-0.207
-251.063	239.212	0.350	-0.577
-250.049	-200.000	0.018	0.105
-249.034	-200.000	0.070	0.440
-248.019	332.525	-0.070	-0.134
-247.005	-36.065	-0.172	-0.092
-245.990	-175.807	-0.256	0.007
-244.976	-200.000	-0.025	-0.245
-243.961	164.502	0.116	-0.162
-242.946	-200.000	0.014	-0.078
-241.932	-18.575	-0.168	-0.104
-240.917	800.000	0.084	0.293
-239.903	41.098	-0.177	0.158
-238.888	241.772	-0.090	-0.150
-237.873	-200.000	0.032	-0.144
-236.859	-1.039	-0.235	0.165
-235.844	698.923	0.054	0.140
-234.830	321.911	0.021	0.039
-233.815	-129.973	0.270	-0.037
-232.800	-22.362	-0.254	-0.153
-231.786	-110.923	-0.066	-0.013
-230.771	165.983	0.260	-0.365
-229.757	-120.727	0.205	-0.034
-228.742	800.000	-0.019	-0.053
-227.727	89.160	-0.060	-0.066
-226.713	553.955	0.088	0.209
-225.698	-67.316	0.268	0.104
-224.684	-145.742	0.092	0.008
-223.669	-200.000	-0.002	-0.019
-222.655	-74.704	0.048	0.017
-221.640	-58.607	-0.331	-0.142
-220.625	-200.000	-0.082	0.421
-219.611	2.520	-0.080	-0.058
-218.596	-37.480	-0.275	0.145
-217.582	-200.000	0.020	0.288
-216.567	316.545	-0.070	-0.131
-215.552	-118.026	0.190	-0.034
-214.538	800.000	-0.098	0.277
-213.523	538.055	0.109	-0.256
-212.509	-200.000	0.032	0.197
-211.494	-10.488	0.055	0.036
-210.479	284.320	-0.025	-0.044
-209.465	-200.000	0.025	0.207
-208.450	-146.605	-0.127	0.011
-207.436	-39.940	0.133	0.069
-206.421	128.002	-0.195	0.245
-205.406	-12.164	0.125	-0.081
-204.392	111.733	0.183	0.219
-203.377	800.000	0.090	0.365
-202.363	-91.282	-0.040	-0.011
-201.348	377.640	0.012	0.025
-200.333	19.728	-0.153	0.122
-199.319	-120.126	0.155	-0.026
-198.304	800.000	-0.066	-0.198
-197.290	57.863	0.181	-0.175
-196.275	-158.116	0.167	-0.010
-195.260	4.090	0.257	0.186
-194.246	-182.980	0.038	-0.001
-193.231	63.813	0.219	0.218
-192.217	-132.412	0.253	-0.032
-191.202	445.305	-0.005	-0.010
-190.187	-58.422	-0.019	-0.008
-189.173	-12.398	-0.381	0.246
-188.158	129.146	-0.148	-0.186
-187.144	-200.000	0.041	-0.235
-186.129	800.000	0.073	-0.247
-185.114	74.506	0.073	0.076
-184.100	90.445	-0.141	-0.157
-183.085	-30.985	0.246	-0.137
-182.071	800.000	-0.008	0.033
-181.056	800.000	0.051	0.160
-180.042	76.537	0.242	0.253
-179.027	68.210	0.020	-0.020
-178.012	-141.039	-0.228	-0.023
-176.998	624.618	0.133	0.330
-175.983	79.503	0.118	0.125
-174.969	36.047	-0.096	0.084
-173.954	-118.666	0.293	-0.051
-172.939	184.252	0.060	0.087
-171.925	800.000	-0.047	-0.203
-170.910	-9.383	0.033	-0.022
-169.896	176.727	-0.034	0.049
-168.881	-200.000	-0.022	0.120
-167.866	800.000	-0.030	0.102
-166.852	629.081	0.071	0.177
-165.837	-97.610	0.247	0.063
-164.823	-180.284	0.437	0.009
-163.808	-200.000	0.006	0.057
-162.793	474.814	-0.163	0.364
-161.779	-200.000	-0.008	-0.123
-160.764	-72.134	-0.164	0.060
-159.750	-200.000	0.036	0.295
-158.735	443.823	-0.051	0.111
-157.720	12.728	0.167	0.127
-156.706	-200.000	0.008	-0.163
-155.691	244.082	0.016	-0.027
-154.677	-84.090	0.169	0.053
-153.662	-37.663	-0.232	0.122
-152.647	-200.000	0.020	0.120
-151.633	800.000	0.022	-0.076
-150.618	-49.243	0.089	-0.042
-149.604	800.000	0.063	0.205
-148.589	-38.848	0.054	-0.028
-147.574	-111.417	-0.270	-0.054
-146.560	800.000	0.022	0.081
-145.545	171.846	0.105	-0.149
-144.531	-175.885	-0.260	-0.007
-143.516	58.888	0.096	-0.093
-142.502	555.589	0.061	-0.145
-141.487	45.813	0.082	0.075
-140.472	-126.519	0.174	0.025
-139.458	309.947	-0.072	-0.133
-138.443	-42.556	-0.124	0.062
-137.429	-185.116	-0.255	0.004
-136.414	-111.949	0.363	0.072
-135.399	-32.800	0.224	-0.123
-134.385	-62.469	0.054	0.022
-133.370	-67.081	-0.372	0.145
-132.356	-21.929	0.280	-0.168
-131.341	800.000	0.033	0.103
-130.326	800.000	0.056	0.171
-129.312	-200.000	-0.038	0.614
-128.297	4.941	-0.157	-0.114
-127.283	1.585	0.049	-0.035
-126.268	59.721	0.130	0.127
-125.253	-67.516	0.161	-0.062
-124.239	-200.000	-0.020	-0.317
-123.224	-63.976	0.328	-0.132
-122.210	26.502	0.191	0.157
-121.195	103.493	0.280	-0.324
