DTS Sentinel unit serial number:	SN413079Multiplexer serial number:	ORYXHardware model number:	OX4-SRSoftware version number:	ORYX F/W v4.00 Oryx Data Collector v3.7.2.0data status	okinstallation	princeton_trtdifferential loss correction	single-endedforward channel	channel 2reverse channel	N/Adate	2019/09/18time	06:39:35forward acquisition time	60.00reverse acquisition time	0.00gamma	496.2192k internal	0.2349k external	0.2349temperature offset calibration	0.9983default loss term (dB/km)	0.3790temperature slope calibration	1.0000multiplexer offset coefficient	1.0000multiplexer slope coefficient	1.0000fibre end	0.00T internal ref (°C)	23.28T ext. ref 1 (°C)	0.19T ext. ref 2 (°C)	17.16length (m)	temperature (°C)	Stokes	anti-Stokes-747.200	169.951	-0.052	0.074
-746.185	69.470	-0.154	-0.159
-745.171	-200.000	0.031	-0.375
-744.156	248.467	-0.170	0.288
-743.142	-200.000	0.006	0.268
-742.127	-122.405	-0.656	-0.107
-741.112	-104.721	0.188	-0.043
-740.098	-121.576	0.183	0.030
-739.083	-118.398	0.256	0.045
-738.069	638.935	-0.113	-0.288
-737.054	800.000	0.062	0.248
-736.039	-77.853	-0.204	0.070
-735.025	402.309	0.139	0.291
-734.010	-200.000	-0.052	-0.298
-732.996	-96.556	-0.214	0.056
-731.981	-5.457	-0.218	-0.150
-730.966	-75.963	-0.202	-0.071
-729.952	-52.545	-0.109	0.050
-728.937	423.915	0.151	-0.325
-727.923	31.352	-0.215	0.184
-726.908	-200.000	0.036	0.239
-725.894	-86.136	-0.271	-0.084
-724.879	-200.000	-0.035	0.189
-723.864	-200.000	0.014	-0.066
-722.850	-34.740	-0.291	-0.159
-721.835	-188.334	-0.164	0.002
-720.821	-49.644	0.185	0.088
-719.806	-75.689	-0.173	0.061
-718.791	249.841	0.144	-0.243
-717.777	330.081	-0.080	-0.154
-716.762	-74.576	0.271	-0.097
-715.748	-104.069	0.227	0.053
-714.733	800.000	-0.037	-0.117
-713.718	68.739	-0.014	0.015
-712.704	-32.861	-0.198	-0.110
-711.689	202.068	0.138	-0.213
-710.675	-11.209	-0.210	-0.138
-709.660	56.923	0.203	-0.198
-708.645	86.617	0.136	-0.150
-707.631	158.273	-0.127	0.176
-706.616	-21.172	0.172	0.105
-705.602	-104.717	0.180	0.041
-704.587	-17.386	0.073	0.046
-703.572	-200.000	0.023	-0.162
-702.558	-200.000	-0.003	0.220
-701.543	118.702	-0.139	-0.172
-700.529	-4.181	0.082	-0.056
-699.514	-200.000	0.060	-0.280
-698.499	800.000	-0.105	-0.344
-697.485	800.000	-0.024	-0.091
-696.470	212.904	-0.069	-0.109
-695.456	-17.987	0.133	-0.083
-694.441	-37.787	0.103	0.055
-693.426	-200.000	0.000	-0.069
-692.412	71.456	0.156	0.162
-691.397	-177.471	0.151	0.004
-690.383	-146.911	-0.491	0.042
-689.368	-108.831	-0.401	0.085
-688.354	-110.736	-0.284	0.058
-687.339	262.394	0.132	-0.228
-686.324	-134.991	0.294	-0.035
-685.310	-200.000	-0.012	-0.153
-684.295	-200.000	-0.028	0.341
-683.281	-87.449	-0.113	0.034
-682.266	-117.501	-0.195	-0.035
-681.251	800.000	-0.035	0.116
-680.237	-200.000	0.021	-0.131
-679.222	-25.619	0.087	-0.051
-678.208	-135.091	0.023	-0.003
-677.193	183.449	-0.078	0.114
-676.178	800.000	0.035	-0.101
-675.164	110.719	-0.011	-0.013
-674.149	-200.000	-0.002	0.184
-673.135	51.782	-0.417	0.395
-672.120	89.162	0.240	0.266
-671.105	-7.560	-0.338	-0.228
-670.091	671.806	-0.203	-0.524
-669.076	-89.699	0.377	-0.110
-668.062	-200.000	-0.020	-0.165
-667.047	-127.205	-0.363	-0.053
-666.032	30.633	0.098	-0.084
-665.018	40.348	0.195	0.175
-664.003	-131.018	-0.174	-0.023
-662.989	800.000	-0.082	0.322
-661.974	788.753	-0.154	0.422
-660.959	-72.834	0.177	0.065
-659.945	776.324	0.036	-0.097
-658.930	-200.000	-0.009	0.174
-657.916	-32.675	-0.331	0.183
-656.901	111.318	0.115	0.138
-655.886	-36.061	0.226	-0.122
-654.872	-58.327	-0.073	-0.032
-653.857	800.000	0.079	-0.283
-652.843	314.727	-0.192	-0.361
-651.828	52.112	0.231	0.219
-650.814	48.760	-0.144	-0.134
-649.799	-200.000	-0.009	0.085
-648.784	-200.000	-0.063	0.393
-647.770	144.321	-0.237	0.315
-646.755	94.634	0.164	-0.185
-645.741	20.370	-0.201	-0.162
-644.726	-148.802	0.118	-0.010
-643.711	170.471	0.148	0.210
-642.697	538.368	-0.105	-0.248
-641.682	-156.064	-0.624	0.039
-640.668	-100.654	0.132	-0.032
-639.653	229.885	0.135	0.220
-638.638	72.686	-0.079	0.082
-637.624	800.000	0.058	0.214
-636.609	-21.332	-0.182	0.110
-635.595	70.793	-0.170	0.175
-634.580	-200.000	0.020	-0.311
-633.565	-200.000	0.000	0.259
-632.551	-54.819	-0.087	0.039
-631.536	-191.041	-0.151	-0.002
-630.522	13.029	0.040	0.031
-629.507	16.950	-0.254	-0.200
-628.492	151.281	-0.063	0.085
-627.478	800.000	-0.067	-0.279
-626.463	-200.000	-0.060	-0.338
-625.449	21.601	-0.058	0.047
-624.434	-79.332	-0.175	-0.059
-623.419	622.589	-0.075	-0.187
-622.405	-114.812	0.210	0.040
-621.390	-69.147	0.152	0.058
-620.376	-119.568	-0.273	-0.047
-619.361	-44.983	-0.252	-0.124
-618.346	800.000	-0.046	-0.168
-617.332	249.591	-0.264	-0.446
-616.317	-200.000	0.020	0.125
-615.303	-13.073	0.496	-0.321
-614.288	-69.439	-0.541	-0.206
-613.273	266.838	0.054	0.094
-612.259	-113.068	-0.093	-0.018
-611.244	-99.006	0.171	0.043
-610.230	605.611	-0.134	-0.332
-609.215	233.213	0.197	-0.321
-608.201	800.000	-0.101	-0.415
-607.186	800.000	-0.047	-0.154
-606.171	215.065	0.201	-0.316
-605.157	-83.813	-0.239	-0.076
-604.142	-98.833	0.184	0.046
-603.128	120.895	-0.184	-0.227
-602.113	126.291	0.257	-0.322
-601.098	48.340	0.226	-0.211
-600.084	26.134	0.122	-0.101
-599.069	-81.634	0.214	-0.070
-598.055	-85.735	-0.512	-0.158
-597.040	78.609	0.115	0.122
-596.025	8.674	0.135	-0.101
-595.011	79.602	-0.253	0.269
-593.996	-88.525	-0.243	0.072
-592.982	-200.000	-0.027	0.253
-591.967	-44.966	-0.118	0.058
-590.952	332.913	0.078	-0.149
-589.938	581.617	-0.143	0.348
-588.923	259.509	-0.085	-0.146
-587.909	-200.000	0.011	0.194
-586.894	-31.792	-0.123	0.068
-585.879	800.000	0.137	0.377
-584.865	9.078	0.231	0.173
-583.850	443.719	-0.062	0.135
-582.836	800.000	-0.081	0.336
-581.821	108.217	0.115	0.136
-580.806	800.000	-0.068	-0.239
-579.792	800.000	0.056	-0.203
-578.777	467.385	0.125	0.278
-577.763	35.295	-0.198	-0.173
-576.748	116.519	0.122	0.148
-575.733	-57.135	-0.275	0.120
-574.719	16.930	-0.178	-0.140
-573.704	-65.021	0.104	0.042
-572.690	-80.495	-0.180	0.059
-571.675	206.732	0.163	0.252
-570.661	27.526	-0.208	-0.174
-569.646	604.997	0.030	-0.075
-568.631	-0.927	0.122	0.086
-567.617	-200.000	-0.119	0.563
-566.602	238.574	-0.043	-0.071
-565.588	114.127	-0.048	0.058
-564.573	-118.159	-0.288	-0.051
-563.558	448.023	0.086	-0.189
-562.544	280.602	-0.085	0.150
-561.529	-130.649	-0.308	-0.041
-560.515	-10.011	0.280	0.185
-559.500	-200.000	-0.006	0.325
-558.485	-182.773	0.053	0.001
-557.471	-27.440	0.451	-0.260
-556.456	65.505	-0.288	-0.289
-555.442	-26.519	0.087	0.051
-554.427	442.035	0.044	0.097
-553.412	140.258	-0.073	0.096
-552.398	76.993	0.081	0.085
-551.383	-19.613	0.199	-0.122
-550.369	800.000	0.105	0.362
-549.354	-133.148	-0.216	0.027
-548.339	-12.663	-0.125	0.081
-547.325	-77.755	-0.269	-0.092
-546.310	-67.734	0.165	-0.064
-545.296	195.395	-0.051	0.077
-544.281	138.884	0.057	-0.075
-543.266	472.874	0.134	0.299
-542.252	-18.313	0.193	-0.119
-541.237	-14.907	0.144	-0.092
-540.223	-67.135	-0.177	0.069
-539.208	80.965	0.048	0.051
-538.193	414.217	-0.069	0.145
-537.179	-73.558	0.155	-0.056
-536.164	380.588	0.066	-0.134
-535.150	800.000	-0.052	0.179
-534.135	580.811	0.118	0.286
-533.121	-126.126	-0.377	0.056
-532.106	-200.000	0.017	-0.080
-531.091	193.914	-0.081	0.121
-530.077	80.977	-0.086	0.092
-529.062	-57.936	-0.157	-0.068
-528.048	-131.508	0.152	0.020
-527.033	470.473	0.098	0.219
-526.018	44.022	-0.172	-0.156
-525.004	713.969	-0.047	0.123
-523.989	145.381	0.126	-0.167
-522.975	-26.301	-0.157	-0.091
-521.960	-200.000	-0.026	0.305
-520.945	166.881	0.213	-0.299
-519.931	-66.084	-0.118	-0.047
-518.916	-133.237	-0.208	-0.026
-517.902	531.753	-0.068	0.160
-516.887	5.446	-0.162	0.118
-515.872	90.645	0.161	-0.178
-514.858	112.464	-0.080	0.096
-513.843	11.348	0.045	0.034
-512.829	213.571	-0.275	-0.430
-511.814	-200.000	-0.000	-0.382
-510.799	800.000	0.029	0.124
-509.785	800.000	0.066	-0.191
-508.770	-132.824	-0.420	-0.053
-507.756	-68.789	0.242	0.093
-506.741	798.889	-0.019	-0.052
-505.726	69.113	-0.113	-0.115
-504.712	242.773	0.089	-0.147
-503.697	-8.174	0.376	-0.250
-502.683	-16.295	-0.139	0.087
-501.668	345.307	-0.087	0.170
-500.653	4.239	-0.331	-0.240
-499.639	-107.058	0.188	0.041
-498.624	280.748	-0.093	-0.165
-497.610	-79.872	-0.213	0.071
-496.595	4.066	0.130	-0.094
-495.581	52.905	-0.320	0.303
-494.566	-116.155	0.194	0.036
-493.551	349.137	0.071	0.139
-492.537	379.395	0.034	0.069
-491.522	80.357	-0.120	-0.127
-490.508	227.617	-0.082	-0.132
-489.493	-22.663	-0.275	-0.164
-488.478	-55.813	0.187	-0.082
-487.464	-200.000	-0.512	0.001
-486.449	-200.000	0.024	0.407
-485.435	487.271	0.039	-0.088
-484.420	-200.000	-0.032	0.153
-483.405	-82.574	-0.010	-0.003
-482.391	-200.000	-0.028	-0.355
-481.376	277.627	-0.204	-0.359
-480.362	-81.190	-0.244	-0.080
-479.347	-62.480	0.138	-0.057
-478.332	204.856	0.080	0.122
-477.318	295.739	0.093	-0.168
-476.303	162.249	0.243	-0.336
-475.289	251.636	0.079	0.133
-474.274	487.662	0.066	0.148
-473.259	-75.823	0.215	0.075
-472.245	-200.000	0.052	0.236
-471.230	-200.000	0.003	0.130
-470.216	54.709	-0.253	0.241
-469.201	-69.818	-0.318	-0.120
-468.186	214.119	-0.190	-0.298
-467.172	-116.083	0.423	0.078
-466.157	-84.229	0.071	0.022
-465.143	-5.555	-0.150	0.102
-464.128	800.000	-0.085	0.282
-463.113	-163.218	0.527	0.025
-462.099	-90.058	-0.416	0.120
-461.084	-114.896	-0.147	-0.028
-460.070	197.382	-0.275	-0.415
-459.055	-27.403	0.357	0.205
-458.040	-43.923	-0.076	-0.038
-457.026	-38.682	-0.204	-0.106
-456.011	92.676	-0.135	0.151
-454.997	571.875	-0.030	-0.071
-453.982	121.181	0.226	-0.277
-452.968	30.222	-0.152	-0.128
-451.953	-153.823	-0.187	-0.013
-450.938	17.902	-0.147	-0.116
-449.924	-200.000	-0.003	0.482
-448.909	-15.141	-0.338	0.214
-447.895	113.850	-0.163	0.195
-446.880	-200.000	0.046	0.340
-445.865	189.315	-0.144	0.213
-444.851	800.000	0.098	-0.344
-443.836	-18.873	0.291	0.179
-442.822	-200.000	-0.008	-0.099
-441.807	-200.000	0.182	-0.000
-440.792	127.183	-0.034	0.042
-439.778	-200.000	0.030	0.146
-438.763	-57.479	0.110	0.048
-437.749	-200.000	0.026	-0.251
-436.734	-72.106	-0.248	0.091
-435.719	278.326	0.168	-0.295
-434.705	222.317	-0.344	-0.546
-433.690	-111.543	-0.437	-0.088
-432.676	-86.873	-0.192	-0.058
-431.661	-200.000	-0.055	-0.252
-430.646	-200.000	0.002	-0.079
-429.632	615.924	-0.066	0.163
-428.617	-200.000	-0.069	-0.340
-427.603	227.679	0.118	-0.189
-426.588	800.000	-0.051	-0.213
-425.573	73.645	-0.308	-0.318
-424.559	-77.882	0.229	-0.078
-423.544	-200.000	0.005	-0.332
-422.530	-24.079	-0.129	0.076
-421.515	159.496	0.238	-0.327
-420.500	188.629	-0.125	-0.184
-419.486	-200.000	0.032	0.223
-418.471	-120.960	0.038	-0.006
-417.457	-73.290	-0.086	-0.031
-416.442	-200.000	0.068	0.511
-415.428	800.000	0.032	-0.123
-414.413	800.000	0.142	-0.556
-413.398	-117.512	0.151	-0.027
-412.384	726.974	0.071	0.187
-411.369	-20.248	0.124	-0.075
-410.355	-200.000	0.024	0.305
-409.340	-70.133	-0.165	-0.062
-408.325	477.254	0.103	0.229
-407.311	800.000	0.099	-0.305
-406.296	-56.802	-0.119	-0.052
-405.282	-200.000	-0.023	-0.160
-404.267	800.000	0.073	-0.198
-403.252	734.572	0.066	-0.174
-402.238	-136.385	0.157	-0.018
-401.223	-43.094	-0.127	0.064
-400.209	799.696	0.056	0.152
-399.194	-87.264	-0.118	-0.035
-398.179	19.995	-0.225	0.179
-397.165	800.000	0.057	0.197
-396.150	-200.000	0.013	-0.091
-395.136	339.832	0.083	-0.159
-394.121	800.000	0.061	-0.209
-393.106	-38.375	-0.047	-0.025
-392.092	-115.270	0.220	0.041
-391.077	237.848	-0.119	-0.195
-390.063	16.411	0.126	-0.098
-389.048	515.295	-0.245	0.563
-388.033	-10.692	-0.130	0.084
-387.019	-94.792	0.248	-0.066
-386.004	-74.549	-0.226	0.080
-384.990	800.000	0.054	0.231
-383.975	500.862	-0.090	0.204
-382.960	29.499	-0.112	0.094
-381.946	398.849	0.115	0.237
-380.931	-95.462	0.062	0.016
-379.917	800.000	-0.039	0.151
-378.902	-200.000	-0.010	-0.146
-377.888	-112.414	0.189	-0.037
-376.873	-91.993	-0.292	-0.082
-375.858	-57.149	0.273	-0.118
-374.844	141.193	0.071	0.092
-373.829	-39.960	-0.019	0.010
-372.815	259.215	0.111	0.189
-371.800	531.922	-0.013	0.029
-370.785	800.000	-0.026	0.075
-369.771	341.448	0.188	-0.362
-368.756	257.333	-0.101	-0.171
-367.742	55.792	-0.191	0.182
-366.727	800.000	-0.023	0.087
-365.712	-4.474	-0.264	-0.179
-364.698	205.927	0.178	0.272
-363.683	800.000	-0.028	-0.087
-362.669	-41.744	0.157	-0.079
-361.654	-160.822	-0.378	0.020
-360.639	85.917	0.218	0.236
-359.625	800.000	-0.111	0.424
-358.610	-127.455	-0.310	0.044
-357.596	-85.999	-0.245	-0.075
-356.581	-200.000	-0.032	-0.194
-355.566	800.000	0.005	0.018
-354.552	-85.124	0.212	0.065
-353.537	161.793	0.074	-0.102
-352.523	-46.812	0.208	0.100
-351.508	-32.232	0.120	0.066
-350.493	800.000	-0.057	-0.155
-349.479	16.439	0.198	-0.153
-348.464	506.731	-0.003	-0.007
-347.450	54.100	-0.162	-0.153
-346.435	84.899	-0.186	-0.201
-345.420	70.360	-0.230	-0.233
-344.406	-48.515	0.205	-0.097
-343.391	-200.000	0.005	0.064
-342.377	-200.000	0.006	0.056
-341.362	530.106	-0.100	0.232
-340.348	47.650	0.238	0.218
-339.333	-42.609	-0.216	-0.108
-338.318	240.675	0.202	0.331
-337.304	13.529	0.206	0.157
-336.289	-200.000	-0.016	-0.190
-335.275	32.775	0.164	-0.140
-334.260	526.428	-0.081	0.188
-333.245	-200.000	-0.016	-0.110
-332.231	-82.607	0.164	-0.052
-331.216	-30.129	0.116	0.065
-330.202	227.679	-0.100	-0.159
-329.187	106.420	0.074	0.086
-328.172	800.000	0.050	0.188
-327.158	-200.000	-0.022	0.213
-326.143	-38.165	0.068	0.035
-325.129	34.624	0.198	0.170
-324.114	-136.844	0.183	-0.021
-323.099	-200.000	0.078	0.367
-322.085	-43.957	0.046	0.023
-321.070	23.949	-0.109	-0.088
-320.056	800.000	-0.074	-0.304
-319.041	249.497	0.131	-0.218
-318.026	-168.520	-0.123	-0.005
-317.012	23.703	-0.018	-0.014
-315.997	68.845	0.179	0.181
-314.983	-142.134	0.273	-0.027
-313.968	27.153	0.210	-0.173
-312.953	341.505	0.090	0.173
-311.939	-200.000	-0.028	0.165
-310.924	344.975	0.210	-0.406
-309.910	-200.000	-0.020	-0.211
-308.895	-183.930	-0.077	-0.001
-307.880	-200.000	0.007	0.034
-306.866	-200.000	0.021	-0.210
-305.851	-200.000	-0.027	0.195
-304.837	800.000	-0.043	-0.170
-303.822	-125.445	0.235	0.035
-302.807	-41.065	-0.248	-0.126
-301.793	-200.000	0.007	0.270
-300.778	28.285	-0.082	-0.068
-299.764	306.269	-0.122	0.223
-298.749	-192.685	0.272	-0.002
-297.735	95.266	0.188	-0.210
-296.720	-171.722	0.071	0.002
-295.705	-77.083	-0.476	0.163
-294.691	281.502	0.153	0.269
-293.676	-122.195	-0.217	-0.035
-292.662	-111.170	-0.221	0.044
-291.647	85.158	0.162	0.174
-290.632	-200.000	0.061	0.405
-289.618	79.627	0.160	0.168
-288.603	236.959	0.112	-0.182
-287.589	-160.661	0.305	-0.016
-286.574	-49.566	0.325	-0.152
-285.559	-60.403	-0.316	0.132
-284.545	800.000	-0.011	0.039
-283.530	-46.944	0.198	-0.095
-282.516	132.701	-0.107	0.135
-281.501	-200.000	-0.025	0.319
-280.486	-111.392	-0.282	0.056
-279.472	-200.000	0.030	0.305
-278.457	344.066	0.199	0.384
-277.443	-200.000	-0.000	0.119
-276.428	11.348	0.174	-0.131
-275.413	121.682	-0.058	-0.071
-274.399	162.773	-0.111	-0.153
-273.384	3.070	-0.318	0.227
-272.370	310.898	0.190	0.350
-271.355	-200.000	0.054	0.276
-270.340	154.901	-0.259	0.349
-269.326	-200.000	0.363	0.001
-268.311	314.029	0.082	0.152
-267.297	-144.611	0.429	-0.039
-266.282	-32.696	0.071	-0.039
-265.267	-66.450	0.133	0.052
-264.253	-71.944	0.197	-0.072
-263.238	-83.558	-0.153	-0.048
-262.224	7.362	0.205	-0.150
-261.209	800.000	-0.032	0.105
-260.195	800.000	0.103	0.314
-259.180	-91.548	-0.135	-0.038
-258.165	142.681	0.185	-0.241
-257.151	54.628	0.138	-0.131
-256.136	-93.376	0.106	0.029
-255.122	-135.624	0.252	0.029
-254.107	-110.523	-0.293	-0.059
-253.092	144.577	0.090	0.117
-252.078	-32.552	0.400	-0.219
-251.063	-11.623	0.096	-0.062
-250.049	-145.359	-0.082	-0.007
-249.034	-105.572	-0.123	0.027
-248.019	100.808	0.130	0.148
-247.005	800.000	-0.024	0.080
-245.990	-200.000	0.039	0.273
-244.976	287.185	0.037	0.065
-243.961	141.015	0.070	-0.090
-242.946	30.158	-0.179	-0.149
-241.932	93.085	-0.162	-0.180
-240.917	-125.791	0.164	-0.024
-239.903	24.343	0.119	0.096
-238.888	-200.000	-0.008	-0.071
-237.873	797.508	-0.026	0.071
-236.859	-141.927	0.218	0.021
-235.844	-24.516	0.227	-0.133
-234.830	448.768	-0.053	-0.114
-233.815	322.236	0.046	-0.085
-232.800	800.000	-0.151	-0.481
-231.786	-200.000	-0.008	-0.273
-230.771	-56.822	-0.115	0.050
-229.757	-22.753	0.078	-0.046
-228.742	38.887	-0.101	-0.088
-227.727	-153.968	-0.088	0.006
-226.713	-45.267	0.225	-0.109
-225.698	-76.022	0.198	0.068
-224.684	186.571	-0.137	0.200
-223.669	550.473	-0.035	-0.082
-222.655	160.627	0.092	0.125
-221.640	-200.000	-0.010	0.404
-220.625	182.731	0.063	0.091
-219.611	222.500	0.137	0.217
-218.596	98.424	0.183	0.206
-217.582	587.498	0.062	0.150
-216.567	-131.236	0.464	0.060
-215.552	357.429	-0.084	0.164
-214.538	-107.503	-0.139	-0.030
-213.523	19.044	0.099	-0.078
-212.509	800.000	-0.031	0.089
-211.494	-200.000	0.000	-0.255
-210.479	7.285	0.241	-0.176
-209.465	-200.000	-0.045	0.237
-208.450	125.201	0.244	-0.300
-207.436	529.196	0.086	0.199
-206.421	94.708	0.038	-0.042
-205.406	534.401	0.081	-0.187
-204.392	-200.000	0.039	-0.196
-203.377	-197.517	0.405	-0.002
-202.363	-81.013	-0.089	-0.029
-201.348	507.415	0.106	-0.241
-200.333	178.218	-0.179	0.256
-199.319	-200.000	0.010	0.254
-198.304	271.266	0.147	-0.253
-197.290	75.402	-0.282	-0.290
-196.275	800.000	0.100	0.318
-195.260	800.000	-0.057	-0.195
-194.246	-84.211	0.274	0.085
-193.231	11.832	-0.112	0.084
-192.217	-198.279	-0.187	-0.001
-191.202	-200.000	0.008	0.218
-190.187	248.537	-0.077	0.127
-189.173	588.523	-0.183	0.440
-188.158	350.169	0.108	-0.209
-187.144	-168.368	-0.239	0.009
-186.129	21.244	0.152	0.121
-185.114	-108.526	0.245	-0.052
-184.100	356.801	-0.114	0.223
-183.085	272.163	-0.075	-0.129
-182.071	63.616	0.229	-0.225
-181.056	-42.443	-0.140	-0.070
-180.042	54.069	0.388	0.364
-179.027	116.890	-0.095	-0.114
-178.012	800.000	0.071	0.272
-176.998	106.536	0.117	-0.135
-175.983	-80.203	-0.088	-0.029
-174.969	-200.000	0.009	-0.160
-173.954	759.686	0.070	-0.185
-172.939	-200.000	-0.020	0.125
-171.925	95.124	0.225	0.250
-170.910	162.549	0.107	0.147
-169.896	156.799	-0.206	-0.278
-168.881	800.000	-0.117	-0.409
-167.866	8.590	0.370	-0.272
-166.852	-185.764	-0.055	0.001
-165.837	39.629	0.139	0.122
-164.823	-19.711	0.055	0.033
-163.808	793.936	0.099	-0.267
-162.793	219.242	-0.083	-0.130
-161.779	-200.000	0.052	-0.261
-160.764	340.820	-0.116	-0.221
-159.750	345.724	-0.106	0.204
-158.735	-76.700	0.270	-0.092
-157.720	-200.000	-0.027	-0.422
-156.706	-200.000	0.018	0.397
-155.691	-114.190	-0.242	0.046
-154.677	-6.749	-0.026	0.017
-153.662	-20.569	-0.107	0.064
-152.647	-131.217	-0.177	0.023
-151.633	40.969	-0.007	-0.006
-150.618	-95.315	0.207	0.054
-149.604	-200.000	0.020	-0.221
-148.589	-142.821	-0.323	0.031
-147.574	-138.323	-0.257	0.028
-146.560	-200.000	0.024	-0.241
-145.545	-83.704	-0.369	0.115
-144.531	-2.168	0.320	-0.219
-143.516	-43.338	-0.200	0.099
-142.502	147.875	0.103	0.135
-141.487	75.339	-0.232	-0.238
-140.472	800.000	-0.045	0.172
-139.458	36.171	0.077	-0.067
-138.443	-154.794	0.252	-0.016
-137.429	149.563	-0.152	-0.201
-136.414	516.339	-0.130	0.296
-135.399	55.069	0.034	-0.032
-134.385	396.621	0.057	0.115
-133.370	109.493	-0.214	0.250
-132.356	800.000	-0.020	0.075
-131.341	-39.494	-0.228	-0.116
-130.326	-200.000	-0.017	-0.131
-129.312	95.574	0.179	-0.199
-128.297	-119.553	0.255	0.043
-127.283	-83.731	0.404	-0.126
-126.268	-129.777	-0.081	-0.011
-125.253	41.143	0.130	-0.115
-124.239	-68.552	0.063	0.024
-123.224	-200.000	-0.010	0.066
-122.210	-85.251	0.100	-0.030
-121.195	-200.000	-0.074	-0.355
