DTS Sentinel unit serial number:	SN413079Multiplexer serial number:	ORYXHardware model number:	OX4-SRSoftware version number:	ORYX F/W v4.00 Oryx Data Collector v3.7.2.0data status	okinstallation	princeton_trtdifferential loss correction	single-endedforward channel	channel 2reverse channel	N/Adate	2019/09/13time	23:07:35forward acquisition time	60.00reverse acquisition time	0.00gamma	496.2192k internal	0.2337k external	0.2337temperature offset calibration	1.0128default loss term (dB/km)	0.3790temperature slope calibration	1.0000multiplexer offset coefficient	1.0000multiplexer slope coefficient	1.0000fibre end	0.00T internal ref (°C)	27.23T ext. ref 1 (°C)	3.21T ext. ref 2 (°C)	21.23length (m)	temperature (°C)	Stokes	anti-Stokes-747.200	-165.873	0.159	-0.007
-746.185	-200.000	-0.011	-0.066
-745.171	-144.257	-0.382	0.036
-744.156	-200.000	0.046	0.402
-743.142	38.014	0.344	0.307
-742.127	-57.349	-0.373	0.165
-741.112	-200.000	0.057	-0.257
-740.098	155.627	0.166	-0.229
-739.083	4.996	0.045	0.033
-738.069	431.564	-0.096	0.209
-737.054	-58.349	0.319	0.139
-736.039	65.183	-0.108	-0.110
-735.025	-22.861	0.395	0.239
-734.010	-200.000	0.022	-0.168
-732.996	-41.162	-0.373	-0.193
-731.981	-107.943	0.097	-0.021
-730.966	-200.000	-0.007	-0.175
-729.952	284.752	-0.070	0.126
-728.937	-200.000	-0.002	-0.068
-727.923	-24.120	-0.349	0.209
-726.908	-74.729	-0.271	-0.098
-725.894	444.608	-0.102	-0.225
-724.879	692.117	0.175	-0.461
-723.864	-200.000	0.020	-0.355
-722.850	-200.000	0.025	-0.131
-721.835	-80.380	0.147	0.049
-720.821	107.970	-0.069	-0.082
-719.806	409.198	-0.107	-0.226
-718.791	67.046	-0.118	-0.120
-717.777	-112.638	-0.180	0.036
-716.762	-166.804	-0.175	0.007
-715.748	7.354	0.085	0.064
-714.733	-34.774	-0.029	0.016
-713.718	-110.551	-0.227	0.047
-712.704	-21.446	0.221	-0.135
-711.689	283.689	-0.139	-0.250
-710.675	-127.372	-0.202	-0.029
-709.660	63.848	-0.020	0.020
-708.645	800.000	-0.069	-0.281
-707.631	-160.767	0.129	-0.007
-706.616	-200.000	-0.013	-0.308
-705.602	167.721	0.143	-0.204
-704.587	-51.007	-0.374	0.176
-703.572	800.000	0.026	-0.075
-702.558	-200.000	0.157	0.001
-701.543	-98.918	-0.149	0.038
-700.529	47.526	0.206	-0.192
-699.514	-76.312	0.455	-0.161
-698.499	-200.000	0.015	0.173
-697.485	639.352	0.076	-0.194
-696.470	-101.484	0.411	-0.100
-695.456	800.000	-0.056	-0.174
-694.441	800.000	-0.085	-0.285
-693.426	464.970	0.040	-0.091
-692.412	-107.638	0.209	0.046
-691.397	135.801	-0.129	0.168
-690.383	148.736	0.152	-0.206
-689.368	77.103	0.105	0.111
-688.354	437.341	0.081	0.176
-687.339	134.172	0.231	-0.299
-686.324	-62.125	0.288	-0.120
-685.310	800.000	-0.067	0.281
-684.295	379.756	-0.106	-0.218
-683.281	800.000	0.039	0.118
-682.266	-48.755	-0.321	-0.154
-681.251	549.827	0.037	0.088
-680.237	231.491	0.199	-0.327
-679.222	436.398	0.094	0.205
-678.208	-120.801	-0.131	-0.022
-677.193	130.440	0.097	0.125
-676.178	247.788	0.029	-0.050
-675.164	800.000	0.062	-0.226
-674.149	-16.602	-0.117	-0.074
-673.135	-170.771	-0.432	-0.015
-672.120	258.999	-0.022	-0.038
-671.105	-200.000	-0.043	-0.269
-670.091	-200.000	0.059	-0.279
-669.076	-73.587	-0.310	0.113
-668.062	-86.453	0.285	-0.088
-667.047	-70.586	0.026	0.010
-666.032	-94.845	-0.450	0.122
-665.018	-10.198	0.117	0.078
-664.003	132.805	-0.032	0.042
-662.989	10.768	0.193	0.147
-661.974	70.387	0.180	0.186
-660.959	115.394	-0.197	-0.241
-659.945	106.854	-0.051	0.061
-658.930	-0.736	0.120	-0.085
-657.916	800.000	0.107	-0.469
-656.901	-71.814	0.243	-0.090
-655.886	-96.891	-0.275	0.072
-654.872	800.000	-0.115	-0.404
-653.857	-0.697	0.296	-0.210
-652.843	800.000	0.034	-0.137
-651.828	-200.000	-0.058	-0.373
-650.814	542.425	0.062	-0.148
-649.799	213.098	0.249	-0.394
-648.784	293.587	0.120	-0.220
-647.770	-83.773	-0.123	0.039
-646.755	13.797	0.071	-0.055
-645.741	-26.127	-0.325	-0.191
-644.726	-200.000	-0.006	0.090
-643.711	-200.000	-0.028	-0.379
-642.697	357.524	0.066	-0.131
-641.682	-6.132	0.114	0.078
-640.668	29.364	-0.208	0.177
-639.653	-175.609	0.331	-0.009
-638.638	-119.243	-0.031	0.005
-637.624	-176.633	0.396	-0.010
-636.609	-167.873	0.403	0.016
-635.595	-119.505	0.285	-0.049
-634.580	55.715	0.145	0.140
-633.565	-200.000	-0.025	0.114
-632.551	63.734	0.147	-0.148
-631.536	-200.000	-0.091	-0.454
-630.522	-200.000	-0.000	-0.283
-629.507	0.028	-0.299	0.213
-628.492	351.592	-0.163	-0.323
-627.478	-200.000	-0.021	-0.222
-626.463	-29.667	0.277	-0.158
-625.449	-98.644	0.371	-0.095
-624.434	-200.000	-0.048	-0.283
-623.419	-70.274	-0.465	0.176
-622.405	261.177	0.062	-0.107
-621.390	-200.000	0.050	-0.273
-620.376	-12.606	-0.045	-0.030
-619.361	-200.000	0.011	-0.139
-618.346	-37.178	-0.002	-0.001
-617.332	-142.202	-0.327	0.032
-616.317	-200.000	0.014	-0.271
-615.303	-122.554	-0.261	0.042
-614.288	-140.803	-0.157	0.016
-613.273	158.747	0.210	0.291
-612.259	167.036	-0.154	0.218
-611.244	229.102	0.184	-0.300
-610.230	270.930	0.256	0.450
-609.215	-111.709	-0.345	0.070
-608.201	714.236	-0.088	0.232
-607.186	-30.740	-0.244	0.138
-606.171	41.831	-0.116	0.105
-605.157	-200.000	-0.020	0.187
-604.142	147.645	0.189	-0.254
-603.128	65.247	-0.132	-0.133
-602.113	-200.000	0.032	-0.309
-601.098	25.308	0.055	0.046
-600.084	20.516	0.248	-0.200
-599.069	-46.434	0.042	-0.020
-598.055	-200.000	0.026	0.123
-597.040	-49.676	0.110	-0.052
-596.025	148.160	0.147	0.198
-595.011	-33.044	0.353	-0.196
-593.996	50.586	0.104	-0.098
-592.982	13.015	0.085	-0.066
-591.967	125.384	-0.055	0.069
-590.952	74.131	0.217	0.227
-589.938	800.000	-0.096	0.272
-588.923	-50.273	0.086	-0.040
-587.909	32.475	-0.170	0.147
-586.894	305.954	0.136	-0.252
-585.879	41.802	-0.118	0.107
-584.865	-59.390	0.274	-0.117
-583.850	800.000	-0.086	0.241
-582.836	-101.626	0.040	0.010
-581.821	-136.569	-0.215	-0.025
-580.806	-43.240	0.080	0.040
-579.792	-108.697	-0.146	0.031
-578.777	-139.567	-0.289	-0.031
-577.763	800.000	-0.053	-0.194
-576.748	250.069	-0.060	0.102
-575.733	130.849	-0.071	-0.091
-574.719	-19.822	-0.170	0.104
-573.704	-59.814	-0.041	-0.017
-572.690	-121.921	-0.158	0.026
-571.675	556.354	-0.133	0.319
-570.661	-200.000	-0.019	0.089
-569.646	-10.391	-0.216	-0.143
-568.631	-85.907	-0.042	-0.013
-567.617	-200.000	0.017	0.103
-566.602	-65.257	-0.112	0.045
-565.588	-41.693	0.070	-0.036
-564.573	-139.421	-0.260	-0.028
-563.558	-60.888	-0.087	0.036
-562.544	14.006	-0.170	0.132
-561.529	54.941	-0.180	-0.173
-560.515	2.527	-0.190	0.137
-559.500	-150.891	0.280	-0.021
-558.485	-200.000	-0.008	-0.209
-557.471	-5.392	-0.169	0.116
-556.456	800.000	0.082	-0.340
-555.442	241.248	-0.095	-0.158
-554.427	-125.090	0.069	-0.011
-553.412	-71.576	0.217	-0.081
-552.398	-103.061	0.137	0.032
-551.383	-103.191	0.250	0.059
-550.369	170.376	0.227	-0.324
-549.354	232.641	-0.039	-0.064
-548.339	-70.603	-0.192	0.072
-547.325	-31.786	-0.304	-0.170
-546.310	-200.000	0.004	0.092
-545.296	800.000	-0.061	0.216
-544.281	-200.000	0.023	-0.166
-543.266	-171.428	-0.412	-0.014
-542.252	49.775	0.149	0.140
-541.237	-200.000	-0.018	-0.099
-540.223	-190.859	0.457	-0.005
-539.208	-200.000	0.014	-0.096
-538.193	800.000	-0.022	0.085
-537.179	15.636	-0.106	-0.083
-536.164	78.060	0.244	-0.259
-535.150	-149.394	0.346	-0.027
-534.135	351.058	0.085	-0.167
-533.121	-28.922	-0.160	-0.091
-532.106	-100.265	0.081	-0.020
-531.091	-90.152	0.101	-0.029
-530.077	-8.762	0.078	-0.052
-529.062	-200.000	0.052	-0.238
-528.048	680.058	-0.079	0.204
-527.033	0.016	0.151	-0.107
-526.018	-200.000	-0.007	-0.300
-525.004	-200.000	0.017	0.153
-523.989	800.000	0.095	0.330
-522.975	-101.510	0.246	0.060
-521.960	-51.155	-0.165	0.077
-520.945	88.646	0.101	0.112
-519.931	-100.516	0.234	0.058
-518.916	-38.781	-0.323	-0.169
-517.902	208.965	-0.168	-0.262
-516.887	-124.618	-0.023	0.004
-515.872	33.492	-0.168	-0.145
-514.858	243.741	-0.164	0.274
-513.843	463.019	0.071	0.158
-512.829	18.911	-0.027	-0.021
-511.814	154.013	0.131	0.178
-510.799	-121.407	-0.396	0.066
-509.785	800.000	0.075	0.266
-508.770	325.636	-0.156	0.296
-507.756	-200.000	0.026	-0.145
-506.741	800.000	-0.006	-0.023
-505.726	143.048	-0.143	0.189
-504.712	-200.000	0.014	-0.074
-503.697	254.245	0.060	-0.102
-502.683	-24.315	-0.204	-0.121
-501.668	-13.967	0.218	0.140
-500.653	36.554	-0.163	-0.143
-499.639	800.000	-0.062	0.265
-498.624	-200.000	-0.008	0.103
-497.610	99.247	-0.130	0.149
-496.595	-200.000	-0.036	0.321
-495.581	-200.000	-0.064	0.302
-494.566	-72.950	-0.406	-0.148
-493.551	800.000	-0.040	0.170
-492.537	-200.000	0.029	-0.352
-491.522	800.000	-0.057	0.205
-490.508	57.706	0.180	-0.175
-489.493	31.723	-0.204	-0.174
-488.478	-73.991	0.442	-0.159
-487.464	114.486	0.119	0.144
-486.449	160.557	-0.069	0.096
-485.435	-85.312	0.202	-0.063
-484.420	-62.210	-0.144	0.060
-483.405	-200.000	-0.045	-0.635
-482.391	71.104	0.076	0.079
-481.376	423.073	-0.081	-0.173
-480.362	-200.000	-0.020	-0.104
-479.347	800.000	-0.057	0.170
-478.332	-200.000	-0.005	-0.250
-477.318	-159.283	0.230	-0.013
-476.303	-150.546	0.153	-0.012
-475.289	800.000	0.020	0.065
-474.274	-107.490	-0.251	0.055
-473.259	800.000	-0.048	-0.139
-472.245	42.358	0.066	-0.059
-471.230	-72.435	0.240	0.088
-470.216	800.000	-0.023	-0.095
-469.201	-128.454	0.093	-0.013
-468.186	127.849	-0.280	0.353
-467.172	173.359	0.110	0.158
-466.157	-84.857	0.207	-0.065
-465.143	-45.039	0.149	0.074
-464.128	24.732	-0.064	0.053
-463.113	800.000	0.043	0.151
-462.099	-25.443	-0.178	-0.105
-461.084	702.822	-0.135	0.353
-460.070	-66.969	-0.389	0.153
-459.055	-200.000	-0.008	-0.043
-458.040	-59.665	-0.117	-0.050
-457.026	-200.000	-0.001	-0.264
-456.011	-93.201	0.297	0.082
-454.997	-200.000	-0.020	-0.092
-453.982	703.824	-0.135	-0.353
-452.968	800.000	-0.034	-0.125
-451.953	-200.000	-0.030	0.146
-450.938	800.000	0.071	0.201
-449.924	-134.799	-0.484	-0.058
-448.909	-112.396	0.169	-0.034
-447.895	-101.121	-0.242	0.059
-446.880	-30.751	0.227	0.127
-445.865	800.000	-0.049	0.162
-444.851	-48.331	-0.142	0.068
-443.836	-179.542	0.300	0.006
-442.822	800.000	-0.049	-0.139
-441.807	596.896	-0.054	-0.134
-440.792	75.191	-0.373	-0.390
-439.778	153.629	0.070	0.095
-438.763	-139.032	-0.060	-0.006
-437.749	199.268	0.115	0.175
-436.734	-66.814	0.318	-0.125
-435.719	-114.195	0.073	0.014
-434.705	2.954	0.193	-0.139
-433.690	261.787	-0.102	0.176
-432.676	167.536	0.091	-0.128
-431.661	800.000	-0.209	-0.596
-430.646	344.713	-0.103	0.200
-429.632	-169.054	-0.254	-0.009
-428.617	-65.915	-0.278	0.110
-427.603	-120.532	-0.125	-0.021
-426.588	-200.000	0.004	0.229
-425.573	-75.634	0.355	-0.125
-424.559	800.000	-0.060	0.176
-423.544	-149.957	0.109	0.008
-422.530	81.470	0.091	-0.098
-421.515	676.728	-0.136	-0.351
-420.500	-107.953	0.184	-0.040
-419.486	-200.000	0.020	-0.361
-418.471	800.000	-0.095	-0.269
-417.457	-200.000	-0.020	-0.253
-416.442	800.000	0.048	-0.136
-415.428	-41.785	0.350	0.178
-414.413	525.482	-0.120	0.279
-413.398	-24.242	0.203	-0.120
-412.384	-116.409	-0.254	0.047
-411.369	-24.910	-0.312	0.183
-410.355	-103.858	0.067	0.016
-409.340	-200.000	0.274	0.001
-408.325	12.694	-0.179	-0.137
-407.311	32.165	0.164	0.140
-406.296	-200.000	0.011	0.195
-405.282	-79.369	-0.259	0.087
-404.267	4.478	0.124	-0.090
-403.252	97.663	-0.080	-0.091
-402.238	20.671	0.065	0.053
-401.223	-200.000	-0.049	0.382
-400.209	800.000	0.131	-0.383
-399.194	22.516	-0.208	-0.168
-398.179	-47.744	-0.181	0.087
-397.165	-39.242	-0.246	0.128
-396.150	294.964	-0.141	-0.255
-395.136	68.966	0.277	0.282
-394.121	79.513	-0.199	0.212
-393.106	-44.279	-0.368	-0.183
-392.092	516.122	0.114	-0.263
-391.077	-6.121	-0.129	0.087
-390.063	-200.000	0.060	0.421
-389.048	-126.387	-0.110	0.016
-388.033	-200.000	-0.030	-0.189
-387.019	-200.000	0.021	-0.132
-386.004	75.676	-0.121	-0.127
-384.990	202.104	-0.031	-0.048
-383.975	216.352	0.120	-0.189
-382.960	-120.005	0.252	0.043
-381.946	800.000	-0.071	-0.256
-380.931	-200.000	-0.033	-0.410
-379.917	-171.727	0.471	-0.015
-378.902	-70.354	0.264	-0.099
-377.888	-199.066	0.286	-0.002
-376.873	10.654	0.097	-0.074
-375.858	-200.000	0.006	-0.160
-374.844	-46.831	0.082	-0.040
-373.829	606.055	-0.050	0.123
-372.815	189.888	0.050	-0.074
-371.800	800.000	0.052	-0.213
-370.785	54.226	-0.040	0.038
-369.771	-82.792	0.073	0.023
-368.756	-63.653	-0.154	-0.062
-367.742	-200.000	-0.033	-0.287
-366.727	-73.192	-0.226	0.082
-365.712	726.368	-0.089	-0.234
-364.698	-71.462	-0.143	0.053
-363.683	800.000	0.049	-0.202
-362.669	-200.000	-0.002	0.157
-361.654	-58.781	-0.345	0.148
-360.639	9.834	-0.368	0.276
-359.625	27.879	-0.251	0.209
-358.610	53.346	0.285	-0.270
-357.596	-78.390	-0.071	0.024
-356.581	-24.647	0.177	0.104
-355.566	-132.117	-0.251	-0.032
-354.552	-37.738	-0.343	-0.181
-353.537	-0.092	-0.177	-0.125
-352.523	-38.458	-0.245	0.128
-351.508	413.625	0.156	0.328
-350.493	-171.881	-0.109	0.004
-349.479	3.971	-0.130	-0.094
-348.464	170.941	0.029	-0.041
-347.450	85.834	0.147	-0.160
-346.435	134.020	-0.248	0.317
-345.420	214.108	-0.066	-0.103
-344.406	-117.256	-0.240	-0.043
-343.391	-16.623	-0.073	0.046
-342.377	-200.000	-0.020	0.117
-341.362	-170.882	-0.223	0.008
-340.348	-81.736	-0.174	0.056
-339.333	-57.565	0.176	0.076
-338.318	201.605	0.181	0.276
-337.304	46.742	0.233	-0.214
-336.289	-43.435	-0.117	0.058
-335.275	209.103	0.095	0.146
-334.260	-135.458	0.283	0.033
-333.245	-94.000	-0.321	-0.087
-332.231	-45.070	0.120	0.059
-331.216	-57.605	-0.373	0.161
-330.202	-200.000	0.005	-0.077
-329.187	-81.090	-0.173	-0.056
-328.172	-17.370	-0.166	-0.103
-327.158	-106.237	-0.352	-0.078
-326.143	-43.557	0.085	0.042
-325.129	-197.842	-0.242	0.001
-324.114	-9.560	-0.231	-0.152
-323.099	-55.707	-0.156	0.069
-322.085	175.412	0.055	-0.079
-321.070	-22.613	0.247	0.147
-320.056	-200.000	-0.028	-0.187
-319.041	-200.000	-0.009	-0.305
-318.026	92.175	0.231	0.257
-317.012	58.028	0.093	-0.090
-315.997	-59.107	-0.064	-0.027
-314.983	-70.052	0.302	-0.113
-313.968	71.521	-0.104	-0.106
-312.953	14.969	-0.108	0.083
-311.939	6.439	0.121	0.089
-310.924	258.492	-0.155	0.264
-309.910	-48.655	0.187	0.089
-308.895	-164.773	0.248	-0.011
-307.880	-25.459	0.139	-0.081
-306.866	-200.000	0.004	0.037
-305.851	-88.741	0.276	-0.081
-304.837	800.000	0.030	0.117
-303.822	-100.008	0.339	-0.083
-302.807	146.883	-0.160	0.212
-301.793	800.000	0.097	0.300
-300.778	31.894	-0.088	0.075
-299.764	-79.386	-0.282	-0.094
-298.749	-70.016	0.006	0.002
-297.735	65.687	0.134	0.134
-296.720	-200.000	-0.059	-0.320
-295.705	800.000	-0.089	-0.304
-294.691	372.706	0.131	-0.262
-293.676	-58.061	0.140	0.060
-292.662	800.000	-0.076	-0.272
-291.647	75.641	-0.268	-0.279
-290.632	-200.000	0.008	-0.045
-289.618	173.761	0.116	-0.165
-288.603	-200.000	0.007	0.326
-287.589	-3.378	-0.136	0.093
-286.574	14.941	0.109	-0.084
-285.559	90.086	-0.140	-0.155
-284.545	135.132	-0.233	0.299
-283.530	63.788	0.120	0.118
-282.516	0.502	0.217	-0.153
-281.501	-200.000	-0.004	-0.095
-280.486	-200.000	-0.048	0.323
-279.472	-200.000	-0.016	0.093
-278.457	-200.000	-0.013	0.302
-277.443	-200.000	0.014	0.229
-276.428	-62.490	-0.181	0.074
-275.413	-90.167	0.364	-0.104
-274.399	330.746	-0.143	-0.272
-273.384	-23.721	0.128	0.076
-272.370	197.338	-0.144	-0.217
-271.355	-128.418	-0.272	-0.038
-270.340	-142.575	-0.238	0.023
-269.326	800.000	-0.080	-0.238
-268.311	209.673	0.167	0.258
-267.297	-58.244	-0.235	-0.101
-266.282	-200.000	-0.022	0.182
-265.267	491.628	0.113	0.255
-264.253	800.000	0.048	-0.198
-263.238	261.965	0.093	-0.159
-262.224	49.542	0.247	0.229
-261.209	-200.000	-0.012	0.061
-260.195	800.000	-0.047	0.142
-259.180	135.537	0.023	0.029
-258.165	-140.161	-0.248	0.026
-257.151	-96.048	-0.166	-0.043
-256.136	-200.000	-0.068	-0.320
-255.122	21.682	0.198	-0.159
-254.107	-25.365	0.256	0.149
-253.092	-165.704	0.625	-0.027
-252.078	-63.850	0.101	-0.041
-251.063	-85.476	0.363	-0.111
-250.049	251.209	-0.114	0.191
-249.034	423.665	-0.079	0.168
-248.019	746.310	-0.082	0.218
-247.005	392.162	0.028	-0.057
-245.990	-200.000	-0.003	-0.083
-244.976	-46.030	0.190	-0.092
-243.961	141.737	-0.093	0.121
-242.946	-200.000	-0.042	-0.239
-241.932	-99.099	-0.301	0.075
-240.917	67.178	0.143	0.143
-239.903	800.000	-0.025	-0.074
-238.888	213.218	-0.075	0.117
-237.873	57.416	0.152	-0.146
-236.859	-146.773	0.151	0.013
-235.844	80.458	0.336	0.356
-234.830	-200.000	-0.027	0.177
-233.815	-108.910	-0.435	-0.091
-232.800	-9.772	0.114	0.075
-231.786	-96.205	-0.104	0.027
-230.771	-200.000	-0.012	-0.057
-229.757	139.226	-0.258	-0.333
-228.742	-174.267	0.144	0.004
-227.727	800.000	0.062	0.194
-226.713	725.856	-0.063	-0.164
-225.698	129.356	0.100	0.126
-224.684	128.840	-0.190	0.239
-223.669	-115.278	0.306	-0.057
-222.655	800.000	-0.025	0.097
-221.640	-119.551	0.078	-0.013
-220.625	800.000	0.112	0.470
-219.611	69.107	-0.361	0.365
-218.596	-98.051	-0.137	0.035
-217.582	213.015	0.236	0.367
-216.567	-157.619	-0.159	0.009
-215.552	-58.334	-0.215	0.092
-214.538	4.643	0.204	0.148
-213.523	800.000	0.016	-0.054
-212.509	87.610	-0.119	0.129
-211.494	125.934	-0.087	0.108
-210.479	178.917	-0.121	0.173
-209.465	-200.000	0.014	0.068
-208.450	-200.000	0.002	0.217
-207.436	800.000	0.079	0.277
-206.421	168.143	0.052	-0.073
-205.406	124.129	0.055	0.068
-204.392	-200.000	-0.000	0.014
-203.377	-200.000	0.006	0.119
-202.363	-54.964	0.306	0.136
-201.348	800.000	0.084	-0.332
-200.333	800.000	-0.058	0.160
-199.319	477.042	0.098	0.219
-198.304	-64.351	-0.229	0.092
-197.290	49.210	-0.066	0.061
-196.275	-11.184	0.019	0.012
-195.260	-200.000	-0.019	0.087
-194.246	-77.493	0.254	-0.087
-193.231	19.101	-0.187	0.148
-192.217	199.828	0.036	-0.054
-191.202	721.503	-0.052	-0.135
-190.187	-200.000	-0.044	0.270
-189.173	-200.000	0.329	-0.001
-188.158	63.937	0.270	0.266
-187.144	53.168	0.211	0.199
-186.129	51.357	-0.185	0.173
-185.114	577.769	0.088	0.212
-184.100	800.000	0.103	-0.370
-183.085	-200.000	-0.004	0.289
-182.071	316.620	0.082	-0.153
-181.056	59.342	-0.211	0.204
-180.042	-137.774	0.078	0.009
-179.027	253.939	0.184	-0.308
-178.012	-104.089	0.224	0.051
-176.998	-113.866	0.265	-0.051
-175.983	-135.361	0.179	0.021
-174.969	279.807	0.301	-0.527
-173.954	181.344	0.095	-0.138
-172.939	-150.070	0.136	0.010
-171.925	68.760	-0.058	0.059
-170.910	28.075	-0.250	0.207
-169.896	236.686	0.089	-0.144
-168.881	-79.662	0.276	-0.091
-167.866	124.918	0.190	0.235
-166.852	-56.092	-0.310	0.136
-165.837	-200.000	-0.021	0.330
-164.823	-74.644	-0.058	-0.020
-163.808	24.479	0.128	0.104
-162.793	-79.772	0.220	0.073
-161.779	135.582	0.181	0.231
-160.764	-127.193	-0.071	-0.010
-159.750	800.000	-0.100	-0.326
-158.735	-5.737	-0.296	-0.199
-157.720	-97.297	0.082	-0.021
-156.706	-200.000	-0.027	0.238
-155.691	528.174	0.104	-0.240
-154.677	-133.050	0.240	-0.030
-153.662	-74.445	0.232	0.082
-152.647	-31.257	0.263	-0.146
-151.633	467.911	0.091	0.201
-150.618	-200.000	0.034	-0.198
-149.604	30.018	0.237	0.198
-148.589	-52.202	0.330	0.150
-147.574	7.882	0.110	0.081
-146.560	11.211	-0.046	-0.035
-145.545	-156.525	-0.027	-0.002
-144.531	32.169	0.141	0.119
-143.516	800.000	-0.044	-0.125
-142.502	285.959	-0.053	0.093
-141.487	691.987	0.067	0.171
-140.472	788.319	0.010	-0.026
-139.458	800.000	0.034	-0.124
-138.443	-112.937	-0.132	-0.026
-137.429	-146.211	-0.181	-0.016
-136.414	-85.106	0.079	-0.024
-135.399	17.268	-0.051	0.040
-134.385	88.956	0.262	0.286
-133.370	-67.616	0.286	0.110
-132.356	-74.747	-0.350	-0.123
-131.341	450.651	-0.072	-0.157
-130.326	-42.021	0.347	0.174
-129.312	732.401	0.066	0.173
-128.297	-39.562	0.093	-0.048
-127.283	-125.330	0.143	-0.021
-126.268	-46.799	0.110	-0.053
-125.253	-112.017	-0.185	0.036
-124.239	-200.000	-0.079	0.000
-123.224	7.564	0.215	-0.158
-122.210	-94.806	-0.124	-0.033
-121.195	460.275	-0.013	-0.028
