DTS Sentinel unit serial number:	SN413079Multiplexer serial number:	ORYXHardware model number:	OX4-SRSoftware version number:	ORYX F/W v4.00 Oryx Data Collector v3.7.2.0data status	okinstallation	princeton_trtdifferential loss correction	single-endedforward channel	channel 2reverse channel	N/Adate	2019/09/16time	01:11:35forward acquisition time	60.00reverse acquisition time	0.00gamma	496.2192k internal	0.2337k external	0.2337temperature offset calibration	0.9963default loss term (dB/km)	0.3790temperature slope calibration	1.0000multiplexer offset coefficient	1.0000multiplexer slope coefficient	1.0000fibre end	0.00T internal ref (°C)	27.28T ext. ref 1 (°C)	9.81T ext. ref 2 (°C)	21.71length (m)	temperature (°C)	Stokes	anti-Stokes-747.200	-200.000	-0.057	0.316
-746.185	135.242	-0.096	0.125
-745.171	-121.326	0.186	0.031
-744.156	160.989	0.071	0.099
-743.142	19.636	-0.225	0.181
-742.127	800.000	0.090	0.380
-741.112	-17.442	-0.128	-0.081
-740.098	680.368	-0.071	0.186
-739.083	47.661	0.102	0.096
-738.069	-66.007	-0.305	0.122
-737.054	-200.000	-0.104	-0.582
-736.039	71.629	-0.403	-0.420
-735.025	800.000	-0.073	0.222
-734.010	-145.059	0.296	0.027
-732.996	56.517	-0.209	-0.204
-731.981	41.823	-0.108	0.098
-730.966	-200.000	-0.006	-0.082
-729.952	289.910	0.150	0.274
-728.937	145.000	-0.214	-0.287
-727.923	97.094	0.151	0.174
-726.908	284.074	0.057	-0.104
-725.894	-200.000	-0.036	-0.226
-724.879	58.910	0.243	-0.240
-723.864	-179.584	-0.466	-0.010
-722.850	-200.000	0.016	-0.188
-721.835	184.327	-0.112	-0.167
-720.821	-200.000	0.018	-0.195
-719.806	-200.000	-0.055	-0.280
-718.791	800.000	0.085	-0.270
-717.777	399.702	0.074	0.156
-716.762	-106.713	-0.283	0.063
-715.748	632.228	0.203	0.516
-714.733	-200.000	-0.041	-0.324
-713.718	216.006	0.059	-0.094
-712.704	-141.800	0.194	-0.020
-711.689	-200.000	-0.160	0.001
-710.675	-200.000	-0.022	-0.434
-709.660	-136.804	-0.429	-0.050
-708.645	26.962	0.236	-0.198
-707.631	-82.913	0.024	-0.008
-706.616	-200.000	0.010	-0.143
-705.602	134.877	-0.147	-0.192
-704.587	-200.000	0.000	0.342
-703.572	800.000	-0.082	0.347
-702.558	210.044	-0.238	0.374
-701.543	103.824	-0.200	-0.235
-700.529	-126.214	-0.122	-0.018
-699.514	318.659	0.221	0.419
-698.499	337.193	0.088	0.171
-697.485	-132.749	0.261	-0.033
-696.470	-180.778	-0.158	-0.003
-695.456	-95.385	-0.214	0.058
-694.441	-71.404	0.143	-0.054
-693.426	13.776	-0.056	-0.044
-692.412	8.633	0.097	0.073
-691.397	99.787	-0.070	0.082
-690.383	320.763	-0.056	-0.107
-689.368	534.730	0.106	0.251
-688.354	-70.492	0.345	-0.131
-687.339	-200.000	0.007	-0.357
-686.324	-200.000	0.004	0.017
-685.310	234.694	0.040	-0.065
-684.295	-76.206	0.214	0.075
-683.281	592.511	0.063	-0.157
-682.266	-40.069	0.193	-0.101
-681.251	149.559	-0.219	-0.297
-680.237	-200.000	-0.013	-0.207
-679.222	692.073	0.148	-0.388
-678.208	-135.448	0.144	-0.017
-677.193	17.603	-0.259	-0.206
-676.178	4.373	0.134	-0.098
-675.164	-127.833	-0.117	-0.017
-674.149	74.577	-0.090	-0.094
-673.135	-96.388	-0.212	-0.056
-672.120	327.986	0.139	-0.267
-671.105	-56.586	-0.118	-0.052
-670.091	-85.579	-0.089	0.028
-669.076	72.557	0.117	0.122
-668.062	-200.000	-0.004	-0.050
-667.047	-35.453	0.215	0.117
-666.032	-123.751	-0.164	0.026
-665.018	105.528	-0.238	0.282
-664.003	-89.213	0.055	0.016
-662.989	6.501	0.106	-0.079
-661.974	98.452	0.189	-0.218
-660.959	800.000	0.039	0.137
-659.945	-200.000	0.017	0.120
-658.930	-76.196	0.124	0.044
-657.916	-114.242	-0.134	-0.026
-656.901	-89.027	0.335	0.099
-655.886	-109.248	0.244	-0.052
-654.872	-54.806	0.343	-0.155
-653.857	-139.965	0.112	-0.012
-652.843	-132.602	0.153	-0.020
-651.828	42.279	0.115	0.105
-650.814	-200.000	-0.002	-0.107
-649.799	125.346	0.074	0.094
-648.784	-56.790	-0.191	0.084
-647.770	800.000	0.008	-0.024
-646.755	-4.602	-0.272	-0.187
-645.741	199.265	0.138	0.212
-644.726	418.446	0.053	-0.113
-643.711	-200.000	0.068	0.339
-642.697	-200.000	-0.000	0.037
-641.682	58.945	0.181	-0.178
-640.668	167.066	0.189	-0.268
-639.653	114.971	-0.080	-0.097
-638.638	-127.587	-0.332	-0.048
-637.624	-8.096	-0.147	0.099
-636.609	-61.241	-0.070	0.030
-635.595	-53.583	0.182	0.083
-634.580	-116.787	0.386	0.071
-633.565	96.251	0.135	-0.155
-632.551	233.768	0.102	-0.168
-631.536	543.400	-0.068	0.163
-630.522	-71.455	0.319	0.119
-629.507	800.000	-0.067	-0.211
-628.492	-54.797	-0.252	0.114
-627.478	-36.000	0.296	0.160
-626.463	56.307	-0.053	-0.052
-625.449	221.010	-0.185	0.296
-624.434	-200.000	0.026	0.136
-623.419	-173.300	-0.212	0.006
-622.405	134.168	0.073	-0.094
-621.390	93.240	0.297	0.336
-620.376	80.514	0.056	-0.061
-619.361	58.568	-0.154	-0.151
-618.346	-127.698	-0.134	-0.019
-617.332	-198.902	-0.018	0.000
-616.317	179.607	0.113	-0.166
-615.303	176.459	-0.135	0.196
-614.288	-43.146	0.356	-0.180
-613.273	-200.000	0.002	0.253
-612.259	231.413	-0.071	0.116
-611.244	582.198	-0.081	-0.199
-610.230	444.656	-0.052	-0.114
-609.215	-200.000	-0.007	-0.097
-608.201	-200.000	0.028	0.196
-607.186	-41.280	-0.215	-0.111
-606.171	56.512	0.287	-0.279
-605.157	-20.592	0.249	0.152
-604.142	189.393	0.099	-0.148
-603.128	800.000	0.057	-0.199
-602.113	-200.000	0.009	-0.124
-601.098	59.819	0.254	0.250
-600.084	-33.343	-0.391	0.216
-599.069	-200.000	-0.007	0.120
-598.055	-200.000	0.012	-0.245
-597.040	-200.000	0.004	-0.137
-596.025	68.416	0.172	0.176
-595.011	-15.416	-0.332	-0.211
-593.996	-35.362	0.419	-0.228
-592.982	-38.856	0.153	0.080
-591.967	-6.843	0.149	0.101
-590.952	170.195	0.047	0.067
-589.938	-200.000	-0.026	0.124
-588.923	8.250	0.123	0.092
-587.909	133.031	-0.081	0.105
-586.894	-103.740	0.335	0.078
-585.879	125.964	-0.027	-0.034
-584.865	-79.056	-0.383	0.130
-583.850	656.977	0.139	-0.356
-582.836	-18.102	0.111	0.069
-581.821	-61.799	-0.124	-0.052
-580.806	13.823	-0.164	-0.127
-579.792	-170.557	0.421	0.015
-578.777	-116.847	0.149	-0.027
-577.763	-173.909	0.291	-0.009
-576.748	-143.084	-0.236	0.023
-575.733	62.293	-0.047	-0.047
-574.719	-93.148	0.123	0.034
-573.704	-135.991	-0.234	0.027
-572.690	130.453	-0.218	-0.279
-571.675	-134.002	-0.131	0.016
-570.661	-135.830	0.126	-0.015
-569.646	-130.374	-0.028	0.004
-568.631	800.000	0.057	0.169
-567.617	121.651	0.098	0.122
-566.602	-200.000	-0.002	-0.501
-565.588	-200.000	-0.069	0.508
-564.573	414.630	0.163	0.346
-563.558	683.557	0.028	-0.074
-562.544	-200.000	0.024	-0.161
-561.529	-24.550	0.258	0.153
-560.515	-101.925	-0.421	-0.101
-559.500	177.563	0.236	-0.342
-558.485	93.682	-0.087	0.098
-557.471	-7.724	0.302	0.203
-556.456	9.890	0.246	-0.186
-555.442	790.854	-0.076	-0.208
-554.427	718.847	0.077	-0.205
-553.412	-200.000	-0.008	0.239
-552.398	-41.534	-0.111	-0.057
-551.383	-165.047	0.203	-0.009
-550.369	-17.667	-0.266	0.166
-549.354	542.578	0.059	-0.140
-548.339	265.460	-0.063	0.109
-547.325	-20.439	-0.210	0.129
-546.310	-200.000	-0.013	0.114
-545.296	-200.000	-0.027	-0.123
-544.281	-200.000	-0.031	0.173
-543.266	136.116	0.144	0.186
-542.252	-104.457	-0.176	-0.040
-541.237	-36.944	-0.154	0.082
-540.223	-175.897	0.183	-0.005
-539.208	222.925	0.166	-0.266
-538.193	-200.000	-0.029	-0.180
-537.179	-106.197	0.395	-0.088
-536.164	-200.000	-0.022	-0.161
-535.150	606.580	-0.176	0.438
-534.135	-38.632	-0.288	0.151
-533.121	660.500	0.115	0.294
-532.106	183.834	0.060	0.088
-531.091	-34.532	-0.127	0.069
-530.077	-146.864	0.188	-0.016
-529.062	-200.000	0.027	0.316
-528.048	-200.000	0.417	0.001
-527.033	726.878	0.127	0.338
-526.018	796.119	-0.110	-0.302
-525.004	115.496	0.208	0.253
-523.989	91.515	-0.102	0.114
-522.975	-62.193	0.147	-0.061
-521.960	800.000	-0.066	0.238
-520.945	-200.000	0.005	-0.088
-519.931	124.245	-0.095	-0.118
-518.916	40.321	-0.008	0.007
-517.902	182.555	0.177	0.260
-516.887	-200.000	-0.012	-0.232
-515.872	-61.696	-0.175	-0.073
-514.858	-200.000	-0.068	-0.303
-513.843	-108.662	-0.354	0.076
-512.829	334.638	0.111	-0.214
-511.814	56.010	0.079	-0.077
-510.799	255.970	-0.124	-0.212
-509.785	-40.505	0.065	0.034
-508.770	-117.658	-0.379	-0.068
-507.756	179.009	-0.097	0.140
-506.741	800.000	0.056	-0.194
-505.726	-103.128	0.589	-0.139
-504.712	-161.378	-0.322	-0.017
-503.697	-200.000	0.021	-0.132
-502.683	-68.007	0.232	0.090
-501.668	800.000	-0.051	0.158
-500.653	174.972	0.210	0.302
-499.639	-150.991	0.235	-0.018
-498.624	-99.274	0.125	0.031
-497.610	-200.000	0.020	-0.105
-496.595	167.408	-0.257	-0.363
-495.581	103.267	-0.073	-0.085
-494.566	-167.895	-0.136	-0.005
-493.551	143.445	-0.120	0.159
-492.537	800.000	-0.013	-0.038
-491.522	97.717	0.068	0.077
-490.508	-200.000	-0.014	-0.078
-489.493	-200.000	0.011	0.191
-488.478	-62.000	-0.072	0.030
-487.464	22.290	-0.260	0.211
-486.449	62.214	0.072	-0.071
-485.435	233.193	-0.065	-0.106
-484.420	63.148	-0.029	0.029
-483.405	800.000	0.064	-0.194
-482.391	171.572	-0.148	-0.212
-481.376	43.556	-0.263	-0.239
-480.362	-3.068	0.170	0.118
-479.347	242.961	0.152	0.252
-478.332	-10.729	-0.272	-0.179
-477.318	44.257	-0.010	-0.009
-476.303	-200.000	-0.015	-0.187
-475.289	3.850	-0.140	0.101
-474.274	419.669	-0.124	0.264
-473.259	800.000	-0.116	-0.349
-472.245	-119.651	-0.123	-0.021
-471.230	-39.871	0.233	0.121
-470.216	-200.000	-0.061	-0.304
-469.201	126.925	0.031	-0.039
-468.186	800.000	-0.039	0.129
-467.172	-144.365	0.248	0.023
-466.157	-151.652	-0.352	-0.026
-465.143	-200.000	-0.057	-0.300
-464.128	-111.871	-0.370	-0.074
-463.113	106.999	0.071	-0.083
-462.099	83.270	-0.186	-0.201
-461.084	-134.393	0.234	0.029
-460.070	49.081	-0.089	-0.083
-459.055	-105.631	0.195	0.044
-458.040	800.000	0.086	0.245
-457.026	55.229	0.268	0.258
-456.011	-9.541	-0.184	-0.122
-454.997	2.736	0.371	-0.267
-453.982	-146.278	0.098	-0.009
-452.968	11.328	0.126	-0.096
-451.953	-200.000	-0.062	0.330
-450.938	70.283	0.213	0.218
-449.924	-34.617	0.031	0.017
-448.909	-174.934	-0.151	0.004
-447.895	578.514	-0.088	-0.213
-446.880	99.221	0.222	-0.254
-445.865	-58.892	0.199	-0.085
-444.851	-83.846	-0.062	0.020
-443.836	-46.518	-0.233	-0.114
-442.822	-37.010	0.194	0.103
-441.807	56.115	0.129	-0.124
-440.792	-200.000	0.020	0.256
-439.778	-72.932	-0.259	0.095
-438.763	170.998	0.020	0.029
-437.749	312.815	0.100	-0.186
-436.734	3.111	-0.199	-0.144
-435.719	-34.411	0.343	0.186
-434.705	120.383	0.071	-0.088
-433.690	338.122	0.063	-0.122
-432.676	48.207	-0.152	-0.141
-431.661	174.664	0.069	-0.099
-430.646	-200.000	0.013	-0.063
-429.632	369.903	0.085	0.170
-428.617	-200.000	0.040	-0.329
-427.603	-17.487	0.093	-0.058
-426.588	38.288	0.266	-0.234
-425.573	88.467	-0.155	0.171
-424.559	96.136	-0.173	-0.196
-423.544	161.731	0.073	-0.101
-422.530	-100.579	-0.426	0.104
-421.515	800.000	-0.116	0.414
-420.500	10.598	0.130	0.098
-419.486	-13.085	-0.047	0.031
-418.471	565.598	-0.049	-0.119
-417.457	150.746	-0.161	0.217
-416.442	240.313	0.079	-0.130
-415.428	249.390	0.074	0.125
-414.413	-71.587	-0.338	0.125
-413.398	-20.222	0.123	0.075
-412.384	-162.825	-0.213	0.010
-411.369	48.545	-0.142	-0.132
-410.355	111.713	0.158	-0.189
-409.340	-17.431	-0.142	-0.089
-408.325	-200.000	-0.004	-0.118
-407.311	16.714	-0.136	-0.107
-406.296	-12.593	0.225	0.145
-405.282	-200.000	-0.004	0.183
-404.267	-200.000	-0.005	0.152
-403.252	79.207	-0.195	-0.206
-402.238	-200.000	-0.002	-0.128
-401.223	0.999	-0.118	0.084
-400.209	720.145	0.058	-0.152
-399.194	800.000	-0.028	0.083
-398.179	25.155	0.167	-0.138
-397.165	102.344	0.375	-0.434
-396.150	-200.000	-0.066	-0.356
-395.136	46.256	-0.274	-0.252
-394.121	-43.231	-0.242	0.121
-393.106	23.589	0.192	-0.157
-392.092	-51.091	0.226	0.105
-391.077	389.518	0.097	0.199
-390.063	-151.745	-0.494	0.036
-389.048	-81.976	0.238	0.077
-388.033	259.112	-0.022	-0.038
-387.019	-86.002	-0.145	0.044
-386.004	5.677	-0.133	0.097
-384.990	-75.825	0.199	-0.070
-383.975	-200.000	-0.049	0.253
-382.960	-200.000	-0.040	0.187
-381.946	-105.870	0.068	-0.015
-380.931	-91.632	0.142	0.040
-379.917	176.002	0.148	-0.212
-378.902	372.849	-0.070	-0.141
-377.888	68.209	0.123	0.125
-376.873	357.458	-0.023	0.045
-375.858	-29.276	0.146	0.083
-374.844	-155.031	-0.147	0.010
-373.829	576.785	0.101	-0.245
-372.815	-200.000	0.017	-0.079
-371.800	-1.715	-0.329	-0.229
-370.785	-108.533	0.242	-0.051
-369.771	172.947	-0.040	-0.058
-368.756	-126.793	0.214	-0.031
-367.742	-200.000	0.011	0.144
-366.727	-10.201	0.116	0.076
-365.712	-200.000	0.042	0.289
-364.698	-200.000	-0.018	0.095
-363.683	-200.000	-0.109	0.666
-362.669	-7.495	-0.300	0.200
-361.654	-200.000	-0.007	0.300
-360.639	-187.902	-0.338	0.004
-359.625	785.728	0.068	-0.184
-358.610	397.791	-0.092	-0.191
-357.596	-77.081	0.232	0.080
-356.581	-47.978	-0.170	-0.081
-355.566	-200.000	-0.031	0.213
-354.552	51.969	0.109	-0.103
-353.537	-200.000	-0.022	-0.272
-352.523	18.900	-0.231	-0.183
-351.508	42.186	-0.213	0.191
-350.493	800.000	0.051	-0.153
-349.479	78.152	0.072	-0.075
-348.464	-95.983	-0.174	-0.046
-347.450	-200.000	-0.049	-0.215
-346.435	-200.000	-0.007	0.061
-345.420	162.348	0.169	-0.234
-344.406	-200.000	0.002	-0.248
-343.391	-200.000	-0.008	-0.148
-342.377	-200.000	0.041	-0.186
-341.362	-134.935	-0.281	0.034
-340.348	-96.960	0.441	-0.114
-339.333	-78.192	0.186	-0.063
-338.318	-61.816	0.154	0.064
-337.304	-155.304	0.087	-0.006
-336.289	716.735	0.098	-0.257
-335.275	800.000	0.055	-0.185
-334.260	121.240	0.084	-0.103
-333.245	-24.711	0.082	0.048
-332.231	72.610	0.068	-0.070
-331.216	20.888	0.135	-0.108
-330.202	-136.467	0.096	0.011
-329.187	3.497	-0.091	0.065
-328.172	-102.885	0.161	0.038
-327.158	-175.727	-0.320	0.009
-326.143	80.605	0.145	0.154
-325.129	-177.318	-0.239	0.006
-324.114	248.974	0.198	0.331
-323.099	800.000	0.083	0.316
-322.085	7.987	-0.324	0.240
-321.070	-200.000	0.023	-0.211
-320.056	-200.000	-0.010	-0.419
-319.041	-45.060	-0.247	-0.121
-318.026	19.713	0.171	0.136
-317.012	44.089	0.107	-0.097
-315.997	800.000	-0.058	0.219
-314.983	-162.321	-0.137	0.007
-313.968	-15.756	-0.193	0.121
-312.953	-80.710	0.136	0.045
-311.939	-93.085	-0.114	-0.031
-310.924	124.744	-0.210	0.260
-309.910	351.825	0.076	0.149
-308.895	79.822	0.250	0.265
-307.880	273.438	0.067	0.117
-306.866	-53.291	0.162	-0.074
-305.851	115.647	0.143	0.173
-304.837	-90.235	-0.284	-0.081
-303.822	58.781	-0.286	0.278
-302.807	-200.000	0.000	-0.101
-301.793	800.000	-0.052	0.150
-300.778	800.000	0.008	-0.026
-299.764	-200.000	-0.000	0.006
-298.749	35.236	-0.053	0.046
-297.735	-31.852	-0.074	0.041
-296.720	800.000	-0.068	-0.235
-295.705	736.933	-0.118	-0.312
-294.691	34.218	-0.133	0.114
-293.676	-200.000	0.060	0.357
-292.662	-1.292	0.077	0.054
-291.647	-60.548	0.123	0.052
-290.632	114.314	-0.155	-0.186
-289.618	253.261	-0.154	0.260
-288.603	-165.481	0.215	0.009
-287.589	800.000	-0.120	0.410
-286.574	169.331	0.080	-0.112
-285.559	-138.966	0.123	-0.013
-284.545	634.140	-0.159	0.398
-283.530	-40.371	-0.102	-0.052
-282.516	800.000	0.087	0.299
-281.501	800.000	-0.110	-0.409
-280.486	257.479	-0.083	0.141
-279.472	784.412	-0.097	0.262
-278.457	-200.000	-0.018	0.129
-277.443	800.000	-0.104	0.448
-276.428	-71.807	-0.182	-0.067
-275.413	-42.116	-0.274	-0.138
-274.399	-82.769	0.348	0.111
-273.384	44.740	-0.168	0.152
-272.370	-200.000	-0.007	0.261
-271.355	-52.147	0.259	0.118
-270.340	12.660	0.145	-0.110
-269.326	800.000	0.035	0.134
-268.311	503.102	-0.023	-0.051
-267.297	67.632	-0.173	-0.174
-266.282	34.961	-0.434	0.374
-265.267	-200.000	-0.054	-0.366
-264.253	156.045	0.200	0.271
-263.238	51.919	-0.186	0.174
-262.224	17.905	-0.185	-0.145
-261.209	-200.000	0.001	-0.006
-260.195	112.787	0.185	-0.221
-259.180	-144.202	-0.150	0.014
-258.165	-200.000	-0.041	0.284
-257.151	-200.000	0.022	0.112
-256.136	52.756	0.042	-0.040
-255.122	46.990	0.155	-0.142
-254.107	20.538	-0.114	-0.091
-253.092	-58.585	0.330	-0.141
-252.078	-111.540	0.158	-0.032
-251.063	42.293	-0.263	0.236
-250.049	-200.000	0.042	0.388
-249.034	-93.117	-0.191	0.052
-248.019	-65.921	-0.373	-0.147
-247.005	36.238	0.139	0.121
-245.990	82.487	0.135	-0.144
-244.976	120.425	-0.272	-0.333
-243.961	1.987	-0.050	0.036
-242.946	-5.422	0.305	0.206
-241.932	-25.486	0.089	0.052
-240.917	72.711	-0.241	0.248
-239.903	63.674	-0.284	0.281
-238.888	156.276	-0.093	-0.127
-237.873	-82.497	-0.191	-0.061
-236.859	-200.000	0.010	-0.127
-235.844	341.660	0.078	0.150
-234.830	31.127	0.087	0.073
-233.815	-97.633	-0.143	-0.037
-232.800	256.335	-0.246	0.415
-231.786	-67.942	-0.124	0.048
-230.771	-160.011	0.190	-0.010
-229.757	-200.000	-0.010	-0.201
-228.742	800.000	-0.011	-0.030
-227.727	-200.000	-0.022	-0.244
-226.713	-60.380	-0.172	0.072
-225.698	800.000	-0.059	0.196
-224.684	-200.000	-0.018	-0.297
-223.669	-158.322	0.100	-0.006
-222.655	655.051	-0.062	0.156
-221.640	95.870	0.189	0.213
-220.625	-59.292	0.224	0.095
-219.611	-200.000	-0.016	0.126
-218.596	-18.932	0.178	0.109
-217.582	-200.000	-0.019	-0.151
-216.567	-24.734	0.257	-0.150
-215.552	148.231	0.071	-0.095
-214.538	-100.425	-0.486	-0.118
-213.523	210.613	0.208	0.322
-212.509	186.852	0.120	-0.176
-211.494	-88.444	0.476	-0.140
-210.479	800.000	-0.051	0.189
-209.465	-200.000	-0.017	-0.232
-208.450	-58.568	-0.187	-0.080
-207.436	-200.000	0.014	-0.296
-206.421	-148.094	0.119	0.010
-205.406	59.515	-0.203	0.196
-204.392	-87.157	-0.301	-0.090
-203.377	101.528	0.073	-0.083
-202.363	34.059	0.062	0.053
-201.348	-127.150	0.006	-0.001
-200.333	-115.657	0.211	-0.039
-199.319	619.055	-0.089	-0.219
-198.304	122.001	-0.198	-0.243
-197.290	-172.694	0.364	-0.011
-196.275	-2.801	-0.082	0.057
-195.260	50.442	0.415	0.386
-194.246	36.631	0.082	-0.071
-193.231	349.414	-0.083	-0.162
-192.217	-63.741	-0.190	0.076
-191.202	800.000	-0.191	-0.564
-190.187	800.000	-0.050	0.147
-189.173	800.000	0.100	-0.338
-188.158	-188.307	0.279	0.003
-187.144	239.303	-0.109	0.178
-186.129	-67.530	0.388	-0.149
-185.114	6.744	-0.019	0.014
-184.100	-48.627	0.324	0.153
-183.085	-200.000	0.024	-0.186
-182.071	800.000	0.015	-0.044
-181.056	279.949	0.059	-0.104
-180.042	-200.000	-0.023	0.168
-179.027	-110.433	0.093	-0.019
-178.012	-46.571	0.368	0.177
-176.998	2.637	-0.236	0.168
-175.983	113.848	0.193	0.230
-174.969	-200.000	-0.003	-0.291
-173.954	-200.000	0.006	-0.275
-172.939	133.832	-0.095	-0.120
-171.925	800.000	-0.087	-0.247
-170.910	-76.457	-0.233	-0.080
-169.896	-108.182	0.377	-0.080
-168.881	-200.000	-0.029	0.312
-167.866	-200.000	-0.021	0.201
-166.852	-90.614	-0.366	-0.104
-165.837	-77.087	-0.189	-0.065
-164.823	800.000	0.047	0.134
-163.808	189.330	-0.148	-0.218
-162.793	-189.562	0.331	0.004
-161.779	-108.009	-0.311	0.066
-160.764	47.160	-0.111	-0.102
-159.750	800.000	0.058	-0.198
-158.735	-200.000	-0.035	-0.329
-157.720	203.798	-0.209	-0.318
-156.706	800.000	0.008	-0.025
-155.691	-200.000	-0.019	0.142
-154.677	-200.000	-0.160	-0.000
-153.662	-32.743	0.117	-0.064
-152.647	103.311	-0.149	0.171
-151.633	207.511	-0.187	0.286
-150.618	360.788	0.239	0.469
-149.604	93.216	0.220	0.244
-148.589	800.000	-0.089	-0.262
-147.574	-200.000	0.022	0.124
-146.560	-200.000	0.004	-0.049
-145.545	704.073	-0.112	-0.290
-144.531	-200.000	0.032	0.159
-143.516	-28.208	0.136	0.077
-142.502	117.525	-0.114	-0.137
-141.487	800.000	-0.076	0.298
-140.472	307.017	0.052	0.095
-139.458	175.602	0.107	-0.152
-138.443	-112.997	-0.120	0.023
-137.429	298.029	-0.105	0.189
-136.414	800.000	-0.037	0.141
-135.399	-80.445	0.360	-0.118
-134.385	221.553	-0.096	0.152
-133.370	236.944	-0.103	0.167
-132.356	800.000	0.018	0.070
-131.341	-200.000	0.010	0.079
-130.326	-65.026	-0.053	0.021
-129.312	210.389	0.040	-0.062
-128.297	-200.000	0.074	-0.325
-127.283	-200.000	-0.039	0.231
-126.268	-200.000	0.008	0.042
-125.253	423.718	0.180	0.378
-124.239	37.416	-0.155	0.135
-123.224	800.000	-0.009	-0.034
-122.210	80.673	0.265	0.280
-121.195	-47.674	0.058	0.027
