DTS Sentinel unit serial number:	SN413079Multiplexer serial number:	ORYXHardware model number:	OX4-SRSoftware version number:	ORYX F/W v4.00 Oryx Data Collector v3.7.2.0data status	okinstallation	princeton_trtdifferential loss correction	single-endedforward channel	channel 2reverse channel	N/Adate	2019/09/12time	20:05:49forward acquisition time	15.00reverse acquisition time	0.00gamma	496.2192k internal	0.2327k external	0.2327temperature offset calibration	1.0148default loss term (dB/km)	0.3790temperature slope calibration	1.0000multiplexer offset coefficient	1.0000multiplexer slope coefficient	1.0000fibre end	0.00T internal ref (°C)	31.69T ext. ref 1 (°C)	3.36T ext. ref 2 (°C)	26.41length (m)	temperature (°C)	Stokes	anti-Stokes-747.200	-200.000	-0.020	-0.625
-746.185	-123.104	-1.019	0.165
-745.171	6.400	0.624	0.467
-744.156	-200.000	-0.001	0.238
-743.142	-191.907	0.243	0.002
-742.127	-20.830	-0.432	0.267
-741.112	263.164	0.521	-0.913
-740.098	46.937	0.205	0.192
-739.083	-150.487	-0.580	-0.045
-738.069	-74.237	0.958	0.349
-737.054	140.792	-0.564	0.751
-736.039	187.511	0.306	0.461
-735.025	-97.593	0.169	-0.044
-734.010	-92.426	0.430	-0.122
-732.996	-43.288	0.118	0.060
-731.981	-43.290	-0.559	0.285
-730.966	-200.000	0.546	0.003
-729.952	-200.000	-0.043	-0.225
-728.937	-130.438	0.211	-0.029
-727.923	-200.000	-0.059	-0.309
-726.908	95.906	0.381	-0.439
-725.894	0.844	0.483	-0.349
-724.879	-15.001	-0.581	-0.375
-723.864	175.195	0.344	0.503
-722.850	-200.000	-0.054	0.267
-721.835	-200.000	-0.084	-0.764
-720.821	612.872	0.075	-0.190
-719.806	-121.693	0.150	0.025
-718.791	687.951	-0.039	-0.104
-717.777	-177.832	0.804	-0.019
-716.762	-82.000	-0.666	-0.219
-715.748	69.758	0.098	0.102
-714.733	-68.439	-0.479	-0.187
-713.718	-200.000	0.056	-0.989
-712.704	-61.147	0.715	0.304
-711.689	-44.697	-0.985	0.495
-710.675	53.064	0.340	-0.328
-709.660	149.219	-0.383	-0.521
-708.645	-11.467	-0.316	0.209
-707.631	-14.419	0.632	0.410
-706.616	-25.515	0.554	0.329
-705.602	-144.170	0.196	-0.018
-704.587	-200.000	0.114	0.729
-703.572	167.885	0.114	0.163
-702.558	165.955	0.159	-0.226
-701.543	-106.638	-0.771	-0.173
-700.529	-200.000	-0.035	0.660
-699.514	-75.766	0.307	0.110
-698.499	410.524	0.097	-0.208
-697.485	-54.972	0.221	0.100
-696.470	30.429	-0.460	0.395
-695.456	-200.000	-0.029	-0.199
-694.441	800.000	0.089	0.350
-693.426	-200.000	-0.056	0.455
-692.412	-200.000	0.057	0.328
-691.397	-172.023	0.656	0.021
-690.383	-47.266	-0.189	-0.092
-689.368	430.593	0.362	0.788
-688.354	483.788	-0.212	0.485
-687.339	-200.000	0.062	0.534
-686.324	-200.000	-0.014	0.257
-685.310	800.000	0.180	-0.653
-684.295	800.000	-0.124	-0.351
-683.281	800.000	-0.130	0.463
-682.266	5.931	0.240	-0.178
-681.251	-112.478	-0.535	0.108
-680.237	-91.316	-0.513	0.148
-679.222	240.556	0.138	-0.232
-678.208	-200.000	0.006	0.204
-677.193	16.827	0.297	0.236
-676.178	-200.000	-0.174	-1.011
-675.164	106.453	0.747	0.891
-674.149	-200.000	0.022	0.125
-673.135	188.352	-0.714	1.074
-672.120	156.680	-0.166	0.230
-671.105	800.000	0.139	-0.557
-670.091	123.244	-0.094	0.118
-669.076	555.764	0.336	-0.814
-668.062	800.000	0.197	-0.570
-667.047	-37.019	-0.239	-0.129
-666.032	800.000	-0.122	0.493
-665.018	800.000	-0.319	-1.284
-664.003	-2.708	0.657	-0.462
-662.989	-124.298	-1.182	-0.186
-661.974	-200.000	-0.117	0.562
-660.959	-81.366	0.743	-0.246
-659.945	87.394	0.443	0.493
-658.930	800.000	-0.167	-0.636
-657.916	-130.200	-0.539	0.074
-656.901	233.763	0.381	-0.631
-655.886	59.104	0.203	-0.201
-654.872	179.026	-0.315	-0.463
-653.857	-200.000	-0.404	-0.001
-652.843	-195.007	0.421	0.003
-651.828	-200.000	-0.008	-0.213
-650.814	27.878	-0.148	-0.125
-649.799	-143.329	0.398	-0.038
-648.784	-138.580	-0.420	-0.046
-647.770	-200.000	0.061	0.883
-646.755	-200.000	0.043	-0.807
-645.741	-10.074	-0.436	0.291
-644.726	-200.000	0.002	0.075
-643.711	-36.711	0.055	-0.030
-642.697	358.935	-0.438	-0.879
-641.682	-200.000	0.081	-0.428
-640.668	268.445	0.722	-1.271
-639.653	12.283	-0.641	0.495
-638.638	-42.206	0.253	0.130
-637.624	282.699	0.505	0.911
-636.609	107.203	0.206	0.246
-635.595	-125.744	1.420	-0.216
-634.580	-166.115	-0.397	0.017
-633.565	394.393	-0.278	-0.582
-632.551	-200.000	0.086	-0.648
-631.536	-200.000	-0.001	-0.279
-630.522	282.389	-0.305	0.549
-629.507	-200.000	-0.036	-0.738
-628.492	-58.428	-0.516	-0.225
-627.478	800.000	0.057	-0.203
-626.463	-143.267	-0.204	-0.020
-625.449	800.000	-0.087	-0.341
-624.434	-81.598	-1.096	-0.361
-623.419	-179.300	-0.328	-0.007
-622.405	-140.934	-0.595	-0.061
-621.390	170.912	-0.283	0.407
-620.376	-72.087	0.131	-0.049
-619.361	-13.965	-0.309	-0.200
-618.346	-175.287	-0.270	-0.007
-617.332	-6.863	-0.129	-0.088
-616.317	431.787	0.245	0.533
-615.303	-200.000	0.066	-0.300
-614.288	383.271	0.425	-0.878
-613.273	-57.135	0.824	-0.364
-612.259	220.822	-0.219	-0.352
-611.244	-6.460	0.598	0.409
-610.230	17.693	-0.256	0.204
-609.215	-19.268	0.595	-0.370
-608.201	-90.627	0.039	-0.011
-607.186	-158.688	-0.459	-0.026
-606.171	-174.707	0.916	-0.026
-605.157	-200.000	-0.093	0.791
-604.142	-72.312	0.135	-0.050
-603.128	264.043	0.364	-0.635
-602.113	50.958	-0.166	0.158
-601.098	405.856	-0.125	-0.265
-600.084	-46.467	0.635	0.313
-599.069	6.517	0.373	-0.278
-598.055	-41.439	0.027	0.014
-597.040	800.000	-0.043	0.137
-596.025	-123.490	-0.620	-0.099
-595.011	800.000	-0.083	-0.268
-593.996	800.000	0.087	0.260
-592.982	800.000	-0.142	0.591
-591.967	-51.330	0.251	0.118
-590.952	34.841	-0.411	-0.360
-589.938	-185.474	0.305	-0.005
-588.923	394.312	0.194	-0.406
-587.909	141.593	-0.153	0.203
-586.894	800.000	0.140	-0.465
-585.879	-112.063	0.383	0.077
-584.865	-31.295	-0.142	-0.080
-583.850	-200.000	0.002	0.618
-582.836	143.716	-0.272	-0.364
-581.821	-49.392	-0.459	-0.219
-580.806	718.044	-0.114	0.303
-579.792	-49.258	0.595	0.285
-578.777	-41.189	-0.127	-0.065
-577.763	251.649	0.198	-0.337
-576.748	-106.035	0.222	-0.050
-575.733	-18.751	-0.336	0.210
-574.719	50.568	0.101	-0.096
-573.704	101.392	0.634	0.740
-572.690	-200.000	0.050	0.698
-571.675	-104.697	-0.910	-0.210
-570.661	11.013	-0.217	-0.166
-569.646	-200.000	0.031	-0.451
-568.631	142.279	-0.153	-0.204
-567.617	-200.000	0.033	-0.546
-566.602	23.200	-0.087	0.072
-565.588	-115.114	-0.711	0.135
-564.573	464.707	-0.210	0.471
-563.558	-200.000	0.025	0.166
-562.544	339.166	-0.176	-0.343
-561.529	-119.844	0.436	0.075
-560.515	559.822	0.269	-0.651
-559.500	-106.195	-0.491	0.110
-558.485	59.126	-0.114	-0.112
-557.471	-62.137	0.955	-0.399
-556.456	-165.076	0.404	-0.018
-555.442	800.000	-0.066	-0.234
-554.427	-200.000	0.028	0.407
-553.412	-51.380	-0.422	0.198
-552.398	-113.979	-0.596	-0.116
-551.383	800.000	-0.039	-0.154
-550.369	-200.000	-0.045	-0.300
-549.354	-200.000	0.040	0.179
-548.339	518.011	0.341	0.798
-547.325	-200.000	-0.155	0.866
-546.310	800.000	-0.218	0.634
-545.296	48.553	0.369	-0.346
-544.281	-115.436	0.350	0.066
-543.266	-200.000	-0.016	0.286
-542.252	36.777	-0.349	0.309
-541.237	800.000	0.122	0.513
-540.223	-32.124	-0.335	0.188
-539.208	-149.379	-0.634	-0.050
-538.193	-200.000	0.105	0.521
-537.179	-200.000	0.220	0.970
-536.164	-200.000	-0.080	0.355
-535.150	-7.921	-0.894	0.603
-534.135	-83.638	0.618	-0.197
-533.121	440.712	0.140	-0.307
-532.106	72.204	0.308	0.321
-531.091	-64.647	0.180	-0.073
-530.077	-15.214	0.517	-0.331
-529.062	20.581	0.256	0.207
-528.048	-91.880	-0.416	0.118
-527.033	-200.000	0.008	-0.651
-526.018	51.360	-0.692	-0.657
-525.004	-200.000	0.045	-0.522
-523.989	116.577	-0.712	-0.873
-522.975	-200.000	-0.052	-0.638
-521.960	185.733	-0.186	-0.276
-520.945	728.661	-0.097	-0.259
-519.931	-158.830	-0.136	0.008
-518.916	12.213	0.251	-0.193
-517.902	94.006	0.396	0.449
-516.887	113.256	0.434	0.526
-515.872	106.388	-0.457	0.542
-514.858	18.363	-0.230	0.184
-513.843	-128.955	-0.505	0.071
-512.829	144.756	0.068	-0.091
-511.814	318.346	-0.107	-0.203
-510.799	19.879	-0.308	0.248
-509.785	28.829	0.568	0.481
-508.770	-64.233	0.598	0.244
-507.756	800.000	-0.172	-0.511
-506.741	-200.000	-0.000	0.131
-505.726	172.821	-0.474	-0.681
-504.712	335.426	-0.201	-0.390
-503.697	11.350	0.046	0.035
-502.683	168.931	-0.230	0.328
-501.668	185.434	-0.390	-0.578
-500.653	-148.401	-0.099	-0.008
-499.639	-200.000	0.003	-0.200
-498.624	30.159	0.335	-0.285
-497.610	-16.915	0.759	-0.479
-496.595	-106.067	-0.616	-0.138
-495.581	-25.246	0.654	-0.386
-494.566	800.000	0.078	0.272
-493.551	-129.901	0.896	0.123
-492.537	-112.004	0.396	-0.080
-491.522	110.520	-0.247	-0.297
-490.508	237.414	-0.224	0.371
-489.493	800.000	-0.194	0.566
-488.478	180.442	-0.339	-0.497
-487.464	-110.080	0.468	-0.098
-486.449	-200.000	0.047	0.615
-485.435	328.670	-0.152	0.292
-484.420	800.000	0.026	-0.096
-483.405	-200.000	-0.004	-0.123
-482.391	-94.401	-0.738	-0.201
-481.376	162.631	0.185	-0.260
-480.362	35.291	-0.533	-0.466
-479.347	-17.614	-0.821	-0.515
-478.332	421.439	-0.250	-0.534
-477.318	357.846	0.440	-0.875
-476.303	-65.876	-0.117	-0.047
-475.289	-198.221	0.546	-0.003
-474.274	165.261	0.615	0.867
-473.259	800.000	-0.246	-0.993
-472.245	-110.042	-0.378	-0.079
-471.230	-73.192	-0.172	-0.063
-470.216	2.153	-0.322	0.232
-469.201	-107.190	0.316	-0.069
-468.186	-159.244	0.246	-0.014
-467.172	-84.535	-0.357	0.112
-466.157	800.000	0.280	1.077
-465.143	-200.000	-0.129	0.860
-464.128	21.629	-0.524	-0.426
-463.113	-58.378	-0.116	-0.050
-462.099	219.740	-0.015	-0.023
-461.084	749.485	0.230	0.619
-460.070	-46.652	-0.530	0.259
-459.055	61.397	-0.271	0.268
-458.040	-41.643	-0.549	-0.281
-457.026	-22.366	0.182	0.110
-456.011	-75.338	-0.381	0.136
-454.997	33.059	0.133	-0.115
-453.982	-106.194	-0.704	-0.157
-452.968	211.350	-0.189	-0.296
-451.953	-138.274	0.268	-0.030
-450.938	-36.729	-0.438	-0.234
-449.924	-200.000	0.110	-1.017
-448.909	44.588	-0.779	-0.713
-447.895	506.043	-0.370	-0.854
-446.880	-200.000	-0.063	0.707
-445.865	-200.000	-0.105	0.484
-444.851	800.000	-0.038	-0.142
-443.836	-193.916	0.831	0.007
-442.822	-122.367	-0.089	0.014
-441.807	-135.266	-0.475	-0.057
-440.792	-81.040	0.699	0.231
-439.778	251.016	0.348	0.589
-438.763	-200.000	0.125	0.560
-437.749	17.255	-0.693	-0.548
-436.734	62.225	0.437	-0.434
-435.719	-200.000	0.005	0.340
-434.705	-200.000	0.073	0.699
-433.690	344.669	0.096	0.187
-432.676	-123.119	0.694	0.111
-431.661	-34.903	-0.541	-0.294
-430.646	329.958	-0.263	0.504
-429.632	155.027	0.322	-0.440
-428.617	-109.172	-0.785	0.166
-427.603	-153.334	-0.973	0.067
-426.588	513.656	-0.257	0.597
-425.573	-54.459	0.583	-0.263
-424.559	-200.000	0.020	-0.404
-423.544	101.159	-0.570	-0.660
-422.530	618.374	0.073	-0.183
-421.515	444.297	-0.068	0.148
-420.500	-79.845	-1.025	0.343
-419.486	-104.655	0.706	-0.162
-418.471	800.000	-0.234	-0.774
-417.457	-69.835	-0.265	0.101
-416.442	-112.478	-0.401	-0.080
-415.428	-56.808	0.884	0.389
-414.413	-109.030	0.570	0.121
-413.398	-190.311	0.244	-0.003
-412.384	24.079	0.266	-0.218
-411.369	-45.524	-1.023	0.504
-410.355	-66.662	0.167	-0.066
-409.340	-138.167	0.390	-0.043
-408.325	-178.259	1.218	-0.028
-407.311	-200.000	0.045	-0.624
-406.296	-115.888	-0.619	0.115
-405.282	167.104	-0.211	0.298
-404.267	-70.865	-0.218	0.082
-403.252	231.757	0.607	0.990
-402.238	-200.000	-0.105	0.803
-401.223	-10.020	-0.506	-0.335
-400.209	800.000	0.228	-0.895
-399.194	122.453	-0.206	-0.256
-398.179	-23.837	0.647	-0.385
-397.165	-64.782	0.424	-0.171
-396.150	318.928	-0.235	-0.443
-395.136	-200.000	-0.005	-0.379
-394.121	164.460	-0.389	0.545
-393.106	-19.566	0.398	0.245
-392.092	603.997	-0.233	0.577
-391.077	129.751	0.403	0.513
-390.063	33.375	0.552	-0.477
-389.048	-127.683	0.604	-0.087
-388.033	-200.000	-0.061	-0.430
-387.019	-200.000	-0.065	-0.585
-386.004	800.000	-0.135	-0.387
-384.990	494.650	0.273	-0.622
-383.975	800.000	0.288	0.910
-382.960	-200.000	-0.123	-0.555
-381.946	-72.874	-0.664	0.243
-380.931	-56.641	-0.390	-0.172
-379.917	29.298	0.213	0.180
-378.902	54.461	0.381	0.365
-377.888	-100.922	0.105	-0.026
-376.873	-194.118	0.642	0.005
-375.858	62.559	-0.231	0.230
-374.844	-200.000	0.077	0.600
-373.829	33.271	0.182	0.157
-372.815	-0.092	0.357	-0.253
-371.800	-141.815	-0.121	0.012
-370.785	-200.000	0.014	-0.098
-369.771	35.624	1.023	-0.893
-368.756	508.975	-0.159	-0.366
-367.742	119.425	-0.268	0.329
-366.727	39.579	-0.367	0.327
-365.712	-77.466	-0.690	0.238
-364.698	-124.440	1.257	-0.195
-363.683	-200.000	0.075	0.362
-362.669	184.719	-0.519	0.764
-361.654	-114.244	0.170	0.033
-360.639	-200.000	0.043	0.273
-359.625	-133.514	0.462	0.058
-358.610	-61.969	-0.531	-0.221
-357.596	313.177	0.160	0.299
-356.581	800.000	0.213	0.704
-355.566	145.121	0.160	-0.212
-354.552	800.000	0.129	0.497
-353.537	-141.731	-0.078	0.008
-352.523	-115.106	0.464	0.087
-351.508	-200.000	0.023	-0.621
-350.493	-30.309	0.123	-0.070
-349.479	28.895	0.072	0.061
-348.464	-158.151	0.551	-0.032
-347.450	-185.882	0.434	-0.006
-346.435	-200.000	0.022	-0.261
-345.420	-200.000	0.009	-0.542
-344.406	-200.000	-0.014	1.213
-343.391	-10.168	-0.122	-0.081
-342.377	-200.000	0.127	0.594
-341.362	-200.000	-0.028	-0.184
-340.348	156.868	0.274	0.376
-339.333	-102.932	0.537	-0.126
-338.318	-200.000	0.081	0.444
-337.304	75.191	-0.228	-0.239
-336.289	800.000	0.288	-0.899
-335.275	-45.124	-0.233	0.115
-334.260	42.250	-0.090	-0.081
-333.245	19.287	0.387	0.308
-332.231	-145.377	-0.147	0.013
-331.216	-200.000	-0.011	-0.177
-330.202	586.535	-0.118	-0.289
-329.187	10.848	-0.311	0.236
-328.172	800.000	-0.057	0.210
-327.158	-175.383	0.383	-0.010
-326.143	278.271	-0.378	0.668
-325.129	440.422	0.092	-0.199
-324.114	-30.552	0.648	-0.364
-323.099	-4.169	0.432	-0.296
-322.085	-3.902	0.362	0.249
-321.070	-18.207	-0.290	0.180
-320.056	-200.000	0.131	-0.599
-319.041	-200.000	0.016	-1.061
-318.026	-63.934	-0.336	-0.136
-317.012	-63.405	0.488	0.199
-315.997	-6.651	0.509	0.344
-314.983	26.316	0.366	0.303
-313.968	-200.000	-0.134	0.609
-312.953	27.819	0.286	-0.238
-311.939	621.790	0.186	0.463
-310.924	37.328	-0.368	0.323
-309.910	-76.603	-0.837	0.291
-308.895	800.000	-0.067	0.283
-307.880	-126.588	-0.594	0.087
-306.866	-106.884	-0.522	0.115
-305.851	-125.453	-0.411	0.062
-304.837	-46.856	0.575	-0.279
-303.822	-200.000	0.079	0.461
-302.807	-200.000	0.037	0.717
-301.793	-200.000	-0.041	0.357
-300.778	79.339	0.292	0.310
-299.764	755.408	0.289	-0.774
-298.749	-61.365	1.161	-0.484
-297.735	129.724	0.268	-0.340
-296.720	25.995	-0.491	0.406
-295.705	800.000	-0.108	-0.355
-294.691	-125.335	-0.526	0.080
-293.676	800.000	0.198	-0.738
-292.662	-69.561	1.126	0.427
-291.647	-4.566	-0.491	0.336
-290.632	10.126	0.756	-0.569
-289.618	-31.889	0.554	0.308
-288.603	800.000	-0.168	-0.597
-287.589	-145.225	0.542	-0.049
-286.574	-149.143	-0.197	-0.016
-285.559	-200.000	-0.092	-0.784
-284.545	-182.103	-0.224	0.004
-283.530	-82.034	0.216	-0.070
-282.516	-200.000	0.250	1.216
-281.501	8.869	0.333	-0.248
-280.486	800.000	-0.099	0.313
-279.472	81.336	0.426	-0.455
-278.457	-127.683	-0.999	0.143
-277.443	-21.611	1.032	-0.622
-276.428	-200.000	-0.040	0.329
-275.413	-47.213	-0.547	0.264
-274.399	-183.010	-0.729	-0.013
-273.384	274.040	-0.212	-0.371
-272.370	-120.358	-0.138	0.023
-271.355	4.619	-0.076	-0.055
-270.340	5.296	0.657	-0.480
-269.326	33.760	0.733	0.631
-268.311	800.000	0.217	0.808
-267.297	-164.776	0.865	-0.038
-266.282	402.423	-0.261	0.543
-265.267	312.178	0.385	0.715
-264.253	34.719	-0.480	-0.415
-263.238	-200.000	0.102	0.823
-262.224	395.902	-0.039	0.081
-261.209	184.296	-0.188	0.276
-260.195	-5.674	0.875	0.593
-259.180	148.248	0.356	-0.476
-258.165	241.724	-0.175	-0.289
-257.151	-82.668	-0.529	0.170
-256.136	-38.473	0.877	0.459
-255.122	-200.000	-0.031	0.878
-254.107	69.633	-0.168	-0.171
-253.092	-148.296	0.715	-0.058
-252.078	-18.432	-0.296	0.183
-251.063	-74.751	-0.646	-0.229
-250.049	-161.015	-0.415	0.022
-249.034	441.607	-0.110	-0.238
-248.019	-200.000	-0.045	0.241
-247.005	-42.486	-0.585	-0.295
-245.990	-31.487	-0.084	0.047
-244.976	678.432	-0.066	0.169
-243.961	-200.000	0.005	0.215
-242.946	-200.000	-0.007	0.036
-241.932	67.107	0.519	-0.523
-240.917	-42.457	-0.376	-0.190
-239.903	194.179	0.320	-0.480
-238.888	113.718	0.229	-0.275
-237.873	89.951	-0.316	0.349
-236.859	-200.000	-0.059	0.930
-235.844	800.000	-0.102	0.434
-234.830	-39.509	0.473	-0.245
-233.815	223.638	-0.220	-0.351
-232.800	800.000	-0.177	0.724
-231.786	361.991	-0.121	0.240
-230.771	464.464	0.051	0.113
-229.757	-144.588	0.345	0.031
-228.742	-18.903	0.711	0.437
-227.727	322.903	-0.225	-0.423
-226.713	17.021	0.119	0.093
-225.698	202.860	0.465	-0.710
-224.684	31.982	0.346	-0.294
-223.669	4.557	-0.615	-0.446
-222.655	124.859	-0.533	-0.663
-221.640	-200.000	0.004	0.374
-220.625	-200.000	-0.007	-0.040
-219.611	-200.000	0.052	-0.797
-218.596	800.000	-0.365	-1.107
-217.582	-104.410	0.450	-0.103
-216.567	101.541	-0.809	0.931
-215.552	453.573	0.478	1.044
-214.538	249.883	0.170	0.286
-213.523	-200.000	0.033	-0.427
-212.509	-26.123	-0.102	0.059
-211.494	-200.000	0.023	-0.297
-210.479	-200.000	0.158	-1.414
-209.465	-74.940	-0.742	-0.263
-208.450	-158.102	-1.126	0.065
-207.436	-200.000	-0.072	-0.348
-206.421	-2.627	0.562	0.388
-205.406	800.000	-0.071	-0.287
-204.392	-89.708	0.123	-0.036
-203.377	245.676	-0.211	-0.350
-202.363	196.948	0.317	0.476
-201.348	-200.000	-0.639	0.000
-200.333	74.192	-0.618	0.640
-199.319	-145.101	-0.151	0.014
-198.304	-77.489	0.977	0.335
-197.290	-48.230	-0.203	0.097
-196.275	800.000	-0.120	0.414
-195.260	100.126	0.636	0.728
-194.246	-75.617	0.304	0.107
-193.231	-43.380	-0.810	0.404
-192.217	168.160	0.220	-0.309
-191.202	56.033	-0.344	0.329
-190.187	-200.000	-0.108	-0.722
-189.173	141.848	0.429	-0.560
-188.158	-200.000	0.057	-0.398
-187.144	800.000	0.100	-0.419
-186.129	68.563	0.462	-0.467
-185.114	-200.000	0.025	0.322
-184.100	-174.693	-0.377	-0.011
-183.085	174.051	-0.319	-0.454
-182.071	-200.000	-0.007	-0.676
-181.056	800.000	-0.247	1.037
-180.042	39.659	-0.218	0.193
-179.027	1.494	0.082	-0.058
-178.012	0.726	-0.315	-0.223
-176.998	-27.827	-0.471	0.269
-175.983	-129.303	0.300	0.041
-174.969	800.000	0.073	-0.210
-173.954	85.402	0.308	-0.333
-172.939	388.536	0.020	0.040
-171.925	570.458	-0.099	-0.237
-170.910	-200.000	-0.008	0.040
-169.896	60.732	-0.256	-0.250
-168.881	302.119	-0.344	0.627
-167.866	-76.978	-0.582	0.200
-166.852	30.285	-0.914	0.769
-165.837	-8.419	-0.312	0.207
-164.823	493.155	0.172	0.388
-163.808	-200.000	0.157	0.738
-162.793	-34.169	0.488	0.264
-161.779	800.000	-0.145	-0.497
-160.764	-200.000	-0.136	0.845
-159.750	-123.883	-0.216	-0.034
-158.735	-136.053	0.444	-0.051
-157.720	-74.868	0.459	-0.162
-156.706	-142.169	-0.662	0.065
-155.691	257.342	-0.318	0.538
-154.677	-200.000	-0.095	-1.047
-153.662	-44.344	-0.348	-0.172
-152.647	-52.246	-0.511	-0.233
-151.633	-10.292	0.262	0.171
-150.618	-165.292	0.515	0.022
-149.604	-90.982	-0.221	0.063
-148.589	521.604	0.188	0.435
-147.574	-200.000	-0.935	-0.003
-146.560	-157.151	0.821	0.049
-145.545	-17.733	0.425	-0.263
-144.531	-101.288	0.137	-0.033
-143.516	168.721	0.619	-0.869
-142.502	748.691	0.261	-0.694
-141.487	-200.000	-0.167	-0.801
-140.472	-200.000	-0.147	-0.638
-139.458	-200.000	0.005	0.531
-138.443	-143.827	0.291	0.027
-137.429	293.071	0.327	0.587
-136.414	-17.668	0.791	0.489
-135.399	-134.483	-0.464	0.056
-134.385	-43.218	0.658	0.328
-133.370	800.000	0.102	0.361
-132.356	8.023	-0.518	0.383
-131.341	-32.844	-0.419	-0.229
-130.326	71.218	0.483	0.493
-129.312	115.129	0.422	0.507
-128.297	-164.647	0.306	0.014
-127.283	800.000	-0.290	-0.941
-126.268	38.747	0.169	-0.149
-125.253	-53.575	0.335	-0.151
-124.239	-169.024	0.268	0.010
-123.224	-200.000	0.028	0.688
