DTS Sentinel unit serial number:	SN413079Multiplexer serial number:	ORYXHardware model number:	OX4-SRSoftware version number:	ORYX F/W v4.00 Oryx Data Collector v3.7.2.0data status	okinstallation	princeton_trtdifferential loss correction	single-endedforward channel	channel 2reverse channel	N/Adate	2019/09/13time	21:19:35forward acquisition time	60.00reverse acquisition time	0.00gamma	496.2192k internal	0.2334k external	0.2334temperature offset calibration	1.0126default loss term (dB/km)	0.3790temperature slope calibration	1.0000multiplexer offset coefficient	1.0000multiplexer slope coefficient	1.0000fibre end	0.00T internal ref (°C)	28.41T ext. ref 1 (°C)	3.12T ext. ref 2 (°C)	23.08length (m)	temperature (°C)	Stokes	anti-Stokes-747.200	248.995	-0.119	-0.203
-746.185	-14.527	0.106	-0.068
-745.171	-66.445	-0.042	-0.017
-744.156	-110.075	-0.097	0.020
-743.142	-68.060	0.134	0.052
-742.127	-96.824	-0.332	0.088
-741.112	326.408	-0.200	-0.385
-740.098	255.108	0.090	-0.155
-739.083	-126.365	0.273	-0.041
-738.069	20.323	-0.080	-0.065
-737.054	47.215	-0.335	-0.313
-736.039	39.005	-0.258	-0.232
-735.025	454.208	0.103	0.229
-734.010	800.000	0.046	0.199
-732.996	-69.334	-0.295	0.114
-731.981	-110.354	0.103	0.021
-730.966	-99.210	-0.309	-0.078
-729.952	-113.528	0.224	-0.044
-728.937	-38.292	0.087	-0.046
-727.923	-200.000	-0.018	0.126
-726.908	254.484	-0.060	-0.104
-725.894	10.307	0.206	-0.157
-724.879	451.757	-0.054	-0.121
-723.864	16.923	-0.214	-0.170
-722.850	-122.707	-0.127	-0.021
-721.835	-9.009	0.321	-0.216
-720.821	800.000	0.116	0.436
-719.806	800.000	-0.058	0.201
-718.791	-30.361	-0.208	-0.119
-717.777	-31.538	0.378	-0.213
-716.762	690.304	0.098	-0.258
-715.748	-93.152	-0.125	-0.035
-714.733	-4.105	0.200	0.139
-713.718	-59.731	-0.046	0.020
-712.704	-162.796	0.246	0.012
-711.689	-25.244	0.065	0.039
-710.675	-200.000	0.000	0.273
-709.660	-10.277	0.113	0.075
-708.645	-43.010	-0.301	-0.153
-707.631	12.478	0.086	0.067
-706.616	-156.594	-0.221	-0.014
-705.602	-156.157	0.362	0.023
-704.587	610.201	-0.129	0.324
-703.572	-56.276	-0.033	-0.015
-702.558	-200.000	0.055	-0.297
-701.543	-8.392	-0.070	-0.048
-700.529	-200.000	-0.149	0.000
-699.514	-46.609	-0.254	-0.125
-698.499	-200.000	-0.008	0.177
-697.485	800.000	-0.030	-0.115
-696.470	-111.923	0.284	0.058
-695.456	630.241	0.032	-0.081
-694.441	-41.982	-0.184	-0.095
-693.426	65.164	0.131	-0.133
-692.412	200.158	-0.063	0.096
-691.397	-200.000	0.023	0.249
-690.383	-85.695	-0.469	-0.146
-689.368	-200.000	0.008	-0.046
-688.354	134.341	-0.074	-0.097
-687.339	-7.270	0.181	-0.123
-686.324	-19.350	0.194	-0.121
-685.310	-4.267	0.356	-0.247
-684.295	-106.998	0.316	-0.070
-683.281	-92.521	-0.146	0.041
-682.266	-21.746	-0.165	-0.101
-681.251	-97.780	-0.079	-0.020
-680.237	-83.890	0.231	-0.074
-679.222	-131.534	-0.321	-0.042
-678.208	-200.000	0.001	0.065
-677.193	-200.000	-0.015	0.104
-676.178	-200.000	-0.011	-0.155
-675.164	-10.585	0.317	0.210
-674.149	800.000	-0.008	0.024
-673.135	206.544	0.140	-0.219
-672.120	-200.000	-0.001	0.159
-671.105	249.867	0.128	-0.218
-670.091	-80.869	-0.131	0.043
-669.076	239.968	-0.138	-0.230
-668.062	34.746	-0.120	-0.106
-667.047	278.999	0.059	-0.106
-666.032	37.421	-0.270	0.240
-665.018	-81.611	-0.297	0.098
-664.003	-31.351	-0.181	-0.102
-662.989	0.029	-0.252	-0.180
-661.974	-36.413	0.087	0.047
-660.959	-119.446	-0.302	-0.053
-659.945	-78.435	-0.094	-0.032
-658.930	-147.131	-0.082	0.007
-657.916	-113.086	0.304	-0.060
-656.901	23.397	0.083	-0.068
-655.886	557.165	-0.102	-0.246
-654.872	70.666	0.189	0.196
-653.857	148.734	-0.050	0.067
-652.843	143.556	0.064	-0.085
-651.828	-82.301	-0.327	0.107
-650.814	757.431	-0.079	-0.215
-649.799	-128.679	-0.172	-0.024
-648.784	-38.097	-0.224	-0.119
-647.770	800.000	0.025	-0.094
-646.755	583.758	0.112	0.276
-645.741	205.532	-0.136	-0.212
-644.726	-200.000	-0.027	-0.208
-643.711	546.237	0.099	-0.238
-642.697	-101.772	0.073	0.018
-641.682	-173.601	-0.142	-0.004
-640.668	298.307	0.054	0.099
-639.653	213.916	0.195	0.308
-638.638	-161.262	-0.198	0.010
-637.624	268.433	0.141	-0.248
-636.609	800.000	0.043	0.124
-635.595	-129.608	0.111	-0.015
-634.580	-133.161	-0.177	0.022
-633.565	-108.823	-0.519	-0.111
-632.551	-135.008	-0.058	0.007
-631.536	-118.113	0.182	-0.033
-630.522	-175.083	-0.072	-0.002
-629.507	-1.148	-0.077	0.055
-628.492	-24.056	0.125	-0.075
-627.478	703.898	-0.089	0.235
-626.463	-200.000	-0.011	0.364
-625.449	130.292	-0.088	0.113
-624.434	-200.000	-0.066	0.429
-623.419	-97.426	-0.163	0.042
-622.405	-55.604	-0.065	0.029
-621.390	-19.173	0.088	-0.055
-620.376	-80.401	0.410	-0.137
-619.361	-114.517	-0.268	0.051
-618.346	-200.000	0.001	-0.252
-617.332	93.669	0.156	-0.177
-616.317	-121.190	-0.106	-0.018
-615.303	-89.568	0.292	-0.086
-614.288	-33.261	0.402	0.222
-613.273	800.000	-0.047	0.192
-612.259	280.674	-0.118	-0.211
-611.244	-200.000	0.024	-0.136
-610.230	65.270	-0.061	-0.062
-609.215	-200.000	0.009	0.115
-608.201	-1.377	-0.435	0.307
-607.186	24.916	0.181	0.150
-606.171	800.000	0.076	0.274
-605.157	-200.000	0.058	0.401
-604.142	461.214	-0.106	-0.235
-603.128	93.779	-0.184	0.209
-602.113	-53.662	-0.188	-0.086
-601.098	-48.928	0.259	-0.124
-600.084	-200.000	-0.015	-0.217
-599.069	-39.487	0.183	-0.096
-598.055	-200.000	-0.016	-0.153
-597.040	69.949	0.023	-0.024
-596.025	-135.218	0.288	0.034
-595.011	439.407	-0.064	-0.139
-593.996	-200.000	0.045	0.314
-592.982	800.000	0.079	0.279
-591.967	-200.000	0.002	0.321
-590.952	-200.000	0.001	-0.082
-589.938	1.025	0.337	0.241
-588.923	51.174	-0.092	-0.088
-587.909	-174.031	-0.215	-0.006
-586.894	6.788	0.197	-0.146
-585.879	283.838	-0.028	0.051
-584.865	-33.409	0.266	0.147
-583.850	-200.000	0.020	0.140
-582.836	51.286	0.053	0.050
-581.821	504.835	0.044	-0.102
-580.806	91.158	-0.111	-0.125
-579.792	-85.838	0.369	0.114
-578.777	-200.000	-0.016	-0.344
-577.763	-200.000	-0.005	-0.096
-576.748	335.467	-0.131	-0.254
-575.733	800.000	-0.075	0.256
-574.719	800.000	-0.074	0.259
-573.704	-91.990	-0.147	-0.042
-572.690	31.807	-0.094	-0.081
-571.675	-106.917	0.443	0.098
-570.661	112.113	-0.053	0.064
-569.646	-175.833	0.148	0.004
-568.631	-92.207	0.192	-0.054
-567.617	-22.218	-0.135	-0.082
-566.602	-52.996	-0.335	-0.154
-565.588	-150.999	-0.113	0.009
-564.573	-91.151	-0.140	-0.040
-563.558	-103.819	0.299	0.070
-562.544	229.462	-0.098	0.159
-561.529	-200.000	0.063	0.448
-560.515	-30.975	0.175	-0.098
-559.500	-200.000	-0.007	-0.165
-558.485	-152.195	0.060	0.004
-557.471	-46.983	0.335	-0.163
-556.456	170.732	-0.026	-0.038
-555.442	6.312	0.105	0.078
-554.427	60.026	0.180	-0.177
-553.412	-64.262	-0.299	-0.122
-552.398	800.000	0.039	-0.111
-551.383	-200.000	-0.048	-0.212
-550.369	365.703	0.199	0.400
-549.354	104.250	0.152	0.178
-548.339	-146.418	0.086	0.007
-547.325	229.342	-0.152	-0.247
-546.310	29.180	0.154	0.131
-545.296	272.848	0.123	-0.217
-544.281	800.000	-0.046	0.171
-543.266	-7.912	-0.079	0.053
-542.252	4.664	-0.284	0.208
-541.237	341.672	-0.051	-0.099
-540.223	-137.103	0.392	-0.045
-539.208	194.844	0.127	-0.192
-538.193	48.058	-0.078	0.073
-537.179	380.103	0.133	-0.271
-536.164	185.283	-0.122	-0.181
-535.150	-200.000	-0.004	0.060
-534.135	25.320	-0.145	0.120
-533.121	-82.700	-0.063	-0.020
-532.106	472.096	-0.131	0.293
-531.091	800.000	0.067	-0.194
-530.077	-200.000	-0.036	-0.177
-529.062	-200.000	-0.042	-0.191
-528.048	51.959	0.118	0.112
-527.033	-112.012	0.002	-0.000
-526.018	800.000	-0.028	-0.103
-525.004	-130.300	-0.164	0.022
-523.989	-200.000	-0.012	0.066
-522.975	238.442	-0.059	0.098
-521.960	277.203	0.122	-0.216
-520.945	-200.000	-0.031	0.229
-519.931	-70.325	-0.276	0.104
-518.916	-82.585	0.255	0.082
-517.902	-200.000	-0.001	-0.032
-516.887	-147.937	-0.222	-0.018
-515.872	64.702	-0.219	0.220
-514.858	-173.279	0.124	-0.004
-513.843	-110.017	-0.108	0.022
-512.829	-58.543	-0.359	-0.155
-511.814	205.980	-0.202	0.313
-510.799	4.187	0.291	0.212
-509.785	-200.000	-0.057	-0.271
-508.770	141.259	-0.175	-0.230
-507.756	800.000	-0.065	0.275
-506.741	-16.559	-0.231	0.146
-505.726	144.715	-0.124	0.165
-504.712	75.076	-0.206	0.217
-503.697	634.033	0.018	-0.046
-502.683	-18.248	0.133	-0.083
-501.668	-149.187	-0.442	0.035
-500.653	166.573	-0.046	0.065
-499.639	-179.041	-0.062	0.001
-498.624	366.770	-0.065	0.131
-497.610	-114.001	0.276	0.053
-496.595	-200.000	0.031	0.320
-495.581	800.000	0.111	0.353
-494.566	59.101	0.235	0.230
-493.551	-29.072	-0.231	0.132
-492.537	170.142	0.111	0.158
-491.522	-90.940	0.286	-0.082
-490.508	-12.985	-0.134	0.087
-489.493	-87.371	0.221	0.067
-488.478	800.000	-0.019	0.063
-487.464	-151.850	-0.235	-0.017
-486.449	636.294	-0.095	0.239
-485.435	565.686	-0.072	-0.174
-484.420	-200.000	-0.024	-0.347
-483.405	563.806	-0.071	0.170
-482.391	-5.680	-0.062	0.042
-481.376	148.637	0.048	0.065
-480.362	382.427	-0.039	0.080
-479.347	-200.000	0.019	-0.382
-478.332	-154.476	0.081	0.005
-477.318	562.018	0.021	-0.051
-476.303	155.462	-0.108	-0.148
-475.289	29.998	0.107	-0.091
-474.274	-143.965	0.156	-0.015
-473.259	44.932	0.115	-0.105
-472.245	46.516	-0.072	0.066
-471.230	128.034	0.093	-0.118
-470.216	-110.960	0.416	0.085
-469.201	-22.408	0.327	-0.197
-468.186	74.210	0.176	-0.183
-467.172	11.459	-0.364	0.278
-466.157	549.109	0.079	-0.188
-465.143	88.959	0.186	-0.206
-464.128	-69.434	0.042	0.016
-463.113	-129.473	-0.436	0.060
-462.099	-200.000	0.003	0.095
-461.084	-100.725	0.339	0.083
-460.070	55.972	0.306	0.295
-459.055	-95.907	0.168	0.044
-458.040	-116.790	-0.118	-0.022
-457.026	220.892	0.191	0.305
-456.011	-56.192	-0.139	-0.061
-454.997	-89.664	0.242	0.071
-453.982	-106.508	0.040	-0.009
-452.968	132.424	0.199	0.255
-451.953	28.569	-0.111	0.093
-450.938	12.083	-0.164	0.125
-449.924	-103.492	-0.410	0.096
-448.909	346.147	-0.035	0.069
-447.895	-200.000	0.004	0.072
-446.880	-174.560	-0.061	-0.002
-445.865	-87.707	0.515	0.154
-444.851	-200.000	-0.013	-0.069
-443.836	-200.000	0.018	0.115
-442.822	51.021	0.106	0.100
-441.807	-200.000	0.012	0.085
-440.792	-200.000	0.021	0.211
-439.778	-17.140	-0.343	0.215
-438.763	-170.435	-0.413	-0.014
-437.749	19.254	-0.229	0.183
-436.734	417.806	0.061	-0.129
-435.719	-132.739	0.106	0.013
-434.705	131.979	0.037	-0.048
-433.690	35.024	-0.076	0.067
-432.676	11.160	-0.092	0.070
-431.661	-171.977	0.255	-0.008
-430.646	116.677	0.098	-0.120
-429.632	-102.892	0.322	-0.076
-428.617	800.000	0.088	-0.249
-427.603	-76.313	0.088	-0.031
-426.588	698.621	0.130	-0.341
-425.573	236.898	0.035	0.057
-424.559	50.184	0.245	0.230
-423.544	18.482	-0.274	0.217
-422.530	-8.050	-0.240	-0.161
-421.515	-45.634	0.083	0.041
-420.500	15.804	0.039	-0.030
-419.486	-200.000	-0.022	-0.293
-418.471	-73.196	0.267	-0.097
-417.457	19.309	-0.181	0.145
-416.442	-200.000	0.007	-0.045
-415.428	-200.000	0.007	-0.086
-414.413	775.635	-0.024	-0.066
-413.398	-72.288	0.169	-0.062
-412.384	-137.144	0.194	0.022
-411.369	279.854	0.053	0.093
-410.355	800.000	0.049	0.178
-409.340	225.866	0.100	-0.161
-408.325	-185.223	-0.122	-0.002
-407.311	-43.904	0.430	0.214
-406.296	-56.004	-0.260	-0.115
-405.282	-25.065	-0.203	0.119
-404.267	-143.439	0.160	0.015
-403.252	223.417	-0.137	-0.219
-402.238	-71.567	-0.196	0.073
-401.223	-200.000	-0.030	-0.177
-400.209	558.711	-0.066	-0.158
-399.194	494.404	0.078	-0.179
-398.179	249.483	-0.041	0.070
-397.165	142.777	0.298	-0.393
-396.150	-150.595	-0.203	-0.015
-395.136	-21.484	-0.238	-0.144
-394.121	800.000	-0.081	-0.288
-393.106	68.608	-0.197	-0.200
-392.092	317.556	0.100	0.188
-391.077	-85.916	-0.105	0.032
-390.063	-200.000	-0.015	0.072
-389.048	-200.000	0.032	-0.173
-388.033	258.980	0.112	-0.192
-387.019	-200.000	-0.013	0.086
-386.004	-123.367	-0.180	-0.028
-384.990	67.984	0.216	-0.219
-383.975	3.479	-0.196	-0.142
-382.960	340.219	-0.074	0.143
-381.946	-23.325	0.254	-0.151
-380.931	193.301	-0.128	0.192
-379.917	343.005	0.076	0.147
-378.902	-161.855	-0.078	-0.004
-377.888	-106.014	0.163	-0.036
-376.873	-21.945	0.228	-0.138
-375.858	-200.000	-0.021	0.100
-374.844	-32.033	-0.243	-0.135
-373.829	-69.532	0.318	-0.121
-372.815	-111.113	-0.267	-0.054
-371.800	-200.000	-0.021	0.134
-370.785	52.604	0.117	0.111
-369.771	-75.658	-0.222	0.078
-368.756	95.695	-0.044	0.050
-367.742	50.305	-0.217	0.203
-366.727	-200.000	-0.037	-0.195
-365.712	-200.000	0.009	-0.179
-364.698	-37.906	-0.239	-0.126
-363.683	249.758	0.086	-0.144
-362.669	-119.612	-0.249	-0.043
-361.654	-108.998	0.120	0.025
-360.639	146.792	0.025	-0.033
-359.625	-200.000	0.005	0.083
-358.610	-200.000	0.031	-0.217
-357.596	-115.298	-0.176	-0.033
-356.581	277.932	0.047	0.083
-355.566	128.939	-0.007	0.009
-354.552	41.141	-0.208	0.186
-353.537	-30.988	-0.211	0.118
-352.523	-200.000	-0.012	0.381
-351.508	800.000	-0.052	0.151
-350.493	-200.000	-0.061	0.444
-349.479	-200.000	0.000	-0.024
-348.464	-94.104	0.170	-0.046
-347.450	800.000	-0.148	-0.457
-346.435	-120.301	-0.261	-0.044
-345.420	-138.265	-0.185	0.020
-344.406	139.436	-0.063	-0.081
-343.391	325.473	0.166	0.314
-342.377	800.000	0.063	0.238
-341.362	-200.000	-0.017	-0.673
-340.348	227.903	-0.108	-0.174
-339.333	-129.087	-0.103	0.014
-338.318	-130.150	0.412	0.056
-337.304	800.000	0.131	0.471
-336.289	-200.000	0.035	-0.245
-335.275	-24.676	-0.177	0.104
-334.260	800.000	-0.059	-0.238
-333.245	-131.491	0.096	-0.013
-332.231	88.065	-0.027	-0.029
-331.216	-200.000	-0.361	0.000
-330.202	-81.948	0.121	0.039
-329.187	796.597	-0.087	-0.238
-328.172	545.221	-0.114	-0.269
-327.158	-120.089	0.204	-0.035
-326.143	15.964	0.355	0.277
-325.129	68.414	0.259	0.263
-324.114	-36.843	-0.081	0.043
-323.099	-168.694	0.520	0.019
-322.085	155.279	0.197	-0.268
-321.070	-86.924	0.112	-0.034
-320.056	-200.000	0.022	-0.117
-319.041	-74.825	-0.230	-0.082
-318.026	112.465	-0.221	0.265
-317.012	144.144	-0.188	0.249
-315.997	-135.694	0.087	-0.010
-314.983	-200.000	0.009	-0.294
-313.968	253.704	-0.069	0.116
-312.953	223.657	-0.215	0.343
-311.939	-100.490	-0.450	-0.110
-310.924	617.477	0.140	-0.346
-309.910	-105.246	0.041	0.009
-308.895	-200.000	0.015	0.166
-307.880	-49.128	-0.254	-0.120
-306.866	118.410	-0.068	0.083
-305.851	-200.000	0.012	0.085
-304.837	243.573	0.073	0.121
-303.822	-200.000	0.007	0.245
-302.807	44.354	0.089	0.080
-301.793	20.583	0.274	-0.219
-300.778	293.033	-0.141	0.253
-299.764	2.022	-0.251	-0.179
-298.749	-124.649	-0.209	0.032
-297.735	-200.000	0.017	0.317
-296.720	-102.473	0.161	-0.038
-295.705	-200.000	-0.006	-0.026
-294.691	214.081	-0.077	-0.120
-293.676	-84.982	0.245	0.076
-292.662	-200.000	-0.030	-0.360
-291.647	23.269	-0.276	0.224
-290.632	-200.000	0.011	0.297
-289.618	-200.000	0.035	0.199
-288.603	-5.967	-0.266	-0.179
-287.589	627.302	0.118	-0.295
-286.574	-59.331	0.224	-0.095
-285.559	-45.019	-0.490	-0.241
-284.545	-155.417	-0.148	-0.009
-283.530	163.203	-0.139	-0.193
-282.516	-119.862	-0.238	0.040
-281.501	-94.437	0.262	0.071
-280.486	-22.149	0.090	-0.054
-279.472	328.790	0.159	-0.301
-278.457	168.921	0.112	-0.158
-277.443	-121.385	-0.378	0.062
-276.428	90.884	-0.303	-0.335
-275.413	-153.190	0.046	0.003
-274.399	-200.000	-0.051	-0.351
-273.384	-152.890	-0.213	-0.015
-272.370	323.418	-0.148	-0.278
-271.355	-200.000	0.050	0.270
-270.340	-200.000	-0.025	-0.197
-269.326	-69.633	0.136	0.051
-268.311	-104.667	0.246	-0.056
-267.297	-200.000	0.025	-0.206
-266.282	63.772	-0.130	0.129
-265.267	-17.178	-0.286	0.178
-264.253	800.000	-0.054	-0.183
-263.238	303.816	-0.060	-0.110
-262.224	305.781	0.223	-0.410
-261.209	-61.391	0.168	0.070
-260.195	491.174	0.048	-0.109
-259.180	-72.371	0.314	-0.115
-258.165	-200.000	-0.029	-0.240
-257.151	155.893	-0.094	0.128
-256.136	118.865	0.045	-0.055
-255.122	97.381	0.122	0.138
-254.107	-200.000	0.127	0.627
-253.092	96.366	0.158	-0.178
-252.078	356.167	0.163	-0.320
-251.063	-200.000	0.005	0.145
-250.049	-141.261	0.300	-0.030
-249.034	-164.989	-0.491	0.022
-248.019	800.000	0.104	0.314
-247.005	-200.000	0.001	0.049
-245.990	-192.169	0.152	-0.001
-244.976	78.732	0.250	0.264
-243.961	-15.911	-0.322	0.202
-242.946	-75.769	0.086	-0.030
-241.932	716.249	0.059	-0.155
-240.917	-54.847	0.085	0.038
-239.903	-65.034	-0.141	-0.056
-238.888	490.223	-0.109	-0.246
-237.873	-200.000	-0.007	0.162
-236.859	150.890	0.087	0.116
-235.844	-101.122	0.095	0.023
-234.830	-165.326	-0.142	0.006
-233.815	469.026	-0.111	-0.246
-232.800	3.767	0.064	0.046
-231.786	-64.335	0.399	0.160
-230.771	166.923	-0.209	-0.293
-229.757	241.301	-0.289	0.476
-228.742	-200.000	-0.013	-0.123
-227.727	800.000	0.032	-0.093
-226.713	-169.333	0.117	0.004
-225.698	-43.613	0.127	-0.063
-224.684	-200.000	0.004	-0.140
-223.669	-6.739	0.122	0.082
-222.655	3.636	0.088	0.063
-221.640	-64.321	-0.069	-0.028
-220.625	800.000	-0.073	-0.214
-219.611	15.067	-0.348	-0.269
-218.596	-200.000	-0.020	0.153
-217.582	-93.638	-0.207	0.056
-216.567	-94.605	0.050	0.013
-215.552	-87.943	0.229	-0.068
-214.538	-85.912	-0.087	-0.027
-213.523	162.992	0.056	-0.077
-212.509	800.000	0.055	-0.224
-211.494	-200.000	-0.040	0.369
-210.479	-200.000	0.022	0.111
-209.465	1.751	-0.091	0.065
-208.450	-113.499	0.280	-0.054
-207.436	62.862	0.171	0.169
-206.421	82.056	0.341	-0.364
-205.406	24.358	-0.090	0.074
-204.392	28.693	-0.096	-0.080
-203.377	-9.469	0.232	-0.152
-202.363	-154.609	-0.236	-0.015
-201.348	-40.312	-0.199	0.102
-200.333	-200.000	0.046	-0.362
-199.319	129.606	-0.058	-0.073
-198.304	22.053	-0.293	-0.235
-197.290	471.348	0.118	-0.261
-196.275	800.000	-0.098	-0.370
-195.260	45.383	-0.111	0.100
-194.246	78.197	0.085	0.089
-193.231	-200.000	-0.123	-0.001
-192.217	-89.290	-0.305	-0.088
-191.202	-125.889	0.127	0.019
-190.187	800.000	-0.030	0.127
-189.173	-157.122	-0.115	0.007
-188.158	-35.457	-0.251	-0.134
-187.144	147.532	0.105	-0.139
-186.129	384.931	0.034	0.070
-185.114	84.344	-0.140	0.151
-184.100	609.541	-0.104	0.256
-183.085	21.905	-0.058	0.047
-182.071	642.390	-0.178	-0.446
-181.056	237.394	0.117	-0.191
-180.042	800.000	-0.049	-0.144
-179.027	154.350	0.189	0.256
-178.012	277.221	0.041	0.071
-176.998	-151.674	0.290	-0.021
-175.983	326.140	-0.108	-0.204
-174.969	-151.656	-0.250	0.018
-173.954	290.068	0.131	0.234
-172.939	-113.285	0.198	0.038
-171.925	-40.092	-0.232	0.119
-170.910	-0.780	0.064	-0.044
-169.896	-45.248	0.205	0.100
-168.881	172.563	-0.129	0.182
-167.866	75.867	0.188	0.196
-166.852	-109.412	-0.159	0.033
-165.837	-102.543	0.109	-0.026
-164.823	-61.821	-0.379	0.156
-163.808	748.329	0.146	0.387
-162.793	-130.318	0.323	-0.043
-161.779	234.900	-0.064	-0.104
-160.764	360.316	-0.079	-0.155
-159.750	-200.000	0.339	-0.001
-158.735	-81.334	0.214	0.069
-157.720	-108.948	0.262	-0.055
-156.706	-200.000	-0.015	-0.198
-155.691	-200.000	-0.027	-0.253
-154.677	-45.480	0.113	0.055
-153.662	-105.275	0.384	-0.086
-152.647	87.971	0.202	0.220
-151.633	-152.998	-0.200	0.014
-150.618	92.073	-0.168	0.186
-149.604	-200.000	-0.038	0.290
-148.589	-161.713	-0.159	-0.008
-147.574	-200.000	0.046	-0.349
-146.560	155.875	-0.098	-0.132
-145.545	-100.827	-0.170	0.041
-144.531	300.151	-0.094	-0.171
-143.516	200.599	-0.131	-0.197
-142.502	-47.531	0.053	-0.025
-141.487	-54.097	0.215	0.096
-140.472	-150.351	0.186	-0.014
-139.458	-6.176	-0.156	0.105
-138.443	800.000	-0.033	0.136
-137.429	148.702	0.185	0.245
-136.414	55.396	0.084	0.080
-135.399	-86.139	-0.207	0.063
-134.385	-145.619	-0.118	-0.010
-133.370	108.033	-0.145	-0.170
-132.356	-200.000	-0.014	-0.195
-131.341	132.951	0.191	0.242
-130.326	609.255	-0.079	0.194
-129.312	-119.662	-0.175	0.030
-128.297	-28.252	0.460	0.260
-127.283	-64.954	-0.178	0.071
-126.268	-82.444	0.141	-0.045
-125.253	128.035	-0.115	-0.143
-124.239	-63.139	0.312	-0.126
-123.224	-200.000	-0.043	-0.351
