DTS Sentinel unit serial number:	SN413079Multiplexer serial number:	ORYXHardware model number:	OX4-SRSoftware version number:	ORYX F/W v4.00 Oryx Data Collector v3.7.2.0data status	okinstallation	princeton_trtdifferential loss correction	single-endedforward channel	channel 2reverse channel	N/Adate	2019/09/17time	11:35:35forward acquisition time	60.00reverse acquisition time	0.00gamma	496.2192k internal	0.2323k external	0.2323temperature offset calibration	0.9986default loss term (dB/km)	0.3790temperature slope calibration	1.0000multiplexer offset coefficient	1.0000multiplexer slope coefficient	1.0000fibre end	0.00T internal ref (°C)	30.75T ext. ref 1 (°C)	0.35T ext. ref 2 (°C)	26.54length (m)	temperature (°C)	Stokes	anti-Stokes-747.200	120.775	-0.084	0.105
-746.185	800.000	-0.023	-0.078
-745.171	-58.916	-0.124	-0.054
-744.156	-57.449	-0.211	0.094
-743.142	-106.414	-0.279	0.063
-742.127	4.001	-0.218	0.161
-741.112	-131.307	0.072	0.010
-740.098	-78.690	-0.424	0.146
-739.083	-200.000	0.075	0.350
-738.069	-54.971	-0.080	0.036
-737.054	-42.185	0.264	-0.136
-736.039	-50.516	-0.117	-0.055
-735.025	-85.612	0.366	-0.115
-734.010	-200.000	0.010	-0.083
-732.996	39.630	0.178	-0.161
-731.981	-32.396	-0.213	0.120
-730.966	-4.233	0.149	-0.104
-729.952	-200.000	-0.004	-0.167
-728.937	-200.000	-0.008	0.127
-727.923	-103.327	-0.117	0.028
-726.908	800.000	-0.084	-0.251
-725.894	430.854	-0.031	0.068
-724.879	441.599	-0.065	-0.143
-723.864	80.652	0.291	-0.316
-722.850	-198.610	-0.345	0.002
-721.835	-10.789	0.141	-0.094
-720.821	1.558	-0.332	-0.241
-719.806	800.000	0.111	-0.435
-718.791	-77.032	0.198	-0.070
-717.777	-42.879	0.334	-0.171
-716.762	-71.647	-0.216	-0.081
-715.748	444.366	0.126	-0.279
-714.733	-136.363	-0.131	-0.015
-713.718	56.296	0.194	0.190
-712.704	13.127	-0.229	0.179
-711.689	-88.036	0.186	0.056
-710.675	241.317	-0.147	-0.247
-709.660	-12.454	0.108	0.071
-708.645	-123.347	-0.224	-0.036
-707.631	-106.130	-0.071	-0.016
-706.616	340.461	-0.133	0.261
-705.602	21.682	-0.224	0.184
-704.587	-24.357	0.252	0.152
-703.572	-200.000	-0.003	0.191
-702.558	57.278	0.095	0.093
-701.543	545.064	0.073	0.175
-700.529	85.722	0.157	-0.174
-699.514	40.648	-0.141	0.128
-698.499	-17.861	0.069	0.044
-697.485	800.000	-0.147	-0.424
-696.470	327.832	0.234	-0.453
-695.456	78.389	0.053	-0.057
-694.441	-200.000	-0.018	0.351
-693.426	-110.984	0.190	-0.039
-692.412	-200.000	-0.045	-0.249
-691.397	800.000	-0.075	-0.259
-690.383	-133.623	0.122	-0.015
-689.368	166.615	-0.217	-0.310
-688.354	46.493	0.185	0.173
-687.339	800.000	-0.030	-0.087
-686.324	36.549	-0.154	-0.137
-685.310	42.675	0.181	-0.166
-684.295	-200.000	0.036	0.318
-683.281	800.000	-0.095	0.358
-682.266	-19.176	0.111	0.069
-681.251	-200.000	0.054	0.395
-680.237	322.431	0.131	-0.252
-679.222	800.000	-0.052	-0.212
-678.208	-168.035	-0.244	-0.010
-677.193	-80.745	0.193	0.064
-676.178	800.000	0.069	-0.280
-675.164	-76.148	0.088	0.031
-674.149	-107.510	-0.173	-0.038
-673.135	18.897	-0.169	-0.136
-672.120	-41.573	-0.189	0.098
-671.105	-36.228	-0.222	-0.121
-670.091	197.490	-0.126	0.194
-669.076	99.991	0.267	-0.311
-668.062	54.070	0.157	-0.152
-667.047	94.655	-0.215	0.246
-666.032	-138.901	-0.204	0.022
-665.018	-161.515	0.220	0.011
-664.003	116.297	0.084	0.104
-662.989	-24.072	0.288	0.173
-661.974	380.357	-0.114	0.236
-660.959	800.000	-0.054	-0.193
-659.945	15.623	-0.055	0.043
-658.930	72.960	-0.115	0.121
-657.916	800.000	0.142	0.436
-656.901	-118.320	-0.111	0.020
-655.886	76.119	-0.156	-0.166
-654.872	48.539	-0.170	-0.161
-653.857	-4.800	0.324	0.225
-652.843	144.435	0.199	-0.267
-651.828	800.000	-0.024	-0.093
-650.814	71.099	-0.125	-0.131
-649.799	-75.177	-0.099	0.035
-648.784	207.701	0.181	-0.285
-647.770	-200.000	0.020	0.120
-646.755	63.271	0.262	0.265
-645.741	-98.605	-0.343	0.088
-644.726	-200.000	0.067	-0.366
-643.711	15.504	0.179	-0.141
-642.697	-12.141	-0.079	-0.052
-641.682	376.131	-0.100	0.206
-640.668	-200.000	0.025	-0.326
-639.653	-32.653	-0.271	0.151
-638.638	119.493	-0.074	0.092
-637.624	-110.663	-0.190	-0.040
-636.609	-34.526	-0.226	-0.124
-635.595	-106.384	-0.259	0.058
-634.580	-57.630	0.168	0.074
-633.565	112.860	-0.120	0.146
-632.551	800.000	-0.003	-0.010
-631.536	6.595	0.067	0.050
-630.522	47.252	-0.097	-0.091
-629.507	-86.192	0.093	-0.029
-628.492	-200.000	0.007	-0.079
-627.478	-170.238	-0.381	0.014
-626.463	-44.456	0.114	0.058
-625.449	237.949	0.123	0.205
-624.434	800.000	-0.052	-0.171
-623.419	442.590	-0.018	0.039
-622.405	-200.000	0.027	0.129
-621.390	-19.630	-0.334	-0.208
-620.376	35.349	0.106	-0.093
-619.361	-200.000	-0.013	0.121
-618.346	800.000	0.042	0.119
-617.332	606.621	0.096	0.239
-616.317	-108.658	-0.091	0.020
-615.303	-106.729	-0.035	0.008
-614.288	-200.000	0.005	-0.331
-613.273	46.377	0.157	-0.147
-612.259	-169.842	0.266	0.010
-611.244	-143.786	-0.112	-0.011
-610.230	-29.836	0.293	0.168
-609.215	-17.474	0.143	-0.091
-608.201	800.000	0.054	0.220
-607.186	-142.783	-0.376	0.037
-606.171	-200.000	0.028	-0.322
-605.157	-112.003	0.120	0.024
-604.142	-128.207	-0.385	0.055
-603.128	18.854	0.317	0.255
-602.113	5.872	-0.189	-0.141
-601.098	-200.000	-0.016	-0.105
-600.084	800.000	-0.035	0.115
-599.069	9.192	0.247	0.188
-598.055	342.195	-0.042	0.082
-597.040	-74.675	0.142	-0.051
-596.025	37.743	0.117	0.104
-595.011	-200.000	-0.004	-0.178
-593.996	-137.412	0.328	0.037
-592.982	88.564	0.073	-0.082
-591.967	-7.618	-0.040	-0.027
-590.952	155.702	0.114	0.157
-589.938	-200.000	0.054	0.300
-588.923	-75.596	0.034	0.012
-587.909	403.306	-0.085	-0.180
-586.894	61.708	0.120	-0.120
-585.879	-94.975	0.397	0.108
-584.865	-168.857	0.256	0.010
-583.850	710.404	0.101	-0.268
-582.836	42.222	0.157	-0.143
-581.821	-61.508	-0.335	-0.141
-580.806	-28.154	-0.243	-0.141
-579.792	4.126	0.082	0.060
-578.777	-198.189	-0.411	0.002
-577.763	-103.811	0.029	-0.007
-576.748	-99.501	-0.105	-0.027
-575.733	62.283	-0.283	-0.283
-574.719	103.619	-0.060	-0.070
-573.704	-200.000	0.062	0.395
-572.690	-46.681	0.324	-0.159
-571.675	134.059	0.173	-0.225
-570.661	198.841	0.262	-0.402
-569.646	12.856	0.150	-0.116
-568.631	-97.969	-0.162	-0.042
-567.617	108.104	-0.181	-0.216
-566.602	40.393	-0.198	0.179
-565.588	-89.242	0.114	0.034
-564.573	-200.000	-0.005	-0.068
-563.558	180.340	-0.138	0.203
-562.544	233.153	0.060	0.099
-561.529	800.000	-0.096	0.284
-560.515	163.920	0.107	-0.151
-559.500	92.617	0.148	0.167
-558.485	131.384	0.050	-0.064
-557.471	-32.798	0.086	0.048
-556.456	52.157	0.081	0.077
-555.442	-200.000	-0.045	0.365
-554.427	-71.576	-0.065	0.024
-553.412	-112.509	0.213	-0.043
-552.398	199.238	-0.295	0.453
-551.383	-181.969	0.419	0.008
-550.369	96.798	-0.160	-0.184
-549.354	-156.944	-0.352	0.022
-548.339	-92.020	0.509	0.144
-547.325	800.000	-0.041	0.150
-546.310	-92.995	-0.207	-0.058
-545.296	-200.000	-0.000	-0.042
-544.281	-41.464	0.085	0.044
-543.266	800.000	0.057	-0.181
-542.252	1.235	-0.189	-0.136
-541.237	800.000	0.059	0.162
-540.223	90.733	0.211	0.236
-539.208	800.000	-0.018	-0.071
-538.193	109.770	-0.154	0.185
-537.179	-200.000	-0.003	-0.072
-536.164	776.490	0.158	0.431
-535.150	-61.837	-0.378	0.158
-534.135	594.306	0.095	-0.235
-533.121	-52.862	-0.037	0.017
-532.106	-200.000	0.018	0.119
-531.091	-32.896	0.126	-0.070
-530.077	-200.000	-0.013	-0.085
-529.062	190.590	0.192	-0.289
-528.048	434.639	-0.057	0.125
-527.033	45.583	0.533	0.492
-526.018	800.000	-0.035	-0.132
-525.004	-86.182	0.245	-0.076
-523.989	-12.120	0.078	-0.051
-522.975	-200.000	0.080	-0.484
-521.960	-79.017	-0.240	0.082
-520.945	43.071	-0.307	-0.280
-519.931	18.664	0.296	0.237
-518.916	12.207	0.119	-0.092
-517.902	195.684	-0.215	0.327
-516.887	-72.702	-0.138	0.051
-515.872	11.439	0.294	-0.225
-514.858	46.942	0.163	0.151
-513.843	231.431	0.046	0.076
-512.829	65.963	0.241	-0.245
-511.814	-200.000	0.011	0.057
-510.799	-82.194	0.209	0.068
-509.785	589.980	0.059	0.145
-508.770	518.878	0.065	-0.152
-507.756	-49.589	0.162	-0.077
-506.741	73.549	-0.146	0.153
-505.726	-200.000	0.020	-0.103
-504.712	-2.543	-0.088	0.062
-503.697	-118.780	-0.375	0.066
-502.683	31.422	0.386	0.332
-501.668	-111.344	-0.133	-0.027
-500.653	-106.339	-0.192	0.043
-499.639	670.099	-0.060	0.155
-498.624	0.969	-0.044	0.031
-497.610	136.556	-0.126	-0.164
-496.595	-200.000	0.004	-0.047
-495.581	-200.000	0.011	0.059
-494.566	-107.848	-0.340	-0.074
-493.551	-200.000	0.031	0.193
-492.537	215.846	-0.106	-0.168
-491.522	-67.695	-0.080	-0.031
-490.508	-82.305	-0.199	-0.065
-489.493	-200.000	0.035	0.289
-488.478	-154.370	-0.146	-0.010
-487.464	800.000	0.007	-0.028
-486.449	-200.000	-0.020	-0.306
-485.435	14.365	0.108	-0.084
-484.420	460.476	0.013	-0.029
-483.405	-91.947	0.192	-0.054
-482.391	800.000	-0.005	-0.018
-481.376	-93.464	0.213	0.059
-480.362	287.641	-0.029	-0.053
-479.347	79.173	0.096	0.103
-478.332	30.896	-0.068	-0.058
-477.318	-102.676	0.430	-0.102
-476.303	-200.000	-0.012	0.466
-475.289	-54.719	0.093	0.042
-474.274	800.000	-0.023	-0.076
-473.259	52.792	-0.217	-0.207
-472.245	604.369	-0.115	-0.285
-471.230	-161.394	0.156	0.008
-470.216	452.101	0.132	0.292
-469.201	40.279	0.270	0.242
-468.186	368.758	0.147	-0.297
-467.172	-32.992	-0.336	-0.186
-466.157	-149.968	-0.127	0.010
-465.143	-58.026	-0.210	0.092
-464.128	800.000	0.096	0.378
-463.113	-159.672	0.336	0.019
-462.099	125.590	-0.056	-0.070
-461.084	477.827	-0.056	-0.126
-460.070	-21.580	-0.342	0.208
-459.055	-200.000	0.010	0.085
-458.040	52.546	-0.122	0.116
-457.026	-9.211	-0.135	-0.090
-456.011	-200.000	-0.002	-0.157
-454.997	39.831	0.155	0.139
-453.982	83.079	-0.261	0.283
-452.968	-58.094	-0.191	-0.083
-451.953	186.055	0.242	-0.359
-450.938	800.000	-0.074	0.208
-449.924	-79.384	0.251	-0.085
-448.909	99.249	-0.313	-0.361
-447.895	144.119	-0.178	0.237
-446.880	-48.739	0.260	-0.124
-445.865	-97.884	-0.072	0.019
-444.851	50.545	0.222	-0.210
-443.836	800.000	0.072	0.285
-442.822	-84.423	0.013	0.004
-441.807	800.000	-0.068	0.197
-440.792	198.804	-0.288	0.440
-439.778	25.649	0.339	0.282
-438.763	-47.216	-0.210	0.102
-437.749	-72.477	-0.231	-0.085
-436.734	183.473	-0.087	0.129
-435.719	682.487	-0.090	0.233
-434.705	800.000	-0.093	-0.298
-433.690	-200.000	0.003	-0.038
-432.676	800.000	-0.080	-0.221
-431.661	41.617	0.172	0.156
-430.646	-67.692	-0.188	-0.073
-429.632	-200.000	0.029	0.132
-428.617	-103.531	-0.096	-0.023
-427.603	-167.194	0.195	-0.008
-426.588	70.295	-0.227	-0.233
-425.573	-9.869	0.102	-0.068
-424.559	502.655	0.096	-0.221
-423.544	516.015	0.095	0.221
-422.530	-131.673	-0.151	-0.020
-421.515	-159.888	-0.184	0.010
-420.500	42.171	0.078	-0.071
-419.486	-5.943	-0.157	-0.107
-418.471	-117.298	0.040	-0.007
-417.457	553.464	0.231	-0.554
-416.442	-200.000	-0.041	-0.465
-415.428	-200.000	-0.007	-0.125
-414.413	-200.000	-0.056	0.296
-413.398	150.005	0.110	0.149
-412.384	666.465	0.075	-0.192
-411.369	800.000	0.047	0.159
-410.355	-200.000	-0.025	-0.383
-409.340	-200.000	0.000	-0.077
-408.325	-200.000	0.015	0.204
-407.311	33.213	-0.252	0.218
-406.296	411.269	0.068	0.143
-405.282	190.749	-0.133	-0.200
-404.267	-127.476	0.145	0.021
-403.252	298.959	0.068	0.125
-402.238	-108.007	0.156	0.034
-401.223	-77.766	0.337	0.116
-400.209	-118.931	-0.516	-0.090
-399.194	800.000	-0.078	0.334
-398.179	-72.249	0.316	0.117
-397.165	106.936	0.064	-0.076
-396.150	-200.000	-0.021	0.223
-395.136	634.213	-0.059	-0.149
-394.121	257.235	-0.108	0.184
-393.106	72.226	-0.262	0.271
-392.092	-125.704	-0.284	-0.043
-391.077	-10.255	0.185	0.122
-390.063	200.596	0.077	0.117
-389.048	-200.000	-0.056	-0.283
-388.033	-142.361	0.031	-0.003
-387.019	800.000	0.050	0.212
-386.004	-128.775	0.201	-0.028
-384.990	98.566	0.336	0.386
-383.975	-181.500	-0.200	0.004
-382.960	-200.000	-0.016	-0.394
-381.946	-44.860	-0.060	0.030
-380.931	800.000	-0.122	-0.390
-379.917	-62.847	-0.260	0.107
-378.902	-82.076	0.151	0.049
-377.888	-122.933	0.335	-0.054
-376.873	-200.000	-0.153	0.000
-375.858	85.490	0.187	-0.204
-374.844	-56.806	0.277	-0.122
-373.829	-200.000	0.085	0.421
-372.815	142.352	-0.069	-0.090
-371.800	681.939	-0.110	-0.286
-370.785	39.022	0.125	0.111
-369.771	63.715	0.186	-0.186
-368.756	103.811	0.103	-0.120
-367.742	228.412	0.215	-0.348
-366.727	-41.550	-0.163	-0.083
-365.712	253.381	0.108	0.184
-364.698	748.191	-0.051	0.138
-363.683	66.715	0.118	0.119
-362.669	-78.829	0.177	-0.060
-361.654	-200.000	-0.016	0.145
-360.639	800.000	0.148	0.435
-359.625	-194.711	0.224	-0.002
-358.610	-96.472	0.276	-0.073
-357.596	116.816	-0.247	0.302
-356.581	-64.287	-0.179	-0.073
-355.566	67.447	-0.268	-0.272
-354.552	186.641	-0.254	-0.376
-353.537	-200.000	-0.021	0.161
-352.523	-19.462	0.071	0.044
-351.508	53.263	-0.195	0.186
-350.493	-16.141	0.062	0.039
-349.479	-27.920	0.026	0.015
-348.464	-50.982	0.115	-0.054
-347.450	-200.000	0.059	0.338
-346.435	-22.503	0.077	-0.046
-345.420	-96.022	-0.088	0.023
-344.406	135.121	0.078	-0.101
-343.391	800.000	0.037	-0.121
-342.377	-18.880	-0.135	-0.084
-341.362	216.769	-0.025	0.040
-340.348	82.695	0.128	0.138
-339.333	-72.634	0.066	0.024
-338.318	-183.120	-0.230	-0.004
-337.304	9.701	0.386	0.291
-336.289	66.430	-0.078	-0.079
-335.275	-54.867	-0.169	0.076
-334.260	-200.000	-0.055	0.481
-333.245	-64.688	0.158	-0.064
-332.231	79.049	0.165	-0.175
-331.216	800.000	0.098	-0.336
-330.202	-196.580	0.128	0.001
-329.187	-10.227	0.165	0.109
-328.172	126.584	-0.005	-0.006
-327.158	420.223	-0.180	-0.382
-326.143	800.000	-0.075	-0.211
-325.129	40.513	0.242	-0.216
-324.114	741.807	-0.096	-0.257
-323.099	39.047	0.094	-0.083
-322.085	-114.479	-0.198	-0.038
-321.070	240.368	0.042	-0.069
-320.056	-166.606	0.195	-0.008
-319.041	-16.335	-0.137	0.086
-318.026	-112.863	0.320	0.063
-317.012	-200.000	-0.019	0.260
-315.997	-8.518	-0.146	0.098
-314.983	-200.000	0.026	-0.179
-313.968	106.870	0.182	0.215
-312.953	427.654	-0.058	-0.124
-311.939	15.481	0.267	-0.208
-310.924	45.551	0.046	-0.042
-309.910	-115.007	-0.186	-0.035
-308.895	104.521	-0.125	0.146
-307.880	-200.000	-0.059	0.275
-306.866	42.650	0.220	-0.199
-305.851	-183.622	0.198	0.003
-304.837	-24.566	0.247	-0.146
-303.822	800.000	-0.064	-0.234
-302.807	533.301	-0.196	-0.460
-301.793	-200.000	0.021	-0.163
-300.778	-139.966	-0.009	0.001
-299.764	800.000	-0.161	-0.466
-298.749	-200.000	0.037	-0.262
-297.735	237.981	0.071	0.118
-296.720	-23.862	-0.366	-0.218
-295.705	-76.275	0.166	-0.058
-294.691	800.000	-0.025	-0.098
-293.676	8.329	0.147	0.109
-292.662	128.229	-0.067	-0.084
-291.647	92.317	0.184	-0.205
-290.632	365.740	0.196	-0.391
-289.618	-124.631	-0.115	-0.018
-288.603	-84.632	0.229	-0.072
-287.589	-23.012	0.163	0.097
-286.574	-5.603	0.133	-0.091
-285.559	-60.888	-0.141	-0.059
-284.545	-200.000	0.037	0.348
-283.530	-23.034	-0.254	-0.152
-282.516	281.048	0.093	0.166
-281.501	-29.264	-0.194	-0.110
-280.486	-98.454	-0.185	-0.047
-279.472	-142.040	-0.296	0.029
-278.457	800.000	-0.050	-0.181
-277.443	181.095	-0.068	0.099
-276.428	-93.707	-0.179	-0.049
-275.413	2.024	-0.285	-0.204
-274.399	-144.370	0.198	0.018
-273.384	-40.956	-0.228	-0.117
-272.370	144.553	-0.030	-0.040
-271.355	482.364	-0.171	-0.385
-270.340	-36.509	0.102	0.054
-269.326	-93.505	-0.084	0.023
-268.311	-200.000	0.001	0.054
-267.297	-58.724	-0.109	0.047
-266.282	800.000	0.120	0.499
-265.267	-104.637	0.319	0.073
-264.253	257.527	0.092	-0.158
-263.238	-59.609	0.173	-0.073
-262.224	-15.356	-0.100	0.063
-261.209	-3.920	-0.009	-0.006
-260.195	272.602	0.021	0.037
-259.180	-22.291	0.289	-0.173
-258.165	395.938	0.088	0.182
-257.151	-113.163	-0.430	0.084
-256.136	463.721	-0.096	0.213
-255.122	800.000	0.025	0.103
-254.107	-137.148	-0.253	-0.029
-253.092	13.598	-0.396	0.304
-252.078	101.619	-0.141	-0.163
-251.063	75.776	0.066	0.069
-250.049	-108.764	-0.252	-0.053
-249.034	185.270	-0.097	0.143
-248.019	-8.985	0.123	-0.081
-247.005	-88.793	-0.120	0.035
-245.990	517.339	-0.063	-0.146
-244.976	26.671	0.379	-0.314
-243.961	800.000	0.112	-0.317
-242.946	-76.767	-0.284	-0.098
-241.932	-11.491	0.213	-0.139
-240.917	-45.156	-0.137	-0.067
-239.903	6.743	-0.244	-0.180
-238.888	433.387	0.011	0.023
-237.873	49.221	-0.139	0.130
-236.859	-81.213	-0.344	0.112
-235.844	-200.000	-0.026	-0.253
-234.830	395.044	-0.065	0.133
-233.815	151.402	0.153	-0.207
-232.800	800.000	0.069	-0.213
-231.786	-137.362	0.021	-0.002
-230.771	800.000	-0.012	-0.039
-229.757	-37.700	0.255	0.135
-228.742	-64.218	0.223	0.090
-227.727	-18.560	-0.040	-0.025
-226.713	-32.061	0.257	-0.142
-225.698	-84.417	-0.545	-0.171
-224.684	800.000	0.087	0.358
-223.669	397.217	-0.062	0.128
-222.655	160.603	-0.092	-0.128
-221.640	-115.376	0.308	0.057
-220.625	3.196	-0.078	-0.056
-219.611	800.000	-0.052	0.223
-218.596	354.303	0.063	-0.125
-217.582	-0.949	0.122	-0.085
-216.567	-115.713	-0.177	0.033
-215.552	-74.062	0.022	0.008
-214.538	545.214	0.098	0.231
-213.523	800.000	0.077	0.291
-212.509	-200.000	0.007	0.137
-211.494	-9.895	0.171	0.113
-210.479	221.421	-0.139	0.220
-209.465	-41.711	0.193	-0.098
-208.450	-90.396	0.112	-0.032
-207.436	242.223	0.080	-0.132
-206.421	-106.704	0.108	0.024
-205.406	103.171	-0.025	-0.028
-204.392	25.593	-0.154	-0.127
-203.377	-200.000	0.023	-0.165
-202.363	94.055	-0.167	0.187
-201.348	-88.797	0.140	0.041
-200.333	580.215	-0.133	0.323
-199.319	-200.000	-0.007	-0.109
-198.304	445.866	-0.093	-0.201
-197.290	-110.976	-0.237	0.048
-196.275	800.000	0.116	0.323
-195.260	125.492	-0.160	-0.199
-194.246	313.636	-0.137	0.254
-193.231	-200.000	-0.025	0.130
-192.217	174.226	-0.145	0.207
-191.202	-128.974	-0.108	0.015
-190.187	800.000	-0.040	0.160
-189.173	44.882	0.224	-0.204
-188.158	-66.337	-0.085	0.033
-187.144	-47.246	-0.301	-0.145
-186.129	800.000	-0.053	-0.175
-185.114	-93.342	0.298	0.082
-184.100	800.000	-0.072	-0.228
-183.085	-142.963	0.151	-0.014
-182.071	-187.109	-0.145	-0.002
-181.056	800.000	-0.034	0.098
-180.042	-26.217	0.264	-0.153
-179.027	29.459	-0.107	-0.090
-178.012	15.723	-0.194	-0.150
-176.998	52.235	-0.130	0.123
-175.983	-200.000	-0.030	-0.287
-174.969	37.200	-0.100	0.087
-173.954	11.268	-0.095	-0.072
-172.939	-158.521	-0.231	-0.013
-171.925	-76.453	-0.303	-0.105
-170.910	-127.366	-0.068	0.010
-169.896	30.426	-0.302	0.255
-168.881	800.000	0.103	0.302
-167.866	73.196	0.148	-0.152
-166.852	-91.369	-0.056	0.016
-165.837	283.639	0.032	-0.057
-164.823	-97.891	0.231	0.059
-163.808	20.498	-0.274	0.219
-162.793	800.000	0.143	0.440
-161.779	128.969	-0.187	0.235
-160.764	-120.194	0.223	0.038
-159.750	-200.000	0.036	0.309
-158.735	800.000	-0.058	0.163
-157.720	72.574	0.123	-0.126
-156.706	-200.000	-0.028	-0.173
-155.691	-107.079	0.231	0.050
-154.677	160.840	-0.169	0.233
-153.662	56.015	0.027	-0.026
-152.647	800.000	-0.015	0.042
-151.633	-73.462	0.278	0.100
-150.618	-184.974	0.298	0.005
-149.604	-55.831	-0.125	0.055
-148.589	123.255	0.205	0.254
-147.574	800.000	-0.077	-0.213
-146.560	-178.221	0.350	-0.008
-145.545	67.969	0.324	0.327
-144.531	-120.594	0.434	0.073
-143.516	-200.000	-0.011	-0.143
-142.502	-200.000	0.008	0.040
-141.487	671.474	0.057	0.145
-140.472	58.641	0.105	0.101
-139.458	269.174	-0.212	-0.366
-138.443	-186.775	0.239	0.003
-137.429	-100.287	-0.222	-0.054
-136.414	-38.936	-0.150	0.078
-135.399	-200.000	-0.020	0.091
-134.385	786.078	-0.089	-0.241
-133.370	-200.000	0.020	0.168
-132.356	-65.821	0.237	-0.093
-131.341	-141.768	-0.116	-0.011
-130.326	53.896	0.251	0.238
-129.312	-114.109	0.389	-0.074
-128.297	800.000	-0.023	0.087
-127.283	-9.762	-0.174	-0.114
-126.268	139.000	-0.050	0.065
-125.253	-56.417	0.240	0.105
-124.239	26.708	-0.046	-0.038
-123.224	-76.180	0.133	-0.046
-122.210	1.561	0.114	-0.081
-121.195	373.419	-0.220	-0.440
-120.180	379.119	0.040	-0.080
