DTS Sentinel unit serial number:	SN413079Multiplexer serial number:	ORYXHardware model number:	OX4-SRSoftware version number:	ORYX F/W v4.00 Oryx Data Collector v3.7.2.0data status	okinstallation	princeton_trtdifferential loss correction	single-endedforward channel	channel 2reverse channel	N/Adate	2019/09/12time	08:49:11forward acquisition time	60.00reverse acquisition time	0.00gamma	496.2192k internal	0.2317k external	0.2317temperature offset calibration	1.0065default loss term (dB/km)	0.3790temperature slope calibration	1.0000multiplexer offset coefficient	1.0000multiplexer slope coefficient	1.0000fibre end	0.00T internal ref (°C)	33.98T ext. ref 1 (°C)	1.74T ext. ref 2 (°C)	30.69length (m)	temperature (°C)	Stokes	anti-Stokes-747.200	-91.326	0.152	-0.044
-746.185	-161.561	-0.159	0.008
-745.171	800.000	-0.036	0.109
-744.156	800.000	0.110	0.386
-743.142	-109.186	0.054	0.012
-742.127	-200.000	0.034	0.274
-741.112	-80.105	-0.037	0.013
-740.098	600.745	-0.130	0.327
-739.083	-200.000	-0.055	-0.326
-738.069	162.060	0.155	0.219
-737.054	433.457	0.140	0.308
-736.039	48.724	-0.234	0.222
-735.025	-14.641	0.105	-0.068
-734.010	-41.474	-0.115	-0.060
-732.996	-182.901	0.267	0.005
-731.981	-39.007	-0.438	0.233
-730.966	34.674	0.149	0.132
-729.952	-200.000	0.029	0.226
-728.937	-36.701	0.177	-0.096
-727.923	-200.000	0.054	-0.386
-726.908	108.102	0.208	-0.251
-725.894	-146.202	-0.351	0.031
-724.879	-6.719	-0.168	0.116
-723.864	-200.000	0.053	-0.478
-722.850	15.593	0.095	0.075
-721.835	30.653	-0.022	-0.019
-720.821	-31.356	-0.092	0.052
-719.806	800.000	0.028	-0.117
-718.791	361.875	-0.066	0.134
-717.777	-200.000	0.056	-0.437
-716.762	284.344	0.117	0.212
-715.748	345.030	-0.069	-0.138
-714.733	-145.619	-0.501	-0.045
-713.718	800.000	-0.034	-0.128
-712.704	-181.592	0.111	0.002
-711.689	21.551	-0.216	0.178
-710.675	240.990	0.147	0.248
-709.660	-110.599	-0.181	-0.038
-708.645	599.224	-0.081	0.204
-707.631	45.652	0.226	-0.211
-706.616	-200.000	0.020	-0.434
-705.602	299.545	0.069	-0.128
-704.587	-53.032	-0.312	-0.145
-703.572	-6.440	0.207	-0.143
-702.558	800.000	-0.022	-0.081
-701.543	57.861	-0.029	-0.028
-700.529	-117.267	-0.176	-0.032
-699.514	-170.979	-0.420	-0.014
-698.499	-67.997	-0.328	-0.129
-697.485	30.033	0.187	-0.161
-696.470	-146.327	0.049	-0.004
-695.456	-112.833	-0.440	0.088
-694.441	680.451	-0.140	-0.368
-693.426	800.000	-0.060	-0.189
-692.412	-45.937	0.117	0.058
-691.397	0.511	0.156	-0.113
-690.383	503.237	-0.067	-0.157
-689.368	-146.875	-0.286	0.025
-688.354	-19.961	-0.071	-0.044
-687.339	267.163	-0.072	-0.128
-686.324	800.000	0.019	-0.056
-685.310	800.000	-0.110	0.334
-684.295	-105.139	0.347	-0.080
-683.281	519.822	-0.076	0.180
-682.266	-85.527	-0.129	0.040
-681.251	25.027	-0.425	0.356
-680.237	-44.554	-0.330	0.166
-679.222	343.224	0.121	-0.239
-678.208	-108.515	-0.344	0.075
-677.193	-37.590	-0.338	0.182
-676.178	156.977	0.044	0.061
-675.164	698.547	0.064	-0.169
-674.149	366.916	-0.164	0.335
-673.135	-190.910	-0.230	-0.002
-672.120	-200.000	0.026	-0.151
-671.105	-200.000	-0.043	0.209
-670.091	800.000	0.160	-0.464
-669.076	100.539	-0.159	-0.187
-668.062	584.524	0.136	-0.338
-667.047	31.979	0.186	-0.162
-666.032	-132.905	-0.265	0.034
-665.018	-200.000	0.048	0.246
-664.003	19.940	-0.139	0.113
-662.989	134.023	-0.259	-0.338
-661.974	-19.685	-0.161	0.101
-660.959	800.000	0.061	-0.194
-659.945	-115.558	0.274	-0.052
-658.930	84.145	-0.087	-0.095
-657.916	-200.000	0.031	-0.200
-656.901	-175.249	0.120	-0.003
-655.886	48.456	-0.381	-0.360
-654.872	-200.000	-0.007	0.222
-653.857	-200.000	0.067	-0.350
-652.843	-71.071	-0.292	-0.111
-651.828	110.076	-0.096	-0.116
-650.814	-82.028	-0.185	-0.061
-649.799	-96.839	-0.085	0.023
-648.784	119.915	0.147	0.184
-647.770	717.417	-0.025	0.066
-646.755	-200.000	0.020	0.182
-645.741	2.814	0.282	-0.206
-644.726	800.000	-0.179	-0.546
-643.711	-104.034	0.294	-0.069
-642.697	-23.497	-0.154	-0.093
-641.682	-13.986	-0.202	-0.131
-640.668	800.000	-0.056	0.196
-639.653	-200.000	0.004	-0.149
-638.638	-200.000	-0.006	-0.040
-637.624	-57.726	-0.020	0.009
-636.609	800.000	-0.010	0.035
-635.595	70.757	0.016	-0.017
-634.580	-200.000	0.098	-0.441
-633.565	800.000	0.050	-0.186
-632.551	-200.000	0.005	-0.198
-631.536	-200.000	0.012	-0.120
-630.522	154.206	-0.150	0.207
-629.507	217.331	-0.048	-0.077
-628.492	-200.000	0.023	-0.163
-627.478	-69.848	-0.387	0.149
-626.463	16.094	0.172	-0.136
-625.449	-200.000	0.036	-0.341
-624.434	282.614	-0.106	0.192
-623.419	-135.635	-0.194	0.023
-622.405	176.561	0.073	-0.107
-621.390	-52.140	0.426	-0.199
-620.376	72.753	-0.269	-0.283
-619.361	81.268	0.073	-0.080
-618.346	-1.546	0.136	0.096
-617.332	123.847	-0.198	-0.250
-616.317	-16.660	0.067	0.043
-615.303	800.000	-0.062	0.175
-614.288	-200.000	-0.045	0.289
-613.273	155.110	-0.192	0.266
-612.259	91.674	0.126	0.143
-611.244	173.407	-0.154	0.223
-610.230	-128.285	0.076	0.011
-609.215	381.435	0.071	0.147
-608.201	800.000	-0.043	-0.151
-607.186	-124.587	0.369	0.058
-606.171	-84.197	0.174	-0.055
-605.157	50.556	0.173	-0.165
-604.142	161.089	0.112	-0.157
-603.128	-165.747	-0.204	0.009
-602.113	-95.881	-0.109	-0.029
-601.098	-200.000	0.009	-0.294
-600.084	0.384	0.074	0.054
-599.069	226.147	-0.232	0.378
-598.055	24.994	-0.251	0.210
-597.040	694.389	0.029	0.077
-596.025	800.000	-0.041	-0.182
-595.011	244.197	-0.136	0.230
-593.996	-122.287	0.223	-0.037
-592.982	-200.000	-0.038	0.190
-591.967	-20.868	-0.053	-0.033
-590.952	33.475	-0.131	0.114
-589.938	800.000	0.072	-0.263
-588.923	54.947	-0.179	-0.174
-587.909	-123.118	0.127	0.021
-586.894	210.472	-0.052	-0.082
-585.879	-39.771	-0.178	-0.094
-584.865	-200.000	0.008	-0.189
-583.850	221.659	-0.087	-0.141
-582.836	638.602	-0.072	0.183
-581.821	-118.144	0.129	-0.023
-580.806	800.000	-0.040	0.167
-579.792	253.233	0.134	0.230
-578.777	-90.759	0.082	0.024
-577.763	800.000	0.025	-0.092
-576.748	-21.226	0.115	0.071
-575.733	-43.295	0.111	-0.057
-574.719	201.631	0.184	0.285
-573.704	27.570	-0.254	0.215
-572.690	-105.999	-0.028	0.006
-571.675	497.749	0.200	0.463
-570.661	-152.230	0.379	0.028
-569.646	7.250	-0.052	-0.039
-568.631	153.223	0.171	0.235
-567.617	27.345	-0.287	0.243
-566.602	800.000	0.046	0.145
-565.588	179.672	-0.104	0.153
-564.573	371.097	0.070	0.142
-563.558	689.787	-0.027	0.071
-562.544	-200.000	-0.056	-0.279
-561.529	-65.407	0.219	0.089
-560.515	-200.000	-0.054	0.264
-559.500	800.000	0.058	0.239
-558.485	153.798	-0.143	-0.198
-557.471	-71.664	0.222	-0.083
-556.456	-125.636	0.271	-0.041
-555.442	-132.175	0.296	-0.039
-554.427	109.329	-0.178	0.214
-553.412	-102.160	0.289	-0.070
-552.398	-98.557	-0.155	-0.040
-551.383	70.037	-0.084	0.087
-550.369	12.142	0.132	0.102
-549.354	730.259	-0.090	0.243
-548.339	286.041	-0.076	0.138
-547.325	323.630	0.085	-0.163
-546.310	-112.862	-0.111	0.022
-545.296	-122.743	-0.012	-0.002
-544.281	64.846	0.040	-0.040
-543.266	-127.263	-0.581	-0.085
-542.252	215.264	-0.116	0.185
-541.237	-43.549	0.135	0.068
-540.223	671.584	-0.086	-0.223
-539.208	-200.000	-0.009	-0.207
-538.193	-74.166	0.250	0.091
-537.179	38.892	-0.319	0.286
-536.164	800.000	-0.083	0.246
-535.150	-200.000	-0.088	-0.500
-534.135	99.759	-0.072	-0.084
-533.121	800.000	-0.092	-0.266
-532.106	-48.239	0.121	0.059
-531.091	-92.263	0.165	0.047
-530.077	-24.017	-0.139	-0.084
-529.062	57.785	0.134	-0.132
-528.048	477.753	-0.042	0.097
-527.033	800.000	0.082	-0.250
-526.018	191.379	-0.110	0.166
-525.004	-169.706	-0.170	0.006
-523.989	141.108	-0.136	0.181
-522.975	30.781	0.156	0.134
-521.960	44.256	0.197	0.182
-520.945	600.329	0.071	-0.176
-519.931	-200.000	0.020	-0.164
-518.916	-43.130	-0.041	0.021
-517.902	37.550	-0.277	0.247
-516.887	-11.838	-0.324	0.213
-515.872	4.008	-0.045	0.033
-514.858	-200.000	0.018	0.118
-513.843	35.026	0.113	-0.099
-512.829	216.915	-0.075	-0.120
-511.814	583.088	-0.047	0.116
-510.799	-76.016	-0.089	0.031
-509.785	607.117	-0.097	0.243
-508.770	800.000	-0.037	-0.162
-507.756	-163.459	0.079	-0.004
-506.741	123.819	0.159	0.200
-505.726	-200.000	-0.058	0.276
-504.712	368.707	-0.136	-0.276
-503.697	701.737	0.056	0.147
-502.683	800.000	-0.051	-0.214
-501.668	-98.681	-0.125	0.032
-500.653	-186.466	-0.066	-0.001
-499.639	-48.328	-0.041	0.020
-498.624	88.517	-0.086	-0.095
-497.610	-200.000	-0.047	-0.355
-496.595	91.211	0.163	0.184
-495.581	-146.947	-0.292	0.025
-494.566	-83.133	-0.107	-0.035
-493.551	-50.359	0.366	-0.174
-492.537	113.573	-0.072	0.088
-491.522	188.196	-0.183	0.274
-490.508	-200.000	-0.018	0.216
-489.493	-17.908	-0.208	-0.131
-488.478	-200.000	-0.055	0.262
-487.464	226.228	-0.191	0.311
-486.449	-200.000	-0.072	-0.317
-485.435	-33.619	0.203	-0.113
-484.420	15.101	-0.095	0.074
-483.405	3.786	0.105	-0.077
-482.391	198.572	-0.105	0.161
-481.376	480.778	0.116	-0.263
-480.362	14.208	0.241	-0.188
-479.347	-81.902	-0.203	0.067
-478.332	237.230	0.130	0.216
-477.318	189.027	-0.079	-0.118
-476.303	-150.382	-0.074	0.006
-475.289	59.345	-0.069	-0.068
-474.274	-78.500	-0.162	-0.056
-473.259	-159.725	-0.077	0.004
-472.245	800.000	0.038	-0.149
-471.230	505.191	0.110	-0.256
-470.216	712.302	-0.128	-0.339
-469.201	-67.284	0.344	0.136
-468.186	302.280	0.053	-0.098
-467.172	49.246	0.113	-0.106
-466.157	251.768	-0.084	-0.144
-465.143	61.045	-0.121	0.120
-464.128	-56.871	0.163	0.072
-463.113	-60.857	0.254	-0.108
-462.099	-100.685	-0.209	-0.052
-461.084	-200.000	0.025	0.110
-460.070	-141.822	0.227	0.023
-459.055	-54.605	-0.345	-0.156
-458.040	-200.000	0.043	-0.208
-457.026	-1.745	-0.159	0.112
-456.011	271.681	0.070	-0.123
-454.997	14.676	0.125	0.098
-453.982	66.854	0.116	0.118
-452.968	-89.989	0.327	-0.095
-451.953	223.101	0.045	0.073
-450.938	97.043	-0.272	0.312
-449.924	-65.871	0.110	-0.044
-448.909	142.567	0.104	-0.138
-447.895	85.073	-0.184	0.202
-446.880	104.084	-0.210	-0.247
-445.865	-76.590	0.225	0.079
-444.851	353.920	0.125	0.248
-443.836	37.476	0.123	-0.109
-442.822	-200.000	-0.013	0.136
-441.807	-41.961	-0.223	0.114
-440.792	153.626	-0.091	0.124
-439.778	272.621	-0.201	-0.355
-438.763	-200.000	-0.007	0.078
-437.749	637.815	-0.073	0.185
-436.734	-64.123	0.064	-0.026
-435.719	52.924	-0.210	0.201
-434.705	127.161	0.105	0.133
-433.690	238.229	0.032	0.053
-432.676	-21.588	0.144	-0.088
-431.661	162.010	0.110	-0.154
-430.646	47.616	0.180	-0.168
-429.632	800.000	-0.104	-0.344
-428.617	120.860	-0.228	0.283
-427.603	-200.000	0.003	0.203
-426.588	-68.654	0.159	0.061
-425.573	-53.050	0.623	0.287
-424.559	-98.997	0.255	-0.065
-423.544	-15.546	-0.090	-0.058
-422.530	-92.763	0.035	0.010
-421.515	-44.669	0.177	-0.088
-420.500	-200.000	0.059	0.293
-419.486	-171.080	0.064	0.002
-418.471	215.183	-0.137	-0.218
-417.457	324.945	-0.165	-0.316
-416.442	45.467	0.469	0.433
-415.428	-200.000	0.001	0.170
-414.413	-30.852	0.433	-0.245
-413.398	98.293	-0.039	-0.045
-412.384	800.000	0.089	-0.299
-411.369	-127.321	0.105	-0.015
-410.355	116.579	-0.206	0.252
-409.340	-200.000	0.002	-0.019
-408.325	-200.000	-0.031	-0.426
-407.311	-113.610	0.289	0.056
-406.296	800.000	-0.039	0.150
-405.282	599.422	0.067	-0.165
-404.267	3.258	-0.186	0.135
-403.252	235.718	-0.083	-0.137
-402.238	-200.000	-0.002	0.092
-401.223	162.255	-0.035	-0.049
-400.209	-35.045	0.384	-0.209
-399.194	800.000	-0.101	-0.315
-398.179	-65.773	0.171	-0.068
-397.165	-43.797	-0.168	0.084
-396.150	78.159	0.196	0.209
-395.136	199.834	0.221	0.339
-394.121	237.519	0.132	0.218
-393.106	-200.000	-0.031	0.145
-392.092	-95.093	-0.222	0.060
-391.077	-108.204	-0.044	-0.009
-390.063	-124.049	-0.222	0.035
-389.048	178.563	0.192	0.280
-388.033	-104.502	0.324	-0.075
-387.019	0.020	0.019	-0.014
-386.004	-200.000	-0.014	-0.180
-384.990	-165.426	-0.297	-0.013
-383.975	-71.519	-0.180	0.067
-382.960	27.124	-0.167	0.140
-381.946	-121.006	0.280	0.047
-380.931	800.000	-0.058	-0.236
-379.917	194.111	-0.055	0.083
-378.902	-200.000	0.070	-0.361
-377.888	130.699	0.262	-0.335
-376.873	9.587	0.096	0.073
-375.858	17.356	0.152	-0.120
-374.844	-196.584	-0.102	0.001
-373.829	585.906	-0.086	-0.211
-372.815	187.642	0.104	-0.155
-371.800	35.795	0.031	0.028
-370.785	74.522	0.079	0.083
-369.771	-83.164	-0.288	-0.092
-368.756	153.341	0.166	0.227
-367.742	-143.338	-0.142	-0.014
-366.727	-91.171	0.126	-0.036
-365.712	-164.999	-0.372	-0.017
-364.698	208.388	-0.178	-0.277
-363.683	800.000	-0.102	0.334
-362.669	800.000	-0.073	0.284
-361.654	-110.446	-0.390	-0.081
-360.639	190.444	0.035	-0.053
-359.625	758.074	0.058	-0.156
-358.610	-200.000	-0.085	-0.438
-357.596	238.308	-0.166	0.275
-356.581	-200.000	0.032	-0.153
-355.566	125.571	-0.222	0.280
-354.552	104.978	0.201	0.237
-353.537	-200.000	-0.041	0.231
-352.523	83.088	0.118	-0.129
-351.508	591.345	-0.073	0.181
-350.493	-47.076	-0.288	0.140
-349.479	421.017	-0.084	-0.179
-348.464	745.636	-0.068	0.181
-347.450	-74.248	0.205	-0.074
-346.435	4.607	-0.188	-0.137
-345.420	87.938	0.017	-0.018
-344.406	45.465	-0.076	0.070
-343.391	-200.000	-0.017	0.288
-342.377	-22.059	-0.183	0.111
-341.362	-25.799	-0.204	-0.120
-340.348	-200.000	-0.009	-0.279
-339.333	33.312	0.079	0.068
-338.318	-187.053	-0.277	0.004
-337.304	100.255	0.254	0.293
-336.289	-97.185	0.271	0.070
-335.275	118.011	-0.087	-0.106
-334.260	-200.000	0.028	-0.157
-333.245	-2.690	0.099	0.069
-332.231	486.002	-0.096	0.219
-331.216	-200.000	0.038	-0.254
-330.202	800.000	-0.098	0.329
-329.187	-200.000	0.048	-0.398
-328.172	-200.000	0.035	0.157
-327.158	630.479	-0.068	-0.171
-326.143	451.374	0.040	-0.087
-325.129	191.285	-0.226	0.339
-324.114	-200.000	-0.003	0.237
-323.099	193.959	0.101	0.152
-322.085	0.216	0.107	0.076
-321.070	-134.170	-0.188	0.023
-320.056	9.428	-0.129	0.097
-319.041	101.933	-0.038	0.044
-318.026	112.927	0.159	-0.191
-317.012	-133.768	-0.202	0.025
-315.997	-60.635	-0.131	0.055
-314.983	-200.000	0.001	-0.310
-313.968	-68.819	0.122	0.047
-312.953	277.154	-0.003	0.006
-311.939	65.254	-0.114	0.114
-310.924	-52.714	0.186	-0.085
-309.910	-11.567	0.065	0.043
-308.895	58.917	0.202	0.198
-307.880	-12.617	0.148	-0.096
-306.866	-90.048	0.102	0.029
-305.851	-45.467	0.217	-0.107
-304.837	-41.365	-0.225	-0.115
-303.822	-40.683	0.184	-0.095
-302.807	163.520	-0.047	0.066
-301.793	546.970	0.086	-0.204
-300.778	-153.818	0.110	-0.007
-299.764	28.893	-0.279	0.236
-298.749	-200.000	-0.055	-0.371
-297.735	37.005	-0.095	0.084
-296.720	-142.713	0.129	-0.013
-295.705	81.554	-0.154	-0.166
-294.691	-76.802	0.238	-0.083
-293.676	-108.823	-0.256	0.055
-292.662	22.431	-0.240	-0.195
-291.647	122.264	0.241	-0.300
-290.632	-52.562	-0.117	-0.054
-289.618	-200.000	0.045	0.402
-288.603	-200.000	-0.006	0.045
-287.589	495.886	-0.015	0.035
-286.574	-104.329	-0.080	-0.018
-285.559	47.683	-0.229	0.212
-284.545	21.810	-0.203	-0.165
-283.530	-132.374	-0.284	0.036
-282.516	-84.140	0.152	0.048
-281.501	-143.697	-0.152	-0.014
-280.486	-112.154	0.052	0.010
-279.472	1.067	0.427	0.305
-278.457	-99.849	0.525	0.131
-277.443	-27.079	0.344	0.200
-276.428	-111.056	0.277	-0.056
-275.413	279.445	-0.125	-0.223
-274.399	-200.000	-0.020	0.091
-273.384	-200.000	0.072	-0.696
-272.370	-17.048	0.098	-0.062
-271.355	222.130	0.109	0.174
-270.340	800.000	-0.092	-0.334
-269.326	-56.018	0.140	0.062
-268.311	-56.190	-0.146	-0.065
-267.297	533.041	0.145	-0.341
-266.282	-60.762	-0.367	0.155
-265.267	63.285	0.193	0.192
-264.253	46.931	-0.084	-0.078
-263.238	21.882	-0.114	-0.092
-262.224	-121.374	-0.191	0.032
-261.209	105.426	0.160	-0.187
-260.195	-95.112	-0.151	-0.041
-259.180	-200.000	-0.035	0.381
-258.165	-100.497	0.186	0.046
-257.151	106.379	-0.105	0.124
-256.136	86.129	-0.066	-0.073
-255.122	-165.408	-0.268	0.012
-254.107	41.631	-0.258	-0.232
-253.092	800.000	0.092	0.262
-252.078	47.883	-0.084	0.078
-251.063	9.011	0.423	0.317
-250.049	35.103	-0.183	-0.159
-249.034	19.897	0.105	0.084
-248.019	18.427	-0.121	-0.096
-247.005	296.112	0.119	0.216
-245.990	-42.752	-0.391	0.197
-244.976	101.644	0.197	0.228
-243.961	-69.238	0.142	-0.054
-242.946	800.000	0.101	0.413
-241.932	-200.000	-0.006	0.044
-240.917	99.937	0.256	-0.295
-239.903	-200.000	-0.339	0.000
-238.888	46.466	0.193	0.178
-237.873	-4.446	0.238	0.163
-236.859	220.517	-0.072	0.115
-235.844	-137.343	0.289	0.033
-234.830	0.434	0.074	0.053
-233.815	59.111	0.287	0.280
-232.800	-80.997	-0.486	-0.160
-231.786	166.797	0.227	-0.319
-230.771	-112.021	0.190	0.038
-229.757	75.506	0.086	-0.091
-228.742	-200.000	-0.001	0.287
-227.727	92.697	0.162	-0.181
-226.713	-3.753	0.080	-0.055
-225.698	-29.537	0.381	0.216
-224.684	-6.485	0.089	-0.060
-223.669	80.221	0.208	-0.222
-222.655	262.939	-0.119	-0.205
-221.640	272.326	0.234	0.410
-220.625	642.055	-0.166	-0.419
-219.611	128.300	-0.424	0.535
-218.596	800.000	-0.046	-0.167
-217.582	19.300	0.198	0.158
-216.567	-35.958	0.342	0.183
-215.552	394.782	0.104	-0.215
-214.538	-75.143	-0.097	-0.034
-213.523	111.422	-0.099	0.119
-212.509	800.000	0.015	0.042
-211.494	800.000	0.035	-0.140
-210.479	800.000	-0.119	0.339
-209.465	36.087	-0.133	0.116
-208.450	674.064	0.096	-0.247
-207.436	-112.500	0.225	-0.045
-206.421	-45.841	0.062	-0.030
-205.406	321.524	-0.008	-0.016
-204.392	55.919	-0.162	0.156
-203.377	-200.000	0.033	-0.414
-202.363	62.471	0.120	0.119
-201.348	-75.770	-0.154	-0.054
-200.333	24.963	0.017	0.014
-199.319	800.000	-0.080	-0.294
-198.304	-89.616	0.146	-0.042
-197.290	47.299	0.228	-0.211
-196.275	-16.186	-0.272	-0.171
-195.260	-161.373	-0.293	-0.015
-194.246	800.000	-0.085	-0.304
-193.231	-200.000	-0.117	0.538
-192.217	285.641	-0.184	0.328
-191.202	800.000	-0.047	0.140
-190.187	-99.624	-0.257	-0.064
-189.173	635.332	-0.087	-0.220
-188.158	-200.000	-0.029	-0.127
-187.144	-200.000	0.031	-0.366
-186.129	800.000	0.129	-0.434
-185.114	74.897	0.103	0.108
-184.100	-117.285	0.434	-0.078
-183.085	800.000	-0.067	-0.234
-182.071	143.420	-0.159	-0.209
-181.056	177.990	-0.209	0.302
-180.042	18.463	-0.157	0.124
-179.027	-63.896	-0.377	-0.153
-178.012	57.279	-0.151	-0.146
-176.998	163.220	0.167	-0.232
-175.983	81.011	0.149	-0.159
-174.969	328.215	-0.091	-0.172
-173.954	-130.587	-0.255	-0.034
-172.939	-86.355	-0.044	-0.013
-171.925	-200.000	0.013	0.064
-170.910	-172.918	0.399	0.012
-169.896	16.498	-0.236	0.184
-168.881	-200.000	0.001	-0.126
-167.866	-49.103	0.117	-0.055
-166.852	132.635	0.043	-0.055
-165.837	-200.000	0.044	0.498
-164.823	800.000	0.032	-0.117
-163.808	-200.000	-0.002	0.081
-162.793	405.484	-0.125	-0.261
-161.779	-75.005	-0.322	0.114
-160.764	209.197	0.253	-0.393
-159.750	-200.000	-0.010	0.131
-158.735	800.000	0.052	0.195
-157.720	-84.722	0.194	0.060
-156.706	-200.000	0.000	-0.110
-155.691	-60.901	-0.271	-0.113
-154.677	390.660	0.140	-0.288
-153.662	-87.730	-0.151	0.045
-152.647	800.000	-0.030	0.094
-151.633	377.018	0.053	-0.107
-150.618	800.000	0.019	-0.080
-149.604	27.969	-0.317	-0.264
-148.589	68.367	0.066	0.066
-147.574	166.440	-0.093	0.131
-146.560	64.327	-0.308	-0.307
-145.545	-32.374	-0.142	-0.078
-144.531	484.602	0.103	-0.231
-143.516	159.799	0.081	-0.111
-142.502	16.726	0.155	0.121
-141.487	-75.199	0.053	0.019
-140.472	-200.000	-0.076	0.374
-139.458	-200.000	-0.000	0.232
-138.443	10.750	-0.125	-0.094
-137.429	-19.892	-0.152	-0.093
-136.414	364.811	-0.079	0.156
-135.399	131.319	0.172	-0.219
-134.385	580.198	-0.105	-0.253
-133.370	800.000	0.061	0.203
-132.356	620.150	0.111	0.275
-131.341	-89.542	0.216	0.063
-130.326	-86.005	0.096	0.029
-129.312	125.972	-0.156	0.195
-128.297	327.661	-0.142	0.269
-127.283	-34.354	0.302	-0.164
-126.268	-133.772	-0.026	-0.003
-125.253	-60.797	-0.077	-0.032
-124.239	-200.000	0.010	-0.053
-123.224	275.979	-0.147	-0.258
-122.210	-16.459	-0.194	-0.122
-121.195	-127.992	-0.309	-0.044
-120.180	192.230	0.067	0.101
