DTS Sentinel unit serial number:	SN413079Multiplexer serial number:	ORYXHardware model number:	OX4-SRSoftware version number:	ORYX F/W v4.00 Oryx Data Collector v3.7.2.0data status	okinstallation	princeton_trtdifferential loss correction	single-endedforward channel	channel 2reverse channel	N/Adate	2019/09/18time	08:47:34forward acquisition time	60.00reverse acquisition time	0.00gamma	496.2192k internal	0.2339k external	0.2339temperature offset calibration	0.9979default loss term (dB/km)	0.3790temperature slope calibration	1.0000multiplexer offset coefficient	1.0000multiplexer slope coefficient	1.0000fibre end	0.00T internal ref (°C)	24.70T ext. ref 1 (°C)	0.23T ext. ref 2 (°C)	20.45length (m)	temperature (°C)	Stokes	anti-Stokes-747.200	123.367	-0.122	-0.154
-746.185	-200.000	0.003	0.152
-745.171	-141.527	-0.211	0.021
-744.156	169.449	-0.209	-0.299
-743.142	-51.586	0.166	0.078
-742.127	-3.392	-0.302	-0.211
-741.112	-56.086	0.075	-0.034
-740.098	-5.113	-0.122	-0.084
-739.083	384.495	-0.111	0.230
-738.069	92.173	0.030	-0.034
-737.054	46.308	-0.062	-0.058
-736.039	-116.785	-0.143	0.026
-735.025	1.892	-0.063	0.046
-734.010	84.216	-0.168	-0.184
-732.996	569.630	-0.116	-0.282
-731.981	146.987	0.268	0.362
-730.966	-64.793	0.275	-0.112
-729.952	745.736	0.139	-0.374
-728.937	800.000	0.025	-0.078
-727.923	585.285	-0.186	-0.458
-726.908	-108.898	0.174	0.037
-725.894	302.557	-0.124	0.231
-724.879	-138.724	0.222	-0.024
-723.864	-66.423	-0.134	0.053
-722.850	115.360	0.128	-0.156
-721.835	-158.837	-0.259	-0.015
-720.821	-200.000	-0.084	0.474
-719.806	800.000	-0.089	0.321
-718.791	-200.000	-0.007	0.353
-717.777	421.712	-0.184	-0.396
-716.762	22.678	0.079	0.065
-715.748	18.103	0.216	0.172
-714.733	234.672	-0.122	-0.201
-713.718	78.468	-0.041	-0.044
-712.704	37.163	0.094	0.083
-711.689	310.766	0.052	0.098
-710.675	72.084	-0.039	0.040
-709.660	-200.000	0.016	-0.175
-708.645	-127.037	0.285	-0.042
-707.631	779.172	-0.056	-0.153
-706.616	68.306	-0.226	-0.232
-705.602	-58.765	0.204	0.089
-704.587	14.991	-0.222	-0.174
-703.572	-54.830	0.326	0.147
-702.558	217.991	-0.029	-0.047
-701.543	-59.595	-0.181	0.078
-700.529	-32.006	0.079	-0.044
-699.514	-200.000	0.001	0.003
-698.499	800.000	0.150	0.417
-697.485	-31.620	-0.261	-0.147
-696.470	-64.001	-0.190	-0.078
-695.456	-40.971	0.157	0.081
-694.441	-200.000	0.337	-0.000
-693.426	-63.304	0.234	0.096
-692.412	-68.120	-0.145	-0.057
-691.397	-117.682	-0.205	0.037
-690.383	-200.000	-0.020	-0.210
-689.368	-180.620	0.088	0.002
-688.354	30.775	0.134	0.115
-687.339	356.650	0.155	-0.309
-686.324	340.372	0.111	-0.218
-685.310	-121.083	0.303	0.051
-684.295	279.495	-0.095	-0.170
-683.281	87.489	-0.115	-0.127
-682.266	23.070	0.015	0.013
-681.251	98.806	0.175	0.202
-680.237	549.304	-0.118	-0.283
-679.222	138.029	-0.142	0.187
-678.208	364.914	0.120	0.241
-677.193	53.492	0.118	0.113
-676.178	-200.000	-0.028	-0.128
-675.164	800.000	-0.067	-0.258
-674.149	-200.000	-0.005	-0.140
-673.135	-200.000	0.011	0.230
-672.120	-139.299	0.230	-0.025
-671.105	14.885	-0.210	0.164
-670.091	-117.633	-0.333	-0.060
-669.076	398.004	0.148	-0.310
-668.062	-200.000	0.019	-0.177
-667.047	800.000	0.062	-0.219
-666.032	132.824	0.147	0.190
-665.018	-5.431	0.097	0.066
-664.003	8.225	-0.248	-0.186
-662.989	13.082	-0.179	-0.138
-661.974	235.335	0.165	-0.272
-660.959	-119.180	0.247	-0.043
-659.945	-200.000	0.013	-0.515
-658.930	-200.000	0.004	-0.150
-657.916	-83.549	-0.212	0.068
-656.901	-131.628	0.390	-0.051
-655.886	-200.000	0.009	0.191
-654.872	-200.000	0.043	0.251
-653.857	9.186	0.105	-0.079
-652.843	-130.142	0.247	-0.034
-651.828	-200.000	-0.014	0.218
-650.814	328.353	-0.056	0.108
-649.799	-58.333	-0.422	-0.183
-648.784	-3.240	-0.445	-0.310
-647.770	-132.629	-0.218	-0.028
-646.755	526.754	-0.071	0.167
-645.741	78.619	-0.062	-0.066
-644.726	170.798	-0.065	0.093
-643.711	-147.531	-0.324	-0.027
-642.697	-200.000	-0.013	0.239
-641.682	-62.332	0.381	-0.158
-640.668	-76.826	0.086	-0.030
-639.653	-200.000	0.028	0.269
-638.638	-200.000	-0.030	0.165
-637.624	-200.000	-0.053	-0.237
-636.609	26.076	0.210	0.175
-635.595	-76.212	-0.128	-0.045
-634.580	-159.233	-0.187	-0.011
-633.565	800.000	0.075	0.237
-632.551	-200.000	-0.048	-0.249
-631.536	800.000	-0.104	-0.335
-630.522	-200.000	0.025	-0.125
-629.507	97.155	-0.217	-0.248
-628.492	-19.028	0.064	-0.040
-627.478	288.549	0.069	0.126
-626.463	224.894	-0.255	-0.412
-625.449	-38.057	-0.190	-0.101
-624.434	-113.723	0.403	0.078
-623.419	12.643	-0.069	0.053
-622.405	119.733	-0.062	0.076
-621.390	-78.948	-0.424	0.144
-620.376	-200.000	0.018	-0.147
-619.361	-109.005	-0.170	-0.036
-618.346	94.441	0.224	-0.254
-617.332	-52.519	0.291	0.134
-616.317	647.977	0.080	-0.204
-615.303	-172.037	-0.506	-0.016
-614.288	276.351	-0.162	0.287
-613.273	-63.147	0.336	0.138
-612.259	-72.636	-0.110	0.040
-611.244	-57.508	-0.197	0.086
-610.230	243.690	-0.148	-0.247
-609.215	800.000	-0.091	-0.251
-608.201	53.752	0.281	-0.269
-607.186	357.747	-0.024	0.049
-606.171	-136.342	0.283	-0.033
-605.157	-110.654	0.313	-0.065
-604.142	-61.161	-0.218	0.092
-603.128	-154.709	0.345	-0.023
-602.113	-67.454	-0.330	-0.129
-601.098	693.992	-0.037	-0.097
-600.084	-99.125	0.220	0.055
-599.069	-200.000	0.006	0.266
-598.055	235.547	0.270	0.445
-597.040	89.027	-0.209	0.232
-596.025	-113.081	0.273	-0.054
-595.011	-200.000	-0.012	0.196
-593.996	-156.296	0.180	-0.011
-592.982	-200.000	-0.007	0.134
-591.967	-98.562	0.058	0.015
-590.952	177.825	-0.080	0.117
-589.938	336.901	-0.127	-0.245
-588.923	-51.624	0.180	-0.084
-587.909	6.573	0.114	0.085
-586.894	-200.000	-0.013	-0.060
-585.879	800.000	0.021	0.070
-584.865	800.000	-0.117	0.321
-583.850	-23.404	0.426	-0.255
-582.836	232.494	-0.211	0.345
-581.821	800.000	-0.110	0.371
-580.806	-54.188	-0.212	0.096
-579.792	320.682	-0.185	0.349
-578.777	61.039	-0.197	-0.195
-577.763	-200.000	0.040	-0.549
-576.748	78.357	-0.126	-0.134
-575.733	-200.000	0.044	-0.299
-574.719	800.000	0.062	-0.179
-573.704	6.098	-0.118	0.087
-572.690	-40.280	0.050	0.026
-571.675	-154.530	0.163	0.011
-570.661	-20.990	0.345	-0.210
-569.646	568.583	-0.043	-0.104
-568.631	715.743	0.069	-0.183
-567.617	-101.780	0.308	-0.074
-566.602	800.000	0.076	-0.320
-565.588	800.000	0.042	-0.128
-564.573	-171.229	-0.353	0.012
-563.558	-200.000	-0.017	0.144
-562.544	483.105	0.074	-0.169
-561.529	-181.075	0.381	0.008
-560.515	756.771	-0.093	0.250
-559.500	118.262	0.114	0.140
-558.485	-153.630	-0.172	0.012
-557.471	120.981	-0.143	0.178
-556.456	46.662	0.444	-0.410
-555.442	-72.644	0.050	0.018
-554.427	335.390	0.155	-0.300
-553.412	43.473	-0.228	-0.208
-552.398	-135.792	0.080	0.009
-551.383	143.809	-0.139	0.184
-550.369	-200.000	0.045	-0.296
-549.354	158.615	0.149	0.206
-548.339	-3.918	0.295	0.204
-547.325	-97.383	-0.310	0.080
-546.310	-62.035	-0.312	-0.129
-545.296	-73.835	-0.042	0.015
-544.281	70.622	0.301	-0.310
-543.266	-200.000	-0.051	-0.406
-542.252	587.702	-0.033	-0.080
-541.237	-34.193	-0.294	-0.160
-540.223	83.069	0.081	-0.087
-539.208	-95.240	-0.132	0.035
-538.193	-34.338	-0.085	-0.047
-537.179	-149.393	-0.254	0.020
-536.164	-16.223	0.297	0.187
-535.150	-106.602	0.123	0.027
-534.135	-87.140	-0.286	-0.086
-533.121	8.949	0.156	0.117
-532.106	-200.000	-0.027	-0.157
-531.091	80.945	-0.100	-0.107
-530.077	800.000	0.072	0.213
-529.062	179.620	-0.246	-0.359
-528.048	-115.651	0.521	-0.097
-527.033	-124.648	-0.264	-0.041
-526.018	-114.540	-0.076	-0.015
-525.004	275.453	-0.147	0.259
-523.989	177.822	-0.098	0.142
-522.975	-143.921	-0.135	0.013
-521.960	-200.000	0.018	-0.111
-520.945	-24.382	0.087	0.052
-519.931	118.522	-0.220	0.270
-518.916	46.757	0.261	-0.241
-517.902	-9.088	-0.063	0.042
-516.887	800.000	0.011	0.031
-515.872	-200.000	-0.030	0.182
-514.858	-87.452	-0.128	0.039
-513.843	-143.236	-0.368	-0.035
-512.829	388.027	-0.027	0.055
-511.814	-44.767	0.053	-0.026
-510.799	73.641	0.168	0.175
-509.785	191.188	0.144	-0.215
-508.770	-200.000	-0.019	0.105
-507.756	-162.083	-0.173	-0.009
-506.741	-200.000	0.035	-0.179
-505.726	388.944	0.142	0.292
-504.712	55.572	0.347	-0.334
-503.697	10.923	0.253	-0.192
-502.683	242.549	0.093	0.155
-501.668	-155.075	-0.139	-0.009
-500.653	163.303	-0.087	-0.121
-499.639	72.656	-0.425	-0.441
-498.624	-160.553	-0.143	0.008
-497.610	-200.000	-0.005	-0.191
-496.595	-82.677	-0.197	0.063
-495.581	-41.813	0.094	-0.048
-494.566	-144.520	-0.392	-0.036
-493.551	70.657	-0.038	0.039
-492.537	190.901	0.196	0.293
-491.522	4.599	-0.267	-0.194
-490.508	-41.077	0.317	0.163
-489.493	-125.415	0.140	-0.021
-488.478	-54.048	-0.474	-0.214
-487.464	-38.389	0.279	-0.147
-486.449	-120.671	0.432	-0.073
-485.435	675.357	-0.019	-0.049
-484.420	-119.862	0.163	0.028
-483.405	-200.000	-0.003	0.191
-482.391	-33.459	-0.275	0.151
-481.376	352.425	0.034	-0.067
-480.362	109.956	-0.240	0.286
-479.347	-17.032	-0.224	-0.140
-478.332	22.972	0.136	-0.111
-477.318	624.652	-0.074	0.184
-476.303	-133.649	-0.269	0.033
-475.289	176.446	0.067	-0.097
-474.274	43.308	0.139	-0.126
-473.259	-130.636	-0.334	-0.045
-472.245	-99.248	0.164	-0.041
-471.230	19.257	0.074	-0.059
-470.216	326.244	-0.138	-0.262
-469.201	492.088	0.088	0.199
-468.186	-200.000	-0.036	0.355
-467.172	361.789	0.155	0.309
-466.157	60.624	0.101	-0.099
-465.143	-125.863	0.125	-0.019
-464.128	-200.000	0.024	-0.520
-463.113	21.435	-0.379	-0.306
-462.099	105.812	0.187	-0.219
-461.084	435.062	0.037	-0.081
-460.070	-124.366	0.333	0.051
-459.055	-122.859	0.220	0.035
-458.040	-92.672	0.219	-0.061
-457.026	694.359	-0.069	0.179
-456.011	-35.615	-0.054	0.029
-454.997	-115.286	-0.177	-0.033
-453.982	-200.000	0.055	-0.483
-452.968	-74.743	-0.312	-0.111
-451.953	380.638	-0.012	-0.025
-450.938	-76.324	0.032	-0.011
-449.924	696.681	-0.043	-0.111
-448.909	-200.000	-0.005	-0.216
-447.895	225.648	0.096	-0.155
-446.880	20.415	0.191	0.153
-445.865	19.210	0.190	0.151
-444.851	800.000	0.073	-0.211
-443.836	800.000	-0.044	-0.145
-442.822	277.170	-0.154	-0.272
-441.807	-200.000	0.011	-0.073
-440.792	-33.271	0.029	0.016
-439.778	-200.000	0.033	-0.205
-438.763	-89.889	0.105	0.030
-437.749	-93.450	0.233	-0.064
-436.734	-111.570	0.057	-0.011
-435.719	-136.118	-0.186	-0.022
-434.705	800.000	-0.036	0.124
-433.690	142.963	0.243	0.320
-432.676	192.244	-0.079	-0.119
-431.661	14.016	-0.179	0.138
-430.646	677.751	0.112	0.289
-429.632	800.000	-0.094	0.308
-428.617	336.404	0.150	0.288
-427.603	-26.080	-0.099	-0.058
-426.588	51.196	-0.202	0.190
-425.573	638.588	0.058	-0.145
-424.559	179.815	-0.157	-0.228
-423.544	-159.572	0.326	-0.018
-422.530	-200.000	0.022	0.131
-421.515	-38.688	-0.150	0.078
-420.500	-200.000	0.005	0.104
-419.486	-62.240	-0.344	0.142
-418.471	227.350	0.131	-0.210
-417.457	335.131	0.067	0.129
-416.442	-200.000	0.043	0.210
-415.428	-4.688	-0.237	0.162
-414.413	-50.616	0.285	0.133
-413.398	-50.385	-0.117	0.055
-412.384	-21.879	-0.116	-0.070
-411.369	621.106	0.166	-0.414
-410.355	-200.000	0.008	-0.279
-409.340	800.000	0.006	-0.021
-408.325	-45.678	0.104	0.051
-407.311	16.921	0.118	0.092
-406.296	-53.220	-0.146	0.066
-405.282	800.000	0.076	0.211
-404.267	-200.000	0.018	0.291
-403.252	773.203	0.131	0.354
-402.238	-90.443	-0.389	-0.112
-401.223	-38.566	0.052	-0.027
-400.209	56.196	0.267	-0.256
-399.194	95.151	0.059	0.067
-398.179	800.000	-0.045	0.126
-397.165	278.017	-0.042	-0.074
-396.150	91.316	0.082	0.091
-395.136	-200.000	0.003	-0.278
-394.121	16.279	-0.235	0.183
-393.106	358.351	0.017	0.033
-392.092	118.795	0.329	-0.401
-391.077	-124.292	-0.251	0.039
-390.063	-81.842	0.078	0.025
-389.048	-183.060	0.575	0.010
-388.033	251.249	0.098	0.165
-387.019	-139.532	-0.404	-0.043
-386.004	653.230	0.061	-0.155
-384.990	330.722	-0.154	-0.293
-383.975	9.006	-0.212	-0.158
-382.960	-200.000	-0.005	0.268
-381.946	-200.000	0.029	0.134
-380.931	304.743	0.182	-0.335
-379.917	163.313	0.204	0.284
-378.902	800.000	-0.086	-0.259
-377.888	-200.000	-0.014	0.400
-376.873	-52.169	-0.124	0.057
-375.858	-124.531	0.149	-0.023
-374.844	23.132	-0.036	0.029
-373.829	-87.177	0.134	0.040
-372.815	34.783	-0.113	0.098
-371.800	618.151	0.034	-0.084
-370.785	-200.000	-0.005	0.449
-369.771	-200.000	0.044	-0.330
-368.756	-197.513	-0.092	-0.001
-367.742	800.000	-0.041	0.156
-366.727	86.983	-0.122	-0.133
-365.712	-165.812	-0.313	0.013
-364.698	800.000	-0.005	0.016
-363.683	-55.791	-0.108	-0.048
-362.669	-200.000	0.052	0.319
-361.654	-86.518	0.183	0.056
-360.639	-77.990	-0.069	0.023
-359.625	800.000	-0.027	0.112
-358.610	-198.361	-0.387	-0.002
-357.596	-92.767	0.239	-0.066
-356.581	800.000	-0.049	0.181
-355.566	-19.134	0.148	0.091
-354.552	166.504	0.079	-0.111
-353.537	39.302	0.073	-0.065
-352.523	800.000	0.058	0.168
-351.508	-52.280	-0.072	-0.033
-350.493	800.000	0.038	0.146
-349.479	125.248	0.093	-0.116
-348.464	-149.061	-0.112	0.009
-347.450	-57.444	0.191	-0.083
-346.435	103.189	0.159	0.184
-345.420	203.242	0.126	-0.193
-344.406	20.774	0.173	0.138
-343.391	-147.094	-0.047	0.004
-342.377	-25.948	0.517	0.300
-341.362	800.000	0.132	0.487
-340.348	-200.000	-0.042	0.324
-339.333	-96.221	-0.225	0.059
-338.318	-20.532	-0.091	0.055
-337.304	-39.348	0.179	0.093
-336.289	-200.000	0.026	-0.340
-335.275	800.000	0.013	-0.047
-334.260	-8.229	0.122	-0.081
-333.245	-12.846	-0.196	0.126
-332.231	800.000	-0.058	-0.249
-331.216	-113.618	-0.199	0.038
-330.202	482.629	-0.113	0.254
-329.187	243.497	0.137	-0.226
-328.172	242.151	0.177	0.292
-327.158	31.597	0.069	0.059
-326.143	-81.390	-0.054	-0.018
-325.129	-137.137	-0.286	-0.032
-324.114	799.974	-0.085	0.230
-323.099	-11.194	-0.177	0.115
-322.085	-200.000	0.028	-0.155
-321.070	-143.852	-0.278	0.026
-320.056	-102.522	-0.089	0.021
-319.041	-4.742	0.388	-0.264
-318.026	83.065	0.051	-0.055
-317.012	-200.000	0.004	0.272
-315.997	-96.641	0.316	-0.082
-314.983	-200.000	-0.005	-0.218
-313.968	208.818	0.075	0.116
-312.953	121.032	-0.127	-0.156
-311.939	800.000	0.142	0.399
-310.924	-200.000	-0.027	-0.222
-309.910	297.736	0.119	-0.215
-308.895	-200.000	0.042	0.285
-307.880	-200.000	0.010	0.279
-306.866	-18.340	-0.251	-0.154
-305.851	465.768	-0.196	-0.433
-304.837	36.331	-0.191	-0.166
-303.822	800.000	0.096	-0.313
-302.807	241.658	-0.084	0.139
-301.793	-160.235	-0.159	0.008
-300.778	800.000	-0.049	-0.183
-299.764	265.826	-0.088	-0.151
-298.749	279.650	0.199	0.350
-297.735	-33.203	-0.225	0.123
-296.720	-28.571	-0.026	-0.015
-295.705	14.862	-0.278	0.214
-294.691	282.031	0.172	0.304
-293.676	-116.923	0.227	-0.041
-292.662	-75.168	-0.044	-0.016
-291.647	-200.000	-0.053	-0.347
-290.632	800.000	-0.064	-0.232
-289.618	23.439	0.237	0.192
-288.603	-43.874	0.339	0.168
-287.589	4.377	0.222	-0.161
-286.574	195.187	-0.008	0.012
-285.559	365.408	-0.122	0.242
-284.545	-104.824	0.235	-0.053
-283.530	50.900	-0.233	-0.217
-282.516	-85.971	0.287	-0.087
-281.501	159.696	0.059	-0.081
-280.486	-17.651	0.240	-0.148
-279.472	75.833	-0.109	-0.114
-278.457	-200.000	0.006	0.181
-277.443	-200.000	0.024	0.123
-276.428	-128.162	0.119	0.017
-275.413	-200.000	0.015	-0.199
-274.399	-144.464	0.493	-0.045
-273.384	323.834	-0.036	-0.067
-272.370	-200.000	-0.005	-0.081
-271.355	100.826	-0.052	0.059
-270.340	-200.000	0.057	0.323
-269.326	800.000	-0.014	0.055
-268.311	800.000	0.028	-0.098
-267.297	-157.744	-0.169	-0.010
-266.282	198.127	-0.050	-0.076
-265.267	-139.121	-0.282	0.030
-264.253	-53.789	0.388	0.174
-263.238	-61.309	-0.255	0.106
-262.224	800.000	0.090	0.319
-261.209	-62.989	-0.120	-0.049
-260.195	800.000	-0.073	-0.297
-259.180	-200.000	-0.011	-0.193
-258.165	-113.729	0.367	-0.070
-257.151	103.192	-0.182	0.210
-256.136	-141.497	-0.193	-0.019
-255.122	473.460	0.091	0.201
-254.107	27.553	0.282	0.233
-253.092	-139.741	0.224	0.023
-252.078	-53.138	-0.234	0.106
-251.063	148.529	0.080	0.106
-250.049	-200.000	-0.002	-0.024
-249.034	-112.775	0.249	-0.049
-248.019	-61.811	-0.282	0.116
-247.005	-21.327	0.153	-0.092
-245.990	-165.595	-0.162	0.007
-244.976	-40.219	0.421	0.216
-243.961	119.023	-0.127	0.155
-242.946	30.433	0.023	-0.019
-241.932	-35.237	-0.103	0.055
-240.917	-24.708	-0.150	0.088
-239.903	-180.263	0.214	0.004
-238.888	-76.320	0.287	0.099
-237.873	253.913	-0.040	-0.067
-236.859	-124.835	0.187	0.028
-235.844	227.250	-0.174	0.279
-234.830	-200.000	0.037	0.288
-233.815	683.479	-0.070	-0.181
-232.800	254.342	-0.100	0.169
-231.786	120.100	0.120	-0.147
-230.771	-86.373	0.108	0.033
-229.757	190.948	0.146	0.215
-228.742	-200.000	-0.024	-0.134
-227.727	800.000	-0.035	-0.124
-226.713	41.821	0.098	0.088
-225.698	38.963	-0.204	0.180
-224.684	448.571	-0.124	-0.268
-223.669	41.364	-0.194	-0.173
-222.655	-3.723	0.231	-0.158
-221.640	83.810	-0.029	0.031
-220.625	-200.000	0.035	0.252
-219.611	144.568	-0.142	0.187
-218.596	-191.180	0.267	0.003
-217.582	-14.526	0.192	0.122
-216.567	9.143	0.262	-0.195
-215.552	-158.200	0.134	0.008
-214.538	-93.244	-0.250	-0.068
-213.523	480.776	-0.077	-0.172
-212.509	-104.867	-0.176	0.040
-211.494	58.403	-0.169	-0.163
-210.479	-200.000	0.045	0.373
-209.465	74.967	-0.245	0.254
-208.450	800.000	-0.056	0.162
-207.436	-37.774	0.125	-0.065
-206.421	-124.690	-0.147	-0.022
-205.406	-200.000	-0.065	-0.450
-204.392	-124.802	0.489	-0.074
-203.377	0.476	0.249	-0.174
-202.363	-63.081	-0.021	0.009
-201.348	-36.810	0.124	-0.065
-200.333	647.476	-0.155	0.389
-199.319	241.838	0.150	-0.246
-198.304	-93.797	-0.361	0.098
-197.290	-14.556	-0.127	0.080
-196.275	-40.176	-0.191	0.098
-195.260	-200.000	-0.067	0.320
-194.246	309.322	-0.019	-0.035
-193.231	29.319	0.298	0.249
-192.217	182.715	-0.098	-0.142
-191.202	-8.737	-0.321	0.211
-190.187	-200.000	0.016	0.243
-189.173	-47.119	-0.310	-0.149
-188.158	124.194	0.125	-0.154
-187.144	67.153	-0.202	-0.202
-186.129	407.209	-0.029	0.059
-185.114	-83.087	-0.023	-0.007
-184.100	-87.196	0.277	-0.083
-183.085	146.856	0.238	0.314
-182.071	251.219	0.252	-0.420
-181.056	-28.052	-0.321	-0.182
-180.042	300.602	-0.168	-0.304
-179.027	800.000	0.056	0.232
-178.012	365.608	0.112	0.221
-176.998	39.911	-0.283	0.250
-175.983	69.628	-0.286	-0.289
-174.969	-46.571	0.123	0.059
-173.954	-115.741	-0.342	0.063
-172.939	-102.427	0.291	-0.068
-171.925	-56.844	-0.251	-0.109
-170.910	-200.000	0.046	0.245
-169.896	329.706	0.058	0.110
-168.881	-70.569	0.309	0.115
-167.866	158.253	-0.215	-0.293
-166.852	800.000	-0.053	0.195
-165.837	38.972	0.138	0.121
-164.823	-133.656	-0.091	-0.011
-163.808	-200.000	-0.006	0.156
-162.793	-70.851	0.273	0.101
-161.779	-151.190	-0.257	0.019
-160.764	-41.065	-0.231	-0.117
-159.750	-163.257	0.179	-0.008
-158.735	705.292	0.052	0.136
-157.720	113.661	-0.128	-0.152
-156.706	207.764	0.250	-0.382
-155.691	-36.204	-0.312	0.165
-154.677	800.000	-0.028	-0.118
-153.662	3.101	-0.213	0.152
-152.647	100.946	0.151	0.172
-151.633	800.000	0.077	-0.265
-150.618	386.471	-0.150	-0.304
-149.604	800.000	0.067	0.221
-148.589	-10.031	0.087	-0.057
-147.574	27.193	-0.190	-0.156
-146.560	-25.286	0.187	-0.108
-145.545	-200.000	-0.016	-0.436
-144.531	119.513	0.059	-0.072
-143.516	-158.366	0.317	-0.018
-142.502	-75.675	0.386	0.134
-141.487	-200.000	-0.080	0.347
-140.472	291.658	0.115	-0.205
-139.458	-200.000	-0.002	-0.054
-138.443	-67.262	-0.167	0.064
-137.429	-200.000	-0.013	-0.111
-136.414	-38.855	0.230	-0.119
-135.399	4.172	0.080	0.058
-134.385	161.521	-0.219	-0.300
-133.370	575.117	0.109	-0.261
-132.356	99.822	-0.097	0.110
-131.341	-200.000	0.006	-0.199
-130.326	532.417	0.051	0.118
-129.312	-56.520	-0.168	-0.073
-128.297	-176.036	-0.470	-0.012
-127.283	613.838	-0.126	0.309
-126.268	800.000	0.013	0.043
-125.253	-158.063	0.204	0.012
-124.239	-107.580	0.137	-0.029
-123.224	445.305	-0.076	-0.163
-122.210	-55.840	0.241	0.106
-121.195	-166.714	0.209	0.008
