DTS Sentinel unit serial number:	SN413079Multiplexer serial number:	ORYXHardware model number:	OX4-SRSoftware version number:	ORYX F/W v4.00 Oryx Data Collector v3.7.2.0data status	okinstallation	princeton_trtdifferential loss correction	single-endedforward channel	channel 2reverse channel	N/Adate	2019/09/18time	11:39:34forward acquisition time	60.00reverse acquisition time	0.00gamma	496.2192k internal	0.2325k external	0.2325temperature offset calibration	0.9988default loss term (dB/km)	0.3790temperature slope calibration	1.0000multiplexer offset coefficient	1.0000multiplexer slope coefficient	1.0000fibre end	0.00T internal ref (°C)	30.83T ext. ref 1 (°C)	0.45T ext. ref 2 (°C)	27.83length (m)	temperature (°C)	Stokes	anti-Stokes-747.200	-188.369	-0.315	0.004
-746.185	-200.000	-0.066	0.311
-745.171	-149.754	0.309	0.024
-744.156	-16.970	0.097	-0.062
-743.142	-168.255	-0.140	0.005
-742.127	-82.963	-0.308	-0.100
-741.112	259.805	0.100	-0.174
-740.098	-200.000	0.022	0.300
-739.083	-189.240	0.273	0.003
-738.069	-200.000	0.028	0.160
-737.054	260.137	-0.137	0.239
-736.039	-118.912	-0.258	0.046
-735.025	55.853	0.127	0.124
-734.010	-31.856	-0.109	0.061
-732.996	-200.000	-0.071	-0.377
-731.981	800.000	-0.069	-0.234
-730.966	-200.000	0.013	-0.367
-729.952	115.461	-0.142	-0.175
-728.937	559.252	-0.096	-0.234
-727.923	82.418	0.126	-0.138
-726.908	-200.000	-0.205	0.001
-725.894	-97.044	0.294	-0.078
-724.879	-200.000	-0.032	-0.200
-723.864	-200.000	-0.024	0.168
-722.850	-42.786	0.250	0.128
-721.835	262.577	0.041	-0.071
-720.821	21.807	0.288	-0.236
-719.806	-88.237	-0.377	0.114
-718.791	-52.699	0.065	0.030
-717.777	-42.500	-0.121	0.062
-716.762	121.012	-0.042	0.053
-715.748	-110.150	-0.395	0.083
-714.733	-200.000	-0.018	-0.454
-713.718	-28.714	0.070	-0.041
-712.704	470.528	0.093	0.211
-711.689	32.021	0.126	0.109
-710.675	233.287	-0.185	-0.307
-709.660	287.802	0.263	-0.480
-708.645	-83.149	-0.093	-0.030
-707.631	0.276	0.058	-0.042
-706.616	415.982	0.090	-0.194
-705.602	26.438	-0.280	-0.236
-704.587	651.189	0.063	-0.163
-703.572	-48.358	-0.218	-0.106
-702.558	800.000	-0.071	0.225
-701.543	-98.332	0.039	-0.010
-700.529	-38.297	0.063	-0.034
-699.514	26.383	0.298	0.251
-698.499	122.848	0.094	-0.119
-697.485	238.804	0.131	-0.220
-696.470	94.163	-0.212	-0.242
-695.456	-24.912	0.199	-0.119
-694.441	107.594	-0.221	-0.264
-693.426	132.031	0.116	0.150
-692.412	-167.148	-0.098	-0.004
-691.397	-200.000	0.027	-0.211
-690.383	80.965	0.057	0.062
-689.368	800.000	0.075	-0.304
-688.354	576.288	0.113	-0.278
-687.339	44.732	-0.188	-0.174
-686.324	-70.590	-0.199	-0.076
-685.310	129.562	-0.152	-0.195
-684.295	-200.000	0.030	-0.198
-683.281	552.700	-0.035	-0.085
-682.266	-25.273	-0.071	-0.042
-681.251	-200.000	-0.079	-0.450
-680.237	-141.433	-0.487	-0.050
-679.222	-71.586	0.224	-0.084
-678.208	-200.000	-0.023	-0.253
-677.193	-114.888	0.166	-0.032
-676.178	-15.717	-0.078	-0.050
-675.164	-106.481	0.168	0.038
-674.149	-200.000	-0.004	0.405
-673.135	-89.969	0.255	-0.075
-672.120	-200.000	-0.051	0.285
-671.105	0.493	-0.182	-0.131
-670.091	685.915	-0.081	-0.212
-669.076	-46.583	-0.182	0.090
-668.062	-28.520	-0.178	0.103
-667.047	-164.666	0.125	-0.006
-666.032	11.320	-0.265	0.204
-665.018	-200.000	0.010	0.236
-664.003	38.322	0.109	-0.098
-662.989	800.000	-0.079	-0.255
-661.974	13.736	-0.242	0.189
-660.959	800.000	-0.015	0.058
-659.945	-69.588	0.203	0.078
-658.930	-200.000	-0.022	0.221
-657.916	5.369	0.224	-0.166
-656.901	-73.229	-0.230	0.085
-655.886	-121.146	-0.262	0.044
-654.872	-150.284	0.324	0.025
-653.857	800.000	-0.097	-0.287
-652.843	-67.836	0.284	0.112
-651.828	24.466	-0.153	-0.127
-650.814	800.000	-0.075	-0.261
-649.799	433.989	0.031	0.068
-648.784	-200.000	-0.029	0.173
-647.770	-200.000	-0.010	0.204
-646.755	-55.962	-0.112	-0.050
-645.741	-79.700	0.123	-0.042
-644.726	-113.781	-0.097	-0.019
-643.711	-54.876	0.008	0.003
-642.697	-14.834	-0.209	0.135
-641.682	-105.869	0.383	0.087
-640.668	80.935	-0.164	-0.178
-639.653	49.012	-0.151	-0.143
-638.638	-200.000	0.042	-0.250
-637.624	800.000	0.115	-0.361
-636.609	-200.000	0.001	0.034
-635.595	385.418	-0.190	0.394
-634.580	-82.747	0.265	0.086
-633.565	63.657	0.155	0.156
-632.551	421.550	-0.046	-0.099
-631.536	258.856	-0.126	-0.218
-630.522	775.886	-0.093	0.255
-629.507	-200.000	0.001	-0.127
-628.492	-200.000	0.011	0.135
-627.478	800.000	0.041	0.171
-626.463	800.000	0.059	-0.212
-625.449	800.000	-0.071	-0.231
-624.434	-25.965	-0.269	-0.159
-623.419	673.240	0.042	-0.110
-622.405	246.193	0.160	0.271
-621.390	167.894	-0.075	0.107
-620.376	453.808	-0.124	0.276
-619.361	100.238	0.211	0.245
-618.346	10.006	0.066	-0.050
-617.332	163.738	-0.096	-0.136
-616.317	146.652	-0.111	-0.150
-615.303	-149.388	0.099	-0.008
-614.288	-120.684	-0.188	0.032
-613.273	-13.137	0.143	-0.093
-612.259	-122.665	-0.223	0.036
-611.244	4.869	0.167	0.123
-610.230	-156.959	-0.167	-0.010
-609.215	-81.856	-0.119	-0.039
-608.201	285.576	0.018	-0.032
-607.186	-200.000	0.004	0.132
-606.171	199.394	0.090	-0.139
-605.157	8.773	-0.214	0.162
-604.142	12.677	-0.109	-0.084
-603.128	60.726	0.215	-0.214
-602.113	-87.676	-0.212	0.064
-601.098	800.000	-0.077	0.301
-600.084	36.554	0.294	-0.261
-599.069	376.392	0.104	-0.214
-598.055	-145.553	0.367	0.033
-597.040	-200.000	0.077	0.343
-596.025	-200.000	-0.075	-0.501
-595.011	-59.686	0.274	0.118
-593.996	-200.000	0.002	-0.063
-592.982	800.000	0.054	-0.157
-591.967	800.000	-0.082	-0.276
-590.952	64.375	-0.122	0.123
-589.938	735.475	-0.177	-0.476
-588.923	66.187	0.012	-0.012
-587.909	-200.000	0.001	0.143
-586.894	-67.700	0.189	-0.074
-585.879	-39.513	-0.162	0.085
-584.865	-56.874	-0.037	-0.016
-583.850	800.000	-0.045	-0.144
-582.836	-161.412	-0.161	-0.008
-581.821	800.000	-0.033	0.123
-580.806	53.806	-0.126	-0.121
-579.792	-166.925	-0.239	-0.010
-578.777	395.373	-0.147	-0.307
-577.763	-200.000	0.022	-0.188
-576.748	800.000	0.076	-0.275
-575.733	431.053	-0.077	0.167
-574.719	644.991	0.107	0.275
-573.704	-200.000	0.049	0.300
-572.690	77.417	-0.144	0.154
-571.675	-1.362	-0.079	0.056
-570.661	800.000	0.085	0.252
-569.646	-200.000	-0.007	0.145
-568.631	173.614	-0.168	-0.244
-567.617	32.653	-0.086	0.074
-566.602	-200.000	-0.030	0.278
-565.588	7.011	0.073	0.055
-564.573	-64.743	0.197	0.080
-563.558	300.357	-0.050	0.092
-562.544	148.852	0.087	0.117
-561.529	-122.817	0.085	-0.014
-560.515	-47.146	0.023	-0.011
-559.500	55.911	0.043	0.042
-558.485	393.392	0.181	-0.377
-557.471	136.758	-0.197	-0.258
-556.456	-79.008	-0.260	-0.089
-555.442	43.302	-0.080	-0.073
-554.427	-93.881	-0.101	-0.028
-553.412	-200.000	-0.034	-0.194
-552.398	800.000	-0.068	-0.252
-551.383	137.559	0.103	0.136
-550.369	-200.000	-0.013	0.100
-549.354	360.378	0.093	-0.187
-548.339	800.000	0.114	0.348
-547.325	-200.000	0.025	0.211
-546.310	-200.000	-0.001	-0.070
-545.296	-142.631	-0.233	0.023
-544.281	-200.000	-0.023	-0.376
-543.266	-108.763	0.107	0.023
-542.252	111.904	-0.184	-0.223
-541.237	88.815	0.290	-0.323
-540.223	-72.375	-0.248	0.092
-539.208	260.186	0.108	-0.187
-538.193	-23.886	-0.204	-0.122
-537.179	336.236	-0.119	-0.230
-536.164	235.522	0.119	-0.198
-535.150	800.000	0.097	0.321
-534.135	-43.673	0.268	-0.135
-533.121	-78.361	-0.182	-0.062
-532.106	28.129	0.162	-0.137
-531.091	-76.911	0.377	0.132
-530.077	20.161	-0.315	0.254
-529.062	-136.985	0.240	0.028
-528.048	-121.272	0.232	0.039
-527.033	800.000	0.137	-0.439
-526.018	-139.328	-0.115	-0.012
-525.004	-200.000	0.035	0.233
-523.989	-14.592	-0.225	0.145
-522.975	80.631	0.103	-0.111
-521.960	-35.548	-0.342	-0.186
-520.945	800.000	0.074	-0.216
-519.931	800.000	-0.072	-0.204
-518.916	53.160	-0.070	-0.067
-517.902	-150.811	-0.252	-0.019
-516.887	-45.185	-0.234	0.116
-515.872	582.540	-0.177	-0.434
-514.858	-17.632	-0.158	-0.100
-513.843	237.305	0.105	0.175
-512.829	71.354	-0.215	0.223
-511.814	-185.548	0.147	-0.002
-510.799	-84.403	-0.384	0.121
-509.785	-43.227	-0.102	0.052
-508.770	-154.549	-0.414	-0.028
-507.756	-38.905	0.232	-0.122
-506.741	82.124	0.121	-0.131
-505.726	-58.387	-0.166	-0.072
-504.712	253.902	-0.060	0.102
-503.697	52.248	0.224	-0.214
-502.683	800.000	0.136	-0.445
-501.668	-108.477	0.369	-0.079
-500.653	36.040	-0.040	-0.036
-499.639	-125.058	0.210	-0.032
-498.624	205.914	0.121	0.187
-497.610	-37.556	-0.206	-0.110
-496.595	800.000	0.080	-0.244
-495.581	-200.000	0.008	-0.038
-494.566	117.029	0.101	-0.124
-493.551	72.953	-0.093	0.097
-492.537	186.775	-0.113	-0.168
-491.522	24.368	0.035	0.029
-490.508	441.631	0.099	-0.216
-489.493	124.226	-0.119	0.150
-488.478	-21.128	0.271	0.166
-487.464	37.174	-0.217	0.192
-486.449	-11.635	0.108	-0.071
-485.435	36.061	-0.212	-0.187
-484.420	-59.881	-0.312	0.133
-483.405	-118.374	0.303	-0.054
-482.391	-105.972	-0.293	0.066
-481.376	-64.285	0.281	-0.114
-480.362	-72.615	-0.078	-0.029
-479.347	-200.000	-0.043	-0.260
-478.332	800.000	0.021	0.064
-477.318	461.790	0.146	-0.325
-476.303	-29.116	-0.307	0.176
-475.289	-107.421	-0.262	-0.057
-474.274	-155.441	-0.119	0.008
-473.259	-145.426	-0.196	-0.018
-472.245	355.243	-0.051	-0.101
-471.230	-153.956	0.203	0.014
-470.216	-200.000	0.036	0.161
-469.201	3.010	-0.089	0.065
-468.186	800.000	-0.014	-0.044
-467.172	800.000	-0.054	-0.172
-466.157	-125.377	-0.179	-0.027
-465.143	51.538	-0.053	-0.050
-464.128	-200.000	-0.035	0.155
-463.113	58.945	-0.139	-0.136
-462.099	621.882	0.088	-0.221
-461.084	-200.000	0.009	-0.412
-460.070	-200.000	-0.004	0.128
-459.055	-43.038	0.272	0.137
-458.040	-200.000	0.006	0.177
-457.026	-83.864	0.177	-0.056
-456.011	800.000	0.066	-0.258
-454.997	501.157	-0.087	-0.200
-453.982	101.946	0.218	0.254
-452.968	-134.262	-0.394	-0.048
-451.953	342.384	0.192	-0.374
-450.938	-79.506	-0.139	0.047
-449.924	-34.302	0.018	0.010
-448.909	-13.782	-0.255	-0.164
-447.895	9.424	-0.190	0.144
-446.880	544.561	0.045	-0.108
-445.865	-200.000	0.021	0.221
-444.851	800.000	-0.040	-0.111
-443.836	-200.000	-0.059	0.309
-442.822	-134.361	-0.311	-0.038
-441.807	118.865	-0.052	-0.065
-440.792	-47.496	0.330	-0.160
-439.778	-38.591	-0.245	0.129
-438.763	-200.000	-0.027	-0.147
-437.749	-85.557	-0.344	-0.107
-436.734	800.000	-0.090	-0.349
-435.719	-27.786	0.064	-0.037
-434.705	-24.047	-0.230	0.137
-433.690	-60.371	-0.170	-0.072
-432.676	-200.000	0.049	0.264
-431.661	800.000	0.017	0.073
-430.646	-200.000	0.046	0.529
-429.632	-200.000	-0.008	0.162
-428.617	2.462	0.154	-0.111
-427.603	253.594	-0.182	0.309
-426.588	-93.690	0.122	-0.034
-425.573	-200.000	-0.024	0.168
-424.559	639.958	-0.113	0.287
-423.544	-198.550	-0.021	0.000
-422.530	181.714	-0.029	-0.043
-421.515	-110.454	-0.258	0.053
-420.500	-169.284	-0.363	-0.013
-419.486	800.000	0.096	-0.272
-418.471	17.891	0.197	0.157
-417.457	161.345	-0.066	-0.092
-416.442	73.463	-0.188	0.196
-415.428	176.421	-0.170	0.246
-414.413	800.000	-0.016	0.069
-413.398	-100.997	0.245	0.060
-412.384	8.146	0.187	-0.140
-411.369	18.454	-0.184	-0.146
-410.355	-109.436	-0.093	0.020
-409.340	133.390	-0.126	-0.162
-408.325	-200.000	0.019	0.163
-407.311	800.000	0.065	-0.256
-406.296	800.000	0.004	-0.014
-405.282	-43.806	0.191	0.096
-404.267	800.000	0.036	0.149
-403.252	-200.000	0.026	-0.195
-402.238	16.639	-0.208	-0.164
-401.223	-78.875	0.112	0.038
-400.209	86.576	-0.232	0.255
-399.194	-32.852	0.240	0.133
-398.179	-118.518	-0.614	0.108
-397.165	-200.000	-0.002	0.080
-396.150	209.480	0.134	-0.208
-395.136	-200.000	-0.011	0.192
-394.121	29.310	-0.036	0.030
-393.106	-200.000	-0.024	0.127
-392.092	363.141	0.078	0.156
-391.077	9.519	-0.209	-0.158
-390.063	179.198	0.212	-0.308
-389.048	725.723	-0.072	0.192
-388.033	672.356	0.094	0.241
-387.019	171.864	-0.339	-0.485
-386.004	146.748	-0.140	-0.187
-384.990	800.000	0.058	0.203
-383.975	-200.000	-0.013	-0.085
-382.960	-114.604	-0.089	0.017
-381.946	-119.992	0.349	-0.060
-380.931	-200.000	0.011	0.256
-379.917	237.467	-0.162	0.266
-378.902	800.000	0.042	0.117
-377.888	10.178	0.188	-0.142
-376.873	-78.723	0.179	-0.061
-375.858	-200.000	-0.049	0.225
-374.844	-67.621	-0.182	-0.071
-373.829	26.150	-0.039	-0.032
-372.815	-107.119	0.415	-0.091
-371.800	800.000	0.069	0.262
-370.785	-31.857	0.311	-0.173
-369.771	102.123	0.107	-0.124
-368.756	271.223	-0.075	0.131
-367.742	-49.187	0.158	-0.075
-366.727	-8.163	0.105	-0.070
-365.712	-17.280	-0.030	-0.019
-364.698	-200.000	0.023	-0.107
-363.683	354.813	-0.132	-0.261
-362.669	-7.353	-0.112	0.076
-361.654	-30.173	0.242	0.137
-360.639	-170.211	0.271	-0.010
-359.625	-116.086	0.237	-0.044
-358.610	118.709	0.199	0.245
-357.596	-200.000	-0.010	0.282
-356.581	800.000	0.028	0.094
-355.566	155.633	0.118	-0.161
-354.552	-47.575	0.202	0.098
-353.537	800.000	0.078	-0.275
-352.523	-200.000	0.019	-0.125
-351.508	628.406	0.119	-0.300
-350.493	127.681	-0.187	0.236
-349.479	800.000	-0.052	0.155
-348.464	-75.865	0.059	0.021
-347.450	-88.290	0.194	-0.058
-346.435	163.296	0.097	-0.135
-345.420	10.337	0.146	-0.111
-344.406	-122.569	-0.123	-0.020
-343.391	-63.334	-0.207	-0.085
-342.377	121.361	-0.129	-0.160
-341.362	106.732	-0.097	0.115
-340.348	-144.530	0.192	0.018
-339.333	-200.000	-0.018	-0.333
-338.318	-94.553	0.282	0.076
-337.304	-110.233	0.077	0.016
-336.289	-157.216	-0.315	0.019
-335.275	-200.000	-0.045	-0.274
-334.260	492.053	-0.089	0.203
-333.245	504.455	0.070	0.162
-332.231	-200.000	-0.017	0.206
-331.216	-200.000	0.013	0.245
-330.202	-66.575	0.145	0.057
-329.187	-11.178	-0.092	-0.060
-328.172	-58.032	-0.375	-0.162
-327.158	-22.531	-0.190	-0.114
-326.143	139.905	0.186	-0.243
-325.129	-90.125	-0.031	0.009
-324.114	-93.931	-0.161	0.044
-323.099	-67.513	-0.105	-0.041
-322.085	800.000	0.024	-0.104
-321.070	-200.000	0.056	-0.337
-320.056	-83.697	0.182	0.058
-319.041	-25.339	0.034	-0.020
-318.026	282.905	-0.142	-0.254
-317.012	-155.509	-0.053	0.003
-315.997	-200.000	0.024	-0.150
-314.983	69.265	-0.240	-0.245
-313.968	-27.535	-0.146	-0.084
-312.953	106.402	0.192	-0.226
-311.939	-200.000	0.016	0.200
-310.924	-40.161	-0.246	0.127
-309.910	288.746	-0.118	-0.212
-308.895	-72.163	0.124	0.046
-307.880	-34.379	-0.147	-0.080
-306.866	-162.732	-0.174	-0.008
-305.851	800.000	0.066	-0.224
-304.837	182.831	0.057	0.084
-303.822	27.965	0.182	0.153
-302.807	207.086	0.227	0.351
-301.793	-2.831	-0.152	0.105
-300.778	-69.467	0.263	0.100
-299.764	-98.114	0.127	-0.033
-298.749	19.692	-0.088	-0.070
-297.735	800.000	-0.026	0.078
-296.720	-96.768	0.163	0.043
-295.705	308.878	0.082	0.151
-294.691	-200.000	0.017	-0.110
-293.676	148.919	0.310	-0.416
-292.662	383.471	0.106	-0.216
-291.647	800.000	0.064	0.210
-290.632	-21.868	-0.148	0.089
-289.618	800.000	-0.075	0.304
-288.603	-68.031	0.096	0.037
-287.589	800.000	-0.103	0.422
-286.574	245.917	0.013	0.022
-285.559	-77.559	-0.113	0.039
-284.545	21.816	-0.138	0.112
-283.530	800.000	-0.075	-0.215
-282.516	536.549	0.098	0.230
-281.501	-96.890	0.029	-0.007
-280.486	60.431	0.122	-0.119
-279.472	800.000	-0.010	-0.030
-278.457	389.511	0.110	0.227
-277.443	-200.000	-0.023	-0.179
-276.428	-162.616	-0.329	-0.016
-275.413	-200.000	-0.015	-0.148
-274.399	-200.000	-0.010	-0.308
-273.384	251.789	0.101	0.171
-272.370	-56.005	-0.096	0.042
-271.355	800.000	0.060	-0.237
-270.340	-110.223	0.154	-0.032
-269.326	67.691	-0.198	-0.200
-268.311	-17.242	0.063	0.040
-267.297	65.759	0.071	0.071
-266.282	247.936	0.074	0.124
-265.267	-36.740	-0.143	-0.076
-264.253	-45.154	0.218	0.108
-263.238	-169.507	-0.176	0.006
-262.224	-127.050	0.109	-0.016
-261.209	-55.772	0.295	-0.131
-260.195	28.278	-0.135	0.113
-259.180	-140.378	0.125	0.013
-258.165	-51.427	0.368	-0.170
-257.151	-54.939	0.040	-0.018
-256.136	-24.805	-0.375	-0.220
-255.122	-67.306	-0.064	0.025
-254.107	-99.922	0.375	-0.093
-253.092	-7.043	0.389	0.261
-252.078	424.995	-0.064	0.136
-251.063	138.612	0.064	0.083
-250.049	38.298	-0.109	-0.096
-249.034	800.000	-0.015	0.057
-248.019	345.049	-0.136	0.264
-247.005	19.161	0.092	0.073
-245.990	-88.804	0.311	-0.091
-244.976	800.000	-0.065	0.203
-243.961	268.042	0.270	0.469
-242.946	-3.919	-0.104	-0.071
-241.932	-177.786	-0.074	0.002
-240.917	-177.560	0.345	-0.008
-239.903	-119.167	0.189	-0.033
-238.888	800.000	0.139	0.385
-237.873	77.519	-0.251	-0.264
-236.859	-193.107	0.182	0.002
-235.844	-90.373	0.379	-0.109
-234.830	41.366	-0.151	0.135
-233.815	800.000	-0.078	0.246
-232.800	72.814	-0.149	0.154
-231.786	-99.298	-0.258	0.064
-230.771	-171.577	-0.379	0.012
-229.757	-200.000	-0.033	0.306
-228.742	-87.198	0.108	-0.032
-227.727	-200.000	0.029	0.225
-226.713	62.549	0.179	0.176
-225.698	32.263	0.171	0.146
-224.684	783.451	-0.036	-0.098
-223.669	111.554	0.106	0.127
-222.655	-200.000	-0.024	0.153
-221.640	55.499	-0.067	-0.064
-220.625	-200.000	0.132	0.646
-219.611	-113.071	-0.182	0.036
-218.596	-200.000	-0.041	-0.310
-217.582	45.222	0.234	0.213
-216.567	434.116	0.041	-0.089
-215.552	576.571	-0.096	0.233
-214.538	81.369	0.246	-0.262
-213.523	-200.000	-0.017	-0.105
-212.509	-161.174	-0.219	-0.011
-211.494	-200.000	0.026	0.513
-210.479	-39.011	0.079	-0.041
-209.465	76.833	0.143	0.151
-208.450	-51.854	0.156	-0.072
-207.436	327.079	-0.167	0.316
-206.421	-109.006	0.518	-0.109
-205.406	36.260	0.066	-0.058
-204.392	10.557	0.063	0.047
-203.377	108.932	-0.072	0.086
-202.363	-200.000	-0.086	0.400
-201.348	-122.402	-0.275	-0.044
-200.333	-133.172	0.221	-0.028
-199.319	38.492	0.288	-0.253
-198.304	-46.659	-0.062	0.030
-197.290	-85.415	-0.066	-0.020
-196.275	800.000	0.062	-0.265
-195.260	23.566	-0.206	-0.168
-194.246	461.953	0.024	0.053
-193.231	-180.187	-0.628	-0.013
-192.217	-200.000	-0.024	-0.258
-191.202	800.000	0.071	-0.194
-190.187	-3.330	-0.118	0.081
-189.173	-92.528	-0.170	0.047
-188.158	-28.180	-0.104	-0.059
-187.144	-12.162	-0.219	-0.142
-186.129	-90.599	0.250	-0.072
-185.114	-77.479	0.152	0.052
-184.100	-200.000	-0.003	-0.275
-183.085	800.000	0.053	-0.187
-182.071	684.208	0.104	0.268
-181.056	-141.798	-0.235	0.023
-180.042	-200.000	-0.165	-0.001
-179.027	207.186	0.068	0.105
-178.012	36.456	-0.287	0.250
-176.998	-34.163	0.292	0.158
-175.983	-128.284	0.172	0.024
-174.969	-156.994	0.197	-0.012
-173.954	-101.157	0.328	-0.079
-172.939	-49.477	0.124	0.058
-171.925	219.131	-0.142	0.225
-170.910	111.846	-0.100	0.119
-169.896	432.680	0.025	0.054
-168.881	-200.000	0.006	0.220
-167.866	262.370	-0.123	-0.211
-166.852	-173.818	0.177	0.005
-165.837	-51.093	0.166	-0.077
-164.823	147.287	-0.125	0.166
-163.808	1.436	0.112	-0.079
-162.793	75.339	0.213	0.221
-161.779	-74.927	-0.221	-0.078
-160.764	-200.000	0.031	0.275
-159.750	140.613	0.236	0.308
-158.735	-200.000	0.030	0.250
-157.720	181.963	0.179	0.259
-156.706	267.448	-0.128	0.221
-155.691	-35.075	0.408	0.219
-154.677	42.142	-0.096	-0.086
-153.662	52.811	-0.140	0.132
-152.647	800.000	0.022	0.070
-151.633	204.506	0.343	-0.525
-150.618	800.000	0.072	-0.196
-149.604	-200.000	-0.010	0.240
-148.589	-17.381	-0.114	0.071
-147.574	108.663	0.080	0.094
-146.560	-200.000	-0.029	-0.364
-145.545	703.524	0.057	-0.147
-144.531	-200.000	-0.037	-0.268
-143.516	-5.317	-0.068	-0.046
-142.502	-80.555	0.135	-0.044
-141.487	519.180	0.078	0.179
-140.472	-62.202	0.290	0.119
-139.458	-26.074	-0.252	0.146
-138.443	69.576	-0.163	0.165
-137.429	614.652	-0.025	0.061
-136.414	-47.231	0.159	0.077
-135.399	-160.052	-0.204	0.011
-134.385	49.336	0.155	0.144
-133.370	-82.604	0.080	0.025
-132.356	68.477	0.239	0.242
-131.341	137.007	0.166	-0.213
-130.326	800.000	-0.040	0.157
-129.312	-143.156	-0.222	0.021
-128.297	144.939	0.099	-0.131
-127.283	800.000	0.121	-0.338
-126.268	85.808	-0.069	-0.075
-125.253	315.628	-0.115	-0.213
-124.239	-139.913	-0.255	-0.027
-123.224	-67.294	-0.080	0.031
-122.210	604.002	0.056	0.138
-121.195	-20.709	0.121	-0.073
