DTS Sentinel unit serial number:	SN413079Multiplexer serial number:	ORYXHardware model number:	OX4-SRSoftware version number:	ORYX F/W v4.00 Oryx Data Collector v3.7.2.0data status	okinstallation	princeton_trtdifferential loss correction	single-endedforward channel	channel 2reverse channel	N/Adate	2019/09/18time	13:59:35forward acquisition time	60.00reverse acquisition time	0.00gamma	496.2192k internal	0.2319k external	0.2319temperature offset calibration	0.9998default loss term (dB/km)	0.3790temperature slope calibration	1.0000multiplexer offset coefficient	1.0000multiplexer slope coefficient	1.0000fibre end	0.00T internal ref (°C)	34.50T ext. ref 1 (°C)	0.65T ext. ref 2 (°C)	29.18length (m)	temperature (°C)	Stokes	anti-Stokes-747.200	343.943	-0.054	0.107
-746.185	800.000	0.004	-0.011
-745.171	655.765	0.065	0.169
-744.156	-118.036	-0.100	0.018
-743.142	-19.688	-0.195	0.122
-742.127	-7.925	0.212	0.145
-741.112	-159.766	0.216	0.012
-740.098	74.250	0.273	0.290
-739.083	366.253	0.129	0.262
-738.069	371.167	-0.041	0.085
-737.054	10.542	-0.153	-0.118
-736.039	800.000	0.104	0.295
-735.025	56.112	-0.198	0.194
-734.010	-118.558	0.316	-0.057
-732.996	-16.668	-0.150	0.096
-731.981	711.872	0.087	0.234
-730.966	148.168	-0.198	0.270
-729.952	-117.505	-0.394	0.072
-728.937	-28.361	-0.147	-0.086
-727.923	-122.729	0.097	-0.016
-726.908	-106.222	-0.255	0.058
-725.894	800.000	0.031	-0.107
-724.879	-200.000	-0.009	0.159
-723.864	-141.773	0.361	-0.037
-722.850	800.000	-0.056	-0.186
-721.835	-116.710	-0.167	-0.031
-720.821	88.544	0.085	0.096
-719.806	535.662	0.130	0.312
-718.791	-23.430	0.083	-0.050
-717.777	-90.609	-0.367	0.107
-716.762	673.291	-0.068	-0.179
-715.748	800.000	0.154	0.449
-714.733	-96.969	-0.162	-0.043
-713.718	-200.000	0.011	0.072
-712.704	457.000	-0.043	0.096
-711.689	-124.872	-0.344	-0.054
-710.675	239.288	-0.097	0.162
-709.660	119.034	-0.105	-0.131
-708.645	800.000	0.092	-0.334
-707.631	-200.000	0.018	-0.325
-706.616	-65.435	-0.178	0.072
-705.602	91.742	0.150	-0.170
-704.587	800.000	0.082	-0.306
-703.572	-11.242	0.005	0.004
-702.558	800.000	0.030	0.084
-701.543	165.590	0.044	0.063
-700.529	268.433	-0.127	0.225
-699.514	-166.043	-0.357	0.015
-698.499	-35.721	0.060	-0.033
-697.485	-67.299	0.110	-0.044
-696.470	-28.502	-0.051	-0.029
-695.456	407.370	-0.145	0.308
-694.441	800.000	0.098	0.311
-693.426	-200.000	0.023	-0.248
-692.412	-17.544	-0.024	0.015
-691.397	-86.362	-0.323	0.100
-690.383	-96.272	-0.066	0.018
-689.368	33.909	0.093	0.082
-688.354	16.394	0.075	0.060
-687.339	95.007	-0.180	-0.206
-686.324	173.048	-0.129	-0.187
-685.310	-108.636	0.150	0.032
-684.295	64.596	-0.166	0.169
-683.281	-141.647	-0.210	0.021
-682.266	89.888	0.208	-0.235
-681.251	800.000	-0.041	0.118
-680.237	78.438	-0.123	0.133
-679.222	313.297	-0.083	0.158
-678.208	-200.000	-0.030	0.452
-677.193	15.420	-0.130	-0.103
-676.178	-10.693	-0.284	-0.190
-675.164	-18.372	0.137	0.086
-674.149	-200.000	-0.015	0.069
-673.135	28.944	-0.359	-0.307
-672.120	-40.599	-0.096	-0.050
-671.105	-200.000	0.022	0.138
-670.091	190.058	-0.314	0.476
-669.076	96.619	-0.157	0.182
-668.062	71.122	-0.095	-0.099
-667.047	-117.669	0.539	0.098
-666.032	-6.047	0.138	0.095
-665.018	78.771	-0.215	0.232
-664.003	175.018	-0.137	0.200
-662.989	366.154	-0.042	0.085
-661.974	-200.000	-0.021	-0.150
-660.959	800.000	0.045	0.129
-659.945	-104.963	-0.179	0.041
-658.930	-49.726	0.233	-0.112
-657.916	-200.000	-0.024	0.127
-656.901	800.000	0.067	0.198
-655.886	249.589	0.130	-0.223
-654.872	800.000	-0.126	-0.382
-653.857	82.691	0.090	0.099
-652.843	-200.000	0.040	0.246
-651.828	800.000	0.047	0.157
-650.814	133.498	0.176	-0.230
-649.799	-145.311	-0.120	-0.011
-648.784	316.642	-0.165	-0.314
-647.770	23.170	-0.411	0.340
-646.755	-200.000	0.023	0.233
-645.741	-79.356	-0.056	-0.019
-644.726	19.154	-0.162	-0.131
-643.711	-1.804	-0.287	0.203
-642.697	26.413	0.147	-0.124
-641.682	333.708	0.139	0.270
-640.668	379.403	-0.066	-0.136
-639.653	4.335	-0.087	-0.064
-638.638	179.361	-0.184	-0.271
-637.624	-200.000	0.049	-0.406
-636.609	192.171	0.092	-0.140
-635.595	521.064	-0.034	-0.081
-634.580	389.151	0.162	-0.339
-633.565	-48.143	0.245	-0.119
-632.551	328.199	0.046	-0.088
-631.536	-53.852	0.264	0.121
-630.522	-198.893	0.042	0.000
-629.507	-74.240	0.290	-0.106
-628.492	-200.000	0.003	0.181
-627.478	-157.109	0.145	-0.009
-626.463	-35.310	-0.304	-0.167
-625.449	800.000	0.037	0.115
-624.434	368.562	-0.092	0.187
-623.419	126.746	0.208	0.266
-622.405	-139.254	-0.105	0.011
-621.390	800.000	0.045	-0.188
-620.376	-200.000	0.062	-0.288
-619.361	34.071	0.073	0.064
-618.346	-170.537	-0.150	-0.005
-617.332	-90.428	0.055	-0.016
-616.317	533.599	0.019	0.045
-615.303	-200.000	0.048	-0.223
-614.288	800.000	-0.059	-0.243
-613.273	-200.000	0.046	-0.337
-612.259	-89.186	-0.487	0.145
-611.244	158.800	-0.186	0.259
-610.230	-200.000	0.024	-0.118
-609.215	-200.000	-0.084	-0.629
-608.201	5.031	-0.010	-0.007
-607.186	-26.951	0.108	0.063
-606.171	403.932	-0.047	0.099
-605.157	679.082	-0.033	-0.085
-604.142	800.000	-0.065	-0.238
-603.128	159.651	-0.188	-0.264
-602.113	-134.114	-0.260	0.032
-601.098	-61.299	0.230	-0.097
-600.084	26.065	0.231	0.194
-599.069	-7.494	-0.258	-0.175
-598.055	177.928	0.053	0.078
-597.040	-105.270	0.142	-0.033
-596.025	-200.000	-0.047	0.265
-595.011	-200.000	-0.033	0.170
-593.996	-135.320	0.134	-0.016
-592.982	24.013	-0.104	0.086
-591.967	800.000	0.059	-0.171
-590.952	206.239	-0.131	0.205
-589.938	800.000	-0.121	0.403
-588.923	-44.963	0.222	-0.111
-587.909	-200.000	-0.029	-0.287
-586.894	-200.000	-0.008	-0.050
-585.879	-112.171	-0.412	-0.083
-584.865	412.301	0.194	-0.415
-583.850	-35.139	0.448	-0.246
-582.836	188.605	-0.037	-0.056
-581.821	-200.000	0.002	0.094
-580.806	109.332	-0.099	-0.120
-579.792	800.000	0.102	-0.379
-578.777	123.062	-0.074	-0.093
-577.763	79.508	-0.093	-0.101
-576.748	33.895	-0.045	0.040
-575.733	-200.000	0.003	0.122
-574.719	800.000	-0.171	0.579
-573.704	-22.640	0.318	-0.193
-572.690	-79.244	-0.101	0.034
-571.675	800.000	-0.051	-0.162
-570.661	-200.000	0.040	-0.193
-569.646	-131.361	-0.138	0.018
-568.631	363.773	-0.057	-0.116
-567.617	477.253	-0.158	0.359
-566.602	303.280	-0.123	0.229
-565.588	109.712	0.150	-0.181
-564.573	-134.351	0.217	0.027
-563.558	-170.245	-0.124	0.004
-562.544	-20.088	0.175	-0.109
-561.529	78.645	-0.101	-0.109
-560.515	-106.497	-0.152	-0.034
-559.500	-108.923	-0.218	-0.047
-558.485	596.511	-0.094	0.235
-557.471	570.525	-0.097	-0.237
-556.456	-70.437	0.202	-0.077
-555.442	719.328	-0.175	-0.467
-554.427	-21.969	-0.068	-0.042
-553.412	98.859	-0.060	0.070
-552.398	-90.451	-0.256	0.074
-551.383	800.000	-0.057	-0.160
-550.369	566.600	-0.061	-0.148
-549.354	800.000	0.039	-0.157
-548.339	-200.000	-0.066	0.499
-547.325	77.237	0.160	-0.171
-546.310	96.913	-0.172	-0.197
-545.296	9.858	-0.289	-0.220
-544.281	3.291	0.168	0.122
-543.266	162.975	0.128	0.180
-542.252	-144.374	-0.226	0.021
-541.237	20.053	-0.068	-0.055
-540.223	117.118	0.095	0.118
-539.208	505.634	0.121	-0.281
-538.193	180.327	0.021	-0.030
-537.179	-83.086	-0.190	0.061
-536.164	-56.443	0.189	0.084
-535.150	-60.206	-0.124	0.053
-534.135	112.417	0.067	0.081
-533.121	121.286	-0.213	0.266
-532.106	800.000	0.043	0.180
-531.091	455.311	-0.054	-0.119
-530.077	197.725	0.161	0.246
-529.062	-57.577	0.157	-0.069
-528.048	800.000	-0.039	-0.109
-527.033	-140.328	-0.137	-0.014
-526.018	-200.000	0.021	0.183
-525.004	800.000	0.076	0.225
-523.989	-112.598	-0.261	0.052
-522.975	70.733	-0.103	0.107
-521.960	-123.053	0.108	0.017
-520.945	163.916	0.166	0.235
-519.931	-98.120	-0.024	0.006
-518.916	238.733	-0.105	-0.176
-517.902	-82.644	0.127	-0.041
-516.887	800.000	-0.065	-0.268
-515.872	597.506	0.062	0.154
-514.858	-200.000	0.009	0.087
-513.843	-128.085	-0.172	-0.025
-512.829	-120.398	0.113	-0.019
-511.814	-79.410	-0.179	0.061
-510.799	-200.000	-0.008	-0.201
-509.785	86.114	0.180	0.199
-508.770	-128.094	0.192	-0.028
-507.756	-186.358	-0.214	-0.003
-506.741	90.797	-0.188	-0.211
-505.726	280.015	0.029	0.052
-504.712	-66.299	0.124	0.049
-503.697	101.479	0.335	-0.391
-502.683	-73.561	-0.191	-0.070
-501.668	-200.000	0.036	-0.162
-500.653	-200.000	0.012	0.371
-499.639	145.172	-0.264	0.354
-498.624	-122.726	-0.198	-0.032
-497.610	-11.979	-0.235	-0.154
-496.595	-200.000	-0.051	0.235
-495.581	-200.000	-0.062	0.310
-494.566	13.983	-0.200	0.156
-493.551	-200.000	-0.020	-0.159
-492.537	800.000	0.076	0.233
-491.522	-200.000	0.002	0.099
-490.508	-200.000	-0.015	0.077
-489.493	246.096	0.127	-0.215
-488.478	800.000	-0.104	-0.368
-487.464	-200.000	-0.022	0.119
-486.449	-82.598	0.212	-0.069
-485.435	77.674	0.166	-0.177
-484.420	-115.220	0.119	0.023
-483.405	-200.000	0.001	0.012
-482.391	-200.000	0.001	0.079
-481.376	-68.702	-0.061	-0.024
-480.362	-92.989	0.333	-0.093
-479.347	172.635	-0.156	0.224
-478.332	-126.313	-0.285	0.043
-477.318	269.358	0.212	0.373
-476.303	-200.000	-0.025	0.155
-475.289	14.301	-0.352	-0.275
-474.274	-125.417	0.487	0.074
-473.259	-200.000	-0.008	0.061
-472.245	-119.971	-0.187	0.032
-471.230	87.281	0.318	-0.352
-470.216	81.555	0.066	-0.071
-469.201	95.696	-0.031	0.035
-468.186	-200.000	-0.004	0.187
-467.172	-16.226	-0.198	0.126
-466.157	-200.000	-0.017	-0.273
-465.143	-200.000	-0.006	-0.268
-464.128	-200.000	0.006	-0.202
-463.113	69.053	-0.190	-0.195
-462.099	39.151	-0.223	0.199
-461.084	46.066	0.286	0.265
-460.070	-200.000	-0.007	0.102
-459.055	-200.000	0.033	-0.163
-458.040	467.561	0.088	-0.197
-457.026	-154.749	0.186	0.012
-456.011	26.754	-0.227	0.191
-454.997	800.000	-0.113	-0.475
-453.982	-200.000	-0.002	0.067
-452.968	291.553	-0.107	-0.194
-451.953	-9.210	0.387	-0.259
-450.938	121.575	0.059	0.073
-449.924	223.142	0.147	0.237
-448.909	-200.000	-0.028	0.242
-447.895	-200.000	0.009	0.205
-446.880	-45.217	0.183	0.091
-445.865	-59.479	0.376	0.161
-444.851	-200.000	-0.012	-0.064
-443.836	-17.524	-0.137	0.086
-442.822	800.000	0.012	0.036
-441.807	44.288	0.123	0.113
-440.792	175.209	0.103	0.149
-439.778	-43.121	-0.317	0.161
-438.763	-79.273	-0.190	-0.064
-437.749	-112.134	0.171	-0.034
-436.734	-33.680	0.331	0.183
-435.719	-18.907	0.209	-0.130
-434.705	215.312	-0.202	0.320
-433.690	-28.426	-0.175	-0.101
-432.676	79.784	0.057	-0.062
-431.661	-200.000	-0.039	0.379
-430.646	26.412	-0.094	-0.078
-429.632	-41.133	-0.385	0.199
-428.617	-75.158	-0.291	0.104
-427.603	-101.218	0.117	-0.029
-426.588	-105.894	0.157	-0.035
-425.573	-79.605	-0.356	-0.120
-424.559	800.000	-0.196	0.605
-423.544	-160.626	0.344	0.018
-422.530	259.326	-0.242	-0.418
-421.515	-92.918	-0.098	0.027
-420.500	800.000	-0.043	0.185
-419.486	81.770	0.049	0.053
-418.471	800.000	-0.020	-0.069
-417.457	53.035	-0.140	-0.134
-416.442	-16.057	-0.051	0.032
-415.428	800.000	0.040	0.161
-414.413	-67.651	-0.209	0.082
-413.398	156.763	-0.142	-0.196
-412.384	-160.872	-0.358	0.019
-411.369	-200.000	0.040	-0.214
-410.355	54.566	0.329	0.317
-409.340	800.000	-0.064	-0.198
-408.325	247.920	-0.118	0.199
-407.311	800.000	0.106	0.335
-406.296	19.047	-0.320	-0.256
-405.282	-200.000	-0.018	-0.098
-404.267	-52.451	-0.423	0.195
-403.252	-98.934	0.360	0.091
-402.238	-89.272	0.318	0.094
-401.223	643.347	0.065	-0.165
-400.209	-200.000	-0.022	-0.214
-399.194	-200.000	-0.024	0.141
-398.179	707.027	0.101	-0.267
-397.165	-200.000	0.023	0.215
-396.150	-61.269	-0.210	-0.088
-395.136	-200.000	-0.001	-0.305
-394.121	518.877	0.220	-0.514
-393.106	87.106	-0.337	-0.371
-392.092	324.763	0.135	-0.258
-391.077	9.650	-0.234	0.177
-390.063	-26.949	-0.178	0.104
-389.048	-34.330	-0.153	-0.084
-388.033	-134.130	-0.091	-0.011
-387.019	800.000	-0.071	-0.238
-386.004	-200.000	-0.024	0.230
-384.990	561.155	-0.054	0.130
-383.975	-120.823	0.175	0.029
-382.960	-13.805	-0.177	0.114
-381.946	75.653	0.322	-0.340
-380.931	544.704	-0.050	-0.119
-379.917	548.073	0.048	-0.115
-378.902	41.182	0.146	0.132
-377.888	-200.000	0.024	-0.154
-376.873	586.504	-0.086	0.211
-375.858	800.000	0.036	0.115
-374.844	117.621	-0.154	-0.189
-373.829	-200.000	0.004	-0.286
-372.815	-200.000	-0.017	-0.326
-371.800	-42.611	0.272	0.138
-370.785	114.338	0.157	-0.190
-369.771	-200.000	-0.015	-0.198
-368.756	254.923	0.062	0.106
-367.742	-200.000	-0.001	0.139
-366.727	-120.276	-0.070	-0.012
-365.712	-200.000	-0.009	0.197
-364.698	-19.382	-0.161	-0.100
-363.683	-25.023	-0.192	-0.114
-362.669	800.000	-0.060	-0.225
-361.654	-115.570	-0.235	-0.044
-360.639	-84.575	-0.162	0.051
-359.625	800.000	-0.080	-0.236
-358.610	-200.000	0.028	0.233
-357.596	276.125	0.057	-0.100
-356.581	-170.674	0.235	0.008
-355.566	-200.000	-0.028	0.137
-354.552	557.887	0.069	-0.166
-353.537	-35.022	0.356	0.194
-352.523	314.213	-0.081	0.151
-351.508	-200.000	0.061	0.303
-350.493	-27.231	0.226	0.131
-349.479	278.751	-0.145	-0.258
-348.464	-200.000	0.026	0.126
-347.450	-200.000	0.014	0.200
-346.435	800.000	-0.072	-0.255
-345.420	800.000	0.060	0.178
-344.406	-200.000	-0.036	0.203
-343.391	800.000	-0.038	0.135
-342.377	217.062	0.077	0.123
-341.362	549.551	0.021	-0.051
-340.348	800.000	-0.074	-0.221
-339.333	-63.363	-0.228	0.093
-338.318	-200.000	0.001	0.115
-337.304	-162.910	-0.039	-0.002
-336.289	-200.000	-0.053	0.445
-335.275	-168.320	0.082	0.003
-334.260	15.293	0.123	-0.096
-333.245	800.000	0.106	-0.304
-332.231	-86.220	0.204	-0.063
-331.216	800.000	-0.013	0.049
-330.202	-200.000	0.039	-0.207
-329.187	-200.000	0.004	-0.123
-328.172	-31.220	-0.165	0.092
-327.158	384.733	-0.105	0.215
-326.143	142.299	0.028	-0.038
-325.129	-86.883	-0.119	0.036
-324.114	-115.512	0.107	0.020
-323.099	80.021	0.227	0.243
-322.085	-70.280	0.127	-0.048
-321.070	-195.012	-0.257	0.002
-320.056	-94.243	0.373	0.102
-319.041	-54.245	-0.077	0.035
-318.026	17.603	-0.024	-0.019
-317.012	-119.163	0.159	-0.028
-315.997	187.579	-0.025	0.037
-314.983	183.632	0.036	0.052
-313.968	-132.083	-0.041	-0.005
-312.953	-144.616	-0.224	-0.021
-311.939	-200.000	0.021	0.199
-310.924	542.258	0.036	0.085
-309.910	-22.046	-0.151	0.091
-308.895	-19.860	0.319	0.196
-307.880	-200.000	0.004	0.261
-306.866	27.777	-0.116	0.097
-305.851	-193.004	-0.159	0.001
-304.837	800.000	0.115	-0.319
-303.822	-2.013	0.244	0.171
-302.807	317.664	0.104	-0.195
-301.793	800.000	0.017	-0.074
-300.778	-157.858	0.226	-0.013
-299.764	169.796	0.125	0.178
-298.749	152.262	-0.167	0.227
-297.735	19.702	0.109	-0.088
-296.720	-124.669	-0.135	-0.021
-295.705	-200.000	0.006	0.124
-294.691	42.649	-0.075	0.068
-293.676	83.878	0.155	-0.168
-292.662	-5.305	0.159	-0.109
-291.647	800.000	0.031	-0.124
-290.632	194.259	0.144	0.217
-289.618	800.000	0.108	0.337
-288.603	800.000	0.113	0.327
-287.589	-106.303	-0.388	0.086
-286.574	95.214	-0.033	0.038
-285.559	219.395	0.047	0.075
-284.545	800.000	0.136	0.500
-283.530	54.581	0.075	-0.072
-282.516	-25.765	0.132	0.077
-281.501	-102.594	0.325	0.077
-280.486	-116.602	0.190	-0.035
-279.472	800.000	-0.098	0.316
-278.457	152.544	0.154	0.209
-277.443	-0.321	0.035	0.025
-276.428	9.926	-0.114	-0.086
-275.413	206.395	0.090	-0.139
-274.399	66.651	0.091	-0.092
-273.384	21.831	-0.290	0.234
-272.370	-57.635	0.283	-0.123
-271.355	25.719	-0.213	-0.176
-270.340	252.373	0.102	0.173
-269.326	-200.000	0.010	-0.113
-268.311	800.000	-0.041	-0.137
-267.297	202.011	-0.111	-0.170
-266.282	-95.560	0.257	0.068
-265.267	159.926	0.134	0.185
-264.253	-200.000	0.008	0.110
-263.238	800.000	-0.149	-0.517
-262.224	800.000	0.034	-0.135
-261.209	-29.682	0.087	0.049
-260.195	118.556	-0.096	-0.117
-259.180	429.176	-0.106	0.228
-258.165	-107.867	0.042	-0.009
-257.151	205.803	0.092	0.141
-256.136	-200.000	0.004	-0.264
-255.122	6.490	0.057	0.042
-254.107	292.583	-0.071	0.128
-253.092	126.880	0.131	-0.165
-252.078	173.629	0.137	-0.196
-251.063	76.255	0.130	-0.137
-250.049	305.284	-0.050	0.093
-249.034	-200.000	0.047	0.306
-248.019	800.000	-0.098	0.412
-247.005	-16.542	0.251	0.158
-245.990	-47.288	0.074	-0.036
-244.976	-88.354	0.119	-0.035
-243.961	89.734	-0.254	0.281
-242.946	800.000	-0.029	0.119
-241.932	-63.228	0.138	0.057
-240.917	-98.140	-0.078	-0.020
-239.903	800.000	0.063	0.264
-238.888	286.804	0.083	-0.148
-237.873	158.146	0.181	-0.249
-236.859	36.960	0.119	0.104
-235.844	358.028	0.012	0.025
-234.830	88.072	-0.236	-0.260
-233.815	-52.737	0.142	-0.065
-232.800	800.000	-0.047	0.135
-231.786	16.402	0.173	-0.135
-230.771	-200.000	0.001	0.202
-229.757	20.532	-0.186	-0.149
-228.742	59.479	0.061	0.060
-227.727	-200.000	-0.043	0.241
-226.713	-200.000	0.013	-0.114
-225.698	60.429	0.053	-0.052
-224.684	-200.000	-0.011	0.109
-223.669	787.312	-0.058	-0.158
-222.655	-24.706	-0.096	0.057
-221.640	2.843	0.027	-0.019
-220.625	363.859	-0.116	0.231
-219.611	611.401	-0.031	-0.077
-218.596	-200.000	-0.017	-0.203
-217.582	-72.462	-0.118	-0.043
-216.567	157.405	-0.091	0.125
-215.552	280.063	0.250	-0.443
-214.538	378.999	-0.137	0.277
-213.523	-186.659	-0.104	-0.001
-212.509	800.000	-0.083	0.348
-211.494	21.524	0.102	0.082
-210.479	-173.929	0.292	0.009
-209.465	-51.445	0.160	-0.074
-208.450	-200.000	-0.005	0.074
-207.436	260.195	0.068	-0.116
-206.421	-200.000	0.026	-0.235
-205.406	603.403	0.111	-0.273
-204.392	158.134	-0.137	0.188
-203.377	-106.700	-0.243	0.054
-202.363	-50.681	0.108	0.050
-201.348	86.846	0.045	-0.049
-200.333	-95.931	0.378	0.100
-199.319	-42.124	0.239	0.121
-198.304	-57.637	-0.010	0.004
-197.290	-25.403	-0.130	0.076
-196.275	-121.292	-0.150	-0.025
-195.260	-49.561	0.227	0.107
-194.246	72.191	-0.159	-0.164
-193.231	81.042	0.234	-0.250
-192.217	59.155	0.258	-0.252
-191.202	-119.334	-0.359	-0.062
-190.187	16.840	0.166	0.130
-189.173	24.590	-0.086	-0.070
-188.158	-13.815	0.171	0.110
-187.144	-200.000	-0.017	-0.098
-186.129	290.296	0.234	-0.421
-185.114	96.367	-0.180	0.204
-184.100	-135.036	-0.176	0.021
-183.085	587.227	0.097	-0.235
-182.071	23.341	0.268	0.218
-181.056	337.077	0.108	-0.207
-180.042	341.279	-0.062	-0.120
-179.027	162.375	-0.050	0.069
-178.012	289.088	-0.080	0.144
-176.998	-37.998	-0.122	0.064
-175.983	-169.047	0.477	0.018
-174.969	68.189	0.095	-0.096
-173.954	-78.689	0.256	-0.086
-172.939	-53.136	-0.059	0.027
-171.925	282.412	0.087	0.154
-170.910	307.450	-0.049	0.091
-169.896	81.437	0.138	0.148
-168.881	202.985	-0.026	-0.040
-167.866	24.637	-0.263	-0.216
-166.852	800.000	-0.096	-0.327
-165.837	-200.000	0.019	0.146
-164.823	109.710	-0.085	-0.101
-163.808	235.935	-0.060	0.099
-162.793	-200.000	0.043	-0.191
-161.779	-146.384	-0.082	0.007
-160.764	800.000	-0.046	-0.130
-159.750	800.000	0.071	0.234
-158.735	117.579	-0.299	0.364
-157.720	-160.179	0.201	0.011
-156.706	-80.760	-0.357	0.117
-155.691	302.957	0.037	-0.068
-154.677	66.707	0.161	-0.162
-153.662	-85.934	0.139	0.043
-152.647	-0.057	-0.147	0.103
-151.633	510.910	-0.087	-0.199
-150.618	341.904	-0.036	-0.070
-149.604	-164.779	0.285	-0.013
-148.589	-104.339	-0.260	0.060
-147.574	146.188	-0.074	0.099
-146.560	-200.000	0.018	-0.151
-145.545	-7.446	0.040	0.027
-144.531	-102.403	-0.201	0.048
-143.516	-84.936	-0.108	-0.033
-142.502	-200.000	-0.041	0.232
-141.487	161.592	-0.154	0.213
-140.472	186.681	-0.058	0.085
-139.458	379.586	0.116	0.234
-138.443	288.725	-0.114	-0.204
-137.429	-87.158	0.188	-0.057
-136.414	-113.114	-0.171	0.033
-135.399	-0.849	0.253	0.177
-134.385	800.000	0.012	0.039
-133.370	293.990	0.149	-0.268
-132.356	-155.063	-0.019	0.001
-131.341	-200.000	0.032	0.202
-130.326	-79.862	-0.208	-0.069
-129.312	-195.731	-0.176	-0.001
-128.297	76.207	0.126	0.132
-127.283	-160.899	-0.258	-0.013
-126.268	-151.022	-0.145	-0.011
-125.253	-49.124	0.411	0.194
-124.239	800.000	0.119	-0.348
-123.224	-200.000	0.010	-0.127
-122.210	86.532	0.158	0.172
-121.195	240.061	0.152	0.250
