DTS Sentinel unit serial number:	SN413079Multiplexer serial number:	ORYXHardware model number:	OX4-SRSoftware version number:	ORYX F/W v4.00 Oryx Data Collector v3.7.2.0data status	okinstallation	princeton_trtdifferential loss correction	single-endedforward channel	channel 2reverse channel	N/Adate	2019/09/13time	19:03:35forward acquisition time	60.00reverse acquisition time	0.00gamma	496.2192k internal	0.2328k external	0.2328temperature offset calibration	1.0171default loss term (dB/km)	0.3790temperature slope calibration	1.0000multiplexer offset coefficient	1.0000multiplexer slope coefficient	1.0000fibre end	0.00T internal ref (°C)	31.80T ext. ref 1 (°C)	3.92T ext. ref 2 (°C)	25.08length (m)	temperature (°C)	Stokes	anti-Stokes-747.200	660.687	-0.136	0.353
-746.185	753.527	0.083	-0.226
-745.171	164.618	-0.087	0.124
-744.156	800.000	-0.188	0.542
-743.142	34.132	-0.054	-0.047
-742.127	800.000	-0.051	0.158
-741.112	-174.687	-0.478	0.014
-740.098	723.209	0.107	0.287
-739.083	-200.000	0.027	-0.232
-738.069	800.000	0.042	-0.121
-737.054	-93.872	-0.156	0.043
-736.039	88.231	-0.110	0.123
-735.025	800.000	0.048	0.183
-734.010	246.301	0.075	-0.127
-732.996	-110.264	-0.356	0.075
-731.981	-92.265	0.084	-0.024
-730.966	117.331	0.167	0.206
-729.952	-30.785	-0.395	0.225
-728.937	-191.951	0.214	0.002
-727.923	12.736	0.073	0.057
-726.908	34.274	-0.231	0.203
-725.894	-184.700	-0.197	-0.003
-724.879	122.410	-0.250	-0.315
-723.864	-152.400	-0.142	-0.010
-722.850	408.273	0.156	-0.332
-721.835	-200.000	-0.012	0.072
-720.821	-139.448	-0.308	-0.033
-719.806	-13.767	-0.209	-0.136
-718.791	484.823	-0.080	0.183
-717.777	-200.000	-0.017	0.193
-716.762	154.433	-0.113	-0.156
-715.748	685.983	0.016	-0.043
-714.733	800.000	-0.073	-0.318
-713.718	43.432	-0.128	-0.118
-712.704	298.551	-0.164	0.303
-711.689	-200.000	-0.041	-0.238
-710.675	193.563	0.086	-0.132
-709.660	-2.332	0.181	-0.128
-708.645	-135.961	-0.233	0.028
-707.631	94.665	0.144	0.165
-706.616	109.071	0.113	-0.136
-705.602	-24.801	0.357	0.213
-704.587	-77.680	0.233	0.081
-703.572	-52.423	0.244	-0.114
-702.558	-34.696	-0.069	-0.038
-701.543	-54.467	-0.159	0.072
-700.529	240.362	0.279	0.469
-699.514	116.872	0.109	0.134
-698.499	58.135	-0.209	-0.206
-697.485	-200.000	-0.041	0.227
-696.470	-93.379	-0.226	-0.063
-695.456	-46.025	0.259	-0.129
-694.441	14.316	-0.149	-0.117
-693.426	25.744	0.186	-0.156
-692.412	-81.388	0.450	0.149
-691.397	-200.000	0.025	0.296
-690.383	-137.145	-0.193	-0.022
-689.368	-198.646	0.645	0.004
-688.354	233.324	-0.292	-0.483
-687.339	81.564	0.080	0.087
-686.324	-200.000	0.057	-0.397
-685.310	148.608	-0.188	0.256
-684.295	-26.515	0.132	0.078
-683.281	-200.000	-0.003	-0.078
-682.266	-144.896	-0.376	-0.035
-681.251	800.000	0.065	-0.192
-680.237	451.483	-0.191	0.423
-679.222	689.300	0.103	-0.270
-678.208	3.212	-0.363	0.266
-677.193	111.058	-0.107	-0.129
-676.178	-33.354	0.318	-0.177
-675.164	-102.434	-0.230	0.055
-674.149	32.141	0.205	0.178
-673.135	6.394	-0.229	0.171
-672.120	142.143	-0.290	0.387
-671.105	-29.413	0.154	0.089
-670.091	-126.409	-0.168	-0.025
-669.076	-113.170	-0.349	-0.069
-668.062	409.401	-0.084	-0.179
-667.047	-147.079	0.274	0.024
-666.032	-132.339	-0.057	0.007
-665.018	-10.498	-0.183	-0.122
-664.003	45.388	-0.370	0.343
-662.989	364.070	-0.037	0.076
-661.974	64.887	-0.157	0.160
-660.959	-165.018	-0.267	0.012
-659.945	-54.789	-0.334	0.151
-658.930	24.910	-0.056	0.047
-657.916	-200.000	-0.011	-0.082
-656.901	3.876	0.251	-0.184
-655.886	-150.377	0.376	-0.029
-654.872	249.286	-0.197	-0.336
-653.857	3.131	-0.268	-0.196
-652.843	254.424	0.128	0.220
-651.828	-161.563	-0.187	0.010
-650.814	230.834	0.156	-0.257
-649.799	143.406	-0.106	-0.141
-648.784	800.000	-0.108	-0.331
-647.770	114.068	-0.185	-0.226
-646.755	2.345	-0.239	-0.173
-645.741	194.869	0.204	0.311
-644.726	800.000	-0.059	-0.215
-643.711	-144.570	0.080	-0.007
-642.697	656.578	0.115	-0.297
-641.682	298.632	-0.078	-0.143
-640.668	793.667	-0.017	0.047
-639.653	16.640	-0.379	-0.301
-638.638	230.445	0.093	0.153
-637.624	689.760	0.041	-0.108
-636.609	-200.000	-0.125	-0.000
-635.595	800.000	0.031	-0.130
-634.580	62.240	0.116	-0.116
-633.565	384.798	0.046	0.095
-632.551	248.666	-0.065	0.110
-631.536	319.923	0.127	-0.242
-630.522	-84.922	-0.228	0.072
-629.507	-41.235	0.184	0.095
-628.492	-107.451	-0.251	-0.055
-627.478	800.000	-0.053	-0.227
-626.463	361.076	0.216	0.434
-625.449	-150.836	-0.219	0.017
-624.434	-41.822	-0.256	-0.132
-623.419	-71.649	-0.432	-0.162
-622.405	-118.455	-0.325	-0.058
-621.390	-45.556	-0.152	0.076
-620.376	800.000	0.022	-0.068
-619.361	-171.405	-0.169	0.006
-618.346	665.526	-0.194	-0.502
-617.332	201.949	-0.104	-0.160
-616.317	256.196	0.048	0.083
-615.303	445.927	-0.089	-0.195
-614.288	800.000	0.062	0.259
-613.273	800.000	-0.111	0.312
-612.259	37.667	-0.208	0.185
-611.244	-66.694	-0.266	-0.106
-610.230	-4.051	0.081	0.056
-609.215	-22.701	0.128	-0.077
-608.201	128.537	-0.208	0.265
-607.186	800.000	-0.042	0.138
-606.171	800.000	0.021	-0.077
-605.157	-200.000	0.040	-0.200
-604.142	-106.963	0.058	-0.013
-603.128	272.922	0.230	-0.408
-602.113	408.750	-0.075	0.159
-601.098	-200.000	-0.026	0.140
-600.084	-69.744	-0.226	-0.087
-599.069	220.018	-0.154	-0.247
-598.055	200.196	0.150	0.231
-597.040	-13.686	0.174	0.113
-596.025	418.369	0.111	0.239
-595.011	-29.645	0.209	0.120
-593.996	498.699	-0.160	0.369
-592.982	-200.000	0.035	0.181
-591.967	-144.138	-0.110	-0.010
-590.952	-200.000	0.002	0.249
-589.938	-121.727	-0.074	-0.012
-588.923	-200.000	-0.000	0.138
-587.909	-200.000	0.023	-0.124
-586.894	-132.671	-0.023	-0.003
-585.879	67.481	0.094	0.096
-584.865	181.957	0.075	-0.110
-583.850	34.469	0.242	-0.212
-582.836	-200.000	-0.057	-0.686
-581.821	-143.900	0.169	-0.016
-580.806	-158.224	-0.497	-0.029
-579.792	-157.840	0.171	0.010
-578.777	-153.718	0.231	0.016
-577.763	-128.441	0.150	0.021
-576.748	26.415	0.271	0.227
-575.733	22.678	-0.049	-0.040
-574.719	800.000	-0.070	0.272
-573.704	-12.774	-0.058	0.038
-572.690	-200.000	0.014	-0.214
-571.675	583.974	-0.083	0.204
-570.661	-116.418	0.145	-0.027
-569.646	-200.000	-0.106	-0.534
-568.631	158.807	0.063	0.087
-567.617	-32.034	-0.151	0.085
-566.602	-5.537	0.254	-0.175
-565.588	125.165	0.087	0.110
-564.573	-91.867	-0.099	0.028
-563.558	29.490	0.248	0.211
-562.544	-101.400	0.082	0.020
-561.529	-200.000	-0.020	-0.609
-560.515	26.921	-0.244	0.205
-559.500	-36.288	-0.166	0.089
-558.485	654.238	0.059	-0.152
-557.471	22.916	-0.235	-0.192
-556.456	53.976	-0.283	0.272
-555.442	800.000	0.065	-0.241
-554.427	-36.108	0.248	-0.134
-553.412	-117.925	-0.400	0.072
-552.398	430.535	0.116	-0.250
-551.383	-134.985	-0.312	-0.038
-550.369	276.249	0.160	-0.284
-549.354	-200.000	-0.014	-0.153
-548.339	-102.570	0.237	0.057
-547.325	253.664	-0.009	0.015
-546.310	-200.000	-0.018	0.134
-545.296	-200.000	0.009	-0.164
-544.281	-46.775	0.274	-0.134
-543.266	301.017	0.146	-0.269
-542.252	-124.844	-0.035	-0.005
-541.237	56.969	0.011	-0.011
-540.223	-65.769	-0.229	-0.091
-539.208	154.351	-0.144	-0.198
-538.193	-107.883	-0.099	-0.021
-537.179	-200.000	0.009	-0.223
-536.164	17.204	-0.131	-0.104
-535.150	-58.828	-0.130	-0.056
-534.135	251.628	-0.088	0.150
-533.121	-46.784	-0.121	-0.059
-532.106	-174.587	-0.224	0.006
-531.091	-111.723	0.124	0.025
-530.077	296.044	0.119	-0.218
-529.062	-39.568	-0.160	0.084
-528.048	154.845	0.099	0.136
-527.033	-200.000	-0.055	-0.248
-526.018	800.000	-0.085	0.322
-525.004	-200.000	0.014	0.320
-523.989	800.000	-0.027	0.101
-522.975	-161.287	0.159	-0.008
-521.960	557.888	-0.019	0.045
-520.945	-200.000	0.075	0.350
-519.931	-200.000	-0.040	-0.195
-518.916	374.714	-0.035	0.071
-517.902	-26.413	0.290	0.170
-516.887	209.501	-0.103	-0.161
-515.872	11.137	-0.149	0.114
-514.858	441.765	-0.050	-0.110
-513.843	103.155	-0.230	0.270
-512.829	33.214	-0.219	0.189
-511.814	-92.834	-0.148	0.041
-510.799	-100.736	-0.123	-0.030
-509.785	-37.341	0.197	0.105
-508.770	131.859	-0.175	-0.224
-507.756	416.093	0.064	-0.136
-506.741	-89.379	0.139	0.041
-505.726	800.000	0.033	-0.135
-504.712	188.260	0.275	0.410
-503.697	117.700	-0.168	-0.206
-502.683	-200.000	0.017	0.226
-501.668	-97.426	0.162	0.042
-500.653	-58.110	0.187	0.081
-499.639	99.056	0.117	0.135
-498.624	30.347	0.123	-0.105
-497.610	-94.276	-0.238	-0.065
-496.595	516.769	0.113	0.263
-495.581	-200.000	0.034	0.191
-494.566	156.038	-0.172	0.236
-493.551	45.342	0.148	0.136
-492.537	-200.000	0.020	0.421
-491.522	-149.918	0.386	-0.030
-490.508	30.043	-0.191	0.163
-489.493	-155.192	0.164	-0.011
-488.478	-81.337	0.110	0.036
-487.464	-102.572	0.340	0.081
-486.449	-90.107	0.304	0.088
-485.435	45.587	0.166	0.153
-484.420	86.629	-0.025	0.027
-483.405	-47.597	-0.153	-0.074
-482.391	-110.441	-0.237	-0.049
-481.376	800.000	0.081	-0.351
-480.362	-200.000	0.009	0.075
-479.347	34.913	-0.049	0.043
-478.332	-33.571	0.231	-0.127
-477.318	-148.556	0.168	0.014
-476.303	-30.909	0.091	-0.051
-475.289	-17.800	-0.197	0.124
-474.274	-82.427	-0.159	0.051
-473.259	-107.402	-0.100	0.022
-472.245	369.501	0.166	0.334
-471.230	72.356	0.151	-0.157
-470.216	-140.457	-0.341	0.035
-469.201	-200.000	-0.013	0.097
-468.186	-192.045	-0.454	-0.004
-467.172	-200.000	-0.015	0.273
-466.157	140.834	0.053	-0.070
-465.143	17.364	-0.143	0.113
-464.128	25.484	-0.167	0.138
-463.113	-45.197	0.154	0.076
-462.099	48.350	0.141	0.132
-461.084	117.686	-0.169	0.207
-460.070	-200.000	0.006	0.177
-459.055	90.672	-0.189	0.210
-458.040	29.442	0.030	0.025
-457.026	-94.193	0.207	-0.056
-456.011	800.000	-0.028	-0.094
-454.997	293.804	0.042	0.076
-453.982	-112.590	0.259	0.051
-452.968	-11.638	-0.158	-0.104
-451.953	104.985	-0.183	-0.215
-450.938	-96.358	-0.131	0.035
-449.924	-25.787	0.193	-0.113
-448.909	47.383	0.194	0.180
-447.895	11.914	-0.166	0.127
-446.880	-149.296	-0.321	-0.025
-445.865	52.729	-0.162	-0.154
-444.851	800.000	-0.011	-0.047
-443.836	179.647	0.070	0.102
-442.822	-200.000	-0.012	-0.118
-441.807	-55.055	0.128	0.058
-440.792	152.763	-0.106	-0.144
-439.778	-200.000	-0.024	0.297
-438.763	0.652	0.141	0.100
-437.749	-65.536	0.189	-0.076
-436.734	800.000	0.047	-0.141
-435.719	800.000	-0.081	0.229
-434.705	-200.000	0.013	0.143
-433.690	231.102	0.069	0.112
-432.676	-31.680	-0.170	0.095
-431.661	-106.644	0.328	0.073
-430.646	-33.187	-0.163	-0.090
-429.632	-200.000	0.014	0.096
-428.617	140.692	-0.081	0.106
-427.603	-200.000	0.070	-0.413
-426.588	28.096	-0.024	0.020
-425.573	-80.730	-0.241	0.080
-424.559	666.125	0.058	-0.149
-423.544	-142.141	-0.122	0.012
-422.530	-200.000	-0.011	0.186
-421.515	211.719	0.228	0.357
-420.500	30.516	-0.209	-0.178
-419.486	128.850	0.073	-0.092
-418.471	-46.667	0.304	-0.148
-417.457	-200.000	-0.005	-0.153
-416.442	-200.000	0.013	0.166
-415.428	-200.000	-0.015	-0.165
-414.413	800.000	0.068	0.211
-413.398	64.752	-0.030	-0.030
-412.384	758.078	-0.038	0.102
-411.369	-2.251	-0.099	-0.069
-410.355	-79.007	0.122	0.041
-409.340	-200.000	-0.027	0.165
-408.325	781.725	0.089	0.243
-407.311	232.147	0.016	-0.026
-406.296	12.265	-0.202	0.155
-405.282	-36.249	0.233	-0.125
-404.267	-200.000	0.234	0.001
-403.252	-132.286	-0.300	-0.039
-402.238	57.841	-0.089	-0.086
-401.223	-200.000	0.019	0.098
-400.209	-200.000	-0.008	0.129
-399.194	297.637	0.205	-0.375
-398.179	-115.134	-0.185	-0.035
-397.165	-163.566	-0.175	0.008
-396.150	-68.331	-0.248	0.096
-395.136	-200.000	0.008	-0.107
-394.121	87.789	0.339	0.373
-393.106	-39.974	-0.176	-0.091
-392.092	-127.950	0.334	0.048
-391.077	-55.162	-0.057	0.025
-390.063	-104.582	-0.161	-0.037
-389.048	-87.933	-0.307	0.092
-388.033	-171.450	-0.071	-0.002
-387.019	-200.000	-0.054	-0.239
-386.004	-200.000	-0.035	0.205
-384.990	-34.737	0.037	-0.020
-383.975	-109.149	-0.112	0.024
-382.960	800.000	0.123	0.360
-381.946	-112.461	0.207	-0.041
-380.931	-139.125	0.103	-0.011
-379.917	78.775	0.094	-0.100
-378.902	-19.251	-0.298	-0.184
-377.888	800.000	-0.066	-0.201
-376.873	-105.135	0.311	-0.071
-375.858	-93.521	0.092	0.025
-374.844	-42.823	-0.235	-0.119
-373.829	67.584	-0.031	0.032
-372.815	-38.615	0.111	0.058
-371.800	-200.000	0.033	0.154
-370.785	70.812	0.131	-0.135
-369.771	800.000	-0.068	-0.291
-368.756	-181.554	0.134	-0.003
-367.742	-200.000	0.034	-0.332
-366.727	5.933	0.195	0.144
-365.712	368.828	0.054	0.109
-364.698	90.548	0.239	-0.266
-363.683	93.889	-0.230	-0.259
-362.669	79.263	-0.113	0.120
-361.654	-156.523	0.033	-0.002
-360.639	83.326	0.268	0.290
-359.625	-200.000	-0.036	-0.166
-358.610	14.251	-0.112	-0.086
-357.596	641.190	0.083	0.210
-356.581	-83.585	-0.190	-0.060
-355.566	51.187	0.061	-0.058
-354.552	-34.420	0.132	-0.072
-353.537	-156.776	0.218	0.013
-352.523	-200.000	-0.012	-0.122
-351.508	572.645	-0.102	0.247
-350.493	-48.689	-0.136	0.065
-349.479	105.386	0.056	-0.066
-348.464	-200.000	-0.268	-0.001
-347.450	-200.000	0.024	-0.107
-346.435	181.251	0.168	-0.245
-345.420	135.056	0.227	-0.292
-344.406	682.057	0.053	-0.137
-343.391	-123.165	-0.205	-0.033
-342.377	800.000	-0.073	0.208
-341.362	29.505	0.262	0.221
-340.348	-89.137	0.190	-0.056
-339.333	268.994	0.121	-0.210
-338.318	-92.818	0.249	0.069
-337.304	800.000	-0.088	0.309
-336.289	137.084	0.135	0.175
-335.275	800.000	-0.099	0.314
-334.260	-48.696	-0.222	-0.106
-333.245	-121.697	-0.168	0.028
-332.231	-107.817	0.181	-0.039
-331.216	112.302	0.138	-0.165
-330.202	158.882	0.192	0.264
-329.187	800.000	0.037	-0.124
-328.172	-71.066	-0.335	-0.125
-327.158	6.208	0.100	-0.073
-326.143	-53.235	0.042	-0.019
-325.129	-12.409	-0.275	-0.178
-324.114	436.445	-0.042	0.091
-323.099	647.564	0.053	0.135
-322.085	-49.141	0.184	-0.087
-321.070	49.579	-0.078	-0.073
-320.056	-25.027	0.308	-0.181
-319.041	-138.100	-0.052	-0.006
-318.026	800.000	0.085	0.322
-317.012	-200.000	-0.001	0.083
-315.997	75.079	0.184	-0.192
-314.983	87.142	0.078	-0.085
-313.968	26.745	0.132	0.109
-312.953	-89.762	0.220	0.064
-311.939	82.521	0.151	0.162
-310.924	-18.136	-0.142	-0.088
-309.910	-128.175	-0.222	0.031
-308.895	-138.077	-0.145	0.016
-307.880	-132.895	0.231	0.029
-306.866	-60.497	-0.411	0.173
-305.851	-200.000	-0.011	0.257
-304.837	713.610	0.041	0.108
-303.822	800.000	-0.096	0.386
-302.807	166.816	0.114	-0.160
-301.793	-177.967	-0.280	0.007
-300.778	227.493	0.085	0.136
-299.764	-87.632	0.194	-0.058
-298.749	-200.000	0.056	0.355
-297.735	-98.537	-0.098	-0.025
-296.720	-89.258	-0.177	-0.052
-295.705	-14.519	-0.046	0.029
-294.691	-102.485	-0.240	0.057
-293.676	160.445	0.159	-0.220
-292.662	220.221	0.087	-0.138
-291.647	-21.717	0.152	0.092
-290.632	83.153	-0.132	0.142
-289.618	-200.000	0.015	-0.155
-288.603	-19.422	-0.111	-0.068
-287.589	-102.663	0.381	0.090
-286.574	256.208	-0.020	0.034
-285.559	-200.000	-0.033	0.167
-284.545	32.942	0.175	0.150
-283.530	-200.000	-0.013	-0.335
-282.516	-7.317	0.244	-0.163
-281.501	-146.566	0.333	-0.029
-280.486	57.264	-0.162	-0.156
-279.472	-200.000	-0.008	-0.103
-278.457	-88.925	0.465	0.136
-277.443	-39.676	-0.077	0.040
-276.428	-200.000	-0.014	-0.106
-275.413	52.034	0.108	0.102
-274.399	-68.532	-0.050	-0.019
-273.384	-200.000	0.022	0.231
-272.370	800.000	-0.071	-0.242
-271.355	221.535	0.203	-0.323
-270.340	-187.032	0.021	-0.000
-269.326	-200.000	0.051	0.477
-268.311	30.110	-0.300	-0.254
-267.297	-90.399	0.227	-0.065
-266.282	232.472	0.012	-0.019
-265.267	44.047	0.058	0.053
-264.253	800.000	-0.037	0.158
-263.238	-20.537	-0.064	0.039
-262.224	18.501	-0.068	-0.054
-261.209	444.033	0.092	0.199
-260.195	252.593	-0.019	-0.032
-259.180	-69.814	0.437	0.165
-258.165	-200.000	-0.016	0.115
-257.151	-200.000	0.061	-0.282
-256.136	-87.985	-0.256	-0.076
-255.122	-71.620	0.206	-0.076
-254.107	-59.419	0.150	0.064
-253.092	610.308	0.034	0.083
-252.078	800.000	0.038	-0.131
-251.063	158.156	0.090	-0.123
-250.049	-200.000	0.050	0.311
-249.034	120.689	0.129	0.159
-248.019	315.615	-0.125	-0.233
-247.005	-5.442	-0.241	-0.163
-245.990	-31.317	0.057	0.032
-244.976	676.138	0.065	-0.167
-243.961	65.908	0.078	0.079
-242.946	4.568	0.169	0.123
-241.932	-200.000	0.020	0.279
-240.917	-80.855	-0.250	-0.082
-239.903	800.000	0.119	-0.420
-238.888	-78.078	0.306	0.104
-237.873	15.097	-0.364	0.281
-236.859	-200.000	-0.020	-0.113
-235.844	20.527	0.362	-0.289
-234.830	39.740	-0.141	-0.125
-233.815	640.175	0.052	-0.130
-232.800	224.568	0.189	0.301
-231.786	607.102	-0.130	-0.320
-230.771	164.640	-0.120	0.168
-229.757	-200.000	-0.033	0.282
-228.742	-33.998	0.046	0.025
-227.727	800.000	-0.017	-0.061
-226.713	151.973	0.176	-0.237
-225.698	-200.000	-0.002	0.224
-224.684	152.656	0.047	-0.063
-223.669	-10.725	0.159	0.104
-222.655	-161.155	-0.134	0.007
-221.640	259.874	0.153	-0.260
-220.625	179.063	0.174	-0.251
-219.611	624.631	0.056	-0.139
-218.596	-94.137	-0.422	-0.114
-217.582	-23.467	0.377	0.224
-216.567	-200.000	0.022	0.102
-215.552	-153.853	-0.184	-0.012
-214.538	-63.964	0.090	-0.036
-213.523	800.000	-0.057	0.193
-212.509	108.925	0.103	-0.122
-211.494	-118.853	0.100	0.017
-210.479	-200.000	-0.023	-0.142
-209.465	-130.077	-0.265	-0.036
-208.450	-87.908	-0.235	0.070
-207.436	-200.000	0.011	-0.069
-206.421	166.026	0.059	-0.083
-205.406	-124.274	-0.143	-0.022
-204.392	-200.000	0.003	-0.092
-203.377	338.136	0.091	-0.175
-202.363	-200.000	-0.036	-0.235
-201.348	-32.767	0.241	0.132
-200.333	-105.505	-0.261	0.058
-199.319	-8.896	-0.113	0.075
-198.304	-200.000	0.029	0.155
-197.290	220.870	0.122	0.193
-196.275	362.897	-0.038	0.075
-195.260	-84.847	0.153	-0.047
-194.246	-146.228	0.061	0.005
-193.231	-132.359	-0.104	-0.013
-192.217	-117.488	-0.171	0.030
-191.202	-39.604	-0.083	0.043
-190.187	-174.449	-0.243	-0.007
-189.173	-200.000	0.055	-0.411
-188.158	-8.051	-0.208	-0.138
-187.144	800.000	0.067	0.223
-186.129	-139.961	0.300	-0.031
-185.114	-133.091	-0.243	0.030
-184.100	-25.733	0.220	-0.128
-183.085	-7.666	-0.161	0.108
-182.071	800.000	0.097	0.374
-181.056	116.349	0.142	-0.171
-180.042	-151.218	-0.166	0.012
-179.027	800.000	-0.043	0.127
-178.012	-116.418	-0.153	0.028
-176.998	-200.000	-0.012	0.210
-175.983	-156.428	0.259	-0.016
-174.969	-139.815	0.294	-0.031
-173.954	-107.753	0.035	-0.008
-172.939	-17.708	-0.068	-0.042
-171.925	75.097	0.104	-0.108
-170.910	-200.000	-0.001	-0.181
-169.896	381.029	0.145	-0.293
-168.881	24.820	-0.156	0.127
-167.866	126.638	-0.119	-0.149
-166.852	178.293	-0.152	-0.218
-165.837	40.439	-0.051	0.046
-164.823	-33.057	0.268	-0.146
-163.808	206.629	0.155	0.237
-162.793	152.121	-0.278	0.374
-161.779	-12.424	-0.308	-0.198
-160.764	-200.000	-0.004	-0.141
-159.750	-175.799	-0.234	0.006
-158.735	-124.879	-0.080	-0.012
-157.720	-107.634	-0.215	0.046
-156.706	-200.000	-0.009	-0.106
-155.691	55.887	-0.255	-0.244
-154.677	-126.044	0.168	-0.025
-153.662	-121.149	-0.140	-0.023
-152.647	-78.293	0.295	0.100
-151.633	148.738	-0.070	-0.093
-150.618	-200.000	0.046	0.532
-149.604	-54.714	0.202	0.090
-148.589	800.000	0.097	0.339
-147.574	-200.000	-0.018	-0.127
-146.560	-200.000	0.007	0.336
-145.545	-110.986	0.346	0.070
-144.531	14.368	-0.121	0.093
-143.516	-52.294	-0.266	0.121
-142.502	-46.393	0.226	-0.109
-141.487	-135.477	-0.485	0.057
-140.472	-165.231	0.215	-0.009
-139.458	-159.578	-0.205	-0.011
-138.443	-200.000	-0.036	-0.206
-137.429	-20.948	0.647	0.390
-136.414	46.276	-0.160	0.146
-135.399	-200.000	-0.010	-0.049
-134.385	77.621	-0.261	0.273
-133.370	-131.703	0.238	-0.031
-132.356	-200.000	-0.009	0.148
-131.341	-39.379	-0.217	-0.112
-130.326	62.798	0.142	-0.140
-129.312	-108.087	-0.084	-0.018
-128.297	192.388	-0.157	-0.233
-127.283	-60.894	0.076	-0.032
-126.268	68.240	-0.236	0.238
-125.253	-200.000	-0.036	0.289
-124.239	-124.044	0.149	-0.023
-123.224	282.439	-0.113	-0.200
-122.210	532.840	0.149	0.348
