DTS Sentinel unit serial number:	SN413079Multiplexer serial number:	ORYXHardware model number:	OX4-SRSoftware version number:	ORYX F/W v4.00 Oryx Data Collector v3.7.2.0data status	okinstallation	princeton_trtdifferential loss correction	single-endedforward channel	channel 2reverse channel	N/Adate	2019/09/14time	16:07:35forward acquisition time	60.00reverse acquisition time	0.00gamma	496.2192k internal	0.2306k external	0.2306temperature offset calibration	1.0133default loss term (dB/km)	0.3790temperature slope calibration	1.0000multiplexer offset coefficient	1.0000multiplexer slope coefficient	1.0000fibre end	0.00T internal ref (°C)	38.37T ext. ref 1 (°C)	5.09T ext. ref 2 (°C)	33.04length (m)	temperature (°C)	Stokes	anti-Stokes-747.200	136.108	-0.137	-0.182
-746.185	-52.760	-0.135	0.063
-745.171	-200.000	0.032	-0.220
-744.156	26.271	-0.182	-0.155
-743.142	-200.000	0.005	0.177
-742.127	800.000	-0.106	-0.337
-741.112	150.998	-0.087	-0.120
-740.098	-122.198	0.086	-0.014
-739.083	108.772	0.265	0.322
-738.069	353.623	0.087	0.176
-737.054	633.955	0.106	0.273
-736.039	-200.000	-0.000	-0.423
-735.025	6.102	0.211	-0.159
-734.010	247.388	-0.057	-0.098
-732.996	-34.868	-0.208	-0.115
-731.981	24.333	0.188	0.158
-730.966	166.898	0.124	-0.179
-729.952	81.922	0.076	-0.084
-728.937	-100.217	-0.218	-0.055
-727.923	-200.000	0.040	0.216
-726.908	-40.702	0.215	-0.113
-725.894	11.504	0.147	0.115
-724.879	-138.033	0.264	-0.030
-723.864	-128.259	0.097	0.014
-722.850	-101.067	-0.081	-0.020
-721.835	-27.781	-0.129	-0.076
-720.821	-112.858	0.235	-0.047
-719.806	-32.624	-0.187	-0.106
-718.791	800.000	0.052	-0.180
-717.777	-49.816	0.051	0.025
-716.762	-200.000	-0.037	0.241
-715.748	-140.412	0.339	0.036
-714.733	27.051	-0.238	-0.203
-713.718	392.563	0.100	0.212
-712.704	-37.124	0.108	-0.059
-711.689	-200.000	-0.075	-0.588
-710.675	1.966	0.077	-0.056
-709.660	520.527	0.035	-0.084
-708.645	318.030	-0.112	-0.216
-707.631	-33.805	-0.188	0.105
-706.616	-49.441	0.143	-0.069
-705.602	-47.008	-0.078	0.039
-704.587	-200.000	-0.005	0.113
-703.572	800.000	-0.019	-0.067
-702.558	-77.744	0.093	-0.033
-701.543	-52.994	0.180	-0.084
-700.529	2.591	-0.226	-0.166
-699.514	-143.436	0.283	-0.027
-698.499	-62.651	-0.414	-0.174
-697.485	415.533	0.119	-0.258
-696.470	755.929	-0.016	-0.045
-695.456	-200.000	-0.005	0.141
-694.441	-200.000	0.001	0.166
-693.426	78.508	0.133	-0.144
-692.412	122.622	-0.228	0.289
-691.397	30.082	0.108	-0.094
-690.383	61.594	-0.187	0.189
-689.368	-111.706	0.072	0.015
-688.354	-200.000	-0.023	-0.151
-687.339	790.639	-0.076	-0.211
-686.324	800.000	0.023	-0.090
-685.310	92.803	-0.135	-0.155
-684.295	330.938	-0.156	-0.305
-683.281	-200.000	-0.038	-0.189
-682.266	-200.000	-0.033	0.171
-681.251	564.679	-0.017	-0.043
-680.237	306.413	-0.078	0.148
-679.222	-43.848	0.208	0.106
-678.208	-200.000	0.003	-0.014
-677.193	347.931	-0.106	-0.212
-676.178	279.257	0.034	-0.061
-675.164	-152.997	0.243	-0.017
-674.149	196.224	-0.221	-0.342
-673.135	6.596	0.249	-0.187
-672.120	221.882	0.094	0.153
-671.105	249.333	0.139	-0.240
-670.091	-200.000	-0.011	-0.102
-669.076	-38.297	0.179	0.096
-668.062	-200.000	-0.010	-0.103
-667.047	-200.000	0.022	-0.122
-666.032	212.819	0.133	0.213
-665.018	94.435	0.055	0.063
-664.003	106.111	0.134	0.160
-662.989	242.298	-0.184	0.313
-661.974	104.617	-0.005	-0.006
-660.959	-98.376	0.103	-0.027
-659.945	128.724	0.156	0.201
-658.930	-14.410	0.102	-0.066
-657.916	82.589	0.059	-0.065
-656.901	-148.367	0.349	0.029
-655.886	-200.000	-0.051	-0.246
-654.872	-15.532	-0.354	0.229
-653.857	-200.000	-0.012	0.296
-652.843	-21.034	-0.128	0.079
-651.828	-114.541	0.113	-0.022
-650.814	-168.725	0.356	0.014
-649.799	0.128	-0.392	0.284
-648.784	-200.000	0.006	0.048
-647.770	-7.073	-0.140	0.096
-646.755	-175.330	0.059	-0.002
-645.741	158.755	-0.168	-0.236
-644.726	221.464	-0.247	0.403
-643.711	418.084	0.052	0.113
-642.697	-50.374	0.180	-0.086
-641.682	-120.944	-0.340	-0.058
-640.668	-116.728	0.152	-0.028
-639.653	326.013	0.097	0.187
-638.638	-200.000	-0.014	-0.085
-637.624	-200.000	-0.016	-0.211
-636.609	800.000	-0.084	-0.274
-635.595	-170.742	0.095	0.003
-634.580	92.234	0.046	0.053
-633.565	14.211	0.187	0.147
-632.551	269.624	-0.080	-0.142
-631.536	-78.263	0.268	0.093
-630.522	-143.369	0.139	-0.014
-629.507	-39.349	-0.345	-0.183
-628.492	800.000	-0.021	0.078
-627.478	437.737	0.123	-0.271
-626.463	588.183	0.114	-0.284
-625.449	-155.683	0.126	0.008
-624.434	-35.438	0.084	0.046
-623.419	4.810	-0.046	0.035
-622.405	-200.000	-0.003	-0.102
-621.390	48.553	-0.118	-0.112
-620.376	-74.320	0.190	-0.069
-619.361	402.348	-0.077	0.164
-618.346	-173.482	-0.263	-0.008
-617.332	257.839	0.107	0.187
-616.317	33.940	-0.089	-0.078
-615.303	76.274	0.045	0.048
-614.288	-170.213	0.269	0.010
-613.273	361.579	0.154	0.313
-612.259	-200.000	0.000	-0.182
-611.244	-96.548	-0.381	-0.102
-610.230	-200.000	0.016	-0.234
-609.215	654.266	0.092	0.240
-608.201	800.000	0.066	-0.199
-607.186	-200.000	0.022	0.260
-606.171	347.890	-0.057	0.114
-605.157	800.000	-0.122	-0.447
-604.142	-120.684	0.331	-0.057
-603.128	789.301	-0.172	-0.479
-602.113	160.994	-0.091	-0.129
-601.098	-102.376	0.420	-0.102
-600.084	-74.656	-0.359	0.131
-599.069	99.430	0.085	-0.099
-598.055	135.459	0.160	0.210
-597.040	-69.806	-0.276	-0.107
-596.025	-200.000	-0.043	-0.263
-595.011	413.862	0.042	0.091
-593.996	215.652	-0.059	-0.094
-592.982	-70.985	0.054	0.021
-591.967	-87.426	-0.271	0.083
-590.952	800.000	0.177	-0.595
-589.938	63.141	-0.100	0.102
-588.923	140.129	0.057	0.076
-587.909	-26.497	0.464	0.275
-586.894	222.945	-0.230	0.375
-585.879	-200.000	0.067	-0.362
-584.865	114.433	-0.107	-0.132
-583.850	-134.422	0.068	0.008
-582.836	-103.552	0.222	-0.053
-581.821	-19.106	-0.183	-0.115
-580.806	-160.668	-0.242	-0.013
-579.792	646.856	-0.086	0.223
-578.777	27.682	-0.098	-0.084
-577.763	-200.000	0.025	-0.141
-576.748	-200.000	0.009	0.093
-575.733	121.453	0.144	-0.182
-574.719	315.102	-0.096	-0.182
-573.704	-200.000	0.026	-0.340
-572.690	156.438	0.043	0.060
-571.675	-45.520	0.316	-0.158
-570.661	-200.000	0.051	-0.269
-569.646	116.132	0.107	-0.132
-568.631	46.406	-0.129	-0.121
-567.617	-200.000	-0.016	-0.286
-566.602	-139.241	0.175	0.019
-565.588	-127.931	0.240	0.035
-564.573	4.856	0.117	-0.087
-563.558	574.545	-0.077	-0.190
-562.544	153.601	0.134	-0.185
-561.529	331.304	-0.029	-0.056
-560.515	10.671	0.114	-0.087
-559.500	-200.000	-0.005	0.190
-558.485	-200.000	0.026	-0.318
-557.471	800.000	0.066	0.224
-556.456	42.043	0.279	0.256
-555.442	-200.000	-0.013	0.248
-554.427	-43.107	-0.096	0.049
-553.412	-200.000	-0.028	0.159
-552.398	-65.033	-0.149	0.061
-551.383	-96.919	-0.092	0.024
-550.369	134.387	-0.321	0.421
-549.354	-200.000	-0.023	0.159
-548.339	140.708	-0.149	0.199
-547.325	102.806	-0.033	-0.039
-546.310	148.603	0.161	0.220
-545.296	-166.704	-0.184	0.008
-544.281	500.519	-0.041	0.095
-543.266	-23.974	0.171	0.103
-542.252	-60.899	0.126	0.054
-541.237	330.084	-0.127	0.248
-540.223	3.139	-0.198	-0.145
-539.208	-200.000	0.021	0.224
-538.193	-29.840	-0.207	-0.119
-537.179	800.000	-0.088	0.283
-536.164	-25.518	0.148	0.088
-535.150	-59.301	0.130	0.056
-534.135	509.600	0.135	0.318
-533.121	-96.894	0.194	-0.051
-532.106	320.562	0.093	0.179
-531.091	800.000	0.018	-0.056
-530.077	-112.564	0.232	-0.047
-529.062	781.433	-0.013	-0.035
-528.048	-200.000	-0.018	0.160
-527.033	-84.670	-0.510	0.162
-526.018	-116.819	0.291	0.054
-525.004	92.060	-0.175	-0.198
-523.989	-200.000	-0.036	0.300
-522.975	-49.951	-0.155	-0.074
-521.960	-200.000	-0.015	-0.428
-520.945	99.844	0.186	0.217
-519.931	-60.503	-0.242	0.104
-518.916	71.873	0.177	0.186
-517.902	-81.965	0.101	-0.033
-516.887	-200.000	-0.012	-0.098
-515.872	288.484	-0.040	-0.074
-514.858	-134.626	-0.278	-0.034
-513.843	204.046	0.124	-0.193
-512.829	-200.000	-0.013	0.076
-511.814	-139.646	-0.370	-0.040
-510.799	200.505	0.181	0.280
-509.785	707.044	0.029	0.078
-508.770	-22.192	0.140	0.086
-507.756	-32.944	-0.301	0.169
-506.741	-113.689	-0.230	0.045
-505.726	509.043	-0.120	-0.281
-504.712	-200.000	0.017	-0.375
-503.697	-61.746	0.245	-0.104
-502.683	40.877	-0.299	-0.272
-501.668	-7.160	0.120	0.082
-500.653	800.000	0.040	-0.162
-499.639	800.000	0.076	-0.257
-498.624	9.184	-0.083	0.063
-497.610	-137.965	0.043	-0.005
-496.595	-200.000	0.001	-0.287
-495.581	800.000	0.019	0.080
-494.566	31.933	-0.048	-0.042
-493.551	-200.000	0.009	-0.327
-492.537	119.787	0.272	0.340
-491.522	65.815	-0.197	0.201
-490.508	4.531	0.100	-0.074
-489.493	-116.784	0.084	-0.016
-488.478	-8.420	0.118	0.080
-487.464	147.817	0.122	0.166
-486.449	-200.000	-0.058	0.404
-485.435	-13.377	-0.104	-0.068
-484.420	27.360	0.181	0.153
-483.405	258.598	0.131	0.227
-482.391	800.000	0.031	-0.128
-481.376	-4.697	-0.140	-0.098
-480.362	274.386	-0.077	0.136
-479.347	-2.071	-0.122	0.086
-478.332	-110.324	-0.318	-0.067
-477.318	227.820	0.114	-0.186
-476.303	71.056	-0.256	0.267
-475.289	361.598	-0.118	-0.237
-474.274	27.149	-0.139	-0.117
-473.259	-130.851	0.200	-0.027
-472.245	21.085	-0.138	0.112
-471.230	146.431	0.041	0.056
-470.216	415.158	0.015	-0.031
-469.201	-200.000	0.001	0.292
-468.186	262.942	0.178	0.312
-467.172	-125.281	-0.131	0.020
-466.157	-30.086	-0.304	-0.174
-465.143	-43.677	-0.346	-0.175
-464.128	-110.989	0.207	0.043
-463.113	-200.000	-0.011	0.210
-462.099	-200.000	-0.006	0.090
-461.084	230.403	0.223	-0.367
-460.070	-200.000	-0.014	-0.176
-459.055	97.450	0.047	-0.054
-458.040	800.000	0.051	-0.176
-457.026	-68.986	0.131	-0.051
-456.011	-87.500	-0.133	-0.040
-454.997	250.204	-0.271	-0.462
-453.982	-200.000	-0.058	-0.257
-452.968	-115.817	0.296	0.056
-451.953	-200.000	0.045	-0.289
-450.938	-200.000	0.041	-0.268
-449.924	-36.622	0.138	0.075
-448.909	-200.000	-0.066	-0.335
-447.895	27.392	-0.141	0.119
-446.880	-200.000	-0.002	-0.155
-445.865	-98.316	-0.113	-0.029
-444.851	78.016	0.024	0.026
-443.836	-31.132	-0.039	-0.022
-442.822	5.420	0.141	-0.105
-441.807	-77.561	0.233	-0.081
-440.792	154.612	-0.100	-0.138
-439.778	402.474	0.142	0.300
-438.763	487.600	-0.118	0.271
-437.749	-200.000	0.025	0.132
-436.734	-108.256	-0.116	-0.025
-435.719	-200.000	0.014	-0.108
-434.705	115.106	-0.307	-0.376
-433.690	-48.384	-0.104	0.050
-432.676	-132.306	0.360	-0.047
-431.661	800.000	-0.052	-0.174
-430.646	-125.970	-0.368	-0.056
-429.632	-104.242	-0.178	0.042
-428.617	296.253	-0.070	-0.129
-427.603	124.393	-0.123	0.156
-426.588	800.000	0.027	-0.075
-425.573	345.713	-0.129	-0.254
-424.559	440.347	0.137	-0.300
-423.544	800.000	0.046	-0.200
-422.530	71.770	-0.158	-0.165
-421.515	800.000	-0.053	-0.151
-420.500	-200.000	-0.015	0.114
-419.486	-200.000	-0.005	-0.142
-418.471	268.004	0.178	0.313
-417.457	800.000	-0.001	-0.003
-416.442	412.458	0.023	0.048
-415.428	219.554	-0.060	0.096
-414.413	-51.168	0.116	-0.055
-413.398	256.025	0.075	-0.129
-412.384	61.253	0.200	0.200
-411.369	106.916	0.173	0.206
-410.355	-45.068	0.336	-0.168
-409.340	328.526	0.029	0.055
-408.325	59.515	0.133	0.132
-407.311	-144.151	0.235	-0.022
-406.296	484.516	0.069	-0.158
-405.282	77.064	-0.176	-0.188
-404.267	306.468	-0.101	0.189
-403.252	205.180	0.148	-0.231
-402.238	5.511	0.054	-0.040
-401.223	-50.248	0.067	-0.032
-400.209	-200.000	-0.014	-0.105
-399.194	370.373	0.071	-0.145
-398.179	127.444	-0.078	-0.099
-397.165	180.562	-0.202	0.297
-396.150	3.882	0.284	0.208
-395.136	800.000	0.074	-0.242
-394.121	149.236	0.046	0.063
-393.106	-13.516	0.418	-0.272
-392.092	473.108	0.054	0.123
-391.077	-99.245	-0.087	-0.022
-390.063	-142.524	-0.213	-0.021
-389.048	-18.088	-0.165	0.104
-388.033	-87.960	0.204	0.062
-387.019	672.319	-0.098	0.255
-386.004	7.228	0.182	-0.136
-384.990	148.715	-0.225	0.305
-383.975	-200.000	0.001	0.168
-382.960	37.324	-0.174	0.154
-381.946	57.595	0.151	0.148
-380.931	224.125	-0.174	0.282
-379.917	800.000	0.122	0.346
-378.902	25.471	0.243	0.203
-377.888	-148.940	0.107	0.009
-376.873	78.215	-0.240	0.257
-375.858	275.235	0.076	-0.134
-374.844	36.766	-0.065	0.058
-373.829	-151.814	0.211	-0.016
-372.815	-21.834	-0.118	0.072
-371.800	-200.000	-0.013	-0.058
-370.785	-11.110	-0.308	-0.204
-369.771	-200.000	-0.048	-0.214
-368.756	-45.527	0.465	-0.231
-367.742	-200.000	0.038	-0.199
-366.727	800.000	-0.070	0.248
-365.712	123.772	0.138	0.173
-364.698	-200.000	0.050	0.361
-363.683	230.090	0.140	-0.229
-362.669	293.787	-0.178	-0.326
-361.654	-93.686	-0.302	0.083
-360.639	45.037	-0.274	-0.253
-359.625	-19.314	0.118	-0.073
-358.610	138.599	0.065	-0.086
-357.596	174.485	0.178	-0.258
-356.581	-200.000	0.012	0.085
-355.566	154.629	0.258	0.355
-354.552	800.000	-0.042	0.174
-353.537	-6.894	-0.192	0.130
-352.523	4.039	0.225	-0.165
-351.508	669.857	0.031	-0.080
-350.493	636.027	0.102	0.261
-349.479	-101.634	0.109	0.026
-348.464	91.974	-0.135	0.152
-347.450	-37.754	0.072	0.038
-346.435	527.369	0.049	0.117
-345.420	-46.665	0.157	0.077
-344.406	-88.076	0.138	-0.042
-343.391	-2.773	-0.278	-0.195
-342.377	-73.421	-0.062	0.023
-341.362	800.000	-0.066	0.280
-340.348	-200.000	0.075	-0.552
-339.333	380.328	0.047	-0.096
-338.318	-117.102	-0.195	0.036
-337.304	747.048	0.039	-0.105
-336.289	-200.000	0.002	-0.042
-335.275	-2.003	0.177	0.124
-334.260	53.114	0.242	-0.232
-333.245	800.000	-0.035	-0.124
-332.231	-19.580	-0.151	0.094
-331.216	-125.198	-0.354	-0.054
-330.202	565.270	-0.095	0.230
-329.187	-144.125	-0.137	0.013
-328.172	740.735	-0.078	0.209
-327.158	-60.702	0.151	-0.064
-326.143	-57.463	0.052	-0.023
-325.129	-200.000	-0.052	0.274
-324.114	-60.508	0.145	0.062
-323.099	382.171	-0.053	0.110
-322.085	145.144	0.087	-0.117
-321.070	337.931	0.085	0.165
-320.056	72.679	0.236	0.246
-319.041	-70.178	0.236	0.090
-318.026	38.443	-0.014	-0.012
-317.012	-65.359	-0.354	-0.143
-315.997	-68.331	0.114	-0.044
-314.983	-55.505	-0.239	-0.107
-313.968	9.685	-0.029	0.022
-312.953	89.348	-0.156	-0.174
-311.939	-198.395	0.464	0.003
-310.924	800.000	-0.079	0.242
-309.910	401.184	-0.034	0.071
-308.895	-74.666	0.102	0.037
-307.880	-122.180	-0.351	0.058
-306.866	800.000	0.064	0.226
-305.851	800.000	0.053	-0.154
-304.837	-200.000	-0.006	-0.103
-303.822	-161.509	-0.283	-0.015
-302.807	-153.007	-0.340	0.024
-301.793	206.166	-0.102	-0.159
-300.778	32.048	-0.064	-0.055
-299.764	-0.912	0.109	-0.077
-298.749	-200.000	-0.052	0.304
-297.735	-104.708	0.082	0.019
-296.720	-20.312	0.107	0.066
-295.705	-200.000	0.018	0.103
-294.691	-200.000	0.005	-0.026
-293.676	800.000	0.027	-0.093
-292.662	243.294	-0.233	-0.390
-291.647	-89.913	0.247	-0.072
-290.632	-68.034	0.085	-0.033
-289.618	-200.000	-0.011	-0.120
-288.603	-129.939	-0.183	-0.025
-287.589	-200.000	-0.044	-0.316
-286.574	-200.000	-0.048	-0.332
-285.559	-25.399	-0.166	0.098
-284.545	46.552	-0.159	-0.147
-283.530	-200.000	0.077	-0.483
-282.516	-200.000	0.045	-0.214
-281.501	-81.420	0.249	-0.082
-280.486	17.906	-0.198	0.158
-279.472	-200.000	-0.030	-0.325
-278.457	-21.425	0.158	0.097
-277.443	800.000	-0.074	-0.208
-276.428	-27.845	0.237	-0.137
-275.413	-100.986	0.089	-0.022
-274.399	91.109	-0.234	-0.262
-273.384	678.473	-0.049	-0.127
-272.370	-200.000	-0.054	-0.341
-271.355	-40.730	-0.191	0.099
-270.340	312.908	0.113	-0.212
-269.326	43.040	-0.093	-0.085
-268.311	94.367	-0.134	0.152
-267.297	-1.239	0.205	-0.144
-266.282	298.886	-0.055	0.100
-265.267	253.305	0.088	0.150
-264.253	92.623	-0.060	0.067
-263.238	-45.339	-0.273	-0.135
-262.224	122.538	-0.263	0.329
-261.209	-2.972	0.201	0.140
-260.195	-147.532	0.140	0.012
-259.180	-127.172	0.052	0.008
-258.165	-200.000	-0.027	0.364
-257.151	5.066	0.129	-0.094
-256.136	800.000	0.068	0.274
-255.122	-56.675	0.222	-0.098
-254.107	-200.000	-0.039	0.222
-253.092	335.020	-0.106	-0.204
-252.078	-130.362	0.203	0.027
-251.063	-153.268	-0.238	-0.017
-250.049	-109.414	0.265	0.056
-249.034	487.977	0.070	-0.158
-248.019	503.401	-0.091	-0.211
-247.005	523.773	-0.020	0.048
-245.990	31.329	-0.185	0.159
-244.976	448.555	-0.366	0.803
-243.961	464.144	0.122	0.271
-242.946	-200.000	0.038	-0.204
-241.932	197.783	-0.081	0.124
-240.917	-138.015	-0.432	-0.048
-239.903	800.000	-0.053	-0.210
-238.888	-200.000	-0.018	0.339
-237.873	213.165	0.181	0.285
-236.859	81.496	0.114	0.122
-235.844	62.360	-0.203	-0.202
-234.830	-200.000	0.030	-0.165
-233.815	-94.083	-0.185	0.050
-232.800	-18.058	0.245	0.153
-231.786	307.550	0.088	0.163
-230.771	-200.000	0.029	-0.133
-229.757	-7.570	0.096	-0.065
-228.742	-49.075	-0.029	-0.014
-227.727	203.870	0.167	0.258
-226.713	387.455	0.159	0.327
-225.698	74.069	-0.280	-0.293
-224.684	-200.000	-0.028	0.187
-223.669	-200.000	0.016	0.222
-222.655	-136.473	-0.315	0.036
-221.640	203.131	-0.049	0.076
-220.625	-96.924	-0.482	-0.126
-219.611	-200.000	0.042	-0.310
-218.596	34.133	0.071	0.062
-217.582	800.000	0.083	0.265
-216.567	98.786	-0.123	0.142
-215.552	-118.580	0.200	0.035
-214.538	-144.994	0.246	-0.022
-213.523	419.847	-0.069	0.148
-212.509	-45.174	0.242	-0.120
-211.494	17.845	0.014	0.011
-210.479	8.877	-0.194	0.146
-209.465	61.616	0.100	-0.099
-208.450	217.592	-0.086	-0.136
-207.436	-101.457	0.024	-0.006
-206.421	800.000	-0.048	0.206
-205.406	-180.743	-0.265	0.005
-204.392	-174.285	0.087	0.003
-203.377	-200.000	0.022	-0.108
-202.363	-65.715	-0.209	-0.083
-201.348	-26.144	-0.237	-0.139
-200.333	-11.474	0.038	0.025
-199.319	-43.043	-0.309	-0.156
-198.304	-182.043	0.197	0.004
-197.290	-59.305	0.363	0.156
-196.275	185.126	0.064	-0.095
-195.260	96.825	0.147	-0.168
-194.246	182.451	0.210	-0.308
-193.231	197.799	0.148	-0.225
-192.217	-11.665	-0.305	0.199
-191.202	-155.994	0.269	0.017
-190.187	142.917	0.048	0.064
-189.173	10.217	-0.282	0.214
-188.158	-93.698	-0.194	0.053
-187.144	-91.289	0.110	0.031
-186.129	-158.874	0.267	-0.015
-185.114	-200.000	-0.021	0.112
-184.100	-113.633	0.114	-0.022
-183.085	7.236	0.209	-0.155
-182.071	800.000	0.059	-0.171
-181.056	-12.816	-0.260	0.168
-180.042	29.181	0.132	0.111
-179.027	-82.254	0.294	0.095
-178.012	-59.480	0.578	0.247
-176.998	800.000	-0.072	-0.259
-175.983	366.036	-0.072	-0.145
-174.969	135.332	-0.081	-0.105
-173.954	800.000	0.072	0.209
-172.939	-200.000	-0.097	0.440
-171.925	-200.000	0.016	0.155
-170.910	251.404	0.122	-0.207
-169.896	-123.170	0.350	0.056
-168.881	800.000	0.082	0.290
-167.866	800.000	0.122	0.447
-166.852	-181.762	-0.292	-0.006
-165.837	129.258	0.297	0.378
-164.823	-157.227	0.176	-0.011
-163.808	800.000	0.013	0.040
-162.793	-152.984	-0.126	0.009
-161.779	87.001	-0.242	-0.266
-160.764	-200.000	0.022	0.204
-159.750	-24.490	0.106	0.063
-158.735	-190.494	-0.271	-0.003
-157.720	-15.238	-0.423	-0.269
-156.706	800.000	0.024	0.092
-155.691	-200.000	-0.021	-0.233
-154.677	212.643	0.143	0.225
-153.662	800.000	-0.047	0.169
-152.647	582.779	0.158	0.386
-151.633	81.479	-0.194	0.208
-150.618	-105.092	-0.223	0.051
-149.604	-71.652	0.266	-0.099
-148.589	-25.465	-0.032	0.019
-147.574	-114.560	0.097	-0.018
-146.560	7.692	0.086	0.064
-145.545	-200.000	-0.036	-0.371
-144.531	-200.000	0.051	0.350
-143.516	123.071	-0.152	0.189
-142.502	-200.000	0.025	-0.150
-141.487	317.971	0.106	0.200
-140.472	-136.744	-0.261	-0.030
-139.458	-93.650	-0.215	-0.059
-138.443	-0.461	-0.099	0.070
-137.429	-120.687	-0.338	-0.057
-136.414	-96.574	0.318	0.083
-135.399	-71.548	0.149	-0.055
-134.385	456.577	-0.029	0.064
-133.370	26.881	-0.276	-0.230
-132.356	-170.198	0.145	0.005
-131.341	-63.692	0.095	0.039
-130.326	-200.000	-0.011	0.192
-129.312	34.533	0.217	-0.188
-128.297	60.673	-0.245	0.241
-127.283	30.250	0.068	-0.058
-126.268	-200.000	-0.007	0.074
-125.253	-122.961	0.055	0.009
-124.239	-157.109	0.153	0.009
-123.224	28.914	0.018	-0.015
-122.210	793.694	0.041	0.112
-121.195	269.550	0.086	0.150
