DTS Sentinel unit serial number:	SN413079Multiplexer serial number:	ORYXHardware model number:	OX4-SRSoftware version number:	ORYX F/W v4.00 Oryx Data Collector v3.7.2.0data status	okinstallation	princeton_trtdifferential loss correction	single-endedforward channel	channel 2reverse channel	N/Adate	2019/09/13time	12:19:35forward acquisition time	60.00reverse acquisition time	0.00gamma	496.2192k internal	0.2315k external	0.2315temperature offset calibration	1.0214default loss term (dB/km)	0.3790temperature slope calibration	1.0000multiplexer offset coefficient	1.0000multiplexer slope coefficient	1.0000fibre end	0.00T internal ref (°C)	34.11T ext. ref 1 (°C)	4.62T ext. ref 2 (°C)	30.70length (m)	temperature (°C)	Stokes	anti-Stokes-747.200	-36.198	-0.128	0.070
-746.185	-162.957	-0.119	0.006
-745.171	104.294	-0.211	0.252
-744.156	-200.000	0.081	0.376
-743.142	456.695	0.074	0.166
-742.127	131.093	-0.368	0.478
-741.112	259.410	0.075	-0.131
-740.098	-200.000	0.052	0.354
-739.083	-2.797	-0.101	0.071
-738.069	-200.000	-0.027	0.285
-737.054	-146.434	0.556	-0.049
-736.039	13.440	-0.286	0.225
-735.025	-5.517	-0.132	0.092
-734.010	252.351	-0.152	-0.262
-732.996	-36.562	-0.216	-0.118
-731.981	95.560	-0.258	-0.298
-730.966	800.000	-0.014	0.046
-729.952	750.893	0.039	-0.107
-728.937	-70.027	-0.258	0.099
-727.923	250.575	-0.211	0.363
-726.908	41.947	-0.313	0.288
-725.894	-128.130	-0.378	-0.055
-724.879	65.386	-0.246	0.252
-723.864	-149.745	0.145	-0.012
-722.850	-200.000	0.012	-0.223
-721.835	552.867	0.052	0.126
-720.821	-75.298	-0.165	0.060
-719.806	-116.805	0.064	0.012
-718.791	-135.086	0.265	-0.032
-717.777	559.650	0.058	-0.143
-716.762	21.167	-0.116	-0.095
-715.748	-200.000	0.000	0.148
-714.733	800.000	0.040	0.144
-713.718	800.000	0.024	-0.087
-712.704	345.555	-0.017	0.034
-711.689	-115.465	-0.411	-0.078
-710.675	130.217	-0.254	-0.329
-709.660	-69.189	-0.256	-0.100
-708.645	168.149	0.286	-0.412
-707.631	-58.148	0.218	0.096
-706.616	-200.000	-0.020	0.231
-705.602	-184.430	-0.059	-0.001
-704.587	800.000	-0.027	0.077
-703.572	449.825	-0.088	0.197
-702.558	800.000	-0.014	0.040
-701.543	-36.475	0.247	-0.134
-700.529	-85.849	-0.104	-0.033
-699.514	97.144	-0.274	0.317
-698.499	51.366	-0.268	-0.258
-697.485	-138.073	0.189	0.021
-696.470	135.100	0.119	-0.157
-695.456	-92.797	-0.248	-0.070
-694.441	108.079	0.144	-0.174
-693.426	19.738	-0.280	0.228
-692.412	-154.543	-0.295	-0.020
-691.397	193.131	0.045	-0.068
-690.383	-200.000	-0.012	0.354
-689.368	-52.259	-0.080	-0.038
-688.354	8.770	-0.295	-0.225
-687.339	222.940	0.200	0.327
-686.324	-44.422	-0.046	-0.023
-685.310	-200.000	-0.038	0.361
-684.295	-53.910	0.057	-0.026
-683.281	430.356	-0.075	-0.164
-682.266	-200.000	0.050	-0.407
-681.251	193.190	0.085	-0.130
-680.237	-94.003	0.329	0.091
-679.222	-124.487	-0.162	-0.025
-678.208	722.415	0.108	-0.291
-677.193	-114.322	0.152	-0.030
-676.178	-104.079	-0.260	0.061
-675.164	-200.000	0.001	-0.168
-674.149	-31.662	0.149	-0.085
-673.135	-200.000	0.046	0.249
-672.120	472.208	-0.073	0.165
-671.105	-200.000	0.038	-0.245
-670.091	800.000	-0.082	-0.279
-669.076	197.554	-0.114	-0.175
-668.062	65.715	-0.128	0.131
-667.047	-101.175	0.087	-0.021
-666.032	120.672	-0.208	-0.262
-665.018	-200.000	0.001	-0.246
-664.003	-11.964	-0.072	-0.048
-662.989	-200.000	-0.015	0.226
-661.974	-98.833	-0.292	0.075
-660.959	34.889	-0.205	-0.181
-659.945	-200.000	0.066	-0.299
-658.930	14.041	0.143	0.113
-657.916	685.723	0.084	-0.220
-656.901	800.000	-0.119	-0.355
-655.886	-200.000	0.032	-0.323
-654.872	42.589	-0.272	-0.250
-653.857	128.405	-0.189	-0.243
-652.843	282.687	-0.090	0.162
-651.828	-200.000	-0.002	0.122
-650.814	-200.000	-0.003	-0.066
-649.799	-106.833	-0.034	0.008
-648.784	-200.000	-0.011	0.208
-647.770	35.360	-0.150	0.133
-646.755	800.000	0.045	0.128
-645.741	-200.000	0.005	-0.176
-644.726	-72.290	-0.059	0.022
-643.711	-75.353	0.107	-0.038
-642.697	-149.837	-0.087	-0.007
-641.682	264.642	0.098	-0.173
-640.668	-31.684	0.134	-0.076
-639.653	-44.876	-0.195	-0.098
-638.638	-106.113	0.163	0.037
-637.624	220.275	0.045	0.072
-636.609	-162.841	-0.216	-0.011
-635.595	-27.145	-0.142	0.083
-634.580	-200.000	-0.001	-0.259
-633.565	6.503	-0.322	-0.241
-632.551	-4.715	0.050	-0.035
-631.536	-110.218	0.107	0.022
-630.522	225.428	-0.110	-0.180
-629.507	582.068	-0.112	0.278
-628.492	-200.000	0.002	0.194
-627.478	800.000	-0.055	-0.228
-626.463	0.403	0.251	-0.181
-625.449	594.875	0.064	0.159
-624.434	-14.049	0.093	-0.060
-623.419	-138.563	0.182	0.020
-622.405	70.269	-0.318	0.332
-621.390	-88.547	0.299	-0.090
-620.376	-109.174	-0.079	-0.017
-619.361	-41.439	0.197	0.102
-618.346	-200.000	0.021	0.143
-617.332	32.218	0.237	0.206
-616.317	-24.032	0.144	0.087
-615.303	-200.000	-0.045	0.272
-614.288	267.339	-0.198	0.349
-613.273	115.154	-0.307	-0.378
-612.259	-147.270	0.022	0.002
-611.244	-60.406	-0.324	-0.139
-610.230	59.347	0.094	-0.093
-609.215	81.047	0.178	0.194
-608.201	-28.139	0.188	-0.109
-607.186	-116.960	0.484	-0.089
-606.171	-200.000	-0.011	-0.221
-605.157	-200.000	-0.030	0.187
-604.142	619.314	-0.079	-0.200
-603.128	-36.413	0.232	-0.126
-602.113	338.589	0.033	-0.064
-601.098	-76.483	-0.067	0.024
-600.084	503.239	-0.046	-0.107
-599.069	-76.769	0.370	0.130
-598.055	800.000	0.068	0.227
-597.040	279.576	0.088	-0.157
-596.025	666.640	-0.091	-0.236
-595.011	-145.319	-0.204	-0.019
-593.996	-90.692	-0.124	-0.036
-592.982	167.453	0.058	0.083
-591.967	71.827	0.045	0.047
-590.952	-34.868	0.104	0.057
-589.938	181.233	-0.252	-0.374
-588.923	-112.287	-0.260	-0.052
-587.909	58.554	0.135	-0.134
-586.894	-113.509	-0.148	0.029
-585.879	-131.667	-0.070	0.009
-584.865	-81.565	-0.275	-0.091
-583.850	800.000	0.048	-0.185
-582.836	-200.000	0.018	-0.182
-581.821	-169.336	-0.319	-0.012
-580.806	126.435	0.215	-0.274
-579.792	11.647	-0.052	-0.040
-578.777	-200.000	-0.021	0.214
-577.763	29.536	0.297	-0.254
-576.748	-200.000	0.001	0.090
-575.733	238.216	-0.046	0.077
-574.719	-74.061	0.260	0.095
-573.704	-19.580	0.309	-0.193
-572.690	-122.134	0.357	-0.059
-571.675	800.000	0.089	-0.297
-570.661	-200.000	0.040	0.208
-569.646	160.211	-0.097	0.137
-568.631	-200.000	-0.182	0.001
-567.617	-200.000	-0.058	-0.263
-566.602	54.097	-0.154	-0.149
-565.588	103.967	-0.168	-0.199
-564.573	228.723	0.033	-0.054
-563.558	-200.000	0.034	-0.215
-562.544	687.949	-0.088	-0.231
-561.529	-18.769	-0.093	-0.058
-560.515	-60.435	-0.110	-0.047
-559.500	40.173	-0.257	-0.233
-558.485	241.818	0.088	0.148
-557.471	43.048	-0.089	0.082
-556.456	59.242	0.190	-0.188
-555.442	-38.940	-0.128	-0.068
-554.427	-190.067	0.121	-0.001
-553.412	556.122	-0.139	0.336
-552.398	243.853	-0.177	0.299
-551.383	-200.000	-0.026	0.203
-550.369	-124.347	-0.241	-0.038
-549.354	-128.357	-0.087	0.012
-548.339	-87.511	-0.301	0.091
-547.325	106.452	0.113	-0.134
-546.310	-100.110	-0.104	-0.026
-545.296	-55.434	-0.059	-0.027
-544.281	-182.509	-0.312	0.006
-543.266	474.100	0.132	-0.300
-542.252	-47.311	-0.217	0.106
-541.237	-105.832	0.291	-0.066
-540.223	429.648	-0.059	0.129
-539.208	-18.434	0.096	0.060
-538.193	-61.269	0.300	0.127
-537.179	-62.146	0.265	-0.111
-536.164	-183.752	-0.088	-0.002
-535.150	-9.252	-0.052	0.035
-534.135	156.493	0.124	0.171
-533.121	800.000	-0.044	0.165
-532.106	-68.050	0.245	-0.096
-531.091	-34.115	-0.226	-0.125
-530.077	298.766	0.133	-0.246
-529.062	800.000	0.146	-0.447
-528.048	-58.628	0.051	-0.022
-527.033	-18.267	-0.241	0.151
-526.018	-71.993	-0.300	0.112
-525.004	-99.354	0.194	-0.049
-523.989	-200.000	0.018	0.187
-522.975	800.000	-0.019	0.085
-521.960	-10.396	-0.232	-0.154
-520.945	-200.000	0.041	0.231
-519.931	-200.000	-0.025	0.162
-518.916	800.000	-0.072	0.244
-517.902	-170.957	0.064	0.002
-516.887	118.395	-0.240	-0.297
-515.872	-200.000	0.010	0.153
-514.858	800.000	0.029	-0.101
-513.843	800.000	0.030	0.084
-512.829	-117.430	-0.270	0.049
-511.814	342.481	-0.093	-0.183
-510.799	-133.628	-0.256	0.032
-509.785	800.000	-0.084	-0.241
-508.770	-53.715	-0.455	-0.209
-507.756	20.429	-0.304	-0.247
-506.741	448.881	-0.094	-0.208
-505.726	-108.264	-0.294	0.064
-504.712	164.858	-0.044	-0.063
-503.697	148.680	-0.179	-0.242
-502.683	580.019	0.025	-0.061
-501.668	800.000	0.065	0.276
-500.653	-95.027	-0.083	0.023
-499.639	-200.000	0.000	0.364
-498.624	800.000	0.023	0.068
-497.610	-79.928	0.208	-0.070
-496.595	800.000	-0.158	0.464
-495.581	267.146	-0.070	0.123
-494.566	318.490	0.086	-0.163
-493.551	750.495	0.059	0.159
-492.537	110.572	-0.128	0.155
-491.522	252.533	-0.039	0.067
-490.508	29.339	-0.175	-0.149
-489.493	-200.000	-0.036	0.176
-488.478	-90.615	0.134	-0.039
-487.464	105.847	-0.148	-0.175
-486.449	609.006	0.019	-0.048
-485.435	-200.000	-0.001	-0.096
-484.420	800.000	0.069	-0.210
-483.405	-108.736	-0.129	0.028
-482.391	-200.000	0.021	0.224
-481.376	333.093	0.151	0.293
-480.362	-38.587	0.209	0.111
-479.347	315.285	0.128	0.241
-478.332	106.278	-0.139	0.165
-477.318	148.305	-0.069	0.093
-476.303	388.147	-0.081	0.167
-475.289	-145.616	-0.142	0.013
-474.274	-54.055	-0.249	-0.114
-473.259	-120.569	-0.055	-0.009
-472.245	112.991	0.061	0.074
-471.230	136.572	0.153	0.200
-470.216	-199.214	-0.123	0.001
-469.201	-73.562	0.183	0.067
-468.186	-103.485	0.161	-0.038
-467.172	-104.964	-0.191	0.044
-466.157	88.166	-0.250	-0.278
-465.143	-200.000	0.001	-0.226
-464.128	75.364	0.082	-0.086
-463.113	-58.031	0.199	0.087
-462.099	-50.027	-0.190	-0.090
-461.084	-200.000	-0.015	-0.122
-460.070	800.000	0.038	-0.136
-459.055	-3.369	-0.109	0.076
-458.040	37.294	0.132	-0.117
-457.026	800.000	-0.039	-0.164
-456.011	-200.000	0.020	-0.289
-454.997	-94.287	0.129	0.035
-453.982	-200.000	0.010	0.149
-452.968	-59.478	-0.099	-0.043
-451.953	27.933	0.200	0.169
-450.938	3.254	0.090	0.065
-449.924	404.279	0.086	0.181
-448.909	-183.985	-0.220	0.004
-447.895	-12.963	0.120	-0.078
-446.880	13.105	-0.208	-0.162
-445.865	-115.332	-0.235	-0.044
-444.851	147.276	0.149	0.200
-443.836	-134.528	-0.123	0.015
-442.822	-111.355	0.189	-0.039
-441.807	148.754	-0.182	-0.247
-440.792	-52.783	-0.343	-0.158
-439.778	-93.455	0.181	0.050
-438.763	128.686	-0.125	-0.160
-437.749	-200.000	0.003	-0.166
-436.734	-200.000	0.003	-0.086
-435.719	-1.877	-0.308	-0.217
-434.705	-86.911	0.437	-0.133
-433.690	-119.835	0.145	-0.025
-432.676	-200.000	-0.119	-0.639
-431.661	-200.000	-0.020	-0.147
-430.646	-188.133	-0.222	-0.003
-429.632	-45.973	0.037	0.018
-428.617	-38.301	0.205	-0.108
-427.603	77.207	-0.150	-0.160
-426.588	-200.000	0.007	-0.117
-425.573	221.303	-0.111	0.179
-424.559	-132.067	-0.201	-0.026
-423.544	337.522	0.059	0.114
-422.530	-200.000	0.020	-0.111
-421.515	800.000	-0.065	0.184
-420.500	-36.221	0.092	0.050
-419.486	-107.367	0.404	-0.089
-418.471	-62.052	0.136	0.057
-417.457	8.642	-0.270	0.203
-416.442	800.000	0.038	-0.124
-415.428	99.172	-0.089	-0.103
-414.413	800.000	0.005	-0.013
-413.398	247.764	-0.143	-0.241
-412.384	20.745	-0.254	0.206
-411.369	25.461	0.338	0.281
-410.355	-200.000	-0.046	-0.523
-409.340	58.993	-0.158	-0.155
-408.325	-0.185	-0.260	-0.185
-407.311	-103.011	0.285	-0.067
-406.296	800.000	-0.036	0.144
-405.282	800.000	0.080	-0.223
-404.267	797.361	0.043	0.120
-403.252	78.482	0.212	0.226
-402.238	-200.000	-0.030	-0.504
-401.223	77.977	-0.113	0.121
-400.209	-83.311	0.329	0.105
-399.194	-200.000	0.006	-0.252
-398.179	-139.640	0.078	0.008
-397.165	-75.853	0.282	0.100
-396.150	-200.000	0.036	0.264
-395.136	800.000	-0.061	0.231
-394.121	6.812	-0.127	-0.094
-393.106	800.000	-0.109	0.390
-392.092	36.545	-0.254	0.224
-391.077	-54.319	0.097	-0.044
-390.063	40.688	0.031	0.028
-389.048	-200.000	0.001	-0.046
-388.033	-112.493	0.351	0.070
-387.019	-200.000	0.014	0.109
-386.004	800.000	-0.087	0.247
-384.990	-90.248	-0.227	0.066
-383.975	184.570	0.209	-0.309
-382.960	-114.228	0.376	0.073
-381.946	67.230	-0.081	0.083
-380.931	-91.157	-0.176	-0.050
-379.917	105.633	-0.182	0.215
-378.902	-108.493	-0.275	0.059
-377.888	2.340	0.406	-0.294
-376.873	-58.063	-0.045	-0.020
-375.858	-55.995	0.274	-0.122
-374.844	-200.000	0.010	-0.173
-373.829	749.576	0.067	0.179
-372.815	-92.528	0.292	0.082
-371.800	-200.000	-0.003	0.114
-370.785	-87.316	0.255	0.077
-369.771	52.365	0.076	-0.072
-368.756	-200.000	0.012	0.058
-367.742	800.000	0.034	-0.098
-366.727	-63.061	-0.318	0.131
-365.712	800.000	0.042	-0.154
-364.698	-64.419	0.201	0.082
-363.683	-2.050	-0.058	0.040
-362.669	-20.540	0.206	-0.126
-361.654	-200.000	-0.004	-0.378
-360.639	-34.535	-0.249	-0.136
-359.625	22.921	0.185	-0.151
-358.610	138.174	-0.114	0.149
-357.596	34.947	-0.143	-0.125
-356.581	125.657	0.158	0.199
-355.566	-26.450	-0.130	0.076
-354.552	-200.000	0.037	0.197
-353.537	-101.898	0.146	-0.035
-352.523	-157.642	0.335	0.020
-351.508	66.794	-0.050	0.051
-350.493	-200.000	-0.034	-0.155
-349.479	-152.696	0.117	-0.008
-348.464	-136.727	-0.350	0.040
-347.450	0.534	0.282	0.201
-346.435	-90.580	0.189	0.054
-345.420	252.580	0.195	0.332
-344.406	-127.771	0.254	-0.037
-343.391	-30.785	-0.152	0.086
-342.377	38.105	0.068	-0.060
-341.362	-33.271	0.249	0.138
-340.348	-200.000	-0.024	0.315
-339.333	-41.832	0.168	-0.086
-338.318	-97.298	0.205	-0.053
-337.304	101.383	-0.077	0.090
-336.289	-7.022	-0.144	0.098
-335.275	50.583	0.112	0.105
-334.260	745.008	0.118	0.316
-333.245	-72.205	-0.182	-0.067
-332.231	-12.901	0.151	0.098
-331.216	-63.057	-0.303	0.125
-330.202	80.845	0.271	0.291
-329.187	221.610	-0.109	-0.174
-328.172	723.405	-0.036	0.095
-327.158	665.246	-0.069	0.178
-326.143	275.890	0.039	-0.070
-325.129	-28.859	-0.187	-0.107
-324.114	74.296	-0.137	0.144
-323.099	-200.000	0.038	0.180
-322.085	800.000	-0.035	0.132
-321.070	-139.235	-0.129	-0.014
-320.056	-150.701	-0.338	-0.026
-319.041	800.000	-0.095	0.394
-318.026	-10.283	-0.069	0.045
-317.012	-200.000	-0.002	-0.300
-315.997	39.430	-0.267	-0.239
-314.983	-70.154	0.416	0.158
-313.968	-53.435	-0.046	0.021
-312.953	76.432	0.290	-0.306
-311.939	-117.739	0.127	-0.023
-310.924	39.446	0.201	-0.179
-309.910	102.671	0.215	0.250
-308.895	-200.000	-0.028	-0.159
-307.880	-104.733	0.466	0.107
-306.866	81.833	-0.091	0.098
-305.851	-36.754	0.390	-0.208
-304.837	-200.000	-0.028	0.314
-303.822	800.000	0.066	-0.208
-302.807	104.279	-0.249	-0.291
-301.793	-108.887	0.069	-0.015
-300.778	800.000	0.096	0.286
-299.764	-117.305	0.283	0.051
-298.749	364.760	0.142	0.284
-297.735	141.606	0.133	-0.176
-296.720	589.823	-0.020	0.049
-295.705	135.319	0.021	0.028
-294.691	30.011	0.099	-0.084
-293.676	-93.597	0.174	-0.048
-292.662	-158.714	-0.442	0.025
-291.647	800.000	-0.120	-0.379
-290.632	-32.723	0.222	-0.123
-289.618	-200.000	0.046	-0.493
-288.603	-89.138	-0.116	0.034
-287.589	-55.878	0.144	-0.064
-286.574	-15.125	-0.079	-0.050
-285.559	800.000	-0.016	0.053
-284.545	-73.589	-0.417	-0.151
-283.530	-200.000	0.074	-0.372
-282.516	48.892	-0.248	-0.232
-281.501	-124.593	0.340	-0.053
-280.486	284.174	-0.156	0.280
-279.472	-181.591	-0.135	-0.003
-278.457	-167.538	0.373	0.015
-277.443	262.664	-0.036	-0.062
-276.428	-200.000	-0.069	-0.490
-275.413	-200.000	-0.018	0.397
-274.399	137.520	-0.143	-0.187
-273.384	800.000	0.008	-0.031
-272.370	133.366	0.158	0.203
-271.355	140.232	-0.081	0.106
-270.340	-200.000	-0.012	-0.194
-269.326	276.604	0.036	0.064
-268.311	-113.336	-0.117	0.023
-267.297	-7.051	-0.210	-0.141
-266.282	331.704	0.122	0.234
-265.267	522.867	0.078	0.182
-264.253	312.036	0.092	0.172
-263.238	503.934	-0.083	0.190
-262.224	-59.485	0.121	0.052
-261.209	-30.592	-0.212	-0.119
-260.195	-158.868	0.158	-0.009
-259.180	128.282	0.200	0.254
-258.165	800.000	0.058	-0.180
-257.151	800.000	-0.013	-0.050
-256.136	-200.000	0.007	-0.060
-255.122	-20.924	-0.046	-0.028
-254.107	12.847	0.047	0.036
-253.092	221.697	0.133	-0.213
-252.078	265.366	-0.119	-0.206
-251.063	-111.779	-0.257	-0.052
-250.049	-200.000	0.000	-0.113
-249.034	32.473	-0.058	-0.050
-248.019	714.512	0.071	-0.186
-247.005	101.182	-0.114	0.132
-245.990	-200.000	-0.000	-0.138
-244.976	293.485	0.085	-0.154
-243.961	-200.000	-0.026	-0.150
-242.946	290.507	-0.193	-0.348
-241.932	-200.000	0.100	0.000
-240.917	-16.493	0.101	-0.063
-239.903	-13.842	0.203	0.130
-238.888	-140.281	-0.364	-0.038
-237.873	-92.483	-0.258	0.072
-236.859	-86.681	-0.224	-0.068
-235.844	-82.911	0.150	0.048
-234.830	-200.000	0.012	0.263
-233.815	-200.000	-0.066	-0.394
-232.800	62.434	-0.136	-0.135
-231.786	-12.838	-0.258	-0.167
-230.771	140.285	0.143	0.188
-229.757	-27.078	-0.078	-0.045
-228.742	-200.000	-0.035	0.272
-227.727	100.317	0.251	0.289
-226.713	124.007	0.189	0.236
-225.698	-70.568	0.151	-0.057
-224.684	-200.000	0.157	-0.000
-223.669	-0.632	-0.135	0.095
-222.655	-123.417	0.460	0.073
-221.640	-21.299	0.146	-0.088
-220.625	-110.458	0.103	-0.021
-219.611	-47.845	-0.220	0.106
-218.596	-142.427	0.092	-0.009
-217.582	-41.971	0.035	-0.018
-216.567	334.409	-0.075	-0.144
-215.552	92.692	0.160	-0.180
-214.538	-50.940	0.180	-0.084
-213.523	-200.000	-0.002	0.109
-212.509	56.925	0.096	-0.093
-211.494	800.000	-0.065	-0.263
-210.479	-66.687	0.331	-0.130
-209.465	-94.838	-0.409	0.110
-208.450	800.000	0.076	0.265
-207.436	32.471	-0.134	0.115
-206.421	-6.784	-0.455	0.307
-205.406	-200.000	0.034	-0.166
-204.392	527.775	-0.060	0.141
-203.377	98.519	-0.273	0.312
-202.363	-84.407	0.102	0.032
-201.348	-116.640	0.156	0.028
-200.333	-12.301	0.149	0.097
-199.319	118.899	0.117	-0.143
-198.304	-145.920	-0.051	0.005
-197.290	20.358	-0.131	0.105
-196.275	-45.339	0.199	0.098
-195.260	-46.821	0.213	0.103
-194.246	140.087	0.173	0.226
-193.231	-86.782	-0.415	0.126
-192.217	119.812	-0.292	0.359
-191.202	83.181	0.101	-0.109
-190.187	-200.000	0.049	-0.415
-189.173	87.788	0.129	0.141
-188.158	-12.304	0.168	0.109
-187.144	-153.578	0.141	-0.010
-186.129	103.910	0.098	-0.114
-185.114	-47.893	0.338	0.162
-184.100	-119.777	-0.260	-0.044
-183.085	265.251	-0.153	0.264
-182.071	149.908	-0.225	0.302
-181.056	-200.000	0.345	-0.002
-180.042	117.665	-0.077	-0.094
-179.027	672.984	0.146	0.374
-178.012	-12.161	-0.160	-0.104
-176.998	-37.932	-0.173	0.091
-175.983	-200.000	-0.008	-0.261
-174.969	50.944	0.048	0.045
-173.954	177.464	-0.101	0.146
-172.939	-77.589	-0.164	-0.056
-171.925	800.000	-0.063	0.182
-170.910	-0.509	0.359	-0.252
-169.896	208.980	-0.201	0.312
-168.881	-130.321	-0.207	0.028
-167.866	354.431	0.093	0.182
-166.852	465.727	0.031	-0.069
-165.837	-56.124	-0.166	-0.073
-164.823	-156.797	0.278	-0.017
-163.808	-200.000	-0.014	-0.275
-162.793	309.845	0.054	-0.100
-161.779	800.000	0.047	0.149
-160.764	119.400	0.104	-0.127
-159.750	214.470	0.022	-0.034
-158.735	-200.000	0.052	0.270
-157.720	576.004	-0.157	0.380
-156.706	244.394	0.066	0.109
-155.691	-200.000	0.059	0.374
-154.677	-146.315	-0.292	0.025
-153.662	-80.754	0.202	0.067
-152.647	381.885	-0.179	0.364
-151.633	-72.068	-0.078	0.029
-150.618	-200.000	-0.378	-0.001
-149.604	-200.000	-0.049	-0.255
-148.589	-81.928	0.041	0.013
-147.574	-200.000	0.010	-0.242
-146.560	-90.656	0.197	-0.056
-145.545	800.000	-0.046	0.191
-144.531	-200.000	-0.069	0.348
-143.516	-200.000	-0.017	0.181
-142.502	800.000	-0.081	-0.243
-141.487	-200.000	0.031	-0.207
-140.472	-113.984	-0.220	-0.042
-139.458	179.464	0.059	0.086
-138.443	541.360	-0.017	-0.040
-137.429	-182.656	0.236	-0.004
-136.414	765.571	0.144	-0.387
-135.399	-200.000	-0.011	0.250
-134.385	-172.143	0.065	0.002
-133.370	63.537	0.074	0.074
-132.356	-38.756	-0.101	-0.053
-131.341	-99.856	-0.145	0.036
-130.326	800.000	-0.096	-0.296
-129.312	296.793	0.244	-0.442
-128.297	800.000	0.030	-0.119
-127.283	-118.674	-0.198	0.035
-126.268	50.941	0.087	0.081
-125.253	47.577	-0.072	-0.066
-124.239	-152.398	0.058	0.004
-123.224	-200.000	-0.041	0.280
-122.210	-200.000	0.011	0.279
