DTS Sentinel unit serial number:	SN413079Multiplexer serial number:	ORYXHardware model number:	OX4-SRSoftware version number:	ORYX F/W v4.00 Oryx Data Collector v3.7.2.0data status	okinstallation	princeton_trtdifferential loss correction	single-endedforward channel	channel 2reverse channel	N/Adate	2019/09/11time	21:53:11forward acquisition time	60.00reverse acquisition time	0.00gamma	496.2192k internal	0.2325k external	0.2325temperature offset calibration	1.0065default loss term (dB/km)	0.3790temperature slope calibration	1.0000multiplexer offset coefficient	1.0000multiplexer slope coefficient	1.0000fibre end	0.00T internal ref (°C)	35.62T ext. ref 1 (°C)	1.67T ext. ref 2 (°C)	29.44length (m)	temperature (°C)	Stokes	anti-Stokes-747.200	-56.224	0.270	0.121
-746.185	78.304	-0.258	0.278
-745.171	-176.534	0.359	0.009
-744.156	-200.000	0.053	0.658
-743.142	-25.844	-0.303	-0.180
-742.127	-200.000	0.010	0.181
-741.112	18.672	-0.200	-0.162
-740.098	225.207	-0.120	0.196
-739.083	142.092	-0.188	0.252
-738.069	-100.771	0.237	0.059
-737.054	158.900	0.174	0.243
-736.039	81.243	-0.132	0.143
-735.025	-9.053	0.223	0.151
-734.010	197.453	-0.064	-0.098
-732.996	-200.000	-0.070	-0.385
-731.981	800.000	0.045	0.196
-730.966	126.378	0.078	0.099
-729.952	534.639	0.083	-0.198
-728.937	129.896	-0.057	-0.074
-727.923	254.794	-0.023	0.040
-726.908	-18.687	-0.161	0.101
-725.894	-105.481	0.081	0.019
-724.879	128.658	-0.182	-0.234
-723.864	-200.000	0.003	-0.354
-722.850	357.598	-0.044	-0.088
-721.835	-45.154	-0.247	0.124
-720.821	-77.561	-0.455	-0.159
-719.806	-130.164	0.141	0.019
-718.791	29.878	-0.163	-0.140
-717.777	78.630	-0.354	-0.381
-716.762	30.779	0.151	0.131
-715.748	267.795	-0.134	-0.237
-714.733	-200.000	0.057	-0.295
-713.718	-70.343	-0.139	-0.053
-712.704	800.000	-0.051	-0.204
-711.689	-200.000	0.082	0.411
-710.675	128.477	0.155	0.199
-709.660	-107.852	-0.341	0.075
-708.645	-71.844	-0.108	-0.041
-707.631	390.375	0.189	-0.395
-706.616	-162.575	0.260	-0.013
-705.602	-66.038	-0.415	-0.167
-704.587	-126.459	-0.101	-0.015
-703.572	633.412	0.124	0.318
-702.558	-104.424	-0.310	0.072
-701.543	-200.000	-0.020	-0.182
-700.529	800.000	0.064	-0.199
-699.514	448.819	0.076	-0.169
-698.499	-200.000	-0.190	-0.000
-697.485	800.000	0.122	-0.341
-696.470	800.000	-0.042	-0.134
-695.456	16.584	-0.104	-0.083
-694.441	20.380	0.317	-0.258
-693.426	-89.578	-0.181	-0.054
-692.412	-200.000	-0.111	0.568
-691.397	125.019	-0.046	-0.059
-690.383	-41.798	-0.221	0.114
-689.368	-66.221	0.255	0.102
-688.354	-6.941	0.325	-0.222
-687.339	-4.358	0.144	-0.100
-686.324	-48.135	-0.159	0.078
-685.310	56.637	0.027	-0.026
-684.295	-200.000	-0.012	0.238
-683.281	-102.542	-0.411	0.099
-682.266	325.270	0.180	-0.346
-681.251	-92.706	0.267	-0.075
-680.237	-200.000	-0.005	0.260
-679.222	-200.000	0.062	0.340
-678.208	-121.633	-0.198	0.033
-677.193	307.935	-0.183	-0.343
-676.178	-200.000	0.033	-0.335
-675.164	203.222	0.071	0.111
-674.149	800.000	-0.049	-0.178
-673.135	83.505	0.168	0.184
-672.120	-68.034	0.135	-0.053
-671.105	32.422	-0.230	-0.200
-670.091	38.614	0.198	-0.177
-669.076	540.452	0.013	0.031
-668.062	25.546	0.252	-0.211
-667.047	222.989	-0.191	-0.310
-666.032	4.220	-0.066	0.048
-665.018	-200.000	-0.034	0.173
-664.003	464.700	-0.086	-0.194
-662.989	352.121	-0.018	0.037
-661.974	5.233	0.195	-0.145
-660.959	-200.000	-0.046	0.320
-659.945	-23.719	-0.178	-0.107
-658.930	12.016	0.244	-0.189
-657.916	-200.000	-0.032	-0.476
-656.901	44.949	-0.124	-0.114
-655.886	-15.685	0.173	-0.111
-654.872	-69.904	-0.321	0.123
-653.857	-200.000	-0.003	-0.120
-652.843	-200.000	0.036	0.290
-651.828	800.000	-0.022	-0.065
-650.814	79.794	-0.147	-0.159
-649.799	-57.414	-0.135	-0.059
-648.784	-34.345	0.113	-0.062
-647.770	700.996	-0.105	-0.278
-646.755	800.000	0.023	-0.089
-645.741	-53.785	-0.039	0.018
-644.726	-37.881	-0.203	-0.108
-643.711	-14.660	0.354	-0.229
-642.697	68.271	0.189	0.195
-641.682	-200.000	-0.001	0.245
-640.668	-200.000	0.028	0.174
-639.653	800.000	0.014	-0.055
-638.638	330.047	0.054	0.104
-637.624	132.664	-0.092	0.119
-636.609	-200.000	-0.010	-0.110
-635.595	-184.203	0.322	-0.005
-634.580	23.827	-0.361	-0.299
-633.565	484.404	0.139	-0.318
-632.551	104.381	0.440	-0.520
-631.536	-23.020	-0.296	0.179
-630.522	66.831	-0.106	-0.109
-629.507	-109.786	-0.156	-0.033
-628.492	-60.487	0.141	-0.060
-627.478	800.000	-0.064	-0.232
-626.463	-88.405	0.240	0.072
-625.449	2.303	0.059	-0.043
-624.434	76.631	-0.234	0.249
-623.419	389.776	-0.159	-0.330
-622.405	188.870	-0.152	0.228
-621.390	107.738	-0.321	0.383
-620.376	423.486	0.051	0.110
-619.361	-130.066	0.115	-0.016
-618.346	237.464	-0.248	-0.413
-617.332	-91.810	-0.161	0.046
-616.317	-13.962	-0.157	0.102
-615.303	-62.100	0.178	-0.075
-614.288	-200.000	-0.055	-0.252
-613.273	-56.003	-0.113	-0.051
-612.259	185.855	-0.141	-0.211
-611.244	80.417	0.096	-0.104
-610.230	-154.348	-0.275	0.019
-609.215	-74.987	-0.293	0.105
-608.201	-200.000	0.052	0.319
-607.186	513.837	-0.103	-0.241
-606.171	19.286	-0.111	-0.089
-605.157	-69.052	0.051	0.020
-604.142	800.000	-0.065	0.190
-603.128	-200.000	-0.035	-0.167
-602.113	65.530	0.184	0.187
-601.098	19.834	0.171	-0.139
-600.084	-33.253	0.236	0.131
-599.069	113.242	0.243	-0.295
-598.055	800.000	0.038	0.159
-597.040	103.104	-0.185	0.218
-596.025	-200.000	-0.012	0.074
-595.011	32.774	0.326	0.283
-593.996	317.506	0.133	0.252
-592.982	-6.034	-0.087	-0.060
-591.967	-200.000	0.024	0.340
-590.952	52.629	0.037	-0.036
-589.938	184.735	0.107	-0.159
-588.923	108.055	-0.046	0.055
-587.909	-200.000	-0.172	0.000
-586.894	474.810	-0.042	0.096
-585.879	-200.000	-0.003	-0.169
-584.865	-26.151	-0.204	-0.120
-583.850	-68.357	0.193	0.075
-582.836	-19.588	0.397	-0.246
-581.821	-190.839	-0.367	0.004
-580.806	322.884	-0.095	0.181
-579.792	340.724	-0.118	0.232
-578.777	-9.091	-0.244	-0.164
-577.763	-169.865	0.067	0.002
-576.748	-200.000	0.007	-0.230
-575.733	-200.000	0.037	-0.223
-574.719	452.410	0.066	-0.145
-573.704	-84.242	0.211	-0.067
-572.690	2.067	0.080	0.058
-571.675	800.000	0.065	0.232
-570.661	-124.498	0.199	0.031
-569.646	301.609	0.108	0.200
-568.631	-200.000	-0.051	0.251
-567.617	-190.891	-0.209	-0.002
-566.602	-74.709	-0.287	-0.103
-565.588	-36.345	0.231	-0.125
-564.573	800.000	0.045	0.136
-563.558	800.000	-0.043	0.129
-562.544	-200.000	-0.026	0.152
-561.529	725.653	0.052	0.138
-560.515	562.841	0.138	-0.334
-559.500	800.000	0.031	0.095
-558.485	-6.035	-0.252	0.173
-557.471	262.486	-0.260	0.451
-556.456	-143.573	-0.232	-0.022
-555.442	800.000	0.047	0.169
-554.427	81.888	-0.119	-0.129
-553.412	-70.059	0.146	0.055
-552.398	123.818	-0.040	-0.050
-551.383	57.353	0.118	-0.115
-550.369	800.000	-0.056	0.229
-549.354	800.000	0.071	-0.288
-548.339	800.000	0.062	0.250
-547.325	19.145	0.043	0.035
-546.310	-200.000	-0.002	-0.153
-545.296	800.000	0.018	0.062
-544.281	-200.000	0.027	0.207
-543.266	64.199	0.225	0.227
-542.252	-200.000	-0.001	0.365
-541.237	100.922	-0.105	-0.122
-540.223	-200.000	-0.018	-0.251
-539.208	-46.220	-0.316	-0.156
-538.193	222.752	-0.104	-0.168
-537.179	-34.762	-0.402	-0.220
-536.164	-167.952	0.211	0.008
-535.150	-56.262	-0.123	-0.055
-534.135	-200.000	-0.002	0.072
-533.121	-200.000	-0.022	-0.207
-532.106	6.613	-0.155	-0.115
-531.091	12.019	0.434	-0.334
-530.077	-128.876	0.384	0.054
-529.062	114.307	-0.199	0.242
-528.048	-129.907	0.096	0.013
-527.033	-200.000	-0.092	0.424
-526.018	-96.343	-0.338	0.089
-525.004	-42.065	0.259	0.133
-523.989	800.000	-0.082	0.317
-522.975	-200.000	0.015	-0.361
-521.960	-46.793	-0.261	-0.128
-520.945	-85.276	0.191	-0.060
-519.931	255.721	-0.025	0.044
-518.916	-200.000	0.004	0.226
-517.902	-200.000	-0.034	-0.292
-516.887	-49.397	0.151	-0.072
-515.872	-183.041	-0.301	-0.005
-514.858	-200.000	-0.007	-0.186
-513.843	53.470	-0.168	0.161
-512.829	800.000	-0.050	0.148
-511.814	211.920	0.190	0.299
-510.799	309.175	0.095	-0.177
-509.785	381.032	0.125	0.255
-508.770	-7.892	0.402	0.271
-507.756	281.109	0.176	0.316
-506.741	20.883	-0.351	-0.285
-505.726	-61.711	0.089	-0.037
-504.712	-31.466	-0.179	0.101
-503.697	-200.000	-0.051	0.253
-502.683	-200.000	0.022	-0.335
-501.668	-103.223	0.086	-0.020
-500.653	-14.319	-0.192	0.124
-499.639	-200.000	-0.002	0.078
-498.624	-185.509	0.333	0.005
-497.610	18.977	0.162	0.129
-496.595	-111.515	-0.332	-0.067
-495.581	-139.247	0.456	-0.049
-494.566	800.000	0.070	-0.252
-493.551	-23.596	0.242	0.145
-492.537	59.330	-0.252	-0.248
-491.522	800.000	-0.103	0.334
-490.508	-89.835	0.119	0.035
-489.493	-102.374	-0.070	-0.017
-488.478	-94.067	-0.410	0.112
-487.464	-24.350	-0.246	0.146
-486.449	-142.685	-0.053	0.005
-485.435	18.611	-0.194	-0.155
-484.420	-124.163	-0.041	-0.006
-483.405	-200.000	-0.023	0.152
-482.391	316.834	0.061	-0.115
-481.376	-176.956	-0.282	0.007
-480.362	-25.280	0.104	-0.062
-479.347	40.491	-0.171	-0.154
-478.332	195.999	-0.236	-0.359
-477.318	-103.288	0.231	0.054
-476.303	-15.616	0.121	-0.077
-475.289	700.865	-0.149	0.391
-474.274	-200.000	-0.001	0.117
-473.259	-171.679	-0.229	0.008
-472.245	110.048	-0.038	0.045
-471.230	-21.414	0.142	-0.087
-470.216	-24.350	0.304	-0.181
-469.201	-200.000	0.020	-0.287
-468.186	118.555	-0.123	0.152
-467.172	-43.523	0.201	-0.101
-466.157	342.804	0.054	0.106
-465.143	-1.986	-0.177	-0.124
-464.128	-109.667	-0.377	0.079
-463.113	20.635	0.147	-0.119
-462.099	529.678	-0.103	0.242
-461.084	-20.185	0.325	-0.200
-460.070	-81.911	-0.180	0.059
-459.055	-18.294	-0.098	0.061
-458.040	-95.540	-0.219	0.058
-457.026	-115.070	0.392	-0.074
-456.011	472.080	-0.055	-0.124
-454.997	-99.525	-0.179	-0.045
-453.982	-94.603	0.345	0.094
-452.968	-55.815	0.175	0.078
-451.953	800.000	-0.080	0.274
-450.938	800.000	0.083	-0.247
-449.924	475.621	0.037	-0.083
-448.909	-121.013	0.105	0.018
-447.895	439.741	0.062	0.136
-446.880	-142.958	0.478	0.046
-445.865	156.594	-0.105	-0.145
-444.851	-67.873	-0.189	-0.074
-443.836	-106.494	-0.135	-0.030
-442.822	83.115	0.109	-0.118
-441.807	-200.000	-0.030	0.188
-440.792	-115.049	0.143	0.027
-439.778	-200.000	-0.041	0.259
-438.763	331.896	0.131	0.253
-437.749	137.050	0.184	-0.240
-436.734	45.710	0.135	-0.124
-435.719	-20.814	-0.200	0.122
-434.705	-200.000	0.028	-0.128
-433.690	-168.849	0.359	-0.013
-432.676	-200.000	-0.026	-0.116
-431.661	478.717	-0.072	-0.164
-430.646	-200.000	0.033	0.150
-429.632	19.929	0.223	-0.179
-428.617	800.000	-0.088	-0.272
-427.603	-90.979	0.223	-0.064
-426.588	800.000	0.040	-0.165
-425.573	-27.968	-0.114	0.066
-424.559	-200.000	-0.053	0.355
-423.544	-200.000	-0.000	0.174
-422.530	-109.930	-0.182	0.038
-421.515	800.000	0.187	0.550
-420.500	6.801	-0.255	0.189
-419.486	242.849	0.190	0.317
-418.471	-161.121	0.188	0.010
-417.457	-97.241	-0.150	0.039
-416.442	24.120	-0.066	0.055
-415.428	-37.687	0.141	-0.075
-414.413	-200.000	-0.020	-0.189
-413.398	-100.951	-0.369	0.090
-412.384	-75.005	-0.047	-0.017
-411.369	43.441	0.370	-0.337
-410.355	375.578	-0.151	-0.306
-409.340	-200.000	0.012	-0.364
-408.325	171.186	-0.200	-0.285
-407.311	125.009	0.083	-0.105
-406.296	-7.044	-0.088	-0.059
-405.282	-165.971	0.515	-0.022
-404.267	93.943	-0.240	-0.271
-403.252	-18.575	-0.250	-0.155
-402.238	799.828	-0.018	-0.050
-401.223	43.482	-0.111	0.101
-400.209	135.273	-0.080	-0.104
-399.194	-8.309	0.133	0.089
-398.179	255.778	0.003	-0.004
-397.165	-200.000	-0.037	0.237
-396.150	800.000	-0.030	0.082
-395.136	-200.000	-0.000	0.179
-394.121	164.600	0.161	0.226
-393.106	24.801	-0.122	-0.101
-392.092	-35.649	0.214	-0.115
-391.077	-190.573	0.182	0.002
-390.063	50.717	0.199	-0.187
-389.048	-81.380	-0.091	0.030
-388.033	-148.950	0.403	-0.032
-387.019	800.000	-0.061	-0.260
-386.004	-22.267	0.040	0.024
-384.990	-200.000	0.041	0.187
-383.975	47.556	-0.178	0.165
-382.960	-166.210	0.264	-0.011
-381.946	-59.742	0.307	0.131
-380.931	-154.132	-0.176	0.012
-379.917	118.677	-0.137	0.168
-378.902	-77.297	-0.231	-0.080
-377.888	149.982	-0.101	-0.136
-376.873	-68.712	0.072	0.028
-375.858	-200.000	0.008	0.047
-374.844	-200.000	0.012	0.217
-373.829	-91.541	0.160	-0.045
-372.815	50.682	0.221	0.208
-371.800	-53.198	-0.121	-0.055
-370.785	-143.243	-0.091	-0.009
-369.771	-200.000	0.009	-0.128
-368.756	-200.000	-0.055	0.281
-367.742	66.129	-0.234	0.236
-366.727	83.494	-0.236	-0.256
-365.712	800.000	-0.050	-0.169
-364.698	61.639	-0.066	-0.066
-363.683	229.831	-0.128	-0.209
-362.669	-15.232	0.371	0.236
-361.654	59.210	-0.231	-0.226
-360.639	696.903	0.134	-0.350
-359.625	-103.359	-0.201	0.047
-358.610	-54.917	-0.427	-0.191
-357.596	-200.000	-0.008	-0.048
-356.581	800.000	-0.079	-0.313
-355.566	55.856	0.109	0.105
-354.552	-85.309	-0.218	0.068
-353.537	-200.000	-0.073	-0.402
-352.523	274.323	-0.062	0.109
-351.508	-125.191	0.141	-0.022
-350.493	65.377	0.104	0.105
-349.479	220.768	-0.140	0.223
-348.464	-200.000	-0.040	-0.252
-347.450	202.660	-0.064	0.099
-346.435	-71.734	0.216	-0.080
-345.420	56.088	-0.197	0.190
-344.406	-27.855	-0.262	0.151
-343.391	-18.172	0.318	-0.198
-342.377	279.952	0.089	0.159
-341.362	-162.602	0.042	0.002
-340.348	800.000	0.015	0.047
-339.333	659.279	-0.103	0.264
-338.318	760.504	0.049	0.132
-337.304	800.000	0.118	-0.433
-336.289	-20.323	-0.233	-0.142
-335.275	-20.213	0.333	0.204
-334.260	221.158	0.047	-0.075
-333.245	518.501	-0.113	0.262
-332.231	35.906	-0.124	-0.108
-331.216	361.638	-0.091	-0.181
-330.202	-56.504	-0.220	-0.097
-329.187	-37.261	0.160	-0.085
-328.172	662.300	-0.029	-0.074
-327.158	188.936	0.177	-0.263
-326.143	429.819	0.045	-0.097
-325.129	-83.340	-0.080	-0.025
-324.114	-60.125	0.264	0.112
-323.099	340.406	-0.134	-0.259
-322.085	-200.000	0.024	-0.138
-321.070	143.849	0.212	-0.281
-320.056	-200.000	0.059	0.257
-319.041	-200.000	-0.012	-0.172
-318.026	118.801	0.097	0.119
-317.012	572.772	0.099	-0.240
-315.997	-78.903	0.439	-0.148
-314.983	223.817	-0.093	-0.148
-313.968	-42.231	0.200	0.101
-312.953	-129.079	0.343	0.048
-311.939	800.000	0.069	-0.236
-310.924	790.795	0.108	-0.294
-309.910	85.435	-0.147	0.160
-308.895	170.268	-0.057	0.082
-307.880	800.000	-0.102	0.312
-306.866	19.443	-0.054	0.043
-305.851	132.062	-0.252	0.322
-304.837	532.139	-0.019	0.044
-303.822	-200.000	-0.080	-0.598
-302.807	402.704	0.048	0.100
-301.793	-200.000	0.079	-0.400
-300.778	19.153	-0.095	-0.076
-299.764	800.000	-0.019	0.079
-298.749	238.727	0.050	-0.083
-297.735	-200.000	-0.039	0.327
-296.720	76.136	-0.221	-0.232
-295.705	428.517	-0.093	-0.199
-294.691	167.010	0.087	0.123
-293.676	274.942	0.051	0.090
-292.662	142.580	0.224	0.295
-291.647	-68.218	-0.247	-0.095
-290.632	156.288	0.170	-0.233
-289.618	12.659	-0.112	0.086
-288.603	-200.000	0.026	-0.211
-287.589	-36.326	0.210	-0.112
-286.574	-200.000	0.001	-0.299
-285.559	-58.509	-0.239	-0.103
-284.545	8.419	-0.093	0.069
-283.530	141.759	0.062	0.082
-282.516	-71.488	-0.074	-0.027
-281.501	144.382	0.088	0.116
-280.486	-178.080	-0.163	0.004
-279.472	-40.897	-0.276	0.141
-278.457	80.378	-0.052	0.056
-277.443	110.168	-0.161	-0.191
-276.428	-200.000	0.000	-0.114
-275.413	-200.000	-0.004	-0.023
-274.399	-200.000	0.036	-0.278
-273.384	-27.994	-0.106	0.061
-272.370	270.131	0.090	-0.156
-271.355	154.570	-0.227	-0.309
-270.340	-60.129	-0.280	0.118
-269.326	-200.000	0.021	-0.331
-268.311	-20.617	-0.214	-0.130
-267.297	-200.000	0.050	-0.296
-266.282	-180.978	0.237	0.005
-265.267	-2.359	0.235	-0.163
-264.253	-59.417	-0.127	-0.054
-263.238	-2.925	0.209	0.144
-262.224	-200.000	0.015	0.090
-261.209	-32.853	0.148	-0.081
-260.195	100.310	0.325	0.373
-259.180	-200.000	0.001	-0.317
-258.165	212.476	-0.161	0.252
-257.151	-104.302	-0.254	0.058
-256.136	800.000	-0.080	-0.228
-255.122	67.612	0.137	-0.139
-254.107	65.514	-0.253	0.254
-253.092	560.810	0.029	-0.070
-252.078	164.797	0.100	-0.139
-251.063	18.469	-0.119	0.094
-250.049	800.000	-0.111	0.351
-249.034	41.594	0.162	0.145
-248.019	-28.795	-0.342	-0.195
-247.005	30.719	0.259	-0.219
-245.990	-70.052	-0.216	0.081
-244.976	-200.000	-0.032	-0.181
-243.961	-48.056	0.187	0.090
-242.946	193.213	-0.111	-0.166
-241.932	-15.255	0.352	-0.223
-240.917	800.000	-0.101	-0.286
-239.903	-34.806	-0.198	0.107
-238.888	24.421	0.272	0.222
-237.873	51.257	-0.081	-0.076
-236.859	31.221	-0.225	-0.191
-235.844	-17.232	-0.282	0.176
-234.830	-75.501	-0.143	-0.050
-233.815	45.587	-0.241	0.220
-232.800	58.617	0.233	0.226
-231.786	7.744	-0.066	-0.049
-230.771	-200.000	-0.007	-0.119
-229.757	35.283	0.181	-0.157
-228.742	-144.018	-0.557	-0.052
-227.727	-25.089	0.134	0.079
-226.713	800.000	-0.108	0.303
-225.698	-32.310	0.061	-0.034
-224.684	-29.897	0.320	0.181
-223.669	-159.002	0.138	-0.008
-222.655	-13.127	0.132	0.085
-221.640	156.397	0.243	0.331
-220.625	800.000	0.031	-0.090
-219.611	141.620	-0.210	0.275
-218.596	-158.090	-0.171	-0.010
-217.582	-122.778	0.266	0.043
-216.567	83.435	0.223	0.240
-215.552	357.311	-0.066	0.131
-214.538	-118.451	0.268	-0.047
-213.523	800.000	-0.159	-0.511
-212.509	28.721	-0.159	-0.133
-211.494	-25.740	0.104	0.061
-210.479	128.139	-0.283	0.355
-209.465	496.928	0.038	-0.086
-208.450	-116.867	0.183	0.033
-207.436	216.996	0.059	-0.093
-206.421	-134.802	-0.094	-0.011
-205.406	800.000	-0.067	0.259
-204.392	800.000	0.074	0.240
-203.377	-42.873	0.252	0.127
-202.363	339.032	0.041	0.079
-201.348	241.475	-0.146	0.241
-200.333	-60.094	0.271	0.114
-199.319	800.000	0.079	0.270
-198.304	1.310	-0.020	0.014
-197.290	-200.000	-0.011	-0.337
-196.275	-200.000	0.011	-0.300
-195.260	73.310	-0.136	0.141
-194.246	38.471	-0.138	-0.122
-193.231	266.432	0.207	0.357
-192.217	-200.000	0.011	0.237
-191.202	665.674	0.106	-0.270
-190.187	342.910	0.127	0.245
-189.173	-42.713	-0.078	0.039
-188.158	-54.085	-0.220	0.099
-187.144	259.849	0.051	0.086
-186.129	-109.717	0.321	0.067
-185.114	59.709	-0.186	0.181
-184.100	-200.000	0.002	-0.102
-183.085	359.663	0.014	0.028
-182.071	-200.000	-0.009	0.222
-181.056	51.803	0.136	-0.127
-180.042	-200.000	0.005	0.345
-179.027	226.382	0.136	0.217
-178.012	-36.640	0.034	-0.018
-176.998	83.974	0.119	-0.129
-175.983	-46.349	0.316	0.153
-174.969	-200.000	0.019	0.430
-173.954	40.625	-0.239	-0.213
-172.939	-200.000	0.001	0.191
-171.925	136.332	0.219	-0.282
-170.910	136.382	-0.252	0.324
-169.896	-200.000	0.015	0.136
-168.881	55.646	-0.310	0.296
-167.866	-81.360	-0.073	0.024
-166.852	-119.331	0.363	0.062
-165.837	44.101	0.110	-0.099
-164.823	-99.314	-0.197	0.049
-163.808	-200.000	0.062	-0.291
-162.793	194.255	0.156	-0.233
-161.779	800.000	0.085	-0.260
-160.764	67.809	-0.068	-0.068
-159.750	62.379	0.211	-0.208
-158.735	-200.000	0.059	0.274
-157.720	131.119	-0.149	0.188
-156.706	-22.259	0.219	0.131
-155.691	-30.533	-0.208	-0.116
-154.677	800.000	-0.016	-0.062
-153.662	-200.000	-0.005	0.230
-152.647	425.237	-0.098	0.208
-151.633	800.000	-0.046	0.163
-150.618	258.277	0.133	0.226
-149.604	-126.667	0.298	0.043
-148.589	222.642	-0.028	0.044
-147.574	198.147	-0.001	-0.001
-146.560	-150.764	0.198	-0.015
-145.545	-200.000	-0.047	-0.307
-144.531	150.488	-0.139	-0.186
-143.516	-124.735	-0.106	-0.016
-142.502	-23.891	-0.063	-0.037
-141.487	-1.326	-0.099	0.069
-140.472	26.558	-0.192	0.158
-139.458	-34.206	0.408	0.221
-138.443	114.174	0.193	0.231
-137.429	54.957	-0.122	-0.116
-136.414	14.463	-0.219	-0.168
-135.399	-42.234	-0.276	0.139
-134.385	800.000	0.033	0.129
-133.370	-27.283	-0.138	-0.079
-132.356	733.177	0.174	0.459
-131.341	592.133	-0.072	-0.174
-130.326	62.124	0.081	-0.080
-129.312	-32.361	-0.168	0.093
-128.297	32.932	-0.228	-0.195
-127.283	770.459	-0.047	0.127
-126.268	-49.587	0.304	-0.143
-125.253	139.807	0.066	-0.086
-124.239	-47.551	-0.180	0.086
-123.224	117.892	0.134	-0.162
-122.210	8.412	-0.121	0.090
-121.195	375.912	-0.097	-0.195
