DTS Sentinel unit serial number:	SN413079Multiplexer serial number:	ORYXHardware model number:	OX4-SRSoftware version number:	ORYX F/W v4.00 Oryx Data Collector v3.7.2.0data status	okinstallation	princeton_trtdifferential loss correction	single-endedforward channel	channel 2reverse channel	N/Adate	2019/09/15time	22:43:35forward acquisition time	60.00reverse acquisition time	0.00gamma	496.2192k internal	0.2335k external	0.2335temperature offset calibration	0.9949default loss term (dB/km)	0.3790temperature slope calibration	1.0000multiplexer offset coefficient	1.0000multiplexer slope coefficient	1.0000fibre end	0.00T internal ref (°C)	28.89T ext. ref 1 (°C)	8.83T ext. ref 2 (°C)	22.37length (m)	temperature (°C)	Stokes	anti-Stokes-747.200	121.725	-0.218	-0.273
-746.185	-200.000	-0.011	0.298
-745.171	800.000	0.057	0.227
-744.156	355.529	0.189	0.377
-743.142	-164.744	0.042	-0.002
-742.127	-96.413	-0.237	0.063
-741.112	182.921	-0.120	-0.177
-740.098	-154.701	-0.137	0.009
-739.083	-200.000	-0.096	0.537
-738.069	-139.612	-0.193	-0.021
-737.054	775.285	-0.084	-0.230
-736.039	18.404	-0.266	0.213
-735.025	-96.551	0.142	0.038
-734.010	22.596	-0.107	0.088
-732.996	-73.038	-0.280	-0.103
-731.981	44.023	0.132	-0.122
-730.966	-78.502	0.106	-0.036
-729.952	-19.476	0.214	0.133
-728.937	-147.539	-0.157	-0.013
-727.923	69.669	-0.109	-0.113
-726.908	-137.015	0.269	0.031
-725.894	-141.766	0.284	0.029
-724.879	71.613	-0.041	0.043
-723.864	202.770	0.038	0.058
-722.850	186.269	-0.158	-0.236
-721.835	-200.000	-0.001	-0.102
-720.821	91.562	-0.113	-0.127
-719.806	-101.221	-0.244	-0.060
-718.791	-35.298	-0.126	0.069
-717.777	-17.418	-0.393	0.248
-716.762	652.116	0.161	0.415
-715.748	28.423	0.200	0.170
-714.733	800.000	0.014	-0.048
-713.718	-200.000	-0.013	0.365
-712.704	463.918	0.141	0.317
-711.689	124.520	0.139	0.175
-710.675	-51.415	-0.247	-0.116
-709.660	-178.168	0.340	-0.008
-708.645	800.000	0.090	0.287
-707.631	-63.555	-0.245	-0.101
-706.616	-123.889	-0.238	0.038
-705.602	25.649	0.061	-0.051
-704.587	800.000	0.051	0.192
-703.572	-80.171	-0.325	-0.109
-702.558	800.000	0.099	-0.327
-701.543	-91.256	-0.176	0.051
-700.529	-172.741	0.242	0.008
-699.514	38.575	-0.195	-0.174
-698.499	-93.255	-0.112	-0.031
-697.485	329.514	-0.025	-0.049
-696.470	800.000	0.002	-0.010
-695.456	-133.834	-0.230	-0.029
-694.441	42.252	-0.029	-0.027
-693.426	38.812	0.107	0.096
-692.412	176.376	0.171	0.249
-691.397	-92.341	-0.202	-0.057
-690.383	223.373	0.165	-0.267
-689.368	412.785	0.063	-0.135
-688.354	513.596	-0.140	-0.326
-687.339	-163.904	-0.188	-0.009
-686.324	-123.206	-0.409	-0.066
-685.310	-63.941	0.051	-0.021
-684.295	296.773	0.036	-0.065
-683.281	343.881	0.059	0.115
-682.266	117.971	-0.141	0.175
-681.251	357.816	-0.144	0.287
-680.237	-200.000	0.026	0.205
-679.222	-49.202	-0.385	0.184
-678.208	-200.000	0.059	-0.366
-677.193	352.989	-0.051	-0.102
-676.178	-200.000	0.102	0.496
-675.164	166.558	-0.061	0.087
-674.149	296.791	-0.232	0.427
-673.135	-78.660	-0.050	-0.017
-672.120	-89.706	-0.306	-0.090
-671.105	274.056	0.042	-0.074
-670.091	-70.953	0.288	-0.109
-669.076	-50.478	0.184	0.087
-668.062	-106.954	0.327	-0.072
-667.047	-200.000	0.036	-0.197
-666.032	24.776	-0.163	0.135
-665.018	200.167	-0.248	0.382
-664.003	195.833	0.157	-0.239
-662.989	-144.088	0.175	0.016
-661.974	-124.096	-0.242	0.038
-660.959	40.390	0.049	0.044
-659.945	800.000	0.009	-0.033
-658.930	-36.265	-0.066	-0.036
-657.916	563.556	0.079	-0.191
-656.901	-80.002	-0.221	0.074
-655.886	477.236	0.203	-0.459
-654.872	-135.571	0.240	-0.029
-653.857	778.147	-0.070	-0.191
-652.843	-164.274	-0.320	-0.015
-651.828	133.828	0.054	0.070
-650.814	5.908	-0.420	0.311
-649.799	-43.073	0.346	0.176
-648.784	235.026	-0.124	-0.204
-647.770	-154.528	0.220	0.015
-646.755	-126.138	0.219	-0.033
-645.741	-92.586	-0.213	-0.060
-644.726	-189.176	-0.345	0.004
-643.711	-55.888	-0.050	-0.022
-642.697	-48.137	-0.375	0.181
-641.682	-103.122	-0.133	0.031
-640.668	-85.255	0.279	0.087
-639.653	-135.851	-0.080	-0.009
-638.638	-94.806	0.098	0.027
-637.624	446.129	-0.117	0.256
-636.609	60.026	0.143	-0.141
-635.595	-200.000	-0.017	-0.195
-634.580	-200.000	-0.370	-0.002
-633.565	-70.526	-0.395	-0.149
-632.551	-177.342	0.260	-0.006
-631.536	255.836	-0.035	-0.060
-630.522	-141.646	0.360	0.036
-629.507	732.496	-0.148	0.397
-628.492	-68.675	0.181	-0.070
-627.478	110.065	-0.166	0.200
-626.463	34.841	0.322	-0.282
-625.449	125.277	0.215	0.271
-624.434	-116.767	0.177	-0.033
-623.419	532.538	0.041	-0.096
-622.405	619.852	0.155	-0.390
-621.390	-93.441	0.207	-0.057
-620.376	393.364	0.145	0.302
-619.361	342.864	-0.082	0.160
-618.346	638.561	0.052	-0.132
-617.332	11.408	-0.217	0.166
-616.317	-92.103	0.152	-0.043
-615.303	-67.944	0.106	-0.041
-614.288	-200.000	0.008	-0.087
-613.273	71.202	-0.162	0.168
-612.259	-101.639	0.203	0.049
-611.244	-200.000	-0.006	0.267
-610.230	-19.683	-0.012	0.007
-609.215	-82.306	-0.112	0.037
-608.201	-34.762	-0.173	-0.095
-607.186	143.970	0.124	0.165
-606.171	112.917	0.100	0.121
-605.157	246.585	-0.219	-0.368
-604.142	-97.174	0.276	-0.072
-603.128	80.626	-0.217	-0.234
-602.113	223.281	0.033	0.053
-601.098	800.000	0.079	0.286
-600.084	232.400	-0.126	0.206
-599.069	26.821	0.172	0.144
-598.055	-200.000	-0.031	0.144
-597.040	23.572	-0.128	-0.105
-596.025	800.000	0.129	-0.360
-595.011	-10.264	-0.237	-0.157
-593.996	800.000	-0.085	0.244
-592.982	-131.659	0.018	-0.002
-591.967	800.000	-0.068	-0.187
-590.952	453.428	-0.059	-0.131
-589.938	6.428	-0.378	0.281
-588.923	-95.808	0.169	0.045
-587.909	192.512	0.119	-0.179
-586.894	-112.625	-0.099	0.020
-585.879	800.000	0.104	0.300
-584.865	-200.000	-0.005	0.181
-583.850	-1.867	0.196	-0.138
-582.836	-102.240	0.200	0.048
-581.821	-134.144	0.327	-0.040
-580.806	-200.000	-0.002	-0.106
-579.792	-55.345	0.118	-0.053
-578.777	215.524	-0.136	-0.215
-577.763	253.718	0.069	-0.117
-576.748	19.935	0.228	-0.184
-575.733	97.619	-0.075	0.086
-574.719	-200.000	-0.023	0.232
-573.704	87.604	0.111	0.122
-572.690	-200.000	0.054	0.303
-571.675	492.678	-0.073	-0.166
-570.661	378.462	-0.078	-0.160
-569.646	738.927	0.063	0.168
-568.631	-200.000	-0.035	-0.290
-567.617	324.889	0.091	-0.174
-566.602	-200.000	0.008	0.157
-565.588	800.000	-0.053	0.229
-564.573	-190.724	-0.367	0.004
-563.558	628.304	0.104	-0.263
-562.544	199.537	-0.097	-0.149
-561.529	-169.002	-0.200	-0.007
-560.515	-121.863	-0.062	0.010
-559.500	22.874	0.067	-0.054
-558.485	-88.008	0.253	-0.076
-557.471	15.912	-0.145	-0.114
-556.456	263.902	0.082	-0.142
-555.442	-200.000	0.045	0.210
-554.427	600.723	0.138	0.343
-553.412	-3.348	0.143	-0.099
-552.398	156.002	-0.147	-0.203
-551.383	-83.019	-0.448	0.144
-550.369	-106.045	0.116	0.026
-549.354	-49.042	0.420	0.201
-548.339	-46.947	-0.154	0.075
-547.325	-41.163	-0.131	0.067
-546.310	131.884	0.162	-0.208
-545.296	-113.599	0.387	-0.075
-544.281	92.354	-0.250	0.281
-543.266	204.358	-0.089	0.137
-542.252	203.053	-0.143	-0.220
-541.237	76.582	-0.068	0.071
-540.223	388.986	0.081	0.167
-539.208	-200.000	0.000	-0.344
-538.193	-77.088	0.050	-0.017
-537.179	800.000	-0.058	-0.193
-536.164	659.586	-0.047	0.120
-535.150	87.489	0.151	-0.167
-534.135	-144.179	-0.280	-0.026
-533.121	166.341	0.164	0.232
-532.106	800.000	-0.052	-0.152
-531.091	383.983	-0.194	-0.399
-530.077	-200.000	0.020	-0.096
-529.062	320.344	-0.047	-0.089
-528.048	362.351	-0.093	0.186
-527.033	402.393	0.082	0.172
-526.018	724.045	0.074	-0.196
-525.004	217.433	0.083	-0.132
-523.989	-41.442	0.372	-0.191
-522.975	-57.260	0.119	0.052
-521.960	-71.569	0.144	-0.054
-520.945	57.341	-0.233	-0.226
-519.931	-23.616	-0.141	-0.084
-518.916	-39.492	-0.050	-0.026
-517.902	629.462	-0.147	0.369
-516.887	800.000	-0.057	-0.210
-515.872	393.870	0.091	-0.190
-514.858	-26.321	-0.584	-0.341
-513.843	-50.466	-0.404	-0.190
-512.829	-200.000	-0.001	-0.065
-511.814	-200.000	-0.001	-0.073
-510.799	-51.790	0.085	-0.039
-509.785	771.588	-0.080	-0.216
-508.770	-200.000	0.029	-0.201
-507.756	-200.000	0.029	0.333
-506.741	269.588	0.038	0.067
-505.726	-86.894	-0.121	-0.037
-504.712	449.871	0.082	0.180
-503.697	3.800	-0.251	0.183
-502.683	672.848	0.041	0.107
-501.668	125.269	0.065	0.081
-500.653	-127.134	0.187	0.027
-499.639	213.274	-0.102	0.161
-498.624	800.000	-0.023	-0.078
-497.610	402.432	0.199	0.416
-496.595	-200.000	-0.043	-0.188
-495.581	-200.000	-0.012	0.250
-494.566	374.449	-0.084	-0.170
-493.551	800.000	0.038	-0.113
-492.537	-20.934	-0.207	0.126
-491.522	-31.616	0.106	-0.059
-490.508	38.126	-0.234	-0.208
-489.493	800.000	-0.059	-0.171
-488.478	221.397	0.081	0.129
-487.464	34.118	-0.094	0.081
-486.449	418.524	0.186	0.396
-485.435	800.000	0.037	0.139
-484.420	-117.757	0.091	-0.016
-483.405	-200.000	-0.005	-0.180
-482.391	139.067	-0.052	0.067
-481.376	-95.663	0.070	-0.018
-480.362	92.744	-0.071	0.080
-479.347	56.624	0.089	0.086
-478.332	-6.815	-0.155	0.105
-477.318	-20.799	0.157	-0.095
-476.303	750.317	0.087	0.233
-475.289	38.360	-0.173	0.153
-474.274	119.588	-0.222	-0.273
-473.259	-200.000	0.056	-0.459
-472.245	35.691	0.191	0.166
-471.230	800.000	0.026	-0.088
-470.216	-200.000	0.005	0.219
-469.201	-137.328	0.359	0.041
-468.186	240.422	0.032	0.053
-467.172	183.542	0.206	-0.303
-466.157	-86.180	0.118	-0.036
-465.143	-200.000	0.045	0.200
-464.128	-85.302	-0.188	-0.058
-463.113	12.915	-0.226	-0.173
-462.099	106.974	-0.086	0.101
-461.084	74.774	-0.182	-0.191
-460.070	-99.353	0.413	-0.103
-459.055	-91.279	-0.073	0.021
-458.040	416.142	-0.136	0.288
-457.026	-80.839	-0.200	0.066
-456.011	113.033	0.219	-0.264
-454.997	-200.000	0.016	-0.302
-453.982	481.007	-0.021	-0.047
-452.968	-41.612	-0.100	-0.051
-451.953	130.421	-0.105	-0.134
-450.938	130.166	-0.175	-0.222
-449.924	-195.604	0.273	-0.002
-448.909	-200.000	-0.040	0.203
-447.895	26.194	-0.296	-0.245
-446.880	-99.959	0.176	-0.044
-445.865	-132.509	-0.256	0.033
-444.851	800.000	-0.120	-0.333
-443.836	155.582	0.084	0.115
-442.822	-200.000	-0.024	-0.627
-441.807	47.176	-0.198	0.183
-440.792	554.719	0.050	0.119
-439.778	-71.181	-0.100	-0.037
-438.763	-9.901	-0.100	-0.066
-437.749	-10.686	-0.302	-0.198
-436.734	437.580	0.131	-0.283
-435.719	-200.000	0.015	-0.251
-434.705	269.523	-0.168	-0.293
-433.690	371.024	0.025	0.051
-432.676	-50.745	0.176	0.082
-431.661	2.834	0.144	-0.104
-430.646	-51.473	-0.022	-0.010
-429.632	639.597	0.115	-0.290
-428.617	-9.706	-0.094	-0.062
-427.603	-91.125	-0.194	-0.055
-426.588	48.905	0.310	0.289
-425.573	694.200	-0.016	-0.041
-424.559	329.034	-0.143	0.272
-423.544	800.000	-0.043	0.188
-422.530	-19.628	-0.420	0.258
-421.515	55.264	0.091	-0.087
-420.500	-200.000	-0.010	-0.209
-419.486	-106.317	-0.380	0.084
-418.471	1.227	-0.220	-0.157
-417.457	800.000	0.003	0.010
-416.442	800.000	0.056	-0.169
-415.428	-90.096	-0.245	0.071
-414.413	-82.171	-0.268	-0.087
-413.398	-95.111	-0.083	-0.022
-412.384	3.374	-0.173	-0.125
-411.369	-200.000	-0.025	-0.268
-410.355	28.796	-0.108	0.090
-409.340	176.376	-0.047	0.068
-408.325	800.000	-0.050	0.198
-407.311	-70.038	0.241	0.091
-406.296	30.160	0.154	0.130
-405.282	-25.630	-0.197	0.115
-404.267	-53.352	0.382	0.174
-403.252	28.140	-0.217	0.182
-402.238	800.000	-0.055	0.218
-401.223	-200.000	-0.031	0.321
-400.209	-127.305	0.220	-0.032
-399.194	-48.150	-0.241	0.115
-398.179	-3.714	-0.228	0.157
-397.165	33.130	-0.169	-0.145
-396.150	800.000	0.154	-0.464
-395.136	188.629	0.280	-0.415
-394.121	800.000	-0.056	-0.159
-393.106	168.029	0.091	-0.128
-392.092	94.397	-0.154	-0.173
-391.077	-86.559	-0.075	-0.023
-390.063	571.931	0.043	0.103
-389.048	506.470	0.109	0.251
-388.033	800.000	0.022	-0.075
-387.019	312.916	-0.090	-0.168
-386.004	598.937	-0.052	0.129
-384.990	-117.854	-0.447	-0.080
-383.975	-84.590	0.211	-0.066
-382.960	60.881	0.124	0.122
-381.946	-200.000	0.021	0.196
-380.931	-89.421	0.112	0.033
-379.917	-91.340	0.252	-0.071
-378.902	-78.316	0.284	0.096
-377.888	402.125	0.066	-0.138
-376.873	-200.000	-0.029	-0.241
-375.858	800.000	0.060	0.200
-374.844	-38.083	0.204	-0.107
-373.829	20.436	-0.264	-0.211
-372.815	46.504	0.108	-0.099
-371.800	-200.000	-0.038	-0.334
-370.785	47.689	0.292	0.269
-369.771	-188.469	0.171	0.002
-368.756	-116.991	0.097	-0.018
-367.742	-200.000	-0.029	0.228
-366.727	-133.425	-0.265	0.033
-365.712	800.000	0.068	-0.219
-364.698	49.690	0.083	0.077
-363.683	-48.885	0.277	0.131
-362.669	27.474	0.091	-0.076
-361.654	52.951	0.106	-0.101
-360.639	60.689	-0.086	0.084
-359.625	607.861	0.065	-0.160
-358.610	-16.084	-0.240	-0.151
-357.596	164.398	0.096	-0.135
-356.581	300.612	0.069	0.126
-355.566	800.000	0.030	0.100
-354.552	173.923	0.076	0.108
-353.537	243.846	-0.234	0.388
-352.523	-127.157	-0.386	0.056
-351.508	-200.000	0.040	-0.479
-350.493	181.471	-0.038	-0.055
-349.479	-26.471	0.101	0.059
-348.464	-49.641	-0.132	-0.062
-347.450	-200.000	0.013	-0.071
-346.435	-110.320	-0.229	0.047
-345.420	3.686	0.411	0.296
-344.406	145.638	-0.117	-0.155
-343.391	-200.000	0.022	0.178
-342.377	63.512	0.129	0.129
-341.362	-91.274	0.189	-0.054
-340.348	-200.000	0.036	-0.246
-339.333	54.054	0.174	0.165
-338.318	-200.000	-0.011	-0.086
-337.304	-200.000	0.082	0.456
-336.289	166.480	-0.175	0.245
-335.275	9.192	-0.163	-0.122
-334.260	5.408	-0.103	0.075
-333.245	-147.931	-0.098	0.008
-332.231	-200.000	0.016	0.091
-331.216	-35.233	0.311	0.167
-330.202	152.167	0.249	-0.335
-329.187	-122.799	-0.305	-0.049
-328.172	219.065	0.061	0.097
-327.158	-200.000	0.020	0.095
-326.143	331.058	0.069	-0.131
-325.129	181.662	0.156	-0.227
-324.114	800.000	-0.045	0.132
-323.099	619.150	-0.028	-0.069
-322.085	-49.672	-0.199	0.094
-321.070	-11.092	-0.079	0.052
-320.056	-71.517	-0.288	0.107
-319.041	-81.066	-0.041	-0.013
-318.026	133.989	-0.184	-0.235
-317.012	-75.700	-0.257	0.090
-315.997	-18.038	-0.179	0.111
-314.983	-200.000	0.049	-0.276
-313.968	84.447	0.136	-0.147
-312.953	-149.197	-0.037	-0.003
-311.939	-177.375	0.112	-0.003
-310.924	-174.183	-0.295	0.008
-309.910	-19.232	0.175	-0.107
-308.895	70.570	-0.181	-0.184
-307.880	800.000	0.148	-0.449
-306.866	-200.000	0.041	-0.191
-305.851	-7.680	0.215	0.144
-304.837	-73.635	0.142	0.051
-303.822	156.712	0.156	0.212
-302.807	800.000	-0.079	0.311
-301.793	-87.804	0.186	0.055
-300.778	104.969	-0.189	-0.220
-299.764	150.973	-0.156	-0.209
-298.749	678.769	0.032	-0.083
-297.735	-78.429	0.216	0.073
-296.720	-97.852	0.277	-0.071
-295.705	-21.158	-0.263	0.159
-294.691	42.181	0.230	-0.206
-293.676	-200.000	-0.014	0.069
-292.662	184.426	-0.115	-0.169
-291.647	-200.000	0.057	0.306
-290.632	800.000	0.013	-0.042
-289.618	8.173	-0.174	0.129
-288.603	128.511	0.152	-0.191
-287.589	-200.000	0.028	-0.195
-286.574	-39.882	0.246	-0.127
-285.559	1.369	0.173	0.123
-284.545	-200.000	0.017	-0.212
-283.530	70.233	-0.151	-0.154
-282.516	-20.940	-0.209	-0.127
-281.501	37.533	0.156	-0.136
-280.486	377.279	-0.075	-0.151
-279.472	-67.389	-0.118	-0.046
-278.457	-47.191	0.024	-0.012
-277.443	-27.064	0.319	0.184
-276.428	-200.000	0.001	-0.425
-275.413	-40.843	0.241	-0.123
-274.399	278.961	-0.022	-0.038
-273.384	800.000	-0.046	-0.149
-272.370	-98.542	0.504	0.127
-271.355	-26.771	0.366	-0.211
-270.340	-100.399	-0.194	0.047
-269.326	-121.025	0.407	0.067
-268.311	321.377	0.212	-0.397
-267.297	-7.214	0.113	0.076
-266.282	-83.170	-0.312	0.099
-265.267	770.006	0.054	0.145
-264.253	355.861	-0.066	0.129
-263.238	-200.000	-0.035	0.158
-262.224	-200.000	0.023	-0.277
-261.209	156.769	0.177	-0.241
-260.195	-200.000	0.033	0.274
-259.180	-47.604	-0.486	0.233
-258.165	-114.597	-0.141	-0.027
-257.151	83.211	0.183	0.197
-256.136	800.000	-0.037	0.112
-255.122	-200.000	-0.001	-0.184
-254.107	103.631	0.045	-0.052
-253.092	152.376	0.122	0.164
-252.078	-45.884	-0.048	0.023
-251.063	-36.988	-0.175	0.093
-250.049	-200.000	0.043	-0.000
-249.034	-200.000	-0.025	-0.271
-248.019	99.969	-0.167	0.191
-247.005	-200.000	-0.030	0.277
-245.990	620.029	-0.055	0.137
-244.976	-33.791	-0.182	-0.099
-243.961	-181.229	0.218	-0.004
-242.946	800.000	-0.116	0.331
-241.932	800.000	0.015	0.041
-240.917	175.495	0.233	-0.333
-239.903	94.242	-0.144	0.161
-238.888	95.009	-0.210	-0.235
-237.873	689.018	-0.088	-0.228
-236.859	-200.000	0.023	0.117
-235.844	-200.000	-0.031	0.415
-234.830	616.237	0.036	-0.089
-233.815	-19.806	-0.221	-0.135
-232.800	-142.889	0.360	-0.034
-231.786	-121.343	-0.326	0.054
-230.771	800.000	0.097	0.410
-229.757	64.436	0.188	-0.186
-228.742	-54.981	0.052	-0.023
-227.727	35.657	0.056	0.049
-226.713	14.707	0.203	0.156
-225.698	161.200	-0.109	0.150
-224.684	-200.000	0.055	0.456
-223.669	-101.887	0.246	-0.059
-222.655	103.529	0.011	-0.012
-221.640	-146.927	0.334	-0.028
-220.625	-3.226	0.085	-0.058
-219.611	800.000	0.054	0.187
-218.596	608.652	0.042	-0.104
-217.582	243.262	0.156	-0.257
-216.567	-200.000	-0.041	-0.185
-215.552	128.689	0.154	0.193
-214.538	723.324	0.174	0.456
-213.523	-200.000	-0.021	0.134
-212.509	-55.167	0.275	0.122
-211.494	128.596	-0.134	0.168
-210.479	-69.718	0.151	-0.057
-209.465	800.000	-0.076	0.231
-208.450	61.625	0.106	-0.104
-207.436	-200.000	0.068	0.363
-206.421	141.747	-0.151	-0.197
-205.406	800.000	0.037	-0.139
-204.392	-49.898	-0.193	-0.090
-203.377	-26.362	0.087	0.050
-202.363	-34.959	-0.137	0.073
-201.348	739.627	-0.037	-0.097
-200.333	800.000	-0.077	-0.234
-199.319	-137.330	0.414	-0.046
-198.304	-175.926	-0.166	-0.004
-197.290	-200.000	-0.026	0.257
-196.275	-200.000	-0.071	0.372
-195.260	83.738	0.103	0.111
-194.246	-67.227	0.138	-0.053
-193.231	800.000	0.009	-0.032
-192.217	-12.209	0.094	-0.061
-191.202	-200.000	0.019	-0.120
-190.187	36.311	-0.121	-0.105
-189.173	800.000	-0.024	0.103
-188.158	573.870	-0.075	0.180
-187.144	45.090	0.326	0.296
-186.129	-91.574	-0.221	-0.062
-185.114	800.000	0.055	0.216
-184.100	-15.516	-0.076	0.048
-183.085	154.333	0.099	-0.134
-182.071	-54.001	-0.061	0.027
-181.056	-79.564	0.349	0.116
-180.042	129.411	-0.225	-0.283
-179.027	-118.663	-0.217	0.038
-178.012	49.779	-0.199	0.184
-176.998	20.467	0.210	-0.167
-175.983	-56.877	-0.052	0.023
-174.969	73.133	-0.158	0.162
-173.954	64.841	-0.288	0.285
-172.939	800.000	-0.065	0.250
-171.925	-200.000	-0.074	0.486
-170.910	-200.000	-0.009	0.232
-169.896	308.972	-0.079	-0.146
-168.881	-136.492	0.188	0.021
-167.866	-104.443	-0.134	0.030
-166.852	-67.949	-0.231	-0.088
-165.837	-98.980	0.138	-0.034
-164.823	-200.000	-0.003	0.273
-163.808	13.904	-0.313	-0.239
-162.793	-200.000	0.015	-0.295
-161.779	-179.003	-0.078	0.002
-160.764	-25.309	0.227	-0.132
-159.750	-200.000	-0.021	0.234
-158.735	-42.969	-0.687	0.342
-157.720	329.875	0.143	0.271
-156.706	-57.402	0.176	0.076
-155.691	66.856	0.241	0.241
-154.677	-200.000	0.015	0.118
-153.662	-24.349	-0.130	0.076
-152.647	-140.423	0.296	0.030
-151.633	-103.801	-0.369	-0.085
-150.618	454.250	0.097	0.211
-149.604	-200.000	-0.021	-0.181
-148.589	-67.052	0.233	0.090
-147.574	3.723	0.172	0.123
-146.560	800.000	0.023	0.065
-145.545	481.735	-0.010	0.023
-144.531	141.225	0.148	-0.192
-143.516	-64.937	-0.152	-0.060
-142.502	58.565	-0.185	-0.178
-141.487	20.008	0.066	-0.052
-140.472	296.228	-0.136	-0.245
-139.458	34.288	-0.151	0.130
-138.443	-42.087	0.144	0.072
-137.429	-102.476	-0.251	0.059
-136.414	-61.945	-0.375	-0.154
-135.399	251.374	0.137	-0.229
-134.385	-200.000	0.054	-0.237
-133.370	-32.751	-0.120	0.065
-132.356	41.662	0.047	0.042
-131.341	800.000	0.059	0.181
-130.326	341.487	0.207	-0.396
-129.312	800.000	-0.053	0.222
-128.297	-29.221	0.174	0.098
-127.283	800.000	-0.123	0.465
-126.268	-199.892	-0.250	0.001
-125.253	79.399	0.075	-0.079
-124.239	-200.000	0.030	-0.288
-123.224	5.464	0.099	0.072
-122.210	121.351	-0.227	0.277
-121.195	-70.182	-0.214	-0.080
-120.180	644.983	0.070	0.174
