DTS Sentinel unit serial number:	SN413079Multiplexer serial number:	ORYXHardware model number:	OX4-SRSoftware version number:	ORYX F/W v4.00 Oryx Data Collector v3.7.2.0data status	okinstallation	princeton_trtdifferential loss correction	single-endedforward channel	channel 2reverse channel	N/Adate	2019/09/14time	01:11:35forward acquisition time	60.00reverse acquisition time	0.00gamma	496.2192k internal	0.2338k external	0.2338temperature offset calibration	1.0126default loss term (dB/km)	0.3790temperature slope calibration	1.0000multiplexer offset coefficient	1.0000multiplexer slope coefficient	1.0000fibre end	0.00T internal ref (°C)	26.37T ext. ref 1 (°C)	3.18T ext. ref 2 (°C)	21.41length (m)	temperature (°C)	Stokes	anti-Stokes-747.200	753.442	-0.103	0.279
-746.185	800.000	-0.029	0.112
-745.171	537.525	0.077	-0.183
-744.156	-200.000	-0.059	0.542
-743.142	-132.962	-0.152	0.019
-742.127	73.728	-0.253	-0.266
-741.112	-200.000	-0.014	-0.106
-740.098	-142.705	0.156	0.015
-739.083	159.529	-0.065	-0.091
-738.069	-97.378	-0.159	0.042
-737.054	3.641	-0.291	0.213
-736.039	-200.000	0.009	0.139
-735.025	175.988	0.146	-0.213
-734.010	537.737	-0.037	-0.088
-732.996	15.649	-0.379	-0.299
-731.981	126.854	0.115	-0.146
-730.966	800.000	0.034	-0.098
-729.952	13.023	-0.265	-0.205
-728.937	-25.295	-0.120	-0.071
-727.923	43.340	0.266	-0.244
-726.908	-125.739	0.217	-0.033
-725.894	773.011	0.079	0.216
-724.879	59.167	0.129	-0.127
-723.864	800.000	-0.040	0.138
-722.850	170.722	-0.149	0.215
-721.835	-12.804	0.210	-0.137
-720.821	421.618	0.037	0.080
-719.806	165.807	-0.124	0.176
-718.791	-38.410	0.158	0.084
-717.777	-200.000	0.002	-0.352
-716.762	74.640	-0.402	-0.424
-715.748	-200.000	-0.056	-0.292
-714.733	-59.181	-0.396	0.171
-713.718	-61.198	-0.249	-0.105
-712.704	-110.948	-0.207	0.043
-711.689	89.048	-0.168	0.187
-710.675	123.351	0.063	0.079
-709.660	-130.047	0.111	0.015
-708.645	-96.288	-0.117	-0.031
-707.631	800.000	-0.101	0.349
-706.616	-86.982	-0.154	0.047
-705.602	185.088	0.068	-0.101
-704.587	-54.546	0.541	0.245
-703.572	-5.124	0.085	-0.058
-702.558	-200.000	0.002	-0.239
-701.543	-200.000	0.011	-0.070
-700.529	-27.239	-0.113	0.066
-699.514	-200.000	-0.001	-0.291
-698.499	-78.536	0.152	0.052
-697.485	-161.438	0.155	0.008
-696.470	28.802	0.173	-0.147
-695.456	25.066	0.380	-0.316
-694.441	557.593	-0.079	0.191
-693.426	23.006	0.112	-0.092
-692.412	13.377	-0.151	-0.117
-691.397	-200.000	-0.008	-0.100
-690.383	142.830	-0.108	-0.144
-689.368	37.481	-0.174	-0.155
-688.354	52.595	0.290	-0.278
-687.339	54.796	0.251	-0.243
-686.324	-23.627	-0.162	-0.098
-685.310	-87.458	0.314	0.095
-684.295	-34.377	0.030	0.017
-683.281	-20.932	-0.106	-0.065
-682.266	452.111	-0.074	-0.164
-681.251	279.799	0.073	-0.130
-680.237	-169.998	0.287	-0.010
-679.222	141.530	-0.192	-0.255
-678.208	242.132	0.035	-0.058
-677.193	-200.000	-0.075	-0.367
-676.178	-200.000	0.018	0.394
-675.164	-65.251	0.074	-0.030
-674.149	-153.445	0.440	-0.031
-673.135	800.000	-0.111	-0.376
-672.120	-84.622	-0.282	-0.089
-671.105	-200.000	-0.332	0.000
-670.091	191.939	0.040	-0.060
-669.076	-135.206	0.105	0.013
-668.062	-51.291	-0.382	-0.179
-667.047	105.824	-0.272	-0.321
-666.032	475.543	-0.081	0.184
-665.018	-86.509	-0.172	-0.053
-664.003	63.373	0.177	0.177
-662.989	-200.000	0.118	-0.000
-661.974	-200.000	-0.006	0.077
-660.959	-131.576	0.068	0.009
-659.945	4.412	-0.247	0.181
-658.930	72.884	0.229	-0.240
-657.916	547.562	0.194	-0.464
-656.901	58.720	-0.093	0.091
-655.886	-81.307	0.113	0.037
-654.872	-200.000	-0.072	-0.342
-653.857	107.553	-0.073	0.087
-652.843	-111.991	-0.175	0.035
-651.828	-117.334	0.194	0.035
-650.814	-71.658	-0.237	0.088
-649.799	96.769	-0.181	0.207
-648.784	-18.187	-0.214	-0.134
-647.770	94.412	0.095	0.108
-646.755	47.444	-0.067	0.063
-645.741	-200.000	-0.029	0.492
-644.726	-63.122	0.117	0.048
-643.711	800.000	-0.097	-0.342
-642.697	183.198	-0.222	-0.327
-641.682	-200.000	-0.009	-0.317
-640.668	-200.000	-0.024	0.156
-639.653	213.845	-0.147	-0.232
-638.638	49.542	-0.204	0.192
-637.624	-134.434	0.183	-0.022
-636.609	-94.008	-0.117	0.032
-635.595	-200.000	0.001	0.035
-634.580	-200.000	-0.225	0.000
-633.565	709.026	0.121	-0.320
-632.551	800.000	0.023	-0.083
-631.536	-200.000	-0.037	0.187
-630.522	-200.000	0.004	-0.228
-629.507	-200.000	-0.059	-0.483
-628.492	-198.869	-0.296	-0.002
-627.478	15.753	-0.116	-0.091
-626.463	83.884	-0.013	0.014
-625.449	800.000	0.086	0.267
-624.434	183.738	-0.066	-0.097
-623.419	-64.882	-0.251	-0.101
-622.405	410.711	-0.046	0.098
-621.390	500.804	-0.082	0.190
-620.376	429.265	0.111	0.240
-619.361	-84.464	-0.083	-0.026
-618.346	161.543	0.169	-0.235
-617.332	800.000	-0.041	0.125
-616.317	800.000	0.028	-0.095
-615.303	-200.000	-0.029	0.237
-614.288	-200.000	0.003	-0.148
-613.273	80.030	-0.099	0.107
-612.259	-57.779	-0.227	-0.099
-611.244	-200.000	0.022	0.459
-610.230	-200.000	0.003	0.089
-609.215	-197.896	-0.373	0.002
-608.201	-77.651	-0.456	-0.158
-607.186	418.716	0.120	-0.256
-606.171	-101.931	0.212	0.051
-605.157	66.172	-0.179	-0.182
-604.142	-200.000	-0.018	-0.327
-603.128	-200.000	0.044	-0.274
-602.113	125.929	-0.044	0.055
-601.098	-200.000	0.047	0.239
-600.084	-200.000	-0.033	-0.302
-599.069	43.329	-0.052	0.047
-598.055	701.714	0.151	-0.396
-597.040	58.072	0.132	-0.129
-596.025	214.054	-0.132	0.208
-595.011	-60.625	-0.118	0.050
-593.996	145.728	0.107	0.144
-592.982	-68.035	0.147	-0.057
-591.967	-200.000	-0.023	0.228
-590.952	-200.000	-0.058	0.348
-589.938	-44.732	-0.350	-0.174
-588.923	-49.799	-0.350	-0.166
-587.909	800.000	-0.076	-0.264
-586.894	733.860	0.075	-0.201
-585.879	-74.162	-0.294	0.106
-584.865	-200.000	-0.003	-0.084
-583.850	-200.000	0.023	0.211
-582.836	-200.000	0.110	-0.486
-581.821	729.692	0.097	-0.259
-580.806	98.253	0.092	-0.105
-579.792	-200.000	0.046	-0.360
-578.777	-70.199	0.120	-0.046
-577.763	31.720	-0.137	-0.118
-576.748	315.176	0.197	0.371
-575.733	800.000	0.053	-0.154
-574.719	-200.000	0.015	0.088
-573.704	-108.335	-0.230	0.049
-572.690	-47.155	0.042	0.021
-571.675	800.000	0.048	-0.146
-570.661	800.000	-0.050	-0.142
-569.646	-200.000	0.010	0.074
-568.631	-88.958	-0.270	0.080
-567.617	800.000	0.034	-0.116
-566.602	327.490	-0.156	0.298
-565.588	-200.000	0.012	0.123
-564.573	-200.000	-0.002	0.252
-563.558	668.850	0.071	0.183
-562.544	485.142	0.079	0.180
-561.529	7.071	0.074	0.055
-560.515	77.851	-0.242	-0.257
-559.500	254.249	-0.135	-0.231
-558.485	35.402	-0.314	-0.274
-557.471	72.393	-0.290	-0.301
-556.456	-10.673	0.125	0.082
-555.442	-200.000	0.019	0.243
-554.427	10.774	0.201	-0.153
-553.412	-57.536	-0.253	0.111
-552.398	-200.000	0.010	0.100
-551.383	-138.003	0.375	0.042
-550.369	528.507	-0.144	0.339
-549.354	88.657	-0.152	-0.169
-548.339	21.027	-0.195	-0.157
-547.325	-6.369	0.094	-0.064
-546.310	365.335	0.070	-0.140
-545.296	-147.623	0.303	-0.025
-544.281	117.639	-0.101	0.124
-543.266	-152.065	0.264	-0.019
-542.252	-116.081	0.115	-0.021
-541.237	204.875	0.239	0.370
-540.223	-97.419	-0.132	0.034
-539.208	134.357	0.160	-0.206
-538.193	696.463	-0.132	-0.345
-537.179	-92.282	-0.447	0.125
-536.164	-34.268	0.139	-0.076
-535.150	80.596	-0.170	0.182
-534.135	476.984	-0.117	-0.263
-533.121	-29.068	0.197	-0.113
-532.106	-200.000	-0.014	0.377
-531.091	29.304	0.093	0.079
-530.077	6.968	-0.094	-0.069
-529.062	800.000	0.047	0.132
-528.048	-85.481	0.278	0.086
-527.033	-0.121	0.195	-0.138
-526.018	542.380	0.088	-0.210
-525.004	544.965	-0.134	-0.319
-523.989	800.000	-0.110	0.327
-522.975	-200.000	0.041	-0.284
-521.960	240.984	0.091	0.152
-520.945	-74.692	0.364	0.130
-519.931	-30.555	0.178	0.101
-518.916	507.673	0.083	-0.191
-517.902	-85.074	-0.199	0.062
-516.887	-139.822	-0.182	0.019
-515.872	15.214	0.261	-0.204
-514.858	86.722	-0.029	-0.032
-513.843	800.000	-0.060	-0.203
-512.829	-174.665	0.321	0.009
-511.814	-50.112	0.454	-0.214
-510.799	121.007	-0.147	-0.182
-509.785	-89.817	-0.191	0.056
-508.770	-53.592	0.098	0.045
-507.756	18.341	-0.060	-0.048
-506.741	-40.312	-0.169	0.088
-505.726	102.915	-0.109	0.126
-504.712	112.427	-0.075	0.091
-503.697	800.000	0.056	-0.184
-502.683	-23.963	0.157	-0.093
-501.668	800.000	-0.087	-0.243
-500.653	-200.000	0.005	-0.121
-499.639	-78.816	0.213	0.072
-498.624	800.000	-0.030	0.084
-497.610	-144.971	-0.039	-0.004
-496.595	731.671	0.116	0.308
-495.581	-38.996	-0.119	-0.062
-494.566	156.557	-0.140	0.192
-493.551	-20.824	-0.308	-0.188
-492.537	498.159	-0.069	-0.159
-491.522	-116.192	0.263	0.049
-490.508	-200.000	0.004	-0.208
-489.493	-111.216	-0.026	-0.005
-488.478	-170.952	0.171	-0.006
-487.464	110.023	-0.192	0.228
-486.449	-37.306	-0.290	-0.154
-485.435	-60.860	-0.133	0.056
-484.420	24.084	-0.091	-0.074
-483.405	-200.000	0.016	0.335
-482.391	451.317	-0.079	-0.173
-481.376	-20.093	0.281	-0.172
-480.362	287.973	0.170	0.306
-479.347	-54.429	-0.226	0.102
-478.332	-66.852	0.200	-0.079
-477.318	800.000	0.064	0.210
-476.303	-23.817	0.122	0.073
-475.289	3.945	0.295	-0.214
-474.274	273.940	-0.165	-0.290
-473.259	800.000	-0.069	-0.198
-472.245	800.000	0.096	0.329
-471.230	129.955	-0.026	-0.033
-470.216	386.798	0.067	-0.137
-469.201	490.821	0.106	0.242
-468.186	800.000	-0.035	0.145
-467.172	800.000	-0.096	0.344
-466.157	-114.724	-0.235	-0.045
-465.143	58.221	0.166	-0.161
-464.128	-75.076	-0.208	-0.074
-463.113	89.560	0.123	-0.136
-462.099	443.095	0.111	-0.241
-461.084	-200.000	0.024	0.277
-460.070	-200.000	0.014	0.147
-459.055	342.439	-0.169	-0.328
-458.040	118.336	-0.295	-0.362
-457.026	-117.550	0.044	0.008
-456.011	-61.643	0.208	0.087
-454.997	800.000	-0.068	0.246
-453.982	-16.172	0.125	-0.079
-452.968	114.854	0.055	0.067
-451.953	-93.508	-0.379	0.104
-450.938	800.000	0.047	0.173
-449.924	-173.323	0.163	0.005
-448.909	579.302	0.027	-0.065
-447.895	-200.000	0.019	-0.084
-446.880	113.687	0.366	0.441
-445.865	-49.287	0.236	0.112
-444.851	-200.000	0.009	-0.208
-443.836	-145.381	0.384	0.034
-442.822	307.649	0.119	0.221
-441.807	436.713	0.133	-0.286
-440.792	-52.634	-0.132	-0.061
-439.778	-189.883	0.423	-0.005
-438.763	-200.000	-0.019	-0.431
-437.749	-200.000	0.016	-0.133
-436.734	557.001	0.087	0.208
-435.719	140.903	-0.174	0.228
-434.705	-131.350	-0.310	-0.041
-433.690	-28.241	0.137	-0.078
-432.676	-141.505	-0.194	0.019
-431.661	-49.225	-0.152	0.072
-430.646	619.673	0.112	-0.279
-429.632	-63.467	0.359	0.146
-428.617	-67.232	-0.365	0.142
-427.603	-58.003	0.262	-0.114
-426.588	670.292	-0.045	0.116
-425.573	-200.000	-0.008	0.195
-424.559	800.000	0.124	0.383
-423.544	-134.322	-0.224	-0.027
-422.530	-87.904	0.196	-0.058
-421.515	-67.355	-0.315	-0.123
-420.500	695.658	0.074	0.193
-419.486	135.215	-0.260	0.335
-418.471	106.675	0.330	0.388
-417.457	158.070	0.019	-0.027
-416.442	110.003	0.108	0.129
-415.428	188.110	0.019	0.027
-414.413	-81.898	0.272	-0.088
-413.398	-62.616	0.253	-0.104
-412.384	-200.000	-0.003	-0.163
-411.369	-152.565	0.180	-0.013
-410.355	394.136	-0.113	-0.233
-409.340	-129.946	0.230	-0.031
-408.325	477.248	-0.092	0.205
-407.311	800.000	0.070	-0.279
-406.296	419.441	0.182	-0.386
-405.282	-10.025	0.190	-0.125
-404.267	-200.000	0.006	-0.038
-403.252	-52.492	0.120	0.055
-402.238	104.698	-0.097	0.113
-401.223	-160.390	0.078	-0.004
-400.209	715.512	-0.079	-0.209
-399.194	-84.523	0.168	0.053
-398.179	-11.503	-0.229	-0.149
-397.165	-44.811	0.049	-0.024
-396.150	-200.000	0.034	0.248
-395.136	-126.684	0.245	0.036
-394.121	44.051	-0.058	-0.052
-393.106	-200.000	0.051	0.224
-392.092	-93.517	0.098	-0.027
-391.077	54.735	0.246	0.235
-390.063	25.209	-0.131	-0.108
-389.048	-18.651	-0.178	-0.110
-388.033	166.241	0.011	0.016
-387.019	-85.714	-0.399	0.122
-386.004	5.939	0.193	0.142
-384.990	0.750	-0.276	-0.196
-383.975	-144.535	0.274	-0.025
-382.960	78.127	0.085	-0.090
-381.946	-80.389	-0.289	-0.095
-380.931	-63.450	0.216	0.088
-379.917	196.162	-0.052	-0.078
-378.902	-200.000	0.005	-0.132
-377.888	-155.347	0.178	0.011
-376.873	-62.675	-0.185	-0.076
-375.858	800.000	0.052	0.202
-374.844	-200.000	-0.006	-0.174
-373.829	38.737	0.175	-0.155
-372.815	-110.591	0.086	-0.018
-371.800	-25.151	-0.118	0.069
-370.785	-157.265	-0.151	-0.009
-369.771	-65.331	-0.359	0.143
-368.756	-37.294	0.219	0.116
-367.742	375.328	-0.067	0.136
-366.727	77.678	-0.112	-0.117
-365.712	202.150	-0.080	0.122
-364.698	800.000	0.026	-0.088
-363.683	78.670	0.295	-0.312
-362.669	-55.127	-0.566	-0.252
-361.654	272.224	-0.072	-0.125
-360.639	76.316	0.132	0.139
-359.625	-26.169	-0.051	-0.030
-358.610	-60.932	-0.277	-0.116
-357.596	-200.000	-0.011	-0.423
-356.581	22.273	-0.221	-0.179
-355.566	99.634	0.399	-0.457
-354.552	-44.281	0.031	0.015
-353.537	-156.765	-0.297	0.018
-352.523	22.419	0.136	-0.110
-351.508	151.835	-0.187	0.252
-350.493	515.947	-0.174	-0.403
-349.479	172.150	0.104	-0.148
-348.464	-200.000	0.035	-0.170
-347.450	145.614	-0.072	-0.095
-346.435	35.514	0.240	-0.208
-345.420	-181.910	-0.252	-0.005
-344.406	395.535	-0.095	0.195
-343.391	142.383	-0.157	0.206
-342.377	800.000	0.070	0.206
-341.362	-7.177	0.245	-0.164
-340.348	-25.320	0.102	-0.060
-339.333	800.000	0.024	0.097
-338.318	431.779	0.101	0.217
-337.304	143.108	0.108	-0.142
-336.289	-113.290	0.088	-0.017
-335.275	-91.171	0.147	0.042
-334.260	-106.854	-0.143	0.031
-333.245	-200.000	-0.003	0.211
-332.231	269.189	0.084	-0.146
-331.216	-35.617	-0.262	0.141
-330.202	-42.258	0.303	0.153
-329.187	800.000	0.053	0.209
-328.172	-57.927	-0.264	0.114
-327.158	-162.359	-0.212	-0.010
-326.143	58.620	-0.093	-0.090
-325.129	-93.846	-0.168	0.046
-324.114	-29.418	0.352	0.199
-323.099	-128.203	0.215	0.030
-322.085	50.886	-0.374	0.350
-321.070	57.893	-0.087	-0.084
-320.056	67.751	0.286	0.289
-319.041	-79.486	-0.468	0.156
-318.026	529.041	-0.030	-0.070
-317.012	-82.008	-0.273	-0.088
-315.997	24.611	-0.299	0.244
-314.983	196.437	0.118	0.177
-313.968	372.505	-0.181	0.362
-312.953	-106.001	0.248	-0.055
-311.939	-51.189	0.173	0.080
-310.924	500.919	-0.066	-0.150
-309.910	-181.713	0.164	-0.003
-308.895	-126.105	0.129	0.019
-307.880	776.715	0.052	0.139
-306.866	-200.000	-0.024	-0.289
-305.851	515.812	0.050	-0.116
-304.837	-81.624	0.190	0.062
-303.822	-18.557	0.314	0.193
-302.807	-53.168	0.245	-0.111
-301.793	800.000	-0.040	-0.143
-300.778	-128.468	0.102	0.014
-299.764	-68.127	-0.169	-0.065
-298.749	-31.487	-0.436	-0.242
-297.735	-57.761	0.200	0.086
-296.720	-200.000	0.038	-0.220
-295.705	37.549	-0.117	0.103
-294.691	94.985	0.291	0.327
-293.676	-150.059	0.165	0.013
-292.662	124.964	-0.117	0.145
-291.647	480.968	-0.105	0.235
-290.632	41.408	-0.190	0.169
-289.618	37.163	-0.186	-0.162
-288.603	16.551	0.141	-0.110
-287.589	41.850	0.150	-0.134
-286.574	-29.019	0.146	-0.083
-285.559	52.612	-0.231	0.218
-284.545	112.147	-0.229	0.273
-283.530	28.528	0.180	-0.150
-282.516	-19.879	0.159	0.097
-281.501	-200.000	-0.007	0.122
-280.486	638.433	0.046	-0.115
-279.472	800.000	-0.017	0.059
-278.457	800.000	-0.057	0.185
-277.443	282.683	0.074	0.130
-276.428	122.066	-0.194	-0.239
-275.413	75.283	0.075	-0.078
-274.399	800.000	0.041	-0.163
-273.384	800.000	0.114	0.412
-272.370	3.822	0.235	0.169
-271.355	-200.000	0.057	-0.361
-270.340	-18.370	-0.162	-0.100
-269.326	-166.080	0.404	0.017
-268.311	800.000	-0.087	0.263
-267.297	130.722	0.082	0.103
-266.282	185.146	0.225	0.329
-265.267	-76.087	0.356	-0.124
-264.253	138.096	-0.231	-0.299
-263.238	-200.000	-0.088	0.452
-262.224	94.123	0.126	0.141
-261.209	239.476	-0.218	0.358
-260.195	800.000	0.115	0.381
-259.180	-151.231	-0.258	0.019
-258.165	800.000	-0.106	0.383
-257.151	800.000	0.105	-0.417
-256.136	27.381	-0.177	-0.146
-255.122	-95.686	-0.125	-0.033
-254.107	-80.301	-0.048	-0.016
-253.092	-190.461	-0.110	-0.001
-252.078	-148.917	-0.301	0.024
-251.063	10.425	-0.294	0.220
-250.049	-141.187	-0.285	0.029
-249.034	-200.000	0.016	0.081
-248.019	96.719	0.087	0.098
-247.005	-49.013	0.064	0.030
-245.990	174.038	-0.014	-0.020
-244.976	0.520	-0.228	-0.161
-243.961	-200.000	-0.001	0.302
-242.946	-200.000	0.001	0.142
-241.932	-200.000	-0.013	-0.096
-240.917	-200.000	-0.030	0.160
-239.903	22.932	0.163	-0.132
-238.888	4.585	-0.287	0.207
-237.873	63.435	-0.044	0.044
-236.859	-24.312	-0.138	-0.081
-235.844	-200.000	0.016	0.366
-234.830	131.360	0.174	0.220
-233.815	436.322	0.051	-0.109
-232.800	13.432	-0.194	-0.148
-231.786	-141.831	0.203	-0.020
-230.771	-200.000	0.014	0.298
-229.757	-184.597	-0.262	0.004
-228.742	302.357	-0.100	0.183
-227.727	-200.000	0.040	0.293
-226.713	-5.042	-0.080	-0.054
-225.698	135.225	-0.103	-0.132
-224.684	-138.548	0.144	-0.016
-223.669	173.538	-0.221	-0.313
-222.655	-45.254	-0.153	-0.075
-221.640	-133.940	-0.388	-0.047
-220.625	88.166	0.220	0.240
-219.611	-49.365	0.277	-0.130
-218.596	-20.802	-0.236	0.142
-217.582	435.263	-0.086	-0.184
-216.567	-95.079	-0.125	0.033
-215.552	-18.410	0.136	-0.083
-214.538	235.754	0.053	-0.086
-213.523	-62.899	0.177	-0.072
-212.509	-200.000	-0.007	0.035
-211.494	-50.055	0.412	0.192
-210.479	285.852	-0.208	-0.369
-209.465	-118.898	0.261	-0.045
-208.450	800.000	0.024	0.095
-207.436	-30.087	-0.127	0.071
-206.421	36.676	0.080	-0.069
-205.406	-53.113	0.207	-0.093
-204.392	-149.209	0.165	0.013
-203.377	-39.149	0.152	-0.079
-202.363	-64.728	-0.090	0.036
-201.348	-200.000	-0.023	0.284
-200.333	205.382	0.051	0.078
-199.319	105.407	0.033	0.039
-198.304	784.023	-0.047	0.127
-197.290	-123.307	0.058	0.009
-196.275	-14.575	0.243	-0.154
-195.260	-163.503	0.239	-0.011
-194.246	64.701	-0.194	-0.192
-193.231	129.213	-0.090	-0.112
-192.217	-6.409	0.294	0.197
-191.202	87.335	0.290	-0.315
-190.187	-61.330	0.208	-0.086
-189.173	305.074	-0.136	-0.248
-188.158	-65.076	-0.324	-0.128
-187.144	-47.758	0.412	-0.196
-186.129	591.323	-0.026	-0.064
-185.114	800.000	-0.048	0.204
-184.100	-152.321	-0.151	-0.011
-183.085	800.000	0.065	-0.181
-182.071	142.531	0.042	0.054
-181.056	636.209	0.073	0.181
-180.042	497.286	0.060	0.135
-179.027	103.247	0.203	-0.233
-178.012	-102.966	0.213	0.050
-176.998	-200.000	0.002	-0.192
-175.983	-200.000	0.007	-0.173
-174.969	428.262	0.144	-0.304
-173.954	62.863	0.067	-0.065
-172.939	211.994	0.067	-0.103
-171.925	-175.147	-0.120	-0.003
-170.910	617.169	-0.194	0.477
-169.896	800.000	0.077	0.297
-168.881	-153.953	0.200	0.013
-167.866	-25.889	-0.124	-0.072
-166.852	-80.628	0.193	-0.063
-165.837	-123.847	0.209	0.032
-164.823	-200.000	0.105	-0.517
-163.808	293.160	-0.115	0.206
-162.793	652.087	-0.097	0.244
-161.779	-42.934	0.105	0.052
-160.764	-200.000	0.018	-0.276
-159.750	800.000	0.013	0.043
-158.735	94.501	-0.128	-0.143
-157.720	243.470	0.144	0.236
-156.706	-200.000	-0.048	0.286
-155.691	-200.000	0.011	0.222
-154.677	49.983	-0.385	0.356
-153.662	11.490	-0.257	-0.193
-152.647	-133.812	0.173	-0.021
-151.633	-170.999	0.160	-0.005
-150.618	106.246	-0.103	-0.120
-149.604	3.993	0.211	-0.152
-148.589	-89.438	0.403	0.116
-147.574	505.087	-0.080	0.181
-146.560	-47.254	-0.377	-0.180
-145.545	64.464	-0.122	0.120
-144.531	-200.000	0.031	0.421
-143.516	-43.773	0.081	0.040
-142.502	13.993	-0.186	0.142
-141.487	390.572	-0.128	0.261
-140.472	-104.879	0.238	0.053
-139.458	-200.000	-0.011	-0.443
-138.443	-200.000	0.019	-0.298
-137.429	-42.389	-0.288	0.144
-136.414	57.846	0.119	0.114
-135.399	55.677	-0.124	-0.117
-134.385	19.302	0.115	-0.091
-133.370	145.330	0.069	-0.091
-132.356	127.286	-0.132	0.164
-131.341	-82.589	-0.345	0.110
-130.326	-200.000	-0.052	0.357
-129.312	63.438	0.104	-0.102
-128.297	-5.942	-0.125	-0.084
-127.283	800.000	-0.185	0.534
-126.268	-31.092	-0.294	-0.162
-125.253	191.770	0.181	0.267
-124.239	-157.704	-0.374	-0.022
-123.224	163.359	0.153	-0.210
-122.210	-129.889	0.204	0.027
-121.195	-200.000	0.079	0.367
-120.180	11.373	0.109	-0.082
