DTS Sentinel unit serial number:	SN413079Multiplexer serial number:	ORYXHardware model number:	OX4-SRSoftware version number:	ORYX F/W v4.00 Oryx Data Collector v3.7.2.0data status	okinstallation	princeton_trtdifferential loss correction	single-endedforward channel	channel 2reverse channel	N/Adate	2019/09/14time	20:39:34forward acquisition time	60.00reverse acquisition time	0.00gamma	496.2192k internal	0.2322k external	0.2322temperature offset calibration	1.0083default loss term (dB/km)	0.3790temperature slope calibration	1.0000multiplexer offset coefficient	1.0000multiplexer slope coefficient	1.0000fibre end	0.00T internal ref (°C)	33.41T ext. ref 1 (°C)	4.79T ext. ref 2 (°C)	28.05length (m)	temperature (°C)	Stokes	anti-Stokes-747.200	-108.517	0.158	0.034
-746.185	159.812	-0.245	0.345
-745.171	445.828	-0.066	0.147
-744.156	70.503	0.098	-0.102
-743.142	9.830	-0.201	0.154
-742.127	539.137	-0.094	0.226
-741.112	800.000	-0.074	0.207
-740.098	-58.963	-0.305	0.133
-739.083	800.000	-0.044	0.179
-738.069	800.000	-0.108	0.450
-737.054	-109.779	-0.266	-0.056
-736.039	-62.763	-0.172	0.072
-735.025	38.425	-0.137	0.123
-734.010	-71.591	-0.233	0.088
-732.996	46.596	-0.488	-0.457
-731.981	396.527	-0.023	0.049
-730.966	-70.904	0.167	0.064
-729.952	-90.241	-0.290	-0.085
-728.937	28.557	-0.203	0.174
-727.923	-107.110	-0.128	0.028
-726.908	-133.719	0.112	0.014
-725.894	164.697	0.139	-0.198
-724.879	800.000	-0.022	-0.064
-723.864	13.161	0.282	-0.221
-722.850	800.000	0.049	0.174
-721.835	-136.884	-0.361	-0.042
-720.821	-88.649	0.187	-0.056
-719.806	61.238	-0.112	-0.112
-718.791	-129.363	-0.080	-0.011
-717.777	-83.339	-0.079	0.026
-716.762	1.315	-0.199	-0.144
-715.748	-85.928	-0.116	-0.036
-714.733	-15.570	0.180	-0.116
-713.718	-116.489	0.063	0.012
-712.704	-164.124	-0.270	0.013
-711.689	139.656	-0.293	0.390
-710.675	-20.015	0.252	-0.157
-709.660	6.530	-0.379	-0.284
-708.645	-200.000	-0.030	-0.147
-707.631	-200.000	-0.023	0.175
-706.616	800.000	-0.146	0.453
-705.602	-75.673	0.137	0.049
-704.587	642.189	0.106	0.273
-703.572	-2.751	0.156	0.110
-702.558	-59.904	0.203	0.088
-701.543	-132.510	0.340	-0.044
-700.529	-116.336	0.189	0.035
-699.514	-61.432	0.161	-0.068
-698.499	592.115	0.078	0.195
-697.485	416.346	0.114	0.246
-696.470	245.966	-0.117	0.199
-695.456	387.415	-0.117	-0.244
-694.441	47.521	0.264	0.248
-693.426	800.000	-0.021	0.064
-692.412	-56.571	0.129	0.058
-691.397	-153.434	-0.210	-0.015
-690.383	-73.602	-0.095	0.035
-689.368	488.422	-0.126	-0.290
-688.354	-92.449	0.243	0.069
-687.339	-68.179	-0.304	-0.119
-686.324	49.843	-0.098	-0.093
-685.310	800.000	-0.142	0.424
-684.295	6.295	0.037	-0.027
-683.281	-103.845	-0.028	-0.007
-682.266	-128.331	0.583	-0.084
-681.251	-200.000	-0.040	-0.719
-680.237	-139.822	-0.139	0.015
-679.222	-94.760	-0.289	0.079
-678.208	800.000	0.100	-0.330
-677.193	-200.000	-0.041	-0.249
-676.178	-33.035	-0.139	0.078
-675.164	-90.848	0.185	-0.054
-674.149	183.775	0.129	0.192
-673.135	-63.653	0.299	0.123
-672.120	434.671	0.115	-0.253
-671.105	800.000	-0.066	-0.217
-670.091	-161.693	-0.107	-0.006
-669.076	116.600	0.105	-0.130
-668.062	-127.388	-0.189	-0.028
-667.047	-81.811	0.249	-0.082
-666.032	-107.502	-0.255	-0.056
-665.018	-168.115	-0.286	0.011
-664.003	-200.000	0.033	0.383
-662.989	-200.000	-0.032	0.220
-661.974	-50.601	-0.088	0.042
-660.959	-43.405	-0.373	0.190
-659.945	-21.318	-0.017	0.011
-658.930	800.000	-0.094	-0.364
-657.916	-79.796	-0.218	-0.074
-656.901	-200.000	0.004	0.118
-655.886	-35.338	-0.042	0.023
-654.872	-159.359	0.383	0.022
-653.857	400.580	-0.071	-0.149
-652.843	-31.392	-0.171	0.097
-651.828	-126.572	-0.195	0.029
-650.814	-18.722	-0.312	-0.196
-649.799	-161.414	-0.088	0.005
-648.784	415.127	-0.188	-0.404
-647.770	59.797	-0.162	0.161
-646.755	-22.873	-0.183	-0.111
-645.741	-158.626	0.279	0.016
-644.726	-200.000	-0.028	-0.237
-643.711	85.223	0.101	0.111
-642.697	-22.041	-0.068	0.042
-641.682	447.239	-0.028	-0.062
-640.668	-200.000	0.066	0.350
-639.653	195.000	-0.092	0.140
-638.638	-49.808	-0.047	0.022
-637.624	-200.000	0.038	0.195
-636.609	-200.000	-0.020	-0.127
-635.595	48.480	0.126	-0.119
-634.580	120.957	0.185	0.232
-633.565	718.668	-0.038	-0.102
-632.551	-161.741	-0.021	-0.001
-631.536	654.264	-0.062	-0.160
-630.522	-63.757	0.294	-0.121
-629.507	-30.265	-0.365	-0.209
-628.492	-200.000	-0.053	0.286
-627.478	70.245	-0.108	-0.112
-626.463	800.000	-0.059	0.230
-625.449	-54.791	-0.084	0.038
-624.434	-141.033	-0.306	-0.031
-623.419	-148.355	0.135	-0.011
-622.405	234.608	-0.069	-0.115
-621.390	-45.124	-0.262	0.131
-620.376	-109.533	0.158	0.034
-619.361	-82.462	-0.175	0.057
-618.346	-14.877	0.257	-0.166
-617.332	-200.000	0.009	-0.160
-616.317	-8.094	-0.122	0.082
-615.303	-12.078	-0.496	-0.327
-614.288	-174.924	0.312	-0.009
-613.273	-200.000	0.022	-0.275
-612.259	-121.048	0.459	0.077
-611.244	-200.000	-0.036	0.165
-610.230	49.924	0.141	-0.134
-609.215	112.192	-0.162	-0.196
-608.201	77.410	0.085	0.091
-607.186	118.818	0.218	0.271
-606.171	-147.317	-0.357	-0.030
-605.157	-4.932	0.126	0.087
-604.142	800.000	-0.011	0.039
-603.128	-68.739	0.184	0.071
-602.113	-200.000	0.025	-0.148
-601.098	-93.772	-0.088	0.024
-600.084	-200.000	0.015	-0.195
-599.069	168.917	0.048	0.069
-598.055	-139.231	0.063	0.007
-597.040	-133.739	0.201	0.025
-596.025	-200.000	-0.008	0.194
-595.011	-95.965	-0.366	0.098
-593.996	-114.705	0.230	0.044
-592.982	-25.610	0.274	-0.162
-591.967	-200.000	0.017	-0.267
-590.952	245.553	-0.164	0.277
-589.938	5.160	0.098	0.073
-588.923	-17.536	-0.076	-0.048
-587.909	21.620	0.082	-0.067
-586.894	-200.000	0.008	0.404
-585.879	-162.008	0.274	0.014
-584.865	-49.589	-0.304	0.145
-583.850	-200.000	0.019	-0.203
-582.836	432.915	-0.104	-0.227
-581.821	-162.646	0.100	-0.005
-580.806	773.715	-0.094	-0.258
-579.792	-22.681	-0.182	0.111
-578.777	-43.436	-0.154	0.078
-577.763	121.170	0.036	0.044
-576.748	-175.470	-0.380	-0.010
-575.733	-69.427	-0.242	-0.093
-574.719	188.532	-0.130	0.195
-573.704	43.098	0.162	0.149
-572.690	94.188	0.224	-0.255
-571.675	-200.000	0.039	-0.401
-570.661	-74.285	-0.245	-0.089
-569.646	-200.000	0.031	0.340
-568.631	363.533	0.155	0.313
-567.617	-200.000	-0.011	0.202
-566.602	8.522	0.233	-0.176
-565.588	-24.128	0.078	-0.046
-564.573	-54.312	0.102	0.046
-563.558	-91.865	-0.094	0.027
-562.544	-200.000	0.024	0.187
-561.529	-200.000	0.020	0.135
-560.515	195.502	0.097	0.148
-559.500	-2.110	0.244	-0.172
-558.485	800.000	-0.048	0.164
-557.471	-200.000	-0.081	0.500
-556.456	12.842	-0.171	0.132
-555.442	259.434	-0.049	-0.084
-554.427	-112.936	-0.050	0.010
-553.412	-130.758	-0.168	0.023
-552.398	-200.000	0.023	0.163
-551.383	-200.000	0.048	0.215
-550.369	-90.224	0.420	0.122
-549.354	-107.583	-0.101	0.022
-548.339	-34.942	0.164	0.090
-547.325	281.962	0.099	0.178
-546.310	113.539	-0.060	0.073
-545.296	244.559	0.072	-0.121
-544.281	282.809	-0.129	0.232
-543.266	800.000	-0.025	0.091
-542.252	800.000	0.070	0.279
-541.237	-137.337	-0.206	0.023
-540.223	23.989	0.207	-0.171
-539.208	-90.670	-0.230	0.067
-538.193	-140.119	0.189	-0.020
-537.179	-46.877	-0.278	-0.136
-536.164	-200.000	-0.028	-0.274
-535.150	800.000	-0.053	0.213
-534.135	496.887	-0.146	-0.337
-533.121	-106.998	-0.337	0.075
-532.106	800.000	0.034	0.139
-531.091	-200.000	0.029	0.184
-530.077	232.855	0.378	-0.622
-529.062	800.000	0.071	-0.207
-528.048	22.469	0.369	-0.302
-527.033	-70.701	0.037	0.014
-526.018	800.000	-0.057	-0.235
-525.004	-15.988	-0.400	-0.255
-523.989	-200.000	0.043	0.263
-522.975	-26.964	-0.041	-0.024
-521.960	102.006	-0.038	-0.044
-520.945	-153.945	0.177	-0.012
-519.931	82.965	-0.140	-0.152
-518.916	652.722	-0.006	-0.016
-517.902	-11.007	0.086	-0.057
-516.887	-122.685	-0.304	0.049
-515.872	201.917	0.036	0.055
-514.858	-200.000	-0.029	0.145
-513.843	-15.484	-0.197	-0.126
-512.829	-118.131	0.163	0.029
-511.814	20.062	-0.115	-0.093
-510.799	17.447	0.169	-0.135
-509.785	-200.000	-0.051	-0.344
-508.770	-200.000	-0.046	-0.256
-507.756	231.754	-0.134	-0.220
-506.741	800.000	0.075	-0.238
-505.726	74.614	-0.242	-0.255
-504.712	713.959	-0.049	-0.130
-503.697	800.000	-0.050	0.172
-502.683	-79.816	0.118	-0.040
-501.668	-200.000	0.004	-0.019
-500.653	-200.000	0.018	0.221
-499.639	-64.309	0.156	0.063
-498.624	193.815	-0.116	0.176
-497.610	-200.000	0.002	0.312
-496.595	-74.024	-0.152	0.055
-495.581	-173.161	-0.285	0.009
-494.566	-124.978	0.083	0.013
-493.551	-200.000	0.009	-0.273
-492.537	319.436	-0.113	-0.214
-491.522	437.832	-0.069	-0.151
-490.508	-164.617	-0.312	-0.014
-489.493	124.508	-0.189	-0.238
-488.478	157.499	0.136	-0.188
-487.464	-102.997	-0.298	-0.071
-486.449	-200.000	0.029	0.315
-485.435	-48.071	0.225	0.109
-484.420	253.424	0.109	-0.187
-483.405	-49.131	0.287	-0.137
-482.391	-43.731	0.316	0.159
-481.376	-98.962	-0.085	0.021
-480.362	-128.161	-0.205	-0.029
-479.347	-114.395	-0.375	0.072
-478.332	-69.898	-0.138	-0.053
-477.318	152.794	-0.269	-0.368
-476.303	-58.470	-0.210	0.091
-475.289	-200.000	-0.020	-0.208
-474.274	66.425	0.033	-0.033
-473.259	12.920	-0.163	0.126
-472.245	-106.482	0.386	0.086
-471.230	249.162	0.168	-0.285
-470.216	0.309	-0.203	-0.145
-469.201	-10.905	-0.069	0.046
-468.186	101.402	0.163	0.190
-467.172	44.889	0.145	0.134
-466.157	9.795	-0.150	-0.113
-465.143	-1.999	0.089	0.062
-464.128	-85.636	0.138	-0.043
-463.113	150.307	0.155	-0.210
-462.099	82.633	0.086	-0.093
-461.084	-132.484	-0.047	-0.006
-460.070	-200.000	-0.082	0.378
-459.055	-143.252	-0.198	-0.019
-458.040	409.829	-0.118	0.250
-457.026	-108.975	-0.477	0.102
-456.011	-200.000	-0.034	0.162
-454.997	-117.482	0.513	0.093
-453.982	800.000	0.022	-0.071
-452.968	800.000	-0.070	-0.196
-451.953	-84.796	-0.111	0.035
-450.938	-109.813	0.301	0.063
-449.924	262.356	0.124	-0.214
-448.909	-128.771	-0.068	0.010
-447.895	800.000	0.095	0.331
-446.880	48.947	-0.204	0.191
-445.865	-144.770	-0.026	-0.002
-444.851	204.023	0.095	-0.147
-443.836	-125.541	0.355	-0.054
-442.822	-77.501	-0.269	0.093
-441.807	800.000	-0.135	-0.382
-440.792	383.763	-0.105	0.215
-439.778	156.320	-0.107	-0.148
-438.763	71.797	-0.035	0.037
-437.749	40.346	0.063	0.057
-436.734	800.000	0.055	0.207
-435.719	-200.000	0.058	0.266
-434.705	124.990	0.181	0.228
-433.690	89.485	-0.183	0.203
-432.676	100.697	-0.146	0.169
-431.661	166.137	-0.162	-0.228
-430.646	332.662	0.058	0.113
-429.632	-200.000	-0.033	0.164
-428.617	596.996	0.071	-0.175
-427.603	-200.000	-0.023	0.254
-426.588	550.309	-0.080	0.191
-425.573	-200.000	0.067	0.000
-424.559	351.344	-0.105	-0.207
-423.544	19.259	-0.081	-0.065
-422.530	-200.000	0.022	0.218
-421.515	-72.236	-0.094	0.035
-420.500	16.533	-0.382	-0.301
-419.486	-200.000	0.014	-0.216
-418.471	-48.252	-0.346	-0.166
-417.457	86.801	0.207	-0.228
-416.442	90.647	-0.209	0.233
-415.428	-21.467	-0.170	0.103
-414.413	55.412	-0.101	-0.097
-413.398	201.798	-0.082	-0.126
-412.384	-140.474	-0.097	0.010
-411.369	-127.937	-0.180	-0.026
-410.355	135.005	0.174	0.225
-409.340	-5.407	-0.100	-0.069
-408.325	197.714	0.044	-0.067
-407.311	-200.000	-0.025	0.248
-406.296	-200.000	0.050	0.218
-405.282	-56.738	-0.108	0.048
-404.267	452.050	0.128	0.283
-403.252	335.174	-0.134	-0.258
-402.238	757.065	0.070	-0.189
-401.223	-185.327	0.158	-0.002
-400.209	-196.595	0.291	-0.002
-399.194	292.580	-0.027	0.050
-398.179	-142.996	0.122	-0.012
-397.165	398.068	-0.020	0.041
-396.150	148.669	-0.070	-0.094
-395.136	-200.000	0.017	-0.087
-394.121	-96.873	0.382	-0.100
-393.106	-33.583	-0.207	0.114
-392.092	183.100	0.133	0.195
-391.077	-19.761	-0.167	0.103
-390.063	-49.215	0.323	-0.154
-389.048	-97.315	-0.261	-0.068
-388.033	-200.000	-0.002	-0.204
-387.019	-105.520	0.243	-0.055
-386.004	289.281	-0.068	-0.123
-384.990	-200.000	-0.047	0.209
-383.975	-47.293	-0.072	-0.035
-382.960	-106.373	0.236	-0.053
-381.946	53.223	0.276	0.264
-380.931	48.251	-0.097	0.091
-379.917	800.000	-0.107	0.321
-378.902	-200.000	0.030	-0.426
-377.888	-10.049	-0.229	0.152
-376.873	93.332	-0.016	0.018
-375.858	655.385	-0.069	-0.176
-374.844	-127.465	0.110	0.016
-373.829	-95.609	0.223	-0.059
-372.815	-200.000	-0.038	0.293
-371.800	-83.618	0.221	0.070
-370.785	-6.763	-0.296	-0.200
-369.771	800.000	0.122	-0.376
-368.756	168.664	0.056	-0.080
-367.742	-200.000	0.006	-0.064
-366.727	-28.427	0.235	-0.135
-365.712	-200.000	0.002	0.095
-364.698	-113.339	-0.294	-0.057
-363.683	293.637	0.058	0.105
-362.669	-53.014	0.287	0.131
-361.654	-200.000	-0.034	0.219
-360.639	94.925	0.058	0.066
-359.625	-8.047	-0.113	-0.076
-358.610	-77.323	-0.062	0.021
-357.596	231.133	0.099	-0.162
-356.581	124.566	0.128	0.160
-355.566	4.992	-0.231	0.169
-354.552	278.069	0.108	0.192
-353.537	-35.391	0.215	0.116
-352.523	-124.876	-0.458	0.070
-351.508	-156.019	0.156	-0.010
-350.493	-128.853	0.323	-0.045
-349.479	214.134	-0.033	0.052
-348.464	800.000	0.023	0.094
-347.450	196.601	-0.079	-0.120
-346.435	-25.576	0.096	0.057
-345.420	267.186	-0.271	0.472
-344.406	244.802	0.046	-0.077
-343.391	-167.425	-0.145	-0.006
-342.377	439.759	0.109	-0.236
-341.362	800.000	0.049	-0.191
-340.348	-121.804	0.128	0.021
-339.333	-174.204	-0.083	-0.002
-338.318	19.278	0.226	-0.181
-337.304	691.045	-0.033	-0.085
-336.289	-183.811	0.234	0.004
-335.275	-200.000	-0.029	-0.338
-334.260	-200.000	-0.012	0.080
-333.245	-146.304	-0.305	-0.027
-332.231	800.000	0.046	0.152
-331.216	-150.626	-0.306	0.023
-330.202	-36.862	0.088	0.047
-329.187	377.860	0.085	0.172
-328.172	455.465	0.017	0.037
-327.158	-0.565	-0.158	-0.111
-326.143	-78.438	0.335	0.114
-325.129	272.528	0.039	-0.069
-324.114	514.911	-0.080	0.186
-323.099	-96.524	0.172	0.045
-322.085	25.597	-0.287	-0.238
-321.070	-131.670	0.301	0.039
-320.056	-122.430	-0.216	-0.035
-319.041	-56.510	0.177	-0.078
-318.026	-200.000	0.046	-0.208
-317.012	-16.179	0.142	-0.090
-315.997	320.096	-0.068	-0.128
-314.983	116.591	-0.065	-0.079
-313.968	-127.808	0.212	0.030
-312.953	800.000	0.027	-0.092
-311.939	-200.000	-0.023	0.404
-310.924	242.373	0.094	0.157
-309.910	-200.000	-0.017	-0.109
-308.895	105.042	0.116	-0.136
-307.880	-61.966	0.192	-0.080
-306.866	800.000	-0.069	-0.239
-305.851	-109.815	-0.261	-0.054
-304.837	194.455	-0.091	0.138
-303.822	56.385	-0.109	0.105
-302.807	-80.443	0.115	0.038
-301.793	642.632	-0.051	0.130
-300.778	800.000	-0.090	0.296
-299.764	-37.551	0.183	-0.097
-298.749	-200.000	0.014	0.167
-297.735	-32.220	-0.252	0.140
-296.720	-181.668	0.279	-0.005
-295.705	-200.000	-0.039	-0.230
-294.691	-200.000	0.243	0.001
-293.676	91.678	0.032	0.035
-292.662	-35.612	-0.079	0.042
-291.647	-200.000	-0.002	0.057
-290.632	147.446	0.173	-0.231
-289.618	-200.000	-0.018	0.109
-288.603	74.246	-0.185	0.193
-287.589	-7.547	0.171	0.115
-286.574	-200.000	0.007	0.306
-285.559	4.537	0.179	-0.130
-284.545	-120.545	-0.230	0.039
-283.530	-200.000	-0.003	0.017
-282.516	-137.604	-0.171	0.019
-281.501	-103.857	-0.141	-0.033
-280.486	-66.183	0.004	-0.002
-279.472	-29.029	-0.076	0.043
-278.457	128.678	-0.207	-0.261
-277.443	-40.704	-0.221	0.114
-276.428	174.763	0.052	-0.075
-275.413	144.993	0.202	0.269
-274.399	800.000	0.080	-0.245
-273.384	-27.684	-0.183	-0.105
-272.370	-77.861	0.198	0.068
-271.355	-41.126	0.191	-0.098
-270.340	-132.673	0.269	0.034
-269.326	-43.131	-0.191	-0.096
-268.311	800.000	-0.093	-0.260
-267.297	67.282	-0.066	-0.067
-266.282	-200.000	0.010	0.237
-265.267	-47.477	0.128	-0.062
-264.253	-74.518	0.079	-0.028
-263.238	-72.736	-0.260	-0.095
-262.224	-140.324	0.076	0.008
-261.209	-62.048	-0.231	-0.096
-260.195	96.695	-0.097	0.111
-259.180	800.000	0.066	0.219
-258.165	-200.000	-0.059	-0.259
-257.151	-1.811	0.349	-0.243
-256.136	-200.000	0.028	0.198
-255.122	199.868	-0.171	-0.260
-254.107	167.303	-0.053	-0.075
-253.092	47.994	-0.272	0.252
-252.078	-31.611	0.142	0.079
-251.063	-200.000	0.035	0.215
-250.049	6.218	0.099	-0.073
-249.034	148.646	-0.098	-0.131
-248.019	581.050	-0.057	-0.139
-247.005	215.982	0.228	0.360
-245.990	80.479	-0.106	0.113
-244.976	78.253	-0.119	0.126
-243.961	-67.060	0.350	-0.137
-242.946	-111.015	0.168	0.034
-241.932	499.709	0.081	-0.186
-240.917	578.703	-0.093	-0.226
-239.903	-58.363	-0.161	-0.069
-238.888	41.147	-0.215	-0.192
-237.873	-68.723	-0.102	-0.039
-236.859	28.878	-0.114	-0.096
-235.844	-109.804	0.196	0.041
-234.830	-1.751	-0.119	0.083
-233.815	-173.562	0.249	0.007
-232.800	-200.000	-0.016	0.083
-231.786	17.383	0.186	0.146
-230.771	-22.915	-0.233	0.139
-229.757	-79.905	0.164	-0.054
-228.742	170.606	-0.166	-0.235
-227.727	-56.247	0.208	0.092
-226.713	-46.290	0.104	0.051
-225.698	221.918	0.079	-0.125
-224.684	-125.214	0.104	0.016
-223.669	-6.121	0.380	-0.257
-222.655	-20.651	0.030	0.018
-221.640	198.076	-0.133	-0.201
-220.625	-200.000	-0.004	-0.031
-219.611	304.366	0.090	0.166
-218.596	689.693	0.044	0.113
-217.582	30.775	0.113	0.096
-216.567	-200.000	-0.031	0.221
-215.552	-109.672	0.425	0.089
-214.538	-200.000	-0.007	-0.035
-213.523	-200.000	-0.054	-0.251
-212.509	-84.184	-0.155	0.049
-211.494	10.662	0.175	0.132
-210.479	371.317	-0.039	-0.077
-209.465	-200.000	0.029	0.211
-208.450	800.000	0.059	-0.191
-207.436	-200.000	0.030	-0.399
-206.421	-97.009	-0.140	0.036
-205.406	-71.033	-0.271	0.101
-204.392	287.496	0.066	0.118
-203.377	317.758	-0.037	0.069
-202.363	-200.000	-0.001	-0.013
-201.348	-20.553	-0.260	-0.158
-200.333	800.000	-0.037	-0.106
-199.319	-154.087	-0.135	-0.009
-198.304	258.406	-0.165	0.281
-197.290	-111.395	-0.125	-0.025
-196.275	-200.000	-0.029	-0.145
-195.260	19.810	0.205	0.163
-194.246	-36.857	0.356	-0.189
-193.231	-10.200	0.178	-0.117
-192.217	-200.000	-0.019	-0.285
-191.202	451.522	0.029	-0.063
-190.187	-149.234	0.224	-0.018
-189.173	-30.569	-0.273	-0.153
-188.158	503.457	0.094	-0.214
-187.144	800.000	-0.034	0.126
-186.129	53.641	0.164	-0.155
-185.114	800.000	0.099	0.288
-184.100	416.700	0.213	-0.450
-183.085	-18.215	0.055	-0.034
-182.071	800.000	-0.053	-0.186
-181.056	20.587	-0.285	-0.228
-180.042	-160.093	-0.394	0.021
-179.027	-200.000	0.053	0.253
-178.012	272.091	0.170	0.296
-176.998	400.538	-0.096	0.199
-175.983	-200.000	0.007	0.164
-174.969	-173.149	-0.215	0.007
-173.954	211.909	0.122	-0.191
-172.939	-200.000	0.041	-0.000
-171.925	-146.221	-0.110	-0.010
-170.910	-72.284	0.209	0.077
-169.896	-115.937	0.265	-0.049
-168.881	-1.617	-0.035	0.024
-167.866	-49.887	0.291	-0.136
-166.852	-72.910	-0.268	-0.097
-165.837	-200.000	0.003	0.076
-164.823	-83.307	0.048	-0.015
-163.808	20.679	-0.004	-0.003
-162.793	800.000	-0.059	0.198
-161.779	-126.729	0.187	0.027
-160.764	800.000	-0.128	0.470
-159.750	462.607	0.057	0.126
-158.735	-74.529	0.228	0.081
-157.720	-138.197	0.167	-0.018
-156.706	68.828	0.104	0.106
-155.691	108.225	-0.118	-0.139
-154.677	800.000	0.065	0.206
-153.662	-73.343	0.084	-0.030
-152.647	-92.955	0.044	0.012
-151.633	-31.242	0.192	0.107
-150.618	-90.543	0.145	0.041
-149.604	-8.627	0.220	0.146
-148.589	-60.222	0.052	0.022
-147.574	-33.040	-0.219	-0.120
-146.560	140.751	0.210	-0.273
-145.545	230.416	0.110	0.177
-144.531	800.000	0.098	-0.300
-143.516	174.746	0.166	-0.237
-142.502	-200.000	0.005	-0.104
-141.487	736.159	0.205	0.542
-140.472	90.718	0.071	0.079
-139.458	-57.234	-0.157	0.068
-138.443	-71.045	0.194	0.072
-137.429	-89.945	0.259	-0.074
-136.414	313.496	-0.072	-0.134
-135.399	-131.064	0.180	0.024
-134.385	-22.144	0.264	-0.158
-133.370	800.000	0.022	0.091
-132.356	-98.561	0.193	0.049
-131.341	800.000	-0.018	0.074
-130.326	800.000	-0.034	0.148
-129.312	76.069	-0.313	-0.327
-128.297	-200.000	-0.038	-0.207
-127.283	-101.196	-0.067	-0.016
-126.268	-0.569	-0.052	-0.036
-125.253	-101.972	-0.268	0.064
-124.239	-200.000	-0.011	-0.090
-123.224	-13.099	-0.244	0.156
-122.210	-2.154	0.135	-0.093
