DTS Sentinel unit serial number:	SN413079Multiplexer serial number:	ORYXHardware model number:	OX4-SRSoftware version number:	ORYX F/W v4.00 Oryx Data Collector v3.7.2.0data status	okinstallation	princeton_trtdifferential loss correction	single-endedforward channel	channel 2reverse channel	N/Adate	2019/09/17time	20:27:35forward acquisition time	60.00reverse acquisition time	0.00gamma	496.2192k internal	0.2334k external	0.2334temperature offset calibration	0.9988default loss term (dB/km)	0.3790temperature slope calibration	1.0000multiplexer offset coefficient	1.0000multiplexer slope coefficient	1.0000fibre end	0.00T internal ref (°C)	30.86T ext. ref 1 (°C)	0.20T ext. ref 2 (°C)	21.42length (m)	temperature (°C)	Stokes	anti-Stokes-747.200	-158.578	0.122	-0.007
-746.185	91.337	0.057	-0.064
-745.171	698.807	-0.111	0.292
-744.156	-200.000	-0.001	0.246
-743.142	800.000	0.046	0.147
-742.127	248.963	-0.222	0.378
-741.112	16.365	0.137	-0.109
-740.098	-200.000	-0.024	0.156
-739.083	-137.752	0.257	0.029
-738.069	-73.068	-0.311	0.115
-737.054	-163.871	-0.372	-0.017
-736.039	-50.971	0.179	0.085
-735.025	-54.567	0.129	-0.059
-734.010	800.000	-0.030	-0.129
-732.996	69.517	-0.182	-0.188
-731.981	800.000	-0.042	0.151
-730.966	-200.000	-0.013	0.135
-729.952	-16.249	-0.196	-0.125
-728.937	-200.000	0.021	-0.237
-727.923	103.383	-0.068	-0.080
-726.908	-200.000	-0.007	-0.156
-725.894	800.000	-0.066	0.287
-724.879	367.376	-0.027	0.056
-723.864	13.659	-0.180	0.140
-722.850	42.633	0.063	0.058
-721.835	-200.000	0.001	-0.039
-720.821	-114.900	0.227	-0.043
-719.806	774.429	-0.032	0.087
-718.791	-18.070	-0.197	0.124
-717.777	-62.970	0.203	0.084
-716.762	40.190	-0.230	-0.208
-715.748	-31.618	-0.327	-0.185
-714.733	-79.433	-0.292	0.099
-713.718	800.000	-0.074	-0.231
-712.704	-68.575	-0.166	0.065
-711.689	-34.830	0.201	-0.110
-710.675	-134.604	0.277	-0.034
-709.660	422.297	-0.169	-0.364
-708.645	306.778	-0.087	-0.162
-707.631	-200.000	-0.037	-0.324
-706.616	-76.606	0.283	0.100
-705.602	110.459	-0.259	-0.313
-704.587	-136.148	-0.318	-0.037
-703.572	-134.515	-0.280	-0.034
-702.558	637.988	0.040	0.103
-701.543	-200.000	-0.290	-0.001
-700.529	-171.000	0.190	-0.006
-699.514	299.773	-0.103	-0.190
-698.499	-61.785	-0.116	-0.049
-697.485	376.686	0.141	-0.289
-696.470	800.000	-0.058	0.255
-695.456	357.864	-0.156	0.312
-694.441	26.675	-0.322	0.271
-693.426	533.461	-0.094	0.224
-692.412	800.000	0.113	0.341
-691.397	60.179	0.066	-0.066
-690.383	800.000	0.029	-0.119
-689.368	30.263	0.315	0.270
-688.354	-200.000	-0.038	-0.308
-687.339	800.000	-0.057	-0.210
-686.324	-18.788	-0.048	-0.030
-685.310	800.000	-0.033	-0.114
-684.295	-115.245	0.079	-0.015
-683.281	800.000	0.139	-0.398
-682.266	153.595	0.056	0.078
-681.251	-70.005	-0.469	-0.179
-680.237	52.878	0.283	-0.272
-679.222	-146.748	-0.204	0.018
-678.208	-11.577	-0.273	0.180
-677.193	80.181	0.163	0.176
-676.178	-108.744	-0.453	0.097
-675.164	-150.143	-0.167	-0.013
-674.149	-59.326	-0.238	-0.103
-673.135	102.843	-0.187	-0.220
-672.120	-95.006	0.081	-0.022
-671.105	-175.945	0.437	-0.012
-670.091	-200.000	0.040	-0.197
-669.076	17.187	-0.194	-0.154
-668.062	100.636	-0.150	-0.175
-667.047	-64.287	0.086	0.035
-666.032	61.120	-0.053	0.052
-665.018	-30.263	0.182	0.104
-664.003	-200.000	0.015	0.083
-662.989	-200.000	-0.012	-0.186
-661.974	-69.857	-0.347	0.133
-660.959	31.940	0.225	-0.194
-659.945	432.114	-0.059	0.128
-658.930	689.952	-0.103	-0.270
-657.916	228.532	-0.175	0.285
-656.901	-95.852	0.357	0.095
-655.886	-200.000	0.021	0.259
-654.872	214.100	-0.136	-0.215
-653.857	-70.121	0.209	-0.079
-652.843	-81.698	-0.046	0.015
-651.828	800.000	-0.040	-0.171
-650.814	-200.000	-0.039	-0.306
-649.799	-79.946	0.161	-0.054
-648.784	247.500	-0.158	0.267
-647.770	19.284	0.211	0.170
-646.755	-113.848	0.291	-0.057
-645.741	800.000	-0.131	-0.537
-644.726	595.463	-0.050	-0.124
-643.711	-139.500	0.175	-0.019
-642.697	800.000	0.028	-0.098
-641.682	-89.386	-0.297	-0.088
-640.668	703.049	0.048	-0.126
-639.653	-44.129	-0.047	0.023
-638.638	176.212	-0.167	0.243
-637.624	-69.439	-0.322	-0.123
-636.609	-1.978	-0.278	-0.196
-635.595	80.564	-0.222	-0.240
-634.580	800.000	-0.088	-0.285
-633.565	-200.000	-0.007	0.226
-632.551	706.273	0.083	0.220
-631.536	800.000	-0.113	0.350
-630.522	-77.469	0.171	-0.060
-629.507	554.728	-0.055	-0.134
-628.492	-50.293	0.245	0.116
-627.478	-129.962	-0.467	0.064
-626.463	-103.787	0.318	-0.075
-625.449	-28.362	-0.150	-0.086
-624.434	-81.943	0.198	-0.065
-623.419	379.046	0.100	-0.205
-622.405	-65.544	-0.252	0.101
-621.390	38.554	0.035	0.031
-620.376	-101.728	0.340	-0.083
-619.361	675.409	0.084	-0.218
-618.346	-200.000	-0.418	-0.002
-617.332	-85.861	-0.198	0.061
-616.317	-200.000	0.023	-0.266
-615.303	-68.992	0.207	-0.080
-614.288	-200.000	0.031	0.191
-613.273	34.876	0.275	-0.240
-612.259	206.686	0.147	-0.229
-611.244	417.740	-0.160	-0.342
-610.230	-139.780	0.298	0.032
-609.215	-47.756	-0.395	0.192
-608.201	-200.000	0.012	0.248
-607.186	-131.752	-0.335	-0.044
-606.171	230.389	-0.117	0.191
-605.157	-200.000	-0.016	0.099
-604.142	-122.691	-0.449	0.073
-603.128	-104.539	-0.186	0.043
-602.113	-2.726	-0.069	-0.048
-601.098	138.122	-0.044	0.058
-600.084	529.026	-0.132	-0.311
-599.069	146.006	0.136	0.182
-598.055	-81.986	-0.271	-0.088
-597.040	-200.000	-0.004	-0.039
-596.025	800.000	0.111	-0.453
-595.011	-72.295	0.141	-0.052
-593.996	86.987	-0.179	-0.198
-592.982	-200.000	0.012	-0.070
-591.967	800.000	-0.051	0.188
-590.952	200.262	0.132	-0.203
-589.938	266.513	0.123	0.215
-588.923	-92.382	0.332	0.093
-587.909	-154.182	0.354	0.024
-586.894	-68.686	-0.218	-0.084
-585.879	88.440	-0.109	0.121
-584.865	800.000	-0.052	-0.226
-583.850	62.603	-0.144	-0.143
-582.836	-107.683	-0.308	-0.067
-581.821	-138.908	-0.506	0.055
-580.806	-22.690	0.089	0.054
-579.792	603.511	0.085	0.210
-578.777	-109.496	-0.279	0.059
-577.763	-200.000	0.003	-0.318
-576.748	800.000	0.083	-0.303
-575.733	-89.828	-0.118	-0.034
-574.719	8.472	-0.104	-0.078
-573.704	-200.000	-0.016	-0.283
-572.690	-22.895	0.071	0.043
-571.675	505.967	-0.134	-0.311
-570.661	24.773	0.165	0.137
-569.646	-200.000	0.003	-0.075
-568.631	800.000	-0.044	-0.146
-567.617	-84.859	-0.139	0.044
-566.602	-134.204	-0.292	0.036
-565.588	342.406	0.158	0.308
-564.573	-159.482	-0.172	0.010
-563.558	800.000	0.079	-0.303
-562.544	-102.891	0.050	-0.012
-561.529	-200.000	0.012	0.233
-560.515	11.691	-0.156	0.119
-559.500	800.000	-0.038	0.129
-558.485	8.558	0.161	0.121
-557.471	703.077	-0.071	-0.186
-556.456	-89.517	0.272	0.080
-555.442	-23.122	-0.120	-0.072
-554.427	-101.538	-0.147	-0.036
-553.412	-200.000	-0.002	0.209
-552.398	14.310	-0.299	-0.232
-551.383	490.137	0.075	0.171
-550.369	-134.544	0.179	0.022
-549.354	-66.453	0.195	0.077
-548.339	121.772	0.181	-0.225
-547.325	-64.485	-0.109	-0.044
-546.310	-84.005	-0.058	0.018
-545.296	-41.474	-0.196	-0.100
-544.281	46.081	0.189	0.175
-543.266	-30.011	-0.170	-0.096
-542.252	-200.000	-0.029	0.292
-541.237	-200.000	0.028	-0.278
-540.223	-94.547	0.370	0.101
-539.208	800.000	0.092	0.254
-538.193	-110.205	0.134	0.028
-537.179	-51.936	-0.137	-0.063
-536.164	211.335	-0.238	0.373
-535.150	800.000	0.087	0.260
-534.135	205.698	-0.094	-0.146
-533.121	-174.690	0.212	-0.006
-532.106	800.000	-0.051	-0.183
-531.091	-200.000	0.005	-0.031
-530.077	800.000	0.052	0.227
-529.062	2.445	-0.214	0.154
-528.048	-72.782	0.268	0.099
-527.033	-25.373	0.296	-0.174
-526.018	-200.000	-0.063	0.331
-525.004	-62.213	-0.465	-0.193
-523.989	285.983	0.142	-0.255
-522.975	83.394	0.219	-0.237
-521.960	-62.485	-0.133	-0.055
-520.945	-45.167	-0.203	0.101
-519.931	69.015	0.083	0.085
-518.916	-98.627	0.495	-0.126
-517.902	800.000	-0.037	-0.158
-516.887	-159.241	-0.144	-0.008
-515.872	-57.150	0.083	0.036
-514.858	249.812	0.068	0.115
-513.843	-200.000	-0.012	0.315
-512.829	-87.991	-0.358	-0.107
-511.814	86.368	-0.107	-0.118
-510.799	-200.000	-0.032	-0.148
-509.785	34.719	-0.187	0.163
-508.770	-51.130	-0.186	0.087
-507.756	82.326	-0.406	-0.439
-506.741	31.468	-0.155	0.133
-505.726	23.378	0.161	-0.132
-504.712	-5.627	-0.140	-0.095
-503.697	-85.097	-0.261	-0.082
-502.683	-200.000	-0.002	0.068
-501.668	58.814	-0.366	0.358
-500.653	84.310	-0.176	-0.192
-499.639	-161.369	0.221	-0.011
-498.624	-110.208	-0.308	0.064
-497.610	-200.000	-0.032	0.307
-496.595	800.000	-0.124	-0.419
-495.581	-200.000	-0.024	-0.110
-494.566	88.236	0.330	0.364
-493.551	32.962	0.062	-0.053
-492.537	-168.986	-0.126	0.005
-491.522	21.001	-0.154	0.124
-490.508	52.037	0.319	-0.303
-489.493	91.557	-0.110	0.123
-488.478	120.918	-0.227	0.281
-487.464	-167.543	-0.492	-0.020
-486.449	-71.402	-0.169	-0.063
-485.435	-92.451	-0.162	0.045
-484.420	-200.000	0.029	0.563
-483.405	-194.365	-0.006	0.000
-482.391	444.762	-0.097	0.212
-481.376	84.925	0.127	0.138
-480.362	-200.000	-0.024	-0.125
-479.347	-166.803	-0.243	0.010
-478.332	800.000	0.026	0.109
-477.318	668.504	-0.063	-0.161
-476.303	-131.467	-0.241	0.032
-475.289	-177.615	0.317	-0.008
-474.274	-200.000	0.027	0.167
-473.259	336.166	-0.146	0.283
-472.245	-97.430	0.114	-0.029
-471.230	181.652	-0.077	-0.113
-470.216	-200.000	0.065	-0.431
-469.201	-170.806	0.062	0.002
-468.186	-200.000	0.018	-0.138
-467.172	-200.000	0.024	-0.135
-466.157	292.734	0.099	-0.179
-465.143	211.082	-0.059	-0.092
-464.128	800.000	0.111	0.350
-463.113	-112.284	0.106	-0.021
-462.099	-200.000	0.024	0.254
-461.084	34.715	0.087	0.076
-460.070	618.560	0.080	0.200
-459.055	-114.687	0.248	0.047
-458.040	141.761	-0.034	0.045
-457.026	-200.000	0.016	-0.116
-456.011	52.885	0.155	0.147
-454.997	-200.000	-0.004	-0.208
-453.982	79.797	0.117	0.125
-452.968	3.437	0.095	0.069
-451.953	18.779	0.170	0.135
-450.938	142.152	0.079	0.104
-449.924	580.215	0.049	-0.119
-448.909	14.109	0.220	-0.170
-447.895	-105.392	0.112	-0.025
-446.880	-45.056	0.364	-0.180
-445.865	-111.681	-0.399	0.080
-444.851	118.539	-0.078	-0.095
-443.836	153.829	-0.335	-0.456
-442.822	110.567	0.259	0.309
-441.807	82.404	0.084	0.091
-440.792	-40.317	0.293	0.151
-439.778	-149.123	-0.420	-0.033
-438.763	800.000	0.061	0.225
-437.749	-95.551	0.219	0.058
-436.734	-200.000	0.034	0.216
-435.719	281.662	0.116	0.206
-434.705	55.207	0.259	0.249
-433.690	2.534	-0.233	-0.168
-432.676	-200.000	0.042	0.208
-431.661	-80.824	-0.343	0.113
-430.646	-85.484	-0.074	-0.023
-429.632	247.719	0.250	0.420
-428.617	101.254	-0.202	-0.234
-427.603	-88.847	-0.239	-0.071
-426.588	800.000	-0.086	-0.274
-425.573	79.277	0.040	0.043
-424.559	-52.886	0.141	-0.065
-423.544	-67.990	0.151	0.058
-422.530	62.352	-0.172	-0.171
-421.515	-200.000	0.068	-0.339
-420.500	-30.307	-0.153	-0.086
-419.486	549.104	-0.163	0.387
-418.471	-67.408	0.063	-0.025
-417.457	-137.826	-0.257	-0.029
-416.442	-93.468	0.234	0.064
-415.428	800.000	0.064	-0.207
-414.413	-73.762	-0.100	0.036
-413.398	27.014	0.031	0.026
-412.384	-178.818	0.212	0.005
-411.369	-109.736	0.179	-0.037
-410.355	47.132	-0.131	0.121
-409.340	12.171	-0.168	0.129
-408.325	-200.000	0.029	-0.156
-407.311	-200.000	-0.050	-0.281
-406.296	68.459	-0.020	0.020
-405.282	800.000	-0.083	-0.271
-404.267	-109.824	-0.094	-0.020
-403.252	55.445	-0.187	-0.180
-402.238	32.255	0.196	0.168
-401.223	-200.000	-0.034	-0.282
-400.209	616.218	-0.159	-0.395
-399.194	-17.631	-0.175	0.109
-398.179	-90.862	-0.249	0.071
-397.165	-200.000	-0.027	0.204
-396.150	-200.000	-0.017	-0.278
-395.136	527.951	0.148	0.347
-394.121	165.964	0.135	0.190
-393.106	800.000	0.032	-0.100
-392.092	-200.000	0.012	-0.188
-391.077	800.000	0.017	-0.070
-390.063	56.684	0.100	0.097
-389.048	-200.000	-0.019	0.224
-388.033	129.837	-0.160	-0.203
-387.019	-50.334	-0.023	0.011
-386.004	564.550	0.117	0.280
-384.990	-121.884	0.231	0.038
-383.975	334.261	0.061	-0.116
-382.960	800.000	-0.074	-0.235
-381.946	-71.387	-0.328	0.122
-380.931	680.396	-0.081	0.209
-379.917	-108.824	-0.328	0.070
-378.902	-17.937	-0.235	-0.146
-377.888	82.502	0.156	-0.168
-376.873	9.881	-0.234	-0.176
-375.858	439.914	-0.120	0.259
-374.844	-200.000	-0.007	0.322
-373.829	336.012	0.057	0.109
-372.815	-55.834	-0.194	-0.086
-371.800	-73.881	-0.056	0.020
-370.785	800.000	-0.025	0.072
-369.771	125.853	-0.062	-0.077
-368.756	168.191	0.121	-0.170
-367.742	484.445	-0.016	0.036
-366.727	800.000	-0.055	-0.212
-365.712	-60.350	-0.287	0.121
-364.698	377.183	0.072	0.146
-363.683	177.884	-0.063	0.091
-362.669	-200.000	-0.008	-0.254
-361.654	29.613	0.163	-0.138
-360.639	-24.494	-0.117	0.069
-359.625	-34.440	0.160	-0.087
-358.610	800.000	0.017	0.070
-357.596	45.308	0.344	-0.315
-356.581	-195.976	-0.201	-0.001
-355.566	800.000	-0.069	0.212
-354.552	-5.407	0.144	-0.098
-353.537	98.874	0.268	0.306
-352.523	108.815	0.144	0.171
-351.508	-88.698	-0.176	0.052
-350.493	483.398	-0.052	-0.118
-349.479	182.733	0.100	0.146
-348.464	-112.493	0.194	-0.038
-347.450	622.052	0.039	-0.096
-346.435	-20.045	0.116	-0.071
-345.420	-200.000	-0.041	0.256
-344.406	-137.364	0.289	-0.032
-343.391	120.686	0.086	-0.105
-342.377	-50.010	0.135	-0.063
-341.362	-200.000	0.016	0.116
-340.348	-200.000	-0.005	0.027
-339.333	-191.923	0.174	0.002
-338.318	800.000	-0.037	0.155
-337.304	-36.459	0.067	0.036
-336.289	-104.187	0.260	-0.060
-335.275	-2.567	0.106	0.074
-334.260	-116.387	-0.332	0.061
-333.245	517.317	0.163	-0.377
-332.231	-161.323	-0.215	-0.011
-331.216	-200.000	0.037	0.202
-330.202	-59.896	0.070	0.030
-329.187	800.000	-0.057	0.159
-328.172	121.050	0.191	-0.235
-327.158	20.932	0.301	-0.241
-326.143	117.354	0.094	-0.115
-325.129	800.000	-0.050	-0.157
-324.114	-200.000	-0.033	0.191
-323.099	800.000	-0.028	-0.096
-322.085	-200.000	0.007	0.348
-321.070	-105.831	-0.348	-0.078
-320.056	268.119	0.052	0.091
-319.041	97.344	-0.131	0.149
-318.026	2.792	-0.077	0.055
-317.012	-40.838	-0.097	-0.050
-315.997	86.106	0.130	-0.141
-314.983	64.394	0.116	-0.116
-313.968	18.165	-0.209	-0.165
-312.953	-63.687	-0.205	0.083
-311.939	-6.885	-0.065	0.044
-310.924	164.047	-0.106	0.148
-309.910	-200.000	0.011	-0.104
-308.895	800.000	0.030	-0.092
-307.880	345.598	0.195	0.379
-306.866	-2.404	0.200	-0.138
-305.851	-115.789	-0.097	-0.018
-304.837	-9.253	-0.366	0.242
-303.822	-200.000	0.016	-0.154
-302.807	87.592	0.155	0.170
-301.793	461.397	-0.081	0.178
-300.778	-200.000	-0.009	-0.369
-299.764	800.000	-0.098	0.273
-298.749	800.000	-0.062	0.260
-297.735	-58.263	-0.232	-0.100
-296.720	-66.984	-0.134	0.052
-295.705	-200.000	0.064	-0.293
-294.691	800.000	0.077	0.249
-293.676	14.590	0.150	0.116
-292.662	12.376	0.252	-0.192
-291.647	-200.000	0.031	-0.376
-290.632	-70.332	0.255	-0.095
-289.618	-154.457	-0.187	-0.012
-288.603	5.363	0.087	0.064
-287.589	800.000	0.048	0.152
-286.574	800.000	-0.058	0.167
-285.559	128.557	-0.123	0.155
-284.545	-102.425	-0.325	-0.077
-283.530	-76.547	0.179	0.062
-282.516	-200.000	-0.036	0.207
-281.501	-174.789	0.077	0.002
-280.486	-200.000	0.003	0.137
-279.472	800.000	-0.051	-0.142
-278.457	83.853	0.256	0.275
-277.443	217.920	0.040	-0.062
-276.428	188.064	0.080	0.118
-275.413	-58.191	0.269	0.116
-274.399	205.983	-0.016	0.024
-273.384	520.176	0.129	0.299
-272.370	4.413	-0.371	-0.268
-271.355	-53.665	0.196	-0.088
-270.340	28.524	-0.107	0.090
-269.326	-20.718	0.051	0.031
-268.311	279.747	-0.229	-0.404
-267.297	-8.796	0.153	-0.101
-266.282	-200.000	0.012	0.159
-265.267	-0.089	0.156	0.109
-264.253	437.775	0.059	0.128
-263.238	800.000	-0.090	0.288
-262.224	-200.000	-0.009	0.185
-261.209	249.818	0.153	0.257
-260.195	-200.000	0.011	-0.092
-259.180	-98.026	-0.073	0.018
-258.165	-200.000	-0.026	-0.164
-257.151	432.481	0.109	0.233
-256.136	-183.072	0.079	0.001
-255.122	-120.815	0.136	0.023
-254.107	-2.685	-0.102	-0.070
-253.092	9.784	0.167	0.125
-252.078	-136.209	0.196	0.023
-251.063	-200.000	0.019	-0.275
-250.049	96.835	-0.091	-0.103
-249.034	-59.063	0.232	-0.099
-248.019	800.000	0.030	-0.118
-247.005	120.405	0.061	-0.075
-245.990	-162.749	-0.244	0.012
-244.976	-160.423	-0.399	-0.021
-243.961	-89.128	0.155	-0.045
-242.946	-200.000	0.031	-0.181
-241.932	211.302	0.135	-0.209
-240.917	1.722	0.220	-0.156
-239.903	-107.010	-0.167	-0.036
-238.888	227.230	-0.074	-0.118
-237.873	-101.798	-0.105	-0.025
-236.859	0.733	-0.173	-0.122
-235.844	13.328	0.168	-0.128
-234.830	-10.579	-0.081	-0.053
-233.815	-78.586	0.272	-0.092
-232.800	-94.171	-0.161	0.043
-231.786	16.992	0.086	0.067
-230.771	-148.026	-0.333	0.027
-229.757	-10.506	-0.225	-0.147
-228.742	800.000	0.028	0.086
-227.727	-200.000	-0.010	-0.091
-226.713	29.866	-0.146	0.123
-225.698	219.519	-0.132	-0.208
-224.684	142.049	-0.061	0.079
-223.669	-91.252	0.195	0.055
-222.655	-33.153	-0.173	-0.094
-221.640	73.597	-0.193	0.200
-220.625	-100.765	0.150	0.036
-219.611	-33.787	0.193	-0.105
-218.596	-57.463	0.441	0.190
-217.582	-200.000	0.006	0.182
-216.567	521.244	-0.060	-0.140
-215.552	388.334	0.042	-0.086
-214.538	800.000	0.067	-0.275
-213.523	222.944	0.056	0.089
-212.509	-200.000	0.006	0.213
-211.494	-200.000	0.066	0.337
-210.479	800.000	0.010	0.041
-209.465	-124.451	0.272	0.042
-208.450	608.982	0.060	-0.148
-207.436	340.810	-0.072	0.138
-206.421	-58.947	0.051	-0.022
-205.406	581.948	-0.059	-0.143
-204.392	-20.613	-0.131	0.079
-203.377	309.973	0.059	0.108
-202.363	-200.000	0.078	-0.356
-201.348	-200.000	0.002	-0.209
-200.333	-200.000	-0.041	-0.223
-199.319	59.240	-0.042	0.040
-198.304	-32.084	-0.131	0.072
-197.290	-28.518	0.346	-0.196
-196.275	-63.939	0.189	0.076
-195.260	-38.725	0.188	0.098
-194.246	69.022	0.221	-0.223
-193.231	-92.420	0.062	-0.017
-192.217	14.555	-0.059	-0.045
-191.202	42.629	-0.126	0.113
-190.187	-146.625	0.480	-0.041
-189.173	-200.000	-0.059	-0.259
-188.158	-138.014	0.407	-0.045
-187.144	-120.056	0.427	0.072
-186.129	19.450	0.340	0.269
-185.114	800.000	0.043	0.118
-184.100	8.898	0.111	-0.082
-183.085	-177.890	-0.361	0.008
-182.071	-200.000	0.010	0.207
-181.056	-48.823	0.315	0.149
-180.042	39.284	0.155	-0.137
-179.027	-200.000	-0.004	-0.076
-178.012	-168.001	-0.106	0.004
-176.998	37.055	0.043	-0.037
-175.983	342.074	0.221	0.424
-174.969	-128.635	-0.153	0.021
-173.954	156.506	-0.161	0.218
-172.939	-87.696	-0.223	-0.066
-171.925	-113.387	0.190	-0.037
-170.910	4.862	0.073	0.053
-169.896	-30.776	0.268	-0.149
-168.881	-66.054	0.147	-0.058
-167.866	-16.101	0.137	-0.085
-166.852	-37.537	0.225	-0.118
-165.837	-200.000	0.093	0.435
-164.823	-60.064	0.184	0.077
-163.808	-155.925	-0.184	0.011
-162.793	796.635	-0.024	0.064
-161.779	-200.000	-0.044	0.276
-160.764	800.000	-0.087	0.246
-159.750	-32.422	-0.238	-0.130
-158.735	219.828	0.139	0.219
-157.720	-163.807	0.227	0.010
-156.706	13.871	0.264	-0.202
-155.691	54.118	-0.271	-0.256
-154.677	-200.000	0.036	-0.187
-153.662	-85.647	0.106	0.032
-152.647	800.000	-0.022	0.065
-151.633	-84.367	0.195	-0.061
-150.618	-200.000	0.013	0.318
-149.604	402.156	-0.164	0.338
-148.589	207.987	0.071	0.109
-147.574	-31.519	-0.156	0.086
-146.560	94.916	0.147	0.164
-145.545	-200.000	0.000	0.169
-144.531	-70.804	-0.245	-0.091
-143.516	-12.893	-0.158	-0.101
-142.502	-200.000	0.063	0.325
-141.487	-24.513	0.298	0.174
-140.472	64.989	-0.077	-0.076
-139.458	-110.100	0.235	-0.048
-138.443	254.887	0.137	0.231
-137.429	800.000	-0.022	0.078
-136.414	-84.896	-0.335	0.103
-135.399	198.794	0.171	-0.257
-134.385	800.000	0.092	-0.342
-133.370	420.369	-0.148	-0.311
-132.356	6.826	0.160	0.117
-131.341	-126.025	0.108	0.016
-130.326	800.000	-0.078	0.304
-129.312	182.274	0.086	0.124
-128.297	-32.837	-0.254	0.139
-127.283	-200.000	-0.015	-0.177
-126.268	-100.708	-0.100	0.024
-125.253	11.215	0.213	0.160
-124.239	-91.480	-0.023	-0.006
-123.224	263.411	-0.032	-0.054
-122.210	-113.614	0.375	0.072
-121.195	226.828	-0.124	0.198
