DTS Sentinel unit serial number:	SN413079Multiplexer serial number:	ORYXHardware model number:	OX4-SRSoftware version number:	ORYX F/W v4.00 Oryx Data Collector v3.7.2.0data status	okinstallation	princeton_trtdifferential loss correction	single-endedforward channel	channel 2reverse channel	N/Adate	2019/09/10time	18:57:10forward acquisition time	60.00reverse acquisition time	0.00gamma	496.2192k internal	0.2323k external	0.2323temperature offset calibration	0.9937default loss term (dB/km)	0.3790temperature slope calibration	1.0000multiplexer offset coefficient	1.0000multiplexer slope coefficient	1.0000fibre end	0.00T internal ref (°C)	34.69T ext. ref 1 (°C)	-0.43T ext. ref 2 (°C)	26.87length (m)	temperature (°C)	Stokes	anti-Stokes-747.200	78.926	-0.253	0.274
-746.185	-200.000	-0.024	0.310
-745.171	101.855	0.206	-0.243
-744.156	303.094	-0.203	0.379
-743.142	-200.000	0.026	0.268
-742.127	49.874	-0.140	0.133
-741.112	-200.000	-0.066	0.330
-740.098	800.000	0.049	0.175
-739.083	183.859	-0.148	0.221
-738.069	-107.844	-0.127	0.028
-737.054	28.738	-0.388	-0.331
-736.039	800.000	0.030	-0.090
-735.025	134.465	0.132	-0.173
-734.010	-2.566	0.171	0.121
-732.996	130.715	-0.233	-0.302
-731.981	-200.000	0.037	0.265
-730.966	144.153	-0.160	-0.216
-729.952	3.887	0.081	0.060
-728.937	-200.000	0.010	-0.366
-727.923	555.215	-0.075	-0.182
-726.908	-40.169	-0.173	-0.091
-725.894	800.000	-0.051	-0.189
-724.879	-88.486	0.255	-0.077
-723.864	800.000	-0.044	0.186
-722.850	-54.339	0.197	0.090
-721.835	145.372	-0.238	-0.321
-720.821	467.311	0.116	-0.262
-719.806	69.907	0.167	-0.174
-718.791	-99.934	0.199	0.050
-717.777	-87.453	-0.059	0.018
-716.762	134.290	-0.082	-0.107
-715.748	-200.000	-0.023	-0.101
-714.733	727.687	0.108	0.292
-713.718	124.136	0.065	-0.082
-712.704	104.664	0.166	-0.197
-711.689	106.466	-0.032	-0.038
-710.675	-42.928	-0.263	-0.135
-709.660	288.299	-0.046	0.084
-708.645	800.000	0.039	-0.127
-707.631	176.281	0.017	-0.025
-706.616	-100.766	-0.104	0.026
-705.602	0.686	0.116	-0.084
-704.587	111.917	0.109	0.132
-703.572	458.330	0.041	-0.092
-702.558	-106.095	-0.413	-0.094
-701.543	768.011	-0.135	-0.370
-700.529	-70.548	0.225	-0.086
-699.514	-18.830	0.155	-0.097
-698.499	212.149	-0.176	0.279
-697.485	800.000	-0.039	0.157
-696.470	-23.868	-0.049	0.029
-695.456	-200.000	0.001	-0.144
-694.441	-24.953	0.128	0.077
-693.426	74.933	-0.186	-0.197
-692.412	800.000	-0.058	-0.242
-691.397	-200.000	0.018	-0.198
-690.383	800.000	-0.038	0.147
-689.368	-200.000	0.008	0.164
-688.354	-131.740	0.212	0.028
-687.339	-200.000	-0.036	-0.370
-686.324	-200.000	0.006	0.238
-685.310	-200.000	0.025	-0.148
-684.295	-142.015	0.305	0.031
-683.281	-1.017	-0.124	-0.088
-682.266	-106.238	-0.381	0.086
-681.251	138.431	-0.124	-0.164
-680.237	59.928	-0.160	0.159
-679.222	-200.000	-0.037	-0.202
-678.208	-78.990	-0.177	-0.061
-677.193	-200.000	0.007	0.296
-676.178	-156.508	-0.231	-0.014
-675.164	-200.000	0.039	-0.262
-674.149	230.846	0.034	0.056
-673.135	-145.891	0.405	-0.036
-672.120	-200.000	0.009	-0.292
-671.105	-57.698	0.093	-0.041
-670.091	-106.192	0.249	-0.056
-669.076	111.459	-0.113	0.138
-668.062	49.682	-0.219	-0.208
-667.047	490.031	-0.066	-0.152
-666.032	-146.627	-0.398	0.035
-665.018	267.224	-0.065	-0.114
-664.003	-200.000	0.005	-0.330
-662.989	509.286	0.129	0.301
-661.974	-200.000	0.037	-0.172
-660.959	-111.070	-0.191	-0.039
-659.945	-200.000	-0.001	-0.198
-658.930	119.431	0.235	0.293
-657.916	9.282	-0.223	-0.170
-656.901	90.190	0.170	-0.191
-655.886	-53.912	-0.242	-0.111
-654.872	40.304	0.184	-0.166
-653.857	33.160	-0.145	0.126
-652.843	-200.000	-0.023	-0.179
-651.828	-56.238	0.177	-0.079
-650.814	53.111	-0.372	-0.359
-649.799	-89.595	-0.357	-0.105
-648.784	303.538	0.090	0.169
-647.770	-85.346	0.276	0.087
-646.755	11.106	0.031	-0.024
-645.741	-146.606	-0.086	-0.008
-644.726	-130.551	-0.063	0.009
-643.711	71.814	0.257	0.269
-642.697	27.203	0.120	0.101
-641.682	456.157	0.146	-0.325
-640.668	800.000	0.054	0.193
-639.653	26.202	0.158	0.132
-638.638	-200.000	0.004	0.162
-637.624	428.793	0.098	-0.214
-636.609	-200.000	-0.020	0.252
-635.595	-200.000	-0.056	0.317
-634.580	-29.607	0.251	0.144
-633.565	-99.540	-0.137	-0.035
-632.551	-84.849	0.175	0.055
-631.536	-63.514	-0.247	0.102
-630.522	-200.000	-0.032	-0.176
-629.507	-200.000	-0.090	-0.497
-628.492	3.566	-0.240	-0.176
-627.478	-61.390	-0.180	-0.076
-626.463	800.000	0.054	0.209
-625.449	-115.360	0.249	0.047
-624.434	714.329	0.166	-0.443
-623.419	89.344	0.050	-0.056
-622.405	422.268	0.116	-0.251
-621.390	228.122	0.143	-0.235
-620.376	434.651	0.104	-0.228
-619.361	-200.000	0.034	-0.507
-618.346	-200.000	-0.025	-0.117
-617.332	-95.374	-0.185	0.050
-616.317	130.021	0.045	-0.058
-615.303	-200.000	0.013	0.312
-614.288	-200.000	-0.031	0.305
-613.273	-110.726	-0.501	-0.104
-612.259	42.525	0.313	0.286
-611.244	-148.531	-0.030	-0.002
-610.230	800.000	0.059	-0.214
-609.215	-8.875	-0.281	0.189
-608.201	-134.066	0.366	0.046
-607.186	-200.000	-0.014	-0.279
-606.171	-134.454	0.342	0.042
-605.157	800.000	-0.102	-0.303
-604.142	-85.557	-0.167	0.052
-603.128	46.574	0.102	-0.095
-602.113	172.663	0.162	0.234
-601.098	-200.000	0.010	-0.081
-600.084	70.423	0.175	-0.182
-599.069	-38.658	-0.127	-0.067
-598.055	22.170	-0.215	-0.177
-597.040	-105.347	0.081	-0.018
-596.025	-165.373	-0.361	-0.016
-595.011	-62.381	-0.314	0.131
-593.996	199.902	-0.109	-0.169
-592.982	-134.962	0.234	-0.028
-591.967	800.000	0.085	-0.363
-590.952	-200.000	0.012	-0.301
-589.938	-92.588	0.145	0.041
-588.923	-60.475	-0.147	0.063
-587.909	-138.501	-0.186	-0.020
-586.894	138.112	-0.188	0.247
-585.879	396.161	0.105	0.220
-584.865	-83.545	0.280	-0.090
-583.850	-22.338	-0.194	-0.118
-582.836	264.370	-0.102	-0.178
-581.821	-131.167	-0.291	0.039
-580.806	239.354	-0.080	-0.134
-579.792	-79.376	0.206	-0.070
-578.777	-200.000	0.065	-0.385
-577.763	-159.762	0.277	-0.015
-576.748	32.303	-0.387	0.335
-575.733	-65.972	-0.456	-0.183
-574.719	-115.361	0.259	-0.049
-573.704	383.929	0.108	-0.223
-572.690	-69.189	0.227	-0.088
-571.675	800.000	0.120	-0.490
-570.661	16.876	-0.227	0.180
-569.646	-200.000	-0.037	-0.224
-568.631	-200.000	-0.029	0.171
-567.617	-200.000	0.038	0.249
-566.602	128.807	-0.326	0.417
-565.588	-200.000	-0.022	0.314
-564.573	-38.731	0.107	0.057
-563.558	121.674	0.053	0.066
-562.544	-50.177	-0.255	-0.121
-561.529	-136.467	-0.140	-0.016
-560.515	-52.559	0.109	0.050
-559.500	154.845	-0.286	-0.394
-558.485	-66.644	0.129	-0.051
-557.471	-200.000	0.009	-0.142
-556.456	1.655	0.164	-0.118
-555.442	-86.708	-0.174	-0.053
-554.427	-47.373	-0.231	0.113
-553.412	164.498	0.147	0.208
-552.398	-200.000	-0.011	0.158
-551.383	-51.839	-0.290	-0.135
-550.369	-78.868	-0.140	0.048
-549.354	148.727	0.139	-0.188
-548.339	169.058	-0.069	-0.099
-547.325	-101.819	-0.460	0.111
-546.310	-127.611	-0.408	0.059
-545.296	154.167	0.123	0.168
-544.281	-200.000	0.025	-0.155
-543.266	35.663	0.089	-0.079
-542.252	47.793	-0.118	0.110
-541.237	-200.000	0.000	-0.204
-540.223	-170.993	0.260	-0.009
-539.208	-125.618	-0.156	0.024
-538.193	726.422	0.034	-0.090
-537.179	-91.222	-0.105	-0.030
-536.164	-36.110	0.395	-0.214
-535.150	-200.000	0.000	-0.140
-534.135	535.943	-0.120	0.284
-533.121	-48.474	0.307	-0.148
-532.106	-200.000	-0.052	-0.273
-531.091	-13.664	0.335	-0.217
-530.077	800.000	-0.015	-0.055
-529.062	-50.316	0.180	-0.085
-528.048	108.597	0.091	-0.109
-527.033	-77.199	-0.076	0.027
-526.018	-129.353	0.285	0.040
-525.004	-119.295	0.278	0.048
-523.989	-152.504	-0.321	0.023
-522.975	-200.000	-0.001	0.128
-521.960	11.258	-0.163	-0.125
-520.945	-200.000	-0.015	0.167
-519.931	-18.404	-0.099	0.062
-518.916	-29.742	-0.360	-0.206
-517.902	-93.239	0.151	-0.042
-516.887	-200.000	0.031	-0.280
-515.872	49.322	0.266	0.251
-514.858	277.189	0.020	-0.036
-513.843	-200.000	-0.002	0.308
-512.829	1.650	-0.117	-0.084
-511.814	-200.000	0.007	-0.112
-510.799	-61.940	-0.177	0.074
-509.785	-82.531	0.053	-0.017
-508.770	-172.628	0.095	-0.003
-507.756	800.000	0.019	0.071
-506.741	-200.000	-0.005	-0.038
-505.726	800.000	0.038	-0.132
-504.712	-200.000	-0.039	-0.264
-503.697	-49.974	0.165	0.078
-502.683	800.000	-0.050	0.194
-501.668	191.115	-0.025	0.038
-500.653	-161.979	-0.428	0.022
-499.639	62.959	-0.116	-0.116
-498.624	-200.000	0.030	-0.141
-497.610	-67.130	0.228	0.090
-496.595	-117.724	-0.110	-0.020
-495.581	-200.000	0.008	0.143
-494.566	72.857	0.040	-0.042
-493.551	-96.747	0.112	-0.029
-492.537	-200.000	-0.026	0.143
-491.522	-200.000	-0.005	-0.042
-490.508	-109.767	-0.107	-0.023
-489.493	-18.149	-0.209	0.131
-488.478	-75.367	0.108	0.038
-487.464	-200.000	0.023	-0.220
-486.449	149.307	0.108	0.146
-485.435	181.667	-0.195	-0.287
-484.420	-6.756	-0.352	-0.240
-483.405	656.285	0.068	-0.173
-482.391	130.419	0.174	0.222
-481.376	-114.417	0.057	0.011
-480.362	-55.389	0.194	-0.087
-479.347	163.062	-0.167	-0.234
-478.332	-200.000	0.008	-0.151
-477.318	-200.000	0.006	-0.068
-476.303	-99.558	-0.080	0.020
-475.289	800.000	-0.024	-0.104
-474.274	297.015	-0.095	0.173
-473.259	-51.520	0.173	-0.081
-472.245	-62.406	0.367	0.153
-471.230	-64.386	-0.359	-0.146
-470.216	263.145	-0.115	-0.199
-469.201	288.684	0.066	-0.120
-468.186	-48.285	0.097	-0.047
-467.172	11.200	-0.210	-0.161
-466.157	-109.641	0.334	0.070
-465.143	-200.000	-0.016	0.332
-464.128	-113.725	-0.448	0.087
-463.113	84.093	0.213	0.232
-462.099	-95.413	0.147	-0.039
-461.084	-200.000	0.033	0.150
-460.070	-160.747	-0.176	0.009
-459.055	306.584	-0.096	0.178
-458.040	206.362	0.058	-0.090
-457.026	176.570	0.242	0.352
-456.011	207.154	0.126	0.196
-454.997	60.858	-0.020	0.020
-453.982	-86.060	0.255	-0.079
-452.968	-43.353	0.197	-0.099
-451.953	-139.351	-0.124	0.013
-450.938	38.762	-0.099	0.088
-449.924	122.871	0.012	-0.015
-448.909	281.587	-0.065	-0.117
-447.895	226.709	0.137	0.222
-446.880	6.334	-0.242	0.179
-445.865	-200.000	-0.024	-0.255
-444.851	111.089	0.104	-0.125
-443.836	-150.298	-0.326	-0.025
-442.822	-94.169	0.319	-0.087
-441.807	-200.000	0.033	-0.191
-440.792	800.000	0.082	-0.271
-439.778	84.167	-0.115	-0.125
-438.763	-200.000	-0.021	0.138
-437.749	155.337	0.094	0.129
-436.734	281.002	0.104	0.185
-435.719	-46.013	0.216	0.106
-434.705	-45.948	-0.154	-0.076
-433.690	-42.372	0.203	-0.104
-432.676	800.000	-0.039	-0.144
-431.661	111.615	0.210	-0.252
-430.646	-89.107	0.277	-0.082
-429.632	-28.924	0.327	-0.187
-428.617	-57.397	-0.112	-0.049
-427.603	-35.692	-0.098	0.053
-426.588	-200.000	0.036	-0.310
-425.573	-58.133	0.128	-0.056
-424.559	-111.758	-0.028	0.006
-423.544	-47.285	0.246	0.120
-422.530	152.040	-0.254	-0.345
-421.515	-200.000	-0.020	-0.318
-420.500	30.247	0.073	-0.062
-419.486	-10.703	-0.107	0.070
-418.471	-73.815	0.069	-0.025
-417.457	180.333	-0.105	0.154
-416.442	719.215	0.058	0.153
-415.428	53.864	0.114	0.109
-414.413	358.442	0.044	0.088
-413.398	800.000	-0.085	0.276
-412.384	-200.000	-0.066	-0.300
-411.369	-65.154	0.239	0.096
-410.355	-8.338	-0.083	0.056
-409.340	72.424	-0.053	0.055
-408.325	-85.221	0.258	0.080
-407.311	800.000	-0.056	0.243
-406.296	36.356	0.225	0.198
-405.282	-57.374	0.278	0.122
-404.267	-23.681	0.010	0.006
-403.252	48.565	-0.058	-0.054
-402.238	-3.718	-0.258	-0.179
-401.223	-78.070	-0.357	-0.123
-400.209	-101.206	0.066	0.016
-399.194	40.424	0.353	-0.317
-398.179	-38.356	-0.199	0.105
-397.165	50.532	-0.199	0.187
-396.150	555.148	0.215	0.516
-395.136	-45.390	0.187	-0.093
-394.121	-117.632	0.176	-0.032
-393.106	72.698	0.152	0.158
-392.092	-200.000	-0.014	0.087
-391.077	19.129	-0.164	-0.131
-390.063	31.178	-0.004	-0.003
-389.048	53.938	-0.021	0.020
-388.033	409.406	0.169	-0.357
-387.019	-163.381	-0.091	-0.004
-386.004	-96.504	-0.059	0.015
-384.990	120.345	0.185	0.228
-383.975	-73.468	0.360	0.131
-382.960	-78.304	0.316	-0.108
-381.946	800.000	0.041	0.143
-380.931	-137.426	-0.232	-0.026
-379.917	-200.000	-0.011	-0.106
-378.902	-200.000	-0.077	0.466
-377.888	45.027	0.243	-0.223
-376.873	272.390	0.058	0.101
-375.858	577.505	-0.116	0.284
-374.844	362.457	-0.070	0.140
-373.829	-200.000	-0.014	0.222
-372.815	-139.694	-0.153	-0.016
-371.800	-19.212	0.197	-0.122
-370.785	-200.000	-0.006	0.079
-369.771	-66.409	-0.172	0.068
-368.756	35.726	0.088	0.077
-367.742	-42.974	0.281	-0.142
-366.727	800.000	-0.021	0.067
-365.712	-180.595	-0.121	-0.002
-364.698	-200.000	0.036	-0.219
-363.683	800.000	0.039	-0.157
-362.669	-200.000	0.003	-0.058
-361.654	158.872	-0.211	-0.292
-360.639	-46.845	-0.390	-0.190
-359.625	378.765	-0.164	0.333
-358.610	-102.875	0.317	0.075
-357.596	800.000	-0.046	0.193
-356.581	-32.851	0.151	-0.083
-355.566	800.000	0.085	0.246
-354.552	81.650	0.172	0.185
-353.537	-200.000	-0.017	0.209
-352.523	-91.656	0.138	-0.039
-351.508	-25.511	0.455	0.267
-350.493	447.935	0.109	0.239
-349.479	-122.876	-0.043	0.007
-348.464	113.423	-0.013	0.016
-347.450	172.879	-0.218	0.313
-346.435	8.490	0.141	-0.106
-345.420	-119.427	-0.052	-0.009
-344.406	-110.416	0.117	-0.024
-343.391	-82.072	0.426	0.138
-342.377	800.000	0.066	-0.281
-341.362	-135.680	-0.097	0.011
-340.348	-73.934	0.249	0.090
-339.333	16.557	-0.144	-0.113
-338.318	-95.905	0.169	0.045
-337.304	-200.000	0.017	-0.202
-336.289	800.000	0.056	0.191
-335.275	-49.249	0.067	0.032
-334.260	-15.539	0.086	0.054
-333.245	382.719	0.076	0.156
-332.231	800.000	-0.082	0.325
-331.216	152.756	0.176	-0.239
-330.202	-127.823	-0.232	0.033
-329.187	-7.934	0.044	-0.029
-328.172	-55.020	0.107	-0.048
-327.158	555.760	0.084	0.201
-326.143	-24.548	0.155	0.092
-325.129	-20.360	-0.293	0.179
-324.114	547.178	0.030	0.071
-323.099	219.485	-0.094	0.149
-322.085	64.498	0.241	-0.241
-321.070	800.000	0.046	-0.165
-320.056	19.908	-0.073	-0.059
-319.041	-200.000	-0.007	0.115
-318.026	800.000	-0.073	-0.228
-317.012	131.441	0.060	0.077
-315.997	4.963	0.191	0.140
-314.983	-93.562	-0.177	0.049
-313.968	-126.779	-0.340	0.050
-312.953	523.725	0.175	-0.409
-311.939	800.000	0.011	-0.046
-310.924	800.000	-0.129	0.413
-309.910	-61.651	-0.270	0.113
-308.895	800.000	-0.141	0.432
-307.880	-80.834	-0.242	0.080
-306.866	-2.240	-0.230	0.160
-305.851	800.000	-0.058	-0.163
-304.837	-200.000	-0.022	-0.184
-303.822	-13.480	0.271	-0.174
-302.807	-5.380	-0.193	-0.131
-301.793	51.364	-0.080	0.076
-300.778	-145.125	0.191	0.017
-299.764	-87.118	-0.157	0.047
-298.749	-23.103	0.224	0.134
-297.735	85.291	-0.138	-0.151
-296.720	-200.000	-0.061	0.310
-295.705	-117.495	-0.235	-0.042
-294.691	800.000	0.035	0.131
-293.676	-112.980	-0.199	-0.039
-292.662	-87.020	-0.154	0.047
-291.647	-134.704	-0.046	-0.006
-290.632	-158.381	0.379	0.022
-289.618	-90.514	-0.182	0.052
-288.603	-200.000	-0.022	0.299
-287.589	-200.000	0.032	0.182
-286.574	-69.655	-0.376	0.143
-285.559	691.396	0.122	0.316
-284.545	-98.662	0.118	-0.030
-283.530	800.000	-0.040	0.110
-282.516	96.836	-0.143	-0.163
-281.501	-77.417	-0.186	0.064
-280.486	224.067	0.152	-0.244
-279.472	-18.655	-0.091	0.056
-278.457	65.733	-0.021	0.022
-277.443	800.000	0.021	0.070
-276.428	800.000	-0.079	-0.283
-275.413	-31.331	0.110	0.062
-274.399	-166.034	0.241	-0.010
-273.384	-200.000	-0.015	-0.309
-272.370	-130.895	-0.091	-0.012
-271.355	408.502	-0.023	-0.049
-270.340	521.398	0.065	0.151
-269.326	-55.631	-0.310	0.138
-268.311	-94.691	-0.471	0.127
-267.297	-200.000	0.024	-0.326
-266.282	357.417	-0.088	-0.174
-265.267	479.867	-0.030	0.068
-264.253	-200.000	-0.011	0.436
-263.238	25.062	0.056	0.046
-262.224	-121.337	-0.238	-0.039
-261.209	800.000	-0.072	0.235
-260.195	75.089	-0.266	0.278
-259.180	42.340	-0.248	0.224
-258.165	215.097	-0.164	0.257
-257.151	-144.858	0.128	-0.012
-256.136	-106.913	0.267	0.059
-255.122	-108.108	-0.246	0.053
-254.107	-89.179	0.118	-0.035
-253.092	24.856	0.018	0.015
-252.078	139.609	0.127	-0.165
-251.063	-116.569	0.146	-0.027
-250.049	569.491	-0.075	0.181
-249.034	-89.757	-0.354	0.103
-248.019	33.275	-0.041	-0.035
-247.005	23.128	-0.053	-0.043
-245.990	-159.528	-0.073	0.004
-244.976	800.000	-0.045	0.181
-243.961	-159.250	0.138	-0.008
-242.946	97.997	-0.215	0.246
-241.932	324.355	-0.102	-0.192
-240.917	-36.356	-0.354	0.189
-239.903	-200.000	0.014	-0.137
-238.888	-129.628	0.194	0.027
-237.873	-139.373	-0.212	-0.022
-236.859	-186.921	-0.171	0.002
-235.844	-86.767	0.167	-0.051
-234.830	203.065	-0.156	-0.239
-233.815	64.548	0.127	-0.126
-232.800	95.683	-0.035	0.040
-231.786	-72.755	0.030	-0.011
-230.771	-99.944	-0.230	0.057
-229.757	-141.101	-0.228	-0.023
-228.742	3.466	0.070	0.050
-227.727	546.236	-0.079	0.188
-226.713	-75.639	-0.148	-0.052
-225.698	-62.147	-0.109	0.045
-224.684	117.905	0.191	0.233
-223.669	61.177	-0.190	-0.187
-222.655	456.247	0.153	0.336
-221.640	800.000	0.039	-0.123
-220.625	-200.000	-0.004	-0.082
-219.611	773.069	0.073	-0.198
-218.596	-200.000	-0.000	0.282
-217.582	240.527	0.107	0.177
-216.567	-13.076	0.101	0.065
-215.552	-200.000	-0.049	-0.226
-214.538	800.000	0.070	0.235
-213.523	-200.000	0.011	0.452
-212.509	73.545	-0.454	0.470
-211.494	-200.000	0.035	-0.292
-210.479	800.000	0.078	-0.234
-209.465	-200.000	-0.008	0.139
-208.450	-124.241	0.123	0.019
-207.436	32.273	0.098	0.084
-206.421	-200.000	-0.002	-0.069
-205.406	-200.000	0.054	-0.324
-204.392	-124.099	-0.194	-0.030
-203.377	-11.518	0.006	0.004
-202.363	800.000	0.177	-0.491
-201.348	-31.670	0.081	-0.045
-200.333	-200.000	-0.012	-0.109
-199.319	-58.670	0.274	0.117
-198.304	800.000	-0.126	0.391
-197.290	-9.388	0.194	-0.128
-196.275	-122.763	0.297	-0.047
-195.260	-200.000	0.038	-0.241
-194.246	-117.329	0.391	0.070
-193.231	-200.000	-0.033	-0.270
-192.217	8.772	0.053	0.039
-191.202	-140.076	0.165	-0.017
-190.187	800.000	0.051	0.199
-189.173	-81.652	0.070	0.023
-188.158	319.685	-0.040	0.075
-187.144	-20.197	0.315	-0.192
-186.129	-200.000	-0.011	-0.297
-185.114	-106.974	0.160	0.035
-184.100	2.261	-0.123	-0.088
-183.085	-62.922	-0.259	0.106
-182.071	-88.553	-0.096	-0.028
-181.056	-46.074	-0.248	-0.121
-180.042	-200.000	-0.016	-0.305
-179.027	-193.869	-0.202	0.002
-178.012	329.043	-0.130	0.247
-176.998	800.000	-0.006	-0.016
-175.983	306.025	0.200	-0.367
-174.969	-58.869	-0.174	-0.074
-173.954	-25.953	-0.218	-0.127
-172.939	800.000	0.040	0.134
-171.925	-67.893	0.163	-0.063
-170.910	73.160	0.104	0.107
-169.896	-186.861	-0.422	-0.006
-168.881	292.690	0.082	0.148
-167.866	-200.000	0.014	0.184
-166.852	-112.029	-0.080	-0.016
-165.837	800.000	0.065	0.217
-164.823	51.573	0.274	-0.258
-163.808	-21.195	0.072	0.043
-162.793	-5.272	0.062	0.042
-161.779	169.742	-0.169	-0.238
-160.764	11.407	-0.100	-0.076
-159.750	20.416	0.249	-0.198
-158.735	14.701	0.077	0.060
-157.720	-200.000	0.015	0.119
-156.706	-200.000	0.049	-0.216
-155.691	-200.000	0.040	-0.436
-154.677	-200.000	0.048	0.376
-153.662	-125.174	-0.327	0.050
-152.647	-148.416	0.082	-0.007
-151.633	-148.922	0.201	0.016
-150.618	238.407	-0.088	0.144
-149.604	118.962	0.098	0.120
-148.589	-22.887	0.105	-0.063
-147.574	-143.223	-0.380	-0.036
-146.560	-200.000	0.009	-0.157
-145.545	627.918	0.122	-0.303
-144.531	108.465	0.173	0.204
-143.516	95.764	-0.163	0.184
-142.502	378.083	0.100	-0.203
-141.487	-200.000	-0.066	0.386
-140.472	63.062	0.267	-0.263
-139.458	224.059	0.227	-0.361
-138.443	800.000	-0.023	0.091
-137.429	9.329	0.221	-0.165
-136.414	127.718	0.126	0.158
-135.399	45.378	-0.069	0.063
-134.385	759.715	-0.062	-0.165
-133.370	800.000	-0.071	0.197
-132.356	444.840	0.102	0.221
-131.341	-116.092	-0.362	0.066
-130.326	-200.000	-0.014	0.178
-129.312	214.626	-0.171	-0.266
-128.297	481.767	0.112	0.251
-127.283	-200.000	-0.015	0.112
-126.268	-182.397	-0.315	-0.006
-125.253	482.184	-0.049	-0.110
-124.239	8.138	0.095	-0.070
-123.224	-35.809	0.333	-0.178
-122.210	590.476	-0.091	-0.222
