DTS Sentinel unit serial number:	SN413079Multiplexer serial number:	ORYXHardware model number:	OX4-SRSoftware version number:	ORYX F/W v4.00 Oryx Data Collector v3.7.2.0data status	okinstallation	princeton_trtdifferential loss correction	single-endedforward channel	channel 2reverse channel	N/Adate	2019/09/18time	17:23:35forward acquisition time	60.00reverse acquisition time	0.00gamma	496.2192k internal	0.2298k external	0.2298temperature offset calibration	1.0010default loss term (dB/km)	0.3790temperature slope calibration	1.0000multiplexer offset coefficient	1.0000multiplexer slope coefficient	1.0000fibre end	0.00T internal ref (°C)	39.95T ext. ref 1 (°C)	0.88T ext. ref 2 (°C)	36.82length (m)	temperature (°C)	Stokes	anti-Stokes-747.200	-158.766	-0.050	0.003
-746.185	800.000	0.064	0.211
-745.171	539.524	0.107	-0.260
-744.156	-200.000	0.018	-0.093
-743.142	16.391	0.225	0.182
-742.127	191.039	-0.149	0.229
-741.112	-78.745	-0.215	-0.075
-740.098	-9.172	-0.246	0.168
-739.083	-95.221	0.195	-0.054
-738.069	59.008	-0.113	0.114
-737.054	-111.718	0.067	0.014
-736.039	-47.088	-0.232	-0.116
-735.025	-49.284	0.386	0.188
-734.010	5.258	-0.319	0.240
-732.996	89.393	0.094	-0.107
-731.981	-127.231	0.288	-0.043
-730.966	-200.000	0.011	-0.263
-729.952	-110.609	-0.363	-0.077
-728.937	-117.220	-0.183	0.034
-727.923	238.919	-0.133	0.226
-726.908	-150.895	0.252	-0.019
-725.894	-43.198	-0.092	-0.047
-724.879	-170.755	-0.384	0.013
-723.864	-19.730	-0.140	-0.088
-722.850	-54.659	-0.195	0.090
-721.835	243.342	-0.074	0.126
-720.821	94.535	0.062	0.072
-719.806	746.908	0.062	0.169
-718.791	-24.914	-0.320	-0.194
-717.777	59.192	-0.112	0.113
-716.762	-200.000	0.090	-0.408
-715.748	6.051	0.304	-0.229
-714.733	-12.154	0.326	0.217
-713.718	55.563	0.046	-0.045
-712.704	684.451	0.142	-0.379
-711.689	-200.000	-0.051	0.368
-710.675	-70.191	0.181	0.070
-709.660	-200.000	-0.049	-0.377
-708.645	-105.626	0.221	-0.051
-707.631	15.868	0.276	0.221
-706.616	-149.903	0.197	-0.016
-705.602	6.919	0.083	-0.063
-704.587	17.827	-0.130	-0.106
-703.572	-47.422	0.092	0.046
-702.558	707.998	0.111	0.299
-701.543	-5.532	-0.097	-0.068
-700.529	-200.000	-0.009	-0.246
-699.514	-200.000	0.024	-0.144
-698.499	-200.000	0.001	0.128
-697.485	230.626	-0.190	-0.317
-696.470	77.560	0.221	-0.240
-695.456	-57.424	0.259	0.116
-694.441	-104.378	-0.442	0.104
-693.426	-94.774	-0.114	0.032
-692.412	535.084	0.085	-0.205
-691.397	700.059	0.206	-0.553
-690.383	-128.669	0.164	0.024
-689.368	-101.932	0.182	-0.045
-688.354	-15.273	0.093	-0.061
-687.339	212.054	0.084	-0.135
-686.324	160.105	0.180	-0.255
-685.310	-188.446	0.103	-0.001
-684.295	-200.000	-0.007	0.057
-683.281	85.622	0.051	-0.057
-682.266	-200.000	-0.072	-0.368
-681.251	109.243	-0.125	0.153
-680.237	800.000	-0.044	-0.156
-679.222	-117.754	0.186	0.034
-678.208	263.298	0.158	-0.279
-677.193	-29.022	-0.199	0.116
-676.178	-61.375	0.091	-0.039
-675.164	800.000	-0.041	-0.178
-674.149	-75.227	0.312	0.113
-673.135	-112.488	-0.290	0.059
-672.120	-123.287	-0.299	-0.049
-671.105	-126.835	0.248	-0.037
-670.091	-22.549	0.230	-0.142
-669.076	430.433	0.119	-0.261
-668.062	-129.916	-0.205	-0.029
-667.047	481.850	-0.101	-0.233
-666.032	800.000	0.087	-0.351
-665.018	-25.154	-0.198	-0.120
-664.003	255.680	-0.239	-0.417
-662.989	-200.000	-0.006	0.273
-661.974	-164.847	0.293	-0.013
-660.959	-143.016	-0.231	0.023
-659.945	800.000	-0.050	0.193
-658.930	207.893	-0.162	0.258
-657.916	146.790	-0.048	0.066
-656.901	800.000	-0.066	0.188
-655.886	-200.000	-0.070	-0.329
-654.872	-117.127	0.255	0.047
-653.857	-79.974	-0.082	0.028
-652.843	-200.000	-0.020	-0.374
-651.828	201.150	-0.090	0.141
-650.814	800.000	0.057	0.198
-649.799	21.853	0.265	0.220
-648.784	-200.000	0.008	0.050
-647.770	-73.614	-0.405	0.150
-646.755	19.847	-0.063	0.052
-645.741	-97.554	-0.094	0.025
-644.726	182.738	0.024	0.035
-643.711	65.493	0.091	0.094
-642.697	-73.491	-0.438	0.162
-641.682	406.919	-0.046	-0.099
-640.668	-60.273	-0.051	0.022
-639.653	-200.000	-0.001	0.083
-638.638	800.000	-0.083	-0.243
-637.624	261.928	-0.078	-0.137
-636.609	-161.403	-0.176	0.009
-635.595	478.506	0.080	-0.184
-634.580	-167.472	0.196	-0.008
-633.565	628.023	-0.016	0.041
-632.551	-200.000	0.055	0.345
-631.536	263.471	-0.112	0.197
-630.522	-169.235	0.293	0.011
-629.507	515.691	0.165	0.392
-628.492	463.483	-0.141	0.320
-627.478	-4.046	0.282	0.199
-626.463	-29.456	-0.174	0.101
-625.449	71.126	0.231	-0.243
-624.434	-122.103	-0.186	0.031
-623.419	368.071	-0.089	0.182
-622.405	6.158	-0.423	0.319
-621.390	194.075	-0.090	0.139
-620.376	-10.287	-0.150	0.101
-619.361	-200.000	0.049	0.417
-618.346	800.000	-0.041	-0.152
-617.332	800.000	-0.053	-0.225
-616.317	702.614	0.160	-0.428
-615.303	-200.000	-0.023	0.162
-614.288	-200.000	-0.026	0.300
-613.273	-88.778	-0.481	-0.145
-612.259	125.693	0.104	0.134
-611.244	-129.783	-0.093	0.013
-610.230	-200.000	-0.038	0.179
-609.215	-26.109	-0.085	0.051
-608.201	-98.524	-0.351	-0.091
-607.186	-200.000	0.058	0.266
-606.171	468.576	-0.041	0.093
-605.157	172.741	0.100	-0.147
-604.142	-200.000	-0.024	-0.366
-603.128	-56.600	-0.161	-0.072
-602.113	307.579	0.096	0.181
-601.098	70.927	0.144	0.151
-600.084	217.097	-0.158	-0.255
-599.069	-9.372	0.073	-0.050
-598.055	-108.677	0.304	0.066
-597.040	-69.897	-0.272	-0.105
-596.025	-11.448	0.145	0.097
-595.011	-150.482	-0.065	0.005
-593.996	40.535	-0.394	-0.361
-592.982	-200.000	-0.066	-0.352
-591.967	155.065	0.146	-0.204
-590.952	-62.714	0.266	-0.112
-589.938	-108.350	0.250	-0.055
-588.923	-90.295	-0.382	0.113
-587.909	-113.585	0.155	0.031
-586.894	2.933	0.155	-0.114
-585.879	-200.000	0.019	0.136
-584.865	93.684	-0.052	0.060
-583.850	48.471	-0.107	0.102
-582.836	334.498	0.013	0.025
-581.821	514.303	0.125	0.295
-580.806	124.306	0.298	0.380
-579.792	-31.279	0.213	-0.122
-578.777	161.349	0.038	0.054
-577.763	-200.000	0.002	0.136
-576.748	123.666	-0.154	0.196
-575.733	-135.978	-0.181	-0.022
-574.719	6.139	0.014	-0.011
-573.704	-200.000	-0.038	-0.191
-572.690	-200.000	0.210	0.001
-571.675	-9.932	-0.192	-0.129
-570.661	141.601	-0.095	-0.127
-569.646	800.000	-0.034	-0.112
-568.631	-48.335	-0.113	0.055
-567.617	-35.818	-0.294	-0.162
-566.602	-106.397	0.293	-0.066
-565.588	-57.463	-0.162	0.072
-564.573	-73.938	0.214	0.079
-563.558	426.873	-0.101	-0.220
-562.544	800.000	-0.079	-0.279
-561.529	-15.432	-0.297	-0.192
-560.515	12.070	-0.193	0.151
-559.500	-91.976	0.204	0.059
-558.485	-124.380	-0.244	0.039
-557.471	-124.366	0.080	0.013
-556.456	-200.000	0.017	-0.392
-555.442	800.000	-0.036	-0.150
-554.427	-133.198	0.312	0.040
-553.412	800.000	0.049	0.172
-552.398	-200.000	-0.015	0.221
-551.383	-200.000	-0.016	0.084
-550.369	-158.475	0.093	0.005
-549.354	-200.000	0.031	-0.156
-548.339	46.989	0.228	0.215
-547.325	-110.481	-0.172	0.036
-546.310	-71.993	-0.148	0.056
-545.296	127.028	-0.067	-0.086
-544.281	800.000	-0.039	-0.134
-543.266	-200.000	-0.003	0.079
-542.252	-65.049	0.182	0.075
-541.237	97.058	-0.075	-0.087
-540.223	800.000	-0.031	-0.133
-539.208	87.390	-0.111	0.124
-538.193	142.591	-0.163	-0.219
-537.179	-143.898	0.197	-0.019
-536.164	92.254	0.085	-0.097
-535.150	247.615	-0.140	-0.240
-534.135	339.768	-0.247	-0.488
-533.121	209.996	-0.132	-0.209
-532.106	-200.000	-0.002	0.064
-531.091	-25.325	0.169	-0.101
-530.077	98.677	0.208	-0.243
-529.062	364.929	0.107	-0.218
-528.048	119.574	-0.199	-0.250
-527.033	-74.975	-0.299	0.109
-526.018	48.974	0.242	0.230
-525.004	-77.939	0.138	0.048
-523.989	-93.673	0.181	0.051
-522.975	-119.729	0.183	-0.032
-521.960	555.164	0.067	-0.164
-520.945	5.565	-0.086	0.065
-519.931	-92.673	0.258	-0.073
-518.916	-141.937	0.169	-0.017
-517.902	25.653	0.068	-0.058
-516.887	-95.351	0.322	-0.088
-515.872	107.424	-0.106	-0.128
-514.858	-96.368	0.263	-0.070
-513.843	800.000	0.060	-0.243
-512.829	544.134	0.088	-0.212
-511.814	800.000	-0.047	0.158
-510.799	-200.000	0.079	0.364
-509.785	285.441	-0.102	-0.186
-508.770	65.612	-0.175	-0.179
-507.756	98.186	0.060	-0.070
-506.741	800.000	0.062	0.249
-505.726	-200.000	0.024	-0.167
-504.712	-200.000	0.034	0.202
-503.697	547.807	-0.094	-0.227
-502.683	-64.798	0.207	0.085
-501.668	-80.932	-0.062	-0.021
-500.653	-31.471	0.227	-0.129
-499.639	66.653	0.156	0.160
-498.624	2.897	0.111	-0.082
-497.610	17.048	0.139	-0.111
-496.595	-192.748	-0.238	-0.002
-495.581	135.176	0.090	0.118
-494.566	529.458	0.050	0.120
-493.551	-9.994	0.274	0.184
-492.537	-87.081	-0.262	-0.080
-491.522	-45.691	-0.146	0.073
-490.508	-200.000	-0.056	-0.312
-489.493	174.486	0.064	0.093
-488.478	-140.600	0.121	0.013
-487.464	6.933	-0.292	-0.220
-486.449	672.593	-0.037	0.096
-485.435	80.557	0.012	-0.013
-484.420	-200.000	0.031	-0.260
-483.405	58.507	0.103	-0.102
-482.391	-200.000	-0.014	0.207
-481.376	19.598	-0.191	0.155
-480.362	-66.466	-0.201	0.081
-479.347	800.000	-0.039	-0.113
-478.332	228.501	0.039	0.064
-477.318	800.000	0.085	-0.280
-476.303	-115.454	-0.071	-0.013
-475.289	-30.246	-0.077	-0.044
-474.274	-13.483	0.054	-0.035
-473.259	-172.257	0.152	-0.005
-472.245	98.716	0.025	-0.029
-471.230	-200.000	0.039	0.309
-470.216	-4.550	0.101	0.070
-469.201	-81.561	-0.237	-0.079
-468.186	-161.789	0.193	-0.010
-467.172	-174.472	0.153	0.004
-466.157	-34.748	-0.276	0.152
-465.143	-200.000	-0.010	0.172
-464.128	-100.341	-0.163	-0.041
-463.113	-200.000	0.067	0.474
-462.099	-45.139	0.112	-0.056
-461.084	-111.573	-0.170	0.035
-460.070	776.899	-0.038	-0.104
-459.055	800.000	-0.018	0.072
-458.040	-200.000	-0.003	0.127
-457.026	-24.646	0.117	-0.070
-456.011	-9.158	-0.070	-0.048
-454.997	800.000	0.146	-0.408
-453.982	800.000	0.064	0.224
-452.968	800.000	0.029	-0.109
-451.953	800.000	0.100	0.434
-450.938	-51.279	-0.124	0.059
-449.924	99.870	0.244	0.285
-448.909	-200.000	-0.030	-0.328
-447.895	-65.147	-0.205	-0.083
-446.880	26.970	0.204	-0.173
-445.865	-51.844	-0.192	-0.090
-444.851	70.566	-0.164	-0.171
-443.836	-123.162	0.306	0.049
-442.822	392.774	-0.042	0.088
-441.807	-200.000	0.049	-0.282
-440.792	-200.000	0.062	0.318
-439.778	-200.000	-0.001	0.121
-438.763	162.359	-0.012	0.018
-437.749	-200.000	0.025	-0.244
-436.734	-200.000	-0.062	-0.422
-435.719	-65.791	-0.028	0.011
-434.705	-178.684	0.147	0.003
-433.690	260.477	0.093	-0.162
-432.676	334.658	0.041	0.080
-431.661	110.290	-0.284	-0.344
-430.646	800.000	0.094	0.264
-429.632	-11.527	0.228	0.151
-428.617	-92.244	-0.149	-0.042
-427.603	-23.769	0.051	-0.031
-426.588	26.906	0.200	-0.169
-425.573	94.261	-0.089	-0.102
-424.559	-68.104	-0.073	0.029
-423.544	795.014	0.145	0.402
-422.530	501.304	-0.071	0.164
-421.515	-185.412	0.449	-0.007
-420.500	-124.832	0.307	-0.048
-419.486	13.922	-0.168	0.131
-418.471	-13.239	-0.265	0.174
-417.457	109.360	-0.081	0.098
-416.442	800.000	-0.054	-0.204
-415.428	800.000	0.021	0.075
-414.413	97.926	0.019	0.021
-413.398	-171.134	-0.108	-0.004
-412.384	-157.166	-0.252	-0.015
-411.369	30.516	-0.234	0.202
-410.355	69.604	-0.098	-0.102
-409.340	-94.519	0.375	0.103
-408.325	-13.112	0.318	0.208
-407.311	9.820	-0.113	-0.086
-406.296	206.661	-0.226	-0.355
-405.282	-81.016	-0.284	0.095
-404.267	-175.993	-0.127	0.003
-403.252	-198.247	0.198	-0.001
-402.238	-14.189	0.378	0.245
-401.223	-174.845	-0.414	0.012
-400.209	82.084	0.152	-0.166
-399.194	50.273	0.143	-0.136
-398.179	139.098	0.017	0.023
-397.165	-56.325	-0.461	0.206
-396.150	-58.639	-0.127	-0.055
-395.136	-200.000	-0.010	0.089
-394.121	-200.000	0.014	-0.315
-393.106	660.861	-0.041	-0.106
-392.092	800.000	-0.072	0.276
-391.077	-108.961	-0.266	0.057
-390.063	-131.114	-0.135	0.018
-389.048	-23.531	-0.325	-0.197
-388.033	800.000	0.089	-0.277
-387.019	-42.520	0.463	-0.237
-386.004	-32.661	-0.194	-0.108
-384.990	-200.000	-0.047	-0.323
-383.975	-4.672	0.282	0.196
-382.960	24.162	0.167	-0.138
-381.946	-200.000	-0.004	0.025
-380.931	800.000	0.013	-0.044
-379.917	-48.684	-0.109	0.052
-378.902	-95.231	0.060	0.016
-377.888	-90.753	-0.310	-0.090
-376.873	-83.625	-0.129	0.041
-375.858	-105.859	0.198	0.045
-374.844	38.366	0.036	-0.032
-373.829	-89.363	-0.473	-0.140
-372.815	-46.701	-0.121	0.059
-371.800	-200.000	0.017	-0.244
-370.785	84.341	-0.145	0.160
-369.771	189.979	-0.062	-0.094
-368.756	-149.597	0.185	0.015
-367.742	-80.227	0.115	0.039
-366.727	-43.808	-0.086	-0.043
-365.712	177.430	0.093	-0.136
-364.698	-117.226	-0.089	0.016
-363.683	-200.000	-0.020	0.286
-362.669	81.153	-0.102	0.110
-361.654	74.620	-0.188	-0.198
-360.639	800.000	0.042	-0.130
-359.625	-200.000	0.024	0.272
-358.610	174.887	0.203	-0.295
-357.596	241.453	0.120	-0.202
-356.581	-41.512	-0.274	-0.142
-355.566	-114.824	-0.074	-0.014
-354.552	-31.691	0.304	0.172
-353.537	155.193	0.052	-0.072
-352.523	-26.129	-0.266	0.157
-351.508	-33.376	-0.166	-0.092
-350.493	-200.000	-0.002	-0.131
-349.479	-56.925	0.259	0.115
-348.464	319.612	-0.131	0.249
-347.450	667.641	0.119	0.310
-346.435	-162.457	-0.443	-0.022
-345.420	12.431	-0.066	-0.051
-344.406	-108.552	-0.157	-0.034
-343.391	-7.002	0.307	0.209
-342.377	99.287	0.332	0.386
-341.362	49.194	-0.105	0.099
-340.348	158.476	0.197	0.274
-339.333	800.000	-0.140	0.397
-338.318	-200.000	-0.047	0.300
-337.304	-97.112	0.276	-0.073
-336.289	-200.000	0.035	-0.159
-335.275	160.705	-0.123	-0.173
-334.260	-200.000	0.007	-0.116
-333.245	719.082	0.056	0.148
-332.231	-159.755	-0.021	-0.001
-331.216	308.004	-0.282	0.529
-330.202	800.000	-0.049	-0.188
-329.187	17.466	-0.286	0.228
-328.172	87.525	-0.141	0.156
-327.158	82.541	-0.296	0.323
-326.143	-42.412	0.217	-0.111
-325.129	-83.010	0.390	-0.126
-324.114	-200.000	-0.031	0.245
-323.099	504.192	-0.071	-0.166
-322.085	-90.318	0.188	0.055
-321.070	163.378	-0.149	0.210
-320.056	800.000	-0.033	0.104
-319.041	276.778	-0.062	-0.110
-318.026	57.020	-0.153	0.150
-317.012	573.888	0.098	0.240
-315.997	-70.283	0.068	-0.026
-314.983	182.362	-0.195	0.289
-313.968	-117.864	-0.174	-0.031
-312.953	-193.648	-0.227	-0.002
-311.939	13.069	0.162	-0.126
-310.924	9.259	0.201	0.153
-309.910	-109.733	-0.460	0.097
-308.895	565.342	0.036	-0.088
-307.880	-87.283	-0.060	-0.018
-306.866	290.266	0.068	0.125
-305.851	800.000	0.044	0.147
-304.837	-49.531	0.372	-0.178
-303.822	-60.320	-0.186	-0.079
-302.807	-76.454	0.225	-0.079
-301.793	244.566	0.072	0.121
-300.778	211.603	0.082	-0.129
-299.764	278.965	0.077	-0.138
-298.749	263.757	-0.077	-0.133
-297.735	-78.803	-0.143	0.049
-296.720	36.497	0.202	-0.179
-295.705	-139.544	0.382	0.041
-294.691	287.685	0.012	0.022
-293.676	-108.170	-0.090	0.019
-292.662	128.886	0.203	0.260
-291.647	-9.402	-0.221	-0.148
-290.632	-200.000	-0.021	0.241
-289.618	-26.262	0.133	0.078
-288.603	-200.000	-0.008	0.234
-287.589	19.339	-0.066	0.053
-286.574	130.046	-0.011	0.015
-285.559	-5.739	-0.054	-0.037
-284.545	-91.623	0.454	-0.130
-283.530	-17.814	-0.370	-0.233
-282.516	347.696	-0.071	-0.141
-281.501	-103.900	-0.133	-0.031
-280.486	800.000	0.058	0.161
-279.472	277.474	-0.096	0.171
-278.457	-57.038	0.313	-0.138
-277.443	260.150	-0.233	-0.404
-276.428	-200.000	-0.020	-0.198
-275.413	190.282	0.073	0.110
-274.399	-68.133	-0.076	0.030
-273.384	-200.000	-0.025	0.241
-272.370	800.000	0.120	-0.412
-271.355	800.000	-0.021	-0.061
-270.340	-200.000	-0.003	-0.161
-269.326	-101.988	0.239	0.058
-268.311	-200.000	-0.084	0.493
-267.297	230.568	0.218	0.358
-266.282	76.388	-0.026	0.028
-265.267	39.739	0.297	-0.267
-264.253	-102.452	0.199	-0.048
-263.238	-113.199	0.401	0.079
-262.224	-200.000	0.055	-0.258
-261.209	115.849	0.276	0.338
-260.195	-93.633	-0.175	0.048
-259.180	-200.000	-0.020	0.257
-258.165	-97.689	0.198	0.051
-257.151	-41.169	-0.320	-0.165
-256.136	-2.514	-0.373	-0.262
-255.122	800.000	0.035	-0.139
-254.107	-96.387	-0.586	0.155
-253.092	-29.322	0.070	0.040
-252.078	44.809	0.255	0.235
-251.063	-99.754	0.228	0.057
-250.049	5.544	-0.048	-0.035
-249.034	61.008	0.256	-0.254
-248.019	27.258	0.086	0.072
-247.005	282.104	0.128	-0.230
-245.990	-200.000	-0.029	-0.354
-244.976	-200.000	0.047	-0.209
-243.961	83.196	0.289	0.315
-242.946	-93.295	-0.234	-0.065
-241.932	222.757	0.193	0.312
-240.917	-111.940	0.430	0.087
-239.903	408.465	-0.029	-0.062
-238.888	-31.265	0.071	0.040
-237.873	800.000	0.047	0.205
-236.859	633.362	0.075	-0.190
-235.844	-95.894	-0.253	-0.067
-234.830	-75.059	0.041	0.015
-233.815	230.527	-0.109	0.179
-232.800	-200.000	0.048	0.238
-231.786	-195.440	-0.138	0.001
-230.771	-27.929	0.379	-0.219
-229.757	-52.974	-0.120	0.055
-228.742	800.000	-0.005	0.015
-227.727	800.000	-0.031	-0.128
-226.713	-81.165	0.149	-0.049
-225.698	-56.889	-0.286	0.126
-224.684	120.376	-0.194	-0.241
-223.669	134.429	-0.027	-0.035
-222.655	-27.321	-0.253	0.147
-221.640	-24.879	0.165	-0.098
-220.625	14.845	0.084	-0.066
-219.611	445.803	-0.025	0.054
-218.596	494.156	0.135	0.310
-217.582	-29.895	-0.271	-0.155
-216.567	-188.552	-0.253	0.003
-215.552	-71.548	0.136	0.051
-214.538	1.782	0.045	0.032
-213.523	-126.258	-0.261	0.039
-212.509	-200.000	-0.060	-0.337
-211.494	44.947	0.106	-0.098
-210.479	159.687	0.217	-0.302
-209.465	65.176	-0.044	-0.044
-208.450	19.189	0.266	0.213
-207.436	-104.292	-0.160	0.037
-206.421	-120.200	0.235	-0.040
-205.406	-128.863	-0.330	0.046
-204.392	160.622	0.104	0.145
-203.377	-105.347	0.212	0.048
-202.363	-160.121	0.131	-0.007
-201.348	800.000	-0.010	0.027
-200.333	273.082	-0.148	-0.260
-199.319	-200.000	0.036	-0.159
-198.304	-53.707	0.296	0.135
-197.290	800.000	-0.097	-0.297
-196.275	156.212	0.069	-0.095
-195.260	29.637	-0.220	-0.187
-194.246	-127.226	-0.409	0.060
-193.231	121.697	0.106	0.132
-192.217	-41.579	0.064	0.033
-191.202	-200.000	-0.010	0.112
-190.187	256.888	-0.086	-0.148
-189.173	-125.494	-0.189	0.029
-188.158	-200.000	0.029	-0.327
-187.144	80.168	-0.091	0.098
-186.129	247.195	-0.033	-0.056
-185.114	-54.277	0.257	-0.117
-184.100	-99.397	-0.092	-0.023
-183.085	115.155	-0.182	-0.222
-182.071	123.210	0.112	-0.140
-181.056	-200.000	0.012	-0.180
-180.042	-107.679	-0.047	0.010
-179.027	577.755	0.048	-0.117
-178.012	-154.524	0.086	-0.006
-176.998	-200.000	0.010	0.152
-175.983	166.385	0.056	0.080
-174.969	-200.000	0.019	-0.176
-173.954	155.288	-0.167	-0.230
-172.939	800.000	0.076	0.283
-171.925	128.204	0.301	0.383
-170.910	-64.676	0.183	-0.074
-169.896	304.628	-0.101	0.187
-168.881	117.459	-0.049	0.061
-167.866	542.632	-0.064	0.153
-166.852	-200.000	0.044	-0.291
-165.837	-200.000	-0.020	0.095
-164.823	64.574	-0.069	0.070
-163.808	161.141	0.215	0.300
-162.793	-95.641	-0.357	-0.095
-161.779	-9.779	0.283	-0.188
-160.764	321.492	-0.061	0.116
-159.750	-81.115	-0.026	-0.009
-158.735	-200.000	0.005	-0.074
-157.720	-41.651	-0.137	0.070
-156.706	-200.000	-0.007	0.047
-155.691	126.792	-0.047	0.059
-154.677	497.590	0.070	-0.161
-153.662	-200.000	0.033	-0.297
-152.647	-35.932	0.344	0.186
-151.633	800.000	0.081	-0.241
-150.618	21.283	-0.288	0.233
-149.604	-200.000	-0.010	0.069
-148.589	24.492	-0.208	0.172
-147.574	-117.199	0.194	0.035
-146.560	-200.000	0.016	0.119
-145.545	-134.532	0.538	-0.066
-144.531	-152.529	-0.092	-0.007
-143.516	-200.000	0.095	0.472
-142.502	-1.810	0.087	-0.061
-141.487	373.177	0.116	-0.235
-140.472	96.632	-0.142	0.162
-139.458	32.874	0.144	0.124
-138.443	-200.000	0.019	-0.106
-137.429	244.643	-0.217	0.363
-136.414	-200.000	0.022	0.111
-135.399	-14.233	0.362	0.233
-134.385	419.578	-0.098	-0.208
-133.370	291.053	-0.089	0.161
-132.356	25.741	-0.143	-0.119
-131.341	-33.978	0.134	0.074
-130.326	235.230	-0.128	0.211
-129.312	-101.066	-0.312	0.076
-128.297	276.132	0.102	0.181
-127.283	-200.000	0.007	0.035
-126.268	-104.640	0.260	-0.060
-125.253	35.182	-0.105	0.092
-124.239	-69.477	0.122	-0.046
-123.224	9.699	0.098	-0.074
-122.210	-181.103	-0.163	0.003
-121.195	-73.242	0.322	-0.118
