DTS Sentinel unit serial number:	SN413079Multiplexer serial number:	ORYXHardware model number:	OX4-SRSoftware version number:	ORYX F/W v4.00 Oryx Data Collector v3.7.2.0data status	okinstallation	princeton_trtdifferential loss correction	single-endedforward channel	channel 2reverse channel	N/Adate	2019/09/13time	18:15:35forward acquisition time	60.00reverse acquisition time	0.00gamma	496.2192k internal	0.2318k external	0.2318temperature offset calibration	1.0198default loss term (dB/km)	0.3790temperature slope calibration	1.0000multiplexer offset coefficient	1.0000multiplexer slope coefficient	1.0000fibre end	0.00T internal ref (°C)	34.19T ext. ref 1 (°C)	4.45T ext. ref 2 (°C)	27.08length (m)	temperature (°C)	Stokes	anti-Stokes-747.200	-200.000	-0.006	0.057
-746.185	689.672	0.039	0.103
-745.171	-196.460	-0.138	0.001
-744.156	-200.000	0.067	0.411
-743.142	115.783	0.034	0.042
-742.127	767.498	0.073	0.202
-741.112	-89.264	0.101	-0.030
-740.098	103.338	-0.190	0.225
-739.083	76.870	-0.161	-0.173
-738.069	-200.000	0.084	0.391
-737.054	-58.513	-0.067	0.030
-736.039	-56.250	-0.203	0.091
-735.025	-89.711	0.187	0.055
-734.010	-97.222	-0.177	0.047
-732.996	27.873	-0.252	-0.215
-731.981	252.913	-0.074	0.128
-730.966	285.971	-0.098	-0.178
-729.952	-200.000	-0.067	-0.412
-728.937	-41.019	0.155	-0.081
-727.923	-38.843	0.238	0.127
-726.908	560.550	-0.117	-0.286
-725.894	497.899	-0.135	0.314
-724.879	-200.000	-0.005	0.044
-723.864	-74.935	-0.154	-0.056
-722.850	-19.497	-0.034	-0.021
-721.835	302.667	-0.122	0.228
-720.821	-118.796	0.261	-0.046
-719.806	-200.000	0.006	0.030
-718.791	-73.120	-0.169	-0.063
-717.777	106.725	-0.127	-0.153
-716.762	-186.242	0.117	-0.002
-715.748	-44.648	-0.075	-0.038
-714.733	-91.632	0.154	0.044
-713.718	-140.712	0.371	0.039
-712.704	51.140	0.250	-0.239
-711.689	105.153	0.205	-0.245
-710.675	-140.079	-0.345	-0.037
-709.660	158.761	0.162	0.227
-708.645	-200.000	0.025	-0.114
-707.631	-200.000	0.016	-0.189
-706.616	76.286	0.031	-0.033
-705.602	45.392	-0.096	-0.089
-704.587	166.527	0.160	-0.229
-703.572	-200.000	-0.003	0.054
-702.558	-125.422	0.226	0.035
-701.543	-200.000	-0.016	0.000
-700.529	11.996	0.180	-0.140
-699.514	78.850	-0.206	0.223
-698.499	171.069	0.102	0.148
-697.485	-114.537	0.355	0.069
-696.470	14.010	0.165	-0.129
-695.456	-82.526	-0.189	-0.062
-694.441	800.000	-0.047	-0.204
-693.426	329.482	0.055	0.107
-692.412	-23.336	-0.146	0.089
-691.397	-40.176	-0.195	0.103
-690.383	-200.000	0.024	0.308
-689.368	151.596	0.252	-0.347
-688.354	352.126	-0.060	0.119
-687.339	-12.631	0.138	-0.091
-686.324	98.283	0.312	0.362
-685.310	-200.000	-0.027	0.239
-684.295	-123.122	-0.076	0.012
-683.281	187.136	0.161	-0.242
-682.266	27.730	-0.222	0.189
-681.251	-200.000	0.028	-0.376
-680.237	28.790	0.094	-0.081
-679.222	312.946	0.103	-0.195
-678.208	96.716	-0.098	-0.114
-677.193	302.866	-0.170	-0.318
-676.178	-200.000	0.002	-0.320
-675.164	-94.991	-0.332	-0.091
-674.149	-81.538	-0.271	-0.090
-673.135	-28.343	-0.084	0.049
-672.120	-112.537	0.093	-0.019
-671.105	-107.985	-0.284	-0.062
-670.091	-200.000	-0.029	-0.366
-669.076	16.706	-0.324	0.259
-668.062	265.225	0.055	0.097
-667.047	-200.000	-0.018	0.233
-666.032	-53.065	0.154	0.071
-665.018	800.000	0.060	0.208
-664.003	-157.954	-0.073	0.004
-662.989	84.856	-0.068	0.076
-661.974	406.567	-0.132	0.281
-660.959	-82.137	-0.165	-0.054
-659.945	-14.167	-0.276	-0.180
-658.930	-200.000	-0.001	-0.129
-657.916	112.485	-0.125	0.152
-656.901	-23.998	0.123	0.074
-655.886	-90.206	0.166	-0.049
-654.872	286.749	0.273	-0.497
-653.857	361.333	0.110	-0.222
-652.843	800.000	0.070	-0.240
-651.828	-200.000	-0.022	-0.340
-650.814	68.379	-0.292	-0.302
-649.799	12.535	0.197	-0.153
-648.784	589.067	-0.095	0.237
-647.770	-38.875	-0.133	-0.071
-646.755	-74.056	-0.198	-0.072
-645.741	-200.000	-0.053	-0.333
-644.726	-200.000	0.014	-0.145
-643.711	166.961	0.120	-0.171
-642.697	36.886	-0.320	0.285
-641.682	-179.347	-0.051	-0.001
-640.668	-104.883	0.157	-0.036
-639.653	81.049	0.111	-0.121
-638.638	116.706	0.220	0.273
-637.624	-200.000	-0.015	0.077
-636.609	601.924	0.036	0.090
-635.595	150.934	0.058	0.080
-634.580	-200.000	0.022	0.146
-633.565	-141.890	0.148	0.015
-632.551	375.988	-0.087	0.179
-631.536	193.099	0.120	0.183
-630.522	48.834	0.207	-0.196
-629.507	800.000	-0.045	-0.150
-628.492	76.755	0.175	-0.188
-627.478	15.541	-0.194	-0.154
-626.463	-126.672	-0.106	-0.016
-625.449	-15.117	-0.228	0.147
-624.434	-31.936	-0.256	-0.144
-623.419	471.536	-0.051	-0.117
-622.405	187.422	0.059	-0.088
-621.390	214.392	-0.092	0.147
-620.376	628.576	0.030	0.076
-619.361	185.113	-0.056	0.083
-618.346	574.608	0.146	0.358
-617.332	-41.704	-0.025	0.013
-616.317	-200.000	0.035	0.162
-615.303	98.558	0.171	0.198
-614.288	-23.440	0.167	0.101
-613.273	-28.024	0.212	0.123
-612.259	370.485	-0.057	-0.116
-611.244	-116.414	-0.168	0.031
-610.230	117.196	-0.078	-0.097
-609.215	35.771	0.140	0.124
-608.201	800.000	0.072	-0.296
-607.186	-49.006	-0.295	-0.142
-606.171	800.000	0.029	-0.085
-605.157	95.196	-0.250	-0.286
-604.142	681.893	-0.205	-0.537
-603.128	-9.630	0.273	-0.183
-602.113	34.162	-0.238	-0.208
-601.098	-200.000	0.007	0.162
-600.084	-142.497	0.435	-0.043
-599.069	-13.461	0.062	-0.041
-598.055	-112.006	0.058	-0.012
-597.040	31.154	0.293	-0.253
-596.025	116.173	0.219	-0.269
-595.011	-13.295	0.156	-0.102
-593.996	-90.471	-0.450	0.131
-592.982	-0.354	-0.101	-0.072
-591.967	800.000	-0.029	0.097
-590.952	-111.288	-0.275	-0.057
-589.938	-78.776	-0.159	0.055
-588.923	522.504	-0.044	0.105
-587.909	800.000	0.159	0.543
-586.894	0.205	-0.264	0.190
-585.879	-200.000	0.019	-0.123
-584.865	13.877	0.170	-0.133
-583.850	36.140	0.066	-0.058
-582.836	60.335	-0.138	0.138
-581.821	80.576	-0.099	-0.107
-580.806	9.990	0.018	-0.014
-579.792	81.580	-0.160	-0.174
-578.777	-200.000	-0.035	0.209
-577.763	-126.934	-0.261	0.039
-576.748	415.241	0.041	-0.089
-575.733	129.611	-0.070	-0.090
-574.719	135.069	0.136	-0.178
-573.704	278.604	0.136	0.245
-572.690	-76.558	-0.142	0.050
-571.675	-31.513	-0.308	0.174
-570.661	-49.030	0.504	0.243
-569.646	658.418	0.061	-0.158
-568.631	-200.000	0.045	0.286
-567.617	-200.000	0.069	-0.386
-566.602	74.989	-0.057	0.060
-565.588	-139.988	-0.195	0.021
-564.573	-23.410	0.218	0.132
-563.558	-200.000	-0.141	0.001
-562.544	-78.581	0.184	0.063
-561.529	-200.000	-0.188	0.001
-560.515	-58.446	-0.212	-0.093
-559.500	-163.527	0.054	-0.003
-558.485	218.868	-0.061	-0.098
-557.471	-200.000	0.011	-0.219
-556.456	71.829	-0.108	-0.113
-555.442	-200.000	-0.013	-0.145
-554.427	375.900	-0.011	-0.022
-553.412	-24.172	0.212	-0.127
-552.398	-91.183	-0.241	0.069
-551.383	-92.533	-0.085	-0.024
-550.369	629.213	-0.064	0.162
-549.354	-125.745	-0.219	-0.033
-548.339	-200.000	0.002	0.043
-547.325	800.000	-0.063	-0.210
-546.310	-89.429	0.028	0.008
-545.296	-200.000	-0.024	-0.107
-544.281	-200.000	0.239	0.001
-543.266	355.972	-0.088	-0.175
-542.252	131.430	0.117	0.151
-541.237	-2.888	0.133	0.094
-540.223	-122.756	-0.163	0.026
-539.208	94.317	0.178	0.203
-538.193	650.239	-0.105	-0.270
-537.179	-200.000	-0.010	-0.151
-536.164	-151.772	-0.258	0.019
-535.150	-200.000	-0.005	-0.123
-534.135	800.000	0.070	-0.288
-533.121	-37.838	0.191	0.102
-532.106	-137.984	-0.034	0.004
-531.091	-200.000	-0.006	0.049
-530.077	279.338	0.245	-0.439
-529.062	65.775	0.119	0.121
-528.048	608.749	0.144	0.360
-527.033	27.038	-0.103	0.086
-526.018	-121.015	-0.334	-0.056
-525.004	-183.187	0.189	-0.003
-523.989	-5.681	-0.295	-0.203
-522.975	-104.964	-0.161	0.037
-521.960	10.035	0.051	-0.039
-520.945	177.088	-0.059	-0.087
-519.931	-200.000	-0.006	0.221
-518.916	-131.785	0.110	-0.014
-517.902	800.000	0.103	0.350
-516.887	74.512	0.026	-0.027
-515.872	89.772	-0.422	0.472
-514.858	251.072	-0.212	-0.361
-513.843	205.385	-0.203	-0.315
-512.829	-106.597	-0.189	0.042
-511.814	-22.379	0.117	-0.071
-510.799	214.496	-0.157	-0.250
-509.785	281.571	-0.049	0.087
-508.770	-97.792	0.075	-0.020
-507.756	42.264	-0.167	-0.153
-506.741	-53.743	-0.226	-0.103
-505.726	47.609	0.305	0.286
-504.712	522.285	-0.102	-0.239
-503.697	-200.000	0.023	0.319
-502.683	-61.265	-0.063	-0.027
-501.668	800.000	0.024	-0.093
-500.653	-175.819	-0.130	0.003
-499.639	-14.192	0.155	0.100
-498.624	-185.758	-0.143	0.002
-497.610	152.154	0.051	0.070
-496.595	-187.319	0.312	0.004
-495.581	472.171	0.133	0.301
-494.566	26.971	0.256	0.215
-493.551	-71.392	-0.064	0.024
-492.537	243.353	0.017	0.029
-491.522	-20.685	0.071	0.044
-490.508	-200.000	0.021	-0.171
-489.493	27.420	0.305	-0.257
-488.478	628.146	-0.119	0.300
-487.464	-200.000	0.068	-0.401
-486.449	-163.898	-0.246	0.012
-485.435	-100.512	0.123	0.030
-484.420	800.000	0.093	0.346
-483.405	-200.000	0.033	0.311
-482.391	-191.165	0.266	-0.003
-481.376	-51.824	0.444	0.207
-480.362	-200.000	0.058	-0.378
-479.347	-98.950	0.280	0.071
-478.332	-104.302	-0.063	-0.015
-477.318	-200.000	0.031	0.192
-476.303	-200.000	0.002	0.016
-475.289	417.638	0.075	-0.161
-474.274	-200.000	0.013	-0.129
-473.259	249.017	-0.074	0.125
-472.245	-82.336	-0.139	-0.045
-471.230	800.000	0.037	0.117
-470.216	184.897	0.160	0.237
-469.201	-66.986	-0.032	-0.013
-468.186	417.982	-0.036	-0.076
-467.172	-200.000	-0.053	0.254
-466.157	69.064	0.168	0.172
-465.143	785.635	0.041	0.112
-464.128	800.000	-0.039	-0.120
-463.113	-1.114	0.111	0.079
-462.099	17.586	-0.032	-0.026
-461.084	109.347	-0.092	0.111
-460.070	-36.042	-0.425	0.230
-459.055	28.360	-0.067	-0.056
-458.040	-77.750	0.315	0.109
-457.026	249.303	0.030	0.050
-456.011	41.009	-0.277	0.251
-454.997	156.132	-0.206	-0.285
-453.982	-200.000	0.039	-0.199
-452.968	115.126	-0.224	0.274
-451.953	-97.677	0.149	0.039
-450.938	226.606	-0.102	0.166
-449.924	110.534	-0.075	0.090
-448.909	800.000	-0.034	-0.103
-447.895	-0.209	0.232	0.165
-446.880	-108.270	-0.105	-0.023
-445.865	-198.278	-0.370	-0.002
-444.851	-3.038	-0.198	-0.138
-443.836	-200.000	0.018	-0.098
-442.822	-200.000	0.023	-0.286
-441.807	-2.033	-0.083	0.058
-440.792	-135.415	0.165	0.020
-439.778	-200.000	0.013	-0.234
-438.763	68.714	-0.122	-0.125
-437.749	14.432	-0.079	0.061
-436.734	-49.862	-0.343	-0.163
-435.719	620.998	0.079	-0.200
-434.705	-200.000	0.008	0.158
-433.690	-91.115	0.144	0.041
-432.676	-129.111	0.291	-0.041
-431.661	-40.748	-0.096	0.050
-430.646	-102.508	0.284	-0.068
-429.632	172.747	-0.197	-0.283
-428.617	2.153	0.272	0.196
-427.603	-126.101	0.248	0.037
-426.588	10.327	0.103	-0.078
-425.573	-200.000	0.017	0.169
-424.559	-47.790	-0.152	0.074
-423.544	800.000	-0.093	-0.290
-422.530	-118.314	-0.037	-0.007
-421.515	52.344	-0.084	-0.080
-420.500	91.141	-0.213	-0.239
-419.486	-101.723	0.247	-0.060
-418.471	-34.429	-0.369	-0.202
-417.457	-200.000	0.124	0.001
-416.442	8.980	-0.178	-0.134
-415.428	-22.835	-0.044	-0.026
-414.413	231.668	0.284	-0.465
-413.398	-158.191	-0.341	-0.020
-412.384	29.785	-0.132	-0.112
-411.369	800.000	-0.104	-0.301
-410.355	-104.735	0.259	-0.060
-409.340	102.912	-0.269	0.315
-408.325	-26.380	0.249	-0.146
-407.311	-139.875	-0.179	-0.019
-406.296	-69.113	0.345	-0.133
-405.282	-156.505	0.152	0.009
-404.267	-31.280	0.270	-0.152
-403.252	-155.269	0.382	-0.025
-402.238	206.094	0.139	0.215
-401.223	790.711	0.031	-0.085
-400.209	-103.723	0.176	-0.041
-399.194	259.553	-0.116	0.199
-398.179	-79.884	-0.081	-0.027
-397.165	8.699	0.298	-0.224
-396.150	9.248	-0.314	0.237
-395.136	-107.667	-0.318	0.069
-394.121	238.108	-0.105	-0.174
-393.106	134.165	0.308	0.398
-392.092	-47.415	0.174	0.084
-391.077	-94.201	0.187	0.051
-390.063	-200.000	0.043	-0.320
-389.048	-33.280	0.201	0.111
-388.033	60.352	0.185	0.183
-387.019	329.034	-0.106	-0.203
-386.004	2.167	-0.173	-0.124
-384.990	-149.987	0.239	-0.019
-383.975	-200.000	-0.022	-0.250
-382.960	-200.000	0.018	-0.077
-381.946	-200.000	0.027	0.178
-380.931	-200.000	-0.045	-0.273
-379.917	102.578	0.312	-0.364
-378.902	122.249	-0.115	-0.144
-377.888	266.906	-0.059	0.104
-376.873	-134.142	0.300	0.037
-375.858	60.579	0.292	0.289
-374.844	165.768	-0.082	0.116
-373.829	-23.356	-0.174	0.104
-372.815	-200.000	-0.036	0.172
-371.800	-82.030	-0.295	-0.096
-370.785	800.000	-0.118	-0.331
-369.771	-200.000	0.063	0.278
-368.756	-200.000	0.001	0.285
-367.742	-87.318	-0.159	-0.048
-366.727	-200.000	0.033	-0.159
-365.712	87.050	-0.064	-0.070
-364.698	-200.000	-0.003	0.325
-363.683	219.877	0.041	-0.065
-362.669	128.036	-0.199	-0.252
-361.654	-168.045	-0.295	0.011
-360.639	800.000	-0.110	-0.431
-359.625	-184.258	0.148	0.002
-358.610	17.508	-0.055	-0.044
-357.596	17.515	-0.333	-0.264
-356.581	15.571	0.265	0.207
-355.566	-113.081	-0.073	0.014
-354.552	-200.000	-0.030	0.290
-353.537	142.740	0.016	-0.022
-352.523	-74.617	-0.351	0.126
-351.508	58.635	-0.267	0.262
-350.493	-153.358	-0.326	0.023
-349.479	-22.962	-0.225	0.135
-348.464	-200.000	-0.005	0.134
-347.450	-133.403	0.208	0.026
-346.435	725.036	0.094	-0.251
-345.420	-200.000	-0.018	-0.163
-344.406	-200.000	0.006	-0.372
-343.391	659.612	-0.024	0.061
-342.377	-200.000	-0.018	-0.115
-341.362	-90.044	0.185	0.054
-340.348	474.722	-0.087	0.196
-339.333	-148.302	-0.092	-0.008
-338.318	-84.756	-0.221	-0.069
-337.304	333.903	-0.190	0.367
-336.289	38.569	-0.082	0.072
-335.275	115.598	0.138	-0.167
-334.260	-61.294	0.287	-0.120
-333.245	-144.499	0.080	-0.007
-332.231	-20.849	-0.224	0.137
-331.216	32.542	-0.226	-0.195
-330.202	534.927	0.062	0.147
-329.187	-120.366	-0.238	0.040
-328.172	586.097	0.062	-0.152
-327.158	452.026	-0.079	0.173
-326.143	3.700	-0.185	-0.135
-325.129	-41.256	0.208	-0.107
-324.114	800.000	-0.086	-0.256
-323.099	-200.000	-0.083	0.401
-322.085	-114.410	0.200	-0.038
-321.070	-200.000	0.272	0.001
-320.056	-76.813	-0.229	-0.080
-319.041	55.450	0.223	-0.215
-318.026	-51.796	-0.292	-0.135
-317.012	-200.000	-0.014	-0.086
-315.997	286.873	-0.081	0.146
-314.983	-11.773	0.035	0.023
-313.968	-200.000	-0.027	0.210
-312.953	189.742	0.114	-0.171
-311.939	800.000	0.028	-0.085
-310.924	678.324	0.093	0.241
-309.910	95.902	-0.044	-0.050
-308.895	172.269	0.046	-0.065
-307.880	300.741	-0.028	0.052
-306.866	4.072	0.056	-0.041
-305.851	-132.396	-0.380	-0.049
-304.837	-54.202	0.200	-0.090
-303.822	-154.608	0.431	0.029
-302.807	-8.769	-0.272	0.181
-301.793	-9.015	-0.089	0.059
-300.778	-113.312	-0.240	0.047
-299.764	-105.014	0.263	0.060
-298.749	-96.424	-0.108	0.028
-297.735	-200.000	-0.014	-0.279
-296.720	95.503	-0.283	-0.321
-295.705	92.514	0.240	0.269
-294.691	142.115	0.159	0.210
-293.676	704.942	0.065	-0.171
-292.662	172.378	0.170	0.243
-291.647	665.271	0.141	-0.363
-290.632	93.212	0.196	0.221
-289.618	800.000	0.041	-0.150
-288.603	800.000	0.050	0.142
-287.589	27.808	-0.150	0.126
-286.574	159.472	0.026	-0.036
-285.559	171.730	-0.111	0.158
-284.545	-150.752	-0.555	-0.042
-283.530	-11.659	0.095	-0.062
-282.516	-15.127	-0.056	-0.036
-281.501	162.174	-0.077	-0.107
-280.486	-107.864	0.193	0.042
-279.472	179.650	0.096	-0.140
-278.457	414.696	0.139	-0.294
-277.443	-200.000	0.053	0.348
-276.428	271.475	-0.188	0.330
-275.413	-78.061	0.358	0.122
-274.399	117.713	-0.171	-0.209
-273.384	-48.937	0.331	0.157
-272.370	117.788	-0.348	0.425
-271.355	-173.762	-0.173	-0.005
-270.340	-147.735	0.283	-0.024
-269.326	74.670	-0.110	-0.115
-268.311	800.000	-0.110	-0.362
-267.297	-41.856	-0.104	-0.053
-266.282	173.902	0.220	0.315
-265.267	48.264	-0.079	-0.073
-264.253	-30.362	0.089	-0.050
-263.238	-19.367	-0.316	0.195
-262.224	72.189	-0.020	-0.020
-261.209	800.000	0.035	0.111
-260.195	-200.000	-0.013	-0.091
-259.180	-127.232	-0.432	0.063
-258.165	800.000	0.071	0.273
-257.151	-76.297	0.435	0.152
-256.136	-20.800	0.142	0.086
-255.122	800.000	-0.127	0.418
-254.107	-19.555	0.113	-0.070
-253.092	-138.836	0.275	-0.030
-252.078	-200.000	0.032	-0.156
-251.063	-68.124	0.181	0.070
-250.049	-14.228	-0.198	-0.127
-249.034	216.794	0.119	-0.189
-248.019	-154.696	-0.055	-0.004
-247.005	-103.318	0.446	-0.104
-245.990	-29.942	0.136	-0.077
-244.976	61.223	0.120	0.118
-243.961	-200.000	-0.079	-0.357
-242.946	-101.263	0.147	-0.036
-241.932	52.745	0.114	0.108
-240.917	117.612	0.122	-0.149
-239.903	-200.000	0.002	0.085
-238.888	-122.941	-0.370	-0.059
-237.873	23.769	-0.353	0.288
-236.859	6.355	0.096	-0.071
-235.844	356.227	-0.041	0.081
-234.830	224.654	0.027	0.044
-233.815	497.915	0.020	-0.045
-232.800	-40.011	-0.390	0.202
-231.786	800.000	0.049	-0.139
-230.771	541.801	0.114	0.270
-229.757	800.000	-0.070	-0.222
-228.742	-5.263	-0.154	0.105
-227.727	-200.000	0.113	0.504
-226.713	-200.000	0.026	-0.193
-225.698	279.502	0.102	-0.181
-224.684	1.918	-0.053	0.038
-223.669	-84.982	-0.129	-0.040
-222.655	8.323	-0.211	-0.157
-221.640	49.284	-0.073	-0.068
-220.625	-200.000	0.009	-0.040
-219.611	23.690	-0.088	-0.072
-218.596	3.219	0.240	0.173
-217.582	-200.000	-0.012	0.319
-216.567	-200.000	-0.024	0.342
-215.552	40.308	0.021	-0.019
-214.538	789.382	-0.060	-0.162
-213.523	-87.853	-0.182	0.054
-212.509	-18.835	0.185	0.114
-211.494	-20.383	0.204	-0.125
-210.479	800.000	0.076	0.208
-209.465	441.836	-0.107	-0.233
-208.450	-102.998	0.132	-0.031
-207.436	-108.371	0.065	-0.014
-206.421	-46.731	0.204	0.099
-205.406	-200.000	-0.027	0.276
-204.392	-200.000	-0.018	0.101
-203.377	28.176	-0.260	0.217
-202.363	-15.540	0.073	0.046
-201.348	-128.745	-0.210	0.029
-200.333	379.584	-0.093	0.189
-199.319	146.119	0.149	-0.198
-198.304	-108.575	-0.142	-0.030
-197.290	271.108	-0.055	-0.097
-196.275	29.714	0.088	0.075
-195.260	-76.788	-0.326	0.113
-194.246	9.810	0.220	-0.166
-193.231	-22.553	-0.159	0.095
-192.217	800.000	0.074	-0.286
-191.202	-26.907	-0.201	-0.116
-190.187	-89.582	0.200	0.058
-189.173	187.974	0.063	-0.093
-188.158	800.000	-0.034	0.124
-187.144	73.353	-0.237	-0.245
-186.129	-200.000	-0.001	0.030
-185.114	800.000	-0.049	-0.206
-184.100	42.972	0.263	0.237
-183.085	800.000	0.030	-0.104
-182.071	77.103	0.196	-0.206
-181.056	116.197	0.178	0.215
-180.042	-95.226	0.278	-0.074
-179.027	-41.306	0.075	-0.038
-178.012	-95.154	0.280	-0.075
-176.998	-3.501	0.549	0.378
-175.983	54.590	0.134	-0.128
-174.969	1.549	0.168	-0.120
-173.954	156.781	-0.041	-0.057
-172.939	31.239	-0.113	0.096
-171.925	81.612	-0.081	0.087
-170.910	-9.942	0.306	-0.201
-169.896	-87.945	-0.358	-0.106
-168.881	-200.000	-0.006	-0.125
-167.866	-4.243	0.290	0.199
-166.852	-7.240	-0.118	-0.079
-165.837	-200.000	0.006	0.084
-164.823	-106.729	-0.181	-0.040
-163.808	-6.936	0.253	0.170
-162.793	-200.000	-0.000	-0.280
-161.779	431.189	-0.094	0.202
-160.764	-51.882	-0.197	-0.091
-159.750	-112.604	0.223	0.044
-158.735	-188.225	0.042	-0.001
-157.720	-200.000	-0.004	0.379
-156.706	-87.493	0.055	0.016
-155.691	32.198	-0.152	-0.130
-154.677	-60.471	0.216	0.091
-153.662	-4.639	-0.334	0.228
-152.647	-125.308	0.327	0.049
-151.633	337.367	-0.170	0.327
-150.618	-200.000	-0.007	0.111
-149.604	204.893	-0.056	-0.086
-148.589	-24.063	0.363	0.215
-147.574	405.033	-0.155	-0.322
-146.560	85.294	0.020	0.022
-145.545	427.956	0.116	0.247
-144.531	-130.889	0.150	0.020
-143.516	800.000	-0.045	-0.177
-142.502	147.391	0.148	0.197
-141.487	-200.000	-0.031	0.209
-140.472	-69.966	0.224	0.084
-139.458	62.191	-0.174	0.172
-138.443	-68.461	-0.150	0.058
-137.429	-72.486	0.302	0.110
-136.414	-200.000	0.013	-0.073
-135.399	-44.594	0.059	0.029
-134.385	-12.960	-0.113	-0.073
-133.370	-200.000	0.062	-0.285
-132.356	800.000	-0.039	-0.134
-131.341	681.726	-0.036	-0.092
-130.326	800.000	0.070	-0.287
-129.312	-121.641	-0.287	0.047
-128.297	-200.000	-0.065	0.355
-127.283	337.163	-0.049	-0.094
-126.268	63.674	-0.269	0.266
-125.253	541.109	-0.167	-0.394
-124.239	-200.000	-0.003	-0.342
-123.224	790.198	0.057	-0.155
-122.210	-12.209	-0.044	-0.029
-121.195	629.852	0.128	0.320
