DTS Sentinel unit serial number:	SN413079Multiplexer serial number:	ORYXHardware model number:	OX4-SRSoftware version number:	ORYX F/W v4.00 Oryx Data Collector v3.7.2.0data status	okinstallation	princeton_trtdifferential loss correction	single-endedforward channel	channel 2reverse channel	N/Adate	2019/09/10time	23:29:11forward acquisition time	60.00reverse acquisition time	0.00gamma	496.2192k internal	0.2329k external	0.2329temperature offset calibration	0.9946default loss term (dB/km)	0.3790temperature slope calibration	1.0000multiplexer offset coefficient	1.0000multiplexer slope coefficient	1.0000fibre end	0.00T internal ref (°C)	29.69T ext. ref 1 (°C)	-0.32T ext. ref 2 (°C)	23.08length (m)	temperature (°C)	Stokes	anti-Stokes-747.200	-126.528	-0.307	0.046
-746.185	-136.196	0.233	0.027
-745.171	231.955	0.144	0.238
-744.156	800.000	-0.095	0.287
-743.142	47.706	-0.108	0.102
-742.127	400.395	0.053	0.112
-741.112	47.432	0.237	0.222
-740.098	469.752	-0.103	-0.234
-739.083	-89.979	-0.181	-0.053
-738.069	800.000	0.022	0.074
-737.054	15.998	0.136	0.108
-736.039	289.636	0.079	0.144
-735.025	260.271	0.169	0.294
-734.010	-119.429	-0.385	0.067
-732.996	-99.322	-0.394	0.100
-731.981	-200.000	0.020	-0.131
-730.966	-141.942	-0.347	0.035
-729.952	-200.000	0.016	0.128
-728.937	257.107	-0.057	-0.098
-727.923	-15.348	-0.296	-0.190
-726.908	-200.000	-0.009	-0.150
-725.894	152.246	0.125	0.172
-724.879	-109.280	0.117	-0.025
-723.864	-190.307	0.209	-0.002
-722.850	-111.096	-0.428	0.088
-721.835	-87.793	-0.341	0.103
-720.821	-125.375	-0.454	-0.070
-719.806	-131.858	0.228	0.030
-718.791	800.000	0.054	-0.199
-717.777	-200.000	-0.003	0.314
-716.762	-40.179	-0.262	-0.137
-715.748	361.260	-0.107	0.217
-714.733	-200.000	-0.039	0.216
-713.718	563.267	-0.066	-0.160
-712.704	-200.000	-0.044	-0.263
-711.689	93.630	-0.283	-0.322
-710.675	187.363	-0.127	-0.190
-709.660	-200.000	0.002	-0.294
-708.645	800.000	-0.041	0.118
-707.631	-55.085	-0.358	0.162
-706.616	-200.000	-0.002	0.137
-705.602	483.062	-0.131	-0.300
-704.587	-73.522	-0.218	0.080
-703.572	102.560	0.154	-0.181
-702.558	-177.585	0.030	-0.001
-701.543	318.559	0.139	-0.266
-700.529	106.139	-0.156	-0.185
-699.514	-111.761	0.304	0.062
-698.499	-77.876	-0.232	0.080
-697.485	-10.135	0.264	-0.176
-696.470	63.449	0.206	0.208
-695.456	154.398	-0.198	-0.273
-694.441	305.999	0.047	-0.088
-693.426	-200.000	-0.028	0.126
-692.412	800.000	0.112	-0.470
-691.397	-85.032	0.352	-0.111
-690.383	41.506	0.114	-0.103
-689.368	-56.094	-0.473	-0.212
-688.354	-31.490	-0.341	0.193
-687.339	203.614	0.010	-0.015
-686.324	-142.274	-0.370	-0.037
-685.310	-53.455	0.140	-0.064
-684.295	199.479	-0.157	-0.243
-683.281	-200.000	0.022	-0.242
-682.266	714.894	0.108	0.288
-681.251	-95.817	0.088	0.023
-680.237	-168.429	-0.250	-0.010
-679.222	443.414	0.057	0.126
-678.208	-69.274	0.322	-0.124
-677.193	800.000	0.018	0.051
-676.178	637.549	0.047	0.120
-675.164	-109.965	0.236	-0.050
-674.149	207.899	-0.007	-0.011
-673.135	42.537	-0.175	-0.160
-672.120	741.741	0.075	-0.203
-671.105	-31.649	0.138	-0.078
-670.091	263.762	0.205	-0.357
-669.076	42.474	-0.161	0.147
-668.062	-162.062	-0.208	0.011
-667.047	800.000	-0.039	0.134
-666.032	37.987	-0.221	-0.197
-665.018	147.279	-0.112	0.151
-664.003	-78.746	-0.219	-0.075
-662.989	73.851	0.090	-0.095
-661.974	706.146	0.070	0.186
-660.959	-96.933	-0.163	-0.043
-659.945	586.777	-0.123	-0.305
-658.930	-3.885	0.174	0.121
-657.916	-200.000	-0.017	0.124
-656.901	62.959	-0.195	-0.196
-655.886	141.690	-0.126	0.167
-654.872	-200.000	-0.034	-0.401
-653.857	2.604	-0.147	-0.107
-652.843	-200.000	-0.007	-0.264
-651.828	-200.000	0.023	0.346
-650.814	-61.006	0.321	0.136
-649.799	246.699	-0.203	-0.344
-648.784	350.731	-0.108	0.215
-647.770	800.000	0.049	-0.212
-646.755	22.024	0.078	-0.064
-645.741	-200.000	-0.018	-0.109
-644.726	318.267	0.133	-0.252
-643.711	-200.000	-0.022	0.184
-642.697	-134.792	0.099	0.012
-641.682	142.580	0.320	-0.427
-640.668	800.000	-0.021	-0.085
-639.653	800.000	0.019	-0.076
-638.638	-12.018	-0.044	0.029
-637.624	800.000	-0.039	0.113
-636.609	133.668	0.127	0.165
-635.595	-36.960	0.165	0.089
-634.580	287.554	-0.211	-0.384
-633.565	-60.041	0.171	-0.073
-632.551	-122.001	-0.239	-0.039
-631.536	-168.291	-0.219	-0.008
-630.522	296.409	0.123	0.226
-629.507	-33.728	-0.322	0.178
-628.492	357.602	0.106	-0.212
-627.478	21.304	-0.199	-0.162
-626.463	135.746	-0.159	-0.208
-625.449	-76.404	-0.236	-0.083
-624.434	-119.403	-0.132	-0.023
-623.419	800.000	0.059	-0.217
-622.405	299.988	0.171	-0.316
-621.390	-97.842	-0.215	-0.056
-620.376	-200.000	0.022	-0.234
-619.361	-92.608	0.089	-0.025
-618.346	-200.000	0.009	-0.290
-617.332	-35.697	-0.206	-0.112
-616.317	183.795	-0.225	-0.333
-615.303	-43.831	-0.036	0.018
-614.288	-200.000	-0.005	0.177
-613.273	-73.277	-0.055	0.020
-612.259	800.000	-0.117	0.350
-611.244	-46.477	-0.267	-0.131
-610.230	162.274	0.100	0.141
-609.215	76.270	-0.312	0.331
-608.201	63.500	0.077	0.077
-607.186	-200.000	-0.061	0.299
-606.171	-200.000	-0.004	0.161
-605.157	80.969	-0.079	-0.086
-604.142	-76.716	0.194	-0.068
-603.128	-146.028	0.231	-0.020
-602.113	4.026	0.222	-0.162
-601.098	-173.974	0.211	-0.006
-600.084	112.277	0.124	-0.150
-599.069	-77.566	-0.069	0.024
-598.055	-17.406	-0.326	-0.206
-597.040	63.459	0.092	-0.092
-596.025	-200.000	0.015	-0.206
-595.011	-85.799	0.169	0.052
-593.996	110.517	-0.333	0.401
-592.982	92.076	0.224	-0.253
-591.967	-73.400	-0.292	0.107
-590.952	217.165	0.088	0.140
-589.938	111.820	-0.154	-0.187
-588.923	-125.872	0.180	0.027
-587.909	714.017	0.142	-0.376
-586.894	-76.259	-0.135	0.048
-585.879	-29.879	-0.333	0.190
-584.865	-151.449	0.190	-0.014
-583.850	-145.539	-0.214	-0.019
-582.836	35.920	-0.310	-0.273
-581.821	-42.627	-0.234	-0.119
-580.806	-200.000	0.015	0.278
-579.792	-110.253	0.229	-0.048
-578.777	-98.688	0.380	-0.097
-577.763	19.354	0.363	0.292
-576.748	40.503	-0.139	-0.125
-575.733	-143.486	0.257	-0.025
-574.719	800.000	0.100	-0.346
-573.704	54.936	0.080	0.077
-572.690	-197.140	0.231	0.001
-571.675	-70.020	-0.091	0.035
-570.661	-92.725	0.309	0.086
-569.646	800.000	0.059	-0.220
-568.631	-200.000	-0.035	-0.219
-567.617	0.835	0.117	-0.084
-566.602	800.000	0.018	0.071
-565.588	296.442	-0.070	-0.129
-564.573	-5.211	0.277	-0.191
-563.558	-146.980	0.112	-0.010
-562.544	-11.367	0.203	0.134
-561.529	-65.393	0.334	-0.134
-560.515	800.000	-0.165	0.468
-559.500	-157.443	-0.300	-0.018
-558.485	-172.600	0.075	0.002
-557.471	255.113	0.079	-0.136
-556.456	800.000	0.075	0.223
-555.442	162.178	-0.127	-0.178
-554.427	342.926	-0.117	-0.230
-553.412	346.307	-0.087	-0.172
-552.398	64.688	0.051	-0.052
-551.383	282.135	-0.081	-0.146
-550.369	66.715	0.155	-0.158
-549.354	340.576	0.111	-0.217
-548.339	-200.000	-0.023	-0.139
-547.325	-200.000	0.041	0.187
-546.310	65.865	-0.114	0.116
-545.296	800.000	-0.053	0.165
-544.281	199.399	-0.089	0.136
-543.266	213.058	-0.202	0.318
-542.252	-157.410	0.133	0.008
-541.237	-3.720	0.045	0.031
-540.223	-200.000	-0.045	-0.346
-539.208	800.000	0.040	0.147
-538.193	-83.591	0.281	0.090
-537.179	-21.300	0.144	-0.088
-536.164	189.586	0.193	0.289
-535.150	-58.611	0.194	-0.084
-534.135	94.244	0.184	0.208
-533.121	96.460	0.121	0.138
-532.106	-158.825	-0.473	-0.027
-531.091	2.769	-0.158	0.114
-530.077	690.548	0.095	-0.248
-529.062	54.989	0.160	0.154
-528.048	8.358	0.359	-0.269
-527.033	145.753	0.063	0.084
-526.018	800.000	-0.114	-0.414
-525.004	-44.804	-0.354	0.176
-523.989	77.683	-0.143	0.152
-522.975	800.000	-0.031	-0.121
-521.960	97.354	-0.255	0.292
-520.945	51.255	-0.107	0.102
-519.931	-200.000	-0.019	0.339
-518.916	800.000	0.077	-0.247
-517.902	-86.976	0.430	0.131
-516.887	677.141	-0.067	-0.174
-515.872	800.000	0.083	-0.342
-514.858	95.601	0.104	-0.118
-513.843	518.451	0.258	0.604
-512.829	-200.000	-0.113	-0.574
-511.814	-89.252	0.322	-0.095
-510.799	547.623	-0.061	0.145
-509.785	47.917	-0.170	0.159
-508.770	-125.569	-0.424	0.064
-507.756	800.000	0.139	-0.411
-506.741	-101.185	0.245	-0.060
-505.726	-200.000	0.047	0.292
-504.712	800.000	-0.088	0.296
-503.697	-200.000	-0.042	-0.270
-502.683	-143.053	0.061	0.006
-501.668	3.162	0.354	-0.257
-500.653	-12.211	0.163	0.107
-499.639	-85.027	-0.021	-0.007
-498.624	-200.000	0.015	0.183
-497.610	-56.234	-0.188	-0.083
-496.595	-2.088	0.247	0.173
-495.581	800.000	-0.116	0.371
-494.566	671.960	0.028	-0.072
-493.551	-61.462	-0.250	0.105
-492.537	-154.047	0.360	-0.024
-491.522	800.000	0.084	-0.259
-490.508	211.763	-0.108	0.170
-489.493	-200.000	0.010	-0.222
-488.478	120.930	0.073	-0.090
-487.464	-29.045	-0.398	-0.228
-486.449	-6.318	0.183	-0.124
-485.435	-6.193	-0.162	-0.110
-484.420	-200.000	-0.010	0.284
-483.405	-31.790	0.315	0.176
-482.391	800.000	0.081	0.273
-481.376	143.249	0.048	-0.064
-480.362	-46.906	-0.261	-0.127
-479.347	-200.000	0.027	0.139
-478.332	26.753	0.114	-0.095
-477.318	20.626	-0.225	0.182
-476.303	-130.194	0.159	-0.022
-475.289	-200.000	0.019	0.346
-474.274	224.500	0.120	0.193
-473.259	218.964	-0.124	-0.198
-472.245	-107.780	0.092	0.020
-471.230	-166.652	0.667	0.028
-470.216	791.841	0.142	-0.389
-469.201	-5.424	0.101	0.069
-468.186	68.079	-0.121	0.123
-467.172	-162.550	-0.525	-0.026
-466.157	-95.502	0.038	-0.010
-465.143	666.231	0.033	0.086
-464.128	-34.610	0.454	-0.247
-463.113	533.568	-0.065	-0.153
-462.099	-200.000	-0.028	0.278
-461.084	266.884	-0.029	0.051
-460.070	-200.000	-0.046	0.347
-459.055	-2.412	0.053	-0.037
-458.040	92.844	0.127	0.143
-457.026	597.984	0.076	0.186
-456.011	47.519	0.177	0.164
-454.997	-41.196	0.328	0.169
-453.982	-81.728	-0.325	-0.106
-452.968	-200.000	0.046	0.292
-451.953	-32.135	0.205	-0.114
-450.938	-71.393	0.286	-0.107
-449.924	-200.000	-0.050	0.492
-448.909	137.039	0.123	0.159
-447.895	800.000	0.080	-0.277
-446.880	-10.064	0.061	0.041
-445.865	391.320	-0.193	-0.398
-444.851	800.000	-0.070	0.270
-443.836	39.417	0.166	-0.148
-442.822	800.000	-0.093	0.274
-441.807	-124.818	-0.076	-0.012
-440.792	188.690	0.270	-0.403
-439.778	-200.000	0.057	-0.317
-438.763	351.940	-0.133	0.262
-437.749	225.869	-0.026	0.042
-436.734	-40.136	-0.158	0.082
-435.719	-145.816	0.035	-0.003
-434.705	78.891	0.096	0.102
-433.690	83.456	-0.057	-0.062
-432.676	305.128	0.030	0.055
-431.661	-9.518	-0.080	-0.053
-430.646	-134.506	-0.267	-0.032
-429.632	222.503	-0.164	0.263
-428.617	-194.360	0.352	-0.003
-427.603	-127.621	-0.276	0.040
-426.588	-147.801	-0.134	-0.011
-425.573	-197.407	0.557	0.003
-424.559	-65.028	-0.356	-0.143
-423.544	800.000	0.035	-0.110
-422.530	-85.245	0.064	0.020
-421.515	17.523	0.079	0.063
-420.500	-200.000	0.037	-0.198
-419.486	-0.194	-0.245	-0.173
-418.471	394.389	-0.019	0.040
-417.457	26.017	-0.104	0.087
-416.442	-200.000	0.023	-0.336
-415.428	42.776	0.207	0.187
-414.413	-77.920	0.209	0.072
-413.398	362.329	0.055	-0.109
-412.384	92.478	0.159	0.178
-411.369	113.306	-0.120	0.145
-410.355	40.811	-0.214	0.192
-409.340	86.759	0.204	0.224
-408.325	800.000	-0.121	0.422
-407.311	800.000	0.181	-0.572
-406.296	153.717	0.236	-0.322
-405.282	800.000	-0.072	-0.219
-404.267	-200.000	0.050	0.217
-403.252	391.537	0.053	0.110
-402.238	800.000	-0.014	-0.056
-401.223	-106.228	-0.388	-0.086
-400.209	177.880	-0.146	-0.212
-399.194	85.539	-0.118	0.129
-398.179	120.587	-0.094	-0.116
-397.165	-1.399	-0.102	-0.072
-396.150	800.000	-0.042	0.128
-395.136	800.000	0.178	0.552
-394.121	343.890	0.123	-0.239
-393.106	61.570	-0.098	-0.097
-392.092	12.927	-0.242	0.186
-391.077	-52.522	-0.076	-0.035
-390.063	176.479	-0.119	0.171
-389.048	-149.912	-0.284	-0.022
-388.033	-200.000	-0.022	-0.157
-387.019	-167.836	0.199	-0.008
-386.004	-147.536	0.179	-0.015
-384.990	-144.609	0.276	-0.025
-383.975	800.000	-0.023	0.097
-382.960	41.397	0.166	-0.150
-381.946	19.491	-0.351	0.280
-380.931	-118.361	0.186	0.033
-379.917	-187.251	-0.220	0.003
-378.902	-79.768	-0.234	-0.078
-377.888	-200.000	0.014	0.186
-376.873	-36.028	0.202	-0.108
-375.858	-157.861	0.139	-0.008
-374.844	-91.519	-0.023	0.006
-373.829	173.866	-0.128	0.184
-372.815	800.000	-0.067	-0.198
-371.800	-82.608	0.385	-0.124
-370.785	-89.508	0.256	-0.075
-369.771	145.591	-0.228	0.303
-368.756	-200.000	-0.027	-0.155
-367.742	170.517	-0.091	0.129
-366.727	54.409	0.216	0.206
-365.712	-188.365	0.178	0.002
-364.698	-58.324	0.070	-0.030
-363.683	-134.739	-0.279	-0.034
-362.669	200.974	-0.167	0.255
-361.654	140.160	-0.133	0.174
-360.639	-72.460	0.227	0.083
-359.625	118.212	0.211	0.258
-358.610	8.677	0.048	0.036
-357.596	-200.000	-0.242	-0.001
-356.581	800.000	-0.124	0.353
-355.566	118.659	0.262	-0.321
-354.552	-166.768	0.287	0.012
-353.537	24.851	-0.200	-0.164
-352.523	104.255	-0.112	0.131
-351.508	-83.194	-0.228	0.073
-350.493	-24.362	0.167	0.099
-349.479	460.690	0.061	-0.135
-348.464	-200.000	0.012	0.156
-347.450	132.574	-0.273	0.350
-346.435	588.037	0.050	-0.122
-345.420	-200.000	0.086	-0.374
-344.406	45.525	-0.112	-0.102
-343.391	-200.000	-0.001	0.131
-342.377	86.550	0.066	0.072
-341.362	-114.409	0.172	-0.033
-340.348	-100.279	0.245	-0.060
-339.333	105.019	-0.125	0.147
-338.318	123.925	-0.015	-0.019
-337.304	-119.471	-0.210	-0.036
-336.289	-196.345	-0.096	0.001
-335.275	-19.684	0.261	-0.160
-334.260	-17.393	-0.152	-0.095
-333.245	7.601	-0.204	0.151
-332.231	-10.484	-0.237	0.155
-331.216	-42.880	-0.205	0.103
-330.202	176.069	0.158	-0.228
-329.187	-18.759	-0.441	-0.272
-328.172	7.196	-0.086	0.064
-327.158	664.124	0.197	0.504
-326.143	-44.295	0.075	-0.037
-325.129	789.850	0.100	-0.272
-324.114	56.997	0.342	0.331
-323.099	-18.197	-0.111	-0.069
-322.085	-123.700	0.205	-0.032
-321.070	-99.449	-0.175	0.044
-320.056	-163.350	0.134	-0.006
-319.041	-153.612	0.161	-0.011
-318.026	306.722	0.065	0.119
-317.012	197.187	0.110	0.167
-315.997	-200.000	0.086	-0.387
-314.983	-108.734	0.131	-0.028
-313.968	-70.028	-0.078	-0.030
-312.953	195.824	-0.186	0.281
-311.939	-64.102	0.308	-0.124
-310.924	147.315	0.105	0.140
-309.910	-200.000	-0.005	-0.056
-308.895	-200.000	0.027	0.215
-307.880	179.546	-0.081	0.118
-306.866	126.332	0.070	0.088
-305.851	60.925	-0.091	0.089
-304.837	-79.849	-0.099	-0.033
-303.822	-73.346	-0.207	0.075
-302.807	366.423	-0.069	-0.138
-301.793	95.236	-0.156	-0.176
-300.778	-175.307	0.267	-0.007
-299.764	10.196	-0.191	0.143
-298.749	18.849	0.190	-0.150
-297.735	-192.045	-0.208	0.002
-296.720	130.810	0.372	0.473
-295.705	256.765	0.114	-0.193
-294.691	789.123	-0.074	0.201
-293.676	289.485	-0.109	-0.196
-292.662	-200.000	0.001	-0.370
-291.647	800.000	-0.028	0.112
-290.632	-52.972	0.231	0.105
-289.618	723.782	0.109	0.288
-288.603	-140.099	-0.221	-0.023
-287.589	-200.000	0.019	0.116
-286.574	-123.261	-0.399	0.063
-285.559	65.500	-0.125	0.125
-284.545	21.590	-0.132	-0.106
-283.530	182.860	0.121	0.176
-282.516	-200.000	-0.023	0.206
-281.501	-171.962	-0.246	0.008
-280.486	-33.205	0.178	-0.097
-279.472	-67.523	0.368	0.143
-278.457	-38.275	-0.248	-0.130
-277.443	-85.355	-0.201	0.062
-276.428	-97.227	0.064	-0.016
-275.413	-200.000	-0.015	0.146
-274.399	75.783	0.135	-0.141
-273.384	110.226	-0.122	-0.145
-272.370	111.310	0.314	-0.374
-271.355	-40.575	-0.209	0.107
-270.340	-73.344	-0.088	-0.032
-269.326	470.564	-0.048	0.106
-268.311	-22.875	0.155	0.093
-267.297	-71.258	0.418	0.155
-266.282	-1.228	0.324	-0.226
-265.267	95.547	0.143	-0.161
-264.253	429.274	0.051	-0.108
-263.238	-29.647	0.128	0.072
-262.224	-72.521	-0.327	-0.120
-261.209	-24.917	0.118	-0.069
-260.195	-53.101	-0.221	0.100
-259.180	-200.000	-0.024	-0.273
-258.165	23.138	-0.071	0.057
-257.151	-200.000	0.021	0.103
-256.136	-43.386	0.163	0.082
-255.122	800.000	-0.074	-0.208
-254.107	95.305	0.134	-0.151
-253.092	-200.000	-0.053	-0.254
-252.078	-200.000	-0.097	-0.439
-251.063	-40.532	-0.253	0.130
-250.049	-111.519	-0.455	0.091
-249.034	49.864	-0.110	-0.102
-248.019	-139.108	0.240	-0.026
-247.005	-51.359	-0.104	-0.048
-245.990	-79.852	0.139	0.046
-244.976	23.989	-0.166	0.135
-243.961	-42.799	-0.118	0.059
-242.946	-111.206	0.048	0.010
-241.932	5.070	-0.114	-0.083
-240.917	91.107	-0.225	0.250
-239.903	-48.645	-0.162	-0.077
-238.888	-61.767	0.288	-0.119
-237.873	-62.250	0.121	-0.050
-236.859	-58.469	-0.260	0.111
-235.844	-9.784	-0.221	-0.145
-234.830	-28.896	-0.238	-0.135
-233.815	-128.119	0.072	0.010
-232.800	-200.000	-0.034	-0.226
-231.786	184.937	-0.088	-0.128
-230.771	49.050	-0.150	0.139
-229.757	147.645	0.215	-0.286
-228.742	-57.579	-0.080	0.035
-227.727	-156.311	-0.242	-0.015
-226.713	19.475	-0.238	-0.189
-225.698	-86.281	-0.280	-0.085
-224.684	-128.845	0.213	-0.030
-223.669	-200.000	0.007	-0.294
-222.655	-66.871	-0.267	0.104
-221.640	281.409	-0.170	0.301
-220.625	32.010	0.174	0.148
-219.611	8.206	0.238	-0.177
-218.596	-157.190	0.217	-0.013
-217.582	-200.000	0.024	0.197
-216.567	473.887	0.063	-0.140
-215.552	17.442	0.252	-0.197
-214.538	800.000	0.047	-0.140
-213.523	-107.625	-0.281	0.060
-212.509	-61.781	-0.267	0.110
-211.494	-19.130	-0.117	0.072
-210.479	-200.000	-0.013	0.299
-209.465	-88.509	-0.160	0.047
-208.450	68.432	0.162	-0.163
-207.436	437.333	0.028	-0.061
-206.421	-105.074	0.335	0.076
-205.406	73.935	-0.130	0.135
-204.392	-200.000	-0.023	0.363
-203.377	-79.699	-0.179	-0.060
-202.363	-200.000	-0.030	-0.145
-201.348	800.000	-0.042	0.130
-200.333	118.315	0.151	0.183
-199.319	-200.000	0.017	0.132
-198.304	-42.770	-0.092	0.046
-197.290	-10.477	0.169	-0.110
-196.275	-99.980	-0.166	-0.041
-195.260	800.000	-0.057	0.156
-194.246	-137.997	-0.224	-0.025
-193.231	87.464	0.057	0.062
-192.217	41.389	0.196	-0.175
-191.202	-64.122	-0.017	0.007
-190.187	194.584	-0.199	0.298
-189.173	13.270	0.159	0.121
-188.158	-47.051	0.374	0.180
-187.144	-119.055	0.033	0.006
-186.129	-178.160	-0.149	0.003
-185.114	-99.112	-0.114	-0.028
-184.100	-90.827	0.114	0.032
-183.085	-8.654	-0.135	-0.089
-182.071	-32.691	-0.101	0.055
-181.056	-92.848	-0.163	-0.045
-180.042	204.246	-0.142	0.217
-179.027	-144.881	-0.046	-0.004
-178.012	-200.000	-0.060	-0.323
-176.998	800.000	-0.038	0.130
-175.983	-12.163	-0.325	-0.210
-174.969	-80.015	0.376	0.124
-173.954	192.844	0.063	0.093
-172.939	160.784	-0.053	0.072
-171.925	-200.000	0.552	0.000
-170.910	800.000	0.101	-0.294
-169.896	-148.721	-0.238	0.019
-168.881	493.079	0.020	0.046
-167.866	-4.869	-0.261	-0.177
-166.852	399.798	0.180	-0.372
-165.837	-2.751	-0.243	-0.167
-164.823	-200.000	-0.012	0.072
-163.808	-62.376	-0.170	0.070
-162.793	-5.976	0.301	0.202
-161.779	-154.351	-0.214	-0.014
-160.764	146.509	0.016	-0.021
-159.750	239.271	-0.050	0.082
-158.735	-200.000	0.061	-0.264
-157.720	-109.378	0.135	0.028
-156.706	-142.204	-0.240	-0.023
-155.691	36.881	-0.281	0.244
-154.677	104.504	0.019	-0.023
-153.662	-86.182	-0.199	-0.060
-152.647	-60.750	-0.176	0.073
-151.633	457.560	0.115	0.251
-150.618	327.902	-0.201	0.380
-149.604	-55.713	0.279	-0.123
-148.589	12.413	0.208	0.157
-147.574	-12.614	0.123	-0.079
-146.560	-1.192	0.184	-0.128
-145.545	402.740	-0.252	0.521
-144.531	587.916	0.070	0.169
-143.516	-200.000	0.010	0.400
-142.502	-200.000	-0.019	0.136
-141.487	-78.241	0.206	-0.070
-140.472	0.872	-0.069	0.049
-139.458	-110.173	0.294	0.060
-138.443	-200.000	0.016	-0.136
-137.429	30.883	0.244	0.206
-136.414	-32.645	0.103	-0.056
-135.399	216.976	0.039	0.061
-134.385	141.558	-0.238	-0.309
-133.370	800.000	-0.039	0.151
-132.356	-114.728	-0.319	-0.060
-131.341	-100.518	-0.141	-0.034
-130.326	177.857	0.050	0.071
-129.312	185.825	-0.077	0.112
-128.297	176.628	0.151	0.215
-127.283	38.140	-0.265	0.232
-126.268	-8.306	0.269	-0.178
-125.253	332.594	-0.126	0.239
-124.239	-1.697	0.235	-0.163
-123.224	-142.291	-0.213	0.021
-122.210	94.125	-0.071	-0.079
-121.195	-148.004	0.437	-0.036
