DTS Sentinel unit serial number:	SN413079Multiplexer serial number:	ORYXHardware model number:	OX4-SRSoftware version number:	ORYX F/W v4.00 Oryx Data Collector v3.7.2.0data status	okinstallation	princeton_trtdifferential loss correction	single-endedforward channel	channel 2reverse channel	N/Adate	2019/09/18time	02:27:35forward acquisition time	60.00reverse acquisition time	0.00gamma	496.2192k internal	0.2350k external	0.2350temperature offset calibration	0.9981default loss term (dB/km)	0.3790temperature slope calibration	1.0000multiplexer offset coefficient	1.0000multiplexer slope coefficient	1.0000fibre end	0.00T internal ref (°C)	22.81T ext. ref 1 (°C)	0.16T ext. ref 2 (°C)	16.93length (m)	temperature (°C)	Stokes	anti-Stokes-747.200	211.072	-0.150	-0.235
-746.185	-25.095	-0.232	0.137
-745.171	-200.000	0.036	0.199
-744.156	256.015	-0.149	0.255
-743.142	19.933	0.100	-0.081
-742.127	-122.421	-0.267	0.043
-741.112	-42.509	0.163	0.083
-740.098	162.664	-0.148	-0.208
-739.083	-92.629	0.335	0.094
-738.069	294.158	-0.212	0.387
-737.054	201.986	-0.046	0.072
-736.039	-114.128	-0.283	-0.055
-735.025	27.568	-0.101	0.085
-734.010	-156.650	-0.112	-0.007
-732.996	-200.000	-0.081	-0.535
-731.981	448.905	-0.134	-0.295
-730.966	-100.180	0.302	0.075
-729.952	-121.590	-0.252	-0.042
-728.937	-200.000	0.015	-0.188
-727.923	-60.053	-0.058	0.025
-726.908	111.092	-0.228	-0.274
-725.894	-200.000	-0.024	0.196
-724.879	310.056	-0.096	0.180
-723.864	-200.000	0.012	0.065
-722.850	-46.451	-0.233	-0.114
-721.835	234.411	0.061	-0.100
-720.821	128.619	-0.109	-0.139
-719.806	-71.846	-0.408	0.152
-718.791	432.632	-0.089	0.194
-717.777	394.962	0.028	0.059
-716.762	142.015	0.165	-0.218
-715.748	800.000	-0.029	-0.093
-714.733	-108.583	-0.222	-0.048
-713.718	146.802	0.115	-0.155
-712.704	-115.599	-0.388	0.073
-711.689	-38.837	0.228	0.120
-710.675	-118.363	-0.224	0.040
-709.660	800.000	0.119	-0.408
-708.645	800.000	0.086	-0.278
-707.631	-62.350	-0.202	0.084
-706.616	-90.687	0.267	-0.077
-705.602	-200.000	-0.005	0.090
-704.587	800.000	0.034	0.124
-703.572	-127.119	-0.303	-0.044
-702.558	467.524	-0.098	-0.220
-701.543	-123.647	-0.094	-0.015
-700.529	-99.906	0.255	0.064
-699.514	-109.679	-0.249	-0.052
-698.499	-44.938	-0.335	-0.166
-697.485	-151.946	-0.474	0.034
-696.470	-200.000	0.006	-0.052
-695.456	-37.218	0.129	-0.069
-694.441	170.042	-0.043	-0.062
-693.426	-43.119	0.169	-0.085
-692.412	111.504	0.160	-0.192
-691.397	-200.000	-0.030	0.237
-690.383	-149.221	-0.289	-0.023
-689.368	21.581	0.295	0.239
-688.354	-10.407	0.154	-0.101
-687.339	-200.000	-0.012	-0.133
-686.324	-130.182	-0.093	-0.013
-685.310	25.414	0.099	-0.082
-684.295	-200.000	0.016	0.073
-683.281	216.635	-0.127	0.202
-682.266	-80.250	0.245	0.082
-681.251	-52.834	0.210	0.096
-680.237	-200.000	0.410	0.000
-679.222	374.508	0.234	0.474
-678.208	33.439	0.206	-0.178
-677.193	-51.344	-0.228	0.106
-676.178	-68.814	0.342	0.132
-675.164	-200.000	-0.000	0.204
-674.149	34.382	-0.227	0.197
-673.135	800.000	-0.084	-0.266
-672.120	-10.279	0.183	-0.121
-671.105	800.000	0.106	-0.309
-670.091	28.225	0.074	-0.062
-669.076	800.000	0.055	-0.163
-668.062	-124.323	-0.241	0.037
-667.047	-200.000	-0.007	-0.105
-666.032	575.833	0.058	-0.141
-665.018	800.000	0.060	-0.176
-664.003	130.858	-0.110	-0.141
-662.989	59.556	-0.267	0.262
-661.974	138.826	-0.239	-0.312
-660.959	-179.758	-0.279	0.006
-659.945	800.000	-0.026	-0.107
-658.930	-200.000	-0.046	-0.455
-657.916	-200.000	0.024	-0.319
-656.901	-51.341	-0.240	-0.112
-655.886	800.000	0.088	-0.377
-654.872	800.000	-0.024	0.084
-653.857	21.612	-0.161	-0.130
-652.843	258.630	-0.092	-0.157
-651.828	103.536	0.199	0.232
-650.814	-73.246	-0.388	0.141
-649.799	-200.000	0.015	0.177
-648.784	270.556	-0.072	-0.126
-647.770	-132.855	-0.193	0.024
-646.755	-200.000	-0.036	0.167
-645.741	-63.062	-0.423	0.174
-644.726	-200.000	0.005	-0.091
-643.711	-149.142	-0.171	-0.014
-642.697	431.963	0.076	0.165
-641.682	20.316	0.080	-0.064
-640.668	-61.739	0.276	-0.115
-639.653	-21.575	-0.353	-0.214
-638.638	-27.822	0.211	-0.122
-637.624	800.000	0.156	-0.480
-636.609	629.657	-0.104	-0.260
-635.595	-185.384	0.097	0.001
-634.580	156.912	-0.209	0.287
-633.565	-173.367	-0.566	-0.017
-632.551	-53.578	0.184	-0.084
-631.536	475.313	0.164	0.367
-630.522	-151.083	0.218	-0.016
-629.507	-115.006	-0.228	0.043
-628.492	-155.596	0.166	0.011
-627.478	-30.439	0.205	0.116
-626.463	-193.032	-0.211	-0.002
-625.449	196.598	-0.055	0.083
-624.434	409.384	0.110	-0.231
-623.419	191.814	-0.139	0.209
-622.405	-93.383	0.039	-0.011
-621.390	24.412	0.188	0.154
-620.376	800.000	-0.150	0.444
-619.361	-200.000	-0.022	0.215
-618.346	238.614	-0.126	-0.208
-617.332	-160.769	0.163	-0.009
-616.317	-66.730	0.424	0.167
-615.303	800.000	-0.060	0.172
-614.288	-40.868	0.131	0.067
-613.273	111.811	-0.348	-0.417
-612.259	119.310	0.021	-0.026
-611.244	580.924	-0.127	-0.310
-610.230	-79.176	-0.229	-0.077
-609.215	52.111	0.160	0.151
-608.201	-176.861	-0.356	0.009
-607.186	39.107	0.204	0.181
-606.171	-200.000	-0.011	-0.373
-605.157	294.201	0.068	-0.123
-604.142	-76.568	-0.260	0.091
-603.128	-162.227	0.242	-0.012
-602.113	-17.491	0.237	0.148
-601.098	154.350	0.101	-0.137
-600.084	28.847	-0.067	-0.057
-599.069	-200.000	0.020	-0.160
-598.055	73.386	-0.133	-0.138
-597.040	302.152	0.132	0.243
-596.025	-200.000	-0.004	-0.023
-595.011	106.230	0.184	-0.216
-593.996	91.361	-0.134	0.149
-592.982	-8.604	-0.247	0.165
-591.967	-94.700	-0.105	-0.028
-590.952	-79.234	-0.370	-0.124
-589.938	-136.147	-0.152	0.018
-588.923	-78.561	-0.337	0.115
-587.909	-111.239	0.268	-0.054
-586.894	575.419	0.130	0.316
-585.879	-200.000	-0.066	-0.362
-584.865	800.000	0.040	-0.156
-583.850	-127.262	0.025	0.004
-582.836	-51.905	-0.254	0.117
-581.821	-200.000	0.020	-0.262
-580.806	49.516	-0.072	0.067
-579.792	52.182	0.179	0.170
-578.777	338.453	0.132	0.255
-577.763	603.086	-0.012	-0.029
-576.748	-60.570	-0.086	0.036
-575.733	250.064	-0.085	0.142
-574.719	99.411	-0.101	-0.115
-573.704	-106.169	0.130	-0.029
-572.690	-200.000	0.073	-0.322
-571.675	-28.428	0.271	0.155
-570.661	-200.000	0.084	-0.460
-569.646	-157.503	-0.482	0.029
-568.631	-93.619	0.209	0.057
-567.617	49.294	-0.405	0.377
-566.602	-111.374	0.166	0.034
-565.588	-76.573	0.269	-0.094
-564.573	-200.000	-0.019	0.149
-563.558	-1.588	0.217	-0.152
-562.544	330.766	-0.099	-0.190
-561.529	-12.041	0.152	-0.099
-560.515	58.824	0.074	-0.072
-559.500	-200.000	0.039	-0.178
-558.485	269.210	0.027	-0.047
-557.471	-200.000	0.058	0.279
-556.456	-95.079	0.202	-0.054
-555.442	54.990	-0.053	-0.051
-554.427	95.803	-0.272	0.308
-553.412	522.960	0.100	-0.233
-552.398	43.962	-0.095	0.087
-551.383	-49.792	0.203	-0.095
-550.369	-200.000	0.029	-0.278
-549.354	47.854	-0.143	-0.133
-548.339	1.691	-0.311	-0.222
-547.325	-108.197	0.131	-0.028
-546.310	800.000	0.101	-0.289
-545.296	-155.697	-0.378	-0.024
-544.281	-200.000	0.033	-0.257
-543.266	-200.000	0.022	-0.219
-542.252	-126.265	-0.267	0.039
-541.237	800.000	-0.092	0.275
-540.223	-135.992	-0.104	0.012
-539.208	-72.246	-0.053	-0.019
-538.193	380.194	0.046	-0.093
-537.179	-41.830	-0.036	0.018
-536.164	-130.938	-0.177	0.023
-535.150	477.224	-0.128	0.286
-534.135	-88.949	0.145	-0.042
-533.121	467.615	-0.089	-0.199
-532.106	-53.574	-0.058	0.026
-531.091	28.988	-0.142	0.119
-530.077	800.000	0.081	0.286
-529.062	249.783	0.045	0.075
-528.048	800.000	-0.061	0.249
-527.033	-200.000	-0.025	-0.118
-526.018	-131.542	-0.085	0.011
-525.004	-99.638	-0.246	0.061
-523.989	50.856	-0.162	0.152
-522.975	-64.670	0.046	-0.019
-521.960	72.806	0.130	0.135
-520.945	800.000	0.064	-0.208
-519.931	-104.942	0.349	-0.079
-518.916	664.810	0.221	-0.564
-517.902	800.000	-0.053	-0.191
-516.887	-200.000	-0.032	0.194
-515.872	64.486	-0.117	-0.117
-514.858	-200.000	-0.039	-0.171
-513.843	422.889	-0.035	-0.074
-512.829	-111.118	0.201	0.041
-511.814	256.676	0.084	-0.142
-510.799	-175.672	-0.287	-0.008
-509.785	-106.600	0.303	0.067
-508.770	-105.110	-0.200	-0.045
-507.756	-176.087	-0.239	-0.006
-506.741	-200.000	-0.031	-0.372
-505.726	777.780	-0.105	0.283
-504.712	229.634	0.122	-0.197
-503.697	485.045	0.097	-0.218
-502.683	-66.871	-0.021	-0.008
-501.668	27.132	-0.315	-0.261
-500.653	-119.153	-0.228	-0.039
-499.639	-20.388	-0.324	0.197
-498.624	-200.000	0.035	0.607
-497.610	298.302	-0.059	-0.107
-496.595	-67.311	0.461	0.179
-495.581	139.263	0.265	-0.345
-494.566	-140.510	0.082	-0.008
-493.551	-108.371	-0.321	0.068
-492.537	-44.073	-0.139	-0.069
-491.522	32.235	0.121	0.103
-490.508	-37.241	0.113	0.060
-489.493	-181.785	-0.407	-0.008
-488.478	110.997	-0.189	-0.225
-487.464	-200.000	-0.034	0.256
-486.449	200.517	0.156	-0.236
-485.435	106.810	0.151	0.177
-484.420	69.437	-0.158	0.161
-483.405	178.458	0.081	-0.117
-482.391	110.988	0.132	-0.157
-481.376	-115.684	0.206	-0.038
-480.362	-188.493	-0.209	0.003
-479.347	296.954	0.277	0.502
-478.332	-200.000	0.012	-0.144
-477.318	-107.321	-0.421	-0.091
-476.303	-200.000	0.008	-0.109
-475.289	-118.992	0.233	-0.040
-474.274	800.000	-0.058	0.179
-473.259	-107.840	0.368	0.079
-472.245	32.775	0.318	-0.272
-471.230	-82.002	-0.352	-0.113
-470.216	543.968	0.023	0.054
-469.201	-73.029	0.494	-0.179
-468.186	-51.976	0.175	0.080
-467.172	767.476	-0.098	0.262
-466.157	-199.688	-0.372	-0.002
-465.143	-34.502	-0.096	0.052
-464.128	-70.218	-0.175	-0.066
-463.113	-159.030	-0.199	-0.011
-462.099	-30.954	-0.221	0.123
-461.084	-26.483	0.159	-0.092
-460.070	-59.874	-0.089	0.038
-459.055	-141.502	-0.068	0.007
-458.040	401.434	0.062	-0.128
-457.026	-16.473	-0.117	0.073
-456.011	105.939	0.083	0.097
-454.997	234.478	-0.044	0.072
-453.982	-138.317	0.338	0.037
-452.968	159.242	-0.057	0.078
-451.953	229.576	-0.129	-0.208
-450.938	699.997	0.015	-0.040
-449.924	-68.378	-0.478	-0.183
-448.909	-56.396	0.067	-0.029
-447.895	800.000	0.127	-0.346
-446.880	283.068	0.097	-0.172
-445.865	-107.173	0.085	-0.018
-444.851	-200.000	0.052	-0.337
-443.836	-56.775	-0.389	-0.170
-442.822	-71.690	-0.068	-0.025
-441.807	178.912	0.119	0.172
-440.792	-45.471	0.052	0.025
-439.778	-47.923	-0.173	-0.083
-438.763	-69.526	0.088	0.033
-437.749	14.715	-0.077	-0.060
-436.734	288.012	-0.031	0.056
-435.719	258.691	-0.024	0.042
-434.705	139.630	-0.047	0.061
-433.690	-36.585	0.139	-0.074
-432.676	-61.128	-0.294	-0.122
-431.661	-21.961	0.229	-0.137
-430.646	52.040	-0.113	0.106
-429.632	-200.000	0.004	0.150
-428.617	623.863	0.040	-0.098
-427.603	30.115	0.132	-0.111
-426.588	282.518	0.197	0.349
-425.573	-53.974	-0.301	0.135
-424.559	-115.814	0.302	-0.056
-423.544	209.626	-0.282	0.435
-422.530	-1.017	0.041	-0.028
-421.515	34.680	0.083	-0.072
-420.500	-44.406	0.089	0.044
-419.486	261.690	0.072	-0.124
-418.471	-200.000	-0.016	-0.082
-417.457	-36.376	0.092	0.049
-416.442	71.035	-0.358	-0.365
-415.428	20.788	0.338	-0.270
-414.413	698.349	-0.127	-0.329
-413.398	800.000	-0.053	0.201
-412.384	491.672	-0.134	-0.303
-411.369	800.000	0.007	-0.027
-410.355	-200.000	-0.013	0.153
-409.340	-200.000	-0.008	-0.106
-408.325	621.997	0.052	-0.130
-407.311	200.981	-0.056	0.085
-406.296	-97.511	0.336	-0.086
-405.282	278.850	-0.087	-0.152
-404.267	109.521	0.133	0.158
-403.252	232.159	-0.079	0.127
-402.238	1.562	0.141	-0.100
-401.223	800.000	0.116	0.368
-400.209	150.437	0.113	-0.152
-399.194	-11.142	0.386	-0.251
-398.179	359.925	0.018	-0.036
-397.165	800.000	0.074	0.213
-396.150	34.749	-0.242	0.208
-395.136	-85.410	-0.287	0.088
-394.121	-58.712	0.187	-0.080
-393.106	-5.059	0.110	-0.074
-392.092	174.919	-0.078	-0.112
-391.077	-66.497	-0.219	0.086
-390.063	311.758	0.057	0.105
-389.048	-44.975	-0.294	-0.144
-388.033	-136.161	-0.113	-0.013
-387.019	-31.776	0.361	0.199
-386.004	-147.822	-0.234	0.019
-384.990	-21.795	-0.045	-0.027
-383.975	-200.000	0.006	0.339
-382.960	54.934	0.218	0.207
-381.946	376.825	-0.112	0.226
-380.931	800.000	0.044	-0.128
-379.917	729.522	-0.093	-0.245
-378.902	11.301	-0.218	0.164
-377.888	-200.000	-0.008	0.088
-376.873	-200.000	0.024	-0.275
-375.858	163.665	0.134	-0.185
-374.844	-91.353	-0.215	0.060
-373.829	-7.928	-0.236	0.157
-372.815	63.705	0.119	-0.118
-371.800	371.899	-0.147	0.293
-370.785	170.824	0.062	-0.087
-369.771	66.302	-0.049	-0.049
-368.756	689.397	-0.061	0.157
-367.742	-27.426	0.167	-0.095
-366.727	-27.053	0.044	-0.025
-365.712	80.540	0.130	-0.137
-364.698	-71.705	0.019	-0.007
-363.683	249.172	0.055	0.092
-362.669	69.879	0.261	0.264
-361.654	800.000	-0.133	-0.392
-360.639	-57.701	0.275	-0.118
-359.625	-14.089	0.174	0.110
-358.610	-200.000	-0.026	-0.128
-357.596	-127.665	-0.248	0.035
-356.581	118.124	-0.157	0.190
-355.566	800.000	0.040	-0.117
-354.552	-58.635	0.201	-0.086
-353.537	29.404	0.075	-0.062
-352.523	800.000	0.029	0.083
-351.508	-200.000	0.003	0.143
-350.493	-200.000	-0.006	0.137
-349.479	39.732	0.076	0.067
-348.464	650.852	0.115	0.290
-347.450	-200.000	0.035	0.279
-346.435	-10.061	0.081	0.053
-345.420	-13.852	-0.113	0.072
-344.406	800.000	0.044	0.152
-343.391	441.344	0.058	0.124
-342.377	-7.671	0.023	0.015
-341.362	-200.000	0.006	0.145
-340.348	81.025	-0.287	0.304
-339.333	-135.802	-0.180	0.021
-338.318	800.000	-0.043	-0.138
-337.304	34.855	0.179	0.154
-336.289	763.598	-0.087	-0.231
-335.275	-37.263	0.250	-0.131
-334.260	-200.000	-0.058	0.271
-333.245	93.594	0.116	0.129
-332.231	-0.466	-0.167	0.116
-331.216	139.818	0.323	0.418
-330.202	261.914	-0.063	0.107
-329.187	800.000	0.087	0.291
-328.172	294.424	0.082	-0.147
-327.158	-103.635	0.358	-0.082
-326.143	135.033	-0.104	-0.133
-325.129	-1.838	0.165	-0.114
-324.114	-60.996	-0.290	0.120
-323.099	-57.489	0.345	0.149
-322.085	12.161	-0.215	0.162
-321.070	385.284	-0.104	-0.211
-320.056	291.544	-0.181	0.324
-319.041	-200.000	0.012	-0.114
-318.026	8.265	-0.112	-0.083
-317.012	20.993	-0.083	0.066
-315.997	-166.929	-0.146	-0.006
-314.983	709.063	0.101	0.262
-313.968	3.230	-0.151	-0.108
-312.953	-30.842	0.230	-0.128
-311.939	72.171	0.062	0.063
-310.924	-111.761	0.248	0.049
-309.910	-200.000	-0.010	0.243
-308.895	-200.000	-0.033	-0.155
-307.880	259.790	0.090	0.153
-306.866	-200.000	0.064	0.301
-305.851	3.249	-0.313	-0.223
-304.837	800.000	-0.095	-0.262
-303.822	-41.146	0.449	-0.227
-302.807	-55.842	-0.101	-0.044
-301.793	-156.572	0.468	0.029
-300.778	-160.864	-0.189	-0.010
-299.764	337.293	0.069	-0.132
-298.749	800.000	-0.039	-0.147
-297.735	31.513	-0.090	-0.076
-296.720	58.273	0.290	0.279
-295.705	-160.469	-0.228	-0.012
-294.691	-7.537	-0.104	0.069
-293.676	98.404	0.059	-0.066
-292.662	-200.000	0.029	-0.161
-291.647	800.000	0.061	-0.223
-290.632	-116.491	0.194	0.035
-289.618	-9.962	0.155	-0.101
-288.603	208.452	0.129	-0.198
-287.589	37.701	-0.181	0.157
-286.574	25.626	-0.444	0.363
-285.559	-200.000	-0.001	-0.151
-284.545	-200.000	-0.048	-0.277
-283.530	285.282	0.055	0.096
-282.516	231.567	-0.070	-0.113
-281.501	-83.777	0.168	-0.052
-280.486	-57.617	-0.252	0.108
-279.472	746.521	0.043	0.113
-278.457	-200.000	-0.045	-0.272
-277.443	-150.511	0.321	-0.024
-276.428	-200.000	-0.031	-0.252
-275.413	162.980	-0.110	0.152
-274.399	-65.588	-0.108	-0.042
-273.384	386.115	-0.138	0.279
-272.370	-78.910	-0.319	-0.106
-271.355	-180.530	0.078	-0.002
-270.340	-200.000	-0.040	0.286
-269.326	124.065	-0.091	0.112
-268.311	135.130	0.036	0.046
-267.297	-68.743	-0.202	-0.077
-266.282	-129.621	0.210	-0.028
-265.267	-153.467	-0.073	0.005
-264.253	-200.000	-0.031	-0.175
-263.238	229.826	0.092	0.148
-262.224	248.441	-0.131	-0.217
-261.209	109.211	0.087	0.102
-260.195	-133.168	0.166	0.021
-259.180	-200.000	-0.001	-0.235
-258.165	800.000	-0.059	0.186
-257.151	-81.013	-0.390	0.127
-256.136	394.166	-0.172	-0.350
-255.122	149.205	0.053	-0.070
-254.107	-200.000	0.001	0.137
-253.092	673.279	-0.055	-0.139
-252.078	-158.073	0.036	0.002
-251.063	15.641	-0.090	0.069
-250.049	-114.413	0.160	-0.030
-249.034	800.000	-0.051	0.185
-248.019	-87.379	0.286	0.085
-247.005	-200.000	-0.090	0.000
-245.990	-110.152	-0.306	-0.063
-244.976	96.385	0.022	-0.024
-243.961	247.140	-0.150	0.247
-242.946	-200.000	-0.017	0.223
-241.932	-200.000	-0.046	0.234
-240.917	289.118	-0.055	-0.097
-239.903	-7.952	0.345	0.228
-238.888	-2.154	0.226	0.155
-237.873	216.639	0.111	-0.173
-236.859	-89.260	-0.178	-0.051
-235.844	-56.452	-0.075	-0.032
-234.830	-40.411	-0.229	-0.117
-233.815	-200.000	-0.042	0.267
-232.800	507.818	0.115	0.262
-231.786	800.000	0.060	0.175
-230.771	27.392	-0.075	-0.061
-229.757	800.000	0.097	0.345
-228.742	-144.642	0.155	0.014
-227.727	48.978	0.144	-0.132
-226.713	-91.356	-0.406	0.114
-225.698	447.843	-0.111	-0.240
-224.684	-58.423	-0.342	0.145
-223.669	584.603	-0.012	-0.030
-222.655	-81.579	-0.175	-0.056
-221.640	39.436	-0.126	-0.111
-220.625	42.294	0.184	-0.163
-219.611	800.000	-0.170	-0.665
-218.596	800.000	-0.077	-0.229
-217.582	101.095	0.089	-0.102
-216.567	-132.030	0.368	0.047
-215.552	28.198	0.210	-0.173
-214.538	64.872	0.178	-0.176
-213.523	769.150	0.083	-0.221
-212.509	-29.175	0.231	-0.129
-211.494	-40.481	-0.132	-0.067
-210.479	-27.314	0.410	0.234
-209.465	-8.192	-0.110	0.072
-208.450	-200.000	0.012	-0.144
-207.436	800.000	-0.053	0.148
-206.421	-12.342	-0.112	-0.072
-205.406	65.472	0.109	-0.108
-204.392	753.549	-0.105	-0.277
-203.377	-106.074	0.049	0.011
-202.363	-67.580	0.353	0.135
-201.348	-200.000	-0.002	-0.135
-200.333	-200.000	0.222	0.001
-199.319	30.319	0.039	0.033
-198.304	-74.276	-0.052	-0.018
-197.290	170.993	-0.142	-0.199
-196.275	91.640	-0.101	0.111
-195.260	216.673	0.079	-0.124
-194.246	-80.394	0.280	0.091
-193.231	11.771	-0.079	0.059
-192.217	11.686	-0.255	0.191
-191.202	220.751	0.083	0.130
-190.187	-200.000	-0.006	0.042
-189.173	-200.000	-0.050	0.328
-188.158	-163.775	0.255	-0.012
-187.144	800.000	-0.044	0.153
-186.129	-172.565	-0.127	0.004
-185.114	-48.283	0.274	-0.129
-184.100	-200.000	-0.040	0.352
-183.085	-105.554	0.329	-0.073
-182.071	-200.000	-0.068	-0.310
-181.056	-200.000	0.018	0.203
-180.042	54.221	-0.462	0.435
-179.027	-200.000	-0.000	0.088
-178.012	707.390	0.058	-0.149
-176.998	335.697	-0.089	-0.168
-175.983	-145.212	0.305	-0.027
-174.969	-76.901	0.156	-0.053
-173.954	-35.954	0.115	0.061
-172.939	493.281	-0.137	-0.307
-171.925	-188.175	0.135	0.002
-170.910	618.542	0.154	0.378
-169.896	800.000	0.071	0.281
-168.881	-67.136	0.347	0.134
-167.866	115.312	-0.016	-0.019
-166.852	79.011	0.096	-0.100
-165.837	-200.000	0.046	-0.299
-164.823	-134.151	-0.287	0.035
-163.808	-75.326	0.285	0.099
-162.793	800.000	-0.042	0.155
-161.779	-76.641	0.354	0.121
-160.764	314.422	-0.041	0.074
-159.750	-200.000	0.034	0.160
-158.735	-93.567	0.303	0.082
-157.720	-85.384	-0.223	-0.068
-156.706	-159.132	0.173	0.009
-155.691	-200.000	-0.040	-0.215
-154.677	741.642	0.061	0.159
-153.662	-153.826	0.223	0.015
-152.647	10.944	-0.277	0.207
-151.633	-108.140	0.145	-0.031
-150.618	-126.389	-0.195	0.028
-149.604	59.458	-0.229	0.220
-148.589	-165.959	0.331	0.014
-147.574	-200.000	-0.009	0.191
-146.560	129.727	-0.195	0.243
-145.545	-145.453	-0.152	-0.013
-144.531	562.041	0.123	0.290
-143.516	-200.000	-0.059	0.478
-142.502	18.956	-0.118	0.092
-141.487	-200.000	-0.008	-0.349
-140.472	-23.979	0.085	0.050
-139.458	-72.163	-0.240	-0.087
-138.443	-9.253	0.100	0.065
-137.429	175.515	0.085	-0.120
-136.414	-68.017	-0.107	-0.041
-135.399	-115.410	-0.224	0.041
-134.385	636.341	0.057	-0.141
-133.370	372.799	-0.098	0.194
-132.356	-200.000	-0.042	0.266
-131.341	84.286	-0.112	0.119
-130.326	204.320	-0.093	-0.141
-129.312	68.473	-0.101	0.101
-128.297	31.300	0.195	0.163
-127.283	-61.774	0.103	0.042
-126.268	130.944	-0.189	0.236
-125.253	-200.000	0.028	0.450
-124.239	-89.553	-0.118	-0.034
-123.224	151.104	0.213	0.282
-122.210	-174.941	-0.315	0.009
