DTS Sentinel unit serial number:	SN413079Multiplexer serial number:	ORYXHardware model number:	OX4-SRSoftware version number:	ORYX F/W v4.00 Oryx Data Collector v3.7.2.0data status	okinstallation	princeton_trtdifferential loss correction	single-endedforward channel	channel 2reverse channel	N/Adate	2019/09/14time	12:39:35forward acquisition time	60.00reverse acquisition time	0.00gamma	496.2192k internal	0.2306k external	0.2306temperature offset calibration	1.0154default loss term (dB/km)	0.3790temperature slope calibration	1.0000multiplexer offset coefficient	1.0000multiplexer slope coefficient	1.0000fibre end	0.00T internal ref (°C)	38.00T ext. ref 1 (°C)	4.80T ext. ref 2 (°C)	33.54length (m)	temperature (°C)	Stokes	anti-Stokes-747.200	41.726	0.095	0.088
-746.185	747.092	-0.028	-0.078
-745.171	252.988	0.057	0.099
-744.156	544.061	-0.144	0.350
-743.142	71.433	0.074	0.078
-742.127	-200.000	-0.019	0.138
-741.112	-109.455	0.232	-0.050
-740.098	113.076	0.255	0.315
-739.083	376.178	-0.077	-0.161
-738.069	64.614	-0.223	0.228
-737.054	-29.682	-0.230	0.134
-736.039	-200.000	0.016	0.229
-735.025	-5.958	0.180	0.125
-734.010	503.648	-0.157	-0.369
-732.996	-200.000	0.028	-0.183
-731.981	347.248	-0.087	0.174
-730.966	374.129	0.164	0.340
-729.952	-149.996	-0.259	-0.021
-728.937	125.570	-0.041	-0.053
-727.923	-149.108	-0.312	-0.025
-726.908	-61.747	-0.368	0.157
-725.894	-200.000	0.003	0.013
-724.879	-200.000	0.052	-0.233
-723.864	73.765	-0.173	-0.184
-722.850	156.033	-0.052	0.073
-721.835	-200.000	0.067	0.329
-720.821	-51.692	-0.172	-0.082
-719.806	-200.000	0.001	0.188
-718.791	18.931	-0.115	0.094
-717.777	-22.341	-0.255	-0.157
-716.762	-200.000	-0.011	-0.114
-715.748	-140.006	0.187	-0.020
-714.733	-94.076	0.052	-0.015
-713.718	200.476	-0.097	-0.151
-712.704	-53.444	-0.100	0.047
-711.689	82.458	-0.359	-0.396
-710.675	14.949	0.076	-0.061
-709.660	-12.547	0.161	-0.107
-708.645	136.397	0.027	0.036
-707.631	-70.187	-0.067	0.026
-706.616	-17.943	-0.116	-0.074
-705.602	-200.000	0.004	0.095
-704.587	-82.158	-0.223	-0.074
-703.572	194.307	0.075	-0.115
-702.558	-200.000	0.022	0.170
-701.543	800.000	-0.072	0.233
-700.529	335.156	-0.115	-0.226
-699.514	-86.744	-0.158	0.049
-698.499	-128.859	-0.300	0.043
-697.485	52.321	-0.225	0.218
-696.470	800.000	-0.108	0.377
-695.456	800.000	-0.066	-0.197
-694.441	800.000	-0.018	-0.066
-693.426	54.178	-0.191	-0.186
-692.412	104.262	-0.043	0.051
-691.397	159.652	-0.120	-0.170
-690.383	-24.647	-0.190	0.115
-689.368	-200.000	-0.008	0.193
-688.354	-173.950	0.205	-0.006
-687.339	399.865	0.117	-0.248
-686.324	34.735	-0.095	0.084
-685.310	-200.000	0.000	-0.225
-684.295	266.195	0.159	-0.282
-683.281	16.755	-0.064	0.051
-682.266	164.072	-0.118	0.168
-681.251	-200.000	0.059	0.280
-680.237	-157.828	0.210	-0.013
-679.222	74.896	0.161	-0.172
-678.208	666.883	0.098	-0.257
-677.193	193.036	-0.211	-0.324
-676.178	-200.000	0.008	0.068
-675.164	276.162	0.149	-0.268
-674.149	151.855	-0.168	-0.232
-673.135	32.192	-0.354	-0.310
-672.120	581.414	-0.061	0.152
-671.105	-200.000	-0.426	-0.000
-670.091	308.791	0.036	0.068
-669.076	-17.646	0.201	0.128
-668.062	57.130	0.200	-0.197
-667.047	220.570	-0.038	0.062
-666.032	-158.657	0.092	-0.005
-665.018	412.024	0.073	0.157
-664.003	202.355	0.087	-0.137
-662.989	433.902	-0.045	0.099
-661.974	7.976	0.043	-0.033
-660.959	100.511	0.232	-0.273
-659.945	-200.000	-0.059	-0.353
-658.930	-119.406	-0.089	0.016
-657.916	-144.924	-0.052	-0.005
-656.901	-47.002	-0.321	-0.159
-655.886	30.115	0.098	0.084
-654.872	0.240	-0.228	0.165
-653.857	-200.000	-0.023	-0.245
-652.843	356.154	0.137	-0.277
-651.828	-161.535	-0.070	0.004
-650.814	-200.000	0.003	0.163
-649.799	75.510	-0.087	-0.093
-648.784	-92.817	0.141	0.040
-647.770	-123.010	0.277	0.045
-646.755	-14.922	-0.177	-0.115
-645.741	-37.954	0.133	-0.072
-644.726	632.473	-0.032	0.081
-643.711	-182.329	-0.321	0.006
-642.697	-129.221	-0.165	0.023
-641.682	-63.356	-0.221	-0.092
-640.668	58.777	0.120	-0.119
-639.653	-148.230	-0.189	-0.016
-638.638	247.133	0.031	0.054
-637.624	186.665	0.065	-0.097
-636.609	-106.966	0.303	-0.068
-635.595	-24.007	0.045	0.027
-634.580	-82.740	0.327	0.107
-633.565	800.000	-0.091	-0.302
-632.551	25.773	0.166	-0.140
-631.536	-133.759	-0.059	-0.007
-630.522	58.694	0.131	-0.130
-629.507	-134.151	0.156	-0.019
-628.492	-85.412	-0.218	-0.069
-627.478	-154.885	0.298	-0.020
-626.463	-86.258	0.149	-0.046
-625.449	-50.115	0.157	0.075
-624.434	126.779	-0.161	-0.207
-623.419	-200.000	-0.042	-0.289
-622.405	-93.705	-0.229	-0.064
-621.390	-200.000	0.030	0.206
-620.376	140.397	0.125	-0.166
-619.361	30.009	0.270	-0.233
-618.346	48.962	0.217	-0.206
-617.332	320.371	0.109	-0.210
-616.317	-8.317	0.098	0.067
-615.303	800.000	-0.069	-0.229
-614.288	298.441	-0.202	0.376
-613.273	800.000	0.057	0.179
-612.259	-67.563	-0.169	-0.067
-611.244	-186.869	0.129	-0.002
-610.230	45.949	-0.060	-0.056
-609.215	598.833	-0.172	0.432
-608.201	-68.901	-0.241	0.094
-607.186	-110.755	0.205	0.043
-606.171	98.686	0.055	0.065
-605.157	-121.212	-0.214	0.036
-604.142	244.323	-0.112	0.191
-603.128	-118.711	0.161	-0.029
-602.113	-58.007	-0.339	0.150
-601.098	-57.741	-0.360	-0.160
-600.084	-145.680	0.201	-0.018
-599.069	-150.201	0.316	0.025
-598.055	800.000	-0.029	0.118
-597.040	389.491	0.161	-0.337
-596.025	-167.061	-0.185	0.008
-595.011	253.554	-0.084	-0.144
-593.996	531.064	0.137	0.327
-592.982	41.990	-0.198	0.181
-591.967	74.172	-0.082	-0.088
-590.952	527.281	-0.126	0.299
-589.938	-178.949	0.289	-0.007
-588.923	-49.364	0.047	-0.023
-587.909	-200.000	0.035	-0.249
-586.894	283.138	-0.027	0.048
-585.879	-10.708	0.151	-0.101
-584.865	-113.134	0.337	-0.067
-583.850	-172.998	0.449	0.014
-582.836	16.358	0.103	0.083
-581.821	800.000	0.012	-0.037
-580.806	-0.110	0.104	0.075
-579.792	416.467	-0.182	0.392
-578.777	-8.822	-0.073	0.050
-577.763	-106.240	0.286	-0.065
-576.748	26.964	0.176	-0.149
-575.733	33.896	0.121	0.107
-574.719	-200.000	-0.012	0.115
-573.704	430.979	-0.163	-0.357
-572.690	-152.816	0.328	-0.023
-571.675	-120.717	-0.230	0.039
-570.661	-108.743	0.093	-0.020
-569.646	-155.607	0.200	-0.013
-568.631	-200.000	-0.004	0.133
-567.617	3.904	0.137	-0.101
-566.602	471.503	0.072	-0.163
-565.588	-200.000	-0.043	0.201
-564.573	150.374	-0.147	0.201
-563.558	-56.408	-0.132	0.059
-562.544	-12.105	0.124	0.082
-561.529	-144.136	0.371	0.035
-560.515	15.360	0.200	0.159
-559.500	-200.000	-0.007	-0.033
-558.485	608.093	0.097	-0.245
-557.471	61.738	0.249	-0.251
-556.456	753.450	0.120	-0.328
-555.442	-200.000	-0.023	-0.238
-554.427	-200.000	0.006	-0.109
-553.412	-122.615	0.298	0.049
-552.398	-44.425	-0.273	0.138
-551.383	4.069	0.118	-0.087
-550.369	-100.791	-0.334	0.083
-549.354	54.762	-0.089	-0.087
-548.339	127.308	0.138	0.177
-547.325	265.478	-0.110	0.194
-546.310	-200.000	-0.050	0.284
-545.296	-200.000	0.038	-0.170
-544.281	-200.000	-0.342	0.002
-543.266	800.000	-0.054	-0.168
-542.252	-28.715	-0.080	0.046
-541.237	-116.631	-0.343	0.064
-540.223	-92.241	-0.166	-0.047
-539.208	-72.853	-0.218	-0.081
-538.193	-85.446	-0.257	0.081
-537.179	131.928	0.087	0.112
-536.164	-64.983	0.293	-0.120
-535.150	144.968	-0.206	0.279
-534.135	-200.000	-0.004	-0.070
-533.121	46.539	0.157	0.147
-532.106	-200.000	0.012	-0.304
-531.091	-142.174	0.242	0.024
-530.077	361.520	-0.111	0.224
-529.062	-89.794	-0.278	0.082
-528.048	123.250	-0.180	0.228
-527.033	101.264	-0.147	0.173
-526.018	136.828	-0.127	0.167
-525.004	800.000	-0.072	-0.238
-523.989	-28.272	-0.146	0.085
-522.975	44.246	0.049	-0.045
-521.960	420.601	0.050	0.108
-520.945	-49.496	0.420	-0.202
-519.931	-134.204	-0.077	-0.010
-518.916	-147.888	0.167	-0.014
-517.902	580.223	-0.068	-0.169
-516.887	84.111	0.300	0.330
-515.872	58.797	0.178	0.177
-514.858	164.037	0.133	0.189
-513.843	94.137	0.152	-0.174
-512.829	-200.000	-0.001	-0.033
-511.814	63.908	-0.164	-0.166
-510.799	800.000	0.073	-0.254
-509.785	-48.937	-0.161	-0.078
-508.770	56.097	0.127	0.125
-507.756	-160.088	0.078	0.004
-506.741	272.628	0.055	-0.097
-505.726	332.233	0.133	0.258
-504.712	-200.000	0.081	-0.428
-503.697	499.932	0.088	0.206
-502.683	-7.284	-0.121	-0.083
-501.668	741.853	0.042	0.113
-500.653	-200.000	-0.056	-0.268
-499.639	-200.000	-0.018	-0.135
-498.624	800.000	0.123	-0.501
-497.610	123.382	0.121	-0.153
-496.595	-200.000	-0.003	-0.083
-495.581	-200.000	-0.032	-0.148
-494.566	-140.834	0.205	0.021
-493.551	800.000	0.011	-0.050
-492.537	-200.000	-0.048	0.300
-491.522	105.163	0.193	-0.229
-490.508	-200.000	0.051	0.252
-489.493	-65.284	-0.276	0.112
-488.478	288.486	-0.207	0.378
-487.464	144.908	-0.131	0.177
-486.449	-200.000	-0.039	-0.213
-485.435	-200.000	-0.031	0.139
-484.420	315.288	-0.186	0.352
-483.405	581.021	-0.081	0.199
-482.391	-80.591	-0.136	0.045
-481.376	-200.000	-0.032	-0.280
-480.362	-43.600	-0.222	-0.113
-479.347	162.008	0.087	0.123
-478.332	207.429	-0.187	-0.293
-477.318	-133.693	0.154	-0.019
-476.303	-200.000	0.017	0.159
-475.289	-73.934	-0.191	0.070
-474.274	-200.000	0.011	0.228
-473.259	-200.000	0.020	0.390
-472.245	211.398	-0.083	0.131
-471.230	-56.722	0.310	-0.138
-470.216	136.717	-0.158	-0.207
-469.201	31.932	-0.193	0.167
-468.186	-47.326	0.220	0.108
-467.172	116.096	-0.071	-0.088
-466.157	-116.570	0.204	-0.038
-465.143	-200.000	-0.014	-0.135
-464.128	128.725	0.075	0.097
-463.113	-188.808	-0.105	0.001
-462.099	-51.022	-0.166	-0.078
-461.084	-200.000	0.057	0.345
-460.070	-144.218	0.339	-0.032
-459.055	-139.580	0.357	0.038
-458.040	-200.000	0.008	-0.117
-457.026	-146.871	0.037	0.003
-456.011	-200.000	0.035	-0.155
-454.997	-168.198	-0.155	0.006
-453.982	-107.375	0.399	-0.088
-452.968	-200.000	0.474	-0.002
-451.953	-101.148	-0.057	0.014
-450.938	-119.775	0.125	-0.022
-449.924	-177.328	-0.075	0.002
-448.909	-3.922	0.202	-0.141
-447.895	44.213	-0.020	-0.019
-446.880	307.961	-0.124	-0.232
-445.865	182.899	0.169	-0.252
-444.851	-4.994	-0.420	-0.291
-443.836	322.142	0.075	0.144
-442.822	-4.736	0.062	-0.043
-441.807	-200.000	0.026	-0.169
-440.792	-32.587	-0.108	-0.060
-439.778	-13.462	0.158	-0.103
-438.763	-62.931	0.048	-0.020
-437.749	-70.990	-0.333	-0.126
-436.734	-145.094	-0.315	-0.029
-435.719	-103.723	0.301	-0.071
-434.705	800.000	0.171	-0.496
-433.690	-1.716	-0.386	0.274
-432.676	-106.636	-0.428	-0.096
-431.661	368.935	0.137	0.278
-430.646	-79.084	-0.041	0.014
-429.632	-200.000	-0.025	0.386
-428.617	-97.968	-0.293	0.076
-427.603	398.784	0.101	-0.212
-426.588	396.150	-0.171	-0.358
-425.573	-113.633	-0.335	-0.066
-424.559	256.971	-0.196	0.338
-423.544	449.344	0.051	0.114
-422.530	-118.382	-0.154	0.028
-421.515	-200.000	-0.012	-0.144
-420.500	-116.504	-0.286	0.053
-419.486	-200.000	-0.013	-0.130
-418.471	-200.000	-0.007	-0.088
-417.457	-32.498	-0.290	0.162
-416.442	678.750	0.095	-0.249
-415.428	800.000	-0.062	-0.179
-414.413	259.976	0.068	0.118
-413.398	-10.383	-0.209	0.139
-412.384	-200.000	0.019	-0.095
-411.369	-41.850	-0.064	-0.033
-410.355	-114.954	-0.053	0.010
-409.340	-11.750	-0.228	0.150
-408.325	-200.000	-0.007	0.112
-407.311	559.125	0.014	0.034
-406.296	632.616	0.094	-0.239
-405.282	800.000	-0.095	0.266
-404.267	-200.000	-0.005	0.104
-403.252	800.000	-0.058	-0.206
-402.238	-200.000	0.021	-0.326
-401.223	390.065	-0.077	0.161
-400.209	800.000	0.065	0.229
-399.194	-101.578	0.096	0.023
-398.179	-91.160	-0.348	-0.100
-397.165	-200.000	-0.048	-0.334
-396.150	-75.591	-0.194	0.069
-395.136	211.823	-0.168	0.266
-394.121	-200.000	-0.025	-0.267
-393.106	-162.724	-0.246	-0.012
-392.092	-200.000	-0.050	0.317
-391.077	69.108	0.125	0.129
-390.063	-200.000	-0.037	-0.223
-389.048	177.159	-0.228	-0.333
-388.033	47.715	-0.196	-0.183
-387.019	-18.285	-0.072	0.045
-386.004	-64.859	-0.139	-0.057
-384.990	-61.102	0.204	0.086
-383.975	800.000	0.065	0.194
-382.960	110.641	0.051	0.062
-381.946	36.329	0.129	0.114
-380.931	-200.000	0.017	-0.134
-379.917	510.738	0.148	0.345
-378.902	73.649	0.104	0.109
-377.888	-72.622	0.094	0.035
-376.873	-129.815	0.151	-0.021
-375.858	800.000	-0.094	0.345
-374.844	374.191	0.160	0.326
-373.829	-148.888	0.129	-0.010
-372.815	192.245	-0.040	0.061
-371.800	-88.832	-0.179	-0.053
-370.785	264.833	0.060	0.106
-369.771	-200.000	0.009	-0.125
-368.756	-147.542	0.313	-0.026
-367.742	35.920	0.250	0.220
-366.727	800.000	0.199	-0.592
-365.712	-200.000	-0.017	-0.257
-364.698	-200.000	-0.009	0.102
-363.683	-200.000	0.063	0.663
-362.669	33.684	-0.156	0.136
-361.654	-114.655	0.080	0.015
-360.639	-77.660	-0.292	-0.101
-359.625	-36.381	-0.254	0.137
-358.610	-95.575	0.189	0.051
-357.596	-114.983	-0.122	-0.023
-356.581	-107.749	-0.082	0.018
-355.566	-35.955	0.161	-0.087
-354.552	307.844	-0.125	-0.234
-353.537	-60.355	-0.324	-0.138
-352.523	-76.062	-0.044	-0.015
-351.508	-51.657	-0.246	0.115
-350.493	235.617	0.026	0.044
-349.479	661.818	0.065	0.167
-348.464	161.648	0.110	-0.155
-347.450	-139.488	0.042	-0.004
-346.435	778.375	-0.149	0.408
-345.420	19.224	-0.117	-0.094
-344.406	-107.976	0.294	-0.064
-343.391	256.161	-0.036	0.063
-342.377	-68.101	-0.411	0.160
-341.362	800.000	-0.034	0.121
-340.348	-72.909	-0.113	-0.041
-339.333	181.163	0.141	-0.207
-338.318	-200.000	0.050	-0.396
-337.304	-115.951	-0.045	-0.008
-336.289	-200.000	0.007	-0.375
-335.275	260.449	-0.105	0.182
-334.260	-175.476	0.079	-0.002
-333.245	-119.986	-0.262	0.045
-332.231	-200.000	0.004	-0.271
-331.216	800.000	0.149	-0.459
-330.202	-31.751	-0.121	0.068
-329.187	-123.238	-0.050	0.008
-328.172	241.722	0.124	0.207
-327.158	21.740	0.039	0.032
-326.143	435.971	-0.156	0.340
-325.129	-200.000	-0.016	0.271
-324.114	-129.293	0.120	0.017
-323.099	-35.959	-0.194	0.105
-322.085	-39.729	0.328	-0.172
-321.070	-103.800	0.202	-0.047
-320.056	72.747	-0.185	0.193
-319.041	10.954	0.121	-0.093
-318.026	-125.340	-0.215	-0.033
-317.012	-200.000	0.007	-0.121
-315.997	90.251	0.149	0.167
-314.983	-32.485	0.190	-0.106
-313.968	-200.000	0.048	0.410
-312.953	-103.680	-0.319	-0.075
-311.939	-200.000	0.015	-0.158
-310.924	-68.819	-0.012	-0.004
-309.910	23.267	0.185	-0.152
-308.895	-81.089	-0.206	0.068
-307.880	-115.122	0.161	0.031
-306.866	61.615	-0.160	-0.160
-305.851	635.933	-0.110	-0.280
-304.837	800.000	-0.061	-0.208
-303.822	45.447	0.215	0.198
-302.807	800.000	-0.045	0.190
-301.793	-69.852	0.126	-0.048
-300.778	800.000	-0.079	-0.341
-299.764	-22.341	-0.258	0.156
-298.749	-31.774	-0.238	-0.134
-297.735	-170.115	-0.165	-0.006
-296.720	32.943	0.165	0.143
-295.705	-200.000	-0.004	0.320
-294.691	192.393	0.280	0.422
-293.676	-95.445	0.295	0.079
-292.662	520.364	0.060	-0.142
-291.647	-95.079	0.363	0.098
-290.632	-200.000	0.073	0.487
-289.618	-15.165	-0.080	0.051
-288.603	92.561	-0.203	0.229
-287.589	18.649	-0.031	0.025
-286.574	-200.000	-0.039	-0.213
-285.559	118.238	-0.076	0.093
-284.545	-38.397	0.085	-0.045
-283.530	74.925	-0.012	-0.013
-282.516	268.623	0.074	-0.130
-281.501	-140.927	0.287	0.029
-280.486	-65.228	0.486	-0.196
-279.472	-62.551	-0.047	0.020
-278.457	-127.610	0.245	-0.035
-277.443	93.892	0.127	0.144
-276.428	-200.000	-0.030	-0.217
-275.413	-180.794	0.165	0.003
-274.399	-8.798	0.030	0.020
-273.384	157.036	-0.049	0.068
-272.370	800.000	-0.165	0.530
-271.355	-40.551	0.094	0.049
-270.340	528.540	-0.091	0.214
-269.326	582.450	-0.093	-0.227
-268.311	657.712	0.135	-0.347
-267.297	627.984	0.053	-0.133
-266.282	43.405	0.137	0.125
-265.267	-117.235	-0.119	0.022
-264.253	800.000	-0.042	0.144
-263.238	-200.000	0.016	-0.219
-262.224	533.755	0.052	-0.123
-261.209	51.222	-0.049	0.047
-260.195	-128.866	0.270	0.038
-259.180	22.540	-0.197	-0.161
-258.165	-200.000	0.018	-0.082
-257.151	-88.986	0.155	-0.046
-256.136	14.202	0.029	0.023
-255.122	244.201	-0.066	0.110
-254.107	-135.349	-0.379	-0.045
-253.092	-8.997	0.230	-0.154
-252.078	165.319	0.155	-0.218
-251.063	548.501	-0.145	0.346
-250.049	-57.358	-0.217	0.095
-249.034	-36.876	-0.390	0.209
-248.019	800.000	0.061	-0.229
-247.005	698.828	0.023	-0.061
-245.990	673.082	0.071	0.184
-244.976	-200.000	0.007	-0.123
-243.961	640.151	0.054	0.137
-242.946	-168.453	0.165	-0.006
-241.932	31.137	-0.098	0.084
-240.917	108.115	-0.061	0.072
-239.903	-3.752	0.255	-0.176
-238.888	163.038	0.199	-0.279
-237.873	-200.000	-0.026	-0.430
-236.859	-75.232	-0.226	-0.080
-235.844	35.306	-0.105	0.092
-234.830	391.362	0.047	-0.098
-233.815	57.164	0.163	0.159
-232.800	800.000	0.044	-0.168
-231.786	800.000	0.073	0.266
-230.771	800.000	0.117	0.413
-229.757	248.002	0.196	0.331
-228.742	-31.508	0.176	0.098
-227.727	800.000	0.087	0.330
-226.713	-200.000	0.036	0.215
-225.698	-0.746	0.042	0.030
-224.684	-200.000	0.017	0.241
-223.669	-29.454	-0.236	0.134
-222.655	111.777	-0.026	-0.031
-221.640	-200.000	-0.168	-0.000
-220.625	800.000	0.029	-0.114
-219.611	449.360	-0.081	0.178
-218.596	-200.000	-0.049	0.256
-217.582	-200.000	0.001	0.040
-216.567	-182.112	-0.186	-0.003
-215.552	49.575	0.066	-0.062
-214.538	16.325	0.120	0.095
-213.523	800.000	-0.136	0.428
-212.509	-200.000	-0.018	-0.250
-211.494	-200.000	-0.053	-0.388
-210.479	760.637	-0.010	0.028
-209.465	-64.155	-0.064	-0.026
-208.450	-22.155	-0.154	0.093
-207.436	269.624	-0.064	-0.112
-206.421	-88.661	-0.122	0.036
-205.406	-58.001	0.193	-0.084
-204.392	-197.549	0.398	0.002
-203.377	-47.157	0.219	0.106
-202.363	35.194	0.185	-0.162
-201.348	-200.000	0.055	-0.353
-200.333	-200.000	-0.015	-0.121
-199.319	-88.476	0.122	0.036
-198.304	-94.570	-0.417	0.113
-197.290	800.000	0.069	-0.210
-196.275	-25.543	-0.140	-0.082
-195.260	-200.000	0.024	-0.297
-194.246	-200.000	-0.198	-0.001
-193.231	-160.419	0.437	0.023
-192.217	-50.827	-0.259	0.121
-191.202	-92.813	0.172	0.048
-190.187	-18.865	-0.215	0.134
-189.173	709.145	0.019	-0.049
-188.158	-34.685	-0.249	0.135
-187.144	-167.920	0.466	0.018
-186.129	-86.829	-0.178	0.054
-185.114	597.660	-0.052	-0.129
-184.100	-148.496	-0.192	-0.016
-183.085	81.699	-0.117	-0.126
-182.071	-200.000	0.040	-0.278
-181.056	800.000	-0.021	-0.064
-180.042	-67.029	0.099	-0.039
-179.027	-35.684	0.176	-0.095
-178.012	267.456	0.114	-0.199
-176.998	7.046	-0.216	-0.160
-175.983	-140.945	-0.146	-0.015
-174.969	-163.345	0.038	-0.002
-173.954	340.835	0.087	0.168
-172.939	288.080	0.215	0.387
-171.925	58.723	-0.501	-0.490
-170.910	-84.912	-0.062	0.019
-169.896	63.770	-0.126	0.126
-168.881	-28.738	0.182	-0.104
-167.866	-98.556	0.216	-0.055
-166.852	0.014	-0.059	-0.042
-165.837	539.885	-0.077	-0.183
-164.823	280.474	-0.070	-0.124
-163.808	-45.018	-0.166	-0.082
-162.793	65.241	0.178	-0.179
-161.779	563.468	0.106	0.255
-160.764	399.760	-0.142	0.297
-159.750	499.049	0.116	0.265
-158.735	365.922	-0.067	0.134
-157.720	516.911	-0.080	0.186
-156.706	12.131	0.164	0.126
-155.691	-119.184	0.114	-0.020
-154.677	-150.328	-0.192	-0.015
-153.662	-49.629	-0.226	-0.107
-152.647	-177.902	-0.135	0.003
-151.633	-200.000	-0.081	-0.382
-150.618	10.357	0.124	-0.094
-149.604	-62.460	-0.174	0.072
-148.589	296.089	-0.157	-0.287
-147.574	-24.256	-0.099	-0.058
-146.560	129.310	0.171	-0.217
-145.545	166.448	0.101	-0.142
-144.531	-34.701	0.100	0.055
-143.516	82.436	-0.189	-0.204
-142.502	-52.199	-0.115	0.053
-141.487	-24.958	0.290	0.171
-140.472	264.313	-0.118	-0.204
-139.458	-70.303	0.202	-0.076
-138.443	-86.517	0.322	0.098
-137.429	147.454	-0.172	-0.230
-136.414	366.905	0.151	-0.302
-135.399	-200.000	-0.013	-0.076
-134.385	-2.976	0.356	0.247
-133.370	0.132	0.115	0.081
-132.356	-94.139	-0.198	-0.054
-131.341	-14.341	0.363	-0.232
-130.326	-102.559	0.281	0.067
-129.312	-8.626	0.183	-0.122
-128.297	-200.000	0.051	0.256
-127.283	-160.039	0.358	0.019
-126.268	152.834	0.132	0.180
-125.253	-200.000	0.050	0.317
-124.239	37.922	-0.156	-0.137
-123.224	174.153	0.086	0.124
-122.210	-80.582	0.160	0.053
