DTS Sentinel unit serial number:	SN413079Multiplexer serial number:	ORYXHardware model number:	OX4-SRSoftware version number:	ORYX F/W v4.00 Oryx Data Collector v3.7.2.0data status	okinstallation	princeton_trtdifferential loss correction	single-endedforward channel	channel 2reverse channel	N/Adate	2019/09/13time	05:51:34forward acquisition time	60.00reverse acquisition time	0.00gamma	496.2192k internal	0.2338k external	0.2338temperature offset calibration	1.0190default loss term (dB/km)	0.3790temperature slope calibration	1.0000multiplexer offset coefficient	1.0000multiplexer slope coefficient	1.0000fibre end	0.00T internal ref (°C)	26.17T ext. ref 1 (°C)	4.05T ext. ref 2 (°C)	20.96length (m)	temperature (°C)	Stokes	anti-Stokes-747.200	-5.574	-0.157	0.108
-746.185	227.471	-0.101	0.166
-745.171	659.485	0.034	-0.087
-744.156	-68.969	-0.148	0.057
-743.142	800.000	0.157	0.524
-742.127	-147.515	-0.302	-0.026
-741.112	-200.000	-0.056	-0.273
-740.098	-45.034	0.148	-0.074
-739.083	-45.750	0.219	-0.108
-738.069	800.000	0.086	0.313
-737.054	117.802	-0.166	0.205
-736.039	-101.314	-0.181	-0.044
-735.025	-126.239	0.087	-0.013
-734.010	42.320	-0.050	0.045
-732.996	-68.763	-0.184	-0.071
-731.981	730.718	-0.033	0.088
-730.966	-34.575	-0.350	0.192
-729.952	-200.000	0.061	-0.457
-728.937	85.566	-0.113	0.125
-727.923	149.733	-0.190	-0.259
-726.908	162.683	-0.049	0.069
-725.894	-52.876	-0.381	0.176
-724.879	515.348	0.124	-0.289
-723.864	-144.453	0.157	0.015
-722.850	-81.371	-0.236	-0.078
-721.835	800.000	0.131	-0.394
-720.821	-137.055	-0.074	-0.008
-719.806	41.033	-0.252	-0.229
-718.791	-77.820	0.322	0.112
-717.777	-60.969	-0.279	-0.118
-716.762	-200.000	-0.008	0.077
-715.748	-200.000	-0.029	0.161
-714.733	27.326	-0.400	0.337
-713.718	-79.774	-0.377	-0.127
-712.704	88.924	-0.118	-0.132
-711.689	-106.936	-0.231	-0.051
-710.675	-200.000	0.055	-0.257
-709.660	-92.924	0.222	-0.062
-708.645	800.000	0.008	0.025
-707.631	20.234	0.162	-0.131
-706.616	-200.000	0.014	0.269
-705.602	-115.888	-0.270	-0.050
-704.587	28.448	-0.066	0.056
-703.572	-88.703	-0.053	0.016
-702.558	-50.257	-0.150	-0.071
-701.543	-122.868	-0.306	-0.049
-700.529	-117.914	-0.082	0.015
-699.514	670.568	-0.045	-0.117
-698.499	102.539	-0.134	-0.157
-697.485	-173.032	0.272	0.008
-696.470	-4.425	-0.432	0.299
-695.456	-66.249	0.159	-0.064
-694.441	-19.895	-0.517	-0.320
-693.426	800.000	-0.097	-0.415
-692.412	-85.038	0.385	-0.121
-691.397	-200.000	-0.017	-0.272
-690.383	-200.000	-0.034	0.419
-689.368	-200.000	0.001	0.155
-688.354	15.593	0.391	-0.308
-687.339	409.755	0.131	-0.278
-686.324	-0.039	0.109	0.078
-685.310	-36.823	-0.109	0.059
-684.295	-61.967	0.175	-0.073
-683.281	-30.832	-0.081	-0.046
-682.266	-57.390	-0.202	-0.089
-681.251	-12.186	0.274	-0.179
-680.237	518.642	0.053	-0.125
-679.222	-106.253	0.180	-0.040
-678.208	173.337	-0.070	-0.101
-677.193	-200.000	-0.037	-0.203
-676.178	88.677	-0.169	0.189
-675.164	-161.335	-0.174	0.009
-674.149	449.251	0.033	-0.073
-673.135	800.000	-0.090	-0.328
-672.120	-200.000	0.001	-0.033
-671.105	224.778	-0.089	-0.144
-670.091	-63.278	0.178	0.074
-669.076	-64.281	-0.284	-0.116
-668.062	-200.000	0.004	-0.380
-667.047	-111.062	-0.390	0.080
-666.032	-16.208	-0.269	0.171
-665.018	-76.526	-0.161	0.057
-664.003	171.048	-0.156	0.224
-662.989	800.000	0.025	-0.107
-661.974	-88.445	0.121	-0.036
-660.959	-85.628	-0.286	0.089
-659.945	541.843	0.075	-0.179
-658.930	-90.921	0.063	-0.018
-657.916	-182.287	-0.224	-0.004
-656.901	800.000	-0.078	-0.307
-655.886	57.554	0.144	-0.141
-654.872	80.257	0.245	0.264
-653.857	-200.000	0.011	0.138
-652.843	-102.151	0.210	0.051
-651.828	-104.211	-0.138	0.032
-650.814	-25.905	-0.034	0.020
-649.799	62.569	0.244	0.243
-648.784	-200.000	-0.058	-0.457
-647.770	-80.557	0.206	-0.069
-646.755	-200.000	-0.020	0.234
-645.741	-94.782	-0.196	-0.053
-644.726	-28.998	0.201	-0.116
-643.711	-78.081	-0.290	-0.100
-642.697	-109.565	-0.303	0.064
-641.682	-31.113	-0.238	-0.134
-640.668	-200.000	-0.037	0.205
-639.653	273.517	-0.043	0.075
-638.638	-200.000	0.023	-0.160
-637.624	-100.669	-0.180	-0.044
-636.609	-200.000	0.027	-0.310
-635.595	-150.565	-0.165	-0.013
-634.580	-200.000	-0.039	0.175
-633.565	-200.000	-0.005	0.219
-632.551	-200.000	-0.015	0.103
-631.536	-123.835	0.288	-0.045
-630.522	0.907	0.425	0.304
-629.507	558.096	0.037	0.089
-628.492	49.608	0.093	0.088
-627.478	15.700	0.165	0.130
-626.463	81.763	-0.189	0.204
-625.449	677.258	-0.030	-0.079
-624.434	-57.870	0.329	-0.144
-623.419	43.506	-0.384	-0.351
-622.405	108.579	0.359	0.428
-621.390	-113.095	-0.146	0.029
-620.376	-88.781	0.144	-0.043
-619.361	185.370	-0.214	-0.317
-618.346	-200.000	-0.021	-0.158
-617.332	-65.307	0.259	-0.104
-616.317	-53.009	0.187	0.086
-615.303	176.561	0.092	-0.133
-614.288	-200.000	0.013	-0.195
-613.273	-200.000	-0.047	-0.236
-612.259	-0.695	-0.100	-0.071
-611.244	-48.249	-0.314	-0.151
-610.230	1.996	0.131	0.094
-609.215	-137.667	0.230	0.026
-608.201	-137.125	-0.160	-0.018
-607.186	-200.000	0.031	-0.358
-606.171	64.465	0.112	-0.113
-605.157	69.945	-0.120	0.123
-604.142	105.903	0.092	0.108
-603.128	228.936	0.047	0.076
-602.113	128.267	-0.060	-0.077
-601.098	-150.648	0.407	-0.031
-600.084	-129.812	-0.262	-0.036
-599.069	-200.000	-0.025	-0.109
-598.055	-19.398	-0.041	0.026
-597.040	-66.997	-0.495	-0.195
-596.025	800.000	-0.083	0.290
-595.011	-51.570	0.301	0.140
-593.996	-81.503	-0.313	-0.103
-592.982	5.291	-0.040	-0.029
-591.967	800.000	0.079	0.237
-590.952	118.905	0.200	-0.246
-589.938	-85.148	-0.056	0.017
-588.923	-63.216	-0.389	-0.160
-587.909	-200.000	-0.028	-0.290
-586.894	339.102	-0.141	0.274
-585.879	-10.448	0.238	0.158
-584.865	800.000	-0.051	0.155
-583.850	166.337	-0.159	0.224
-582.836	-200.000	0.016	0.233
-581.821	631.709	-0.064	-0.161
-580.806	98.006	-0.082	-0.094
-579.792	10.935	-0.106	-0.081
-578.777	-109.774	0.317	-0.066
-577.763	-200.000	-0.016	0.129
-576.748	-152.381	-0.126	0.009
-575.733	149.329	-0.187	-0.252
-574.719	-67.996	0.300	-0.117
-573.704	143.128	-0.083	-0.110
-572.690	35.365	-0.113	0.099
-571.675	44.053	-0.167	-0.152
-570.661	-58.906	0.347	0.149
-569.646	1.874	-0.230	-0.166
-568.631	-116.780	-0.111	0.020
-567.617	-40.355	0.178	-0.092
-566.602	229.244	0.132	-0.214
-565.588	-7.945	-0.362	-0.244
-564.573	32.112	-0.096	-0.082
-563.558	-22.176	-0.044	-0.027
-562.544	460.306	0.125	0.278
-561.529	34.276	-0.218	0.190
-560.515	155.391	-0.066	-0.090
-559.500	14.154	-0.114	0.088
-558.485	291.938	0.243	-0.440
-557.471	-195.432	0.227	-0.002
-556.456	119.128	-0.250	0.309
-555.442	-37.501	0.183	-0.097
-554.427	73.938	-0.222	-0.232
-553.412	304.136	-0.144	-0.267
-552.398	-2.889	0.260	0.181
-551.383	-115.140	0.070	-0.013
-550.369	35.753	0.066	-0.057
-549.354	800.000	-0.089	0.357
-548.339	202.359	-0.085	-0.131
-547.325	800.000	0.049	-0.208
-546.310	567.545	0.145	0.350
-545.296	418.916	0.026	-0.055
-544.281	-200.000	-0.017	-0.537
-543.266	-200.000	-0.025	-0.194
-542.252	25.405	-0.131	-0.108
-541.237	545.971	0.156	0.370
-540.223	800.000	0.043	-0.166
-539.208	800.000	-0.049	0.148
-538.193	-117.345	0.136	0.025
-537.179	-108.261	0.068	-0.015
-536.164	11.947	0.411	0.314
-535.150	-200.000	-0.047	0.224
-534.135	299.989	-0.145	0.265
-533.121	44.168	-0.097	-0.089
-532.106	-46.094	-0.274	-0.134
-531.091	-200.000	0.032	-0.297
-530.077	-200.000	-0.060	-0.328
-529.062	-200.000	-0.084	0.497
-528.048	97.764	-0.215	0.246
-527.033	-200.000	-0.010	-0.091
-526.018	107.948	0.057	0.067
-525.004	-200.000	0.008	-0.226
-523.989	-21.125	0.237	0.144
-522.975	199.021	0.221	0.336
-521.960	-96.467	-0.252	-0.066
-520.945	-200.000	0.009	-0.318
-519.931	800.000	0.095	0.363
-518.916	-90.630	0.099	0.028
-517.902	-63.934	-0.047	-0.019
-516.887	33.753	-0.075	0.065
-515.872	-17.498	-0.241	-0.151
-514.858	392.451	-0.186	0.385
-513.843	-200.000	0.022	-0.204
-512.829	30.884	0.195	-0.166
-511.814	-137.187	0.102	-0.012
-510.799	-14.471	-0.461	0.295
-509.785	475.702	0.084	-0.189
-508.770	227.344	-0.130	-0.210
-507.756	-96.774	0.135	0.035
-506.741	20.141	-0.033	-0.026
-505.726	-6.887	0.316	-0.213
-504.712	-133.437	-0.363	0.045
-503.697	138.675	0.162	0.211
-502.683	-21.208	0.226	0.137
-501.668	-200.000	-0.051	-0.246
-500.653	-37.703	-0.276	-0.146
-499.639	-123.379	0.254	0.040
-498.624	-60.111	-0.069	-0.029
-497.610	29.920	-0.213	0.181
-496.595	800.000	0.009	0.030
-495.581	108.533	0.061	-0.073
-494.566	-68.177	-0.599	0.232
-493.551	-200.000	0.004	0.204
-492.537	-129.499	-0.358	-0.049
-491.522	-153.668	0.071	0.005
-490.508	-147.150	-0.078	0.007
-489.493	-35.912	0.149	0.080
-488.478	-60.540	0.209	-0.088
-487.464	-25.175	-0.255	-0.150
-486.449	-200.000	0.042	0.292
-485.435	19.596	0.153	-0.122
-484.420	339.428	0.024	-0.047
-483.405	-165.303	0.230	0.010
-482.391	-136.784	-0.132	0.015
-481.376	480.487	-0.137	0.308
-480.362	-118.841	-0.042	-0.007
-479.347	-200.000	0.003	-0.342
-478.332	-200.000	0.036	-0.208
-477.318	-200.000	-0.000	0.125
-476.303	73.939	-0.183	0.191
-475.289	-12.857	0.137	0.089
-474.274	800.000	-0.101	0.282
-473.259	-193.408	0.359	0.003
-472.245	-85.492	0.227	-0.070
-471.230	-200.000	0.064	-0.382
-470.216	-22.907	-0.004	-0.002
-469.201	6.878	-0.058	-0.043
-468.186	-48.315	0.140	-0.067
-467.172	-91.837	-0.245	0.069
-466.157	-56.045	0.319	-0.141
-465.143	191.347	-0.144	-0.215
-464.128	-49.356	-0.211	0.100
-463.113	-148.811	-0.319	0.026
-462.099	185.655	0.117	-0.173
-461.084	-200.000	0.043	0.429
-460.070	-200.000	-0.010	0.099
-459.055	-70.491	0.228	0.086
-458.040	364.240	0.078	0.157
-457.026	169.983	-0.157	0.223
-456.011	-200.000	0.000	-0.124
-454.997	-120.265	-0.136	-0.023
-453.982	-75.257	-0.341	0.121
-452.968	-200.000	0.030	0.296
-451.953	504.902	-0.045	-0.103
-450.938	-69.500	-0.043	-0.016
-449.924	-70.715	0.316	0.118
-448.909	800.000	0.109	0.433
-447.895	-23.637	0.204	0.122
-446.880	-14.574	-0.023	-0.015
-445.865	-67.696	-0.081	0.031
-444.851	-89.434	-0.270	0.079
-443.836	-200.000	-0.058	-0.291
-442.822	-80.119	0.230	0.077
-441.807	293.369	-0.047	-0.085
-440.792	-200.000	-0.061	-0.443
-439.778	-64.365	-0.146	0.059
-438.763	-44.298	-0.149	0.074
-437.749	-99.992	-0.275	-0.068
-436.734	6.841	-0.302	-0.223
-435.719	-200.000	0.019	-0.193
-434.705	-87.898	0.044	0.013
-433.690	-61.467	0.182	-0.076
-432.676	-200.000	0.035	-0.217
-431.661	11.246	0.058	-0.044
-430.646	-58.214	0.021	0.009
-429.632	-200.000	-0.031	0.291
-428.617	285.400	-0.032	0.057
-427.603	-56.810	-0.093	-0.041
-426.588	104.868	-0.251	-0.294
-425.573	39.616	-0.093	-0.083
-424.559	156.516	0.117	0.161
-423.544	210.780	0.033	0.052
-422.530	800.000	0.109	-0.308
-421.515	-200.000	-0.029	-0.228
-420.500	-200.000	-0.000	0.031
-419.486	-71.990	-0.096	0.035
-418.471	-104.032	0.280	0.065
-417.457	-30.738	0.312	0.175
-416.442	-200.000	0.020	-0.339
-415.428	800.000	-0.062	-0.170
-414.413	797.491	-0.063	0.171
-413.398	800.000	-0.108	0.323
-412.384	67.015	-0.127	0.129
-411.369	164.378	-0.097	-0.136
-410.355	565.034	0.157	0.376
-409.340	-73.427	-0.154	-0.056
-408.325	-86.735	-0.096	0.029
-407.311	170.036	-0.063	-0.089
-406.296	-108.480	-0.141	-0.030
-405.282	800.000	-0.066	0.272
-404.267	800.000	0.073	0.260
-403.252	-4.043	0.293	-0.201
-402.238	477.684	0.114	-0.255
-401.223	-187.581	0.105	-0.001
-400.209	692.545	-0.090	0.235
-399.194	-56.981	-0.145	-0.064
-398.179	439.293	-0.085	-0.183
-397.165	601.187	0.171	-0.420
-396.150	8.838	0.194	-0.145
-395.136	321.341	0.136	0.257
-394.121	-200.000	-0.011	0.059
-393.106	-200.000	-0.013	0.086
-392.092	-162.107	0.379	-0.019
-391.077	635.582	0.027	-0.068
-390.063	-26.199	0.118	-0.069
-389.048	-121.403	-0.280	0.046
-388.033	-8.074	-0.250	0.167
-387.019	707.461	0.076	0.199
-386.004	-104.743	-0.410	0.093
-384.990	-75.166	0.187	-0.066
-383.975	-81.029	0.254	0.083
-382.960	-108.648	0.084	0.018
-381.946	44.762	0.099	-0.090
-380.931	-106.510	-0.345	0.076
-379.917	-200.000	0.017	-0.104
-378.902	-200.000	-0.045	-0.292
-377.888	387.485	0.051	0.105
-376.873	-200.000	-0.002	-0.164
-375.858	124.445	0.164	-0.205
-374.844	256.666	-0.069	0.118
-373.829	14.712	0.029	-0.022
-372.815	-200.000	-0.020	-0.195
-371.800	270.873	-0.075	0.130
-370.785	-200.000	0.008	-0.349
-369.771	-142.769	-0.266	-0.026
-368.756	-48.096	-0.152	-0.073
-367.742	-200.000	0.013	-0.157
-366.727	297.232	-0.196	-0.356
-365.712	-200.000	-0.012	-0.250
-364.698	-200.000	-0.015	-0.140
-363.683	209.009	-0.062	0.096
-362.669	-26.717	0.124	-0.072
-361.654	307.181	-0.046	-0.084
-360.639	-74.578	-0.045	-0.016
-359.625	-67.539	0.176	-0.068
-358.610	-84.959	-0.083	0.026
-357.596	-200.000	0.079	0.441
-356.581	-200.000	-0.016	0.250
-355.566	45.626	-0.203	-0.185
-354.552	11.924	-0.300	0.228
-353.537	98.154	-0.078	0.089
-352.523	-200.000	-0.025	-0.233
-351.508	-200.000	-0.001	0.129
-350.493	-12.565	0.213	0.137
-349.479	138.721	0.151	-0.196
-348.464	800.000	-0.062	-0.173
-347.450	775.921	-0.111	0.300
-346.435	-94.817	0.122	0.033
-345.420	58.607	-0.133	-0.129
-344.406	-122.317	0.348	0.056
-343.391	-164.134	-0.348	-0.016
-342.377	-154.345	-0.396	-0.026
-341.362	-200.000	-0.008	-0.093
-340.348	218.110	-0.136	-0.214
-339.333	-200.000	-0.257	-0.001
-338.318	89.963	-0.216	-0.239
-337.304	-26.102	0.251	-0.146
-336.289	800.000	0.163	0.524
-335.275	-113.972	-0.245	-0.047
-334.260	3.283	-0.143	-0.103
-333.245	-198.140	-0.232	-0.001
-332.231	-200.000	0.043	-0.210
-331.216	29.001	0.240	-0.201
-330.202	800.000	-0.026	-0.077
-329.187	369.977	-0.112	0.223
-328.172	-80.336	0.263	-0.087
-327.158	-127.631	0.083	0.012
-326.143	-105.299	0.242	0.054
-325.129	800.000	0.049	-0.152
-324.114	116.525	0.168	-0.203
-323.099	-87.709	0.085	-0.025
-322.085	19.557	-0.158	-0.126
-321.070	-144.645	0.122	-0.011
-320.056	800.000	0.041	-0.164
-319.041	-76.367	-0.217	0.075
-318.026	-117.958	0.400	-0.071
-317.012	-136.661	0.170	0.019
-315.997	76.523	0.285	0.298
-314.983	160.291	-0.025	-0.034
-313.968	800.000	0.052	-0.220
-312.953	-87.197	0.072	-0.022
-311.939	764.393	-0.113	0.302
-310.924	-200.000	0.012	0.279
-309.910	-103.694	0.264	-0.061
-308.895	-151.877	-0.066	0.005
-307.880	-104.326	0.188	-0.043
-306.866	-200.000	-0.008	-0.225
-305.851	800.000	-0.012	-0.045
-304.837	-200.000	-0.014	0.144
-303.822	475.037	0.146	0.326
-302.807	-43.558	-0.069	0.035
-301.793	-1.712	0.105	-0.073
-300.778	348.934	0.101	0.196
-299.764	142.951	0.160	0.210
-298.749	266.094	-0.212	-0.365
-297.735	299.986	0.035	-0.063
-296.720	-200.000	0.050	0.261
-295.705	-130.708	0.167	0.022
-294.691	22.861	-0.054	0.044
-293.676	495.449	0.207	0.468
-292.662	-200.000	0.003	0.151
-291.647	-115.863	-0.009	0.002
-290.632	-200.000	0.049	0.363
-289.618	-200.000	0.032	0.175
-288.603	-83.717	-0.143	0.045
-287.589	751.865	-0.059	-0.158
-286.574	77.774	0.186	-0.195
-285.559	-62.618	0.366	-0.150
-284.545	800.000	0.084	-0.265
-283.530	-48.778	-0.186	-0.088
-282.516	-137.247	-0.238	0.027
-281.501	-149.395	0.184	-0.014
-280.486	149.754	-0.083	0.112
-279.472	501.451	-0.025	0.057
-278.457	-25.453	0.108	0.063
-277.443	-200.000	0.022	-0.222
-276.428	-9.434	0.022	-0.015
-275.413	-23.682	0.310	-0.183
-274.399	-181.853	0.275	0.005
-273.384	167.872	-0.262	0.367
-272.370	-200.000	-0.057	-0.248
-271.355	-116.382	0.085	0.016
-270.340	307.456	0.050	0.092
-269.326	800.000	0.073	-0.266
-268.311	-200.000	-0.079	-0.367
-267.297	-111.668	-0.080	0.016
-266.282	-200.000	-0.025	0.214
-265.267	800.000	-0.096	-0.315
-264.253	-200.000	0.058	-0.312
-263.238	516.054	-0.127	0.292
-262.224	-48.577	-0.199	-0.094
-261.209	-200.000	0.041	0.280
-260.195	-200.000	-0.094	-0.000
-259.180	-200.000	0.019	-0.290
-258.165	-200.000	0.330	-0.000
-257.151	-125.459	-0.283	0.042
-256.136	800.000	0.085	0.334
-255.122	86.142	0.145	-0.158
-254.107	-123.615	-0.353	-0.055
-253.092	-7.678	0.265	-0.176
-252.078	800.000	-0.014	-0.058
-251.063	-55.890	0.322	-0.142
-250.049	-120.209	-0.175	0.029
-249.034	-17.154	-0.262	0.163
-248.019	-116.800	-0.137	0.025
-247.005	-150.470	0.460	-0.035
-245.990	-200.000	-0.001	0.660
-244.976	15.437	-0.188	-0.145
-243.961	-173.419	-0.105	-0.003
-242.946	57.151	0.145	0.139
-241.932	-145.002	-0.139	-0.012
-240.917	-65.138	0.463	0.184
-239.903	149.356	-0.214	0.285
-238.888	277.008	0.060	0.105
-237.873	313.851	0.123	0.228
-236.859	114.550	0.223	0.267
-235.844	-200.000	-0.066	0.298
-234.830	-25.491	0.133	0.077
-233.815	112.278	-0.194	-0.231
-232.800	-56.086	-0.295	0.129
-231.786	6.465	0.116	-0.085
-230.771	-25.354	-0.123	-0.071
-229.757	132.810	0.092	0.117
-228.742	-0.814	0.134	0.093
-227.727	131.374	0.270	-0.341
-226.713	556.062	0.186	-0.440
-225.698	-123.628	0.360	0.056
-224.684	-23.575	-0.414	0.244
-223.669	800.000	-0.030	0.108
-222.655	-132.806	-0.427	0.054
-221.640	-200.000	0.024	0.351
-220.625	-200.000	0.026	-0.154
-219.611	188.388	0.103	0.152
-218.596	176.956	0.108	0.154
-217.582	0.539	-0.050	-0.035
-216.567	800.000	-0.076	-0.297
-215.552	60.573	0.154	0.150
-214.538	800.000	-0.028	0.103
-213.523	402.322	-0.129	-0.266
-212.509	800.000	0.046	-0.166
-211.494	-200.000	-0.005	-0.071
-210.479	-0.260	-0.165	0.115
-209.465	152.194	0.110	0.148
-208.450	800.000	0.028	-0.085
-207.436	-200.000	-0.071	0.448
-206.421	-82.208	0.422	-0.135
-205.406	218.456	-0.051	-0.080
-204.392	-28.985	-0.204	-0.115
-203.377	363.348	-0.068	-0.134
-202.363	30.824	-0.157	-0.132
-201.348	-86.749	-0.312	0.094
-200.333	-93.253	0.115	-0.031
-199.319	161.510	-0.055	0.076
-198.304	456.300	-0.086	-0.188
-197.290	-47.451	0.255	-0.122
-196.275	-0.862	0.127	0.088
-195.260	100.927	-0.220	0.251
-194.246	84.634	0.142	0.152
-193.231	117.804	0.117	-0.142
-192.217	108.891	-0.174	0.204
-191.202	-200.000	-0.044	-0.298
-190.187	126.758	-0.084	0.105
-189.173	-133.156	0.095	0.012
-188.158	108.559	0.213	-0.250
-187.144	346.224	0.114	-0.221
-186.129	-42.073	0.202	-0.101
-185.114	37.219	0.039	-0.034
-184.100	-15.495	0.171	0.107
-183.085	-146.650	-0.118	0.010
-182.071	-200.000	-0.021	0.100
-181.056	-97.936	0.496	0.126
-180.042	-18.972	-0.050	-0.030
-179.027	-19.496	0.107	0.065
-178.012	-194.490	-0.100	-0.001
-176.998	-27.948	-0.106	-0.061
-175.983	483.094	-0.051	0.115
-174.969	800.000	0.034	-0.126
-173.954	-200.000	-0.002	0.032
-172.939	-16.252	0.238	0.148
-171.925	72.738	-0.165	-0.169
-170.910	204.479	0.155	-0.235
-169.896	38.512	-0.164	0.144
-168.881	-200.000	0.030	-0.510
-167.866	237.375	-0.021	-0.034
-166.852	31.604	0.163	0.137
-165.837	-98.122	0.292	0.074
-164.823	475.132	-0.162	0.359
-163.808	-161.483	-0.092	-0.005
-162.793	16.718	0.028	-0.022
-161.779	125.721	-0.223	0.277
-160.764	-200.000	-0.017	0.457
-159.750	-200.000	0.010	-0.120
-158.735	-200.000	0.042	-0.208
-157.720	-200.000	0.013	0.423
-156.706	62.048	-0.180	-0.176
-155.691	-200.000	0.012	-0.087
-154.677	45.600	-0.050	0.046
-153.662	311.523	-0.110	0.203
-152.647	45.550	0.179	0.163
-151.633	511.065	0.153	0.349
-150.618	104.709	0.236	-0.273
-149.604	340.954	0.047	0.090
-148.589	-115.220	0.078	-0.014
-147.574	-106.151	-0.340	0.075
-146.560	-188.494	0.171	-0.002
-145.545	20.699	-0.076	0.060
-144.531	60.106	0.091	-0.088
-143.516	0.564	-0.268	-0.188
-142.502	162.629	-0.183	-0.251
-141.487	-75.556	0.201	-0.070
-140.472	-48.603	0.090	-0.042
-139.458	-200.000	0.050	0.311
-138.443	11.618	0.067	0.050
-137.429	800.000	0.024	0.081
-136.414	156.381	-0.122	-0.166
-135.399	-81.824	-0.033	-0.011
-134.385	25.405	-0.133	0.108
-133.370	-200.000	-0.004	0.132
-132.356	-162.383	0.076	0.004
-131.341	-140.121	-0.154	0.016
-130.326	-63.435	-0.287	0.116
-129.312	102.605	-0.210	-0.241
-128.297	-200.000	0.035	-0.464
-127.283	-111.673	0.076	-0.015
-126.268	-65.071	0.140	-0.055
-125.253	26.396	-0.043	-0.035
-124.239	-167.290	0.090	-0.004
-123.224	-10.937	-0.250	0.161
