DTS Sentinel unit serial number:	SN413079Multiplexer serial number:	ORYXHardware model number:	OX4-SRSoftware version number:	ORYX F/W v4.00 Oryx Data Collector v3.7.2.0data status	okinstallation	princeton_trtdifferential loss correction	single-endedforward channel	channel 2reverse channel	N/Adate	2019/09/10time	20:25:11forward acquisition time	60.00reverse acquisition time	0.00gamma	496.2192k internal	0.2330k external	0.2330temperature offset calibration	0.9944default loss term (dB/km)	0.3790temperature slope calibration	1.0000multiplexer offset coefficient	1.0000multiplexer slope coefficient	1.0000fibre end	0.00T internal ref (°C)	32.11T ext. ref 1 (°C)	-0.31T ext. ref 2 (°C)	25.27length (m)	temperature (°C)	Stokes	anti-Stokes-747.200	800.000	0.052	-0.224
-746.185	-200.000	0.028	0.274
-745.171	-21.320	0.115	-0.071
-744.156	81.336	-0.099	0.108
-743.142	-53.747	0.201	0.092
-742.127	800.000	0.097	0.279
-741.112	-6.430	-0.097	0.067
-740.098	-73.065	0.167	0.062
-739.083	800.000	-0.020	-0.074
-738.069	-26.776	0.194	0.114
-737.054	265.438	0.063	0.110
-736.039	-154.554	-0.280	-0.019
-735.025	-81.368	0.085	0.028
-734.010	-6.952	-0.115	-0.078
-732.996	64.685	0.124	-0.126
-731.981	6.963	0.230	0.173
-730.966	26.712	0.156	-0.132
-729.952	-55.837	0.040	0.018
-728.937	125.964	0.005	-0.007
-727.923	-106.180	0.258	0.058
-726.908	-72.391	-0.344	0.128
-725.894	-31.290	0.373	-0.211
-724.879	-123.914	-0.424	-0.067
-723.864	-65.770	0.154	0.062
-722.850	-111.475	-0.197	-0.040
-721.835	-167.205	-0.268	-0.011
-720.821	225.598	0.162	0.264
-719.806	114.882	0.152	0.187
-718.791	69.368	-0.056	0.058
-717.777	67.982	0.111	-0.114
-716.762	-200.000	-0.026	0.143
-715.748	204.723	0.173	0.270
-714.733	-83.387	-0.138	-0.045
-713.718	800.000	0.072	-0.218
-712.704	172.497	0.087	0.126
-711.689	-89.698	-0.204	-0.060
-710.675	-25.514	0.043	-0.025
-709.660	199.265	0.104	0.160
-708.645	518.662	-0.038	0.089
-707.631	-103.912	0.123	0.029
-706.616	373.485	0.185	0.379
-705.602	83.183	0.086	-0.094
-704.587	365.319	-0.037	-0.075
-703.572	800.000	-0.035	-0.104
-702.558	-107.850	-0.103	0.023
-701.543	-63.537	0.128	-0.053
-700.529	459.410	0.039	0.088
-699.514	598.859	0.041	0.102
-698.499	-83.763	-0.148	0.047
-697.485	-36.046	0.112	-0.061
-696.470	31.861	-0.150	0.130
-695.456	-168.021	-0.235	0.009
-694.441	-18.276	-0.082	0.051
-693.426	800.000	0.016	0.065
-692.412	-30.960	0.218	-0.124
-691.397	-160.199	0.223	-0.012
-690.383	-3.397	-0.154	-0.108
-689.368	82.567	-0.153	0.167
-688.354	11.764	-0.223	0.172
-687.339	-18.705	-0.145	-0.091
-686.324	28.790	0.233	-0.199
-685.310	-85.182	-0.057	-0.018
-684.295	104.984	0.205	-0.243
-683.281	-127.118	-0.610	0.090
-682.266	-200.000	-0.012	-0.280
-681.251	-38.482	0.104	0.055
-680.237	-82.117	-0.140	0.046
-679.222	-200.000	-0.002	-0.080
-678.208	251.684	-0.222	0.379
-677.193	-109.349	0.453	0.096
-676.178	-39.466	0.186	-0.098
-675.164	25.530	0.087	-0.072
-674.149	800.000	-0.051	-0.215
-673.135	96.587	-0.171	0.197
-672.120	800.000	0.047	0.171
-671.105	242.692	0.117	-0.196
-670.091	-82.797	-0.270	0.088
-669.076	406.127	0.060	-0.127
-668.062	-18.009	-0.433	-0.272
-667.047	-52.776	-0.385	-0.178
-666.032	-200.000	-0.027	-0.227
-665.018	-123.905	-0.160	0.025
-664.003	800.000	-0.082	0.312
-662.989	-200.000	0.009	0.178
-661.974	-19.162	0.268	-0.167
-660.959	197.711	-0.088	0.134
-659.945	-200.000	0.019	0.115
-658.930	-0.404	-0.160	0.114
-657.916	108.245	0.152	0.181
-656.901	800.000	-0.099	0.333
-655.886	-153.093	0.175	0.012
-654.872	-165.154	-0.088	0.004
-653.857	800.000	0.119	-0.407
-652.843	48.159	-0.076	-0.071
-651.828	171.690	-0.063	-0.091
-650.814	376.185	-0.136	-0.278
-649.799	-107.398	-0.391	0.086
-648.784	-107.014	-0.111	-0.025
-647.770	-183.550	-0.477	-0.008
-646.755	98.956	-0.307	0.356
-645.741	72.382	-0.066	0.069
-644.726	39.209	-0.153	0.138
-643.711	-200.000	0.084	-0.395
-642.697	-200.000	-0.031	0.232
-641.682	-200.000	0.021	0.123
-640.668	29.196	-0.200	-0.170
-639.653	-45.968	-0.124	-0.061
-638.638	-85.904	-0.272	-0.085
-637.624	-200.000	0.014	-0.097
-636.609	145.579	-0.234	0.314
-635.595	-174.388	-0.296	-0.009
-634.580	-81.697	0.295	0.097
-633.565	-3.800	-0.088	-0.061
-632.551	-10.489	0.054	-0.036
-631.536	-200.000	0.027	-0.466
-630.522	206.647	-0.141	-0.220
-629.507	800.000	0.054	0.208
-628.492	239.767	-0.061	-0.102
-627.478	37.854	-0.135	-0.120
-626.463	447.549	-0.189	-0.416
-625.449	-200.000	-0.010	-0.104
-624.434	-172.160	-0.210	-0.007
-623.419	-10.521	0.138	-0.091
-622.405	800.000	0.084	-0.309
-621.390	800.000	0.061	-0.196
-620.376	-46.380	-0.191	-0.094
-619.361	205.797	-0.323	0.504
-618.346	-3.065	0.158	-0.111
-617.332	-43.267	-0.227	0.115
-616.317	-33.375	0.207	-0.115
-615.303	-200.000	0.018	0.192
-614.288	800.000	-0.068	0.268
-613.273	-175.920	0.237	-0.006
-612.259	14.134	-0.024	0.019
-611.244	-37.747	-0.218	0.116
-610.230	121.229	-0.108	-0.135
-609.215	386.377	-0.057	-0.118
-608.201	322.000	-0.112	-0.214
-607.186	-10.680	-0.190	-0.126
-606.171	800.000	-0.085	-0.252
-605.157	301.216	-0.072	0.133
-604.142	-200.000	0.032	-0.152
-603.128	342.420	0.226	0.443
-602.113	54.131	0.067	0.065
-601.098	-41.282	0.079	-0.041
-600.084	62.083	-0.047	-0.047
-599.069	-200.000	-0.109	-0.575
-598.055	23.425	0.155	-0.128
-597.040	-32.593	-0.184	0.102
-596.025	-46.615	-0.158	-0.078
-595.011	-109.560	0.398	0.084
-593.996	42.876	0.031	0.029
-592.982	-200.000	-0.017	0.184
-591.967	143.993	-0.101	0.135
-590.952	-85.055	0.247	0.077
-589.938	549.221	-0.136	0.326
-588.923	-200.000	0.030	0.297
-587.909	56.372	-0.199	-0.194
-586.894	-0.538	0.171	0.122
-585.879	161.649	-0.107	0.149
-584.865	-132.392	0.236	0.030
-583.850	-61.880	0.176	-0.074
-582.836	-200.000	-0.041	-0.181
-581.821	196.261	0.171	0.261
-580.806	791.038	0.095	0.260
-579.792	-99.193	0.205	0.052
-578.777	42.904	0.154	0.141
-577.763	800.000	0.125	0.369
-576.748	87.794	0.145	0.161
-575.733	128.800	-0.106	-0.136
-574.719	-109.856	0.258	-0.054
-573.704	78.849	-0.281	0.300
-572.690	-200.000	-0.018	-0.188
-571.675	-77.763	0.204	-0.070
-570.661	800.000	-0.065	-0.253
-569.646	280.835	0.104	-0.187
-568.631	-1.992	0.218	0.154
-567.617	-117.219	0.348	-0.063
-566.602	-97.648	-0.519	0.134
-565.588	8.746	-0.054	-0.041
-564.573	-114.819	-0.126	-0.024
-563.558	-200.000	-0.047	0.221
-562.544	156.390	-0.194	0.268
-561.529	800.000	-0.061	0.243
-560.515	800.000	-0.063	0.200
-559.500	-200.000	-0.023	-0.348
-558.485	-200.000	0.053	0.321
-557.471	-151.597	-0.264	0.019
-556.456	195.544	0.094	-0.143
-555.442	77.703	-0.189	-0.201
-554.427	39.776	-0.178	0.160
-553.412	-200.000	-0.010	-0.104
-552.398	-60.189	-0.268	0.114
-551.383	-200.000	-0.029	-0.358
-550.369	-116.659	-0.234	0.043
-549.354	163.297	-0.109	-0.153
-548.339	163.086	-0.107	-0.150
-547.325	-6.403	-0.153	0.104
-546.310	-200.000	-0.013	0.221
-545.296	800.000	-0.059	-0.258
-544.281	80.701	-0.132	-0.142
-543.266	-200.000	-0.027	-0.194
-542.252	800.000	-0.054	0.164
-541.237	-200.000	-0.021	0.135
-540.223	-97.217	0.253	0.066
-539.208	-124.918	0.391	0.060
-538.193	13.704	-0.277	0.215
-537.179	800.000	0.081	0.280
-536.164	65.037	0.226	-0.228
-535.150	106.360	0.274	0.324
-534.135	520.266	0.098	0.228
-533.121	90.265	0.090	-0.100
-532.106	573.050	0.125	-0.303
-531.091	234.342	-0.118	-0.195
-530.077	-123.436	0.417	-0.066
-529.062	571.617	-0.043	-0.104
-528.048	-103.314	-0.061	-0.014
-527.033	242.434	-0.148	-0.248
-526.018	-7.767	0.141	-0.095
-525.004	-102.338	0.207	0.050
-523.989	-103.497	0.206	-0.048
-522.975	15.107	-0.192	-0.150
-521.960	-63.687	-0.216	-0.088
-520.945	-12.194	0.124	-0.081
-519.931	67.425	-0.073	0.074
-518.916	-200.000	0.014	0.285
-517.902	33.610	-0.208	-0.180
-516.887	800.000	-0.111	-0.376
-515.872	92.956	-0.239	-0.269
-514.858	-200.000	-0.064	0.338
-513.843	-64.469	0.092	-0.037
-512.829	-200.000	-0.001	-0.529
-511.814	-94.382	-0.093	0.025
-510.799	87.777	-0.098	-0.108
-509.785	-63.830	0.099	0.040
-508.770	800.000	0.035	-0.139
-507.756	-61.946	0.364	0.152
-506.741	-53.771	-0.051	-0.023
-505.726	-23.037	0.085	0.051
-504.712	-6.641	0.210	0.143
-503.697	-28.425	0.118	0.068
-502.683	440.180	0.062	0.136
-501.668	-127.298	0.232	-0.034
-500.653	189.149	0.151	0.225
-499.639	-200.000	0.136	-0.000
-498.624	-200.000	-0.021	0.111
-497.610	196.042	0.039	0.059
-496.595	-35.139	0.028	-0.015
-495.581	-107.373	0.125	0.027
-494.566	444.314	0.045	0.098
-493.551	-89.934	0.056	-0.016
-492.537	-108.055	-0.159	-0.034
-491.522	800.000	-0.073	-0.310
-490.508	-32.093	0.239	0.133
-489.493	-80.957	-0.293	-0.097
-488.478	-177.100	0.127	0.003
-487.464	-178.192	-0.186	0.004
-486.449	46.722	-0.165	-0.153
-485.435	643.498	0.069	-0.175
-484.420	-74.322	0.163	0.059
-483.405	39.057	-0.073	0.065
-482.391	62.877	-0.049	0.049
-481.376	-200.000	-0.003	0.070
-480.362	-59.421	-0.201	0.086
-479.347	347.663	0.135	-0.265
-478.332	-60.414	0.391	0.166
-477.318	-200.000	0.027	-0.245
-476.303	255.300	-0.158	-0.271
-475.289	-188.226	-0.192	0.002
-474.274	800.000	-0.039	-0.120
-473.259	-24.138	-0.199	0.119
-472.245	-103.425	-0.073	-0.017
-471.230	239.075	-0.122	-0.202
-470.216	-74.137	-0.092	-0.033
-469.201	-54.736	0.474	-0.213
-468.186	456.110	0.171	-0.377
-467.172	127.734	-0.121	-0.153
-466.157	462.625	-0.016	-0.036
-465.143	-200.000	-0.030	-0.260
-464.128	800.000	-0.087	0.298
-463.113	256.655	0.141	0.241
-462.099	47.442	-0.257	-0.239
-461.084	72.080	-0.078	0.081
-460.070	-88.851	0.035	-0.010
-459.055	105.530	0.248	-0.292
-458.040	246.970	-0.181	-0.305
-457.026	-100.020	-0.350	-0.087
-456.011	79.106	-0.216	0.231
-454.997	-140.020	0.204	-0.021
-453.982	-200.000	-0.004	-0.063
-452.968	227.636	-0.156	0.253
-451.953	-8.649	0.196	-0.131
-450.938	-82.692	-0.308	0.099
-449.924	38.076	0.111	0.098
-448.909	-107.032	-0.321	0.071
-447.895	-122.217	0.013	0.002
-446.880	-52.683	-0.232	0.107
-445.865	-200.000	-0.012	-0.147
-444.851	327.215	-0.197	-0.375
-443.836	516.364	0.142	-0.330
-442.822	8.848	0.139	-0.104
-441.807	-132.365	-0.248	-0.032
-440.792	455.288	-0.040	-0.088
-439.778	65.395	-0.156	0.157
-438.763	327.809	0.082	-0.157
-437.749	-148.594	-0.348	0.028
-436.734	-44.627	0.117	-0.058
-435.719	349.884	-0.050	-0.099
-434.705	242.514	0.080	0.134
-433.690	-61.790	0.042	-0.018
-432.676	-200.000	-0.063	-0.359
-431.661	-120.976	-0.096	-0.016
-430.646	800.000	0.105	0.297
-429.632	-140.273	-0.104	0.011
-428.617	273.369	-0.251	-0.441
-427.603	189.696	0.080	0.120
-426.588	359.504	0.154	0.306
-425.573	-65.308	0.270	0.108
-424.559	-45.791	-0.205	-0.101
-423.544	573.725	0.114	-0.277
-422.530	118.159	0.166	0.204
-421.515	217.100	0.112	0.177
-420.500	-23.655	-0.295	0.176
-419.486	241.400	0.131	0.218
-418.471	477.945	0.120	-0.269
-417.457	-25.548	-0.302	0.178
-416.442	-77.104	0.187	0.065
-415.428	-66.391	0.229	0.090
-414.413	-63.399	0.251	-0.102
-413.398	-60.290	-0.149	0.063
-412.384	-67.168	0.178	-0.070
-411.369	-154.242	-0.058	0.004
-410.355	-90.092	0.190	-0.055
-409.340	-3.225	-0.206	-0.143
-408.325	0.405	-0.225	0.160
-407.311	-123.149	0.080	-0.013
-406.296	-200.000	-0.011	-0.106
-405.282	800.000	-0.089	-0.299
-404.267	800.000	0.036	0.118
-403.252	337.036	-0.110	-0.213
-402.238	-60.165	-0.421	-0.178
-401.223	544.072	-0.087	-0.206
-400.209	-88.276	0.106	-0.031
-399.194	104.944	0.159	0.187
-398.179	18.773	-0.080	-0.064
-397.165	800.000	0.091	0.322
-396.150	12.476	0.092	0.071
-395.136	-42.952	0.334	0.168
-394.121	-200.000	-0.014	0.351
-393.106	-133.397	-0.163	-0.020
-392.092	-10.742	-0.196	0.129
-391.077	-1.959	0.206	-0.144
-390.063	-200.000	0.001	0.040
-389.048	-55.060	-0.289	0.129
-388.033	-164.749	-0.155	-0.007
-387.019	127.568	0.174	0.219
-386.004	-0.367	0.158	0.111
-384.990	156.220	0.236	0.324
-383.975	78.942	0.028	-0.029
-382.960	-200.000	-0.021	-0.287
-381.946	800.000	-0.051	0.145
-380.931	243.306	-0.180	-0.300
-379.917	-45.699	0.287	0.141
-378.902	346.870	-0.089	-0.173
-377.888	-200.000	-0.005	0.158
-376.873	-53.797	-0.188	0.085
-375.858	-16.446	-0.213	-0.134
-374.844	418.246	0.053	0.113
-373.829	160.629	0.122	0.169
-372.815	281.151	-0.110	-0.195
-371.800	-67.729	0.032	-0.013
-370.785	-200.000	-0.014	0.247
-369.771	-200.000	0.017	-0.240
-368.756	-41.393	0.120	0.061
-367.742	177.535	0.113	-0.163
-366.727	52.910	0.121	0.115
-365.712	-41.234	0.180	-0.092
-364.698	-71.561	0.139	-0.051
-363.683	206.363	0.098	-0.151
-362.669	800.000	0.010	0.038
-361.654	-94.613	0.278	0.075
-360.639	-153.496	0.412	-0.028
-359.625	-116.578	0.084	0.015
-358.610	227.459	0.058	-0.094
-357.596	-114.444	0.196	0.037
-356.581	800.000	0.025	0.081
-355.566	-41.137	0.145	-0.074
-354.552	-200.000	0.017	-0.161
-353.537	-98.196	0.212	-0.054
-352.523	800.000	0.050	0.205
-351.508	0.899	0.271	-0.193
-350.493	86.376	-0.134	0.147
-349.479	595.382	0.068	-0.166
-348.464	79.939	0.069	0.073
-347.450	-21.057	-0.020	-0.012
-346.435	-200.000	0.022	0.307
-345.420	7.416	-0.192	0.142
-344.406	226.026	-0.064	-0.103
-343.391	800.000	-0.019	-0.080
-342.377	800.000	0.069	0.270
-341.362	-124.284	0.107	0.017
-340.348	-200.000	-0.074	0.393
-339.333	-200.000	-0.027	0.153
-338.318	-99.175	-0.263	-0.066
-337.304	125.623	-0.082	-0.102
-336.289	101.324	0.158	-0.182
-335.275	800.000	-0.099	0.418
-334.260	756.458	-0.075	0.201
-333.245	-13.401	0.284	0.183
-332.231	185.209	-0.023	-0.034
-331.216	-159.885	0.187	0.010
-330.202	800.000	-0.026	-0.099
-329.187	120.714	-0.134	-0.164
-328.172	-200.000	0.043	-0.258
-327.158	-200.000	-0.040	0.189
-326.143	-101.319	-0.378	0.091
-325.129	-29.320	-0.259	0.147
-324.114	-42.905	0.069	0.034
-323.099	-200.000	0.034	0.266
-322.085	-11.201	0.185	0.121
-321.070	72.267	-0.188	0.194
-320.056	-200.000	-0.051	0.310
-319.041	-200.000	0.013	0.235
-318.026	-90.801	-0.146	-0.042
-317.012	295.903	0.118	0.215
-315.997	-157.637	-0.061	0.004
-314.983	-200.000	-0.064	0.316
-313.968	-118.996	0.213	-0.037
-312.953	148.670	-0.165	0.221
-311.939	46.847	0.194	0.179
-310.924	87.812	0.152	0.167
-309.910	-96.224	0.045	0.012
-308.895	167.328	-0.068	-0.096
-307.880	800.000	-0.081	-0.342
-306.866	-176.433	0.044	-0.001
-305.851	-86.133	0.017	-0.005
-304.837	-98.043	0.302	-0.077
-303.822	130.443	-0.143	0.181
-302.807	800.000	0.063	0.173
-301.793	-150.753	-0.266	-0.020
-300.778	-124.248	-0.357	0.055
-299.764	-143.999	0.190	0.018
-298.749	-114.567	-0.197	0.037
-297.735	-33.392	0.327	-0.179
-296.720	-200.000	-0.050	-0.246
-295.705	-200.000	0.007	0.120
-294.691	-200.000	0.091	0.461
-293.676	-164.701	0.034	0.002
-292.662	-177.613	0.084	-0.002
-291.647	528.405	0.064	-0.149
-290.632	-29.991	-0.094	-0.053
-289.618	176.705	-0.046	-0.066
-288.603	169.699	-0.085	0.121
-287.589	-200.000	0.011	-0.254
-286.574	209.766	-0.172	-0.267
-285.559	-78.959	0.214	-0.072
-284.545	-200.000	0.008	-0.177
-283.530	479.993	0.195	-0.436
-282.516	66.414	-0.279	-0.280
-281.501	182.449	0.048	-0.070
-280.486	-87.191	0.178	-0.053
-279.472	279.392	0.076	-0.134
-278.457	-66.953	0.230	-0.090
-277.443	800.000	-0.082	0.355
-276.428	-64.438	0.124	0.050
-275.413	800.000	0.091	0.281
-274.399	115.541	-0.209	-0.253
-273.384	800.000	-0.008	0.025
-272.370	-194.232	0.269	-0.002
-271.355	-7.774	-0.234	-0.156
-270.340	800.000	-0.056	-0.204
-269.326	-82.481	0.170	-0.055
-268.311	-162.377	0.358	0.018
-267.297	-18.786	-0.118	0.072
-266.282	451.932	0.018	0.040
-265.267	-40.784	-0.122	0.063
-264.253	300.946	0.135	0.246
-263.238	31.036	0.352	-0.298
-262.224	409.534	-0.085	-0.178
-261.209	800.000	0.052	0.148
-260.195	-200.000	-0.016	0.190
-259.180	-200.000	-0.005	-0.292
-258.165	-200.000	-0.008	0.437
-257.151	114.846	0.140	0.169
-256.136	-84.732	-0.328	0.102
-255.122	-62.509	-0.338	-0.139
-254.107	265.376	-0.113	0.194
-253.092	148.146	0.181	0.241
-252.078	291.645	-0.113	-0.203
-251.063	-97.480	0.134	0.034
-250.049	-32.035	-0.267	-0.148
-249.034	-200.000	0.013	-0.184
-248.019	-158.179	0.289	-0.017
-247.005	-118.582	0.434	0.076
-245.990	109.685	0.160	0.190
-244.976	384.706	-0.089	0.180
-243.961	-33.924	0.381	-0.207
-242.946	48.476	-0.161	-0.149
-241.932	-26.119	0.062	0.036
-240.917	-200.000	-0.007	-0.055
-239.903	-200.000	-0.073	-0.433
-238.888	39.868	0.260	-0.230
-237.873	-150.198	-0.240	-0.018
-236.859	134.986	-0.059	0.076
-235.844	34.799	-0.244	-0.211
-234.830	-200.000	-0.000	0.011
-233.815	-66.826	-0.295	0.115
-232.800	248.803	-0.137	-0.228
-231.786	-16.350	0.209	-0.131
-230.771	800.000	0.065	0.280
-229.757	-13.941	-0.162	-0.103
-228.742	346.427	0.132	0.257
-227.727	-200.000	0.053	-0.353
-226.713	94.247	-0.214	0.239
-225.698	709.315	-0.055	-0.144
-224.684	407.024	-0.133	0.278
-223.669	29.485	-0.047	0.039
-222.655	800.000	0.103	0.294
-221.640	21.319	0.234	-0.188
-220.625	-89.376	-0.216	-0.063
-219.611	223.924	0.127	-0.202
-218.596	-200.000	-0.057	0.256
-217.582	71.311	0.110	0.113
-216.567	-159.975	-0.196	0.011
-215.552	-108.547	0.128	-0.027
-214.538	322.093	-0.098	-0.184
-213.523	-200.000	-0.027	0.127
-212.509	800.000	-0.048	-0.184
-211.494	62.469	-0.255	-0.252
-210.479	-23.266	-0.195	0.116
-209.465	138.738	0.133	-0.173
-208.450	13.258	0.074	-0.057
-207.436	594.146	-0.047	0.114
-206.421	-37.084	-0.224	0.118
-205.406	800.000	-0.053	-0.220
-204.392	-15.992	0.203	-0.127
-203.377	88.397	-0.043	-0.047
-202.363	-200.000	-0.018	0.319
-201.348	350.954	-0.041	-0.080
-200.333	-33.468	0.156	-0.085
-199.319	-200.000	0.052	0.236
-198.304	-120.641	-0.133	-0.022
-197.290	800.000	0.052	0.145
-196.275	-5.195	0.409	0.277
-195.260	-157.333	-0.043	0.003
-194.246	800.000	-0.067	0.239
-193.231	-200.000	0.017	0.497
-192.217	-55.630	0.376	0.166
-191.202	70.858	-0.096	0.098
-190.187	264.703	-0.065	-0.112
-189.173	109.925	-0.170	0.200
-188.158	-76.362	0.205	0.071
-187.144	-12.995	-0.037	-0.024
-186.129	-39.557	-0.053	0.027
-185.114	-67.821	0.123	-0.047
-184.100	-107.067	0.023	-0.005
-183.085	-162.367	0.168	-0.008
-182.071	9.081	0.238	-0.177
-181.056	-2.967	-0.205	-0.141
-180.042	-200.000	0.047	-0.373
-179.027	-200.000	-0.014	-0.436
-178.012	-200.000	0.001	0.015
-176.998	-45.799	0.426	0.207
-175.983	-200.000	0.015	-0.157
-174.969	-51.317	-0.252	-0.116
-173.954	80.767	-0.095	-0.101
-172.939	-36.493	-0.056	0.030
-171.925	-98.054	0.153	-0.039
-170.910	32.807	0.289	0.246
-169.896	-123.839	-0.254	0.040
-168.881	-200.000	-0.001	-0.088
-167.866	35.514	0.128	-0.111
-166.852	289.139	0.113	0.202
-165.837	-76.369	-0.397	0.138
-164.823	18.630	-0.155	-0.122
-163.808	-18.079	0.135	0.083
-162.793	-200.000	-0.022	0.176
-161.779	-18.276	0.178	0.109
-160.764	76.838	-0.084	0.087
-159.750	-200.000	0.015	0.220
-158.735	-96.357	0.066	-0.017
-157.720	236.314	-0.050	0.081
-156.706	764.170	-0.023	-0.060
-155.691	10.097	0.208	-0.155
-154.677	-81.042	0.384	-0.125
-153.662	-178.132	-0.142	0.003
-152.647	-200.000	0.006	-0.238
-151.633	22.103	0.220	0.176
-150.618	-1.059	-0.287	-0.199
-149.604	-77.483	-0.222	-0.076
-148.589	734.248	0.109	-0.288
-147.574	-35.665	-0.216	0.115
-146.560	-200.000	0.032	0.169
-145.545	75.772	0.172	-0.178
-144.531	-200.000	0.031	0.142
-143.516	244.698	-0.068	-0.113
-142.502	1.610	-0.143	-0.101
-141.487	-149.517	0.111	0.009
-140.472	133.817	0.133	0.170
-139.458	-38.420	-0.129	0.067
-138.443	-200.000	0.036	-0.228
-137.429	-71.293	0.226	-0.083
-136.414	-77.621	0.084	0.029
-135.399	800.000	-0.143	-0.399
-134.385	101.527	0.258	0.295
-133.370	-120.668	0.053	-0.009
-132.356	-146.990	0.237	-0.020
-131.341	-104.728	-0.278	-0.063
-130.326	234.731	-0.154	-0.250
-129.312	-44.454	-0.219	-0.107
-128.297	-74.571	-0.292	0.103
-127.283	800.000	0.032	-0.109
-126.268	-80.175	-0.158	-0.052
-125.253	800.000	-0.062	-0.208
-124.239	10.217	0.362	-0.271
-123.224	-103.271	-0.223	0.052
-122.210	-173.122	0.110	0.003
-121.195	-10.587	0.020	-0.013
