DTS Sentinel unit serial number:	SN413079Multiplexer serial number:	ORYXHardware model number:	OX4-SRSoftware version number:	ORYX F/W v4.00 Oryx Data Collector v3.7.2.0data status	okinstallation	princeton_trtdifferential loss correction	single-endedforward channel	channel 2reverse channel	N/Adate	2019/09/13time	10:27:35forward acquisition time	60.00reverse acquisition time	0.00gamma	496.2192k internal	0.2323k external	0.2323temperature offset calibration	1.0192default loss term (dB/km)	0.3790temperature slope calibration	1.0000multiplexer offset coefficient	1.0000multiplexer slope coefficient	1.0000fibre end	0.00T internal ref (°C)	31.06T ext. ref 1 (°C)	4.54T ext. ref 2 (°C)	28.05length (m)	temperature (°C)	Stokes	anti-Stokes-747.200	198.297	0.135	-0.208
-746.185	-147.089	-0.035	-0.003
-745.171	60.335	0.378	0.378
-744.156	282.440	-0.108	0.195
-743.142	325.306	0.115	0.221
-742.127	-74.168	-0.280	-0.102
-741.112	110.886	0.097	0.118
-740.098	111.514	-0.266	0.324
-739.083	800.000	0.111	-0.317
-738.069	800.000	0.086	0.347
-737.054	-64.303	-0.155	-0.064
-736.039	-94.992	-0.331	-0.090
-735.025	134.085	0.231	0.302
-734.010	-97.655	-0.200	-0.052
-732.996	-41.854	-0.205	-0.106
-731.981	-200.000	0.022	0.203
-730.966	-88.420	-0.353	0.106
-729.952	-38.684	-0.242	0.129
-728.937	-78.954	0.107	0.037
-727.923	-64.115	0.043	-0.018
-726.908	-28.859	-0.117	-0.068
-725.894	800.000	-0.097	0.359
-724.879	380.954	-0.062	0.127
-723.864	185.854	-0.256	0.383
-722.850	544.843	-0.021	-0.052
-721.835	-28.675	-0.243	-0.141
-720.821	-132.378	0.479	-0.062
-719.806	-200.000	0.036	-0.301
-718.791	-193.528	-0.197	-0.002
-717.777	308.872	-0.039	-0.073
-716.762	-163.284	0.318	0.015
-715.748	-133.493	-0.371	-0.047
-714.733	-12.481	0.161	-0.106
-713.718	194.979	-0.082	0.125
-712.704	800.000	-0.062	0.248
-711.689	125.203	0.059	0.075
-710.675	-142.514	-0.404	-0.040
-709.660	649.542	0.062	0.161
-708.645	325.782	0.066	-0.127
-707.631	-83.851	0.230	-0.074
-706.616	4.380	-0.314	0.232
-705.602	800.000	0.082	0.235
-704.587	273.344	-0.189	-0.337
-703.572	-16.168	-0.227	-0.145
-702.558	46.185	-0.110	-0.103
-701.543	-13.585	-0.063	-0.041
-700.529	78.872	0.089	-0.096
-699.514	-99.409	-0.148	-0.038
-698.499	41.470	0.098	0.089
-697.485	-58.566	0.354	-0.155
-696.470	-41.815	0.047	-0.024
-695.456	281.717	-0.150	0.270
-694.441	-46.727	0.130	0.064
-693.426	800.000	-0.050	-0.154
-692.412	-200.000	-0.009	-0.168
-691.397	-37.695	0.047	-0.025
-690.383	-109.912	0.211	0.045
-689.368	-200.000	-0.019	-0.188
-688.354	-87.062	-0.336	0.103
-687.339	351.139	0.079	-0.158
-686.324	-200.000	0.015	-0.163
-685.310	-98.415	0.145	-0.037
-684.295	-200.000	-0.000	-0.294
-683.281	3.403	0.334	-0.245
-682.266	219.023	0.080	0.129
-681.251	-200.000	-0.036	-0.231
-680.237	800.000	0.080	-0.271
-679.222	-200.000	-0.065	-0.546
-678.208	434.706	0.124	-0.271
-677.193	-141.401	0.107	0.011
-676.178	109.986	-0.175	-0.212
-675.164	-151.477	0.407	0.030
-674.149	800.000	0.046	-0.172
-673.135	-62.725	0.154	-0.064
-672.120	-200.000	-0.006	0.101
-671.105	-100.275	0.090	-0.023
-670.091	-97.246	0.127	0.033
-669.076	68.968	0.195	-0.201
-668.062	69.286	-0.265	0.275
-667.047	92.763	0.064	-0.073
-666.032	800.000	-0.108	0.334
-665.018	-200.000	-0.008	0.107
-664.003	-200.000	-0.004	-0.089
-662.989	268.868	-0.030	-0.053
-661.974	318.961	-0.087	0.165
-660.959	10.607	-0.155	0.119
-659.945	-91.077	-0.144	0.042
-658.930	11.501	0.405	-0.312
-657.916	33.358	0.203	-0.177
-656.901	-142.623	0.242	-0.024
-655.886	18.291	-0.200	0.161
-654.872	100.898	-0.104	-0.121
-653.857	-200.000	-0.022	0.207
-652.843	502.200	0.122	0.284
-651.828	-200.000	0.035	-0.346
-650.814	567.041	-0.069	-0.169
-649.799	-152.845	-0.082	0.006
-648.784	-200.000	-0.032	0.256
-647.770	193.966	-0.079	0.120
-646.755	129.257	-0.073	-0.094
-645.741	64.688	-0.141	-0.144
-644.726	-22.642	-0.141	0.086
-643.711	800.000	0.066	0.216
-642.697	800.000	-0.038	0.115
-641.682	268.028	0.233	0.411
-640.668	800.000	-0.018	-0.073
-639.653	-133.907	-0.378	0.047
-638.638	105.398	0.102	0.121
-637.624	105.081	-0.188	-0.223
-636.609	800.000	0.050	-0.143
-635.595	-62.716	-0.134	0.056
-634.580	96.366	-0.246	-0.283
-633.565	60.046	-0.141	-0.140
-632.551	101.403	0.116	-0.136
-631.536	800.000	-0.098	-0.277
-630.522	-85.296	0.212	-0.066
-629.507	-137.306	-0.079	0.009
-628.492	128.975	0.151	0.193
-627.478	-29.160	0.169	0.097
-626.463	499.522	0.114	-0.263
-625.449	-56.423	0.111	0.050
-624.434	-20.125	-0.129	0.080
-623.419	800.000	0.012	-0.053
-622.405	48.672	0.148	0.140
-621.390	-24.501	-0.385	-0.231
-620.376	1.235	0.134	-0.097
-619.361	-111.101	-0.191	0.039
-618.346	363.098	0.065	0.130
-617.332	450.472	-0.051	0.114
-616.317	-199.439	0.443	0.002
-615.303	-136.885	-0.217	-0.025
-614.288	-28.262	-0.308	-0.179
-613.273	32.273	0.218	0.189
-612.259	-39.139	0.223	-0.118
-611.244	318.949	-0.125	-0.237
-610.230	-100.152	-0.158	0.039
-609.215	-61.884	-0.212	-0.089
-608.201	-13.078	-0.059	-0.039
-607.186	-79.352	0.214	0.073
-606.171	62.682	-0.351	0.353
-605.157	-30.296	0.084	0.048
-604.142	-73.930	-0.300	-0.109
-603.128	448.415	-0.076	-0.168
-602.113	-115.809	0.147	0.028
-601.098	-76.105	0.245	-0.087
-600.084	5.293	0.427	-0.316
-599.069	-46.790	0.114	-0.056
-598.055	800.000	-0.041	0.128
-597.040	730.519	-0.097	0.261
-596.025	-11.007	-0.212	-0.140
-595.011	405.653	0.039	-0.082
-593.996	-183.020	0.244	-0.004
-592.982	-200.000	0.032	-0.184
-591.967	-76.639	-0.355	0.125
-590.952	-75.258	0.050	0.018
-589.938	-200.000	-0.084	0.558
-588.923	397.641	-0.053	-0.111
-587.909	301.729	-0.175	-0.325
-586.894	717.018	-0.142	-0.377
-585.879	-200.000	-0.011	-0.225
-584.865	-30.108	0.207	0.118
-583.850	-3.929	0.143	0.100
-582.836	334.740	-0.084	0.163
-581.821	800.000	0.035	0.124
-580.806	-57.064	-0.275	-0.122
-579.792	-51.522	-0.253	0.119
-578.777	-200.000	-0.072	-0.373
-577.763	-200.000	0.038	0.183
-576.748	-19.369	0.233	-0.145
-575.733	-200.000	-0.017	0.096
-574.719	-200.000	0.040	-0.177
-573.704	-44.894	-0.201	0.100
-572.690	-31.392	-0.085	0.048
-571.675	337.649	-0.092	0.179
-570.661	273.223	-0.189	0.335
-569.646	299.186	0.194	-0.358
-568.631	-128.715	-0.229	0.032
-567.617	-200.000	-0.033	0.205
-566.602	-200.000	-0.066	-0.300
-565.588	-36.485	-0.209	-0.113
-564.573	236.030	-0.048	-0.080
-563.558	-74.544	0.204	-0.074
-562.544	141.872	0.093	0.124
-561.529	36.717	-0.259	0.229
-560.515	-165.160	-0.172	0.008
-559.500	-142.901	0.115	0.011
-558.485	-143.805	0.220	0.021
-557.471	800.000	0.029	0.106
-556.456	13.694	-0.167	-0.130
-555.442	39.607	-0.056	0.050
-554.427	747.579	-0.213	-0.576
-553.412	124.635	-0.062	0.078
-552.398	54.485	0.043	-0.041
-551.383	-25.635	-0.125	0.074
-550.369	-37.913	0.195	-0.104
-549.354	-61.793	0.073	-0.030
-548.339	-20.453	0.389	0.240
-547.325	-200.000	0.007	0.151
-546.310	-200.000	0.004	-0.029
-545.296	-164.744	0.068	0.003
-544.281	-25.688	0.218	0.129
-543.266	800.000	0.149	-0.426
-542.252	-200.000	-0.028	-0.320
-541.237	800.000	0.022	-0.078
-540.223	-51.384	-0.133	0.062
-539.208	-47.080	0.159	0.078
-538.193	-87.897	-0.195	0.059
-537.179	81.493	-0.091	0.099
-536.164	379.468	-0.179	-0.367
-535.150	49.747	-0.090	0.085
-534.135	696.692	0.089	-0.235
-533.121	701.739	-0.047	0.125
-532.106	800.000	-0.027	-0.105
-531.091	-15.478	0.138	0.088
-530.077	146.443	-0.049	-0.065
-529.062	-200.000	0.059	-0.507
-528.048	144.579	0.095	-0.127
-527.033	-15.026	-0.090	-0.058
-526.018	47.168	-0.151	-0.140
-525.004	163.842	0.021	-0.030
-523.989	695.627	-0.072	0.188
-522.975	262.686	-0.025	0.043
-521.960	109.940	0.143	0.172
-520.945	-80.850	-0.385	0.128
-519.931	800.000	0.079	-0.283
-518.916	52.157	0.246	-0.234
-517.902	151.002	-0.097	0.133
-516.887	-200.000	-0.005	0.074
-515.872	114.848	0.192	0.234
-514.858	-79.816	-0.163	0.055
-513.843	76.289	-0.384	0.407
-512.829	-131.717	0.238	-0.031
-511.814	128.833	0.223	0.285
-510.799	98.063	0.115	-0.132
-509.785	800.000	-0.125	-0.390
-508.770	-45.629	0.257	0.127
-507.756	-200.000	0.010	0.148
-506.741	310.514	0.048	0.090
-505.726	23.577	-0.025	0.021
-504.712	800.000	0.098	-0.295
-503.697	800.000	-0.068	0.251
-502.683	20.739	-0.099	0.080
-501.668	0.825	-0.087	-0.062
-500.653	362.176	0.145	-0.291
-499.639	261.113	0.112	-0.193
-498.624	12.234	-0.073	-0.056
-497.610	-150.330	0.365	0.028
-496.595	28.578	0.281	0.238
-495.581	186.819	0.132	-0.196
-494.566	-145.171	0.172	-0.016
-493.551	-200.000	-0.062	-0.322
-492.537	-48.497	0.067	0.032
-491.522	-18.072	-0.204	-0.128
-490.508	107.481	0.199	-0.237
-489.493	-27.106	-0.211	0.123
-488.478	229.578	-0.135	-0.221
-487.464	19.353	0.046	0.037
-486.449	-200.000	0.049	-0.288
-485.435	-44.605	0.069	0.035
-484.420	-187.405	-0.494	0.007
-483.405	54.679	-0.046	0.044
-482.391	1.881	-0.345	0.249
-481.376	-5.249	-0.394	0.271
-480.362	-10.688	0.103	-0.068
-479.347	3.152	-0.360	0.262
-478.332	-200.000	0.004	0.187
-477.318	-200.000	0.005	-0.156
-476.303	-162.688	-0.307	-0.015
-475.289	-23.890	0.254	0.152
-474.274	-71.565	-0.287	0.107
-473.259	-200.000	0.044	0.258
-472.245	-200.000	-0.026	-0.449
-471.230	277.631	0.030	-0.053
-470.216	-200.000	0.005	-0.294
-469.201	-200.000	-0.003	-0.246
-468.186	-185.070	-0.139	0.002
-467.172	165.666	0.176	0.249
-466.157	261.878	-0.102	0.176
-465.143	1.941	0.307	0.221
-464.128	334.924	-0.118	0.229
-463.113	-200.000	-0.006	0.112
-462.099	-172.136	-0.317	0.010
-461.084	-67.887	0.048	-0.019
-460.070	-41.649	0.145	-0.074
-459.055	249.099	-0.101	0.170
-458.040	22.897	-0.124	0.101
-457.026	212.662	0.133	0.209
-456.011	-60.430	-0.499	-0.212
-454.997	-8.051	-0.205	-0.138
-453.982	-89.544	-0.173	0.051
-452.968	-200.000	0.022	-0.124
-451.953	238.425	0.108	-0.180
-450.938	113.937	-0.086	-0.104
-449.924	219.973	-0.101	0.162
-448.909	-200.000	0.019	0.280
-447.895	-24.092	-0.136	-0.081
-446.880	23.100	0.251	-0.206
-445.865	-48.400	0.280	-0.135
-444.851	128.310	0.138	-0.175
-443.836	-110.491	-0.103	-0.021
-442.822	-77.655	-0.135	-0.047
-441.807	-101.163	-0.084	0.020
-440.792	-107.707	-0.328	-0.072
-439.778	-166.352	0.108	0.005
-438.763	548.990	-0.119	-0.285
-437.749	-85.238	0.223	-0.070
-436.734	205.088	-0.242	0.374
-435.719	-200.000	0.001	-0.196
-434.705	-64.361	0.040	-0.016
-433.690	800.000	-0.120	0.386
-432.676	280.726	-0.063	0.113
-431.661	-12.572	-0.014	0.009
-430.646	72.989	-0.080	0.084
-429.632	-83.457	0.365	-0.117
-428.617	60.105	0.157	0.155
-427.603	-109.440	0.220	0.046
-426.588	112.992	0.020	0.024
-425.573	275.328	0.178	-0.314
-424.559	39.731	-0.078	0.070
-423.544	-200.000	0.008	-0.407
-422.530	258.078	0.084	-0.143
-421.515	382.092	-0.076	-0.156
-420.500	-92.555	-0.077	0.022
-419.486	-57.959	-0.091	0.040
-418.471	6.087	0.155	0.114
-417.457	-44.499	-0.111	-0.055
-416.442	-164.745	0.127	0.006
-415.428	283.312	-0.027	-0.048
-414.413	-56.131	0.245	-0.109
-413.398	-127.003	0.309	-0.045
-412.384	-9.196	0.041	-0.028
-411.369	-200.000	0.005	0.040
-410.355	-50.049	0.380	0.179
-409.340	-15.155	-0.118	-0.075
-408.325	-77.780	0.300	-0.103
-407.311	-120.574	0.152	-0.026
-406.296	6.965	-0.162	0.120
-405.282	-200.000	-0.003	0.299
-404.267	630.300	-0.039	-0.099
-403.252	-87.033	-0.365	0.111
-402.238	354.479	-0.133	0.263
-401.223	800.000	0.073	0.219
-400.209	-159.351	0.241	0.013
-399.194	-200.000	0.018	-0.441
-398.179	-29.519	-0.341	0.194
-397.165	78.469	0.137	0.146
-396.150	800.000	0.024	-0.068
-395.136	-49.767	0.190	0.090
-394.121	657.802	0.018	0.047
-393.106	-68.651	0.254	0.098
-392.092	-65.340	-0.261	-0.105
-391.077	-153.284	-0.229	-0.016
-390.063	76.213	0.328	0.346
-389.048	-55.012	0.202	0.091
-388.033	276.149	0.182	-0.322
-387.019	-60.471	-0.371	0.157
-386.004	-101.151	0.309	0.075
-384.990	-200.000	-0.024	0.302
-383.975	72.308	0.096	0.099
-382.960	-200.000	0.000	0.029
-381.946	-200.000	0.034	-0.174
-380.931	83.197	0.194	0.210
-379.917	-84.355	0.451	-0.142
-378.902	-90.991	0.043	-0.012
-377.888	800.000	-0.072	0.262
-376.873	-158.244	0.124	0.007
-375.858	159.384	-0.245	-0.339
-374.844	238.306	0.174	-0.287
-373.829	2.563	0.409	-0.295
-372.815	76.265	0.265	0.280
-371.800	443.215	0.061	-0.134
-370.785	-200.000	-0.005	-0.286
-369.771	38.468	0.225	-0.199
-368.756	-158.358	0.179	0.010
-367.742	300.946	-0.148	-0.272
-366.727	-200.000	0.034	0.238
-365.712	-64.124	-0.131	0.053
-364.698	800.000	-0.055	-0.161
-363.683	-134.372	-0.106	0.013
-362.669	3.445	-0.155	-0.112
-361.654	-176.649	0.265	-0.007
-360.639	-87.959	0.332	0.099
-359.625	-200.000	0.016	-0.117
-358.610	144.115	-0.114	-0.151
-357.596	-200.000	-0.005	-0.112
-356.581	-200.000	0.015	-0.070
-355.566	-200.000	0.003	-0.258
-354.552	70.137	-0.225	-0.231
-353.537	-69.249	0.201	-0.077
-352.523	800.000	0.116	0.355
-351.508	158.490	0.097	-0.134
-350.493	53.291	-0.212	-0.202
-349.479	-98.184	0.110	0.028
-348.464	-75.301	0.254	0.090
-347.450	762.491	0.059	0.159
-346.435	-76.819	-0.328	-0.114
-345.420	99.801	-0.151	0.174
-344.406	160.949	-0.085	-0.118
-343.391	20.116	-0.161	-0.129
-342.377	-167.251	-0.305	0.012
-341.362	-72.765	0.135	-0.049
-340.348	-21.161	-0.175	0.106
-339.333	66.086	-0.171	-0.173
-338.318	58.287	-0.223	-0.217
-337.304	-52.243	0.356	0.164
-336.289	-200.000	0.032	0.412
-335.275	325.679	-0.279	0.531
-334.260	800.000	-0.071	0.209
-333.245	311.723	-0.230	0.429
-332.231	-52.277	-0.155	0.071
-331.216	298.228	-0.175	-0.321
-330.202	66.879	0.169	0.171
-329.187	-161.367	-0.157	0.008
-328.172	118.294	-0.264	0.323
-327.158	78.792	0.182	-0.194
-326.143	-74.100	0.168	-0.060
-325.129	-200.000	-0.083	0.385
-324.114	-84.016	-0.272	-0.086
-323.099	-134.776	0.104	0.013
-322.085	66.490	-0.045	0.046
-321.070	-74.674	0.147	0.053
-320.056	-93.193	-0.237	-0.065
-319.041	93.840	-0.058	0.065
-318.026	603.376	-0.021	0.051
-317.012	23.551	0.082	-0.067
-315.997	428.165	0.109	0.234
-314.983	124.940	-0.206	-0.258
-313.968	293.093	-0.274	-0.496
-312.953	-188.067	-0.041	-0.001
-311.939	800.000	0.078	-0.330
-310.924	43.925	-0.133	-0.121
-309.910	5.687	0.056	-0.041
-308.895	-200.000	-0.016	0.181
-307.880	-200.000	0.012	-0.152
-306.866	-123.394	-0.134	-0.021
-305.851	800.000	0.075	0.292
-304.837	-18.567	-0.318	-0.197
-303.822	312.157	0.050	0.093
-302.807	44.231	0.274	-0.250
-301.793	-200.000	-0.038	-0.275
-300.778	61.859	0.143	0.142
-299.764	-189.795	0.294	-0.003
-298.749	-46.165	0.255	0.125
-297.735	-200.000	-0.003	0.163
-296.720	142.906	0.094	-0.124
-295.705	31.680	-0.108	0.092
-294.691	109.082	0.214	0.254
-293.676	-62.954	0.192	0.079
-292.662	-200.000	0.032	-0.313
-291.647	-200.000	-0.055	0.277
-290.632	-160.294	0.298	0.016
-289.618	-200.000	0.062	0.341
-288.603	-42.023	-0.240	0.122
-287.589	307.516	0.179	-0.332
-286.574	196.169	0.098	-0.148
-285.559	382.398	-0.162	0.331
-284.545	37.667	-0.232	0.205
-283.530	220.022	0.078	-0.125
-282.516	239.488	0.128	0.211
-281.501	220.672	-0.122	-0.193
-280.486	-200.000	-0.014	-0.124
-279.472	78.389	0.234	-0.248
-278.457	-200.000	-0.017	0.081
-277.443	-200.000	0.018	0.253
-276.428	25.038	-0.062	-0.051
-275.413	-200.000	0.059	0.327
-274.399	57.414	0.060	0.058
-273.384	61.010	0.237	0.233
-272.370	800.000	-0.023	-0.066
-271.355	-34.873	0.096	-0.052
-270.340	-58.608	-0.121	0.052
-269.326	9.186	-0.104	-0.078
-268.311	-130.459	0.115	0.015
-267.297	58.708	0.152	-0.148
-266.282	-86.916	-0.307	-0.093
-265.267	-91.918	-0.226	-0.064
-264.253	10.276	0.221	0.167
-263.238	800.000	0.037	-0.103
-262.224	-200.000	0.060	0.311
-261.209	800.000	-0.061	-0.178
-260.195	148.168	0.064	0.086
-259.180	29.133	0.055	-0.046
-258.165	-122.350	0.276	-0.045
-257.151	298.069	-0.109	0.198
-256.136	-49.713	-0.515	0.243
-255.122	583.472	0.152	-0.369
-254.107	800.000	-0.105	-0.288
-253.092	-52.889	0.356	0.162
-252.078	-95.477	0.422	-0.112
-251.063	-53.437	-0.077	-0.035
-250.049	239.244	-0.112	0.184
-249.034	56.745	0.066	-0.064
-248.019	-83.353	-0.462	-0.147
-247.005	34.143	0.062	-0.053
-245.990	800.000	0.065	0.192
-244.976	92.252	0.190	0.212
-243.961	-101.454	-0.144	-0.035
-242.946	800.000	0.086	-0.250
-241.932	-131.878	0.195	-0.025
-240.917	-138.927	-0.301	-0.032
-239.903	-200.000	-0.052	-0.313
-238.888	473.899	-0.027	-0.061
-237.873	800.000	-0.024	-0.066
-236.859	584.134	0.120	-0.292
-235.844	-82.949	0.081	0.026
-234.830	-94.503	-0.273	0.074
-233.815	781.889	-0.087	0.235
-232.800	364.366	-0.069	-0.138
-231.786	628.633	0.051	0.126
-230.771	100.751	-0.003	-0.003
-229.757	800.000	-0.051	0.161
-228.742	-200.000	0.032	0.343
-227.727	-200.000	-0.043	0.242
-226.713	535.491	0.045	0.106
-225.698	-140.793	0.095	0.010
-224.684	378.692	-0.102	0.207
-223.669	-78.955	-0.215	0.072
-222.655	81.833	-0.264	0.283
-221.640	-40.111	0.122	0.063
-220.625	-16.098	0.093	0.058
-219.611	4.186	-0.072	-0.052
-218.596	156.239	-0.103	-0.140
-217.582	28.171	0.197	0.165
-216.567	-200.000	0.000	0.174
-215.552	42.113	0.109	-0.098
-214.538	39.296	0.102	0.090
-213.523	-169.708	0.143	0.005
-212.509	81.084	-0.269	-0.287
-211.494	-200.000	-0.009	-0.150
-210.479	800.000	-0.040	0.123
-209.465	-150.273	-0.201	0.015
-208.450	800.000	-0.070	-0.254
-207.436	-66.774	0.253	-0.099
-206.421	-124.549	-0.153	-0.024
-205.406	-200.000	0.066	-0.363
-204.392	108.308	0.055	-0.065
-203.377	68.407	0.124	0.125
-202.363	800.000	0.123	0.428
-201.348	-59.229	-0.086	-0.036
-200.333	-25.862	0.223	0.130
-199.319	67.709	-0.174	0.176
-198.304	352.669	-0.022	-0.044
-197.290	176.837	-0.032	-0.046
-196.275	-38.942	0.085	-0.044
-195.260	-200.000	-0.016	0.086
-194.246	-200.000	-0.007	-0.265
-193.231	-21.680	0.133	-0.080
-192.217	427.656	0.051	0.110
-191.202	-58.972	0.202	-0.086
-190.187	21.047	-0.114	-0.091
-189.173	-105.308	0.283	-0.064
-188.158	712.760	-0.092	0.240
-187.144	-37.633	0.069	-0.036
-186.129	-141.221	0.314	0.032
-185.114	-200.000	0.005	0.199
-184.100	63.231	0.266	0.263
-183.085	-157.288	-0.352	0.021
-182.071	424.720	0.067	-0.142
-181.056	-61.423	0.179	0.074
-180.042	-124.842	0.451	0.069
-179.027	-102.857	-0.301	0.071
-178.012	42.877	0.142	0.128
-176.998	457.549	0.084	0.184
-175.983	800.000	0.029	0.098
-174.969	-200.000	0.013	0.344
-173.954	-200.000	-0.019	-0.185
-172.939	-57.985	-0.117	-0.050
-171.925	-174.086	0.163	0.005
-170.910	96.650	0.006	-0.007
-169.896	800.000	0.003	-0.010
-168.881	76.642	-0.097	0.102
-167.866	124.209	0.078	-0.096
-166.852	-163.084	-0.151	-0.007
-165.837	-23.068	-0.156	0.093
-164.823	-200.000	0.056	0.257
-163.808	-163.700	0.120	0.006
-162.793	-132.261	-0.256	0.033
-161.779	-174.722	-0.119	-0.003
-160.764	3.484	0.165	0.119
-159.750	41.539	0.272	-0.243
-158.735	800.000	-0.065	0.211
-157.720	93.741	-0.247	-0.276
-156.706	695.415	0.076	-0.198
-155.691	236.267	0.056	0.091
-154.677	-137.307	0.293	0.033
-153.662	-200.000	-0.007	-0.056
-152.647	800.000	-0.113	-0.342
-151.633	92.743	-0.126	0.141
-150.618	694.723	0.157	-0.407
-149.604	-200.000	-0.072	0.409
-148.589	692.787	0.118	-0.306
-147.574	147.310	-0.174	0.231
-146.560	164.989	0.156	0.217
-145.545	130.126	0.081	-0.103
-144.531	-89.556	0.164	0.048
-143.516	48.926	-0.079	-0.073
-142.502	-47.735	-0.213	0.102
-141.487	-106.701	0.225	0.049
-140.472	26.680	0.037	0.030
-139.458	-16.725	0.316	0.197
-138.443	800.000	-0.025	-0.102
-137.429	-79.858	0.299	0.099
-136.414	-78.331	0.210	-0.071
-135.399	800.000	0.061	-0.261
-134.385	800.000	0.052	-0.188
-133.370	800.000	0.073	0.222
-132.356	-71.354	-0.262	-0.097
-131.341	288.494	-0.278	0.497
-130.326	573.208	0.009	-0.022
-129.312	-200.000	-0.006	0.336
-128.297	88.780	-0.286	-0.314
-127.283	800.000	0.039	-0.115
-126.268	-12.395	0.118	-0.076
-125.253	800.000	-0.062	0.259
-124.239	-200.000	-0.001	-0.136
-123.224	-109.038	-0.234	0.049
-122.210	497.910	0.111	0.251
-121.195	-147.452	0.129	-0.011
-120.180	800.000	0.101	0.293
