DTS Sentinel unit serial number:	SN413079Multiplexer serial number:	ORYXHardware model number:	OX4-SRSoftware version number:	ORYX F/W v4.00 Oryx Data Collector v3.7.2.0data status	okinstallation	princeton_trtdifferential loss correction	single-endedforward channel	channel 2reverse channel	N/Adate	2019/09/13time	05:31:35forward acquisition time	60.00reverse acquisition time	0.00gamma	496.2192k internal	0.2337k external	0.2337temperature offset calibration	1.0192default loss term (dB/km)	0.3790temperature slope calibration	1.0000multiplexer offset coefficient	1.0000multiplexer slope coefficient	1.0000fibre end	0.00T internal ref (°C)	26.25T ext. ref 1 (°C)	4.05T ext. ref 2 (°C)	20.86length (m)	temperature (°C)	Stokes	anti-Stokes-747.200	-144.942	-0.273	-0.025
-746.185	-200.000	-0.019	-0.191
-745.171	-98.188	0.237	0.061
-744.156	262.884	-0.167	0.292
-743.142	-200.000	0.036	-0.228
-742.127	413.177	-0.150	0.320
-741.112	-92.137	-0.265	0.075
-740.098	-200.000	-0.033	0.157
-739.083	88.867	-0.065	0.072
-738.069	71.808	-0.258	0.270
-737.054	104.333	-0.112	0.132
-736.039	38.773	-0.088	-0.079
-735.025	108.515	0.233	0.280
-734.010	-101.586	0.092	0.022
-732.996	-27.514	0.170	0.099
-731.981	-122.295	-0.238	-0.039
-730.966	800.000	0.168	-0.593
-729.952	800.000	0.030	-0.085
-728.937	-200.000	-0.002	0.048
-727.923	231.578	-0.091	-0.150
-726.908	800.000	-0.027	0.112
-725.894	-107.140	-0.112	-0.025
-724.879	-83.340	-0.063	-0.020
-723.864	-72.555	-0.271	0.100
-722.850	159.181	0.201	0.280
-721.835	-62.980	-0.093	0.038
-720.821	100.108	-0.103	0.119
-719.806	-79.913	-0.216	-0.073
-718.791	91.099	0.191	-0.215
-717.777	330.157	0.204	-0.394
-716.762	-200.000	0.042	-0.364
-715.748	-98.543	0.044	-0.011
-714.733	-55.983	-0.342	0.153
-713.718	-137.246	-0.353	0.040
-712.704	227.486	-0.160	-0.260
-711.689	-200.000	-0.036	0.248
-710.675	-73.932	-0.307	0.112
-709.660	380.076	0.023	0.048
-708.645	-86.477	0.262	0.081
-707.631	-45.989	-0.217	0.107
-706.616	647.972	0.072	0.183
-705.602	10.810	0.077	0.059
-704.587	-101.709	0.079	-0.019
-703.572	112.730	-0.211	-0.256
-702.558	-28.966	0.081	-0.047
-701.543	-200.000	-0.017	-0.210
-700.529	76.625	-0.345	0.366
-699.514	-106.553	0.231	0.052
-698.499	800.000	-0.090	-0.324
-697.485	185.809	-0.073	0.109
-696.470	529.777	0.143	0.340
-695.456	143.321	-0.244	-0.326
-694.441	-37.203	0.402	-0.216
-693.426	379.439	-0.095	-0.195
-692.412	206.056	-0.072	-0.112
-691.397	-10.167	-0.362	-0.241
-690.383	17.831	0.240	-0.192
-689.368	151.014	-0.145	0.197
-688.354	148.022	-0.122	0.165
-687.339	800.000	-0.050	-0.159
-686.324	800.000	-0.068	-0.278
-685.310	-58.118	0.199	0.087
-684.295	-65.152	-0.373	-0.150
-683.281	-84.105	0.179	-0.057
-682.266	-92.998	0.303	0.085
-681.251	-102.917	-0.233	-0.056
-680.237	-109.144	0.105	-0.022
-679.222	-129.480	0.111	0.015
-678.208	201.943	-0.138	-0.213
-677.193	-48.949	-0.271	-0.130
-676.178	134.847	0.149	0.194
-675.164	-51.619	-0.168	0.078
-674.149	124.989	0.063	-0.080
-673.135	800.000	0.035	0.130
-672.120	-200.000	0.026	0.273
-671.105	800.000	0.028	0.087
-670.091	40.831	-0.081	-0.073
-669.076	-108.462	-0.192	0.041
-668.062	-200.000	-0.001	0.245
-667.047	-180.812	0.253	0.005
-666.032	-144.669	0.143	-0.013
-665.018	-54.712	-0.587	0.265
-664.003	109.924	-0.200	0.240
-662.989	78.020	-0.339	0.362
-661.974	-102.259	0.188	-0.045
-660.959	119.281	-0.076	-0.094
-659.945	-97.473	0.239	0.062
-658.930	46.395	-0.100	-0.093
-657.916	267.604	-0.123	0.215
-656.901	-200.000	-0.008	0.375
-655.886	298.363	-0.048	0.088
-654.872	-29.864	-0.316	-0.180
-653.857	-200.000	-0.070	-0.364
-652.843	-70.566	-0.132	0.050
-651.828	41.017	0.181	0.163
-650.814	-200.000	-0.027	-0.122
-649.799	-200.000	-0.012	-0.419
-648.784	389.692	0.024	0.049
-647.770	-71.785	-0.122	-0.045
-646.755	-72.782	0.262	0.096
-645.741	-8.480	0.092	-0.062
-644.726	408.759	0.170	-0.360
-643.711	-22.617	-0.185	0.112
-642.697	-70.517	-0.155	0.059
-641.682	800.000	-0.117	0.376
-640.668	713.009	0.077	0.205
-639.653	-200.000	0.023	0.276
-638.638	-90.278	-0.056	-0.016
-637.624	-73.938	0.261	0.095
-636.609	-39.812	-0.262	-0.137
-635.595	-129.665	-0.157	0.022
-634.580	-200.000	0.070	-0.376
-633.565	355.655	-0.024	0.048
-632.551	28.958	0.088	-0.075
-631.536	-61.354	0.255	-0.107
-630.522	-156.184	-0.176	0.011
-629.507	-200.000	-0.030	-0.160
-628.492	226.144	-0.169	-0.274
-627.478	-57.963	0.243	0.106
-626.463	-200.000	-0.005	0.097
-625.449	25.609	0.259	-0.215
-624.434	-34.920	-0.199	-0.109
-623.419	-46.888	-0.092	-0.045
-622.405	-34.811	0.227	0.124
-621.390	-65.523	-0.340	0.136
-620.376	-85.080	0.070	-0.022
-619.361	-154.649	0.478	0.032
-618.346	-26.862	-0.060	-0.035
-617.332	141.681	0.235	-0.311
-616.317	-121.520	0.029	-0.005
-615.303	-53.880	-0.258	-0.117
-614.288	-42.074	-0.096	0.049
-613.273	-137.069	0.165	-0.019
-612.259	-22.836	0.230	0.138
-611.244	-106.531	0.093	0.021
-610.230	503.434	0.048	-0.111
-609.215	24.775	0.347	0.287
-608.201	367.671	-0.065	-0.131
-607.186	246.423	0.105	-0.177
-606.171	753.896	0.065	0.174
-605.157	-168.067	0.048	-0.002
-604.142	-113.610	-0.346	0.067
-603.128	11.800	0.011	0.009
-602.113	-152.524	-0.283	-0.020
-601.098	-200.000	0.015	-0.238
-600.084	141.302	-0.091	-0.120
-599.069	-200.000	-0.004	-0.275
-598.055	-122.410	0.299	-0.049
-597.040	569.683	-0.095	-0.231
-596.025	63.463	0.183	0.183
-595.011	224.045	-0.124	-0.200
-593.996	-116.831	-0.142	-0.026
-592.982	-89.963	0.498	0.145
-591.967	-91.554	0.043	0.012
-590.952	-141.836	0.026	-0.003
-589.938	-74.543	-0.229	0.082
-588.923	-107.811	0.335	-0.073
-587.909	25.572	0.245	0.203
-586.894	9.487	0.147	0.111
-585.879	-37.867	-0.175	-0.093
-584.865	-200.000	0.014	0.213
-583.850	56.590	0.285	-0.277
-582.836	-200.000	-0.008	-0.403
-581.821	800.000	-0.058	0.189
-580.806	-200.000	0.031	-0.175
-579.792	-169.299	-0.112	0.004
-578.777	-200.000	0.025	-0.314
-577.763	39.493	0.430	0.384
-576.748	-11.322	-0.314	-0.206
-575.733	39.485	0.261	-0.234
-574.719	-109.385	-0.191	0.040
-573.704	75.004	-0.160	0.169
-572.690	-75.847	-0.132	-0.047
-571.675	76.516	0.165	-0.174
-570.661	610.229	0.192	-0.478
-569.646	-184.574	-0.273	0.004
-568.631	-200.000	0.036	-0.298
-567.617	13.376	0.062	-0.048
-566.602	78.356	-0.204	0.217
-565.588	14.330	-0.104	-0.081
-564.573	800.000	0.037	0.103
-563.558	-200.000	0.037	-0.199
-562.544	800.000	-0.103	0.437
-561.529	-18.043	-0.136	0.085
-560.515	460.056	0.027	0.061
-559.500	151.512	-0.089	0.120
-558.485	480.571	0.058	0.131
-557.471	485.129	-0.005	-0.012
-556.456	-158.863	0.064	-0.004
-555.442	500.939	0.099	-0.228
-554.427	800.000	-0.033	0.091
-553.412	100.220	0.197	-0.228
-552.398	-44.118	0.147	0.073
-551.383	108.501	0.173	-0.206
-550.369	-74.196	-0.005	0.002
-549.354	-144.123	0.113	-0.011
-548.339	-200.000	0.034	0.000
-547.325	22.473	-0.063	0.052
-546.310	-33.982	-0.287	0.157
-545.296	-200.000	-0.082	0.413
-544.281	-30.503	-0.126	0.071
-543.266	-9.411	-0.227	0.151
-542.252	-104.857	-0.195	0.045
-541.237	44.150	0.299	0.273
-540.223	-199.087	-0.183	-0.001
-539.208	-200.000	-0.010	-0.208
-538.193	-200.000	-0.007	0.139
-537.179	449.016	0.175	-0.385
-536.164	-71.310	0.244	-0.091
-535.150	5.901	-0.032	0.024
-534.135	18.804	-0.279	-0.223
-533.121	-4.943	-0.256	0.175
-532.106	381.598	0.065	0.133
-531.091	3.066	-0.141	-0.102
-530.077	317.006	-0.053	0.101
-529.062	-28.559	-0.247	0.142
-528.048	139.681	0.121	0.159
-527.033	57.616	0.141	-0.137
-526.018	131.304	-0.186	-0.238
-525.004	-200.000	-0.018	0.134
-523.989	-56.436	-0.262	-0.116
-522.975	45.193	-0.096	0.088
-521.960	-118.875	-0.246	-0.043
-520.945	39.118	0.145	0.129
-519.931	-200.000	0.028	-0.346
-518.916	-142.648	-0.266	-0.026
-517.902	-92.868	0.326	0.091
-516.887	50.552	-0.171	-0.161
-515.872	112.707	0.071	-0.086
-514.858	-161.181	0.357	0.018
-513.843	-110.231	0.115	0.024
-512.829	54.879	0.173	0.166
-511.814	-98.781	0.175	0.044
-510.799	800.000	0.050	0.160
-509.785	-77.318	-0.232	0.080
-508.770	800.000	0.089	-0.261
-507.756	-142.638	-0.100	-0.010
-506.741	-200.000	0.021	0.168
-505.726	-18.430	-0.100	-0.062
-504.712	-71.328	-0.180	0.067
-503.697	507.955	0.056	0.128
-502.683	62.712	0.037	0.036
-501.668	322.759	-0.153	0.290
-500.653	-51.796	-0.362	0.168
-499.639	-76.464	0.191	-0.067
-498.624	202.210	0.139	0.212
-497.610	596.404	0.115	-0.283
-496.595	-200.000	0.033	0.269
-495.581	57.880	0.230	0.224
-494.566	-200.000	0.045	0.203
-493.551	552.301	-0.131	0.314
-492.537	116.367	-0.088	0.107
-491.522	-63.447	-0.161	0.066
-490.508	-73.307	-0.301	-0.109
-489.493	-200.000	0.052	-0.239
-488.478	800.000	-0.042	0.140
-487.464	-200.000	-0.000	-0.037
-486.449	-200.000	0.027	-0.277
-485.435	223.769	-0.113	0.181
-484.420	221.398	0.089	0.143
-483.405	-55.296	0.128	0.057
-482.391	242.427	-0.167	-0.278
-481.376	112.560	0.167	-0.201
-480.362	-131.044	-0.448	-0.059
-479.347	0.964	-0.147	-0.105
-478.332	-137.663	-0.153	0.017
-477.318	-102.652	-0.254	-0.060
-476.303	611.922	-0.003	0.007
-475.289	-195.286	-0.332	-0.002
-474.274	140.977	-0.179	-0.235
-473.259	800.000	0.099	0.293
-472.245	20.635	-0.191	0.154
-471.230	-200.000	-0.022	-0.181
-470.216	-64.700	-0.015	0.006
-469.201	-200.000	0.035	-0.260
-468.186	-6.260	-0.182	-0.123
-467.172	-106.962	0.213	0.047
-466.157	-200.000	-0.016	-0.074
-465.143	800.000	0.046	0.148
-464.128	463.064	0.081	-0.181
-463.113	-192.533	0.299	-0.003
-462.099	-200.000	0.006	-0.036
-461.084	-130.123	-0.120	0.016
-460.070	-160.819	-0.315	-0.017
-459.055	800.000	0.040	0.117
-458.040	-114.418	-0.287	-0.055
-457.026	-28.436	0.017	0.010
-456.011	-200.000	0.003	0.109
-454.997	-200.000	0.017	0.173
-453.982	13.521	0.153	-0.118
-452.968	-16.494	0.127	0.080
-451.953	343.760	0.100	-0.194
-450.938	-91.935	-0.113	-0.032
-449.924	-53.509	0.261	0.119
-448.909	-154.690	0.134	-0.009
-447.895	156.684	-0.106	0.146
-446.880	-148.475	0.422	0.034
-445.865	-200.000	0.038	0.222
-444.851	800.000	0.075	0.224
-443.836	-55.919	-0.203	0.090
-442.822	17.923	0.088	0.070
-441.807	-56.748	0.114	-0.050
-440.792	147.427	-0.219	0.292
-439.778	800.000	0.026	0.107
-438.763	-200.000	0.048	0.249
-437.749	87.702	-0.060	0.065
-436.734	-170.402	0.246	-0.009
-435.719	-180.667	-0.309	-0.006
-434.705	-89.288	0.298	-0.087
-433.690	-84.422	0.335	-0.105
-432.676	184.745	-0.112	0.164
-431.661	-58.974	-0.213	0.091
-430.646	-171.095	-0.135	-0.005
-429.632	-45.966	0.100	0.049
-428.617	-161.961	0.170	0.009
-427.603	347.218	-0.010	0.020
-426.588	-200.000	-0.018	-0.158
-425.573	-113.601	0.160	0.031
-424.559	-62.300	0.203	0.084
-423.544	-98.540	0.096	0.024
-422.530	-137.422	-0.210	-0.024
-421.515	281.253	0.074	-0.132
-420.500	235.746	0.177	-0.289
-419.486	-140.104	-0.062	-0.006
-418.471	-200.000	0.007	-0.327
-417.457	368.198	-0.066	-0.131
-416.442	-196.588	-0.164	0.001
-415.428	26.989	0.092	-0.076
-414.413	158.411	-0.164	-0.226
-413.398	431.654	0.075	-0.161
-412.384	218.810	-0.089	0.141
-411.369	144.248	0.194	0.256
-410.355	44.063	0.079	0.072
-409.340	-200.000	0.026	0.120
-408.325	-200.000	0.061	0.310
-407.311	-200.000	-0.005	0.191
-406.296	-164.402	-0.143	-0.006
-405.282	345.397	-0.122	-0.238
-404.267	800.000	0.018	-0.057
-403.252	384.822	-0.133	-0.272
-402.238	-125.886	-0.088	-0.013
-401.223	-83.865	0.202	-0.064
-400.209	-117.814	-0.131	-0.023
-399.194	-139.596	-0.277	0.029
-398.179	259.195	0.115	0.196
-397.165	-200.000	-0.005	0.140
-396.150	-200.000	-0.005	0.047
-395.136	9.000	0.065	0.049
-394.121	-55.443	0.338	0.150
-393.106	-136.266	0.213	-0.025
-392.092	-114.689	0.418	0.079
-391.077	-22.858	0.333	0.199
-390.063	800.000	-0.087	0.306
-389.048	-110.400	0.316	0.065
-388.033	77.035	0.132	0.139
-387.019	-200.000	-0.059	-0.298
-386.004	-200.000	-0.048	-0.288
-384.990	-32.943	0.074	-0.041
-383.975	-162.831	-0.060	-0.003
-382.960	-102.384	0.446	-0.106
-381.946	665.636	0.116	0.295
-380.931	20.046	0.293	0.234
-379.917	-141.994	-0.229	-0.023
-378.902	-93.668	-0.104	0.028
-377.888	1.108	-0.112	-0.080
-376.873	800.000	-0.077	0.212
-375.858	-0.997	0.120	-0.084
-374.844	-122.458	-0.334	0.054
-373.829	-121.958	0.135	0.022
-372.815	181.164	0.158	-0.229
-371.800	-116.938	0.202	-0.037
-370.785	-200.000	0.013	0.205
-369.771	-146.517	-0.137	-0.012
-368.756	225.880	0.157	-0.251
-367.742	21.422	-0.250	0.201
-366.727	-64.741	0.048	0.019
-365.712	-84.034	0.118	-0.037
-364.698	92.385	0.250	0.278
-363.683	-160.209	0.218	-0.012
-362.669	-200.000	-0.018	-0.356
-361.654	-51.300	0.101	0.047
-360.639	-141.100	-0.368	0.037
-359.625	252.809	0.099	0.166
-358.610	12.354	-0.179	0.136
-357.596	-83.457	-0.064	-0.020
-356.581	117.347	0.106	0.128
-355.566	281.158	-0.176	0.311
-354.552	800.000	0.105	0.289
-353.537	-44.137	-0.375	-0.186
-352.523	542.200	-0.034	-0.081
-351.508	-84.421	-0.238	0.074
-350.493	-84.844	0.495	0.154
-349.479	-105.176	-0.124	-0.028
-348.464	-9.622	0.153	0.101
-347.450	-181.482	0.281	-0.005
-346.435	357.641	-0.102	0.201
-345.420	139.277	0.049	-0.064
-344.406	-200.000	-0.017	0.131
-343.391	102.731	0.078	0.090
-342.377	-7.071	-0.172	-0.116
-341.362	-132.044	-0.116	-0.015
-340.348	-143.864	-0.314	0.029
-339.333	215.842	-0.157	-0.246
-338.318	356.409	-0.188	0.371
-337.304	-177.053	0.147	-0.004
-336.289	-15.459	0.131	-0.082
-335.275	-104.698	-0.284	0.065
-334.260	120.364	0.074	0.090
-333.245	178.331	0.140	-0.201
-332.231	-65.655	-0.287	0.114
-331.216	-125.605	-0.263	-0.039
-330.202	529.914	-0.097	-0.226
-329.187	800.000	-0.036	0.117
-328.172	-166.264	-0.404	0.017
-327.158	800.000	-0.064	-0.250
-326.143	42.059	0.193	-0.173
-325.129	-87.534	0.329	-0.098
-324.114	-89.637	0.382	-0.111
-323.099	-41.315	-0.358	-0.182
-322.085	-6.936	-0.107	0.072
-321.070	-14.231	0.240	0.153
-320.056	648.862	0.055	0.140
-319.041	800.000	-0.031	-0.098
-318.026	-17.715	0.152	-0.095
-317.012	-7.514	-0.189	0.127
-315.997	19.209	0.028	-0.022
-314.983	-142.649	-0.097	0.009
-313.968	89.968	0.116	0.128
-312.953	-82.386	-0.049	0.016
-311.939	72.502	0.200	-0.206
-310.924	-39.776	0.353	0.182
-309.910	-44.752	0.391	0.192
-308.895	-5.309	-0.173	0.117
-307.880	-66.058	0.249	-0.098
-306.866	41.508	-0.124	0.111
-305.851	286.257	0.064	-0.114
-304.837	14.615	-0.148	0.114
-303.822	-145.597	-0.370	0.033
-302.807	180.107	-0.110	0.158
-301.793	177.016	0.102	-0.146
-300.778	127.317	0.023	0.029
-299.764	800.000	-0.025	-0.104
-298.749	507.985	-0.169	-0.387
-297.735	-59.986	0.236	-0.100
-296.720	-200.000	-0.087	-0.509
-295.705	116.886	-0.183	-0.222
-294.691	-200.000	0.047	-0.241
-293.676	-30.054	0.080	0.045
-292.662	407.147	0.102	0.212
-291.647	22.019	-0.233	-0.187
-290.632	103.690	-0.113	0.131
-289.618	-3.615	-0.184	-0.126
-288.603	60.299	-0.243	-0.237
-287.589	-187.164	0.106	0.001
-286.574	31.041	-0.153	-0.130
-285.559	-103.359	0.140	0.033
-284.545	-112.444	-0.203	-0.040
-283.530	318.608	-0.165	-0.309
-282.516	-96.336	0.196	-0.051
-281.501	74.197	0.112	0.116
-280.486	-110.157	0.278	0.057
-279.472	-46.281	0.474	0.230
-278.457	-87.452	-0.272	-0.081
-277.443	-105.250	0.020	-0.005
-276.428	-194.046	-0.171	0.001
-275.413	81.422	0.289	0.308
-274.399	800.000	-0.077	0.278
-273.384	-42.720	-0.455	-0.228
-272.370	-24.313	0.117	-0.069
-271.355	-200.000	0.018	-0.096
-270.340	88.299	0.117	0.128
-269.326	85.235	0.016	0.017
-268.311	-81.566	-0.056	-0.018
-267.297	800.000	0.086	-0.327
-266.282	-171.379	0.255	-0.008
-265.267	-27.279	-0.290	-0.166
-264.253	-200.000	-0.021	0.239
-263.238	-200.000	0.022	0.285
-262.224	-200.000	-0.001	-0.062
-261.209	-200.000	-0.022	0.140
-260.195	-49.279	-0.033	-0.016
-259.180	246.723	-0.037	-0.061
-258.165	-112.021	0.272	0.054
-257.151	-86.318	0.088	0.027
-256.136	800.000	0.065	-0.207
-255.122	-67.735	-0.222	0.086
-254.107	-46.429	-0.073	-0.036
-253.092	-200.000	0.024	0.151
-252.078	21.152	0.221	-0.176
-251.063	-42.095	0.231	-0.116
-250.049	6.167	-0.071	0.052
-249.034	-182.059	-0.322	-0.006
-248.019	-143.028	0.278	0.026
-247.005	-200.000	-0.030	0.211
-245.990	31.531	-0.258	-0.218
-244.976	-49.469	-0.232	-0.109
-243.961	-200.000	-0.032	0.192
-242.946	-119.873	-0.195	-0.033
-241.932	-200.000	-0.022	0.215
-240.917	-200.000	0.005	-0.113
-239.903	206.249	-0.084	0.129
-238.888	33.004	0.166	-0.141
-237.873	121.563	0.103	0.126
-236.859	-43.134	-0.013	-0.007
-235.844	-133.269	0.212	0.026
-234.830	800.000	0.031	0.117
-233.815	-40.466	-0.220	-0.112
-232.800	187.757	0.147	-0.216
-231.786	107.778	-0.026	0.030
-230.771	16.515	0.051	0.040
-229.757	22.677	-0.161	-0.130
-228.742	78.219	0.220	-0.231
-227.727	80.340	-0.025	0.026
-226.713	-108.990	0.106	-0.022
-225.698	239.290	0.068	0.111
-224.684	-200.000	0.047	0.404
-223.669	267.372	0.090	-0.155
-222.655	-93.204	0.254	0.069
-221.640	-91.388	0.157	-0.044
-220.625	-200.000	-0.045	-0.220
-219.611	79.584	-0.209	-0.220
-218.596	800.000	0.061	0.180
-217.582	63.940	0.105	0.104
-216.567	-157.585	-0.173	0.010
-215.552	122.243	0.120	-0.148
-214.538	432.463	0.088	-0.187
-213.523	15.847	0.250	0.194
-212.509	-147.138	-0.303	-0.025
-211.494	-157.489	0.230	-0.014
-210.479	-171.272	-0.069	-0.002
-209.465	-127.545	0.409	0.058
-208.450	-0.483	-0.169	-0.118
-207.436	4.150	-0.077	0.055
-206.421	800.000	0.057	-0.210
-205.406	-200.000	0.015	0.073
-204.392	-109.807	-0.158	0.033
-203.377	90.124	0.155	-0.170
-202.363	-169.188	-0.307	-0.011
-201.348	9.379	-0.242	0.180
-200.333	-129.417	0.057	0.008
-199.319	584.270	0.070	0.169
-198.304	-86.940	-0.067	-0.020
-197.290	-24.355	-0.207	-0.121
-196.275	-115.192	-0.321	0.060
-195.260	-53.938	-0.315	0.141
-194.246	-20.264	-0.386	0.233
-193.231	439.946	-0.037	0.079
-192.217	-200.000	-0.057	0.563
-191.202	642.983	0.071	-0.179
-190.187	-84.400	0.256	0.080
-189.173	56.187	-0.174	0.166
-188.158	-118.997	0.388	0.067
-187.144	-90.189	-0.355	-0.101
-186.129	800.000	-0.068	0.209
-185.114	3.999	0.188	0.135
-184.100	-200.000	0.026	0.241
-183.085	8.024	-0.205	0.151
-182.071	-28.615	0.027	0.016
-181.056	-41.467	-0.303	-0.153
-180.042	-1.820	-0.230	-0.159
-179.027	-47.772	0.167	-0.079
-178.012	-200.000	0.027	-0.159
-176.998	-14.815	-0.180	-0.114
-175.983	122.496	-0.184	-0.225
-174.969	-133.444	0.238	-0.029
-173.954	-70.384	0.088	-0.033
-172.939	17.704	0.395	0.308
-171.925	91.223	-0.125	0.137
-170.910	263.798	-0.178	-0.304
-169.896	62.151	0.295	-0.289
-168.881	-199.153	-0.349	0.002
-167.866	800.000	0.089	0.365
-166.852	-133.184	-0.074	-0.009
-165.837	800.000	-0.085	0.292
-164.823	-68.613	-0.167	0.063
-163.808	-128.617	0.379	-0.053
-162.793	22.758	-0.274	-0.220
-161.779	800.000	-0.094	-0.385
-160.764	-200.000	0.074	-0.336
-159.750	800.000	-0.078	0.241
-158.735	113.087	-0.249	0.296
-157.720	233.621	0.236	-0.381
-156.706	-161.718	-0.162	-0.008
-155.691	800.000	0.085	-0.268
-154.677	-200.000	0.011	0.065
-153.662	132.098	0.144	-0.182
-152.647	41.966	0.124	0.110
-151.633	-49.717	-0.230	-0.107
-150.618	-200.000	0.001	-0.296
-149.604	800.000	-0.084	-0.236
-148.589	-118.377	0.385	0.067
-147.574	-4.641	0.130	-0.088
-146.560	22.312	0.105	-0.084
-145.545	145.216	0.122	0.161
-144.531	13.537	0.048	-0.036
-143.516	-200.000	0.034	0.189
-142.502	800.000	0.066	0.256
-141.487	30.474	0.118	0.099
-140.472	87.938	0.278	0.302
-139.458	-88.703	0.060	-0.018
-138.443	21.301	0.062	-0.050
-137.429	-78.844	0.248	0.083
-136.414	-200.000	-0.000	0.026
-135.399	-174.687	-0.103	-0.003
-134.385	35.344	-0.092	0.079
-133.370	800.000	-0.104	0.288
-132.356	75.491	0.287	0.297
-131.341	-92.970	0.253	0.069
-130.326	-200.000	-0.026	-0.173
-129.312	113.854	0.139	0.165
-128.297	168.509	-0.245	0.342
-127.283	140.917	0.094	0.121
-126.268	-200.000	-0.007	-0.271
-125.253	-200.000	0.028	0.161
-124.239	-200.000	0.037	0.184
-123.224	67.693	0.219	0.219
-122.210	-51.655	0.486	0.222
-121.195	84.830	0.262	0.282
