DTS Sentinel unit serial number:	SN413079Multiplexer serial number:	ORYXHardware model number:	OX4-SRSoftware version number:	ORYX F/W v4.00 Oryx Data Collector v3.7.2.0data status	okinstallation	princeton_trtdifferential loss correction	single-endedforward channel	channel 2reverse channel	N/Adate	2019/09/11time	04:29:10forward acquisition time	60.00reverse acquisition time	0.00gamma	496.2192k internal	0.2329k external	0.2329temperature offset calibration	0.9937default loss term (dB/km)	0.3790temperature slope calibration	1.0000multiplexer offset coefficient	1.0000multiplexer slope coefficient	1.0000fibre end	0.00T internal ref (°C)	29.56T ext. ref 1 (°C)	-0.28T ext. ref 2 (°C)	23.39length (m)	temperature (°C)	Stokes	anti-Stokes-747.200	239.462	0.060	-0.101
-746.185	185.002	0.137	-0.205
-745.171	-2.233	0.067	0.047
-744.156	-200.000	0.010	0.182
-743.142	-41.248	-0.258	-0.134
-742.127	800.000	0.100	0.376
-741.112	-200.000	-0.032	-0.382
-740.098	-126.428	-0.201	-0.030
-739.083	-48.910	0.260	0.126
-738.069	211.957	-0.103	-0.163
-737.054	-9.568	-0.304	0.204
-736.039	332.449	-0.081	-0.157
-735.025	163.253	0.154	0.218
-734.010	56.201	-0.168	0.164
-732.996	-62.001	-0.202	-0.085
-731.981	9.412	0.133	0.102
-730.966	800.000	0.061	0.215
-729.952	135.610	-0.245	-0.321
-728.937	-167.663	-0.329	0.013
-727.923	-151.323	0.128	0.010
-726.908	458.630	-0.163	-0.365
-725.894	-156.833	-0.147	-0.009
-724.879	-62.047	0.045	0.019
-723.864	-9.814	-0.229	-0.154
-722.850	-99.288	0.309	-0.078
-721.835	196.124	-0.141	-0.216
-720.821	800.000	-0.089	-0.329
-719.806	-200.000	-0.020	-0.225
-718.791	-200.000	-0.039	0.403
-717.777	118.785	-0.137	-0.170
-716.762	800.000	0.023	0.084
-715.748	-173.294	-0.420	0.013
-714.733	304.536	-0.101	0.188
-713.718	-200.000	0.023	0.252
-712.704	-17.426	-0.332	-0.210
-711.689	800.000	-0.064	-0.198
-710.675	286.197	-0.093	-0.170
-709.660	215.557	0.228	-0.364
-708.645	-72.058	-0.236	0.088
-707.631	-139.238	0.158	0.017
-706.616	-200.000	-0.099	-0.542
-705.602	-132.192	0.316	0.041
-704.587	-200.000	0.002	0.157
-703.572	108.437	0.270	-0.324
-702.558	187.817	-0.111	-0.166
-701.543	-64.922	-0.413	-0.168
-700.529	107.944	-0.163	-0.195
-699.514	695.569	0.049	0.129
-698.499	-200.000	0.045	-0.397
-697.485	-101.031	-0.064	0.016
-696.470	-164.637	0.162	0.007
-695.456	-200.000	-0.039	-0.244
-694.441	46.069	-0.071	-0.066
-693.426	-38.479	0.377	0.200
-692.412	-3.630	-0.227	-0.159
-691.397	663.748	-0.064	-0.166
-690.383	-118.582	0.052	0.009
-689.368	316.528	-0.063	-0.120
-688.354	-91.644	0.245	0.070
-687.339	2.689	-0.152	-0.111
-686.324	-131.562	0.526	0.070
-685.310	-200.000	-0.026	0.131
-684.295	35.017	-0.303	-0.266
-683.281	-54.502	-0.487	0.222
-682.266	-200.000	-0.010	-0.046
-681.251	800.000	-0.071	-0.265
-680.237	-66.638	-0.249	0.099
-679.222	209.570	-0.187	0.294
-678.208	169.366	0.237	-0.340
-677.193	-39.115	-0.281	-0.148
-676.178	196.873	0.127	-0.195
-675.164	352.323	0.080	-0.159
-674.149	80.542	0.175	-0.189
-673.135	60.924	0.160	-0.160
-672.120	-150.128	-0.111	-0.009
-671.105	257.525	0.044	-0.076
-670.091	117.375	0.147	0.182
-669.076	-50.782	-0.098	0.046
-668.062	61.832	0.109	0.109
-667.047	239.566	-0.067	-0.111
-666.032	-187.135	0.202	0.003
-665.018	-200.000	-0.005	-0.097
-664.003	-100.745	-0.262	-0.065
-662.989	8.954	-0.134	-0.102
-661.974	800.000	-0.071	0.241
-660.959	-200.000	-0.043	-0.271
-659.945	800.000	0.102	-0.392
-658.930	-139.453	0.135	0.014
-657.916	-44.823	0.274	-0.137
-656.901	252.243	-0.236	-0.404
-655.886	-200.000	-0.276	-0.000
-654.872	-200.000	0.002	0.103
-653.857	-129.745	-0.232	0.032
-652.843	241.239	0.154	0.258
-651.828	-123.422	-0.146	-0.023
-650.814	38.208	0.251	-0.225
-649.799	-71.150	-0.275	-0.104
-648.784	-15.323	0.268	0.172
-647.770	-73.426	-0.195	0.071
-646.755	-62.463	0.264	-0.110
-645.741	-200.000	0.010	0.209
-644.726	86.699	0.259	-0.287
-643.711	800.000	0.007	-0.033
-642.697	105.075	0.162	-0.192
-641.682	306.912	0.198	-0.370
-640.668	-154.102	-0.153	-0.010
-639.653	-200.000	-0.066	0.366
-638.638	-29.696	-0.402	-0.230
-637.624	67.766	0.092	-0.095
-636.609	68.942	0.209	0.215
-635.595	-200.000	0.007	0.045
-634.580	800.000	0.098	-0.285
-633.565	-140.521	-0.193	0.020
-632.551	-129.936	0.087	-0.012
-631.536	69.939	0.083	0.086
-630.522	632.260	0.093	-0.237
-629.507	35.306	-0.048	0.042
-628.492	634.888	0.110	0.281
-627.478	-172.811	-0.255	0.008
-626.463	-105.981	-0.220	-0.050
-625.449	91.453	0.229	0.258
-624.434	148.164	-0.081	0.110
-623.419	-77.019	-0.325	0.114
-622.405	-150.473	-0.280	-0.022
-621.390	-171.760	-0.258	-0.008
-620.376	388.238	-0.075	-0.156
-619.361	-200.000	0.044	-0.262
-618.346	-63.435	0.074	-0.030
-617.332	-10.582	-0.434	-0.288
-616.317	-200.000	-0.001	0.159
-615.303	-73.268	-0.100	-0.037
-614.288	107.200	-0.211	-0.252
-613.273	153.240	0.084	0.115
-612.259	52.164	0.155	-0.148
-611.244	130.096	-0.024	0.031
-610.230	-69.625	-0.232	-0.089
-609.215	-19.012	-0.201	0.125
-608.201	86.965	-0.197	0.218
-607.186	-39.259	-0.140	0.074
-606.171	-200.000	0.015	-0.318
-605.157	800.000	0.015	-0.054
-604.142	279.253	0.141	0.251
-603.128	-200.000	-0.007	0.162
-602.113	184.870	0.080	-0.119
-601.098	26.536	0.219	0.184
-600.084	-200.000	-0.032	-0.194
-599.069	-188.631	0.123	-0.002
-598.055	-148.947	-0.467	-0.038
-597.040	-200.000	-0.092	0.432
-596.025	-63.276	0.194	0.080
-595.011	111.963	0.229	0.277
-593.996	101.754	-0.165	0.193
-592.982	-144.060	-0.244	-0.023
-591.967	-200.000	0.044	0.254
-590.952	-200.000	0.008	-0.131
-589.938	-48.685	-0.071	-0.034
-588.923	-135.306	-0.222	-0.027
-587.909	413.123	-0.051	-0.109
-586.894	-136.722	-0.232	0.027
-585.879	65.353	0.108	-0.110
-584.865	-124.502	-0.414	0.064
-583.850	-95.457	-0.141	-0.038
-582.836	-76.664	0.262	-0.092
-581.821	-43.068	-0.217	0.110
-580.806	-12.261	-0.181	0.119
-579.792	454.468	-0.068	0.152
-578.777	-200.000	0.028	0.159
-577.763	633.177	-0.031	0.079
-576.748	-84.095	0.140	0.044
-575.733	800.000	-0.009	-0.036
-574.719	-200.000	0.006	-0.261
-573.704	194.416	-0.106	-0.160
-572.690	-183.709	-0.089	-0.002
-571.675	340.651	0.117	-0.228
-570.661	-39.860	0.142	-0.074
-569.646	800.000	0.044	0.153
-568.631	25.885	0.130	0.109
-567.617	-200.000	-0.054	-0.281
-566.602	800.000	-0.057	0.212
-565.588	423.767	-0.241	0.518
-564.573	-81.478	-0.248	0.082
-563.558	660.773	0.075	-0.194
-562.544	800.000	-0.172	-0.623
-561.529	61.082	0.214	0.212
-560.515	-52.203	0.086	0.040
-559.500	-175.914	-0.149	0.004
-558.485	800.000	-0.121	-0.405
-557.471	87.309	-0.132	-0.146
-556.456	800.000	-0.069	-0.285
-555.442	-91.057	-0.430	-0.123
-554.427	800.000	-0.086	-0.244
-553.412	-50.926	0.094	0.044
-552.398	-41.403	-0.172	-0.088
-551.383	-200.000	-0.063	-0.278
-550.369	-62.439	-0.352	-0.146
-549.354	800.000	-0.019	0.071
-548.339	524.045	0.053	-0.124
-547.325	-115.466	-0.240	0.045
-546.310	0.220	-0.045	0.032
-545.296	-200.000	-0.012	-0.154
-544.281	623.215	-0.066	0.167
-543.266	-200.000	-0.016	-0.205
-542.252	247.828	0.152	-0.257
-541.237	25.533	-0.257	0.214
-540.223	680.995	-0.082	0.213
-539.208	-200.000	-0.007	-0.282
-538.193	-31.299	-0.173	0.097
-537.179	-106.721	0.268	0.059
-536.164	-12.943	0.161	0.105
-535.150	131.334	0.183	-0.235
-534.135	-128.434	-0.260	-0.037
-533.121	-30.035	-0.039	0.022
-532.106	-200.000	0.039	0.179
-531.091	-94.866	-0.125	-0.034
-530.077	-128.240	-0.242	-0.034
-529.062	53.367	0.227	0.218
-528.048	204.110	-0.285	-0.442
-527.033	-15.423	0.238	-0.152
-526.018	93.787	-0.145	-0.164
-525.004	-200.000	-0.001	-0.126
-523.989	394.357	0.147	0.306
-522.975	-20.748	-0.099	0.061
-521.960	22.583	-0.125	0.102
-520.945	-129.791	-0.339	-0.047
-519.931	438.102	0.146	0.318
-518.916	-140.590	0.161	-0.017
-517.902	79.833	-0.097	0.104
-516.887	-91.502	0.248	0.071
-515.872	-57.852	0.161	0.070
-514.858	-134.433	0.191	0.023
-513.843	102.988	-0.143	0.167
-512.829	-200.000	0.023	0.212
-511.814	-67.702	-0.158	-0.062
-510.799	-129.939	-0.448	-0.061
-509.785	484.157	-0.141	-0.320
-508.770	-148.554	0.103	0.008
-507.756	-142.044	0.299	-0.030
-506.741	28.009	-0.048	0.040
-505.726	143.105	-0.122	-0.162
-504.712	-200.000	-0.021	0.145
-503.697	34.691	0.058	-0.051
-502.683	-26.518	-0.152	-0.089
-501.668	722.710	-0.072	-0.191
-500.653	366.098	-0.099	-0.199
-499.639	86.920	0.150	-0.165
-498.624	231.150	0.084	-0.138
-497.610	-200.000	-0.022	0.128
-496.595	125.442	0.172	-0.216
-495.581	443.915	0.093	-0.204
-494.566	44.646	-0.292	-0.268
-493.551	-20.951	0.295	-0.181
-492.537	-117.150	0.427	-0.078
-491.522	-79.965	0.085	0.028
-490.508	-200.000	0.069	-0.334
-489.493	-200.000	-0.037	-0.207
-488.478	-11.351	0.123	-0.081
-487.464	-49.419	0.154	-0.073
-486.449	-106.371	0.141	-0.031
-485.435	208.008	-0.133	-0.207
-484.420	-183.112	-0.015	0.000
-483.405	-112.289	0.125	0.025
-482.391	64.611	-0.282	0.284
-481.376	-42.510	-0.232	-0.118
-480.362	-122.804	0.295	-0.047
-479.347	-200.000	0.029	0.235
-478.332	-104.243	0.225	-0.052
-477.318	78.678	0.204	-0.218
-476.303	800.000	-0.077	0.297
-475.289	45.840	0.338	-0.311
-474.274	191.538	-0.137	0.206
-473.259	148.339	-0.216	0.291
-472.245	-79.828	0.043	-0.015
-471.230	-200.000	-0.021	-0.125
-470.216	660.861	0.053	0.137
-469.201	568.899	0.045	0.109
-468.186	285.512	-0.032	-0.058
-467.172	29.289	-0.337	0.285
-466.157	201.168	0.118	-0.181
-465.143	-175.962	-0.085	-0.002
-464.128	-67.121	0.249	-0.098
-463.113	-45.967	0.291	0.143
-462.099	159.703	0.233	0.323
-461.084	-200.000	0.009	0.116
-460.070	555.188	-0.148	-0.355
-459.055	11.155	-0.243	0.185
-458.040	227.546	-0.122	0.198
-457.026	800.000	-0.075	0.313
-456.011	-13.842	-0.223	-0.143
-454.997	117.777	0.165	0.202
-453.982	-200.000	0.060	0.405
-452.968	-54.558	0.277	0.125
-451.953	15.637	-0.139	0.109
-450.938	-15.085	-0.193	0.123
-449.924	265.195	-0.094	-0.164
-448.909	-38.241	-0.231	-0.122
-447.895	-200.000	0.275	-0.001
-446.880	-19.342	0.071	-0.044
-445.865	-132.051	-0.276	-0.036
-444.851	-119.055	-0.314	0.055
-443.836	182.771	0.057	0.083
-442.822	-200.000	-0.034	-0.312
-441.807	-88.221	0.129	0.038
-440.792	14.330	0.154	0.119
-439.778	800.000	0.119	-0.375
-438.763	224.025	-0.079	0.127
-437.749	104.981	-0.115	0.135
-436.734	-133.173	0.073	-0.009
-435.719	269.918	-0.097	-0.170
-434.705	-102.678	0.197	0.047
-433.690	-200.000	0.025	0.211
-432.676	-200.000	-0.046	0.492
-431.661	-200.000	0.018	0.216
-430.646	800.000	-0.032	-0.100
-429.632	-141.453	0.259	0.026
-428.617	-200.000	0.034	-0.292
-427.603	800.000	0.019	0.072
-426.588	-143.596	0.105	0.010
-425.573	149.443	-0.220	0.296
-424.559	80.408	0.066	-0.071
-423.544	50.802	0.229	0.215
-422.530	-74.973	0.259	-0.092
-421.515	800.000	-0.070	0.194
-420.500	-69.296	-0.306	-0.117
-419.486	-60.110	0.337	-0.143
-418.471	800.000	-0.098	0.313
-417.457	-135.115	0.132	-0.016
-416.442	176.923	0.127	0.183
-415.428	209.447	-0.158	-0.247
-414.413	143.169	0.115	-0.152
-413.398	170.836	0.155	0.220
-412.384	31.709	-0.185	-0.158
-411.369	-123.137	0.431	0.069
-410.355	187.588	0.073	0.109
-409.340	99.664	-0.158	0.182
-408.325	60.236	-0.068	0.066
-407.311	200.928	-0.102	-0.156
-406.296	-153.478	-0.012	0.001
-405.282	-84.976	-0.069	-0.021
-404.267	140.048	-0.036	0.047
-403.252	665.382	0.052	-0.134
-402.238	800.000	-0.071	0.245
-401.223	-18.168	-0.073	-0.045
-400.209	800.000	-0.145	-0.456
-399.194	-22.785	-0.108	-0.065
-398.179	800.000	0.051	-0.149
-397.165	58.262	-0.144	0.140
-396.150	10.126	-0.084	-0.063
-395.136	800.000	-0.076	0.212
-394.121	-139.357	0.200	0.021
-393.106	-200.000	0.055	-0.244
-392.092	-77.631	-0.090	-0.031
-391.077	34.915	0.027	0.023
-390.063	-200.000	-0.006	0.156
-389.048	222.069	-0.139	0.223
-388.033	-21.666	0.301	-0.182
-387.019	-200.000	-0.017	0.141
-386.004	129.361	-0.103	-0.130
-384.990	-154.258	0.145	0.010
-383.975	-126.906	-0.159	-0.023
-382.960	-76.537	-0.168	0.059
-381.946	101.529	0.272	-0.315
-380.931	-200.000	-0.006	-0.350
-379.917	183.736	0.120	0.177
-378.902	462.745	0.085	0.187
-377.888	-155.738	-0.157	-0.010
-376.873	-200.000	0.002	-0.190
-375.858	-31.180	-0.192	0.107
-374.844	10.134	0.336	-0.253
-373.829	-74.213	0.209	0.075
-372.815	52.364	0.239	0.227
-371.800	572.541	-0.126	0.306
-370.785	-200.000	-0.079	0.386
-369.771	800.000	0.032	-0.120
-368.756	304.741	-0.059	-0.108
-367.742	-16.214	0.191	-0.120
-366.727	106.755	0.142	-0.167
-365.712	21.990	-0.247	-0.200
-364.698	730.542	-0.070	0.185
-363.683	-200.000	0.014	-0.229
-362.669	-59.434	-0.296	0.126
-361.654	794.726	0.079	-0.217
-360.639	-200.000	0.000	-0.138
-359.625	-72.089	0.183	0.067
-358.610	21.729	-0.139	-0.112
-357.596	13.080	0.123	-0.095
-356.581	-156.052	0.051	0.003
-355.566	-24.534	-0.097	0.057
-354.552	-200.000	0.052	0.292
-353.537	24.516	0.049	-0.040
-352.523	-160.682	-0.403	-0.021
-351.508	-25.679	0.301	-0.176
-350.493	90.307	-0.141	-0.157
-349.479	80.604	0.232	0.247
-348.464	82.262	0.159	-0.171
-347.450	68.953	-0.133	-0.136
-346.435	800.000	-0.084	0.245
-345.420	800.000	-0.043	-0.142
-344.406	342.789	0.014	0.027
-343.391	62.153	0.261	-0.258
-342.377	738.989	-0.121	0.321
-341.362	204.708	-0.165	-0.254
-340.348	-55.559	-0.174	0.077
-339.333	-23.943	0.190	-0.112
-338.318	-80.737	0.183	-0.060
-337.304	349.713	0.038	-0.075
-336.289	122.465	0.070	0.087
-335.275	-73.942	0.212	-0.076
-334.260	-110.984	-0.184	-0.037
-333.245	77.772	0.101	0.107
-332.231	-135.953	-0.197	-0.023
-331.216	-102.526	0.212	0.050
-330.202	-72.966	-0.050	0.018
-329.187	-199.510	-0.296	-0.002
-328.172	-10.075	0.283	-0.187
-327.158	172.367	0.056	0.080
-326.143	34.590	-0.179	0.155
-325.129	-95.524	-0.120	-0.032
-324.114	-113.791	0.094	0.018
-323.099	124.485	-0.190	0.237
-322.085	-200.000	0.017	0.216
-321.070	-11.007	0.174	-0.114
-320.056	-26.891	-0.246	0.142
-319.041	-4.662	-0.306	0.210
-318.026	-188.749	0.309	-0.004
-317.012	133.831	0.068	-0.087
-315.997	-121.672	-0.195	-0.032
-314.983	-51.055	0.101	0.047
-313.968	800.000	-0.037	0.119
-312.953	260.837	0.085	-0.145
-311.939	-200.000	0.019	0.346
-310.924	632.156	0.015	0.039
-309.910	41.832	0.077	-0.069
-308.895	359.619	0.105	-0.208
-307.880	-200.000	-0.092	-0.426
-306.866	-200.000	-0.019	-0.229
-305.851	-200.000	0.017	-0.187
-304.837	-159.847	0.083	-0.004
-303.822	-200.000	0.040	-0.284
-302.807	156.847	0.222	-0.304
-301.793	-200.000	-0.007	0.302
-300.778	-28.272	0.309	-0.177
-299.764	-57.542	0.032	-0.014
-298.749	42.819	-0.079	-0.071
-297.735	14.802	0.137	0.106
-296.720	800.000	-0.042	0.165
-295.705	81.686	-0.049	-0.052
-294.691	37.772	0.163	-0.144
-293.676	-66.713	0.295	-0.116
-292.662	-8.305	-0.386	0.257
-291.647	-60.657	0.242	0.102
-290.632	-200.000	0.017	-0.291
-289.618	74.702	-0.103	-0.107
-288.603	-163.180	-0.102	0.005
-287.589	-161.126	0.121	-0.006
-286.574	-179.244	-0.042	-0.001
-285.559	-200.000	-0.012	0.150
-284.545	21.501	0.217	-0.175
-283.530	39.840	0.111	-0.099
-282.516	-80.730	0.302	-0.099
-281.501	-75.135	-0.390	-0.138
-280.486	253.925	-0.104	0.177
-279.472	79.183	0.132	-0.140
-278.457	28.127	-0.100	-0.083
-277.443	92.398	-0.068	-0.075
-276.428	414.290	-0.053	-0.111
-275.413	-74.957	0.105	-0.037
-274.399	-68.811	-0.097	-0.037
-273.384	-53.800	0.159	-0.072
-272.370	63.181	0.141	0.140
-271.355	507.986	-0.059	-0.134
-270.340	-132.214	0.301	0.039
-269.326	-39.748	0.306	-0.158
-268.311	-85.402	0.212	-0.065
-267.297	-36.236	0.165	0.088
-266.282	-200.000	0.008	0.108
-265.267	-76.520	0.289	0.100
-264.253	249.741	0.154	-0.257
-263.238	-69.907	0.268	0.101
-262.224	315.978	-0.083	0.154
-261.209	-200.000	0.025	0.305
-260.195	-106.607	-0.175	0.039
-259.180	800.000	-0.064	-0.262
-258.165	341.578	0.180	-0.347
-257.151	-200.000	-0.018	-0.307
-256.136	123.775	0.159	0.197
-255.122	263.011	0.088	0.151
-254.107	-103.649	-0.094	-0.022
-253.092	-18.365	0.133	0.082
-252.078	800.000	0.149	0.407
-251.063	-200.000	-0.029	0.315
-250.049	387.682	-0.149	0.304
-249.034	56.757	0.209	-0.201
-248.019	-54.525	-0.350	0.157
-247.005	73.430	0.234	0.242
-245.990	-126.618	0.470	0.069
-244.976	22.497	0.136	-0.110
-243.961	-104.693	-0.435	0.099
-242.946	-117.759	0.159	0.028
-241.932	217.115	-0.185	0.291
-240.917	739.292	-0.089	-0.235
-239.903	44.191	0.140	0.127
-238.888	23.308	-0.185	-0.150
-237.873	-40.200	0.416	0.214
-236.859	158.364	-0.294	0.403
-235.844	282.813	-0.155	0.274
-234.830	314.308	0.066	-0.123
-233.815	-91.581	0.335	0.094
-232.800	-84.987	-0.326	-0.101
-231.786	205.342	0.133	0.204
-230.771	-9.846	0.133	0.087
-229.757	-200.000	0.001	-0.117
-228.742	-114.315	-0.240	-0.046
-227.727	44.495	0.357	-0.324
-226.713	3.227	0.246	-0.176
-225.698	-65.830	0.221	0.087
-224.684	-200.000	-0.024	0.198
-223.669	12.365	0.213	-0.162
-222.655	131.249	0.172	0.218
-221.640	-200.000	-0.112	0.000
-220.625	-2.952	0.073	0.050
-219.611	2.113	-0.294	0.209
-218.596	295.395	0.186	0.335
-217.582	-122.193	-0.435	-0.070
-216.567	-143.159	-0.144	-0.014
-215.552	-200.000	0.035	-0.223
-214.538	-194.024	-0.114	-0.001
-213.523	699.092	0.090	0.233
-212.509	-81.748	-0.233	0.075
-211.494	197.751	0.020	-0.030
-210.479	-200.000	-0.017	-0.186
-209.465	-40.230	-0.395	0.203
-208.450	-110.914	-0.172	0.035
-207.436	57.776	-0.120	0.116
-206.421	179.207	-0.238	0.344
-205.406	-56.933	0.131	-0.057
-204.392	15.221	-0.111	-0.086
-203.377	780.006	-0.059	-0.159
-202.363	-200.000	0.111	-0.566
-201.348	-49.194	0.271	0.128
-200.333	250.508	0.223	0.374
-199.319	-77.895	-0.354	-0.120
-198.304	156.692	-0.135	0.184
-197.290	-84.664	-0.071	-0.022
-196.275	-37.728	-0.160	-0.084
-195.260	-116.782	0.358	0.065
-194.246	95.951	-0.318	-0.358
-193.231	715.796	0.071	-0.187
-192.217	-31.667	0.216	-0.120
-191.202	800.000	-0.044	-0.166
-190.187	-118.172	0.234	-0.041
-189.173	-24.301	0.109	-0.064
-188.158	-104.264	-0.242	0.055
-187.144	201.755	-0.084	-0.128
-186.129	800.000	0.038	0.127
-185.114	218.837	-0.026	-0.041
-184.100	25.231	-0.013	0.011
-183.085	73.650	0.205	-0.212
-182.071	-29.287	-0.099	-0.056
-181.056	208.498	0.213	0.328
-180.042	111.787	0.092	0.110
-179.027	-143.490	-0.155	-0.015
-178.012	143.920	-0.136	-0.178
-176.998	800.000	0.126	0.418
-175.983	164.878	0.102	-0.142
-174.969	76.553	0.104	0.109
-173.954	660.286	0.039	0.098
-172.939	-82.643	0.175	-0.056
-171.925	285.396	-0.128	-0.227
-170.910	-200.000	-0.009	0.245
-169.896	-88.631	0.186	0.054
-168.881	53.274	-0.178	0.168
-167.866	800.000	-0.052	-0.162
-166.852	36.745	0.243	-0.212
-165.837	-200.000	0.038	0.227
-164.823	-158.701	0.115	0.006
-163.808	-200.000	0.016	0.405
-162.793	14.393	-0.086	-0.066
-161.779	46.144	-0.232	0.212
-160.764	-56.309	0.220	0.096
-159.750	-200.000	-0.032	-0.156
-158.735	-60.687	0.156	-0.065
-157.720	137.788	0.004	-0.005
-156.706	-52.288	-0.091	0.041
-155.691	-49.775	-0.152	0.071
-154.677	360.454	0.173	0.341
-153.662	800.000	-0.069	0.231
-152.647	1.724	-0.237	0.168
-151.633	-141.836	0.244	-0.024
-150.618	-200.000	-0.070	-0.341
-149.604	-57.633	0.392	0.169
-148.589	715.628	-0.203	0.530
-147.574	601.525	-0.041	-0.101
-146.560	-130.433	-0.139	0.018
-145.545	690.492	-0.160	0.413
-144.531	-14.162	-0.085	0.054
-143.516	184.477	0.132	-0.193
-142.502	36.359	0.178	-0.155
-141.487	-59.441	0.045	0.019
-140.472	148.644	-0.121	0.161
-139.458	-71.835	0.090	0.033
-138.443	392.442	-0.301	0.615
-137.429	232.567	-0.152	0.245
-136.414	-200.000	0.015	-0.320
-135.399	-117.514	0.211	0.037
-134.385	407.106	-0.173	-0.359
-133.370	-13.256	0.332	0.212
-132.356	800.000	-0.083	-0.260
-131.341	31.183	0.107	-0.090
-130.326	-94.227	0.304	-0.082
-129.312	-136.487	-0.026	0.003
-128.297	-152.803	0.127	0.009
-127.283	-200.000	0.035	0.162
-126.268	-68.912	0.124	0.047
-125.253	-106.657	0.377	0.082
-124.239	-122.995	-0.454	0.072
-123.224	92.353	-0.152	0.169
-122.210	-65.443	-0.263	0.104
