DTS Sentinel unit serial number:	SN413079Multiplexer serial number:	ORYXHardware model number:	OX4-SRSoftware version number:	ORYX F/W v4.00 Oryx Data Collector v3.7.2.0data status	okinstallation	princeton_trtdifferential loss correction	single-endedforward channel	channel 2reverse channel	N/Adate	2019/09/17time	17:07:35forward acquisition time	60.00reverse acquisition time	0.00gamma	496.2192k internal	0.2291k external	0.2291temperature offset calibration	0.9980default loss term (dB/km)	0.3790temperature slope calibration	1.0000multiplexer offset coefficient	1.0000multiplexer slope coefficient	1.0000fibre end	0.00T internal ref (°C)	42.73T ext. ref 1 (°C)	0.35T ext. ref 2 (°C)	38.92length (m)	temperature (°C)	Stokes	anti-Stokes-747.200	98.374	-0.166	0.196
-746.185	-200.000	-0.024	0.198
-745.171	-200.000	0.007	0.527
-744.156	24.344	-0.147	0.125
-743.142	-105.817	-0.385	-0.089
-742.127	369.923	0.201	0.417
-741.112	-200.000	0.055	0.246
-740.098	-200.000	0.061	0.302
-739.083	-126.081	0.246	-0.038
-738.069	342.858	0.234	0.470
-737.054	-200.000	0.008	0.150
-736.039	-200.000	0.032	0.370
-735.025	55.157	0.124	-0.123
-734.010	265.974	-0.172	0.307
-732.996	58.513	-0.342	0.343
-731.981	-200.000	0.019	-0.371
-730.966	440.619	-0.121	-0.271
-729.952	-25.540	-0.231	0.140
-728.937	800.000	0.027	0.109
-727.923	100.509	-0.406	-0.482
-726.908	-36.657	-0.205	-0.113
-725.894	134.655	-0.037	0.049
-724.879	162.437	-0.043	0.062
-723.864	223.479	-0.176	-0.291
-722.850	61.929	-0.185	-0.188
-721.835	191.927	0.075	0.115
-720.821	-200.000	0.020	-0.094
-719.806	-73.431	0.128	-0.048
-718.791	-200.000	0.030	0.237
-717.777	312.422	-0.104	0.199
-716.762	-74.596	0.099	-0.036
-715.748	155.660	-0.048	-0.068
-714.733	65.371	-0.138	-0.143
-713.718	-88.646	-0.271	-0.083
-712.704	22.074	-0.156	0.130
-711.689	-108.911	0.269	0.059
-710.675	-121.044	-0.290	0.050
-709.660	-154.339	-0.092	0.006
-708.645	-87.367	0.200	0.062
-707.631	118.978	0.047	0.059
-706.616	32.817	-0.241	-0.213
-705.602	200.768	-0.114	0.179
-704.587	33.516	-0.259	0.230
-703.572	-200.000	0.007	-0.244
-702.558	696.383	0.029	0.078
-701.543	717.544	-0.069	-0.187
-700.529	-102.621	-0.168	-0.041
-699.514	-200.000	-0.006	0.318
-698.499	6.085	0.158	-0.120
-697.485	59.424	-0.110	-0.111
-696.470	-200.000	-0.027	-0.211
-695.456	-157.002	-0.282	0.018
-694.441	-200.000	0.007	-0.355
-693.426	62.232	-0.117	0.119
-692.412	-148.232	-0.327	0.028
-691.397	156.028	-0.154	0.217
-690.383	-112.117	-0.126	0.026
-689.368	505.213	0.074	-0.176
-688.354	800.000	-0.063	0.196
-687.339	-47.425	-0.212	0.105
-686.324	231.921	0.084	-0.142
-685.310	-200.000	0.000	-0.241
-684.295	-157.037	-0.169	-0.011
-683.281	260.470	-0.150	-0.264
-682.266	25.819	-0.234	-0.199
-681.251	-59.073	0.091	0.040
-680.237	108.269	-0.250	0.305
-679.222	8.931	-0.124	0.096
-678.208	-151.825	-0.097	-0.007
-677.193	800.000	-0.012	-0.039
-676.178	-102.457	-0.046	0.011
-675.164	800.000	0.029	0.115
-674.149	-139.084	-0.227	-0.025
-673.135	86.224	0.036	0.041
-672.120	-39.765	0.308	0.165
-671.105	-200.000	0.031	-0.229
-670.091	78.110	-0.071	0.077
-669.076	80.903	-0.120	-0.133
-668.062	171.104	-0.078	0.115
-667.047	-14.274	-0.097	0.064
-666.032	-200.000	-0.021	-0.211
-665.018	-196.030	0.112	-0.001
-664.003	98.813	0.185	0.218
-662.989	-45.265	-0.013	0.007
-661.974	314.010	-0.088	0.168
-660.959	-74.133	-0.330	0.122
-659.945	20.410	-0.019	-0.016
-658.930	-200.000	-0.051	0.248
-657.916	-200.000	0.011	0.218
-656.901	81.625	-0.116	-0.128
-655.886	0.398	0.296	0.216
-654.872	-142.699	-0.217	0.022
-653.857	49.688	-0.232	0.223
-652.843	-44.862	0.135	-0.069
-651.828	190.987	-0.110	-0.168
-650.814	-111.994	0.246	-0.051
-649.799	-117.999	-0.418	0.076
-648.784	-6.570	0.020	0.014
-647.770	-3.206	-0.213	-0.151
-646.755	742.635	0.134	-0.367
-645.741	119.501	-0.123	-0.156
-644.726	37.886	0.316	-0.286
-643.711	632.369	-0.059	0.152
-642.697	68.844	-0.152	-0.159
-641.682	-115.104	0.303	-0.059
-640.668	-200.000	0.022	-0.098
-639.653	265.633	0.037	-0.065
-638.638	82.442	0.220	0.243
-637.624	800.000	-0.089	-0.360
-636.609	110.443	0.064	0.079
-635.595	12.683	-0.174	-0.137
-634.580	324.092	0.038	0.074
-633.565	-68.903	0.265	0.104
-632.551	110.743	-0.059	-0.072
-631.536	10.832	-0.126	0.098
-630.522	240.613	-0.201	-0.342
-629.507	772.486	0.118	-0.327
-628.492	150.680	-0.272	-0.376
-627.478	-200.000	-0.015	0.148
-626.463	101.806	-0.122	0.145
-625.449	713.355	-0.080	0.217
-624.434	63.045	0.124	-0.126
-623.419	-200.000	-0.014	0.078
-622.405	396.810	0.055	0.118
-621.390	10.876	0.223	-0.174
-620.376	-11.509	-0.201	-0.135
-619.361	800.000	-0.040	0.174
-618.346	-51.128	-0.163	0.078
-617.332	-58.301	-0.412	-0.183
-616.317	706.131	-0.091	-0.245
-615.303	-171.149	-0.219	-0.008
-614.288	423.784	0.054	0.118
-613.273	800.000	0.081	0.228
-612.259	184.073	0.070	-0.105
-611.244	-31.125	0.056	0.032
-610.230	-84.785	0.062	0.020
-609.215	800.000	-0.074	0.250
-608.201	332.908	0.097	-0.191
-607.186	140.529	0.182	-0.245
-606.171	289.142	0.008	0.015
-605.157	-200.000	0.060	-0.319
-604.142	11.430	-0.313	-0.244
-603.128	357.193	0.095	0.192
-602.113	-43.508	0.183	0.094
-601.098	125.362	0.102	0.131
-600.084	800.000	-0.064	0.270
-599.069	35.219	0.051	-0.045
-598.055	360.521	-0.071	0.145
-597.040	-176.003	-0.098	-0.003
-596.025	61.165	0.176	-0.178
-595.011	-51.909	-0.156	-0.074
-593.996	-161.762	-0.288	0.015
-592.982	800.000	0.059	-0.207
-591.967	72.513	0.167	-0.177
-590.952	-179.807	-0.243	-0.005
-589.938	12.547	-0.254	-0.199
-588.923	-95.147	-0.077	-0.021
-587.909	-126.381	-0.130	0.020
-586.894	-77.821	-0.174	-0.061
-585.879	800.000	0.038	0.141
-584.865	0.274	0.137	0.099
-583.850	-127.918	-0.074	0.011
-582.836	-92.067	0.214	0.062
-581.821	312.404	-0.118	0.226
-580.806	-32.644	0.049	-0.028
-579.792	347.252	-0.151	0.302
-578.777	30.279	-0.025	0.022
-577.763	124.805	0.075	-0.096
-576.748	-200.000	0.039	0.186
-575.733	-67.931	0.054	-0.021
-574.719	357.405	-0.102	-0.208
-573.704	-171.000	0.379	0.013
-572.690	127.224	0.153	0.198
-571.675	-200.000	0.001	0.223
-570.661	-8.549	0.099	-0.068
-569.646	32.479	0.154	-0.135
-568.631	-200.000	0.001	-0.116
-567.617	21.359	-0.022	-0.018
-566.602	6.626	0.009	0.007
-565.588	-200.000	0.028	0.282
-564.573	800.000	-0.064	0.190
-563.558	-163.906	0.164	0.008
-562.544	-200.000	0.065	-0.307
-561.529	452.663	-0.017	-0.038
-560.515	198.038	0.090	-0.140
-559.500	-143.281	-0.291	0.028
-558.485	-200.000	0.005	-0.053
-557.471	149.453	-0.055	-0.076
-556.456	-91.878	0.140	0.040
-555.442	-200.000	-0.039	-0.205
-554.427	48.973	0.117	-0.111
-553.412	54.147	0.064	0.063
-552.398	-75.433	-0.235	-0.085
-551.383	-200.000	0.028	0.230
-550.369	-40.046	0.361	0.191
-549.354	625.533	0.096	-0.246
-548.339	767.917	0.078	-0.216
-547.325	21.915	0.285	0.236
-546.310	-200.000	-0.036	-0.217
-545.296	-17.607	-0.158	-0.101
-544.281	114.698	-0.076	0.094
-543.266	75.515	-0.248	0.266
-542.252	84.590	0.036	-0.040
-541.237	233.382	0.060	-0.101
-540.223	141.208	-0.089	-0.119
-539.208	-193.151	0.174	0.002
-538.193	800.000	-0.047	-0.144
-537.179	94.344	0.038	0.044
-536.164	182.026	0.123	-0.184
-535.150	-178.651	0.143	-0.003
-534.135	-123.354	-0.271	-0.044
-533.121	179.238	0.059	0.088
-532.106	-200.000	0.055	0.356
-531.091	-200.000	-0.020	0.105
-530.077	-147.881	0.212	-0.018
-529.062	-137.467	0.309	-0.036
-528.048	-108.816	-0.231	-0.050
-527.033	-88.939	-0.150	0.045
-526.018	255.624	-0.047	0.082
-525.004	-7.480	-0.105	-0.072
-523.989	309.714	-0.149	-0.284
-522.975	-35.711	0.133	0.073
-521.960	800.000	0.074	0.213
-520.945	-177.205	-0.202	-0.005
-519.931	-115.203	0.199	-0.038
-518.916	-66.242	-0.451	0.182
-517.902	54.390	0.125	-0.122
-516.887	-78.872	-0.215	-0.074
-515.872	-11.192	-0.062	-0.042
-514.858	-200.000	-0.005	0.026
-513.843	-200.000	0.004	0.041
-512.829	-99.720	0.252	-0.064
-511.814	-17.770	-0.160	-0.102
-510.799	800.000	-0.070	-0.277
-509.785	-89.349	0.197	0.059
-508.770	800.000	0.031	-0.108
-507.756	158.244	-0.142	0.199
-506.741	41.247	0.141	0.129
-505.726	-200.000	0.007	-0.240
-504.712	-97.068	-0.274	0.073
-503.697	414.402	-0.090	-0.195
-502.683	-28.271	0.279	0.163
-501.668	525.469	0.038	0.090
-500.653	-92.732	-0.376	0.107
-499.639	-125.441	-0.122	-0.019
-498.624	80.075	-0.019	-0.021
-497.610	48.106	0.160	-0.152
-496.595	-119.078	0.134	-0.024
-495.581	101.739	0.159	0.189
-494.566	-50.061	-0.197	0.095
-493.551	512.176	0.128	-0.303
-492.537	-119.005	-0.111	-0.020
-491.522	-75.102	0.448	-0.162
-490.508	-200.000	-0.026	0.274
-489.493	-63.155	-0.203	0.085
-488.478	388.147	-0.127	-0.266
-487.464	800.000	-0.044	-0.158
-486.449	729.282	-0.067	-0.182
-485.435	125.521	-0.078	-0.100
-484.420	800.000	0.015	0.044
-483.405	8.715	0.044	0.034
-482.391	693.504	-0.100	-0.267
-481.376	-113.275	-0.218	-0.043
-480.362	11.648	0.092	0.072
-479.347	314.872	0.007	0.013
-478.332	99.850	0.222	0.261
-477.318	493.504	0.104	0.242
-476.303	-88.184	0.442	-0.134
-475.289	-94.321	0.157	-0.043
-474.274	284.184	-0.081	-0.147
-473.259	-200.000	0.000	0.088
-472.245	500.948	0.117	-0.273
-471.230	20.935	-0.187	-0.154
-470.216	-93.550	0.245	-0.069
-469.201	-200.000	0.016	-0.176
-468.186	-116.806	-0.178	-0.033
-467.172	147.953	0.039	0.053
-466.157	-154.061	0.210	0.014
-465.143	18.931	-0.078	-0.064
-464.128	-129.220	-0.091	-0.013
-463.113	797.927	-0.137	0.381
-462.099	-47.515	0.018	0.009
-461.084	-112.250	-0.293	-0.059
-460.070	-154.724	0.206	-0.014
-459.055	118.860	-0.258	0.323
-458.040	-200.000	0.045	0.525
-457.026	-159.483	-0.073	-0.004
-456.011	71.239	0.163	-0.171
-454.997	-4.306	0.185	0.130
-453.982	800.000	0.074	0.214
-452.968	-12.450	-0.111	-0.073
-451.953	109.785	0.033	-0.040
-450.938	50.284	0.167	-0.159
-449.924	-125.654	-0.144	-0.022
-448.909	-27.083	-0.216	-0.128
-447.895	-51.532	-0.227	0.107
-446.880	86.113	0.049	-0.055
-445.865	36.016	-0.146	-0.130
-444.851	-56.994	0.147	-0.066
-443.836	-23.960	0.211	0.128
-442.822	-91.755	-0.202	0.058
-441.807	-76.983	-0.157	0.056
-440.792	90.448	-0.077	-0.087
-439.778	-200.000	-0.028	0.254
-438.763	228.211	0.140	-0.230
-437.749	800.000	-0.073	0.266
-436.734	169.885	0.142	-0.205
-435.719	-127.681	0.030	-0.004
-434.705	-103.565	-0.324	0.077
-433.690	350.818	-0.169	-0.339
-432.676	-23.446	-0.133	-0.081
-431.661	772.215	0.077	-0.212
-430.646	228.702	0.093	0.153
-429.632	664.316	0.107	0.279
-428.617	413.779	-0.116	0.250
-427.603	-70.035	-0.110	0.042
-426.588	-77.945	0.108	0.038
-425.573	487.545	0.129	-0.297
-424.559	-16.513	0.149	-0.096
-423.544	47.310	-0.119	0.112
-422.530	-200.000	-0.017	0.083
-421.515	64.745	-0.195	0.199
-420.500	-200.000	0.004	0.232
-419.486	-118.367	0.135	0.024
-418.471	25.200	-0.107	-0.090
-417.457	400.449	-0.045	-0.095
-416.442	-40.684	-0.027	0.014
-415.428	-200.000	0.028	-0.233
-414.413	-200.000	-0.000	0.251
-413.398	630.516	-0.140	0.359
-412.384	-45.429	0.099	0.050
-411.369	618.050	-0.059	-0.149
-410.355	420.467	0.155	-0.336
-409.340	-7.426	0.246	-0.168
-408.325	138.187	0.252	-0.334
-407.311	74.480	-0.308	0.327
-406.296	222.305	0.061	-0.100
-405.282	646.988	0.074	-0.192
-404.267	-126.586	-0.207	-0.031
-403.252	-200.000	-0.005	0.093
-402.238	538.737	0.077	0.186
-401.223	649.870	-0.019	0.050
-400.209	-200.000	-0.139	0.000
-399.194	-103.673	-0.080	-0.019
-398.179	800.000	-0.061	-0.188
-397.165	-19.694	-0.222	0.138
-396.150	-50.435	-0.090	0.043
-395.136	-46.285	0.256	-0.127
-394.121	63.869	0.118	-0.120
-393.106	-47.511	0.024	0.012
-392.092	-22.698	0.224	0.136
-391.077	32.099	0.101	0.088
-390.063	239.772	-0.106	0.178
-389.048	-20.980	0.254	0.157
-388.033	800.000	-0.077	0.297
-387.019	-42.510	-0.350	0.180
-386.004	-81.882	-0.118	-0.039
-384.990	260.856	0.068	0.119
-383.975	379.093	-0.071	0.147
-382.960	-76.392	-0.066	-0.023
-381.946	149.005	-0.029	0.040
-380.931	-91.410	0.375	0.108
-379.917	115.340	0.224	0.276
-378.902	204.073	-0.325	-0.509
-377.888	207.938	-0.144	-0.228
-376.873	-15.217	-0.140	-0.091
-375.858	-200.000	0.048	-0.249
-374.844	800.000	-0.004	0.013
-373.829	-26.419	0.241	-0.142
-372.815	200.786	-0.060	-0.093
-371.800	-177.645	-0.114	-0.003
-370.785	-53.649	-0.327	-0.151
-369.771	-179.345	-0.219	-0.005
-368.756	-200.000	0.036	-0.416
-367.742	72.559	-0.073	0.077
-366.727	47.278	-0.213	-0.200
-365.712	-200.000	0.005	-0.284
-364.698	-200.000	-0.023	0.139
-363.683	-71.740	-0.157	0.059
-362.669	-182.857	-0.273	-0.005
-361.654	-200.000	-0.042	0.289
-360.639	18.558	-0.198	-0.159
-359.625	-5.659	-0.292	0.202
-358.610	-35.178	0.232	0.127
-357.596	412.192	0.211	0.452
-356.581	-167.027	0.063	-0.003
-355.566	-105.744	0.310	0.071
-354.552	-200.000	0.001	0.194
-353.537	194.926	0.139	-0.212
-352.523	-169.364	0.126	0.005
-351.508	6.555	0.049	0.037
-350.493	556.111	0.027	0.067
-349.479	411.459	-0.122	0.261
-348.464	210.915	0.111	0.177
-347.450	-200.000	-0.009	0.311
-346.435	-76.360	-0.736	-0.261
-345.420	101.390	0.086	0.101
-344.406	-173.907	-0.142	-0.004
-343.391	320.193	-0.084	0.161
-342.377	377.674	0.047	0.098
-341.362	-103.092	-0.190	0.045
-340.348	133.351	-0.239	0.311
-339.333	52.216	0.143	0.138
-338.318	-157.075	0.315	0.019
-337.304	-33.059	0.261	0.146
-336.289	117.616	0.259	0.322
-335.275	-200.000	0.069	0.309
-334.260	-192.092	0.205	-0.002
-333.245	-79.762	0.063	0.022
-332.231	-10.008	-0.205	-0.137
-331.216	243.234	0.073	0.123
-330.202	-145.814	0.347	-0.031
-329.187	147.525	0.072	-0.098
-328.172	244.654	-0.111	-0.188
-327.158	288.683	0.088	0.160
-326.143	-137.363	-0.152	-0.017
-325.129	687.116	0.047	-0.123
-324.114	207.278	0.011	-0.017
-323.099	-200.000	0.004	0.131
-322.085	800.000	0.016	-0.051
-321.070	-84.847	0.130	0.041
-320.056	-200.000	-0.052	0.248
-319.041	741.308	-0.052	0.142
-318.026	238.885	0.110	0.184
-317.012	-6.703	-0.077	-0.052
-315.997	-189.659	0.341	0.004
-314.983	-116.764	-0.358	0.066
-313.968	57.758	0.165	-0.162
-312.953	-12.741	-0.120	0.079
-311.939	800.000	0.179	0.606
-310.924	-120.633	0.170	0.029
-309.910	147.421	-0.137	0.185
-308.895	-141.361	0.106	0.011
-307.880	102.706	-0.015	-0.018
-306.866	-200.000	0.040	0.190
-305.851	10.981	0.346	-0.266
-304.837	-200.000	-0.005	0.142
-303.822	-200.000	0.036	-0.327
-302.807	382.231	-0.104	-0.216
-301.793	181.177	-0.069	-0.101
-300.778	-57.659	-0.101	-0.045
-299.764	5.608	0.160	-0.119
-298.749	10.763	0.149	0.115
-297.735	800.000	-0.082	0.243
-296.720	585.029	0.086	0.213
-295.705	599.551	0.090	-0.226
-294.691	-53.740	-0.226	0.104
-293.676	-22.788	-0.123	0.075
-292.662	-121.843	0.139	0.023
-291.647	501.291	0.139	-0.323
-290.632	274.498	0.122	-0.218
-289.618	454.104	-0.017	0.037
-288.603	-200.000	-0.035	-0.164
-287.589	350.524	-0.116	-0.230
-286.574	529.356	0.136	0.323
-285.559	800.000	0.149	-0.423
-284.545	461.482	-0.145	-0.326
-283.530	-200.000	0.008	-0.128
-282.516	-124.103	0.112	0.018
-281.501	75.619	-0.152	0.161
-280.486	-200.000	0.003	-0.328
-279.472	800.000	-0.140	-0.389
-278.457	415.701	-0.112	-0.241
-277.443	35.232	0.205	0.180
-276.428	216.345	0.064	0.102
-275.413	169.509	0.071	0.102
-274.399	-103.824	-0.256	0.060
-273.384	-38.168	-0.252	-0.135
-272.370	519.572	-0.089	0.209
-271.355	-53.295	0.390	0.180
-270.340	499.910	-0.049	0.114
-269.326	-84.450	0.262	0.083
-268.311	-127.565	-0.333	0.049
-267.297	35.470	0.204	-0.180
-266.282	181.012	-0.068	-0.101
-265.267	385.900	0.021	0.043
-264.253	-144.809	0.400	-0.037
-263.238	-71.968	0.151	-0.056
-262.224	-143.671	0.184	0.018
-261.209	-29.642	0.094	0.054
-260.195	530.109	-0.168	-0.399
-259.180	338.669	0.040	-0.079
-258.165	-43.076	-0.228	0.116
-257.151	800.000	0.126	-0.448
-256.136	61.200	0.192	0.191
-255.122	-12.616	0.232	-0.152
-254.107	-200.000	-0.037	-0.258
-253.092	800.000	0.061	0.187
-252.078	119.623	-0.087	0.108
-251.063	-200.000	-0.031	0.268
-250.049	-39.193	0.290	0.153
-249.034	613.556	0.112	0.283
-248.019	-200.000	-0.035	0.438
-247.005	-200.000	0.005	-0.080
-245.990	796.920	0.119	0.330
-244.976	17.855	0.028	-0.022
-243.961	27.386	0.152	0.128
-242.946	-200.000	-0.013	-0.262
-241.932	513.156	-0.118	0.277
-240.917	67.622	-0.004	0.004
-239.903	-180.591	-0.058	0.001
-238.888	-98.907	-0.153	-0.039
-237.873	-166.133	0.261	-0.011
-236.859	-40.772	-0.241	-0.125
-235.844	-121.381	0.232	-0.039
-234.830	-200.000	0.113	-0.000
-233.815	-105.775	-0.080	0.018
-232.800	101.630	-0.076	0.089
-231.786	244.149	-0.056	-0.094
-230.771	159.599	-0.210	0.293
-229.757	42.530	-0.112	-0.102
-228.742	35.921	0.060	0.053
-227.727	6.093	-0.159	0.118
-226.713	198.847	0.111	0.170
-225.698	-139.721	-0.320	0.034
-224.684	-200.000	-0.087	0.395
-223.669	-78.042	0.381	0.132
-222.655	-200.000	0.040	0.316
-221.640	-127.888	0.420	-0.061
-220.625	184.049	0.121	-0.180
-219.611	208.824	0.074	0.117
-218.596	-200.000	0.010	-0.049
-217.582	-40.299	0.264	0.138
-216.567	800.000	-0.039	0.130
-215.552	92.604	-0.113	0.128
-214.538	17.536	0.112	-0.090
-213.523	-95.623	0.034	-0.009
-212.509	1.524	0.221	-0.160
-211.494	-109.852	0.274	0.058
-210.479	-183.094	-0.222	0.004
-209.465	-12.737	0.079	-0.051
-208.450	33.907	0.200	0.175
-207.436	-163.099	0.046	0.002
-206.421	-200.000	0.052	0.244
-205.406	800.000	0.048	-0.154
-204.392	800.000	-0.040	-0.136
-203.377	476.866	0.036	-0.081
-202.363	-32.803	-0.221	-0.123
-201.348	95.950	-0.200	-0.229
-200.333	80.118	-0.111	-0.120
-199.319	33.074	-0.205	-0.178
-198.304	-200.000	0.037	0.393
-197.290	800.000	-0.112	0.409
-196.275	32.718	-0.151	0.131
-195.260	60.808	0.038	0.037
-194.246	-67.114	-0.072	0.028
-193.231	800.000	0.046	0.147
-192.217	115.757	0.052	-0.064
-191.202	116.728	-0.168	-0.206
-190.187	42.396	-0.061	-0.056
-189.173	49.559	-0.148	0.139
-188.158	-200.000	0.027	0.227
-187.144	132.893	0.008	0.010
-186.129	48.072	0.091	-0.085
-185.114	285.285	0.117	-0.211
-184.100	78.023	-0.386	-0.413
-183.085	-61.968	0.359	-0.150
-182.071	248.953	-0.026	-0.044
-181.056	-200.000	0.076	-0.426
-180.042	-200.000	-0.019	-0.174
-179.027	188.745	0.098	-0.147
-178.012	255.228	0.178	0.305
-176.998	-49.695	-0.148	0.070
-175.983	279.588	-0.196	0.351
-174.969	-40.311	0.101	0.053
-173.954	21.920	0.262	-0.214
-172.939	-117.040	0.049	-0.009
-171.925	251.220	-0.044	-0.075
-170.910	275.265	0.162	-0.288
-169.896	-140.708	-0.224	-0.023
-168.881	121.507	-0.191	-0.238
-167.866	-200.000	-0.026	0.242
-166.852	-9.329	-0.153	0.103
-165.837	-97.536	0.260	0.068
-164.823	32.998	-0.413	0.358
-163.808	-200.000	-0.003	0.039
-162.793	-2.879	-0.259	0.181
-161.779	60.888	-0.095	-0.094
-160.764	200.385	0.259	-0.398
-159.750	-45.571	0.205	-0.102
-158.735	-96.674	-0.389	-0.102
-157.720	128.983	-0.292	-0.373
-156.706	-200.000	-0.016	-0.623
-155.691	800.000	-0.114	0.319
-154.677	139.103	0.055	0.072
-153.662	-79.571	-0.207	0.070
-152.647	-18.788	0.167	-0.104
-151.633	-6.573	0.145	0.099
-150.618	159.690	0.284	0.395
-149.604	-200.000	0.002	0.365
-148.589	-180.512	0.173	0.004
-147.574	800.000	-0.137	0.496
-146.560	-200.000	-0.001	0.083
-145.545	800.000	0.057	0.214
-144.531	-200.000	-0.007	-0.322
-143.516	278.534	-0.209	-0.373
-142.502	-28.134	0.107	0.062
-141.487	-80.966	0.322	0.107
-140.472	800.000	-0.102	0.316
-139.458	-77.943	-0.085	0.029
-138.443	800.000	0.046	0.197
-137.429	-143.552	0.275	0.026
-136.414	800.000	0.103	0.310
-135.399	800.000	-0.027	-0.110
-134.385	-35.403	-0.249	0.135
-133.370	-107.833	-0.219	-0.048
-132.356	800.000	-0.021	-0.067
-131.341	-15.823	0.345	0.220
-130.326	13.478	-0.115	-0.089
-129.312	12.622	-0.105	0.081
-128.297	-200.000	-0.045	-0.244
-127.283	-130.301	0.468	0.064
-126.268	280.374	-0.082	-0.147
-125.253	4.569	-0.178	0.130
-124.239	-153.657	0.127	0.009
-123.224	-200.000	0.038	0.169
-122.210	-181.760	0.517	-0.010
-121.195	-159.537	-0.121	-0.007
-120.180	-200.000	-0.022	0.219
