DTS Sentinel unit serial number:	SN413079Multiplexer serial number:	ORYXHardware model number:	OX4-SRSoftware version number:	ORYX F/W v4.00 Oryx Data Collector v3.7.2.0data status	okinstallation	princeton_trtdifferential loss correction	single-endedforward channel	channel 2reverse channel	N/Adate	2019/09/17time	03:03:34forward acquisition time	60.00reverse acquisition time	0.00gamma	496.2192k internal	0.2326k external	0.2326temperature offset calibration	0.9971default loss term (dB/km)	0.3790temperature slope calibration	1.0000multiplexer offset coefficient	1.0000multiplexer slope coefficient	1.0000fibre end	0.00T internal ref (°C)	29.94T ext. ref 1 (°C)	0.12T ext. ref 2 (°C)	24.83length (m)	temperature (°C)	Stokes	anti-Stokes-747.200	-140.254	-0.301	0.032
-746.185	-18.772	0.100	0.063
-745.171	43.882	-0.144	0.133
-744.156	-200.000	0.049	0.369
-743.142	-11.767	0.293	0.194
-742.127	800.000	-0.106	0.447
-741.112	-113.935	0.374	0.073
-740.098	-96.544	-0.357	0.095
-739.083	-71.366	0.317	0.120
-738.069	19.563	-0.208	0.169
-737.054	800.000	0.055	0.197
-736.039	800.000	-0.052	0.158
-735.025	54.297	0.100	0.097
-734.010	-43.797	0.264	-0.134
-732.996	-200.000	0.017	-0.113
-731.981	260.292	-0.130	0.226
-730.966	-129.680	-0.107	0.015
-729.952	-200.000	-0.041	-0.248
-728.937	-200.000	0.016	-0.159
-727.923	-26.729	0.147	0.087
-726.908	-118.383	-0.301	0.054
-725.894	24.561	0.328	0.274
-724.879	11.238	0.334	-0.258
-723.864	800.000	-0.104	-0.327
-722.850	195.345	-0.131	0.201
-721.835	-31.660	0.115	-0.065
-720.821	-200.000	0.008	-0.397
-719.806	-126.117	-0.440	0.067
-718.791	329.819	-0.032	0.063
-717.777	228.410	-0.105	-0.172
-716.762	-165.244	-0.199	0.009
-715.748	-200.000	-0.073	-0.330
-714.733	20.654	0.120	0.098
-713.718	-23.202	0.202	0.122
-712.704	-68.293	0.123	0.048
-711.689	-16.034	0.197	0.126
-710.675	112.619	0.079	0.096
-709.660	464.963	-0.156	-0.352
-708.645	420.205	0.064	-0.137
-707.631	-2.698	0.305	0.215
-706.616	-200.000	0.033	0.197
-705.602	-200.000	0.024	0.139
-704.587	-116.835	0.151	-0.028
-703.572	622.648	0.064	0.161
-702.558	-200.000	0.026	-0.325
-701.543	-200.000	0.029	-0.173
-700.529	-72.909	-0.242	-0.089
-699.514	800.000	0.073	-0.300
-698.499	-200.000	0.038	0.282
-697.485	31.237	0.075	-0.064
-696.470	800.000	0.061	-0.254
-695.456	285.707	-0.193	0.350
-694.441	52.531	0.194	0.186
-693.426	-110.786	-0.240	-0.050
-692.412	158.239	0.152	-0.212
-691.397	30.995	0.123	-0.107
-690.383	41.894	-0.177	0.161
-689.368	-200.000	0.015	0.229
-688.354	-17.885	0.149	0.094
-687.339	-161.329	-0.066	-0.003
-686.324	800.000	0.044	-0.185
-685.310	-130.997	-0.330	-0.044
-684.295	-89.085	-0.106	-0.032
-683.281	-124.471	-0.186	-0.029
-682.266	-67.954	-0.148	-0.058
-681.251	800.000	0.040	-0.159
-680.237	177.885	0.131	-0.192
-679.222	148.712	-0.048	-0.066
-678.208	100.979	0.079	-0.092
-677.193	-96.829	0.050	0.013
-676.178	-121.962	-0.368	-0.061
-675.164	176.580	-0.118	0.172
-674.149	-200.000	-0.015	-0.223
-673.135	244.920	0.144	-0.244
-672.120	493.032	0.091	0.209
-671.105	270.019	0.014	0.024
-670.091	-43.667	0.101	-0.051
-669.076	146.243	-0.041	-0.056
-668.062	800.000	-0.115	-0.395
-667.047	-200.000	-0.055	-0.276
-666.032	-54.943	-0.382	-0.173
-665.018	731.207	-0.021	-0.057
-664.003	800.000	-0.067	0.258
-662.989	10.091	0.245	0.187
-661.974	8.513	0.152	-0.115
-660.959	800.000	0.037	-0.140
-659.945	83.069	0.119	-0.130
-658.930	184.589	-0.060	0.090
-657.916	85.847	-0.113	0.125
-656.901	67.698	-0.203	-0.209
-655.886	316.346	-0.169	-0.320
-654.872	0.370	-0.105	0.076
-653.857	6.276	-0.259	-0.193
-652.843	-200.000	0.001	0.020
-651.828	27.295	-0.191	0.161
-650.814	-200.000	0.041	-0.201
-649.799	-13.271	0.097	0.063
-648.784	52.985	0.287	0.276
-647.770	-142.063	-0.176	0.018
-646.755	-50.823	-0.341	-0.161
-645.741	128.256	-0.174	-0.223
-644.726	-200.000	-0.016	0.157
-643.711	-74.534	-0.295	0.107
-642.697	-93.975	-0.080	-0.022
-641.682	0.089	-0.138	0.099
-640.668	13.974	0.205	-0.160
-639.653	34.397	-0.071	-0.062
-638.638	-16.685	-0.279	0.178
-637.624	-200.000	-0.025	-0.232
-636.609	671.761	-0.154	-0.401
-635.595	-52.081	-0.157	-0.073
-634.580	558.436	-0.116	-0.281
-633.565	-120.509	-0.228	0.039
-632.551	64.423	0.149	-0.151
-631.536	-79.943	-0.229	0.077
-630.522	111.845	-0.146	-0.177
-629.507	46.295	0.060	-0.056
-628.492	-41.638	-0.509	-0.262
-627.478	-78.069	0.333	-0.115
-626.463	800.000	-0.056	-0.244
-625.449	-89.248	-0.470	-0.139
-624.434	726.063	-0.095	-0.255
-623.419	800.000	0.032	0.138
-622.405	187.579	0.083	-0.124
-621.390	113.822	0.181	0.221
-620.376	91.173	-0.224	0.252
-619.361	-200.000	0.071	-0.445
-618.346	181.840	-0.175	-0.259
-617.332	16.202	-0.102	-0.080
-616.317	573.396	0.139	-0.341
-615.303	800.000	0.083	-0.311
-614.288	-21.653	0.237	-0.145
-613.273	187.981	-0.094	-0.141
-612.259	614.527	-0.026	-0.066
-611.244	-200.000	0.020	0.219
-610.230	-200.000	-0.010	-0.113
-609.215	217.573	0.087	0.140
-608.201	800.000	0.022	0.074
-607.186	51.339	0.259	-0.246
-606.171	-24.953	-0.070	0.042
-605.157	-200.000	-0.041	-0.398
-604.142	-13.939	0.230	0.149
-603.128	58.817	-0.176	-0.173
-602.113	299.246	-0.107	0.198
-601.098	-102.025	-0.484	-0.117
-600.084	-126.224	0.340	0.051
-599.069	-88.194	-0.200	-0.060
-598.055	-200.000	-0.040	-0.207
-597.040	-200.000	-0.032	-0.245
-596.025	257.569	-0.132	-0.228
-595.011	21.657	0.133	-0.109
-593.996	46.674	-0.146	-0.136
-592.982	192.947	-0.132	-0.200
-591.967	-200.000	-0.014	-0.370
-590.952	-105.705	0.155	-0.035
-589.938	-75.471	-0.054	0.019
-588.923	105.201	0.172	-0.204
-587.909	34.380	0.090	-0.079
-586.894	569.897	0.075	0.184
-585.879	-200.000	-0.036	0.203
-584.865	-104.603	0.048	0.011
-583.850	-53.517	-0.055	-0.025
-582.836	800.000	-0.067	0.194
-581.821	256.280	-0.088	-0.151
-580.806	-35.462	-0.141	-0.077
-579.792	278.693	0.131	0.234
-578.777	-89.127	-0.147	0.044
-577.763	-152.580	-0.237	-0.017
-576.748	64.601	-0.279	0.282
-575.733	-63.388	-0.354	0.146
-574.719	-200.000	-0.007	-0.253
-573.704	-102.751	-0.190	0.045
-572.690	-200.000	-0.009	-0.114
-571.675	-60.667	0.349	-0.148
-570.661	-200.000	-0.007	-0.035
-569.646	-200.000	-0.012	0.134
-568.631	-66.546	0.145	-0.058
-567.617	-163.855	0.090	-0.004
-566.602	211.737	-0.112	0.177
-565.588	-127.339	0.117	-0.017
-564.573	-49.948	-0.292	0.139
-563.558	-71.428	0.407	-0.153
-562.544	-144.422	-0.226	0.021
-561.529	147.322	0.171	-0.230
-560.515	-200.000	-0.039	0.220
-559.500	-116.580	0.072	0.013
-558.485	23.169	0.219	-0.180
-557.471	-128.797	-0.173	0.024
-556.456	43.197	0.294	0.269
-555.442	-73.143	-0.227	-0.083
-554.427	-28.315	-0.076	-0.044
-553.412	129.136	0.163	0.208
-552.398	-99.210	-0.141	-0.036
-551.383	800.000	-0.114	0.415
-550.369	-200.000	0.009	0.162
-549.354	-94.522	-0.314	0.086
-548.339	216.852	-0.106	-0.169
-547.325	800.000	0.038	-0.120
-546.310	50.270	-0.041	0.038
-545.296	454.094	0.158	-0.350
-544.281	-200.000	0.018	0.203
-543.266	-200.000	0.028	-0.180
-542.252	355.507	-0.107	-0.213
-541.237	-173.195	-0.185	-0.006
-540.223	18.993	0.141	-0.113
-539.208	33.648	0.061	-0.053
-538.193	111.039	-0.297	-0.358
-537.179	709.919	-0.042	0.110
-536.164	-200.000	0.017	-0.253
-535.150	35.931	-0.054	-0.048
-534.135	114.923	-0.166	0.203
-533.121	800.000	0.036	0.136
-532.106	-200.000	0.002	0.058
-531.091	52.472	-0.213	-0.203
-530.077	127.567	0.092	0.116
-529.062	49.412	-0.028	-0.026
-528.048	436.660	0.186	0.404
-527.033	-200.000	0.007	0.140
-526.018	116.822	-0.150	-0.184
-525.004	-95.798	-0.266	-0.071
-523.989	800.000	0.106	0.330
-522.975	-143.521	0.146	0.014
-521.960	-110.995	0.209	-0.043
-520.945	-95.144	0.269	-0.072
-519.931	-200.000	-0.005	-0.157
-518.916	-55.372	-0.154	0.069
-517.902	-200.000	-0.030	-0.185
-516.887	227.449	0.119	-0.193
-515.872	4.591	-0.167	-0.123
-514.858	-31.551	0.138	0.078
-513.843	-138.535	-0.153	-0.017
-512.829	-101.791	-0.329	0.080
-511.814	75.739	0.077	0.081
-510.799	-200.000	0.006	-0.177
-509.785	475.726	0.084	0.190
-508.770	116.129	0.191	-0.233
-507.756	49.183	-0.056	0.052
-506.741	-200.000	0.003	-0.078
-505.726	754.965	0.087	0.236
-504.712	24.711	0.082	0.068
-503.697	-200.000	0.034	-0.197
-502.683	17.355	-0.117	-0.093
-501.668	-200.000	0.008	-0.334
-500.653	-17.448	0.227	0.143
-499.639	-143.172	0.144	-0.014
-498.624	739.732	0.068	0.181
-497.610	-56.843	-0.102	-0.045
-496.595	-200.000	0.069	-0.397
-495.581	44.024	0.103	0.095
-494.566	800.000	-0.106	0.394
-493.551	407.650	0.032	0.067
-492.537	126.827	-0.102	-0.129
-491.522	-46.530	-0.149	0.073
-490.508	43.070	-0.228	-0.208
-489.493	-96.390	-0.216	-0.057
-488.478	-124.323	0.182	0.028
-487.464	800.000	-0.092	0.393
-486.449	448.487	-0.132	-0.291
-485.435	84.057	-0.082	-0.089
-484.420	230.847	0.152	0.248
-483.405	-73.158	-0.136	0.050
-482.391	-152.914	-0.272	-0.019
-481.376	-57.144	0.138	0.061
-480.362	-107.923	-0.220	-0.048
-479.347	-54.937	-0.220	-0.099
-478.332	-48.645	0.117	0.056
-477.318	-200.000	0.043	-0.216
-476.303	498.959	0.041	0.095
-475.289	-200.000	0.017	-0.278
-474.274	-200.000	-0.013	0.206
-473.259	-145.068	0.182	0.017
-472.245	-55.778	0.278	-0.124
-471.230	88.792	-0.220	0.244
-470.216	166.059	0.136	-0.192
-469.201	85.758	-0.129	0.141
-468.186	-48.515	0.086	-0.041
-467.172	149.249	-0.160	-0.216
-466.157	4.495	-0.256	-0.187
-465.143	678.727	0.108	-0.280
-464.128	450.435	0.163	0.359
-463.113	175.656	-0.184	-0.266
-462.099	-115.699	-0.189	-0.035
-461.084	-147.181	0.308	-0.026
-460.070	-27.459	0.320	-0.186
-459.055	-200.000	0.029	-0.131
-458.040	-195.332	-0.085	-0.001
-457.026	-123.493	-0.418	-0.066
-456.011	-121.990	-0.209	0.034
-454.997	-58.653	0.262	-0.113
-453.982	-200.000	-0.007	-0.250
-452.968	-200.000	-0.034	-0.264
-451.953	-200.000	0.007	-0.040
-450.938	800.000	0.057	0.180
-449.924	-96.230	-0.164	0.043
-448.909	-200.000	-0.010	0.366
-447.895	149.795	0.125	-0.169
-446.880	6.499	-0.205	-0.152
-445.865	12.104	0.233	0.179
-444.851	452.898	-0.050	0.111
-443.836	-60.000	0.060	-0.026
-442.822	-200.000	-0.036	-0.176
-441.807	-175.803	0.152	-0.004
-440.792	-121.579	0.167	0.028
-439.778	89.391	-0.167	-0.186
-438.763	-5.257	0.120	-0.082
-437.749	-60.141	-0.025	-0.010
-436.734	64.644	-0.156	0.157
-435.719	-120.101	-0.140	-0.024
-434.705	153.511	0.104	-0.142
-433.690	-151.106	-0.385	-0.029
-432.676	43.001	-0.023	0.021
-431.661	495.741	-0.154	0.352
-430.646	800.000	-0.065	0.195
-429.632	99.713	0.213	-0.246
-428.617	-200.000	0.003	0.206
-427.603	800.000	-0.006	0.017
-426.588	36.420	0.122	0.107
-425.573	800.000	0.101	0.290
-424.559	381.538	-0.071	0.145
-423.544	732.270	-0.033	-0.089
-422.530	65.644	-0.223	-0.225
-421.515	2.800	-0.135	0.098
-420.500	800.000	-0.056	0.207
-419.486	-200.000	-0.033	0.151
-418.471	17.036	0.108	-0.085
-417.457	-116.236	0.156	0.029
-416.442	62.432	0.155	0.154
-415.428	-72.977	-0.229	0.084
-414.413	239.021	-0.071	-0.118
-413.398	-8.931	0.135	-0.090
-412.384	-33.886	0.357	-0.196
-411.369	12.672	-0.232	0.179
-410.355	49.117	0.153	0.143
-409.340	41.935	0.236	-0.213
-408.325	-200.000	-0.025	-0.430
-407.311	-111.375	-0.243	0.049
-406.296	262.861	-0.088	-0.152
-405.282	111.232	0.088	-0.105
-404.267	-65.679	-0.157	0.063
-403.252	-129.600	0.133	-0.018
-402.238	-53.349	0.060	0.027
-401.223	-200.000	0.007	0.195
-400.209	800.000	-0.032	0.108
-399.194	-28.555	0.096	-0.055
-398.179	-45.240	-0.055	0.027
-397.165	800.000	0.051	-0.155
-396.150	54.384	0.191	-0.183
-395.136	20.653	0.144	-0.116
-394.121	107.974	0.147	0.174
-393.106	104.074	-0.172	-0.201
-392.092	639.494	-0.099	0.252
-391.077	-84.884	-0.124	-0.039
-390.063	590.062	0.086	0.212
-389.048	-81.996	-0.214	0.070
-388.033	-15.307	-0.047	0.030
-387.019	-200.000	0.021	0.112
-386.004	245.722	0.091	0.152
-384.990	52.048	0.069	-0.065
-383.975	-200.000	-0.035	-0.190
-382.960	-26.094	0.105	-0.061
-381.946	332.981	-0.056	-0.107
-380.931	240.305	0.137	0.227
-379.917	-200.000	0.008	-0.163
-378.902	-132.893	0.277	-0.035
-377.888	30.754	0.028	0.024
-376.873	800.000	-0.031	-0.102
-375.858	37.770	-0.181	-0.160
-374.844	50.074	0.086	0.081
-373.829	800.000	0.071	-0.273
-372.815	87.131	0.059	0.065
-371.800	-200.000	0.001	0.434
-370.785	-104.530	-0.080	-0.018
-369.771	48.352	0.115	0.107
-368.756	346.559	-0.059	0.116
-367.742	800.000	-0.004	0.015
-366.727	-200.000	-0.015	0.557
-365.712	-200.000	-0.022	0.319
-364.698	113.782	0.173	-0.209
-363.683	800.000	-0.026	0.091
-362.669	18.177	0.217	0.172
-361.654	800.000	-0.040	-0.136
-360.639	61.951	-0.150	-0.149
-359.625	-158.114	-0.263	-0.015
-358.610	-22.220	0.200	-0.121
-357.596	62.328	-0.177	-0.176
-356.581	149.103	0.145	0.195
-355.566	-195.264	0.228	-0.002
-354.552	-24.242	0.194	-0.115
-353.537	800.000	-0.077	-0.245
-352.523	21.403	0.188	-0.152
-351.508	125.769	0.085	0.107
-350.493	-130.640	0.172	-0.023
-349.479	64.178	0.236	-0.236
-348.464	-102.863	-0.240	0.057
-347.450	158.559	0.274	0.378
-346.435	457.223	-0.070	-0.155
-345.420	26.590	-0.262	0.218
-344.406	-200.000	0.005	0.235
-343.391	-115.109	0.154	0.029
-342.377	297.341	0.094	0.172
-341.362	185.446	-0.073	0.107
-340.348	-46.489	0.185	0.090
-339.333	-95.583	0.215	-0.057
-338.318	800.000	-0.043	0.165
-337.304	-75.099	-0.192	0.068
-336.289	22.730	-0.310	-0.252
-335.275	-139.983	0.293	0.031
-334.260	-17.696	-0.181	-0.113
-333.245	-59.260	0.380	0.162
-332.231	197.220	-0.161	0.244
-331.216	800.000	0.054	0.182
-330.202	-200.000	-0.063	0.392
-329.187	-125.157	-0.275	0.042
-328.172	800.000	-0.040	-0.120
-327.158	98.323	0.147	-0.168
-326.143	-200.000	0.001	-0.165
-325.129	45.405	-0.369	-0.337
-324.114	207.562	-0.131	0.203
-323.099	19.078	0.112	-0.089
-322.085	324.900	0.181	0.344
-321.070	48.894	-0.206	-0.192
-320.056	-165.503	-0.275	-0.012
-319.041	-200.000	-0.011	0.104
-318.026	-75.733	0.321	0.113
-317.012	15.462	-0.400	0.311
-315.997	-129.968	0.167	-0.023
-314.983	98.829	0.348	0.398
-313.968	81.952	0.166	0.178
-312.953	800.000	0.174	-0.495
-311.939	255.061	0.118	0.201
-310.924	800.000	-0.086	0.324
-309.910	173.753	0.311	0.445
-308.895	-102.416	-0.410	0.097
-307.880	-200.000	0.006	0.110
-306.866	419.493	0.158	-0.334
-305.851	-200.000	-0.001	-0.047
-304.837	-95.808	-0.224	-0.059
-303.822	-133.326	0.262	-0.033
-302.807	-200.000	0.039	0.223
-301.793	253.208	-0.105	0.178
-300.778	26.349	0.156	-0.130
-299.764	382.471	0.094	0.191
-298.749	-32.344	-0.076	0.042
-297.735	-46.604	-0.052	0.025
-296.720	608.647	0.057	0.140
-295.705	800.000	0.029	-0.108
-294.691	157.478	-0.117	-0.160
-293.676	800.000	0.035	0.110
-292.662	-110.320	0.123	0.025
-291.647	-200.000	0.004	0.087
-290.632	-17.098	0.298	-0.186
-289.618	91.722	-0.231	-0.258
-288.603	-49.331	0.096	0.046
-287.589	146.858	0.106	0.142
-286.574	166.951	-0.050	0.070
-285.559	-58.631	0.128	0.055
-284.545	65.854	0.148	0.148
-283.530	155.106	0.090	0.123
-282.516	-123.015	0.246	0.039
-281.501	800.000	0.043	0.121
-280.486	20.589	0.081	-0.065
-279.472	53.609	0.225	-0.214
-278.457	-200.000	-0.010	-0.159
-277.443	800.000	0.084	0.259
-276.428	800.000	0.053	0.173
-275.413	800.000	-0.080	-0.299
-274.399	800.000	0.032	0.090
-273.384	297.210	0.131	-0.238
-272.370	-153.850	-0.183	0.012
-271.355	-200.000	-0.008	0.231
-270.340	-132.349	0.215	0.028
-269.326	63.538	0.246	0.245
-268.311	172.595	-0.225	0.320
-267.297	-115.454	-0.381	-0.071
-266.282	-52.140	0.207	-0.095
-265.267	338.071	0.202	0.390
-264.253	-200.000	0.046	-0.291
-263.238	308.435	-0.149	0.275
-262.224	-89.044	0.072	0.021
-261.209	104.145	0.234	-0.272
-260.195	-136.619	-0.141	-0.016
-259.180	-200.000	-0.071	-0.399
-258.165	-200.000	-0.022	-0.148
-257.151	-200.000	0.044	0.373
-256.136	800.000	0.087	0.311
-255.122	650.451	-0.163	0.414
-254.107	561.110	-0.069	0.165
-253.092	14.159	0.129	0.100
-252.078	-125.329	0.162	-0.025
-251.063	47.538	-0.181	0.167
-250.049	221.584	-0.140	0.223
-249.034	-159.300	0.070	-0.004
-248.019	800.000	0.022	-0.092
-247.005	-200.000	-0.010	0.184
-245.990	-200.000	0.007	-0.092
-244.976	-147.085	-0.127	-0.011
-243.961	800.000	0.058	0.246
-242.946	800.000	0.104	-0.312
-241.932	800.000	0.058	-0.231
-240.917	448.426	0.124	-0.270
-239.903	-124.375	-0.316	-0.049
-238.888	22.670	-0.031	-0.025
-237.873	208.255	0.022	0.034
-236.859	29.323	0.215	-0.181
-235.844	800.000	-0.095	0.273
-234.830	-200.000	-0.103	0.453
-233.815	-200.000	0.017	0.291
-232.800	77.421	0.085	-0.089
-231.786	-177.677	-0.245	0.006
-230.771	-26.557	0.092	0.053
-229.757	84.607	0.132	-0.143
-228.742	445.193	0.097	-0.210
-227.727	-106.028	0.311	0.069
-226.713	-200.000	-0.038	0.185
-225.698	-131.077	0.235	0.031
-224.684	-159.274	0.130	0.007
-223.669	361.828	0.126	-0.250
-222.655	-200.000	0.027	-0.290
-221.640	-104.475	0.106	-0.024
-220.625	-200.000	0.043	0.347
-219.611	-54.785	0.186	0.083
-218.596	262.766	0.127	0.218
-217.582	800.000	-0.014	-0.058
-216.567	-200.000	-0.056	0.277
-215.552	93.588	0.057	-0.064
-214.538	800.000	-0.122	-0.343
-213.523	108.399	0.118	0.139
-212.509	274.049	-0.079	-0.138
-211.494	289.226	0.197	0.352
-210.479	-47.721	0.141	0.068
-209.465	-200.000	0.024	-0.231
-208.450	-104.871	-0.211	0.048
-207.436	109.195	0.192	0.227
-206.421	-191.059	-0.011	0.000
-205.406	395.182	0.044	0.091
-204.392	-74.340	-0.018	-0.006
-203.377	-166.387	-0.177	0.007
-202.363	-69.023	-0.155	0.059
-201.348	-56.423	0.355	0.155
-200.333	-14.243	-0.369	0.235
-199.319	-54.458	0.162	0.073
-198.304	-65.217	-0.383	-0.152
-197.290	300.705	0.123	-0.225
-196.275	-87.281	0.154	-0.046
-195.260	-41.879	0.204	-0.103
-194.246	170.469	0.055	0.078
-193.231	800.000	-0.074	0.272
-192.217	-47.036	-0.316	0.152
-191.202	6.719	0.065	-0.048
-190.187	43.996	0.147	0.133
-189.173	-127.966	0.272	-0.039
-188.158	-200.000	0.047	0.281
-187.144	224.922	-0.076	0.121
-186.129	800.000	-0.052	-0.222
-185.114	-81.446	-0.036	-0.012
-184.100	-66.052	0.216	-0.085
-183.085	80.559	-0.198	-0.210
-182.071	180.116	-0.248	-0.359
-181.056	-133.783	-0.493	0.061
-180.042	-37.822	0.105	-0.055
-179.027	82.365	0.190	0.203
-178.012	-177.958	-0.345	0.008
-176.998	-50.204	0.266	-0.124
-175.983	-20.979	-0.173	-0.105
-174.969	-118.291	-0.104	0.018
-173.954	-200.000	0.006	0.257
-172.939	2.356	0.263	0.188
-171.925	132.458	0.029	-0.037
-170.910	800.000	-0.030	0.116
-169.896	-200.000	-0.041	-0.235
-168.881	-21.644	-0.055	0.033
-167.866	-114.561	0.320	0.060
-166.852	800.000	-0.069	-0.290
-165.837	-13.941	-0.173	0.110
-164.823	70.077	0.203	0.207
-163.808	76.210	0.233	-0.243
-162.793	-200.000	-0.041	-0.320
-161.779	-200.000	0.017	-0.138
-160.764	-200.000	-0.056	0.317
-159.750	-144.147	0.086	-0.008
-158.735	102.748	0.090	-0.104
-157.720	464.491	0.113	-0.249
-156.706	800.000	-0.046	0.160
-155.691	423.296	-0.188	0.398
-154.677	438.557	0.066	0.141
-153.662	638.064	-0.093	-0.233
-152.647	-200.000	0.011	-0.155
-151.633	73.104	0.065	0.067
-150.618	113.124	0.075	0.089
-149.604	-15.460	0.170	0.107
-148.589	-57.633	-0.198	-0.086
-147.574	29.397	0.079	-0.066
-146.560	800.000	0.042	0.146
-145.545	800.000	-0.185	-0.669
-144.531	-33.226	0.219	0.119
-143.516	800.000	0.046	-0.193
-142.502	-117.700	0.607	-0.108
-141.487	-82.022	-0.128	0.041
-140.472	-103.047	-0.354	0.083
-139.458	106.686	0.210	0.246
-138.443	-146.696	-0.376	-0.032
-137.429	-200.000	0.010	-0.096
-136.414	-50.832	-0.071	0.033
-135.399	-86.352	0.121	0.037
-134.385	-82.316	-0.317	-0.102
-133.370	633.273	0.061	0.153
-132.356	263.157	0.113	-0.194
-131.341	43.596	0.156	0.141
-130.326	37.314	-0.093	0.081
-129.312	279.927	0.250	0.439
-128.297	11.911	-0.027	0.020
-127.283	112.129	-0.086	-0.102
-126.268	-200.000	0.014	-0.243
-125.253	1.717	-0.237	0.168
-124.239	-88.662	0.203	-0.059
-123.224	-71.371	-0.094	-0.035
-122.210	-20.907	-0.197	0.119
-121.195	-116.451	-0.235	0.043
-120.180	416.084	-0.058	0.121
