DTS Sentinel unit serial number:	SN413079Multiplexer serial number:	ORYXHardware model number:	OX4-SRSoftware version number:	ORYX F/W v4.00 Oryx Data Collector v3.7.2.0data status	okinstallation	princeton_trtdifferential loss correction	single-endedforward channel	channel 2reverse channel	N/Adate	2019/09/16time	17:55:34forward acquisition time	60.00reverse acquisition time	0.00gamma	496.2192k internal	0.2315k external	0.2315temperature offset calibration	0.9946default loss term (dB/km)	0.3790temperature slope calibration	1.0000multiplexer offset coefficient	1.0000multiplexer slope coefficient	1.0000fibre end	0.00T internal ref (°C)	37.78T ext. ref 1 (°C)	15.63T ext. ref 2 (°C)	31.56length (m)	temperature (°C)	Stokes	anti-Stokes-747.200	-43.419	0.069	0.035
-746.185	800.000	0.097	0.293
-745.171	-200.000	0.020	0.229
-744.156	-51.239	0.204	0.097
-743.142	168.419	0.300	-0.434
-742.127	219.597	-0.109	0.177
-741.112	182.726	0.277	-0.414
-740.098	-200.000	-0.013	0.110
-739.083	-200.000	0.050	0.400
-738.069	2.941	0.069	0.050
-737.054	39.179	-0.049	-0.045
-736.039	401.663	-0.148	0.315
-735.025	211.783	-0.124	0.198
-734.010	5.092	0.251	-0.187
-732.996	257.749	-0.101	-0.176
-731.981	-32.686	-0.114	0.064
-730.966	-128.474	-0.449	-0.065
-729.952	800.000	-0.025	-0.107
-728.937	-155.172	0.298	-0.020
-727.923	136.092	-0.182	0.240
-726.908	-200.000	0.041	0.283
-725.894	267.659	0.055	-0.097
-724.879	357.483	-0.131	-0.264
-723.864	78.721	0.353	0.382
-722.850	800.000	-0.066	0.204
-721.835	84.477	0.233	-0.258
-720.821	-200.000	0.024	0.118
-719.806	197.932	0.037	0.057
-718.791	-95.572	0.114	0.031
-717.777	-200.000	0.058	-0.314
-716.762	-46.072	0.110	0.055
-715.748	161.092	-0.054	0.077
-714.733	32.322	-0.205	-0.179
-713.718	-54.568	0.206	-0.094
-712.704	-169.819	0.313	-0.011
-711.689	-147.735	0.099	-0.008
-710.675	-17.300	-0.376	-0.240
-709.660	-3.851	-0.193	-0.135
-708.645	800.000	0.100	-0.286
-707.631	496.876	0.130	-0.303
-706.616	-43.574	-0.115	0.059
-705.602	-28.916	-0.278	0.162
-704.587	-5.458	0.447	-0.310
-703.572	181.763	0.013	-0.019
-702.558	-23.765	0.203	-0.123
-701.543	-200.000	0.069	-0.324
-700.529	514.645	-0.051	-0.120
-699.514	69.107	0.048	0.050
-698.499	-200.000	0.016	0.099
-697.485	-66.380	0.291	-0.117
-696.470	-139.944	-0.458	0.049
-695.456	41.539	-0.082	0.075
-694.441	30.401	0.149	-0.129
-693.426	-200.000	-0.015	-0.204
-692.412	139.235	-0.200	-0.267
-691.397	-73.624	0.152	0.056
-690.383	-200.000	-0.007	0.104
-689.368	-60.366	-0.150	0.065
-688.354	-75.273	0.151	0.055
-687.339	-79.186	0.275	0.094
-686.324	333.959	-0.158	-0.309
-685.310	-125.524	-0.196	0.030
-684.295	129.784	-0.167	0.216
-683.281	-200.000	0.028	-0.235
-682.266	-200.000	0.021	-0.239
-681.251	-200.000	-0.017	-0.315
-680.237	-77.891	-0.123	0.043
-679.222	-31.470	-0.123	0.070
-678.208	-118.499	-0.318	-0.057
-677.193	-128.357	-0.155	0.022
-676.178	388.926	0.133	0.279
-675.164	-123.597	-0.057	-0.009
-674.149	800.000	0.123	-0.346
-673.135	-7.642	-0.116	-0.079
-672.120	166.563	-0.119	0.171
-671.105	-64.979	0.262	0.107
-670.091	800.000	0.080	-0.232
-669.076	-200.000	-0.068	-0.310
-668.062	62.073	-0.113	-0.114
-667.047	1.484	-0.285	0.207
-666.032	380.430	0.188	-0.390
-665.018	-58.234	-0.172	0.076
-664.003	-87.402	-0.379	-0.116
-662.989	-192.653	-0.164	0.002
-661.974	10.421	-0.104	-0.080
-660.959	142.864	0.115	0.154
-659.945	-87.025	0.237	0.073
-658.930	15.578	0.141	-0.112
-657.916	295.568	0.031	0.057
-656.901	-69.061	0.126	0.049
-655.886	65.426	-0.123	0.126
-654.872	263.522	0.069	0.121
-653.857	-200.000	-0.034	0.170
-652.843	-91.954	-0.182	-0.052
-651.828	79.800	0.096	0.105
-650.814	-103.852	0.240	0.057
-649.799	800.000	0.063	0.233
-648.784	-200.000	0.016	0.144
-647.770	83.152	-0.200	0.219
-646.755	238.711	0.086	0.144
-645.741	41.957	0.188	-0.172
-644.726	-107.384	0.168	-0.037
-643.711	-197.345	-0.415	-0.003
-642.697	-200.000	0.024	0.234
-641.682	-172.385	0.317	-0.010
-640.668	-98.117	0.288	-0.075
-639.653	800.000	0.015	0.058
-638.638	-122.791	-0.130	0.021
-637.624	333.930	-0.112	0.219
-636.609	-32.864	0.159	-0.089
-635.595	-40.179	0.155	-0.082
-634.580	-200.000	0.019	0.216
-633.565	251.318	-0.091	0.156
-632.551	-200.000	0.296	-0.001
-631.536	-8.106	0.209	-0.142
-630.522	-97.601	-0.134	0.035
-629.507	149.441	0.131	-0.180
-628.492	800.000	0.085	-0.375
-627.478	-33.982	-0.114	-0.063
-626.463	800.000	0.070	-0.263
-625.449	-12.214	-0.188	0.124
-624.434	-35.017	-0.127	-0.070
-623.419	469.064	-0.085	0.193
-622.405	302.115	0.158	0.295
-621.390	-28.629	0.351	0.204
-620.376	-200.000	0.026	-0.395
-619.361	-143.337	-0.043	0.004
-618.346	800.000	-0.065	-0.249
-617.332	30.058	-0.273	-0.235
-616.317	-200.000	0.025	-0.294
-615.303	204.176	0.056	0.087
-614.288	-200.000	0.005	-0.122
-613.273	800.000	0.069	-0.241
-612.259	-94.081	0.187	0.052
-611.244	-67.963	-0.451	0.177
-610.230	124.605	0.045	-0.057
-609.215	130.968	0.163	0.211
-608.201	153.288	-0.126	0.174
-607.186	-142.159	-0.139	-0.014
-606.171	-200.000	0.001	0.199
-605.157	257.369	-0.092	-0.160
-604.142	255.033	0.064	-0.110
-603.128	-159.850	0.074	-0.004
-602.113	-145.063	-0.035	-0.003
-601.098	-111.118	-0.131	-0.027
-600.084	278.502	-0.178	0.320
-599.069	314.935	-0.159	-0.302
-598.055	-95.626	-0.299	0.081
-597.040	26.454	0.031	0.026
-596.025	191.080	0.138	-0.210
-595.011	-85.998	-0.259	-0.081
-593.996	52.318	-0.087	-0.084
-592.982	-11.062	-0.082	0.054
-591.967	478.002	-0.050	0.113
-590.952	-46.118	0.128	-0.063
-589.938	152.052	0.085	-0.117
-588.923	-182.203	-0.195	-0.004
-587.909	149.128	0.212	0.289
-586.894	-200.000	0.039	-0.188
-585.879	-200.000	-0.015	0.216
-584.865	-200.000	0.004	-0.029
-583.850	-131.595	0.165	-0.022
-582.836	-78.559	0.278	-0.096
-581.821	-158.449	-0.098	-0.006
-580.806	800.000	-0.004	-0.017
-579.792	399.267	-0.067	-0.141
-578.777	-200.000	-0.012	0.064
-577.763	-200.000	0.077	-0.411
-576.748	-24.158	-0.135	-0.081
-575.733	31.726	0.345	-0.299
-574.719	-66.027	0.042	-0.017
-573.704	-27.973	0.290	0.169
-572.690	-67.790	0.062	0.024
-571.675	-73.481	-0.183	-0.067
-570.661	41.045	0.100	-0.091
-569.646	496.416	-0.184	0.426
-568.631	-200.000	0.013	0.089
-567.617	-154.925	-0.063	0.004
-566.602	-71.006	0.108	-0.041
-565.588	-41.413	0.013	0.007
-564.573	188.608	0.082	-0.123
-563.558	-135.268	0.211	-0.025
-562.544	800.000	0.061	0.177
-561.529	506.333	-0.049	0.113
-560.515	-18.567	0.173	-0.109
-559.500	-41.761	0.227	0.117
-558.485	179.594	-0.043	0.063
-557.471	-61.075	-0.132	0.056
-556.456	-48.857	0.303	0.146
-555.442	-86.068	-0.085	0.026
-554.427	800.000	-0.059	0.166
-553.412	-200.000	-0.022	-0.096
-552.398	-82.812	-0.291	-0.095
-551.383	-97.524	0.116	-0.030
-550.369	-106.681	-0.137	0.031
-549.354	30.794	-0.348	-0.300
-548.339	-200.000	-0.071	-0.463
-547.325	-200.000	-0.028	-0.284
-546.310	-169.748	0.097	-0.004
-545.296	-144.396	0.246	-0.023
-544.281	-142.849	-0.133	-0.013
-543.266	-128.300	0.440	-0.063
-542.252	-140.616	-0.249	0.026
-541.237	333.382	-0.169	-0.328
-540.223	126.892	0.157	0.200
-539.208	346.630	0.042	-0.083
-538.193	133.801	-0.126	0.163
-537.179	165.509	-0.096	0.137
-536.164	-200.000	0.035	-0.254
-535.150	371.267	-0.121	0.246
-534.135	733.777	0.085	-0.228
-533.121	800.000	0.060	-0.218
-532.106	383.190	-0.111	-0.230
-531.091	30.922	-0.222	-0.191
-530.077	545.654	-0.097	-0.232
-529.062	51.145	-0.286	-0.273
-528.048	-43.193	0.294	-0.150
-527.033	-74.851	-0.159	-0.057
-526.018	-200.000	-0.029	-0.224
-525.004	-104.389	-0.263	-0.061
-523.989	-120.361	-0.199	-0.034
-522.975	321.213	0.106	-0.203
-521.960	110.302	0.124	-0.150
-520.945	-34.978	-0.057	-0.031
-519.931	800.000	-0.051	-0.160
-518.916	-137.232	0.277	-0.032
-517.902	160.981	-0.031	0.043
-516.887	27.668	-0.228	-0.193
-515.872	-47.841	-0.168	0.082
-514.858	21.684	-0.082	0.067
-513.843	-28.646	0.092	-0.053
-512.829	-65.528	0.043	-0.017
-511.814	800.000	0.044	-0.171
-510.799	-31.614	-0.079	-0.044
-509.785	0.455	0.013	0.009
-508.770	329.053	0.102	-0.198
-507.756	-51.659	-0.150	-0.070
-506.741	311.140	0.104	-0.197
-505.726	-90.652	-0.138	-0.040
-504.712	-200.000	-0.015	0.085
-503.697	176.742	0.082	0.119
-502.683	708.050	0.056	0.148
-501.668	-200.000	-0.008	0.218
-500.653	-23.648	-0.099	-0.059
-499.639	-190.714	0.274	-0.003
-498.624	-200.000	-0.019	0.105
-497.610	-200.000	0.124	-0.000
-496.595	800.000	-0.080	0.263
-495.581	-7.227	-0.141	-0.096
-494.566	800.000	0.034	-0.125
-493.551	-200.000	0.008	0.152
-492.537	-126.090	0.226	-0.034
-491.522	-200.000	-0.029	-0.216
-490.508	172.951	0.180	0.260
-489.493	-91.849	-0.075	-0.021
-488.478	-200.000	-0.072	-0.594
-487.464	-200.000	0.019	0.102
-486.449	-114.842	-0.185	0.035
-485.435	-172.957	-0.292	0.009
-484.420	-113.284	0.465	0.092
-483.405	800.000	-0.045	0.168
-482.391	-200.000	0.075	-0.365
-481.376	-33.119	-0.254	0.141
-480.362	-98.098	-0.386	-0.100
-479.347	336.124	-0.046	0.090
-478.332	203.037	0.095	-0.147
-477.318	-24.325	-0.348	-0.208
-476.303	-109.544	-0.187	0.040
-475.289	-41.039	-0.059	0.031
-474.274	-200.000	-0.034	-0.464
-473.259	800.000	-0.015	-0.060
-472.245	-137.635	0.084	-0.009
-471.230	-26.532	0.224	-0.132
-470.216	16.574	-0.194	0.154
-469.201	-200.000	0.026	-0.351
-468.186	800.000	-0.080	-0.243
-467.172	-139.532	0.274	-0.029
-466.157	29.668	-0.141	-0.121
-465.143	-86.006	-0.256	0.079
-464.128	487.743	-0.235	-0.537
-463.113	234.747	-0.042	-0.069
-462.099	133.181	-0.015	0.019
-461.084	15.691	0.111	-0.087
-460.070	123.962	0.095	-0.120
-459.055	-38.879	0.072	-0.038
-458.040	-65.003	-0.211	-0.085
-457.026	-200.000	-0.018	0.267
-456.011	800.000	0.070	0.218
-454.997	763.097	-0.065	0.177
-453.982	-20.220	-0.268	0.165
-452.968	530.090	0.084	0.200
-451.953	-44.757	-0.064	0.032
-450.938	-33.877	0.123	0.068
-449.924	48.324	-0.268	0.251
-448.909	-200.000	0.031	0.224
-447.895	-200.000	0.022	0.178
-446.880	64.830	0.201	0.203
-445.865	394.219	0.125	0.262
-444.851	-168.768	0.158	0.006
-443.836	-200.000	-0.030	0.328
-442.822	-200.000	-0.003	0.111
-441.807	185.191	0.131	-0.195
-440.792	-38.576	0.197	-0.104
-439.778	-200.000	0.009	-0.200
-438.763	800.000	0.045	0.169
-437.749	800.000	0.098	0.334
-436.734	-200.000	-0.009	-0.165
-435.719	71.658	-0.043	0.045
-434.705	121.340	0.102	0.127
-433.690	33.181	0.133	0.116
-432.676	474.482	-0.148	0.335
-431.661	141.282	0.057	0.076
-430.646	-200.000	-0.001	0.003
-429.632	800.000	0.017	-0.066
-428.617	-200.000	0.040	-0.199
-427.603	63.252	-0.202	0.202
-426.588	800.000	0.063	0.179
-425.573	-167.143	0.297	0.012
-424.559	9.415	0.156	0.118
-423.544	-70.358	0.230	-0.087
-422.530	394.485	-0.133	-0.278
-421.515	23.695	0.098	0.081
-420.500	-45.624	-0.288	0.143
-419.486	-200.000	-0.047	0.250
-418.471	104.717	-0.284	-0.334
-417.457	-46.791	-0.043	0.021
-416.442	-19.777	0.083	0.051
-415.428	22.690	0.238	-0.195
-414.413	-165.470	0.169	-0.007
-413.398	13.414	-0.107	-0.083
-412.384	-49.862	0.159	0.076
-411.369	-191.897	-0.445	0.004
-410.355	15.185	-0.061	-0.048
-409.340	637.465	0.098	-0.250
-408.325	-55.521	0.067	0.030
-407.311	426.185	0.090	0.194
-406.296	-13.510	-0.084	-0.055
-405.282	181.941	-0.099	0.146
-404.267	-200.000	-0.074	0.340
-403.252	301.989	0.068	-0.126
-402.238	-54.120	0.122	0.056
-401.223	-161.088	0.069	0.004
-400.209	2.750	0.331	-0.240
-399.194	-126.929	-0.253	-0.037
-398.179	-200.000	-0.001	-0.057
-397.165	-131.039	0.297	-0.040
-396.150	-32.783	-0.025	-0.014
-395.136	-162.870	0.069	-0.003
-394.121	-34.663	0.475	-0.260
-393.106	-200.000	0.022	-0.378
-392.092	800.000	-0.102	0.444
-391.077	-50.421	-0.202	-0.095
-390.063	28.157	0.126	-0.106
-389.048	-185.840	0.087	-0.001
-388.033	193.545	-0.160	0.241
-387.019	-200.000	-0.048	-0.273
-386.004	800.000	0.039	0.155
-384.990	550.310	-0.048	0.115
-383.975	-200.000	0.040	-0.394
-382.960	-200.000	0.012	0.146
-381.946	-200.000	-0.037	-0.198
-380.931	127.625	-0.156	-0.199
-379.917	619.729	0.166	0.418
-378.902	-121.405	0.056	0.009
-377.888	-80.709	0.197	0.065
-376.873	-200.000	-0.044	0.225
-375.858	-102.254	0.197	0.047
-374.844	90.580	-0.125	0.139
-373.829	101.576	-0.435	0.507
-372.815	101.875	-0.044	-0.051
-371.800	269.346	-0.144	-0.253
-370.785	357.618	0.158	0.314
-369.771	279.539	0.062	-0.110
-368.756	-200.000	0.060	0.360
-367.742	-165.918	0.245	-0.010
-366.727	-200.000	-0.013	-0.156
-365.712	458.668	0.140	-0.311
-364.698	-37.292	0.099	0.053
-363.683	-200.000	-0.004	0.094
-362.669	-200.000	0.001	0.097
-361.654	800.000	0.075	-0.294
-360.639	-200.000	0.014	-0.321
-359.625	-200.000	-0.054	-0.247
-358.610	-200.000	-0.065	-0.357
-357.596	75.515	-0.206	-0.217
-356.581	-150.518	-0.296	-0.023
-355.566	-166.095	-0.237	-0.010
-354.552	-71.023	0.135	0.051
-353.537	481.185	-0.034	-0.076
-352.523	0.057	-0.119	0.085
-351.508	-175.480	0.198	0.005
-350.493	-14.957	0.072	-0.046
-349.479	-200.000	0.011	-0.057
-348.464	-200.000	-0.018	0.097
-347.450	-200.000	0.034	-0.176
-346.435	78.303	-0.109	-0.116
-345.420	-73.601	-0.330	0.120
-344.406	53.595	-0.081	0.078
-343.391	-140.604	-0.316	-0.033
-342.377	-28.065	-0.206	-0.119
-341.362	-200.000	-0.110	-0.537
-340.348	-200.000	0.023	0.144
-339.333	-63.527	0.111	-0.046
-338.318	-119.337	0.046	-0.008
-337.304	745.849	0.091	-0.245
-336.289	-95.699	-0.229	0.061
-335.275	373.438	0.088	0.178
-334.260	-148.563	0.162	-0.013
-333.245	111.542	0.089	-0.107
-332.231	4.958	0.039	0.029
-331.216	-37.443	-0.217	0.115
-330.202	-87.393	-0.163	-0.049
-329.187	-43.232	-0.134	-0.067
-328.172	-111.177	0.180	0.037
-327.158	-183.983	0.113	-0.002
-326.143	58.772	0.122	-0.120
-325.129	-84.039	-0.264	0.084
-324.114	-200.000	0.014	-0.203
-323.099	-63.089	-0.268	0.110
-322.085	155.273	-0.117	-0.160
-321.070	70.937	0.239	-0.246
-320.056	-200.000	0.052	0.442
-319.041	84.552	0.124	0.135
-318.026	242.674	0.186	0.310
-317.012	-200.000	-0.012	0.165
-315.997	-8.297	-0.094	0.063
-314.983	34.096	0.119	-0.103
-313.968	-200.000	-0.040	0.315
-312.953	-111.771	0.223	0.045
-311.939	163.691	0.128	0.179
-310.924	-186.562	0.270	-0.004
-309.910	800.000	-0.065	-0.261
-308.895	-17.692	-0.248	-0.155
-307.880	-200.000	-0.001	-0.105
-306.866	30.636	-0.234	0.199
-305.851	99.474	0.088	0.102
-304.837	800.000	0.131	-0.438
-303.822	-40.096	-0.282	0.147
-302.807	-167.500	0.223	-0.009
-301.793	-37.876	-0.057	-0.030
-300.778	800.000	0.082	0.314
-299.764	-28.623	0.120	0.069
-298.749	-63.450	0.074	-0.030
-297.735	-200.000	-0.047	0.225
-296.720	-8.543	-0.309	0.207
-295.705	267.327	-0.097	0.169
-294.691	-200.000	-0.018	0.124
-293.676	101.813	-0.050	-0.058
-292.662	11.184	-0.385	-0.293
-291.647	195.338	0.054	0.082
-290.632	-34.177	0.138	0.075
-289.618	-114.768	-0.332	0.063
-288.603	59.745	-0.197	-0.194
-287.589	-158.710	-0.220	-0.013
-286.574	483.323	0.208	-0.470
-285.559	136.607	0.116	-0.151
-284.545	-194.739	-0.320	-0.002
-283.530	800.000	-0.045	0.167
-282.516	-200.000	-0.020	-0.175
-281.501	800.000	0.053	0.184
-280.486	89.530	-0.241	-0.267
-279.472	415.707	0.138	-0.294
-278.457	165.530	-0.036	-0.051
-277.443	-200.000	0.081	0.465
-276.428	112.587	0.144	0.173
-275.413	-163.214	-0.098	-0.005
-274.399	-68.571	-0.207	0.080
-273.384	-144.706	0.080	0.007
-272.370	-107.155	-0.470	-0.103
-271.355	800.000	0.055	-0.233
-270.340	-120.125	0.114	-0.019
-269.326	7.831	-0.195	0.145
-268.311	-88.063	0.471	0.141
-267.297	-92.009	0.180	0.051
-266.282	73.978	-0.348	0.363
-265.267	-26.676	0.295	0.171
-264.253	-200.000	-0.003	-0.233
-263.238	-80.343	-0.225	-0.075
-262.224	-83.324	0.211	0.067
-261.209	-56.493	-0.360	0.159
-260.195	516.489	0.102	0.238
-259.180	-45.184	0.115	-0.057
-258.165	-42.712	-0.211	-0.107
-257.151	110.481	0.081	0.097
-256.136	-111.505	0.127	-0.026
-255.122	800.000	-0.078	-0.234
-254.107	562.635	0.120	-0.289
-253.092	234.863	-0.083	0.136
-252.078	-120.725	-0.108	-0.018
-251.063	346.120	-0.082	0.160
-250.049	800.000	-0.116	0.388
-249.034	310.409	0.046	0.086
-248.019	266.890	0.133	0.232
-247.005	-151.270	0.270	0.020
-245.990	-6.867	0.050	-0.034
-244.976	-90.180	-0.230	0.067
-243.961	-28.598	-0.297	0.170
-242.946	-43.274	0.387	0.194
-241.932	75.342	0.117	0.122
-240.917	-82.720	-0.174	-0.056
-239.903	92.606	0.196	0.220
-238.888	-200.000	-0.005	0.142
-237.873	-63.131	-0.137	-0.056
-236.859	93.065	0.281	0.315
-235.844	704.400	-0.073	0.190
-234.830	655.683	0.080	-0.203
-233.815	-88.777	0.310	-0.091
-232.800	-33.411	-0.165	-0.091
-231.786	-200.000	0.018	0.200
-230.771	800.000	-0.043	0.154
-229.757	-66.397	0.128	-0.051
-228.742	-33.857	-0.020	0.011
-227.727	-105.048	0.310	0.070
-226.713	-124.610	0.244	0.038
-225.698	52.991	-0.102	-0.097
-224.684	-38.497	-0.292	0.153
-223.669	550.509	0.187	0.444
-222.655	79.246	0.214	0.228
-221.640	498.317	-0.083	0.190
-220.625	800.000	-0.056	0.180
-219.611	-200.000	-0.004	0.028
-218.596	-147.980	-0.230	0.019
-217.582	-200.000	-0.011	0.380
-216.567	79.491	0.226	-0.241
-215.552	183.941	-0.087	-0.127
-214.538	-163.974	0.349	-0.016
-213.523	6.607	0.320	-0.236
-212.509	-75.436	0.258	-0.091
-211.494	152.682	0.280	-0.379
-210.479	120.999	-0.156	-0.193
-209.465	247.504	0.171	0.286
-208.450	11.295	0.019	0.014
-207.436	-68.649	-0.231	-0.089
-206.421	-200.000	-0.000	-0.116
-205.406	-47.225	-0.114	-0.055
-204.392	-200.000	0.006	0.239
-203.377	17.221	0.351	0.276
-202.363	-200.000	-0.016	0.344
-201.348	-200.000	-0.035	-0.222
-200.333	-51.946	-0.133	-0.061
-199.319	445.152	0.155	0.338
-198.304	800.000	-0.108	0.326
-197.290	20.436	0.086	0.069
-196.275	800.000	0.087	0.355
-195.260	-65.991	0.110	-0.044
-194.246	317.256	-0.108	0.203
-193.231	-200.000	-0.038	-0.342
-192.217	-200.000	-0.263	0.001
-191.202	-200.000	-0.052	0.437
-190.187	753.897	0.020	0.053
-189.173	642.936	0.129	0.325
-188.158	479.255	-0.224	-0.504
-187.144	536.752	-0.060	-0.142
-186.129	115.584	-0.045	-0.055
-185.114	-200.000	-0.020	0.121
-184.100	409.269	0.104	-0.218
-183.085	738.005	0.086	0.228
-182.071	523.015	0.115	0.268
-181.056	72.248	-0.137	0.142
-180.042	-124.102	0.190	-0.030
-179.027	55.642	0.177	-0.170
-178.012	-76.811	-0.241	0.084
-176.998	-32.350	0.377	-0.208
-175.983	800.000	0.082	-0.253
-174.969	1.056	0.065	0.046
-173.954	-200.000	-0.019	-0.169
-172.939	-200.000	0.056	-0.408
-171.925	90.989	0.080	-0.089
-170.910	25.863	0.106	0.088
-169.896	254.830	0.033	-0.056
-168.881	-200.000	-0.001	0.053
-167.866	191.158	0.134	-0.200
-166.852	39.584	0.022	-0.019
-165.837	74.814	0.141	0.147
-164.823	-89.664	-0.070	0.020
-163.808	190.852	-0.061	0.091
-162.793	-200.000	-0.026	0.130
-161.779	4.894	0.192	-0.140
-160.764	-174.560	-0.098	-0.003
-159.750	14.955	0.123	-0.096
-158.735	108.741	-0.152	-0.180
-157.720	-45.797	-0.197	-0.096
-156.706	-82.394	-0.387	0.125
-155.691	144.915	0.186	0.246
-154.677	39.169	-0.437	0.387
-153.662	-171.440	0.208	0.007
-152.647	-107.542	0.194	0.042
-151.633	-131.029	-0.340	-0.045
-150.618	-139.415	0.137	-0.015
-149.604	226.974	-0.193	-0.310
-148.589	64.881	0.126	-0.126
-147.574	87.884	-0.114	-0.125
-146.560	800.000	-0.113	0.357
-145.545	-200.000	-0.009	0.170
-144.531	-200.000	-0.030	0.339
-143.516	5.230	0.139	0.101
-142.502	-200.000	0.000	0.134
-141.487	-167.546	-0.121	0.005
-140.472	-200.000	0.001	-0.344
-139.458	-7.401	-0.121	-0.081
-138.443	159.923	-0.066	-0.091
-137.429	-142.695	-0.069	0.007
-136.414	243.390	-0.069	-0.115
-135.399	23.540	-0.085	-0.070
-134.385	-93.309	-0.219	0.060
-133.370	-132.844	0.408	0.052
-132.356	56.368	-0.160	-0.154
-131.341	800.000	-0.172	0.501
-130.326	-52.928	0.059	-0.027
-129.312	71.950	-0.104	0.108
-128.297	-82.617	-0.339	0.109
-127.283	-111.656	-0.123	-0.025
-126.268	-87.325	0.224	-0.067
-125.253	-40.444	0.165	-0.085
-124.239	-100.731	0.091	0.022
-123.224	-82.459	0.365	-0.117
-122.210	48.388	0.332	-0.308
