DTS Sentinel unit serial number:	SN413079Multiplexer serial number:	ORYXHardware model number:	OX4-SRSoftware version number:	ORYX F/W v4.00 Oryx Data Collector v3.7.2.0data status	okinstallation	princeton_trtdifferential loss correction	single-endedforward channel	channel 2reverse channel	N/Adate	2019/09/14time	18:03:35forward acquisition time	60.00reverse acquisition time	0.00gamma	496.2192k internal	0.2313k external	0.2313temperature offset calibration	1.0108default loss term (dB/km)	0.3790temperature slope calibration	1.0000multiplexer offset coefficient	1.0000multiplexer slope coefficient	1.0000fibre end	0.00T internal ref (°C)	37.27T ext. ref 1 (°C)	4.96T ext. ref 2 (°C)	31.78length (m)	temperature (°C)	Stokes	anti-Stokes-747.200	-50.888	0.132	-0.063
-746.185	-73.690	0.235	-0.087
-745.171	-103.023	0.492	-0.118
-744.156	-200.000	0.011	0.501
-743.142	123.042	-0.173	0.220
-742.127	-52.364	0.244	0.114
-741.112	-200.000	0.018	0.163
-740.098	-38.691	-0.403	0.216
-739.083	-16.205	0.417	0.268
-738.069	324.872	-0.138	0.268
-737.054	114.854	0.166	-0.205
-736.039	800.000	-0.042	0.119
-735.025	800.000	0.109	0.426
-734.010	312.390	0.130	-0.248
-732.996	58.615	0.150	0.149
-731.981	-40.928	-0.342	-0.179
-730.966	609.801	-0.133	-0.336
-729.952	228.281	-0.159	-0.263
-728.937	800.000	0.118	-0.465
-727.923	-48.178	0.344	-0.168
-726.908	74.913	0.127	-0.135
-725.894	-200.000	-0.055	-0.519
-724.879	135.457	0.065	-0.086
-723.864	619.725	0.101	-0.257
-722.850	-62.335	-0.087	-0.037
-721.835	-186.908	0.278	-0.004
-720.821	443.889	0.109	-0.242
-719.806	-133.808	-0.073	-0.009
-718.791	72.715	-0.142	0.150
-717.777	-29.021	-0.099	0.058
-716.762	-63.970	-0.056	-0.023
-715.748	-157.959	-0.061	-0.004
-714.733	-87.926	-0.040	-0.012
-713.718	800.000	0.083	-0.339
-712.704	-43.134	-0.145	-0.075
-711.689	47.662	0.103	-0.097
-710.675	706.120	-0.028	0.075
-709.660	-200.000	-0.037	-0.393
-708.645	-20.440	-0.127	-0.079
-707.631	37.586	-0.055	0.050
-706.616	-200.000	-0.028	-0.131
-705.602	-90.287	0.109	0.032
-704.587	-123.295	0.277	-0.045
-703.572	-127.376	-0.323	-0.048
-702.558	163.838	-0.138	-0.196
-701.543	-200.000	-0.029	0.136
-700.529	-151.298	0.534	0.040
-699.514	170.641	0.106	0.154
-698.499	-97.675	-0.174	-0.046
-697.485	163.640	0.190	0.271
-696.470	350.173	-0.116	-0.233
-695.456	140.267	-0.201	-0.268
-694.441	-96.813	-0.354	-0.094
-693.426	223.763	-0.192	0.314
-692.412	231.839	-0.082	-0.137
-691.397	-180.024	-0.292	-0.006
-690.383	46.030	-0.080	-0.075
-689.368	800.000	0.008	0.035
-688.354	-34.660	0.056	0.031
-687.339	129.499	0.184	-0.237
-686.324	-200.000	-0.028	-0.240
-685.310	175.023	0.134	-0.196
-684.295	-29.052	-0.328	0.190
-683.281	744.428	0.073	0.198
-682.266	216.483	0.034	-0.055
-681.251	307.340	0.126	0.238
-680.237	489.979	-0.160	-0.370
-679.222	-63.003	0.224	0.094
-678.208	92.475	-0.131	0.149
-677.193	92.077	-0.049	-0.056
-676.178	-200.000	0.043	-0.330
-675.164	30.445	0.106	0.092
-674.149	56.512	-0.048	0.047
-673.135	-9.743	-0.145	0.098
-672.120	-107.379	-0.239	-0.053
-671.105	-29.276	-0.254	-0.147
-670.091	-200.000	0.035	0.260
-669.076	-53.358	-0.142	0.066
-668.062	147.139	-0.099	-0.134
-667.047	-82.681	0.194	0.064
-666.032	-200.000	-0.085	-0.383
-665.018	72.604	0.229	0.241
-664.003	17.509	-0.166	0.134
-662.989	125.440	-0.222	-0.283
-661.974	-177.023	0.246	-0.006
-660.959	-51.606	-0.101	-0.048
-659.945	-82.118	0.271	-0.089
-658.930	431.921	-0.218	-0.477
-657.916	-35.690	0.279	-0.153
-656.901	800.000	-0.028	-0.114
-655.886	-200.000	-0.044	-0.389
-654.872	-95.554	-0.155	-0.042
-653.857	98.009	-0.059	0.069
-652.843	-24.131	-0.235	-0.142
-651.828	-128.824	-0.179	0.025
-650.814	-6.528	-0.059	0.041
-649.799	35.115	0.155	0.137
-648.784	-78.214	-0.456	-0.158
-647.770	800.000	-0.041	-0.119
-646.755	-131.531	0.212	-0.028
-645.741	-107.333	0.050	0.011
-644.726	180.284	-0.132	-0.196
-643.711	-59.668	-0.168	-0.073
-642.697	800.000	-0.067	0.215
-641.682	-2.668	0.161	0.114
-640.668	75.791	0.216	0.230
-639.653	50.969	-0.098	-0.094
-638.638	-67.602	-0.043	-0.017
-637.624	582.729	-0.065	0.162
-636.609	548.247	-0.087	-0.210
-635.595	-200.000	-0.054	0.266
-634.580	-51.019	0.014	-0.007
-633.565	102.129	-0.242	-0.285
-632.551	800.000	0.065	-0.193
-631.536	156.933	0.151	-0.211
-630.522	3.611	-0.147	-0.108
-629.507	-106.994	0.316	0.071
-628.492	-157.329	0.230	-0.014
-627.478	-1.761	0.121	0.086
-626.463	425.173	0.096	-0.209
-625.449	28.970	-0.185	-0.158
-624.434	-172.124	-0.221	-0.007
-623.419	-79.379	-0.112	0.038
-622.405	-134.774	0.379	0.046
-621.390	-68.259	-0.077	-0.030
-620.376	-85.612	-0.311	0.098
-619.361	21.711	-0.267	-0.219
-618.346	-143.380	0.313	0.030
-617.332	800.000	-0.066	0.187
-616.317	-74.362	-0.321	0.117
-615.303	312.201	-0.044	0.084
-614.288	-115.196	-0.424	-0.081
-613.273	100.177	-0.095	-0.111
-612.259	-200.000	0.002	0.162
-611.244	785.635	-0.130	-0.358
-610.230	226.743	-0.033	-0.054
-609.215	800.000	-0.100	-0.310
-608.201	-200.000	-0.016	0.092
-607.186	44.685	-0.107	-0.099
-606.171	496.454	-0.133	-0.309
-605.157	361.345	-0.106	-0.215
-604.142	25.604	-0.044	-0.037
-603.128	75.035	-0.180	0.191
-602.113	-46.493	0.221	0.110
-601.098	420.891	0.046	-0.100
-600.084	800.000	-0.084	0.342
-599.069	-47.425	-0.210	-0.103
-598.055	800.000	-0.076	0.242
-597.040	52.374	0.069	-0.067
-596.025	-104.343	0.368	-0.086
-595.011	-15.289	0.087	0.056
-593.996	423.362	0.057	-0.124
-592.982	-116.351	-0.300	-0.056
-591.967	800.000	-0.006	0.022
-590.952	-190.594	0.096	0.001
-589.938	62.255	0.320	-0.321
-588.923	280.051	-0.111	-0.200
-587.909	-63.699	0.025	0.010
-586.894	340.271	-0.127	-0.250
-585.879	-144.205	-0.316	-0.030
-584.865	253.662	0.114	-0.196
-583.850	31.342	-0.156	-0.135
-582.836	25.295	-0.174	-0.145
-581.821	-200.000	-0.026	0.152
-580.806	-30.522	-0.335	-0.191
-579.792	-200.000	-0.022	0.233
-578.777	413.268	0.019	0.041
-577.763	-46.782	0.127	-0.062
-576.748	-104.421	0.182	-0.042
-575.733	-200.000	-0.017	0.163
-574.719	-64.987	0.309	-0.126
-573.704	800.000	0.012	0.046
-572.690	-200.000	-0.042	0.253
-571.675	-200.000	-0.050	0.244
-570.661	505.418	0.224	0.524
-569.646	749.775	0.103	0.279
-568.631	800.000	-0.094	0.392
-567.617	38.651	-0.097	-0.087
-566.602	-200.000	-0.040	0.405
-565.588	-107.634	-0.102	0.022
-564.573	-17.198	-0.295	-0.187
-563.558	-156.599	0.277	0.017
-562.544	-149.520	-0.019	0.001
-561.529	118.731	0.106	0.132
-560.515	-200.000	0.023	0.367
-559.500	-40.448	0.106	0.055
-558.485	184.306	-0.056	0.083
-557.471	-11.069	0.198	-0.131
-556.456	-21.441	0.068	-0.042
-555.442	25.401	0.238	-0.199
-554.427	-100.033	-0.107	-0.027
-553.412	124.949	0.135	0.171
-552.398	-78.185	0.434	-0.150
-551.383	144.639	-0.268	0.360
-550.369	-70.356	0.193	0.074
-549.354	-34.244	-0.181	0.100
-548.339	-101.380	0.260	-0.064
-547.325	-126.700	0.278	-0.041
-546.310	800.000	-0.021	0.093
-545.296	-81.543	-0.285	-0.094
-544.281	-200.000	-0.027	-0.222
-543.266	19.934	-0.168	-0.136
-542.252	800.000	-0.066	0.273
-541.237	-88.906	-0.262	0.078
-540.223	-36.722	-0.170	-0.092
-539.208	-88.428	0.457	0.137
-538.193	-73.096	-0.202	0.075
-537.179	105.771	0.027	0.032
-536.164	44.823	-0.088	0.082
-535.150	575.982	-0.168	0.413
-534.135	-200.000	-0.031	0.192
-533.121	159.272	-0.192	0.268
-532.106	-77.248	-0.181	-0.063
-531.091	205.999	0.092	-0.144
-530.077	-171.007	-0.169	-0.006
-529.062	800.000	0.034	0.145
-528.048	-78.633	0.269	0.093
-527.033	-112.706	0.440	0.088
-526.018	-200.000	-0.040	0.270
-525.004	800.000	-0.045	0.151
-523.989	2.362	-0.185	0.135
-522.975	287.677	-0.082	-0.149
-521.960	-94.021	0.308	-0.085
-520.945	-200.000	-0.059	0.310
-519.931	-200.000	0.004	0.206
-518.916	800.000	0.065	0.217
-517.902	39.100	-0.147	-0.132
-516.887	388.392	-0.118	0.246
-515.872	66.447	-0.254	0.259
-514.858	-92.184	0.072	0.020
-513.843	284.324	-0.101	0.183
-512.829	196.712	0.112	0.172
-511.814	-76.823	0.147	-0.052
-510.799	-200.000	0.040	-0.208
-509.785	-200.000	0.040	-0.189
-508.770	-136.144	0.332	-0.039
-507.756	800.000	0.056	-0.226
-506.741	-151.541	-0.321	0.024
-505.726	577.387	0.022	0.053
-504.712	-111.626	0.282	-0.058
-503.697	-77.166	0.156	-0.055
-502.683	-72.000	0.356	0.133
-501.668	81.011	0.380	-0.412
-500.653	67.906	0.173	-0.178
-499.639	46.615	-0.080	-0.074
-498.624	670.114	-0.112	-0.291
-497.610	-200.000	0.005	-0.180
-496.595	117.902	0.027	-0.034
-495.581	208.105	-0.124	-0.194
-494.566	262.991	-0.131	-0.228
-493.551	53.381	-0.112	-0.108
-492.537	-126.607	0.190	0.028
-491.522	76.065	0.134	0.142
-490.508	144.151	0.037	0.049
-489.493	491.460	-0.075	0.172
-488.478	-58.685	-0.152	0.066
-487.464	7.593	0.250	0.188
-486.449	683.432	-0.078	0.206
-485.435	800.000	-0.161	0.473
-484.420	-55.833	0.083	-0.037
-483.405	-94.999	0.335	-0.091
-482.391	245.810	0.050	0.085
-481.376	234.543	-0.106	-0.176
-480.362	-137.453	-0.311	0.035
-479.347	-156.246	-0.165	-0.010
-478.332	247.842	-0.143	-0.242
-477.318	331.138	0.107	-0.208
-476.303	-52.340	-0.039	-0.018
-475.289	371.155	0.103	0.209
-474.274	-55.653	0.165	-0.074
-473.259	-200.000	-0.050	-0.299
-472.245	-138.750	-0.183	-0.020
-471.230	199.523	0.023	-0.035
-470.216	-142.951	-0.112	0.011
-469.201	-3.567	-0.221	0.154
-468.186	-105.163	-0.241	-0.055
-467.172	-107.219	0.274	0.061
-466.157	-44.990	-0.464	-0.232
-465.143	106.937	0.170	0.203
-464.128	79.771	-0.122	0.131
-463.113	-85.416	-0.037	0.011
-462.099	351.977	-0.085	-0.169
-461.084	800.000	0.109	0.370
-460.070	122.902	-0.052	0.066
-459.055	213.103	-0.111	-0.176
-458.040	-29.668	0.186	-0.106
-457.026	-97.220	0.266	0.070
-456.011	0.249	0.031	0.022
-454.997	-113.504	0.222	-0.044
-453.982	18.574	0.091	-0.073
-452.968	-42.845	0.272	-0.139
-451.953	-200.000	0.055	-0.342
-450.938	-28.635	0.022	-0.013
-449.924	-19.325	-0.152	0.095
-448.909	-123.652	-0.234	-0.037
-447.895	229.621	0.040	0.065
-446.880	98.807	-0.130	-0.151
-445.865	-158.029	0.327	0.019
-444.851	-200.000	0.016	-0.276
-443.836	-200.000	-0.006	-0.037
-442.822	-200.000	0.007	0.516
-441.807	29.545	0.203	0.173
-440.792	60.407	-0.060	0.060
-439.778	800.000	-0.093	-0.270
-438.763	182.871	0.230	0.340
-437.749	-200.000	-0.095	0.423
-436.734	131.856	0.134	0.173
-435.719	-52.278	0.055	0.025
-434.705	-33.334	-0.203	-0.113
-433.690	133.194	-0.075	0.097
-432.676	-200.000	0.015	0.160
-431.661	-200.000	0.013	-0.175
-430.646	-200.000	0.002	0.020
-429.632	268.280	-0.230	-0.403
-428.617	178.601	0.087	0.128
-427.603	-200.000	-0.042	-0.484
-426.588	313.512	-0.044	-0.083
-425.573	14.301	0.144	-0.112
-424.559	-173.343	-0.176	-0.005
-423.544	691.044	-0.055	0.143
-422.530	-138.527	0.163	0.018
-421.515	-200.000	0.000	-0.219
-420.500	683.276	-0.110	-0.288
-419.486	-135.676	-0.121	-0.014
-418.471	584.544	0.114	-0.281
-417.457	-110.362	0.094	0.020
-416.442	593.874	-0.057	-0.142
-415.428	-136.081	0.235	0.028
-414.413	-56.832	-0.273	-0.121
-413.398	-129.522	0.208	-0.029
-412.384	-143.337	-0.319	0.031
-411.369	587.681	-0.024	-0.059
-410.355	193.274	-0.078	-0.118
-409.340	190.344	-0.111	0.167
-408.325	-200.000	-0.087	-0.603
-407.311	800.000	-0.151	-0.462
-406.296	528.288	0.039	-0.093
-405.282	-170.790	-0.154	0.005
-404.267	800.000	0.123	0.406
-403.252	800.000	-0.068	-0.255
-402.238	35.153	-0.117	-0.103
-401.223	-20.041	0.110	-0.068
-400.209	-170.205	-0.441	-0.016
-399.194	-146.292	-0.129	-0.011
-398.179	254.992	-0.114	0.195
-397.165	1.367	-0.143	-0.103
-396.150	621.898	0.022	-0.056
-395.136	63.310	0.156	0.156
-394.121	-87.723	0.290	-0.088
-393.106	-200.000	0.026	0.502
-392.092	-70.728	0.076	-0.029
-391.077	800.000	0.072	-0.293
-390.063	113.185	-0.133	0.161
-389.048	81.126	0.106	-0.114
-388.033	800.000	-0.036	-0.121
-387.019	87.103	0.272	-0.301
-386.004	65.550	-0.200	0.203
-384.990	-3.753	0.192	0.133
-383.975	-18.041	0.330	-0.207
-382.960	-130.474	-0.209	-0.028
-381.946	-47.532	0.061	-0.030
-380.931	595.496	0.087	-0.216
-379.917	598.756	-0.073	-0.182
-378.902	-200.000	0.008	-0.055
-377.888	-87.268	-0.171	0.052
-376.873	-28.991	0.225	-0.129
-375.858	-200.000	-0.017	0.143
-374.844	-13.429	-0.171	0.111
-373.829	-200.000	0.017	0.218
-372.815	-82.696	0.194	-0.063
-371.800	-70.504	-0.134	-0.051
-370.785	-200.000	-0.009	-0.047
-369.771	-200.000	-0.060	-0.261
-368.756	0.003	-0.101	-0.072
-367.742	30.038	-0.084	0.071
-366.727	-97.740	0.185	0.048
-365.712	-200.000	-0.000	-0.019
-364.698	502.125	0.099	-0.228
-363.683	189.574	0.156	-0.234
-362.669	118.287	0.090	0.111
-361.654	-35.428	-0.074	-0.040
-360.639	-141.989	-0.170	0.017
-359.625	800.000	-0.068	-0.291
-358.610	192.215	0.125	0.189
-357.596	-105.070	-0.106	-0.024
-356.581	249.924	-0.186	-0.316
-355.566	235.366	0.071	-0.116
-354.552	-185.643	-0.194	0.003
-353.537	-82.373	-0.116	0.038
-352.523	-200.000	-0.028	-0.256
-351.508	-146.660	-0.311	-0.027
-350.493	-200.000	-0.001	0.046
-349.479	-29.644	0.348	-0.198
-348.464	98.029	-0.152	0.174
-347.450	176.822	-0.067	0.097
-346.435	-44.062	0.107	-0.054
-345.420	-23.442	-0.163	0.098
-344.406	-200.000	0.061	0.000
-343.391	560.962	0.097	0.234
-342.377	19.768	0.108	0.087
-341.362	-200.000	0.018	0.416
-340.348	103.365	-0.144	0.168
-339.333	-35.682	-0.180	-0.097
-338.318	554.250	-0.083	0.199
-337.304	-125.609	0.261	0.040
-336.289	-200.000	-0.001	-0.029
-335.275	800.000	0.074	0.251
-334.260	-130.533	0.547	0.074
-333.245	-138.887	0.122	0.013
-332.231	159.083	0.153	-0.213
-331.216	-83.249	-0.028	0.009
-330.202	-35.681	0.212	-0.115
-329.187	-200.000	0.029	-0.205
-328.172	171.157	-0.159	0.227
-327.158	388.974	0.098	-0.202
-326.143	-200.000	0.052	-0.239
-325.129	-200.000	-0.030	0.193
-324.114	-49.861	0.456	-0.216
-323.099	-34.238	0.306	0.167
-322.085	792.882	-0.118	0.323
-321.070	-124.817	-0.314	-0.048
-320.056	-6.591	-0.134	0.091
-319.041	-200.000	0.005	-0.035
-318.026	26.884	0.327	0.273
-317.012	-131.503	-0.292	-0.038
-315.997	-30.330	0.212	-0.120
-314.983	397.966	0.065	-0.135
-313.968	-51.072	0.094	-0.044
-312.953	-21.682	0.182	0.111
-311.939	45.638	-0.192	0.177
-310.924	-58.614	0.476	0.206
-309.910	755.342	-0.046	0.124
-308.895	65.802	0.160	0.161
-307.880	800.000	-0.075	0.268
-306.866	228.079	0.054	0.088
-305.851	34.947	-0.202	0.177
-304.837	-200.000	-0.005	0.075
-303.822	60.362	0.152	0.150
-302.807	800.000	-0.023	0.081
-301.793	23.694	0.051	-0.042
-300.778	-19.182	-0.250	-0.155
-299.764	-31.972	0.180	-0.100
-298.749	-146.705	0.212	0.018
-297.735	800.000	0.040	-0.152
-296.720	-117.684	0.206	-0.037
-295.705	8.700	0.136	-0.102
-294.691	-176.129	-0.362	-0.010
-293.676	139.667	0.064	0.084
-292.662	30.182	0.281	-0.239
-291.647	225.034	0.131	-0.211
-290.632	-198.861	0.217	-0.001
-289.618	663.913	0.082	0.210
-288.603	-60.106	-0.333	-0.142
-287.589	-35.675	0.207	0.112
-286.574	231.507	0.105	0.171
-285.559	-191.912	-0.071	0.001
-284.545	599.175	-0.052	0.128
-283.530	40.633	0.097	0.087
-282.516	-200.000	-0.025	-0.147
-281.501	800.000	-0.036	0.107
-280.486	800.000	-0.082	-0.256
-279.472	266.947	0.246	-0.429
-278.457	-200.000	0.026	0.132
-277.443	-200.000	-0.011	0.073
-276.428	-6.903	0.162	-0.110
-275.413	-200.000	0.014	0.117
-274.399	-152.053	-0.266	-0.019
-273.384	-50.806	-0.257	0.121
-272.370	-27.450	-0.236	0.137
-271.355	-22.044	0.149	-0.090
-270.340	32.462	0.102	-0.087
-269.326	-74.427	-0.274	0.098
-268.311	259.757	-0.233	0.401
-267.297	-102.925	0.093	-0.022
-266.282	-100.355	0.184	-0.045
-265.267	-72.699	0.038	0.014
-264.253	-200.000	0.001	-0.037
-263.238	176.406	-0.156	-0.226
-262.224	82.059	-0.105	-0.114
-261.209	627.350	0.050	-0.127
-260.195	223.124	-0.194	-0.311
-259.180	800.000	0.075	0.319
-258.165	-135.135	0.375	-0.045
-257.151	-77.735	-0.067	-0.023
-256.136	800.000	-0.057	-0.188
-255.122	-200.000	-0.026	0.215
-254.107	-78.894	0.263	0.089
-253.092	48.820	-0.089	0.083
-252.078	485.196	-0.145	-0.329
-251.063	11.778	0.045	-0.034
-250.049	508.696	-0.103	0.238
-249.034	-72.950	-0.170	-0.062
-248.019	-102.742	0.241	-0.057
-247.005	88.730	-0.029	-0.032
-245.990	-115.994	0.358	0.066
-244.976	800.000	0.081	0.238
-243.961	-200.000	0.000	0.093
-242.946	-64.813	-0.264	0.106
-241.932	-178.043	-0.252	-0.006
-240.917	-134.531	-0.354	0.043
-239.903	62.263	0.129	-0.128
-238.888	-175.401	-0.106	-0.003
-237.873	104.693	-0.128	0.150
-236.859	800.000	-0.029	-0.114
-235.844	-200.000	0.023	-0.147
-234.830	800.000	0.113	-0.389
-233.815	16.858	-0.078	0.061
-232.800	-128.467	-0.241	-0.034
-231.786	184.263	-0.047	-0.069
-230.771	471.059	-0.063	-0.142
-229.757	800.000	0.049	0.137
-228.742	37.688	0.145	-0.128
-227.727	69.994	-0.296	0.304
-226.713	-44.585	-0.016	-0.008
-225.698	800.000	-0.051	0.143
-224.684	-87.103	0.249	0.075
-223.669	-7.693	0.292	0.196
-222.655	-200.000	0.011	-0.330
-221.640	237.519	0.219	0.361
-220.625	-121.800	0.211	-0.035
-219.611	166.013	-0.071	0.100
-218.596	52.129	-0.204	-0.193
-217.582	22.630	0.251	0.204
-216.567	-133.851	-0.281	-0.035
-215.552	-130.406	-0.414	0.056
-214.538	33.354	-0.273	-0.235
-213.523	-85.617	0.230	-0.071
-212.509	24.006	0.334	0.273
-211.494	-154.461	-0.337	-0.022
-210.479	-200.000	-0.218	0.001
-209.465	-200.000	-0.049	0.245
-208.450	69.780	0.136	-0.140
-207.436	-200.000	0.003	0.170
-206.421	-200.000	-0.007	0.094
-205.406	231.873	0.199	0.324
-204.392	-130.770	0.406	-0.054
-203.377	800.000	0.074	-0.284
-202.363	-36.758	-0.301	-0.160
-201.348	-66.365	0.201	0.079
-200.333	-87.909	0.109	-0.033
-199.319	192.180	-0.219	-0.327
-198.304	-118.898	-0.086	0.015
-197.290	-98.902	0.231	-0.058
-196.275	-200.000	0.029	-0.166
-195.260	800.000	-0.051	0.188
-194.246	-56.080	-0.474	0.210
-193.231	55.132	0.043	0.041
-192.217	389.252	-0.087	0.179
-191.202	-144.586	-0.308	0.028
-190.187	-200.000	-0.011	-0.148
-189.173	208.258	0.155	0.241
-188.158	800.000	-0.082	-0.258
-187.144	89.370	0.135	-0.149
-186.129	658.200	0.079	-0.201
-185.114	243.755	-0.172	0.286
-184.100	800.000	0.030	0.113
-183.085	-200.000	-0.009	-0.090
-182.071	-109.510	-0.263	-0.055
-181.056	-55.365	-0.451	-0.201
-180.042	206.824	-0.154	0.239
-179.027	-69.052	0.260	-0.099
-178.012	24.788	-0.056	-0.046
-176.998	86.912	0.113	0.123
-175.983	58.579	-0.153	-0.149
-174.969	153.137	-0.258	-0.350
-173.954	-125.891	-0.304	-0.045
-172.939	-200.000	0.002	-0.208
-171.925	81.952	-0.142	0.153
-170.910	-145.786	0.410	-0.036
-169.896	-60.640	0.155	0.065
-168.881	-160.256	0.432	-0.023
-167.866	-200.000	0.020	0.196
-166.852	230.575	0.112	-0.181
-165.837	624.694	0.030	-0.076
-164.823	-126.882	-0.099	-0.014
-163.808	-200.000	0.053	0.497
-162.793	-8.140	0.425	-0.284
-161.779	800.000	-0.140	0.519
-160.764	800.000	-0.027	0.099
-159.750	175.508	-0.160	-0.230
-158.735	-27.356	0.183	0.106
-157.720	150.596	0.090	0.121
-156.706	-156.823	0.110	0.007
-155.691	-135.504	0.217	0.026
-154.677	-135.732	-0.092	-0.011
-153.662	86.428	-0.151	-0.165
-152.647	-20.822	-0.064	-0.039
-151.633	30.480	0.152	0.129
-150.618	380.209	-0.031	0.062
-149.604	-131.820	0.236	-0.031
-148.589	-65.055	0.225	0.090
-147.574	-34.820	0.321	-0.174
-146.560	83.501	0.135	-0.145
-145.545	800.000	0.021	-0.066
-144.531	-200.000	0.005	-0.064
-143.516	-59.530	0.124	0.053
-142.502	-200.000	-0.001	0.116
-141.487	-118.620	-0.046	0.008
-140.472	51.860	0.111	-0.104
-139.458	-177.430	0.185	-0.005
-138.443	133.676	0.136	-0.175
-137.429	800.000	-0.101	-0.297
-136.414	-25.104	0.087	-0.051
-135.399	-200.000	-0.004	0.039
-134.385	-141.637	-0.250	-0.025
-133.370	127.506	0.084	-0.105
-132.356	174.694	0.052	-0.074
-131.341	-81.480	-0.134	0.044
-130.326	503.423	-0.079	0.181
-129.312	-200.000	0.061	0.287
-128.297	-107.173	-0.202	-0.044
-127.283	-200.000	0.009	0.074
-126.268	172.416	0.112	0.159
-125.253	-26.240	0.132	-0.077
-124.239	77.572	0.181	-0.190
-123.224	-67.738	0.278	0.107
