DTS Sentinel unit serial number:	SN413079Multiplexer serial number:	ORYXHardware model number:	OX4-SRSoftware version number:	ORYX F/W v4.00 Oryx Data Collector v3.7.2.0data status	okinstallation	princeton_trtdifferential loss correction	single-endedforward channel	channel 2reverse channel	N/Adate	2019/09/18time	20:23:34forward acquisition time	60.00reverse acquisition time	0.00gamma	496.2192k internal	0.2336k external	0.2336temperature offset calibration	1.0023default loss term (dB/km)	0.3790temperature slope calibration	1.0000multiplexer offset coefficient	1.0000multiplexer slope coefficient	1.0000fibre end	0.00T internal ref (°C)	28.70T ext. ref 1 (°C)	0.88T ext. ref 2 (°C)	19.46length (m)	temperature (°C)	Stokes	anti-Stokes-747.200	-36.227	-0.109	0.059
-746.185	93.048	-0.330	0.374
-745.171	736.203	0.086	0.233
-744.156	378.678	-0.139	-0.285
-743.142	-162.572	-0.252	0.012
-742.127	-124.608	-0.240	-0.037
-741.112	583.454	-0.060	-0.148
-740.098	4.454	-0.107	0.079
-739.083	-42.842	-0.096	-0.049
-738.069	-200.000	0.028	0.244
-737.054	-15.734	0.094	-0.060
-736.039	-105.983	0.113	0.025
-735.025	370.152	-0.062	0.125
-734.010	578.166	0.019	-0.047
-732.996	303.897	-0.142	-0.264
-731.981	2.870	-0.291	-0.212
-730.966	553.587	0.034	0.081
-729.952	0.837	-0.214	0.154
-728.937	6.112	0.124	0.092
-727.923	800.000	-0.139	-0.495
-726.908	136.384	0.189	0.247
-725.894	86.040	-0.205	-0.227
-724.879	-200.000	0.050	0.237
-723.864	316.569	-0.053	-0.100
-722.850	-43.484	0.229	-0.116
-721.835	-200.000	0.002	-0.258
-720.821	-135.173	-0.369	0.045
-719.806	-41.997	0.066	-0.034
-718.791	-200.000	0.056	0.339
-717.777	276.799	-0.054	0.097
-716.762	800.000	0.043	-0.130
-715.748	-182.741	-0.230	-0.004
-714.733	-124.351	-0.102	0.016
-713.718	27.637	0.243	-0.205
-712.704	4.787	0.212	-0.156
-711.689	800.000	0.059	-0.227
-710.675	-45.578	-0.216	-0.107
-709.660	-94.522	0.139	-0.038
-708.645	-43.840	-0.125	-0.063
-707.631	111.740	-0.069	0.083
-706.616	257.786	-0.174	-0.301
-705.602	24.573	-0.106	0.088
-704.587	51.676	0.159	-0.152
-703.572	-80.224	0.140	0.047
-702.558	-200.000	0.010	0.147
-701.543	643.481	0.104	0.265
-700.529	-200.000	0.021	-0.245
-699.514	151.339	-0.113	0.154
-698.499	-124.252	0.215	-0.034
-697.485	-200.000	-0.018	-0.311
-696.470	42.079	0.111	0.101
-695.456	-7.331	-0.317	-0.215
-694.441	-200.000	0.002	-0.025
-693.426	800.000	-0.045	0.158
-692.412	-117.825	0.199	-0.036
-691.397	91.179	-0.118	-0.132
-690.383	23.030	-0.140	0.115
-689.368	147.717	-0.142	0.192
-688.354	89.998	-0.239	-0.268
-687.339	800.000	0.116	-0.500
-686.324	-24.280	0.279	-0.167
-685.310	800.000	0.048	0.141
-684.295	-200.000	0.042	-0.242
-683.281	512.196	-0.140	-0.326
-682.266	339.131	-0.156	-0.304
-681.251	800.000	0.045	-0.134
-680.237	-96.337	0.205	0.054
-679.222	33.105	-0.022	-0.019
-678.208	800.000	-0.099	0.281
-677.193	-111.859	-0.290	-0.059
-676.178	-77.199	0.172	0.060
-675.164	800.000	-0.121	-0.500
-674.149	71.047	-0.228	0.237
-673.135	196.290	-0.181	-0.276
-672.120	800.000	-0.031	0.101
-671.105	-87.456	-0.073	0.022
-670.091	-45.176	-0.356	-0.177
-669.076	20.080	-0.221	-0.178
-668.062	284.110	-0.147	0.264
-667.047	800.000	-0.017	0.059
-666.032	-140.881	-0.165	-0.017
-665.018	-5.069	0.161	0.111
-664.003	43.622	-0.235	0.216
-662.989	19.340	-0.138	-0.111
-661.974	-200.000	0.018	0.205
-660.959	-1.904	0.217	0.153
-659.945	-124.652	0.296	0.046
-658.930	-33.426	0.091	-0.050
-657.916	-93.248	-0.336	0.093
-656.901	-107.108	-0.395	0.087
-655.886	384.514	-0.071	-0.146
-654.872	472.622	-0.126	0.285
-653.857	45.575	-0.156	0.144
-652.843	800.000	-0.038	0.124
-651.828	70.515	-0.135	0.139
-650.814	-46.807	0.195	0.096
-649.799	-200.000	0.068	0.576
-648.784	-200.000	0.039	-0.278
-647.770	40.490	0.311	0.280
-646.755	-200.000	-0.024	0.122
-645.741	-98.391	0.137	0.035
-644.726	-124.553	0.302	0.047
-643.711	-87.378	0.390	-0.118
-642.697	-200.000	0.022	0.383
-641.682	432.692	-0.068	-0.147
-640.668	-66.787	0.098	0.039
-639.653	104.177	-0.254	0.299
-638.638	-61.713	0.278	-0.117
-637.624	456.398	0.219	0.486
-636.609	-83.069	0.310	0.100
-635.595	-29.951	-0.273	-0.155
-634.580	460.932	-0.054	-0.121
-633.565	800.000	-0.039	0.134
-632.551	59.805	0.211	0.208
-631.536	-200.000	-0.036	-0.205
-630.522	-87.682	-0.374	-0.113
-629.507	244.623	0.151	0.254
-628.492	800.000	-0.093	-0.307
-627.478	-39.515	-0.013	-0.007
-626.463	-2.291	-0.097	0.068
-625.449	-102.403	0.049	0.012
-624.434	-200.000	-0.083	0.379
-623.419	-125.008	-0.368	-0.057
-622.405	-200.000	0.075	0.332
-621.390	158.292	0.026	0.037
-620.376	161.880	0.126	0.176
-619.361	96.686	0.140	0.160
-618.346	155.794	-0.204	-0.281
-617.332	157.941	-0.081	0.112
-616.317	-40.743	0.323	-0.167
-615.303	181.676	-0.162	-0.238
-614.288	-83.053	0.153	0.049
-613.273	-200.000	0.011	0.340
-612.259	-132.671	0.009	-0.001
-611.244	0.426	-0.027	-0.019
-610.230	113.116	0.138	-0.167
-609.215	-200.000	-0.072	0.374
-608.201	256.109	0.086	-0.147
-607.186	-117.306	-0.313	0.057
-606.171	-148.514	0.133	-0.011
-605.157	0.670	0.390	-0.279
-604.142	-200.000	-0.035	-0.158
-603.128	0.427	0.235	-0.168
-602.113	83.159	0.292	0.318
-601.098	-58.099	-0.082	0.036
-600.084	-200.000	-0.017	0.174
-599.069	-133.482	-0.163	-0.020
-598.055	-200.000	0.018	0.295
-597.040	800.000	-0.140	0.577
-596.025	-200.000	-0.017	0.196
-595.011	216.305	0.086	-0.137
-593.996	84.441	-0.051	0.056
-592.982	-108.118	-0.344	-0.074
-591.967	-166.891	0.173	0.007
-590.952	-58.446	0.152	-0.066
-589.938	-200.000	-0.015	0.113
-588.923	-111.848	-0.439	0.089
-587.909	14.330	0.284	-0.221
-586.894	26.873	-0.244	0.204
-585.879	-76.748	-0.093	-0.032
-584.865	800.000	-0.101	0.309
-583.850	-63.431	0.296	0.121
-582.836	-99.721	0.286	0.072
-581.821	-71.629	0.225	-0.084
-580.806	20.672	-0.170	0.137
-579.792	207.439	-0.046	0.072
-578.777	220.076	0.251	-0.402
-577.763	238.835	-0.220	-0.366
-576.748	388.087	0.082	-0.170
-575.733	217.830	0.137	-0.218
-574.719	72.390	0.046	-0.047
-573.704	-93.487	-0.172	0.047
-572.690	14.572	-0.094	-0.073
-571.675	-200.000	0.084	-0.546
-570.661	-200.000	-0.001	0.108
-569.646	-61.460	0.212	0.089
-568.631	181.308	-0.058	-0.085
-567.617	800.000	0.089	-0.268
-566.602	-39.478	-0.208	0.109
-565.588	173.510	0.127	0.182
-564.573	800.000	0.074	-0.247
-563.558	62.358	-0.242	-0.241
-562.544	-200.000	0.041	-0.200
-561.529	800.000	0.094	-0.285
-560.515	-200.000	-0.008	0.038
-559.500	-111.368	-0.095	-0.019
-558.485	800.000	0.071	-0.215
-557.471	35.236	-0.124	0.108
-556.456	2.359	0.085	0.062
-555.442	296.411	0.120	0.219
-554.427	118.692	0.127	0.156
-553.412	1.470	-0.229	0.164
-552.398	800.000	-0.030	-0.101
-551.383	-130.587	0.314	0.042
-550.369	504.064	-0.016	-0.038
-549.354	114.115	-0.239	0.290
-548.339	800.000	-0.060	-0.193
-547.325	68.535	-0.092	0.094
-546.310	-200.000	-0.042	-0.252
-545.296	588.615	-0.147	0.361
-544.281	62.827	-0.117	0.117
-543.266	352.726	0.057	0.112
-542.252	-200.000	-0.102	-0.450
-541.237	-77.955	0.185	0.064
-540.223	13.804	0.199	0.154
-539.208	64.840	-0.133	-0.134
-538.193	800.000	0.020	-0.073
-537.179	800.000	-0.056	-0.154
-536.164	145.972	0.237	0.317
-535.150	800.000	0.038	-0.104
-534.135	-66.465	-0.300	-0.119
-533.121	-14.415	0.151	0.097
-532.106	23.540	0.289	0.237
-531.091	-22.570	-0.191	-0.115
-530.077	-110.114	-0.483	-0.101
-529.062	186.905	0.160	0.238
-528.048	-83.663	0.182	-0.058
-527.033	800.000	-0.121	-0.338
-526.018	178.310	-0.155	-0.226
-525.004	-111.756	-0.197	-0.040
-523.989	-39.222	-0.141	0.074
-522.975	183.249	0.203	-0.299
-521.960	-200.000	-0.011	0.258
-520.945	85.560	0.136	0.148
-519.931	211.515	0.203	-0.319
-518.916	289.974	-0.071	-0.128
-517.902	-200.000	0.005	-0.235
-516.887	-200.000	0.016	-0.142
-515.872	-1.463	0.230	-0.161
-514.858	-104.625	-0.365	-0.084
-513.843	59.130	-0.282	-0.276
-512.829	48.395	0.093	-0.087
-511.814	-180.887	-0.168	-0.003
-510.799	58.337	-0.113	0.110
-509.785	-156.809	-0.320	0.020
-508.770	725.739	0.098	0.261
-507.756	44.640	-0.241	0.221
-506.741	732.609	0.025	0.067
-505.726	-60.429	-0.142	-0.060
-504.712	25.603	-0.276	-0.229
-503.697	25.558	0.179	-0.148
-502.683	-3.578	-0.154	0.106
-501.668	-92.348	0.098	-0.027
-500.653	-200.000	0.026	-0.174
-499.639	-90.205	0.254	-0.074
-498.624	800.000	-0.179	0.577
-497.610	-71.761	0.305	0.113
-496.595	-149.888	-0.031	-0.002
-495.581	-59.632	0.339	0.144
-494.566	1.698	-0.184	0.132
-493.551	-200.000	0.004	-0.128
-492.537	-200.000	0.023	0.136
-491.522	-43.706	0.112	0.056
-490.508	20.761	-0.108	-0.087
-489.493	-58.752	0.106	-0.045
-488.478	-167.371	-0.160	-0.006
-487.464	-200.000	0.052	0.334
-486.449	420.570	-0.109	0.231
-485.435	-151.139	0.467	-0.035
-484.420	-100.078	-0.135	-0.034
-483.405	225.974	0.039	-0.063
-482.391	100.413	-0.096	-0.111
-481.376	-200.000	-0.029	0.187
-480.362	-200.000	0.015	0.153
-479.347	-64.010	0.175	-0.071
-478.332	-53.458	-0.191	-0.087
-477.318	-200.000	-0.002	0.056
-476.303	-177.177	0.463	-0.011
-475.289	-60.249	0.041	-0.017
-474.274	-113.897	0.176	-0.034
-473.259	-200.000	-0.009	0.443
-472.245	124.754	-0.179	0.224
-471.230	127.222	0.113	0.142
-470.216	46.990	0.315	0.291
-469.201	11.550	-0.255	0.194
-468.186	-93.149	0.351	0.097
-467.172	800.000	0.019	-0.073
-466.157	-200.000	0.041	-0.330
-465.143	160.002	0.105	-0.145
-464.128	7.298	-0.218	-0.162
-463.113	375.662	0.153	-0.309
-462.099	-14.533	0.074	0.047
-461.084	-4.263	0.039	0.027
-460.070	317.238	-0.023	-0.043
-459.055	-70.464	-0.299	-0.113
-458.040	-130.421	0.131	-0.018
-457.026	-15.154	-0.121	0.077
-456.011	68.985	0.147	-0.150
-454.997	800.000	0.023	0.080
-453.982	-95.865	0.348	-0.092
-452.968	64.631	-0.075	0.075
-451.953	0.973	0.112	-0.080
-450.938	-171.062	0.230	0.008
-449.924	-200.000	-0.009	-0.103
-448.909	69.667	0.162	-0.166
-447.895	-200.000	-0.052	0.325
-446.880	-149.835	0.120	-0.009
-445.865	-62.695	-0.497	-0.205
-444.851	527.847	0.169	-0.395
-443.836	237.973	0.140	-0.231
-442.822	206.525	-0.034	-0.053
-441.807	-52.947	-0.182	-0.083
-440.792	-130.198	-0.397	0.054
-439.778	-100.883	0.113	-0.027
-438.763	-147.743	0.241	0.020
-437.749	-138.344	-0.133	-0.015
-436.734	526.659	0.098	0.230
-435.719	-180.582	-0.412	0.008
-434.705	5.093	0.099	-0.072
-433.690	-95.255	0.232	-0.062
-432.676	353.000	-0.149	0.293
-431.661	-26.489	0.200	-0.117
-430.646	-44.707	-0.187	-0.093
-429.632	-0.173	-0.060	0.042
-428.617	-78.209	0.330	-0.112
-427.603	203.129	-0.237	0.364
-426.588	-56.727	-0.178	-0.078
-425.573	503.310	-0.075	-0.172
-424.559	271.704	0.095	-0.166
-423.544	-43.711	0.306	-0.153
-422.530	-19.056	0.288	-0.177
-421.515	-8.334	0.223	-0.149
-420.500	-200.000	-0.007	0.302
-419.486	219.105	-0.168	0.266
-418.471	-21.589	0.255	0.154
-417.457	-119.906	0.220	-0.038
-416.442	-112.431	-0.271	-0.054
-415.428	-109.864	-0.236	0.049
-414.413	-87.269	0.076	0.023
-413.398	703.541	0.048	-0.125
-412.384	36.993	-0.089	-0.078
-411.369	-200.000	-0.005	-0.151
-410.355	507.644	-0.073	0.167
-409.340	68.102	0.139	0.141
-408.325	-200.000	-0.024	0.170
-407.311	181.844	-0.178	0.260
-406.296	-200.000	-0.021	-0.222
-405.282	-160.721	0.370	-0.019
-404.267	-178.427	-0.224	-0.005
-403.252	59.646	-0.075	0.073
-402.238	-108.633	-0.109	-0.023
-401.223	-58.988	-0.262	-0.112
-400.209	-200.000	-0.004	-0.268
-399.194	-104.985	0.243	-0.055
-398.179	5.853	-0.088	0.065
-397.165	114.841	0.194	0.235
-396.150	284.708	0.076	-0.136
-395.136	-68.046	0.154	-0.059
-394.121	-41.981	-0.258	0.131
-393.106	800.000	-0.049	0.207
-392.092	366.443	-0.145	0.290
-391.077	-89.110	-0.103	0.030
-390.063	126.748	0.123	-0.154
-389.048	79.575	-0.054	0.057
-388.033	-200.000	0.006	-0.274
-387.019	162.217	0.081	0.112
-386.004	122.868	-0.185	0.229
-384.990	-200.000	-0.002	-0.093
-383.975	3.704	0.092	-0.066
-382.960	29.468	-0.068	0.057
-381.946	800.000	-0.092	-0.316
-380.931	800.000	-0.050	-0.146
-379.917	-200.000	-0.030	0.136
-378.902	350.477	-0.123	-0.241
-377.888	-200.000	0.033	-0.204
-376.873	-200.000	-0.028	-0.160
-375.858	-114.517	0.174	0.033
-374.844	-166.169	0.199	-0.008
-373.829	-91.830	-0.123	-0.035
-372.815	-200.000	0.003	0.156
-371.800	-95.315	-0.262	0.070
-370.785	-130.879	0.153	0.020
-369.771	-200.000	0.025	-0.152
-368.756	-67.466	-0.135	0.052
-367.742	-200.000	-0.004	0.034
-366.727	800.000	-0.013	0.036
-365.712	458.546	-0.030	-0.066
-364.698	66.939	0.191	-0.192
-363.683	-68.665	0.435	0.167
-362.669	105.055	0.239	-0.279
-361.654	465.060	0.065	-0.144
-360.639	-149.442	-0.138	-0.011
-359.625	-74.437	-0.159	-0.057
-358.610	-34.755	-0.148	0.080
-357.596	479.269	0.078	-0.176
-356.581	-200.000	0.030	-0.179
-355.566	301.150	-0.089	-0.163
-354.552	-200.000	-0.038	-0.263
-353.537	-200.000	0.003	0.230
-352.523	-150.051	-0.135	-0.010
-351.508	110.879	-0.199	0.237
-350.493	-50.943	-0.202	0.094
-349.479	-200.000	0.005	0.180
-348.464	800.000	-0.115	-0.411
-347.450	114.883	-0.309	-0.372
-346.435	36.706	-0.168	-0.146
-345.420	-196.623	-0.242	-0.002
-344.406	-37.835	0.133	-0.070
-343.391	-174.525	-0.137	0.004
-342.377	-153.154	0.203	0.014
-341.362	432.821	0.126	-0.271
-340.348	-31.900	-0.265	0.147
-339.333	-71.060	0.226	0.084
-338.318	314.602	0.095	0.176
-337.304	15.685	0.145	0.112
-336.289	800.000	0.070	-0.277
-335.275	-135.604	0.255	0.030
-334.260	65.501	-0.311	-0.312
-333.245	-200.000	-0.002	-0.190
-332.231	378.150	0.068	0.138
-331.216	-136.796	-0.388	-0.044
-330.202	-112.009	0.238	0.047
-329.187	-88.698	-0.151	0.045
-328.172	69.004	-0.171	0.173
-327.158	-145.600	-0.471	0.042
-326.143	800.000	-0.066	-0.214
-325.129	-200.000	0.037	0.217
-324.114	428.196	-0.016	0.035
-323.099	-200.000	0.027	0.170
-322.085	340.864	-0.245	-0.474
-321.070	-73.273	0.242	-0.087
-320.056	-57.169	-0.219	-0.095
-319.041	-10.470	-0.385	-0.252
-318.026	327.510	-0.044	0.083
-317.012	-200.000	-0.004	-0.197
-315.997	384.697	-0.134	-0.272
-314.983	309.349	0.117	0.215
-313.968	-89.062	-0.212	-0.062
-312.953	60.134	0.084	0.082
-311.939	162.014	0.082	-0.114
-310.924	37.678	-0.447	-0.392
-309.910	390.485	0.067	0.137
-308.895	759.172	-0.127	0.340
-307.880	58.322	0.197	0.191
-306.866	-102.695	-0.072	-0.017
-305.851	605.437	0.064	0.158
-304.837	-74.818	-0.321	0.114
-303.822	-200.000	-0.048	-0.255
-302.807	800.000	0.043	0.184
-301.793	-200.000	-0.032	0.292
-300.778	-50.288	0.290	0.135
-299.764	61.067	0.161	-0.158
-298.749	-143.929	-0.188	-0.017
-297.735	-200.000	-0.010	-0.055
-296.720	-49.275	0.135	0.064
-295.705	426.622	0.112	-0.237
-294.691	34.846	0.132	0.114
-293.676	-82.541	-0.219	0.070
-292.662	-63.553	0.215	0.087
-291.647	143.450	-0.313	0.411
-290.632	-200.000	-0.017	-0.149
-289.618	-22.636	0.201	-0.120
-288.603	77.277	0.165	0.173
-287.589	-63.926	0.052	-0.021
-286.574	-200.000	0.007	-0.146
-285.559	-11.416	-0.042	0.027
-284.545	-60.173	0.279	-0.117
-283.530	76.202	-0.180	0.188
-282.516	-157.374	0.072	-0.004
-281.501	-200.000	-0.043	0.277
-280.486	-19.551	0.136	-0.083
-279.472	-200.000	0.009	-0.195
-278.457	139.697	-0.055	0.072
-277.443	-164.540	-0.244	0.011
-276.428	651.871	0.103	-0.261
-275.413	-55.097	-0.176	0.078
-274.399	-130.911	-0.027	-0.004
-273.384	493.901	0.109	-0.247
-272.370	-17.680	-0.059	-0.037
-271.355	-200.000	0.031	-0.233
-270.340	-200.000	-0.014	0.080
-269.326	-152.293	-0.230	-0.016
-268.311	-200.000	0.011	-0.069
-267.297	-120.321	-0.166	-0.028
-266.282	323.073	-0.037	0.069
-265.267	164.662	-0.045	-0.063
-264.253	-84.553	-0.044	-0.014
-263.238	22.922	-0.188	0.152
-262.224	-200.000	0.007	-0.172
-261.209	341.433	0.024	0.047
-260.195	-121.292	-0.131	0.022
-259.180	-200.000	0.009	-0.057
-258.165	526.588	-0.055	-0.128
-257.151	101.265	-0.263	0.302
-256.136	-21.826	0.100	0.060
-255.122	-200.000	0.087	-0.545
-254.107	-26.348	-0.234	0.135
-253.092	-62.671	0.100	0.041
-252.078	128.891	0.125	0.157
-251.063	-167.769	0.161	-0.006
-250.049	-200.000	0.048	0.288
-249.034	800.000	0.078	-0.337
-248.019	-72.479	-0.331	-0.121
-247.005	-32.907	-0.393	0.215
-245.990	-200.000	-0.029	0.310
-244.976	12.568	0.192	-0.146
-243.961	-94.669	-0.247	-0.066
-242.946	-100.088	-0.206	0.051
-241.932	-200.000	-0.032	-0.167
-240.917	560.623	0.048	0.113
-239.903	41.483	-0.024	-0.021
-238.888	478.944	-0.094	0.210
-237.873	800.000	0.064	-0.176
-236.859	-200.000	-0.031	0.341
-235.844	23.762	-0.160	0.129
-234.830	90.808	-0.098	-0.108
-233.815	-63.366	-0.139	-0.056
-232.800	134.959	0.098	0.126
-231.786	800.000	-0.038	0.157
-230.771	-200.000	-0.001	-0.159
-229.757	151.898	0.164	-0.220
-228.742	31.129	-0.158	-0.133
-227.727	184.680	0.058	-0.085
-226.713	507.698	0.161	0.368
-225.698	49.186	-0.017	-0.016
-224.684	-200.000	0.000	0.114
-223.669	539.719	0.061	-0.142
-222.655	-124.588	-0.319	0.049
-221.640	-55.275	0.428	-0.189
-220.625	-200.000	-0.019	0.098
-219.611	123.048	-0.143	-0.176
-218.596	140.963	0.081	0.106
-217.582	-143.215	0.425	0.040
-216.567	-200.000	-0.085	-0.411
-215.552	134.943	0.027	-0.035
-214.538	800.000	0.118	0.359
-213.523	76.032	-0.148	0.154
-212.509	101.831	0.101	0.116
-211.494	800.000	0.028	-0.076
-210.479	-169.892	-0.340	0.012
-209.465	800.000	0.011	0.038
-208.450	800.000	-0.014	0.049
-207.436	116.285	0.141	0.170
-206.421	-102.519	-0.281	-0.066
-205.406	-73.767	0.178	-0.064
-204.392	-16.791	0.147	-0.092
-203.377	800.000	0.029	0.085
-202.363	105.337	-0.151	0.176
-201.348	-127.328	0.235	0.034
-200.333	610.806	0.066	-0.161
-199.319	21.571	0.232	-0.185
-198.304	6.213	-0.100	0.073
-197.290	800.000	0.090	-0.307
-196.275	-43.743	0.288	0.143
-195.260	-200.000	-0.026	0.419
-194.246	293.158	0.106	0.189
-193.231	-111.922	-0.100	-0.020
-192.217	72.943	0.159	0.164
-191.202	-103.636	-0.253	-0.058
-190.187	-200.000	-0.004	0.424
-189.173	173.168	-0.069	0.097
-188.158	-80.927	-0.320	0.104
-187.144	-121.734	0.080	0.013
-186.129	-104.565	0.261	0.059
-185.114	800.000	-0.084	0.332
-184.100	304.923	0.125	0.229
-183.085	604.178	-0.001	-0.002
-182.071	2.598	0.159	0.113
-181.056	-121.128	-0.197	-0.032
-180.042	800.000	0.022	-0.072
-179.027	58.556	-0.044	-0.043
-178.012	800.000	-0.020	-0.082
-176.998	498.085	-0.087	-0.196
-175.983	146.785	0.055	-0.072
-174.969	246.128	-0.099	0.164
-173.954	-200.000	0.008	-0.059
-172.939	325.611	-0.222	-0.417
-171.925	-161.385	-0.385	0.020
-170.910	-2.406	-0.081	-0.056
-169.896	-46.680	-0.092	0.044
-168.881	-200.000	-0.006	0.190
-167.866	-92.762	0.147	-0.041
-166.852	72.427	0.142	0.146
-165.837	156.909	0.169	0.230
-164.823	-25.090	0.143	-0.083
-163.808	24.814	-0.099	-0.081
-162.793	589.164	0.107	0.260
-161.779	717.140	0.163	-0.426
-160.764	-200.000	0.029	-0.324
-159.750	69.944	0.270	-0.273
-158.735	-110.031	0.214	-0.044
-157.720	-75.994	0.309	0.107
-156.706	33.872	-0.143	0.122
-155.691	-60.464	0.123	0.051
-154.677	-130.392	0.388	-0.052
-153.662	-16.029	-0.071	-0.044
-152.647	75.619	0.135	-0.140
-151.633	-200.000	0.009	0.071
-150.618	48.632	-0.105	-0.097
-149.604	-72.649	-0.357	-0.129
-148.589	-81.569	0.261	-0.084
-147.574	206.645	-0.047	-0.073
-146.560	-79.785	-0.065	-0.022
-145.545	-78.747	-0.144	0.048
-144.531	-43.090	0.219	-0.109
-143.516	-172.787	-0.224	-0.007
-142.502	-200.000	-0.093	0.433
-141.487	-52.808	-0.069	0.031
-140.472	340.710	0.073	0.140
-139.458	800.000	0.030	-0.098
-138.443	-200.000	-0.033	-0.183
-137.429	-16.042	-0.169	0.106
-136.414	-85.115	-0.203	-0.062
-135.399	-83.990	-0.160	-0.050
-134.385	-17.173	0.165	-0.102
-133.370	262.889	-0.104	0.178
-132.356	-119.344	0.290	-0.050
-131.341	-151.731	-0.300	-0.022
-130.326	800.000	-0.039	-0.156
-129.312	800.000	0.123	-0.469
-128.297	-90.329	0.187	-0.053
-127.283	800.000	-0.053	-0.185
-126.268	181.096	-0.036	-0.052
-125.253	200.935	-0.103	0.156
-124.239	5.708	0.219	0.159
-123.224	-138.065	0.408	0.044
-122.210	800.000	0.061	0.247
