DTS Sentinel unit serial number:	SN413079Multiplexer serial number:	ORYXHardware model number:	OX4-SRSoftware version number:	ORYX F/W v4.00 Oryx Data Collector v3.7.2.0data status	okinstallation	princeton_trtdifferential loss correction	single-endedforward channel	channel 2reverse channel	N/Adate	2019/09/12time	04:29:10forward acquisition time	60.00reverse acquisition time	0.00gamma	496.2192k internal	0.2327k external	0.2327temperature offset calibration	1.0101default loss term (dB/km)	0.3790temperature slope calibration	1.0000multiplexer offset coefficient	1.0000multiplexer slope coefficient	1.0000fibre end	0.00T internal ref (°C)	31.62T ext. ref 1 (°C)	2.27T ext. ref 2 (°C)	26.30length (m)	temperature (°C)	Stokes	anti-Stokes-747.200	120.807	0.201	-0.253
-746.185	-200.000	-0.034	-0.233
-745.171	-17.932	-0.158	-0.100
-744.156	136.519	0.087	0.115
-743.142	-68.888	0.135	0.053
-742.127	800.000	-0.071	0.308
-741.112	82.911	0.183	-0.200
-740.098	589.025	0.045	0.111
-739.083	-200.000	0.014	0.210
-738.069	800.000	0.077	0.293
-737.054	-68.354	-0.414	0.162
-736.039	-31.645	-0.262	-0.148
-735.025	-200.000	-0.005	0.180
-734.010	-66.432	0.063	0.025
-732.996	624.437	-0.052	-0.132
-731.981	3.216	0.278	-0.204
-730.966	125.175	-0.091	0.116
-729.952	-96.166	0.062	0.017
-728.937	90.243	-0.100	0.113
-727.923	23.681	-0.105	-0.087
-726.908	800.000	-0.078	-0.239
-725.894	-200.000	0.012	0.083
-724.879	-200.000	-0.304	-0.001
-723.864	146.328	0.018	-0.025
-722.850	271.252	-0.143	-0.253
-721.835	209.180	0.041	0.065
-720.821	-78.696	-0.430	0.148
-719.806	-200.000	0.004	0.110
-718.791	-200.000	0.061	0.301
-717.777	44.258	0.151	-0.139
-716.762	-200.000	0.039	0.183
-715.748	-200.000	-0.012	0.321
-714.733	-104.640	0.250	-0.058
-713.718	-200.000	0.029	-0.145
-712.704	-13.113	-0.124	-0.081
-711.689	51.567	-0.136	-0.130
-710.675	309.688	-0.074	-0.140
-709.660	90.911	0.302	0.340
-708.645	-101.040	0.218	-0.054
-707.631	-173.678	-0.364	0.011
-706.616	-162.170	-0.262	0.013
-705.602	-2.721	-0.301	-0.212
-704.587	457.742	-0.121	0.271
-703.572	-19.308	0.188	-0.118
-702.558	-155.643	-0.360	0.023
-701.543	800.000	-0.085	-0.248
-700.529	-169.078	0.087	-0.003
-699.514	270.074	0.074	0.131
-698.499	14.518	-0.240	-0.188
-697.485	-200.000	0.012	-0.325
-696.470	53.464	-0.120	-0.116
-695.456	-200.000	-0.021	-0.216
-694.441	357.227	0.114	-0.228
-693.426	-96.536	-0.254	-0.067
-692.412	-28.761	0.065	-0.038
-691.397	258.742	0.092	0.159
-690.383	-169.688	-0.147	0.005
-689.368	237.942	-0.102	-0.171
-688.354	-73.906	-0.215	-0.078
-687.339	209.070	0.078	0.123
-686.324	147.269	-0.111	0.150
-685.310	548.799	-0.069	-0.167
-684.295	-97.705	-0.399	-0.104
-683.281	800.000	0.036	-0.126
-682.266	-169.393	0.209	-0.008
-681.251	57.556	-0.109	0.107
-680.237	123.743	0.246	-0.310
-679.222	22.412	-0.181	-0.149
-678.208	-119.147	-0.387	-0.068
-677.193	-200.000	0.017	0.283
-676.178	-100.978	0.192	-0.047
-675.164	6.402	0.132	0.098
-674.149	403.651	-0.021	-0.044
-673.135	30.380	0.166	-0.143
-672.120	11.649	0.057	0.044
-671.105	443.014	0.041	0.091
-670.091	-125.782	-0.522	-0.079
-669.076	-173.282	0.330	-0.010
-668.062	144.285	0.104	0.140
-667.047	42.099	0.280	-0.255
-666.032	74.613	0.160	-0.169
-665.018	800.000	0.113	-0.377
-664.003	84.456	0.153	0.168
-662.989	-63.717	-0.247	-0.102
-661.974	428.287	0.126	-0.274
-660.959	-178.255	-0.164	-0.004
-659.945	1.215	-0.082	0.059
-658.930	20.541	-0.272	-0.221
-657.916	800.000	-0.107	0.300
-656.901	333.567	-0.061	0.118
-655.886	-133.700	0.147	-0.018
-654.872	373.721	-0.166	-0.339
-653.857	19.019	0.384	-0.309
-652.843	63.514	0.029	0.029
-651.828	800.000	0.092	-0.312
-650.814	-27.236	-0.082	-0.048
-649.799	56.859	-0.316	0.309
-648.784	-61.499	0.201	0.085
-647.770	308.550	-0.064	0.119
-646.755	-99.577	-0.211	-0.053
-645.741	800.000	-0.050	0.210
-644.726	300.315	0.248	0.459
-643.711	-162.024	-0.067	-0.003
-642.697	-9.806	-0.176	-0.118
-641.682	-200.000	-0.022	-0.274
-640.668	-2.659	0.334	-0.235
-639.653	-120.070	-0.252	-0.043
-638.638	-154.619	-0.324	-0.022
-637.624	2.441	-0.171	0.124
-636.609	-33.157	0.170	-0.094
-635.595	350.399	0.134	0.266
-634.580	-20.796	0.246	-0.151
-633.565	346.358	-0.216	-0.425
-632.551	677.540	0.081	-0.212
-631.536	-62.993	0.089	0.037
-630.522	7.697	0.013	0.010
-629.507	732.364	-0.028	0.076
-628.492	-51.749	-0.467	0.218
-627.478	69.314	-0.149	-0.154
-626.463	-200.000	0.068	-0.354
-625.449	-200.000	0.005	-0.186
-624.434	-120.285	0.420	-0.072
-623.419	-5.373	-0.046	-0.032
-622.405	307.142	0.102	0.190
-621.390	583.594	-0.130	0.320
-620.376	-68.774	-0.239	0.093
-619.361	-200.000	-0.052	-0.262
-618.346	-200.000	0.003	-0.278
-617.332	800.000	-0.059	-0.212
-616.317	-93.049	0.159	-0.044
-615.303	800.000	-0.068	0.251
-614.288	309.819	0.100	-0.187
-613.273	-109.739	-0.428	-0.090
-612.259	-196.276	-0.083	0.001
-611.244	-200.000	0.011	-0.084
-610.230	84.790	-0.110	0.121
-609.215	-200.000	-0.103	0.634
-608.201	459.147	0.093	0.207
-607.186	-82.853	0.070	0.023
-606.171	-30.535	0.307	0.175
-605.157	-157.882	0.132	-0.008
-604.142	185.467	-0.090	-0.133
-603.128	107.458	-0.131	0.157
-602.113	-112.465	-0.133	-0.027
-601.098	800.000	-0.040	0.151
-600.084	-77.960	-0.136	-0.047
-599.069	21.093	0.092	0.075
-598.055	23.711	-0.084	0.069
-597.040	-200.000	0.080	-0.384
-596.025	125.554	-0.185	-0.234
-595.011	-32.992	0.094	-0.052
-593.996	-75.116	-0.255	0.091
-592.982	61.784	0.109	0.108
-591.967	800.000	0.018	-0.072
-590.952	-168.340	0.288	-0.011
-589.938	340.927	0.143	0.280
-588.923	-13.184	-0.247	-0.160
-587.909	-200.000	-0.061	-0.441
-586.894	-200.000	0.062	-0.390
-585.879	800.000	-0.107	0.295
-584.865	21.051	0.147	-0.119
-583.850	90.080	0.233	-0.261
-582.836	-5.897	-0.334	-0.229
-581.821	88.521	0.124	-0.139
-580.806	61.067	-0.141	-0.140
-579.792	-200.000	0.039	-0.218
-578.777	697.438	-0.086	0.227
-577.763	-108.974	0.051	-0.011
-576.748	-74.401	0.093	0.034
-575.733	-50.724	0.128	0.060
-574.719	35.467	-0.042	0.037
-573.704	-58.638	-0.066	0.029
-572.690	-85.738	-0.215	-0.067
-571.675	-187.413	0.109	0.001
-570.661	-200.000	0.005	0.149
-569.646	-200.000	0.012	-0.206
-568.631	800.000	0.085	-0.289
-567.617	-39.020	-0.467	-0.246
-566.602	-200.000	-0.021	-0.299
-565.588	74.340	-0.171	-0.180
-564.573	2.036	-0.212	0.153
-563.558	-52.034	-0.140	-0.065
-562.544	579.284	-0.098	-0.241
-561.529	-138.953	-0.354	-0.038
-560.515	-200.000	-0.059	-0.528
-559.500	444.765	-0.084	-0.185
-558.485	542.176	0.078	0.187
-557.471	-151.565	0.454	0.034
-556.456	308.959	-0.362	-0.676
-555.442	28.334	0.142	0.120
-554.427	-71.342	0.147	0.055
-553.412	-69.890	-0.124	0.047
-552.398	-135.781	0.142	-0.017
-551.383	-75.118	-0.204	-0.073
-550.369	413.102	-0.122	-0.259
-549.354	-147.891	0.153	0.013
-548.339	546.725	-0.064	0.152
-547.325	800.000	-0.044	0.147
-546.310	-100.090	0.146	0.036
-545.296	-200.000	0.002	-0.171
-544.281	-200.000	-0.018	0.104
-543.266	94.990	0.122	-0.139
-542.252	-98.689	-0.237	-0.060
-541.237	-70.544	0.271	0.103
-540.223	-31.603	-0.170	-0.096
-539.208	-50.298	-0.213	-0.101
-538.193	300.515	-0.049	-0.090
-537.179	-200.000	-0.091	-0.454
-536.164	-52.136	-0.229	0.106
-535.150	9.456	-0.030	0.023
-534.135	-145.921	-0.094	0.008
-533.121	91.107	0.118	0.132
-532.106	800.000	0.065	0.193
-531.091	-63.989	-0.177	-0.072
-530.077	-200.000	0.023	-0.437
-529.062	-39.172	-0.119	-0.063
-528.048	416.443	0.104	0.222
-527.033	-200.000	-0.006	0.048
-526.018	194.168	-0.076	-0.115
-525.004	-200.000	-0.016	-0.127
-523.989	139.656	-0.123	-0.161
-522.975	-200.000	0.014	-0.273
-521.960	-200.000	-0.051	0.299
-520.945	43.721	0.104	-0.096
-519.931	800.000	-0.054	-0.161
-518.916	-20.053	-0.294	0.181
-517.902	-72.763	-0.496	-0.183
-516.887	140.935	0.062	-0.082
-515.872	800.000	-0.024	-0.070
-514.858	-151.559	-0.176	0.013
-513.843	-77.861	0.473	-0.163
-512.829	-163.327	-0.282	0.013
-511.814	-41.655	-0.184	-0.094
-510.799	226.154	-0.097	-0.158
-509.785	30.506	0.040	0.034
-508.770	-122.608	0.128	0.021
-507.756	-103.729	0.091	0.021
-506.741	-200.000	0.032	-0.164
-505.726	183.026	0.170	0.250
-504.712	275.088	-0.088	0.156
-503.697	-72.181	-0.413	0.153
-502.683	-92.693	0.289	0.081
-501.668	271.300	-0.094	0.165
-500.653	-132.514	0.216	0.028
-499.639	-121.095	0.144	-0.024
-498.624	-145.775	-0.367	0.033
-497.610	130.927	0.104	-0.133
-496.595	126.107	-0.178	-0.225
-495.581	229.918	-0.065	0.106
-494.566	11.600	-0.222	0.170
-493.551	-24.101	-0.317	0.189
-492.537	-200.000	0.013	-0.097
-491.522	18.776	0.096	0.076
-490.508	800.000	-0.076	-0.286
-489.493	-14.293	0.176	-0.113
-488.478	56.727	0.091	0.088
-487.464	-154.705	-0.085	0.006
-486.449	800.000	-0.059	0.184
-485.435	222.292	-0.048	-0.077
-484.420	-53.513	-0.448	-0.204
-483.405	-30.087	-0.435	-0.247
-482.391	279.745	-0.069	-0.123
-481.376	-200.000	0.083	-0.372
-480.362	41.622	-0.141	0.128
-479.347	-83.396	-0.107	0.034
-478.332	-133.746	0.096	0.012
-477.318	-148.004	0.261	-0.022
-476.303	-146.669	-0.175	0.015
-475.289	-141.162	0.517	-0.053
-474.274	-43.465	-0.209	-0.105
-473.259	42.224	-0.245	-0.222
-472.245	202.102	0.143	0.220
-471.230	94.268	-0.091	0.102
-470.216	-200.000	-0.001	0.191
-469.201	-101.278	0.091	-0.022
-468.186	-200.000	0.014	-0.341
-467.172	-194.508	-0.148	-0.001
-466.157	-131.816	0.381	0.050
-465.143	0.357	0.021	-0.015
-464.128	-66.357	-0.292	0.116
-463.113	-200.000	-0.005	-0.066
-462.099	-38.891	-0.243	-0.128
-461.084	-23.235	-0.382	-0.229
-460.070	-134.505	-0.276	0.034
-459.055	-152.424	-0.337	-0.024
-458.040	-92.417	0.159	0.044
-457.026	85.778	0.135	0.148
-456.011	303.067	0.128	0.236
-454.997	800.000	-0.067	0.203
-453.982	-200.000	-0.023	-0.161
-452.968	-116.961	-0.157	-0.029
-451.953	-153.274	0.162	-0.011
-450.938	92.449	-0.169	0.190
-449.924	-188.304	0.210	0.003
-448.909	-102.058	0.118	0.028
-447.895	81.991	-0.217	0.234
-446.880	73.292	0.089	-0.093
-445.865	-200.000	-0.014	0.144
-444.851	-48.166	-0.053	-0.025
-443.836	-200.000	0.016	0.197
-442.822	109.554	0.167	0.200
-441.807	-1.799	0.089	0.062
-440.792	-68.266	-0.263	0.102
-439.778	-22.460	0.270	-0.163
-438.763	-83.545	0.196	0.063
-437.749	-200.000	-0.048	0.214
-436.734	-200.000	0.024	0.179
-435.719	223.758	-0.144	-0.232
-434.705	-142.526	0.223	-0.022
-433.690	76.972	-0.071	-0.075
-432.676	278.707	0.135	-0.241
-431.661	11.904	-0.295	0.226
-430.646	120.686	0.130	0.161
-429.632	90.476	-0.328	0.366
-428.617	-91.878	0.273	-0.077
-427.603	102.968	0.092	0.108
-426.588	-200.000	0.049	0.266
-425.573	-146.966	0.302	-0.026
-424.559	-51.881	0.174	0.081
-423.544	-36.772	-0.487	-0.260
-422.530	800.000	0.050	0.149
-421.515	-200.000	0.007	0.061
-420.500	428.442	-0.056	0.120
-419.486	313.629	-0.059	-0.111
-418.471	-77.356	-0.181	0.063
-417.457	34.886	0.293	0.255
-416.442	800.000	0.064	-0.181
-415.428	800.000	0.079	0.341
-414.413	-200.000	-0.048	-0.243
-413.398	800.000	0.123	-0.429
-412.384	-84.867	-0.039	-0.012
-411.369	800.000	0.052	-0.155
-410.355	800.000	-0.071	-0.259
-409.340	-134.675	-0.179	0.022
-408.325	235.775	0.096	0.158
-407.311	-200.000	-0.009	-0.167
-406.296	800.000	-0.051	-0.166
-405.282	-139.806	-0.113	-0.012
-404.267	-14.253	0.382	0.245
-403.252	800.000	-0.048	0.134
-402.238	-92.263	-0.514	-0.144
-401.223	800.000	0.084	0.274
-400.209	-133.448	-0.207	0.026
-399.194	800.000	-0.040	-0.112
-398.179	-138.777	0.297	0.032
-397.165	-4.262	0.108	0.074
-396.150	-11.162	-0.404	-0.265
-395.136	24.488	0.125	-0.102
-394.121	-169.939	0.162	-0.006
-393.106	316.980	-0.126	0.236
-392.092	-200.000	-0.034	0.404
-391.077	-88.611	-0.228	-0.067
-390.063	-157.447	-0.080	0.005
-389.048	160.244	0.087	-0.121
-388.033	-112.213	0.139	0.028
-387.019	189.689	-0.173	-0.258
-386.004	44.695	0.286	-0.261
-384.990	203.542	0.158	0.244
-383.975	241.333	0.116	0.192
-382.960	-200.000	0.049	0.241
-381.946	-200.000	-0.049	0.370
-380.931	-168.765	0.123	-0.005
-379.917	-28.038	0.183	0.105
-378.902	-106.491	0.444	0.098
-377.888	-200.000	0.029	-0.190
-376.873	55.625	0.056	-0.054
-375.858	138.488	0.134	-0.175
-374.844	193.577	-0.117	-0.175
-373.829	800.000	0.053	0.220
-372.815	-44.038	0.008	-0.004
-371.800	-149.821	0.358	-0.028
-370.785	474.564	-0.100	0.225
-369.771	-24.339	-0.333	0.197
-368.756	-200.000	-0.026	0.361
-367.742	-92.108	0.247	0.069
-366.727	-200.000	0.018	0.264
-365.712	90.430	-0.184	0.205
-364.698	114.212	-0.154	-0.186
-363.683	-70.563	0.071	0.027
-362.669	-6.333	-0.207	0.140
-361.654	-200.000	0.024	0.192
-360.639	-200.000	-0.002	0.035
-359.625	800.000	0.079	-0.324
-358.610	159.000	0.137	-0.189
-357.596	-142.075	0.129	-0.013
-356.581	457.525	0.087	-0.191
-355.566	-122.239	0.046	-0.007
-354.552	-125.907	0.062	0.009
-353.537	-47.642	-0.229	-0.110
-352.523	47.202	0.141	-0.130
-351.508	8.557	-0.025	0.019
-350.493	136.813	0.139	-0.180
-349.479	-73.666	-0.243	-0.088
-348.464	34.323	0.184	0.159
-347.450	236.893	0.069	-0.114
-346.435	-28.285	-0.173	0.099
-345.420	-134.544	0.142	0.017
-344.406	47.801	-0.137	0.127
-343.391	-200.000	-0.078	0.376
-342.377	66.716	-0.146	-0.147
-341.362	-128.992	0.417	-0.058
-340.348	23.047	-0.202	0.165
-339.333	-42.846	0.134	-0.067
-338.318	206.460	0.207	0.319
-337.304	800.000	-0.086	0.335
-336.289	8.556	0.051	0.038
-335.275	137.005	0.370	0.480
-334.260	220.849	-0.103	0.164
-333.245	-118.398	0.183	-0.032
-332.231	59.197	0.228	-0.223
-331.216	800.000	-0.020	0.067
-330.202	-200.000	0.060	0.423
-329.187	344.411	-0.185	0.360
-328.172	368.131	-0.089	0.179
-327.158	-105.301	0.102	0.023
-326.143	-97.605	0.062	0.016
-325.129	-200.000	0.016	0.285
-324.114	-200.000	-0.003	0.241
-323.099	800.000	-0.108	-0.305
-322.085	193.744	-0.026	-0.040
-321.070	98.786	0.296	-0.338
-320.056	-48.987	-0.447	0.212
-319.041	215.681	-0.175	0.276
-318.026	79.247	0.228	-0.242
-317.012	13.687	0.184	0.142
-315.997	-200.000	-0.032	0.362
-314.983	-200.000	0.084	0.382
-313.968	-21.953	0.142	0.086
-312.953	59.323	0.098	-0.095
-311.939	18.406	0.035	-0.028
-310.924	646.032	0.087	0.220
-309.910	11.978	-0.199	0.151
-308.895	66.095	-0.199	-0.200
-307.880	371.819	0.182	0.366
-306.866	66.862	0.041	0.042
-305.851	-91.586	-0.287	-0.081
-304.837	139.562	0.141	0.184
-303.822	-43.063	0.205	0.103
-302.807	-113.336	-0.072	0.014
-301.793	527.842	-0.104	0.243
-300.778	25.401	0.268	0.221
-299.764	800.000	0.006	-0.022
-298.749	800.000	0.146	0.465
-297.735	122.540	-0.063	-0.078
-296.720	-33.131	0.259	0.142
-295.705	647.504	0.084	-0.211
-294.691	-200.000	-0.043	-0.259
-293.676	174.296	-0.119	-0.170
-292.662	-40.741	0.231	0.118
-291.647	149.357	0.062	0.083
-290.632	-120.901	-0.360	-0.060
-289.618	-200.000	0.047	-0.299
-288.603	58.428	0.102	-0.099
-287.589	-200.000	-0.036	-0.260
-286.574	-37.611	-0.173	-0.091
-285.559	800.000	-0.051	0.196
-284.545	-85.259	-0.171	0.053
-283.530	-200.000	0.010	0.169
-282.516	796.755	-0.099	0.269
-281.501	-124.642	-0.311	-0.048
-280.486	-193.706	0.140	-0.001
-279.472	-200.000	0.043	-0.401
-278.457	-42.014	-0.107	0.054
-277.443	504.085	-0.101	-0.232
-276.428	-69.161	0.454	-0.173
-275.413	355.284	0.037	0.073
-274.399	497.570	0.131	0.299
-273.384	-200.000	0.005	0.156
-272.370	-102.716	0.154	-0.036
-271.355	162.044	0.158	0.219
-270.340	109.707	0.065	0.077
-269.326	277.133	0.184	-0.324
-268.311	-91.367	-0.359	0.102
-267.297	-112.613	-0.294	0.058
-266.282	-7.964	-0.196	0.131
-265.267	-58.998	-0.124	-0.053
-264.253	-77.499	-0.423	0.145
-263.238	-146.136	0.407	0.035
-262.224	406.222	-0.240	0.502
-261.209	800.000	-0.033	-0.125
-260.195	-150.870	-0.172	0.013
-259.180	-92.785	-0.080	0.022
-258.165	800.000	0.073	0.234
-257.151	-200.000	-0.012	-0.161
-256.136	-74.393	0.245	0.087
-255.122	-16.133	-0.271	0.171
-254.107	-112.254	0.262	-0.052
-253.092	-200.000	-0.016	0.142
-252.078	21.938	0.287	-0.231
-251.063	1.511	0.306	0.218
-250.049	202.034	0.209	0.318
-249.034	-200.000	-0.008	-0.076
-248.019	140.995	0.035	-0.046
-247.005	-69.904	0.159	0.060
-245.990	68.882	-0.132	-0.134
-244.976	-45.824	-0.103	-0.050
-243.961	800.000	-0.027	-0.076
-242.946	81.146	0.158	0.168
-241.932	-200.000	0.236	-0.001
-240.917	99.376	-0.195	0.223
-239.903	-138.539	0.173	-0.019
-238.888	372.991	0.123	-0.248
-237.873	-49.233	0.145	0.068
-236.859	-200.000	0.022	-0.365
-235.844	165.662	0.121	-0.170
-234.830	71.594	0.010	-0.010
-233.815	177.148	0.080	0.115
-232.800	-200.000	-0.049	0.332
-231.786	-30.099	0.264	-0.148
-230.771	-103.778	-0.099	-0.023
-229.757	730.580	-0.073	-0.194
-228.742	-195.272	-0.183	-0.001
-227.727	-33.135	-0.322	-0.176
-226.713	442.460	-0.119	-0.257
-225.698	314.416	-0.103	-0.191
-224.684	-96.530	0.032	0.008
-223.669	60.995	-0.093	-0.091
-222.655	627.438	0.063	0.158
-221.640	800.000	-0.022	0.065
-220.625	17.903	0.053	0.042
-219.611	12.794	-0.076	-0.058
-218.596	171.142	0.075	0.107
-217.582	-97.288	-0.034	0.009
-216.567	-85.511	0.283	0.087
-215.552	-200.000	-0.001	-0.059
-214.538	-81.938	-0.171	-0.055
-213.523	643.263	-0.099	-0.250
-212.509	-50.171	0.343	0.160
-211.494	144.300	0.048	0.063
-210.479	800.000	-0.055	-0.195
-209.465	53.528	0.401	-0.380
-208.450	800.000	0.036	-0.119
-207.436	206.145	-0.186	-0.285
-206.421	-30.811	0.140	0.078
-205.406	169.857	0.237	0.334
-204.392	29.819	-0.234	0.197
-203.377	-175.916	0.180	-0.005
-202.363	-200.000	0.049	-0.270
-201.348	-65.368	0.181	0.072
-200.333	642.693	-0.047	0.118
-199.319	-200.000	0.023	-0.256
-198.304	171.393	0.069	0.098
-197.290	-200.000	0.018	-0.163
-196.275	-31.117	-0.038	-0.021
-195.260	-88.220	0.163	-0.048
-194.246	-28.306	-0.296	-0.168
-193.231	17.788	-0.218	-0.172
-192.217	-124.687	0.120	-0.018
-191.202	336.853	-0.083	0.158
-190.187	-79.674	0.044	0.015
-189.173	-4.501	-0.197	-0.134
-188.158	128.887	-0.145	0.182
-187.144	-131.449	-0.131	0.017
-186.129	-132.638	0.344	0.043
-185.114	-74.756	0.181	0.064
-184.100	11.923	0.327	-0.248
-183.085	394.031	0.027	0.056
-182.071	60.433	0.183	0.179
-181.056	98.634	-0.094	0.106
-180.042	26.138	0.150	0.124
-179.027	-143.337	0.173	-0.016
-178.012	-200.000	-0.015	-0.204
-176.998	-142.129	0.203	-0.020
-175.983	176.066	-0.134	-0.192
-174.969	-52.569	-0.265	-0.121
-173.954	-200.000	0.009	-0.115
-172.939	-10.341	-0.040	0.026
-171.925	101.231	0.056	-0.064
-170.910	-29.435	0.331	-0.186
-169.896	-73.559	0.274	0.098
-168.881	-200.000	0.047	-0.202
-167.866	-101.546	-0.100	0.024
-166.852	-35.366	0.193	-0.104
-165.837	-35.734	0.061	-0.032
-164.823	-200.000	0.068	-0.325
-163.808	286.671	0.107	0.191
-162.793	-3.643	0.147	0.101
-161.779	-164.140	0.427	-0.019
-160.764	-200.000	0.008	0.058
-159.750	800.000	-0.033	0.117
-158.735	-68.191	0.131	-0.050
-157.720	-131.396	0.305	0.040
-156.706	-200.000	-0.358	-0.001
-155.691	212.190	0.208	-0.322
-154.677	-78.574	0.142	-0.048
-153.662	44.389	0.089	0.081
-152.647	-121.798	-0.220	0.036
-151.633	73.728	0.044	0.045
-150.618	31.651	-0.044	-0.037
-149.604	515.950	0.159	-0.367
-148.589	800.000	0.072	-0.283
-147.574	-200.000	-0.005	-0.100
-146.560	-200.000	0.028	-0.196
-145.545	34.222	-0.161	-0.138
-144.531	89.464	0.187	0.205
-143.516	-34.580	0.074	-0.040
-142.502	-89.318	0.233	0.067
-141.487	104.248	-0.149	-0.173
-140.472	-86.979	-0.234	0.070
-139.458	373.163	-0.176	-0.352
-138.443	-78.752	0.320	0.107
-137.429	800.000	0.067	-0.210
-136.414	-200.000	-0.027	-0.119
-135.399	-27.457	-0.183	-0.105
-134.385	-50.166	-0.095	-0.044
-133.370	800.000	-0.114	0.331
-132.356	-106.880	-0.152	-0.033
-131.341	-147.531	-0.119	0.010
-130.326	-52.462	0.272	0.124
-129.312	199.149	-0.122	0.184
-128.297	25.416	0.199	-0.163
-127.283	303.559	0.029	0.053
-126.268	-75.357	0.163	0.057
-125.253	-200.000	0.006	-0.085
-124.239	149.340	-0.127	-0.169
-123.224	251.140	-0.050	0.084
-122.210	-137.352	0.460	-0.051
-121.195	-118.051	0.142	-0.025
