DTS Sentinel unit serial number:	SN413079Multiplexer serial number:	ORYXHardware model number:	OX4-SRSoftware version number:	ORYX F/W v4.00 Oryx Data Collector v3.7.2.0data status	okinstallation	princeton_trtdifferential loss correction	single-endedforward channel	channel 2reverse channel	N/Adate	2019/09/19time	08:07:35forward acquisition time	60.00reverse acquisition time	0.00gamma	496.2192k internal	0.2352k external	0.2352temperature offset calibration	1.0005default loss term (dB/km)	0.3790temperature slope calibration	1.0000multiplexer offset coefficient	1.0000multiplexer slope coefficient	1.0000fibre end	0.00T internal ref (°C)	20.02T ext. ref 1 (°C)	0.56T ext. ref 2 (°C)	15.73length (m)	temperature (°C)	Stokes	anti-Stokes-747.200	800.000	0.078	-0.285
-746.185	800.000	0.104	0.318
-745.171	-200.000	-0.020	-0.240
-744.156	33.450	-0.101	-0.088
-743.142	111.195	0.065	0.079
-742.127	712.747	0.047	0.125
-741.112	-65.035	0.297	-0.119
-740.098	-11.568	-0.535	0.351
-739.083	37.852	0.172	0.153
-738.069	-152.776	-0.283	0.020
-737.054	-39.065	0.025	-0.013
-736.039	254.976	-0.125	-0.213
-735.025	-200.000	-0.020	-0.151
-734.010	736.732	-0.066	-0.177
-732.996	800.000	-0.006	0.025
-731.981	-200.000	-0.055	-0.290
-730.966	-194.049	-0.130	0.001
-729.952	800.000	-0.109	-0.301
-728.937	-200.000	-0.032	0.285
-727.923	-200.000	0.003	0.135
-726.908	370.072	-0.164	-0.330
-725.894	-200.000	-0.059	-0.356
-724.879	-127.221	-0.148	0.022
-723.864	-200.000	-0.025	-0.365
-722.850	-94.613	-0.287	-0.078
-721.835	125.263	0.081	0.102
-720.821	24.245	0.097	0.080
-719.806	-113.623	0.314	0.061
-718.791	-75.385	0.052	-0.019
-717.777	668.710	-0.191	0.491
-716.762	-122.160	0.142	-0.023
-715.748	800.000	-0.041	-0.138
-714.733	198.898	-0.219	-0.334
-713.718	32.314	-0.177	-0.152
-712.704	-70.975	-0.219	0.082
-711.689	-200.000	-0.013	-0.179
-710.675	-200.000	-0.029	0.306
-709.660	119.267	0.258	-0.318
-708.645	263.685	-0.159	-0.276
-707.631	-6.967	0.050	0.034
-706.616	53.688	0.175	-0.167
-705.602	-6.240	0.336	-0.228
-704.587	800.000	0.046	0.199
-703.572	800.000	0.057	0.187
-702.558	32.542	-0.108	0.093
-701.543	67.142	-0.322	-0.327
-700.529	-115.044	-0.388	-0.073
-699.514	-165.076	-0.477	0.021
-698.499	144.274	0.205	-0.273
-697.485	-159.352	-0.242	-0.013
-696.470	-156.823	-0.047	0.003
-695.456	41.253	-0.092	-0.083
-694.441	-111.705	-0.191	0.038
-693.426	-200.000	-0.041	-0.215
-692.412	-21.077	0.207	0.126
-691.397	485.194	-0.119	-0.271
-690.383	-123.589	-0.121	0.019
-689.368	266.119	-0.033	-0.057
-688.354	-200.000	0.036	-0.352
-687.339	590.438	0.037	0.090
-686.324	171.557	0.010	0.014
-685.310	330.868	0.176	-0.337
-684.295	501.016	0.039	0.090
-683.281	107.210	-0.095	0.113
-682.266	349.445	0.123	-0.241
-681.251	597.766	-0.090	-0.221
-680.237	-200.000	-0.016	-0.234
-679.222	-7.995	0.333	0.224
-678.208	-161.302	0.011	-0.001
-677.193	190.816	0.199	-0.298
-676.178	800.000	-0.052	0.161
-675.164	800.000	0.030	-0.124
-674.149	219.661	-0.097	-0.154
-673.135	-200.000	-0.009	0.097
-672.120	-200.000	-0.024	-0.270
-671.105	-123.986	0.009	-0.001
-670.091	-141.736	0.131	0.013
-669.076	-32.758	-0.382	0.211
-668.062	-200.000	0.068	-0.349
-667.047	-200.000	-0.012	0.147
-666.032	70.867	0.126	-0.130
-665.018	-118.411	0.358	-0.063
-664.003	-33.076	-0.205	-0.113
-662.989	7.659	0.201	0.150
-661.974	-31.842	-0.232	-0.129
-660.959	19.661	-0.371	-0.297
-659.945	-137.529	0.185	0.021
-658.930	23.369	-0.262	0.214
-657.916	-90.749	0.206	-0.059
-656.901	36.030	0.199	-0.174
-655.886	-200.000	-0.062	-0.292
-654.872	60.522	0.057	0.056
-653.857	-75.566	0.298	0.105
-652.843	160.257	-0.263	0.365
-651.828	-103.446	0.324	-0.076
-650.814	-86.726	0.145	0.044
-649.799	800.000	0.057	-0.183
-648.784	-200.000	0.051	-0.326
-647.770	800.000	-0.107	-0.416
-646.755	800.000	0.018	0.057
-645.741	97.345	0.066	-0.075
-644.726	-56.800	-0.228	-0.100
-643.711	260.444	-0.086	-0.148
-642.697	-200.000	-0.006	0.202
-641.682	-200.000	0.016	-0.097
-640.668	-107.739	0.199	0.043
-639.653	349.404	0.188	0.368
-638.638	85.761	-0.153	0.167
-637.624	-200.000	-0.001	-0.056
-636.609	800.000	0.080	0.332
-635.595	63.017	0.086	0.086
-634.580	352.205	0.086	-0.169
-633.565	-135.695	-0.225	-0.027
-632.551	-200.000	0.006	-0.380
-631.536	-11.124	0.103	-0.067
-630.522	57.292	-0.174	-0.169
-629.507	-91.882	0.405	-0.114
-628.492	45.645	0.063	0.058
-627.478	800.000	0.091	-0.265
-626.463	193.355	-0.167	-0.251
-625.449	2.029	0.283	-0.203
-624.434	-32.693	0.308	-0.170
-623.419	-0.057	0.209	0.148
-622.405	72.227	-0.171	0.177
-621.390	440.720	0.173	-0.376
-620.376	465.313	-0.037	0.082
-619.361	-200.000	-0.061	-0.487
-618.346	-200.000	-0.030	-0.185
-617.332	-30.422	-0.072	0.040
-616.317	-120.420	0.285	0.048
-615.303	-104.968	0.341	0.078
-614.288	119.217	-0.075	0.092
-613.273	368.896	-0.144	-0.290
-612.259	-200.000	-0.026	-0.236
-611.244	-200.000	-0.058	-0.259
-610.230	-200.000	0.013	-0.161
-609.215	800.000	-0.027	-0.075
-608.201	800.000	0.089	0.358
-607.186	-162.603	-0.519	-0.025
-606.171	-74.451	-0.100	0.036
-605.157	46.898	-0.137	-0.127
-604.142	17.464	-0.136	0.107
-603.128	96.004	-0.155	-0.175
-602.113	56.933	-0.208	0.201
-601.098	218.857	0.099	0.156
-600.084	320.205	-0.095	0.179
-599.069	57.879	0.231	-0.224
-598.055	-200.000	-0.003	0.030
-597.040	-200.000	-0.045	-0.327
-596.025	-118.954	-0.232	-0.040
-595.011	8.160	-0.221	-0.165
-593.996	-55.671	-0.055	0.024
-592.982	-66.773	-0.131	0.051
-591.967	-198.344	0.231	-0.001
-590.952	623.753	0.065	0.163
-589.938	-200.000	0.008	-0.161
-588.923	-169.756	-0.107	-0.004
-587.909	-200.000	0.017	-0.196
-586.894	-17.077	0.163	-0.102
-585.879	4.400	-0.133	-0.097
-584.865	800.000	0.110	0.316
-583.850	-29.504	0.095	-0.054
-582.836	-81.327	0.099	-0.032
-581.821	29.268	-0.173	0.146
-580.806	-31.985	0.164	0.091
-579.792	405.013	0.066	-0.138
-578.777	674.450	0.009	-0.023
-577.763	-66.691	-0.062	-0.024
-576.748	-107.309	0.308	0.067
-575.733	-131.874	-0.326	0.042
-574.719	58.781	-0.084	-0.082
-573.704	-132.082	-0.476	-0.061
-572.690	202.462	0.064	-0.098
-571.675	-88.248	0.076	-0.023
-570.661	-48.664	-0.047	0.022
-569.646	283.946	-0.035	-0.062
-568.631	-200.000	0.014	-0.289
-567.617	800.000	0.073	-0.228
-566.602	494.523	0.020	-0.046
-565.588	294.684	-0.134	0.243
-564.573	-200.000	0.061	-0.398
-563.558	786.232	0.153	-0.417
-562.544	23.358	0.332	0.271
-561.529	111.977	-0.285	-0.341
-560.515	-200.000	-0.032	-0.201
-559.500	63.257	-0.082	-0.081
-558.485	-117.797	0.225	-0.040
-557.471	325.704	-0.105	0.199
-556.456	-73.218	-0.100	0.036
-555.442	480.980	0.067	-0.151
-554.427	556.498	0.081	-0.192
-553.412	179.467	0.154	0.224
-552.398	-88.015	-0.201	0.060
-551.383	-200.000	0.002	0.045
-550.369	-81.742	-0.081	-0.026
-549.354	171.978	-0.209	-0.298
-548.339	20.338	0.150	0.120
-547.325	-113.476	0.153	0.030
-546.310	37.056	-0.050	-0.044
-545.296	296.739	0.078	-0.142
-544.281	-20.956	0.356	-0.216
-543.266	800.000	-0.126	-0.381
-542.252	-200.000	-0.008	0.106
-541.237	614.704	-0.043	-0.106
-540.223	183.279	0.130	0.190
-539.208	22.601	-0.288	-0.233
-538.193	-35.901	0.103	-0.055
-537.179	220.789	0.090	-0.143
-536.164	5.847	0.029	0.022
-535.150	-9.471	0.208	0.137
-534.135	-200.000	0.005	0.139
-533.121	-165.962	-0.327	0.014
-532.106	-29.474	-0.252	0.142
-531.091	-68.782	-0.200	0.077
-530.077	-15.894	-0.205	0.129
-529.062	-200.000	-0.037	-0.288
-528.048	800.000	0.045	-0.140
-527.033	-200.000	-0.047	0.227
-526.018	243.772	-0.114	0.190
-525.004	-161.906	0.033	0.002
-523.989	11.718	-0.194	0.148
-522.975	-145.575	0.188	0.017
-521.960	333.766	0.099	-0.189
-520.945	800.000	0.114	0.350
-519.931	48.169	0.121	0.112
-518.916	-34.982	-0.091	0.049
-517.902	243.241	-0.153	-0.253
-516.887	-146.079	0.431	0.038
-515.872	-34.671	0.348	-0.188
-514.858	-200.000	0.008	-0.085
-513.843	-172.203	0.191	-0.006
-512.829	-142.711	0.137	-0.013
-511.814	-152.416	0.156	-0.011
-510.799	81.118	-0.212	-0.226
-509.785	-88.294	0.068	0.020
-508.770	-44.101	0.116	0.058
-507.756	-200.000	-0.019	0.145
-506.741	513.457	-0.178	-0.409
-505.726	-51.049	-0.049	-0.023
-504.712	5.601	-0.202	-0.147
-503.697	-19.840	-0.256	-0.156
-502.683	80.592	0.160	0.171
-501.668	237.805	-0.172	0.282
-500.653	2.135	-0.242	-0.173
-499.639	800.000	-0.069	-0.201
-498.624	-20.149	0.175	-0.107
-497.610	-200.000	0.067	-0.344
-496.595	49.888	0.237	0.220
-495.581	-200.000	-0.021	0.236
-494.566	800.000	0.126	-0.348
-493.551	-102.921	0.327	0.077
-492.537	-131.252	-0.110	0.014
-491.522	-200.000	-0.020	0.112
-490.508	135.986	-0.133	-0.171
-489.493	-200.000	0.024	0.242
-488.478	800.000	-0.008	-0.024
-487.464	800.000	0.030	0.091
-486.449	41.491	0.276	-0.247
-485.435	186.606	0.144	-0.212
-484.420	208.330	-0.190	-0.294
-483.405	-115.548	-0.210	0.039
-482.391	-109.286	0.292	0.061
-481.376	19.572	-0.109	0.087
-480.362	-200.000	-0.005	0.044
-479.347	66.831	0.055	0.055
-478.332	800.000	-0.011	0.032
-477.318	-200.000	-0.020	0.304
-476.303	-119.066	-0.329	0.057
-475.289	-200.000	0.015	-0.329
-474.274	197.332	-0.106	-0.159
-473.259	395.158	-0.141	-0.291
-472.245	688.874	-0.069	-0.179
-471.230	-8.551	-0.079	-0.053
-470.216	349.351	0.036	-0.069
-469.201	378.943	-0.033	-0.066
-468.186	-78.336	0.250	-0.085
-467.172	179.881	-0.122	-0.176
-466.157	-100.058	0.078	-0.019
-465.143	413.381	-0.060	0.126
-464.128	-114.243	-0.158	0.030
-463.113	-128.621	-0.302	-0.042
-462.099	584.532	-0.054	-0.132
-461.084	-31.512	0.499	-0.277
-460.070	251.779	-0.135	-0.226
-459.055	-200.000	0.010	-0.194
-458.040	243.295	-0.065	0.107
-457.026	800.000	0.034	-0.132
-456.011	800.000	0.114	-0.320
-454.997	8.396	-0.050	0.037
-453.982	-130.040	-0.180	0.024
-452.968	-77.977	-0.186	0.063
-451.953	-61.820	-0.082	-0.034
-450.938	146.987	0.021	-0.028
-449.924	-200.000	0.011	0.220
-448.909	-27.968	-0.445	-0.254
-447.895	300.560	-0.092	0.167
-446.880	-99.140	-0.184	-0.046
-445.865	-200.000	0.051	-0.223
-444.851	-200.000	0.035	0.218
-443.836	193.025	-0.189	0.281
-442.822	800.000	-0.158	0.483
-441.807	-200.000	0.007	0.209
-440.792	-102.330	-0.216	-0.051
-439.778	23.916	0.100	-0.081
-438.763	656.701	-0.032	-0.081
-437.749	-151.783	-0.377	-0.027
-436.734	-33.234	0.371	-0.202
-435.719	-156.922	-0.115	-0.007
-434.705	49.440	-0.177	0.164
-433.690	800.000	0.091	-0.353
-432.676	69.207	-0.249	0.252
-431.661	-165.706	0.359	0.015
-430.646	275.432	0.076	-0.132
-429.632	-20.355	-0.326	0.198
-428.617	283.427	-0.032	0.056
-427.603	-94.698	0.180	-0.048
-426.588	-200.000	-0.053	-0.249
-425.573	-100.056	0.105	0.026
-424.559	-200.000	-0.036	0.438
-423.544	-146.516	0.109	-0.009
-422.530	95.624	-0.211	-0.237
-421.515	-66.965	-0.151	0.059
-420.500	800.000	-0.060	0.248
-419.486	68.977	-0.028	0.028
-418.471	800.000	-0.074	0.286
-417.457	559.492	-0.096	0.227
-416.442	-85.279	0.201	0.062
-415.428	36.150	0.188	0.163
-414.413	-200.000	0.002	-0.046
-413.398	13.120	-0.153	0.117
-412.384	-29.802	0.070	0.039
-411.369	39.433	0.286	-0.252
-410.355	-48.227	-0.090	0.043
-409.340	-200.000	-0.010	0.170
-408.325	-88.264	-0.458	-0.135
-407.311	284.103	0.066	-0.117
-406.296	292.336	-0.131	-0.234
-405.282	-77.517	-0.101	0.035
-404.267	215.686	0.278	0.434
-403.252	-159.460	0.247	0.014
-402.238	239.383	-0.048	0.078
-401.223	800.000	0.111	0.357
-400.209	87.844	0.185	-0.202
-399.194	218.630	-0.157	-0.248
-398.179	707.542	0.076	-0.197
-397.165	800.000	-0.050	0.147
-396.150	156.200	0.021	0.029
-395.136	800.000	-0.053	0.222
-394.121	-3.906	-0.121	-0.082
-393.106	-160.340	0.303	0.016
-392.092	309.946	0.168	0.310
-391.077	42.359	0.027	-0.024
-390.063	-115.012	-0.150	-0.028
-389.048	-85.371	0.223	-0.068
-388.033	203.556	-0.220	0.334
-387.019	-133.806	-0.151	-0.019
-386.004	-200.000	0.222	-0.001
-384.990	4.673	0.181	0.131
-383.975	357.815	0.076	-0.148
-382.960	-164.459	-0.139	-0.006
-381.946	268.863	0.042	-0.073
-380.931	133.734	-0.062	-0.079
-379.917	-91.375	0.234	-0.066
-378.902	-0.476	-0.064	-0.045
-377.888	-127.455	-0.411	-0.059
-376.873	800.000	0.076	-0.287
-375.858	22.894	-0.050	-0.041
-374.844	-200.000	0.014	-0.133
-373.829	-200.000	-0.025	-0.216
-372.815	176.411	0.159	0.227
-371.800	-11.940	-0.111	0.071
-370.785	-32.416	0.227	-0.124
-369.771	-200.000	-0.045	0.325
-368.756	197.120	-0.123	-0.185
-367.742	302.283	-0.045	-0.083
-366.727	-132.760	0.171	0.022
-365.712	352.744	-0.137	0.268
-364.698	209.458	-0.051	0.078
-363.683	-92.498	-0.273	-0.075
-362.669	77.700	-0.117	-0.123
-361.654	61.575	-0.153	-0.149
-360.639	-87.080	-0.100	-0.030
-359.625	-52.517	-0.115	-0.052
-358.610	-37.736	0.338	0.177
-357.596	-113.602	-0.251	-0.048
-356.581	-20.719	-0.139	-0.084
-355.566	-200.000	0.011	0.145
-354.552	725.911	-0.079	0.206
-353.537	7.199	-0.086	0.063
-352.523	-200.000	-0.026	0.144
-351.508	-76.344	-0.121	-0.042
-350.493	-99.560	0.219	0.054
-349.479	800.000	0.080	0.234
-348.464	-114.106	-0.129	0.025
-347.450	800.000	0.070	-0.292
-346.435	-168.224	-0.281	-0.011
-345.420	327.129	0.037	-0.069
-344.406	102.934	0.365	-0.419
-343.391	15.746	0.092	-0.071
-342.377	284.300	-0.212	0.375
-341.362	15.417	0.142	-0.109
-340.348	800.000	0.097	0.277
-339.333	800.000	-0.034	-0.104
-338.318	211.284	0.165	0.254
-337.304	-149.132	-0.441	-0.035
-336.289	-200.000	0.008	-0.095
-335.275	-185.929	0.135	0.002
-334.260	-66.572	-0.172	-0.067
-333.245	-200.000	-0.149	-0.000
-332.231	-200.000	0.038	0.473
-331.216	-34.642	0.044	0.024
-330.202	548.366	-0.075	-0.176
-329.187	249.649	-0.087	0.144
-328.172	122.616	0.125	0.153
-327.158	800.000	-0.085	0.324
-326.143	-200.000	-0.078	0.376
-325.129	800.000	-0.089	0.291
-324.114	76.243	0.179	0.186
-323.099	800.000	0.049	0.182
-322.085	-116.738	0.247	0.045
-321.070	58.792	0.096	0.092
-320.056	-93.674	-0.099	0.027
-319.041	10.008	0.068	-0.051
-318.026	112.568	-0.191	0.227
-317.012	100.292	0.267	0.304
-315.997	-78.560	-0.060	-0.020
-314.983	301.300	-0.158	0.286
-313.968	2.728	-0.287	-0.204
-312.953	800.000	0.037	-0.108
-311.939	2.629	0.182	-0.129
-310.924	-6.654	-0.204	-0.136
-309.910	-200.000	0.023	-0.137
-308.895	-40.848	-0.156	-0.079
-307.880	-150.361	0.395	0.030
-306.866	99.998	-0.121	0.138
-305.851	-56.386	0.080	-0.035
-304.837	39.438	0.172	0.151
-303.822	47.562	-0.164	0.150
-302.807	33.174	0.260	-0.221
-301.793	-200.000	0.009	0.413
-300.778	15.301	0.125	0.096
-299.764	-87.829	0.281	-0.083
-298.749	-91.250	0.454	0.127
-297.735	800.000	0.037	-0.105
-296.720	-5.604	0.141	-0.095
-295.705	-7.172	-0.193	-0.128
-294.691	-32.367	0.207	0.113
-293.676	-44.922	0.186	-0.091
-292.662	272.932	0.106	0.183
-291.647	-163.916	0.350	-0.016
-290.632	-70.380	-0.161	-0.060
-289.618	-136.730	-0.200	-0.023
-288.603	800.000	-0.120	-0.396
-287.589	192.927	0.186	-0.275
-286.574	-200.000	0.033	-0.208
-285.559	-200.000	0.037	0.219
-284.545	234.418	0.149	-0.240
-283.530	-200.000	-0.004	-0.174
-282.516	574.137	0.094	0.224
-281.501	-200.000	0.051	-0.333
-280.486	239.613	0.128	0.210
-279.472	-165.581	-0.048	-0.002
-278.457	-200.000	0.030	-0.227
-277.443	-71.298	-0.095	0.035
-276.428	-30.529	-0.234	-0.130
-275.413	24.416	0.067	-0.054
-274.399	-96.929	0.063	0.016
-273.384	-131.121	-0.386	0.050
-272.370	-77.350	0.092	-0.031
-271.355	800.000	0.113	0.394
-270.340	-31.703	0.239	0.131
-269.326	139.641	0.294	0.379
-268.311	-28.567	-0.256	-0.144
-267.297	-90.638	-0.204	-0.058
-266.282	24.323	-0.109	0.088
-265.267	-200.000	0.011	0.065
-264.253	116.180	-0.184	-0.221
-263.238	672.274	0.066	0.168
-262.224	-39.095	0.096	0.049
-261.209	-60.788	-0.440	-0.183
-260.195	-200.000	-0.058	0.250
-259.180	800.000	0.167	0.506
-258.165	-31.010	-0.194	-0.107
-257.151	-200.000	-0.022	0.172
-256.136	32.857	-0.182	-0.154
-255.122	130.993	-0.098	-0.123
-254.107	-200.000	-0.038	0.431
-253.092	458.674	-0.004	-0.009
-252.078	221.002	-0.053	-0.083
-251.063	40.691	0.196	0.173
-250.049	231.851	0.168	0.270
-249.034	-81.783	0.159	0.051
-248.019	566.462	-0.074	-0.176
-247.005	166.105	-0.133	0.185
-245.990	-14.977	-0.284	-0.178
-244.976	37.408	-0.231	0.201
-243.961	-200.000	-0.024	-0.315
-242.946	-106.930	0.376	-0.081
-241.932	24.377	0.082	0.067
-240.917	9.171	-0.136	0.101
-239.903	164.184	0.057	0.078
-238.888	-200.000	0.028	0.281
-237.873	-120.722	0.193	0.032
-236.859	-119.405	0.169	-0.029
-235.844	-107.691	-0.141	-0.030
-234.830	-86.400	-0.502	-0.151
-233.815	800.000	-0.059	-0.189
-232.800	185.539	0.056	0.082
-231.786	374.667	-0.037	0.074
-230.771	446.930	0.187	-0.402
-229.757	-200.000	0.030	-0.245
-228.742	-200.000	0.005	0.104
-227.727	-200.000	0.027	-0.192
-226.713	-136.116	0.032	-0.004
-225.698	34.691	-0.147	0.126
-224.684	597.032	0.113	-0.274
-223.669	252.213	-0.066	0.109
-222.655	154.292	-0.050	-0.067
-221.640	-5.473	0.275	0.184
-220.625	-200.000	0.025	-0.251
-219.611	-115.967	-0.434	0.079
-218.596	8.783	0.430	0.317
-217.582	-144.936	0.380	-0.034
-216.567	800.000	-0.082	0.321
-215.552	16.972	-0.083	0.064
-214.538	273.120	-0.164	-0.283
-213.523	0.058	-0.326	-0.227
-212.509	-200.000	0.014	-0.258
-211.494	-73.644	0.159	0.056
-210.479	15.989	0.205	0.158
-209.465	-108.206	0.233	0.049
-208.450	0.056	0.110	-0.077
-207.436	586.631	0.063	-0.151
-206.421	225.223	-0.100	-0.157
-205.406	-39.229	0.144	-0.074
-204.392	-182.568	-0.275	0.005
-203.377	585.683	-0.111	-0.267
-202.363	146.458	0.145	0.191
-201.348	800.000	0.034	0.143
-200.333	314.557	0.094	0.173
-199.319	-115.656	0.170	0.031
-198.304	127.671	-0.103	0.127
-197.290	587.212	-0.055	-0.132
-196.275	-200.000	-0.013	0.097
-195.260	-171.970	0.184	0.006
-194.246	-18.234	-0.152	0.093
-193.231	105.804	0.047	-0.055
-192.217	-160.307	0.222	-0.012
-191.202	-130.423	0.193	-0.026
-190.187	325.120	-0.130	0.243
-189.173	108.809	0.034	0.039
-188.158	-30.470	-0.123	-0.068
-187.144	34.608	-0.071	0.061
-186.129	-44.903	0.343	-0.167
-185.114	800.000	-0.085	0.305
-184.100	105.302	-0.095	0.109
-183.085	-200.000	-0.023	0.150
-182.071	45.723	0.097	-0.088
-181.056	43.202	-0.058	-0.052
-180.042	-132.901	0.208	-0.026
-179.027	56.735	0.223	0.212
-178.012	600.081	0.057	0.139
-176.998	67.844	0.094	-0.094
-175.983	-19.237	0.107	-0.065
-174.969	195.605	0.274	0.407
-173.954	-86.161	-0.316	0.095
-172.939	800.000	0.082	0.265
-171.925	-155.972	-0.202	0.012
-170.910	-77.765	0.056	0.019
-169.896	61.620	0.142	0.137
-168.881	80.560	-0.197	0.207
-167.866	-20.312	-0.132	-0.079
-166.852	-133.608	-0.167	0.020
-165.837	-116.769	-0.165	0.030
-164.823	-100.475	0.084	0.020
-163.808	31.091	0.242	0.203
-162.793	259.309	0.272	0.457
-161.779	71.181	0.104	-0.105
-160.764	-12.435	0.439	0.279
-159.750	342.416	0.149	-0.284
-158.735	-44.210	-0.346	0.169
-157.720	-200.000	-0.001	-0.010
-156.706	322.151	-0.186	0.345
-155.691	-91.751	0.094	0.026
-154.677	-200.000	-0.043	0.275
-153.662	-200.000	0.038	0.428
-152.647	-200.000	-0.020	0.177
-151.633	-4.742	-0.153	0.103
-150.618	44.392	-0.026	0.023
-149.604	-65.793	0.338	0.132
-148.589	-124.290	-0.217	-0.033
-147.574	-69.214	0.344	-0.129
-146.560	800.000	0.078	0.270
-145.545	-90.461	-0.106	0.030
-144.531	-13.770	0.204	0.129
-143.516	-56.443	-0.256	-0.111
-142.502	-200.000	0.041	-0.386
-141.487	-0.847	-0.251	-0.173
-140.472	800.000	0.073	0.267
-139.458	-51.938	0.225	-0.102
-138.443	800.000	0.051	0.194
-137.429	-200.000	0.128	0.000
-136.414	-121.527	-0.187	-0.030
-135.399	-159.508	0.132	0.007
-134.385	-80.646	0.296	-0.096
-133.370	-102.467	0.239	0.056
-132.356	-5.859	-0.153	-0.102
-131.341	-200.000	-0.030	0.243
-130.326	-58.367	-0.035	-0.015
-129.312	-142.211	-0.245	0.024
-128.297	-92.829	-0.154	-0.042
-127.283	20.288	0.122	0.096
-126.268	-200.000	-0.004	0.136
-125.253	-200.000	0.021	-0.136
-124.239	30.355	0.129	0.107
-123.224	670.847	0.035	-0.087
-122.210	-93.625	0.117	-0.032
-121.195	185.082	0.103	0.149
