DTS Sentinel unit serial number:	SN413079Multiplexer serial number:	ORYXHardware model number:	OX4-SRSoftware version number:	ORYX F/W v4.00 Oryx Data Collector v3.7.2.0data status	okinstallation	princeton_trtdifferential loss correction	single-endedforward channel	channel 2reverse channel	N/Adate	2019/09/16time	03:55:35forward acquisition time	60.00reverse acquisition time	0.00gamma	496.2192k internal	0.2334k external	0.2334temperature offset calibration	0.9973default loss term (dB/km)	0.3790temperature slope calibration	1.0000multiplexer offset coefficient	1.0000multiplexer slope coefficient	1.0000fibre end	0.00T internal ref (°C)	27.50T ext. ref 1 (°C)	10.70T ext. ref 2 (°C)	21.60length (m)	temperature (°C)	Stokes	anti-Stokes-747.200	-17.658	-0.270	0.170
-746.185	-200.000	-0.042	0.252
-745.171	36.120	-0.166	-0.147
-744.156	55.511	-0.122	-0.118
-743.142	-200.000	0.024	0.162
-742.127	-11.742	-0.053	-0.035
-741.112	800.000	0.020	0.067
-740.098	154.486	-0.083	-0.114
-739.083	262.884	0.137	0.240
-738.069	356.302	0.094	0.188
-737.054	252.715	-0.029	0.049
-736.039	-170.497	-0.230	0.008
-735.025	259.295	0.279	-0.484
-734.010	73.692	0.158	0.166
-732.996	-61.421	-0.267	-0.113
-731.981	800.000	-0.081	0.287
-730.966	9.115	0.284	0.215
-729.952	113.205	0.097	-0.118
-728.937	-6.706	0.298	-0.204
-727.923	368.706	-0.148	0.301
-726.908	50.160	-0.208	-0.197
-725.894	800.000	-0.025	-0.084
-724.879	788.846	0.052	-0.143
-723.864	573.764	-0.042	0.104
-722.850	-1.666	0.177	0.125
-721.835	232.282	-0.114	-0.188
-720.821	-118.846	-0.240	-0.042
-719.806	1.105	0.354	-0.255
-718.791	-31.956	-0.300	0.169
-717.777	693.446	-0.102	-0.269
-716.762	-6.920	-0.125	0.085
-715.748	47.480	-0.067	-0.063
-714.733	311.663	-0.097	-0.182
-713.718	-103.764	-0.227	0.053
-712.704	-137.918	-0.299	0.034
-711.689	800.000	-0.012	-0.043
-710.675	795.024	-0.032	-0.087
-709.660	435.082	0.089	-0.194
-708.645	-200.000	-0.021	0.271
-707.631	71.080	-0.250	-0.260
-706.616	11.096	-0.086	-0.066
-705.602	-71.284	-0.365	0.137
-704.587	-122.310	0.437	0.072
-703.572	-27.091	-0.204	-0.119
-702.558	124.078	0.178	-0.224
-701.543	-200.000	-0.037	-0.173
-700.529	-116.316	-0.119	-0.022
-699.514	-46.146	-0.264	-0.130
-698.499	-141.995	0.189	0.019
-697.485	800.000	-0.038	0.121
-696.470	-200.000	-0.013	-0.154
-695.456	-200.000	-0.004	-0.104
-694.441	-80.076	-0.340	-0.114
-693.426	94.986	0.008	0.010
-692.412	-87.989	-0.331	-0.100
-691.397	679.656	-0.167	-0.436
-690.383	-16.160	-0.163	0.104
-689.368	-200.000	0.011	-0.281
-688.354	-200.000	-0.055	-0.387
-687.339	800.000	-0.119	-0.442
-686.324	-200.000	-0.034	-0.346
-685.310	-105.780	0.230	-0.052
-684.295	168.250	-0.049	-0.070
-683.281	-148.804	-0.307	0.025
-682.266	-200.000	-0.037	-0.364
-681.251	153.759	0.219	0.301
-680.237	184.296	-0.146	0.217
-679.222	-66.415	-0.329	-0.131
-678.208	800.000	0.089	-0.350
-677.193	124.161	-0.151	-0.190
-676.178	-58.127	-0.217	0.095
-675.164	179.508	-0.126	0.185
-674.149	32.000	0.103	0.089
-673.135	-200.000	0.004	-0.024
-672.120	-200.000	-0.012	0.131
-671.105	-162.854	-0.039	-0.002
-670.091	39.144	0.105	0.095
-669.076	37.571	0.063	-0.056
-668.062	134.013	0.038	-0.049
-667.047	46.221	-0.190	0.176
-666.032	-200.000	-0.034	-0.271
-665.018	-147.557	-0.084	-0.007
-664.003	-112.848	-0.200	0.040
-662.989	384.344	-0.179	-0.369
-661.974	110.866	-0.177	-0.213
-660.959	-142.582	0.185	0.018
-659.945	-62.091	-0.286	-0.120
-658.930	-200.000	0.027	-0.279
-657.916	-163.063	-0.192	-0.009
-656.901	-200.000	-0.001	-0.092
-655.886	-93.499	0.166	-0.046
-654.872	-34.037	-0.216	0.119
-653.857	-53.572	0.145	0.066
-652.843	485.332	-0.069	0.157
-651.828	-200.000	0.035	-0.176
-650.814	-35.844	-0.170	-0.092
-649.799	373.545	-0.191	-0.389
-648.784	-29.453	-0.084	0.048
-647.770	47.430	0.079	-0.073
-646.755	-148.616	0.289	0.024
-645.741	-129.488	0.119	0.017
-644.726	-200.000	0.082	-0.416
-643.711	271.164	-0.077	-0.136
-642.697	50.152	0.176	0.166
-641.682	-10.679	-0.080	-0.053
-640.668	-200.000	-0.029	-0.210
-639.653	-51.453	0.307	-0.144
-638.638	-200.000	0.056	-0.278
-637.624	-154.629	-0.264	-0.018
-636.609	376.278	0.038	0.078
-635.595	-40.928	-0.216	-0.112
-634.580	-10.139	0.219	-0.145
-633.565	-46.604	0.108	-0.053
-632.551	-118.724	-0.177	0.031
-631.536	390.077	-0.118	0.244
-630.522	-107.806	-0.137	-0.030
-629.507	104.742	-0.073	-0.086
-628.492	-45.913	0.139	0.068
-627.478	800.000	0.057	-0.230
-626.463	121.220	-0.106	0.133
-625.449	68.905	0.040	0.041
-624.434	-200.000	0.019	0.356
-623.419	-200.000	-0.017	0.113
-622.405	-200.000	0.019	0.296
-621.390	446.685	-0.084	0.185
-620.376	679.526	-0.111	-0.290
-619.361	401.350	-0.105	-0.220
-618.346	-14.797	-0.038	0.025
-617.332	178.041	0.096	0.141
-616.317	65.507	-0.095	-0.096
-615.303	0.771	-0.346	0.248
-614.288	-173.532	0.063	-0.002
-613.273	-63.558	0.375	0.154
-612.259	-35.140	-0.124	0.067
-611.244	8.992	-0.282	-0.213
-610.230	-168.881	0.295	-0.011
-609.215	-200.000	0.032	0.316
-608.201	-107.199	-0.359	0.079
-607.186	-64.991	-0.323	0.131
-606.171	-200.000	0.245	-0.000
-605.157	-99.152	-0.110	0.028
-604.142	546.841	0.091	-0.217
-603.128	-200.000	-0.014	0.189
-602.113	-3.243	-0.041	-0.028
-601.098	190.487	-0.142	-0.214
-600.084	404.027	-0.067	-0.140
-599.069	-185.607	-0.261	-0.004
-598.055	-55.876	0.214	0.096
-597.040	-200.000	0.039	-0.255
-596.025	800.000	0.045	-0.150
-595.011	633.356	-0.078	-0.198
-593.996	800.000	0.069	-0.273
-592.982	-200.000	0.097	-0.432
-591.967	-200.000	0.016	-0.220
-590.952	108.221	0.108	0.128
-589.938	-200.000	-0.029	-0.248
-588.923	800.000	0.030	0.099
-587.909	-85.486	0.212	0.066
-586.894	-200.000	0.025	-0.196
-585.879	-9.724	-0.234	0.156
-584.865	800.000	-0.006	0.020
-583.850	480.245	-0.109	-0.247
-582.836	-200.000	0.040	-0.315
-581.821	800.000	0.082	0.357
-580.806	62.741	0.079	0.079
-579.792	-200.000	-0.017	0.117
-578.777	-45.483	-0.418	0.207
-577.763	59.402	-0.136	0.133
-576.748	139.383	0.185	-0.243
-575.733	-200.000	-0.012	0.236
-574.719	-22.776	0.010	-0.006
-573.704	-200.000	-0.026	-0.121
-572.690	27.989	-0.094	-0.079
-571.675	-200.000	-0.051	0.378
-570.661	-36.975	0.199	-0.107
-569.646	800.000	0.096	0.391
-568.631	-15.210	-0.129	0.083
-567.617	-137.767	-0.118	0.013
-566.602	-3.365	-0.180	0.125
-565.588	-125.266	0.255	-0.039
-564.573	-151.214	-0.186	-0.014
-563.558	28.099	0.277	-0.234
-562.544	-183.899	0.164	-0.003
-561.529	44.621	-0.113	-0.104
-560.515	48.240	-0.397	0.371
-559.500	800.000	0.032	-0.136
-558.485	800.000	0.095	-0.333
-557.471	147.354	-0.247	-0.332
-556.456	110.304	-0.117	0.140
-555.442	39.136	-0.185	-0.165
-554.427	61.301	0.232	-0.230
-553.412	-200.000	-0.032	-0.445
-552.398	159.113	-0.105	-0.146
-551.383	-43.906	-0.191	0.096
-550.369	-200.000	0.200	0.001
-549.354	205.808	0.080	0.124
-548.339	800.000	-0.071	-0.234
-547.325	-107.090	0.226	0.050
-546.310	-13.586	0.161	-0.104
-545.296	-31.817	-0.082	-0.046
-544.281	99.852	0.068	-0.079
-543.266	56.143	-0.068	0.066
-542.252	144.927	0.142	0.189
-541.237	-24.390	-0.072	0.043
-540.223	-19.184	0.367	-0.227
-539.208	561.253	-0.093	-0.223
-538.193	711.457	-0.052	-0.137
-537.179	591.628	0.101	-0.248
-536.164	-26.785	0.152	-0.089
-535.150	800.000	0.050	-0.198
-534.135	-8.673	-0.125	-0.083
-533.121	-30.221	0.195	0.110
-532.106	114.072	-0.218	0.264
-531.091	516.226	-0.079	0.184
-530.077	-200.000	-0.002	-0.289
-529.062	48.457	-0.192	-0.179
-528.048	800.000	-0.078	-0.285
-527.033	-200.000	0.011	0.095
-526.018	263.562	-0.119	0.207
-525.004	265.897	0.173	0.302
-523.989	125.203	-0.185	0.233
-522.975	-61.086	-0.202	0.085
-521.960	425.030	0.083	-0.179
-520.945	-200.000	-0.007	-0.201
-519.931	175.574	0.163	-0.236
-518.916	-140.186	0.183	-0.019
-517.902	-38.568	0.179	0.094
-516.887	-131.140	-0.128	-0.017
-515.872	174.830	-0.149	-0.214
-514.858	-127.224	-0.284	-0.041
-513.843	-200.000	0.003	-0.210
-512.829	-107.253	-0.218	-0.048
-511.814	41.633	-0.160	0.144
-510.799	-81.908	-0.181	-0.059
-509.785	504.751	-0.024	0.056
-508.770	191.264	0.131	-0.196
-507.756	-200.000	-0.042	-0.304
-506.741	800.000	-0.040	-0.113
-505.726	611.468	-0.070	-0.175
-504.712	-154.316	0.210	-0.014
-503.697	541.323	0.051	0.120
-502.683	512.125	0.056	0.129
-501.668	-87.772	-0.340	-0.102
-500.653	-111.253	-0.018	0.004
-499.639	-7.528	0.337	-0.227
-498.624	-200.000	0.022	0.235
-497.610	800.000	-0.043	0.150
-496.595	-200.000	-0.008	-0.145
-495.581	244.862	-0.047	0.078
-494.566	-149.260	0.129	0.010
-493.551	417.858	-0.136	0.290
-492.537	-148.358	-0.457	-0.037
-491.522	-200.000	-0.069	-0.379
-490.508	800.000	-0.091	-0.282
-489.493	-65.083	0.262	0.105
-488.478	402.084	0.069	-0.145
-487.464	-148.495	0.086	0.007
-486.449	-200.000	-0.019	0.288
-485.435	800.000	0.037	-0.150
-484.420	318.905	0.082	-0.155
-483.405	68.825	0.039	-0.039
-482.391	-167.008	-0.351	0.014
-481.376	800.000	-0.045	-0.165
-480.362	-52.485	-0.293	-0.135
-479.347	109.021	0.182	0.217
-478.332	-200.000	-0.020	0.119
-477.318	800.000	-0.008	0.027
-476.303	-200.000	-0.057	-0.284
-475.289	-129.005	-0.211	-0.029
-474.274	-62.394	-0.370	0.153
-473.259	544.717	-0.076	0.180
-472.245	-183.599	-0.371	-0.006
-471.230	396.642	-0.071	-0.147
-470.216	84.004	-0.116	-0.125
-469.201	565.327	0.007	0.017
-468.186	511.937	0.150	0.348
-467.172	-200.000	0.003	-0.173
-466.157	-200.000	0.001	-0.080
-465.143	800.000	-0.005	-0.017
-464.128	-14.082	0.202	-0.130
-463.113	93.851	0.139	-0.156
-462.099	101.137	-0.099	-0.115
-461.084	44.225	0.119	0.109
-460.070	310.593	-0.080	-0.149
-459.055	488.020	0.110	-0.251
-458.040	203.453	0.006	0.009
-457.026	265.834	-0.057	0.099
-456.011	29.851	0.229	-0.193
-454.997	800.000	-0.014	0.047
-453.982	219.770	-0.161	-0.256
-452.968	-130.276	0.070	-0.009
-451.953	-200.000	-0.322	-0.000
-450.938	-8.351	-0.239	0.160
-449.924	-144.923	0.423	0.038
-448.909	-200.000	0.021	0.225
-447.895	197.796	0.097	-0.147
-446.880	-200.000	-0.012	0.327
-445.865	146.128	-0.218	-0.291
-444.851	29.598	0.082	0.069
-443.836	-71.782	-0.209	-0.078
-442.822	-88.138	0.089	0.026
-441.807	-115.802	0.076	-0.014
-440.792	-46.530	-0.318	-0.155
-439.778	125.523	0.071	-0.089
-438.763	3.177	-0.076	0.055
-437.749	6.329	-0.273	0.201
-436.734	266.324	0.047	0.081
-435.719	-156.221	0.299	-0.019
-434.705	-115.663	0.177	-0.033
-433.690	-37.003	0.260	-0.138
-432.676	-200.000	-0.004	0.300
-431.661	-141.482	-0.331	0.033
-430.646	176.428	0.137	0.198
-429.632	117.699	0.238	0.291
-428.617	-200.000	0.024	0.123
-427.603	196.406	0.077	-0.116
-426.588	35.951	-0.021	0.018
-425.573	-4.464	-0.104	0.072
-424.559	-137.350	0.251	0.028
-423.544	732.912	0.075	-0.199
-422.530	800.000	0.024	-0.095
-421.515	-30.099	0.157	0.088
-420.500	344.801	-0.076	0.148
-419.486	55.836	0.154	-0.148
-418.471	-166.379	-0.567	0.024
-417.457	423.420	-0.020	-0.043
-416.442	-51.413	-0.179	0.083
-415.428	-200.000	-0.025	-0.269
-414.413	494.835	0.179	-0.409
-413.398	20.037	0.114	0.091
-412.384	-48.573	-0.145	-0.069
-411.369	252.064	-0.049	-0.082
-410.355	-200.000	-0.069	-0.315
-409.340	45.454	-0.128	0.117
-408.325	196.460	-0.098	-0.148
-407.311	668.136	0.055	0.142
-406.296	800.000	0.109	0.309
-405.282	-9.295	-0.180	-0.119
-404.267	633.852	0.008	0.021
-403.252	800.000	0.070	0.284
-402.238	66.694	-0.192	-0.193
-401.223	-86.689	0.286	0.087
-400.209	-200.000	0.074	-0.343
-399.194	102.450	-0.212	0.246
-398.179	-91.003	0.455	-0.130
-397.165	-200.000	0.032	-0.283
-396.150	800.000	0.023	0.097
-395.136	241.481	-0.063	-0.104
-394.121	395.309	0.030	-0.061
-393.106	-200.000	0.007	0.064
-392.092	-200.000	-0.008	0.068
-391.077	-150.983	-0.038	0.003
-390.063	-39.367	0.142	-0.074
-389.048	-70.134	0.114	-0.043
-388.033	-78.548	-0.101	-0.034
-387.019	-200.000	-0.038	0.312
-386.004	-200.000	-0.018	0.104
-384.990	-136.210	-0.332	0.038
-383.975	-93.351	0.306	-0.084
-382.960	-88.642	-0.133	0.039
-381.946	-163.585	0.194	0.009
-380.931	-72.298	0.213	0.078
-379.917	-107.530	0.194	-0.042
-378.902	-88.903	0.075	-0.022
-377.888	-55.018	0.090	0.040
-376.873	670.806	-0.018	-0.046
-375.858	71.646	0.119	-0.123
-374.844	-18.711	0.291	0.179
-373.829	-200.000	-0.028	0.269
-372.815	435.676	0.037	0.080
-371.800	350.815	0.032	0.062
-370.785	-125.963	-0.293	0.044
-369.771	-200.000	-0.008	-0.119
-368.756	800.000	0.039	0.139
-367.742	-56.544	0.182	-0.080
-366.727	800.000	0.016	0.059
-365.712	-200.000	0.013	0.102
-364.698	41.896	-0.039	0.035
-363.683	800.000	-0.087	-0.321
-362.669	-175.013	0.020	-0.001
-361.654	800.000	-0.026	0.081
-360.639	102.801	-0.155	0.180
-359.625	-50.473	0.064	0.030
-358.610	-146.675	0.311	-0.027
-357.596	54.258	-0.048	-0.046
-356.581	800.000	-0.084	0.248
-355.566	100.020	0.228	0.261
-354.552	-121.714	0.294	0.048
-353.537	-6.481	-0.242	-0.163
-352.523	260.356	-0.084	0.144
-351.508	175.926	0.127	-0.182
-350.493	-39.094	0.121	0.063
-349.479	-191.714	0.221	-0.002
-348.464	281.008	0.039	0.069
-347.450	51.801	-0.052	0.049
-346.435	85.808	0.314	-0.341
-345.420	-1.718	0.363	0.253
-344.406	100.979	-0.186	0.214
-343.391	800.000	0.078	0.293
-342.377	342.789	0.021	0.041
-341.362	-200.000	0.042	-0.194
-340.348	44.975	0.097	0.088
-339.333	-69.545	-0.300	-0.114
-338.318	-156.952	0.196	0.012
-337.304	-68.188	0.248	0.095
-336.289	119.376	-0.146	-0.179
-335.275	800.000	0.064	-0.232
-334.260	-104.827	-0.144	0.033
-333.245	-151.455	-0.239	-0.018
-332.231	-113.624	-0.047	0.009
-331.216	800.000	0.142	-0.474
-330.202	-81.133	-0.105	-0.034
-329.187	-133.869	0.255	-0.031
-328.172	800.000	0.100	0.335
-327.158	554.891	-0.117	-0.278
-326.143	-106.214	-0.222	0.049
-325.129	4.070	-0.084	0.061
-324.114	17.934	-0.239	0.189
-323.099	349.231	-0.029	0.057
-322.085	63.919	0.321	-0.319
-321.070	-132.377	-0.073	0.009
-320.056	45.538	0.054	0.050
-319.041	-74.034	-0.385	-0.138
-318.026	-15.949	0.073	0.046
-317.012	-160.336	-0.472	0.025
-315.997	-12.597	0.405	0.261
-314.983	-200.000	-0.014	0.427
-313.968	800.000	-0.112	-0.428
-312.953	-200.000	0.015	-0.073
-311.939	-102.972	0.165	-0.039
-310.924	-39.992	-0.059	-0.030
-309.910	-200.000	-0.008	0.170
-308.895	-16.890	0.135	-0.084
-307.880	-64.350	-0.190	0.076
-306.866	236.708	-0.124	0.204
-305.851	-113.408	-0.252	-0.049
-304.837	199.025	-0.112	-0.170
-303.822	235.274	-0.093	-0.152
-302.807	-19.271	0.225	0.138
-301.793	371.649	-0.061	-0.122
-300.778	163.586	0.136	0.190
-299.764	800.000	0.032	0.102
-298.749	157.840	0.184	-0.251
-297.735	-114.060	0.242	-0.046
-296.720	-41.014	0.259	-0.132
-295.705	-116.973	0.290	-0.052
-294.691	-117.810	0.333	0.059
-293.676	800.000	-0.131	-0.461
-292.662	-200.000	-0.019	0.200
-291.647	121.524	0.167	-0.206
-290.632	-37.497	0.284	0.150
-289.618	-200.000	-0.018	0.285
-288.603	-200.000	0.015	0.103
-287.589	-81.124	0.190	0.062
-286.574	800.000	-0.052	0.182
-285.559	-99.915	0.186	-0.046
-284.545	800.000	0.075	0.311
-283.530	-57.962	-0.280	-0.121
-282.516	800.000	0.030	0.085
-281.501	-43.809	-0.129	-0.064
-280.486	-19.948	-0.118	0.072
-279.472	16.865	-0.214	0.167
-278.457	-78.979	0.017	-0.006
-277.443	208.659	0.142	-0.220
-276.428	41.876	-0.244	0.218
-275.413	598.943	-0.099	-0.242
-274.399	69.216	-0.254	0.258
-273.384	-200.000	-0.005	0.331
-272.370	-148.025	-0.323	0.026
-271.355	800.000	-0.057	-0.185
-270.340	-5.123	0.085	-0.057
-269.326	-200.000	0.016	-0.120
-268.311	-192.608	0.266	0.002
-267.297	24.483	0.101	0.083
-266.282	-46.618	-0.059	0.029
-265.267	276.083	0.162	0.284
-264.253	37.502	0.059	-0.051
-263.238	800.000	0.029	0.111
-262.224	140.651	-0.148	0.193
-261.209	373.895	0.062	0.125
-260.195	149.835	0.284	0.380
-259.180	-14.530	0.267	0.169
-258.165	-89.523	-0.078	0.023
-257.151	-200.000	0.039	0.318
-256.136	62.933	0.381	-0.376
-255.122	-36.819	0.361	0.191
-254.107	1.212	0.161	-0.114
-253.092	630.308	-0.103	-0.257
-252.078	44.612	-0.162	0.147
-251.063	-73.044	-0.367	0.133
-250.049	254.635	0.053	0.090
-249.034	-160.601	0.119	0.006
-248.019	-95.063	0.225	0.060
-247.005	-13.366	0.176	-0.113
-245.990	-112.923	-0.073	-0.014
-244.976	184.331	-0.107	-0.156
-243.961	76.700	0.118	0.124
-242.946	-200.000	-0.013	0.265
-241.932	225.867	0.192	-0.308
-240.917	-60.301	0.157	0.066
-239.903	-133.490	0.206	0.025
-238.888	102.666	-0.254	0.293
-237.873	791.607	0.043	-0.115
-236.859	612.470	0.075	0.185
-235.844	800.000	0.068	-0.226
-234.830	122.777	-0.052	-0.064
-233.815	800.000	-0.052	0.143
-232.800	149.638	-0.235	0.314
-231.786	-200.000	0.038	-0.193
-230.771	134.610	0.162	-0.208
-229.757	10.364	0.379	0.284
-228.742	800.000	-0.080	-0.306
-227.727	-36.220	0.224	-0.119
-226.713	141.483	-0.167	0.218
-225.698	102.275	-0.088	0.101
-224.684	474.646	-0.109	0.242
-223.669	-200.000	-0.002	0.120
-222.655	800.000	-0.091	-0.322
-221.640	391.204	-0.239	-0.489
-220.625	-102.583	-0.238	0.056
-219.611	311.507	-0.037	0.069
-218.596	-123.153	-0.072	0.011
-217.582	404.934	-0.125	0.259
-216.567	8.533	-0.125	-0.093
-215.552	800.000	0.092	-0.297
-214.538	708.884	0.041	-0.107
-213.523	-13.876	0.374	0.238
-212.509	-138.117	-0.402	-0.044
-211.494	800.000	0.056	0.233
-210.479	-176.734	-0.291	0.007
-209.465	8.542	-0.159	-0.118
-208.450	797.840	0.088	0.237
-207.436	-200.000	-0.012	0.091
-206.421	-81.181	0.118	0.038
-205.406	-200.000	0.106	0.000
-204.392	21.818	0.058	-0.046
-203.377	800.000	0.038	-0.127
-202.363	125.717	0.079	0.098
-201.348	-127.114	-0.549	-0.079
-200.333	-189.354	0.151	-0.002
-199.319	-148.964	0.399	0.032
-198.304	-81.551	0.298	-0.097
-197.290	-56.190	-0.312	-0.137
-196.275	215.215	0.092	0.144
-195.260	25.765	-0.230	0.188
-194.246	448.304	0.107	0.231
-193.231	260.979	0.090	0.154
-192.217	186.479	0.120	0.175
-191.202	33.442	-0.227	0.194
-190.187	332.712	0.249	-0.474
-189.173	-61.620	0.089	0.037
-188.158	6.195	0.311	0.227
-187.144	-114.946	-0.229	0.043
-186.129	64.056	-0.064	0.063
-185.114	-200.000	-0.005	0.129
-184.100	800.000	-0.041	0.122
-183.085	117.355	-0.089	0.108
-182.071	-98.669	-0.277	-0.070
-181.056	800.000	-0.124	0.342
-180.042	800.000	-0.057	0.186
-179.027	-4.839	-0.176	0.119
-178.012	-53.822	-0.115	-0.052
-176.998	261.246	-0.160	0.273
-175.983	-33.830	-0.183	0.099
-174.969	-130.196	-0.373	0.050
-173.954	243.707	0.148	-0.244
-172.939	253.788	0.108	-0.181
-171.925	-18.665	-0.233	-0.143
-170.910	1.111	0.238	-0.168
-169.896	72.672	0.158	0.162
-168.881	-42.390	0.065	-0.032
-167.866	331.039	0.076	-0.144
-166.852	-200.000	-0.003	-0.031
-165.837	-108.381	0.182	0.039
-164.823	-14.547	-0.258	0.163
-163.808	-188.172	0.417	0.005
-162.793	86.309	-0.017	-0.019
-161.779	203.922	-0.135	0.205
-160.764	-200.000	0.016	0.315
-159.750	-129.866	0.134	-0.018
-158.735	329.355	-0.122	0.231
-157.720	-200.000	-0.013	-0.058
-156.706	-200.000	0.003	0.304
-155.691	-157.685	-0.160	0.009
-154.677	91.353	0.061	0.067
-153.662	-114.747	0.072	0.014
-152.647	287.419	0.031	0.055
-151.633	566.043	0.082	0.195
-150.618	-200.000	0.040	-0.191
-149.604	-102.390	-0.161	-0.038
-148.589	800.000	0.076	-0.233
-147.574	297.753	0.234	-0.422
-146.560	77.318	-0.163	0.170
-145.545	-42.719	0.185	-0.093
-144.531	366.488	-0.064	0.127
-143.516	99.151	-0.054	0.062
-142.502	-40.236	-0.107	0.055
-141.487	286.164	-0.118	0.209
-140.472	-117.133	-0.462	0.083
-139.458	-200.000	0.020	0.321
-138.443	43.076	0.231	0.207
-137.429	32.838	-0.324	0.275
-136.414	-125.481	0.399	0.060
-135.399	142.624	0.091	0.119
-134.385	25.207	0.124	0.101
-133.370	157.986	0.252	0.343
-132.356	649.500	0.040	-0.102
-131.341	-200.000	-0.014	0.113
-130.326	-32.113	0.316	0.174
-129.312	-200.000	0.063	0.318
-128.297	-200.000	-0.080	-0.404
-127.283	72.742	-0.045	0.046
-126.268	800.000	-0.033	0.124
-125.253	800.000	-0.087	0.255
-124.239	-200.000	0.015	-0.420
-123.224	34.938	0.113	0.097
-122.210	7.110	-0.217	-0.159
