DTS Sentinel unit serial number:	SN413079Multiplexer serial number:	ORYXHardware model number:	OX4-SRSoftware version number:	ORYX F/W v4.00 Oryx Data Collector v3.7.2.0data status	okinstallation	princeton_trtdifferential loss correction	single-endedforward channel	channel 2reverse channel	N/Adate	2019/09/18time	16:39:35forward acquisition time	60.00reverse acquisition time	0.00gamma	496.2192k internal	0.2299k external	0.2299temperature offset calibration	1.0009default loss term (dB/km)	0.3790temperature slope calibration	1.0000multiplexer offset coefficient	1.0000multiplexer slope coefficient	1.0000fibre end	0.00T internal ref (°C)	39.64T ext. ref 1 (°C)	0.82T ext. ref 2 (°C)	36.71length (m)	temperature (°C)	Stokes	anti-Stokes-747.200	-2.434	-0.267	0.191
-746.185	-200.000	-0.015	0.449
-745.171	198.859	0.145	-0.227
-744.156	343.715	0.042	0.083
-743.142	800.000	-0.014	-0.055
-742.127	56.664	0.144	0.143
-741.112	-200.000	-0.025	-0.273
-740.098	800.000	-0.111	0.380
-739.083	800.000	-0.062	0.189
-738.069	-77.865	0.346	0.122
-737.054	74.407	-0.090	-0.096
-736.039	-61.127	-0.257	-0.111
-735.025	129.005	0.103	-0.135
-734.010	-40.391	0.365	-0.193
-732.996	-200.000	-0.012	-0.383
-731.981	251.737	0.121	0.210
-730.966	-115.115	-0.431	0.083
-729.952	800.000	-0.044	0.144
-728.937	-165.397	-0.111	-0.005
-727.923	-127.056	0.412	0.062
-726.908	159.471	0.040	-0.057
-725.894	-104.752	-0.307	-0.072
-724.879	278.589	0.202	0.368
-723.864	-200.000	-0.040	0.201
-722.850	-200.000	-0.037	0.194
-721.835	-145.229	-0.046	-0.004
-720.821	-200.000	-0.030	0.245
-719.806	71.341	0.140	-0.148
-718.791	231.064	0.174	-0.291
-717.777	73.335	-0.153	-0.163
-716.762	-87.792	-0.149	0.046
-715.748	-200.000	-0.019	0.263
-714.733	-200.000	-0.021	0.192
-713.718	-50.868	0.108	0.052
-712.704	-200.000	-0.021	-0.428
-711.689	23.576	0.039	0.033
-710.675	-132.744	-0.372	0.048
-709.660	153.987	-0.203	-0.284
-708.645	-116.424	0.183	-0.034
-707.631	-145.994	-0.257	0.023
-706.616	281.648	0.122	-0.223
-705.602	12.883	0.208	0.164
-704.587	141.263	0.074	-0.099
-703.572	-115.021	0.015	0.003
-702.558	4.097	-0.223	0.166
-701.543	52.869	0.095	-0.093
-700.529	-43.417	0.364	-0.187
-699.514	202.311	-0.145	-0.229
-698.499	678.816	0.048	-0.127
-697.485	-74.211	-0.206	0.076
-696.470	-200.000	-0.018	-0.190
-695.456	95.492	0.045	-0.053
-694.441	-148.061	0.122	0.010
-693.426	11.198	-0.114	0.089
-692.412	33.267	-0.207	-0.183
-691.397	286.534	-0.210	-0.386
-690.383	-120.698	-0.307	0.053
-689.368	800.000	-0.078	0.309
-688.354	235.147	-0.181	0.305
-687.339	800.000	0.053	0.219
-686.324	-45.839	-0.108	-0.054
-685.310	-51.823	0.257	0.122
-684.295	-200.000	-0.011	-0.093
-683.281	-200.000	-0.006	0.085
-682.266	167.681	0.154	-0.223
-681.251	-121.551	-0.181	-0.031
-680.237	-144.864	0.403	0.038
-679.222	-81.792	-0.105	0.035
-678.208	-81.388	0.120	-0.040
-677.193	800.000	0.016	-0.051
-676.178	-200.000	-0.019	0.119
-675.164	32.700	-0.092	-0.081
-674.149	19.583	-0.305	0.249
-673.135	-200.000	-0.006	-0.063
-672.120	-24.757	0.295	0.178
-671.105	138.195	-0.181	-0.241
-670.091	61.055	-0.158	-0.160
-669.076	674.676	-0.086	-0.227
-668.062	291.100	-0.160	0.296
-667.047	-200.000	0.016	0.468
-666.032	-89.985	-0.200	0.059
-665.018	215.914	-0.094	0.152
-664.003	-156.578	-0.231	-0.015
-662.989	-200.000	0.026	-0.123
-661.974	112.435	0.202	-0.249
-660.959	-200.000	0.039	0.180
-659.945	-200.000	-0.049	0.233
-658.930	800.000	-0.060	-0.217
-657.916	237.458	0.170	-0.286
-656.901	-177.231	-0.203	-0.005
-655.886	389.418	-0.156	0.328
-654.872	100.101	-0.052	-0.061
-653.857	-99.572	0.062	-0.016
-652.843	-7.770	0.238	0.164
-651.828	-138.064	-0.140	0.016
-650.814	66.397	0.225	0.233
-649.799	-37.228	0.165	0.090
-648.784	-30.168	0.034	-0.020
-647.770	71.513	-0.191	-0.202
-646.755	95.916	0.216	-0.251
-645.741	-121.540	0.536	0.090
-644.726	4.668	-0.188	-0.141
-643.711	340.909	0.068	0.135
-642.697	435.109	0.153	0.339
-641.682	58.565	0.250	-0.250
-640.668	61.299	-0.042	-0.042
-639.653	-80.067	-0.359	0.122
-638.638	-37.194	-0.258	0.140
-637.624	11.000	0.157	-0.122
-636.609	-200.000	-0.035	-0.353
-635.595	-200.000	0.001	0.259
-634.580	-11.543	-0.171	0.114
-633.565	218.781	-0.148	-0.240
-632.551	-127.388	-0.240	-0.036
-631.536	-200.000	0.027	0.282
-630.522	-200.000	0.032	0.192
-629.507	800.000	-0.099	-0.312
-628.492	-169.073	0.107	0.004
-627.478	-200.000	0.019	-0.137
-626.463	348.044	-0.126	0.253
-625.449	-200.000	0.013	-0.076
-624.434	-61.647	-0.177	-0.075
-623.419	-49.300	0.274	0.133
-622.405	-123.042	-0.145	0.024
-621.390	-200.000	0.026	-0.198
-620.376	101.152	-0.187	0.221
-619.361	5.958	-0.086	0.065
-618.346	149.097	0.115	-0.158
-617.332	554.047	-0.143	-0.348
-616.317	-26.413	0.217	0.129
-615.303	-26.300	0.172	0.103
-614.288	422.343	-0.139	0.304
-613.273	-146.406	-0.186	-0.017
-612.259	-101.714	0.102	-0.025
-611.244	-174.049	0.231	-0.007
-610.230	-166.620	-0.198	0.008
-609.215	-37.492	0.161	0.087
-608.201	-200.000	-0.039	-0.332
-607.186	-200.000	0.047	-0.249
-606.171	435.828	0.126	-0.278
-605.157	266.387	0.127	0.225
-604.142	-200.000	-0.029	0.166
-603.128	-131.277	-0.600	0.081
-602.113	43.845	-0.118	0.110
-601.098	29.107	-0.107	-0.092
-600.084	128.518	0.163	0.210
-599.069	-117.378	0.076	0.014
-598.055	148.417	-0.141	-0.193
-597.040	-39.366	-0.381	0.203
-596.025	4.618	-0.192	-0.143
-595.011	289.012	-0.069	0.126
-593.996	-23.638	0.119	-0.072
-592.982	128.482	-0.014	-0.018
-591.967	162.237	-0.058	0.082
-590.952	-84.608	-0.196	0.063
-589.938	110.831	-0.071	0.087
-588.923	-144.532	0.124	0.012
-587.909	265.754	-0.104	0.185
-586.894	-83.143	-0.325	-0.106
-585.879	708.262	-0.055	0.147
-584.865	-200.000	-0.006	0.078
-583.850	-87.672	-0.176	-0.054
-582.836	82.044	0.351	-0.386
-581.821	-164.970	-0.461	-0.021
-580.806	-3.785	0.062	-0.043
-579.792	-143.650	0.477	-0.046
-578.777	155.838	-0.084	-0.117
-577.763	-51.276	0.288	-0.137
-576.748	800.000	-0.016	0.049
-575.733	800.000	0.019	-0.067
-574.719	-71.106	0.112	-0.043
-573.704	149.618	0.184	-0.253
-572.690	-108.691	0.248	0.054
-571.675	-114.250	0.334	0.065
-570.661	-200.000	0.006	-0.069
-569.646	-97.613	0.393	0.103
-568.631	-117.849	-0.148	0.027
-567.617	-131.756	0.331	-0.044
-566.602	51.148	0.199	-0.191
-565.588	199.616	-0.190	0.296
-564.573	64.530	-0.083	0.085
-563.558	800.000	-0.071	0.254
-562.544	149.047	0.066	0.091
-561.529	53.428	-0.281	-0.273
-560.515	106.575	0.102	0.123
-559.500	16.406	-0.051	0.041
-558.485	144.070	0.234	0.317
-557.471	-71.961	0.122	0.046
-556.456	-105.384	-0.137	-0.032
-555.442	18.253	-0.062	0.050
-554.427	125.123	-0.192	0.245
-553.412	490.545	0.023	-0.053
-552.398	97.726	-0.065	0.076
-551.383	53.697	-0.114	0.111
-550.369	28.086	-0.308	-0.263
-549.354	100.309	0.166	0.195
-548.339	36.516	-0.166	-0.149
-547.325	-200.000	0.026	-0.267
-546.310	73.220	-0.155	-0.164
-545.296	-82.731	-0.171	-0.056
-544.281	-96.570	0.279	0.075
-543.266	-73.544	0.067	-0.025
-542.252	96.072	0.183	0.211
-541.237	-200.000	-0.015	0.241
-540.223	800.000	0.085	0.364
-539.208	-200.000	-0.002	0.199
-538.193	-188.605	0.064	-0.001
-537.179	-126.711	-0.343	0.051
-536.164	740.490	-0.106	0.288
-535.150	-155.049	-0.169	-0.011
-534.135	-3.227	-0.150	-0.106
-533.121	-200.000	-0.001	-0.075
-532.106	-32.581	0.202	-0.114
-531.091	-171.648	0.171	-0.006
-530.077	-200.000	-0.037	-0.274
-529.062	-20.693	0.033	-0.021
-528.048	800.000	0.037	-0.113
-527.033	-200.000	0.045	-0.314
-526.018	800.000	0.067	-0.260
-525.004	800.000	-0.061	0.208
-523.989	800.000	-0.035	-0.101
-522.975	101.754	-0.107	-0.126
-521.960	474.618	-0.100	-0.229
-520.945	246.685	-0.183	-0.313
-519.931	509.060	-0.089	-0.209
-518.916	60.745	-0.145	0.146
-517.902	-167.565	0.179	0.007
-516.887	-175.300	-0.199	0.006
-515.872	-101.087	-0.203	-0.050
-514.858	-200.000	-0.097	-0.447
-513.843	-12.616	-0.080	-0.053
-512.829	90.274	0.148	0.168
-511.814	638.360	0.066	0.170
-510.799	160.255	-0.294	0.414
-509.785	-49.788	0.174	0.084
-508.770	452.262	0.096	-0.214
-507.756	14.299	-0.293	-0.231
-506.741	800.000	-0.048	-0.177
-505.726	149.214	0.151	-0.206
-504.712	79.421	-0.063	0.068
-503.697	-87.223	0.134	-0.041
-502.683	192.089	-0.123	0.187
-501.668	8.501	0.122	0.093
-500.653	800.000	-0.047	0.165
-499.639	800.000	-0.074	0.210
-498.624	-15.672	-0.046	0.029
-497.610	800.000	-0.080	0.259
-496.595	-121.125	0.164	-0.028
-495.581	183.594	-0.072	0.108
-494.566	-88.374	-0.036	-0.011
-493.551	141.923	-0.162	-0.217
-492.537	-16.093	0.169	0.109
-491.522	-163.482	0.237	0.011
-490.508	499.950	0.079	-0.184
-489.493	37.578	0.233	-0.209
-488.478	-117.197	0.396	-0.073
-487.464	631.255	0.017	-0.044
-486.449	-123.235	0.199	-0.032
-485.435	-27.078	-0.074	0.043
-484.420	142.368	0.047	-0.063
-483.405	1.457	0.229	0.166
-482.391	-50.838	0.104	0.050
-481.376	-165.154	0.121	-0.005
-480.362	383.864	0.039	0.082
-479.347	-7.254	-0.195	0.133
-478.332	145.316	-0.090	-0.122
-477.318	800.000	0.075	-0.288
-476.303	0.258	0.078	0.056
-475.289	-200.000	0.036	0.312
-474.274	397.786	0.033	0.070
-473.259	-148.978	0.363	-0.030
-472.245	389.134	0.022	-0.045
-471.230	484.106	0.037	0.085
-470.216	357.039	-0.047	-0.094
-469.201	-194.960	-0.198	-0.002
-468.186	-170.959	0.140	-0.005
-467.172	645.332	-0.027	-0.070
-466.157	155.164	0.198	-0.275
-465.143	-53.074	-0.166	-0.077
-464.128	-82.069	0.094	-0.031
-463.113	-38.755	-0.237	0.126
-462.099	92.044	-0.077	0.087
-461.084	65.902	0.117	0.120
-460.070	-200.000	0.108	0.571
-459.055	67.888	-0.199	0.206
-458.040	800.000	0.051	-0.144
-457.026	322.160	-0.067	0.129
-456.011	-61.457	0.221	-0.094
-454.997	-35.722	-0.149	-0.081
-453.982	-200.000	-0.088	0.494
-452.968	800.000	0.093	0.302
-451.953	393.700	0.068	0.143
-450.938	-12.742	-0.543	0.357
-449.924	-200.000	-0.002	-0.127
-448.909	43.632	-0.170	-0.156
-447.895	-58.777	-0.333	0.146
-446.880	-150.747	-0.168	0.013
-445.865	-200.000	0.061	-0.401
-444.851	-141.618	-0.126	0.013
-443.836	-200.000	0.024	0.186
-442.822	183.551	0.165	0.246
-441.807	635.995	-0.110	0.281
-440.792	-200.000	0.017	0.604
-439.778	800.000	-0.141	-0.457
-438.763	-113.617	-0.125	-0.025
-437.749	205.738	0.231	-0.361
-436.734	68.437	0.356	0.368
-435.719	-105.120	-0.357	0.082
-434.705	-78.886	-0.325	0.112
-433.690	-136.816	0.282	0.033
-432.676	800.000	-0.009	-0.028
-431.661	161.049	-0.088	0.124
-430.646	-137.052	-0.186	-0.021
-429.632	602.830	0.115	0.289
-428.617	-200.000	0.011	0.239
-427.603	349.025	0.203	0.404
-426.588	394.810	0.066	0.139
-425.573	30.355	-0.071	-0.061
-424.559	-129.643	0.268	0.037
-423.544	-1.191	-0.326	-0.232
-422.530	-121.863	0.143	-0.024
-421.515	-36.451	0.124	-0.067
-420.500	-97.546	0.307	0.080
-419.486	98.561	0.275	-0.320
-418.471	-99.907	-0.275	-0.069
-417.457	60.674	0.142	-0.142
-416.442	32.603	-0.229	0.199
-415.428	2.489	-0.043	0.031
-414.413	-41.699	-0.103	-0.053
-413.398	-65.366	-0.106	0.043
-412.384	123.814	-0.134	0.169
-411.369	122.363	-0.179	-0.226
-410.355	-200.000	0.041	-0.192
-409.340	202.804	-0.139	0.216
-408.325	442.398	-0.077	0.169
-407.311	195.338	0.097	0.149
-406.296	-190.430	0.127	-0.001
-405.282	-111.309	-0.344	-0.071
-404.267	350.215	-0.062	-0.123
-403.252	-179.798	-0.263	0.006
-402.238	-94.761	-0.373	0.102
-401.223	-154.639	-0.032	0.002
-400.209	-200.000	-0.083	0.471
-399.194	-200.000	0.143	-0.000
-398.179	7.238	-0.209	0.157
-397.165	-103.514	0.274	-0.065
-396.150	-30.186	-0.107	0.061
-395.136	-200.000	-0.046	0.216
-394.121	46.375	-0.167	0.156
-393.106	-75.489	0.152	-0.055
-392.092	-200.000	-0.007	-0.401
-391.077	336.321	-0.178	-0.349
-390.063	164.510	0.082	-0.117
-389.048	267.678	0.158	-0.278
-388.033	-147.217	0.333	0.029
-387.019	-90.445	0.307	0.089
-386.004	333.658	0.116	-0.226
-384.990	-200.000	-0.003	-0.135
-383.975	133.401	-0.237	0.308
-382.960	-54.234	0.042	0.019
-381.946	-7.652	-0.205	0.139
-380.931	510.519	-0.147	-0.345
-379.917	-100.584	-0.206	0.051
-378.902	800.000	0.107	0.334
-377.888	364.038	0.070	-0.142
-376.873	800.000	0.022	-0.093
-375.858	150.360	-0.163	0.223
-374.844	139.904	0.042	0.055
-373.829	-78.759	-0.233	-0.080
-372.815	13.381	-0.072	-0.056
-371.800	164.241	-0.137	0.193
-370.785	178.382	-0.152	-0.223
-369.771	-200.000	-0.005	-0.237
-368.756	-200.000	0.038	-0.544
-367.742	-7.632	0.235	0.160
-366.727	-133.751	0.210	-0.026
-365.712	-20.683	-0.178	-0.110
-364.698	-97.884	-0.083	-0.022
-363.683	-121.242	0.290	0.049
-362.669	800.000	-0.029	-0.084
-361.654	103.006	-0.311	-0.366
-360.639	-132.614	0.238	-0.031
-359.625	-86.745	-0.224	-0.069
-358.610	235.176	0.067	-0.111
-357.596	-200.000	0.044	-0.279
-356.581	-81.110	-0.051	-0.017
-355.566	29.970	-0.242	0.208
-354.552	-136.258	0.122	-0.014
-353.537	-129.117	0.262	-0.037
-352.523	-200.000	-0.003	0.047
-351.508	-100.189	-0.084	-0.021
-350.493	-34.580	0.180	0.099
-349.479	-77.562	0.404	-0.141
-348.464	83.914	0.079	-0.086
-347.450	41.851	0.270	-0.246
-346.435	-200.000	-0.066	-0.468
-345.420	394.953	-0.107	-0.224
-344.406	-49.831	0.241	0.115
-343.391	11.070	0.121	-0.093
-342.377	-48.987	-0.182	-0.088
-341.362	-48.294	0.074	-0.036
-340.348	-122.717	-0.247	-0.040
-339.333	800.000	0.084	0.232
-338.318	-89.396	-0.086	0.025
-337.304	-200.000	-0.010	0.142
-336.289	-66.759	-0.195	-0.077
-335.275	-44.259	0.324	0.163
-334.260	782.196	0.150	-0.413
-333.245	-95.949	-0.409	-0.109
-332.231	78.103	-0.120	-0.129
-331.216	-48.505	0.290	0.140
-330.202	300.575	-0.116	0.214
-329.187	711.006	-0.065	0.172
-328.172	800.000	-0.034	0.104
-327.158	-156.269	0.227	0.014
-326.143	591.682	0.075	0.185
-325.129	141.440	0.122	-0.162
-324.114	-134.854	0.104	0.013
-323.099	345.932	-0.026	0.052
-322.085	95.153	0.057	-0.066
-321.070	-200.000	0.025	-0.278
-320.056	-173.338	0.193	-0.006
-319.041	-200.000	-0.026	-0.275
-318.026	800.000	0.111	-0.381
-317.012	33.914	-0.160	-0.140
-315.997	693.939	-0.112	0.294
-314.983	-147.931	0.425	0.036
-313.968	-200.000	0.046	-0.279
-312.953	369.248	-0.034	-0.069
-311.939	-200.000	0.023	0.154
-310.924	-200.000	0.016	0.123
-309.910	-114.326	0.137	-0.026
-308.895	394.231	-0.061	-0.128
-307.880	-69.757	-0.066	-0.025
-306.866	-200.000	-0.043	-0.205
-305.851	-112.571	0.103	0.021
-304.837	-23.315	-0.222	-0.134
-303.822	275.221	-0.219	0.389
-302.807	-139.007	0.240	0.026
-301.793	115.196	0.120	-0.147
-300.778	800.000	-0.034	0.137
-299.764	-126.981	0.045	0.007
-298.749	-169.430	-0.301	0.011
-297.735	7.749	-0.354	0.266
-296.720	800.000	0.095	-0.385
-295.705	800.000	0.026	-0.091
-294.691	800.000	0.045	0.160
-293.676	-164.921	-0.302	0.014
-292.662	-43.431	-0.268	0.136
-291.647	-31.692	-0.306	0.172
-290.632	24.502	0.251	0.208
-289.618	-200.000	0.049	0.227
-288.603	-200.000	0.021	0.169
-287.589	-200.000	-0.034	0.225
-286.574	-200.000	0.034	0.301
-285.559	-52.003	0.077	0.036
-284.545	666.186	-0.081	-0.209
-283.530	-83.073	0.265	0.085
-282.516	-45.352	0.211	0.105
-281.501	261.256	-0.138	-0.240
-280.486	-187.240	-0.181	0.002
-279.472	160.746	0.225	0.314
-278.457	-36.262	-0.111	0.060
-277.443	61.096	0.158	-0.157
-276.428	-73.959	0.154	-0.056
-275.413	-42.538	-0.170	0.087
-274.399	-200.000	0.038	0.442
-273.384	-54.772	0.193	-0.087
-272.370	160.902	0.032	0.045
-271.355	67.246	-0.197	0.201
-270.340	28.579	-0.419	0.355
-269.326	-117.987	0.087	-0.016
-268.311	800.000	0.074	0.279
-267.297	74.372	-0.024	0.026
-266.282	107.160	-0.167	0.198
-265.267	-189.398	0.119	0.001
-264.253	-124.637	0.234	0.036
-263.238	753.122	-0.112	0.302
-262.224	-33.615	-0.066	-0.037
-261.209	275.734	0.059	-0.105
-260.195	97.402	0.244	0.280
-259.180	-112.245	0.135	0.027
-258.165	85.831	-0.067	-0.074
-257.151	-200.000	-0.020	-0.108
-256.136	-200.000	0.021	-0.200
-255.122	246.450	-0.035	0.060
-254.107	387.836	0.061	0.127
-253.092	12.589	-0.111	0.086
-252.078	724.484	-0.033	0.088
-251.063	-153.373	-0.414	0.029
-250.049	-152.777	-0.284	-0.020
-249.034	114.544	0.179	0.219
-248.019	299.588	-0.044	-0.081
-247.005	-151.729	0.160	0.012
-245.990	370.091	0.077	0.155
-244.976	-25.435	-0.102	-0.061
-243.961	-81.141	0.119	-0.039
-242.946	74.206	-0.412	-0.433
-241.932	192.819	0.129	-0.195
-240.917	-25.720	0.174	0.103
-239.903	-74.420	0.254	-0.092
-238.888	-139.112	0.360	-0.039
-237.873	487.727	-0.033	-0.076
-236.859	453.036	-0.054	-0.120
-235.844	-165.568	0.226	-0.010
-234.830	468.343	-0.085	0.190
-233.815	166.097	-0.084	-0.119
-232.800	-131.468	-0.148	-0.020
-231.786	-200.000	0.007	-0.256
-230.771	-93.512	-0.122	0.034
-229.757	457.378	0.136	-0.301
-228.742	-200.000	0.021	-0.099
-227.727	-66.852	-0.059	0.023
-226.713	-92.807	-0.188	0.053
-225.698	-200.000	-0.008	-0.087
-224.684	800.000	0.125	0.355
-223.669	-128.810	-0.367	-0.052
-222.655	-82.928	-0.124	-0.040
-221.640	-200.000	-0.023	0.216
-220.625	150.183	0.178	0.241
-219.611	-200.000	-0.033	-0.317
-218.596	800.000	-0.039	-0.145
-217.582	51.408	0.316	-0.300
-216.567	115.450	0.174	0.213
-215.552	-126.299	0.518	-0.077
-214.538	-55.795	0.121	-0.054
-213.523	-200.000	0.004	0.032
-212.509	800.000	-0.131	-0.496
-211.494	263.456	-0.046	-0.080
-210.479	-29.211	0.225	0.129
-209.465	-200.000	0.017	0.316
-208.450	103.047	-0.110	-0.129
-207.436	-93.272	-0.079	-0.022
-206.421	-139.615	0.157	-0.017
-205.406	551.866	0.048	-0.116
-204.392	55.297	0.091	0.088
-203.377	0.639	0.060	0.043
-202.363	56.179	0.158	0.153
-201.348	583.472	-0.129	-0.317
-200.333	107.946	-0.030	-0.036
-199.319	-137.890	0.273	-0.030
-198.304	-71.253	-0.158	0.059
-197.290	554.054	0.121	-0.290
-196.275	80.627	-0.155	-0.167
-195.260	-11.731	0.295	-0.193
-194.246	166.604	0.090	0.127
-193.231	-115.074	-0.180	0.034
-192.217	-59.855	0.374	0.160
-191.202	-200.000	0.036	-0.275
-190.187	-21.403	0.096	-0.058
-189.173	-16.374	0.197	0.125
-188.158	800.000	-0.068	0.283
-187.144	236.395	0.039	0.064
-186.129	-134.143	0.075	-0.009
-185.114	-200.000	0.053	0.297
-184.100	-112.783	0.133	-0.026
-183.085	67.377	0.106	0.108
-182.071	-29.206	0.140	0.080
-181.056	-69.892	-0.136	-0.052
-180.042	-200.000	-0.019	-0.124
-179.027	-4.476	0.168	-0.116
-178.012	121.036	-0.189	-0.235
-176.998	-49.029	0.210	0.100
-175.983	-70.124	-0.201	-0.076
-174.969	800.000	-0.082	-0.235
-173.954	-200.000	-0.003	0.108
-172.939	70.702	-0.289	-0.299
-171.925	716.294	-0.123	0.327
-170.910	42.439	0.378	-0.343
-169.896	-21.233	-0.187	-0.114
-168.881	-16.214	-0.120	-0.076
-167.866	-61.278	-0.303	0.127
-166.852	-77.795	-0.263	-0.091
-165.837	-200.000	-0.024	-0.248
-164.823	140.615	0.063	0.083
-163.808	800.000	0.037	0.127
-162.793	-121.551	0.190	0.032
-161.779	-83.459	-0.146	-0.047
-160.764	-110.674	0.027	-0.006
-159.750	-200.000	0.012	0.119
-158.735	23.956	-0.126	-0.103
-157.720	800.000	-0.007	0.026
-156.706	-102.179	-0.202	-0.048
-155.691	-53.698	0.140	-0.064
-154.677	181.338	-0.100	-0.146
-153.662	140.527	0.146	-0.193
-152.647	-38.529	0.047	0.025
-151.633	-129.321	0.240	0.033
-150.618	259.025	-0.164	-0.282
-149.604	-200.000	0.099	0.511
-148.589	-200.000	-0.317	0.001
-147.574	-72.723	-0.169	0.062
-146.560	-50.315	-0.090	-0.042
-145.545	203.437	0.092	-0.141
-144.531	-200.000	0.011	0.342
-143.516	-179.131	0.157	-0.004
-142.502	-200.000	-0.058	-0.292
-141.487	447.337	0.055	-0.122
-140.472	-200.000	0.067	0.322
-139.458	-58.285	-0.393	0.171
-138.443	-183.994	-0.254	0.004
-137.429	-135.561	-0.291	0.034
-136.414	-200.000	-0.008	-0.210
-135.399	-45.510	-0.012	0.006
-134.385	172.861	0.150	0.215
-133.370	-59.247	-0.034	-0.015
-132.356	-45.666	-0.072	-0.035
-131.341	66.365	0.284	0.287
-130.326	35.612	0.132	-0.115
-129.312	-75.996	0.268	-0.094
-128.297	468.579	-0.056	0.126
-127.283	62.758	-0.165	-0.164
-126.268	460.391	-0.114	-0.253
-125.253	-40.345	0.058	-0.030
-124.239	-200.000	-0.045	0.198
-123.224	-200.000	0.016	-0.095
-122.210	75.692	0.229	0.241
