DTS Sentinel unit serial number:	SN413079Multiplexer serial number:	ORYXHardware model number:	OX4-SRSoftware version number:	ORYX F/W v4.00 Oryx Data Collector v3.7.2.0data status	okinstallation	princeton_trtdifferential loss correction	single-endedforward channel	channel 2reverse channel	N/Adate	2019/09/16time	06:47:35forward acquisition time	60.00reverse acquisition time	0.00gamma	496.2192k internal	0.2334k external	0.2334temperature offset calibration	0.9980default loss term (dB/km)	0.3790temperature slope calibration	1.0000multiplexer offset coefficient	1.0000multiplexer slope coefficient	1.0000fibre end	0.00T internal ref (°C)	27.37T ext. ref 1 (°C)	11.44T ext. ref 2 (°C)	21.86length (m)	temperature (°C)	Stokes	anti-Stokes-747.200	-38.571	-0.189	0.100
-746.185	291.119	-0.292	0.533
-745.171	372.452	0.092	0.189
-744.156	83.236	0.175	0.191
-743.142	52.768	-0.040	-0.038
-742.127	-57.827	-0.111	0.049
-741.112	10.355	-0.061	0.047
-740.098	657.636	-0.174	0.451
-739.083	613.217	-0.076	0.190
-738.069	683.311	0.036	-0.095
-737.054	71.891	0.090	-0.094
-736.039	-200.000	0.017	-0.222
-735.025	-127.298	0.240	-0.035
-734.010	-35.169	0.123	-0.067
-732.996	-13.255	-0.230	0.150
-731.981	382.931	-0.079	-0.163
-730.966	-111.698	-0.328	-0.067
-729.952	-36.060	0.038	0.021
-728.937	-112.497	-0.223	-0.045
-727.923	-24.687	0.066	-0.039
-726.908	-33.315	0.142	-0.079
-725.894	-200.000	-0.030	0.145
-724.879	-200.000	0.009	-0.233
-723.864	-2.971	0.082	0.057
-722.850	-45.392	-0.258	0.129
-721.835	-42.974	-0.047	0.024
-720.821	43.236	0.229	-0.210
-719.806	-51.768	-0.362	-0.169
-718.791	24.382	0.168	-0.140
-717.777	-138.294	-0.115	0.013
-716.762	800.000	0.090	-0.296
-715.748	238.205	-0.052	0.087
-714.733	800.000	-0.058	0.183
-713.718	-56.139	-0.190	0.085
-712.704	-200.000	-0.070	-0.546
-711.689	-91.071	0.344	-0.099
-710.675	56.974	-0.038	-0.037
-709.660	89.722	-0.167	0.187
-708.645	60.910	-0.086	-0.086
-707.631	120.081	0.073	-0.090
-706.616	-200.000	0.040	0.389
-705.602	-123.178	0.154	0.025
-704.587	-2.122	-0.215	0.151
-703.572	5.780	-0.057	-0.042
-702.558	800.000	0.145	-0.413
-701.543	338.633	0.099	-0.193
-700.529	265.721	0.054	0.095
-699.514	800.000	0.030	0.128
-698.499	-200.000	-0.027	-0.234
-697.485	-132.864	0.014	0.002
-696.470	-23.443	-0.225	0.136
-695.456	800.000	-0.046	-0.153
-694.441	-82.622	0.273	-0.089
-693.426	-184.536	-0.101	0.002
-692.412	-52.837	-0.250	0.116
-691.397	-70.184	0.262	-0.100
-690.383	2.643	-0.280	0.203
-689.368	-152.243	-0.411	0.030
-688.354	-87.176	0.151	0.046
-687.339	351.505	-0.181	0.359
-686.324	703.559	-0.156	0.412
-685.310	-101.737	-0.449	-0.109
-684.295	-200.000	-0.018	-0.110
-683.281	53.936	-0.212	-0.204
-682.266	-200.000	-0.072	0.347
-681.251	57.314	0.194	-0.190
-680.237	112.067	0.103	-0.125
-679.222	530.581	-0.089	-0.211
-678.208	514.948	0.068	-0.160
-677.193	-200.000	0.020	-0.167
-676.178	-200.000	0.045	-0.437
-675.164	306.251	-0.027	0.051
-674.149	221.386	0.342	0.551
-673.135	155.784	-0.060	0.083
-672.120	106.003	-0.333	-0.394
-671.105	346.205	0.131	0.258
-670.091	197.328	-0.041	0.063
-669.076	-200.000	-0.006	0.104
-668.062	-129.378	0.243	0.034
-667.047	-145.845	-0.183	-0.016
-666.032	800.000	-0.029	-0.101
-665.018	-200.000	0.009	-0.268
-664.003	1.798	0.202	-0.146
-662.989	-25.397	-0.135	0.080
-661.974	-200.000	0.007	-0.361
-660.959	-135.414	-0.202	0.024
-659.945	-147.700	-0.146	-0.012
-658.930	800.000	-0.068	0.221
-657.916	67.614	-0.170	-0.174
-656.901	769.101	-0.074	0.202
-655.886	-200.000	-0.015	-0.077
-654.872	-200.000	0.017	-0.083
-653.857	124.276	-0.066	0.083
-652.843	304.515	0.091	-0.170
-651.828	-41.947	-0.217	0.111
-650.814	131.817	0.111	-0.143
-649.799	800.000	0.044	-0.170
-648.784	437.987	-0.181	0.396
-647.770	-103.145	-0.098	0.023
-646.755	-78.272	-0.251	0.086
-645.741	-13.604	-0.165	0.107
-644.726	-36.618	0.343	-0.185
-643.711	289.898	0.189	-0.344
-642.697	661.864	0.059	-0.151
-641.682	-200.000	0.026	0.182
-640.668	22.989	0.173	0.142
-639.653	175.604	0.211	-0.306
-638.638	-200.000	-0.008	0.054
-637.624	-126.394	0.209	0.031
-636.609	422.748	-0.071	0.152
-635.595	129.686	0.139	0.178
-634.580	-86.642	-0.133	0.041
-633.565	-200.000	0.068	-0.367
-632.551	-64.685	0.133	0.054
-631.536	-200.000	0.046	-0.281
-630.522	-200.000	0.039	-0.364
-629.507	91.479	-0.165	-0.186
-628.492	669.196	-0.151	-0.391
-627.478	-65.169	0.124	0.050
-626.463	680.520	-0.066	0.171
-625.449	430.010	0.117	-0.254
-624.434	-8.523	-0.075	0.050
-623.419	-200.000	-0.025	0.330
-622.405	-21.267	-0.123	0.075
-621.390	-37.193	0.175	0.094
-620.376	-106.282	0.083	-0.019
-619.361	800.000	-0.076	0.250
-618.346	800.000	-0.157	0.471
-617.332	72.187	0.031	0.032
-616.317	-171.780	-0.312	-0.010
-615.303	-200.000	-0.032	-0.175
-614.288	-36.075	0.234	-0.127
-613.273	-38.881	-0.407	-0.215
-612.259	-200.000	0.003	0.082
-611.244	-38.452	0.183	-0.097
-610.230	800.000	-0.092	0.360
-609.215	-135.510	-0.243	0.029
-608.201	-12.431	-0.412	-0.269
-607.186	-26.838	0.174	-0.101
-606.171	-23.328	0.037	0.022
-605.157	-200.000	-0.068	-0.365
-604.142	-67.655	0.105	-0.041
-603.128	-35.412	0.294	-0.160
-602.113	242.669	0.119	-0.199
-601.098	-200.000	0.032	0.334
-600.084	302.267	-0.154	0.284
-599.069	160.303	-0.216	-0.301
-598.055	625.704	-0.117	-0.296
-597.040	458.134	0.136	0.302
-596.025	-200.000	-0.003	-0.193
-595.011	325.065	0.076	0.145
-593.996	153.135	-0.096	0.132
-592.982	-200.000	0.003	0.016
-591.967	46.193	-0.030	0.028
-590.952	-15.114	0.123	-0.078
-589.938	-111.882	0.251	-0.051
-588.923	-200.000	0.018	-0.092
-587.909	-125.581	0.158	0.024
-586.894	-76.683	-0.207	0.072
-585.879	-102.817	0.144	0.034
-584.865	257.103	-0.047	-0.081
-583.850	-132.407	0.065	0.008
-582.836	800.000	0.061	-0.246
-581.821	-200.000	-0.003	0.113
-580.806	-55.116	-0.438	-0.197
-579.792	-200.000	0.029	-0.300
-578.777	-44.478	0.188	0.094
-577.763	63.066	-0.080	-0.080
-576.748	-101.554	-0.257	0.062
-575.733	191.337	-0.123	-0.185
-574.719	2.539	-0.172	-0.125
-573.704	268.266	-0.140	0.244
-572.690	-100.695	0.057	0.014
-571.675	-10.513	0.134	0.089
-570.661	-39.818	0.362	0.189
-569.646	281.826	-0.158	0.282
-568.631	-200.000	-0.022	0.231
-567.617	478.558	0.056	-0.126
-566.602	-200.000	0.045	0.282
-565.588	649.812	-0.088	-0.224
-564.573	81.810	-0.055	0.059
-563.558	800.000	-0.077	0.281
-562.544	-57.087	0.402	0.177
-561.529	21.996	0.286	-0.233
-560.515	-108.249	-0.387	0.084
-559.500	-57.787	0.123	-0.054
-558.485	-180.582	0.215	-0.004
-557.471	-129.506	0.248	-0.034
-556.456	-200.000	0.039	0.178
-555.442	521.391	-0.033	-0.077
-554.427	-200.000	0.019	-0.255
-553.412	-72.918	-0.215	0.079
-552.398	30.115	0.116	-0.099
-551.383	-200.000	0.014	-0.374
-550.369	37.939	-0.247	-0.219
-549.354	-200.000	-0.006	-0.093
-548.339	143.747	-0.195	-0.260
-547.325	741.136	-0.101	0.270
-546.310	33.936	-0.017	0.015
-545.296	-117.661	-0.042	0.008
-544.281	-146.057	-0.233	0.021
-543.266	-0.930	0.125	0.088
-542.252	-128.532	-0.147	-0.021
-541.237	-133.965	0.275	0.034
-540.223	-200.000	-0.071	0.336
-539.208	-182.553	-0.203	0.004
-538.193	-29.473	-0.134	-0.076
-537.179	-200.000	0.003	0.035
-536.164	-123.158	-0.202	-0.032
-535.150	-77.238	0.215	-0.074
-534.135	-122.452	-0.225	0.037
-533.121	89.185	0.256	-0.284
-532.106	-105.735	-0.328	0.074
-531.091	400.207	-0.054	-0.114
-530.077	77.759	0.170	0.180
-529.062	171.668	-0.076	-0.109
-528.048	-200.000	0.022	0.383
-527.033	224.484	0.099	-0.160
-526.018	230.361	-0.079	0.129
-525.004	800.000	0.061	0.249
-523.989	-200.000	-0.021	-0.188
-522.975	54.503	0.171	0.164
-521.960	-66.282	-0.218	-0.087
-520.945	94.074	0.169	-0.191
-519.931	-0.237	-0.177	0.126
-518.916	344.824	0.199	0.390
-517.902	-28.807	0.370	0.212
-516.887	-69.230	0.153	0.058
-515.872	-112.178	0.311	-0.062
-514.858	27.268	-0.119	-0.100
-513.843	167.209	-0.040	0.057
-512.829	-35.444	0.249	-0.135
-511.814	331.691	-0.041	0.078
-510.799	289.907	-0.044	0.079
-509.785	295.757	-0.179	-0.326
-508.770	-92.645	-0.090	0.025
-507.756	-152.978	-0.182	0.013
-506.741	19.848	-0.069	-0.055
-505.726	58.305	-0.259	-0.253
-504.712	-11.896	-0.032	-0.021
-503.697	800.000	-0.149	0.647
-502.683	-77.742	0.137	0.047
-501.668	-134.775	-0.084	-0.010
-500.653	-156.232	0.313	-0.020
-499.639	-200.000	-0.017	-0.183
-498.624	-200.000	0.003	0.216
-497.610	-80.697	0.148	0.049
-496.595	-127.530	-0.308	-0.045
-495.581	-200.000	-0.008	0.303
-494.566	81.988	0.059	-0.063
-493.551	-200.000	-0.022	-0.120
-492.537	-99.522	-0.697	0.174
-491.522	-126.123	0.188	-0.028
-490.508	58.846	0.175	0.171
-489.493	279.233	-0.264	-0.469
-488.478	-200.000	0.001	-0.119
-487.464	-97.005	-0.236	0.061
-486.449	-112.397	0.200	0.040
-485.435	546.419	0.079	-0.188
-484.420	297.100	0.184	-0.336
-483.405	800.000	-0.083	-0.238
-482.391	-88.298	0.043	-0.013
-481.376	800.000	-0.041	-0.121
-480.362	456.745	-0.090	-0.198
-479.347	-200.000	0.060	0.267
-478.332	-15.499	0.172	-0.109
-477.318	770.568	-0.094	-0.256
-476.303	456.900	0.094	-0.208
-475.289	-40.978	0.095	-0.049
-474.274	474.895	-0.139	0.312
-473.259	1.263	0.332	0.237
-472.245	-100.721	-0.015	0.004
-471.230	-18.392	-0.172	-0.107
-470.216	-85.984	0.366	-0.113
-469.201	-33.336	-0.241	0.133
-468.186	24.659	0.258	0.213
-467.172	-75.499	0.116	-0.041
-466.157	-200.000	-0.004	0.219
-465.143	-178.066	0.131	-0.003
-464.128	188.100	-0.171	0.254
-463.113	-139.316	0.233	-0.025
-462.099	-162.396	0.388	0.019
-461.084	-200.000	-0.005	-0.240
-460.070	41.304	-0.056	0.050
-459.055	-90.678	0.099	0.029
-458.040	-75.050	-0.407	-0.145
-457.026	145.803	-0.150	0.200
-456.011	800.000	0.055	-0.198
-454.997	800.000	0.049	-0.138
-453.982	250.820	0.126	0.212
-452.968	124.978	-0.119	0.150
-451.953	-200.000	-0.006	0.232
-450.938	-84.057	0.279	-0.088
-449.924	-86.483	-0.175	-0.053
-448.909	-200.000	0.001	-0.150
-447.895	-33.705	0.181	0.099
-446.880	-156.555	-0.016	-0.001
-445.865	-200.000	0.014	0.241
-444.851	-47.955	-0.347	0.167
-443.836	-200.000	-0.020	-0.320
-442.822	94.936	0.222	0.250
-441.807	-91.849	-0.157	0.044
-440.792	-200.000	0.026	0.140
-439.778	-129.493	-0.332	-0.046
-438.763	800.000	-0.046	0.134
-437.749	-200.000	-0.046	0.237
-436.734	-120.408	-0.141	0.024
-435.719	-200.000	0.047	0.249
-434.705	-56.560	-0.188	0.083
-433.690	-19.743	0.133	0.082
-432.676	519.909	-0.114	0.265
-431.661	-64.371	-0.169	0.068
-430.646	483.814	0.006	0.013
-429.632	139.169	0.106	0.139
-428.617	-78.487	0.203	0.069
-427.603	-80.463	-0.180	-0.059
-426.588	145.894	-0.060	-0.080
-425.573	81.295	0.113	0.121
-424.559	263.502	-0.090	-0.154
-423.544	253.032	-0.043	0.072
-422.530	106.140	-0.234	0.275
-421.515	531.819	-0.159	0.373
-420.500	-51.303	0.052	-0.024
-419.486	800.000	-0.088	-0.253
-418.471	180.064	0.094	0.137
-417.457	800.000	0.023	-0.088
-416.442	-177.287	0.059	-0.001
-415.428	-136.321	-0.113	0.013
-414.413	135.305	-0.190	0.245
-413.398	-121.594	0.194	0.032
-412.384	100.516	-0.037	-0.042
-411.369	-117.977	-0.246	0.044
-410.355	-79.902	-0.059	-0.020
-409.340	-132.768	-0.171	0.022
-408.325	800.000	0.061	0.170
-407.311	523.177	0.169	-0.394
-406.296	123.616	0.094	-0.117
-405.282	55.902	0.194	-0.187
-404.267	475.968	-0.072	0.162
-403.252	-39.904	0.240	0.124
-402.238	-200.000	-0.015	-0.083
-401.223	800.000	-0.049	0.155
-400.209	-171.231	0.334	0.011
-399.194	558.178	-0.028	0.067
-398.179	-24.254	-0.203	-0.120
-397.165	-80.138	0.129	-0.043
-396.150	137.466	-0.103	-0.134
-395.136	644.188	-0.013	0.033
-394.121	260.323	-0.132	0.226
-393.106	99.131	0.138	0.158
-392.092	-35.860	-0.073	0.039
-391.077	800.000	0.105	-0.361
-390.063	-3.651	-0.138	0.095
-389.048	-88.935	0.176	0.052
-388.033	-65.593	-0.146	0.058
-387.019	-19.990	-0.077	0.047
-386.004	-200.000	-0.070	-0.306
-384.990	-53.125	-0.257	-0.117
-383.975	-200.000	0.051	-0.353
-382.960	-69.179	0.132	-0.050
-381.946	-200.000	0.034	0.203
-380.931	150.494	0.064	-0.087
-379.917	-200.000	-0.012	-0.289
-378.902	800.000	-0.088	-0.268
-377.888	-28.485	-0.231	0.132
-376.873	-65.101	0.169	0.068
-375.858	-200.000	-0.002	-0.105
-374.844	-30.298	-0.209	-0.117
-373.829	8.186	0.016	-0.012
-372.815	63.010	-0.269	0.266
-371.800	-200.000	-0.031	-0.190
-370.785	800.000	0.053	0.200
-369.771	-200.000	-0.022	-0.266
-368.756	247.412	-0.147	-0.246
-367.742	341.134	-0.031	0.060
-366.727	-169.005	0.052	0.002
-365.712	-171.044	0.265	0.009
-364.698	705.862	-0.149	0.388
-363.683	210.601	0.141	0.220
-362.669	80.449	-0.099	0.105
-361.654	612.019	0.200	0.495
-360.639	-110.779	-0.057	0.012
-359.625	-60.393	0.296	-0.125
-358.610	-94.381	-0.123	0.033
-357.596	-57.804	-0.289	0.125
-356.581	-105.969	-0.090	-0.020
-355.566	-200.000	-0.015	0.151
-354.552	189.027	0.095	-0.141
-353.537	737.796	0.098	0.261
-352.523	-200.000	0.005	-0.304
-351.508	111.771	0.032	0.038
-350.493	-200.000	0.010	0.325
-349.479	280.133	0.097	-0.171
-348.464	402.643	0.135	-0.280
-347.450	-141.734	0.154	0.015
-346.435	-200.000	-0.014	0.429
-345.420	110.868	-0.245	0.292
-344.406	-189.232	0.266	-0.003
-343.391	-65.606	0.348	-0.138
-342.377	-133.851	-0.267	0.033
-341.362	169.634	-0.166	0.234
-340.348	-163.505	0.076	-0.004
-339.333	-137.513	-0.176	0.020
-338.318	-200.000	-0.019	0.103
-337.304	394.784	0.136	-0.281
-336.289	238.544	-0.116	-0.191
-335.275	420.246	0.068	-0.145
-334.260	-200.000	-0.065	0.361
-333.245	17.058	-0.166	-0.130
-332.231	-98.734	0.156	-0.039
-331.216	238.440	-0.153	-0.251
-330.202	-83.905	0.149	0.047
-329.187	-81.020	0.125	0.041
-328.172	-57.851	-0.188	-0.081
-327.158	90.131	-0.109	-0.121
-326.143	800.000	-0.030	-0.093
-325.129	-97.652	-0.058	-0.015
-324.114	-200.000	0.024	0.352
-323.099	798.106	-0.075	0.205
-322.085	-200.000	-0.031	-0.368
-321.070	-122.558	0.124	-0.020
-320.056	84.891	-0.070	-0.075
-319.041	101.024	0.144	-0.165
-318.026	30.430	-0.076	-0.065
-317.012	800.000	0.070	0.281
-315.997	-200.000	0.020	-0.185
-314.983	104.397	0.039	-0.046
-313.968	-200.000	0.042	-0.219
-312.953	-200.000	0.029	0.152
-311.939	800.000	0.013	-0.039
-310.924	7.735	-0.071	0.053
-309.910	-200.000	-0.014	-0.066
-308.895	-71.424	-0.307	0.114
-307.880	800.000	0.054	0.158
-306.866	52.511	-0.197	-0.186
-305.851	-21.308	0.077	-0.047
-304.837	-200.000	0.018	0.303
-303.822	-49.913	-0.309	-0.145
-302.807	-200.000	-0.001	0.167
-301.793	-46.433	0.370	0.179
-300.778	-18.520	-0.175	0.108
-299.764	120.098	0.221	0.271
-298.749	-200.000	-0.050	0.393
-297.735	-113.440	-0.287	-0.055
-296.720	-93.298	0.186	0.051
-295.705	-27.410	-0.165	-0.094
-294.691	-80.166	0.135	-0.045
-293.676	737.328	0.137	0.363
-292.662	37.119	-0.217	0.190
-291.647	-186.442	-0.147	0.002
-290.632	-79.462	0.112	0.037
-289.618	95.288	-0.100	-0.112
-288.603	66.179	0.082	-0.082
-287.589	800.000	0.088	-0.369
-286.574	351.482	0.085	0.165
-285.559	-20.880	0.252	0.153
-284.545	800.000	0.049	-0.180
-283.530	-114.651	0.252	-0.048
-282.516	-82.972	-0.236	-0.075
-281.501	-123.307	-0.184	0.029
-280.486	800.000	-0.150	-0.457
-279.472	800.000	0.118	-0.365
-278.457	37.094	-0.146	0.127
-277.443	-200.000	-0.014	-0.119
-276.428	8.142	-0.199	0.148
-275.413	-20.231	-0.087	-0.053
-274.399	158.595	-0.049	0.067
-273.384	-7.560	0.211	-0.141
-272.370	326.923	0.137	0.259
-271.355	-24.104	-0.314	0.185
-270.340	-200.000	-0.004	0.095
-269.326	800.000	-0.061	-0.176
-268.311	20.941	0.221	0.177
-267.297	124.024	0.111	0.138
-266.282	-200.000	0.017	0.357
-265.267	-200.000	0.000	0.423
-264.253	240.312	0.104	0.171
-263.238	16.591	0.132	-0.103
-262.224	-200.000	-0.005	-0.377
-261.209	800.000	-0.089	-0.265
-260.195	-4.704	0.300	0.204
-259.180	-63.484	0.352	-0.143
-258.165	424.340	0.144	-0.306
-257.151	82.946	-0.248	0.266
-256.136	-178.053	-0.223	0.005
-255.122	768.667	0.100	-0.269
-254.107	56.679	0.104	0.100
-253.092	607.849	-0.088	0.215
-252.078	-94.510	0.155	-0.042
-251.063	800.000	-0.038	-0.148
-250.049	-65.013	0.173	-0.069
-249.034	-88.191	0.051	-0.015
-248.019	-40.473	0.419	-0.215
-247.005	-127.506	-0.159	-0.023
-245.990	-16.846	0.257	0.160
-244.976	33.098	-0.105	-0.090
-243.961	-162.133	0.118	0.006
-242.946	67.419	0.207	-0.208
-241.932	571.049	0.027	-0.066
-240.917	-200.000	0.042	-0.194
-239.903	-169.895	0.060	0.002
-238.888	-200.000	0.008	0.139
-237.873	700.595	-0.094	-0.243
-236.859	64.979	0.088	0.087
-235.844	181.132	0.063	-0.091
-234.830	55.303	-0.145	-0.138
-233.815	-104.798	0.128	-0.029
-232.800	-200.000	-0.022	-0.268
-231.786	-200.000	0.013	-0.439
-230.771	-34.606	-0.120	0.065
-229.757	480.851	0.089	0.199
-228.742	551.422	-0.108	-0.254
-227.727	-67.934	-0.198	0.076
-226.713	230.030	-0.065	-0.105
-225.698	-22.649	0.370	-0.220
-224.684	-33.460	0.109	-0.059
-223.669	-18.532	-0.224	0.138
-222.655	-120.433	-0.204	0.034
-221.640	-133.973	0.194	-0.024
-220.625	-125.008	-0.280	0.042
-219.611	-200.000	-0.014	-0.144
-218.596	-160.830	0.123	0.006
-217.582	-200.000	-0.005	-0.142
-216.567	330.984	0.042	-0.079
-215.552	-45.080	0.122	-0.060
-214.538	-148.599	-0.392	-0.031
-213.523	12.938	-0.107	-0.081
-212.509	73.821	-0.061	0.062
-211.494	246.515	0.160	-0.266
-210.479	-129.719	-0.073	-0.010
-209.465	-200.000	0.009	0.061
-208.450	150.228	-0.135	0.180
-207.436	-9.924	0.060	0.039
-206.421	190.901	-0.052	0.076
-205.406	800.000	0.018	0.053
-204.392	-200.000	-0.007	-0.368
-203.377	800.000	-0.052	-0.188
-202.363	191.316	0.106	0.157
-201.348	-75.065	0.222	0.078
-200.333	-200.000	0.003	-0.055
-199.319	36.844	0.065	-0.056
-198.304	-145.718	0.233	-0.020
-197.290	40.287	0.242	-0.214
-196.275	40.625	0.201	0.178
-195.260	24.217	-0.181	-0.147
-194.246	-68.763	0.255	-0.097
-193.231	-162.530	0.318	0.015
-192.217	-128.730	-0.263	-0.036
-191.202	362.307	-0.115	0.228
-190.187	800.000	-0.166	-0.502
-189.173	115.879	0.075	-0.090
-188.158	148.941	0.124	-0.165
-187.144	800.000	-0.083	0.247
-186.129	-50.559	-0.147	0.068
-185.114	121.873	-0.119	-0.146
-184.100	-159.181	0.530	-0.029
-183.085	-84.193	-0.594	-0.185
-182.071	246.882	-0.070	-0.117
-181.056	-176.562	-0.216	-0.005
-180.042	677.354	-0.119	0.304
-179.027	-200.000	0.009	0.099
-178.012	322.972	0.094	0.176
-176.998	-200.000	0.068	-0.311
-175.983	-80.291	-0.137	-0.045
-174.969	434.212	-0.215	0.460
-173.954	-141.509	-0.342	0.034
-172.939	-179.492	0.249	0.005
-171.925	41.395	0.135	0.120
-170.910	381.313	0.014	-0.028
-169.896	800.000	0.102	-0.392
-168.881	-131.831	0.491	-0.063
-167.866	-82.481	-0.161	0.051
-166.852	-23.499	-0.223	0.131
-165.837	-121.813	-0.328	0.053
-164.823	-6.451	0.087	0.058
-163.808	-200.000	0.003	0.167
-162.793	-200.000	0.039	-0.173
-161.779	800.000	0.065	0.262
-160.764	-56.210	0.133	-0.058
-159.750	-156.193	0.302	0.019
-158.735	-139.385	0.150	-0.016
-157.720	-200.000	0.039	0.205
-156.706	800.000	0.012	0.039
-155.691	-200.000	-0.006	-0.045
-154.677	145.563	0.111	-0.146
-153.662	35.716	0.239	0.207
-152.647	15.986	-0.151	-0.117
-151.633	446.356	-0.071	0.153
-150.618	-200.000	-0.001	-0.069
-149.604	29.156	-0.121	-0.101
-148.589	800.000	0.050	-0.137
-147.574	354.095	0.140	0.273
-146.560	-200.000	0.022	0.106
-145.545	145.377	-0.127	-0.167
-144.531	-105.447	0.312	-0.070
-143.516	72.237	-0.113	0.115
-142.502	-76.040	0.196	0.068
-141.487	-178.147	0.051	0.001
-140.472	-200.000	0.036	-0.211
-139.458	-78.012	0.102	-0.034
-138.443	-90.438	0.015	0.004
-137.429	-85.125	-0.127	-0.039
-136.414	4.310	0.361	-0.260
-135.399	-37.592	0.302	0.158
-134.385	136.041	-0.063	-0.080
-133.370	70.109	0.218	0.221
-132.356	-168.561	-0.191	0.007
-131.341	-116.984	0.160	0.029
-130.326	-171.201	-0.210	-0.007
-129.312	221.309	0.114	0.179
-128.297	377.434	0.112	-0.224
-127.283	360.009	-0.161	-0.315
-126.268	502.275	-0.030	0.067
-125.253	-167.199	0.288	0.011
-124.239	-78.505	0.278	-0.093
-123.224	-123.958	0.374	0.058
-122.210	-200.000	-0.048	-0.280
