DTS Sentinel unit serial number:	SN413079Multiplexer serial number:	ORYXHardware model number:	OX4-SRSoftware version number:	ORYX F/W v4.00 Oryx Data Collector v3.7.2.0data status	okinstallation	princeton_trtdifferential loss correction	single-endedforward channel	channel 2reverse channel	N/Adate	2019/09/18time	20:03:34forward acquisition time	60.00reverse acquisition time	0.00gamma	496.2192k internal	0.2334k external	0.2334temperature offset calibration	1.0027default loss term (dB/km)	0.3790temperature slope calibration	1.0000multiplexer offset coefficient	1.0000multiplexer slope coefficient	1.0000fibre end	0.00T internal ref (°C)	30.14T ext. ref 1 (°C)	0.95T ext. ref 2 (°C)	20.65length (m)	temperature (°C)	Stokes	anti-Stokes-747.200	286.101	0.153	0.277
-746.185	-72.700	-0.479	0.177
-745.171	-200.000	0.009	0.132
-744.156	73.143	-0.246	0.259
-743.142	800.000	0.059	0.258
-742.127	-200.000	0.056	0.269
-741.112	-200.000	0.045	0.281
-740.098	800.000	-0.095	0.273
-739.083	386.117	-0.210	-0.436
-738.069	-163.492	-0.378	-0.018
-737.054	46.096	0.109	-0.102
-736.039	-125.958	-0.417	-0.063
-735.025	19.178	0.399	0.322
-734.010	-7.480	-0.235	0.160
-732.996	25.510	-0.283	-0.237
-731.981	108.050	0.096	-0.115
-730.966	210.799	0.014	0.022
-729.952	-125.851	-0.158	-0.024
-728.937	-51.302	-0.247	0.116
-727.923	-123.763	-0.353	-0.056
-726.908	-55.273	0.081	0.037
-725.894	241.825	0.081	-0.136
-724.879	800.000	-0.071	-0.277
-723.864	48.624	-0.188	0.177
-722.850	624.434	-0.102	-0.259
-721.835	-48.927	-0.128	-0.062
-720.821	-200.000	0.085	-0.429
-719.806	59.121	-0.140	-0.138
-718.791	-200.000	-0.082	0.390
-717.777	-117.125	0.298	0.054
-716.762	181.882	0.197	0.292
-715.748	-57.459	0.156	0.069
-714.733	-200.000	-0.015	-0.095
-713.718	800.000	0.064	-0.220
-712.704	-131.673	0.510	-0.067
-711.689	800.000	-0.123	-0.472
-710.675	548.383	0.058	-0.140
-709.660	-80.291	0.208	-0.070
-708.645	62.697	0.231	-0.232
-707.631	-16.067	0.031	-0.020
-706.616	89.473	-0.288	-0.322
-705.602	800.000	-0.102	-0.380
-704.587	-200.000	-0.004	-0.077
-703.572	747.052	-0.027	-0.074
-702.558	800.000	-0.111	0.355
-701.543	-97.479	0.240	-0.063
-700.529	264.240	-0.119	-0.208
-699.514	56.973	0.247	-0.241
-698.499	210.151	0.127	0.200
-697.485	35.652	-0.278	-0.245
-696.470	41.396	0.049	0.045
-695.456	14.729	0.190	0.149
-694.441	158.286	-0.065	0.090
-693.426	71.046	-0.332	-0.345
-692.412	-86.221	0.204	-0.063
-691.397	-148.508	0.164	-0.013
-690.383	7.387	0.127	0.095
-689.368	171.825	-0.086	0.124
-688.354	239.675	0.113	-0.188
-687.339	228.793	0.180	0.295
-686.324	132.422	0.062	-0.080
-685.310	73.396	-0.209	-0.220
-684.295	-13.487	0.100	-0.065
-683.281	-200.000	0.039	0.215
-682.266	-200.000	0.003	-0.344
-681.251	-150.156	0.138	0.011
-680.237	335.728	0.028	0.055
-679.222	-174.446	0.202	0.006
-678.208	-200.000	0.048	-0.335
-677.193	-159.522	-0.051	0.003
-676.178	300.050	-0.062	0.115
-675.164	-16.464	-0.024	-0.016
-674.149	-90.866	0.072	0.021
-673.135	169.772	-0.061	-0.088
-672.120	-109.918	-0.330	0.069
-671.105	-123.622	-0.370	-0.059
-670.091	14.540	0.072	-0.056
-669.076	436.780	-0.087	0.191
-668.062	170.120	-0.072	0.104
-667.047	64.666	-0.110	-0.111
-666.032	-153.153	0.286	-0.020
-665.018	-16.350	-0.246	-0.156
-664.003	246.415	0.070	0.118
-662.989	-185.160	0.184	0.003
-661.974	-35.281	0.157	-0.086
-660.959	265.765	-0.189	-0.331
-659.945	698.404	0.054	-0.141
-658.930	18.800	0.312	-0.250
-657.916	-93.503	0.202	-0.056
-656.901	-200.000	0.075	-0.393
-655.886	19.724	0.286	-0.231
-654.872	49.622	-0.223	-0.210
-653.857	32.712	-0.243	0.211
-652.843	800.000	0.056	0.154
-651.828	-149.894	0.137	0.011
-650.814	207.283	0.057	-0.088
-649.799	-112.549	0.052	0.010
-648.784	79.133	0.210	-0.226
-647.770	-59.113	0.040	-0.017
-646.755	800.000	-0.154	-0.472
-645.741	300.039	-0.082	-0.152
-644.726	783.565	0.053	-0.145
-643.711	-200.000	-0.011	-0.087
-642.697	-200.000	-0.007	-0.062
-641.682	162.304	0.140	-0.197
-640.668	800.000	0.080	0.251
-639.653	-200.000	0.003	-0.083
-638.638	-53.532	-0.355	-0.163
-637.624	-38.862	-0.319	-0.168
-636.609	800.000	0.041	0.117
-635.595	-1.135	0.252	0.179
-634.580	-77.280	-0.171	-0.060
-633.565	-35.872	-0.129	-0.070
-632.551	-178.678	0.299	0.007
-631.536	-200.000	0.008	-0.307
-630.522	192.980	0.130	-0.196
-629.507	800.000	0.142	-0.423
-628.492	66.473	0.072	-0.074
-627.478	-119.535	-0.317	-0.055
-626.463	100.503	-0.260	0.302
-625.449	-118.982	0.256	-0.045
-624.434	-0.045	0.114	-0.081
-623.419	67.962	0.062	-0.063
-622.405	319.110	-0.091	-0.173
-621.390	-52.629	-0.245	-0.113
-620.376	-87.024	0.327	-0.100
-619.361	-200.000	-0.036	0.259
-618.346	61.918	-0.092	-0.092
-617.332	800.000	-0.096	0.404
-616.317	-200.000	-0.000	0.060
-615.303	-151.058	-0.071	0.005
-614.288	654.675	0.074	-0.190
-613.273	195.421	-0.178	0.271
-612.259	800.000	-0.070	-0.252
-611.244	155.340	-0.035	0.048
-610.230	151.463	0.181	0.246
-609.215	800.000	0.032	-0.127
-608.201	-79.572	0.267	0.090
-607.186	-24.152	-0.193	-0.115
-606.171	97.873	-0.145	-0.167
-605.157	87.902	-0.119	-0.131
-604.142	-11.888	0.079	-0.052
-603.128	-57.313	0.362	0.159
-602.113	-36.483	-0.075	-0.040
-601.098	766.981	0.125	-0.339
-600.084	43.685	0.132	0.121
-599.069	-157.130	0.265	-0.016
-598.055	-200.000	0.005	0.033
-597.040	-127.494	-0.119	0.017
-596.025	-200.000	0.059	0.381
-595.011	139.785	0.188	-0.248
-593.996	124.426	0.168	-0.211
-592.982	466.964	-0.118	0.265
-591.967	-0.660	-0.155	0.110
-590.952	40.908	-0.244	0.220
-589.938	101.271	-0.317	-0.369
-588.923	-68.446	-0.390	0.151
-587.909	-200.000	0.001	-0.155
-586.894	292.703	-0.185	-0.338
-585.879	401.023	0.055	0.115
-584.865	-7.944	-0.073	0.049
-583.850	96.946	-0.230	-0.263
-582.836	-118.863	-0.104	-0.018
-581.821	-58.889	0.400	-0.173
-580.806	44.052	-0.186	0.170
-579.792	120.229	-0.129	0.159
-578.777	800.000	0.117	-0.370
-577.763	-85.655	0.428	0.133
-576.748	7.180	-0.159	-0.118
-575.733	627.118	0.111	0.280
-574.719	800.000	-0.012	-0.041
-573.704	-104.701	-0.089	-0.020
-572.690	-23.741	0.093	0.055
-571.675	-175.855	-0.254	-0.007
-570.661	-152.248	-0.264	-0.019
-569.646	-53.415	0.059	-0.027
-568.631	-154.406	0.205	-0.014
-567.617	93.309	0.042	0.048
-566.602	800.000	-0.079	0.300
-565.588	-200.000	-0.004	-0.130
-564.573	783.616	0.117	-0.320
-563.558	643.478	-0.054	-0.137
-562.544	-200.000	-0.059	-0.479
-561.529	149.484	0.199	-0.269
-560.515	800.000	-0.088	-0.381
-559.500	315.773	-0.068	-0.128
-558.485	800.000	-0.030	-0.105
-557.471	-118.723	-0.213	0.037
-556.456	-116.835	-0.103	-0.019
-555.442	650.282	-0.114	0.292
-554.427	-114.118	0.107	-0.021
-553.412	-132.205	0.066	0.009
-552.398	44.716	0.164	-0.151
-551.383	-126.898	0.047	0.007
-550.369	-200.000	-0.090	0.462
-549.354	182.239	-0.054	-0.079
-548.339	19.663	0.204	-0.164
-547.325	-29.031	0.031	-0.018
-546.310	112.289	-0.120	0.144
-545.296	800.000	-0.041	0.170
-544.281	-22.712	0.197	-0.119
-543.266	-55.738	-0.127	-0.056
-542.252	-132.317	0.420	0.054
-541.237	-57.511	0.183	-0.080
-540.223	145.476	0.104	-0.139
-539.208	33.592	-0.172	0.149
-538.193	331.773	0.124	0.238
-537.179	463.241	-0.161	0.359
-536.164	-174.464	-0.271	0.008
-535.150	399.948	-0.094	0.196
-534.135	153.368	0.137	0.187
-533.121	528.159	0.062	0.146
-532.106	113.112	0.383	0.463
-531.091	501.279	-0.039	-0.089
-530.077	-71.142	0.146	-0.055
-529.062	29.529	0.018	-0.015
-528.048	-64.156	0.354	0.144
-527.033	800.000	-0.026	-0.086
-526.018	189.314	-0.064	0.096
-525.004	113.367	0.137	0.165
-523.989	-64.786	-0.222	-0.090
-522.975	8.681	0.230	0.172
-521.960	33.380	-0.148	-0.128
-520.945	-154.333	-0.117	-0.008
-519.931	-137.057	-0.344	0.039
-518.916	-200.000	0.046	-0.243
-517.902	-11.044	-0.342	-0.225
-516.887	-200.000	0.004	-0.057
-515.872	247.069	0.140	-0.235
-514.858	-179.441	-0.262	-0.006
-513.843	112.571	0.185	-0.223
-512.829	-144.407	-0.221	-0.020
-511.814	-200.000	-0.018	0.109
-510.799	638.433	-0.043	-0.110
-509.785	-200.000	-0.027	-0.193
-508.770	800.000	-0.059	0.226
-507.756	-200.000	0.010	-0.098
-506.741	239.480	-0.138	-0.229
-505.726	-75.805	0.159	-0.056
-504.712	-200.000	0.008	0.092
-503.697	179.402	0.116	-0.169
-502.683	57.850	-0.104	-0.102
-501.668	115.348	-0.239	0.291
-500.653	-162.608	0.304	0.015
-499.639	-1.277	0.165	0.116
-498.624	-110.391	-0.059	-0.012
-497.610	-124.322	-0.488	-0.076
-496.595	-39.455	-0.328	-0.171
-495.581	-200.000	-0.017	-0.284
-494.566	-95.241	-0.125	-0.033
-493.551	800.000	-0.022	-0.082
-492.537	-200.000	0.004	0.072
-491.522	-139.386	0.409	-0.044
-490.508	275.210	0.130	0.229
-489.493	-200.000	0.041	0.220
-488.478	320.132	0.037	-0.071
-487.464	-24.167	-0.143	-0.085
-486.449	-163.021	0.168	-0.008
-485.435	146.057	0.118	-0.157
-484.420	94.975	-0.061	-0.070
-483.405	78.838	-0.082	-0.087
-482.391	550.022	0.105	-0.251
-481.376	-80.975	-0.417	0.137
-480.362	-129.118	0.457	0.064
-479.347	800.000	-0.102	0.350
-478.332	-94.187	0.447	0.122
-477.318	646.735	-0.099	0.251
-476.303	219.679	0.180	-0.287
-475.289	285.815	0.133	0.239
-474.274	-86.103	-0.178	0.055
-473.259	188.871	-0.124	0.185
-472.245	-21.228	-0.299	0.182
-471.230	-200.000	-0.076	-0.352
-470.216	800.000	0.099	-0.308
-469.201	280.851	0.070	0.124
-468.186	31.182	-0.195	0.167
-467.172	-56.505	0.254	0.112
-466.157	-27.667	0.178	0.103
-465.143	143.548	-0.046	0.061
-464.128	-12.482	0.146	0.095
-463.113	-200.000	0.013	-0.059
-462.099	-152.706	0.286	-0.020
-461.084	549.386	0.071	0.170
-460.070	104.716	-0.225	0.264
-459.055	-20.271	-0.066	0.041
-458.040	326.768	-0.169	-0.322
-457.026	-170.330	-0.154	0.005
-456.011	-200.000	-0.013	0.364
-454.997	147.772	-0.176	0.236
-453.982	483.856	-0.048	0.108
-452.968	7.191	0.172	0.128
-451.953	22.111	0.189	0.153
-450.938	-26.796	0.241	-0.140
-449.924	12.612	0.046	-0.035
-448.909	-200.000	-0.004	0.080
-447.895	-101.489	-0.142	0.034
-446.880	-200.000	0.019	0.084
-445.865	-111.479	0.174	-0.035
-444.851	-12.164	0.267	-0.173
-443.836	190.685	-0.162	0.242
-442.822	800.000	0.082	-0.275
-441.807	105.051	-0.070	0.081
-440.792	-200.000	-0.161	-0.000
-439.778	-200.000	-0.076	0.383
-438.763	50.006	0.240	0.225
-437.749	-102.760	0.170	-0.040
-436.734	-33.798	0.186	0.102
-435.719	-200.000	-0.012	-0.069
-434.705	326.195	0.136	0.259
-433.690	-200.000	0.029	-0.223
-432.676	-67.453	-0.292	0.114
-431.661	332.740	0.144	0.276
-430.646	136.818	-0.101	0.131
-429.632	205.157	0.172	0.265
-428.617	145.609	0.137	0.182
-427.603	240.490	0.065	0.107
-426.588	29.066	-0.277	0.233
-425.573	276.578	0.183	0.323
-424.559	-51.794	-0.066	0.030
-423.544	4.547	0.232	0.169
-422.530	-158.301	-0.475	0.027
-421.515	61.856	0.066	0.065
-420.500	-84.628	0.185	-0.058
-419.486	337.685	-0.134	0.258
-418.471	-103.561	-0.176	0.041
-417.457	-181.061	0.192	-0.004
-416.442	-55.652	0.344	0.153
-415.428	319.480	0.057	0.107
-414.413	33.014	0.084	-0.072
-413.398	-200.000	-0.019	-0.107
-412.384	346.567	-0.040	0.078
-411.369	-200.000	-0.022	0.204
-410.355	-137.995	-0.079	0.009
-409.340	-122.653	-0.167	-0.027
-408.325	-111.960	-0.170	-0.034
-407.311	-22.640	0.131	-0.079
-406.296	800.000	-0.012	-0.035
-405.282	-83.626	-0.063	-0.020
-404.267	-100.760	-0.039	0.010
-403.252	221.335	0.152	0.243
-402.238	2.960	-0.064	-0.046
-401.223	-200.000	0.006	-0.295
-400.209	-110.842	0.513	0.105
-399.194	-200.000	-0.009	0.128
-398.179	-74.564	-0.193	0.069
-397.165	-153.181	-0.140	-0.010
-396.150	454.552	0.094	-0.207
-395.136	-115.425	-0.302	-0.056
-394.121	457.934	0.097	0.214
-393.106	181.765	-0.222	0.324
-392.092	47.184	-0.312	-0.288
-391.077	-122.652	-0.469	0.075
-390.063	800.000	-0.062	0.267
-389.048	-102.403	-0.159	0.038
-388.033	133.149	0.156	0.199
-387.019	586.172	0.171	0.417
-386.004	-200.000	-0.031	-0.154
-384.990	53.028	0.087	0.082
-383.975	-10.042	-0.213	0.140
-382.960	127.723	0.202	-0.254
-381.946	-37.075	-0.322	-0.171
-380.931	-174.695	-0.324	0.009
-379.917	-21.406	-0.135	0.082
-378.902	206.719	0.046	-0.072
-377.888	-103.503	0.484	-0.113
-376.873	-200.000	0.006	-0.039
-375.858	77.313	0.295	-0.311
-374.844	19.264	-0.180	-0.143
-373.829	220.783	0.085	-0.135
-372.815	-50.914	0.234	-0.109
-371.800	-16.910	-0.222	-0.139
-370.785	385.754	0.029	0.060
-369.771	800.000	-0.080	-0.310
-368.756	-32.890	0.039	0.021
-367.742	757.856	-0.101	-0.271
-366.727	144.621	0.231	0.305
-365.712	-22.822	-0.253	-0.152
-364.698	-100.809	-0.157	0.038
-363.683	-200.000	0.001	-0.118
-362.669	0.889	0.238	-0.169
-361.654	800.000	-0.077	0.279
-360.639	75.071	-0.128	0.134
-359.625	-59.583	-0.071	0.030
-358.610	-93.763	0.441	-0.120
-357.596	800.000	-0.051	0.176
-356.581	-200.000	-0.027	-0.178
-355.566	-200.000	0.002	0.300
-354.552	-42.711	0.146	-0.073
-353.537	-146.439	0.430	-0.037
-352.523	-72.065	0.235	0.087
-351.508	-70.758	-0.174	0.065
-350.493	800.000	-0.082	-0.245
-349.479	161.878	0.100	0.139
-348.464	-200.000	0.005	-0.416
-347.450	63.432	-0.037	0.037
-346.435	168.270	-0.189	0.267
-345.420	800.000	0.062	0.221
-344.406	499.276	-0.091	0.208
-343.391	327.709	0.053	-0.100
-342.377	-143.380	-0.070	-0.007
-341.362	-200.000	-0.036	-0.268
-340.348	-136.189	0.208	0.024
-339.333	-74.925	0.097	0.034
-338.318	-0.436	-0.438	-0.308
-337.304	-200.000	0.054	-0.321
-336.289	-146.091	0.081	-0.007
-335.275	800.000	-0.066	0.269
-334.260	-154.457	0.157	0.010
-333.245	-136.777	0.091	-0.010
-332.231	-200.000	0.006	-0.392
-331.216	-93.061	-0.395	0.109
-330.202	-63.506	-0.207	0.084
-329.187	-32.906	0.029	-0.016
-328.172	-167.606	-0.344	0.014
-327.158	-41.201	-0.061	-0.031
-326.143	800.000	-0.108	-0.303
-325.129	-100.141	-0.355	-0.087
-324.114	800.000	0.061	0.196
-323.099	-117.397	0.104	-0.019
-322.085	-200.000	0.019	-0.174
-321.070	-200.000	0.014	-0.206
-320.056	-107.037	-0.172	-0.037
-319.041	-200.000	0.003	-0.049
-318.026	-123.125	0.211	-0.033
-317.012	461.759	-0.094	-0.208
-315.997	-128.402	0.311	0.044
-314.983	-0.629	-0.020	-0.014
-313.968	800.000	-0.028	0.094
-312.953	-168.562	-0.229	0.009
-311.939	509.898	0.082	0.190
-310.924	199.871	0.043	-0.065
-309.910	116.759	-0.077	-0.093
-308.895	46.416	-0.024	-0.022
-307.880	-200.000	-0.027	0.125
-306.866	-143.923	-0.144	0.013
-305.851	-200.000	0.035	-0.179
-304.837	-200.000	-0.000	-0.003
-303.822	-200.000	-0.010	0.309
-302.807	796.048	0.056	-0.154
-301.793	527.183	0.064	-0.149
-300.778	800.000	0.137	0.458
-299.764	-91.994	0.277	0.077
-298.749	-200.000	-0.004	0.043
-297.735	-30.434	0.141	0.079
-296.720	-139.151	0.098	0.010
-295.705	17.801	-0.091	0.072
-294.691	305.521	0.114	0.210
-293.676	-136.536	-0.138	0.016
-292.662	457.877	0.090	-0.199
-291.647	-200.000	0.072	-0.415
-290.632	72.736	-0.158	-0.162
-289.618	-105.711	0.104	-0.023
-288.603	-103.652	-0.034	0.008
-287.589	-25.965	0.080	-0.046
-286.574	-68.510	-0.207	-0.079
-285.559	60.306	-0.224	-0.219
-284.545	337.243	0.133	-0.256
-283.530	-90.305	-0.338	0.097
-282.516	-137.406	0.416	-0.047
-281.501	-126.229	0.146	0.022
-280.486	-200.000	-0.007	-0.054
-279.472	-200.000	0.001	-0.066
-278.457	41.482	0.125	-0.112
-277.443	-43.159	-0.111	0.055
-276.428	-35.435	-0.046	0.025
-275.413	-131.738	-0.205	0.027
-274.399	94.152	0.160	0.179
-273.384	33.962	-0.187	-0.160
-272.370	-84.022	0.141	0.044
-271.355	286.920	0.018	-0.032
-270.340	-80.682	-0.144	-0.047
-269.326	-101.915	0.492	0.117
-268.311	-130.988	0.084	-0.011
-267.297	-83.013	0.088	0.028
-266.282	-98.465	0.235	0.059
-265.267	-76.556	-0.278	-0.096
-264.253	134.824	-0.099	0.127
-263.238	800.000	0.076	0.273
-262.224	158.460	0.096	-0.132
-261.209	576.226	-0.114	0.275
-260.195	-200.000	0.079	0.359
-259.180	170.306	-0.076	-0.107
-258.165	-113.661	0.089	0.017
-257.151	-53.864	-0.337	0.152
-256.136	-200.000	-0.012	0.066
-255.122	213.006	-0.114	0.177
-254.107	-200.000	0.045	0.244
-253.092	-139.146	0.197	-0.021
-252.078	-200.000	0.005	0.039
-251.063	-65.306	0.322	0.128
-250.049	-93.364	-0.116	0.032
-249.034	-94.530	-0.235	0.063
-248.019	-73.559	-0.145	0.052
-247.005	-140.597	0.304	0.031
-245.990	11.487	-0.123	-0.093
-244.976	-200.000	-0.020	-0.475
-243.961	45.277	-0.045	-0.041
-242.946	-52.999	-0.164	-0.075
-241.932	-53.070	-0.167	-0.076
-240.917	-200.000	-0.025	-0.136
-239.903	-59.997	0.117	-0.049
-238.888	-110.366	-0.194	-0.040
-237.873	-93.232	0.126	0.035
-236.859	-153.520	-0.201	-0.014
-235.844	800.000	-0.078	0.215
-234.830	700.069	-0.033	-0.084
-233.815	-137.196	-0.198	-0.022
-232.800	127.845	0.161	0.202
-231.786	-200.000	-0.014	-0.312
-230.771	-178.176	0.462	0.011
-229.757	73.245	-0.193	-0.199
-228.742	545.984	-0.099	0.234
-227.727	21.743	0.088	0.071
-226.713	-200.000	0.011	0.136
-225.698	71.606	0.136	0.139
-224.684	-200.000	0.049	0.282
-223.669	-200.000	0.010	-0.211
-222.655	-148.498	-0.299	0.024
-221.640	545.587	0.099	0.234
-220.625	585.920	0.151	-0.365
-219.611	-200.000	-0.004	0.123
-218.596	239.736	-0.159	-0.260
-217.582	-200.000	0.055	-0.263
-216.567	-116.501	-0.148	-0.027
-215.552	-41.591	-0.187	-0.094
-214.538	3.646	-0.256	0.184
-213.523	-92.939	0.196	-0.054
-212.509	800.000	0.049	-0.156
-211.494	-68.036	-0.299	0.115
-210.479	-200.000	0.009	-0.310
-209.465	674.943	0.082	-0.211
-208.450	800.000	-0.063	-0.190
-207.436	-125.767	0.283	-0.042
-206.421	-23.649	-0.086	0.051
-205.406	628.633	0.095	-0.238
-204.392	57.116	0.120	-0.116
-203.377	800.000	0.024	-0.069
-202.363	-200.000	-0.004	-0.211
-201.348	-143.561	-0.169	-0.016
-200.333	-200.000	-0.032	-0.368
-199.319	36.586	0.238	0.207
-198.304	-49.315	0.049	-0.023
-197.290	-26.973	-0.243	0.139
-196.275	-108.625	-0.057	-0.012
-195.260	-29.550	0.114	0.064
-194.246	211.016	0.074	0.115
-193.231	-125.037	0.165	-0.025
-192.217	-16.688	0.148	-0.092
-191.202	800.000	-0.029	0.118
-190.187	77.397	0.099	0.104
-189.173	-71.814	0.081	-0.030
-188.158	-81.180	-0.241	0.078
-187.144	774.131	0.091	0.245
-186.129	-41.317	0.385	0.195
-185.114	-58.727	0.295	-0.126
-184.100	-108.271	-0.085	0.018
-183.085	91.899	0.216	0.239
-182.071	666.959	-0.098	-0.249
-181.056	-200.000	-0.003	-0.055
-180.042	-92.326	0.058	-0.016
-179.027	-145.364	0.077	0.007
-178.012	304.114	-0.112	-0.204
-176.998	2.616	-0.052	-0.037
-175.983	-200.000	-0.005	-0.245
-174.969	-48.268	-0.231	0.109
-173.954	-6.355	-0.287	-0.192
-172.939	-15.127	0.134	-0.084
-171.925	677.143	0.057	0.145
-170.910	-43.118	-0.136	0.068
-169.896	174.628	-0.206	-0.292
-168.881	36.975	0.139	0.121
-167.866	191.860	0.181	-0.268
-166.852	72.345	0.113	0.116
-165.837	54.054	-0.087	0.083
-164.823	87.963	0.193	0.210
-163.808	261.366	0.200	0.341
-162.793	629.468	-0.096	0.237
-161.779	16.743	-0.390	0.303
-160.764	56.235	0.192	-0.184
-159.750	27.095	-0.292	-0.241
-158.735	194.374	0.037	-0.055
-157.720	149.261	0.233	0.309
-156.706	-197.087	-0.382	0.002
-155.691	-133.200	0.239	0.030
-154.677	47.921	0.289	0.265
-153.662	-112.902	-0.262	0.051
-152.647	-115.006	-0.100	0.019
-151.633	370.140	0.223	0.443
-150.618	-96.841	0.118	0.030
-149.604	800.000	0.074	0.206
-148.589	-30.587	-0.264	0.147
-147.574	484.160	-0.045	0.102
-146.560	-85.982	0.123	0.037
-145.545	189.552	0.180	-0.265
-144.531	-16.740	-0.033	-0.020
-143.516	-200.000	0.065	-0.311
-142.502	-49.095	-0.193	-0.090
-141.487	181.201	-0.108	-0.156
-140.472	249.453	-0.166	0.276
-139.458	327.242	-0.129	0.242
-138.443	-51.525	-0.263	-0.121
-137.429	119.908	0.210	-0.256
-136.414	800.000	-0.078	-0.220
-135.399	6.252	0.075	-0.055
-134.385	-200.000	-0.014	0.235
-133.370	-17.669	0.220	0.135
-132.356	269.953	-0.226	-0.390
-131.341	45.926	-0.055	-0.050
-130.326	165.260	0.144	-0.199
-129.312	-116.727	-0.156	0.028
-128.297	-23.313	0.457	0.270
-127.283	700.538	-0.056	0.144
-126.268	146.635	-0.221	-0.292
-125.253	27.694	-0.067	0.055
-124.239	-1.184	0.099	-0.068
-123.224	-43.037	-0.152	0.075
-122.210	660.763	0.114	0.287
