DTS Sentinel unit serial number:	SN413079Multiplexer serial number:	ORYXHardware model number:	OX4-SRSoftware version number:	ORYX F/W v4.00 Oryx Data Collector v3.7.2.0data status	okinstallation	princeton_trtdifferential loss correction	single-endedforward channel	channel 2reverse channel	N/Adate	2019/09/12time	14:53:11forward acquisition time	60.00reverse acquisition time	0.00gamma	496.2192k internal	0.2300k external	0.2300temperature offset calibration	1.0084default loss term (dB/km)	0.3790temperature slope calibration	1.0000multiplexer offset coefficient	1.0000multiplexer slope coefficient	1.0000fibre end	0.00T internal ref (°C)	40.30T ext. ref 1 (°C)	2.30T ext. ref 2 (°C)	37.17length (m)	temperature (°C)	Stokes	anti-Stokes-747.200	307.110	-0.170	0.322
-746.185	-45.527	-0.089	0.045
-745.171	22.300	-0.101	-0.084
-744.156	800.000	-0.121	0.531
-743.142	15.363	0.065	-0.052
-742.127	337.637	-0.064	0.128
-741.112	-168.173	-0.245	0.010
-740.098	57.631	-0.234	0.234
-739.083	150.767	-0.120	-0.167
-738.069	-200.000	-0.037	0.174
-737.054	591.906	-0.041	-0.103
-736.039	210.214	-0.187	-0.299
-735.025	90.183	0.199	0.227
-734.010	39.806	-0.109	-0.100
-732.996	-85.338	-0.205	-0.065
-731.981	243.481	-0.178	-0.304
-730.966	191.217	-0.021	0.033
-729.952	-200.000	-0.035	-0.348
-728.937	734.409	-0.035	-0.095
-727.923	35.695	0.221	0.198
-726.908	-132.950	-0.331	0.043
-725.894	59.174	-0.321	0.322
-724.879	-140.673	-0.262	-0.028
-723.864	-129.582	0.155	0.022
-722.850	-79.259	-0.150	0.052
-721.835	-200.000	-0.022	-0.291
-720.821	-200.000	-0.059	-0.437
-719.806	-61.735	0.443	-0.189
-718.791	341.632	-0.105	0.210
-717.777	-193.901	0.361	-0.003
-716.762	511.818	0.121	-0.287
-715.748	-200.000	0.009	-0.231
-714.733	275.551	0.085	0.153
-713.718	-200.000	-0.030	0.177
-712.704	-123.374	-0.413	0.067
-711.689	30.078	0.194	-0.169
-710.675	72.340	0.092	0.098
-709.660	263.466	-0.086	-0.152
-708.645	29.130	-0.116	0.100
-707.631	40.089	0.263	-0.240
-706.616	614.262	-0.090	-0.229
-705.602	18.869	-0.083	-0.068
-704.587	-200.000	-0.010	-0.078
-703.572	35.563	-0.071	-0.063
-702.558	-162.349	0.022	0.001
-701.543	13.167	-0.105	0.083
-700.529	-200.000	0.038	-0.419
-699.514	316.710	-0.126	-0.242
-698.499	27.615	-0.125	0.107
-697.485	-200.000	-0.037	-0.225
-696.470	-69.211	0.187	-0.073
-695.456	-135.414	0.327	-0.040
-694.441	444.199	0.107	-0.239
-693.426	-37.673	0.205	-0.111
-692.412	-78.752	-0.548	-0.190
-691.397	-89.722	-0.311	0.093
-690.383	46.896	0.142	-0.135
-689.368	90.351	0.153	0.174
-688.354	261.155	-0.091	-0.160
-687.339	-200.000	-0.046	0.325
-686.324	72.244	0.154	-0.163
-685.310	-120.231	0.457	-0.079
-684.295	-200.000	0.003	0.087
-683.281	128.961	-0.233	-0.302
-682.266	-155.611	0.434	-0.028
-681.251	20.914	0.244	-0.202
-680.237	-200.000	0.013	-0.317
-679.222	-130.135	0.348	-0.048
-678.208	243.062	-0.009	0.015
-677.193	-200.000	-0.027	0.221
-676.178	66.739	-0.240	-0.249
-675.164	800.000	0.054	-0.235
-674.149	-200.000	-0.016	-0.186
-673.135	-30.838	-0.235	-0.135
-672.120	-130.120	-0.273	-0.038
-671.105	23.902	0.146	-0.122
-670.091	168.394	-0.099	0.144
-669.076	552.254	0.040	0.097
-668.062	-199.536	-0.238	0.001
-667.047	28.465	0.155	-0.134
-666.032	265.481	0.092	0.164
-665.018	62.744	0.071	-0.072
-664.003	179.768	-0.105	-0.156
-662.989	241.837	-0.032	0.054
-661.974	480.071	0.179	-0.412
-660.959	7.532	0.194	-0.148
-659.945	10.862	0.177	-0.138
-658.930	-139.258	-0.463	-0.051
-657.916	800.000	-0.063	-0.235
-656.901	-42.313	-0.059	-0.031
-655.886	122.128	0.166	0.211
-654.872	-200.000	-0.000	-0.299
-653.857	512.887	0.116	-0.275
-652.843	-28.802	-0.198	-0.116
-651.828	11.794	0.252	-0.196
-650.814	277.313	-0.134	0.243
-649.799	-37.860	0.237	-0.128
-648.784	67.787	0.223	-0.232
-647.770	167.827	0.102	-0.148
-646.755	592.877	0.061	0.153
-645.741	-159.520	-0.106	-0.006
-644.726	36.126	-0.172	0.154
-643.711	-200.000	-0.043	-0.235
-642.697	379.244	0.094	0.196
-641.682	29.764	-0.180	-0.156
-640.668	800.000	-0.096	-0.348
-639.653	170.083	0.187	0.271
-638.638	-90.925	0.203	0.059
-637.624	-162.236	-0.151	-0.008
-636.609	800.000	0.024	0.095
-635.595	-200.000	0.013	0.206
-634.580	800.000	-0.040	0.135
-633.565	330.817	-0.112	0.220
-632.551	-116.841	0.085	-0.016
-631.536	-80.765	0.173	0.058
-630.522	800.000	0.050	0.174
-629.507	800.000	-0.028	-0.124
-628.492	242.448	0.130	-0.222
-627.478	51.727	-0.187	0.181
-626.463	116.410	-0.211	0.263
-625.449	800.000	-0.060	0.220
-624.434	-200.000	0.054	0.310
-623.419	18.535	0.129	0.105
-622.405	109.658	0.240	-0.293
-621.390	-82.179	-0.200	-0.066
-620.376	-36.687	0.233	-0.127
-619.361	495.106	0.080	0.187
-618.346	-95.573	0.116	0.031
-617.332	-114.190	-0.127	-0.025
-616.317	800.000	0.038	-0.168
-615.303	184.716	-0.014	0.022
-614.288	-78.106	0.270	-0.094
-613.273	-200.000	-0.005	0.052
-612.259	53.024	-0.103	0.100
-611.244	-200.000	-0.021	-0.307
-610.230	800.000	-0.030	-0.116
-609.215	-26.717	0.334	0.198
-608.201	-140.041	0.117	0.013
-607.186	800.000	-0.036	-0.147
-606.171	150.864	-0.041	-0.056
-605.157	227.360	-0.118	-0.194
-604.142	352.859	0.145	-0.292
-603.128	146.364	0.241	-0.329
-602.113	-97.111	0.391	-0.104
-601.098	6.950	-0.095	0.072
-600.084	-1.639	0.257	0.184
-599.069	-200.000	0.071	0.322
-598.055	800.000	-0.057	-0.218
-597.040	-140.185	0.309	-0.033
-596.025	-78.373	0.122	-0.042
-595.011	60.610	-0.159	-0.160
-593.996	-200.000	0.021	-0.525
-592.982	800.000	0.100	-0.375
-591.967	800.000	-0.022	0.070
-590.952	-3.905	0.187	-0.132
-589.938	-8.528	0.342	0.233
-588.923	-200.000	-0.035	0.208
-587.909	202.019	0.075	-0.117
-586.894	67.191	0.125	-0.129
-585.879	-66.343	0.106	0.043
-584.865	-32.437	0.333	0.188
-583.850	318.429	0.078	-0.151
-582.836	48.201	-0.038	0.036
-581.821	116.652	-0.131	-0.163
-580.806	-200.000	-0.008	-0.233
-579.792	148.083	-0.099	0.135
-578.777	800.000	0.116	-0.493
-577.763	213.113	-0.118	0.189
-576.748	-159.632	0.168	0.009
-575.733	739.461	-0.111	-0.301
-574.719	-200.000	0.008	0.194
-573.704	191.923	-0.023	-0.035
-572.690	52.272	0.100	0.097
-571.675	-98.303	-0.262	-0.068
-570.661	12.727	0.210	0.164
-569.646	492.104	0.038	0.088
-568.631	800.000	-0.074	0.255
-567.617	-200.000	0.012	0.169
-566.602	-95.712	-0.265	-0.072
-565.588	300.602	0.155	0.289
-564.573	-21.175	-0.255	-0.158
-563.558	37.503	-0.126	-0.113
-562.544	79.028	0.236	0.256
-561.529	799.070	-0.096	-0.267
-560.515	85.040	-0.077	-0.085
-559.500	55.533	0.090	-0.088
-558.485	100.719	0.102	0.120
-557.471	145.787	0.193	-0.262
-556.456	-200.000	0.070	-0.372
-555.442	-139.610	0.146	0.016
-554.427	82.087	-0.065	0.072
-553.412	-200.000	-0.103	0.472
-552.398	22.640	-0.221	-0.183
-551.383	61.404	0.118	-0.119
-550.369	418.990	-0.118	0.257
-549.354	-93.834	0.046	0.013
-548.339	-41.352	0.294	0.153
-547.325	-200.000	0.003	-0.175
-546.310	-200.000	-0.002	0.250
-545.296	-151.442	0.269	0.020
-544.281	-53.713	0.157	-0.072
-543.266	39.429	0.058	0.052
-542.252	-80.157	-0.088	-0.030
-541.237	-170.577	-0.141	0.005
-540.223	-24.716	0.220	0.133
-539.208	329.903	0.145	0.283
-538.193	-200.000	0.014	0.175
-537.179	-67.535	-0.167	-0.066
-536.164	427.877	-0.183	0.400
-535.150	51.373	0.056	-0.054
-534.135	-50.546	-0.086	0.041
-533.121	-142.795	-0.260	0.026
-532.106	-8.758	0.202	0.137
-531.091	-9.043	0.152	-0.103
-530.077	800.000	-0.134	-0.457
-529.062	-26.904	0.292	0.172
-528.048	-83.529	-0.249	-0.081
-527.033	-200.000	0.044	-0.412
-526.018	-69.071	-0.304	-0.118
-525.004	-40.811	0.562	0.294
-523.989	-200.000	0.009	-0.155
-522.975	-200.000	0.013	-0.076
-521.960	-200.000	0.004	-0.095
-520.945	-200.000	-0.033	-0.196
-519.931	348.167	0.065	-0.130
-518.916	-67.540	0.295	0.117
-517.902	-170.824	-0.143	-0.005
-516.887	46.766	-0.104	-0.097
-515.872	39.253	0.073	-0.066
-514.858	-79.462	-0.228	0.078
-513.843	-80.796	-0.057	0.019
-512.829	800.000	-0.021	-0.059
-511.814	209.395	-0.128	-0.202
-510.799	800.000	-0.053	-0.208
-509.785	800.000	0.051	-0.154
-508.770	314.087	0.086	0.164
-507.756	-20.854	-0.326	-0.202
-506.741	-0.130	0.143	-0.103
-505.726	244.974	-0.199	0.337
-504.712	-200.000	-0.000	-0.063
-503.697	71.993	0.183	-0.192
-502.683	36.947	-0.243	-0.217
-501.668	-200.000	0.026	-0.298
-500.653	-200.000	-0.018	-0.149
-499.639	49.356	-0.233	-0.221
-498.624	30.978	-0.437	0.378
-497.610	279.634	-0.119	-0.215
-496.595	73.587	0.141	-0.149
-495.581	-200.000	0.026	-0.167
-494.566	-200.000	0.005	0.169
-493.551	-112.993	-0.092	-0.018
-492.537	-141.174	0.221	0.023
-491.522	-200.000	0.035	0.188
-490.508	-104.517	-0.303	-0.071
-489.493	-37.543	-0.072	-0.039
-488.478	-7.743	-0.174	-0.119
-487.464	13.128	-0.135	-0.105
-486.449	12.764	-0.214	-0.167
-485.435	264.108	-0.030	-0.052
-484.420	168.912	-0.045	-0.065
-483.405	-28.254	0.217	-0.126
-482.391	-147.224	-0.309	0.027
-481.376	407.546	0.141	0.300
-480.362	168.532	-0.077	0.111
-479.347	225.767	-0.160	0.263
-478.332	800.000	-0.013	-0.053
-477.318	-148.682	0.225	-0.018
-476.303	-140.750	0.022	0.002
-475.289	-26.899	0.315	0.186
-474.274	-73.088	-0.130	0.048
-473.259	-200.000	0.015	-0.222
-472.245	-54.329	0.088	-0.040
-471.230	-28.424	0.129	-0.075
-470.216	92.495	0.158	-0.180
-469.201	-37.602	0.133	-0.072
-468.186	-185.196	-0.258	0.004
-467.172	64.640	0.164	-0.167
-466.157	-91.340	-0.079	0.023
-465.143	-200.000	-0.004	0.163
-464.128	-146.699	0.124	-0.011
-463.113	-51.038	-0.202	0.096
-462.099	-96.428	0.135	0.036
-461.084	-14.911	0.198	-0.128
-460.070	669.210	0.093	0.243
-459.055	800.000	0.038	-0.166
-458.040	674.015	-0.013	-0.033
-457.026	-128.548	-0.079	-0.011
-456.011	96.439	0.085	0.099
-454.997	74.282	-0.145	-0.153
-453.982	-14.895	-0.179	0.116
-452.968	-59.303	0.183	-0.080
-451.953	83.093	0.280	0.308
-450.938	-200.000	-0.023	-0.130
-449.924	-69.630	0.229	0.088
-448.909	-65.490	0.557	0.226
-447.895	72.833	-0.080	-0.084
-446.880	-200.000	0.004	0.080
-445.865	81.027	-0.131	0.143
-444.851	800.000	-0.091	0.274
-443.836	-105.593	0.165	-0.038
-442.822	-200.000	0.003	-0.312
-441.807	-180.146	0.207	-0.004
-440.792	-0.453	-0.121	-0.087
-439.778	374.958	0.126	-0.259
-438.763	800.000	0.020	0.078
-437.749	-165.988	-0.433	-0.019
-436.734	178.435	-0.039	-0.057
-435.719	-17.252	-0.106	-0.067
-434.705	-7.562	-0.287	-0.195
-433.690	73.307	-0.341	-0.360
-432.676	251.481	-0.074	-0.126
-431.661	267.285	-0.061	-0.108
-430.646	111.745	0.166	-0.202
-429.632	311.820	-0.112	-0.211
-428.617	-154.541	-0.184	-0.012
-427.603	320.624	-0.169	0.323
-426.588	-77.145	-0.322	-0.113
-425.573	-200.000	-0.042	0.197
-424.559	-73.017	0.226	-0.083
-423.544	418.759	0.170	-0.366
-422.530	-42.399	-0.201	-0.103
-421.515	-200.000	-0.013	-0.116
-420.500	-200.000	0.041	-0.199
-419.486	35.466	0.250	-0.221
-418.471	800.000	0.022	0.075
-417.457	52.095	-0.072	-0.069
-416.442	-146.912	-0.371	-0.032
-415.428	-138.868	-0.472	-0.052
-414.413	420.016	0.167	0.360
-413.398	511.818	-0.123	0.289
-412.384	-200.000	0.008	-0.087
-411.369	-76.563	0.510	0.180
-410.355	25.794	0.148	0.124
-409.340	-33.960	0.390	0.216
-408.325	-30.820	-0.230	0.131
-407.311	710.497	-0.021	-0.057
-406.296	-122.344	-0.423	0.069
-405.282	-6.207	0.177	-0.122
-404.267	235.503	0.070	0.117
-403.252	800.000	0.063	0.274
-402.238	-107.074	0.315	0.070
-401.223	-21.092	0.052	0.032
-400.209	111.303	0.195	-0.236
-399.194	-14.594	0.214	0.138
-398.179	-1.166	0.180	-0.128
-397.165	132.436	0.083	0.107
-396.150	-113.442	-0.317	-0.063
-395.136	278.019	0.044	-0.079
-394.121	-84.351	0.269	0.086
-393.106	51.174	0.273	-0.261
-392.092	89.655	0.106	0.118
-391.077	495.177	-0.167	-0.385
-390.063	-98.010	0.104	-0.027
-389.048	-144.514	-0.159	-0.015
-388.033	108.057	-0.168	0.202
-387.019	-151.870	-0.351	0.026
-386.004	-32.603	0.146	-0.082
-384.990	-200.000	-0.042	0.217
-383.975	124.781	0.093	-0.118
-382.960	-143.476	-0.428	-0.041
-381.946	424.748	-0.012	0.026
-380.931	777.063	-0.018	0.049
-379.917	-120.812	0.140	0.024
-378.902	-77.849	-0.395	0.137
-377.888	-20.612	0.214	-0.132
-376.873	-52.261	0.170	-0.079
-375.858	800.000	-0.085	-0.240
-374.844	-35.949	0.409	0.222
-373.829	-200.000	-0.036	0.277
-372.815	680.812	0.152	0.397
-371.800	18.106	0.173	0.139
-370.785	-200.000	0.009	-0.098
-369.771	-50.681	-0.193	-0.091
-368.756	-18.852	0.109	0.068
-367.742	-0.983	0.124	0.088
-366.727	-200.000	-0.009	0.124
-365.712	11.048	-0.108	0.083
-364.698	-200.000	0.037	0.336
-363.683	202.682	0.146	0.227
-362.669	115.031	0.044	0.054
-361.654	-65.673	0.370	0.149
-360.639	-130.464	-0.160	-0.022
-359.625	-61.413	0.177	0.075
-358.610	138.762	0.161	0.213
-357.596	-50.781	-0.064	-0.030
-356.581	800.000	-0.030	0.091
-355.566	800.000	0.071	-0.264
-354.552	138.115	-0.148	-0.195
-353.537	-142.852	0.388	-0.038
-352.523	-41.105	0.131	-0.068
-351.508	-121.789	-0.303	0.050
-350.493	800.000	-0.075	-0.231
-349.479	-77.523	0.342	0.119
-348.464	-50.071	-0.266	-0.127
-347.450	-200.000	0.012	0.112
-346.435	11.665	-0.111	0.085
-345.420	35.112	-0.215	0.189
-344.406	-85.146	0.167	0.052
-343.391	-200.000	-0.024	0.249
-342.377	800.000	-0.101	-0.397
-341.362	-166.543	0.083	-0.003
-340.348	238.716	0.102	0.170
-339.333	155.458	-0.093	0.129
-338.318	-200.000	0.012	0.125
-337.304	-146.818	0.443	0.038
-336.289	293.393	-0.109	0.199
-335.275	336.822	-0.032	0.063
-334.260	-18.939	-0.360	0.225
-333.245	-124.119	-0.015	-0.002
-332.231	596.521	0.024	0.059
-331.216	72.076	-0.159	0.166
-330.202	174.307	0.089	-0.129
-329.187	-19.484	-0.284	0.176
-328.172	342.787	0.183	0.360
-327.158	-200.000	-0.000	-0.187
-326.143	-127.314	0.313	0.046
-325.129	261.263	0.084	0.145
-324.114	356.092	-0.095	0.191
-323.099	-29.308	-0.325	-0.187
-322.085	92.694	-0.151	0.171
-321.070	-198.143	0.163	0.001
-320.056	-200.000	-0.007	0.387
-319.041	-106.265	0.295	0.066
-318.026	3.029	0.282	-0.206
-317.012	2.359	-0.291	0.211
-315.997	-85.909	-0.407	0.126
-314.983	27.952	-0.303	0.256
-313.968	200.552	-0.198	0.305
-312.953	-47.676	-0.294	-0.143
-311.939	229.245	-0.068	0.112
-310.924	126.499	0.096	0.122
-309.910	-13.714	-0.399	0.259
-308.895	-200.000	0.003	0.246
-307.880	-18.574	0.035	0.022
-306.866	800.000	0.060	0.260
-305.851	699.141	0.050	-0.132
-304.837	-44.952	-0.063	-0.031
-303.822	-200.000	-0.006	-0.104
-302.807	260.945	0.192	-0.333
-301.793	179.562	-0.203	0.298
-300.778	-200.000	0.011	0.422
-299.764	33.097	0.093	-0.081
-298.749	121.635	-0.167	-0.209
-297.735	-124.038	-0.096	0.015
-296.720	-40.288	-0.203	-0.106
-295.705	99.643	0.257	0.299
-294.691	-66.087	-0.188	-0.075
-293.676	-144.035	0.116	-0.011
-292.662	-51.238	0.135	-0.064
-291.647	-200.000	-0.027	-0.121
-290.632	-200.000	-0.003	-0.143
-289.618	98.228	-0.118	0.136
-288.603	-38.287	0.050	-0.027
-287.589	7.587	0.140	0.105
-286.574	68.588	-0.317	-0.326
-285.559	-36.099	0.204	0.110
-284.545	-82.756	-0.165	0.053
-283.530	2.494	0.249	0.181
-282.516	-79.389	0.206	-0.070
-281.501	364.728	-0.206	-0.414
-280.486	800.000	-0.100	0.297
-279.472	-200.000	-0.002	-0.130
-278.457	66.238	0.335	0.340
-277.443	-134.639	-0.177	-0.022
-276.428	-101.844	-0.198	-0.048
-275.413	800.000	0.022	-0.084
-274.399	112.612	0.087	0.105
-273.384	800.000	-0.092	0.291
-272.370	-130.773	0.287	0.039
-271.355	-200.000	0.044	0.367
-270.340	141.328	0.175	0.232
-269.326	49.230	0.064	0.060
-268.311	-83.666	0.373	-0.119
-267.297	-200.000	0.013	0.180
-266.282	-200.000	-0.039	0.351
-265.267	-4.936	-0.349	-0.241
-264.253	800.000	0.124	0.530
-263.238	-200.000	0.016	-0.276
-262.224	53.647	0.082	-0.079
-261.209	24.354	0.191	0.158
-260.195	-200.000	0.164	-0.001
-259.180	289.236	0.112	-0.204
-258.165	-200.000	-0.018	0.107
-257.151	69.631	0.094	0.097
-256.136	-140.497	0.197	-0.021
-255.122	346.861	0.082	0.161
-254.107	-151.349	0.292	-0.022
-253.092	-200.000	0.034	0.221
-252.078	119.790	-0.222	0.275
-251.063	328.094	-0.194	-0.372
-250.049	151.352	-0.048	-0.066
-249.034	-163.185	0.021	-0.001
-248.019	20.315	0.173	-0.140
-247.005	-26.645	-0.182	-0.107
-245.990	800.000	-0.040	0.154
-244.976	-86.447	0.185	0.057
-243.961	682.567	0.034	0.089
-242.946	4.988	0.172	-0.127
-241.932	-74.817	0.180	-0.065
-240.917	-131.793	-0.146	0.019
-239.903	-18.291	-0.254	-0.159
-238.888	-200.000	-0.009	-0.377
-237.873	-200.000	-0.035	0.330
-236.859	-80.113	0.126	-0.042
-235.844	219.805	-0.215	0.345
-234.830	-200.000	-0.036	-0.369
-233.815	-108.839	-0.011	-0.002
-232.800	125.035	-0.253	-0.318
-231.786	-59.010	-0.433	0.187
-230.771	283.025	0.151	-0.272
-229.757	-98.106	0.023	0.006
-228.742	433.141	0.076	-0.164
-227.727	-156.808	-0.295	-0.018
-226.713	-90.960	-0.091	-0.026
-225.698	767.661	-0.126	-0.343
-224.684	137.661	0.210	0.275
-223.669	-63.521	0.132	0.054
-222.655	-200.000	-0.025	-0.134
-221.640	153.993	-0.065	0.089
-220.625	-133.871	-0.334	0.041
-219.611	46.650	0.086	-0.079
-218.596	542.960	0.042	0.100
-217.582	-165.025	-0.425	-0.019
-216.567	-101.830	0.245	-0.059
-215.552	-200.000	0.006	-0.488
-214.538	-55.417	0.213	-0.096
-213.523	-87.736	-0.227	0.068
-212.509	-200.000	-0.025	-0.126
-211.494	-118.406	-0.013	-0.002
-210.479	-47.823	0.432	0.209
-209.465	-45.838	-0.149	-0.073
-208.450	-26.054	-0.177	-0.104
-207.436	-200.000	0.029	0.241
-206.421	-200.000	-0.049	0.398
-205.406	-59.759	-0.079	-0.034
-204.392	-120.158	0.410	0.070
-203.377	-118.196	-0.378	0.067
-202.363	-19.876	0.148	0.091
-201.348	-200.000	0.003	-0.332
-200.333	449.743	-0.159	-0.349
-199.319	-148.938	0.100	-0.008
-198.304	435.253	-0.046	0.099
-197.290	-13.985	0.149	0.096
-196.275	-65.248	-0.140	0.056
-195.260	-150.832	-0.099	0.007
-194.246	-200.000	-0.009	-0.044
-193.231	396.989	-0.130	-0.272
-192.217	153.336	-0.155	-0.212
-191.202	-65.328	-0.134	-0.054
-190.187	113.752	-0.162	0.196
-189.173	-83.266	0.265	0.085
-188.158	800.000	-0.166	-0.486
-187.144	48.081	-0.184	0.172
-186.129	73.624	-0.108	0.113
-185.114	800.000	0.056	-0.209
-184.100	-33.305	0.059	-0.033
-183.085	18.423	0.134	0.107
-182.071	393.334	-0.084	-0.174
-181.056	-200.000	0.029	-0.212
-180.042	-123.682	0.084	-0.013
-179.027	289.968	-0.088	0.159
-178.012	125.879	-0.242	0.305
-176.998	-1.742	-0.107	-0.075
-175.983	30.185	0.166	0.141
-174.969	-29.736	0.224	0.128
-173.954	125.881	0.050	-0.063
-172.939	-109.181	-0.199	-0.042
-171.925	-56.263	-0.241	0.107
-170.910	-173.121	-0.327	-0.010
-169.896	-125.193	-0.171	0.026
-168.881	345.405	-0.169	-0.331
-167.866	36.661	-0.472	0.416
-166.852	144.023	0.134	-0.178
-165.837	175.788	-0.169	-0.244
-164.823	-200.000	-0.037	-0.166
-163.808	229.421	-0.052	0.084
-162.793	-89.757	0.114	-0.033
-161.779	-200.000	-0.031	-0.146
-160.764	59.198	0.213	-0.209
-159.750	-117.764	-0.087	-0.016
-158.735	-200.000	-0.016	-0.429
-157.720	116.983	-0.215	-0.263
-156.706	-200.000	0.047	0.502
-155.691	789.535	-0.099	-0.271
-154.677	-137.493	-0.259	0.029
-153.662	-7.158	-0.292	0.197
-152.647	420.332	0.068	-0.145
-151.633	-200.000	-0.035	-0.163
-150.618	151.486	0.272	-0.369
-149.604	194.600	0.082	-0.124
-148.589	109.018	0.102	0.121
-147.574	-63.937	0.328	0.133
-146.560	24.873	-0.135	0.111
-145.545	800.000	-0.041	0.131
-144.531	-94.275	-0.171	-0.047
-143.516	-121.583	0.197	-0.033
-142.502	64.055	0.236	0.237
-141.487	-142.638	-0.342	-0.033
-140.472	800.000	-0.052	0.166
-139.458	-200.000	0.004	-0.059
-138.443	436.891	0.105	-0.228
-137.429	-200.000	0.039	0.280
-136.414	441.690	0.117	-0.256
-135.399	-23.223	-0.168	0.100
-134.385	-3.104	-0.249	0.173
-133.370	276.615	-0.124	0.220
-132.356	11.752	0.177	-0.136
-131.341	58.502	-0.212	-0.207
-130.326	-200.000	0.045	-0.293
-129.312	-200.000	-0.030	-0.177
-128.297	228.751	0.139	-0.226
-127.283	-94.290	0.418	0.114
-126.268	-3.649	-0.357	-0.247
-125.253	-31.652	0.252	0.141
-124.239	-200.000	-0.068	0.424
-123.224	62.392	0.181	0.180
-122.210	618.318	0.075	-0.187
