DTS Sentinel unit serial number:	SN413079Multiplexer serial number:	ORYXHardware model number:	OX4-SRSoftware version number:	ORYX F/W v4.00 Oryx Data Collector v3.7.2.0data status	okinstallation	princeton_trtdifferential loss correction	single-endedforward channel	channel 2reverse channel	N/Adate	2019/09/19time	11:55:34forward acquisition time	60.00reverse acquisition time	0.00gamma	496.2192k internal	0.2339k external	0.2339temperature offset calibration	1.0009default loss term (dB/km)	0.3790temperature slope calibration	1.0000multiplexer offset coefficient	1.0000multiplexer slope coefficient	1.0000fibre end	0.00T internal ref (°C)	25.92T ext. ref 1 (°C)	0.82T ext. ref 2 (°C)	21.99length (m)	temperature (°C)	Stokes	anti-Stokes-747.200	575.115	0.090	0.220
-746.185	128.661	-0.292	0.374
-745.171	-76.010	-0.056	0.020
-744.156	17.880	-0.321	0.256
-743.142	123.071	0.005	0.006
-742.127	-94.029	-0.365	-0.100
-741.112	-90.066	-0.153	0.045
-740.098	-54.251	-0.266	-0.121
-739.083	-72.059	0.112	-0.042
-738.069	82.666	0.231	0.252
-737.054	16.718	-0.055	-0.043
-736.039	-38.691	-0.296	0.157
-735.025	-135.946	0.110	0.013
-734.010	800.000	-0.078	-0.258
-732.996	257.067	-0.115	-0.198
-731.981	-200.000	-0.016	0.166
-730.966	646.814	-0.068	0.174
-729.952	-168.512	0.287	0.011
-728.937	-31.657	0.210	-0.118
-727.923	612.910	-0.055	-0.137
-726.908	438.694	-0.104	-0.227
-725.894	800.000	0.036	-0.124
-724.879	-200.000	0.055	-0.329
-723.864	-106.391	-0.073	0.016
-722.850	-110.922	0.220	-0.045
-721.835	348.256	0.226	0.446
-720.821	800.000	-0.052	0.210
-719.806	160.360	0.129	-0.181
-718.791	457.518	-0.068	0.152
-717.777	-200.000	0.060	-0.427
-716.762	-64.100	-0.026	0.011
-715.748	800.000	0.038	-0.150
-714.733	-148.363	0.347	-0.029
-713.718	-200.000	-0.020	-0.211
-712.704	-94.114	-0.044	0.012
-711.689	115.375	0.015	0.019
-710.675	-200.000	-0.049	0.293
-709.660	-10.166	-0.192	-0.128
-708.645	-200.000	0.018	-0.187
-707.631	-104.668	0.444	0.102
-706.616	415.437	0.158	-0.338
-705.602	-200.000	0.005	0.039
-704.587	137.758	0.141	-0.185
-703.572	613.466	0.030	0.075
-702.558	314.950	-0.155	-0.292
-701.543	179.441	-0.164	0.241
-700.529	800.000	0.053	-0.148
-699.514	134.640	0.203	-0.263
-698.499	-30.576	-0.169	-0.096
-697.485	-200.000	-0.014	-0.098
-696.470	-114.822	0.244	0.047
-695.456	-125.755	-0.176	0.027
-694.441	143.070	0.081	-0.108
-693.426	-200.000	0.010	-0.443
-692.412	65.447	0.107	0.108
-691.397	-55.218	-0.226	0.102
-690.383	800.000	0.121	-0.398
-689.368	66.486	0.418	-0.425
-688.354	713.823	-0.065	-0.173
-687.339	-111.768	0.078	0.016
-686.324	800.000	-0.084	0.322
-685.310	582.514	-0.105	0.259
-684.295	256.916	-0.016	0.027
-683.281	-200.000	-0.062	-0.393
-682.266	-5.752	0.189	-0.130
-681.251	-134.969	-0.104	-0.013
-680.237	-85.186	-0.078	-0.025
-679.222	182.028	0.094	-0.139
-678.208	-30.223	-0.399	-0.227
-677.193	507.379	-0.047	-0.108
-676.178	-200.000	-0.001	-0.323
-675.164	23.865	0.071	-0.059
-674.149	24.308	0.192	-0.159
-673.135	-184.146	0.368	0.006
-672.120	160.140	-0.068	0.094
-671.105	-2.514	-0.209	-0.146
-670.091	-98.358	0.172	0.044
-669.076	-56.588	-0.210	-0.093
-668.062	-140.515	0.300	0.031
-667.047	-200.000	-0.055	-0.418
-666.032	-93.569	0.096	-0.026
-665.018	-200.000	0.026	0.218
-664.003	-141.902	-0.051	0.005
-662.989	53.015	-0.161	-0.154
-661.974	-200.000	-0.029	0.133
-660.959	-200.000	-0.008	-0.276
-659.945	-35.345	-0.127	0.069
-658.930	-200.000	-0.002	-0.050
-657.916	-113.789	0.025	-0.005
-656.901	-200.000	0.001	0.219
-655.886	183.068	-0.051	0.075
-654.872	-70.229	-0.192	-0.073
-653.857	-78.138	0.188	-0.065
-652.843	82.773	-0.127	-0.138
-651.828	-200.000	-0.047	-0.553
-650.814	171.187	-0.128	-0.183
-649.799	165.771	-0.018	-0.026
-648.784	304.466	0.028	-0.052
-647.770	-200.000	0.010	-0.248
-646.755	-117.508	-0.340	-0.061
-645.741	-45.160	-0.236	-0.117
-644.726	93.191	0.230	-0.259
-643.711	-46.874	-0.201	0.098
-642.697	13.351	0.208	-0.161
-641.682	114.255	0.247	-0.300
-640.668	-198.408	0.238	0.001
-639.653	345.812	-0.181	-0.355
-638.638	-2.990	0.218	0.152
-637.624	356.820	0.132	-0.263
-636.609	-140.929	-0.295	0.030
-635.595	-200.000	0.019	-0.438
-634.580	473.384	-0.012	-0.028
-633.565	-49.127	0.331	0.158
-632.551	-200.000	0.024	-0.174
-631.536	122.635	-0.265	-0.330
-630.522	144.457	-0.064	-0.085
-629.507	-200.000	-0.001	-0.315
-628.492	-96.203	0.193	-0.051
-627.478	800.000	0.080	-0.321
-626.463	800.000	-0.151	-0.505
-625.449	44.681	0.168	0.154
-624.434	9.220	0.143	0.108
-623.419	-127.631	0.067	-0.010
-622.405	117.288	0.039	0.047
-621.390	18.124	-0.253	-0.202
-620.376	-33.098	0.109	-0.060
-619.361	604.368	0.035	0.087
-618.346	800.000	-0.052	0.198
-617.332	28.872	-0.234	0.197
-616.317	-109.272	-0.437	0.092
-615.303	-11.429	0.053	0.035
-614.288	1.852	-0.042	-0.030
-613.273	800.000	-0.157	-0.466
-612.259	432.514	0.107	0.231
-611.244	-200.000	0.012	0.067
-610.230	-80.368	-0.178	0.059
-609.215	800.000	0.062	0.173
-608.201	-124.953	0.358	-0.055
-607.186	800.000	0.037	0.116
-606.171	2.262	-0.216	0.156
-605.157	-128.533	0.111	-0.016
-604.142	52.765	-0.268	-0.255
-603.128	175.254	0.131	0.189
-602.113	111.399	0.053	-0.064
-601.098	202.224	0.016	0.024
-600.084	-93.401	0.186	0.051
-599.069	577.903	0.103	0.250
-598.055	35.049	-0.062	-0.054
-597.040	800.000	-0.115	-0.396
-596.025	-105.246	0.093	0.021
-595.011	-165.281	0.153	-0.007
-593.996	800.000	-0.054	-0.202
-592.982	-16.135	0.159	-0.101
-591.967	128.841	-0.013	0.016
-590.952	240.780	0.085	0.142
-589.938	-52.601	0.192	-0.088
-588.923	-200.000	-0.071	0.310
-587.909	192.895	0.210	0.316
-586.894	-200.000	-0.010	0.060
-585.879	216.801	0.154	-0.245
-584.865	737.571	0.083	-0.221
-583.850	-200.000	-0.036	-0.174
-582.836	186.032	0.108	-0.160
-581.821	82.877	-0.114	0.124
-580.806	242.834	0.087	0.145
-579.792	-200.000	0.002	0.151
-578.777	-39.711	-0.190	-0.099
-577.763	-60.543	-0.232	-0.098
-576.748	-76.980	-0.208	-0.072
-575.733	-129.645	0.395	0.054
-574.719	677.883	-0.091	-0.236
-573.704	187.088	-0.199	-0.296
-572.690	40.253	-0.230	0.206
-571.675	-98.869	0.235	-0.060
-570.661	-90.606	-0.198	-0.057
-569.646	195.581	-0.082	0.125
-568.631	-134.290	-0.063	0.008
-567.617	-59.817	0.257	-0.110
-566.602	1.607	0.083	0.059
-565.588	8.681	-0.009	0.007
-564.573	-200.000	-0.043	-0.228
-563.558	159.143	0.070	-0.098
-562.544	39.472	0.178	0.159
-561.529	17.258	0.113	-0.089
-560.515	87.206	0.182	-0.201
-559.500	100.215	0.297	0.343
-558.485	-200.000	-0.015	-0.150
-557.471	263.499	-0.087	-0.150
-556.456	800.000	0.022	0.085
-555.442	657.221	-0.039	-0.101
-554.427	-200.000	-0.005	-0.186
-553.412	165.876	0.060	-0.084
-552.398	536.618	-0.098	0.232
-551.383	82.874	-0.157	0.170
-550.369	-142.921	0.297	0.029
-549.354	-127.821	0.094	-0.013
-548.339	516.226	0.088	0.205
-547.325	-200.000	-0.002	0.072
-546.310	-200.000	0.067	-0.294
-545.296	-83.465	0.053	0.017
-544.281	-44.194	-0.349	-0.174
-543.266	800.000	-0.053	-0.172
-542.252	40.447	0.054	0.048
-541.237	-126.472	-0.045	-0.007
-540.223	-200.000	0.001	-0.083
-539.208	-47.862	-0.204	-0.098
-538.193	800.000	-0.083	-0.344
-537.179	60.395	-0.087	-0.086
-536.164	570.781	0.108	0.263
-535.150	82.866	0.189	0.205
-534.135	89.806	0.042	-0.046
-533.121	-200.000	0.018	0.094
-532.106	107.240	0.207	-0.245
-531.091	-35.383	-0.169	0.091
-530.077	612.114	-0.055	0.136
-529.062	-48.319	-0.301	0.144
-528.048	-200.000	-0.026	0.197
-527.033	800.000	-0.037	0.119
-526.018	-200.000	-0.057	0.276
-525.004	-64.305	-0.204	-0.083
-523.989	-109.903	-0.040	0.008
-522.975	336.632	-0.066	-0.128
-521.960	171.712	0.184	0.262
-520.945	30.736	0.128	-0.109
-519.931	-154.168	-0.292	-0.020
-518.916	53.878	-0.161	0.154
-517.902	637.322	0.099	-0.249
-516.887	-65.269	-0.252	-0.101
-515.872	-143.290	-0.164	-0.016
-514.858	44.949	0.094	0.086
-513.843	150.621	-0.220	-0.296
-512.829	-89.908	-0.192	-0.056
-511.814	5.749	0.196	-0.144
-510.799	172.520	-0.154	0.221
-509.785	88.763	-0.156	0.173
-508.770	74.937	0.044	-0.046
-507.756	279.991	0.209	-0.372
-506.741	-16.609	-0.127	-0.080
-505.726	-200.000	0.030	-0.303
-504.712	-155.341	-0.352	0.023
-503.697	61.520	-0.041	-0.041
-502.683	198.396	0.215	-0.327
-501.668	380.846	-0.097	-0.198
-500.653	139.924	-0.109	-0.143
-499.639	281.796	0.173	-0.309
-498.624	114.341	0.105	0.127
-497.610	-200.000	0.025	0.127
-496.595	-35.346	-0.229	-0.124
-495.581	102.159	-0.142	-0.165
-494.566	-140.572	0.338	-0.035
-493.551	-22.132	0.194	-0.117
-492.537	800.000	0.017	-0.065
-491.522	240.539	0.068	-0.113
-490.508	-116.306	0.037	0.007
-489.493	-10.653	-0.263	-0.173
-488.478	-200.000	0.043	0.298
-487.464	540.669	0.201	0.475
-486.449	800.000	-0.042	-0.124
-485.435	299.104	0.146	0.266
-484.420	-106.364	-0.574	-0.128
-483.405	-200.000	0.012	-0.437
-482.391	-76.425	0.299	0.104
-481.376	-111.920	-0.185	-0.037
-480.362	60.022	-0.160	0.157
-479.347	-25.954	-0.269	-0.157
-478.332	-148.577	0.086	-0.007
-477.318	399.401	-0.043	-0.090
-476.303	-200.000	-0.033	0.271
-475.289	-70.840	0.118	-0.044
-474.274	-65.654	0.290	-0.115
-473.259	-109.957	-0.191	0.040
-472.245	48.429	-0.063	-0.059
-471.230	77.766	0.102	0.108
-470.216	-46.051	0.234	0.114
-469.201	-107.598	-0.199	-0.043
-468.186	-101.387	0.231	-0.056
-467.172	10.719	0.170	0.129
-466.157	-200.000	-0.024	0.154
-465.143	-113.870	-0.134	0.026
-464.128	21.772	-0.139	-0.112
-463.113	-2.106	0.177	-0.123
-462.099	371.115	-0.105	0.211
-461.084	17.169	0.174	-0.137
-460.070	-103.530	-0.018	0.004
-459.055	618.155	-0.123	0.307
-458.040	-2.467	0.155	0.108
-457.026	-73.909	0.225	0.081
-456.011	800.000	-0.011	0.034
-454.997	-100.722	0.099	0.024
-453.982	-14.302	0.195	0.125
-452.968	800.000	-0.113	0.319
-451.953	-20.783	0.291	-0.177
-450.938	54.805	-0.094	-0.089
-449.924	-88.378	-0.095	-0.028
-448.909	-112.256	0.281	0.056
-447.895	467.847	0.174	-0.387
-446.880	-66.310	0.243	-0.096
-445.865	-86.696	-0.111	-0.034
-444.851	203.382	0.200	0.306
-443.836	-200.000	0.003	0.080
-442.822	114.115	-0.199	0.240
-441.807	-200.000	-0.018	-0.162
-440.792	44.374	-0.021	0.020
-439.778	-48.165	0.206	0.098
-438.763	-26.508	-0.160	-0.093
-437.749	-108.939	0.159	0.034
-436.734	-200.000	0.015	0.245
-435.719	165.705	0.086	-0.120
-434.705	800.000	0.079	0.257
-433.690	800.000	-0.024	0.070
-432.676	-200.000	0.033	-0.368
-431.661	399.349	0.168	-0.349
-430.646	-36.361	0.209	-0.111
-429.632	156.351	0.032	0.044
-428.617	344.077	-0.183	-0.356
-427.603	459.834	0.128	0.282
-426.588	81.027	-0.109	-0.116
-425.573	328.840	-0.096	0.183
-424.559	391.467	0.083	0.171
-423.544	-200.000	-0.016	0.235
-422.530	218.662	-0.040	-0.064
-421.515	89.847	0.177	-0.196
-420.500	-99.686	-0.115	-0.029
-419.486	-200.000	-0.007	0.063
-418.471	371.214	-0.176	0.354
-417.457	-200.000	-0.015	0.091
-416.442	-142.771	-0.471	-0.045
-415.428	-52.580	-0.065	-0.030
-414.413	-102.359	-0.153	0.036
-413.398	275.543	0.115	-0.202
-412.384	-25.034	0.159	-0.093
-411.369	197.901	0.018	0.027
-410.355	-100.991	-0.163	0.040
-409.340	-130.473	-0.051	0.007
-408.325	17.165	-0.139	0.109
-407.311	-97.272	0.098	0.025
-406.296	539.915	0.126	-0.296
-405.282	119.220	0.222	0.272
-404.267	-200.000	-0.016	0.560
-403.252	-15.254	0.309	-0.196
-402.238	44.078	-0.139	0.126
-401.223	-78.346	-0.191	0.065
-400.209	-76.084	-0.270	-0.094
-399.194	800.000	0.062	-0.211
-398.179	48.174	0.083	0.077
-397.165	800.000	0.078	-0.276
-396.150	49.366	-0.094	0.088
-395.136	-176.338	-0.293	-0.008
-394.121	-144.978	0.198	-0.018
-393.106	527.071	-0.045	-0.105
-392.092	-66.396	-0.271	-0.107
-391.077	-200.000	-0.013	-0.161
-390.063	-121.244	0.322	-0.053
-389.048	-94.894	0.352	0.094
-388.033	112.698	-0.159	0.191
-387.019	1.118	0.173	0.123
-386.004	-86.204	0.137	-0.042
-384.990	-200.000	-0.024	0.205
-383.975	-127.210	0.284	0.041
-382.960	37.401	-0.084	-0.074
-381.946	777.188	0.070	0.190
-380.931	-92.810	-0.247	-0.068
-379.917	-70.159	-0.274	0.103
-378.902	81.801	0.374	-0.401
-377.888	-47.924	0.202	-0.096
-376.873	800.000	-0.053	-0.213
-375.858	66.823	0.281	-0.283
-374.844	237.379	0.069	0.113
-373.829	66.301	0.121	0.122
-372.815	-158.064	0.412	0.024
-371.800	306.718	-0.173	0.318
-370.785	206.053	0.229	0.352
-369.771	92.924	0.247	0.276
-368.756	-140.326	-0.087	-0.009
-367.742	-136.726	-0.310	0.035
-366.727	554.621	-0.155	0.367
-365.712	-140.982	0.371	-0.038
-364.698	-109.133	-0.144	-0.030
-363.683	75.712	-0.063	-0.066
-362.669	-200.000	0.025	-0.183
-361.654	-70.972	0.176	-0.066
-360.639	-44.699	0.358	0.177
-359.625	503.332	0.163	0.372
-358.610	-67.577	0.206	-0.080
-357.596	555.848	-0.224	-0.534
-356.581	-36.343	0.072	-0.038
-355.566	-110.207	-0.391	-0.081
-354.552	-35.449	-0.183	0.098
-353.537	75.549	0.094	0.098
-352.523	-121.680	0.039	0.006
-351.508	688.800	-0.067	0.172
-350.493	-122.986	-0.260	-0.041
-349.479	5.829	-0.047	0.034
-348.464	800.000	-0.122	0.371
-347.450	-48.021	0.179	-0.086
-346.435	-200.000	0.001	-0.079
-345.420	39.053	-0.201	-0.178
-344.406	-56.181	-0.147	-0.065
-343.391	541.681	0.087	0.205
-342.377	283.386	-0.177	0.314
-341.362	389.894	0.146	0.299
-340.348	800.000	-0.037	0.102
-339.333	251.680	-0.078	0.131
-338.318	800.000	0.089	-0.337
-337.304	-72.461	0.094	-0.034
-336.289	-125.329	-0.096	0.014
-335.275	552.563	0.056	-0.132
-334.260	-118.897	-0.234	-0.041
-333.245	-200.000	-0.027	0.282
-332.231	-200.000	-0.013	0.388
-331.216	-200.000	0.009	0.195
-330.202	16.786	0.181	0.141
-329.187	-89.473	-0.141	-0.041
-328.172	-200.000	-0.003	-0.140
-327.158	-127.212	-0.257	-0.037
-326.143	-200.000	-0.026	-0.130
-325.129	293.768	0.176	0.316
-324.114	14.890	-0.331	0.256
-323.099	-106.037	0.310	0.069
-322.085	-81.231	-0.346	0.113
-321.070	800.000	-0.050	0.167
-320.056	-200.000	-0.013	-0.106
-319.041	800.000	0.041	0.177
-318.026	-38.557	-0.034	-0.018
-317.012	515.509	-0.123	-0.284
-315.997	68.265	-0.048	0.048
-314.983	-100.231	-0.371	-0.091
-313.968	-200.000	-0.009	0.407
-312.953	-200.000	0.012	-0.054
-311.939	-62.996	0.294	-0.120
-310.924	259.295	0.161	0.275
-309.910	43.742	0.228	0.206
-308.895	-139.486	0.393	-0.041
-307.880	-200.000	-0.011	0.064
-306.866	-74.987	-0.061	-0.022
-305.851	-39.651	-0.138	0.071
-304.837	-200.000	0.026	0.220
-303.822	208.382	-0.109	0.168
-302.807	-107.770	0.389	0.084
-301.793	-174.906	0.326	-0.009
-300.778	213.819	-0.185	0.289
-299.764	80.616	0.191	0.203
-298.749	350.484	0.183	-0.357
-297.735	-128.938	-0.291	-0.040
-296.720	-200.000	0.023	-0.403
-295.705	563.015	0.213	0.508
-294.691	800.000	-0.074	0.211
-293.676	-200.000	0.049	-0.302
-292.662	800.000	0.044	-0.175
-291.647	277.500	0.079	0.139
-290.632	-64.685	-0.107	0.043
-289.618	-200.000	0.012	-0.318
-288.603	800.000	-0.012	-0.037
-287.589	74.764	0.232	-0.241
-286.574	800.000	-0.069	-0.201
-285.559	-200.000	0.000	-0.220
-284.545	-122.285	-0.348	0.056
-283.530	-53.624	-0.353	-0.159
-282.516	-133.998	-0.282	0.034
-281.501	-22.807	-0.210	-0.125
-280.486	58.754	0.145	0.141
-279.472	172.320	-0.087	0.124
-278.457	-29.462	-0.241	0.136
-277.443	-43.028	-0.296	-0.148
-276.428	-138.111	-0.129	-0.014
-275.413	-200.000	-0.283	0.000
-274.399	-156.104	0.072	-0.005
-273.384	-200.000	-0.028	0.239
-272.370	-159.305	-0.281	0.016
-271.355	-124.068	0.035	-0.005
-270.340	-117.396	0.269	-0.048
-269.326	313.461	-0.110	-0.203
-268.311	66.646	-0.107	0.107
-267.297	-66.644	0.166	-0.065
-266.282	-26.412	0.168	-0.097
-265.267	-5.610	0.229	-0.155
-264.253	437.227	0.163	-0.349
-263.238	-78.878	-0.166	-0.056
-262.224	794.546	0.112	-0.302
-261.209	312.473	-0.088	0.163
-260.195	-200.000	-0.020	-0.440
-259.180	-30.084	0.252	0.141
-258.165	90.112	0.122	-0.134
-257.151	424.931	0.095	-0.201
-256.136	191.902	-0.096	0.142
-255.122	41.430	-0.311	-0.277
-254.107	-88.762	-0.155	0.045
-253.092	-200.000	-0.037	0.235
-252.078	16.234	0.357	0.277
-251.063	800.000	0.077	0.291
-250.049	108.261	-0.121	0.141
-249.034	-0.126	-0.264	0.185
-248.019	-200.000	-0.022	0.350
-247.005	-200.000	0.002	-0.052
-245.990	-36.340	-0.129	0.069
-244.976	195.743	0.112	-0.168
-243.961	-57.766	0.149	-0.064
-242.946	-200.000	0.029	-0.280
-241.932	-123.558	-0.168	0.026
-240.917	36.558	-0.202	-0.176
-239.903	-99.369	-0.160	-0.040
-238.888	172.414	0.065	0.092
-237.873	-20.182	0.127	0.077
-236.859	526.703	-0.076	0.175
-235.844	-200.000	0.098	0.476
-234.830	-200.000	0.001	0.008
-233.815	-200.000	0.051	0.302
-232.800	173.000	0.042	-0.060
-231.786	-200.000	-0.080	0.423
-230.771	-90.963	-0.178	0.050
-229.757	11.318	0.458	-0.345
-228.742	773.347	-0.016	-0.042
-227.727	300.207	-0.154	0.279
-226.713	85.066	0.130	0.140
-225.698	-168.296	-0.146	-0.006
-224.684	54.089	-0.183	0.173
-223.669	800.000	-0.035	-0.128
-222.655	-200.000	-0.002	0.117
-221.640	-200.000	-0.045	0.193
-220.625	-49.266	-0.146	0.069
-219.611	-95.581	-0.291	0.077
-218.596	220.386	0.101	-0.159
-217.582	50.009	-0.169	-0.157
-216.567	-200.000	0.081	0.521
-215.552	-171.663	-0.029	-0.001
-214.538	32.072	-0.121	-0.103
-213.523	621.232	-0.093	0.230
-212.509	23.500	0.087	0.070
-211.494	118.415	-0.174	-0.211
-210.479	-125.346	-0.084	-0.013
-209.465	401.254	0.136	0.281
-208.450	-200.000	0.022	0.124
-207.436	55.351	0.139	0.132
-206.421	72.428	-0.221	0.227
-205.406	-132.412	0.180	0.023
-204.392	-200.000	0.061	0.435
-203.377	28.005	0.103	-0.085
-202.363	274.016	-0.066	-0.115
-201.348	388.378	-0.112	-0.227
-200.333	160.158	-0.165	-0.226
-199.319	-200.000	-0.029	0.243
-198.304	655.430	-0.229	-0.577
-197.290	-140.190	-0.224	-0.023
-196.275	-89.990	0.184	0.053
-195.260	-102.712	0.411	0.096
-194.246	517.285	0.071	0.163
-193.231	-128.554	-0.139	-0.019
-192.217	-135.740	-0.281	-0.033
-191.202	229.187	0.073	0.116
-190.187	800.000	0.136	-0.432
-189.173	-79.899	-0.305	-0.101
-188.158	-178.804	-0.211	-0.005
-187.144	-53.601	-0.342	0.154
-186.129	-143.869	-0.115	-0.011
-185.114	119.300	-0.084	0.103
-184.100	-73.566	-0.187	0.067
-183.085	504.370	-0.053	0.120
-182.071	623.915	-0.093	-0.231
-181.056	151.682	0.227	-0.303
-180.042	-126.737	0.080	0.012
-179.027	800.000	-0.066	0.214
-178.012	-33.041	-0.289	0.158
-176.998	-73.985	0.211	-0.075
-175.983	-138.158	-0.331	-0.036
-174.969	-101.174	-0.174	-0.042
-173.954	114.969	0.084	-0.100
-172.939	112.089	0.066	0.078
-171.925	-72.911	0.257	-0.093
-170.910	800.000	0.045	-0.178
-169.896	34.429	-0.143	-0.123
-168.881	-200.000	0.052	0.226
-167.866	615.691	0.194	0.478
-166.852	-128.039	0.243	0.034
-165.837	197.240	0.179	-0.267
-164.823	340.206	-0.150	-0.286
-163.808	-200.000	0.011	-0.135
-162.793	-82.798	-0.203	0.064
-161.779	-200.000	0.004	0.031
-160.764	-38.965	0.338	-0.174
-159.750	800.000	-0.029	-0.100
-158.735	-195.530	-0.157	0.001
-157.720	-200.000	-0.038	0.462
-156.706	-129.150	0.361	0.049
-155.691	-54.801	0.169	0.075
-154.677	238.910	0.151	0.246
-153.662	-29.173	0.419	0.236
-152.647	248.110	0.168	-0.278
-151.633	800.000	0.180	-0.522
-150.618	800.000	-0.082	0.227
-149.604	-32.137	0.151	-0.083
-148.589	-131.349	-0.166	-0.022
-147.574	-124.007	0.094	0.015
-146.560	-2.802	0.091	-0.062
-145.545	1.429	-0.159	-0.112
-144.531	-200.000	0.023	-0.102
-143.516	281.876	0.107	0.187
-142.502	-89.092	-0.083	-0.024
-141.487	283.453	-0.092	0.163
-140.472	-59.906	-0.053	0.022
-139.458	800.000	0.016	0.067
-138.443	-19.452	0.144	-0.088
-137.429	199.595	-0.024	0.036
-136.414	175.857	0.250	-0.355
-135.399	223.193	-0.083	0.132
-134.385	-59.608	-0.131	-0.055
-133.370	-200.000	0.018	-0.254
-132.356	-200.000	0.038	-0.212
-131.341	-98.385	-0.379	-0.095
-130.326	-142.835	0.196	0.019
-129.312	-200.000	0.005	-0.140
-128.297	-200.000	-0.143	0.000
-127.283	-12.195	0.128	0.082
-126.268	-8.759	-0.130	0.085
-125.253	-144.245	0.063	-0.006
-124.239	-88.421	-0.173	-0.050
-123.224	-200.000	0.005	-0.131
-122.210	478.745	0.079	0.174
