DTS Sentinel unit serial number:	SN413079Multiplexer serial number:	ORYXHardware model number:	OX4-SRSoftware version number:	ORYX F/W v4.00 Oryx Data Collector v3.7.2.0data status	okinstallation	princeton_trtdifferential loss correction	single-endedforward channel	channel 2reverse channel	N/Adate	2019/09/10time	21:01:11forward acquisition time	60.00reverse acquisition time	0.00gamma	496.2192k internal	0.2330k external	0.2330temperature offset calibration	0.9944default loss term (dB/km)	0.3790temperature slope calibration	1.0000multiplexer offset coefficient	1.0000multiplexer slope coefficient	1.0000fibre end	0.00T internal ref (°C)	31.61T ext. ref 1 (°C)	-0.33T ext. ref 2 (°C)	24.84length (m)	temperature (°C)	Stokes	anti-Stokes-747.200	-15.603	-0.126	-0.081
-746.185	-149.232	0.362	-0.029
-745.171	-90.888	0.575	-0.167
-744.156	2.400	-0.147	0.107
-743.142	-10.209	0.303	0.203
-742.127	800.000	-0.105	0.328
-741.112	800.000	-0.040	-0.157
-740.098	800.000	-0.074	0.242
-739.083	710.270	-0.060	0.161
-738.069	70.242	0.137	0.143
-737.054	-143.113	0.156	0.015
-736.039	-200.000	0.004	0.070
-735.025	-56.804	0.100	-0.044
-734.010	800.000	-0.092	-0.297
-732.996	379.691	-0.049	0.100
-731.981	67.290	0.105	0.108
-730.966	157.437	-0.085	0.118
-729.952	1.935	-0.125	-0.091
-728.937	344.114	-0.076	0.149
-727.923	-109.555	-0.233	-0.049
-726.908	-104.981	-0.205	-0.047
-725.894	-151.710	-0.123	0.009
-724.879	-200.000	0.000	-0.023
-723.864	-109.786	-0.169	0.036
-722.850	-42.498	0.314	0.161
-721.835	-66.699	-0.103	-0.041
-720.821	8.046	0.085	-0.064
-719.806	800.000	-0.017	0.050
-718.791	-181.855	0.124	-0.002
-717.777	385.995	0.074	0.154
-716.762	-28.852	0.089	-0.052
-715.748	-120.889	-0.134	0.023
-714.733	606.867	-0.030	-0.076
-713.718	15.915	0.025	-0.020
-712.704	100.755	0.076	0.088
-711.689	-79.600	-0.291	0.099
-710.675	-79.034	-0.245	0.084
-709.660	92.831	0.160	0.181
-708.645	-19.387	-0.322	0.201
-707.631	-200.000	0.063	0.293
-706.616	800.000	0.047	-0.201
-705.602	55.071	-0.220	-0.213
-704.587	204.135	-0.025	-0.039
-703.572	34.201	0.195	0.171
-702.558	273.082	-0.113	-0.200
-701.543	193.188	-0.101	-0.153
-700.529	-86.701	-0.080	-0.025
-699.514	-200.000	0.047	-0.309
-698.499	-47.730	-0.336	-0.164
-697.485	800.000	0.070	0.204
-696.470	-96.817	-0.194	-0.051
-695.456	130.452	-0.302	-0.389
-694.441	173.609	-0.023	0.034
-693.426	322.984	0.016	0.030
-692.412	-112.094	-0.098	0.020
-691.397	-200.000	-0.023	-0.139
-690.383	52.560	0.088	0.085
-689.368	800.000	-0.041	0.131
-688.354	-200.000	-0.010	0.358
-687.339	65.344	-0.142	-0.144
-686.324	-12.482	-0.123	0.081
-685.310	800.000	0.077	-0.224
-684.295	275.685	0.049	-0.088
-683.281	-138.095	0.220	0.025
-682.266	-36.580	-0.103	0.056
-681.251	800.000	-0.026	0.109
-680.237	-39.425	-0.067	0.035
-679.222	-200.000	-0.027	-0.168
-678.208	-74.295	0.149	-0.054
-677.193	-42.506	-0.023	0.012
-676.178	18.988	-0.347	0.279
-675.164	-120.646	0.143	0.024
-674.149	103.542	0.112	0.132
-673.135	-140.413	-0.253	-0.026
-672.120	-49.307	0.100	-0.048
-671.105	-22.905	0.226	0.137
-670.091	-52.474	-0.113	-0.053
-669.076	11.141	0.383	-0.294
-668.062	284.144	0.179	-0.323
-667.047	-55.019	0.162	0.073
-666.032	649.900	-0.046	0.118
-665.018	-139.367	0.207	-0.022
-664.003	-103.875	0.207	-0.049
-662.989	-117.788	-0.145	-0.026
-661.974	-150.634	0.120	-0.009
-660.959	542.439	0.081	0.193
-659.945	800.000	-0.048	0.151
-658.930	-167.951	-0.239	0.009
-657.916	-54.365	-0.140	-0.064
-656.901	-8.935	-0.222	-0.149
-655.886	-200.000	-0.027	0.177
-654.872	-200.000	-0.023	-0.109
-653.857	114.652	0.154	-0.188
-652.843	-98.197	0.028	0.007
-651.828	143.063	0.145	0.193
-650.814	485.083	-0.082	-0.188
-649.799	15.535	0.029	0.023
-648.784	-49.839	-0.026	0.013
-647.770	-200.000	0.031	0.290
-646.755	800.000	0.071	0.239
-645.741	81.565	-0.209	-0.226
-644.726	800.000	0.085	-0.320
-643.711	340.036	-0.043	-0.083
-642.697	-56.402	-0.128	0.057
-641.682	-137.429	-0.206	0.023
-640.668	15.076	-0.150	-0.118
-639.653	188.423	0.130	-0.195
-638.638	637.441	0.035	0.088
-637.624	-96.038	-0.626	-0.167
-636.609	-47.195	0.375	-0.183
-635.595	-111.794	-0.225	-0.046
-634.580	61.900	-0.082	-0.082
-633.565	-135.033	-0.308	-0.037
-632.551	92.367	0.123	0.139
-631.536	264.964	0.084	0.147
-630.522	15.757	-0.134	-0.106
-629.507	195.419	0.021	0.032
-628.492	-200.000	-0.010	0.270
-627.478	-200.000	-0.048	-0.383
-626.463	-200.000	0.037	-0.181
-625.449	630.852	0.147	-0.374
-624.434	524.400	-0.047	-0.110
-623.419	800.000	-0.119	-0.338
-622.405	800.000	-0.113	0.420
-621.390	-5.885	-0.177	0.122
-620.376	164.875	-0.070	-0.099
-619.361	87.643	0.238	-0.264
-618.346	-26.219	-0.270	0.159
-617.332	153.843	-0.119	0.163
-616.317	-102.533	-0.263	0.063
-615.303	125.161	-0.111	-0.140
-614.288	-2.427	0.300	0.210
-613.273	58.936	-0.135	-0.133
-612.259	501.613	0.034	0.078
-611.244	372.460	0.119	-0.242
-610.230	800.000	-0.068	-0.220
-609.215	-145.077	-0.309	-0.028
-608.201	-128.918	0.236	0.033
-607.186	91.596	0.107	0.121
-606.171	17.446	-0.271	0.216
-605.157	-59.464	-0.499	0.215
-604.142	-101.968	-0.270	0.065
-603.128	75.333	0.087	0.091
-602.113	-200.000	-0.079	0.574
-601.098	-60.126	-0.154	-0.066
-600.084	-200.000	-0.043	-0.277
-599.069	-55.312	0.222	-0.100
-598.055	800.000	-0.011	-0.035
-597.040	-200.000	-0.029	0.267
-596.025	-200.000	-0.327	0.001
-595.011	-200.000	-0.023	-0.202
-593.996	121.286	0.064	-0.080
-592.982	-157.822	0.333	-0.020
-591.967	66.646	0.319	0.325
-590.952	800.000	-0.031	-0.096
-589.938	-114.870	-0.126	-0.024
-588.923	-200.000	-0.025	-0.155
-587.909	-138.641	-0.026	0.003
-586.894	69.906	-0.302	-0.312
-585.879	-84.302	-0.137	0.043
-584.865	-125.609	-0.341	-0.052
-583.850	800.000	-0.090	-0.324
-582.836	800.000	0.114	-0.331
-581.821	-43.545	-0.257	-0.130
-580.806	-69.660	-0.267	0.102
-579.792	-76.553	0.205	-0.072
-578.777	131.316	0.216	-0.278
-577.763	55.219	0.041	-0.040
-576.748	313.402	0.031	0.059
-575.733	-44.386	0.234	-0.117
-574.719	-190.822	-0.294	0.003
-573.704	-200.000	0.010	0.059
-572.690	-142.836	0.241	-0.023
-571.675	263.424	0.086	0.149
-570.661	507.321	0.041	0.095
-569.646	800.000	-0.020	0.060
-568.631	-171.167	0.364	0.012
-567.617	68.782	0.060	0.062
-566.602	-44.666	0.205	-0.102
-565.588	-200.000	-0.008	-0.047
-564.573	-34.047	0.111	0.061
-563.558	89.096	0.124	0.138
-562.544	46.748	-0.060	-0.055
-561.529	-54.803	-0.285	-0.129
-560.515	-119.327	-0.293	-0.051
-559.500	-2.928	-0.205	-0.143
-558.485	-100.126	-0.269	-0.067
-557.471	-44.964	-0.108	0.054
-556.456	-61.019	-0.300	-0.127
-555.442	-130.153	0.427	-0.058
-554.427	44.216	0.189	0.173
-553.412	415.181	-0.148	-0.316
-552.398	800.000	0.061	-0.237
-551.383	71.813	0.045	0.046
-550.369	-83.444	0.239	-0.076
-549.354	-29.097	-0.169	-0.097
-548.339	-134.640	-0.307	-0.037
-547.325	800.000	-0.093	-0.307
-546.310	-63.690	0.053	-0.022
-545.296	82.220	-0.032	0.035
-544.281	-65.013	-0.144	-0.058
-543.266	-19.060	0.152	-0.094
-542.252	-139.576	-0.161	0.017
-541.237	800.000	-0.040	0.165
-540.223	26.235	-0.166	0.139
-539.208	-36.453	-0.149	-0.080
-538.193	585.258	-0.108	-0.265
-537.179	-88.612	-0.171	-0.051
-536.164	-200.000	-0.081	0.415
-535.150	800.000	0.066	0.256
-534.135	-7.133	0.229	-0.155
-533.121	-157.669	-0.390	0.023
-532.106	145.266	0.094	-0.126
-531.091	278.981	-0.107	-0.190
-530.077	88.693	-0.161	0.178
-529.062	78.883	0.141	-0.150
-528.048	275.544	0.140	0.249
-527.033	246.478	0.143	0.240
-526.018	-125.412	-0.087	0.013
-525.004	-135.044	0.290	-0.035
-523.989	800.000	0.051	0.178
-522.975	-7.614	-0.098	-0.066
-521.960	2.319	-0.090	-0.065
-520.945	90.777	0.070	-0.078
-519.931	-45.529	0.220	-0.109
-518.916	-83.889	0.188	0.060
-517.902	137.324	0.087	0.114
-516.887	233.080	0.138	-0.226
-515.872	-200.000	0.027	0.297
-514.858	-93.898	-0.409	0.112
-513.843	800.000	-0.145	0.447
-512.829	-117.567	-0.249	-0.045
-511.814	159.309	-0.165	0.229
-510.799	-200.000	0.001	0.041
-509.785	130.514	-0.141	-0.180
-508.770	49.754	0.248	0.233
-507.756	78.752	-0.218	0.232
-506.741	55.321	0.178	0.172
-505.726	-200.000	0.057	0.263
-504.712	25.056	0.091	0.075
-503.697	76.408	0.209	0.221
-502.683	88.432	-0.219	-0.243
-501.668	-200.000	-0.053	-0.315
-500.653	-16.869	0.035	-0.022
-499.639	-200.000	0.032	0.155
-498.624	86.540	0.152	-0.167
-497.610	-54.853	0.406	-0.183
-496.595	-149.335	-0.204	0.016
-495.581	481.826	-0.096	0.218
-494.566	297.048	0.142	0.260
-493.551	24.096	0.077	0.063
-492.537	43.375	-0.169	0.154
-491.522	-31.663	0.077	-0.043
-490.508	800.000	-0.030	-0.094
-489.493	-175.043	-0.256	0.007
-488.478	29.186	0.171	-0.144
-487.464	800.000	0.035	0.112
-486.449	-117.975	-0.119	-0.021
-485.435	-64.870	0.387	-0.156
-484.420	-200.000	-0.028	0.270
-483.405	-62.992	-0.277	0.114
-482.391	-46.603	-0.103	-0.051
-481.376	-44.462	0.372	0.185
-480.362	-200.000	-0.061	0.267
-479.347	353.698	0.117	0.232
-478.332	40.997	0.331	0.298
-477.318	4.151	-0.200	-0.146
-476.303	-90.135	0.115	-0.033
-475.289	-200.000	-0.002	0.042
-474.274	-159.372	0.036	-0.002
-473.259	196.782	-0.103	0.156
-472.245	142.791	-0.094	-0.125
-471.230	249.424	-0.067	0.113
-470.216	-111.338	0.356	-0.072
-469.201	-200.000	0.025	0.207
-468.186	52.459	0.205	0.195
-467.172	-64.487	-0.148	0.060
-466.157	505.502	0.031	-0.071
-465.143	119.876	0.035	-0.043
-464.128	21.678	-0.050	-0.040
-463.113	-200.000	0.012	0.392
-462.099	283.232	0.152	0.272
-461.084	69.282	0.128	-0.131
-460.070	11.450	-0.475	-0.362
-459.055	-32.929	-0.233	-0.129
-458.040	-142.825	0.331	0.032
-457.026	-103.461	0.237	-0.056
-456.011	54.801	0.253	0.243
-454.997	5.460	0.107	-0.079
-453.982	413.396	-0.233	-0.494
-452.968	208.868	0.132	0.205
-451.953	800.000	-0.097	0.276
-450.938	189.420	0.030	-0.044
-449.924	-77.901	-0.081	-0.028
-448.909	-55.826	-0.048	0.021
-447.895	253.201	0.164	0.278
-446.880	21.972	-0.134	-0.109
-445.865	-25.502	0.356	0.209
-444.851	-200.000	-0.002	-0.205
-443.836	-138.358	-0.216	-0.024
-442.822	313.392	0.102	-0.191
-441.807	-15.904	-0.074	-0.047
-440.792	800.000	0.083	-0.315
-439.778	-68.832	0.253	0.097
-438.763	2.685	0.262	-0.189
-437.749	800.000	-0.035	-0.108
-436.734	-38.807	-0.097	0.051
-435.719	-176.890	0.079	0.002
-434.705	-165.540	-0.346	-0.015
-433.690	800.000	-0.066	-0.250
-432.676	-171.946	-0.083	-0.003
-431.661	796.214	-0.113	-0.309
-430.646	6.929	-0.173	-0.128
-429.632	-200.000	0.055	0.483
-428.617	-116.345	0.088	0.016
-427.603	160.907	0.075	0.104
-426.588	22.516	0.249	-0.202
-425.573	-174.678	0.244	0.007
-424.559	268.916	0.069	0.121
-423.544	118.118	0.173	-0.212
-422.530	246.619	0.119	0.199
-421.515	-138.234	0.297	-0.033
-420.500	-58.692	-0.118	-0.051
-419.486	800.000	0.089	-0.258
-418.471	-132.365	0.238	0.031
-417.457	-20.735	-0.067	-0.041
-416.442	-200.000	-0.052	0.383
-415.428	244.529	-0.087	-0.145
-414.413	771.396	0.056	0.152
-413.398	800.000	0.150	-0.430
-412.384	696.586	0.111	0.288
-411.369	800.000	-0.033	0.143
-410.355	60.148	-0.100	0.098
-409.340	-200.000	-0.005	0.116
-408.325	-200.000	0.008	-0.310
-407.311	48.038	0.188	0.174
-406.296	41.280	-0.191	-0.171
-405.282	-75.813	-0.333	-0.117
-404.267	19.078	0.152	0.121
-403.252	291.989	0.124	-0.224
-402.238	181.844	0.072	-0.105
-401.223	88.506	-0.149	0.165
-400.209	223.614	-0.122	-0.196
-399.194	-44.231	-0.129	0.064
-398.179	-5.631	0.429	0.292
-397.165	-33.461	-0.236	0.129
-396.150	-66.332	-0.077	0.030
-395.136	-109.875	-0.032	0.007
-394.121	-0.058	0.133	-0.094
-393.106	800.000	-0.061	-0.255
-392.092	18.508	-0.139	0.111
-391.077	-200.000	0.049	0.321
-390.063	-200.000	0.025	-0.249
-389.048	249.213	0.092	0.156
-388.033	-134.545	0.394	-0.048
-387.019	800.000	0.080	-0.257
-386.004	-30.106	-0.270	0.152
-384.990	-0.386	-0.073	-0.052
-383.975	-200.000	-0.022	0.295
-382.960	-98.690	0.283	0.072
-381.946	112.874	-0.135	0.162
-380.931	189.602	0.095	-0.141
-379.917	-109.833	0.530	-0.110
-378.902	-102.862	0.098	0.023
-377.888	-15.653	-0.268	0.170
-376.873	136.016	0.114	-0.148
-375.858	73.568	0.030	-0.031
-374.844	-200.000	0.050	0.432
-373.829	-47.541	-0.180	-0.087
-372.815	-28.131	0.094	-0.054
-371.800	71.172	0.102	-0.105
-370.785	264.819	-0.084	0.144
-369.771	-134.548	-0.214	-0.026
-368.756	145.112	0.125	0.166
-367.742	-85.003	0.343	0.107
-366.727	138.584	0.094	0.122
-365.712	-21.139	-0.025	-0.015
-364.698	-198.767	-0.339	-0.002
-363.683	-34.806	-0.062	-0.034
-362.669	-94.995	0.242	-0.065
-361.654	170.972	0.220	0.313
-360.639	-65.313	0.124	-0.049
-359.625	-84.599	-0.263	0.082
-358.610	-200.000	0.000	0.069
-357.596	-37.709	-0.058	0.031
-356.581	-173.086	0.076	-0.002
-355.566	-200.000	-0.019	0.238
-354.552	651.968	0.024	0.061
-353.537	-122.592	-0.137	0.022
-352.523	-159.627	0.142	-0.008
-351.508	307.432	0.072	0.132
-350.493	-70.294	-0.292	-0.110
-349.479	31.960	-0.075	-0.064
-348.464	-200.000	0.029	-0.139
-347.450	-115.730	-0.485	0.090
-346.435	-136.200	0.454	-0.053
-345.420	10.461	0.164	-0.124
-344.406	138.924	-0.054	0.070
-343.391	14.046	-0.220	-0.170
-342.377	-72.522	-0.208	-0.076
-341.362	800.000	0.090	-0.292
-340.348	47.553	0.088	0.082
-339.333	-159.854	0.240	0.013
-338.318	-200.000	0.009	-0.433
-337.304	-118.325	-0.226	0.040
-336.289	-200.000	-0.001	-0.244
-335.275	131.317	0.048	-0.061
-334.260	18.522	0.206	0.163
-333.245	378.986	-0.017	0.035
-332.231	5.524	-0.333	-0.244
-331.216	-119.196	0.226	0.039
-330.202	-105.757	0.286	0.064
-329.187	-122.113	0.104	-0.017
-328.172	194.305	0.097	0.145
-327.158	62.748	0.191	0.189
-326.143	-7.790	-0.317	0.212
-325.129	-165.120	0.192	0.008
-324.114	18.281	0.307	0.243
-323.099	-200.000	0.021	-0.332
-322.085	-82.255	0.143	0.046
-321.070	-200.000	-0.021	0.199
-320.056	616.521	-0.091	-0.227
-319.041	-68.387	0.084	-0.032
-318.026	621.006	-0.063	-0.157
-317.012	-86.884	-0.195	0.059
-315.997	672.781	-0.158	0.405
-314.983	800.000	-0.052	-0.160
-313.968	-131.164	0.124	0.016
-312.953	-133.959	0.273	0.034
-311.939	-20.473	-0.220	0.134
-310.924	-84.254	-0.195	0.061
-309.910	-200.000	-0.004	0.064
-308.895	60.178	-0.290	0.284
-307.880	18.012	-0.100	0.079
-306.866	307.529	0.129	-0.239
-305.851	79.238	-0.135	0.143
-304.837	388.486	-0.066	0.134
-303.822	-144.609	-0.420	0.038
-302.807	-11.548	-0.256	0.167
-301.793	63.080	-0.192	-0.190
-300.778	-15.204	-0.465	0.294
-299.764	-157.331	0.210	-0.013
-298.749	-76.465	0.212	-0.074
-297.735	-84.093	-0.227	-0.071
-296.720	5.042	0.145	-0.106
-295.705	50.065	-0.069	0.064
-294.691	-200.000	-0.043	0.215
-293.676	144.320	-0.092	-0.121
-292.662	-40.669	0.163	-0.083
-291.647	-170.108	0.200	0.007
-290.632	483.811	-0.196	-0.440
-289.618	-200.000	-0.019	-0.344
-288.603	238.128	0.154	0.253
-287.589	782.173	-0.055	-0.150
-286.574	26.074	0.203	0.167
-285.559	-174.349	-0.075	0.002
-284.545	151.317	0.056	0.075
-283.530	55.702	0.104	0.099
-282.516	-200.000	-0.004	0.095
-281.501	76.213	0.117	-0.122
-280.486	253.056	0.059	-0.100
-279.472	-200.000	0.021	-0.163
-278.457	11.517	-0.209	0.159
-277.443	-93.287	-0.384	-0.105
-276.428	-200.000	-0.001	-0.037
-275.413	-18.117	-0.304	-0.188
-274.399	-2.412	0.085	0.059
-273.384	-200.000	0.032	-0.148
-272.370	-75.437	-0.231	-0.081
-271.355	153.250	-0.159	0.215
-270.340	-88.187	0.075	0.022
-269.326	-200.000	-0.034	-0.543
-268.311	-63.666	-0.335	0.136
-267.297	53.611	0.224	0.213
-266.282	33.575	-0.031	-0.027
-265.267	-200.000	0.000	0.159
-264.253	94.560	0.192	0.215
-263.238	-164.375	-0.228	-0.010
-262.224	150.091	0.139	0.186
-261.209	-103.789	0.382	-0.088
-260.195	-57.570	-0.262	-0.113
-259.180	-115.993	0.255	-0.047
-258.165	227.900	-0.133	0.214
-257.151	799.445	-0.033	0.089
-256.136	37.454	0.218	0.191
-255.122	93.880	-0.336	0.376
-254.107	-44.781	-0.020	0.010
-253.092	-200.000	0.021	-0.139
-252.078	-26.761	0.203	-0.117
-251.063	162.871	-0.056	0.078
-250.049	-120.982	-0.285	-0.047
-249.034	800.000	-0.056	-0.181
-248.019	-60.482	0.210	0.088
-247.005	247.383	0.169	-0.282
-245.990	-130.125	0.274	-0.037
-244.976	183.889	0.139	-0.204
-243.961	-41.092	0.235	-0.120
-242.946	194.367	0.189	-0.283
-241.932	-200.000	-0.002	0.036
-240.917	659.833	0.091	0.231
-239.903	-200.000	0.005	0.062
-238.888	607.479	0.049	-0.122
-237.873	-102.137	-0.225	-0.054
-236.859	39.868	0.073	-0.065
-235.844	57.514	0.257	-0.248
-234.830	-196.889	0.151	-0.001
-233.815	-126.646	-0.152	0.022
-232.800	-200.000	-0.053	0.353
-231.786	-200.000	0.021	-0.133
-230.771	8.879	-0.051	0.038
-229.757	-67.039	0.170	0.066
-228.742	-134.876	-0.224	0.027
-227.727	-34.959	0.267	-0.144
-226.713	216.090	0.058	0.090
-225.698	448.460	-0.137	0.298
-224.684	-200.000	0.007	0.070
-223.669	544.283	-0.103	0.243
-222.655	79.549	-0.163	-0.173
-221.640	-200.000	0.018	-0.269
-220.625	-177.439	0.150	0.004
-219.611	-101.265	-0.211	-0.051
-218.596	151.809	-0.189	-0.254
-217.582	-200.000	-0.016	-0.119
-216.567	27.309	-0.014	-0.012
-215.552	530.207	0.111	0.257
-214.538	-200.000	0.053	-0.264
-213.523	-145.199	0.164	0.015
-212.509	-123.112	0.208	-0.033
-211.494	-65.818	-0.200	0.079
-210.479	-177.961	-0.154	0.004
-209.465	-139.128	-0.063	-0.007
-208.450	-26.359	-0.144	-0.083
-207.436	-200.000	0.035	0.206
-206.421	-12.415	0.116	0.075
-205.406	14.686	0.200	-0.154
-204.392	395.295	-0.066	0.136
-203.377	-150.008	0.145	0.011
-202.363	-55.926	0.215	-0.095
-201.348	172.438	0.255	0.362
-200.333	420.544	-0.098	-0.208
-199.319	-178.921	0.306	0.007
-198.304	-200.000	0.050	-0.224
-197.290	-1.787	0.121	-0.084
-196.275	-145.669	0.228	-0.020
-195.260	-80.035	0.072	-0.024
-194.246	-14.946	0.210	0.133
-193.231	800.000	0.099	0.316
-192.217	180.829	0.102	-0.148
-191.202	-200.000	-0.006	-0.352
-190.187	-174.733	0.055	0.002
-189.173	-107.202	-0.172	-0.037
-188.158	-59.292	0.150	0.064
-187.144	800.000	0.064	-0.177
-186.129	-200.000	-0.014	0.185
-185.114	202.883	0.135	0.205
-184.100	178.540	0.080	0.115
-183.085	70.935	0.190	-0.194
-182.071	-120.160	-0.244	-0.041
-181.056	74.034	-0.157	-0.162
-180.042	-169.796	0.127	0.005
-179.027	292.036	-0.107	-0.191
-178.012	-8.787	0.187	0.124
-176.998	501.489	-0.110	-0.249
-175.983	494.394	-0.108	-0.244
-174.969	284.514	0.058	-0.103
-173.954	6.600	0.236	-0.173
-172.939	65.364	0.291	-0.290
-171.925	-33.543	-0.513	0.279
-170.910	-114.682	0.171	0.032
-169.896	72.388	0.108	-0.111
-168.881	649.701	0.052	-0.131
-167.866	580.142	-0.125	0.302
-166.852	242.870	-0.105	0.172
-165.837	-33.442	-0.216	0.118
-164.823	-200.000	0.003	-0.421
-163.808	-200.000	-0.144	0.000
-162.793	-84.159	0.197	0.061
-161.779	-30.236	-0.321	0.179
-160.764	-115.967	0.263	0.048
-159.750	201.099	-0.094	0.143
-158.735	127.830	-0.089	0.111
-157.720	-60.866	0.119	0.050
-156.706	-79.324	-0.255	-0.085
-155.691	268.659	-0.182	0.314
-154.677	628.325	0.061	-0.151
-153.662	164.249	0.084	0.116
-152.647	800.000	-0.049	-0.177
-151.633	-119.817	-0.065	0.011
-150.618	394.307	0.147	0.301
-149.604	-189.999	0.290	-0.003
-148.589	299.743	-0.022	0.040
-147.574	668.748	-0.023	-0.059
-146.560	-88.491	-0.195	0.057
-145.545	-200.000	-0.064	0.278
-144.531	-200.000	-0.037	0.175
-143.516	15.535	-0.201	0.155
-142.502	151.482	0.134	-0.180
-141.487	263.903	-0.091	0.156
-140.472	-168.685	-0.151	-0.006
-139.458	800.000	0.062	-0.194
-138.443	662.973	0.120	-0.305
-137.429	-200.000	-0.044	0.235
-136.414	66.894	-0.159	0.159
-135.399	-147.421	-0.395	0.033
-134.385	426.396	0.116	-0.245
-133.370	22.451	-0.231	0.186
-132.356	349.578	-0.083	0.160
-131.341	-27.241	0.223	-0.128
-130.326	500.931	-0.087	0.198
-129.312	107.209	0.188	0.219
-128.297	62.341	-0.101	0.099
-127.283	348.404	-0.093	0.181
-126.268	800.000	0.051	0.144
-125.253	-32.334	-0.185	-0.102
-124.239	800.000	0.092	0.321
-123.224	15.610	0.064	-0.049
-122.210	800.000	-0.017	-0.060
-121.195	352.089	-0.042	0.081
