DTS Sentinel unit serial number:	SN413079Multiplexer serial number:	ORYXHardware model number:	OX4-SRSoftware version number:	ORYX F/W v4.00 Oryx Data Collector v3.7.2.0data status	okinstallation	princeton_trtdifferential loss correction	single-endedforward channel	channel 2reverse channel	N/Adate	2019/09/19time	09:11:34forward acquisition time	60.00reverse acquisition time	0.00gamma	496.2192k internal	0.2352k external	0.2352temperature offset calibration	0.9997default loss term (dB/km)	0.3790temperature slope calibration	1.0000multiplexer offset coefficient	1.0000multiplexer slope coefficient	1.0000fibre end	0.00T internal ref (°C)	21.97T ext. ref 1 (°C)	0.60T ext. ref 2 (°C)	19.16length (m)	temperature (°C)	Stokes	anti-Stokes-747.200	-200.000	0.013	0.133
-746.185	204.970	-0.255	0.394
-745.171	-0.707	0.131	0.093
-744.156	351.272	0.148	0.291
-743.142	-39.497	0.243	-0.127
-742.127	800.000	0.070	0.264
-741.112	139.962	0.116	-0.152
-740.098	157.804	-0.187	0.258
-739.083	-53.534	-0.096	0.044
-738.069	-49.132	-0.163	0.078
-737.054	800.000	0.021	-0.087
-736.039	-200.000	-0.018	-0.172
-735.025	-200.000	-0.007	0.200
-734.010	-128.301	-0.397	-0.056
-732.996	566.751	0.050	-0.121
-731.981	-200.000	0.014	-0.246
-730.966	173.819	0.023	0.033
-729.952	-65.581	-0.241	-0.096
-728.937	24.367	-0.221	-0.182
-727.923	-48.727	-0.141	0.068
-726.908	555.673	-0.123	-0.296
-725.894	-124.191	-0.264	0.041
-724.879	0.447	0.187	-0.133
-723.864	-200.000	-0.039	-0.278
-722.850	-200.000	-0.069	-0.355
-721.835	-47.845	-0.050	-0.024
-720.821	-36.692	0.100	0.054
-719.806	549.602	-0.094	-0.223
-718.791	28.210	-0.096	-0.081
-717.777	131.713	-0.153	0.196
-716.762	316.931	-0.067	0.127
-715.748	800.000	-0.031	-0.091
-714.733	-14.738	-0.204	0.130
-713.718	-114.402	-0.246	-0.047
-712.704	-73.507	-0.134	0.049
-711.689	-95.235	0.142	0.038
-710.675	-14.378	-0.052	0.033
-709.660	333.939	-0.223	-0.429
-708.645	220.340	-0.083	-0.133
-707.631	-138.047	-0.002	-0.000
-706.616	27.466	0.227	-0.190
-705.602	-12.191	0.224	0.146
-704.587	326.773	-0.105	-0.200
-703.572	78.531	-0.094	-0.100
-702.558	574.998	0.102	-0.248
-701.543	-90.605	-0.089	-0.026
-700.529	6.189	0.152	-0.112
-699.514	800.000	-0.087	0.350
-698.499	800.000	0.032	-0.133
-697.485	132.356	-0.112	-0.144
-696.470	-10.505	0.156	0.103
-695.456	182.014	-0.283	-0.415
-694.441	-60.552	-0.119	0.050
-693.426	587.457	-0.057	-0.140
-692.412	-200.000	-0.008	-0.356
-691.397	-114.231	0.181	0.035
-690.383	140.180	-0.080	0.105
-689.368	-61.445	0.193	0.081
-688.354	776.060	0.065	-0.177
-687.339	-200.000	0.038	0.259
-686.324	-88.285	0.114	-0.034
-685.310	-148.888	-0.337	0.027
-684.295	295.524	0.076	-0.138
-683.281	296.699	0.027	-0.050
-682.266	-200.000	0.007	-0.185
-681.251	103.162	-0.085	0.099
-680.237	-20.154	0.206	-0.127
-679.222	69.360	0.031	-0.032
-678.208	59.599	-0.068	-0.067
-677.193	83.981	0.317	0.345
-676.178	-29.446	0.202	-0.115
-675.164	269.542	0.140	0.244
-674.149	800.000	0.065	0.204
-673.135	-39.924	0.187	0.097
-672.120	-200.000	0.022	-0.198
-671.105	620.256	-0.219	-0.547
-670.091	-117.030	0.062	0.011
-669.076	23.922	-0.267	-0.219
-668.062	-54.208	0.243	0.110
-667.047	-71.423	-0.252	0.094
-666.032	102.223	0.253	0.293
-665.018	-200.000	0.069	0.426
-664.003	-200.000	-0.010	0.232
-662.989	-84.996	0.206	-0.064
-661.974	178.669	0.205	-0.297
-660.959	17.736	0.180	-0.143
-659.945	-14.124	0.211	0.135
-658.930	25.448	-0.182	-0.150
-657.916	-57.229	0.086	0.037
-656.901	-200.000	0.036	0.176
-655.886	38.611	-0.184	-0.163
-654.872	378.955	-0.103	0.209
-653.857	284.488	0.164	0.293
-652.843	-200.000	-0.025	0.202
-651.828	111.322	-0.050	-0.060
-650.814	-88.598	0.271	0.080
-649.799	105.762	-0.193	-0.227
-648.784	6.259	0.482	-0.355
-647.770	-42.865	-0.163	0.082
-646.755	132.373	0.107	-0.137
-645.741	-40.193	-0.341	-0.176
-644.726	184.334	0.171	0.252
-643.711	-88.044	-0.397	-0.118
-642.697	-18.476	0.205	-0.127
-641.682	451.810	-0.114	0.249
-640.668	-102.407	0.278	0.066
-639.653	-133.475	0.057	-0.007
-638.638	-2.014	0.261	-0.182
-637.624	-114.893	-0.224	-0.042
-636.609	282.020	0.129	-0.230
-635.595	156.057	0.077	-0.105
-634.580	-108.184	-0.285	0.061
-633.565	31.976	0.110	-0.094
-632.551	-1.378	0.367	-0.257
-631.536	317.388	-0.069	0.130
-630.522	247.306	0.114	0.191
-629.507	35.277	0.280	-0.244
-628.492	-200.000	0.043	-0.226
-627.478	247.475	-0.154	-0.258
-626.463	256.088	0.115	0.196
-625.449	-83.254	-0.382	-0.122
-624.434	-200.000	0.052	-0.226
-623.419	104.516	-0.199	0.233
-622.405	7.328	0.231	-0.171
-621.390	800.000	-0.092	0.306
-620.376	13.848	0.236	-0.182
-619.361	532.582	-0.050	-0.117
-618.346	-123.437	-0.369	0.058
-617.332	-200.000	0.010	0.124
-616.317	-200.000	0.046	0.403
-615.303	69.810	-0.250	-0.256
-614.288	139.482	-0.077	-0.100
-613.273	-3.004	-0.289	0.200
-612.259	-200.000	0.017	0.536
-611.244	-200.000	0.012	-0.088
-610.230	-17.180	-0.206	-0.129
-609.215	-67.324	0.219	0.086
-608.201	-60.260	-0.169	0.072
-607.186	-200.000	0.004	0.170
-606.171	-113.675	0.194	-0.038
-605.157	-200.000	-0.024	-0.128
-604.142	-99.676	-0.050	0.013
-603.128	16.230	-0.287	-0.225
-602.113	38.422	-0.189	0.167
-601.098	-161.892	-0.031	-0.002
-600.084	-43.080	-0.167	0.084
-599.069	-51.092	0.304	-0.141
-598.055	-200.000	-0.017	0.107
-597.040	142.925	-0.144	0.190
-596.025	386.436	0.064	-0.130
-595.011	41.273	-0.111	-0.100
-593.996	-112.519	0.140	0.028
-592.982	446.487	-0.078	0.170
-591.967	496.924	0.099	-0.226
-590.952	627.110	0.055	0.137
-589.938	-200.000	0.027	0.134
-588.923	-200.000	0.008	-0.260
-587.909	547.233	-0.086	-0.204
-586.894	-90.284	0.194	0.056
-585.879	-200.000	0.303	0.001
-584.865	800.000	-0.038	0.107
-583.850	82.816	-0.302	0.325
-582.836	-180.833	-0.136	0.003
-581.821	-97.645	0.231	0.059
-580.806	-79.035	0.100	0.034
-579.792	-152.230	-0.164	0.012
-578.777	-65.917	-0.388	-0.154
-577.763	-121.249	0.355	0.059
-576.748	11.061	0.247	-0.187
-575.733	-141.392	0.293	-0.029
-574.719	246.354	-0.098	-0.163
-573.704	-200.000	-0.039	-0.175
-572.690	-14.164	-0.271	0.173
-571.675	-200.000	0.021	-0.251
-570.661	-200.000	0.012	0.268
-569.646	-200.000	-0.010	-0.291
-568.631	-129.033	-0.279	-0.039
-567.617	-188.484	-0.054	0.001
-566.602	419.675	0.056	-0.120
-565.588	-200.000	0.029	-0.267
-564.573	-200.000	-0.007	0.157
-563.558	800.000	0.029	0.115
-562.544	800.000	-0.045	0.139
-561.529	78.082	0.257	0.271
-560.515	269.204	-0.082	-0.143
-559.500	-185.353	-0.433	0.007
-558.485	-200.000	-0.002	0.011
-557.471	-62.250	-0.064	0.026
-556.456	578.181	-0.112	-0.271
-555.442	116.695	-0.079	-0.096
-554.427	800.000	0.096	0.383
-553.412	-200.000	0.014	-0.178
-552.398	-102.715	0.257	0.061
-551.383	286.543	-0.011	-0.020
-550.369	800.000	0.039	0.152
-549.354	16.721	-0.289	-0.227
-548.339	264.418	0.100	-0.173
-547.325	-200.000	-0.009	0.180
-546.310	800.000	-0.087	0.357
-545.296	800.000	0.065	0.234
-544.281	-200.000	-0.019	-0.087
-543.266	77.039	-0.210	-0.221
-542.252	111.681	-0.112	-0.134
-541.237	574.787	0.120	-0.290
-540.223	-7.014	-0.385	-0.258
-539.208	607.766	-0.052	0.128
-538.193	800.000	0.072	-0.209
-537.179	-160.292	0.101	0.005
-536.164	-124.859	-0.337	0.052
-535.150	498.356	0.124	0.282
-534.135	-22.157	0.131	0.079
-533.121	29.251	0.145	-0.122
-532.106	-200.000	-0.024	0.134
-531.091	68.181	-0.102	0.103
-530.077	800.000	-0.087	0.238
-529.062	490.447	-0.124	-0.281
-528.048	90.434	0.051	-0.056
-527.033	42.340	-0.153	0.138
-526.018	-200.000	-0.007	-0.154
-525.004	257.732	0.141	-0.240
-523.989	-200.000	-0.002	-0.167
-522.975	69.063	-0.216	0.219
-521.960	-200.000	0.166	-0.000
-520.945	112.592	0.193	0.231
-519.931	191.932	-0.139	-0.208
-518.916	-103.389	0.053	-0.012
-517.902	-200.000	0.022	-0.209
-516.887	99.910	0.167	-0.191
-515.872	112.717	0.153	0.183
-514.858	2.923	0.124	0.089
-513.843	-140.146	-0.435	0.045
-512.829	-50.482	-0.070	-0.033
-511.814	800.000	0.067	-0.238
-510.799	13.433	0.272	-0.209
-509.785	-135.051	-0.320	0.038
-508.770	-19.469	-0.054	-0.033
-507.756	-5.356	0.337	0.229
-506.741	688.711	0.069	-0.177
-505.726	800.000	0.042	-0.123
-504.712	-200.000	-0.060	0.427
-503.697	800.000	0.046	0.133
-502.683	800.000	-0.048	-0.140
-501.668	-54.447	0.173	0.078
-500.653	219.180	-0.179	0.282
-499.639	-200.000	0.074	0.376
-498.624	47.989	0.164	-0.152
-497.610	63.188	-0.217	-0.215
-496.595	-200.000	0.027	0.224
-495.581	137.654	-0.058	-0.075
-494.566	222.560	-0.167	0.266
-493.551	-87.115	-0.060	0.018
-492.537	-200.000	0.036	-0.290
-491.522	-200.000	0.020	-0.303
-490.508	-200.000	-0.008	-0.211
-489.493	107.067	0.114	-0.133
-488.478	-107.418	-0.179	0.039
-487.464	436.486	0.174	0.375
-486.449	-90.430	-0.241	0.069
-485.435	193.199	0.113	0.169
-484.420	-200.000	0.014	0.104
-483.405	-123.444	-0.065	0.010
-482.391	-14.871	-0.190	-0.120
-481.376	21.553	-0.221	-0.177
-480.362	-86.158	0.242	-0.074
-479.347	-107.523	-0.443	0.096
-478.332	800.000	0.060	0.174
-477.318	800.000	-0.111	-0.367
-476.303	64.140	0.199	-0.198
-475.289	800.000	-0.064	0.198
-474.274	-34.404	-0.312	0.169
-473.259	800.000	0.029	0.088
-472.245	108.809	-0.086	-0.101
-471.230	268.227	-0.117	-0.202
-470.216	-200.000	-0.038	0.324
-469.201	-200.000	0.583	0.002
-468.186	-200.000	0.063	-0.383
-467.172	114.834	-0.059	-0.071
-466.157	-23.793	0.231	-0.137
-465.143	134.674	0.107	-0.137
-464.128	-160.725	0.024	-0.001
-463.113	198.451	0.112	0.169
-462.099	528.199	-0.136	-0.317
-461.084	-200.000	-0.026	0.185
-460.070	-102.956	-0.345	-0.081
-459.055	-104.077	0.139	0.032
-458.040	-200.000	-0.036	0.403
-457.026	-84.075	0.130	-0.041
-456.011	-78.250	-0.261	0.088
-454.997	358.430	-0.148	0.292
-453.982	-200.000	0.120	-0.587
-452.968	-99.837	-0.121	-0.030
-451.953	219.868	0.131	0.207
-450.938	-87.331	0.228	0.068
-449.924	5.422	-0.029	-0.021
-448.909	38.241	0.027	-0.024
-447.895	-200.000	0.030	-0.423
-446.880	66.454	-0.229	-0.230
-445.865	-200.000	-0.002	-0.155
-444.851	-117.384	0.169	-0.030
-443.836	-200.000	-0.012	-0.070
-442.822	269.241	-0.034	-0.059
-441.807	332.705	0.242	-0.462
-440.792	-21.233	0.055	-0.033
-439.778	-62.495	0.088	0.036
-438.763	800.000	0.043	0.141
-437.749	309.270	0.047	0.087
-436.734	55.201	-0.040	-0.038
-435.719	-160.696	0.109	-0.006
-434.705	-200.000	-0.007	0.096
-433.690	-12.834	-0.131	0.084
-432.676	-26.004	0.386	0.224
-431.661	-161.807	-0.366	-0.018
-430.646	-108.481	0.388	0.082
-429.632	-105.468	-0.141	0.032
-428.617	-109.591	-0.258	0.054
-427.603	-200.000	0.030	0.157
-426.588	800.000	0.089	0.268
-425.573	800.000	0.032	0.131
-424.559	-200.000	-0.016	-0.309
-423.544	764.663	-0.032	0.085
-422.530	800.000	0.138	0.433
-421.515	2.683	-0.076	0.054
-420.500	-118.614	0.123	0.021
-419.486	-148.363	0.228	0.018
-418.471	479.894	-0.064	-0.142
-417.457	-200.000	0.047	-0.211
-416.442	518.562	-0.054	0.125
-415.428	-35.755	-0.153	0.082
-414.413	-200.000	-0.009	-0.260
-413.398	-140.672	-0.181	0.018
-412.384	-179.494	0.408	0.009
-411.369	44.949	0.060	-0.055
-410.355	-93.427	0.094	-0.026
-409.340	-76.445	-0.446	-0.154
-408.325	-132.040	0.203	0.026
-407.311	149.296	-0.058	0.077
-406.296	-145.990	0.185	-0.016
-405.282	60.697	0.164	0.160
-404.267	110.814	0.049	0.059
-403.252	186.788	-0.094	0.138
-402.238	-58.377	0.185	0.079
-401.223	328.788	-0.134	0.254
-400.209	800.000	-0.045	-0.146
-399.194	-156.417	0.156	0.010
-398.179	40.328	0.079	-0.070
-397.165	150.811	0.143	0.191
-396.150	-200.000	-0.009	-0.209
-395.136	-200.000	0.060	0.330
-394.121	-200.000	0.011	-0.181
-393.106	-28.531	0.215	0.122
-392.092	158.938	-0.058	-0.080
-391.077	177.205	-0.154	0.221
-390.063	-14.352	0.283	-0.179
-389.048	106.015	-0.072	0.084
-388.033	-102.931	0.304	-0.071
-387.019	800.000	-0.088	-0.269
-386.004	58.586	-0.063	-0.061
-384.990	-200.000	0.062	-0.333
-383.975	-200.000	-0.020	-0.118
-382.960	493.730	0.081	-0.182
-381.946	234.979	0.077	-0.125
-380.931	59.144	-0.088	-0.085
-379.917	800.000	0.157	0.430
-378.902	314.257	0.063	-0.117
-377.888	-200.000	0.068	-0.315
-376.873	-120.322	0.097	-0.016
-375.858	253.996	0.077	-0.129
-374.844	259.136	-0.104	-0.176
-373.829	-104.501	0.217	0.049
-372.815	-103.753	-0.317	-0.073
-371.800	90.272	0.168	-0.185
-370.785	297.360	-0.131	0.236
-369.771	401.201	0.069	0.143
-368.756	125.322	0.187	0.232
-367.742	80.635	0.099	-0.105
-366.727	4.304	-0.196	0.141
-365.712	-4.632	-0.160	-0.108
-364.698	156.857	-0.092	-0.125
-363.683	-121.618	0.231	-0.038
-362.669	-200.000	-0.041	0.222
-361.654	3.899	0.315	0.227
-360.639	800.000	0.022	0.091
-359.625	-200.000	-0.026	-0.244
-358.610	270.478	-0.078	-0.135
-357.596	172.539	-0.054	-0.076
-356.581	-35.555	-0.531	-0.283
-355.566	267.843	-0.115	0.198
-354.552	134.074	0.075	0.095
-353.537	5.187	0.145	0.105
-352.523	113.212	0.196	0.233
-351.508	-56.001	0.188	-0.083
-350.493	-95.121	0.151	-0.040
-349.479	-200.000	-0.039	-0.171
-348.464	150.339	0.297	0.396
-347.450	-88.638	0.138	0.040
-346.435	-200.000	-0.006	-0.168
-345.420	110.048	0.317	0.373
-344.406	-200.000	-0.040	-0.178
-343.391	800.000	-0.064	-0.185
-342.377	-70.684	0.108	0.040
-341.362	-200.000	-0.002	-0.382
-340.348	-20.795	0.097	-0.058
-339.333	100.326	-0.123	0.140
-338.318	800.000	-0.091	-0.306
-337.304	-48.097	-0.341	-0.162
-336.289	-200.000	-0.002	-0.256
-335.275	-200.000	-0.062	-0.373
-334.260	-21.761	-0.242	-0.145
-333.245	-23.196	0.187	-0.111
-332.231	-53.998	-0.202	-0.090
-331.216	-200.000	0.029	-0.253
-330.202	20.831	0.237	-0.189
-329.187	-200.000	-0.013	-0.134
-328.172	445.953	-0.145	-0.313
-327.158	-127.105	0.376	-0.054
-326.143	800.000	0.072	0.267
-325.129	34.284	-0.093	-0.080
-324.114	-77.726	-0.040	-0.014
-323.099	709.758	0.083	0.216
-322.085	-105.162	-0.318	0.071
-321.070	-5.845	0.297	-0.199
-320.056	800.000	-0.029	-0.096
-319.041	-62.404	0.155	-0.063
-318.026	449.380	0.053	0.115
-317.012	-87.937	-0.281	-0.083
-315.997	-200.000	-0.059	0.425
-314.983	800.000	0.084	0.227
-313.968	-47.413	-0.329	0.157
-312.953	105.903	-0.166	0.193
-311.939	101.077	-0.325	0.371
-310.924	195.785	0.116	-0.174
-309.910	400.772	-0.108	0.223
-308.895	-59.976	0.290	0.122
-307.880	800.000	-0.102	0.301
-306.866	30.166	0.152	-0.127
-305.851	-65.470	0.144	0.057
-304.837	-121.842	-0.440	-0.071
-303.822	498.671	-0.063	-0.142
-302.807	-13.807	-0.222	0.140
-301.793	-37.204	0.442	-0.232
-300.778	238.932	0.083	-0.135
-299.764	5.300	-0.282	0.204
-298.749	684.657	-0.036	-0.091
-297.735	-76.539	-0.176	0.061
-296.720	133.808	-0.068	-0.086
-295.705	41.513	0.296	-0.263
-294.691	-200.000	0.028	0.124
-293.676	-107.243	-0.132	-0.028
-292.662	-106.263	-0.348	-0.076
-291.647	162.782	0.178	0.245
-290.632	-200.000	-0.008	-0.109
-289.618	-135.711	0.070	-0.008
-288.603	-62.450	-0.219	-0.089
-287.589	-174.945	-0.127	-0.003
-286.574	173.188	-0.018	-0.026
-285.559	70.962	0.089	0.090
-284.545	-19.427	0.079	0.048
-283.530	-2.358	-0.189	0.130
-282.516	-38.560	0.251	0.130
-281.501	-37.047	0.124	-0.065
-280.486	35.954	0.135	0.116
-279.472	493.779	0.071	-0.160
-278.457	141.928	-0.328	0.426
-277.443	239.659	-0.094	0.154
-276.428	-200.000	0.017	0.141
-275.413	800.000	0.070	-0.200
-274.399	175.202	-0.224	-0.318
-273.384	185.994	0.143	0.208
-272.370	-62.113	-0.207	-0.085
-271.355	-200.000	-0.027	-0.181
-270.340	-23.532	0.258	0.151
-269.326	800.000	0.082	-0.309
-268.311	281.915	0.106	-0.186
-267.297	-200.000	0.053	-0.254
-266.282	152.649	0.076	-0.102
-265.267	157.607	-0.162	-0.220
-264.253	37.160	0.081	0.070
-263.238	-100.225	-0.192	-0.047
-262.224	-200.000	0.002	0.042
-261.209	-144.650	-0.295	0.027
-260.195	800.000	0.038	-0.106
-259.180	396.928	-0.060	0.123
-258.165	129.483	-0.104	-0.131
-257.151	112.130	-0.123	-0.146
-256.136	-19.797	0.083	-0.050
-255.122	223.093	0.050	0.079
-254.107	441.201	-0.091	-0.194
-253.092	-200.000	-0.010	-0.113
-252.078	114.517	-0.249	0.297
-251.063	20.677	-0.298	0.236
-250.049	-200.000	0.027	-0.127
-249.034	-200.000	0.008	0.164
-248.019	167.751	-0.168	-0.234
-247.005	-108.859	0.280	-0.059
-245.990	-112.024	0.049	0.010
-244.976	547.748	0.094	0.221
-243.961	-79.305	-0.154	0.051
-242.946	10.242	0.196	-0.146
-241.932	-143.718	-0.140	-0.013
-240.917	-36.386	0.194	-0.102
-239.903	92.865	0.320	-0.353
-238.888	-23.689	-0.109	0.064
-237.873	-142.881	0.443	-0.042
-236.859	-200.000	-0.004	0.027
-235.844	-149.824	0.324	0.025
-234.830	-200.000	0.026	-0.168
-233.815	-119.801	0.129	0.022
-232.800	400.000	-0.084	0.173
-231.786	-200.000	-0.057	0.281
-230.771	42.303	-0.111	0.098
-229.757	33.435	0.105	0.089
-228.742	-61.754	-0.288	0.118
-227.727	51.568	0.032	0.030
-226.713	64.105	0.216	0.212
-225.698	-7.042	-0.156	-0.104
-224.684	282.641	-0.114	0.199
-223.669	-200.000	-0.102	0.599
-222.655	448.156	-0.151	0.325
-221.640	336.755	0.123	0.233
-220.625	-113.412	0.328	0.063
-219.611	-97.000	-0.366	0.094
-218.596	-2.466	0.158	-0.108
-217.582	363.711	0.096	-0.188
-216.567	800.000	0.051	-0.205
-215.552	-200.000	0.037	0.290
-214.538	-200.000	0.042	0.240
-213.523	36.934	0.297	0.257
-212.509	117.918	-0.075	0.090
-211.494	99.425	-0.340	0.384
-210.479	-52.387	-0.215	0.097
-209.465	-200.000	0.041	0.211
-208.450	62.515	0.117	0.114
-207.436	-200.000	-0.020	0.231
-206.421	800.000	-0.061	-0.217
-205.406	-44.450	0.328	-0.160
-204.392	41.882	-0.091	0.081
-203.377	-70.181	0.056	-0.021
-202.363	-5.774	-0.359	-0.240
-201.348	91.102	-0.149	0.163
-200.333	171.339	0.182	0.255
-199.319	138.336	0.180	-0.231
-198.304	431.789	-0.034	-0.071
-197.290	-27.902	-0.090	-0.051
-196.275	-74.760	0.136	0.048
-195.260	800.000	0.077	0.219
-194.246	-50.937	0.105	-0.048
-193.231	-200.000	0.068	0.301
-192.217	800.000	-0.054	0.155
-191.202	-8.226	0.224	-0.147
-190.187	-144.626	0.338	0.030
-189.173	800.000	0.054	0.179
-188.158	-22.160	0.126	0.075
-187.144	230.720	0.200	0.319
-186.129	-4.677	0.062	-0.042
-185.114	-200.000	-0.334	0.001
-184.100	-200.000	-0.004	0.060
-183.085	9.174	-0.142	-0.105
-182.071	30.884	-0.131	-0.110
-181.056	-121.803	-0.404	0.065
-180.042	-200.000	-0.022	0.105
-179.027	427.885	-0.135	0.284
-178.012	98.821	-0.221	0.249
-176.998	-200.000	0.040	0.349
-175.983	800.000	0.057	0.232
-174.969	-200.000	-0.073	-0.360
-173.954	92.642	-0.045	0.050
-172.939	477.168	-0.041	0.090
-171.925	53.029	0.053	-0.050
-170.910	46.322	-0.131	-0.118
-169.896	-122.421	0.262	0.042
-168.881	303.041	0.013	0.024
-167.866	-60.975	-0.113	0.046
-166.852	-60.590	0.052	-0.022
-165.837	-152.489	0.372	-0.026
-164.823	-200.000	-0.008	0.036
-163.808	-166.918	-0.065	-0.003
-162.793	-123.682	-0.314	0.049
-161.779	32.091	-0.177	0.149
-160.764	221.214	-0.144	-0.225
-159.750	-38.962	-0.086	-0.044
-158.735	-200.000	-0.002	0.124
-157.720	60.362	0.151	-0.146
-156.706	-200.000	-0.012	0.097
-155.691	-200.000	0.010	-0.154
-154.677	-120.857	-0.152	0.025
-153.662	376.405	0.062	-0.124
-152.647	-165.489	0.232	-0.010
-151.633	85.737	0.282	-0.302
-150.618	-200.000	0.037	0.300
-149.604	-45.588	-0.353	0.170
-148.589	-81.738	-0.144	0.046
-147.574	-53.445	0.155	-0.069
-146.560	-200.000	-0.001	0.522
-145.545	121.710	0.103	0.126
-144.531	-179.037	-0.382	0.008
-143.516	124.792	0.121	0.148
-142.502	115.234	0.072	0.086
-141.487	-200.000	-0.026	0.132
-140.472	-65.667	-0.098	-0.038
-139.458	574.047	0.035	-0.083
-138.443	-200.000	-0.178	-0.001
-137.429	-50.964	-0.282	0.129
-136.414	435.557	-0.040	0.084
-135.399	-28.136	0.155	0.088
-134.385	568.528	-0.059	-0.141
-133.370	-45.078	-0.151	-0.073
-132.356	-200.000	-0.002	-0.107
-131.341	800.000	0.033	0.110
-130.326	86.650	0.409	0.440
-129.312	459.484	-0.094	0.204
-128.297	10.063	0.231	0.171
-127.283	-64.154	0.191	0.076
-126.268	-68.011	0.180	-0.068
-125.253	-15.768	0.117	0.073
-124.239	-102.899	0.235	-0.054
-123.224	800.000	0.050	0.207
-122.210	-36.232	0.274	-0.144
-121.195	86.805	-0.095	-0.102
