DTS Sentinel unit serial number:	SN413079Multiplexer serial number:	ORYXHardware model number:	OX4-SRSoftware version number:	ORYX F/W v4.00 Oryx Data Collector v3.7.2.0data status	okinstallation	princeton_trtdifferential loss correction	single-endedforward channel	channel 2reverse channel	N/Adate	2019/09/12time	20:01:49forward acquisition time	15.00reverse acquisition time	0.00gamma	496.2192k internal	0.2327k external	0.2327temperature offset calibration	1.0156default loss term (dB/km)	0.3790temperature slope calibration	1.0000multiplexer offset coefficient	1.0000multiplexer slope coefficient	1.0000fibre end	0.00T internal ref (°C)	31.75T ext. ref 1 (°C)	3.42T ext. ref 2 (°C)	26.31length (m)	temperature (°C)	Stokes	anti-Stokes-747.200	-40.614	-0.463	-0.242
-746.185	-200.000	0.069	0.944
-745.171	-94.030	-0.310	-0.086
-744.156	33.890	-0.301	0.265
-743.142	316.430	0.223	-0.424
-742.127	33.363	0.493	0.432
-741.112	173.295	0.356	-0.517
-740.098	37.696	-0.623	0.557
-739.083	-172.495	-0.315	0.010
-738.069	10.058	-0.263	0.201
-737.054	118.583	0.148	-0.184
-736.039	152.738	-0.836	1.151
-735.025	-54.777	0.732	0.333
-734.010	-124.026	-0.791	0.125
-732.996	-200.000	-0.061	0.289
-731.981	287.445	-0.074	-0.136
-730.966	109.289	-0.153	0.184
-729.952	-90.773	0.833	0.242
-728.937	5.552	-1.213	0.903
-727.923	-9.309	0.623	0.419
-726.908	800.000	-0.040	-0.140
-725.894	735.088	0.078	0.210
-724.879	77.044	-0.236	0.253
-723.864	-111.686	0.553	-0.113
-722.850	519.155	0.179	0.422
-721.835	-200.000	-0.009	-0.623
-720.821	-73.323	-0.192	-0.071
-719.806	-82.804	0.509	0.166
-718.791	-6.044	-0.478	-0.329
-717.777	133.228	0.452	0.588
-716.762	-184.956	0.250	-0.004
-715.748	-136.900	-0.712	0.082
-714.733	49.705	0.390	0.370
-713.718	-177.071	0.319	0.008
-712.704	69.353	-0.234	-0.243
-711.689	-164.571	0.377	-0.017
-710.675	-200.000	0.003	0.373
-709.660	227.969	0.222	0.365
-708.645	-40.341	0.586	0.307
-707.631	-36.785	-0.528	0.286
-706.616	87.199	0.073	-0.081
-705.602	-156.443	-0.138	-0.009
-704.587	-200.000	-0.095	-0.593
-703.572	-200.000	-0.001	0.309
-702.558	287.728	-0.098	-0.179
-701.543	8.225	-0.460	-0.348
-700.529	800.000	0.096	-0.270
-699.514	-200.000	0.095	-0.576
-698.499	68.104	-0.215	-0.222
-697.485	-200.000	-0.043	0.259
-696.470	116.911	-0.233	0.288
-695.456	9.103	0.338	0.257
-694.441	-200.000	-0.079	-0.415
-693.426	21.701	0.912	-0.747
-692.412	114.120	-0.066	-0.081
-691.397	458.586	0.086	-0.192
-690.383	19.832	-0.380	0.308
-689.368	-200.000	-0.068	-0.757
-688.354	719.525	0.111	-0.296
-687.339	-55.897	-0.367	-0.165
-686.324	6.504	0.789	0.590
-685.310	-200.000	0.015	-0.583
-684.295	56.302	-0.682	0.666
-683.281	-42.724	-0.445	-0.228
-682.266	53.500	-0.183	0.177
-681.251	-165.942	0.736	-0.032
-680.237	373.791	-0.223	-0.456
-679.222	-80.750	0.517	0.173
-678.208	-24.758	-0.191	-0.114
-677.193	-200.000	-0.014	-0.780
-676.178	800.000	0.079	0.300
-675.164	-200.000	0.024	0.257
-674.149	-115.544	-0.506	0.096
-673.135	298.983	-0.165	-0.306
-672.120	159.728	0.305	-0.427
-671.105	800.000	-0.212	0.745
-670.091	243.083	-0.317	0.533
-669.076	112.223	0.402	-0.488
-668.062	124.675	0.192	0.244
-667.047	800.000	0.248	1.055
-666.032	-200.000	0.096	-0.447
-665.018	800.000	0.216	-0.880
-664.003	800.000	-0.322	-1.274
-662.989	30.597	-0.490	-0.421
-661.974	-160.552	-0.980	-0.053
-660.959	431.647	0.132	0.286
-659.945	19.060	0.076	-0.061
-658.930	617.757	-0.131	-0.330
-657.916	89.358	0.396	0.443
-656.901	-137.471	0.203	0.023
-655.886	1.746	-0.370	-0.268
-654.872	-165.475	-0.275	0.012
-653.857	425.299	0.227	0.490
-652.843	800.000	0.228	-0.742
-651.828	6.814	0.630	0.471
-650.814	125.365	0.185	-0.235
-649.799	512.375	-0.374	-0.875
-648.784	-200.000	-0.045	0.714
-647.770	8.677	-0.337	0.255
-646.755	-41.030	0.687	0.356
-645.741	578.353	-0.121	0.298
-644.726	239.613	0.031	0.051
-643.711	800.000	-0.238	-0.687
-642.697	-13.272	-0.324	0.211
-641.682	732.733	0.174	-0.468
-640.668	-200.000	-0.021	-0.241
-639.653	-200.000	0.040	-0.668
-638.638	-131.829	0.152	0.020
-637.624	112.150	-0.819	-0.994
-636.609	800.000	-0.121	-0.371
-635.595	47.086	0.292	-0.273
-634.580	-160.772	-0.493	-0.026
-633.565	83.119	-0.626	0.684
-632.551	235.896	0.109	-0.181
-631.536	-181.336	-0.148	0.003
-630.522	678.504	-0.214	-0.559
-629.507	-200.000	-0.021	0.246
-628.492	800.000	-0.295	0.928
-627.478	-49.924	0.519	-0.247
-626.463	-48.869	-0.436	-0.210
-625.449	-64.089	0.471	0.193
-624.434	-167.960	0.186	-0.007
-623.419	-166.379	0.231	0.010
-622.405	-200.000	-0.002	-0.974
-621.390	800.000	0.137	0.395
-620.376	-108.344	-0.896	0.194
-619.361	-16.317	0.318	-0.202
-618.346	60.991	-0.064	0.064
-617.332	-64.324	-0.567	0.232
-616.317	-105.418	0.343	-0.078
-615.303	295.651	-0.460	-0.844
-614.288	156.711	-0.339	0.470
-613.273	800.000	0.094	0.409
-612.259	-168.843	0.571	-0.022
-611.244	-200.000	0.016	0.152
-610.230	262.417	-0.303	-0.527
-609.215	-11.835	0.158	0.104
-608.201	-71.826	-0.754	0.282
-607.186	-96.184	1.036	-0.276
-606.171	-124.183	0.136	-0.021
-605.157	-170.651	1.505	0.052
-604.142	151.693	-0.445	0.608
-603.128	647.007	-0.285	0.730
-602.113	532.908	-0.249	-0.590
-601.098	-200.000	-0.078	-0.398
-600.084	-5.006	0.552	-0.381
-599.069	800.000	-0.117	-0.333
-598.055	752.874	-0.032	-0.088
-597.040	-171.157	-0.120	-0.004
-596.025	220.051	-0.177	0.284
-595.011	786.442	0.174	0.478
-593.996	800.000	0.109	0.476
-592.982	-25.640	-0.415	0.246
-591.967	-120.383	-0.262	-0.045
-590.952	632.903	0.225	0.570
-589.938	58.218	0.224	0.220
-588.923	-200.000	0.012	-0.609
-587.909	-5.416	-0.197	0.135
-586.894	240.803	0.195	0.325
-585.879	354.097	-0.104	-0.206
-584.865	-65.192	0.669	0.270
-583.850	-100.106	-0.425	0.106
-582.836	16.007	0.479	-0.378
-581.821	-134.983	0.071	-0.009
-580.806	-125.598	0.533	-0.081
-579.792	621.631	0.181	-0.456
-578.777	78.037	-0.277	0.296
-577.763	-93.023	-0.171	-0.048
-576.748	33.504	0.239	0.208
-575.733	-38.556	-0.817	0.432
-574.719	53.277	0.524	-0.502
-573.704	-22.042	0.520	0.316
-572.690	-128.866	0.521	-0.073
-571.675	-200.000	-0.064	0.617
-570.661	-159.270	0.541	0.030
-569.646	-158.394	-0.095	-0.006
-568.631	224.213	0.293	0.474
-567.617	800.000	-0.174	0.497
-566.602	196.075	-0.153	-0.233
-565.588	-21.790	-0.130	-0.079
-564.573	119.527	0.180	0.223
-563.558	-200.000	-0.019	0.948
-562.544	-155.018	-1.156	-0.076
-561.529	800.000	-0.033	0.094
-560.515	-161.617	0.761	0.039
-559.500	800.000	-0.162	-0.689
-558.485	-123.563	1.011	-0.161
-557.471	-200.000	-0.003	-0.259
-556.456	17.949	0.218	0.174
-555.442	800.000	-0.099	-0.335
-554.427	-200.000	0.013	-0.082
-553.412	161.354	-0.270	-0.377
-552.398	-17.380	0.083	0.052
-551.383	113.694	-0.722	-0.877
-550.369	-200.000	-0.093	0.595
-549.354	15.799	-0.653	0.514
-548.339	500.111	0.249	0.575
-547.325	-69.888	-0.160	-0.061
-546.310	-163.003	-0.978	-0.047
-545.296	-200.000	0.141	-0.668
-544.281	800.000	-0.192	0.625
-543.266	800.000	-0.078	-0.269
-542.252	-84.556	-0.591	-0.186
-541.237	-162.004	-0.826	0.042
-540.223	800.000	0.122	0.533
-539.208	644.935	0.136	-0.348
-538.193	-28.653	-0.266	-0.153
-537.179	90.348	0.113	0.127
-536.164	-9.968	-0.587	-0.390
-535.150	800.000	0.093	-0.382
-534.135	-145.443	0.274	-0.025
-533.121	-30.957	0.122	-0.069
-532.106	800.000	0.082	0.246
-531.091	156.625	-0.239	0.330
-530.077	-161.444	-0.786	0.041
-529.062	16.395	-0.434	-0.343
-528.048	-67.275	0.905	0.356
-527.033	-75.723	-0.480	-0.170
-526.018	720.335	0.267	0.710
-525.004	77.288	0.515	0.548
-523.989	-200.000	-0.088	0.898
-522.975	-104.783	-0.826	-0.190
-521.960	61.842	-0.534	0.532
-520.945	-2.272	-0.516	-0.362
-519.931	-179.878	0.362	-0.008
-518.916	-4.689	-0.390	0.269
-517.902	-200.000	-0.100	-0.502
-516.887	161.311	-0.112	-0.157
-515.872	13.097	0.500	0.387
-514.858	-74.548	0.586	0.211
-513.843	55.332	0.542	0.524
-512.829	-32.051	0.149	0.083
-511.814	271.074	0.408	-0.717
-510.799	-93.793	-0.545	-0.150
-509.785	528.999	0.258	-0.607
-508.770	291.594	-0.369	-0.671
-507.756	228.706	-0.205	0.334
-506.741	238.288	0.335	0.555
-505.726	-166.177	0.625	-0.026
-504.712	800.000	-0.017	0.063
-503.697	87.202	0.625	0.690
-502.683	800.000	-0.243	-0.785
-501.668	-172.756	-0.290	0.009
-500.653	-41.189	-0.569	-0.293
-499.639	27.558	0.201	-0.169
-498.624	59.038	0.110	-0.108
-497.610	-37.695	1.370	0.729
-496.595	-200.000	-0.005	-0.041
-495.581	-200.000	0.008	0.144
-494.566	-200.000	-0.032	0.296
-493.551	-200.000	-0.125	-0.609
-492.537	149.217	0.357	-0.483
-491.522	800.000	-0.141	-0.423
-490.508	218.613	-0.463	0.738
-489.493	-200.000	0.015	-0.164
-488.478	299.807	0.290	-0.533
-487.464	65.127	-0.568	-0.573
-486.449	-200.000	0.081	-0.681
-485.435	-170.587	0.205	-0.007
-484.420	-68.770	0.644	-0.249
-483.405	-39.113	0.394	0.207
-482.391	253.167	0.166	0.282
-481.376	493.444	-0.205	-0.470
-480.362	236.189	-0.085	-0.140
-479.347	-200.000	0.064	-0.538
-478.332	-161.240	-0.230	0.012
-477.318	-29.225	-0.109	0.062
-476.303	-118.925	-0.282	-0.049
-475.289	-69.856	-0.768	-0.293
-474.274	-99.027	-0.255	0.064
-473.259	567.312	0.034	-0.082
-472.245	-200.000	-0.017	0.318
-471.230	-68.703	0.648	0.250
-470.216	800.000	-0.113	0.340
-469.201	-127.489	0.321	0.047
-468.186	186.708	-0.156	0.232
-467.172	135.775	0.257	0.334
-466.157	-191.709	0.402	-0.004
-465.143	800.000	-0.116	-0.372
-464.128	-105.886	-0.605	-0.136
-463.113	800.000	-0.359	1.000
-462.099	-92.356	0.263	-0.074
-461.084	-187.738	0.515	-0.007
-460.070	-200.000	0.018	-1.360
-459.055	-28.586	-0.147	0.084
-458.040	800.000	-0.013	0.053
-457.026	-103.675	0.176	0.041
-456.011	235.949	0.135	0.223
-454.997	-29.688	-0.344	-0.196
-453.982	-181.807	0.293	0.006
-452.968	-15.420	0.402	0.256
-451.953	50.085	0.520	-0.489
-450.938	239.039	-0.186	-0.308
-449.924	39.397	-0.289	-0.258
-448.909	-200.000	-0.097	-0.688
-447.895	385.573	-0.244	0.502
-446.880	-200.000	-0.017	-0.631
-445.865	-39.934	0.569	-0.296
-444.851	800.000	-0.125	-0.434
-443.836	-95.866	0.290	0.077
-442.822	-29.260	-0.588	0.335
-441.807	120.086	-0.282	0.348
-440.792	77.077	-0.688	0.729
-439.778	754.440	0.227	0.611
-438.763	187.749	-0.031	-0.046
-437.749	2.848	-0.082	0.059
-436.734	108.491	0.389	0.462
-435.719	-200.000	0.057	-0.301
-434.705	800.000	-0.055	-0.187
-433.690	-68.383	0.730	-0.282
-432.676	800.000	0.103	-0.443
-431.661	609.230	0.038	0.094
-430.646	126.554	0.126	0.159
-429.632	99.740	-0.171	-0.197
-428.617	800.000	-0.168	-0.607
-427.603	470.884	0.151	0.338
-426.588	-120.852	-0.920	-0.154
-425.573	-200.000	-0.094	-0.768
-424.559	13.185	0.694	0.535
-423.544	35.012	0.135	0.118
-422.530	-200.000	-0.017	-0.556
-421.515	77.434	-0.817	-0.865
-420.500	-69.043	-0.507	-0.194
-419.486	221.521	0.504	0.806
-418.471	-156.609	0.351	-0.022
-417.457	18.420	-0.290	0.231
-416.442	-77.705	0.319	0.110
-415.428	-109.484	0.172	0.036
-414.413	19.273	0.402	-0.321
-413.398	-176.259	0.593	-0.015
-412.384	-200.000	-0.087	-0.538
-411.369	800.000	-0.202	-0.837
-410.355	-139.261	0.017	0.002
-409.340	-200.000	-0.048	0.760
-408.325	-60.963	-0.385	-0.162
-407.311	-117.271	-0.226	0.041
-406.296	92.831	-0.486	-0.546
-405.282	-76.494	1.258	0.440
-404.267	140.082	0.028	-0.037
-403.252	-85.654	-0.537	0.166
-402.238	5.701	0.064	0.047
-401.223	-200.000	-0.001	0.392
-400.209	800.000	0.122	0.514
-399.194	-138.014	0.748	-0.083
-398.179	24.522	0.386	0.318
-397.165	-200.000	0.025	0.781
-396.150	-57.969	-0.631	0.274
-395.136	-200.000	-0.018	0.380
-394.121	229.912	0.220	0.358
-393.106	-90.547	0.549	-0.158
-392.092	-61.231	-0.147	-0.061
-391.077	-15.690	0.218	-0.138
-390.063	18.736	0.490	-0.390
-389.048	-200.000	0.026	-0.428
-388.033	86.668	0.463	-0.507
-387.019	-192.163	-0.184	-0.002
-386.004	612.441	-0.227	0.565
-384.990	-83.733	-0.119	0.038
-383.975	74.370	-0.754	0.788
-382.960	-102.341	0.246	-0.059
-381.946	24.426	-0.273	-0.224
-380.931	76.568	0.079	0.083
-379.917	-10.929	-0.132	0.087
-378.902	327.075	0.101	0.192
-377.888	800.000	-0.166	-0.516
-376.873	22.655	-0.341	-0.277
-375.858	-122.471	0.684	0.111
-374.844	44.766	0.169	-0.155
-373.829	5.353	0.326	0.239
-372.815	18.611	0.038	0.030
-371.800	291.338	-0.624	-1.129
-370.785	-24.060	-0.325	-0.193
-369.771	-119.172	-0.577	-0.100
-368.756	-134.971	-0.616	0.074
-367.742	716.347	0.171	0.452
-366.727	-93.900	-0.938	0.256
-365.712	-63.261	0.424	-0.173
-364.698	800.000	0.104	0.344
-363.683	-17.441	-0.817	0.511
-362.669	-121.613	0.874	-0.144
-361.654	800.000	-0.300	0.968
-360.639	279.895	-0.190	-0.337
-359.625	-154.640	0.728	-0.048
-358.610	91.452	0.412	0.459
-357.596	51.983	0.226	0.214
-356.581	24.523	0.532	-0.437
-355.566	-124.500	0.505	0.078
-354.552	-39.796	-0.339	0.176
-353.537	-22.484	-0.404	0.243
-352.523	-200.000	-0.006	-0.119
-351.508	39.022	0.386	-0.342
-350.493	800.000	0.229	0.734
-349.479	680.295	0.239	-0.618
-348.464	-200.000	-0.073	0.617
-347.450	-18.549	-0.231	0.143
-346.435	-75.060	0.395	-0.140
-345.420	-200.000	-0.043	-0.263
-344.406	-200.000	0.031	0.449
-343.391	146.643	0.120	-0.160
-342.377	-200.000	-0.049	0.647
-341.362	-200.000	-0.012	-0.202
-340.348	125.889	0.187	-0.234
-339.333	800.000	-0.363	1.134
-338.318	-200.000	-0.132	1.704
-337.304	131.947	0.225	0.287
-336.289	-79.518	0.498	0.167
-335.275	459.679	0.431	0.953
-334.260	309.089	0.192	0.356
-333.245	-22.660	-0.884	-0.530
-332.231	-83.873	-0.648	-0.205
-331.216	20.538	-0.270	-0.216
-330.202	-66.950	0.413	-0.162
-329.187	800.000	-0.037	-0.155
-328.172	227.210	-0.308	-0.497
-327.158	-200.000	0.138	-0.867
-326.143	-82.263	-0.545	-0.176
-325.129	-16.235	-0.435	0.274
-324.114	-21.238	0.604	-0.366
-323.099	-7.943	0.108	-0.072
-322.085	-56.248	0.343	-0.151
-321.070	-91.479	-0.438	0.124
-320.056	34.572	-0.542	-0.469
-319.041	-180.716	-0.595	0.012
-318.026	76.689	0.516	0.543
-317.012	-138.602	0.377	-0.041
-315.997	269.038	-0.161	0.280
-314.983	-67.295	0.798	0.311
-313.968	-125.152	-0.479	0.073
-312.953	-200.000	-0.029	0.230
-311.939	-200.000	0.049	-0.358
-310.924	67.319	-0.693	0.701
-309.910	-121.576	0.627	0.103
-308.895	-176.512	1.034	-0.026
-307.880	-164.742	-0.788	0.035
-306.866	756.494	0.458	-1.229
-305.851	-37.830	0.323	0.170
-304.837	-62.471	0.546	-0.225
-303.822	-200.000	-0.058	0.467
-302.807	-1.363	0.741	-0.518
-301.793	40.237	0.593	0.529
-300.778	-86.995	0.443	0.134
-299.764	149.731	0.456	-0.613
-298.749	-200.000	-0.020	-0.104
-297.735	-46.709	0.246	0.119
-296.720	-200.000	0.014	-0.211
-295.705	-66.234	0.457	-0.180
-294.691	800.000	0.086	-0.240
-293.676	800.000	-0.068	-0.219
-292.662	93.248	-0.814	-0.912
-291.647	-7.803	-1.028	0.687
-290.632	57.442	0.648	-0.627
-289.618	-87.986	0.354	0.105
-288.603	360.507	0.181	-0.358
-287.589	26.364	0.590	-0.489
-286.574	262.548	-0.482	0.829
-285.559	256.129	-0.365	-0.620
-284.545	194.649	-0.244	-0.366
-283.530	171.101	-0.446	-0.633
-282.516	-120.355	0.204	0.034
-281.501	89.508	0.489	0.540
-280.486	-200.000	-0.082	-0.731
-279.472	-200.000	0.182	-0.893
-278.457	133.095	-0.145	0.185
-277.443	-15.856	0.267	-0.168
-276.428	148.631	0.669	0.895
-275.413	-200.000	-0.072	-0.407
-274.399	284.513	-0.195	0.347
-273.384	69.728	0.534	-0.544
-272.370	-71.817	0.568	0.209
-271.355	-177.388	0.807	-0.020
-270.340	115.792	-0.440	-0.532
-269.326	319.060	-0.291	0.546
-268.311	-58.029	-0.568	0.245
-267.297	418.158	0.186	0.393
-266.282	79.465	-0.669	-0.710
-265.267	134.309	-0.313	0.401
-264.253	-200.000	-0.021	-0.449
-263.238	800.000	0.094	-0.300
-262.224	241.277	0.351	0.580
-261.209	-136.104	-0.359	0.042
-260.195	-200.000	0.084	0.835
-259.180	-105.329	0.538	-0.121
-258.165	-89.012	0.616	-0.180
-257.151	-200.000	-0.007	0.348
-256.136	169.126	0.391	0.552
-255.122	-138.958	-0.577	0.062
-254.107	-46.414	-0.468	-0.227
-253.092	162.178	0.148	-0.205
-252.078	-200.000	0.005	-0.158
-251.063	800.000	-0.151	-0.467
-250.049	-200.000	-0.006	-0.038
-249.034	800.000	-0.335	1.060
-248.019	-25.951	0.634	-0.369
-247.005	-16.763	-0.293	-0.183
-245.990	-158.629	-0.813	-0.046
-244.976	218.793	-0.452	-0.714
-243.961	-200.000	0.017	0.523
-242.946	-200.000	-0.072	-0.440
-241.932	579.344	-0.358	-0.865
-240.917	78.395	0.461	-0.487
-239.903	-200.000	0.074	0.706
-238.888	-200.000	-0.046	-0.446
-237.873	766.932	-0.339	0.911
-236.859	155.006	0.213	0.289
-235.844	57.454	-0.068	0.065
-234.830	-91.642	-1.061	0.298
-233.815	-200.000	-0.124	-0.595
-232.800	-64.168	0.878	-0.354
-231.786	-200.000	0.011	1.282
-230.771	800.000	-0.188	0.634
-229.757	329.189	-0.219	-0.415
-228.742	-200.000	-0.138	0.961
-227.727	687.805	0.071	-0.184
-226.713	-200.000	0.062	-0.401
-225.698	-22.064	-0.919	0.551
-224.684	68.107	-0.322	0.326
-223.669	-21.985	-0.555	0.333
-222.655	-100.998	0.233	0.056
-221.640	-200.000	0.061	-0.509
-220.625	121.714	0.309	0.381
-219.611	273.915	0.278	-0.486
-218.596	-17.254	0.487	-0.303
-217.582	53.543	-0.144	-0.136
-216.567	-160.154	-0.259	-0.014
-215.552	281.541	-0.086	0.153
-214.538	-200.000	-0.119	-0.614
-213.523	-32.023	0.801	-0.443
-212.509	-33.984	-0.338	-0.184
-211.494	27.354	0.463	-0.384
-210.479	-145.981	0.079	0.007
-209.465	-200.000	0.025	-0.114
-208.450	16.716	-0.684	0.534
-207.436	78.049	-0.191	0.201
-206.421	800.000	0.177	-0.732
-205.406	367.636	0.179	0.357
-204.392	346.465	0.375	0.727
-203.377	22.702	0.145	-0.117
-202.363	-179.819	0.502	-0.011
-201.348	19.705	-0.237	0.188
-200.333	-139.542	0.581	-0.061
-199.319	-200.000	-0.084	-0.670
-198.304	15.623	0.263	0.204
-197.290	200.269	-0.221	-0.334
-196.275	800.000	0.167	0.698
-195.260	-158.015	-0.878	0.051
-194.246	-200.000	0.048	-0.384
-193.231	-200.000	0.041	-0.205
-192.217	22.238	0.196	0.158
-191.202	-9.062	-0.256	-0.169
-190.187	-90.946	0.350	-0.099
-189.173	-10.014	-0.436	0.286
-188.158	10.267	0.587	-0.440
-187.144	449.849	-0.226	-0.491
-186.129	-102.073	0.493	-0.117
-185.114	-174.000	0.282	0.008
-184.100	-200.000	0.024	-0.473
-183.085	703.126	-0.264	-0.686
-182.071	-54.326	-0.492	0.220
-181.056	-40.735	-0.702	-0.359
-180.042	11.677	-0.349	-0.264
-179.027	800.000	-0.321	0.906
-178.012	51.991	-0.382	0.358
-176.998	-51.014	-0.088	-0.041
-175.983	-139.139	0.173	0.018
-174.969	-123.904	-0.889	-0.138
-173.954	-176.784	0.474	-0.012
-172.939	800.000	0.177	0.508
-171.925	266.787	-0.326	-0.561
-170.910	-14.953	0.225	0.142
-169.896	-89.408	0.688	0.200
-168.881	-107.580	-0.604	0.130
-167.866	-15.124	0.712	0.449
-166.852	227.800	-0.277	0.445
-165.837	-200.000	0.011	-0.064
-164.823	800.000	-0.239	0.811
-163.808	139.500	0.244	0.317
-162.793	-104.992	0.362	0.082
-161.779	-130.623	1.136	0.151
-160.764	78.096	-0.610	-0.642
-159.750	-15.905	-0.025	0.016
-158.735	-178.862	0.594	0.013
-157.720	132.996	-0.397	-0.505
-156.706	800.000	-0.185	0.783
-155.691	800.000	0.294	1.102
-154.677	-42.512	-0.935	-0.469
-153.662	-200.000	-0.137	-0.672
-152.647	114.265	-0.270	0.324
-151.633	-198.337	-0.848	0.005
-150.618	428.940	0.187	-0.398
-149.604	79.484	-0.796	0.841
-148.589	-200.000	0.006	0.179
-147.574	274.575	0.255	0.445
-146.560	360.849	-0.260	-0.512
-145.545	59.274	-0.415	-0.402
-144.531	-200.000	-0.067	0.314
-143.516	691.043	-0.305	-0.786
-142.502	-30.647	0.256	0.143
-141.487	589.520	0.224	0.544
-140.472	92.243	-0.545	0.604
-139.458	106.771	-0.346	0.404
-138.443	7.092	-0.681	0.500
-137.429	93.292	-0.180	-0.200
-136.414	800.000	0.119	0.397
-135.399	48.670	-0.629	0.581
-134.385	-14.377	-0.763	0.483
-133.370	-142.378	-0.624	-0.061
-132.356	54.714	-0.612	-0.581
-131.341	-200.000	-0.051	1.242
-130.326	-200.000	0.053	-0.479
-129.312	309.233	0.265	0.488
-128.297	126.015	0.363	-0.451
-127.283	241.747	-0.086	-0.141
-126.268	2.337	0.088	-0.062
-125.253	27.027	-0.286	0.236
-124.239	-146.321	-0.126	0.011
-123.224	-37.752	0.235	-0.123
-122.210	-134.888	-0.104	-0.012
-121.195	-75.958	-1.050	-0.365
