DTS Sentinel unit serial number:	SN413079Multiplexer serial number:	ORYXHardware model number:	OX4-SRSoftware version number:	ORYX F/W v4.00 Oryx Data Collector v3.7.2.0data status	okinstallation	princeton_trtdifferential loss correction	single-endedforward channel	channel 2reverse channel	N/Adate	2019/09/16time	00:43:35forward acquisition time	60.00reverse acquisition time	0.00gamma	496.2192k internal	0.2337k external	0.2337temperature offset calibration	0.9962default loss term (dB/km)	0.3790temperature slope calibration	1.0000multiplexer offset coefficient	1.0000multiplexer slope coefficient	1.0000fibre end	0.00T internal ref (°C)	27.44T ext. ref 1 (°C)	9.64T ext. ref 2 (°C)	21.44length (m)	temperature (°C)	Stokes	anti-Stokes-747.200	-88.963	0.304	-0.091
-746.185	-200.000	-0.028	0.160
-745.171	-55.248	0.288	0.130
-744.156	-200.000	0.019	0.153
-743.142	-90.049	0.289	0.085
-742.127	273.613	-0.084	0.149
-741.112	-131.626	-0.183	-0.024
-740.098	62.493	-0.332	0.333
-739.083	-181.794	0.079	-0.002
-738.069	-78.397	-0.199	0.069
-737.054	444.106	0.063	0.139
-736.039	-77.608	-0.602	0.209
-735.025	-200.000	0.010	0.192
-734.010	-162.322	0.191	-0.010
-732.996	-195.471	-0.615	0.005
-731.981	-98.041	-0.156	-0.040
-730.966	-34.464	0.114	0.063
-729.952	800.000	0.068	0.228
-728.937	185.198	-0.166	0.247
-727.923	-200.000	0.007	0.272
-726.908	200.247	-0.065	0.099
-725.894	374.690	0.039	0.081
-724.879	-200.000	-0.025	0.278
-723.864	-200.000	0.038	0.317
-722.850	800.000	0.088	0.313
-721.835	-122.604	-0.387	-0.063
-720.821	-88.230	-0.333	0.100
-719.806	-49.289	0.166	-0.079
-718.791	800.000	0.083	-0.362
-717.777	-200.000	0.000	-0.310
-716.762	-136.986	-0.117	-0.013
-715.748	-188.893	0.104	0.001
-714.733	-23.698	-0.236	-0.142
-713.718	-48.528	-0.241	0.116
-712.704	-55.897	0.122	-0.055
-711.689	-24.967	-0.091	0.054
-710.675	25.967	-0.086	0.072
-709.660	147.907	0.068	-0.091
-708.645	-74.755	0.157	-0.056
-707.631	-200.000	0.008	0.058
-706.616	511.513	0.155	0.361
-705.602	328.413	-0.077	0.147
-704.587	-119.217	0.039	-0.007
-703.572	-79.407	0.227	0.077
-702.558	21.282	-0.058	-0.047
-701.543	7.481	-0.087	-0.065
-700.529	2.994	0.262	-0.191
-699.514	-200.000	0.028	0.331
-698.499	-31.736	0.253	0.142
-697.485	-92.017	0.220	0.063
-696.470	-200.000	0.030	-0.148
-695.456	463.087	-0.158	0.353
-694.441	201.086	-0.139	-0.215
-693.426	800.000	0.077	-0.220
-692.412	-78.729	-0.164	0.056
-691.397	800.000	0.024	-0.081
-690.383	296.638	0.084	-0.155
-689.368	-140.205	-0.368	-0.039
-688.354	800.000	0.116	0.357
-687.339	-200.000	0.024	0.110
-686.324	-24.713	-0.054	0.032
-685.310	333.588	0.162	0.313
-684.295	18.490	-0.184	-0.147
-683.281	-92.542	-0.210	-0.059
-682.266	28.961	-0.162	-0.138
-681.251	-102.356	-0.073	-0.017
-680.237	-71.251	0.194	-0.073
-679.222	25.792	0.145	0.121
-678.208	61.238	-0.435	-0.433
-677.193	377.441	-0.078	-0.159
-676.178	-34.145	0.016	0.009
-675.164	-151.321	0.271	0.020
-674.149	32.144	0.275	0.238
-673.135	-94.047	-0.406	-0.111
-672.120	-200.000	-0.009	-0.233
-671.105	-75.243	-0.238	-0.085
-670.091	-152.360	-0.221	-0.016
-669.076	13.378	0.179	0.139
-668.062	101.292	0.161	0.188
-667.047	658.730	-0.049	0.126
-666.032	-91.156	-0.201	0.058
-665.018	800.000	0.056	-0.171
-664.003	165.099	0.261	-0.369
-662.989	-115.748	-0.086	0.016
-661.974	-72.361	0.203	-0.075
-660.959	-200.000	0.012	0.103
-659.945	256.662	-0.111	-0.191
-658.930	-92.835	0.175	0.049
-657.916	800.000	-0.030	0.084
-656.901	92.681	-0.116	-0.131
-655.886	-90.014	-0.300	-0.088
-654.872	146.102	-0.117	-0.157
-653.857	800.000	0.067	-0.212
-652.843	800.000	0.027	-0.115
-651.828	-200.000	0.081	0.468
-650.814	-200.000	0.012	-0.078
-649.799	263.655	-0.173	-0.302
-648.784	-126.701	-0.133	-0.020
-647.770	7.382	-0.060	-0.045
-646.755	-200.000	0.016	-0.083
-645.741	239.026	-0.141	0.234
-644.726	69.192	0.060	-0.062
-643.711	-27.422	-0.204	-0.119
-642.697	38.029	-0.109	-0.097
-641.682	-200.000	-0.012	0.070
-640.668	-118.265	0.416	0.074
-639.653	-39.368	-0.176	0.092
-638.638	533.316	0.054	-0.127
-637.624	-200.000	0.018	-0.226
-636.609	-116.681	0.167	-0.031
-635.595	800.000	-0.066	0.195
-634.580	-153.467	0.294	0.020
-633.565	588.517	-0.088	-0.216
-632.551	238.650	0.067	-0.111
-631.536	-120.182	0.337	0.058
-630.522	-64.983	0.454	0.183
-629.507	-77.720	-0.330	-0.114
-628.492	-126.897	0.228	0.034
-627.478	44.667	0.259	-0.238
-626.463	-101.241	0.116	-0.028
-625.449	548.797	-0.196	-0.469
-624.434	326.799	-0.111	0.212
-623.419	517.116	-0.094	-0.220
-622.405	-26.161	-0.045	0.026
-621.390	-200.000	0.000	0.016
-620.376	-200.000	-0.040	-0.215
-619.361	-21.618	-0.070	0.043
-618.346	-132.402	-0.219	-0.028
-617.332	59.141	-0.239	-0.235
-616.317	180.253	0.119	-0.175
-615.303	639.325	0.040	-0.103
-614.288	-133.812	-0.120	-0.015
-613.273	309.280	-0.172	0.322
-612.259	-107.602	0.113	-0.025
-611.244	-200.000	-0.005	-0.191
-610.230	-151.016	0.103	-0.008
-609.215	14.928	-0.123	0.096
-608.201	-53.532	0.237	0.108
-607.186	185.700	-0.068	-0.101
-606.171	-200.000	-0.089	-0.419
-605.157	428.473	0.095	0.206
-604.142	111.811	0.067	-0.080
-603.128	399.014	-0.104	-0.218
-602.113	228.258	-0.041	0.067
-601.098	189.022	0.029	-0.043
-600.084	-12.184	0.277	-0.181
-599.069	76.215	0.124	-0.131
-598.055	-43.608	0.145	-0.073
-597.040	-182.166	0.193	-0.004
-596.025	-200.000	0.002	0.122
-595.011	-93.729	-0.308	-0.085
-593.996	-96.548	-0.156	0.041
-592.982	-20.512	-0.092	0.057
-591.967	800.000	-0.085	-0.294
-590.952	-200.000	0.037	-0.401
-589.938	-27.801	0.132	0.076
-588.923	-47.566	-0.099	-0.048
-587.909	800.000	-0.012	0.034
-586.894	-200.000	0.043	0.231
-585.879	223.477	-0.161	-0.259
-584.865	719.081	-0.020	0.054
-583.850	99.067	0.097	-0.111
-582.836	298.064	0.040	0.074
-581.821	649.364	0.090	-0.230
-580.806	-200.000	0.037	0.404
-579.792	495.736	-0.109	0.249
-578.777	-79.769	-0.309	0.104
-577.763	-200.000	0.019	0.287
-576.748	23.198	-0.175	0.143
-575.733	-200.000	0.011	-0.388
-574.719	-145.427	-0.261	-0.023
-573.704	217.119	-0.079	-0.125
-572.690	165.774	-0.102	0.143
-571.675	-62.889	0.101	0.042
-570.661	-200.000	0.062	0.270
-569.646	-45.918	-0.084	0.041
-568.631	-200.000	-0.033	0.243
-567.617	-118.613	-0.480	0.085
-566.602	105.666	0.155	-0.183
-565.588	-200.000	-0.028	-0.346
-564.573	346.959	-0.099	-0.194
-563.558	50.150	-0.113	-0.106
-562.544	42.936	-0.141	0.128
-561.529	-200.000	-0.020	0.201
-560.515	-200.000	0.023	0.331
-559.500	144.693	0.116	0.154
-558.485	-10.654	0.332	-0.219
-557.471	-123.205	-0.081	-0.013
-556.456	120.641	0.243	0.301
-555.442	-200.000	-0.031	0.178
-554.427	403.523	0.085	0.179
-553.412	767.429	0.066	-0.180
-552.398	800.000	0.070	-0.241
-551.383	65.504	-0.111	0.112
-550.369	-100.670	-0.209	0.051
-549.354	800.000	0.145	0.403
-548.339	-78.996	-0.477	0.162
-547.325	201.677	-0.075	-0.115
-546.310	-16.097	0.173	-0.110
-545.296	197.675	0.107	-0.162
-544.281	-43.649	-0.326	0.164
-543.266	-71.606	0.111	-0.041
-542.252	800.000	0.034	-0.144
-541.237	-56.705	-0.330	-0.145
-540.223	25.833	0.071	-0.059
-539.208	-102.622	-0.122	-0.029
-538.193	-200.000	-0.011	0.049
-537.179	-79.284	0.267	-0.090
-536.164	800.000	0.112	0.359
-535.150	800.000	-0.026	-0.083
-534.135	24.660	0.060	-0.049
-533.121	146.273	-0.022	0.029
-532.106	-200.000	0.011	0.127
-531.091	800.000	0.049	-0.170
-530.077	-167.800	-0.126	-0.005
-529.062	-147.674	0.253	-0.021
-528.048	800.000	0.095	0.397
-527.033	94.753	-0.230	0.261
-526.018	-200.000	0.067	0.331
-525.004	-200.000	0.027	0.344
-523.989	-40.996	0.203	0.104
-522.975	-200.000	0.004	-0.282
-521.960	122.059	0.102	0.127
-520.945	-76.681	-0.157	-0.055
-519.931	-200.000	-0.002	0.250
-518.916	-73.264	-0.210	-0.076
-517.902	212.539	0.082	0.128
-516.887	52.718	0.147	0.139
-515.872	39.788	-0.190	-0.169
-514.858	-28.795	-0.215	-0.123
-513.843	145.009	0.222	-0.296
-512.829	707.947	-0.089	-0.235
-511.814	-111.429	-0.255	0.052
-510.799	93.296	0.166	-0.187
-509.785	-131.113	0.319	0.042
-508.770	337.175	0.219	0.423
-507.756	-120.001	0.241	0.041
-506.741	755.890	0.109	-0.293
-505.726	-141.415	-0.074	-0.007
-504.712	447.657	0.104	0.227
-503.697	-171.343	0.212	0.007
-502.683	-10.422	0.088	0.058
-501.668	85.462	-0.195	0.213
-500.653	236.252	-0.030	-0.049
-499.639	-124.749	-0.230	-0.035
-498.624	190.753	0.057	0.085
-497.610	-142.964	0.222	-0.021
-496.595	85.557	-0.039	-0.043
-495.581	-200.000	0.039	0.345
-494.566	576.150	-0.137	0.332
-493.551	800.000	0.047	-0.191
-492.537	27.531	-0.397	-0.332
-491.522	-200.000	0.086	-0.412
-490.508	33.919	-0.148	0.128
-489.493	-0.848	0.169	0.119
-488.478	76.045	0.142	0.150
-487.464	-200.000	-0.002	0.219
-486.449	148.436	0.025	-0.034
-485.435	-184.829	0.312	-0.005
-484.420	-42.566	-0.060	0.030
-483.405	-26.517	-0.252	-0.147
-482.391	-68.440	-0.139	0.054
-481.376	-182.340	-0.287	0.005
-480.362	-94.219	-0.177	-0.048
-479.347	204.128	0.131	0.202
-478.332	770.732	-0.105	0.285
-477.318	-200.000	-0.048	0.488
-476.303	47.605	-0.177	-0.164
-475.289	10.845	0.040	0.030
-474.274	188.097	-0.121	-0.179
-473.259	-47.602	-0.259	0.125
-472.245	-141.191	0.166	-0.017
-471.230	-87.116	0.116	0.035
-470.216	28.108	-0.115	0.096
-469.201	-29.091	0.085	0.048
-468.186	-55.270	0.138	-0.062
-467.172	74.870	0.070	-0.073
-466.157	594.829	-0.033	-0.082
-465.143	-36.452	-0.081	0.044
-464.128	29.718	0.103	0.087
-463.113	800.000	0.080	-0.250
-462.099	-24.720	-0.186	0.110
-461.084	19.791	-0.210	0.168
-460.070	57.839	-0.144	-0.140
-459.055	-106.658	0.276	0.061
-458.040	406.263	0.065	0.135
-457.026	144.048	-0.269	0.356
-456.011	-51.525	-0.342	-0.159
-454.997	800.000	0.022	0.087
-453.982	-48.323	0.273	0.130
-452.968	-103.574	0.389	0.091
-451.953	406.058	0.053	0.110
-450.938	-200.000	0.031	0.247
-449.924	800.000	0.049	-0.151
-448.909	704.678	-0.163	0.427
-447.895	-63.893	0.111	-0.045
-446.880	13.224	-0.092	-0.071
-445.865	-200.000	0.038	0.333
-444.851	30.359	0.273	0.231
-443.836	-34.269	-0.093	0.051
-442.822	-14.731	0.185	-0.118
-441.807	-63.550	-0.450	-0.184
-440.792	-48.359	0.343	-0.164
-439.778	-129.234	-0.238	0.033
-438.763	-41.948	0.339	-0.172
-437.749	800.000	-0.075	-0.217
-436.734	-104.668	-0.128	-0.029
-435.719	131.132	0.151	-0.193
-434.705	19.620	0.166	-0.132
-433.690	-93.320	0.251	0.069
-432.676	50.665	0.194	0.182
-431.661	-200.000	0.010	0.053
-430.646	-66.948	-0.360	-0.141
-429.632	-30.254	-0.258	-0.146
-428.617	772.664	0.076	0.207
-427.603	-14.212	-0.169	0.108
-426.588	59.887	0.166	0.162
-425.573	-200.000	0.040	-0.296
-424.559	212.171	-0.194	-0.303
-423.544	522.904	-0.058	0.135
-422.530	800.000	-0.073	-0.222
-421.515	-21.421	-0.032	0.020
-420.500	800.000	-0.061	0.193
-419.486	20.482	0.311	-0.250
-418.471	-31.380	0.197	0.110
-417.457	-200.000	0.012	-0.178
-416.442	-134.422	-0.384	0.047
-415.428	-91.511	0.338	-0.095
-414.413	32.747	-0.103	-0.088
-413.398	207.334	0.073	0.112
-412.384	464.177	-0.152	0.337
-411.369	0.857	-0.329	-0.234
-410.355	-200.000	0.012	-0.173
-409.340	449.023	0.052	0.114
-408.325	-40.433	-0.221	0.114
-407.311	100.465	0.141	0.162
-406.296	247.951	0.193	-0.324
-405.282	-136.980	0.330	0.037
-404.267	20.751	0.180	-0.145
-403.252	318.145	-0.095	-0.178
-402.238	-200.000	0.048	-0.218
-401.223	141.587	-0.092	-0.121
-400.209	-200.000	0.016	0.085
-399.194	-200.000	-0.048	0.224
-398.179	-121.842	-0.357	-0.058
-397.165	-7.708	0.328	-0.220
-396.150	-200.000	0.003	-0.101
-395.136	15.128	0.094	0.073
-394.121	-164.089	0.250	-0.011
-393.106	-168.785	-0.125	0.005
-392.092	136.167	-0.193	-0.249
-391.077	-160.486	-0.178	0.009
-390.063	199.860	0.091	-0.138
-389.048	-200.000	-0.112	0.556
-388.033	55.218	0.136	0.130
-387.019	-52.824	0.271	-0.124
-386.004	-200.000	0.003	-0.263
-384.990	-98.753	-0.279	-0.070
-383.975	-66.212	-0.104	-0.041
-382.960	117.971	0.094	-0.115
-381.946	-200.000	-0.018	0.183
-380.931	309.257	-0.084	0.155
-379.917	-175.587	0.079	-0.002
-378.902	800.000	-0.084	-0.242
-377.888	-36.925	0.110	-0.059
-376.873	98.442	-0.063	-0.071
-375.858	7.701	-0.102	0.075
-374.844	574.149	0.040	0.097
-373.829	-100.211	0.094	0.023
-372.815	-166.572	-0.232	-0.010
-371.800	-90.475	-0.171	0.049
-370.785	-77.978	-0.238	-0.081
-369.771	29.485	0.031	0.026
-368.756	-68.167	0.083	-0.032
-367.742	-108.210	0.376	0.080
-366.727	-135.732	0.298	-0.035
-365.712	-114.248	-0.067	0.013
-364.698	-161.401	0.431	-0.022
-363.683	-48.731	-0.324	-0.154
-362.669	796.006	0.120	0.326
-361.654	235.730	-0.107	0.176
-360.639	74.097	-0.153	0.159
-359.625	-61.517	0.377	0.157
-358.610	-85.587	0.112	0.034
-357.596	-200.000	0.006	-0.128
-356.581	104.273	-0.183	-0.213
-355.566	323.526	-0.089	-0.167
-354.552	-25.034	-0.286	-0.167
-353.537	564.555	-0.048	-0.115
-352.523	-8.802	0.074	-0.049
-351.508	-114.252	-0.127	-0.024
-350.493	76.889	0.229	0.240
-349.479	-98.287	-0.188	0.048
-348.464	-131.696	-0.238	0.031
-347.450	415.204	-0.003	0.007
-346.435	800.000	-0.091	0.346
-345.420	131.186	-0.165	0.210
-344.406	-97.625	0.268	-0.069
-343.391	-179.263	-0.117	-0.003
-342.377	34.058	-0.317	0.273
-341.362	316.783	0.122	-0.228
-340.348	40.000	0.215	-0.191
-339.333	-53.063	0.141	-0.064
-338.318	-200.000	0.027	0.143
-337.304	-200.000	0.002	0.242
-336.289	88.886	-0.095	0.104
-335.275	-200.000	0.023	0.184
-334.260	63.608	-0.029	-0.029
-333.245	67.518	0.216	0.218
-332.231	-46.325	-0.175	0.085
-331.216	800.000	-0.032	0.103
-330.202	97.813	0.131	0.149
-329.187	800.000	-0.075	-0.223
-328.172	800.000	0.113	-0.318
-327.158	-200.000	0.045	-0.355
-326.143	18.643	-0.087	-0.069
-325.129	-69.784	-0.538	-0.203
-324.114	98.723	0.260	-0.296
-323.099	252.371	0.124	-0.209
-322.085	-200.000	-0.051	0.379
-321.070	-84.020	0.426	-0.134
-320.056	84.013	-0.249	0.268
-319.041	-57.781	-0.075	0.032
-318.026	592.725	0.086	0.211
-317.012	53.576	0.303	-0.287
-315.997	800.000	-0.022	-0.093
-314.983	800.000	0.025	0.070
-313.968	-165.706	-0.169	0.007
-312.953	800.000	-0.015	-0.044
-311.939	36.203	0.186	0.162
-310.924	-126.118	-0.179	0.026
-309.910	-200.000	0.014	0.097
-308.895	-116.651	0.153	-0.028
-307.880	82.834	0.103	-0.110
-306.866	-61.821	-0.393	-0.162
-305.851	151.671	-0.036	0.049
-304.837	-160.082	0.317	0.017
-303.822	-200.000	0.012	0.104
-302.807	-91.587	-0.307	-0.086
-301.793	242.475	-0.108	0.178
-300.778	800.000	0.168	-0.522
-299.764	427.770	0.102	-0.218
-298.749	-120.503	0.296	-0.050
-297.735	-148.664	-0.132	-0.011
-296.720	800.000	0.055	-0.222
-295.705	408.817	0.166	-0.346
-294.691	-102.714	0.200	0.047
-293.676	64.595	0.235	-0.233
-292.662	205.349	-0.179	-0.275
-291.647	-65.657	0.216	0.085
-290.632	428.430	-0.025	0.054
-289.618	-81.671	0.275	0.089
-288.603	182.664	-0.030	0.043
-287.589	-55.242	-0.460	-0.204
-286.574	151.466	-0.083	-0.112
-285.559	197.605	0.113	-0.170
-284.545	-1.151	-0.116	-0.081
-283.530	148.915	-0.271	0.361
-282.516	257.138	0.276	0.468
-281.501	-100.472	-0.412	0.100
-280.486	303.832	-0.023	-0.043
-279.472	-68.411	0.169	-0.065
-278.457	44.577	-0.185	-0.167
-277.443	361.934	0.069	-0.136
-276.428	-16.949	0.304	-0.190
-275.413	2.810	0.145	0.104
-274.399	-193.446	0.058	-0.000
-273.384	28.876	-0.074	0.062
-272.370	-126.262	-0.079	0.012
-271.355	-63.357	-0.077	0.031
-270.340	62.346	0.088	-0.087
-269.326	-3.911	-0.151	-0.103
-268.311	51.973	0.030	-0.028
-267.297	575.374	0.068	-0.163
-266.282	-129.805	-0.147	0.020
-265.267	-200.000	0.037	0.216
-264.253	-116.929	-0.232	-0.042
-263.238	-101.556	-0.117	-0.028
-262.224	-99.962	-0.160	0.039
-261.209	111.258	-0.079	-0.094
-260.195	-52.600	-0.298	-0.135
-259.180	-200.000	0.012	0.110
-258.165	-170.199	-0.207	0.007
-257.151	-34.154	-0.235	-0.127
-256.136	550.865	0.054	-0.128
-255.122	166.811	0.256	-0.358
-254.107	104.936	-0.149	-0.173
-253.092	-121.034	-0.493	0.081
-252.078	-157.911	0.157	0.009
-251.063	374.417	-0.174	0.350
-250.049	-86.725	-0.357	0.107
-249.034	385.844	-0.159	-0.322
-248.019	-98.228	0.171	-0.043
-247.005	-38.502	0.335	0.174
-245.990	-200.000	0.071	-0.314
-244.976	-83.710	0.380	0.119
-243.961	800.000	-0.038	-0.130
-242.946	-200.000	-0.003	-0.140
-241.932	-22.441	-0.172	0.103
-240.917	-83.132	-0.151	-0.048
-239.903	-108.715	-0.128	0.027
-238.888	-200.000	-0.063	0.356
-237.873	-79.725	-0.175	0.058
-236.859	34.800	0.042	-0.036
-235.844	464.992	0.163	-0.358
-234.830	31.091	-0.109	-0.092
-233.815	-200.000	0.024	0.177
-232.800	-200.000	0.036	-0.162
-231.786	-6.942	0.371	-0.248
-230.771	470.698	-0.073	-0.162
-229.757	-102.357	0.172	0.041
-228.742	800.000	0.120	-0.382
-227.727	-200.000	0.020	-0.182
-226.713	-93.172	0.105	-0.029
-225.698	800.000	-0.026	-0.102
-224.684	800.000	0.103	0.347
-223.669	-73.692	0.362	-0.130
-222.655	51.318	-0.096	0.089
-221.640	730.130	0.137	-0.360
-220.625	7.007	0.052	0.038
-219.611	-61.543	0.317	-0.131
-218.596	289.837	-0.014	-0.025
-217.582	375.193	-0.094	-0.189
-216.567	288.996	-0.116	0.206
-215.552	800.000	-0.090	0.376
-214.538	-16.313	0.116	-0.072
-213.523	-200.000	-0.024	0.397
-212.509	-200.000	-0.012	-0.174
-211.494	114.812	0.252	0.302
-210.479	800.000	0.045	0.162
-209.465	800.000	0.097	0.396
-208.450	-141.076	-0.232	0.023
-207.436	800.000	0.114	-0.364
-206.421	468.306	-0.085	0.188
-205.406	57.321	-0.171	0.164
-204.392	-200.000	-0.019	-0.215
-203.377	-28.281	-0.220	0.125
-202.363	-88.498	-0.356	-0.104
-201.348	77.352	0.192	0.201
-200.333	-200.000	-0.017	0.369
-199.319	-200.000	0.013	0.119
-198.304	-200.000	-0.006	0.052
-197.290	-188.815	-0.182	0.002
-196.275	47.033	0.122	-0.111
-195.260	62.520	0.078	-0.076
-194.246	-53.555	0.295	-0.132
-193.231	138.889	0.064	-0.082
-192.217	-54.451	-0.256	0.114
-191.202	-200.000	0.202	-0.001
-190.187	800.000	0.087	0.288
-189.173	800.000	0.063	-0.185
-188.158	-43.891	-0.090	0.044
-187.144	-47.416	0.151	-0.072
-186.129	-102.975	0.226	-0.053
-185.114	-113.616	0.195	0.037
-184.100	131.624	-0.048	0.060
-183.085	-200.000	0.327	-0.001
-182.071	-37.550	0.412	0.216
-181.056	800.000	-0.107	0.307
-180.042	45.234	-0.117	-0.106
-179.027	62.230	0.159	-0.156
-178.012	-200.000	0.051	0.268
-176.998	-200.000	0.036	0.227
-175.983	197.173	0.074	-0.110
-174.969	800.000	0.013	0.043
-173.954	-200.000	-0.008	0.248
-172.939	-90.349	-0.182	0.052
-171.925	-68.396	0.143	-0.054
-170.910	-111.843	-0.165	-0.033
-169.896	-46.440	0.157	-0.076
-168.881	549.618	-0.047	0.110
-167.866	110.948	0.088	0.104
-166.852	93.862	-0.094	-0.104
-165.837	447.355	0.041	0.089
-164.823	497.421	0.134	-0.302
-163.808	55.986	-0.170	-0.162
-162.793	71.548	0.045	0.046
-161.779	-200.000	0.008	0.244
-160.764	-63.997	-0.343	0.137
-159.750	-59.683	0.233	0.098
-158.735	22.261	0.155	0.124
-157.720	-150.083	0.275	-0.021
-156.706	-44.641	-0.089	0.043
-155.691	787.014	0.052	-0.139
-154.677	-175.937	0.087	-0.002
-153.662	274.155	-0.207	0.360
-152.647	-23.316	-0.249	0.147
-151.633	-54.415	-0.356	-0.158
-150.618	-51.963	-0.124	-0.057
-149.604	-148.724	-0.440	0.035
-148.589	-200.000	-0.040	-0.237
-147.574	321.058	0.008	-0.015
-146.560	-60.766	0.195	0.081
-145.545	-12.029	-0.065	0.041
-144.531	800.000	-0.050	-0.187
-143.516	-200.000	0.018	-0.299
-142.502	471.654	-0.040	0.089
-141.487	-78.664	-0.127	-0.042
-140.472	-80.879	0.153	-0.050
-139.458	170.996	-0.031	-0.043
-138.443	108.873	-0.103	-0.120
-137.429	452.131	0.175	-0.379
-136.414	-91.257	-0.039	-0.011
-135.399	-19.115	-0.245	0.149
-134.385	-200.000	-0.068	0.341
-133.370	185.250	0.173	0.252
-132.356	-186.854	0.246	0.003
-131.341	-2.079	0.330	-0.227
-130.326	-20.729	0.161	0.097
-129.312	191.193	-0.174	-0.256
-128.297	68.808	-0.193	-0.194
-127.283	170.590	0.145	-0.203
-126.268	-128.282	-0.185	0.026
-125.253	-9.362	-0.027	-0.018
-124.239	589.375	-0.143	-0.346
-123.224	-200.000	-0.003	0.223
-122.210	273.460	0.112	0.194
-121.195	-42.098	-0.290	0.145
