DTS Sentinel unit serial number:	SN413079Multiplexer serial number:	ORYXHardware model number:	OX4-SRSoftware version number:	ORYX F/W v4.00 Oryx Data Collector v3.7.2.0data status	okinstallation	princeton_trtdifferential loss correction	single-endedforward channel	channel 2reverse channel	N/Adate	2019/09/17time	09:31:35forward acquisition time	60.00reverse acquisition time	0.00gamma	496.2192k internal	0.2328k external	0.2328temperature offset calibration	0.9972default loss term (dB/km)	0.3790temperature slope calibration	1.0000multiplexer offset coefficient	1.0000multiplexer slope coefficient	1.0000fibre end	0.00T internal ref (°C)	29.02T ext. ref 1 (°C)	0.16T ext. ref 2 (°C)	25.48length (m)	temperature (°C)	Stokes	anti-Stokes-747.200	75.875	0.032	0.034
-746.185	105.261	-0.071	0.085
-745.171	7.798	-0.094	-0.071
-744.156	75.006	-0.051	-0.054
-743.142	-6.987	0.084	0.057
-742.127	-13.623	-0.172	0.112
-741.112	-200.000	0.044	0.232
-740.098	356.164	0.109	0.218
-739.083	270.600	0.105	0.185
-738.069	199.755	-0.050	0.077
-737.054	83.067	0.046	-0.050
-736.039	39.930	-0.095	0.086
-735.025	-128.417	0.355	-0.051
-734.010	0.562	0.150	-0.108
-732.996	-89.533	-0.358	0.106
-731.981	22.381	0.231	-0.190
-730.966	-109.538	0.149	-0.032
-729.952	88.467	-0.215	0.241
-728.937	-75.523	0.112	-0.040
-727.923	-1.207	-0.105	0.075
-726.908	796.443	0.175	0.486
-725.894	100.522	-0.144	0.169
-724.879	-113.383	-0.196	0.039
-723.864	-35.423	-0.363	-0.199
-722.850	-200.000	0.058	-0.277
-721.835	-9.382	0.068	0.046
-720.821	299.538	0.037	-0.068
-719.806	-48.685	-0.121	-0.058
-718.791	-152.617	-0.106	-0.008
-717.777	-200.000	-0.345	-0.001
-716.762	-158.510	0.129	-0.007
-715.748	146.005	0.103	0.139
-714.733	800.000	0.145	-0.453
-713.718	194.869	0.145	0.222
-712.704	-134.461	-0.310	-0.038
-711.689	159.902	0.152	-0.213
-710.675	90.296	0.082	0.092
-709.660	-112.791	-0.298	-0.060
-708.645	155.379	-0.129	-0.179
-707.631	-190.639	0.358	0.004
-706.616	-21.271	-0.300	-0.184
-705.602	-200.000	-0.037	-0.218
-704.587	-200.000	0.005	0.128
-703.572	90.653	0.188	0.212
-702.558	-20.802	-0.318	-0.196
-701.543	705.532	-0.062	-0.166
-700.529	-82.184	-0.201	-0.066
-699.514	800.000	0.069	0.218
-698.499	800.000	0.110	-0.345
-697.485	200.416	0.100	0.155
-696.470	98.245	0.084	0.098
-695.456	-63.075	0.356	-0.148
-694.441	78.733	0.110	-0.118
-693.426	-134.564	0.117	-0.014
-692.412	-138.514	0.178	-0.020
-691.397	51.987	0.281	0.269
-690.383	89.705	-0.111	-0.124
-689.368	800.000	-0.049	0.169
-688.354	800.000	0.084	-0.339
-687.339	26.127	0.102	0.085
-686.324	38.383	-0.148	0.132
-685.310	51.565	0.211	-0.202
-684.295	38.557	-0.107	0.096
-683.281	-70.755	0.112	0.042
-682.266	-200.000	0.038	-0.229
-681.251	108.035	-0.089	-0.106
-680.237	28.285	-0.217	-0.184
-679.222	-67.455	-0.216	-0.085
-678.208	320.353	-0.033	0.062
-677.193	408.861	-0.031	-0.066
-676.178	177.734	-0.228	0.333
-675.164	367.125	0.076	-0.155
-674.149	240.520	0.088	0.147
-673.135	-127.119	-0.196	-0.029
-672.120	23.197	0.182	0.151
-671.105	-123.326	-0.209	0.034
-670.091	-153.617	0.299	-0.021
-669.076	-200.000	0.047	-0.275
-668.062	446.827	0.175	-0.387
-667.047	108.305	-0.252	-0.302
-666.032	-114.952	-0.029	-0.006
-665.018	108.717	-0.071	-0.085
-664.003	197.974	-0.149	0.228
-662.989	-94.136	0.381	-0.105
-661.974	77.076	0.080	0.085
-660.959	-15.825	-0.038	0.024
-659.945	212.429	0.317	-0.502
-658.930	-8.253	0.147	-0.099
-657.916	15.676	-0.113	0.089
-656.901	-121.358	0.275	0.046
-655.886	290.616	0.061	0.112
-654.872	-200.000	-0.053	-0.326
-653.857	800.000	0.059	0.171
-652.843	-200.000	-0.010	0.295
-651.828	-8.571	0.149	0.100
-650.814	404.225	0.140	-0.296
-649.799	-61.238	-0.247	-0.104
-648.784	216.324	-0.090	-0.143
-647.770	36.187	-0.097	0.086
-646.755	800.000	-0.086	-0.254
-645.741	242.103	-0.066	0.111
-644.726	33.250	-0.011	-0.010
-643.711	-123.849	0.302	0.048
-642.697	289.520	0.071	-0.130
-641.682	44.138	-0.067	0.061
-640.668	525.778	-0.092	0.217
-639.653	-39.508	0.127	-0.067
-638.638	453.242	0.027	0.061
-637.624	-47.925	0.308	-0.150
-636.609	-45.927	0.183	-0.091
-635.595	385.584	-0.096	0.198
-634.580	-200.000	0.003	0.191
-633.565	-39.856	0.173	0.091
-632.551	223.975	-0.108	-0.175
-631.536	554.023	0.196	-0.473
-630.522	43.818	-0.280	0.257
-629.507	-63.976	0.214	-0.088
-628.492	-26.762	-0.492	-0.289
-627.478	-200.000	0.044	-0.247
-626.463	-27.744	0.035	-0.020
-625.449	-200.000	0.020	0.303
-624.434	-27.684	-0.070	0.041
-623.419	-200.000	0.032	0.214
-622.405	16.623	0.105	0.084
-621.390	-130.068	0.238	0.033
-620.376	-112.423	-0.215	-0.043
-619.361	166.947	0.046	-0.066
-618.346	800.000	-0.049	0.188
-617.332	-20.312	0.420	-0.259
-616.317	-200.000	0.072	-0.352
-615.303	81.962	-0.114	0.124
-614.288	-83.657	0.223	0.071
-613.273	-74.277	-0.456	-0.165
-612.259	182.180	-0.143	0.211
-611.244	168.406	-0.068	-0.097
-610.230	-200.000	0.041	-0.360
-609.215	-86.796	-0.100	0.031
-608.201	82.217	0.213	-0.232
-607.186	-10.037	0.105	0.070
-606.171	-66.377	0.101	-0.040
-605.157	-123.252	-0.129	0.021
-604.142	-200.000	0.009	-0.480
-603.128	636.093	-0.089	-0.228
-602.113	-200.000	-0.014	0.218
-601.098	115.131	0.297	0.363
-600.084	114.533	0.063	0.077
-599.069	-164.316	-0.273	-0.013
-598.055	-200.000	0.007	0.031
-597.040	54.258	0.155	-0.149
-596.025	238.936	0.087	-0.144
-595.011	-113.426	0.222	-0.044
-593.996	-106.895	-0.318	-0.071
-592.982	514.670	0.075	0.175
-591.967	-108.166	0.295	-0.064
-590.952	79.501	-0.162	0.174
-589.938	-200.000	-0.021	0.189
-588.923	-21.553	-0.275	-0.168
-587.909	-111.623	0.235	0.048
-586.894	-40.877	0.200	0.103
-585.879	-108.353	-0.332	-0.072
-584.865	-149.391	0.098	-0.008
-583.850	110.651	-0.239	0.287
-582.836	-200.000	0.034	0.212
-581.821	-200.000	0.008	-0.219
-580.806	800.000	0.043	0.118
-579.792	59.569	0.223	-0.220
-578.777	-153.589	0.158	0.011
-577.763	598.441	-0.095	0.237
-576.748	276.128	-0.122	-0.216
-575.733	800.000	-0.109	-0.366
-574.719	800.000	-0.092	0.294
-573.704	800.000	-0.045	-0.128
-572.690	-57.967	-0.420	-0.184
-571.675	415.619	0.041	0.087
-570.661	713.887	-0.069	-0.182
-569.646	-200.000	0.004	0.135
-568.631	53.460	-0.158	-0.152
-567.617	800.000	-0.037	-0.135
-566.602	244.275	0.101	-0.170
-565.588	673.903	-0.108	-0.281
-564.573	-23.826	-0.111	-0.067
-563.558	-200.000	0.011	0.134
-562.544	-102.523	0.139	-0.033
-561.529	-200.000	-0.009	-0.045
-560.515	137.921	-0.201	0.263
-559.500	99.642	-0.109	-0.127
-558.485	-200.000	-0.052	-0.250
-557.471	-76.030	-0.402	0.142
-556.456	800.000	0.018	0.062
-555.442	-200.000	0.048	0.268
-554.427	36.470	-0.210	-0.185
-553.412	319.245	-0.151	0.286
-552.398	-55.895	0.253	-0.113
-551.383	141.830	-0.161	-0.214
-550.369	35.296	0.153	-0.135
-549.354	68.656	0.194	-0.199
-548.339	185.578	0.219	0.325
-547.325	-27.089	0.120	0.070
-546.310	-11.174	-0.324	0.213
-545.296	45.077	0.230	0.212
-544.281	-200.000	-0.046	0.325
-543.266	40.420	-0.078	-0.071
-542.252	800.000	-0.174	0.653
-541.237	-114.594	0.285	0.055
-540.223	-200.000	-0.091	-0.554
-539.208	168.343	0.072	0.103
-538.193	-62.818	-0.520	-0.215
-537.179	702.755	0.059	-0.157
-536.164	-132.909	0.108	-0.014
-535.150	-48.401	0.037	-0.018
-534.135	800.000	-0.073	-0.238
-533.121	-58.314	0.184	-0.080
-532.106	-87.818	0.259	-0.078
-531.091	-43.431	-0.111	0.056
-530.077	-200.000	0.003	0.164
-529.062	232.620	-0.058	0.095
-528.048	-200.000	0.021	-0.372
-527.033	-16.428	-0.416	-0.264
-526.018	81.011	-0.200	0.216
-525.004	244.836	-0.153	-0.256
-523.989	-10.495	0.092	-0.061
-522.975	-74.888	-0.165	0.059
-521.960	800.000	0.015	-0.058
-520.945	-68.676	0.126	-0.049
-519.931	-200.000	-0.013	-0.250
-518.916	800.000	0.046	-0.177
-517.902	-116.409	-0.160	0.030
-516.887	189.170	-0.116	-0.173
-515.872	79.405	0.075	-0.080
-514.858	-0.691	-0.206	-0.146
-513.843	-31.379	0.377	0.212
-512.829	619.789	-0.084	-0.211
-511.814	-116.342	-0.213	0.039
-510.799	51.645	-0.137	0.130
-509.785	-101.470	-0.164	0.040
-508.770	800.000	0.111	0.380
-507.756	-90.880	-0.208	0.060
-506.741	-27.400	0.282	-0.164
-505.726	-31.547	-0.137	-0.077
-504.712	-200.000	-0.025	-0.202
-503.697	-200.000	-0.048	-0.289
-502.683	-47.792	0.205	-0.099
-501.668	-162.683	-0.196	0.010
-500.653	427.781	-0.115	-0.248
-499.639	-128.948	0.281	-0.039
-498.624	-138.272	-0.296	-0.033
-497.610	263.078	0.127	-0.221
-496.595	59.741	0.090	-0.088
-495.581	-129.040	-0.526	0.073
-494.566	-200.000	-0.006	0.290
-493.551	-58.645	-0.230	0.099
-492.537	-112.469	-0.113	-0.023
-491.522	40.468	0.082	0.073
-490.508	-200.000	-0.036	0.214
-489.493	-123.158	-0.301	0.048
-488.478	-108.766	0.310	0.066
-487.464	-93.229	-0.222	0.061
-486.449	-72.569	-0.393	-0.145
-485.435	-200.000	-0.090	-0.477
-484.420	-150.777	0.218	0.016
-483.405	-82.272	0.204	0.066
-482.391	86.914	-0.078	-0.086
-481.376	199.813	0.156	-0.239
-480.362	800.000	-0.043	0.149
-479.347	800.000	-0.061	0.212
-478.332	-95.739	-0.215	0.057
-477.318	176.749	0.077	-0.112
-476.303	800.000	0.068	0.217
-475.289	-40.776	-0.161	-0.083
-474.274	32.877	-0.155	0.134
-473.259	-10.796	-0.172	0.114
-472.245	-92.488	-0.228	-0.064
-471.230	800.000	-0.021	-0.075
-470.216	800.000	0.046	-0.148
-469.201	47.254	-0.236	-0.219
-468.186	90.526	0.137	-0.153
-467.172	-115.602	0.109	-0.020
-466.157	107.774	0.098	0.117
-465.143	-162.503	-0.366	-0.018
-464.128	-153.706	0.338	-0.023
-463.113	-200.000	0.003	-0.453
-462.099	340.519	0.185	-0.360
-461.084	-200.000	0.008	0.316
-460.070	4.446	-0.124	-0.091
-459.055	98.101	-0.024	0.027
-458.040	-40.515	0.254	-0.131
-457.026	800.000	-0.072	0.217
-456.011	-200.000	-0.008	0.173
-454.997	510.943	0.076	-0.176
-453.982	31.045	0.051	-0.044
-452.968	3.735	0.093	0.068
-451.953	149.823	-0.157	0.212
-450.938	-168.513	0.497	-0.019
-449.924	113.587	0.104	0.126
-448.909	67.680	-0.219	-0.223
-447.895	-200.000	0.001	-0.072
-446.880	-136.854	0.400	-0.046
-445.865	122.395	0.257	0.320
-444.851	800.000	0.039	-0.125
-443.836	-139.745	-0.222	0.023
-442.822	-164.823	-0.171	-0.008
-441.807	140.201	-0.095	0.125
-440.792	-152.446	0.156	-0.011
-439.778	45.024	0.083	0.076
-438.763	-200.000	0.008	0.160
-437.749	-200.000	0.008	-0.397
-436.734	-200.000	0.010	-0.072
-435.719	-83.791	0.131	-0.042
-434.705	-200.000	-0.021	0.317
-433.690	331.190	0.019	-0.037
-432.676	22.008	-0.332	-0.269
-431.661	52.710	-0.063	-0.060
-430.646	-200.000	-0.037	-0.228
-429.632	163.442	0.072	0.101
-428.617	546.408	0.095	-0.226
-427.603	-35.281	-0.167	-0.090
-426.588	-16.109	0.153	0.097
-425.573	246.157	-0.145	-0.244
-424.559	-150.693	0.344	0.026
-423.544	-97.159	0.334	-0.087
-422.530	776.312	-0.059	0.160
-421.515	-37.434	0.305	0.162
-420.500	-200.000	0.050	0.233
-419.486	236.503	0.064	-0.105
-418.471	800.000	-0.041	0.153
-417.457	-113.347	-0.075	-0.015
-416.442	-200.000	0.041	-0.356
-415.428	475.065	-0.073	0.165
-414.413	-89.746	0.227	-0.066
-413.398	800.000	0.091	-0.265
-412.384	293.395	0.160	-0.291
-411.369	-70.114	0.177	0.067
-410.355	326.056	0.122	-0.231
-409.340	131.820	0.113	0.145
-408.325	58.554	-0.050	-0.049
-407.311	38.994	-0.045	-0.040
-406.296	-128.610	-0.029	-0.004
-405.282	-200.000	-0.027	-0.124
-404.267	-92.889	0.551	-0.153
-403.252	-123.233	-0.215	-0.034
-402.238	800.000	0.046	0.196
-401.223	-170.319	0.111	0.004
-400.209	800.000	0.045	0.143
-399.194	262.379	0.050	0.086
-398.179	441.954	0.037	0.080
-397.165	784.527	-0.044	0.121
-396.150	-23.134	0.137	-0.082
-395.136	625.106	-0.058	-0.145
-394.121	-31.507	0.269	-0.150
-393.106	-29.459	-0.124	0.071
-392.092	-68.865	0.244	0.094
-391.077	174.621	0.137	0.198
-390.063	-200.000	-0.021	0.161
-389.048	267.050	-0.076	-0.132
-388.033	800.000	0.048	0.140
-387.019	-195.110	-0.197	0.001
-386.004	-111.682	-0.377	-0.076
-384.990	260.659	0.131	-0.226
-383.975	-63.886	0.178	-0.073
-382.960	-21.234	-0.214	-0.130
-381.946	148.312	0.061	0.082
-380.931	-21.045	0.120	-0.073
-379.917	32.495	0.222	0.191
-378.902	376.765	-0.039	-0.079
-377.888	800.000	0.049	-0.158
-376.873	-78.700	0.194	0.066
-375.858	800.000	0.062	0.245
-374.844	-200.000	0.022	0.816
-373.829	800.000	-0.028	0.085
-372.815	-82.877	0.121	0.039
-371.800	-154.950	-0.078	-0.005
-370.785	258.933	0.181	-0.309
-369.771	-85.270	0.057	-0.018
-368.756	-200.000	-0.029	0.180
-367.742	-63.413	0.237	-0.097
-366.727	-80.870	0.453	0.149
-365.712	800.000	0.090	0.301
-364.698	88.157	-0.150	0.165
-363.683	113.721	-0.119	-0.143
-362.669	-10.131	-0.185	0.122
-361.654	236.785	-0.173	0.285
-360.639	-143.299	0.250	-0.024
-359.625	-65.235	0.154	0.062
-358.610	-40.127	0.126	0.065
-357.596	-179.568	-0.208	-0.005
-356.581	-200.000	0.000	-0.212
-355.566	-42.929	-0.217	0.109
-354.552	62.024	0.321	-0.318
-353.537	107.290	-0.120	-0.141
-352.523	-65.628	0.175	0.070
-351.508	227.085	-0.174	0.280
-350.493	-200.000	0.058	0.268
-349.479	339.638	-0.140	0.271
-348.464	180.435	0.058	0.084
-347.450	-87.937	-0.133	0.040
-346.435	255.653	-0.153	-0.260
-345.420	-14.159	-0.226	-0.145
-344.406	-188.507	0.252	0.003
-343.391	-127.027	-0.315	0.046
-342.377	-200.000	-0.040	0.282
-341.362	-66.198	-0.055	-0.022
-340.348	221.402	-0.067	0.107
-339.333	-177.419	0.303	0.007
-338.318	-59.768	0.264	0.112
-337.304	-200.000	-0.047	0.315
-336.289	-73.785	-0.422	-0.152
-335.275	-108.322	0.287	0.061
-334.260	-33.765	-0.118	0.065
-333.245	-200.000	-0.022	-0.192
-332.231	-200.000	0.009	0.049
-331.216	-188.058	0.031	0.000
-330.202	-32.372	0.184	-0.102
-329.187	-26.723	0.141	0.082
-328.172	-26.995	0.227	-0.131
-327.158	-54.404	-0.228	-0.103
-326.143	-200.000	0.081	0.384
-325.129	-200.000	0.037	0.300
-324.114	-72.506	-0.058	0.021
-323.099	-56.983	-0.326	0.143
-322.085	54.816	0.249	0.238
-321.070	279.627	0.044	-0.077
-320.056	785.381	0.024	0.065
-319.041	63.801	0.078	-0.077
-318.026	-15.954	0.364	-0.230
-317.012	302.090	0.096	-0.175
-315.997	-147.702	0.254	-0.021
-314.983	-95.519	-0.251	0.067
-313.968	-133.720	0.410	0.051
-312.953	-94.290	-0.084	0.023
-311.939	-14.752	-0.037	-0.023
-310.924	-104.740	-0.178	0.041
-309.910	43.484	-0.190	0.172
-308.895	211.175	0.071	0.111
-307.880	-173.068	-0.127	0.004
-306.866	800.000	-0.016	-0.054
-305.851	-5.670	0.364	0.247
-304.837	800.000	0.074	0.205
-303.822	137.143	-0.127	0.165
-302.807	-91.197	-0.189	0.054
-301.793	267.410	-0.070	-0.121
-300.778	214.707	0.117	0.183
-299.764	51.189	0.069	0.065
-298.749	-146.133	0.275	-0.024
-297.735	-137.845	0.228	0.025
-296.720	-98.892	-0.346	0.087
-295.705	800.000	0.080	0.269
-294.691	-69.951	0.456	-0.172
-293.676	546.127	-0.117	-0.276
-292.662	113.914	-0.063	-0.075
-291.647	48.511	0.090	0.084
-290.632	-11.763	-0.265	-0.172
-289.618	-38.502	0.073	0.038
-288.603	-29.945	-0.024	0.014
-287.589	84.022	0.194	0.210
-286.574	222.492	-0.183	0.292
-285.559	-200.000	0.029	-0.420
-284.545	69.940	0.183	-0.187
-283.530	-150.263	-0.163	0.012
-282.516	-74.488	-0.241	0.086
-281.501	-200.000	0.008	-0.061
-280.486	-33.065	-0.158	0.087
-279.472	-20.328	0.187	0.114
-278.457	-200.000	-0.027	-0.200
-277.443	36.174	-0.184	0.160
-276.428	-92.733	0.182	0.050
-275.413	-200.000	0.003	0.085
-274.399	800.000	0.118	0.485
-273.384	800.000	0.055	-0.215
-272.370	128.612	-0.059	-0.075
-271.355	-62.035	0.133	-0.055
-270.340	30.361	0.149	0.126
-269.326	800.000	-0.043	-0.126
-268.311	800.000	0.044	0.149
-267.297	-57.970	-0.069	-0.030
-266.282	-166.824	0.290	0.012
-265.267	-200.000	-0.041	-0.246
-264.253	-200.000	-0.004	0.310
-263.238	293.394	-0.220	0.397
-262.224	239.379	-0.164	-0.270
-261.209	-200.000	-0.007	0.073
-260.195	-162.402	-0.195	-0.010
-259.180	-138.082	-0.501	-0.055
-258.165	-111.451	0.160	-0.032
-257.151	607.071	-0.063	-0.156
-256.136	-58.842	0.327	0.140
-255.122	-200.000	0.001	-0.477
-254.107	-14.256	0.127	-0.081
-253.092	162.238	0.174	-0.241
-252.078	-161.872	-0.123	0.006
-251.063	-93.351	0.081	-0.022
-250.049	212.321	-0.103	-0.160
-249.034	-153.221	-0.159	0.011
-248.019	566.907	0.062	0.149
-247.005	-200.000	0.018	0.165
-245.990	-47.324	-0.198	-0.095
-244.976	-61.839	-0.036	0.015
-243.961	-105.255	-0.203	-0.046
-242.946	-9.733	-0.400	0.263
-241.932	-200.000	0.067	0.316
-240.917	-57.970	-0.126	-0.054
-239.903	41.473	0.198	0.177
-238.888	-37.398	-0.374	-0.197
-237.873	-137.163	0.193	-0.022
-236.859	-149.887	-0.108	-0.008
-235.844	-173.132	-0.229	0.007
-234.830	36.958	-0.047	0.041
-233.815	800.000	-0.045	0.126
-232.800	324.122	-0.077	0.146
-231.786	-200.000	0.008	-0.143
-230.771	30.347	-0.056	-0.047
-229.757	-61.902	0.114	0.047
-228.742	-92.155	-0.152	-0.042
-227.727	241.410	0.106	0.175
-226.713	85.673	-0.175	-0.189
-225.698	351.882	0.033	-0.065
-224.684	-112.338	-0.394	-0.078
-223.669	95.042	0.069	-0.078
-222.655	-126.145	0.354	-0.052
-221.640	-200.000	0.013	-0.281
-220.625	-78.565	0.123	-0.042
-219.611	-157.593	0.067	0.004
-218.596	-200.000	-0.018	-0.255
-217.582	-159.621	0.322	0.018
-216.567	-200.000	-0.014	-0.071
-215.552	-147.524	-0.051	-0.004
-214.538	-48.196	-0.325	0.155
-213.523	-39.276	0.163	0.084
-212.509	-200.000	0.032	0.217
-211.494	125.302	0.179	0.222
-210.479	8.162	-0.173	-0.128
-209.465	367.645	-0.136	-0.270
-208.450	387.613	0.047	0.095
-207.436	529.219	-0.043	0.100
-206.421	207.341	0.096	-0.147
-205.406	9.435	0.106	-0.079
-204.392	18.300	0.050	0.039
-203.377	-39.705	0.229	-0.118
-202.363	-200.000	-0.013	-0.185
-201.348	-200.000	0.001	-0.084
-200.333	-59.248	-0.282	-0.120
-199.319	-59.375	-0.176	0.075
-198.304	-69.560	-0.186	-0.070
-197.290	-105.520	-0.271	0.061
-196.275	-152.228	0.173	-0.012
-195.260	-52.959	-0.207	0.094
-194.246	-200.000	-0.001	0.049
-193.231	90.069	0.189	-0.208
-192.217	198.104	0.075	0.112
-191.202	-60.739	-0.104	-0.043
-190.187	800.000	-0.025	-0.087
-189.173	-35.686	0.129	-0.069
-188.158	-126.814	-0.132	0.019
-187.144	266.514	-0.043	0.074
-186.129	568.313	-0.134	0.322
-185.114	-133.157	-0.116	-0.014
-184.100	-17.896	-0.187	-0.116
-183.085	216.333	-0.219	-0.343
-182.071	72.635	0.267	0.274
-181.056	36.324	-0.226	0.197
-180.042	800.000	-0.025	0.102
-179.027	-114.723	-0.217	0.041
-178.012	-200.000	0.055	0.323
-176.998	-13.236	0.237	-0.152
-175.983	58.197	0.109	0.105
-174.969	-200.000	0.016	-0.191
-173.954	-25.512	-0.209	0.122
-172.939	45.538	0.234	0.213
-171.925	733.605	-0.039	0.103
-170.910	800.000	-0.064	-0.264
-169.896	800.000	-0.065	0.189
-168.881	12.321	-0.122	0.093
-167.866	700.316	0.014	0.037
-166.852	-44.105	0.494	0.244
-165.837	175.023	-0.075	0.107
-164.823	9.542	-0.164	-0.122
-163.808	223.718	-0.033	-0.052
-162.793	257.996	0.101	0.172
-161.779	-40.713	0.372	0.190
-160.764	714.580	-0.044	0.116
-159.750	-200.000	0.073	0.466
-158.735	269.339	0.160	-0.276
-157.720	-136.846	0.117	0.013
-156.706	-20.150	0.092	0.056
-155.691	800.000	0.017	0.054
-154.677	-200.000	0.013	-0.209
-153.662	-22.065	-0.046	-0.028
-152.647	-30.494	-0.295	0.165
-151.633	-115.079	0.251	-0.047
-150.618	-39.028	0.032	0.016
-149.604	182.128	-0.141	0.204
-148.589	-11.448	0.136	0.088
-147.574	-200.000	-0.008	0.040
-146.560	47.655	0.299	-0.274
-145.545	-88.782	0.179	-0.052
-144.531	-200.000	0.011	-0.277
-143.516	-63.371	0.238	-0.096
-142.502	-61.874	-0.212	-0.087
-141.487	628.793	0.088	-0.218
-140.472	-92.209	0.198	0.055
-139.458	402.435	-0.157	0.325
-138.443	-97.255	-0.135	0.035
-137.429	46.981	-0.035	0.032
-136.414	-200.000	-0.029	0.185
-135.399	800.000	-0.021	-0.074
-134.385	-150.607	0.284	0.021
-133.370	102.531	-0.119	0.136
-132.356	44.847	0.187	0.169
-131.341	-37.088	0.358	-0.189
-130.326	11.574	0.226	-0.170
-129.312	-92.737	0.317	0.087
-128.297	46.610	-0.183	-0.167
-127.283	40.420	0.065	-0.058
-126.268	800.000	0.038	-0.127
-125.253	-0.101	-0.156	0.109
-124.239	-200.000	0.007	-0.089
-123.224	659.265	-0.073	0.184
-122.210	-200.000	-0.015	-0.179
-121.195	-200.000	-0.031	0.327
