DTS Sentinel unit serial number:	SN413079Multiplexer serial number:	ORYXHardware model number:	OX4-SRSoftware version number:	ORYX F/W v4.00 Oryx Data Collector v3.7.2.0data status	okinstallation	princeton_trtdifferential loss correction	single-endedforward channel	channel 2reverse channel	N/Adate	2019/09/16time	08:23:35forward acquisition time	60.00reverse acquisition time	0.00gamma	496.2192k internal	0.2328k external	0.2328temperature offset calibration	0.9977default loss term (dB/km)	0.3790temperature slope calibration	1.0000multiplexer offset coefficient	1.0000multiplexer slope coefficient	1.0000fibre end	0.00T internal ref (°C)	29.09T ext. ref 1 (°C)	11.86T ext. ref 2 (°C)	25.53length (m)	temperature (°C)	Stokes	anti-Stokes-747.200	-122.823	0.385	-0.063
-746.185	156.438	-0.201	0.279
-745.171	-200.000	-0.002	0.347
-744.156	-200.000	0.025	0.116
-743.142	-86.610	0.105	-0.033
-742.127	-13.370	-0.199	0.130
-741.112	531.050	-0.109	-0.260
-740.098	306.432	-0.055	0.104
-739.083	800.000	0.024	-0.075
-738.069	199.000	-0.191	0.295
-737.054	468.217	0.069	-0.156
-736.039	360.207	0.177	0.356
-735.025	208.052	0.190	0.299
-734.010	-13.449	-0.340	0.222
-732.996	-130.087	-0.083	-0.011
-731.981	329.721	-0.132	0.256
-730.966	800.000	0.083	0.341
-729.952	53.914	-0.125	0.121
-728.937	800.000	-0.010	0.029
-727.923	-53.419	-0.460	-0.212
-726.908	-5.936	-0.145	0.100
-725.894	-85.282	-0.124	-0.039
-724.879	-73.898	-0.290	-0.106
-723.864	227.566	-0.055	0.089
-722.850	-42.367	-0.169	0.087
-721.835	-42.171	-0.090	0.046
-720.821	-120.028	-0.117	0.020
-719.806	-0.625	0.026	-0.019
-718.791	205.659	0.170	-0.265
-717.777	174.935	-0.008	-0.012
-716.762	115.187	-0.174	-0.214
-715.748	77.567	0.094	0.101
-714.733	501.989	-0.093	-0.216
-713.718	10.131	0.231	0.177
-712.704	112.155	-0.192	-0.234
-711.689	92.182	-0.381	-0.432
-710.675	-52.090	0.343	-0.160
-709.660	-113.533	-0.139	-0.027
-708.645	-23.756	-0.040	0.024
-707.631	-42.755	-0.100	-0.051
-706.616	-64.630	-0.340	-0.139
-705.602	-14.852	0.163	0.105
-704.587	16.661	0.261	0.208
-703.572	-200.000	0.035	-0.534
-702.558	-200.000	-0.050	-0.221
-701.543	800.000	0.118	-0.380
-700.529	-97.023	-0.395	0.104
-699.514	-61.925	0.314	0.132
-698.499	800.000	-0.060	0.256
-697.485	-39.782	-0.335	0.176
-696.470	5.655	0.152	-0.113
-695.456	552.052	-0.119	-0.288
-694.441	-160.445	-0.528	-0.029
-693.426	-92.942	0.029	-0.008
-692.412	800.000	-0.049	-0.211
-691.397	102.684	-0.020	-0.023
-690.383	19.487	0.290	0.234
-689.368	800.000	0.084	0.315
-688.354	-4.953	0.089	0.062
-687.339	-200.000	0.038	0.179
-686.324	14.955	0.203	-0.160
-685.310	-21.305	-0.288	-0.177
-684.295	169.693	-0.142	0.203
-683.281	16.426	0.211	0.167
-682.266	279.760	-0.214	0.384
-681.251	-125.142	-0.215	0.033
-680.237	24.122	-0.056	0.046
-679.222	34.465	-0.092	-0.081
-678.208	-91.938	-0.018	0.005
-677.193	252.402	-0.148	0.254
-676.178	4.220	-0.263	0.194
-675.164	113.269	-0.112	0.137
-674.149	358.062	0.074	-0.148
-673.135	-86.508	0.101	-0.031
-672.120	-114.584	0.151	-0.029
-671.105	327.309	0.035	0.068
-670.091	40.011	-0.192	0.174
-669.076	-1.337	0.130	0.093
-668.062	408.389	-0.070	-0.149
-667.047	-7.557	-0.147	-0.100
-666.032	-80.531	0.233	0.078
-665.018	-113.233	-0.374	0.074
-664.003	325.391	-0.070	0.134
-662.989	800.000	0.057	0.204
-661.974	-200.000	-0.034	0.195
-660.959	86.736	0.122	0.135
-659.945	-27.588	0.242	-0.141
-658.930	-200.000	-0.029	0.301
-657.916	-200.000	0.000	0.133
-656.901	-126.304	0.172	0.026
-655.886	-57.933	0.125	-0.055
-654.872	-8.926	-0.297	-0.200
-653.857	46.844	0.088	-0.082
-652.843	19.825	-0.293	-0.237
-651.828	229.491	0.079	-0.129
-650.814	226.594	0.181	-0.296
-649.799	86.171	-0.227	-0.250
-648.784	76.552	0.063	0.067
-647.770	-166.829	0.207	0.009
-646.755	-106.772	0.075	0.017
-645.741	-200.000	0.017	0.152
-644.726	-185.559	0.273	0.004
-643.711	17.998	0.031	-0.025
-642.697	-200.000	-0.056	0.310
-641.682	67.939	-0.183	0.188
-640.668	-200.000	-0.191	-0.000
-639.653	-71.176	0.221	0.083
-638.638	30.255	0.211	0.181
-637.624	-40.224	-0.161	0.084
-636.609	-141.663	0.427	0.043
-635.595	-29.470	0.059	-0.034
-634.580	276.863	-0.057	-0.101
-633.565	-99.983	0.076	0.019
-632.551	-113.224	-0.330	0.065
-631.536	-90.674	-0.158	-0.046
-630.522	20.487	0.161	-0.130
-629.507	-13.308	-0.114	-0.074
-628.492	-46.428	0.309	-0.152
-627.478	-200.000	-0.005	-0.205
-626.463	-18.789	0.122	0.076
-625.449	-60.301	0.337	0.144
-624.434	-166.717	-0.197	0.008
-623.419	257.856	0.225	-0.388
-622.405	-200.000	0.010	-0.080
-621.390	-40.219	0.183	0.095
-620.376	596.078	0.056	-0.138
-619.361	800.000	-0.010	0.036
-618.346	532.793	-0.057	-0.134
-617.332	-132.637	0.068	-0.009
-616.317	-148.377	-0.446	-0.037
-615.303	195.968	-0.058	-0.088
-614.288	-200.000	0.012	-0.195
-613.273	580.648	-0.078	-0.193
-612.259	-200.000	0.004	0.228
-611.244	-11.209	0.086	-0.057
-610.230	-154.781	0.263	-0.017
-609.215	-184.525	-0.089	0.001
-608.201	-89.794	-0.321	-0.094
-607.186	609.614	-0.226	-0.565
-606.171	179.076	0.125	-0.183
-605.157	73.645	-0.108	-0.113
-604.142	-34.837	-0.399	0.218
-603.128	-76.741	-0.103	-0.036
-602.113	-122.988	0.084	0.014
-601.098	103.804	-0.126	-0.148
-600.084	354.895	-0.047	0.094
-599.069	-200.000	0.022	-0.143
-598.055	-32.503	-0.250	-0.139
-597.040	92.749	-0.173	0.196
-596.025	47.367	0.287	0.268
-595.011	-200.000	-0.001	0.049
-593.996	573.494	0.053	0.129
-592.982	-148.504	0.260	0.021
-591.967	128.252	0.334	0.426
-590.952	586.034	-0.138	0.340
-589.938	743.740	-0.096	0.258
-588.923	8.126	-0.218	0.164
-587.909	260.183	0.096	-0.165
-586.894	172.257	-0.092	0.133
-585.879	65.305	0.165	0.167
-584.865	-22.434	-0.247	-0.150
-583.850	-200.000	-0.049	-0.255
-582.836	-122.153	-0.116	-0.019
-581.821	431.203	-0.246	-0.534
-580.806	-91.543	0.021	-0.006
-579.792	-181.595	-0.313	0.006
-578.777	160.465	-0.073	0.102
-577.763	-200.000	-0.008	0.294
-576.748	579.569	-0.108	-0.265
-575.733	-90.589	0.375	-0.109
-574.719	100.109	0.310	0.359
-573.704	161.871	-0.118	-0.166
-572.690	-196.514	-0.160	-0.001
-571.675	-200.000	0.008	0.048
-570.661	-200.000	0.029	-0.297
-569.646	6.308	0.202	-0.150
-568.631	800.000	0.110	-0.344
-567.617	211.633	0.032	-0.050
-566.602	269.641	-0.117	-0.205
-565.588	-200.000	0.058	-0.426
-564.573	282.558	-0.121	-0.218
-563.558	-75.284	-0.120	-0.043
-562.544	-200.000	0.014	0.061
-561.529	-200.000	-0.011	0.090
-560.515	265.008	0.032	-0.055
-559.500	-113.711	-0.255	-0.050
-558.485	48.786	0.224	-0.210
-557.471	313.875	-0.133	-0.250
-556.456	134.597	0.026	-0.034
-555.442	-66.832	-0.105	-0.042
-554.427	240.419	-0.222	0.370
-553.412	-36.269	0.318	-0.171
-552.398	-96.963	0.015	0.004
-551.383	-200.000	-0.008	-0.077
-550.369	76.530	-0.107	-0.113
-549.354	181.107	0.084	-0.124
-548.339	-200.000	-0.066	-0.318
-547.325	-49.135	0.370	0.177
-546.310	-5.636	-0.048	0.033
-545.296	800.000	0.035	-0.124
-544.281	150.144	0.101	0.137
-543.266	223.131	0.092	-0.148
-542.252	163.656	-0.091	-0.127
-541.237	452.571	-0.093	-0.206
-540.223	-171.142	-0.326	-0.011
-539.208	-200.000	0.034	0.261
-538.193	-95.105	-0.419	-0.113
-537.179	-200.000	-0.027	0.309
-536.164	28.610	0.196	0.165
-535.150	47.565	-0.169	-0.157
-534.135	735.597	0.076	-0.203
-533.121	609.956	-0.067	0.167
-532.106	-84.423	0.088	-0.028
-531.091	162.286	-0.156	-0.219
-530.077	800.000	0.040	-0.113
-529.062	739.459	0.083	0.222
-528.048	-138.994	0.136	-0.015
-527.033	105.968	0.145	-0.171
-526.018	244.742	0.106	-0.179
-525.004	-70.725	-0.082	-0.031
-523.989	269.378	-0.132	-0.232
-522.975	-200.000	0.013	-0.100
-521.960	-60.666	-0.306	0.130
-520.945	23.689	0.082	0.067
-519.931	-42.525	0.226	-0.115
-518.916	-34.140	-0.043	-0.024
-517.902	-200.000	-0.057	-0.285
-516.887	-70.591	0.345	0.130
-515.872	800.000	-0.096	0.357
-514.858	-84.243	0.408	0.129
-513.843	-54.185	-0.081	0.037
-512.829	-99.024	-0.499	-0.126
-511.814	-46.856	0.124	-0.061
-510.799	800.000	0.006	-0.024
-509.785	-82.852	-0.204	0.066
-508.770	8.832	-0.183	-0.137
-507.756	86.980	-0.073	0.081
-506.741	-127.236	-0.246	0.036
-505.726	800.000	0.096	0.411
-504.712	-111.665	-0.168	0.034
-503.697	45.072	-0.171	-0.157
-502.683	-113.068	-0.238	-0.047
-501.668	55.269	-0.062	-0.060
-500.653	-112.684	-0.495	-0.098
-499.639	-5.246	0.273	-0.188
-498.624	4.045	-0.349	-0.255
-497.610	-96.445	0.154	-0.041
-496.595	125.682	0.162	0.204
-495.581	-200.000	-0.031	0.349
-494.566	-62.577	-0.306	-0.127
-493.551	64.400	-0.165	0.166
-492.537	800.000	0.013	0.041
-491.522	51.038	-0.152	0.143
-490.508	99.376	-0.053	0.061
-489.493	-200.000	-0.024	-0.152
-488.478	-166.834	0.198	-0.008
-487.464	-84.147	0.076	0.024
-486.449	-200.000	-0.017	0.292
-485.435	-57.322	0.166	-0.073
-484.420	582.957	0.115	0.282
-483.405	-101.771	-0.145	0.035
-482.391	-89.679	-0.076	0.022
-481.376	-56.330	0.193	0.085
-480.362	-122.920	-0.037	0.006
-479.347	800.000	0.018	0.062
-478.332	54.728	0.182	0.175
-477.318	142.465	0.028	0.037
-476.303	22.570	-0.313	0.255
-475.289	51.693	0.242	0.230
-474.274	-200.000	-0.199	0.000
-473.259	-65.169	0.277	0.111
-472.245	404.465	-0.153	-0.321
-471.230	800.000	-0.133	-0.452
-470.216	416.881	-0.020	0.043
-469.201	-60.203	-0.257	0.109
-468.186	800.000	0.035	0.146
-467.172	63.918	-0.271	0.272
-466.157	-200.000	-0.011	-0.354
-465.143	-200.000	0.032	0.156
-464.128	-136.161	0.306	-0.036
-463.113	-134.753	-0.185	0.022
-462.099	-200.000	0.047	0.271
-461.084	-34.896	0.171	0.093
-460.070	431.760	0.204	-0.440
-459.055	-85.956	-0.232	-0.072
-458.040	791.464	0.086	0.236
-457.026	-200.000	-0.009	-0.130
-456.011	72.190	-0.315	0.327
-454.997	-122.515	0.219	0.036
-453.982	399.013	0.148	-0.309
-452.968	-200.000	0.037	0.295
-451.953	800.000	0.094	-0.297
-450.938	-147.861	-0.162	0.013
-449.924	246.133	-0.148	0.249
-448.909	-200.000	0.039	0.221
-447.895	64.827	0.033	-0.033
-446.880	800.000	0.022	0.069
-445.865	26.377	-0.123	0.103
-444.851	-200.000	0.020	-0.222
-443.836	342.717	0.090	0.175
-442.822	-62.772	-0.234	0.096
-441.807	-67.099	0.259	-0.102
-440.792	-200.000	-0.011	0.081
-439.778	-63.984	-0.480	0.195
-438.763	-135.472	-0.192	0.023
-437.749	123.241	-0.163	-0.204
-436.734	800.000	0.100	-0.316
-435.719	152.181	0.096	0.131
-434.705	538.528	-0.139	-0.328
-433.690	-83.775	0.243	-0.077
-432.676	-200.000	-0.000	-0.092
-431.661	35.804	0.079	0.069
-430.646	-181.601	-0.098	0.002
-429.632	257.717	0.051	0.087
-428.617	800.000	-0.020	-0.077
-427.603	309.601	-0.072	-0.134
-426.588	-200.000	0.002	0.155
-425.573	800.000	0.054	-0.227
-424.559	-185.704	0.116	0.002
-423.544	-56.268	0.344	-0.152
-422.530	369.118	0.082	0.165
-421.515	-53.197	0.082	-0.038
-420.500	-113.492	0.108	-0.021
-419.486	-150.298	0.093	0.007
-418.471	551.210	0.046	-0.111
-417.457	-16.572	-0.068	0.043
-416.442	14.077	0.180	-0.140
-415.428	-118.260	0.118	0.021
-414.413	20.624	0.126	0.101
-413.398	200.256	-0.218	0.333
-412.384	-150.417	0.160	-0.012
-411.369	-72.783	-0.184	-0.067
-410.355	-200.000	-0.008	-0.351
-409.340	6.383	0.116	0.086
-408.325	105.199	0.120	0.141
-407.311	-65.843	0.154	0.061
-406.296	-84.652	-0.152	0.048
-405.282	165.217	0.149	0.209
-404.267	-200.000	0.026	-0.203
-403.252	-200.000	0.028	-0.161
-402.238	0.101	-0.093	0.066
-401.223	512.565	-0.026	-0.060
-400.209	-30.528	0.164	0.092
-399.194	-79.603	-0.130	-0.044
-398.179	309.639	-0.079	-0.148
-397.165	-35.165	0.201	-0.109
-396.150	340.415	-0.212	-0.410
-395.136	6.707	-0.265	0.196
-394.121	-116.657	-0.310	0.057
-393.106	-200.000	-0.041	0.419
-392.092	800.000	-0.070	0.262
-391.077	-200.000	0.014	-0.089
-390.063	-10.174	-0.179	0.118
-389.048	156.092	0.159	-0.218
-388.033	93.362	0.134	0.151
-387.019	-13.125	0.110	0.071
-386.004	119.510	-0.267	-0.329
-384.990	9.916	-0.143	0.108
-383.975	164.458	-0.085	0.119
-382.960	800.000	0.123	0.369
-381.946	800.000	-0.059	-0.238
-380.931	-26.716	0.245	-0.142
-379.917	-19.933	0.304	-0.187
-378.902	48.750	0.043	0.040
-377.888	-200.000	-0.039	-0.330
-376.873	-96.600	-0.140	0.037
-375.858	-200.000	-0.003	0.030
-374.844	103.780	-0.126	-0.147
-373.829	800.000	0.014	0.057
-372.815	-121.468	-0.514	-0.085
-371.800	81.647	0.126	-0.135
-370.785	-102.625	0.189	-0.045
-369.771	231.018	-0.100	0.163
-368.756	31.084	-0.186	-0.158
-367.742	-137.984	-0.100	0.011
-366.727	-141.462	-0.102	-0.010
-365.712	-28.152	0.021	0.012
-364.698	45.474	-0.228	-0.209
-363.683	-157.131	0.245	0.015
-362.669	9.728	-0.316	0.238
-361.654	-200.000	0.079	0.442
-360.639	401.820	0.096	0.201
-359.625	800.000	-0.091	-0.380
-358.610	-200.000	-0.014	0.254
-357.596	-200.000	-0.015	0.141
-356.581	43.264	-0.034	-0.031
-355.566	-94.038	-0.146	0.040
-354.552	-83.496	0.237	-0.075
-353.537	-143.401	-0.151	0.014
-352.523	800.000	0.090	0.316
-351.508	366.006	0.172	0.344
-350.493	749.211	-0.097	0.259
-349.479	125.072	-0.030	0.038
-348.464	-63.679	0.304	-0.124
-347.450	-45.608	0.162	-0.080
-346.435	30.970	0.221	-0.188
-345.420	-92.018	0.278	-0.078
-344.406	-200.000	0.023	-0.116
-343.391	715.659	-0.067	-0.175
-342.377	357.003	0.044	-0.086
-341.362	212.308	0.127	0.198
-340.348	-55.366	-0.246	0.110
-339.333	24.643	-0.237	0.195
-338.318	267.656	-0.172	0.299
-337.304	30.309	0.108	0.091
-336.289	-134.203	-0.176	-0.021
-335.275	-101.417	0.261	-0.063
-334.260	-200.000	0.030	-0.524
-333.245	32.980	0.192	-0.165
-332.231	28.009	-0.128	-0.107
-331.216	609.573	-0.035	0.086
-330.202	-200.000	0.008	0.232
-329.187	-200.000	-0.038	0.586
-328.172	-200.000	0.001	-0.272
-327.158	-200.000	0.028	0.271
-326.143	800.000	-0.032	0.123
-325.129	800.000	-0.054	0.150
-324.114	-73.742	-0.193	-0.070
-323.099	-200.000	-0.008	-0.311
-322.085	570.587	-0.099	-0.238
-321.070	-4.435	-0.132	0.090
-320.056	-185.665	-0.268	0.004
-319.041	-80.222	0.148	0.049
-318.026	-200.000	-0.014	-0.151
-317.012	-126.833	0.166	0.024
-315.997	-200.000	-0.030	0.320
-314.983	-154.648	0.152	0.010
-313.968	295.555	0.083	0.151
-312.953	-200.000	-0.009	-0.177
-311.939	-200.000	0.002	0.266
-310.924	35.657	0.252	0.220
-309.910	387.847	0.092	0.189
-308.895	800.000	0.156	0.540
-307.880	800.000	-0.096	-0.272
-306.866	-59.281	0.124	0.053
-305.851	28.915	0.066	-0.056
-304.837	216.751	-0.121	0.191
-303.822	800.000	-0.027	-0.117
-302.807	195.728	0.062	0.094
-301.793	-23.370	0.143	0.085
-300.778	800.000	0.075	0.311
-299.764	200.308	0.151	-0.230
-298.749	-150.066	0.034	0.003
-297.735	582.400	0.171	0.415
-296.720	129.796	-0.240	-0.304
-295.705	800.000	-0.090	-0.339
-294.691	7.144	-0.242	-0.178
-293.676	800.000	0.058	0.165
-292.662	397.986	0.090	-0.186
-291.647	9.475	0.325	-0.243
-290.632	211.305	-0.267	0.415
-289.618	800.000	-0.030	0.104
-288.603	90.600	-0.140	-0.155
-287.589	750.184	-0.062	-0.166
-286.574	298.873	0.122	0.222
-285.559	-101.709	-0.207	0.050
-284.545	746.879	0.068	0.181
-283.530	-30.012	0.170	0.096
-282.516	-167.159	-0.252	-0.010
-281.501	-0.243	-0.133	0.093
-280.486	37.581	0.179	0.157
-279.472	-200.000	-0.030	0.167
-278.457	-145.677	0.345	0.031
-277.443	-145.433	-0.180	0.016
-276.428	396.307	0.136	0.281
-275.413	77.973	0.039	0.041
-274.399	-125.449	-0.164	-0.025
-273.384	303.900	-0.136	-0.249
-272.370	800.000	0.110	0.327
-271.355	-146.551	-0.093	0.008
-270.340	-21.000	-0.348	-0.211
-269.326	-200.000	0.003	0.227
-268.311	-200.000	0.006	-0.337
-267.297	-28.525	0.356	-0.203
-266.282	800.000	0.039	-0.170
-265.267	800.000	0.047	0.135
-264.253	-130.852	0.175	-0.023
-263.238	-122.749	0.107	-0.017
-262.224	-200.000	0.011	-0.160
-261.209	-69.897	0.184	0.070
-260.195	-200.000	0.010	0.114
-259.180	13.172	-0.419	0.321
-258.165	572.854	0.143	-0.344
-257.151	800.000	0.023	-0.093
-256.136	20.861	-0.189	0.151
-255.122	436.699	-0.184	-0.397
-254.107	800.000	-0.104	-0.285
-253.092	-1.092	0.196	-0.137
-252.078	-98.193	0.100	0.025
-251.063	-130.582	-0.529	-0.071
-250.049	440.901	-0.088	0.190
-249.034	289.387	-0.106	0.190
-248.019	-200.000	-0.068	0.315
-247.005	-91.708	0.454	-0.128
-245.990	98.762	0.187	0.213
-244.976	-139.902	0.193	0.020
-243.961	-138.351	0.395	-0.043
-242.946	-45.506	0.020	-0.010
-241.932	800.000	0.109	0.431
-240.917	355.248	-0.127	-0.249
-239.903	202.170	-0.042	0.065
-238.888	-33.513	0.098	0.053
-237.873	44.087	0.306	0.277
-236.859	-200.000	0.037	0.186
-235.844	136.119	-0.149	-0.191
-234.830	-99.993	-0.189	0.047
-233.815	19.424	0.253	0.201
-232.800	-31.726	0.240	-0.133
-231.786	99.730	-0.072	-0.082
-230.771	39.506	-0.057	-0.051
-229.757	800.000	0.004	-0.012
-228.742	-200.000	0.013	0.121
-227.727	61.210	0.120	0.118
-226.713	-128.168	0.165	-0.023
-225.698	302.447	0.065	-0.119
-224.684	-200.000	0.002	-0.075
-223.669	172.388	-0.125	-0.178
-222.655	498.546	0.168	0.383
-221.640	-47.590	0.282	-0.135
-220.625	800.000	-0.042	-0.172
-219.611	-115.874	0.195	0.036
-218.596	8.243	0.126	-0.094
-217.582	199.002	0.112	-0.169
-216.567	-53.950	-0.081	-0.037
-215.552	-116.534	0.179	-0.033
-214.538	101.500	0.127	-0.146
-213.523	-145.849	-0.210	-0.018
-212.509	-17.890	0.303	0.188
-211.494	800.000	-0.013	0.039
-210.479	665.766	0.182	0.464
-209.465	103.728	-0.191	-0.221
-208.450	309.325	-0.175	-0.323
-207.436	-111.736	-0.108	-0.022
-206.421	-200.000	0.008	-0.039
-205.406	7.959	-0.263	-0.195
-204.392	125.533	0.241	-0.301
-203.377	-84.997	0.280	0.087
-202.363	-12.644	-0.023	-0.015
-201.348	-5.656	-0.166	-0.112
-200.333	-200.000	-0.014	0.140
-199.319	-92.151	-0.164	0.046
-198.304	-177.255	-0.097	0.002
-197.290	-131.456	-0.342	0.045
-196.275	800.000	0.048	-0.154
-195.260	-200.000	0.038	0.243
-194.246	-34.343	0.476	-0.257
-193.231	350.360	-0.161	-0.313
-192.217	-200.000	-0.004	0.048
-191.202	800.000	0.093	0.392
-190.187	-2.131	0.204	-0.141
-189.173	-26.564	0.099	-0.057
-188.158	-20.843	-0.275	0.166
-187.144	-189.689	0.227	-0.003
-186.129	-200.000	-0.047	0.351
-185.114	-10.672	-0.213	-0.139
-184.100	-200.000	0.028	-0.321
-183.085	373.912	0.131	0.263
-182.071	-200.000	0.035	0.177
-181.056	-200.000	-0.030	-0.494
-180.042	-200.000	0.022	0.296
-179.027	-67.698	-0.359	-0.139
-178.012	376.295	-0.110	-0.220
-176.998	-200.000	0.003	-0.269
-175.983	-101.607	-0.106	-0.025
-174.969	-200.000	0.038	-0.253
-173.954	-40.211	0.121	-0.062
-172.939	800.000	-0.099	0.333
-171.925	80.725	-0.242	-0.257
-170.910	325.410	0.109	-0.205
-169.896	-109.233	-0.172	0.036
-168.881	-69.734	0.173	-0.065
-167.866	800.000	0.043	-0.177
-166.852	119.785	0.181	-0.221
-165.837	231.615	-0.019	-0.031
-164.823	-200.000	0.036	0.178
-163.808	58.506	-0.148	-0.144
-162.793	-200.000	-0.042	0.222
-161.779	800.000	0.085	-0.249
-160.764	-121.116	0.179	0.029
-159.750	-200.000	0.057	0.418
-158.735	26.436	-0.199	0.164
-157.720	-164.632	0.190	0.008
-156.706	-200.000	-0.019	-0.271
-155.691	-13.445	0.178	0.114
-154.677	200.250	0.266	0.402
-153.662	541.948	0.117	0.275
-152.647	-48.687	0.125	-0.059
-151.633	37.014	-0.179	0.156
-150.618	-4.765	0.246	-0.167
-149.604	287.176	-0.146	0.260
-148.589	-200.000	-0.016	0.126
-147.574	174.584	0.043	0.061
-146.560	8.358	-0.175	0.129
-145.545	320.412	-0.071	0.133
-144.531	-155.169	-0.174	-0.011
-143.516	800.000	0.167	-0.459
-142.502	-28.612	-0.035	-0.020
-141.487	195.604	0.159	0.238
-140.472	-200.000	-0.014	-0.267
-139.458	-48.834	0.283	0.133
-138.443	800.000	0.055	-0.178
-137.429	2.072	0.249	-0.177
-136.414	-123.337	-0.241	0.038
-135.399	-120.717	0.069	-0.011
-134.385	-161.081	0.168	-0.009
-133.370	178.331	0.111	0.159
-132.356	-12.531	-0.164	-0.105
-131.341	-175.457	0.282	0.008
-130.326	46.045	0.133	-0.121
-129.312	-120.436	0.168	-0.028
-128.297	60.288	-0.261	0.254
-127.283	-27.829	-0.044	0.025
-126.268	208.819	0.002	0.003
-125.253	11.350	0.208	-0.157
-124.239	553.814	-0.047	0.110
-123.224	-85.927	-0.283	0.086
-122.210	-174.990	-0.147	-0.004
-121.195	800.000	0.075	-0.215
-120.180	-200.000	-0.025	-0.175
