DTS Sentinel unit serial number:	SN413079Multiplexer serial number:	ORYXHardware model number:	OX4-SRSoftware version number:	ORYX F/W v4.00 Oryx Data Collector v3.7.2.0data status	okinstallation	princeton_trtdifferential loss correction	single-endedforward channel	channel 2reverse channel	N/Adate	2019/09/16time	02:39:35forward acquisition time	60.00reverse acquisition time	0.00gamma	496.2192k internal	0.2334k external	0.2334temperature offset calibration	0.9970default loss term (dB/km)	0.3790temperature slope calibration	1.0000multiplexer offset coefficient	1.0000multiplexer slope coefficient	1.0000fibre end	0.00T internal ref (°C)	27.70T ext. ref 1 (°C)	10.30T ext. ref 2 (°C)	22.46length (m)	temperature (°C)	Stokes	anti-Stokes-747.200	246.389	-0.195	0.330
-746.185	-186.024	-0.330	-0.005
-745.171	-83.903	-0.149	-0.048
-744.156	-200.000	0.100	0.609
-743.142	129.692	0.226	0.291
-742.127	-200.000	-0.004	0.188
-741.112	76.949	-0.286	0.305
-740.098	37.097	-0.451	0.402
-739.083	525.215	0.079	0.186
-738.069	-25.238	-0.171	0.102
-737.054	112.736	0.183	0.223
-736.039	-173.418	-0.249	0.008
-735.025	158.833	0.028	0.039
-734.010	-74.085	0.127	0.046
-732.996	-169.150	-0.220	0.008
-731.981	-141.113	-0.170	0.018
-730.966	-200.000	-0.046	0.238
-729.952	-200.000	0.025	-0.280
-728.937	280.372	0.069	0.125
-727.923	147.673	-0.297	-0.402
-726.908	84.790	-0.230	-0.253
-725.894	-100.015	0.178	-0.045
-724.879	389.585	-0.191	-0.397
-723.864	-200.000	0.003	0.180
-722.850	-118.772	0.225	0.040
-721.835	-25.905	0.190	-0.113
-720.821	81.109	-0.103	-0.112
-719.806	62.781	-0.084	-0.085
-718.791	-200.000	0.019	0.266
-717.777	93.719	-0.134	0.153
-716.762	10.023	-0.022	0.017
-715.748	392.632	-0.120	0.251
-714.733	800.000	-0.051	0.175
-713.718	-40.025	-0.144	-0.075
-712.704	-33.099	0.304	-0.169
-711.689	-105.941	-0.546	-0.123
-710.675	3.137	-0.132	-0.096
-709.660	800.000	-0.155	-0.599
-708.645	75.829	-0.154	0.164
-707.631	115.907	0.199	-0.245
-706.616	-200.000	0.071	0.441
-705.602	-124.242	-0.301	-0.047
-704.587	13.177	-0.147	-0.114
-703.572	800.000	-0.037	-0.124
-702.558	800.000	0.037	-0.133
-701.543	206.467	0.149	-0.233
-700.529	-200.000	-0.042	0.283
-699.514	-91.230	0.091	0.026
-698.499	-200.000	0.000	0.204
-697.485	88.725	-0.064	0.071
-696.470	-155.465	0.264	-0.017
-695.456	150.734	-0.194	-0.265
-694.441	296.529	0.159	-0.293
-693.426	437.656	-0.095	-0.207
-692.412	248.957	-0.044	-0.075
-691.397	-45.331	0.178	0.089
-690.383	800.000	-0.122	0.363
-689.368	-119.555	0.332	0.058
-688.354	-200.000	0.013	0.062
-687.339	-200.000	0.033	0.210
-686.324	-200.000	0.015	0.123
-685.310	650.414	0.048	0.123
-684.295	800.000	0.104	0.417
-683.281	209.173	-0.106	-0.166
-682.266	-200.000	0.032	0.237
-681.251	-49.746	0.179	0.085
-680.237	668.948	-0.066	0.171
-679.222	-200.000	-0.018	-0.159
-678.208	800.000	0.028	-0.102
-677.193	294.686	-0.214	-0.392
-676.178	-52.110	-0.164	-0.076
-675.164	-144.583	0.392	-0.036
-674.149	800.000	-0.058	0.194
-673.135	77.162	0.108	-0.115
-672.120	86.878	-0.128	0.142
-671.105	7.994	0.050	-0.038
-670.091	132.977	0.268	0.346
-669.076	-89.375	-0.019	0.005
-668.062	-125.755	-0.284	-0.043
-667.047	370.308	0.102	-0.207
-666.032	-177.366	-0.159	0.004
-665.018	-200.000	-0.441	0.001
-664.003	35.153	0.222	0.195
-662.989	800.000	-0.046	-0.147
-661.974	-5.324	0.098	-0.067
-660.959	605.726	-0.026	-0.065
-659.945	632.475	-0.179	-0.455
-658.930	-70.778	-0.429	-0.162
-657.916	101.323	0.213	0.249
-656.901	656.650	0.050	-0.128
-655.886	-86.606	-0.418	0.128
-654.872	49.587	-0.111	-0.105
-653.857	560.281	-0.091	0.221
-652.843	26.671	-0.085	0.071
-651.828	-200.000	0.021	-0.336
-650.814	-95.026	-0.462	-0.125
-649.799	-200.000	-0.047	-0.289
-648.784	-200.000	0.028	0.130
-647.770	164.507	0.083	0.117
-646.755	-77.387	0.162	-0.056
-645.741	32.084	-0.178	-0.154
-644.726	91.555	-0.203	-0.229
-643.711	-200.000	0.031	-0.197
-642.697	4.462	-0.182	-0.134
-641.682	26.933	0.233	-0.196
-640.668	-200.000	0.001	0.025
-639.653	-117.494	-0.212	0.038
-638.638	-55.694	0.069	-0.031
-637.624	-200.000	0.092	-0.460
-636.609	325.746	0.141	-0.271
-635.595	-91.608	-0.151	-0.043
-634.580	800.000	-0.072	0.274
-633.565	-20.271	-0.292	-0.180
-632.551	-200.000	-0.031	-0.296
-631.536	57.908	-0.177	0.173
-630.522	118.432	0.163	0.202
-629.507	-200.000	0.013	0.315
-628.492	800.000	-0.040	0.154
-627.478	-200.000	-0.002	0.030
-626.463	-200.000	0.007	0.153
-625.449	-145.253	0.338	-0.031
-624.434	116.181	0.027	-0.033
-623.419	5.248	-0.240	-0.177
-622.405	-109.359	0.156	-0.033
-621.390	-79.132	-0.431	-0.146
-620.376	28.824	-0.219	-0.186
-619.361	15.762	0.116	-0.091
-618.346	800.000	-0.043	-0.132
-617.332	-140.696	0.493	-0.051
-616.317	193.249	0.101	0.152
-615.303	800.000	-0.033	0.136
-614.288	-103.180	0.103	-0.024
-613.273	638.299	0.148	0.377
-612.259	-139.981	-0.205	-0.022
-611.244	-145.993	0.460	-0.041
-610.230	87.533	-0.099	-0.110
-609.215	-66.632	-0.385	-0.152
-608.201	-90.750	0.132	-0.038
-607.186	-200.000	-0.072	-0.373
-606.171	-98.147	0.201	-0.052
-605.157	75.630	-0.102	0.108
-604.142	-118.463	0.278	0.049
-603.128	-200.000	-0.040	0.352
-602.113	-176.264	-0.136	0.004
-601.098	170.864	-0.148	-0.212
-600.084	165.283	-0.056	0.079
-599.069	84.771	-0.212	0.232
-598.055	-200.000	0.026	0.178
-597.040	800.000	0.066	0.190
-596.025	-107.921	-0.300	0.065
-595.011	-159.947	-0.156	-0.009
-593.996	-40.883	0.216	-0.112
-592.982	46.552	0.090	-0.084
-591.967	-124.972	0.210	-0.032
-590.952	-126.513	-0.315	-0.047
-589.938	73.318	0.067	-0.070
-588.923	800.000	-0.087	0.252
-587.909	6.688	-0.277	0.206
-586.894	-200.000	-0.073	-0.340
-585.879	404.079	-0.037	-0.078
-584.865	-191.870	0.298	-0.003
-583.850	800.000	-0.082	0.318
-582.836	-152.316	-0.162	-0.012
-581.821	-44.904	0.046	0.023
-580.806	98.701	0.079	0.091
-579.792	46.783	-0.128	-0.119
-578.777	218.119	-0.041	0.065
-577.763	-114.958	0.079	-0.015
-576.748	-49.324	-0.484	-0.231
-575.733	-165.977	-0.288	-0.012
-574.719	-109.694	0.216	-0.045
-573.704	-200.000	0.053	-0.288
-572.690	-200.000	0.069	-0.305
-571.675	-83.952	0.281	-0.089
-570.661	62.533	0.256	-0.256
-569.646	-88.254	0.045	-0.013
-568.631	194.708	-0.187	-0.283
-567.617	6.519	-0.362	-0.269
-566.602	63.565	-0.130	-0.130
-565.588	-68.361	-0.223	0.087
-564.573	800.000	0.016	-0.065
-563.558	576.677	0.089	-0.218
-562.544	800.000	0.028	-0.089
-561.529	-10.555	-0.066	0.044
-560.515	-200.000	-0.024	0.251
-559.500	761.390	0.053	-0.144
-558.485	199.650	-0.099	0.151
-557.471	-113.532	-0.041	-0.008
-556.456	-200.000	-0.042	0.208
-555.442	-78.937	0.365	-0.124
-554.427	61.117	-0.164	-0.162
-553.412	504.431	-0.172	-0.398
-552.398	-110.656	0.057	-0.012
-551.383	-200.000	-0.002	0.018
-550.369	-200.000	0.012	0.315
-549.354	26.616	0.070	-0.058
-548.339	-82.373	0.208	-0.067
-547.325	-50.400	-0.344	-0.162
-546.310	-200.000	0.014	0.174
-545.296	419.215	-0.077	-0.165
-544.281	122.142	0.223	-0.278
-543.266	-200.000	0.013	0.074
-542.252	35.496	-0.066	0.058
-541.237	-64.573	0.082	0.033
-540.223	-4.688	0.222	0.153
-539.208	-33.296	0.069	0.038
-538.193	-143.481	0.266	0.025
-537.179	800.000	0.048	-0.202
-536.164	-37.488	0.351	-0.187
-535.150	800.000	-0.048	-0.134
-534.135	-200.000	-0.059	-0.437
-533.121	-130.370	0.261	-0.035
-532.106	-126.257	0.219	-0.033
-531.091	-44.361	0.135	0.067
-530.077	169.309	-0.172	0.245
-529.062	800.000	0.017	0.071
-528.048	-72.289	0.116	-0.043
-527.033	79.129	-0.120	-0.128
-526.018	74.537	-0.227	0.238
-525.004	-56.526	0.228	0.101
-523.989	18.824	-0.265	-0.211
-522.975	-200.000	-0.010	0.465
-521.960	40.962	-0.135	0.122
-520.945	800.000	-0.019	-0.081
-519.931	223.988	0.090	-0.145
-518.916	-101.415	-0.130	0.031
-517.902	238.127	0.043	-0.071
-516.887	394.796	-0.116	-0.242
-515.872	800.000	-0.051	0.154
-514.858	-10.855	-0.093	-0.061
-513.843	-133.571	-0.256	0.032
-512.829	376.892	0.135	0.274
-511.814	-26.259	0.310	0.181
-510.799	-42.807	0.198	-0.100
-509.785	800.000	0.040	0.120
-508.770	661.955	-0.026	-0.067
-507.756	242.288	-0.113	-0.189
-506.741	-148.316	0.081	0.007
-505.726	172.334	-0.139	-0.199
-504.712	25.447	0.324	-0.268
-503.697	-45.420	-0.225	0.111
-502.683	342.634	0.070	-0.136
-501.668	-17.856	0.254	-0.158
-500.653	-181.128	0.306	0.006
-499.639	19.879	-0.168	0.135
-498.624	281.796	-0.197	-0.352
-497.610	64.314	0.272	0.273
-496.595	-54.207	0.223	-0.101
-495.581	-63.240	0.330	-0.135
-494.566	-200.000	-0.002	0.027
-493.551	275.009	-0.196	0.346
-492.537	-50.736	-0.205	0.096
-491.522	-55.389	0.275	0.123
-490.508	800.000	0.060	0.172
-489.493	-76.421	0.069	0.024
-488.478	5.675	-0.165	0.121
-487.464	-74.641	-0.313	-0.112
-486.449	-200.000	0.055	-0.299
-485.435	800.000	-0.055	0.166
-484.420	114.837	0.164	-0.199
-483.405	-61.878	0.491	0.204
-482.391	-24.397	-0.268	0.159
-481.376	-200.000	0.019	0.278
-480.362	-200.000	-0.015	0.229
-479.347	-61.503	0.179	-0.075
-478.332	-200.000	0.003	0.203
-477.318	800.000	-0.078	-0.306
-476.303	-9.406	-0.187	-0.124
-475.289	-157.115	-0.393	-0.024
-474.274	-74.514	-0.191	0.068
-473.259	-38.448	-0.182	0.096
-472.245	-200.000	-0.022	0.203
-471.230	-94.443	0.197	-0.053
-470.216	308.663	-0.077	0.142
-469.201	-200.000	-0.045	-0.213
-468.186	-168.846	0.305	-0.011
-467.172	-120.796	0.107	-0.018
-466.157	83.948	-0.107	-0.116
-465.143	-158.611	0.206	-0.012
-464.128	-40.371	-0.352	-0.182
-463.113	-200.000	0.022	-0.208
-462.099	-35.168	-0.257	-0.139
-461.084	-112.476	-0.079	-0.016
-460.070	-200.000	0.394	0.002
-459.055	-116.397	0.026	-0.005
-458.040	-18.613	-0.162	-0.100
-457.026	143.892	0.102	-0.135
-456.011	347.144	-0.038	-0.074
-454.997	-183.779	-0.506	-0.009
-453.982	-200.000	-0.003	-0.122
-452.968	-36.355	-0.184	-0.099
-451.953	-47.297	0.172	0.083
-450.938	62.838	0.141	0.140
-449.924	80.671	0.150	0.160
-448.909	-178.819	-0.266	-0.006
-447.895	-200.000	0.042	-0.258
-446.880	-138.351	-0.084	0.009
-445.865	-64.460	0.421	0.170
-444.851	640.887	-0.007	0.018
-443.836	800.000	0.074	0.214
-442.822	-113.915	-0.263	0.051
-441.807	4.228	-0.117	-0.085
-440.792	788.573	0.044	0.121
-439.778	-21.876	-0.063	-0.038
-438.763	-200.000	0.058	-0.335
-437.749	32.401	-0.196	-0.168
-436.734	-134.081	0.215	-0.026
-435.719	-87.536	-0.367	-0.110
-434.705	295.552	0.253	0.461
-433.690	-200.000	-0.004	0.332
-432.676	-42.688	-0.083	0.042
-431.661	-200.000	-0.066	0.373
-430.646	562.347	0.136	-0.327
-429.632	-42.658	0.191	0.097
-428.617	-129.782	0.239	0.033
-427.603	136.697	-0.093	-0.120
-426.588	217.649	0.166	0.263
-425.573	329.039	0.100	-0.191
-424.559	46.085	0.079	-0.073
-423.544	435.614	-0.127	-0.273
-422.530	-36.526	-0.209	-0.112
-421.515	-172.588	-0.355	-0.011
-420.500	-11.294	-0.065	-0.043
-419.486	-200.000	0.001	0.071
-418.471	207.499	-0.084	0.130
-417.457	-75.727	0.112	-0.039
-416.442	-83.273	-0.564	0.180
-415.428	800.000	-0.178	0.490
-414.413	-200.000	0.050	0.249
-413.398	-136.148	-0.231	-0.027
-412.384	28.761	0.085	-0.071
-411.369	-129.268	0.206	-0.028
-410.355	-32.359	0.179	-0.099
-409.340	175.328	0.211	0.303
-408.325	325.541	0.098	0.185
-407.311	245.113	0.103	0.172
-406.296	-7.008	0.143	-0.096
-405.282	800.000	0.061	-0.170
-404.267	-200.000	0.025	0.249
-403.252	-200.000	-0.010	0.359
-402.238	-200.000	0.048	0.255
-401.223	251.408	0.018	0.030
-400.209	800.000	-0.032	-0.102
-399.194	91.722	0.135	0.150
-398.179	-152.302	-0.125	0.009
-397.165	671.595	0.148	-0.380
-396.150	-93.506	0.164	-0.045
-395.136	186.049	0.025	0.036
-394.121	-200.000	0.052	0.232
-393.106	-84.456	0.112	-0.035
-392.092	-94.418	-0.240	-0.065
-391.077	-50.930	0.204	0.095
-390.063	-141.208	0.143	0.014
-389.048	-200.000	-0.061	0.282
-388.033	313.443	-0.106	-0.198
-387.019	-200.000	-0.034	-0.339
-386.004	-122.284	-0.248	0.040
-384.990	34.573	-0.543	0.470
-383.975	-200.000	-0.016	-0.137
-382.960	39.621	0.182	0.161
-381.946	118.336	-0.077	0.094
-380.931	-200.000	-0.036	-0.211
-379.917	-75.911	-0.201	-0.070
-378.902	-152.515	-0.286	-0.020
-377.888	-200.000	-0.039	0.226
-376.873	602.707	-0.108	0.266
-375.858	-63.102	0.441	0.180
-374.844	-116.653	0.195	0.036
-373.829	800.000	-0.055	0.159
-372.815	-32.557	0.306	0.169
-371.800	316.041	0.106	-0.199
-370.785	129.983	0.011	-0.014
-369.771	-200.000	0.081	0.381
-368.756	-105.924	-0.145	-0.032
-367.742	638.624	0.085	0.214
-366.727	800.000	-0.028	-0.083
-365.712	-7.646	-0.110	0.074
-364.698	-19.956	0.146	-0.089
-363.683	5.652	-0.162	0.118
-362.669	-123.479	0.195	-0.031
-361.654	-182.609	0.389	0.007
-360.639	48.012	-0.080	-0.074
-359.625	103.814	0.266	0.309
-358.610	-200.000	0.076	0.337
-357.596	-110.327	0.155	-0.032
-356.581	-128.680	0.234	-0.033
-355.566	-101.632	0.212	0.051
-354.552	76.631	0.335	-0.352
-353.537	-135.129	-0.222	-0.026
-352.523	-123.831	0.282	0.044
-351.508	-200.000	0.016	-0.293
-350.493	-200.000	0.058	-0.342
-349.479	215.407	-0.101	-0.159
-348.464	-45.234	-0.065	0.032
-347.450	160.447	-0.049	-0.068
-346.435	-173.623	-0.105	0.003
-345.420	800.000	-0.016	0.065
-344.406	-108.290	0.332	-0.071
-343.391	-146.678	0.186	0.016
-342.377	54.115	0.195	-0.186
-341.362	-64.790	0.356	-0.142
-340.348	29.257	0.042	0.035
-339.333	24.465	-0.405	-0.331
-338.318	88.852	-0.179	0.197
-337.304	-200.000	-0.015	-0.338
-336.289	-200.000	0.002	-0.028
-335.275	520.874	0.071	-0.164
-334.260	-39.899	-0.229	-0.118
-333.245	366.387	0.101	0.201
-332.231	337.094	0.063	0.120
-331.216	-109.008	-0.291	0.061
-330.202	-151.214	-0.086	-0.006
-329.187	-138.706	0.232	0.025
-328.172	800.000	-0.070	-0.214
-327.158	722.592	0.121	-0.318
-326.143	416.321	0.064	0.134
-325.129	-200.000	-0.026	-0.257
-324.114	-133.865	0.076	-0.009
-323.099	-200.000	-0.027	-0.260
-322.085	800.000	-0.133	-0.375
-321.070	-41.285	-0.040	-0.021
-320.056	-200.000	-0.010	-0.214
-319.041	-200.000	-0.001	0.176
-318.026	800.000	-0.129	-0.538
-317.012	-200.000	0.029	-0.160
-315.997	100.976	0.208	-0.239
-314.983	-200.000	-0.005	0.251
-313.968	50.845	-0.085	0.079
-312.953	91.371	-0.022	-0.025
-311.939	800.000	0.038	0.117
-310.924	32.983	-0.122	0.105
-309.910	53.321	0.161	0.152
-308.895	-200.000	0.048	0.236
-307.880	-144.414	-0.139	-0.013
-306.866	-200.000	-0.049	-0.264
-305.851	68.302	-0.348	-0.352
-304.837	-200.000	0.030	0.134
-303.822	-184.337	0.229	0.004
-302.807	127.618	-0.065	0.082
-301.793	71.012	0.210	0.215
-300.778	524.857	0.057	0.133
-299.764	270.974	0.117	-0.203
-298.749	-75.823	-0.268	-0.094
-297.735	-158.565	-0.419	0.024
-296.720	-39.890	0.129	-0.067
-295.705	320.011	0.116	-0.217
-294.691	800.000	-0.151	0.441
-293.676	-200.000	-0.093	0.556
-292.662	23.706	-0.216	0.175
-291.647	-166.542	0.115	-0.005
-290.632	-109.973	-0.321	0.066
-289.618	-34.673	-0.103	-0.055
-288.603	-80.012	0.219	0.072
-287.589	-51.924	-0.088	0.040
-286.574	-200.000	-0.106	-0.512
-285.559	-200.000	-0.038	0.241
-284.545	-89.206	-0.070	0.021
-283.530	-99.146	-0.344	0.086
-282.516	-9.205	0.251	-0.166
-281.501	48.743	0.209	0.193
-280.486	-110.977	0.158	0.032
-279.472	-200.000	-0.040	0.290
-278.457	-82.974	0.326	0.104
-277.443	-180.497	0.283	0.006
-276.428	40.066	-0.141	-0.125
-275.413	-141.281	-0.090	-0.009
-274.399	-98.355	0.264	0.067
-273.384	367.679	-0.043	-0.086
-272.370	232.331	-0.082	0.133
-271.355	-200.000	0.001	-0.196
-270.340	-25.897	0.192	0.112
-269.326	-81.889	0.276	0.089
-268.311	-139.380	0.086	0.009
-267.297	-16.608	-0.107	-0.067
-266.282	-8.944	0.186	-0.123
-265.267	-15.507	0.021	0.013
-264.253	30.173	-0.127	0.107
-263.238	-200.000	-0.010	0.063
-262.224	800.000	-0.092	0.377
-261.209	-200.000	0.012	0.404
-260.195	-200.000	-0.046	-0.310
-259.180	-73.597	-0.120	-0.043
-258.165	-137.307	-0.068	0.008
-257.151	-200.000	-0.021	0.096
-256.136	136.651	0.184	-0.236
-255.122	-34.974	-0.206	0.111
-254.107	-90.005	-0.143	0.041
-253.092	129.736	-0.111	0.140
-252.078	-10.500	0.108	0.071
-251.063	-200.000	-0.050	0.345
-250.049	-104.514	0.159	0.036
-249.034	-112.967	0.253	-0.049
-248.019	-155.861	-0.072	0.005
-247.005	-107.611	-0.318	0.069
-245.990	-200.000	-0.045	0.248
-244.976	-20.044	0.201	-0.122
-243.961	-131.355	-0.241	0.031
-242.946	-143.916	0.176	-0.016
-241.932	139.110	-0.125	0.162
-240.917	-30.872	0.161	-0.090
-239.903	375.064	0.152	0.306
-238.888	87.346	-0.070	0.076
-237.873	-63.347	0.128	0.052
-236.859	-163.269	-0.185	-0.009
-235.844	-32.312	0.014	-0.008
-234.830	9.071	0.318	0.236
-233.815	-24.246	-0.327	-0.192
-232.800	-1.887	0.203	-0.141
-231.786	800.000	0.071	0.237
-230.771	83.186	0.186	0.199
-229.757	800.000	0.050	-0.160
-228.742	246.159	-0.084	-0.140
-227.727	58.249	0.294	-0.284
-226.713	117.315	0.013	-0.016
-225.698	800.000	0.075	0.298
-224.684	-64.513	-0.232	0.093
-223.669	-112.438	0.102	-0.020
-222.655	0.544	-0.252	0.177
-221.640	-18.846	0.172	0.106
-220.625	-200.000	-0.030	-0.172
-219.611	-200.000	-0.028	0.180
-218.596	-62.052	-0.293	0.120
-217.582	41.804	-0.181	-0.162
-216.567	-200.000	0.061	0.378
-215.552	198.698	0.093	0.140
-214.538	-28.790	0.119	0.068
-213.523	-117.499	0.141	0.025
-212.509	-5.935	0.175	0.118
-211.494	800.000	-0.046	-0.166
-210.479	-90.230	0.316	-0.090
-209.465	-73.129	-0.202	0.073
-208.450	-200.000	-0.051	-0.317
-207.436	-118.652	-0.285	0.050
-206.421	-200.000	-0.031	-0.153
-205.406	23.032	0.174	-0.140
-204.392	335.549	0.037	0.071
-203.377	-75.738	-0.034	-0.012
-202.363	300.902	0.118	-0.214
-201.348	-148.539	0.368	-0.030
-200.333	-200.000	-0.003	0.129
-199.319	-92.759	-0.253	-0.070
-198.304	-18.886	-0.189	0.116
-197.290	-157.853	-0.128	0.007
-196.275	-65.250	0.103	-0.041
-195.260	84.310	-0.141	-0.151
-194.246	-148.341	-0.262	0.021
-193.231	23.130	0.096	0.077
-192.217	181.104	0.031	-0.044
-191.202	213.209	-0.255	-0.396
-190.187	-29.280	0.201	-0.113
-189.173	-144.153	0.178	0.016
-188.158	800.000	0.088	0.299
-187.144	790.980	-0.064	0.174
-186.129	800.000	-0.092	-0.342
-185.114	449.111	0.135	0.292
-184.100	133.504	0.043	-0.055
-183.085	800.000	-0.071	-0.252
-182.071	-82.499	0.297	0.095
-181.056	175.959	-0.068	0.097
-180.042	-17.824	-0.234	-0.145
-179.027	800.000	0.059	0.227
-178.012	50.538	-0.092	-0.086
-176.998	90.036	-0.153	0.168
-175.983	117.026	0.108	-0.130
-174.969	109.330	0.223	-0.262
-173.954	-0.758	-0.168	-0.117
-172.939	-77.300	-0.124	0.042
-171.925	-200.000	-0.039	0.251
-170.910	800.000	-0.071	-0.287
-169.896	62.633	-0.214	0.210
-168.881	800.000	-0.059	0.179
-167.866	-200.000	0.020	-0.091
-166.852	265.034	-0.035	0.060
-165.837	51.024	0.320	0.298
-164.823	-200.000	0.005	0.035
-163.808	29.975	-0.092	0.077
-162.793	508.826	-0.096	-0.219
-161.779	387.600	-0.081	0.164
-160.764	705.281	0.064	0.166
-159.750	-125.443	-0.357	-0.053
-158.735	-102.923	-0.312	-0.073
-157.720	37.711	-0.103	-0.090
-156.706	91.046	0.170	-0.187
-155.691	35.535	-0.220	0.190
-154.677	-32.755	0.138	-0.076
-153.662	-86.552	-0.181	0.054
-152.647	28.069	0.028	-0.023
-151.633	-154.788	-0.203	-0.013
-150.618	-76.242	0.363	0.126
-149.604	800.000	-0.018	0.053
-148.589	800.000	-0.074	0.211
-147.574	-200.000	-0.057	-0.370
-146.560	290.975	0.074	0.131
-145.545	322.015	-0.078	0.146
-144.531	280.297	-0.095	0.167
-143.516	164.084	0.022	-0.030
-142.502	135.810	0.047	0.060
-141.487	390.034	-0.097	-0.197
-140.472	-170.152	-0.027	0.001
-139.458	7.861	0.153	0.113
-138.443	290.568	0.111	0.197
-137.429	-34.697	0.292	0.157
-136.414	-10.821	-0.043	0.028
-135.399	-200.000	-0.012	0.057
-134.385	528.340	-0.122	0.283
-133.370	298.252	-0.213	-0.384
-132.356	-200.000	0.025	-0.110
-131.341	542.726	0.236	-0.552
-130.326	800.000	-0.043	-0.138
-129.312	13.292	0.156	0.118
-128.297	-49.991	0.061	-0.029
-127.283	610.093	-0.111	0.272
-126.268	-62.289	0.331	-0.135
-125.253	-89.080	0.091	-0.026
-124.239	-166.279	0.206	-0.009
-123.224	372.130	0.151	-0.300
-122.210	-200.000	0.030	-0.309
