DTS Sentinel unit serial number:	SN413079Multiplexer serial number:	ORYXHardware model number:	OX4-SRSoftware version number:	ORYX F/W v4.00 Oryx Data Collector v3.7.2.0data status	okinstallation	princeton_trtdifferential loss correction	single-endedforward channel	channel 2reverse channel	N/Adate	2019/09/19time	00:07:35forward acquisition time	60.00reverse acquisition time	0.00gamma	496.2192k internal	0.2352k external	0.2352temperature offset calibration	1.0014default loss term (dB/km)	0.3790temperature slope calibration	1.0000multiplexer offset coefficient	1.0000multiplexer slope coefficient	1.0000fibre end	0.00T internal ref (°C)	22.94T ext. ref 1 (°C)	0.75T ext. ref 2 (°C)	15.82length (m)	temperature (°C)	Stokes	anti-Stokes-747.200	21.172	0.132	-0.107
-746.185	-88.319	-0.417	0.124
-745.171	-200.000	-0.040	-0.201
-744.156	-200.000	0.011	0.366
-743.142	800.000	-0.131	0.414
-742.127	534.887	0.029	-0.069
-741.112	-139.978	0.185	-0.019
-740.098	19.510	0.155	0.124
-739.083	-77.853	-0.038	0.013
-738.069	-121.917	0.060	0.010
-737.054	-69.772	-0.138	0.052
-736.039	15.061	-0.240	0.188
-735.025	375.486	0.219	0.445
-734.010	-3.925	-0.300	-0.208
-732.996	800.000	0.147	-0.466
-731.981	70.514	-0.086	0.088
-730.966	80.659	-0.273	-0.293
-729.952	43.573	0.167	-0.152
-728.937	-1.552	-0.311	-0.219
-727.923	800.000	0.089	0.359
-726.908	40.176	-0.207	-0.186
-725.894	15.952	0.021	-0.017
-724.879	127.188	-0.098	0.124
-723.864	695.327	0.202	-0.528
-722.850	-200.000	-0.007	-0.229
-721.835	100.926	0.196	-0.227
-720.821	145.328	-0.082	-0.109
-719.806	-192.026	-0.243	0.002
-718.791	-53.149	-0.101	-0.046
-717.777	-200.000	0.033	0.161
-716.762	-91.476	-0.311	-0.089
-715.748	-200.000	-0.036	0.241
-714.733	800.000	-0.058	-0.170
-713.718	-72.911	-0.302	0.111
-712.704	-11.534	-0.169	0.110
-711.689	-200.000	-0.008	-0.137
-710.675	-8.768	-0.151	0.101
-709.660	222.576	0.064	0.102
-708.645	-116.386	-0.281	-0.052
-707.631	7.626	-0.192	-0.143
-706.616	800.000	-0.080	0.228
-705.602	3.403	-0.081	-0.059
-704.587	-200.000	0.008	0.224
-703.572	287.608	0.077	-0.139
-702.558	800.000	0.077	-0.238
-701.543	270.549	0.058	-0.101
-700.529	-82.216	0.053	0.017
-699.514	-86.478	0.195	-0.060
-698.499	-200.000	0.015	-0.080
-697.485	112.572	0.083	0.100
-696.470	-200.000	0.044	-0.251
-695.456	-200.000	-0.054	0.394
-694.441	-84.045	-0.159	-0.050
-693.426	81.715	0.103	-0.111
-692.412	-59.263	0.114	-0.049
-691.397	-200.000	0.005	-0.144
-690.383	-87.315	-0.374	0.113
-689.368	-200.000	0.014	0.092
-688.354	-25.743	0.306	0.180
-687.339	800.000	0.028	0.093
-686.324	0.225	-0.193	0.137
-685.310	-73.746	0.308	-0.112
-684.295	78.148	-0.154	-0.164
-683.281	-76.732	-0.171	-0.060
-682.266	32.158	0.157	0.135
-681.251	128.916	-0.209	-0.265
-680.237	-121.662	-0.220	0.036
-679.222	229.627	-0.100	-0.162
-678.208	37.740	-0.153	0.135
-677.193	-63.671	-0.119	0.049
-676.178	-82.265	-0.236	0.076
-675.164	-137.248	-0.286	-0.032
-674.149	61.103	-0.118	0.116
-673.135	-200.000	0.032	-0.289
-672.120	-149.749	0.125	-0.010
-671.105	167.675	0.124	-0.175
-670.091	-200.000	-0.313	0.001
-669.076	-200.000	0.037	0.305
-668.062	-41.583	-0.350	-0.179
-667.047	240.530	-0.099	-0.164
-666.032	167.200	-0.070	-0.099
-665.018	451.826	0.108	0.238
-664.003	298.608	0.245	-0.448
-662.989	305.782	-0.074	-0.137
-661.974	800.000	0.071	0.202
-660.959	-58.104	-0.168	-0.073
-659.945	-200.000	0.009	-0.188
-658.930	44.826	0.241	-0.221
-657.916	-200.000	0.021	0.297
-656.901	-82.640	0.470	0.151
-655.886	165.158	-0.159	-0.223
-654.872	800.000	0.145	0.510
-653.857	181.323	-0.165	0.241
-652.843	171.748	-0.059	0.085
-651.828	-105.480	0.120	-0.027
-650.814	-200.000	0.009	-0.170
-649.799	800.000	-0.075	0.233
-648.784	24.923	-0.132	-0.109
-647.770	68.846	0.077	-0.078
-646.755	-83.278	-0.186	0.060
-645.741	-200.000	0.044	0.350
-644.726	26.436	0.137	0.114
-643.711	-141.022	-0.076	0.008
-642.697	-18.987	0.096	-0.060
-641.682	19.779	0.220	0.176
-640.668	76.372	-0.104	0.110
-639.653	-200.000	-0.011	-0.050
-638.638	-98.080	-0.054	-0.014
-637.624	673.661	0.052	-0.133
-636.609	-12.392	0.077	0.050
-635.595	312.660	-0.053	-0.100
-634.580	462.790	-0.060	0.132
-633.565	-106.498	0.240	0.053
-632.551	-28.715	0.367	-0.210
-631.536	-200.000	0.010	0.058
-630.522	800.000	0.082	-0.251
-629.507	-79.409	0.234	0.079
-628.492	283.717	0.081	0.145
-627.478	174.416	0.078	-0.112
-626.463	-200.000	-0.045	-0.252
-625.449	-99.727	0.240	0.060
-624.434	-77.375	0.203	0.070
-623.419	-166.297	-0.142	0.006
-622.405	-156.524	0.170	0.011
-621.390	308.345	0.131	-0.243
-620.376	-82.176	0.304	-0.098
-619.361	800.000	-0.104	-0.395
-618.346	-75.642	-0.411	0.145
-617.332	-200.000	0.017	-0.088
-616.317	125.016	-0.102	0.127
-615.303	60.849	-0.216	0.213
-614.288	-200.000	-0.002	-0.057
-613.273	160.480	-0.241	0.333
-612.259	-150.022	0.320	0.025
-611.244	800.000	-0.158	-0.527
-610.230	-40.567	0.130	0.067
-609.215	-140.945	0.275	0.028
-608.201	-37.775	-0.216	0.114
-607.186	-200.000	-0.008	-0.046
-606.171	-130.018	-0.073	0.010
-605.157	-111.343	0.246	0.050
-604.142	173.994	0.051	-0.074
-603.128	800.000	-0.057	-0.195
-602.113	-8.402	-0.190	0.127
-601.098	116.226	0.169	0.205
-600.084	-52.590	-0.367	-0.168
-599.069	113.488	0.112	0.134
-598.055	-2.514	0.517	0.359
-597.040	217.803	-0.096	-0.152
-596.025	-200.000	-0.023	0.313
-595.011	-183.362	0.112	0.002
-593.996	-26.779	-0.148	0.086
-592.982	129.692	0.122	-0.155
-591.967	348.363	-0.108	-0.211
-590.952	-200.000	0.004	0.214
-589.938	288.747	-0.046	-0.083
-588.923	252.753	-0.056	0.095
-587.909	-87.123	-0.245	0.074
-586.894	454.410	0.203	-0.447
-585.879	620.294	-0.150	0.375
-584.865	-200.000	-0.062	0.357
-583.850	5.729	0.265	-0.194
-582.836	158.213	-0.291	-0.400
-581.821	-200.000	-0.023	-0.237
-580.806	-108.959	-0.125	-0.026
-579.792	-200.000	-0.040	0.331
-578.777	-200.000	0.006	0.202
-577.763	-84.460	-0.111	0.035
-576.748	767.669	-0.128	0.346
-575.733	-175.348	0.206	0.006
-574.719	-78.492	0.112	-0.038
-573.704	-42.054	-0.214	0.108
-572.690	-117.151	0.055	-0.010
-571.675	800.000	0.058	0.218
-570.661	-85.785	0.141	-0.043
-569.646	-111.399	0.239	-0.048
-568.631	-66.645	-0.184	-0.072
-567.617	800.000	-0.055	-0.205
-566.602	-109.441	-0.482	0.101
-565.588	800.000	0.092	-0.256
-564.573	800.000	0.079	0.224
-563.558	-97.507	-0.187	0.048
-562.544	-200.000	0.000	0.150
-561.529	159.411	0.115	0.158
-560.515	-16.724	-0.128	0.080
-559.500	800.000	-0.016	0.047
-558.485	27.251	-0.156	-0.130
-557.471	800.000	0.067	0.185
-556.456	-112.812	0.105	-0.021
-555.442	72.408	0.226	-0.233
-554.427	-75.878	-0.050	-0.017
-553.412	-200.000	-0.012	0.074
-552.398	-73.100	0.334	-0.121
-551.383	278.391	0.146	-0.258
-550.369	85.183	-0.202	-0.220
-549.354	-169.880	-0.064	-0.002
-548.339	-200.000	0.028	0.169
-547.325	-8.818	-0.072	0.047
-546.310	800.000	0.064	0.269
-545.296	-144.021	0.109	-0.010
-544.281	-52.624	0.155	-0.071
-543.266	-200.000	-0.020	0.342
-542.252	-200.000	-0.014	-0.072
-541.237	184.337	-0.145	-0.213
-540.223	4.695	0.007	-0.005
-539.208	0.169	-0.171	-0.121
-538.193	80.694	0.199	-0.213
-537.179	200.981	0.094	-0.144
-536.164	-18.819	0.146	-0.090
-535.150	19.224	-0.253	-0.201
-534.135	271.557	-0.303	0.529
-533.121	-61.448	0.190	0.079
-532.106	333.917	-0.129	0.246
-531.091	-200.000	0.013	0.239
-530.077	-146.742	-0.378	0.032
-529.062	106.877	0.052	-0.061
-528.048	81.554	0.313	-0.335
-527.033	-40.281	-0.212	-0.109
-526.018	160.710	0.255	-0.352
-525.004	-22.782	-0.299	-0.179
-523.989	330.910	-0.064	-0.121
-522.975	-24.624	0.240	0.141
-521.960	21.999	0.073	-0.059
-520.945	-150.158	0.261	0.020
-519.931	75.173	-0.165	-0.172
-518.916	-200.000	-0.011	-0.324
-517.902	-55.966	0.086	0.038
-516.887	-30.652	0.131	-0.073
-515.872	285.542	0.187	-0.333
-514.858	106.849	0.120	-0.140
-513.843	-77.115	0.178	-0.061
-512.829	800.000	0.143	0.524
-511.814	33.990	0.238	-0.205
-510.799	59.826	0.158	0.154
-509.785	-200.000	-0.030	0.186
-508.770	800.000	-0.023	-0.095
-507.756	-125.403	0.516	0.078
-506.741	44.022	-0.216	-0.195
-505.726	114.797	-0.070	-0.085
-504.712	-102.302	-0.107	-0.025
-503.697	35.318	0.352	0.305
-502.683	671.513	-0.071	-0.181
-501.668	-200.000	0.003	-0.205
-500.653	-140.696	0.198	-0.020
-499.639	91.163	0.343	-0.380
-498.624	-200.000	0.038	0.248
-497.610	14.934	0.081	-0.063
-496.595	59.378	0.154	0.150
-495.581	-60.985	-0.224	-0.093
-494.566	563.888	-0.112	0.269
-493.551	-115.412	-0.263	0.049
-492.537	-163.469	-0.219	-0.010
-491.522	246.558	-0.069	-0.116
-490.508	-200.000	-0.006	-0.094
-489.493	12.957	-0.171	0.131
-488.478	-147.815	-0.210	0.017
-487.464	440.244	-0.089	0.192
-486.449	655.092	-0.029	-0.074
-485.435	-51.373	-0.161	-0.074
-484.420	800.000	-0.055	-0.159
-483.405	-102.781	-0.153	-0.036
-482.391	254.476	-0.151	-0.255
-481.376	83.456	0.087	0.094
-480.362	47.612	0.118	0.108
-479.347	-110.817	-0.512	-0.104
-478.332	-28.382	0.186	0.106
-477.318	246.882	-0.078	0.131
-476.303	-200.000	-0.011	0.091
-475.289	-104.966	-0.286	0.065
-474.274	-85.377	-0.109	-0.033
-473.259	-40.761	-0.252	0.129
-472.245	133.451	-0.154	-0.197
-471.230	233.951	-0.165	-0.268
-470.216	-36.726	0.055	0.029
-469.201	-79.136	0.324	-0.109
-468.186	-200.000	0.024	-0.221
-467.172	298.006	-0.094	-0.170
-466.157	-167.211	-0.176	-0.007
-465.143	171.826	0.078	-0.110
-464.128	-89.780	-0.236	-0.068
-463.113	49.900	0.285	-0.266
-462.099	-200.000	-0.017	-0.184
-461.084	-19.466	-0.071	0.043
-460.070	-200.000	0.037	0.272
-459.055	-101.331	0.250	0.060
-458.040	-7.986	0.028	-0.019
-457.026	-51.104	-0.241	0.112
-456.011	28.252	-0.151	0.126
-454.997	800.000	-0.078	-0.220
-453.982	-200.000	-0.039	0.204
-452.968	19.873	-0.076	0.060
-451.953	-200.000	-0.067	-0.313
-450.938	-113.872	0.152	0.029
-449.924	-200.000	0.026	0.300
-448.909	-86.075	0.396	-0.121
-447.895	-178.775	-0.220	-0.005
-446.880	-200.000	0.034	-0.239
-445.865	24.323	-0.141	0.115
-444.851	-68.398	-0.308	-0.118
-443.836	-100.065	0.461	-0.113
-442.822	222.614	-0.097	0.155
-441.807	-133.374	-0.133	-0.017
-440.792	72.706	0.240	-0.247
-439.778	234.766	0.073	-0.118
-438.763	35.942	-0.210	-0.182
-437.749	145.385	-0.194	-0.257
-436.734	616.867	0.028	-0.068
-435.719	-200.000	0.003	0.026
-434.705	54.581	-0.356	-0.339
-433.690	104.418	-0.165	-0.192
-432.676	-10.233	-0.470	0.308
-431.661	-33.004	0.353	-0.193
-430.646	92.973	-0.091	-0.101
-429.632	-10.559	0.244	-0.159
-428.617	-101.455	-0.360	0.086
-427.603	-200.000	0.010	0.116
-426.588	213.159	0.175	-0.273
-425.573	-38.111	0.284	-0.149
-424.559	-200.000	0.044	0.264
-423.544	800.000	-0.059	-0.166
-422.530	162.278	-0.071	-0.098
-421.515	569.294	-0.073	0.175
-420.500	8.780	-0.303	-0.225
-419.486	102.586	0.164	-0.189
-418.471	-20.809	-0.200	-0.121
-417.457	-93.315	-0.237	0.065
-416.442	-106.853	0.399	-0.087
-415.428	349.733	-0.199	0.386
-414.413	582.873	0.153	-0.369
-413.398	124.561	-0.115	-0.143
-412.384	113.772	0.151	-0.180
-411.369	-31.302	-0.493	0.273
-410.355	-200.000	-0.034	-0.312
-409.340	51.910	-0.009	0.009
-408.325	-200.000	0.043	-0.433
-407.311	-200.000	-0.011	-0.098
-406.296	-71.891	-0.223	0.082
-405.282	-145.956	0.268	-0.023
-404.267	117.941	0.103	0.125
-403.252	31.686	-0.076	-0.064
-402.238	-117.603	-0.130	-0.023
-401.223	513.871	-0.123	0.283
-400.209	-200.000	-0.032	0.217
-399.194	-30.700	-0.130	-0.072
-398.179	-200.000	-0.070	0.407
-397.165	264.926	-0.212	-0.364
-396.150	-200.000	0.073	-0.453
-395.136	85.193	-0.171	0.185
-394.121	-189.710	-0.329	-0.004
-393.106	-200.000	-0.039	-0.335
-392.092	89.356	0.252	-0.277
-391.077	800.000	0.064	-0.210
-390.063	-200.000	-0.023	0.182
-389.048	787.880	0.105	-0.285
-388.033	-74.795	-0.301	-0.106
-387.019	656.694	0.043	-0.108
-386.004	-183.042	-0.204	0.004
-384.990	-22.315	-0.197	0.118
-383.975	81.202	0.123	0.130
-382.960	-134.777	-0.089	0.011
-381.946	8.142	-0.203	0.150
-380.931	800.000	-0.006	-0.024
-379.917	92.774	-0.251	0.278
-378.902	-117.438	-0.231	0.041
-377.888	-117.013	0.093	-0.017
-376.873	123.738	0.248	-0.306
-375.858	37.506	-0.315	-0.274
-374.844	800.000	-0.058	0.231
-373.829	800.000	-0.043	-0.137
-372.815	-38.906	0.162	0.084
-371.800	24.596	0.094	-0.076
-370.785	169.875	0.198	0.278
-369.771	133.706	0.219	-0.278
-368.756	-200.000	-0.030	0.236
-367.742	73.075	-0.137	-0.141
-366.727	-71.243	0.250	-0.092
-365.712	-88.499	-0.336	0.098
-364.698	267.970	0.114	0.195
-363.683	18.454	0.183	0.144
-362.669	-200.000	0.017	-0.150
-361.654	141.799	-0.097	0.126
-360.639	-55.961	0.050	0.022
-359.625	41.901	0.185	0.165
-358.610	-124.486	0.160	0.024
-357.596	440.258	0.214	0.460
-356.581	-89.324	-0.254	0.073
-355.566	658.533	0.113	0.285
-354.552	-52.821	0.179	0.081
-353.537	83.021	-0.191	0.204
-352.523	9.861	-0.086	0.064
-351.508	-108.869	-0.046	-0.010
-350.493	-102.963	-0.055	0.013
-349.479	-43.624	-0.336	-0.166
-348.464	-136.121	0.629	0.072
-347.450	-151.792	-0.445	0.032
-346.435	-200.000	0.031	-0.148
-345.420	-200.000	-0.013	0.251
-344.406	-20.042	0.034	0.021
-343.391	30.459	0.279	-0.234
-342.377	462.211	0.055	-0.120
-341.362	-13.666	0.161	-0.102
-340.348	-58.268	-0.259	0.111
-339.333	60.940	-0.165	-0.161
-338.318	-200.000	-0.015	-0.179
-337.304	800.000	-0.011	-0.037
-336.289	-71.950	-0.126	-0.046
-335.275	-200.000	0.025	0.182
-334.260	-156.062	-0.175	-0.011
-333.245	223.737	0.157	-0.249
-332.231	40.717	-0.128	0.113
-331.216	-200.000	0.011	0.075
-330.202	-126.870	-0.440	0.064
-329.187	-200.000	0.001	-0.098
-328.172	190.541	0.037	-0.054
-327.158	98.807	0.125	-0.141
-326.143	27.715	0.144	-0.119
-325.129	88.372	-0.400	0.436
-324.114	83.598	-0.233	0.250
-323.099	35.751	0.347	0.300
-322.085	-45.433	0.114	0.056
-321.070	289.942	-0.160	0.286
-320.056	-10.104	0.205	0.134
-319.041	354.720	-0.046	-0.089
-318.026	-64.386	0.241	-0.096
-317.012	346.330	0.050	0.097
-315.997	800.000	-0.023	0.063
-314.983	-42.958	0.190	0.095
-313.968	-200.000	-0.030	-0.261
-312.953	-25.088	0.125	-0.073
-311.939	-200.000	-0.018	-0.245
-310.924	158.138	0.104	0.142
-309.910	-146.833	-0.223	0.019
-308.895	-92.578	-0.192	0.053
-307.880	113.697	-0.067	-0.080
-306.866	0.586	0.182	0.127
-305.851	764.766	0.046	-0.123
-304.837	-165.138	0.103	0.004
-303.822	337.165	0.077	0.146
-302.807	-16.544	0.160	0.099
-301.793	-200.000	-0.000	-0.256
-300.778	368.379	0.157	0.312
-299.764	191.649	0.014	-0.021
-298.749	422.197	-0.146	0.308
-297.735	-62.548	-0.228	-0.093
-296.720	-200.000	-0.025	0.192
-295.705	-200.000	0.034	-0.270
-294.691	-79.529	0.540	0.179
-293.676	800.000	-0.044	0.124
-292.662	-25.569	0.238	0.138
-291.647	-106.152	0.090	0.020
-290.632	-81.727	-0.157	0.050
-289.618	800.000	0.053	0.201
-288.603	-125.775	-0.074	0.011
-287.589	-17.526	-0.046	0.029
-286.574	-164.477	0.279	0.012
-285.559	14.441	-0.328	0.251
-284.545	30.409	-0.268	0.224
-283.530	-89.381	0.249	-0.072
-282.516	121.804	-0.192	0.235
-281.501	-48.700	0.204	-0.096
-280.486	484.005	0.044	0.097
-279.472	-138.154	0.247	0.027
-278.457	-155.861	-0.193	0.012
-277.443	-97.977	0.296	-0.075
-276.428	-58.235	0.043	-0.018
-275.413	56.158	-0.191	0.182
-274.399	-68.847	-0.335	0.127
-273.384	158.017	-0.031	0.042
-272.370	6.504	0.134	-0.097
-271.355	113.298	-0.155	-0.184
-270.340	234.544	0.173	0.280
-269.326	293.425	-0.132	0.237
-268.311	666.264	0.064	0.162
-267.297	25.789	0.014	0.012
-266.282	248.083	-0.079	0.130
-265.267	-36.800	-0.365	-0.192
-264.253	-137.797	0.267	0.029
-263.238	-16.649	-0.092	-0.057
-262.224	-87.802	-0.076	-0.022
-261.209	33.502	-0.175	0.149
-260.195	-153.292	0.228	0.016
-259.180	255.568	-0.159	-0.266
-258.165	260.715	-0.052	-0.089
-257.151	248.482	0.081	-0.135
-256.136	-200.000	-0.013	0.092
-255.122	149.664	-0.321	-0.426
-254.107	-200.000	-0.020	-0.145
-253.092	800.000	0.031	0.098
-252.078	-200.000	0.002	0.217
-251.063	-62.230	-0.247	0.101
-250.049	49.563	-0.222	0.205
-249.034	-200.000	0.010	-0.189
-248.019	-122.113	-0.190	0.030
-247.005	155.847	0.273	0.368
-245.990	800.000	-0.046	-0.173
-244.976	20.833	0.208	0.165
-243.961	-101.027	-0.120	-0.029
-242.946	114.735	0.252	-0.301
-241.932	-80.237	0.316	-0.104
-240.917	-119.484	-0.278	-0.047
-239.903	179.821	-0.213	-0.305
-238.888	25.923	0.270	0.220
-237.873	469.462	0.042	-0.093
-236.859	86.643	-0.286	0.308
-235.844	800.000	-0.165	-0.564
-234.830	-21.734	0.304	0.181
-233.815	-171.895	-0.186	-0.006
-232.800	67.247	0.222	-0.221
-231.786	22.761	-0.164	0.131
-230.771	-200.000	0.037	0.201
-229.757	125.896	0.240	0.297
-228.742	318.506	0.170	-0.314
-227.727	143.873	0.108	0.141
-226.713	-103.221	-0.207	-0.048
-225.698	-125.958	0.197	-0.029
-224.684	-200.000	0.022	-0.276
-223.669	359.788	0.103	-0.202
-222.655	36.607	0.059	0.051
-221.640	-107.785	-0.358	0.076
-220.625	-79.831	0.137	-0.045
-219.611	58.147	0.152	0.146
-218.596	800.000	-0.056	0.185
-217.582	98.344	0.316	0.356
-216.567	-144.361	-0.424	-0.039
-215.552	147.020	-0.300	-0.394
-214.538	-180.547	0.112	-0.002
-213.523	-200.000	0.041	-0.217
-212.509	42.537	-0.083	0.074
-211.494	692.359	-0.109	-0.279
-210.479	125.143	-0.092	-0.113
-209.465	272.959	0.035	-0.060
-208.450	131.817	-0.060	0.075
-207.436	800.000	-0.050	-0.194
-206.421	-200.000	-0.021	0.112
-205.406	15.699	0.067	0.052
-204.392	49.447	0.023	0.021
-203.377	116.450	0.041	0.049
-202.363	111.004	0.149	0.175
-201.348	-196.295	0.265	-0.002
-200.333	132.335	-0.302	0.380
-199.319	56.190	0.079	0.075
-198.304	-69.933	0.198	0.074
-197.290	127.866	0.182	0.226
-196.275	-105.287	0.266	-0.059
-195.260	26.689	-0.255	0.209
-194.246	-71.700	0.268	0.098
-193.231	83.825	0.201	-0.214
-192.217	-74.479	0.092	-0.032
-191.202	-200.000	-0.032	0.322
-190.187	63.557	0.115	0.112
-189.173	296.900	0.107	-0.191
-188.158	-53.034	-0.156	0.070
-187.144	-4.740	0.164	-0.110
-186.129	10.501	0.158	0.117
-185.114	-200.000	0.001	-0.114
-184.100	185.469	0.174	-0.252
-183.085	360.651	-0.076	0.149
-182.071	-107.495	-0.148	0.032
-181.056	-200.000	-0.024	-0.245
-180.042	231.253	-0.059	-0.094
-179.027	-188.047	0.438	0.005
-178.012	258.674	-0.177	-0.298
-176.998	60.629	0.055	0.054
-175.983	30.400	0.132	0.110
-174.969	156.847	-0.218	0.293
-173.954	-98.563	0.197	-0.049
-172.939	800.000	0.076	0.264
-171.925	-200.000	0.059	0.264
-170.910	-60.039	-0.095	0.040
-169.896	-34.364	-0.114	0.061
-168.881	387.632	0.115	-0.233
-167.866	60.282	0.191	-0.184
-166.852	80.226	-0.130	-0.137
-165.837	800.000	-0.032	0.092
-164.823	283.191	0.103	0.180
-163.808	166.225	-0.015	-0.021
-162.793	800.000	0.041	0.175
-161.779	326.851	-0.181	0.338
-160.764	800.000	0.038	0.159
-159.750	-109.027	0.280	0.058
-158.735	168.769	0.038	-0.053
-157.720	-200.000	-0.016	-0.073
-156.706	-200.000	0.078	0.376
-155.691	-200.000	-0.003	0.064
-154.677	-200.000	-0.001	-0.292
-153.662	-17.278	0.179	0.110
-152.647	271.714	0.063	-0.108
-151.633	-86.449	0.233	-0.070
-150.618	800.000	0.064	-0.254
-149.604	800.000	-0.055	0.196
-148.589	663.161	-0.091	-0.229
-147.574	-28.923	0.103	-0.058
-146.560	34.994	0.068	-0.058
-145.545	72.261	-0.142	-0.145
-144.531	267.553	0.148	-0.252
-143.516	35.763	0.103	0.088
-142.502	-69.962	-0.380	-0.141
-141.487	-151.710	0.134	0.010
-140.472	1.106	-0.201	0.140
-139.458	81.964	-0.162	-0.171
-138.443	800.000	0.021	-0.055
-137.429	-138.306	-0.131	-0.014
-136.414	800.000	-0.078	-0.253
-135.399	4.376	-0.158	0.113
-134.385	292.829	-0.133	0.236
-133.370	-192.405	-0.077	0.001
-132.356	-200.000	0.033	0.159
-131.341	42.675	0.240	0.212
-130.326	205.309	0.057	0.086
-129.312	-4.344	-0.291	-0.196
-128.297	55.822	0.065	0.061
-127.283	-105.681	-0.214	-0.047
-126.268	151.477	-0.148	-0.196
-125.253	-200.000	-0.045	0.400
-124.239	800.000	0.050	0.206
-123.224	-118.298	0.158	-0.027
-122.210	126.096	0.110	0.135
-121.195	125.639	-0.082	0.100
