DTS Sentinel unit serial number:	SN413079Multiplexer serial number:	ORYXHardware model number:	OX4-SRSoftware version number:	ORYX F/W v4.00 Oryx Data Collector v3.7.2.0data status	okinstallation	princeton_trtdifferential loss correction	single-endedforward channel	channel 2reverse channel	N/Adate	2019/09/18time	14:11:35forward acquisition time	60.00reverse acquisition time	0.00gamma	496.2192k internal	0.2319k external	0.2319temperature offset calibration	0.9998default loss term (dB/km)	0.3790temperature slope calibration	1.0000multiplexer offset coefficient	1.0000multiplexer slope coefficient	1.0000fibre end	0.00T internal ref (°C)	34.37T ext. ref 1 (°C)	0.67T ext. ref 2 (°C)	29.49length (m)	temperature (°C)	Stokes	anti-Stokes-747.200	90.103	0.063	0.072
-746.185	-129.614	-0.059	-0.008
-745.171	-32.672	-0.112	0.063
-744.156	-69.037	-0.338	0.132
-743.142	-160.342	0.147	-0.008
-742.127	-199.662	-0.273	-0.001
-741.112	521.417	0.108	0.257
-740.098	199.356	-0.254	0.394
-739.083	-200.000	0.013	0.452
-738.069	-200.000	0.023	0.166
-737.054	800.000	0.029	0.084
-736.039	494.859	-0.110	0.256
-735.025	273.606	-0.246	0.439
-734.010	-200.000	-0.008	-0.167
-732.996	-104.361	-0.119	-0.028
-731.981	-63.761	0.382	0.158
-730.966	188.393	-0.196	0.296
-729.952	800.000	0.023	0.101
-728.937	-145.479	-0.101	0.009
-727.923	-34.145	-0.281	-0.156
-726.908	-132.562	-0.210	0.027
-725.894	-94.221	-0.106	0.029
-724.879	-85.300	0.139	0.044
-723.864	-60.241	0.084	-0.036
-722.850	54.751	-0.184	0.180
-721.835	79.518	0.208	-0.226
-720.821	-200.000	-0.030	-0.237
-719.806	-200.000	0.054	-0.312
-718.791	-200.000	-0.009	-0.347
-717.777	-162.700	0.172	-0.009
-716.762	-150.870	-0.168	-0.013
-715.748	-200.000	-0.071	-0.335
-714.733	-129.987	-0.060	-0.008
-713.718	-200.000	0.002	0.240
-712.704	254.500	-0.082	0.142
-711.689	800.000	0.055	0.199
-710.675	705.758	-0.228	-0.608
-709.660	362.101	-0.109	-0.220
-708.645	-150.522	-0.219	0.017
-707.631	-58.012	0.221	0.097
-706.616	800.000	0.092	0.311
-705.602	111.133	-0.354	-0.431
-704.587	-112.094	-0.106	-0.021
-703.572	620.396	-0.088	0.222
-702.558	-170.854	0.312	-0.011
-701.543	73.968	-0.182	0.193
-700.529	26.917	0.106	-0.090
-699.514	800.000	0.084	-0.351
-698.499	-200.000	0.008	-0.349
-697.485	-200.000	0.026	0.417
-696.470	-83.843	-0.300	-0.097
-695.456	-200.000	0.005	-0.131
-694.441	-75.085	0.238	-0.086
-693.426	203.123	-0.242	-0.378
-692.412	-52.983	-0.260	-0.121
-691.397	-17.293	0.225	0.143
-690.383	147.956	0.184	-0.251
-689.368	-114.827	0.017	0.003
-688.354	37.301	0.095	-0.085
-687.339	-115.925	0.126	-0.024
-686.324	265.011	-0.042	0.073
-685.310	-24.277	0.174	-0.105
-684.295	-45.160	0.318	-0.159
-683.281	-163.862	-0.200	-0.009
-682.266	800.000	-0.050	0.153
-681.251	-200.000	0.025	-0.222
-680.237	-200.000	0.003	0.235
-679.222	-128.665	0.110	0.016
-678.208	-155.629	-0.293	-0.019
-677.193	-23.873	0.133	0.081
-676.178	232.524	0.073	0.121
-675.164	-181.514	-0.208	-0.004
-674.149	-200.000	0.050	-0.351
-673.135	-92.654	0.154	-0.044
-672.120	456.348	-0.132	-0.296
-671.105	-75.077	0.107	-0.039
-670.091	-44.056	-0.390	0.198
-669.076	243.998	0.152	0.257
-668.062	-1.740	0.107	-0.076
-667.047	-50.280	-0.149	-0.071
-666.032	57.247	0.288	-0.284
-665.018	285.901	0.139	-0.252
-664.003	-3.121	0.058	0.041
-662.989	8.929	0.139	-0.105
-661.974	-94.177	0.349	-0.096
-660.959	-200.000	-0.024	-0.298
-659.945	800.000	-0.032	0.116
-658.930	-51.247	-0.270	0.128
-657.916	321.776	-0.056	-0.108
-656.901	-46.555	0.429	-0.212
-655.886	-135.816	0.153	-0.018
-654.872	196.767	-0.097	-0.149
-653.857	218.761	-0.076	-0.122
-652.843	-200.000	0.037	0.310
-651.828	-38.389	-0.236	-0.126
-650.814	-200.000	-0.033	-0.298
-649.799	37.790	0.258	0.231
-648.784	-19.273	-0.283	0.177
-647.770	-200.000	0.055	0.315
-646.755	-200.000	-0.017	0.304
-645.741	33.854	0.054	0.048
-644.726	-200.000	-0.009	-0.298
-643.711	-109.780	-0.057	-0.012
-642.697	-176.399	0.213	0.006
-641.682	-122.706	0.107	0.018
-640.668	489.328	0.078	-0.179
-639.653	332.874	-0.141	0.274
-638.638	-200.000	0.019	0.119
-637.624	800.000	0.060	0.248
-636.609	127.710	-0.035	-0.045
-635.595	126.369	-0.202	-0.257
-634.580	-181.172	0.115	-0.002
-633.565	455.413	-0.065	0.145
-632.551	-158.428	-0.210	-0.012
-631.536	38.939	-0.214	-0.192
-630.522	-200.000	0.017	0.192
-629.507	30.777	-0.170	-0.147
-628.492	233.150	0.076	0.126
-627.478	-200.000	0.021	-0.255
-626.463	145.887	0.051	0.069
-625.449	-31.500	0.260	-0.147
-624.434	-38.204	-0.067	0.036
-623.419	-7.232	0.252	-0.172
-622.405	27.670	0.081	0.069
-621.390	-200.000	-0.010	-0.190
-620.376	-134.414	0.126	0.016
-619.361	-200.000	0.075	0.421
-618.346	-110.404	0.139	0.029
-617.332	-129.436	-0.124	-0.017
-616.317	631.323	0.112	-0.286
-615.303	139.738	-0.149	0.198
-614.288	163.387	0.249	-0.352
-613.273	-58.955	-0.052	-0.023
-612.259	-186.599	0.462	0.007
-611.244	-24.714	0.085	-0.051
-610.230	28.728	0.087	0.074
-609.215	-2.561	-0.057	0.040
-608.201	-200.000	-0.003	0.033
-607.186	466.499	0.086	0.194
-606.171	1.178	0.213	-0.154
-605.157	-160.175	0.073	-0.004
-604.142	-200.000	0.030	-0.221
-603.128	355.668	-0.142	0.284
-602.113	170.195	-0.092	-0.132
-601.098	37.750	-0.411	0.367
-600.084	-0.318	-0.285	0.204
-599.069	81.505	-0.179	-0.195
-598.055	-28.319	-0.247	0.143
-597.040	-20.643	-0.093	0.057
-596.025	800.000	-0.079	0.323
-595.011	-200.000	0.020	-0.312
-593.996	-200.000	0.039	0.199
-592.982	-45.104	0.157	-0.079
-591.967	74.773	-0.059	0.062
-590.952	-15.852	0.163	-0.104
-589.938	-200.000	-0.004	-0.184
-588.923	-67.307	-0.246	-0.097
-587.909	-200.000	-0.023	0.115
-586.894	115.876	-0.126	0.156
-585.879	129.107	-0.114	0.147
-584.865	16.618	0.219	-0.174
-583.850	-134.587	0.182	0.022
-582.836	-16.567	0.070	0.045
-581.821	-83.938	0.045	0.014
-580.806	312.033	-0.167	0.315
-579.792	800.000	0.043	0.187
-578.777	800.000	0.098	0.278
-577.763	-156.382	0.129	0.008
-576.748	459.334	-0.228	-0.510
-575.733	204.862	-0.168	0.262
-574.719	-200.000	0.013	0.300
-573.704	-112.677	0.162	0.032
-572.690	-76.724	0.116	0.041
-571.675	-184.814	0.060	-0.001
-570.661	-13.862	0.243	-0.158
-569.646	109.855	-0.150	-0.180
-568.631	-140.882	-0.082	0.008
-567.617	116.898	-0.126	-0.156
-566.602	-106.930	0.440	0.098
-565.588	-50.998	0.117	-0.055
-564.573	-15.683	-0.187	0.120
-563.558	-200.000	-0.012	0.072
-562.544	-61.396	-0.381	0.161
-561.529	93.441	0.252	0.287
-560.515	340.974	-0.216	0.424
-559.500	-118.386	-0.097	0.017
-558.485	26.217	-0.262	0.220
-557.471	-200.000	-0.010	0.195
-556.456	-80.582	-0.281	-0.094
-555.442	66.446	-0.109	-0.111
-554.427	124.131	-0.160	0.202
-553.412	45.020	-0.330	-0.305
-552.398	57.205	-0.056	0.055
-551.383	17.128	0.128	-0.102
-550.369	44.249	-0.253	-0.233
-549.354	-43.471	0.170	-0.086
-548.339	-57.086	-0.030	-0.013
-547.325	130.007	0.048	0.062
-546.310	192.182	0.216	-0.327
-545.296	80.425	-0.121	0.131
-544.281	-200.000	0.033	-0.223
-543.266	-124.110	-0.234	0.037
-542.252	165.066	0.229	0.324
-541.237	21.505	-0.163	0.133
-540.223	-103.429	0.420	-0.099
-539.208	-200.000	-0.001	-0.286
-538.193	-73.024	0.110	-0.041
-537.179	-97.012	-0.196	-0.051
-536.164	800.000	-0.035	-0.142
-535.150	248.534	0.087	0.147
-534.135	-92.590	0.188	-0.053
-533.121	-200.000	0.009	-0.124
-532.106	194.776	-0.100	-0.152
-531.091	173.689	-0.046	0.066
-530.077	-1.437	0.229	0.162
-529.062	5.909	0.153	-0.114
-528.048	44.585	0.113	0.104
-527.033	-14.270	-0.239	0.154
-526.018	-49.519	0.197	-0.094
-525.004	196.505	-0.085	0.129
-523.989	183.231	-0.112	-0.167
-522.975	199.434	-0.135	-0.207
-521.960	-178.378	-0.401	0.009
-520.945	-5.052	-0.172	0.119
-519.931	-200.000	-0.041	0.263
-518.916	243.158	0.108	0.182
-517.902	-74.750	0.233	-0.084
-516.887	361.509	0.128	0.256
-515.872	-79.099	0.353	0.120
-514.858	259.087	-0.033	0.057
-513.843	83.866	-0.211	-0.231
-512.829	511.294	-0.130	-0.304
-511.814	185.634	-0.111	-0.165
-510.799	45.859	-0.122	-0.113
-509.785	19.482	-0.202	0.163
-508.770	-58.185	0.227	-0.099
-507.756	-74.272	0.242	0.088
-506.741	-150.979	-0.280	-0.021
-505.726	-200.000	0.043	-0.484
-504.712	800.000	0.044	0.162
-503.697	-63.750	0.321	0.132
-502.683	-200.000	-0.023	0.214
-501.668	800.000	0.058	-0.249
-500.653	800.000	-0.020	0.057
-499.639	-200.000	-0.009	-0.076
-498.624	-200.000	-0.018	-0.126
-497.610	26.113	-0.225	0.188
-496.595	-200.000	-0.007	-0.069
-495.581	-23.528	0.073	-0.044
-494.566	800.000	0.052	-0.191
-493.551	514.135	-0.122	-0.286
-492.537	-200.000	-0.003	-0.148
-491.522	-162.231	-0.365	0.018
-490.508	-200.000	-0.087	0.000
-489.493	-200.000	0.016	-0.227
-488.478	-139.294	0.081	0.009
-487.464	-4.007	-0.153	-0.106
-486.449	800.000	-0.061	0.183
-485.435	179.902	0.095	0.140
-484.420	5.801	-0.061	0.045
-483.405	189.102	-0.033	0.050
-482.391	800.000	-0.160	-0.458
-481.376	-142.833	-0.047	-0.005
-480.362	-9.804	0.059	0.040
-479.347	-200.000	-0.030	-0.164
-478.332	153.807	0.124	-0.170
-477.318	76.418	-0.200	0.213
-476.303	210.426	-0.171	0.270
-475.289	10.686	0.133	0.101
-474.274	83.488	-0.271	0.295
-473.259	-200.000	-0.031	0.322
-472.245	30.267	0.032	-0.027
-471.230	-66.914	0.091	0.036
-470.216	-25.950	0.242	0.143
-469.201	-200.000	-0.028	-0.169
-468.186	53.846	0.229	-0.220
-467.172	-130.937	0.118	-0.016
-466.157	109.424	-0.100	0.120
-465.143	-161.720	0.316	-0.016
-464.128	-80.970	-0.419	-0.139
-463.113	39.523	-0.271	0.243
-462.099	-50.133	0.141	0.067
-461.084	328.436	-0.094	-0.181
-460.070	30.682	-0.110	0.094
-459.055	311.697	0.100	0.188
-458.040	5.722	-0.149	0.110
-457.026	153.668	-0.191	0.262
-456.011	-200.000	-0.013	0.361
-454.997	-134.463	0.095	0.012
-453.982	-27.583	0.366	0.213
-452.968	83.613	0.138	-0.151
-451.953	597.342	-0.040	0.099
-450.938	-175.882	-0.385	0.010
-449.924	81.965	0.225	-0.244
-448.909	-72.214	-0.171	0.063
-447.895	-200.000	0.076	-0.372
-446.880	-41.692	0.110	0.056
-445.865	-57.505	-0.203	0.089
-444.851	-98.024	-0.230	-0.059
-443.836	-133.677	-0.169	-0.021
-442.822	-36.520	-0.078	-0.042
-441.807	708.960	0.141	0.372
-440.792	-46.718	-0.157	-0.077
-439.778	-69.461	-0.038	0.014
-438.763	-109.188	0.129	-0.027
-437.749	800.000	-0.026	-0.073
-436.734	59.981	0.101	-0.100
-435.719	-110.125	0.017	-0.003
-434.705	727.042	-0.085	-0.226
-433.690	-200.000	-0.019	0.140
-432.676	513.067	-0.042	0.097
-431.661	-24.976	-0.163	-0.096
-430.646	-200.000	-0.014	0.060
-429.632	-54.811	-0.215	0.097
-428.617	-154.357	-0.097	-0.007
-427.603	117.178	-0.145	0.178
-426.588	-24.981	0.262	0.155
-425.573	119.126	-0.117	0.144
-424.559	49.951	0.191	0.180
-423.544	173.921	0.181	-0.261
-422.530	122.417	-0.124	0.154
-421.515	800.000	0.076	0.248
-420.500	-111.911	0.114	0.023
-419.486	800.000	-0.064	-0.239
-418.471	30.278	-0.189	-0.161
-417.457	15.866	-0.111	-0.087
-416.442	-20.463	-0.166	0.102
-415.428	800.000	0.028	0.114
-414.413	-200.000	0.019	0.123
-413.398	-171.400	-0.109	-0.004
-412.384	411.177	-0.077	0.162
-411.369	800.000	-0.070	-0.298
-410.355	-200.000	0.040	-0.286
-409.340	-200.000	-0.053	-0.461
-408.325	-23.467	-0.050	0.030
-407.311	215.313	0.113	0.180
-406.296	428.106	0.120	-0.259
-405.282	53.037	0.225	-0.215
-404.267	-200.000	-0.012	-0.054
-403.252	-150.994	0.174	-0.013
-402.238	-46.628	-0.014	-0.007
-401.223	394.124	-0.037	0.077
-400.209	-93.453	-0.283	-0.078
-399.194	-129.091	-0.213	-0.030
-398.179	33.391	-0.021	-0.018
-397.165	193.313	-0.118	-0.178
-396.150	194.691	-0.115	0.174
-395.136	-131.524	-0.193	0.025
-394.121	-123.728	0.199	-0.031
-393.106	121.397	-0.178	-0.222
-392.092	-155.354	-0.300	-0.019
-391.077	-41.777	0.033	-0.017
-390.063	-200.000	0.108	-0.527
-389.048	334.171	0.067	-0.129
-388.033	800.000	0.081	0.334
-387.019	148.382	0.088	0.118
-386.004	-200.000	0.138	0.001
-384.990	18.939	-0.157	-0.125
-383.975	144.052	0.100	-0.133
-382.960	800.000	-0.073	0.267
-381.946	-39.211	-0.424	0.222
-380.931	80.700	-0.134	0.144
-379.917	-200.000	-0.013	-0.228
-378.902	54.503	0.116	0.111
-377.888	175.399	0.104	-0.150
-376.873	800.000	-0.100	-0.280
-375.858	-200.000	-0.039	0.231
-374.844	-46.863	-0.080	0.039
-373.829	800.000	-0.086	0.353
-372.815	-129.035	0.294	0.041
-371.800	-200.000	-0.046	-0.290
-370.785	-200.000	-0.002	0.355
-369.771	-162.112	0.091	-0.005
-368.756	20.754	0.318	0.256
-367.742	131.404	0.106	-0.136
-366.727	800.000	-0.021	0.081
-365.712	-130.722	-0.201	-0.027
-364.698	242.079	0.157	-0.262
-363.683	-36.323	0.179	-0.096
-362.669	-139.381	0.071	-0.008
-361.654	204.294	-0.104	0.161
-360.639	-142.426	0.085	0.008
-359.625	-32.908	0.219	-0.121
-358.610	213.191	-0.124	-0.195
-357.596	20.820	-0.238	-0.192
-356.581	546.399	0.093	-0.221
-355.566	282.639	-0.098	-0.176
-354.552	152.802	-0.109	0.149
-353.537	-200.000	-0.019	-0.175
-352.523	13.454	0.312	-0.241
-351.508	78.289	-0.089	0.095
-350.493	322.615	-0.038	0.072
-349.479	340.724	-0.029	-0.056
-348.464	-35.075	-0.158	0.086
-347.450	800.000	0.056	-0.196
-346.435	-8.254	0.204	0.137
-345.420	-29.269	0.295	0.169
-344.406	479.622	-0.122	0.275
-343.391	-124.585	0.208	-0.032
-342.377	800.000	-0.033	-0.123
-341.362	-106.210	-0.144	0.032
-340.348	-130.247	0.072	-0.010
-339.333	-114.277	-0.099	-0.019
-338.318	-124.226	-0.069	-0.011
-337.304	-120.811	0.171	-0.029
-336.289	463.981	0.137	0.306
-335.275	302.411	-0.203	0.373
-334.260	724.405	0.055	0.146
-333.245	-161.501	0.330	-0.017
-332.231	-200.000	-0.017	0.351
-331.216	464.371	0.061	-0.136
-330.202	-200.000	-0.084	-0.417
-329.187	-51.566	0.134	0.062
-328.172	-126.286	0.196	-0.029
-327.158	6.758	0.107	-0.079
-326.143	73.510	0.287	-0.299
-325.129	66.618	-0.029	0.029
-324.114	92.640	0.107	0.120
-323.099	-83.794	-0.507	-0.161
-322.085	693.959	-0.064	-0.167
-321.070	-69.983	0.224	-0.085
-320.056	-88.838	0.316	-0.093
-319.041	-103.511	-0.199	0.047
-318.026	44.397	0.100	-0.091
-317.012	56.788	-0.124	-0.120
-315.997	614.076	0.079	-0.198
-314.983	653.629	-0.045	0.114
-313.968	-95.899	0.203	0.054
-312.953	306.208	-0.038	0.071
-311.939	144.486	0.128	0.170
-310.924	353.084	-0.064	0.126
-309.910	-43.263	0.095	-0.048
-308.895	507.946	0.072	0.166
-307.880	-200.000	-0.003	0.196
-306.866	-200.000	-0.059	0.333
-305.851	800.000	-0.029	0.110
-304.837	128.290	0.072	-0.092
-303.822	101.485	-0.243	0.282
-302.807	281.489	0.039	-0.070
-301.793	397.693	0.034	-0.070
-300.778	-91.763	0.050	-0.014
-299.764	533.229	0.099	-0.233
-298.749	-30.139	-0.063	-0.036
-297.735	-174.226	-0.367	-0.011
-296.720	599.607	0.131	0.323
-295.705	-98.488	-0.059	-0.015
-294.691	117.161	0.165	0.201
-293.676	-15.214	0.159	-0.101
-292.662	-109.280	-0.053	-0.011
-291.647	3.260	-0.060	0.043
-290.632	800.000	-0.018	-0.069
-289.618	65.179	0.089	-0.089
-288.603	19.576	0.283	0.226
-287.589	-200.000	0.016	-0.145
-286.574	381.680	0.222	-0.453
-285.559	302.961	0.095	-0.174
-284.545	-167.676	-0.042	0.002
-283.530	-56.333	0.257	0.114
-282.516	800.000	-0.096	0.270
-281.501	-181.880	-0.716	0.014
-280.486	-3.951	-0.277	-0.191
-279.472	302.156	-0.122	-0.223
-278.457	-46.868	-0.167	-0.081
-277.443	47.692	-0.075	-0.069
-276.428	-124.310	0.225	-0.035
-275.413	-26.934	-0.005	0.003
-274.399	81.054	-0.089	0.095
-273.384	-200.000	0.074	0.376
-272.370	638.830	0.042	-0.105
-271.355	-121.255	-0.340	-0.056
-270.340	-200.000	-0.041	0.337
-269.326	800.000	-0.026	-0.107
-268.311	127.735	-0.172	0.217
-267.297	384.130	0.050	-0.101
-266.282	-132.689	0.203	-0.026
-265.267	-200.000	-0.010	-0.294
-264.253	-56.646	-0.296	-0.130
-263.238	100.673	0.249	0.287
-262.224	800.000	-0.081	0.277
-261.209	-57.511	0.198	0.086
-260.195	75.472	-0.048	0.050
-259.180	800.000	-0.125	0.355
-258.165	-110.145	0.223	-0.046
-257.151	-80.021	0.257	-0.086
-256.136	-39.368	-0.236	-0.123
-255.122	-173.354	0.308	0.009
-254.107	-93.263	-0.316	-0.087
-253.092	-125.458	-0.161	-0.024
-252.078	278.692	0.064	-0.113
-251.063	-131.715	-0.227	-0.030
-250.049	-9.473	0.168	-0.111
-249.034	263.825	-0.063	-0.108
-248.019	-200.000	0.012	0.169
-247.005	23.707	0.291	0.238
-245.990	-63.671	-0.359	-0.146
-244.976	-200.000	0.018	-0.193
-243.961	-77.945	0.209	-0.071
-242.946	-97.726	0.423	-0.109
-241.932	-200.000	-0.009	-0.157
-240.917	13.806	-0.240	-0.185
-239.903	51.148	-0.078	-0.073
-238.888	-95.343	0.326	0.087
-237.873	-200.000	0.011	-0.384
-236.859	-200.000	-0.044	-0.275
-235.844	708.455	0.117	0.306
-234.830	258.257	0.130	0.221
-233.815	-25.402	0.235	-0.138
-232.800	-200.000	-0.010	-0.275
-231.786	51.507	-0.074	0.069
-230.771	-200.000	-0.014	0.194
-229.757	137.333	0.217	0.281
-228.742	102.212	-0.071	-0.083
-227.727	800.000	-0.124	-0.400
-226.713	316.648	0.084	0.157
-225.698	-102.946	-0.252	-0.059
-224.684	800.000	-0.097	-0.336
-223.669	-73.351	0.248	0.090
-222.655	-200.000	-0.053	0.378
-221.640	-200.000	-0.021	-0.098
-220.625	-200.000	0.014	-0.196
-219.611	299.865	0.274	-0.501
-218.596	72.087	-0.104	0.107
-217.582	-39.955	0.166	-0.086
-216.567	-200.000	-0.242	-0.001
-215.552	-63.116	0.308	0.126
-214.538	-200.000	0.010	0.049
-213.523	800.000	-0.038	-0.161
-212.509	-139.519	-0.485	-0.051
-211.494	-200.000	0.003	-0.072
-210.479	-200.000	0.003	0.258
-209.465	94.564	0.167	0.188
-208.450	-200.000	-0.040	-0.300
-207.436	41.364	0.167	0.150
-206.421	800.000	-0.056	0.166
-205.406	-21.144	-0.147	0.089
-204.392	-200.000	-0.014	0.222
-203.377	296.631	0.216	0.392
-202.363	51.119	-0.248	-0.233
-201.348	800.000	-0.064	0.227
-200.333	-200.000	-0.037	-0.165
-199.319	-198.202	0.227	-0.001
-198.304	-115.820	-0.347	0.064
-197.290	-200.000	0.071	-0.310
-196.275	-143.984	0.230	0.021
-195.260	78.399	-0.059	-0.063
-194.246	-10.747	0.204	0.134
-193.231	-200.000	0.048	0.256
-192.217	-118.306	0.363	-0.064
-191.202	800.000	0.076	0.321
-190.187	-170.411	-0.058	-0.002
-189.173	800.000	-0.084	0.266
-188.158	-52.184	0.298	0.137
-187.144	-65.019	-0.181	-0.072
-186.129	-46.435	0.174	-0.084
-185.114	-177.809	-0.194	0.005
-184.100	-200.000	0.035	0.384
-183.085	-49.539	0.075	0.035
-182.071	-200.000	0.004	-0.244
-181.056	-49.854	0.089	0.042
-180.042	606.464	-0.098	0.241
-179.027	-24.128	0.125	0.074
-178.012	-200.000	0.235	0.000
-176.998	293.919	0.078	0.141
-175.983	-65.621	0.083	-0.033
-174.969	-200.000	-0.020	-0.178
-173.954	-200.000	0.004	-0.131
-172.939	-200.000	0.008	0.052
-171.925	29.210	-0.080	0.067
-170.910	-63.874	0.526	-0.213
-169.896	-200.000	0.043	-0.406
-168.881	800.000	0.019	-0.066
-167.866	448.352	0.129	-0.280
-166.852	25.691	-0.079	-0.065
-165.837	-164.195	-0.190	0.009
-164.823	143.898	-0.174	-0.230
-163.808	-45.086	-0.030	-0.015
-162.793	-107.621	0.256	-0.055
-161.779	126.136	-0.167	-0.208
-160.764	-189.222	0.419	0.005
-159.750	524.649	-0.117	-0.273
-158.735	6.183	-0.222	-0.163
-157.720	24.013	-0.155	-0.127
-156.706	-200.000	0.020	-0.355
-155.691	2.669	0.124	0.089
-154.677	-19.764	0.228	-0.140
-153.662	-48.403	-0.157	0.075
-152.647	-74.928	-0.227	0.080
-151.633	-4.762	0.107	0.073
-150.618	384.810	0.080	-0.164
-149.604	-200.000	-0.063	0.299
-148.589	-137.662	-0.365	0.041
-147.574	103.046	-0.254	-0.294
-146.560	-157.200	-0.119	0.007
-145.545	-32.702	-0.240	0.132
-144.531	58.445	0.069	0.067
-143.516	30.219	0.090	-0.076
-142.502	-200.000	-0.033	0.168
-141.487	-200.000	-0.016	0.101
-140.472	-54.082	0.259	-0.117
-139.458	-114.787	-0.151	-0.028
-138.443	-84.460	-0.309	0.096
-137.429	129.505	0.076	-0.096
-136.414	306.434	-0.055	0.101
-135.399	165.478	0.212	-0.297
-134.385	-200.000	0.026	0.161
-133.370	-132.897	0.100	-0.013
-132.356	462.336	-0.054	0.119
-131.341	45.687	0.143	0.131
-130.326	-57.145	-0.406	0.177
-129.312	23.846	-0.449	0.366
-128.297	-200.000	-0.059	0.326
-127.283	148.109	0.147	0.196
-126.268	-28.910	-0.105	0.060
-125.253	-14.925	-0.103	0.065
-124.239	-72.179	0.168	0.062
-123.224	45.360	-0.247	0.225
