DTS Sentinel unit serial number:	SN413079Multiplexer serial number:	ORYXHardware model number:	OX4-SRSoftware version number:	ORYX F/W v4.00 Oryx Data Collector v3.7.2.0data status	okinstallation	princeton_trtdifferential loss correction	single-endedforward channel	channel 2reverse channel	N/Adate	2019/09/14time	16:55:35forward acquisition time	60.00reverse acquisition time	0.00gamma	496.2192k internal	0.2307k external	0.2307temperature offset calibration	1.0120default loss term (dB/km)	0.3790temperature slope calibration	1.0000multiplexer offset coefficient	1.0000multiplexer slope coefficient	1.0000fibre end	0.00T internal ref (°C)	38.03T ext. ref 1 (°C)	4.98T ext. ref 2 (°C)	33.40length (m)	temperature (°C)	Stokes	anti-Stokes-747.200	-57.952	0.354	0.157
-746.185	800.000	-0.133	0.472
-745.171	-200.000	0.028	0.212
-744.156	-87.445	0.015	-0.005
-743.142	36.096	-0.098	-0.088
-742.127	800.000	-0.070	0.261
-741.112	-200.000	0.003	0.114
-740.098	116.274	-0.236	0.294
-739.083	596.413	-0.021	-0.054
-738.069	-106.640	-0.338	0.076
-737.054	450.257	-0.193	0.433
-736.039	800.000	0.030	-0.100
-735.025	-49.112	0.293	0.143
-734.010	96.296	-0.115	-0.134
-732.996	54.366	-0.171	-0.167
-731.981	13.749	0.064	0.050
-730.966	-149.202	-0.350	0.028
-729.952	18.368	0.189	0.154
-728.937	-134.295	-0.219	-0.027
-727.923	-200.000	0.041	0.275
-726.908	207.575	0.195	-0.309
-725.894	-200.000	-0.026	-0.171
-724.879	-200.000	-0.006	0.255
-723.864	-109.721	-0.280	0.060
-722.850	-23.098	0.116	-0.071
-721.835	-200.000	0.013	-0.199
-720.821	35.088	0.241	-0.215
-719.806	91.935	-0.050	-0.057
-718.791	800.000	0.084	-0.370
-717.777	-110.019	-0.272	-0.058
-716.762	-200.000	0.022	-0.140
-715.748	-166.998	0.393	-0.016
-714.733	622.939	0.054	0.139
-713.718	28.993	-0.338	-0.291
-712.704	-43.113	-0.112	0.058
-711.689	25.181	0.197	0.166
-710.675	-74.164	0.340	-0.125
-709.660	4.174	0.082	0.061
-708.645	-200.000	-0.010	-0.153
-707.631	105.170	-0.036	0.043
-706.616	-75.951	0.170	0.061
-705.602	-65.659	-0.059	0.024
-704.587	-200.000	0.013	-0.242
-703.572	-119.439	-0.407	-0.072
-702.558	-200.000	0.013	0.301
-701.543	800.000	-0.030	0.115
-700.529	-32.168	-0.259	0.147
-699.514	-95.281	-0.189	-0.052
-698.499	-106.621	0.246	0.056
-697.485	102.408	-0.095	0.113
-696.470	424.498	-0.168	-0.366
-695.456	-200.000	0.020	-0.274
-694.441	389.207	-0.129	0.271
-693.426	-95.599	-0.074	0.020
-692.412	-165.931	0.350	-0.015
-691.397	164.045	0.082	0.117
-690.383	161.254	0.017	0.024
-689.368	-63.809	0.086	0.036
-688.354	-121.774	-0.159	-0.027
-687.339	95.518	0.391	-0.453
-686.324	86.465	-0.111	-0.124
-685.310	505.361	-0.057	-0.135
-684.295	64.299	0.283	0.289
-683.281	-200.000	0.027	0.345
-682.266	-132.105	-0.365	0.048
-681.251	-45.485	0.318	-0.160
-680.237	-141.995	-0.356	0.036
-679.222	-120.925	0.237	0.041
-678.208	213.411	-0.126	0.202
-677.193	330.972	0.065	-0.126
-676.178	800.000	-0.101	-0.290
-675.164	800.000	-0.074	-0.297
-674.149	-66.988	-0.166	-0.066
-673.135	-75.306	0.173	-0.062
-672.120	-124.603	0.281	-0.044
-671.105	453.077	0.125	0.279
-670.091	118.145	-0.079	0.099
-669.076	-118.160	-0.263	-0.048
-668.062	-153.590	-0.313	-0.022
-667.047	16.878	0.111	0.090
-666.032	53.834	0.118	-0.115
-665.018	-141.271	-0.217	-0.022
-664.003	800.000	-0.059	0.196
-662.989	-200.000	-0.013	0.291
-661.974	-92.140	-0.276	0.079
-660.959	-200.000	-0.006	-0.321
-659.945	-200.000	-0.000	-0.092
-658.930	-60.807	0.252	0.108
-657.916	-200.000	-0.025	0.136
-656.901	-200.000	0.007	0.036
-655.886	800.000	0.045	0.193
-654.872	-106.135	0.094	0.021
-653.857	-6.741	-0.148	0.102
-652.843	222.515	0.152	-0.248
-651.828	-200.000	-0.002	0.601
-650.814	-156.873	-0.234	0.015
-649.799	-200.000	0.065	-0.422
-648.784	-134.110	-0.167	0.021
-647.770	18.879	0.001	-0.001
-646.755	-21.585	-0.231	0.143
-645.741	-10.384	-0.169	-0.113
-644.726	-3.692	0.266	0.187
-643.711	-200.000	-0.035	-0.263
-642.697	19.314	-0.153	0.125
-641.682	-115.538	0.193	0.037
-640.668	-79.969	-0.391	0.133
-639.653	-200.000	-0.038	0.217
-638.638	-29.014	0.332	-0.193
-637.624	-112.986	-0.195	0.039
-636.609	421.585	0.021	0.046
-635.595	-200.000	-0.015	0.105
-634.580	-200.000	-0.037	0.217
-633.565	293.005	0.083	-0.154
-632.551	23.401	0.086	-0.072
-631.536	-200.000	-0.048	0.519
-630.522	-56.673	0.191	0.085
-629.507	-34.628	-0.224	-0.124
-628.492	65.898	0.082	-0.084
-627.478	-200.000	0.043	0.424
-626.463	-200.000	0.011	-0.171
-625.449	-141.627	-0.253	-0.026
-624.434	58.160	0.026	-0.026
-623.419	207.559	-0.043	-0.069
-622.405	27.909	0.267	-0.228
-621.390	103.465	-0.117	-0.139
-620.376	-7.506	-0.033	-0.023
-619.361	190.647	0.054	-0.082
-618.346	87.558	0.251	0.282
-617.332	-200.000	-0.015	0.272
-616.317	221.639	0.056	-0.092
-615.303	-200.000	-0.034	0.225
-614.288	-200.000	-0.008	-0.198
-613.273	800.000	0.033	0.119
-612.259	2.803	-0.398	0.292
-611.244	800.000	0.003	0.010
-610.230	217.799	0.223	-0.360
-609.215	-200.000	-0.037	0.237
-608.201	-121.491	0.276	0.046
-607.186	261.940	-0.084	0.148
-606.171	-115.877	0.198	0.037
-605.157	370.084	0.106	0.217
-604.142	-30.439	-0.231	-0.132
-603.128	41.377	-0.419	-0.383
-602.113	-34.320	-0.279	0.155
-601.098	773.350	-0.021	-0.059
-600.084	-200.000	-0.065	-0.000
-599.069	-200.000	0.024	-0.291
-598.055	-200.000	-0.007	0.183
-597.040	-143.054	0.131	-0.013
-596.025	641.256	0.052	0.135
-595.011	137.287	-0.147	0.194
-593.996	-3.850	0.233	-0.164
-592.982	223.074	-0.117	0.190
-591.967	-200.000	-0.044	-0.282
-590.952	-113.900	-0.117	0.023
-589.938	-200.000	0.029	0.136
-588.923	800.000	-0.030	-0.117
-587.909	-116.627	0.184	0.034
-586.894	-123.179	-0.218	-0.035
-585.879	547.201	-0.125	-0.301
-584.865	77.778	0.192	-0.207
-583.850	86.013	0.087	-0.096
-582.836	99.941	-0.105	0.123
-581.821	235.462	0.024	-0.040
-580.806	-49.752	-0.278	0.133
-579.792	124.784	-0.233	-0.296
-578.777	-200.000	0.030	0.410
-577.763	63.720	0.176	-0.179
-576.748	-19.065	0.098	-0.062
-575.733	-48.856	0.144	0.070
-574.719	-3.598	0.263	-0.185
-573.704	-155.131	0.033	-0.002
-572.690	-171.667	-0.105	0.003
-571.675	-55.611	0.156	-0.071
-570.661	631.267	0.049	0.126
-569.646	242.036	-0.230	0.389
-568.631	-38.805	-0.021	-0.011
-567.617	-82.005	-0.168	0.056
-566.602	71.751	-0.241	-0.253
-565.588	800.000	-0.046	-0.190
-564.573	-98.686	-0.096	-0.025
-563.558	38.783	-0.036	0.032
-562.544	-99.719	0.129	-0.033
-561.529	-21.482	0.085	0.052
-560.515	37.108	0.151	-0.135
-559.500	-67.598	0.514	-0.203
-558.485	264.101	-0.156	0.274
-557.471	24.655	0.139	0.117
-556.456	-200.000	0.106	-0.506
-555.442	800.000	-0.101	0.307
-554.427	25.166	0.148	0.124
-553.412	595.159	-0.084	-0.209
-552.398	-200.000	-0.022	0.156
-551.383	-200.000	-0.033	-0.281
-550.369	311.648	0.176	0.333
-549.354	346.905	-0.069	0.137
-548.339	31.894	0.425	-0.370
-547.325	-36.805	-0.065	0.035
-546.310	-46.801	-0.187	-0.092
-545.296	-157.028	-0.279	-0.017
-544.281	-200.000	0.014	-0.092
-543.266	-66.463	0.272	-0.109
-542.252	168.273	-0.224	-0.321
-541.237	-125.038	0.500	-0.078
-540.223	218.906	-0.147	-0.238
-539.208	800.000	-0.070	0.299
-538.193	-147.899	-0.163	0.014
-537.179	800.000	0.039	0.117
-536.164	-200.000	-0.010	0.251
-535.150	118.419	0.131	0.163
-534.135	-62.311	0.137	-0.057
-533.121	-200.000	-0.001	-0.015
-532.106	65.963	-0.089	-0.091
-531.091	99.709	0.060	0.070
-530.077	-200.000	0.003	0.147
-529.062	-200.000	-0.018	-0.335
-528.048	-76.880	0.150	-0.053
-527.033	81.661	-0.078	-0.086
-526.018	179.285	0.147	-0.217
-525.004	288.219	0.063	0.115
-523.989	-88.062	0.167	-0.051
-522.975	-200.000	-0.047	-0.286
-521.960	-200.000	0.008	0.214
-520.945	-109.005	-0.107	-0.023
-519.931	74.099	0.277	0.293
-518.916	-27.176	-0.092	-0.054
-517.902	504.570	-0.046	-0.108
-516.887	441.915	-0.077	0.169
-515.872	-51.091	0.069	-0.032
-514.858	25.469	0.076	0.064
-513.843	355.780	-0.118	-0.238
-512.829	321.332	0.033	0.063
-511.814	-200.000	-0.028	0.241
-510.799	-200.000	-0.005	0.177
-509.785	230.748	-0.151	0.250
-508.770	-97.044	-0.123	0.033
-507.756	160.570	0.085	0.120
-506.741	28.281	0.265	-0.225
-505.726	297.160	-0.086	-0.159
-504.712	-200.000	0.024	0.250
-503.697	-118.804	0.074	-0.013
-502.683	-200.000	0.004	0.242
-501.668	-66.616	0.096	-0.038
-500.653	666.326	-0.136	-0.354
-499.639	-54.979	0.403	0.183
-498.624	-134.184	0.382	-0.047
-497.610	-175.187	0.194	-0.005
-496.595	-31.452	0.202	-0.114
-495.581	345.625	-0.064	0.126
-494.566	13.698	-0.151	-0.118
-493.551	-200.000	-0.023	-0.187
-492.537	-125.571	0.302	-0.046
-491.522	-200.000	-0.100	0.468
-490.508	48.731	0.204	-0.192
-489.493	-200.000	-0.023	-0.178
-488.478	-132.194	0.033	-0.004
-487.464	-68.451	-0.203	-0.079
-486.449	672.659	0.050	-0.130
-485.435	-26.371	-0.141	0.083
-484.420	-10.154	-0.194	-0.130
-483.405	41.825	0.098	-0.090
-482.391	-37.487	0.112	0.060
-481.376	-181.007	-0.070	-0.001
-480.362	-109.027	0.146	0.031
-479.347	-56.923	0.191	0.085
-478.332	-58.278	-0.271	0.119
-477.318	201.567	0.176	0.272
-476.303	-200.000	0.000	0.175
-475.289	800.000	-0.085	0.284
-474.274	119.826	-0.013	-0.017
-473.259	-200.000	0.015	-0.151
-472.245	-154.971	0.281	0.019
-471.230	298.825	-0.070	-0.130
-470.216	-200.000	-0.150	0.000
-469.201	-66.174	0.098	0.039
-468.186	390.223	0.021	-0.044
-467.172	-110.400	-0.194	-0.041
-466.157	-200.000	0.055	-0.244
-465.143	-149.605	0.061	-0.005
-464.128	497.925	0.050	0.116
-463.113	152.409	-0.124	0.171
-462.099	-146.501	0.168	0.015
-461.084	288.370	0.121	-0.221
-460.070	15.340	0.099	0.078
-459.055	387.277	0.059	-0.122
-458.040	217.215	0.136	0.218
-457.026	-43.549	-0.209	-0.106
-456.011	88.462	-0.055	0.061
-454.997	-200.000	-0.028	-0.184
-453.982	-200.000	-0.021	-0.188
-452.968	578.535	0.108	0.267
-451.953	800.000	0.041	-0.135
-450.938	12.802	0.072	-0.056
-449.924	178.035	-0.191	0.280
-448.909	-116.731	0.107	-0.020
-447.895	-111.955	-0.063	0.013
-446.880	34.573	0.160	-0.141
-445.865	-85.904	-0.105	-0.033
-444.851	800.000	0.032	-0.094
-443.836	-200.000	0.033	0.262
-442.822	185.836	0.177	-0.265
-441.807	32.412	-0.234	-0.203
-440.792	800.000	-0.020	0.085
-439.778	-200.000	0.008	-0.071
-438.763	800.000	0.130	-0.365
-437.749	-76.599	-0.113	-0.040
-436.734	524.951	0.110	-0.260
-435.719	-48.508	0.306	0.148
-434.705	-141.705	-0.265	0.027
-433.690	261.907	-0.123	-0.213
-432.676	99.551	0.301	0.350
-431.661	291.343	0.004	-0.007
-430.646	-43.153	0.073	-0.037
-429.632	-74.030	-0.335	0.122
-428.617	-78.127	0.134	-0.046
-427.603	-185.844	0.170	0.003
-426.588	30.990	0.089	-0.077
-425.573	-149.094	0.094	-0.008
-424.559	-200.000	-0.025	-0.218
-423.544	-200.000	0.032	-0.189
-422.530	-4.766	-0.126	0.087
-421.515	110.770	0.191	-0.230
-420.500	349.846	-0.056	-0.111
-419.486	-39.004	0.169	0.089
-418.471	142.835	-0.056	-0.074
-417.457	77.598	-0.065	0.070
-416.442	-127.939	-0.127	-0.018
-415.428	204.794	-0.105	-0.164
-414.413	536.031	0.176	-0.420
-413.398	800.000	-0.061	-0.172
-412.384	-31.101	-0.201	0.114
-411.369	453.184	-0.115	0.254
-410.355	-82.091	0.333	0.109
-409.340	540.657	-0.125	0.298
-408.325	-50.377	0.124	0.059
-407.311	-57.736	0.004	0.002
-406.296	-109.056	-0.321	0.069
-405.282	-134.662	0.062	0.008
-404.267	800.000	0.081	0.304
-403.252	-189.183	-0.198	-0.002
-402.238	-155.350	0.165	-0.011
-401.223	64.506	0.313	0.316
-400.209	-119.624	0.161	0.028
-399.194	-65.737	-0.288	-0.116
-398.179	-31.686	-0.444	-0.250
-397.165	-200.000	-0.003	0.581
-396.150	202.791	-0.210	-0.326
-395.136	-25.482	-0.027	0.016
-394.121	-36.956	-0.195	-0.105
-393.106	-200.000	-0.007	0.143
-392.092	-29.704	0.220	0.126
-391.077	13.262	-0.133	0.103
-390.063	-52.528	0.180	0.083
-389.048	126.837	-0.088	0.112
-388.033	338.674	-0.069	0.135
-387.019	-106.198	0.349	-0.078
-386.004	-24.130	0.282	-0.169
-384.990	71.763	-0.354	-0.369
-383.975	-194.634	-0.178	0.001
-382.960	403.547	-0.127	0.269
-381.946	-78.699	-0.184	0.063
-380.931	-120.102	0.040	-0.007
-379.917	800.000	0.051	-0.206
-378.902	-200.000	0.004	-0.122
-377.888	12.897	0.183	-0.142
-376.873	57.927	-0.076	0.075
-375.858	8.771	-0.118	-0.089
-374.844	66.939	-0.336	0.343
-373.829	-50.208	0.073	-0.035
-372.815	-83.635	-0.129	-0.041
-371.800	-200.000	-0.014	-0.150
-370.785	800.000	0.069	-0.196
-369.771	90.476	0.217	0.244
-368.756	542.465	-0.181	0.433
-367.742	2.918	0.161	-0.117
-366.727	-96.510	0.210	-0.055
-365.712	-200.000	0.037	-0.167
-364.698	625.585	-0.074	0.188
-363.683	-53.068	-0.127	0.059
-362.669	-42.129	0.185	0.095
-361.654	-130.504	0.176	0.024
-360.639	-200.000	-0.002	0.085
-359.625	-180.129	0.144	-0.003
-358.610	97.116	0.123	0.142
-357.596	-123.699	0.229	-0.036
-356.581	193.644	-0.103	0.156
-355.566	7.448	-0.241	0.181
-354.552	-200.000	0.042	-0.496
-353.537	543.103	-0.066	0.158
-352.523	34.411	0.315	-0.276
-351.508	-200.000	0.011	-0.075
-350.493	-1.592	0.125	-0.088
-349.479	187.893	0.062	-0.093
-348.464	96.131	-0.076	0.087
-347.450	-144.134	0.275	-0.026
-346.435	-200.000	0.008	-0.051
-345.420	-47.902	-0.129	-0.063
-344.406	776.949	-0.096	-0.262
-343.391	509.275	0.139	0.323
-342.377	800.000	-0.065	-0.281
-341.362	-34.626	-0.092	-0.050
-340.348	408.370	-0.171	-0.362
-339.333	-129.839	-0.152	-0.021
-338.318	-24.409	-0.169	0.101
-337.304	-155.859	0.064	0.004
-336.289	-200.000	-0.058	0.313
-335.275	278.793	-0.061	-0.108
-334.260	-23.793	0.069	0.041
-333.245	339.380	-0.165	-0.322
-332.231	-115.543	-0.244	-0.046
-331.216	112.422	0.176	-0.213
-330.202	15.434	0.179	0.141
-329.187	617.502	0.070	0.176
-328.172	-200.000	-0.018	0.122
-327.158	1.146	0.140	0.101
-326.143	-134.093	-0.333	0.041
-325.129	-25.296	0.109	0.064
-324.114	-169.234	0.213	0.008
-323.099	-16.751	-0.171	-0.108
-322.085	800.000	0.086	-0.320
-321.070	139.112	-0.210	-0.276
-320.056	-65.470	-0.067	0.027
-319.041	675.181	0.076	-0.196
-318.026	-200.000	0.005	-0.094
-317.012	258.368	0.096	0.166
-315.997	-125.723	0.190	-0.029
-314.983	129.850	0.136	0.174
-313.968	800.000	0.039	0.121
-312.953	-200.000	-0.003	-0.185
-311.939	-94.620	-0.136	0.037
-310.924	-200.000	0.056	0.396
-309.910	800.000	0.035	0.143
-308.895	118.660	0.106	-0.131
-307.880	-200.000	-0.025	0.173
-306.866	486.345	-0.054	0.122
-305.851	105.216	-0.131	-0.155
-304.837	-21.489	-0.165	0.101
-303.822	-62.237	-0.118	-0.049
-302.807	591.679	0.044	-0.108
-301.793	-24.472	-0.186	-0.111
-300.778	508.501	0.086	0.200
-299.764	-200.000	-0.015	0.232
-298.749	-99.202	-0.272	0.069
-297.735	445.151	-0.142	0.311
-296.720	586.322	-0.083	0.204
-295.705	98.050	-0.068	-0.079
-294.691	-200.000	-0.001	0.063
-293.676	-137.791	0.274	-0.031
-292.662	800.000	0.030	-0.118
-291.647	46.591	0.154	0.142
-290.632	-200.000	0.201	0.001
-289.618	-182.662	-0.472	-0.009
-288.603	133.396	0.150	-0.193
-287.589	-49.595	-0.312	-0.149
-286.574	-200.000	0.025	0.214
-285.559	-200.000	0.013	0.116
-284.545	-200.000	0.004	-0.038
-283.530	587.697	0.094	-0.231
-282.516	143.221	-0.382	-0.508
-281.501	627.836	0.092	-0.231
-280.486	776.895	-0.075	0.204
-279.472	-10.414	0.167	-0.110
-278.457	-93.365	-0.313	0.087
-277.443	9.492	-0.082	0.062
-276.428	-200.000	0.002	0.299
-275.413	-5.821	0.066	0.045
-274.399	515.232	-0.047	-0.110
-273.384	-74.851	-0.443	-0.159
-272.370	-152.684	0.041	0.003
-271.355	51.626	0.144	0.136
-270.340	-10.960	0.130	0.086
-269.326	-7.848	-0.290	-0.196
-268.311	-59.612	-0.158	0.068
-267.297	24.296	-0.115	0.095
-266.282	800.000	0.053	0.157
-265.267	-53.418	-0.142	-0.065
-264.253	-79.921	-0.336	0.113
-263.238	-200.000	-0.005	0.287
-262.224	-200.000	0.004	-0.140
-261.209	321.544	-0.088	0.167
-260.195	-98.075	0.127	-0.033
-259.180	38.151	-0.148	-0.132
-258.165	38.183	-0.057	0.051
-257.151	356.830	-0.192	-0.382
-256.136	73.781	-0.090	0.094
-255.122	800.000	0.052	0.186
-254.107	-62.718	-0.189	0.078
-253.092	354.613	-0.118	-0.233
-252.078	80.423	0.083	-0.089
-251.063	353.995	-0.081	0.161
-250.049	-73.656	-0.150	0.054
-249.034	800.000	-0.107	-0.327
-248.019	800.000	-0.076	-0.230
-247.005	38.026	0.209	0.186
-245.990	-195.800	-0.363	0.003
-244.976	81.407	0.182	0.196
-243.961	-134.938	0.231	0.028
-242.946	106.991	-0.299	-0.355
-241.932	800.000	-0.090	0.311
-240.917	-92.978	0.319	0.089
-239.903	91.135	0.153	-0.171
-238.888	-200.000	-0.019	-0.094
-237.873	-91.004	0.331	-0.095
-236.859	-91.949	0.295	0.083
-235.844	95.862	0.174	-0.198
-234.830	-200.000	-0.026	0.303
-233.815	161.770	0.184	0.257
-232.800	-200.000	-0.027	0.256
-231.786	-142.501	-0.237	0.023
-230.771	-200.000	0.049	0.242
-229.757	-200.000	0.017	-0.121
-228.742	32.275	0.024	-0.020
-227.727	92.078	0.359	0.403
-226.713	800.000	0.094	0.269
-225.698	-200.000	-0.075	0.354
-224.684	-73.428	-0.187	-0.068
-223.669	-127.264	-0.062	-0.009
-222.655	-200.000	0.043	-0.298
-221.640	800.000	0.018	-0.075
-220.625	37.524	0.208	-0.183
-219.611	261.020	-0.088	0.152
-218.596	-67.620	-0.206	0.080
-217.582	398.922	-0.141	-0.295
-216.567	-71.972	0.258	0.096
-215.552	800.000	0.033	0.106
-214.538	449.620	-0.076	-0.166
-213.523	-24.306	-0.131	0.078
-212.509	343.796	0.136	0.266
-211.494	-31.552	-0.238	0.133
-210.479	104.861	-0.200	0.235
-209.465	42.186	-0.195	-0.176
-208.450	737.672	0.099	-0.264
-207.436	-63.242	0.149	0.061
-206.421	-124.323	-0.069	0.011
-205.406	-15.502	0.244	-0.155
-204.392	-3.387	0.234	-0.162
-203.377	800.000	0.079	0.328
-202.363	381.953	-0.110	0.225
-201.348	14.033	-0.310	-0.240
-200.333	-70.173	-0.113	0.043
-199.319	-200.000	0.043	0.241
-198.304	800.000	-0.059	-0.199
-197.290	361.666	-0.039	0.077
-196.275	-131.434	0.227	0.030
-195.260	-64.576	-0.467	-0.189
-194.246	800.000	0.090	0.260
-193.231	503.895	0.020	0.045
-192.217	-200.000	0.033	-0.264
-191.202	-61.756	0.243	0.101
-190.187	-159.886	-0.038	0.002
-189.173	800.000	0.018	0.055
-188.158	-36.724	0.293	-0.157
-187.144	800.000	0.042	-0.130
-186.129	-182.452	-0.300	0.006
-185.114	800.000	0.064	-0.249
-184.100	21.299	0.135	0.109
-183.085	37.797	0.176	0.155
-182.071	-27.147	0.184	0.107
-181.056	109.302	0.114	0.136
-180.042	-200.000	0.029	0.217
-179.027	-11.670	-0.235	-0.153
-178.012	-98.217	-0.140	-0.036
-176.998	-81.671	0.171	0.056
-175.983	593.651	-0.086	0.212
-174.969	-200.000	-0.022	0.392
-173.954	-200.000	0.007	0.096
-172.939	-200.000	-0.032	-0.274
-171.925	30.241	0.134	-0.114
-170.910	37.451	-0.223	-0.196
-169.896	-45.125	-0.624	-0.308
-168.881	-76.534	0.281	0.098
-167.866	-19.229	0.137	0.085
-166.852	30.520	-0.232	-0.197
-165.837	27.127	0.144	-0.120
-164.823	178.477	0.097	0.140
-163.808	582.809	-0.120	-0.293
-162.793	-166.276	0.451	0.019
-161.779	-122.273	0.129	-0.021
-160.764	-4.081	-0.089	0.062
-159.750	26.121	0.100	0.083
-158.735	-200.000	-0.048	-0.266
-157.720	374.994	-0.155	-0.315
-156.706	-9.753	-0.135	0.089
-155.691	420.927	0.104	-0.221
-154.677	800.000	-0.044	-0.192
-153.662	-132.406	-0.219	0.028
-152.647	97.074	0.131	0.149
-151.633	-166.395	0.160	-0.007
-150.618	800.000	-0.035	-0.125
-149.604	-3.146	-0.262	0.181
-148.589	800.000	0.059	-0.228
-147.574	800.000	-0.034	0.100
-146.560	-83.307	-0.145	0.046
-145.545	-122.061	-0.069	0.011
-144.531	-200.000	-0.095	0.457
-143.516	-5.950	-0.165	0.112
-142.502	230.666	-0.004	0.006
-141.487	-187.286	0.233	0.003
-140.472	233.459	0.109	0.178
-139.458	55.875	-0.345	0.332
-138.443	-116.476	-0.320	0.059
-137.429	-77.536	0.577	0.199
-136.414	-59.503	0.258	0.110
-135.399	-178.090	-0.056	-0.001
-134.385	-200.000	0.071	0.394
-133.370	-200.000	0.050	-0.408
-132.356	-93.614	0.423	0.116
-131.341	-26.392	0.034	0.020
-130.326	-200.000	-0.009	-0.416
-129.312	800.000	0.084	-0.275
-128.297	458.786	0.176	0.389
-127.283	-177.033	0.238	-0.006
-126.268	-200.000	-0.009	0.285
-125.253	23.816	-0.132	0.108
-124.239	800.000	0.044	-0.182
-123.224	647.634	0.099	0.252
-122.210	263.757	-0.240	0.414
-121.195	4.541	0.219	-0.160
