DTS Sentinel unit serial number:	SN413079Multiplexer serial number:	ORYXHardware model number:	OX4-SRSoftware version number:	ORYX F/W v4.00 Oryx Data Collector v3.7.2.0data status	okinstallation	princeton_trtdifferential loss correction	single-endedforward channel	channel 2reverse channel	N/Adate	2019/09/16time	10:03:35forward acquisition time	60.00reverse acquisition time	0.00gamma	496.2192k internal	0.2320k external	0.2320temperature offset calibration	0.9961default loss term (dB/km)	0.3790temperature slope calibration	1.0000multiplexer offset coefficient	1.0000multiplexer slope coefficient	1.0000fibre end	0.00T internal ref (°C)	33.64T ext. ref 1 (°C)	12.40T ext. ref 2 (°C)	32.15length (m)	temperature (°C)	Stokes	anti-Stokes-747.200	117.559	0.141	0.176
-746.185	-51.696	0.181	0.085
-745.171	-107.920	-0.426	-0.094
-744.156	-4.927	0.204	0.142
-743.142	654.089	0.024	0.061
-742.127	-135.957	-0.217	-0.026
-741.112	800.000	-0.026	0.112
-740.098	163.634	-0.209	0.297
-739.083	515.426	0.042	-0.099
-738.069	-134.700	0.216	0.027
-737.054	-200.000	0.020	0.151
-736.039	-10.269	-0.266	-0.179
-735.025	-7.931	0.133	-0.091
-734.010	-103.975	-0.131	-0.031
-732.996	-200.000	-0.020	0.296
-731.981	430.306	-0.029	0.064
-730.966	419.512	0.093	-0.201
-729.952	791.493	0.104	-0.288
-728.937	149.096	-0.030	-0.041
-727.923	163.599	-0.055	-0.079
-726.908	-190.729	0.049	0.001
-725.894	101.979	-0.176	-0.208
-724.879	83.367	-0.126	-0.139
-723.864	-156.797	-0.248	0.015
-722.850	-72.622	0.099	0.037
-721.835	-200.000	-0.018	0.080
-720.821	-200.000	-0.113	-0.657
-719.806	73.310	-0.153	-0.161
-718.791	214.168	-0.078	0.125
-717.777	141.715	0.192	-0.257
-716.762	-200.000	-0.038	0.444
-715.748	87.070	-0.117	0.131
-714.733	40.759	-0.187	-0.170
-713.718	5.987	0.198	-0.148
-712.704	-200.000	0.049	-0.298
-711.689	-176.363	-0.367	-0.010
-710.675	-86.260	0.291	-0.091
-709.660	-72.243	0.122	-0.046
-708.645	-114.308	-0.336	0.065
-707.631	-103.652	0.359	-0.085
-706.616	-94.744	-0.204	0.056
-705.602	-200.000	-0.024	-0.276
-704.587	21.174	-0.133	-0.109
-703.572	-113.796	-0.124	-0.024
-702.558	-22.715	-0.416	0.253
-701.543	-200.000	-0.085	-0.388
-700.529	714.089	0.092	0.246
-699.514	-138.837	0.007	-0.001
-698.499	128.802	0.231	0.297
-697.485	800.000	-0.105	-0.414
-696.470	-5.945	0.107	0.074
-695.456	-127.912	-0.104	-0.015
-694.441	32.441	-0.079	0.069
-693.426	750.842	-0.108	0.293
-692.412	12.598	0.267	0.208
-691.397	-200.000	-0.005	0.196
-690.383	800.000	-0.043	0.181
-689.368	13.937	-0.216	0.170
-688.354	800.000	-0.096	-0.392
-687.339	-200.000	-0.009	-0.188
-686.324	-24.607	-0.438	0.263
-685.310	-200.000	0.047	0.484
-684.295	800.000	-0.057	0.252
-683.281	-19.311	-0.197	0.123
-682.266	180.338	0.038	-0.056
-681.251	17.073	-0.281	-0.225
-680.237	-200.000	-0.031	0.162
-679.222	192.182	-0.092	0.139
-678.208	494.973	-0.053	0.122
-677.193	-113.697	-0.095	-0.019
-676.178	-92.219	-0.067	0.019
-675.164	187.147	-0.054	0.081
-674.149	195.722	0.033	-0.050
-673.135	-104.222	0.189	0.044
-672.120	-9.250	0.080	0.054
-671.105	-183.658	0.137	-0.002
-670.091	83.963	0.087	-0.095
-669.076	-94.013	0.130	-0.036
-668.062	509.336	0.146	-0.343
-667.047	-170.630	-0.365	0.013
-666.032	-64.408	-0.095	-0.039
-665.018	-200.000	-0.102	-0.468
-664.003	61.761	0.153	-0.153
-662.989	800.000	0.062	0.233
-661.974	-200.000	-0.004	-0.243
-660.959	-36.636	-0.323	0.175
-659.945	298.171	-0.092	0.170
-658.930	-200.000	0.026	-0.172
-657.916	-18.182	-0.188	-0.119
-656.901	654.495	-0.054	0.140
-655.886	-22.184	-0.268	-0.164
-654.872	-82.455	0.385	-0.126
-653.857	127.167	0.285	-0.365
-652.843	293.233	0.167	-0.307
-651.828	-141.040	-0.254	0.026
-650.814	80.228	-0.211	0.229
-649.799	-28.912	0.175	0.101
-648.784	-88.311	0.125	0.038
-647.770	291.721	-0.054	0.099
-646.755	690.052	0.105	-0.276
-645.741	-112.089	0.125	0.025
-644.726	-60.996	-0.188	-0.080
-643.711	-100.447	-0.057	-0.014
-642.697	-13.335	-0.028	-0.019
-641.682	800.000	-0.020	-0.079
-640.668	304.167	-0.130	-0.243
-639.653	560.206	0.054	-0.132
-638.638	-200.000	-0.052	-0.445
-637.624	-200.000	-0.035	-0.302
-636.609	369.890	-0.022	0.044
-635.595	-100.774	-0.158	0.039
-634.580	800.000	-0.112	-0.380
-633.565	95.279	0.116	-0.133
-632.551	-110.359	-0.377	-0.079
-631.536	-118.785	-0.154	0.027
-630.522	28.251	-0.032	-0.027
-629.507	78.085	-0.156	-0.167
-628.492	-200.000	-0.062	0.371
-627.478	172.961	0.188	0.273
-626.463	-10.360	0.306	0.204
-625.449	-129.238	0.316	-0.044
-624.434	93.770	-0.163	0.186
-623.419	-200.000	0.027	0.122
-622.405	-8.990	-0.107	0.072
-621.390	-156.479	-0.231	0.014
-620.376	800.000	0.083	-0.282
-619.361	121.846	-0.014	0.017
-618.346	-200.000	0.032	-0.326
-617.332	173.794	-0.157	0.228
-616.317	-28.667	-0.075	-0.044
-615.303	-76.542	0.168	-0.059
-614.288	27.555	-0.334	-0.282
-613.273	-200.000	-0.014	0.302
-612.259	-85.651	-0.350	0.109
-611.244	-76.337	-0.351	-0.124
-610.230	-181.349	-0.142	-0.003
-609.215	-67.423	-0.109	-0.043
-608.201	-146.926	-0.213	-0.018
-607.186	-149.768	-0.288	-0.023
-606.171	-123.812	-0.356	0.057
-605.157	4.694	0.068	-0.050
-604.142	-27.761	0.195	0.114
-603.128	-52.710	0.186	-0.087
-602.113	-88.017	0.304	0.092
-601.098	430.794	-0.127	0.277
-600.084	101.589	-0.123	-0.144
-599.069	-200.000	-0.051	-0.268
-598.055	-165.679	-0.626	-0.027
-597.040	-200.000	-0.023	0.321
-596.025	323.476	0.037	0.072
-595.011	51.172	0.148	0.141
-593.996	-200.000	-0.035	-0.170
-592.982	-86.312	0.366	-0.113
-591.967	800.000	0.025	0.094
-590.952	-182.982	-0.384	-0.007
-589.938	306.699	-0.031	0.059
-588.923	551.022	-0.050	-0.121
-587.909	-102.969	0.080	0.019
-586.894	-200.000	0.024	-0.157
-585.879	791.594	0.071	0.195
-584.865	-74.146	-0.090	-0.033
-583.850	-76.743	0.330	-0.116
-582.836	280.808	0.081	0.145
-581.821	-200.000	-0.013	-0.172
-580.806	-94.442	-0.123	0.034
-579.792	-46.751	0.320	-0.157
-578.777	-0.212	0.223	0.159
-577.763	800.000	-0.080	0.242
-576.748	-81.640	0.232	-0.077
-575.733	579.252	-0.060	0.147
-574.719	-88.432	0.287	-0.086
-573.704	165.558	0.055	0.079
-572.690	-114.028	-0.364	-0.071
-571.675	227.546	0.196	0.320
-570.661	55.812	0.146	0.143
-569.646	-131.999	-0.169	-0.022
-568.631	-82.123	0.241	0.079
-567.617	9.086	-0.190	0.144
-566.602	-147.273	-0.279	-0.024
-565.588	238.184	-0.136	-0.227
-564.573	-200.000	0.002	0.340
-563.558	428.844	0.208	-0.452
-562.544	61.923	0.230	-0.230
-561.529	141.208	0.129	-0.171
-560.515	800.000	0.069	0.268
-559.500	-46.974	0.140	-0.068
-558.485	-42.220	0.235	-0.121
-557.471	-48.382	0.177	-0.086
-556.456	55.831	-0.174	-0.169
-555.442	213.691	0.126	0.200
-554.427	19.744	0.192	0.155
-553.412	94.032	0.108	0.123
-552.398	-173.824	-0.077	0.002
-551.383	130.296	-0.136	0.175
-550.369	669.224	-0.121	-0.315
-549.354	-105.797	-0.250	0.057
-548.339	-94.586	0.139	0.038
-547.325	-50.837	0.108	-0.051
-546.310	-200.000	-0.010	-0.119
-545.296	320.714	-0.097	-0.186
-544.281	-11.101	-0.057	0.038
-543.266	405.040	0.071	0.151
-542.252	156.018	-0.074	-0.102
-541.237	112.124	-0.067	0.081
-540.223	124.652	0.170	-0.215
-539.208	-47.594	0.453	0.220
-538.193	351.488	-0.063	-0.124
-537.179	-90.751	-0.127	0.037
-536.164	118.852	-0.153	-0.190
-535.150	383.136	-0.237	-0.489
-534.135	424.763	-0.067	-0.144
-533.121	-200.000	-0.020	0.108
-532.106	-23.003	0.405	-0.245
-531.091	-5.399	0.108	-0.074
-530.077	-128.703	-0.408	0.058
-529.062	-153.777	-0.250	-0.017
-528.048	-105.990	-0.147	0.033
-527.033	43.206	-0.058	0.053
-526.018	-51.463	-0.112	0.052
-525.004	59.825	0.027	0.026
-523.989	-108.483	-0.093	-0.020
-522.975	800.000	0.086	-0.281
-521.960	478.960	-0.063	0.142
-520.945	-126.253	-0.333	0.050
-519.931	342.527	0.181	-0.355
-518.916	655.320	-0.125	-0.323
-517.902	800.000	0.073	-0.292
-516.887	226.598	-0.106	0.172
-515.872	35.687	0.106	-0.093
-514.858	-41.635	0.282	-0.145
-513.843	16.834	0.309	-0.245
-512.829	72.975	-0.292	-0.306
-511.814	-200.000	0.109	-0.542
-510.799	-135.512	-0.386	-0.046
-509.785	56.237	0.027	-0.027
-508.770	-188.193	-0.104	-0.001
-507.756	-85.310	-0.066	-0.021
-506.741	171.059	0.106	-0.153
-505.726	20.446	-0.151	-0.122
-504.712	-163.399	0.432	0.021
-503.697	-200.000	-0.015	-0.196
-502.683	45.597	0.099	0.092
-501.668	48.689	-0.115	-0.108
-500.653	-68.270	0.293	0.114
-499.639	-200.000	0.088	0.509
-498.624	-68.116	0.150	0.058
-497.610	-87.839	-0.304	-0.092
-496.595	142.966	0.217	-0.289
-495.581	-127.504	0.442	-0.064
-494.566	0.072	0.076	0.054
-493.551	441.790	0.121	0.265
-492.537	-75.265	0.085	0.030
-491.522	-19.171	0.334	0.208
-490.508	800.000	0.003	-0.009
-489.493	-5.332	-0.382	0.263
-488.478	800.000	-0.034	-0.115
-487.464	800.000	-0.049	0.143
-486.449	800.000	0.028	-0.091
-485.435	211.090	-0.088	-0.138
-484.420	200.023	0.195	-0.299
-483.405	-200.000	-0.003	0.116
-482.391	-106.626	0.156	-0.035
-481.376	255.346	-0.151	0.260
-480.362	74.543	-0.141	0.148
-479.347	118.649	0.153	-0.190
-478.332	9.801	-0.178	-0.135
-477.318	29.934	0.197	-0.168
-476.303	38.898	-0.207	-0.185
-475.289	348.680	0.065	0.127
-474.274	-6.065	0.205	-0.140
-473.259	445.682	-0.014	-0.030
-472.245	312.792	0.127	0.238
-471.230	-200.000	-0.001	-0.092
-470.216	800.000	0.058	0.228
-469.201	-200.000	0.056	0.432
-468.186	-27.292	0.248	0.145
-467.172	56.375	-0.065	0.063
-466.157	-67.364	0.239	-0.094
-465.143	-47.154	-0.276	0.135
-464.128	492.992	0.086	0.196
-463.113	403.867	-0.170	-0.357
-462.099	-76.287	-0.180	-0.064
-461.084	-50.952	-0.325	0.153
-460.070	800.000	0.036	0.132
-459.055	-17.452	-0.185	-0.117
-458.040	-49.906	0.307	-0.146
-457.026	67.353	-0.050	-0.051
-456.011	451.696	-0.044	-0.096
-454.997	-8.313	-0.258	-0.173
-453.982	-200.000	-0.009	-0.124
-452.968	32.734	0.388	0.335
-451.953	-23.666	0.303	0.182
-450.938	226.495	0.084	-0.136
-449.924	-133.899	0.074	-0.009
-448.909	-115.257	0.151	0.029
-447.895	608.951	0.061	-0.152
-446.880	-118.420	0.077	0.014
-445.865	-2.944	0.175	0.122
-444.851	-165.267	0.015	0.001
-443.836	367.803	-0.112	-0.227
-442.822	121.576	-0.253	-0.315
-441.807	-91.939	0.447	-0.127
-440.792	-92.746	0.157	0.044
-439.778	154.487	-0.133	0.183
-438.763	44.527	-0.113	0.103
-437.749	-200.000	0.009	0.243
-436.734	800.000	-0.079	0.312
-435.719	800.000	0.053	-0.175
-434.705	-54.302	0.240	-0.109
-433.690	128.593	0.106	0.135
-432.676	80.781	0.067	-0.072
-431.661	98.835	-0.120	0.138
-430.646	58.547	0.213	0.209
-429.632	467.477	0.061	0.136
-428.617	15.931	0.197	0.155
-427.603	-157.855	-0.178	-0.011
-426.588	781.477	-0.078	0.214
-425.573	13.524	-0.065	0.050
-424.559	65.713	-0.123	0.125
-423.544	95.719	-0.083	0.094
-422.530	165.762	0.089	-0.126
-421.515	-13.455	-0.183	0.118
-420.500	136.481	0.077	-0.100
-419.486	273.074	-0.034	-0.060
-418.471	471.804	-0.076	-0.170
-417.457	-200.000	-0.022	-0.351
-416.442	-103.741	0.224	-0.052
-415.428	775.785	-0.053	-0.145
-414.413	-59.694	-0.189	0.081
-413.398	800.000	0.111	0.312
-412.384	-62.457	0.107	0.044
-411.369	34.456	-0.180	-0.157
-410.355	-12.298	-0.134	-0.088
-409.340	20.681	-0.063	-0.051
-408.325	231.711	-0.067	0.109
-407.311	800.000	-0.097	-0.281
-406.296	-143.913	0.248	-0.023
-405.282	-12.436	0.114	-0.074
-404.267	-44.306	-0.205	-0.103
-403.252	425.651	-0.077	0.166
-402.238	0.416	-0.247	0.176
-401.223	-200.000	-0.014	0.191
-400.209	-188.254	-0.134	-0.002
-399.194	-122.671	-0.249	-0.040
-398.179	-168.706	-0.120	0.005
-397.165	-200.000	0.017	-0.226
-396.150	800.000	-0.028	0.124
-395.136	-200.000	0.000	0.023
-394.121	-134.702	0.516	-0.063
-393.106	-123.142	0.285	0.046
-392.092	-16.346	-0.141	-0.089
-391.077	-200.000	0.018	-0.284
-390.063	58.782	0.238	-0.233
-389.048	-43.656	0.103	-0.052
-388.033	-150.550	0.049	-0.004
-387.019	800.000	-0.040	0.121
-386.004	362.612	0.120	-0.240
-384.990	-103.126	0.224	0.053
-383.975	-200.000	-0.045	0.211
-382.960	-38.371	-0.200	0.105
-381.946	5.826	-0.041	0.030
-380.931	-200.000	0.017	-0.102
-379.917	800.000	0.098	0.323
-378.902	57.089	-0.075	0.073
-377.888	210.393	0.114	0.179
-376.873	-200.000	-0.035	0.233
-375.858	-9.963	-0.196	-0.130
-374.844	350.357	-0.133	-0.263
-373.829	-18.467	-0.177	0.110
-372.815	61.398	-0.365	-0.361
-371.800	131.934	-0.068	0.087
-370.785	-72.294	0.375	-0.138
-369.771	-111.452	-0.236	-0.048
-368.756	-200.000	-0.024	0.107
-367.742	66.162	-0.227	-0.230
-366.727	-103.125	0.226	-0.053
-365.712	-82.761	0.284	0.092
-364.698	-200.000	0.008	0.259
-363.683	118.752	-0.112	0.138
-362.669	413.402	0.027	0.056
-361.654	800.000	-0.038	-0.122
-360.639	239.674	0.148	-0.246
-359.625	-8.235	-0.259	-0.174
-358.610	-12.483	-0.090	-0.059
-357.596	-192.121	-0.302	-0.003
-356.581	-16.953	0.098	-0.061
-355.566	728.705	-0.017	0.044
-354.552	800.000	-0.034	-0.100
-353.537	239.774	-0.023	-0.039
-352.523	721.644	0.045	-0.120
-351.508	-181.998	-0.209	0.004
-350.493	661.036	-0.155	-0.399
-349.479	800.000	0.120	-0.331
-348.464	-200.000	0.038	-0.197
-347.450	-20.083	0.124	-0.076
-346.435	-16.671	0.141	0.089
-345.420	800.000	0.090	0.354
-344.406	-104.835	-0.325	-0.074
-343.391	160.471	0.091	-0.127
-342.377	526.080	-0.039	-0.091
-341.362	101.455	-0.145	-0.168
-340.348	77.886	0.209	0.222
-339.333	5.277	-0.239	0.175
-338.318	-200.000	-0.014	0.166
-337.304	-200.000	-0.043	0.431
-336.289	-17.052	-0.154	0.097
-335.275	-117.393	0.158	-0.029
-334.260	246.535	0.008	0.013
-333.245	-64.658	-0.046	0.018
-332.231	173.529	0.155	0.223
-331.216	-126.087	-0.142	-0.021
-330.202	42.371	-0.268	0.242
-329.187	-200.000	0.038	-0.170
-328.172	-200.000	-0.082	0.527
-327.158	-6.527	-0.142	0.096
-326.143	-134.461	-0.234	-0.028
-325.129	88.303	-0.160	0.177
-324.114	394.129	0.187	-0.388
-323.099	195.242	0.085	-0.129
-322.085	-106.646	-0.050	0.011
-321.070	-200.000	0.013	-0.192
-320.056	800.000	-0.076	0.253
-319.041	289.422	0.124	-0.223
-318.026	800.000	0.040	0.121
-317.012	27.841	0.251	0.210
-315.997	435.540	0.055	-0.118
-314.983	-200.000	-0.021	0.165
-313.968	-99.938	-0.323	-0.080
-312.953	145.266	-0.191	-0.255
-311.939	5.445	-0.225	-0.165
-310.924	-87.498	0.210	-0.063
-309.910	353.077	0.150	-0.297
-308.895	-147.547	0.275	-0.023
-307.880	-200.000	0.048	0.295
-306.866	101.112	0.045	-0.053
-305.851	-57.594	-0.050	-0.022
-304.837	262.096	-0.067	-0.115
-303.822	37.099	-0.149	0.132
-302.807	-153.876	0.267	0.018
-301.793	-121.678	-0.262	-0.043
-300.778	-72.616	-0.259	-0.095
-299.764	-108.286	0.193	-0.042
-298.749	343.515	0.230	0.448
-297.735	305.697	-0.137	0.252
-296.720	-110.193	-0.093	-0.019
-295.705	-25.612	-0.201	0.118
-294.691	-200.000	-0.012	0.056
-293.676	-65.227	0.230	0.092
-292.662	-9.513	0.201	-0.134
-291.647	-200.000	-0.004	0.338
-290.632	-200.000	-0.013	-0.155
-289.618	-43.074	0.268	0.135
-288.603	110.118	-0.083	-0.099
-287.589	-65.156	0.154	-0.062
-286.574	113.518	0.062	-0.075
-285.559	-90.845	0.123	0.035
-284.545	33.188	0.228	0.196
-283.530	800.000	0.035	0.112
-282.516	-115.921	-0.196	0.036
-281.501	-200.000	0.060	0.632
-280.486	58.806	0.141	0.138
-279.472	-63.278	0.179	-0.073
-278.457	261.671	-0.038	0.065
-277.443	105.683	0.041	-0.048
-276.428	367.227	-0.102	0.205
-275.413	73.891	-0.293	-0.305
-274.399	1.131	0.161	-0.115
-273.384	-3.610	-0.197	0.136
-272.370	255.243	-0.181	0.308
-271.355	-113.807	0.134	0.026
-270.340	-47.179	-0.197	-0.096
-269.326	-174.477	-0.037	0.001
-268.311	-10.977	0.258	0.169
-267.297	-10.979	-0.305	0.200
-266.282	427.922	-0.088	-0.189
-265.267	22.875	-0.079	-0.064
-264.253	-151.529	0.179	0.013
-263.238	-200.000	0.010	0.067
-262.224	800.000	0.021	-0.091
-261.209	-200.000	-0.009	0.182
-260.195	45.893	0.159	-0.146
-259.180	-94.290	0.218	-0.059
-258.165	135.901	-0.212	0.274
-257.151	694.794	-0.043	0.112
-256.136	-136.244	-0.094	-0.011
-255.122	-101.419	0.462	-0.112
-254.107	-106.749	-0.434	-0.096
-253.092	-200.000	0.090	0.419
-252.078	306.449	0.052	-0.095
-251.063	-50.881	0.136	-0.063
-250.049	84.306	0.233	-0.253
-249.034	89.954	-0.214	0.237
-248.019	800.000	-0.069	-0.228
-247.005	44.959	-0.060	-0.055
-245.990	133.685	-0.051	-0.065
-244.976	633.238	-0.241	-0.606
-243.961	-200.000	-0.047	0.291
-242.946	-76.832	0.230	0.080
-241.932	334.781	-0.032	-0.061
-240.917	26.410	0.260	0.216
-239.903	-200.000	-0.002	-0.151
-238.888	35.908	-0.249	0.217
-237.873	37.038	-0.134	-0.118
-236.859	129.783	-0.280	-0.355
-235.844	-173.577	0.162	-0.005
-234.830	240.691	0.052	-0.086
-233.815	-41.824	-0.116	-0.059
-232.800	2.327	-0.167	0.120
-231.786	-200.000	-0.043	-0.229
-230.771	49.719	-0.047	0.044
-229.757	-19.043	-0.031	0.019
-228.742	90.393	0.094	0.104
-227.727	-95.091	0.271	-0.072
-226.713	-162.818	0.147	0.007
-225.698	-200.000	0.006	-0.197
-224.684	163.076	-0.122	-0.170
-223.669	60.004	-0.114	0.112
-222.655	-133.015	0.232	-0.029
-221.640	412.230	-0.164	-0.346
-220.625	-183.714	0.157	-0.003
-219.611	-147.546	0.363	-0.030
-218.596	122.728	-0.165	-0.205
-217.582	-146.979	0.452	-0.038
-216.567	219.714	-0.071	-0.113
-215.552	1.116	0.136	-0.097
-214.538	57.159	0.176	-0.170
-213.523	-129.958	-0.128	-0.017
-212.509	800.000	-0.118	0.377
-211.494	800.000	0.041	-0.135
-210.479	-105.878	0.285	-0.064
-209.465	-200.000	0.019	0.094
-208.450	-200.000	0.013	0.526
-207.436	-200.000	-0.002	0.020
-206.421	-200.000	-0.060	0.309
-205.406	-30.460	0.261	-0.146
-204.392	-17.319	0.115	0.071
-203.377	-60.615	0.231	0.097
-202.363	312.327	-0.109	-0.202
-201.348	50.258	0.139	0.130
-200.333	-42.076	-0.179	0.091
-199.319	246.498	0.085	0.142
-198.304	5.769	-0.124	-0.091
-197.290	-169.945	0.119	-0.004
-196.275	108.808	0.105	-0.124
-195.260	-122.554	-0.121	-0.019
-194.246	-47.433	0.147	-0.071
-193.231	800.000	0.099	0.312
-192.217	19.829	0.132	0.105
-191.202	-107.614	-0.194	0.042
-190.187	-95.192	0.138	0.037
-189.173	-39.469	-0.223	-0.116
-188.158	20.525	-0.161	0.129
-187.144	-151.905	0.337	0.024
-186.129	-145.189	-0.460	0.041
-185.114	32.926	-0.310	0.266
-184.100	39.236	0.226	0.200
-183.085	47.361	-0.091	0.084
-182.071	-56.921	-0.057	-0.025
-181.056	-127.848	-0.030	-0.004
-180.042	800.000	-0.064	-0.211
-179.027	-38.295	-0.366	0.192
-178.012	-164.066	0.029	-0.001
-176.998	149.098	0.160	-0.214
-175.983	-129.957	0.300	-0.041
-174.969	800.000	0.051	-0.176
-173.954	136.329	-0.319	0.412
-172.939	-200.000	-0.014	0.192
-171.925	-127.243	0.242	0.035
-170.910	216.424	0.217	0.341
-169.896	-200.000	0.078	0.503
-168.881	375.479	0.154	0.311
-167.866	22.380	-0.242	-0.196
-166.852	-99.365	-0.122	0.030
-165.837	800.000	0.024	-0.102
-164.823	-121.843	-0.526	0.086
-163.808	65.143	0.146	0.146
-162.793	-22.712	0.079	0.047
-161.779	-154.214	0.089	0.006
-160.764	-200.000	0.025	0.217
-159.750	194.570	0.159	-0.238
-158.735	-105.999	-0.293	0.065
-157.720	-82.718	0.079	0.025
-156.706	-200.000	0.055	0.347
-155.691	75.148	-0.184	0.192
-154.677	-0.469	-0.266	-0.187
-153.662	61.770	-0.020	-0.020
-152.647	-124.494	0.291	0.045
-151.633	115.831	0.119	-0.144
-150.618	151.646	-0.210	0.283
-149.604	-2.919	-0.016	-0.011
-148.589	5.296	0.074	0.054
-147.574	800.000	-0.038	-0.159
-146.560	-200.000	-0.015	0.187
-145.545	-67.293	0.365	0.142
-144.531	-135.160	-0.208	0.025
-143.516	800.000	0.070	-0.194
-142.502	-76.532	-0.253	-0.088
-141.487	-28.048	0.168	0.096
-140.472	-55.148	-0.302	0.134
-139.458	-139.310	0.088	0.009
-138.443	77.324	-0.185	0.194
-137.429	-200.000	0.037	0.272
-136.414	17.287	-0.174	0.136
-135.399	114.905	-0.109	-0.131
-134.385	351.252	0.102	-0.200
-133.370	-126.079	0.403	-0.060
-132.356	-110.286	0.111	-0.023
-131.341	-200.000	0.257	0.000
-130.326	-200.000	-0.086	0.423
-129.312	-145.536	0.343	0.030
-128.297	-157.013	0.205	-0.012
-127.283	-7.504	-0.127	-0.085
-126.268	-37.163	0.319	-0.169
-125.253	-4.877	-0.219	-0.149
-124.239	-114.285	-0.182	-0.035
-123.224	-28.455	-0.087	0.049
-122.210	-60.431	0.202	-0.085
