DTS Sentinel unit serial number:	SN413079Multiplexer serial number:	ORYXHardware model number:	OX4-SRSoftware version number:	ORYX F/W v4.00 Oryx Data Collector v3.7.2.0data status	okinstallation	princeton_trtdifferential loss correction	single-endedforward channel	channel 2reverse channel	N/Adate	2019/09/11time	10:57:11forward acquisition time	60.00reverse acquisition time	0.00gamma	496.2192k internal	0.2308k external	0.2308temperature offset calibration	0.9969default loss term (dB/km)	0.3790temperature slope calibration	1.0000multiplexer offset coefficient	1.0000multiplexer slope coefficient	1.0000fibre end	0.00T internal ref (°C)	37.11T ext. ref 1 (°C)	0.17T ext. ref 2 (°C)	34.58length (m)	temperature (°C)	Stokes	anti-Stokes-747.200	24.227	-0.171	0.143
-746.185	-30.198	-0.278	0.160
-745.171	-44.325	-0.048	0.024
-744.156	-200.000	-0.036	0.241
-743.142	70.605	0.073	-0.077
-742.127	-200.000	-0.007	-0.115
-741.112	216.201	0.031	0.050
-740.098	104.285	0.097	0.116
-739.083	-123.402	-0.044	-0.007
-738.069	134.008	0.103	0.135
-737.054	-92.097	0.364	-0.105
-736.039	-200.000	-0.012	0.199
-735.025	-200.000	0.017	0.279
-734.010	-200.000	0.022	-0.241
-732.996	540.628	-0.077	-0.187
-731.981	-170.661	-0.311	0.011
-730.966	-200.000	0.055	-0.287
-729.952	306.471	-0.130	-0.245
-728.937	-50.344	-0.184	-0.088
-727.923	232.887	-0.097	0.162
-726.908	800.000	0.073	0.243
-725.894	-46.065	-0.364	-0.182
-724.879	15.149	-0.252	-0.200
-723.864	87.370	0.223	-0.250
-722.850	115.703	-0.159	-0.197
-721.835	31.358	0.112	-0.097
-720.821	800.000	0.027	0.081
-719.806	-200.000	-0.050	0.386
-718.791	97.574	-0.252	0.294
-717.777	-47.192	0.238	0.118
-716.762	-101.771	-0.264	0.065
-715.748	-69.982	-0.286	0.111
-714.733	800.000	-0.071	0.221
-713.718	-27.730	-0.147	0.086
-712.704	113.731	-0.094	-0.116
-711.689	-66.080	0.221	0.090
-710.675	184.582	-0.195	0.294
-709.660	-200.000	0.005	-0.149
-708.645	17.825	-0.243	-0.196
-707.631	-73.627	-0.169	-0.062
-706.616	59.517	-0.178	-0.178
-705.602	15.409	0.069	-0.055
-704.587	-200.000	0.055	-0.272
-703.572	432.749	-0.119	-0.262
-702.558	51.306	0.099	-0.096
-701.543	-200.000	-0.009	0.351
-700.529	-98.870	0.252	0.065
-699.514	-55.017	-0.073	0.033
-698.499	-200.000	0.025	-0.148
-697.485	800.000	0.134	-0.380
-696.470	-120.539	-0.226	0.039
-695.456	-84.955	0.425	0.135
-694.441	-91.696	0.269	-0.077
-693.426	113.635	-0.158	0.195
-692.412	-48.085	-0.125	-0.061
-691.397	800.000	0.055	0.179
-690.383	47.390	-0.419	-0.396
-689.368	-58.711	-0.153	0.067
-688.354	57.836	0.381	0.378
-687.339	-123.571	0.206	0.033
-686.324	287.334	-0.044	-0.080
-685.310	254.192	-0.163	0.283
-684.295	-200.000	-0.008	-0.107
-683.281	154.508	0.144	-0.200
-682.266	234.368	0.100	-0.166
-681.251	152.217	-0.277	-0.384
-680.237	137.792	-0.100	-0.133
-679.222	257.831	-0.148	-0.259
-678.208	-200.000	-0.049	-0.228
-677.193	-135.786	-0.199	0.024
-676.178	-6.851	-0.208	0.143
-675.164	-61.242	-0.195	0.083
-674.149	-127.145	-0.221	-0.033
-673.135	575.658	0.048	0.118
-672.120	-200.000	0.034	-0.309
-671.105	11.693	0.086	0.067
-670.091	-200.000	0.003	-0.090
-669.076	-92.244	-0.503	-0.144
-668.062	-116.629	0.373	-0.069
-667.047	152.581	0.012	0.017
-666.032	143.572	0.043	-0.058
-665.018	14.243	-0.127	0.101
-664.003	-61.585	0.080	-0.034
-662.989	70.241	-0.301	0.315
-661.974	263.998	0.151	-0.266
-660.959	-200.000	-0.026	-0.361
-659.945	367.486	-0.200	-0.409
-658.930	-200.000	-0.043	-0.202
-657.916	72.709	0.193	0.204
-656.901	-154.145	-0.412	0.028
-655.886	15.025	-0.359	-0.285
-654.872	-200.000	0.044	-0.374
-653.857	-69.645	0.133	-0.052
-652.843	4.496	0.235	-0.175
-651.828	-200.000	-0.105	-0.684
-650.814	171.908	0.047	-0.068
-649.799	800.000	0.035	-0.112
-648.784	-55.702	0.228	-0.103
-647.770	-200.000	-0.014	0.081
-646.755	-200.000	0.028	0.160
-645.741	-97.037	0.357	-0.095
-644.726	-86.619	-0.118	0.037
-643.711	-6.498	-0.107	0.074
-642.697	95.290	-0.069	0.079
-641.682	-102.663	-0.415	0.100
-640.668	-76.231	0.095	0.034
-639.653	800.000	0.056	0.174
-638.638	169.007	-0.088	0.127
-637.624	4.126	0.172	-0.128
-636.609	80.560	0.155	-0.169
-635.595	-141.122	0.098	-0.010
-634.580	223.989	0.097	-0.158
-633.565	-200.000	-0.004	0.056
-632.551	-200.000	0.028	0.138
-631.536	92.076	-0.083	-0.094
-630.522	-200.000	0.047	-0.263
-629.507	438.381	-0.081	-0.180
-628.492	-147.625	-0.131	-0.011
-627.478	-140.070	-0.524	-0.056
-626.463	-124.520	-0.302	-0.048
-625.449	472.652	0.025	0.057
-624.434	0.726	-0.201	0.145
-623.419	297.365	-0.118	0.219
-622.405	800.000	0.063	0.241
-621.390	800.000	0.092	0.303
-620.376	318.287	-0.170	0.325
-619.361	-25.877	-0.219	0.131
-618.346	-160.750	-0.209	0.011
-617.332	-84.389	-0.323	0.103
-616.317	-20.429	0.235	0.146
-615.303	263.027	-0.063	0.110
-614.288	80.329	0.180	-0.196
-613.273	-53.428	-0.149	0.069
-612.259	-3.268	0.179	-0.126
-611.244	290.875	-0.109	-0.201
-610.230	264.460	0.054	0.095
-609.215	-200.000	0.040	0.226
-608.201	243.940	-0.014	0.023
-607.186	-31.134	-0.178	0.101
-606.171	-143.429	-0.380	0.037
-605.157	-200.000	-0.023	0.445
-604.142	-85.311	0.224	-0.071
-603.128	800.000	-0.068	0.253
-602.113	-200.000	0.023	0.192
-601.098	-200.000	-0.026	-0.328
-600.084	20.683	-0.073	-0.059
-599.069	201.701	0.117	0.182
-598.055	-110.976	0.197	-0.041
-597.040	-200.000	0.011	0.193
-596.025	-113.972	0.234	0.046
-595.011	161.552	0.062	0.088
-593.996	-200.000	-0.010	0.063
-592.982	-165.939	-0.091	0.004
-591.967	38.824	0.056	0.051
-590.952	800.000	-0.035	0.146
-589.938	-120.533	-0.186	-0.032
-588.923	133.005	-0.074	0.097
-587.909	-60.203	-0.369	0.159
-586.894	335.230	0.109	0.213
-585.879	320.552	0.126	-0.242
-584.865	95.722	-0.108	0.125
-583.850	-142.547	-0.106	0.010
-582.836	86.352	0.120	-0.134
-581.821	67.619	0.253	0.261
-580.806	159.748	0.158	-0.222
-579.792	800.000	0.088	-0.246
-578.777	-200.000	-0.018	0.122
-577.763	-200.000	0.026	0.177
-576.748	139.947	-0.300	0.399
-575.733	-83.358	-0.263	0.085
-574.719	-200.000	0.029	0.178
-573.704	-148.012	0.254	0.021
-572.690	-162.554	-0.198	0.010
-571.675	-61.874	0.023	-0.010
-570.661	-94.641	-0.286	0.079
-569.646	-11.954	-0.176	-0.116
-568.631	-170.274	-0.135	0.005
-567.617	-145.841	0.118	0.011
-566.602	247.059	-0.072	0.122
-565.588	-178.170	-0.208	-0.005
-564.573	-112.971	0.248	0.050
-563.558	-113.463	-0.262	0.052
-562.544	579.166	-0.074	0.183
-561.529	-2.220	0.195	0.138
-560.515	42.021	-0.111	-0.102
-559.500	-170.341	-0.371	0.013
-558.485	-95.058	0.084	-0.023
-557.471	-164.182	0.135	-0.006
-556.456	-76.614	-0.207	0.073
-555.442	101.656	0.034	-0.040
-554.427	-17.491	0.138	-0.088
-553.412	-154.937	-0.231	-0.015
-552.398	-200.000	0.015	-0.200
-551.383	133.995	-0.244	0.319
-550.369	-200.000	-0.044	0.225
-549.354	800.000	-0.047	-0.157
-548.339	-67.704	-0.280	-0.111
-547.325	-200.000	0.023	0.302
-546.310	-124.530	-0.166	-0.026
-545.296	158.754	0.040	-0.056
-544.281	376.695	0.074	-0.151
-543.266	800.000	-0.118	0.361
-542.252	-129.730	-0.149	0.021
-541.237	498.914	-0.191	-0.443
-540.223	202.049	0.106	-0.165
-539.208	-85.308	0.233	0.073
-538.193	302.916	0.134	-0.251
-537.179	-200.000	0.012	-0.073
-536.164	-114.389	-0.166	0.032
-535.150	455.874	-0.047	0.105
-534.135	-8.878	-0.247	0.167
-533.121	-41.255	-0.064	0.033
-532.106	117.223	0.175	-0.217
-531.091	531.495	-0.134	0.320
-530.077	-21.298	0.463	-0.285
-529.062	-200.000	-0.049	-0.316
-528.048	-128.875	-0.395	0.056
-527.033	-105.194	0.213	-0.049
-526.018	92.005	0.201	-0.228
-525.004	800.000	-0.097	-0.333
-523.989	337.029	-0.173	0.340
-522.975	-84.178	0.038	-0.012
-521.960	699.169	0.151	-0.401
-520.945	230.980	-0.093	0.153
-519.931	-200.000	0.013	-0.071
-518.916	-140.463	-0.170	-0.018
-517.902	800.000	0.077	0.219
-516.887	-200.000	0.049	-0.266
-515.872	328.061	-0.186	-0.359
-514.858	52.889	0.111	-0.107
-513.843	-200.000	0.026	0.308
-512.829	-153.386	0.259	-0.018
-511.814	-200.000	0.006	0.176
-510.799	-55.414	-0.233	-0.105
-509.785	35.330	0.236	-0.208
-508.770	54.926	-0.113	-0.109
-507.756	434.030	0.113	-0.246
-506.741	800.000	0.053	0.150
-505.726	20.098	-0.315	-0.256
-504.712	67.403	-0.113	-0.116
-503.697	-200.000	-0.037	0.352
-502.683	593.767	0.145	-0.361
-501.668	-22.533	0.130	0.079
-500.653	43.274	-0.156	-0.144
-499.639	86.092	0.129	-0.143
-498.624	169.927	0.079	0.114
-497.610	214.998	-0.112	-0.179
-496.595	-200.000	0.007	-0.130
-495.581	-168.484	0.122	-0.005
-494.566	-35.075	-0.170	-0.093
-493.551	-123.218	0.309	0.050
-492.537	138.431	-0.186	-0.245
-491.522	195.253	0.080	-0.122
-490.508	28.148	-0.436	-0.371
-489.493	274.853	-0.062	-0.111
-488.478	-172.219	-0.015	-0.000
-487.464	-200.000	0.029	0.129
-486.449	-97.666	0.052	0.013
-485.435	219.295	0.156	-0.252
-484.420	15.245	0.233	-0.184
-483.405	-200.000	-0.016	0.283
-482.391	-70.235	-0.266	0.102
-481.376	-200.000	0.060	0.383
-480.362	-70.204	-0.221	0.084
-479.347	333.880	0.071	-0.138
-478.332	36.030	-0.348	0.308
-477.318	64.215	-0.126	0.127
-476.303	-109.680	-0.103	0.022
-475.289	457.313	0.108	0.242
-474.274	19.597	0.305	-0.247
-473.259	337.262	0.156	-0.304
-472.245	5.053	0.137	-0.102
-471.230	-20.793	0.157	-0.097
-470.216	711.014	-0.069	-0.182
-469.201	-140.549	0.143	-0.015
-468.186	-200.000	-0.005	0.223
-467.172	500.868	0.098	0.228
-466.157	195.440	0.020	-0.031
-465.143	-136.078	0.163	0.019
-464.128	800.000	-0.083	0.328
-463.113	65.387	0.126	-0.128
-462.099	-200.000	-0.011	0.298
-461.084	-87.483	0.328	-0.100
-460.070	118.673	0.017	-0.021
-459.055	160.904	0.141	-0.199
-458.040	140.903	-0.095	0.127
-457.026	-60.989	-0.194	0.082
-456.011	-200.000	0.023	-0.283
-454.997	697.575	-0.092	0.244
-453.982	-51.612	0.121	-0.057
-452.968	155.519	0.230	-0.318
-451.953	-79.159	-0.247	0.084
-450.938	33.607	0.039	0.034
-449.924	284.011	-0.084	0.153
-448.909	-118.079	0.182	-0.033
-447.895	172.043	-0.152	-0.219
-446.880	178.088	-0.140	0.206
-445.865	-103.481	0.361	-0.085
-444.851	49.144	-0.073	0.069
-443.836	800.000	0.067	-0.200
-442.822	-131.203	-0.345	0.046
-441.807	409.273	0.212	0.450
-440.792	344.333	0.048	-0.095
-439.778	-200.000	-0.097	-0.535
-438.763	-85.556	0.041	-0.013
-437.749	225.579	-0.205	0.334
-436.734	-200.000	0.082	-0.363
-435.719	-28.231	-0.267	-0.155
-434.705	-153.541	-0.042	-0.003
-433.690	415.506	0.057	-0.122
-432.676	28.045	0.130	0.110
-431.661	-46.748	0.131	-0.064
-430.646	76.736	-0.215	-0.229
-429.632	7.966	0.106	-0.080
-428.617	298.774	-0.087	0.160
-427.603	28.438	0.300	-0.255
-426.588	54.707	0.059	0.057
-425.573	151.224	0.059	-0.081
-424.559	-124.496	-0.285	0.045
-423.544	10.055	0.272	0.208
-422.530	800.000	-0.057	0.183
-421.515	22.647	0.125	-0.103
-420.500	555.148	0.043	-0.103
-419.486	800.000	-0.072	0.239
-418.471	612.112	-0.020	-0.050
-417.457	-103.860	0.237	0.056
-416.442	800.000	-0.123	0.395
-415.428	-22.439	-0.215	0.131
-414.413	-33.750	0.230	-0.127
-413.398	-61.671	0.080	-0.034
-412.384	95.370	-0.114	-0.131
-411.369	-48.109	0.426	0.207
-410.355	143.584	-0.222	-0.296
-409.340	-200.000	0.003	0.188
-408.325	800.000	-0.029	0.092
-407.311	-118.897	0.199	-0.035
-406.296	-10.434	0.194	-0.129
-405.282	-89.599	-0.179	0.053
-404.267	-200.000	0.058	-0.260
-403.252	27.530	0.023	-0.019
-402.238	446.440	0.093	0.206
-401.223	-200.000	0.011	0.082
-400.209	-200.000	-0.008	-0.207
-399.194	326.866	-0.158	-0.303
-398.179	-22.521	-0.047	0.028
-397.165	-200.000	0.014	0.138
-396.150	570.412	-0.098	-0.240
-395.136	800.000	-0.013	0.043
-394.121	-123.723	-0.320	0.051
-393.106	-43.426	-0.151	-0.076
-392.092	222.896	0.112	0.181
-391.077	-37.491	0.214	0.115
-390.063	46.385	0.245	-0.228
-389.048	13.301	-0.237	0.184
-388.033	10.507	0.131	0.100
-387.019	149.747	0.201	0.274
-386.004	-120.871	-0.248	-0.042
-384.990	283.480	0.159	-0.287
-383.975	175.943	-0.162	-0.236
-382.960	189.684	0.058	0.088
-381.946	212.431	-0.104	0.164
-380.931	-112.929	0.565	-0.112
-379.917	-142.703	0.289	-0.028
-378.902	119.144	0.086	-0.107
-377.888	-21.656	0.205	-0.125
-376.873	183.923	0.024	0.036
-375.858	39.988	-0.382	0.344
-374.844	-200.000	0.034	-0.194
-373.829	42.234	0.255	0.232
-372.815	-118.911	-0.319	-0.056
-371.800	265.866	-0.124	0.216
-370.785	-76.074	0.181	0.064
-369.771	-90.841	0.161	0.046
-368.756	140.879	-0.084	0.112
-367.742	-90.293	-0.343	0.100
-366.727	-90.053	-0.197	0.058
-365.712	-23.190	0.180	-0.109
-364.698	646.232	0.089	0.227
-363.683	175.820	0.150	0.219
-362.669	800.000	0.025	0.076
-361.654	-100.090	0.180	-0.045
-360.639	13.300	-0.315	0.244
-359.625	12.372	0.020	-0.016
-358.610	-131.554	0.180	0.024
-357.596	222.341	0.083	-0.134
-356.581	321.301	-0.057	-0.109
-355.566	26.026	0.201	-0.168
-354.552	-76.034	-0.175	-0.062
-353.537	382.061	-0.049	0.101
-352.523	-93.318	0.173	-0.048
-351.508	250.407	0.089	0.151
-350.493	-200.000	-0.065	-0.372
-349.479	800.000	0.074	-0.275
-348.464	652.132	-0.062	0.160
-347.450	32.879	0.159	-0.138
-346.435	800.000	-0.064	-0.213
-345.420	800.000	-0.013	-0.037
-344.406	634.140	0.090	-0.228
-343.391	-39.789	-0.202	-0.106
-342.377	303.292	-0.089	-0.166
-341.362	-61.605	-0.087	0.037
-340.348	105.989	-0.202	0.240
-339.333	-200.000	-0.025	-0.149
-338.318	603.096	0.116	-0.289
-337.304	-32.541	-0.133	0.074
-336.289	-77.405	-0.013	-0.004
-335.275	-200.000	-0.000	0.163
-334.260	89.242	0.333	-0.371
-333.245	71.698	-0.074	-0.077
-332.231	194.949	0.097	-0.147
-331.216	0.319	0.088	-0.063
-330.202	-200.000	-0.036	0.172
-329.187	-165.590	0.265	-0.012
-328.172	-23.912	0.141	0.084
-327.158	-90.071	-0.023	0.007
-326.143	187.021	-0.220	0.327
-325.129	800.000	-0.018	0.061
-324.114	-200.000	0.299	-0.000
-323.099	-86.018	-0.303	-0.094
-322.085	-200.000	0.046	0.365
-321.070	-135.591	0.059	0.007
-320.056	245.182	-0.091	-0.152
-319.041	26.147	-0.149	0.124
-318.026	800.000	0.031	-0.090
-317.012	42.175	-0.100	-0.091
-315.997	236.055	-0.144	0.239
-314.983	144.885	-0.166	0.221
-313.968	-5.125	-0.086	0.059
-312.953	-178.228	-0.313	-0.007
-311.939	7.485	0.124	0.092
-310.924	-152.016	-0.190	0.014
-309.910	-200.000	-0.002	0.097
-308.895	-72.305	-0.023	-0.008
-307.880	243.667	0.291	0.489
-306.866	-25.495	0.296	-0.174
-305.851	-116.472	-0.323	-0.060
-304.837	446.224	0.064	0.140
-303.822	-80.183	-0.361	0.121
-302.807	-200.000	-0.002	-0.049
-301.793	-123.050	-0.173	0.028
-300.778	-54.263	-0.144	0.065
-299.764	128.935	-0.100	0.128
-298.749	-94.737	-0.206	0.056
-297.735	-200.000	0.059	0.366
-296.720	800.000	0.058	-0.227
-295.705	-44.482	-0.197	0.098
-294.691	-137.742	0.130	0.015
-293.676	-200.000	0.036	-0.398
-292.662	38.816	0.179	0.160
-291.647	495.753	-0.068	-0.157
-290.632	77.295	-0.196	-0.208
-289.618	312.313	0.085	-0.159
-288.603	-200.000	-0.039	-0.259
-287.589	-91.998	-0.093	-0.026
-286.574	-134.816	0.149	-0.018
-285.559	232.711	0.169	-0.276
-284.545	42.215	0.114	-0.103
-283.530	-53.328	0.048	0.022
-282.516	110.339	0.137	0.165
-281.501	-98.198	-0.115	-0.029
-280.486	-200.000	0.065	0.305
-279.472	-200.000	0.019	0.195
-278.457	140.592	-0.078	0.103
-277.443	-70.263	0.100	0.038
-276.428	-200.000	-0.034	0.205
-275.413	-167.857	0.511	-0.020
-274.399	800.000	-0.099	-0.307
-273.384	97.376	-0.037	0.042
-272.370	-94.858	0.416	0.112
-271.355	-200.000	-0.078	0.388
-270.340	575.732	0.071	0.173
-269.326	44.134	-0.209	-0.191
-268.311	800.000	-0.033	0.140
-267.297	-200.000	0.040	-0.242
-266.282	-145.123	0.088	-0.008
-265.267	-88.605	0.102	0.030
-264.253	-200.000	0.014	-0.279
-263.238	-200.000	-0.054	-0.281
-262.224	-29.405	-0.232	0.132
-261.209	147.821	-0.202	-0.271
-260.195	-200.000	-0.043	-0.243
-259.180	-0.866	0.089	0.063
-258.165	45.024	0.036	-0.033
-257.151	49.962	0.195	0.184
-256.136	800.000	0.026	-0.081
-255.122	800.000	-0.059	0.173
-254.107	-86.283	0.049	0.015
-253.092	-200.000	0.024	0.158
-252.078	98.550	0.163	-0.187
-251.063	116.605	0.205	0.251
-250.049	-31.670	0.160	0.090
-249.034	161.303	0.103	-0.144
-248.019	-200.000	-0.005	0.144
-247.005	-80.579	-0.162	-0.054
-245.990	-88.253	0.188	0.056
-244.976	-200.000	0.023	-0.325
-243.961	-164.136	0.246	0.011
-242.946	-200.000	0.009	-0.202
-241.932	-78.235	0.287	-0.098
-240.917	-132.627	-0.198	0.025
-239.903	800.000	0.082	0.306
-238.888	-200.000	-0.066	0.329
-237.873	800.000	0.061	-0.188
-236.859	-200.000	0.047	-0.239
-235.844	-200.000	0.027	-0.173
-234.830	-200.000	0.007	0.075
-233.815	339.092	0.060	0.116
-232.800	-200.000	0.013	-0.426
-231.786	-2.988	0.237	0.165
-230.771	203.913	-0.109	0.168
-229.757	65.775	0.288	-0.291
-228.742	-46.588	-0.138	-0.067
-227.727	800.000	-0.045	-0.134
-226.713	-186.362	-0.172	0.002
-225.698	42.133	-0.247	0.224
-224.684	151.425	0.061	-0.083
-223.669	800.000	-0.054	-0.200
-222.655	800.000	0.050	0.186
-221.640	683.715	0.166	0.432
-220.625	59.334	-0.067	0.066
-219.611	-158.180	-0.108	-0.006
-218.596	800.000	0.086	-0.268
-217.582	377.772	0.239	-0.487
-216.567	-200.000	-0.016	-0.247
-215.552	-32.399	-0.365	-0.203
-214.538	-200.000	0.020	0.113
-213.523	-200.000	0.070	0.309
-212.509	-143.909	0.173	-0.016
-211.494	800.000	-0.076	-0.289
-210.479	-200.000	0.009	-0.228
-209.465	-121.509	-0.199	-0.033
-208.450	-113.386	-0.149	-0.029
-207.436	144.947	0.205	0.273
-206.421	-157.554	0.225	-0.013
-205.406	-200.000	-0.032	-0.174
-204.392	159.445	0.039	-0.054
-203.377	-149.376	0.218	0.017
-202.363	5.327	0.084	0.061
-201.348	-11.107	-0.278	0.182
-200.333	376.213	-0.193	-0.393
-199.319	105.162	-0.211	-0.247
-198.304	-5.014	0.209	0.143
-197.290	794.741	0.111	0.303
-196.275	-125.001	0.260	-0.040
-195.260	80.814	0.211	-0.226
-194.246	-200.000	0.014	0.152
-193.231	-200.000	0.007	0.056
-192.217	-118.612	0.280	-0.049
-191.202	-112.870	0.147	-0.029
-190.187	231.016	0.176	-0.287
-189.173	-200.000	0.053	-0.274
-188.158	14.488	-0.070	-0.054
-187.144	102.862	0.331	-0.385
-186.129	-104.092	0.155	-0.036
-185.114	4.499	0.136	-0.099
-184.100	-200.000	0.012	0.212
-183.085	800.000	-0.078	0.283
-182.071	-175.777	0.046	-0.001
-181.056	800.000	0.017	0.073
-180.042	-20.118	-0.154	0.095
-179.027	176.682	0.087	-0.126
-178.012	40.790	-0.033	0.029
-176.998	-112.599	0.263	-0.052
-175.983	426.889	0.033	0.071
-174.969	6.981	-0.052	0.039
-173.954	8.022	-0.117	-0.087
-172.939	43.188	-0.167	-0.151
-171.925	-119.626	-0.121	0.021
-170.910	-94.834	0.138	-0.037
-169.896	-144.197	0.158	0.015
-168.881	-124.489	-0.362	0.056
-167.866	2.201	0.108	-0.078
-166.852	23.551	-0.204	-0.167
-165.837	800.000	-0.066	0.276
-164.823	-36.674	-0.456	0.243
-163.808	-180.243	0.329	-0.007
-162.793	-200.000	-0.014	-0.229
-161.779	-48.979	-0.350	0.166
-160.764	800.000	-0.066	0.267
-159.750	-52.343	-0.177	-0.082
-158.735	509.304	0.053	0.122
-157.720	-86.709	-0.036	0.011
-156.706	-200.000	-0.012	-0.165
-155.691	-176.191	0.288	0.008
-154.677	188.489	0.113	-0.168
-153.662	250.640	0.087	0.147
-152.647	-190.061	-0.313	0.003
-151.633	-200.000	0.001	0.425
-150.618	-175.220	0.067	0.002
-149.604	-200.000	-0.043	0.326
-148.589	-200.000	-0.024	-0.245
-147.574	132.362	0.091	-0.116
-146.560	800.000	0.090	-0.329
-145.545	-61.575	0.287	0.120
-144.531	800.000	0.013	0.050
-143.516	188.586	0.037	-0.054
-142.502	-153.792	-0.359	-0.024
-141.487	47.766	-0.271	-0.251
-140.472	-19.443	-0.213	-0.131
-139.458	99.792	-0.239	-0.275
-138.443	-200.000	-0.019	-0.224
-137.429	27.919	0.099	-0.083
-136.414	142.963	0.106	0.140
-135.399	74.286	-0.144	0.150
-134.385	65.964	0.191	-0.192
-133.370	703.478	-0.022	0.058
-132.356	785.428	0.049	0.134
-131.341	-8.457	0.102	0.068
-130.326	-129.655	0.282	0.039
-129.312	-200.000	0.005	0.053
-128.297	-84.587	0.311	0.097
-127.283	-37.474	0.201	0.106
-126.268	-67.592	-0.231	0.090
-125.253	707.365	-0.009	-0.024
-124.239	-113.017	-0.141	0.028
-123.224	129.294	-0.169	0.214
-122.210	-35.825	-0.116	0.062
-121.195	30.388	0.122	0.103
