DTS Sentinel unit serial number:	SN413079Multiplexer serial number:	ORYXHardware model number:	OX4-SRSoftware version number:	ORYX F/W v4.00 Oryx Data Collector v3.7.2.0data status	okinstallation	princeton_trtdifferential loss correction	single-endedforward channel	channel 2reverse channel	N/Adate	2019/09/11time	00:21:11forward acquisition time	60.00reverse acquisition time	0.00gamma	496.2192k internal	0.2332k external	0.2332temperature offset calibration	0.9941default loss term (dB/km)	0.3790temperature slope calibration	1.0000multiplexer offset coefficient	1.0000multiplexer slope coefficient	1.0000fibre end	0.00T internal ref (°C)	29.30T ext. ref 1 (°C)	-0.31T ext. ref 2 (°C)	22.82length (m)	temperature (°C)	Stokes	anti-Stokes-747.200	-92.077	0.336	0.096
-746.185	492.589	-0.046	-0.107
-745.171	71.775	0.360	-0.376
-744.156	166.029	-0.134	0.190
-743.142	462.898	0.140	-0.314
-742.127	47.873	0.141	-0.133
-741.112	13.213	-0.113	-0.088
-740.098	-45.459	-0.169	-0.084
-739.083	-200.000	0.005	0.060
-738.069	-77.337	-0.094	-0.033
-737.054	-86.133	0.108	0.034
-736.039	-54.355	-0.105	-0.048
-735.025	800.000	-0.056	0.157
-734.010	73.055	-0.257	-0.270
-732.996	800.000	-0.079	-0.295
-731.981	20.753	0.123	0.100
-730.966	-27.056	-0.047	-0.027
-729.952	288.902	-0.117	-0.213
-728.937	-60.580	-0.181	-0.077
-727.923	296.144	-0.089	0.163
-726.908	342.717	-0.119	-0.234
-725.894	156.200	0.053	0.073
-724.879	-200.000	-0.014	-0.271
-723.864	-167.464	0.144	-0.006
-722.850	-138.449	-0.173	-0.019
-721.835	-200.000	0.001	-0.011
-720.821	-200.000	0.003	0.190
-719.806	-46.682	-0.099	-0.049
-718.791	-38.252	0.138	-0.073
-717.777	-37.137	-0.359	-0.193
-716.762	-200.000	-0.043	-0.216
-715.748	-46.873	-0.105	-0.051
-714.733	247.289	-0.121	0.205
-713.718	238.287	0.224	-0.373
-712.704	800.000	-0.128	-0.406
-711.689	-67.655	-0.158	-0.062
-710.675	-200.000	0.068	0.371
-709.660	-73.121	0.347	-0.128
-708.645	2.807	0.112	0.082
-707.631	232.399	-0.080	0.131
-706.616	-200.000	0.026	0.254
-705.602	-200.000	-0.032	0.312
-704.587	210.495	0.152	0.240
-703.572	18.145	-0.065	0.052
-702.558	101.360	0.078	0.092
-701.543	-137.101	-0.035	0.004
-700.529	301.473	-0.191	-0.354
-699.514	3.707	0.075	0.055
-698.499	1.302	-0.264	-0.191
-697.485	431.940	-0.070	0.152
-696.470	-14.590	-0.154	-0.099
-695.456	-6.210	0.273	0.187
-694.441	-166.505	-0.194	0.008
-693.426	800.000	0.053	0.151
-692.412	42.931	0.087	-0.079
-691.397	-200.000	-0.004	-0.145
-690.383	147.724	-0.187	-0.254
-689.368	3.107	0.071	-0.052
-688.354	-200.000	0.039	0.224
-687.339	195.293	-0.157	-0.239
-686.324	-156.377	0.208	0.013
-685.310	257.898	-0.119	-0.206
-684.295	-60.959	0.184	-0.078
-683.281	-18.346	-0.127	0.080
-682.266	-200.000	0.063	0.445
-681.251	-95.468	0.374	-0.101
-680.237	-42.817	0.300	0.153
-679.222	-142.035	0.126	0.013
-678.208	705.431	-0.055	-0.145
-677.193	513.611	-0.121	0.284
-676.178	0.656	-0.109	-0.078
-675.164	372.208	-0.051	0.104
-674.149	-145.241	0.119	0.011
-673.135	-200.000	0.017	0.130
-672.120	350.770	0.045	0.090
-671.105	78.410	0.170	0.182
-670.091	-36.854	0.369	-0.199
-669.076	-200.000	0.015	-0.177
-668.062	-200.000	0.055	-0.421
-667.047	89.976	-0.126	-0.141
-666.032	466.938	0.056	-0.125
-665.018	-200.000	-0.053	0.355
-664.003	71.413	0.204	-0.213
-662.989	218.850	-0.075	0.120
-661.974	-200.000	-0.034	0.178
-660.959	610.476	0.048	-0.121
-659.945	-114.150	0.317	0.061
-658.930	-200.000	0.013	0.400
-657.916	-125.683	0.271	0.041
-656.901	24.121	-0.219	0.181
-655.886	430.874	0.116	-0.253
-654.872	-78.590	-0.198	0.068
-653.857	41.197	0.099	-0.089
-652.843	-54.966	-0.253	-0.114
-651.828	-40.741	0.297	-0.154
-650.814	94.078	-0.201	-0.228
-649.799	-4.511	-0.314	-0.217
-648.784	147.576	0.202	0.273
-647.770	-175.481	-0.234	-0.006
-646.755	-200.000	0.013	0.143
-645.741	160.139	0.242	-0.338
-644.726	-80.283	-0.197	0.066
-643.711	-200.000	-0.001	-0.314
-642.697	800.000	0.078	0.327
-641.682	-200.000	-0.068	-0.409
-640.668	800.000	0.044	-0.150
-639.653	-119.327	0.226	-0.039
-638.638	-155.573	-0.136	-0.009
-637.624	-21.539	-0.268	-0.164
-636.609	346.306	-0.079	-0.155
-635.595	694.130	0.117	-0.307
-634.580	-197.942	-0.468	0.003
-633.565	-200.000	0.062	0.296
-632.551	-16.445	-0.245	0.156
-631.536	130.793	-0.056	-0.072
-630.522	-70.585	-0.128	-0.049
-629.507	177.262	0.189	-0.276
-628.492	131.286	0.201	-0.259
-627.478	800.000	-0.058	0.208
-626.463	-75.093	-0.091	-0.033
-625.449	-118.617	0.291	0.051
-624.434	8.784	-0.146	0.110
-623.419	74.767	0.071	-0.074
-622.405	-51.533	0.204	-0.096
-621.390	-1.030	-0.311	-0.220
-620.376	143.393	0.035	-0.047
-619.361	83.284	0.101	-0.110
-618.346	-68.066	0.307	-0.120
-617.332	5.022	-0.140	0.103
-616.317	-71.640	0.127	0.047
-615.303	328.858	-0.049	0.095
-614.288	201.006	-0.062	0.095
-613.273	20.720	-0.156	-0.127
-612.259	800.000	0.098	-0.313
-611.244	94.262	-0.340	-0.386
-610.230	90.027	-0.096	-0.107
-609.215	20.218	0.039	0.031
-608.201	192.843	-0.097	0.147
-607.186	-143.935	-0.343	-0.032
-606.171	604.062	0.098	0.244
-605.157	-82.432	0.421	-0.137
-604.142	317.100	0.062	-0.117
-603.128	-64.032	0.336	-0.138
-602.113	237.905	-0.160	0.266
-601.098	125.768	0.084	0.106
-600.084	24.101	-0.248	0.205
-599.069	84.207	0.260	-0.284
-598.055	103.588	-0.161	-0.189
-597.040	-116.574	-0.192	-0.035
-596.025	5.931	-0.181	-0.134
-595.011	800.000	-0.048	0.136
-593.996	800.000	-0.044	-0.180
-592.982	-200.000	0.045	0.279
-591.967	-200.000	0.040	0.276
-590.952	-36.638	0.113	0.061
-589.938	-147.596	-0.145	-0.012
-588.923	-200.000	0.010	0.056
-587.909	800.000	0.034	0.125
-586.894	106.943	-0.153	-0.182
-585.879	288.430	0.308	0.557
-584.865	-170.245	-0.336	0.012
-583.850	266.517	0.048	-0.083
-582.836	-5.377	-0.209	0.143
-581.821	176.174	-0.126	-0.183
-580.806	800.000	-0.068	-0.242
-579.792	-188.947	-0.146	0.002
-578.777	-131.785	-0.276	-0.036
-577.763	800.000	0.095	-0.320
-576.748	-130.451	-0.192	-0.026
-575.733	-200.000	0.021	-0.128
-574.719	-44.977	0.237	0.118
-573.704	-200.000	-0.040	-0.195
-572.690	-200.000	-0.095	-0.419
-571.675	78.546	-0.346	-0.369
-570.661	800.000	0.084	0.239
-569.646	-188.080	0.056	0.001
-568.631	-112.322	0.146	-0.029
-567.617	42.004	-0.185	-0.168
-566.602	-125.017	0.296	-0.046
-565.588	0.966	0.236	-0.169
-564.573	305.413	0.128	0.238
-563.558	-45.439	0.132	-0.065
-562.544	66.957	0.140	0.142
-561.529	-82.715	-0.156	0.050
-560.515	5.627	-0.210	-0.155
-559.500	800.000	0.040	0.168
-558.485	-200.000	-0.029	0.160
-557.471	-150.561	-0.246	0.019
-556.456	-40.985	0.276	-0.143
-555.442	-174.516	0.274	0.008
-554.427	-47.569	-0.305	-0.148
-553.412	-101.722	0.539	0.131
-552.398	-147.361	-0.333	-0.028
-551.383	-200.000	0.037	-0.364
-550.369	13.231	-0.232	0.180
-549.354	-200.000	-0.022	-0.270
-548.339	800.000	0.090	-0.260
-547.325	151.936	-0.026	-0.036
-546.310	-143.203	-0.165	0.016
-545.296	66.653	0.050	0.051
-544.281	-119.109	-0.242	0.042
-543.266	137.167	-0.120	-0.157
-542.252	35.137	-0.167	0.146
-541.237	-170.684	-0.044	-0.002
-540.223	172.493	0.129	-0.186
-539.208	-81.254	0.208	-0.069
-538.193	-200.000	0.018	-0.189
-537.179	800.000	-0.027	-0.095
-536.164	-22.903	-0.045	-0.027
-535.150	350.108	0.099	0.195
-534.135	19.808	0.114	0.092
-533.121	-142.668	0.257	0.025
-532.106	-125.468	0.340	0.052
-531.091	181.462	-0.215	0.315
-530.077	103.228	-0.035	-0.041
-529.062	96.226	-0.204	-0.233
-528.048	800.000	-0.083	0.252
-527.033	83.654	-0.102	0.111
-526.018	117.780	-0.044	0.054
-525.004	635.272	-0.108	0.274
-523.989	-70.412	0.035	0.013
-522.975	800.000	0.046	-0.144
-521.960	-133.564	0.306	-0.038
-520.945	682.395	0.067	-0.173
-519.931	-200.000	-0.014	-0.280
-518.916	0.600	-0.402	-0.286
-517.902	82.217	0.139	-0.151
-516.887	-0.730	-0.400	0.283
-515.872	-61.273	0.451	0.190
-514.858	-200.000	-0.015	-0.133
-513.843	-200.000	0.063	0.444
-512.829	-110.215	0.165	0.034
-511.814	-200.000	0.006	-0.176
-510.799	-109.681	0.314	0.066
-509.785	183.613	-0.031	-0.046
-508.770	-133.589	0.488	-0.061
-507.756	-76.114	0.279	0.098
-506.741	-139.775	-0.166	-0.018
-505.726	800.000	0.086	0.249
-504.712	-129.597	-0.150	0.021
-503.697	-123.154	-0.339	-0.054
-502.683	800.000	0.054	-0.222
-501.668	800.000	-0.057	-0.163
-500.653	40.320	0.077	-0.069
-499.639	-104.103	-0.274	0.064
-498.624	494.742	-0.094	0.216
-497.610	-127.205	-0.100	-0.015
-496.595	12.232	-0.108	0.083
-495.581	-105.141	-0.167	-0.038
-494.566	-7.961	-0.236	0.159
-493.551	800.000	-0.009	0.033
-492.537	-200.000	-0.061	-0.534
-491.522	285.895	-0.119	0.213
-490.508	240.006	0.119	0.197
-489.493	-183.980	-0.053	0.001
-488.478	-96.704	0.088	-0.023
-487.464	402.989	0.094	0.197
-486.449	45.764	0.223	0.205
-485.435	-200.000	-0.031	-0.185
-484.420	219.815	0.192	0.306
-483.405	11.407	-0.079	0.061
-482.391	800.000	-0.069	-0.216
-481.376	-129.413	0.509	0.070
-480.362	800.000	0.050	0.176
-479.347	-200.000	-0.095	0.000
-478.332	-45.149	0.057	0.028
-477.318	-45.384	0.161	-0.080
-476.303	-22.911	0.137	-0.082
-475.289	454.914	0.147	-0.324
-474.274	-200.000	0.009	0.221
-473.259	564.766	-0.016	-0.040
-472.245	262.640	-0.077	0.133
-471.230	800.000	0.087	-0.265
-470.216	-69.204	-0.313	0.120
-469.201	-200.000	0.013	-0.203
-468.186	18.583	-0.232	0.184
-467.172	277.999	-0.116	-0.205
-466.157	-200.000	0.024	-0.376
-465.143	-200.000	0.022	-0.403
-464.128	11.700	0.358	0.273
-463.113	-62.675	0.258	-0.106
-462.099	65.800	-0.181	0.183
-461.084	525.458	0.080	-0.188
-460.070	-200.000	-0.057	-0.270
-459.055	19.808	0.079	-0.063
-458.040	175.281	-0.102	0.147
-457.026	91.592	0.164	0.183
-456.011	800.000	-0.030	-0.116
-454.997	-28.425	0.057	0.033
-453.982	-200.000	0.038	-0.182
-452.968	96.975	0.098	-0.112
-451.953	800.000	0.040	-0.111
-450.938	-200.000	-0.018	0.100
-449.924	-48.039	-0.339	0.163
-448.909	-165.203	-0.469	0.021
-447.895	-36.869	-0.216	-0.115
-446.880	-89.848	0.034	0.010
-445.865	-119.726	0.142	0.024
-444.851	208.102	0.087	-0.135
-443.836	702.444	-0.068	-0.177
-442.822	-83.653	0.177	-0.056
-441.807	-116.346	0.130	-0.024
-440.792	800.000	-0.041	-0.154
-439.778	90.811	0.285	-0.317
-438.763	-85.057	0.062	0.019
-437.749	-200.000	-0.035	0.266
-436.734	-85.311	-0.085	-0.026
-435.719	-38.630	-0.198	-0.104
-434.705	520.140	0.071	0.165
-433.690	-25.948	-0.197	0.115
-432.676	662.362	-0.107	0.275
-431.661	105.239	-0.200	-0.235
-430.646	93.053	-0.076	-0.086
-429.632	-200.000	0.084	0.434
-428.617	334.279	-0.044	0.084
-427.603	-115.179	-0.355	-0.067
-426.588	-57.533	0.253	-0.110
-425.573	-37.148	0.012	0.006
-424.559	118.208	-0.167	-0.204
-423.544	-17.000	-0.047	-0.030
-422.530	-154.073	-0.299	0.020
-421.515	-200.000	0.013	0.173
-420.500	461.822	0.013	0.029
-419.486	-200.000	-0.019	0.134
-418.471	278.549	0.235	0.416
-417.457	-123.152	0.121	0.019
-416.442	-108.820	-0.191	0.040
-415.428	241.036	-0.059	0.098
-414.413	105.016	-0.075	-0.087
-413.398	121.646	-0.147	-0.182
-412.384	-136.571	-0.232	0.027
-411.369	800.000	-0.035	-0.117
-410.355	155.213	0.215	-0.294
-409.340	250.322	-0.168	0.283
-408.325	291.218	0.134	0.241
-407.311	-200.000	-0.015	-0.072
-406.296	177.918	0.017	-0.025
-405.282	20.587	0.214	-0.172
-404.267	18.411	-0.350	0.278
-403.252	129.646	-0.294	0.373
-402.238	-143.694	-0.225	0.021
-401.223	-78.643	0.056	-0.019
-400.209	-200.000	0.042	-0.195
-399.194	-200.000	-0.007	-0.082
-398.179	114.533	0.034	0.042
-397.165	4.778	0.189	-0.138
-396.150	-120.716	0.478	-0.080
-395.136	186.920	-0.075	0.112
-394.121	-103.885	0.205	-0.047
-393.106	440.595	0.103	0.223
-392.092	-155.611	-0.140	-0.009
-391.077	-134.044	-0.103	0.013
-390.063	29.679	-0.393	0.332
-389.048	-103.529	0.272	0.063
-388.033	148.765	-0.241	-0.324
-387.019	-200.000	0.018	-0.140
-386.004	-200.000	0.026	-0.148
-384.990	105.557	0.070	0.082
-383.975	-130.995	0.083	0.011
-382.960	8.296	-0.155	-0.116
-381.946	191.470	0.270	0.404
-380.931	-88.163	0.137	0.041
-379.917	168.136	0.072	-0.102
-378.902	-187.622	-0.360	0.005
-377.888	800.000	-0.107	0.363
-376.873	1.924	0.084	0.060
-375.858	261.855	-0.028	-0.048
-374.844	800.000	0.100	0.348
-373.829	-88.222	-0.093	0.028
-372.815	-200.000	0.058	-0.401
-371.800	169.059	-0.128	0.181
-370.785	-100.242	0.247	0.061
-369.771	143.447	-0.101	0.133
-368.756	-200.000	-0.026	-0.131
-367.742	-140.527	-0.069	0.007
-366.727	134.239	-0.162	0.208
-365.712	-115.422	0.096	0.018
-364.698	-200.000	-0.034	0.228
-363.683	499.847	-0.138	-0.316
-362.669	-189.254	0.252	0.003
-361.654	-62.725	-0.174	-0.072
-360.639	-200.000	-0.002	0.111
-359.625	104.202	0.230	0.268
-358.610	-200.000	0.004	-0.224
-357.596	-200.000	0.017	0.119
-356.581	-200.000	0.082	0.365
-355.566	239.573	0.034	0.056
-354.552	-103.339	-0.304	-0.071
-353.537	133.461	0.123	0.158
-352.523	31.669	-0.195	0.166
-351.508	-72.339	0.113	-0.042
-350.493	-81.947	0.277	-0.090
-349.479	-36.951	-0.087	-0.046
-348.464	28.659	-0.079	-0.066
-347.450	277.493	-0.137	0.241
-346.435	207.279	-0.032	0.050
-345.420	97.637	-0.191	-0.217
-344.406	-67.631	-0.140	-0.054
-343.391	717.090	0.009	-0.023
-342.377	-54.210	-0.389	0.175
-341.362	40.188	0.180	0.160
-340.348	136.885	-0.098	-0.127
-339.333	660.027	-0.125	0.318
-338.318	145.966	0.068	-0.090
-337.304	-71.310	0.249	-0.092
-336.289	-60.532	0.364	-0.153
-335.275	-138.013	0.136	0.015
-334.260	800.000	-0.010	0.029
-333.245	-36.597	-0.138	0.073
-332.231	222.696	-0.212	-0.338
-331.216	94.209	-0.087	-0.097
-330.202	0.677	0.314	-0.223
-329.187	118.921	-0.150	-0.184
-328.172	800.000	-0.050	-0.213
-327.158	-52.294	0.162	0.074
-326.143	192.000	0.175	-0.261
-325.129	106.167	0.073	-0.085
-324.114	645.171	0.104	-0.263
-323.099	17.746	0.020	-0.016
-322.085	703.011	-0.108	-0.283
-321.070	800.000	-0.083	-0.242
-320.056	-200.000	0.004	-0.030
-319.041	-200.000	-0.001	0.193
-318.026	-200.000	0.029	-0.178
-317.012	-9.443	-0.217	-0.144
-315.997	-192.632	0.079	0.001
-314.983	414.552	-0.086	-0.180
-313.968	-200.000	0.001	-0.202
-312.953	-200.000	-0.032	-0.160
-311.939	-45.313	0.127	-0.062
-310.924	479.258	0.031	0.069
-309.910	-92.314	0.193	-0.054
-308.895	-41.707	-0.285	-0.145
-307.880	800.000	-0.019	0.053
-306.866	-67.450	0.243	-0.094
-305.851	146.063	0.122	-0.162
-304.837	800.000	0.093	-0.285
-303.822	26.448	0.015	0.013
-302.807	-122.440	-0.179	0.029
-301.793	-162.670	-0.077	-0.004
-300.778	-104.424	-0.099	-0.023
-299.764	-181.799	-0.095	-0.002
-298.749	-116.623	-0.439	0.080
-297.735	-200.000	-0.061	0.303
-296.720	800.000	0.018	0.075
-295.705	-200.000	-0.028	0.175
-294.691	-200.000	0.038	-0.202
-293.676	205.327	0.091	0.140
-292.662	-54.439	0.352	0.158
-291.647	-100.568	-0.331	-0.081
-290.632	24.960	-0.248	0.203
-289.618	-121.336	-0.077	-0.013
-288.603	-40.020	0.209	0.108
-287.589	800.000	0.111	0.389
-286.574	189.190	0.149	0.221
-285.559	800.000	-0.065	-0.238
-284.545	800.000	-0.035	0.138
-283.530	-200.000	-0.010	0.203
-282.516	-63.525	0.122	0.049
-281.501	-106.263	-0.189	-0.042
-280.486	185.707	0.026	-0.038
-279.472	-56.843	-0.149	-0.065
-278.457	-200.000	-0.017	-0.114
-277.443	212.899	-0.245	0.382
-276.428	-2.948	0.145	0.100
-275.413	74.894	0.141	0.146
-274.399	-200.000	-0.061	0.368
-273.384	59.745	0.081	0.079
-272.370	-149.491	0.267	0.021
-271.355	-29.646	-0.309	-0.174
-270.340	-79.936	-0.154	0.051
-269.326	243.308	-0.050	0.083
-268.311	-200.000	-0.001	-0.230
-267.297	-67.052	0.153	0.060
-266.282	107.025	0.045	-0.053
-265.267	-128.839	0.116	0.016
-264.253	709.748	-0.016	-0.043
-263.238	86.350	0.080	-0.087
-262.224	607.052	0.160	0.393
-261.209	484.602	0.064	0.144
-260.195	-80.542	0.175	-0.058
-259.180	235.766	-0.143	-0.234
-258.165	54.939	0.255	0.243
-257.151	-125.526	0.077	-0.012
-256.136	26.711	-0.094	-0.078
-255.122	-66.359	0.424	0.167
-254.107	-200.000	-0.028	0.156
-253.092	-39.938	0.106	-0.055
-252.078	-132.099	-0.370	0.047
-251.063	-136.870	0.140	-0.016
-250.049	122.467	0.237	-0.293
-249.034	19.718	0.251	-0.199
-248.019	110.804	-0.052	-0.061
-247.005	139.046	0.136	0.176
-245.990	-107.704	-0.156	0.034
-244.976	-65.771	-0.236	0.093
-243.961	3.629	0.209	0.150
-242.946	-200.000	-0.023	-0.110
-241.932	43.803	-0.026	0.023
-240.917	800.000	0.048	0.186
-239.903	-200.000	-0.207	0.001
-238.888	252.364	0.191	0.320
-237.873	262.464	-0.226	0.387
-236.859	-49.941	0.117	-0.055
-235.844	-13.258	-0.121	-0.078
-234.830	154.554	0.200	0.272
-233.815	243.887	0.300	0.496
-232.800	800.000	0.073	0.295
-231.786	-103.934	0.102	0.023
-230.771	17.668	-0.115	0.090
-229.757	263.445	0.219	-0.375
-228.742	81.133	0.069	0.074
-227.727	800.000	0.106	0.363
-226.713	-200.000	-0.042	-0.190
-225.698	134.122	0.106	-0.135
-224.684	-114.736	-0.092	0.017
-223.669	-3.228	-0.272	-0.187
-222.655	-92.052	0.167	-0.046
-221.640	255.571	-0.134	0.226
-220.625	416.777	0.158	0.332
-219.611	-123.122	0.129	0.020
-218.596	-14.501	0.196	-0.124
-217.582	-72.713	-0.065	0.024
-216.567	46.083	-0.118	-0.107
-215.552	151.544	0.129	-0.173
-214.538	-30.836	0.229	-0.128
-213.523	800.000	0.062	0.256
-212.509	800.000	-0.040	-0.115
-211.494	-114.976	-0.077	-0.014
-210.479	-72.732	-0.110	0.040
-209.465	272.126	0.090	0.156
-208.450	429.693	0.053	0.112
-207.436	448.929	0.082	-0.177
-206.421	-200.000	-0.055	0.466
-205.406	-150.136	0.281	-0.022
-204.392	183.837	-0.212	-0.309
-203.377	-200.000	0.010	-0.095
-202.363	11.009	-0.264	-0.198
-201.348	397.755	-0.150	0.309
-200.333	-200.000	-0.022	0.144
-199.319	-88.315	0.212	0.062
-198.304	-30.449	-0.309	0.173
-197.290	-73.395	0.433	-0.156
-196.275	-104.138	0.340	-0.078
-195.260	272.088	0.046	0.080
-194.246	-74.124	0.306	0.109
-193.231	-200.000	0.000	0.198
-192.217	496.129	-0.129	-0.291
-191.202	-79.763	0.091	-0.030
-190.187	-200.000	0.039	-0.296
-189.173	-51.502	-0.317	0.146
-188.158	235.027	0.193	0.314
-187.144	423.513	-0.072	-0.153
-186.129	34.027	0.116	0.100
-185.114	-18.637	-0.111	0.068
-184.100	-200.000	-0.031	0.225
-183.085	124.285	0.216	0.267
-182.071	27.498	-0.046	-0.038
-181.056	5.228	-0.186	-0.135
-180.042	-200.000	-0.012	-0.076
-179.027	62.298	-0.275	0.270
-178.012	-107.313	0.237	-0.051
-176.998	800.000	-0.084	-0.345
-175.983	-132.007	-0.197	0.025
-174.969	146.546	0.238	0.314
-173.954	526.693	-0.024	-0.055
-172.939	-37.475	-0.333	0.175
-171.925	-141.788	0.183	0.018
-170.910	-114.800	0.180	-0.034
-169.896	-200.000	-0.014	-0.082
-168.881	684.876	0.036	-0.093
-167.866	81.782	0.152	-0.162
-166.852	-138.860	-0.147	0.016
-165.837	800.000	-0.110	-0.383
-164.823	800.000	-0.087	0.295
-163.808	-75.980	0.170	0.059
-162.793	-97.955	-0.203	-0.052
-161.779	800.000	0.094	-0.272
-160.764	-200.000	0.023	-0.475
-159.750	-200.000	-0.066	0.396
-158.735	270.851	-0.146	0.252
-157.720	86.015	0.078	0.084
-156.706	445.608	-0.011	0.023
-155.691	-200.000	-0.005	-0.120
-154.677	-85.360	0.340	0.104
-153.662	-93.790	-0.245	-0.066
-152.647	-25.407	0.209	0.122
-151.633	-105.441	0.375	-0.084
-150.618	-68.379	-0.206	-0.078
-149.604	324.365	0.098	0.185
-148.589	25.483	0.218	-0.178
-147.574	236.009	0.117	-0.190
-146.560	-45.654	-0.241	-0.117
-145.545	-154.141	-0.388	-0.026
-144.531	5.054	-0.149	0.108
-143.516	-30.498	0.161	0.090
-142.502	219.228	0.072	-0.114
-141.487	-200.000	-0.031	0.236
-140.472	339.775	0.079	-0.152
-139.458	562.373	0.067	0.160
-138.443	-19.029	-0.128	-0.078
-137.429	1.451	0.282	-0.199
-136.414	-156.089	-0.475	0.030
-135.399	8.851	0.361	0.268
-134.385	-167.122	0.286	-0.011
-133.370	445.992	-0.096	0.208
-132.356	226.846	0.192	0.306
-131.341	-200.000	0.011	-0.248
-130.326	-10.803	-0.024	-0.015
-129.312	-58.615	-0.171	-0.073
-128.297	-200.000	0.105	-0.498
-127.283	502.542	0.044	0.101
-126.268	-127.686	0.488	0.069
-125.253	200.169	-0.081	-0.123
-124.239	-87.698	-0.109	0.032
-123.224	72.917	0.105	0.108
-122.210	-97.427	0.538	0.138
-121.195	-177.960	-0.368	-0.009
