DTS Sentinel unit serial number:	SN413079Multiplexer serial number:	ORYXHardware model number:	OX4-SRSoftware version number:	ORYX F/W v4.00 Oryx Data Collector v3.7.2.0data status	okinstallation	princeton_trtdifferential loss correction	single-endedforward channel	channel 2reverse channel	N/Adate	2019/09/17time	06:31:35forward acquisition time	60.00reverse acquisition time	0.00gamma	496.2192k internal	0.2332k external	0.2332temperature offset calibration	0.9974default loss term (dB/km)	0.3790temperature slope calibration	1.0000multiplexer offset coefficient	1.0000multiplexer slope coefficient	1.0000fibre end	0.00T internal ref (°C)	28.14T ext. ref 1 (°C)	0.12T ext. ref 2 (°C)	21.47length (m)	temperature (°C)	Stokes	anti-Stokes-747.200	-200.000	-0.056	0.345
-746.185	111.009	-0.047	-0.057
-745.171	-200.000	-0.066	-0.489
-744.156	130.604	0.046	0.060
-743.142	-200.000	-0.036	0.237
-742.127	154.843	-0.178	-0.246
-741.112	800.000	0.039	-0.127
-740.098	-200.000	0.023	0.172
-739.083	140.533	-0.131	-0.174
-738.069	-81.522	-0.058	-0.019
-737.054	539.900	0.042	0.100
-736.039	800.000	-0.075	-0.271
-735.025	86.695	0.051	-0.057
-734.010	-93.036	-0.422	-0.118
-732.996	107.801	-0.127	-0.152
-731.981	-135.352	-0.169	0.020
-730.966	-161.467	-0.339	0.018
-729.952	-95.472	0.121	0.033
-728.937	148.047	0.119	-0.162
-727.923	266.703	-0.256	-0.449
-726.908	363.978	0.057	-0.116
-725.894	61.654	-0.045	0.045
-724.879	30.075	-0.252	-0.216
-723.864	-57.380	-0.064	-0.028
-722.850	-81.160	-0.215	-0.072
-721.835	-99.443	-0.245	-0.062
-720.821	-146.077	-0.185	0.016
-719.806	-150.481	-0.259	0.020
-718.791	-200.000	0.027	-0.224
-717.777	-0.886	-0.211	-0.150
-716.762	-22.965	0.168	0.102
-715.748	-200.000	0.035	0.255
-714.733	-40.014	0.119	0.062
-713.718	11.129	-0.128	-0.099
-712.704	-134.869	-0.417	-0.051
-711.689	-200.000	-0.006	-0.038
-710.675	-130.314	-0.351	0.048
-709.660	-54.425	-0.083	-0.038
-708.645	161.054	0.202	-0.283
-707.631	-200.000	0.035	-0.364
-706.616	-169.628	-0.193	-0.007
-705.602	-200.000	0.016	0.288
-704.587	85.003	0.098	0.108
-703.572	125.654	-0.191	0.242
-702.558	-200.000	0.019	0.282
-701.543	-60.540	0.216	-0.092
-700.529	-200.000	0.031	0.386
-699.514	164.188	-0.099	0.141
-698.499	237.637	-0.018	0.030
-697.485	268.556	0.179	0.316
-696.470	-146.542	-0.339	-0.030
-695.456	-177.387	0.187	-0.005
-694.441	76.941	0.226	-0.241
-693.426	-101.643	0.182	0.044
-692.412	-37.500	-0.350	0.187
-691.397	-101.541	-0.274	-0.067
-690.383	-165.111	-0.271	-0.012
-689.368	116.099	0.112	0.137
-688.354	-188.429	-0.041	-0.001
-687.339	182.926	-0.122	0.181
-686.324	105.662	0.074	-0.088
-685.310	13.104	0.134	0.104
-684.295	98.984	-0.188	-0.217
-683.281	-200.000	-0.019	-0.361
-682.266	-75.541	0.079	-0.028
-681.251	-115.856	-0.097	-0.018
-680.237	-200.000	0.021	-0.174
-679.222	281.873	-0.171	-0.308
-678.208	-200.000	0.046	0.206
-677.193	-157.754	0.075	-0.004
-676.178	-200.000	-0.035	0.398
-675.164	-43.279	-0.516	0.262
-674.149	154.577	-0.139	0.192
-673.135	-200.000	-0.019	-0.337
-672.120	210.980	-0.127	-0.200
-671.105	-94.462	0.121	0.033
-670.091	800.000	0.057	0.180
-669.076	695.325	-0.086	0.226
-668.062	162.753	0.279	0.392
-667.047	-140.237	0.309	0.032
-666.032	-51.435	-0.361	-0.169
-665.018	-9.026	-0.343	-0.230
-664.003	-172.986	0.548	0.017
-662.989	-90.732	-0.164	0.048
-661.974	-101.794	0.048	0.012
-660.959	-157.501	0.052	-0.003
-659.945	-133.495	-0.239	-0.030
-658.930	66.830	-0.298	-0.304
-657.916	-73.717	0.138	-0.050
-656.901	-57.051	-0.191	-0.084
-655.886	232.841	0.040	-0.066
-654.872	236.271	-0.133	-0.220
-653.857	-88.935	0.172	0.051
-652.843	-77.795	0.141	0.049
-651.828	-119.179	0.184	0.032
-650.814	800.000	0.052	-0.157
-649.799	-200.000	0.042	-0.451
-648.784	-200.000	0.010	-0.174
-647.770	158.277	-0.119	-0.165
-646.755	210.031	0.233	-0.367
-645.741	-200.000	0.159	0.000
-644.726	475.883	0.064	-0.146
-643.711	-149.227	0.220	0.018
-642.697	-135.584	-0.072	-0.009
-641.682	-200.000	-0.040	0.224
-640.668	-200.000	0.042	0.196
-639.653	542.761	0.074	0.176
-638.638	800.000	0.048	-0.204
-637.624	122.138	-0.073	-0.092
-636.609	-142.830	-0.564	0.055
-635.595	-19.009	0.280	0.175
-634.580	190.121	0.192	0.288
-633.565	162.449	-0.080	0.113
-632.551	67.561	-0.138	0.141
-631.536	41.565	-0.073	-0.066
-630.522	538.699	-0.132	0.313
-629.507	-17.915	-0.249	-0.157
-628.492	-87.489	-0.162	-0.049
-627.478	800.000	0.010	0.034
-626.463	-200.000	0.024	0.216
-625.449	-200.000	0.205	0.000
-624.434	110.689	0.194	0.234
-623.419	-100.984	-0.451	0.111
-622.405	-95.826	0.202	0.054
-621.390	80.887	0.209	-0.226
-620.376	153.662	0.044	0.060
-619.361	150.124	-0.195	-0.264
-618.346	800.000	-0.064	-0.245
-617.332	-193.523	-0.233	0.002
-616.317	270.977	0.154	-0.272
-615.303	-200.000	0.048	-0.258
-614.288	-200.000	-0.010	0.270
-613.273	-30.760	-0.417	0.236
-612.259	-13.225	-0.127	0.082
-611.244	-5.968	-0.032	-0.022
-610.230	30.405	-0.288	-0.246
-609.215	800.000	-0.066	0.267
-608.201	800.000	0.033	0.117
-607.186	800.000	-0.105	0.293
-606.171	76.696	-0.168	-0.178
-605.157	-65.819	0.100	-0.040
-604.142	-90.197	-0.221	-0.064
-603.128	-131.068	0.191	-0.025
-602.113	34.480	0.157	-0.137
-601.098	800.000	-0.029	0.108
-600.084	-91.689	-0.233	-0.066
-599.069	-20.845	-0.272	-0.167
-598.055	306.617	0.115	0.214
-597.040	94.650	-0.124	-0.142
-596.025	28.571	0.090	-0.076
-595.011	494.110	0.095	-0.218
-593.996	97.547	-0.070	-0.081
-592.982	-58.280	0.045	0.020
-591.967	-200.000	-0.020	-0.227
-590.952	-200.000	0.097	-0.478
-589.938	93.131	0.053	-0.060
-588.923	-96.254	-0.442	-0.117
-587.909	-115.195	-0.152	0.029
-586.894	-200.000	0.020	-0.212
-585.879	-174.723	0.203	0.006
-584.865	29.277	-0.061	-0.052
-583.850	376.745	0.041	-0.085
-582.836	-125.326	0.179	-0.027
-581.821	-200.000	0.001	0.024
-580.806	-200.000	0.010	0.227
-579.792	432.114	0.161	-0.349
-578.777	56.242	0.097	-0.094
-577.763	-200.000	-0.002	-0.072
-576.748	-200.000	0.036	-0.190
-575.733	-200.000	0.063	0.286
-574.719	99.227	0.053	0.061
-573.704	85.120	0.241	-0.264
-572.690	490.090	0.154	0.351
-571.675	-134.868	0.152	-0.018
-570.661	-187.477	-0.272	0.004
-569.646	-19.810	-0.170	-0.105
-568.631	-200.000	0.051	-0.240
-567.617	-148.603	-0.113	-0.009
-566.602	-92.513	0.348	0.098
-565.588	92.550	-0.236	-0.265
-564.573	-200.000	0.010	0.144
-563.558	221.522	0.208	0.334
-562.544	177.005	-0.219	-0.318
-561.529	800.000	0.080	-0.263
-560.515	-32.987	0.435	-0.241
-559.500	-111.925	-0.236	0.048
-558.485	800.000	-0.062	0.230
-557.471	-76.691	-0.267	-0.093
-556.456	384.966	-0.128	0.264
-555.442	-61.710	-0.242	0.101
-554.427	800.000	-0.062	0.217
-553.412	800.000	0.021	-0.061
-552.398	-200.000	0.026	-0.142
-551.383	311.705	-0.049	0.093
-550.369	93.078	-0.097	-0.110
-549.354	187.953	-0.129	0.192
-548.339	-97.624	-0.143	-0.037
-547.325	-200.000	-0.008	-0.245
-546.310	81.436	0.088	0.095
-545.296	605.789	-0.054	0.134
-544.281	800.000	0.028	0.118
-543.266	-107.766	-0.270	0.059
-542.252	172.120	-0.262	0.375
-541.237	398.572	0.257	0.537
-540.223	-30.667	-0.158	-0.089
-539.208	-93.514	0.161	-0.045
-538.193	22.346	-0.038	0.031
-537.179	-124.412	-0.150	0.023
-536.164	136.512	-0.141	-0.184
-535.150	287.620	-0.061	-0.110
-534.135	31.366	0.118	-0.101
-533.121	163.421	-0.005	0.007
-532.106	-68.424	-0.290	0.112
-531.091	-200.000	-0.005	-0.259
-530.077	-7.885	0.246	0.165
-529.062	-104.837	0.333	0.076
-528.048	13.048	0.092	-0.071
-527.033	371.720	-0.162	-0.329
-526.018	95.506	0.205	-0.233
-525.004	-185.344	-0.185	-0.003
-523.989	-200.000	0.010	0.171
-522.975	362.317	-0.170	0.339
-521.960	-3.954	-0.185	-0.128
-520.945	-164.824	0.256	-0.011
-519.931	-50.547	-0.302	-0.142
-518.916	385.130	-0.114	-0.234
-517.902	-37.217	-0.224	-0.119
-516.887	-200.000	-0.003	0.234
-515.872	83.898	-0.119	-0.130
-514.858	-200.000	-0.048	-0.304
-513.843	800.000	-0.097	-0.348
-512.829	800.000	-0.012	0.033
-511.814	-200.000	0.000	-0.102
-510.799	112.766	-0.253	0.305
-509.785	800.000	0.114	-0.377
-508.770	129.314	-0.153	-0.194
-507.756	-200.000	-0.002	0.247
-506.741	-23.574	-0.453	-0.271
-505.726	46.827	0.229	0.212
-504.712	120.436	0.095	0.117
-503.697	-6.613	-0.081	-0.055
-502.683	-34.973	-0.212	0.115
-501.668	40.737	0.418	-0.376
-500.653	136.845	-0.267	-0.347
-499.639	-200.000	-0.061	0.436
-498.624	2.426	0.452	0.326
-497.610	162.812	0.133	0.186
-496.595	83.634	-0.180	-0.195
-495.581	-96.797	0.140	0.037
-494.566	-123.265	-0.284	0.045
-493.551	-32.052	0.359	-0.200
-492.537	-200.000	0.023	0.239
-491.522	-18.045	0.231	-0.144
-490.508	-118.006	-0.074	-0.013
-489.493	0.144	-0.492	-0.349
-488.478	87.427	0.089	0.098
-487.464	-126.473	0.074	0.011
-486.449	-200.000	0.031	-0.438
-485.435	111.637	0.188	-0.225
-484.420	-200.000	-0.006	-0.342
-483.405	789.983	0.043	-0.117
-482.391	-96.633	-0.251	0.066
-481.376	-94.006	-0.262	-0.072
-480.362	362.832	-0.098	0.195
-479.347	89.999	-0.237	-0.264
-478.332	254.539	-0.085	0.145
-477.318	108.438	-0.194	0.230
-476.303	-132.766	-0.167	-0.021
-475.289	13.280	0.174	0.135
-474.274	751.081	-0.073	-0.195
-473.259	-200.000	-0.008	-0.201
-472.245	-200.000	0.001	0.137
-471.230	800.000	0.053	0.216
-470.216	-120.060	0.226	0.039
-469.201	-136.835	0.200	-0.023
-468.186	-145.396	0.278	0.025
-467.172	-124.078	-0.200	0.031
-466.157	-74.086	0.206	-0.074
-465.143	-26.198	-0.088	-0.052
-464.128	800.000	0.088	0.242
-463.113	6.095	0.082	-0.060
-462.099	232.185	0.167	0.273
-461.084	430.607	-0.141	0.303
-460.070	-62.482	0.224	-0.092
-459.055	150.969	-0.182	-0.246
-458.040	-14.536	0.151	0.097
-457.026	-134.901	-0.227	-0.027
-456.011	21.237	-0.044	0.035
-454.997	196.210	0.069	-0.105
-453.982	-68.401	0.215	0.083
-452.968	800.000	0.028	-0.095
-451.953	252.210	-0.043	0.073
-450.938	-82.033	-0.475	-0.154
-449.924	-27.496	0.248	-0.143
-448.909	84.991	-0.049	-0.054
-447.895	-82.457	0.259	-0.084
-446.880	3.573	-0.301	-0.218
-445.865	-82.669	0.281	-0.090
-444.851	800.000	0.018	-0.063
-443.836	800.000	-0.065	0.195
-442.822	-104.124	0.306	-0.071
-441.807	2.107	0.220	0.158
-440.792	211.453	-0.105	0.164
-439.778	43.197	0.114	-0.103
-438.763	285.913	-0.091	0.163
-437.749	231.142	0.080	0.130
-436.734	-200.000	-0.035	0.203
-435.719	-93.658	0.213	0.058
-434.705	-150.860	0.359	-0.027
-433.690	478.114	-0.067	-0.150
-432.676	-200.000	-0.029	0.135
-431.661	-95.003	0.173	0.046
-430.646	-136.545	0.377	-0.043
-429.632	800.000	0.040	0.141
-428.617	-95.079	0.082	-0.022
-427.603	20.934	-0.347	-0.280
-426.588	-200.000	-0.008	0.152
-425.573	-39.315	-0.197	-0.103
-424.559	-142.412	-0.169	0.017
-423.544	-15.644	0.273	0.173
-422.530	-143.816	0.121	0.011
-421.515	-200.000	-0.034	-0.215
-420.500	100.301	0.368	-0.425
-419.486	-200.000	0.033	-0.230
-418.471	170.525	0.166	-0.237
-417.457	800.000	-0.055	0.150
-416.442	-30.726	0.032	-0.018
-415.428	-97.907	-0.312	0.080
-414.413	-124.210	-0.435	0.068
-413.398	-22.381	-0.082	-0.050
-412.384	-80.573	0.081	-0.027
-411.369	-136.630	0.191	0.022
-410.355	281.759	-0.058	0.103
-409.340	-163.811	0.128	-0.006
-408.325	169.716	-0.156	-0.222
-407.311	-200.000	-0.023	-0.370
-406.296	-96.446	0.157	-0.041
-405.282	63.009	0.175	-0.174
-404.267	-135.342	-0.165	-0.020
-403.252	-118.428	-0.107	-0.019
-402.238	-84.721	-0.198	0.062
-401.223	-183.563	-0.106	-0.002
-400.209	-172.765	0.079	0.002
-399.194	-4.728	-0.305	0.209
-398.179	-65.330	-0.139	0.056
-397.165	169.896	-0.229	0.325
-396.150	-200.000	-0.000	-0.010
-395.136	64.518	-0.180	0.180
-394.121	-120.574	0.287	0.048
-393.106	8.146	0.148	-0.111
-392.092	-38.979	-0.184	-0.096
-391.077	-200.000	-0.057	0.409
-390.063	-96.209	0.431	-0.114
-389.048	-78.683	-0.178	0.060
-388.033	73.892	-0.059	-0.061
-387.019	471.919	-0.100	0.222
-386.004	800.000	0.006	0.018
-384.990	-200.000	0.044	-0.244
-383.975	-68.396	0.124	0.048
-382.960	-78.626	-0.348	-0.118
-381.946	-157.965	-0.108	0.006
-380.931	696.242	0.089	0.233
-379.917	-200.000	0.002	0.070
-378.902	181.357	0.138	0.201
-377.888	23.015	0.151	0.123
-376.873	800.000	-0.001	-0.005
-375.858	311.464	0.070	-0.131
-374.844	-200.000	0.010	0.202
-373.829	69.648	-0.277	0.283
-372.815	-172.460	0.216	0.007
-371.800	221.083	0.271	0.432
-370.785	-177.432	0.172	-0.004
-369.771	-35.769	-0.215	-0.116
-368.756	63.499	0.099	0.098
-367.742	-200.000	-0.036	-0.226
-366.727	800.000	-0.019	-0.061
-365.712	800.000	-0.042	0.146
-364.698	22.283	-0.063	-0.051
-363.683	259.785	0.053	0.090
-362.669	276.985	0.091	-0.161
-361.654	-55.700	0.347	-0.154
-360.639	-88.935	-0.180	0.053
-359.625	-37.291	-0.079	-0.042
-358.610	-138.684	0.475	-0.051
-357.596	-200.000	0.037	-0.268
-356.581	349.209	-0.047	-0.093
-355.566	-76.996	-0.090	-0.031
-354.552	-39.702	0.192	-0.100
-353.537	120.661	0.023	0.028
-352.523	800.000	-0.038	0.121
-351.508	140.744	0.124	0.162
-350.493	597.466	0.105	0.257
-349.479	-52.006	0.215	0.099
-348.464	800.000	-0.065	0.214
-347.450	434.034	-0.089	-0.191
-346.435	-200.000	-0.010	-0.046
-345.420	44.706	-0.374	-0.341
-344.406	-94.024	-0.306	0.083
-343.391	518.821	-0.121	0.280
-342.377	350.420	0.161	0.316
-341.362	313.443	-0.094	0.175
-340.348	5.488	0.342	-0.250
-339.333	404.344	-0.131	0.274
-338.318	800.000	0.042	-0.149
-337.304	800.000	0.075	0.228
-336.289	-84.282	-0.070	0.022
-335.275	23.089	-0.152	-0.123
-334.260	-200.000	-0.022	-0.292
-333.245	-15.524	0.368	-0.232
-332.231	-125.106	-0.256	0.039
-331.216	86.769	-0.042	0.046
-330.202	412.208	-0.099	0.208
-329.187	-200.000	-0.088	0.000
-328.172	-78.250	-0.058	0.020
-327.158	362.480	-0.059	-0.117
-326.143	214.275	-0.092	-0.144
-325.129	712.980	-0.059	-0.155
-324.114	54.987	0.054	-0.052
-323.099	-82.863	0.075	0.024
-322.085	85.325	-0.064	0.070
-321.070	759.412	-0.069	-0.184
-320.056	203.720	0.186	0.284
-319.041	180.679	0.140	0.203
-318.026	53.396	0.183	0.173
-317.012	-37.163	-0.300	0.159
-315.997	63.990	0.343	-0.341
-314.983	266.988	0.186	0.322
-313.968	93.091	-0.148	-0.165
-312.953	-200.000	0.061	0.273
-311.939	-95.324	0.263	0.070
-310.924	-35.403	0.171	-0.092
-309.910	170.901	-0.149	-0.211
-308.895	800.000	-0.050	-0.158
-307.880	45.261	-0.130	-0.119
-306.866	800.000	-0.019	-0.052
-305.851	-79.442	0.250	-0.084
-304.837	-62.796	-0.156	0.064
-303.822	-0.828	0.127	0.089
-302.807	-200.000	-0.040	0.230
-301.793	-106.911	0.053	0.012
-300.778	800.000	0.094	0.273
-299.764	542.610	0.051	-0.121
-298.749	127.401	0.241	-0.303
-297.735	271.431	-0.027	0.047
-296.720	-2.084	-0.163	-0.114
-295.705	-58.391	0.229	0.099
-294.691	-97.078	0.059	0.015
-293.676	800.000	-0.084	-0.310
-292.662	800.000	0.024	-0.077
-291.647	-169.719	0.134	-0.005
-290.632	258.526	-0.092	-0.157
-289.618	689.041	-0.132	0.340
-288.603	-168.180	-0.169	0.006
-287.589	-181.859	0.151	-0.003
-286.574	-200.000	-0.087	0.423
-285.559	-90.548	-0.124	-0.035
-284.545	-200.000	-0.044	0.228
-283.530	130.267	-0.162	-0.205
-282.516	447.387	0.081	-0.177
-281.501	-145.368	-0.384	0.034
-280.486	-144.763	0.275	-0.025
-279.472	579.503	0.067	-0.162
-278.457	800.000	0.063	0.270
-277.443	62.756	-0.128	-0.126
-276.428	-72.493	-0.216	-0.079
-275.413	-40.575	0.185	-0.095
-274.399	-106.313	0.258	0.057
-273.384	-8.133	0.113	-0.075
-272.370	-132.333	-0.418	-0.053
-271.355	89.271	-0.074	0.082
-270.340	-32.581	0.064	-0.035
-269.326	-200.000	-0.036	0.290
-268.311	-67.553	0.106	-0.041
-267.297	800.000	0.076	-0.296
-266.282	-123.518	0.473	0.074
-265.267	518.673	-0.066	-0.152
-264.253	25.265	-0.147	0.121
-263.238	109.809	-0.132	-0.156
-262.224	23.972	0.094	-0.077
-261.209	22.607	0.266	-0.215
-260.195	-200.000	0.002	0.192
-259.180	-200.000	0.005	-0.111
-258.165	5.001	0.296	0.215
-257.151	117.547	-0.367	0.445
-256.136	729.117	-0.023	0.062
-255.122	-0.294	0.230	0.162
-254.107	29.986	-0.265	-0.223
-253.092	-30.279	0.281	0.158
-252.078	-41.468	-0.150	0.076
-251.063	-92.842	0.169	0.047
-250.049	92.743	0.049	0.055
-249.034	800.000	-0.129	0.416
-248.019	476.932	0.147	0.327
-247.005	800.000	0.119	0.446
-245.990	-102.466	0.267	-0.063
-244.976	-68.921	-0.308	-0.117
-243.961	748.859	0.099	0.264
-242.946	-34.775	0.376	-0.203
-241.932	-200.000	-0.136	-0.000
-240.917	-75.617	-0.363	0.127
-239.903	800.000	-0.020	-0.073
-238.888	27.577	0.181	-0.151
-237.873	77.226	-0.227	0.238
-236.859	800.000	-0.061	0.171
-235.844	7.773	0.132	0.098
-234.830	198.424	-0.039	-0.058
-233.815	-118.564	0.232	-0.040
-232.800	800.000	0.050	-0.193
-231.786	-127.911	-0.254	0.036
-230.771	-52.329	0.277	-0.126
-229.757	94.592	-0.357	0.400
-228.742	498.192	-0.060	0.135
-227.727	-139.374	-0.243	-0.026
-226.713	-78.695	0.016	0.005
-225.698	-13.760	-0.074	-0.047
-224.684	160.180	-0.059	-0.081
-223.669	122.108	0.091	0.112
-222.655	-92.463	0.345	0.095
-221.640	-126.793	-0.214	-0.031
-220.625	232.913	-0.231	-0.373
-219.611	-138.891	-0.169	-0.018
-218.596	159.954	0.097	-0.134
-217.582	67.202	0.120	-0.121
-216.567	800.000	-0.028	-0.101
-215.552	3.387	0.063	0.045
-214.538	277.253	-0.048	-0.084
-213.523	15.072	0.192	0.148
-212.509	-110.658	-0.270	0.055
-211.494	-129.405	0.023	0.003
-210.479	266.259	-0.129	0.222
-209.465	361.358	-0.055	-0.108
-208.450	-50.493	0.116	-0.054
-207.436	-200.000	0.001	0.314
-206.421	800.000	0.069	0.205
-205.406	9.565	0.033	0.025
-204.392	-72.865	-0.301	-0.109
-203.377	-200.000	0.006	0.229
-202.363	496.975	-0.009	-0.021
-201.348	-98.130	0.215	-0.054
-200.333	19.195	0.121	0.095
-199.319	669.274	-0.101	0.258
-198.304	54.634	-0.161	0.153
-197.290	133.491	0.043	0.055
-196.275	-34.781	0.080	0.043
-195.260	800.000	-0.057	0.234
-194.246	58.991	0.080	-0.078
-193.231	-200.000	0.013	0.061
-192.217	231.003	0.127	-0.204
-191.202	-73.693	0.409	0.146
-190.187	50.374	-0.115	0.107
-189.173	34.714	0.104	-0.090
-188.158	-200.000	-0.016	0.150
-187.144	77.214	0.253	-0.264
-186.129	-141.152	0.237	0.024
-185.114	297.121	0.147	0.266
-184.100	-200.000	0.009	-0.079
-183.085	102.688	0.023	-0.027
-182.071	139.983	-0.077	0.100
-181.056	-170.311	-0.161	-0.006
-180.042	-89.558	0.131	0.038
-179.027	-140.805	0.255	0.026
-178.012	-200.000	0.197	0.001
-176.998	311.264	0.035	-0.064
-175.983	389.163	-0.092	0.188
-174.969	286.164	-0.140	-0.249
-173.954	86.156	0.023	-0.025
-172.939	171.087	0.142	-0.200
-171.925	67.934	-0.086	-0.086
-170.910	347.739	-0.085	-0.164
-169.896	-200.000	-0.006	-0.328
-168.881	-200.000	-0.002	0.028
-167.866	-147.501	-0.261	-0.022
-166.852	-83.332	0.130	0.041
-165.837	-60.766	-0.188	0.078
-164.823	-200.000	-0.035	0.279
-163.808	-65.964	0.151	-0.059
-162.793	55.856	0.150	-0.143
-161.779	-200.000	0.006	0.200
-160.764	18.780	-0.058	0.045
-159.750	-200.000	-0.002	0.041
-158.735	177.009	-0.079	0.113
-157.720	-95.339	-0.228	0.060
-156.706	-140.825	0.318	-0.032
-155.691	105.839	0.216	-0.251
-154.677	101.619	-0.151	-0.174
-153.662	-60.022	0.119	0.050
-152.647	800.000	0.076	-0.233
-151.633	266.347	-0.053	0.090
-150.618	-22.211	0.072	-0.043
-149.604	164.164	-0.154	-0.214
-148.589	-129.225	-0.186	-0.025
-147.574	-32.453	0.257	-0.141
-146.560	-200.000	-0.028	0.302
-145.545	28.332	0.101	-0.084
-144.531	-149.231	-0.084	0.007
-143.516	-49.706	0.117	0.055
-142.502	-130.427	-0.143	-0.019
-141.487	112.727	-0.142	0.169
-140.472	-80.303	-0.250	0.082
-139.458	-148.115	0.366	0.030
-138.443	-163.083	-0.317	-0.015
-137.429	32.329	-0.225	-0.191
-136.414	-85.665	-0.217	0.066
-135.399	4.536	0.150	-0.108
-134.385	-35.447	-0.249	0.133
-133.370	284.597	0.188	-0.333
-132.356	48.816	-0.202	-0.186
-131.341	155.083	-0.085	0.115
-130.326	178.567	0.248	0.356
-129.312	227.574	-0.077	0.123
-128.297	669.161	-0.148	0.375
-127.283	-44.174	0.381	0.188
-126.268	458.122	-0.146	0.318
-125.253	674.374	-0.123	0.315
-124.239	8.843	0.223	-0.165
-123.224	-113.609	-0.107	0.021
-122.210	-99.950	0.261	0.064
-121.195	298.912	0.118	0.213
