DTS Sentinel unit serial number:	SN413079Multiplexer serial number:	ORYXHardware model number:	OX4-SRSoftware version number:	ORYX F/W v4.00 Oryx Data Collector v3.7.2.0data status	okinstallation	princeton_trtdifferential loss correction	single-endedforward channel	channel 2reverse channel	N/Adate	2019/09/11time	23:45:11forward acquisition time	60.00reverse acquisition time	0.00gamma	496.2192k internal	0.2325k external	0.2325temperature offset calibration	1.0085default loss term (dB/km)	0.3790temperature slope calibration	1.0000multiplexer offset coefficient	1.0000multiplexer slope coefficient	1.0000fibre end	0.00T internal ref (°C)	34.02T ext. ref 1 (°C)	1.95T ext. ref 2 (°C)	27.41length (m)	temperature (°C)	Stokes	anti-Stokes-747.200	503.089	-0.102	0.237
-746.185	78.418	-0.240	0.259
-745.171	800.000	-0.068	0.191
-744.156	-14.887	0.069	-0.045
-743.142	659.728	0.151	0.391
-742.127	-93.080	0.426	0.120
-741.112	118.249	0.062	-0.077
-740.098	-17.156	-0.254	-0.162
-739.083	-55.002	0.308	-0.140
-738.069	800.000	0.108	0.391
-737.054	32.663	-0.103	-0.090
-736.039	-161.683	0.338	-0.017
-735.025	-40.939	-0.047	-0.025
-734.010	60.374	-0.133	-0.133
-732.996	-200.000	0.015	-0.144
-731.981	-200.000	-0.078	-0.641
-730.966	150.590	0.044	0.060
-729.952	-0.148	-0.277	-0.199
-728.937	-89.578	-0.173	-0.051
-727.923	441.423	-0.109	0.240
-726.908	96.001	-0.134	0.154
-725.894	-200.000	-0.096	-0.470
-724.879	44.006	-0.391	-0.362
-723.864	-200.000	0.005	0.166
-722.850	181.852	0.110	0.164
-721.835	28.356	-0.304	0.259
-720.821	32.405	0.175	0.152
-719.806	-17.176	-0.109	0.069
-718.791	800.000	-0.028	-0.078
-717.777	-123.124	-0.218	0.035
-716.762	-68.320	-0.111	-0.043
-715.748	-200.000	0.002	-0.100
-714.733	-112.249	-0.130	0.026
-713.718	800.000	0.032	-0.121
-712.704	-27.747	-0.190	0.111
-711.689	-158.196	0.196	0.012
-710.675	90.797	0.206	0.233
-709.660	800.000	0.017	0.052
-708.645	-41.451	-0.083	-0.043
-707.631	53.035	-0.140	-0.135
-706.616	-180.024	-0.148	0.003
-705.602	-200.000	-0.022	-0.372
-704.587	800.000	-0.022	-0.082
-703.572	-42.258	-0.232	0.120
-702.558	-146.434	0.215	0.019
-701.543	-121.795	0.424	0.071
-700.529	19.279	-0.155	0.125
-699.514	-196.100	0.164	0.001
-698.499	-68.632	-0.169	0.066
-697.485	-195.796	-0.160	0.001
-696.470	-132.328	-0.165	0.021
-695.456	-200.000	0.026	0.215
-694.441	475.198	0.053	0.121
-693.426	2.267	0.183	0.133
-692.412	36.090	-0.107	-0.095
-691.397	-64.887	-0.063	0.026
-690.383	432.406	0.056	-0.122
-689.368	-93.309	-0.169	0.047
-688.354	-7.197	-0.220	-0.151
-687.339	-200.000	0.005	0.100
-686.324	800.000	-0.043	0.164
-685.310	800.000	0.056	0.185
-684.295	69.604	-0.108	0.112
-683.281	-200.000	0.023	0.215
-682.266	-48.086	0.406	-0.198
-681.251	-15.909	0.207	0.133
-680.237	211.957	0.311	0.494
-679.222	58.201	-0.219	0.216
-678.208	315.182	0.138	-0.262
-677.193	-58.410	-0.171	-0.075
-676.178	450.839	-0.075	-0.166
-675.164	-129.655	-0.377	0.052
-674.149	-76.833	-0.123	-0.043
-673.135	-87.396	0.181	0.055
-672.120	182.251	-0.031	-0.045
-671.105	496.176	-0.085	-0.196
-670.091	-200.000	0.019	-0.260
-669.076	192.721	0.090	0.137
-668.062	143.444	0.140	0.187
-667.047	-39.087	-0.094	-0.049
-666.032	88.281	0.174	0.194
-665.018	800.000	-0.014	0.041
-664.003	26.490	-0.246	0.207
-662.989	271.744	0.186	0.330
-661.974	105.103	0.026	-0.031
-660.959	-200.000	0.020	-0.134
-659.945	800.000	0.049	0.136
-658.930	464.444	0.055	-0.124
-657.916	168.531	-0.048	0.069
-656.901	107.299	-0.143	0.171
-655.886	-200.000	0.019	-0.112
-654.872	800.000	-0.039	0.137
-653.857	-93.465	-0.128	0.036
-652.843	39.198	-0.107	-0.097
-651.828	-143.019	-0.224	-0.022
-650.814	-7.628	0.203	0.138
-649.799	401.671	-0.084	-0.176
-648.784	31.907	0.292	-0.252
-647.770	-80.453	0.101	-0.034
-646.755	800.000	0.082	-0.271
-645.741	531.491	-0.059	-0.139
-644.726	23.003	0.074	-0.061
-643.711	-75.575	0.075	-0.027
-642.697	-75.442	0.328	-0.117
-641.682	315.167	0.101	0.192
-640.668	6.893	-0.054	0.040
-639.653	93.546	-0.206	-0.234
-638.638	120.172	0.040	0.050
-637.624	-110.137	0.175	-0.037
-636.609	-200.000	-0.040	-0.328
-635.595	0.202	0.232	0.167
-634.580	-200.000	0.029	-0.130
-633.565	60.562	0.124	-0.123
-632.551	-55.219	-0.194	-0.088
-631.536	-41.767	0.013	-0.006
-630.522	-128.730	-0.245	0.035
-629.507	-200.000	-0.050	-0.334
-628.492	64.728	0.032	-0.033
-627.478	213.480	-0.202	0.321
-626.463	-12.731	-0.104	0.068
-625.449	800.000	0.097	-0.270
-624.434	89.980	-0.341	0.383
-623.419	9.410	0.188	0.143
-622.405	-79.845	0.156	0.053
-621.390	200.018	0.078	0.120
-620.376	134.789	0.064	-0.084
-619.361	-162.554	0.220	0.011
-618.346	-200.000	0.012	-0.107
-617.332	800.000	-0.036	0.145
-616.317	-78.836	-0.542	0.185
-615.303	-132.017	-0.077	0.010
-614.288	468.206	0.119	-0.267
-613.273	800.000	-0.055	-0.236
-612.259	-200.000	-0.026	0.388
-611.244	-200.000	0.006	0.121
-610.230	-47.982	-0.145	-0.071
-609.215	-114.889	-0.246	0.047
-608.201	-21.857	-0.087	0.053
-607.186	-200.000	-0.056	-0.339
-606.171	-128.519	-0.050	-0.007
-605.157	59.669	0.286	-0.283
-604.142	-200.000	-0.019	0.126
-603.128	50.550	-0.217	0.206
-602.113	418.602	-0.045	-0.096
-601.098	800.000	-0.057	-0.172
-600.084	47.519	-0.211	-0.197
-599.069	345.521	0.164	-0.323
-598.055	-108.487	0.298	0.064
-597.040	461.538	0.126	0.283
-596.025	-29.654	-0.042	0.024
-595.011	146.717	-0.151	0.203
-593.996	800.000	-0.053	-0.232
-592.982	33.480	-0.076	-0.066
-591.967	800.000	-0.110	-0.308
-590.952	150.000	-0.095	-0.130
-589.938	77.295	-0.116	0.124
-588.923	-54.024	-0.165	0.075
-587.909	123.026	-0.296	-0.372
-586.894	-200.000	0.018	-0.197
-585.879	-13.537	0.103	0.067
-584.865	-23.207	-0.152	0.092
-583.850	-200.000	0.005	-0.147
-582.836	250.245	-0.053	0.090
-581.821	95.975	-0.047	0.054
-580.806	127.852	-0.043	-0.055
-579.792	498.117	0.238	-0.549
-578.777	152.906	0.099	-0.135
-577.763	-20.995	-0.517	-0.317
-576.748	-31.798	-0.361	-0.203
-575.733	333.163	-0.046	-0.089
-574.719	-200.000	-0.002	0.063
-573.704	-88.407	-0.072	-0.021
-572.690	800.000	-0.040	-0.156
-571.675	362.541	-0.182	-0.366
-570.661	211.679	-0.143	-0.225
-569.646	-133.505	0.138	-0.017
-568.631	-80.541	0.019	-0.006
-567.617	35.279	0.147	-0.129
-566.602	-120.433	-0.339	0.058
-565.588	590.724	0.015	0.038
-564.573	-200.000	0.014	0.231
-563.558	-63.242	0.026	-0.011
-562.544	-200.000	0.003	-0.100
-561.529	-148.830	0.203	0.016
-560.515	33.208	0.087	-0.076
-559.500	33.615	-0.190	0.165
-558.485	-13.360	0.084	-0.055
-557.471	-85.949	0.162	0.050
-556.456	-29.093	-0.154	0.088
-555.442	44.065	0.210	0.193
-554.427	106.046	0.184	-0.218
-553.412	85.187	0.180	-0.198
-552.398	-6.707	0.212	-0.144
-551.383	296.911	-0.051	0.094
-550.369	-111.519	-0.303	-0.062
-549.354	-34.279	0.172	-0.095
-548.339	-136.391	-0.223	-0.026
-547.325	-33.594	-0.165	-0.091
-546.310	286.194	-0.066	0.119
-545.296	-158.752	-0.217	0.012
-544.281	564.307	-0.073	-0.177
-543.266	-200.000	0.042	-0.237
-542.252	-200.000	0.015	0.104
-541.237	77.639	-0.142	0.151
-540.223	235.475	-0.207	0.342
-539.208	800.000	0.052	0.191
-538.193	-127.415	-0.007	-0.001
-537.179	-70.826	0.197	0.075
-536.164	800.000	-0.127	0.449
-535.150	86.638	0.138	0.152
-534.135	-94.331	0.095	-0.026
-533.121	-16.135	-0.191	0.121
-532.106	800.000	-0.142	-0.448
-531.091	108.302	0.250	-0.299
-530.077	-72.750	-0.273	0.101
-529.062	-172.467	-0.308	0.010
-528.048	30.003	0.076	-0.065
-527.033	-200.000	0.058	0.368
-526.018	-200.000	0.007	0.104
-525.004	-200.000	-0.043	0.244
-523.989	3.242	-0.065	-0.048
-522.975	21.202	-0.078	-0.063
-521.960	-200.000	0.007	0.074
-520.945	62.732	-0.176	-0.176
-519.931	-18.413	-0.142	-0.089
-518.916	52.331	0.122	0.116
-517.902	-175.773	-0.207	0.006
-516.887	7.746	0.158	-0.118
-515.872	-68.055	0.024	-0.009
-514.858	242.301	0.068	-0.114
-513.843	-200.000	-0.024	0.164
-512.829	-200.000	0.046	-0.425
-511.814	-200.000	0.048	0.360
-510.799	800.000	-0.038	0.165
-509.785	80.373	-0.219	0.236
-508.770	345.913	0.019	-0.037
-507.756	243.080	0.207	0.346
-506.741	-104.556	-0.263	-0.061
-505.726	800.000	0.091	-0.390
-504.712	-150.961	0.266	-0.020
-503.697	283.467	0.078	-0.139
-502.683	16.613	0.274	0.216
-501.668	-135.334	-0.088	-0.010
-500.653	-106.084	0.185	-0.042
-499.639	-161.815	-0.370	0.019
-498.624	153.658	0.112	0.153
-497.610	-4.142	0.108	0.075
-496.595	-200.000	0.060	-0.297
-495.581	-178.817	0.304	-0.007
-494.566	-118.790	-0.156	0.027
-493.551	97.381	-0.152	0.175
-492.537	128.515	0.226	0.287
-491.522	-123.116	-0.163	0.026
-490.508	-17.576	-0.190	-0.119
-489.493	-46.265	0.270	-0.133
-488.478	-37.734	0.280	0.149
-487.464	22.196	0.116	0.095
-486.449	-22.760	-0.387	-0.234
-485.435	800.000	0.129	-0.381
-484.420	-12.022	0.154	-0.101
-483.405	-200.000	-0.037	-0.175
-482.391	-51.308	0.027	-0.013
-481.376	-96.160	-0.331	-0.088
-480.362	23.575	0.024	-0.020
-479.347	5.999	-0.216	0.160
-478.332	-82.877	-0.346	-0.112
-477.318	800.000	-0.127	0.373
-476.303	501.305	0.107	-0.247
-475.289	-128.625	0.236	-0.033
-474.274	155.854	0.209	-0.287
-473.259	106.253	0.114	0.135
-472.245	800.000	-0.129	0.436
-471.230	-132.342	0.156	-0.020
-470.216	-154.510	-0.147	-0.010
-469.201	-87.218	-0.144	-0.044
-468.186	388.795	-0.064	-0.132
-467.172	-2.433	0.075	0.053
-466.157	-89.238	-0.283	0.083
-465.143	24.858	0.085	0.071
-464.128	-27.269	-0.122	-0.071
-463.113	7.271	0.127	0.094
-462.099	-200.000	0.076	0.397
-461.084	16.203	0.129	0.102
-460.070	304.164	-0.110	0.204
-459.055	-138.549	-0.414	-0.045
-458.040	-73.141	-0.171	-0.062
-457.026	-155.279	0.033	0.002
-456.011	-39.694	-0.219	-0.115
-454.997	-18.460	0.208	0.129
-453.982	80.420	-0.077	-0.083
-452.968	184.805	-0.134	0.198
-451.953	-200.000	-0.012	-0.242
-450.938	-100.437	-0.291	-0.072
-449.924	-0.949	0.090	0.064
-448.909	-200.000	-0.012	0.319
-447.895	-200.000	-0.003	0.104
-446.880	364.439	-0.098	0.197
-445.865	241.176	0.068	-0.113
-444.851	7.605	-0.157	-0.117
-443.836	-141.112	-0.125	0.013
-442.822	-23.679	0.207	0.124
-441.807	221.549	0.079	-0.126
-440.792	-200.000	-0.014	-0.074
-439.778	266.073	-0.084	0.146
-438.763	-106.648	0.347	-0.077
-437.749	-85.421	0.091	-0.028
-436.734	-200.000	0.041	0.417
-435.719	-9.789	0.229	0.152
-434.705	-19.718	0.314	-0.194
-433.690	800.000	-0.136	-0.380
-432.676	-152.956	-0.176	-0.012
-431.661	-12.078	0.111	-0.072
-430.646	139.272	-0.038	-0.050
-429.632	219.704	-0.034	-0.053
-428.617	-76.115	-0.263	0.092
-427.603	7.643	0.111	-0.082
-426.588	680.318	-0.136	0.354
-425.573	534.187	0.046	0.109
-424.559	800.000	0.029	0.098
-423.544	-200.000	0.030	0.317
-422.530	16.956	0.146	0.115
-421.515	216.572	0.126	0.199
-420.500	-40.563	-0.082	-0.042
-419.486	-200.000	-0.042	0.187
-418.471	-200.000	0.025	0.407
-417.457	-55.278	-0.138	0.062
-416.442	165.251	-0.100	-0.141
-415.428	800.000	0.015	-0.062
-414.413	88.775	0.118	-0.131
-413.398	-14.815	-0.332	0.212
-412.384	-128.097	0.281	0.040
-411.369	-130.549	-0.125	-0.017
-410.355	173.696	0.084	0.121
-409.340	800.000	-0.057	0.205
-408.325	29.527	0.269	0.228
-407.311	-146.019	0.177	0.016
-406.296	510.392	0.093	0.216
-405.282	122.762	0.069	-0.086
-404.267	161.923	-0.071	-0.099
-403.252	79.559	0.173	-0.185
-402.238	-112.223	0.082	-0.016
-401.223	-200.000	-0.003	-0.115
-400.209	-130.487	-0.201	-0.027
-399.194	-122.524	-0.030	0.005
-398.179	142.050	-0.090	-0.119
-397.165	1.903	0.218	-0.156
-396.150	417.676	0.075	0.160
-395.136	0.598	0.210	0.150
-394.121	342.696	-0.142	0.278
-393.106	-103.281	0.160	0.038
-392.092	-154.313	0.322	0.022
-391.077	443.556	0.192	0.418
-390.063	800.000	0.015	0.055
-389.048	-146.489	0.221	0.019
-388.033	-200.000	-0.008	-0.053
-387.019	420.426	-0.107	-0.227
-386.004	800.000	0.044	-0.158
-384.990	-67.709	-0.298	0.116
-383.975	800.000	-0.058	-0.190
-382.960	-200.000	-0.022	-0.183
-381.946	91.627	0.095	0.106
-380.931	-141.431	-0.219	0.022
-379.917	-200.000	0.002	0.199
-378.902	-112.116	-0.231	0.046
-377.888	228.551	-0.205	-0.333
-376.873	433.013	-0.077	-0.165
-375.858	-200.000	-0.002	-0.093
-374.844	-200.000	0.065	0.304
-373.829	-41.657	0.453	-0.232
-372.815	-123.672	0.149	0.023
-371.800	-76.068	-0.183	0.064
-370.785	58.412	0.179	0.175
-369.771	-85.541	-0.230	0.071
-368.756	-96.055	0.288	0.076
-367.742	-200.000	0.001	-0.200
-366.727	800.000	0.027	0.115
-365.712	150.947	-0.059	-0.079
-364.698	-200.000	0.047	0.208
-363.683	109.736	-0.046	-0.055
-362.669	475.858	-0.042	-0.093
-361.654	-49.667	0.228	-0.108
-360.639	0.314	0.175	0.124
-359.625	-200.000	0.031	0.172
-358.610	-200.000	0.010	0.144
-357.596	800.000	0.050	-0.143
-356.581	-200.000	0.038	0.325
-355.566	-200.000	-0.013	-0.180
-354.552	312.416	0.180	0.337
-353.537	67.826	0.102	-0.104
-352.523	-89.485	0.175	-0.051
-351.508	-196.549	-0.253	0.002
-350.493	39.286	-0.070	0.062
-349.479	-15.532	0.145	-0.092
-348.464	-58.152	-0.202	-0.087
-347.450	153.540	-0.055	0.075
-346.435	-19.043	0.032	-0.020
-345.420	-95.833	-0.484	0.128
-344.406	-24.944	0.299	-0.176
-343.391	33.722	0.083	-0.072
-342.377	-200.000	-0.024	-0.325
-341.362	800.000	0.016	-0.059
-340.348	553.848	-0.030	-0.072
-339.333	294.932	0.045	-0.082
-338.318	-68.496	-0.341	0.132
-337.304	-50.440	0.225	-0.105
-336.289	-75.432	0.095	-0.034
-335.275	112.035	0.184	0.221
-334.260	800.000	-0.019	-0.079
-333.245	114.739	0.130	0.157
-332.231	390.204	0.081	0.166
-331.216	-200.000	0.010	-0.076
-330.202	-0.532	-0.118	-0.083
-329.187	-177.650	0.144	0.003
-328.172	13.176	-0.307	0.236
-327.158	250.993	-0.049	-0.082
-326.143	800.000	0.043	0.171
-325.129	-142.844	-0.454	0.044
-324.114	-112.380	-0.228	0.045
-323.099	-154.356	-0.221	0.015
-322.085	-33.349	0.092	-0.051
-321.070	-63.077	0.304	-0.125
-320.056	800.000	-0.057	0.187
-319.041	20.957	0.061	0.049
-318.026	-156.636	-0.108	0.007
-317.012	310.809	0.213	-0.397
-315.997	593.622	0.115	-0.282
-314.983	-200.000	0.076	-0.419
-313.968	-29.322	-0.244	0.139
-312.953	-54.655	-0.459	0.206
-311.939	-94.478	0.042	0.011
-310.924	800.000	-0.021	-0.077
-309.910	48.717	-0.100	0.093
-308.895	-200.000	-0.018	-0.121
-307.880	-154.305	-0.227	-0.015
-306.866	-200.000	0.038	0.290
-305.851	503.525	-0.091	-0.208
-304.837	-20.485	0.298	-0.182
-303.822	111.541	-0.119	0.143
-302.807	-82.206	-0.333	0.108
-301.793	800.000	0.082	0.314
-300.778	170.602	-0.242	-0.344
-299.764	-7.589	0.407	-0.273
-298.749	-200.000	-0.008	0.321
-297.735	-160.997	-0.243	-0.013
-296.720	-140.212	-0.314	-0.033
-295.705	-29.485	0.082	0.047
-294.691	-98.449	-0.151	0.038
-293.676	-164.231	0.150	-0.007
-292.662	158.489	-0.082	0.112
-291.647	721.151	-0.046	0.121
-290.632	800.000	0.075	-0.259
-289.618	-37.126	-0.317	0.168
-288.603	53.769	0.329	0.313
-287.589	655.746	0.130	0.331
-286.574	48.790	0.125	-0.116
-285.559	150.120	0.296	0.398
-284.545	275.752	-0.194	0.341
-283.530	800.000	-0.068	0.264
-282.516	-45.778	-0.113	0.055
-281.501	-26.813	0.202	0.117
-280.486	-61.738	0.332	0.138
-279.472	91.658	-0.323	-0.360
-278.457	-133.726	0.270	0.033
-277.443	400.413	0.162	0.336
-276.428	90.413	0.207	0.230
-275.413	344.772	0.119	-0.232
-274.399	393.310	0.154	0.318
-273.384	-200.000	-0.023	0.294
-272.370	-4.798	-0.211	-0.144
-271.355	-10.660	-0.159	0.104
-270.340	-20.916	-0.295	-0.179
-269.326	377.631	-0.053	-0.107
-268.311	484.385	-0.059	-0.133
-267.297	800.000	0.062	0.202
-266.282	-200.000	0.035	0.305
-265.267	800.000	-0.045	0.138
-264.253	-177.949	0.318	-0.008
-263.238	163.335	-0.068	-0.095
-262.224	380.035	0.066	0.133
-261.209	-183.280	-0.152	0.003
-260.195	26.765	-0.184	0.152
-259.180	800.000	-0.080	-0.232
-258.165	-9.699	-0.232	-0.153
-257.151	649.556	0.078	0.197
-256.136	-3.214	0.305	-0.211
-255.122	69.874	0.124	0.127
-254.107	-200.000	0.035	0.289
-253.092	-200.000	0.011	-0.280
-252.078	-200.000	-0.010	-0.210
-251.063	-48.122	0.098	-0.047
-250.049	-20.604	0.177	-0.108
-249.034	-200.000	0.013	0.341
-248.019	-69.651	-0.289	-0.110
-247.005	-125.591	-0.144	-0.022
-245.990	-89.974	0.185	-0.054
-244.976	29.788	-0.160	0.135
-243.961	-200.000	0.043	-0.383
-242.946	98.541	0.076	-0.086
-241.932	27.200	0.143	-0.119
-240.917	800.000	-0.070	-0.226
-239.903	344.389	0.135	-0.262
-238.888	-91.336	0.223	-0.063
-237.873	800.000	-0.075	-0.208
-236.859	-84.427	0.162	0.051
-235.844	-39.049	-0.085	0.044
-234.830	800.000	-0.071	-0.236
-233.815	-200.000	0.056	-0.262
-232.800	84.143	-0.336	-0.363
-231.786	-54.696	0.083	0.037
-230.771	287.708	0.072	0.128
-229.757	-61.098	-0.157	-0.066
-228.742	-143.801	0.197	0.018
-227.727	-57.720	-0.210	0.091
-226.713	800.000	0.086	0.250
-225.698	-200.000	0.001	0.389
-224.684	229.124	0.112	-0.180
-223.669	-143.391	-0.100	-0.009
-222.655	800.000	-0.091	-0.282
-221.640	23.624	-0.087	-0.071
-220.625	-134.656	-0.251	0.030
-219.611	800.000	0.065	-0.190
-218.596	92.448	-0.113	0.126
-217.582	-5.117	0.406	-0.276
-216.567	-4.236	0.095	0.065
-215.552	125.255	0.162	-0.202
-214.538	123.149	0.077	-0.096
-213.523	-86.356	-0.156	-0.047
-212.509	-109.297	0.120	0.025
-211.494	494.398	0.062	-0.141
-210.479	149.328	0.104	-0.139
-209.465	171.359	-0.014	-0.019
-208.450	-85.678	0.228	-0.070
-207.436	334.484	-0.021	0.041
-206.421	40.832	-0.193	0.172
-205.406	-146.646	-0.086	0.007
-204.392	-191.546	-0.288	-0.003
-203.377	-200.000	-0.009	-0.166
-202.363	-178.618	-0.280	0.006
-201.348	800.000	0.074	0.304
-200.333	122.669	0.069	-0.085
-199.319	19.326	-0.079	-0.063
-198.304	800.000	-0.018	0.052
-197.290	346.746	0.020	-0.039
-196.275	-200.000	0.077	-0.487
-195.260	-114.961	0.149	0.028
-194.246	18.488	0.196	-0.155
-193.231	74.950	-0.075	-0.078
-192.217	-85.238	-0.204	-0.063
-191.202	75.002	0.503	0.524
-190.187	54.053	-0.262	0.249
-189.173	800.000	0.054	0.193
-188.158	-200.000	-0.009	0.160
-187.144	524.686	-0.149	-0.347
-186.129	128.034	0.178	0.223
-185.114	-200.000	0.001	-0.065
-184.100	-157.991	-0.031	-0.002
-183.085	-72.560	-0.207	-0.076
-182.071	-85.515	-0.059	-0.018
-181.056	-85.939	-0.178	0.054
-180.042	55.481	-0.095	-0.091
-179.027	-164.827	0.284	-0.013
-178.012	148.349	-0.151	0.201
-176.998	226.242	0.090	0.145
-175.983	152.612	0.032	-0.042
-174.969	-200.000	-0.013	-0.061
-173.954	387.942	0.170	0.347
-172.939	16.911	0.235	0.183
-171.925	3.744	0.144	0.103
-170.910	-78.872	0.387	-0.130
-169.896	-144.621	0.194	0.018
-168.881	-0.243	0.086	0.060
-167.866	69.379	0.082	0.084
-166.852	-200.000	0.087	0.396
-165.837	306.322	0.049	-0.090
-164.823	-185.007	0.061	0.001
-163.808	-81.946	0.307	0.099
-162.793	60.247	0.079	-0.077
-161.779	-103.797	0.304	-0.070
-160.764	53.071	-0.120	0.113
-159.750	-200.000	0.081	-0.364
-158.735	-200.000	-0.002	0.029
-157.720	-185.907	0.089	0.001
-156.706	-127.226	-0.188	0.027
-155.691	362.446	0.117	-0.233
-154.677	-200.000	-0.007	0.070
-153.662	-86.423	0.125	-0.038
-152.647	769.900	0.044	-0.118
-151.633	800.000	0.045	-0.131
-150.618	-178.126	0.170	-0.004
-149.604	516.525	-0.138	-0.318
-148.589	200.912	-0.182	0.276
-147.574	128.706	-0.243	0.306
-146.560	-51.897	0.547	-0.251
-145.545	177.048	0.155	-0.222
-144.531	-150.092	-0.249	-0.019
-143.516	-28.438	0.207	-0.118
-142.502	-52.870	0.205	0.093
-141.487	-71.821	0.053	-0.019
-140.472	-200.000	0.295	0.001
-139.458	-30.555	-0.087	-0.049
-138.443	800.000	-0.068	0.286
-137.429	-25.199	0.331	-0.193
-136.414	337.287	-0.057	0.109
-135.399	22.672	-0.212	0.171
-134.385	-200.000	0.025	0.206
-133.370	383.797	0.132	0.268
-132.356	-117.884	-0.369	-0.065
-131.341	-8.977	-0.149	-0.099
-130.326	-153.535	-0.272	-0.019
-129.312	-200.000	-0.042	-0.183
-128.297	-155.881	-0.229	-0.014
-127.283	45.363	0.173	0.158
-126.268	98.111	-0.059	0.067
-125.253	-20.619	-0.266	0.161
-124.239	570.047	-0.092	-0.220
-123.224	606.199	0.166	-0.408
-122.210	-200.000	0.012	-0.305
-121.195	99.191	0.021	0.024
-120.180	-135.380	0.268	-0.032
