DTS Sentinel unit serial number:	SN413079Multiplexer serial number:	ORYXHardware model number:	OX4-SRSoftware version number:	ORYX F/W v4.00 Oryx Data Collector v3.7.2.0data status	okinstallation	princeton_trtdifferential loss correction	single-endedforward channel	channel 2reverse channel	N/Adate	2019/09/13time	10:55:34forward acquisition time	60.00reverse acquisition time	0.00gamma	496.2192k internal	0.2322k external	0.2322temperature offset calibration	1.0200default loss term (dB/km)	0.3790temperature slope calibration	1.0000multiplexer offset coefficient	1.0000multiplexer slope coefficient	1.0000fibre end	0.00T internal ref (°C)	31.75T ext. ref 1 (°C)	4.62T ext. ref 2 (°C)	28.25length (m)	temperature (°C)	Stokes	anti-Stokes-747.200	800.000	0.136	0.557
-746.185	-69.680	0.404	0.156
-745.171	-200.000	0.070	0.341
-744.156	-200.000	-0.007	0.152
-743.142	-76.338	-0.383	-0.136
-742.127	-72.390	-0.099	0.037
-741.112	-8.390	0.295	-0.200
-740.098	492.954	0.039	-0.090
-739.083	800.000	0.038	-0.116
-738.069	-59.624	-0.098	0.042
-737.054	-200.000	-0.036	-0.332
-736.039	-29.931	-0.191	-0.110
-735.025	-120.307	-0.182	-0.031
-734.010	517.080	0.037	-0.088
-732.996	32.856	-0.121	-0.105
-731.981	242.388	-0.063	-0.107
-730.966	701.317	0.108	0.287
-729.952	-16.843	-0.090	0.058
-728.937	40.693	0.147	0.133
-727.923	-25.268	-0.241	0.144
-726.908	291.793	0.078	-0.143
-725.894	-77.638	-0.315	-0.110
-724.879	-94.748	0.262	-0.072
-723.864	-111.621	-0.248	0.051
-722.850	-95.812	-0.200	0.054
-721.835	15.481	-0.070	0.055
-720.821	40.168	-0.295	-0.268
-719.806	-17.828	0.165	-0.104
-718.791	-25.588	-0.075	0.045
-717.777	-164.320	0.192	0.009
-716.762	32.296	-0.064	0.056
-715.748	800.000	0.081	-0.272
-714.733	9.935	-0.182	0.140
-713.718	593.514	-0.066	0.163
-712.704	262.922	-0.159	0.279
-711.689	800.000	-0.061	-0.172
-710.675	746.512	0.075	-0.204
-709.660	800.000	-0.046	-0.191
-708.645	-200.000	0.022	-0.218
-707.631	130.318	0.065	0.085
-706.616	-121.471	0.377	-0.063
-705.602	-31.278	0.270	0.153
-704.587	-200.000	0.006	-0.035
-703.572	-105.471	-0.126	0.029
-702.558	186.692	0.120	-0.180
-701.543	-78.584	0.064	-0.022
-700.529	800.000	-0.047	-0.176
-699.514	-173.219	-0.279	0.009
-698.499	212.695	-0.145	-0.231
-697.485	-101.995	0.101	0.024
-696.470	202.189	-0.138	-0.215
-695.456	-150.471	-0.688	0.053
-694.441	800.000	0.043	0.153
-693.426	-141.181	-0.255	0.026
-692.412	-161.856	0.360	0.018
-691.397	549.412	-0.054	-0.129
-690.383	185.853	-0.260	-0.389
-689.368	283.264	-0.098	0.178
-688.354	110.534	0.061	0.074
-687.339	699.074	0.134	0.354
-686.324	-191.353	0.149	0.002
-685.310	-124.391	-0.413	-0.065
-684.295	-43.420	-0.172	0.088
-683.281	-103.912	-0.184	0.043
-682.266	323.656	-0.066	-0.126
-681.251	684.096	-0.057	0.150
-680.237	163.468	-0.210	-0.297
-679.222	-200.000	0.008	-0.075
-678.208	-114.866	-0.372	0.071
-677.193	-103.556	-0.237	0.056
-676.178	427.781	0.093	-0.202
-675.164	-43.860	0.116	-0.059
-674.149	-200.000	-0.001	-0.067
-673.135	27.236	-0.168	0.142
-672.120	-141.052	0.212	0.022
-671.105	529.172	-0.059	-0.139
-670.091	88.356	0.336	-0.376
-669.076	-45.069	0.061	-0.031
-668.062	-31.872	-0.150	0.085
-667.047	259.467	-0.058	0.100
-666.032	70.399	0.064	-0.067
-665.018	54.933	-0.284	0.276
-664.003	-127.195	-0.292	-0.043
-662.989	-200.000	0.006	0.099
-661.974	-56.145	0.211	0.095
-660.959	-107.601	-0.164	0.036
-659.945	-200.000	0.009	0.282
-658.930	-1.108	-0.112	0.079
-657.916	-108.354	-0.192	0.042
-656.901	-174.307	-0.234	0.007
-655.886	223.346	0.049	-0.080
-654.872	49.581	-0.122	0.116
-653.857	-95.773	-0.206	0.056
-652.843	-91.538	0.044	0.013
-651.828	375.571	0.137	-0.282
-650.814	-15.637	-0.070	0.045
-649.799	269.032	0.232	-0.410
-648.784	30.052	-0.064	0.055
-647.770	-85.315	-0.209	0.066
-646.755	54.532	-0.197	0.191
-645.741	128.947	0.062	-0.079
-644.726	205.047	-0.126	-0.197
-643.711	-200.000	0.007	0.307
-642.697	-121.633	-0.077	-0.013
-641.682	-4.978	-0.324	-0.224
-640.668	2.026	0.245	-0.178
-639.653	-106.338	-0.312	0.070
-638.638	-170.237	0.142	-0.005
-637.624	68.618	0.105	-0.109
-636.609	800.000	0.078	-0.232
-635.595	1.249	0.057	0.041
-634.580	241.129	0.029	-0.048
-633.565	22.083	0.076	-0.063
-632.551	-109.609	-0.308	-0.065
-631.536	246.605	-0.077	0.130
-630.522	-38.293	-0.376	0.200
-629.507	33.002	0.055	0.048
-628.492	-200.000	0.010	0.051
-627.478	-137.961	0.221	0.025
-626.463	73.794	-0.225	-0.237
-625.449	141.536	-0.196	0.260
-624.434	175.195	0.108	0.158
-623.419	-72.045	0.202	-0.075
-622.405	-120.779	-0.092	-0.016
-621.390	-57.894	0.232	-0.102
-620.376	-200.000	0.022	-0.160
-619.361	800.000	-0.102	-0.301
-618.346	-171.860	-0.239	0.008
-617.332	-186.284	0.125	0.002
-616.317	-86.236	-0.136	-0.042
-615.303	-40.291	-0.164	-0.086
-614.288	-36.446	-0.101	0.055
-613.273	-73.665	0.366	0.134
-612.259	121.027	0.101	-0.126
-611.244	440.769	-0.041	0.090
-610.230	-130.355	0.214	-0.029
-609.215	-62.251	-0.165	0.069
-608.201	402.560	0.062	0.130
-607.186	-32.911	0.181	0.101
-606.171	55.392	0.033	-0.032
-605.157	-63.574	-0.308	-0.127
-604.142	800.000	-0.130	0.476
-603.128	-200.000	0.032	-0.236
-602.113	119.817	0.174	-0.217
-601.098	-0.552	-0.094	-0.067
-600.084	-29.158	0.148	0.085
-599.069	-112.031	-0.287	0.058
-598.055	-121.495	-0.386	-0.064
-597.040	-26.672	-0.013	-0.008
-596.025	20.782	0.243	0.197
-595.011	-66.536	0.296	-0.118
-593.996	-128.668	-0.278	-0.039
-592.982	-183.777	-0.110	-0.002
-591.967	59.162	-0.140	0.139
-590.952	-170.837	0.238	0.008
-589.938	256.084	-0.089	-0.153
-588.923	-81.537	0.081	0.027
-587.909	194.517	0.182	-0.278
-586.894	-11.363	0.166	0.110
-585.879	-200.000	-0.063	0.460
-584.865	-54.734	0.118	-0.053
-583.850	205.897	0.117	-0.183
-582.836	-141.247	0.142	-0.014
-581.821	-78.171	0.175	0.060
-580.806	505.296	0.079	0.185
-579.792	-84.992	-0.244	0.077
-578.777	-200.000	-0.010	-0.151
-577.763	-86.860	-0.276	-0.085
-576.748	-200.000	-0.031	-0.139
-575.733	46.581	-0.181	-0.169
-574.719	-36.070	0.122	-0.066
-573.704	-106.243	0.171	-0.039
-572.690	-14.973	0.228	-0.147
-571.675	-200.000	-0.041	0.190
-570.661	-200.000	0.019	0.121
-569.646	706.309	-0.031	0.081
-568.631	-62.869	-0.118	-0.049
-567.617	-19.074	0.210	-0.131
-566.602	-82.975	-0.295	-0.095
-565.588	139.164	-0.139	0.184
-564.573	0.045	-0.046	0.033
-563.558	475.239	-0.015	0.035
-562.544	-68.745	0.089	-0.035
-561.529	191.850	0.041	0.063
-560.515	-200.000	-0.018	0.133
-559.500	-82.483	-0.241	-0.078
-558.485	-200.000	0.075	0.379
-557.471	-152.723	-0.264	0.019
-556.456	-200.000	-0.015	-0.131
-555.442	92.965	-0.167	0.190
-554.427	-200.000	0.000	0.231
-553.412	-78.979	-0.133	0.046
-552.398	-161.093	-0.261	0.014
-551.383	146.130	0.089	0.120
-550.369	-125.992	0.420	0.063
-549.354	158.995	-0.156	-0.218
-548.339	-11.607	-0.126	0.083
-547.325	800.000	-0.005	0.020
-546.310	800.000	-0.071	-0.295
-545.296	97.840	0.095	0.109
-544.281	365.757	0.020	-0.040
-543.266	-200.000	-0.005	0.143
-542.252	-84.258	0.253	0.080
-541.237	348.776	0.094	0.185
-540.223	6.787	-0.222	0.166
-539.208	97.040	-0.086	0.098
-538.193	-2.425	-0.141	0.099
-537.179	800.000	0.100	0.366
-536.164	71.721	-0.038	-0.040
-535.150	-32.553	-0.135	-0.075
-534.135	-150.184	0.094	0.007
-533.121	-54.750	-0.155	-0.070
-532.106	-47.713	-0.223	-0.108
-531.091	-18.911	-0.109	-0.068
-530.077	-136.158	-0.254	0.030
-529.062	800.000	0.026	0.113
-528.048	247.089	0.075	0.126
-527.033	-9.367	-0.072	-0.048
-526.018	-200.000	-0.021	0.141
-525.004	327.535	0.078	-0.149
-523.989	33.500	0.286	-0.249
-522.975	142.655	-0.114	0.151
-521.960	-200.000	0.026	-0.164
-520.945	800.000	-0.120	0.348
-519.931	-135.014	0.179	-0.022
-518.916	317.452	0.150	0.284
-517.902	41.298	0.253	-0.229
-516.887	771.554	-0.118	-0.321
-515.872	87.131	-0.150	-0.166
-514.858	2.467	-0.185	0.134
-513.843	-74.118	-0.163	-0.059
-512.829	800.000	0.015	0.048
-511.814	-200.000	0.381	0.000
-510.799	-71.271	-0.087	0.033
-509.785	-125.983	-0.261	0.039
-508.770	800.000	0.055	0.172
-507.756	-200.000	-0.023	0.161
-506.741	-200.000	-0.025	0.177
-505.726	67.421	-0.233	-0.238
-504.712	-135.851	0.213	-0.025
-503.697	47.175	0.049	0.046
-502.683	44.047	0.323	0.297
-501.668	282.496	0.149	-0.267
-500.653	800.000	-0.053	-0.199
-499.639	-4.242	0.169	0.117
-498.624	800.000	-0.030	0.106
-497.610	411.028	0.103	0.219
-496.595	-84.440	-0.209	-0.066
-495.581	-123.244	-0.173	0.028
-494.566	658.165	-0.047	0.122
-493.551	-129.271	0.096	-0.013
-492.537	-70.708	0.097	0.036
-491.522	207.421	-0.162	0.253
-490.508	381.525	-0.163	-0.335
-489.493	-200.000	-0.014	-0.210
-488.478	177.819	-0.232	-0.338
-487.464	67.819	-0.038	-0.039
-486.449	-200.000	0.014	-0.353
-485.435	-45.888	0.239	-0.118
-484.420	701.041	-0.089	-0.235
-483.405	-200.000	-0.037	0.204
-482.391	-178.035	0.119	-0.003
-481.376	625.177	0.063	0.159
-480.362	-163.597	0.201	0.009
-479.347	-200.000	0.009	0.212
-478.332	237.733	-0.165	-0.273
-477.318	0.556	0.308	0.220
-476.303	-123.012	0.226	0.036
-475.289	-109.289	-0.078	-0.017
-474.274	-200.000	0.012	-0.198
-473.259	-200.000	-0.015	0.126
-472.245	661.169	0.159	-0.408
-471.230	298.008	0.082	-0.151
-470.216	-45.752	0.039	0.019
-469.201	-200.000	-0.002	0.038
-468.186	-115.252	0.282	0.053
-467.172	-200.000	0.042	-0.203
-466.157	-58.484	-0.242	0.105
-465.143	190.745	-0.080	-0.120
-464.128	94.832	-0.083	-0.094
-463.113	-112.802	-0.183	0.036
-462.099	-129.634	-0.162	-0.022
-461.084	-81.966	-0.161	-0.052
-460.070	800.000	0.060	0.209
-459.055	459.382	0.044	-0.097
-458.040	-59.070	-0.439	-0.189
-457.026	-200.000	-0.023	0.163
-456.011	-160.064	-0.371	-0.020
-454.997	-70.882	0.215	-0.081
-453.982	-200.000	-0.036	0.174
-452.968	57.135	-0.202	-0.197
-451.953	-141.822	-0.136	-0.014
-450.938	-180.087	0.061	-0.001
-449.924	106.858	0.245	0.291
-448.909	800.000	0.028	0.112
-447.895	-52.894	-0.162	0.075
-446.880	-163.102	-0.156	-0.008
-445.865	20.379	0.236	-0.190
-444.851	-45.430	0.155	0.077
-443.836	-170.377	-0.352	-0.012
-442.822	-66.999	0.327	-0.129
-441.807	-88.993	0.345	0.102
-440.792	130.340	-0.094	0.121
-439.778	-43.135	0.254	0.129
-438.763	-20.704	-0.131	-0.080
-437.749	-100.356	0.350	-0.087
-436.734	-34.456	-0.132	-0.072
-435.719	120.107	0.084	-0.104
-434.705	800.000	0.073	0.252
-433.690	-84.876	-0.233	0.073
-432.676	20.229	-0.250	0.202
-431.661	598.127	-0.126	-0.313
-430.646	675.871	0.025	0.066
-429.632	292.279	0.185	0.336
-428.617	210.362	0.144	0.226
-427.603	800.000	0.066	0.182
-426.588	-108.421	-0.377	-0.081
-425.573	67.881	-0.140	-0.143
-424.559	-116.776	-0.160	0.029
-423.544	-94.132	0.076	-0.021
-422.530	154.669	0.059	-0.080
-421.515	327.439	-0.078	0.149
-420.500	-162.516	-0.068	-0.003
-419.486	-115.933	0.265	0.049
-418.471	161.467	0.168	-0.234
-417.457	-200.000	-0.010	-0.172
-416.442	800.000	0.083	-0.269
-415.428	477.703	-0.074	0.166
-414.413	-52.237	-0.160	0.074
-413.398	-200.000	-0.025	0.266
-412.384	586.008	-0.181	0.444
-411.369	-31.536	0.129	-0.072
-410.355	800.000	-0.063	0.246
-409.340	144.462	-0.090	-0.120
-408.325	196.151	-0.083	0.126
-407.311	112.119	-0.137	-0.165
-406.296	-179.384	-0.177	0.004
-405.282	44.028	-0.196	-0.179
-404.267	800.000	-0.090	-0.293
-403.252	-124.274	0.130	-0.020
-402.238	-16.535	-0.244	-0.154
-401.223	-81.087	-0.205	0.068
-400.209	29.701	-0.114	0.097
-399.194	-200.000	-0.029	0.258
-398.179	-200.000	-0.017	0.455
-397.165	-200.000	-0.006	0.203
-396.150	30.370	0.254	-0.216
-395.136	60.831	0.178	0.176
-394.121	262.512	0.099	-0.172
-393.106	-200.000	0.040	0.418
-392.092	62.030	-0.051	-0.051
-391.077	-59.135	0.255	-0.110
-390.063	-72.957	0.249	-0.091
-389.048	-31.166	0.368	-0.207
-388.033	-200.000	-0.024	0.155
-387.019	-154.914	-0.007	-0.000
-386.004	-80.165	0.301	0.100
-384.990	61.040	0.147	-0.145
-383.975	23.174	-0.320	-0.262
-382.960	-200.000	0.012	0.173
-381.946	-76.706	0.088	0.031
-380.931	-84.333	-0.280	0.088
-379.917	23.981	-0.136	-0.112
-378.902	-102.392	-0.147	-0.035
-377.888	-154.373	0.052	0.003
-376.873	-45.005	0.106	0.052
-375.858	-200.000	0.035	-0.315
-374.844	-70.552	-0.089	-0.034
-373.829	-163.468	0.228	-0.011
-372.815	-11.941	0.164	-0.107
-371.800	800.000	0.075	0.256
-370.785	546.280	0.038	-0.090
-369.771	2.697	0.305	0.220
-368.756	70.534	-0.176	0.182
-367.742	33.748	-0.211	-0.183
-366.727	-32.588	0.260	0.144
-365.712	800.000	-0.030	0.082
-364.698	187.085	0.243	0.361
-363.683	800.000	0.044	-0.127
-362.669	-200.000	0.026	0.452
-361.654	800.000	0.069	-0.191
-360.639	-68.184	0.254	0.098
-359.625	-45.734	0.123	0.061
-358.610	-25.692	-0.234	-0.137
-357.596	-200.000	-0.050	0.228
-356.581	-200.000	-0.011	-0.313
-355.566	800.000	-0.089	0.328
-354.552	7.779	-0.169	-0.126
-353.537	347.059	0.049	0.096
-352.523	-200.000	0.009	0.309
-351.508	-45.368	-0.428	-0.211
-350.493	-3.582	0.118	0.082
-349.479	0.877	0.295	-0.211
-348.464	306.301	-0.095	0.176
-347.450	30.843	0.199	0.170
-346.435	66.246	-0.135	0.136
-345.420	65.181	-0.258	0.260
-344.406	315.938	-0.139	-0.262
-343.391	-26.975	-0.023	-0.014
-342.377	117.743	-0.194	0.238
-341.362	-73.147	0.079	0.029
-340.348	-200.000	0.078	-0.357
-339.333	-50.346	-0.122	-0.057
-338.318	-81.411	-0.236	0.077
-337.304	-42.411	0.429	0.218
-336.289	275.303	-0.058	-0.102
-335.275	-200.000	-0.015	-0.073
-334.260	-200.000	0.040	-0.183
-333.245	266.342	0.067	0.117
-332.231	57.438	0.062	-0.060
-331.216	-32.433	0.440	-0.244
-330.202	-60.545	0.287	-0.121
-329.187	15.852	-0.189	0.148
-328.172	-121.488	0.105	0.017
-327.158	652.322	0.151	-0.383
-326.143	-102.575	0.095	0.023
-325.129	-62.963	0.265	0.109
-324.114	81.658	-0.073	0.079
-323.099	134.446	-0.063	0.082
-322.085	-89.696	-0.114	-0.033
-321.070	7.192	0.057	0.042
-320.056	-74.889	0.178	-0.063
-319.041	226.852	0.196	-0.316
-318.026	70.146	0.269	0.276
-317.012	-200.000	-0.015	0.154
-315.997	77.101	0.152	0.160
-314.983	112.519	-0.023	-0.027
-313.968	800.000	0.121	-0.454
-312.953	67.127	-0.246	-0.249
-311.939	-53.647	0.206	-0.093
-310.924	-75.863	0.206	-0.072
-309.910	-36.107	-0.273	-0.146
-308.895	45.340	-0.070	0.064
-307.880	17.374	0.269	0.213
-306.866	506.915	0.091	0.210
-305.851	-139.040	0.066	0.007
-304.837	60.320	-0.079	-0.077
-303.822	-200.000	0.052	0.395
-302.807	800.000	-0.041	-0.170
-301.793	124.140	-0.245	0.306
-300.778	-200.000	-0.003	0.201
-299.764	464.986	0.124	-0.275
-298.749	-200.000	-0.021	-0.190
-297.735	-35.134	-0.180	-0.097
-296.720	-138.198	0.161	0.018
-295.705	-23.145	0.241	-0.144
-294.691	375.261	0.110	0.222
-293.676	0.619	0.184	0.130
-292.662	362.312	0.187	-0.372
-291.647	-95.783	-0.170	0.045
-290.632	-128.701	0.215	0.030
-289.618	-114.841	0.105	-0.020
-288.603	288.388	0.075	0.135
-287.589	-51.547	-0.298	0.138
-286.574	577.625	0.063	0.153
-285.559	94.608	-0.188	-0.212
-284.545	99.893	-0.154	-0.177
-283.530	114.246	0.043	0.052
-282.516	-117.651	0.150	0.027
-281.501	-64.095	0.260	-0.105
-280.486	-74.787	-0.190	0.068
-279.472	-105.558	0.122	-0.027
-278.457	-46.809	0.270	-0.131
-277.443	49.537	0.155	0.145
-276.428	-144.840	-0.114	-0.010
-275.413	800.000	-0.035	-0.132
-274.399	-69.924	-0.120	0.045
-273.384	800.000	0.042	-0.126
-272.370	21.528	0.228	-0.184
-271.355	-198.936	0.438	-0.002
-270.340	-70.143	0.380	-0.143
-269.326	-200.000	-0.038	0.187
-268.311	-23.669	-0.315	-0.187
-267.297	1.646	0.058	0.042
-266.282	368.329	0.076	0.152
-265.267	-36.919	0.035	-0.019
-264.253	800.000	0.030	-0.105
-263.238	67.237	0.200	-0.202
-262.224	135.708	-0.189	-0.244
-261.209	449.911	0.095	0.208
-260.195	70.241	-0.033	0.034
-259.180	213.772	-0.097	0.152
-258.165	-189.409	0.195	0.002
-257.151	41.804	-0.111	0.100
-256.136	100.149	-0.189	0.217
-255.122	440.186	-0.014	0.030
-254.107	-200.000	0.014	0.105
-253.092	-76.290	0.169	-0.059
-252.078	363.077	0.052	-0.103
-251.063	566.481	0.071	-0.171
-250.049	-200.000	-0.006	-0.060
-249.034	800.000	0.065	-0.243
-248.019	249.708	-0.164	-0.276
-247.005	96.032	0.278	-0.315
-245.990	-200.000	-0.028	0.138
-244.976	60.561	-0.260	-0.255
-243.961	-135.906	-0.179	0.021
-242.946	-11.691	0.332	-0.216
-241.932	83.220	-0.223	-0.240
-240.917	16.941	0.164	-0.129
-239.903	127.174	-0.137	-0.172
-238.888	800.000	0.049	0.153
-237.873	-42.988	-0.136	0.069
-236.859	20.747	-0.097	0.077
-235.844	199.462	0.129	-0.197
-234.830	-200.000	-0.002	-0.085
-233.815	492.284	0.088	0.199
-232.800	-37.798	-0.152	-0.080
-231.786	89.091	0.106	0.117
-230.771	-52.004	0.273	0.126
-229.757	-200.000	0.002	0.356
-228.742	-200.000	-0.029	0.307
-227.727	-99.973	0.100	0.025
-226.713	124.930	-0.120	0.150
-225.698	-130.719	-0.313	-0.042
-224.684	-71.882	-0.007	-0.003
-223.669	55.160	-0.136	0.130
-222.655	-103.927	-0.105	-0.024
-221.640	-31.287	-0.131	-0.073
-220.625	166.582	-0.359	-0.504
-219.611	-77.798	0.190	-0.065
-218.596	76.922	-0.073	-0.077
-217.582	-200.000	-0.029	0.356
-216.567	97.239	-0.103	-0.117
-215.552	-168.078	-0.164	-0.006
-214.538	-73.393	0.549	-0.199
-213.523	162.837	0.228	0.317
-212.509	-200.000	-0.062	0.366
-211.494	-33.339	-0.149	0.082
-210.479	-200.000	0.006	-0.185
-209.465	540.585	0.143	0.336
-208.450	-121.446	-0.187	-0.031
-207.436	-166.385	-0.560	-0.023
-206.421	800.000	-0.019	-0.068
-205.406	15.373	0.205	-0.159
-204.392	-200.000	0.005	-0.180
-203.377	-89.778	-0.421	-0.122
-202.363	87.942	0.080	0.087
-201.348	-102.413	0.286	0.068
-200.333	394.265	-0.097	-0.199
-199.319	-24.209	-0.229	-0.135
-198.304	18.990	0.140	-0.111
-197.290	-46.364	0.276	-0.134
-196.275	286.125	-0.121	-0.215
-195.260	-131.844	0.227	-0.029
-194.246	-74.556	0.135	-0.048
-193.231	-125.966	0.082	-0.012
-192.217	-99.085	-0.309	-0.077
-191.202	-17.897	-0.161	0.100
-190.187	-118.813	0.181	-0.031
-189.173	309.837	0.104	-0.191
-188.158	-61.478	0.494	-0.205
-187.144	-2.321	0.210	0.146
-186.129	800.000	0.007	-0.027
-185.114	197.297	-0.069	0.104
-184.100	800.000	0.052	0.150
-183.085	71.628	-0.098	-0.101
-182.071	-21.732	0.010	0.006
-181.056	483.128	-0.074	0.165
-180.042	-17.243	0.132	0.082
-179.027	800.000	0.060	-0.246
-178.012	159.765	0.080	0.111
-176.998	-22.691	-0.173	0.103
-175.983	228.505	-0.155	-0.250
-174.969	800.000	-0.103	0.309
-173.954	114.756	0.128	-0.154
-172.939	88.404	-0.180	-0.197
-171.925	9.518	-0.297	-0.222
-170.910	156.767	-0.068	0.092
-169.896	-200.000	0.057	0.304
-168.881	-106.112	-0.020	0.004
-167.866	-46.588	-0.197	-0.095
-166.852	-200.000	0.008	-0.287
-165.837	-137.476	0.530	-0.059
-164.823	-86.351	0.303	0.092
-163.808	-73.127	-0.203	0.074
-162.793	-57.764	-0.167	-0.072
-161.779	2.521	0.007	0.005
-160.764	-143.763	-0.228	-0.021
-159.750	-42.593	-0.346	0.174
-158.735	64.508	-0.190	-0.189
-157.720	-78.726	0.025	0.008
-156.706	256.860	-0.184	0.313
-155.691	58.552	-0.148	-0.143
-154.677	98.523	-0.131	-0.149
-153.662	800.000	-0.075	0.305
-152.647	-16.426	-0.235	0.147
-151.633	-61.088	0.148	-0.062
-150.618	-200.000	0.013	-0.194
-149.604	-154.492	-0.213	-0.014
-148.589	-92.224	0.255	0.071
-147.574	-200.000	0.011	0.184
-146.560	-200.000	-0.036	0.339
-145.545	-200.000	-0.009	0.192
-144.531	800.000	0.070	-0.205
-143.516	-123.957	-0.332	-0.052
-142.502	-200.000	0.063	-0.283
-141.487	82.046	0.079	0.084
-140.472	-191.077	-0.315	-0.003
-139.458	589.644	0.139	0.337
-138.443	89.914	0.093	0.103
-137.429	-106.445	0.533	0.117
-136.414	800.000	0.082	0.261
-135.399	2.198	-0.365	0.260
-134.385	-38.165	-0.178	-0.093
-133.370	26.789	0.120	0.099
-132.356	29.322	-0.135	0.113
-131.341	-200.000	0.006	-0.158
-130.326	800.000	-0.074	0.219
-129.312	-108.846	-0.126	0.027
-128.297	203.538	-0.090	-0.138
-127.283	800.000	0.026	0.105
-126.268	70.717	0.117	0.120
-125.253	-151.420	-0.123	0.009
-124.239	-153.601	0.176	-0.012
-123.224	-48.211	0.282	-0.134
-122.210	268.509	-0.123	0.212
-121.195	405.014	-0.198	0.411
