DTS Sentinel unit serial number:	SN413079Multiplexer serial number:	ORYXHardware model number:	OX4-SRSoftware version number:	ORYX F/W v4.00 Oryx Data Collector v3.7.2.0data status	okinstallation	princeton_trtdifferential loss correction	single-endedforward channel	channel 2reverse channel	N/Adate	2019/09/13time	13:39:35forward acquisition time	60.00reverse acquisition time	0.00gamma	496.2192k internal	0.2315k external	0.2315temperature offset calibration	1.0208default loss term (dB/km)	0.3790temperature slope calibration	1.0000multiplexer offset coefficient	1.0000multiplexer slope coefficient	1.0000fibre end	0.00T internal ref (°C)	35.11T ext. ref 1 (°C)	4.58T ext. ref 2 (°C)	31.50length (m)	temperature (°C)	Stokes	anti-Stokes-747.200	-22.758	0.357	0.219
-746.185	57.768	-0.212	0.210
-745.171	-114.119	0.463	0.091
-744.156	-117.941	-0.247	0.045
-743.142	32.534	-0.244	0.214
-742.127	-142.606	0.340	0.034
-741.112	41.133	-0.215	0.197
-740.098	72.498	-0.077	-0.081
-739.083	124.756	0.057	-0.073
-738.069	514.277	0.093	0.220
-737.054	17.433	0.297	0.239
-736.039	-166.376	-0.334	0.014
-735.025	-125.604	0.202	0.031
-734.010	-116.361	-0.336	-0.063
-732.996	-19.431	-0.239	0.150
-731.981	-50.244	-0.364	-0.174
-730.966	-107.717	-0.156	0.034
-729.952	7.417	-0.292	-0.221
-728.937	-90.783	0.279	0.081
-727.923	-169.389	-0.210	0.008
-726.908	232.960	-0.097	0.162
-725.894	-200.000	-0.063	0.375
-724.879	154.297	-0.127	0.176
-723.864	-80.548	-0.372	-0.126
-722.850	-81.288	0.151	0.051
-721.835	-0.428	-0.116	0.083
-720.821	493.054	0.062	-0.143
-719.806	-25.336	0.102	0.061
-718.791	-156.900	-0.344	-0.021
-717.777	108.502	-0.164	-0.199
-716.762	13.887	0.093	-0.073
-715.748	146.169	0.214	-0.291
-714.733	-48.032	0.130	-0.064
-713.718	-90.747	-0.388	-0.113
-712.704	-103.106	-0.198	-0.047
-711.689	-200.000	-0.018	-0.164
-710.675	388.769	0.100	-0.210
-709.660	-18.305	0.194	-0.123
-708.645	78.556	0.110	-0.119
-707.631	125.384	-0.174	0.222
-706.616	29.597	-0.144	-0.124
-705.602	-200.000	0.012	-0.169
-704.587	-24.077	0.114	-0.069
-703.572	-105.825	0.133	0.030
-702.558	-59.612	0.318	-0.138
-701.543	-110.855	0.093	-0.019
-700.529	-18.557	-0.153	0.097
-699.514	17.588	-0.105	-0.085
-698.499	-136.777	-0.206	-0.024
-697.485	125.551	-0.129	-0.164
-696.470	7.524	-0.034	0.026
-695.456	97.035	-0.230	0.266
-694.441	-106.725	-0.125	0.028
-693.426	-200.000	-0.010	0.151
-692.412	-141.053	0.089	0.009
-691.397	-57.885	0.202	0.089
-690.383	25.602	-0.174	0.146
-689.368	-108.238	0.209	-0.046
-688.354	-71.833	-0.192	0.072
-687.339	-200.000	-0.031	-0.147
-686.324	725.446	0.034	0.091
-685.310	-62.612	-0.182	0.076
-684.295	-111.873	-0.033	-0.007
-683.281	-200.000	-0.042	-0.212
-682.266	315.886	0.029	-0.056
-681.251	800.000	-0.076	0.233
-680.237	-200.000	-0.021	-0.205
-679.222	800.000	0.072	-0.219
-678.208	800.000	-0.050	-0.143
-677.193	-200.000	0.006	-0.035
-676.178	185.494	0.129	0.194
-675.164	142.486	-0.163	-0.219
-674.149	-200.000	0.047	-0.262
-673.135	800.000	-0.040	-0.152
-672.120	-200.000	-0.043	0.230
-671.105	800.000	0.058	-0.208
-670.091	79.774	-0.293	-0.318
-669.076	-58.391	-0.270	-0.119
-668.062	-149.820	-0.094	-0.007
-667.047	-200.000	-0.029	-0.294
-666.032	-73.084	-0.136	-0.050
-665.018	-139.290	0.282	-0.031
-664.003	-200.000	-0.013	0.234
-662.989	-200.000	0.012	-0.204
-661.974	-200.000	-0.003	-0.088
-660.959	687.763	0.062	0.163
-659.945	338.357	0.128	-0.252
-658.930	-200.000	0.023	-0.111
-657.916	-100.058	0.242	-0.061
-656.901	415.152	-0.062	0.134
-655.886	583.136	0.036	0.090
-654.872	-70.654	-0.138	0.053
-653.857	345.378	0.131	0.261
-652.843	800.000	-0.042	0.124
-651.828	-200.000	0.001	0.024
-650.814	-200.000	0.014	0.226
-649.799	-92.858	0.291	0.082
-648.784	-141.687	-0.157	0.016
-647.770	-200.000	-0.041	-0.240
-646.755	800.000	0.038	-0.148
-645.741	-75.337	0.156	0.056
-644.726	24.378	-0.090	0.075
-643.711	298.511	0.227	0.422
-642.697	145.511	-0.032	0.044
-641.682	-123.848	-0.331	0.053
-640.668	800.000	-0.087	0.244
-639.653	67.916	-0.182	0.188
-638.638	58.803	0.006	0.006
-637.624	-78.330	0.154	-0.053
-636.609	-35.134	0.148	0.081
-635.595	278.060	0.067	-0.120
-634.580	-92.703	-0.182	-0.051
-633.565	62.029	0.106	0.107
-632.551	460.671	-0.040	-0.089
-631.536	185.475	0.046	-0.069
-630.522	800.000	0.121	-0.359
-629.507	-126.857	0.153	0.023
-628.492	800.000	-0.081	0.288
-627.478	100.866	0.104	-0.122
-626.463	-128.687	0.159	-0.023
-625.449	-200.000	-0.036	-0.202
-624.434	-8.662	0.210	0.142
-623.419	-115.086	-0.229	-0.044
-622.405	-17.799	-0.304	0.192
-621.390	6.927	-0.050	-0.038
-620.376	-141.544	-0.219	-0.022
-619.361	-37.887	0.038	-0.020
-618.346	-114.409	-0.415	0.080
-617.332	-140.284	-0.219	0.023
-616.317	143.966	-0.239	-0.321
-615.303	-77.198	-0.116	-0.041
-614.288	108.298	0.082	0.099
-613.273	-200.000	-0.002	0.015
-612.259	-28.039	-0.185	-0.108
-611.244	123.393	-0.096	-0.122
-610.230	44.157	0.070	0.064
-609.215	-78.703	-0.180	0.062
-608.201	-37.088	0.100	-0.054
-607.186	156.911	-0.120	0.167
-606.171	-51.779	0.025	-0.012
-605.157	-40.366	0.146	0.077
-604.142	186.541	-0.058	0.087
-603.128	-200.000	-0.003	-0.311
-602.113	-200.000	0.071	0.372
-601.098	-91.509	-0.208	0.060
-600.084	71.433	-0.133	-0.139
-599.069	-200.000	-0.023	0.242
-598.055	-32.845	-0.140	-0.079
-597.040	291.606	-0.105	0.193
-596.025	800.000	-0.038	0.130
-595.011	128.766	-0.207	0.266
-593.996	-65.684	-0.075	0.030
-592.982	800.000	0.038	0.157
-591.967	-200.000	0.033	-0.247
-590.952	-60.265	0.248	0.106
-589.938	-44.604	-0.383	0.193
-588.923	117.066	0.247	-0.306
-587.909	4.823	0.105	-0.078
-586.894	393.608	-0.066	-0.139
-585.879	189.792	0.071	-0.108
-584.865	-196.397	0.302	0.002
-583.850	89.878	-0.016	0.018
-582.836	652.245	-0.069	-0.177
-581.821	-125.350	-0.217	-0.033
-580.806	177.627	0.188	0.275
-579.792	-200.000	0.020	-0.139
-578.777	-200.000	0.038	0.248
-577.763	136.855	-0.088	-0.115
-576.748	371.823	0.066	-0.136
-575.733	-112.203	0.062	-0.013
-574.719	83.722	-0.073	-0.081
-573.704	1.653	-0.077	0.056
-572.690	800.000	-0.029	0.121
-571.675	12.948	-0.125	0.097
-570.661	-159.996	0.130	-0.007
-569.646	-200.000	0.004	-0.218
-568.631	-165.478	-0.034	0.001
-567.617	-11.676	-0.169	-0.112
-566.602	800.000	-0.050	-0.157
-565.588	218.224	-0.115	-0.184
-564.573	-161.068	-0.079	0.004
-563.558	114.192	0.278	0.341
-562.544	-200.000	-0.003	0.035
-561.529	-75.451	0.089	-0.032
-560.515	-178.728	-0.213	-0.005
-559.500	-200.000	-0.011	0.102
-558.485	-200.000	-0.056	0.280
-557.471	13.614	-0.348	-0.272
-556.456	-200.000	0.005	0.066
-555.442	-159.113	-0.309	-0.018
-554.427	-54.056	0.189	0.086
-553.412	-139.950	-0.259	-0.027
-552.398	25.758	-0.061	-0.051
-551.383	-136.508	0.138	-0.016
-550.369	-40.351	0.315	-0.165
-549.354	-200.000	-0.012	0.183
-548.339	-200.000	0.011	0.197
-547.325	-200.000	0.006	-0.074
-546.310	-200.000	0.003	-0.123
-545.296	-200.000	0.020	0.152
-544.281	398.005	0.058	0.123
-543.266	-96.089	-0.024	-0.006
-542.252	-65.239	0.275	0.111
-541.237	-7.955	-0.333	-0.226
-540.223	-200.000	-0.036	-0.278
-539.208	800.000	0.050	0.183
-538.193	800.000	-0.104	-0.374
-537.179	101.262	-0.140	0.164
-536.164	800.000	-0.054	0.161
-535.150	-123.934	0.424	-0.067
-534.135	-200.000	0.019	-0.175
-533.121	-2.859	0.295	0.207
-532.106	245.283	0.210	0.355
-531.091	114.597	0.152	0.186
-530.077	449.514	0.164	0.364
-529.062	444.066	-0.108	-0.239
-528.048	29.664	0.124	-0.106
-527.033	-120.180	0.318	-0.055
-526.018	62.095	-0.117	-0.117
-525.004	-200.000	-0.014	-0.226
-523.989	-200.000	-0.014	0.186
-522.975	137.781	0.135	-0.177
-521.960	-200.000	0.009	0.136
-520.945	383.866	0.053	-0.109
-519.931	29.358	0.279	-0.238
-518.916	64.749	0.281	0.285
-517.902	136.542	-0.175	-0.230
-516.887	-127.050	0.260	0.038
-515.872	-72.064	-0.079	-0.030
-514.858	-200.000	-0.034	0.161
-513.843	800.000	0.103	0.431
-512.829	-153.530	-0.142	0.010
-511.814	299.655	0.112	-0.208
-510.799	119.547	-0.127	-0.158
-509.785	261.946	-0.078	0.135
-508.770	800.000	-0.051	0.187
-507.756	96.260	0.232	-0.267
-506.741	-200.000	0.070	-0.337
-505.726	800.000	0.029	-0.120
-504.712	89.037	-0.311	-0.348
-503.697	131.818	-0.121	-0.156
-502.683	10.212	0.134	0.102
-501.668	-200.000	0.078	-0.370
-500.653	-200.000	-0.005	-0.060
-499.639	-161.285	0.202	0.011
-498.624	-167.165	0.217	0.009
-497.610	176.527	-0.226	0.329
-496.595	-200.000	0.013	-0.077
-495.581	58.784	-0.090	0.089
-494.566	334.844	0.026	-0.050
-493.551	-169.284	0.204	0.008
-492.537	321.662	-0.090	0.172
-491.522	-200.000	-0.002	0.189
-490.508	-163.357	-0.278	0.013
-489.493	361.206	-0.058	0.117
-488.478	762.739	-0.092	-0.250
-487.464	141.336	0.069	-0.092
-486.449	-103.379	0.169	-0.040
-485.435	-43.229	-0.053	0.027
-484.420	-26.228	0.202	-0.119
-483.405	-98.861	0.084	-0.022
-482.391	6.978	0.098	0.073
-481.376	-20.499	0.314	-0.194
-480.362	-142.420	-0.107	-0.011
-479.347	67.387	-0.105	-0.107
-478.332	-200.000	-0.029	-0.164
-477.318	38.258	-0.246	-0.220
-476.303	-200.000	-0.004	-0.271
-475.289	308.932	0.147	0.275
-474.274	13.737	-0.162	0.126
-473.259	225.082	0.223	-0.362
-472.245	120.692	0.377	-0.470
-471.230	48.421	-0.062	0.058
-470.216	-113.268	0.248	0.049
-469.201	59.099	0.063	-0.062
-468.186	-56.518	0.036	0.016
-467.172	165.258	-0.084	0.119
-466.157	-171.662	0.066	0.002
-465.143	-8.339	-0.291	-0.196
-464.128	548.411	-0.057	0.136
-463.113	53.319	-0.114	0.110
-462.099	39.474	0.327	-0.294
-461.084	-162.096	0.256	-0.013
-460.070	203.492	-0.057	-0.088
-459.055	-147.414	-0.210	-0.018
-458.040	-118.357	0.208	0.037
-457.026	-146.412	0.151	0.013
-456.011	-37.876	-0.195	0.104
-454.997	-130.674	0.475	0.064
-453.982	-200.000	-0.178	0.001
-452.968	87.329	-0.073	-0.081
-451.953	77.247	0.202	0.215
-450.938	-118.951	-0.168	-0.030
-449.924	-21.389	0.188	-0.115
-448.909	-200.000	-0.021	0.326
-447.895	-200.000	-0.007	-0.033
-446.880	800.000	0.092	0.295
-445.865	-100.038	0.126	-0.031
-444.851	800.000	-0.037	0.115
-443.836	24.848	0.077	0.064
-442.822	800.000	0.033	-0.103
-441.807	134.905	-0.130	0.169
-440.792	-154.427	-0.212	0.014
-439.778	20.118	-0.205	0.166
-438.763	187.424	0.186	-0.277
-437.749	188.362	0.098	0.146
-436.734	86.194	-0.164	-0.181
-435.719	800.000	-0.098	0.350
-434.705	158.280	-0.063	0.087
-433.690	-72.336	0.152	0.056
-432.676	-22.749	-0.298	0.180
-431.661	-200.000	-0.005	-0.201
-430.646	-115.496	0.317	-0.060
-429.632	40.034	0.206	0.185
-428.617	-97.407	0.125	-0.032
-427.603	165.955	0.020	-0.028
-426.588	54.257	-0.058	-0.056
-425.573	-20.644	-0.191	0.117
-424.559	48.922	0.112	-0.105
-423.544	-200.000	-0.024	0.164
-422.530	-76.293	-0.192	-0.068
-421.515	-200.000	0.044	-0.408
-420.500	-200.000	-0.010	-0.168
-419.486	83.135	-0.325	-0.354
-418.471	-200.000	-0.011	-0.084
-417.457	800.000	-0.044	-0.168
-416.442	338.093	-0.150	-0.291
-415.428	-200.000	-0.038	-0.430
-414.413	512.839	0.017	-0.040
-413.398	483.910	-0.028	-0.063
-412.384	321.412	0.025	0.047
-411.369	8.309	0.358	0.269
-410.355	800.000	0.127	0.396
-409.340	800.000	-0.073	0.256
-408.325	23.167	-0.097	-0.080
-407.311	256.870	0.055	-0.095
-406.296	387.666	-0.081	-0.168
-405.282	800.000	0.032	0.121
-404.267	-1.817	0.198	0.139
-403.252	-200.000	0.013	0.235
-402.238	-200.000	0.002	-0.156
-401.223	15.450	0.148	0.116
-400.209	95.466	-0.275	-0.313
-399.194	800.000	0.080	-0.328
-398.179	667.282	-0.092	-0.238
-397.165	471.347	0.027	0.060
-396.150	-119.435	0.101	0.018
-395.136	-52.544	0.313	-0.145
-394.121	579.776	-0.020	0.048
-393.106	17.839	-0.070	-0.055
-392.092	800.000	0.032	0.135
-391.077	-105.915	0.161	0.036
-390.063	144.627	0.083	-0.111
-389.048	-37.846	0.255	0.135
-388.033	479.846	-0.028	0.064
-387.019	8.848	0.251	0.189
-386.004	-34.568	-0.250	-0.137
-384.990	-200.000	0.063	-0.499
-383.975	-200.000	0.008	-0.233
-382.960	-142.216	0.143	-0.014
-381.946	800.000	-0.039	-0.155
-380.931	-200.000	-0.059	-0.536
-379.917	-200.000	0.000	-0.053
-378.902	-110.601	0.090	0.019
-377.888	-159.774	-0.078	-0.004
-376.873	422.225	0.080	0.171
-375.858	-66.050	-0.414	-0.165
-374.844	104.902	0.049	-0.058
-373.829	105.366	0.091	-0.107
-372.815	157.226	-0.065	-0.090
-371.800	800.000	0.092	0.271
-370.785	-200.000	0.031	0.163
-369.771	-200.000	0.041	-0.388
-368.756	-28.978	-0.033	-0.019
-367.742	-64.190	0.119	-0.049
-366.727	-200.000	-0.001	-0.192
-365.712	174.701	-0.264	0.381
-364.698	129.803	0.144	0.184
-363.683	-169.080	0.207	0.008
-362.669	643.888	-0.061	0.156
-361.654	-86.596	-0.381	0.117
-360.639	-98.790	-0.102	-0.026
-359.625	-198.505	-0.078	0.000
-358.610	9.987	0.250	-0.190
-357.596	-200.000	0.000	0.043
-356.581	-34.031	0.082	-0.045
-355.566	-54.444	0.292	0.132
-354.552	41.039	0.197	-0.177
-353.537	19.231	0.306	-0.245
-352.523	-200.000	0.031	0.148
-351.508	800.000	0.053	0.183
-350.493	-81.785	-0.213	-0.070
-349.479	28.359	-0.276	-0.233
-348.464	262.830	-0.130	-0.225
-347.450	-104.802	-0.391	-0.090
-346.435	-200.000	-0.031	0.384
-345.420	-33.745	-0.168	0.092
-344.406	-200.000	-0.019	0.138
-343.391	-118.043	0.354	0.063
-342.377	-84.198	-0.240	0.076
-341.362	800.000	-0.065	-0.251
-340.348	-145.340	0.091	-0.008
-339.333	-125.123	0.466	-0.071
-338.318	-71.260	0.126	0.047
-337.304	9.307	0.120	-0.090
-336.289	-109.470	0.366	-0.077
-335.275	234.489	0.131	0.216
-334.260	251.160	-0.002	0.004
-333.245	-126.911	0.210	-0.031
-332.231	-128.662	-0.120	0.017
-331.216	17.916	0.056	-0.044
-330.202	-200.000	-0.036	0.225
-329.187	-104.447	0.224	0.052
-328.172	800.000	-0.038	-0.138
-327.158	-172.941	-0.149	0.005
-326.143	135.013	-0.094	-0.121
-325.129	-49.363	-0.096	0.046
-324.114	396.589	-0.165	-0.343
-323.099	-66.144	-0.226	0.090
-322.085	282.266	-0.121	-0.216
-321.070	-30.766	-0.277	-0.156
-320.056	-200.000	0.044	0.313
-319.041	-200.000	-0.022	-0.184
-318.026	310.537	0.041	-0.076
-317.012	287.272	-0.054	0.098
-315.997	-125.596	-0.265	0.040
-314.983	800.000	-0.134	0.376
-313.968	68.825	0.034	-0.034
-312.953	-200.000	0.010	0.380
-311.939	-200.000	-0.017	-0.212
-310.924	90.236	-0.108	-0.121
-309.910	-200.000	0.011	0.127
-308.895	608.382	-0.086	0.215
-307.880	-200.000	-0.064	-0.407
-306.866	21.861	0.105	-0.086
-305.851	470.108	0.078	-0.174
-304.837	543.031	-0.067	-0.159
-303.822	255.096	0.091	-0.156
-302.807	-15.924	0.044	-0.028
-301.793	415.220	0.075	0.158
-300.778	-160.494	0.125	0.007
-299.764	800.000	0.049	-0.161
-298.749	-3.405	-0.117	0.081
-297.735	108.725	-0.184	0.219
-296.720	32.467	0.307	-0.264
-295.705	-81.161	-0.317	-0.104
-294.691	-183.012	-0.226	-0.004
-293.676	-192.706	0.021	-0.000
-292.662	-63.486	-0.437	-0.179
-291.647	-111.018	-0.244	0.050
-290.632	-79.227	0.061	0.021
-289.618	-200.000	0.022	-0.350
-288.603	-18.872	-0.188	-0.117
-287.589	63.972	0.392	0.392
-286.574	36.556	-0.129	-0.113
-285.559	658.744	-0.009	-0.024
-284.545	-25.461	0.144	-0.085
-283.530	226.378	0.052	0.084
-282.516	-200.000	-0.025	-0.117
-281.501	228.490	0.141	0.229
-280.486	-149.303	-0.193	-0.015
-279.472	-200.000	-0.034	0.312
-278.457	-68.511	-0.157	0.061
-277.443	-5.760	0.161	-0.110
-276.428	800.000	-0.042	0.155
-275.413	-200.000	0.026	0.149
-274.399	584.235	0.118	0.290
-273.384	-84.105	-0.079	0.025
-272.370	-108.639	-0.170	0.036
-271.355	-81.102	0.025	-0.008
-270.340	5.117	0.137	0.101
-269.326	-65.441	-0.379	-0.152
-268.311	330.678	0.114	0.218
-267.297	145.834	0.015	0.020
-266.282	-48.163	-0.118	-0.057
-265.267	98.148	-0.161	-0.184
-264.253	-53.331	-0.061	-0.028
-263.238	12.951	-0.131	0.101
-262.224	495.126	0.114	-0.259
-261.209	360.316	0.028	-0.057
-260.195	-2.726	0.284	0.197
-259.180	355.651	0.237	0.470
-258.165	-46.157	-0.294	0.144
-257.151	263.012	0.203	0.351
-256.136	111.058	-0.139	-0.166
-255.122	-38.532	0.248	-0.131
-254.107	14.721	-0.141	-0.109
-253.092	-56.051	0.253	-0.112
-252.078	-125.314	0.121	0.018
-251.063	-200.000	0.053	-0.288
-250.049	691.462	-0.108	-0.281
-249.034	-74.379	-0.064	0.023
-248.019	800.000	-0.085	-0.263
-247.005	-200.000	0.044	-0.228
-245.990	163.735	0.364	-0.509
-244.976	31.719	-0.289	0.247
-243.961	-171.335	0.102	0.003
-242.946	45.943	-0.098	0.090
-241.932	-186.400	-0.239	-0.003
-240.917	-102.786	0.138	0.033
-239.903	353.173	-0.050	0.100
-238.888	-157.418	-0.222	0.013
-237.873	62.967	-0.121	0.121
-236.859	-102.491	-0.162	-0.039
-235.844	-66.033	-0.316	-0.125
-234.830	800.000	0.103	0.285
-233.815	800.000	0.058	0.240
-232.800	-136.566	0.152	0.017
-231.786	5.437	0.303	0.222
-230.771	-200.000	-0.030	0.303
-229.757	-200.000	-0.068	0.310
-228.742	-90.026	0.108	-0.031
-227.727	-44.740	0.164	-0.081
-226.713	-200.000	-0.231	-0.000
-225.698	-200.000	-0.010	0.184
-224.684	800.000	-0.146	0.448
-223.669	-104.640	-0.261	-0.060
-222.655	-113.443	-0.284	0.055
-221.640	12.019	-0.175	-0.133
-220.625	32.757	0.072	-0.062
-219.611	-74.323	0.112	-0.040
-218.596	183.842	0.177	0.260
-217.582	-39.906	0.131	-0.068
-216.567	-162.678	-0.251	-0.012
-215.552	41.959	-0.356	0.321
-214.538	-200.000	0.041	0.187
-213.523	149.804	-0.071	0.096
-212.509	-81.330	-0.148	-0.049
-211.494	800.000	0.013	-0.039
-210.479	249.096	-0.239	0.401
-209.465	178.339	0.116	-0.168
-208.450	185.551	0.053	0.079
-207.436	130.106	-0.230	0.292
-206.421	16.064	-0.201	-0.157
-205.406	-118.962	0.179	0.031
-204.392	43.153	-0.035	0.032
-203.377	-200.000	-0.038	0.271
-202.363	800.000	-0.072	-0.205
-201.348	800.000	-0.106	-0.295
-200.333	175.067	-0.098	0.141
-199.319	800.000	0.024	-0.101
-198.304	-200.000	0.012	0.218
-197.290	490.812	-0.090	0.204
-196.275	158.659	-0.089	-0.122
-195.260	130.194	0.245	0.311
-194.246	800.000	-0.061	-0.223
-193.231	277.200	-0.120	-0.213
-192.217	800.000	0.050	0.157
-191.202	186.596	0.099	-0.146
-190.187	228.078	-0.108	-0.175
-189.173	20.353	-0.158	-0.127
-188.158	-169.436	-0.228	0.008
-187.144	85.572	0.103	-0.113
-186.129	460.158	0.054	0.119
-185.114	800.000	0.044	-0.129
-184.100	-123.643	0.075	0.012
-183.085	-200.000	-0.007	-0.186
-182.071	-134.642	0.340	0.041
-181.056	-76.946	-0.318	0.110
-180.042	207.997	0.235	0.364
-179.027	-173.152	-0.224	0.007
-178.012	475.968	0.040	0.090
-176.998	-200.000	-0.007	0.199
-175.983	390.503	0.080	-0.164
-174.969	-112.484	0.235	-0.047
-173.954	89.327	0.153	0.169
-172.939	800.000	0.084	0.253
-171.925	58.320	0.186	0.180
-170.910	38.778	0.289	0.256
-169.896	-200.000	0.008	-0.541
-168.881	261.273	-0.031	-0.053
-167.866	5.129	-0.381	0.278
-166.852	-127.729	0.194	-0.028
-165.837	-78.606	-0.157	0.053
-164.823	135.784	0.040	-0.051
-163.808	-43.507	-0.158	0.079
-162.793	10.270	-0.050	0.037
-161.779	-51.112	0.254	-0.118
-160.764	254.535	0.029	-0.050
-159.750	800.000	-0.061	0.260
-158.735	478.158	0.094	0.211
-157.720	26.917	0.155	-0.129
-156.706	-99.854	0.234	-0.058
-155.691	-150.044	0.330	0.025
-154.677	580.702	0.163	0.394
-153.662	126.661	-0.253	-0.317
-152.647	240.672	0.075	0.123
-151.633	4.945	0.140	-0.102
-150.618	237.689	-0.048	-0.080
-149.604	-91.326	0.220	-0.062
-148.589	-14.761	0.012	-0.007
-147.574	200.736	0.163	0.248
-146.560	800.000	-0.017	0.074
-145.545	252.891	0.118	0.199
-144.531	113.546	-0.081	0.098
-143.516	-102.546	0.427	0.101
-142.502	-200.000	-0.021	-0.169
-141.487	288.041	-0.077	-0.138
-140.472	79.922	0.082	0.088
-139.458	192.363	0.168	-0.251
-138.443	-200.000	-0.057	-0.325
-137.429	7.670	-0.085	0.063
-136.414	-33.759	-0.079	-0.043
-135.399	-200.000	0.036	0.344
-134.385	800.000	-0.086	0.289
-133.370	-26.774	-0.246	-0.142
-132.356	18.736	-0.224	-0.178
-131.341	-31.328	0.187	-0.104
-130.326	800.000	-0.095	0.335
-129.312	260.810	-0.117	-0.200
-128.297	-94.167	-0.192	-0.052
-127.283	-200.000	0.064	-0.371
-126.268	-89.467	-0.067	0.019
-125.253	-38.971	-0.037	0.019
-124.239	436.125	-0.158	-0.341
-123.224	-200.000	-0.002	0.025
-122.210	-200.000	0.015	0.457
