DTS Sentinel unit serial number:	SN413079Multiplexer serial number:	ORYXHardware model number:	OX4-SRSoftware version number:	ORYX F/W v4.00 Oryx Data Collector v3.7.2.0data status	okinstallation	princeton_trtdifferential loss correction	single-endedforward channel	channel 2reverse channel	N/Adate	2019/09/18time	22:15:35forward acquisition time	60.00reverse acquisition time	0.00gamma	496.2192k internal	0.2349k external	0.2349temperature offset calibration	1.0018default loss term (dB/km)	0.3790temperature slope calibration	1.0000multiplexer offset coefficient	1.0000multiplexer slope coefficient	1.0000fibre end	0.00T internal ref (°C)	24.37T ext. ref 1 (°C)	0.80T ext. ref 2 (°C)	18.18length (m)	temperature (°C)	Stokes	anti-Stokes-747.200	-111.839	0.383	-0.077
-746.185	-200.000	0.009	-0.078
-745.171	-200.000	-0.040	-0.303
-744.156	35.828	-0.257	-0.226
-743.142	-200.000	-0.062	-0.369
-742.127	-200.000	-0.080	0.351
-741.112	-200.000	-0.013	-0.101
-740.098	800.000	-0.072	0.234
-739.083	12.167	0.239	0.184
-738.069	800.000	0.095	0.395
-737.054	-200.000	0.030	-0.518
-736.039	138.274	0.241	-0.316
-735.025	91.606	-0.107	0.120
-734.010	403.999	-0.035	-0.073
-732.996	39.187	-0.303	-0.271
-731.981	-200.000	-0.008	-0.340
-730.966	-98.540	0.181	0.046
-729.952	-48.975	-0.220	-0.105
-728.937	-7.782	-0.060	-0.040
-727.923	800.000	-0.133	-0.483
-726.908	66.836	-0.127	-0.129
-725.894	20.333	-0.106	-0.086
-724.879	-106.750	-0.181	-0.040
-723.864	-200.000	-0.012	0.140
-722.850	-117.870	0.123	-0.022
-721.835	800.000	0.065	0.182
-720.821	-161.745	-0.113	0.006
-719.806	800.000	-0.069	-0.214
-718.791	182.676	0.223	-0.328
-717.777	198.351	-0.185	-0.282
-716.762	5.571	-0.269	-0.198
-715.748	241.503	0.114	-0.189
-714.733	-181.145	-0.168	-0.003
-713.718	538.174	0.027	-0.064
-712.704	60.738	-0.082	0.081
-711.689	-29.373	0.205	-0.117
-710.675	-200.000	-0.057	-0.281
-709.660	8.229	0.137	-0.102
-708.645	162.598	0.216	-0.302
-707.631	590.270	0.053	-0.129
-706.616	402.950	0.152	0.318
-705.602	-122.998	-0.316	-0.051
-704.587	243.047	-0.163	0.273
-703.572	546.953	-0.174	0.414
-702.558	143.506	0.136	0.181
-701.543	-200.000	0.006	-0.390
-700.529	-28.427	-0.135	-0.077
-699.514	-200.000	-0.041	0.193
-698.499	-200.000	-0.008	-0.280
-697.485	169.629	-0.023	-0.033
-696.470	-7.247	0.187	-0.127
-695.456	-113.181	-0.349	0.068
-694.441	-200.000	0.050	-0.350
-693.426	140.517	-0.190	0.250
-692.412	26.337	-0.133	-0.111
-691.397	-200.000	-0.047	-0.290
-690.383	-19.803	0.196	-0.120
-689.368	61.874	0.138	-0.137
-688.354	81.455	0.098	-0.106
-687.339	114.728	-0.116	-0.141
-686.324	29.278	0.338	-0.286
-685.310	-110.945	0.251	-0.051
-684.295	21.570	-0.060	-0.048
-683.281	-29.510	-0.202	-0.115
-682.266	123.274	-0.064	0.080
-681.251	-72.577	-0.212	0.078
-680.237	75.088	-0.103	-0.108
-679.222	-142.525	0.106	-0.010
-678.208	776.179	-0.034	0.093
-677.193	227.476	-0.102	0.166
-676.178	-130.315	0.323	0.044
-675.164	687.739	-0.108	0.281
-674.149	-73.799	-0.142	-0.051
-673.135	57.813	0.247	-0.241
-672.120	451.851	0.095	-0.209
-671.105	-142.118	0.365	-0.036
-670.091	-146.834	0.221	0.019
-669.076	-170.147	-0.539	0.019
-668.062	-136.337	-0.040	0.005
-667.047	-62.610	-0.128	0.053
-666.032	-13.251	-0.325	-0.210
-665.018	-200.000	0.008	-0.051
-664.003	-73.357	0.315	-0.115
-662.989	-167.589	-0.078	-0.003
-661.974	113.428	-0.168	-0.203
-660.959	-200.000	0.061	-0.346
-659.945	10.789	0.317	-0.241
-658.930	-24.284	0.436	0.259
-657.916	221.107	0.190	-0.304
-656.901	-22.797	-0.286	-0.172
-655.886	-200.000	0.001	-0.175
-654.872	-137.105	-0.333	-0.038
-653.857	-200.000	-0.079	-0.406
-652.843	-177.079	-0.239	0.006
-651.828	-123.700	0.135	-0.021
-650.814	800.000	-0.048	-0.193
-649.799	-155.925	0.381	-0.024
-648.784	536.521	0.102	0.241
-647.770	-134.659	-0.346	0.042
-646.755	-79.683	0.160	0.054
-645.741	67.439	-0.408	-0.414
-644.726	-118.897	0.288	0.050
-643.711	-107.323	-0.241	0.053
-642.697	48.502	-0.189	0.176
-641.682	297.480	0.094	0.173
-640.668	74.945	-0.191	0.200
-639.653	70.277	-0.252	0.259
-638.638	274.964	0.094	0.165
-637.624	800.000	-0.076	-0.321
-636.609	-39.044	0.171	0.089
-635.595	88.061	0.187	0.207
-634.580	-112.740	-0.029	0.006
-633.565	33.157	0.168	-0.145
-632.551	95.383	0.081	-0.091
-631.536	-127.272	-0.124	-0.018
-630.522	-73.166	0.063	0.023
-629.507	-153.604	0.075	-0.005
-628.492	45.555	0.064	0.059
-627.478	123.556	0.097	0.121
-626.463	-177.571	-0.062	0.001
-625.449	800.000	0.106	0.444
-624.434	800.000	0.014	-0.047
-623.419	-130.768	-0.271	-0.036
-622.405	353.870	-0.103	0.204
-621.390	-117.025	0.201	0.036
-620.376	-104.224	0.385	-0.089
-619.361	-7.556	-0.115	0.077
-618.346	-200.000	-0.046	-0.231
-617.332	-12.763	0.021	-0.014
-616.317	373.049	-0.130	0.263
-615.303	101.370	0.081	0.094
-614.288	-200.000	0.004	-0.055
-613.273	-200.000	0.008	0.051
-612.259	-112.859	0.204	-0.040
-611.244	167.198	0.247	-0.349
-610.230	800.000	-0.092	-0.279
-609.215	112.221	-0.137	0.165
-608.201	2.920	-0.154	-0.111
-607.186	223.662	-0.047	0.075
-606.171	100.546	0.055	-0.063
-605.157	-38.001	-0.203	0.107
-604.142	-154.495	-0.194	-0.013
-603.128	-200.000	0.082	-0.363
-602.113	-200.000	-0.022	-0.131
-601.098	30.679	0.197	-0.167
-600.084	-111.199	-0.048	-0.010
-599.069	18.492	0.293	-0.233
-598.055	-78.890	0.187	0.063
-597.040	800.000	-0.069	-0.215
-596.025	260.877	-0.161	-0.276
-595.011	800.000	0.064	-0.212
-593.996	-23.202	0.360	-0.215
-592.982	-86.603	0.218	0.066
-591.967	800.000	-0.088	0.274
-590.952	800.000	0.060	-0.254
-589.938	-200.000	-0.043	-0.368
-588.923	202.222	-0.204	-0.313
-587.909	484.067	-0.093	-0.211
-586.894	-200.000	-0.007	-0.062
-585.879	41.898	-0.129	-0.116
-584.865	-144.316	0.206	-0.019
-583.850	-200.000	0.001	-0.144
-582.836	685.770	-0.064	0.167
-581.821	53.678	-0.099	0.094
-580.806	-44.404	-0.109	0.054
-579.792	-90.708	-0.389	0.112
-578.777	-46.577	-0.087	-0.042
-577.763	-64.621	-0.083	0.033
-576.748	117.389	-0.053	-0.065
-575.733	-82.151	-0.336	0.109
-574.719	800.000	0.037	-0.116
-573.704	81.104	-0.161	-0.173
-572.690	78.690	-0.073	-0.077
-571.675	2.353	-0.068	-0.049
-570.661	-19.314	-0.101	0.062
-569.646	-146.143	-0.248	-0.022
-568.631	556.504	-0.257	-0.614
-567.617	800.000	-0.030	-0.097
-566.602	120.828	-0.122	-0.150
-565.588	10.126	-0.242	0.182
-564.573	-95.403	-0.133	-0.036
-563.558	492.811	0.093	0.211
-562.544	-37.756	-0.177	-0.093
-561.529	-86.620	0.273	-0.083
-560.515	-87.757	-0.340	-0.102
-559.500	-167.322	-0.539	-0.022
-558.485	-100.987	0.224	0.055
-557.471	188.297	-0.011	-0.017
-556.456	-3.049	0.148	-0.103
-555.442	-123.323	-0.220	0.035
-554.427	-137.962	0.397	-0.044
-553.412	178.234	-0.110	-0.159
-552.398	-136.303	0.202	0.023
-551.383	-24.413	-0.206	-0.122
-550.369	59.891	0.154	0.150
-549.354	-200.000	-0.025	0.118
-548.339	27.667	0.315	-0.263
-547.325	91.272	-0.147	0.163
-546.310	-128.847	-0.198	0.028
-545.296	-21.750	-0.083	-0.050
-544.281	64.994	-0.124	-0.124
-543.266	-69.923	0.316	-0.120
-542.252	800.000	0.038	0.108
-541.237	700.782	0.020	-0.051
-540.223	800.000	-0.047	0.157
-539.208	618.529	0.036	-0.088
-538.193	62.740	0.193	0.191
-537.179	-138.645	-0.138	-0.015
-536.164	800.000	-0.036	0.137
-535.150	-86.369	-0.073	0.022
-534.135	26.445	0.094	-0.078
-533.121	-200.000	-0.005	-0.374
-532.106	-200.000	0.045	-0.287
-531.091	15.773	-0.193	-0.150
-530.077	-200.000	0.039	0.179
-529.062	-152.215	0.247	0.018
-528.048	42.982	-0.149	-0.135
-527.033	160.115	-0.086	0.119
-526.018	-200.000	0.005	0.057
-525.004	-174.314	0.192	0.006
-523.989	800.000	-0.115	-0.364
-522.975	595.741	0.169	-0.414
-521.960	125.570	-0.065	0.082
-520.945	12.330	0.239	0.182
-519.931	-200.000	-0.039	-0.244
-518.916	-146.365	0.235	0.020
-517.902	-13.822	0.360	0.231
-516.887	79.955	-0.008	-0.008
-515.872	-36.711	0.043	-0.023
-514.858	10.311	0.320	-0.241
-513.843	643.755	-0.132	-0.333
-512.829	-200.000	0.036	0.211
-511.814	2.381	0.263	-0.188
-510.799	-123.912	-0.300	0.047
-509.785	800.000	-0.043	-0.135
-508.770	-145.350	0.193	-0.017
-507.756	-200.000	-0.018	0.090
-506.741	-0.712	-0.312	-0.219
-505.726	417.169	-0.066	-0.139
-504.712	-161.961	0.345	0.017
-503.697	304.978	-0.168	0.309
-502.683	69.983	0.246	0.251
-501.668	-171.964	0.404	0.013
-500.653	428.065	0.093	0.198
-499.639	-76.339	0.252	0.088
-498.624	263.412	0.031	-0.053
-497.610	-73.969	0.161	0.058
-496.595	-32.643	-0.347	-0.191
-495.581	-95.708	-0.424	-0.112
-494.566	-19.180	0.174	-0.107
-493.551	634.600	-0.149	-0.373
-492.537	-30.759	0.216	0.121
-491.522	204.230	0.018	0.028
-490.508	-200.000	-0.055	-0.346
-489.493	14.246	0.295	0.227
-488.478	-200.000	0.011	-0.147
-487.464	36.416	-0.330	-0.288
-486.449	280.346	-0.171	-0.302
-485.435	50.768	0.184	0.172
-484.420	-83.561	-0.360	0.114
-483.405	-74.182	-0.105	0.038
-482.391	279.844	-0.078	0.138
-481.376	-78.975	0.102	0.034
-480.362	94.007	-0.099	-0.110
-479.347	-98.573	0.148	0.037
-478.332	-200.000	0.086	0.372
-477.318	-122.426	0.159	-0.026
-476.303	-200.000	0.004	0.291
-475.289	-142.190	0.171	-0.017
-474.274	278.895	0.025	-0.044
-473.259	125.787	-0.165	-0.206
-472.245	-200.000	0.010	0.275
-471.230	166.249	-0.205	0.287
-470.216	-17.141	-0.176	0.109
-469.201	-200.000	0.009	0.152
-468.186	-0.523	-0.126	0.088
-467.172	800.000	0.042	0.154
-466.157	449.068	0.033	-0.071
-465.143	-72.373	0.126	0.046
-464.128	-200.000	0.026	0.284
-463.113	800.000	0.046	-0.140
-462.099	183.064	-0.138	-0.201
-461.084	-18.930	0.115	0.071
-460.070	123.019	0.182	0.225
-459.055	-200.000	0.023	0.157
-458.040	200.662	0.119	0.180
-457.026	-11.281	-0.036	0.024
-456.011	-180.363	0.296	0.006
-454.997	-9.744	0.250	0.165
-453.982	-41.229	0.195	-0.099
-452.968	34.810	-0.306	0.265
-451.953	-129.893	0.048	-0.007
-450.938	699.537	0.085	0.220
-449.924	48.315	-0.152	0.140
-448.909	48.109	-0.290	-0.268
-447.895	516.525	-0.150	0.346
-446.880	77.266	0.227	-0.239
-445.865	800.000	0.027	0.081
-444.851	-104.813	0.272	0.062
-443.836	103.900	-0.210	0.244
-442.822	-135.047	-0.301	0.036
-441.807	319.034	-0.132	0.248
-440.792	800.000	0.030	-0.118
-439.778	-34.277	-0.006	-0.003
-438.763	-200.000	-0.043	-0.187
-437.749	-96.522	-0.038	0.010
-436.734	0.582	-0.239	0.168
-435.719	-96.934	0.274	0.071
-434.705	183.395	0.130	0.189
-433.690	73.724	-0.246	-0.254
-432.676	-74.309	0.193	0.069
-431.661	-144.112	0.135	0.012
-430.646	-123.742	-0.166	-0.026
-429.632	96.093	-0.238	-0.268
-428.617	190.229	-0.076	-0.113
-427.603	-70.340	0.263	-0.098
-426.588	-55.735	-0.093	0.041
-425.573	-48.311	-0.224	-0.106
-424.559	-72.076	0.131	0.048
-423.544	-68.230	0.087	0.033
-422.530	-71.206	0.203	0.075
-421.515	-49.271	-0.040	-0.019
-420.500	-89.695	-0.244	-0.070
-419.486	800.000	0.059	-0.223
-418.471	45.123	-0.082	-0.074
-417.457	-200.000	-0.010	0.044
-416.442	21.896	-0.039	0.031
-415.428	-200.000	0.034	-0.289
-414.413	356.521	-0.071	-0.139
-413.398	278.842	0.163	-0.287
-412.384	8.395	0.276	0.204
-411.369	240.736	0.080	-0.132
-410.355	-200.000	-0.031	0.238
-409.340	-87.548	-0.247	-0.073
-408.325	-52.381	0.147	0.067
-407.311	-89.743	0.046	0.013
-406.296	-200.000	-0.029	-0.225
-405.282	-9.329	-0.144	0.095
-404.267	12.437	-0.101	-0.077
-403.252	452.823	0.031	-0.067
-402.238	-200.000	0.004	0.046
-401.223	-166.356	0.147	-0.006
-400.209	-56.670	-0.134	0.058
-399.194	32.016	0.232	0.197
-398.179	-157.171	-0.257	-0.015
-397.165	-175.350	-0.115	-0.003
-396.150	-76.697	0.240	-0.083
-395.136	-29.103	0.153	0.087
-394.121	-200.000	0.051	-0.244
-393.106	-173.624	-0.292	0.009
-392.092	-130.106	-0.165	-0.022
-391.077	-200.000	0.036	0.289
-390.063	-200.000	-0.045	-0.340
-389.048	-22.622	-0.065	-0.039
-388.033	800.000	-0.128	0.495
-387.019	265.067	-0.123	0.210
-386.004	-54.121	0.366	0.164
-384.990	800.000	-0.074	-0.294
-383.975	438.080	-0.133	-0.285
-382.960	591.091	-0.023	-0.056
-381.946	-79.976	-0.171	-0.056
-380.931	-54.372	0.304	0.136
-379.917	174.985	-0.116	-0.165
-378.902	753.416	-0.075	0.200
-377.888	-87.116	-0.059	0.018
-376.873	-150.358	-0.229	0.017
-375.858	-200.000	-0.068	-0.303
-374.844	-200.000	-0.044	-0.238
-373.829	405.802	0.054	0.112
-372.815	14.744	-0.101	-0.078
-371.800	-77.698	-0.205	0.070
-370.785	27.066	-0.174	-0.143
-369.771	16.143	-0.080	0.062
-368.756	-102.754	-0.359	0.084
-367.742	800.000	-0.105	-0.311
-366.727	-149.520	-0.082	0.006
-365.712	290.623	0.100	0.178
-364.698	-93.106	-0.322	-0.088
-363.683	-200.000	0.028	0.230
-362.669	330.096	0.046	-0.088
-361.654	11.411	-0.097	0.073
-360.639	-200.000	-0.014	0.220
-359.625	143.661	-0.135	0.176
-358.610	-5.481	-0.062	-0.042
-357.596	800.000	-0.090	0.323
-356.581	11.235	-0.071	0.054
-355.566	-121.616	0.237	-0.039
-354.552	62.495	0.108	-0.106
-353.537	-200.000	0.026	-0.294
-352.523	46.786	0.268	-0.245
-351.508	201.364	-0.082	0.124
-350.493	-173.396	-0.219	-0.007
-349.479	81.489	0.136	0.145
-348.464	62.168	-0.075	-0.074
-347.450	104.593	0.265	0.307
-346.435	-200.000	0.020	-0.133
-345.420	800.000	0.043	-0.161
-344.406	12.249	-0.181	-0.137
-343.391	-39.937	-0.268	0.137
-342.377	800.000	-0.035	-0.101
-341.362	107.859	-0.065	-0.076
-340.348	-114.072	-0.121	0.023
-339.333	800.000	-0.024	0.070
-338.318	728.330	0.055	0.144
-337.304	-88.588	0.293	-0.086
-336.289	143.676	0.194	0.255
-335.275	-200.000	-0.021	-0.175
-334.260	-200.000	0.101	-0.000
-333.245	181.489	0.122	0.176
-332.231	15.550	-0.041	-0.031
-331.216	-194.072	-0.302	-0.002
-330.202	-112.136	0.214	-0.042
-329.187	131.039	0.176	0.221
-328.172	484.658	0.130	-0.291
-327.158	-164.405	-0.336	-0.015
-326.143	10.269	-0.316	-0.236
-325.129	18.609	-0.236	0.185
-324.114	-58.126	-0.149	-0.064
-323.099	800.000	0.028	0.105
-322.085	-51.274	0.094	-0.043
-321.070	-85.833	0.286	-0.087
-320.056	800.000	-0.042	0.150
-319.041	26.690	-0.130	-0.107
-318.026	-176.914	-0.215	-0.005
-317.012	340.721	0.009	0.018
-315.997	800.000	0.131	-0.538
-314.983	800.000	-0.027	-0.073
-313.968	2.511	-0.376	0.268
-312.953	112.929	0.074	-0.088
-311.939	-149.460	-0.225	0.018
-310.924	-60.508	-0.159	-0.066
-309.910	102.021	0.172	0.197
-308.895	697.218	0.099	-0.254
-307.880	152.456	-0.126	0.169
-306.866	-200.000	0.023	-0.256
-305.851	155.388	-0.279	0.377
-304.837	-77.725	0.319	-0.108
-303.822	653.792	0.151	0.380
-302.807	800.000	0.073	0.270
-301.793	266.552	-0.096	0.165
-300.778	800.000	0.091	0.272
-299.764	-77.245	0.411	0.140
-298.749	49.142	0.172	0.158
-297.735	59.752	0.173	0.167
-296.720	101.392	-0.214	-0.245
-295.705	-200.000	0.006	-0.400
-294.691	-34.052	0.218	-0.118
-293.676	-200.000	0.013	0.093
-292.662	800.000	-0.013	0.039
-291.647	-19.044	0.192	0.117
-290.632	798.157	-0.056	0.152
-289.618	-40.213	0.342	0.174
-288.603	-4.759	0.270	0.182
-287.589	-200.000	-0.010	-0.193
-286.574	-75.678	0.139	0.048
-285.559	800.000	0.056	-0.162
-284.545	62.335	0.171	0.168
-283.530	-56.148	0.141	-0.062
-282.516	-200.000	0.007	-0.177
-281.501	-1.368	0.332	0.230
-280.486	-157.990	-0.235	0.014
-279.472	-22.522	-0.124	0.073
-278.457	-117.301	0.017	0.003
-277.443	254.164	0.076	0.128
-276.428	-54.338	-0.087	-0.039
-275.413	78.169	0.085	-0.088
-274.399	-200.000	0.033	-0.296
-273.384	29.096	-0.080	0.067
-272.370	72.104	0.108	-0.111
-271.355	-71.412	0.083	0.030
-270.340	-103.554	-0.132	-0.030
-269.326	-55.042	-0.313	0.138
-268.311	-19.269	0.263	-0.160
-267.297	384.255	-0.107	-0.215
-266.282	-118.321	0.300	-0.052
-265.267	-144.572	-0.308	-0.028
-264.253	-200.000	0.022	-0.209
-263.238	-159.890	0.254	-0.014
-262.224	-101.750	0.561	0.133
-261.209	-14.235	-0.196	0.124
-260.195	155.968	0.157	0.212
-259.180	-32.552	0.094	-0.052
-258.165	-200.000	-0.054	-0.386
-257.151	-87.431	-0.326	0.097
-256.136	-200.000	-0.017	0.208
-255.122	27.188	-0.132	0.109
-254.107	800.000	0.089	-0.269
-253.092	-90.528	0.274	-0.078
-252.078	-22.567	-0.031	-0.018
-251.063	800.000	0.074	-0.235
-250.049	18.395	-0.109	0.086
-249.034	800.000	0.112	-0.461
-248.019	-76.945	-0.250	0.085
-247.005	-63.379	-0.125	-0.050
-245.990	-200.000	-0.012	0.197
-244.976	800.000	-0.056	0.195
-243.961	48.021	0.093	0.085
-242.946	480.718	-0.083	0.184
-241.932	-85.201	-0.216	-0.066
-240.917	-68.145	-0.198	-0.076
-239.903	201.889	0.114	-0.172
-238.888	232.628	0.038	-0.061
-237.873	129.504	-0.113	-0.142
-236.859	-171.600	0.119	-0.004
-235.844	-55.667	-0.286	0.125
-234.830	37.281	0.325	0.282
-233.815	117.877	0.122	-0.147
-232.800	-154.531	0.243	0.016
-231.786	-116.609	-0.155	0.028
-230.771	-200.000	-0.033	-0.310
-229.757	-151.467	0.103	0.008
-228.742	162.719	-0.007	0.010
-227.727	115.112	-0.260	0.310
-226.713	-151.864	-0.044	0.003
-225.698	-200.000	-0.043	0.211
-224.684	47.241	0.193	0.176
-223.669	-91.515	-0.092	0.026
-222.655	-150.431	-0.389	0.029
-221.640	250.209	0.169	0.281
-220.625	41.759	0.010	-0.009
-219.611	800.000	-0.073	0.279
-218.596	-200.000	-0.019	-0.142
-217.582	67.324	-0.100	-0.099
-216.567	800.000	-0.036	0.142
-215.552	-44.697	-0.236	-0.115
-214.538	-161.014	0.266	0.014
-213.523	-45.433	0.071	0.034
-212.509	198.173	0.113	-0.170
-211.494	410.135	-0.059	0.122
-210.479	-200.000	0.005	0.164
-209.465	-144.303	-0.262	-0.024
-208.450	-51.117	0.091	-0.042
-207.436	-196.926	0.268	0.002
-206.421	-200.000	0.029	-0.267
-205.406	-200.000	-0.024	0.144
-204.392	-51.316	0.337	0.154
-203.377	150.989	0.203	-0.270
-202.363	-115.064	0.104	0.019
-201.348	800.000	-0.095	0.264
-200.333	-174.239	0.298	-0.008
-199.319	-57.928	0.171	-0.073
-198.304	-21.541	0.270	0.161
-197.290	-200.000	-0.018	0.135
-196.275	800.000	-0.054	-0.158
-195.260	528.133	-0.054	0.126
-194.246	-80.886	0.085	-0.028
-193.231	800.000	0.026	0.084
-192.217	-200.000	0.001	0.308
-191.202	-149.382	-0.118	0.009
-190.187	-8.817	0.122	-0.080
-189.173	-76.172	-0.116	0.040
-188.158	800.000	0.042	0.123
-187.144	154.008	-0.092	-0.124
-186.129	-97.357	-0.134	-0.034
-185.114	-1.672	0.109	0.075
-184.100	329.758	-0.057	0.107
-183.085	85.576	0.190	-0.204
-182.071	214.476	0.143	-0.221
-181.056	35.839	0.157	-0.135
-180.042	-41.215	-0.161	0.081
-179.027	-115.317	-0.310	-0.057
-178.012	364.980	0.180	-0.353
-176.998	800.000	-0.057	0.168
-175.983	123.244	-0.150	-0.184
-174.969	241.879	-0.147	0.240
-173.954	19.308	-0.312	-0.245
-172.939	-45.761	0.113	0.054
-171.925	-200.000	0.007	0.187
-170.910	800.000	-0.033	0.121
-169.896	115.904	0.199	-0.238
-168.881	80.610	-0.184	0.194
-167.866	134.342	-0.043	0.054
-166.852	46.068	0.085	0.077
-165.837	-35.304	-0.127	-0.068
-164.823	261.023	-0.077	-0.130
-163.808	37.591	0.111	0.096
-162.793	-66.771	-0.100	0.039
-161.779	51.174	0.180	0.167
-160.764	-170.249	-0.188	-0.006
-159.750	-119.123	-0.067	0.011
-158.735	164.234	0.024	0.033
-157.720	196.292	0.158	0.235
-156.706	-200.000	-0.014	0.466
-155.691	54.600	0.094	0.089
-154.677	-4.986	-0.182	0.122
-153.662	310.847	0.170	0.312
-152.647	104.533	0.062	0.071
-151.633	-102.792	0.540	0.125
-150.618	-200.000	-0.009	-0.134
-149.604	780.881	0.096	-0.257
-148.589	-92.734	-0.159	0.043
-147.574	329.538	-0.088	0.165
-146.560	-200.000	-0.003	-0.167
-145.545	-55.602	-0.145	0.063
-144.531	76.430	0.185	-0.191
-143.516	-99.936	-0.144	-0.035
-142.502	140.476	0.100	-0.129
-141.487	-56.340	-0.298	-0.129
-140.472	-25.598	0.225	-0.129
-139.458	-34.024	0.060	-0.032
-138.443	-54.093	0.220	0.098
-137.429	-170.943	0.201	-0.007
-136.414	-157.623	0.098	-0.006
-135.399	-200.000	-0.263	0.000
-134.385	2.133	0.144	0.101
-133.370	-91.781	0.157	-0.044
-132.356	800.000	-0.070	-0.249
-131.341	-74.154	0.231	0.082
-130.326	800.000	-0.074	-0.241
-129.312	53.244	0.265	-0.248
-128.297	-152.525	-0.329	0.023
-127.283	-46.957	0.127	0.060
-126.268	-200.000	0.035	0.235
-125.253	43.602	0.176	0.157
-124.239	519.638	0.145	0.332
-123.224	7.574	0.126	0.092
-122.210	-49.125	-0.366	-0.171
-121.195	-44.728	-0.245	0.119
