DTS Sentinel unit serial number:	SN413079Multiplexer serial number:	ORYXHardware model number:	OX4-SRSoftware version number:	ORYX F/W v4.00 Oryx Data Collector v3.7.2.0data status	okinstallation	princeton_trtdifferential loss correction	single-endedforward channel	channel 2reverse channel	N/Adate	2019/09/11time	16:37:11forward acquisition time	60.00reverse acquisition time	0.00gamma	496.2192k internal	0.2284k external	0.2284temperature offset calibration	1.0018default loss term (dB/km)	0.3790temperature slope calibration	1.0000multiplexer offset coefficient	1.0000multiplexer slope coefficient	1.0000fibre end	0.00T internal ref (°C)	43.77T ext. ref 1 (°C)	1.10T ext. ref 2 (°C)	39.08length (m)	temperature (°C)	Stokes	anti-Stokes-747.200	-37.414	0.226	-0.124
-746.185	104.871	-0.236	0.286
-745.171	67.045	0.121	-0.126
-744.156	90.893	-0.140	0.161
-743.142	-23.637	-0.137	0.085
-742.127	-200.000	0.008	0.188
-741.112	-53.675	0.296	0.139
-740.098	-3.229	0.082	0.059
-739.083	157.712	-0.034	-0.048
-738.069	800.000	0.058	-0.219
-737.054	800.000	0.026	0.085
-736.039	-100.106	-0.267	-0.068
-735.025	221.398	0.224	0.370
-734.010	94.400	-0.119	-0.138
-732.996	-130.417	-0.456	-0.063
-731.981	-43.811	0.305	0.158
-730.966	-135.990	-0.132	-0.016
-729.952	636.863	-0.051	-0.132
-728.937	-200.000	0.008	0.071
-727.923	-173.944	-0.201	-0.006
-726.908	-83.740	-0.359	0.118
-725.894	-200.000	-0.026	-0.484
-724.879	-200.000	0.009	-0.233
-723.864	-200.000	-0.050	-0.244
-722.850	-120.035	-0.368	0.065
-721.835	800.000	0.026	0.094
-720.821	-137.991	-0.151	0.017
-719.806	241.933	-0.114	0.196
-718.791	323.046	0.105	0.206
-717.777	255.686	-0.111	0.195
-716.762	362.642	0.178	0.367
-715.748	-200.000	0.002	-0.210
-714.733	-81.652	-0.396	-0.133
-713.718	57.803	-0.202	0.203
-712.704	52.454	-0.207	-0.202
-711.689	-181.463	-0.111	0.002
-710.675	-59.292	0.347	-0.153
-709.660	-123.493	-0.030	0.005
-708.645	-200.000	0.025	-0.148
-707.631	-118.070	0.217	-0.040
-706.616	-70.044	-0.229	0.089
-705.602	27.319	0.304	-0.262
-704.587	-21.425	0.128	-0.080
-703.572	-200.000	0.059	0.333
-702.558	269.129	0.116	-0.208
-701.543	-106.949	0.163	-0.037
-700.529	800.000	-0.049	0.168
-699.514	192.468	0.190	-0.294
-698.499	-21.454	0.159	0.099
-697.485	-200.000	-0.053	0.306
-696.470	-200.000	-0.010	-0.204
-695.456	-200.000	-0.018	0.156
-694.441	-32.047	0.216	0.124
-693.426	-200.000	0.057	-0.334
-692.412	-106.505	0.099	-0.023
-691.397	82.352	-0.135	-0.150
-690.383	-200.000	0.008	-0.093
-689.368	2.541	0.177	0.132
-688.354	800.000	-0.034	-0.102
-687.339	-70.205	-0.140	-0.055
-686.324	221.172	0.073	-0.120
-685.310	-88.157	-0.093	0.028
-684.295	-53.513	0.291	0.136
-683.281	131.663	0.357	0.470
-682.266	-7.082	0.159	-0.110
-681.251	-28.007	-0.490	0.290
-680.237	-200.000	0.004	0.066
-679.222	800.000	0.045	-0.135
-678.208	-43.426	0.273	0.141
-677.193	105.811	-0.180	-0.218
-676.178	800.000	0.108	-0.320
-675.164	208.819	-0.101	-0.161
-674.149	800.000	0.088	-0.373
-673.135	-118.246	-0.496	-0.090
-672.120	332.889	-0.248	0.490
-671.105	128.646	-0.132	0.173
-670.091	610.835	-0.122	-0.313
-669.076	96.111	-0.067	-0.078
-668.062	-95.504	0.057	0.016
-667.047	-122.470	0.319	-0.053
-666.032	-118.495	-0.329	0.060
-665.018	257.156	-0.071	0.124
-664.003	-114.465	0.131	-0.026
-662.989	-1.493	-0.201	0.145
-661.974	-200.000	-0.011	-0.286
-660.959	-200.000	0.064	-0.456
-659.945	-200.000	0.025	0.236
-658.930	-43.302	0.121	0.063
-657.916	25.461	0.200	-0.170
-656.901	-58.671	0.398	-0.177
-655.886	81.618	-0.145	-0.161
-654.872	-14.898	-0.220	-0.144
-653.857	-136.333	0.212	-0.025
-652.843	800.000	0.054	0.221
-651.828	-72.534	0.186	-0.070
-650.814	266.272	0.031	-0.056
-649.799	-200.000	0.003	0.226
-648.784	-46.979	-0.363	0.181
-647.770	-69.450	-0.035	-0.014
-646.755	245.229	0.061	-0.104
-645.741	140.852	0.064	-0.086
-644.726	-53.333	-0.175	0.082
-643.711	-165.906	-0.211	-0.009
-642.697	-80.477	-0.188	-0.064
-641.682	-91.696	-0.292	0.085
-640.668	86.862	0.236	-0.267
-639.653	-87.040	0.303	0.094
-638.638	-200.000	0.042	-0.202
-637.624	67.108	-0.067	0.070
-636.609	213.469	-0.081	0.131
-635.595	155.554	-0.164	0.230
-634.580	18.047	-0.240	-0.196
-633.565	-10.253	-0.328	-0.223
-632.551	800.000	0.037	0.131
-631.536	184.351	-0.150	-0.227
-630.522	-200.000	0.016	-0.618
-629.507	-200.000	0.019	0.089
-628.492	433.813	0.065	0.144
-627.478	800.000	0.091	0.320
-626.463	45.487	-0.146	-0.137
-625.449	-200.000	-0.087	-0.479
-624.434	114.127	-0.123	0.153
-623.419	-109.062	-0.259	0.056
-622.405	-200.000	-0.004	0.028
-621.390	231.496	0.078	-0.131
-620.376	-86.861	0.058	0.018
-619.361	-8.280	-0.080	-0.055
-618.346	-161.483	0.200	0.011
-617.332	131.695	-0.201	-0.265
-616.317	800.000	-0.028	-0.103
-615.303	-15.598	0.504	-0.329
-614.288	-75.392	0.170	0.062
-613.273	-57.336	-0.335	-0.151
-612.259	192.914	0.124	-0.192
-611.244	-82.773	-0.486	-0.161
-610.230	-200.000	0.034	-0.198
-609.215	334.253	0.123	-0.244
-608.201	90.007	0.080	0.091
-607.186	-23.172	-0.320	-0.197
-606.171	238.081	0.141	-0.239
-605.157	676.229	0.170	0.450
-604.142	328.543	-0.083	0.163
-603.128	-40.529	0.188	-0.099
-602.113	265.007	-0.150	-0.266
-601.098	277.280	0.056	0.102
-600.084	800.000	0.041	-0.126
-599.069	-130.612	0.103	0.014
-598.055	800.000	0.070	0.304
-597.040	-200.000	-0.046	0.413
-596.025	108.657	0.084	0.102
-595.011	494.420	0.034	0.080
-593.996	510.147	0.098	0.232
-592.982	30.640	0.119	0.104
-591.967	-200.000	0.080	0.370
-590.952	800.000	-0.089	0.261
-589.938	-84.476	-0.127	-0.041
-588.923	-117.261	0.048	0.009
-587.909	-154.624	0.487	-0.033
-586.894	137.908	-0.074	-0.099
-585.879	-20.493	-0.213	0.134
-584.865	47.975	-0.186	-0.178
-583.850	-103.438	0.030	-0.007
-582.836	28.365	0.150	-0.129
-581.821	445.332	-0.078	-0.176
-580.806	-155.486	0.238	0.016
-579.792	-120.132	-0.174	-0.030
-578.777	-113.404	0.274	-0.055
-577.763	800.000	-0.012	-0.037
-576.748	-109.409	0.210	-0.045
-575.733	-200.000	-0.056	-0.311
-574.719	-200.000	0.009	-0.068
-573.704	-200.000	0.003	-0.037
-572.690	-200.000	0.036	0.271
-571.675	-28.444	0.289	0.170
-570.661	693.728	-0.047	-0.125
-569.646	-200.000	-0.018	-0.138
-568.631	566.668	-0.070	0.173
-567.617	800.000	-0.049	-0.169
-566.602	-200.000	-0.013	0.088
-565.588	-79.194	-0.105	0.036
-564.573	548.769	-0.146	-0.357
-563.558	-143.180	0.112	-0.011
-562.544	800.000	0.083	-0.319
-561.529	-31.943	-0.149	0.085
-560.515	268.583	-0.156	-0.278
-559.500	-200.000	-0.049	0.229
-558.485	-39.890	0.137	0.073
-557.471	-14.979	0.162	0.106
-556.456	53.985	-0.118	0.116
-555.442	22.373	-0.213	-0.177
-554.427	-200.000	-0.016	-0.212
-553.412	47.345	0.165	0.156
-552.398	800.000	-0.035	-0.124
-551.383	-14.047	0.141	0.093
-550.369	-147.747	-0.199	-0.017
-549.354	-69.683	-0.073	-0.028
-548.339	-6.908	-0.159	-0.110
-547.325	-166.215	-0.031	-0.001
-546.310	-140.345	-0.215	0.023
-545.296	36.314	0.188	-0.169
-544.281	776.055	-0.103	-0.287
-543.266	-189.096	0.048	0.001
-542.252	22.656	0.211	0.176
-541.237	93.750	-0.118	-0.136
-540.223	25.089	-0.132	0.111
-539.208	-25.462	-0.261	0.157
-538.193	-57.145	0.188	-0.084
-537.179	-34.418	-0.087	-0.049
-536.164	529.152	0.086	-0.206
-535.150	-52.367	0.047	-0.022
-534.135	27.713	-0.151	0.130
-533.121	97.043	0.086	-0.100
-532.106	-119.886	-0.253	0.044
-531.091	50.170	-0.163	0.157
-530.077	-93.260	0.162	0.046
-529.062	-200.000	0.004	0.046
-528.048	800.000	0.121	-0.478
-527.033	-114.929	-0.430	-0.083
-526.018	-106.787	-0.133	-0.030
-525.004	-168.094	-0.079	-0.003
-523.989	-48.490	-0.218	0.107
-522.975	-118.084	-0.280	0.051
-521.960	94.714	0.199	0.231
-520.945	-200.000	0.009	0.054
-519.931	148.537	0.035	0.048
-518.916	-3.031	-0.161	-0.114
-517.902	-149.182	0.257	-0.021
-516.887	15.314	0.030	0.024
-515.872	60.222	-0.047	0.047
-514.858	800.000	0.009	0.041
-513.843	-200.000	0.024	-0.178
-512.829	138.495	-0.068	-0.090
-511.814	23.663	0.106	-0.089
-510.799	613.385	0.138	-0.351
-509.785	-58.462	0.179	0.079
-508.770	-145.673	0.272	-0.025
-507.756	-150.357	0.137	0.011
-506.741	-113.412	-0.139	-0.028
-505.726	-31.017	0.149	0.086
-504.712	220.773	-0.053	-0.086
-503.697	-97.297	-0.173	0.046
-502.683	-177.368	0.255	-0.006
-501.668	800.000	0.098	-0.359
-500.653	-200.000	0.012	-0.122
-499.639	-9.375	0.164	0.111
-498.624	-126.658	0.395	0.059
-497.610	-44.551	-0.107	-0.054
-496.595	-12.137	-0.073	-0.049
-495.581	308.416	-0.131	0.248
-494.566	-76.522	-0.248	-0.089
-493.551	76.514	0.059	0.064
-492.537	-200.000	0.005	0.120
-491.522	-12.763	0.134	-0.089
-490.508	-10.403	-0.105	-0.071
-489.493	-133.805	-0.064	0.008
-488.478	128.626	-0.065	0.084
-487.464	-82.963	0.297	0.097
-486.449	289.876	-0.009	0.016
-485.435	-40.390	0.223	-0.118
-484.420	-37.187	0.326	-0.178
-483.405	99.749	-0.207	-0.244
-482.391	132.606	0.057	0.074
-481.376	511.557	-0.036	0.086
-480.362	-200.000	-0.005	0.097
-479.347	-200.000	-0.016	0.185
-478.332	95.766	0.296	0.344
-477.318	800.000	-0.109	0.347
-476.303	87.797	0.251	0.282
-475.289	599.428	-0.068	0.171
-474.274	78.384	0.058	0.062
-473.259	19.581	-0.249	0.204
-472.245	-200.000	0.037	-0.386
-471.230	71.872	0.217	-0.229
-470.216	-200.000	-0.011	-0.216
-469.201	-139.539	-0.289	0.031
-468.186	439.242	0.194	-0.430
-467.172	64.730	-0.167	0.171
-466.157	-12.793	0.234	0.155
-465.143	421.358	0.023	0.050
-464.128	-200.000	0.009	-0.203
-463.113	639.707	-0.024	0.061
-462.099	114.238	-0.162	0.200
-461.084	109.274	-0.269	0.328
-460.070	338.020	-0.070	-0.138
-459.055	-200.000	0.020	-0.150
-458.040	-200.000	0.015	-0.291
-457.026	-200.000	0.000	0.450
-456.011	-21.161	-0.214	0.133
-454.997	198.511	0.177	-0.275
-453.982	127.762	0.095	-0.123
-452.968	800.000	0.076	-0.219
-451.953	107.689	0.119	0.144
-450.938	29.426	0.137	-0.118
-449.924	-15.565	0.039	0.025
-448.909	-200.000	0.003	-0.056
-447.895	174.598	-0.199	-0.292
-446.880	800.000	-0.028	-0.082
-445.865	-45.056	-0.072	-0.036
-444.851	-200.000	-0.039	0.223
-443.836	-129.795	0.199	-0.028
-442.822	-164.093	0.232	0.011
-441.807	206.646	-0.008	-0.012
-440.792	800.000	-0.104	0.368
-439.778	-98.153	-0.257	-0.067
-438.763	-29.828	-0.124	-0.072
-437.749	-115.815	0.116	-0.022
-436.734	-146.890	0.157	0.014
-435.719	185.925	-0.110	-0.166
-434.705	46.745	0.212	-0.200
-433.690	800.000	-0.051	0.162
-432.676	409.035	0.107	0.230
-431.661	34.019	-0.305	0.270
-430.646	173.059	0.130	-0.190
-429.632	34.920	-0.208	-0.185
-428.617	800.000	-0.048	0.167
-427.603	-144.421	0.410	0.039
-426.588	-200.000	-0.022	-0.221
-425.573	270.196	-0.132	-0.236
-424.559	84.486	-0.087	0.096
-423.544	-21.968	0.255	0.157
-422.530	-100.724	0.115	0.029
-421.515	-82.986	0.193	0.063
-420.500	-200.000	-0.022	0.252
-419.486	-29.967	-0.143	-0.082
-418.471	-200.000	0.066	0.324
-417.457	-1.497	0.307	0.219
-416.442	-200.000	-0.002	-0.095
-415.428	226.655	-0.093	0.153
-414.413	800.000	0.074	-0.317
-413.398	-13.390	0.342	-0.225
-412.384	-115.319	-0.250	-0.048
-411.369	-200.000	0.004	0.065
-410.355	-36.627	-0.098	0.054
-409.340	290.250	0.097	0.178
-408.325	800.000	-0.056	-0.213
-407.311	-200.000	-0.012	-0.247
-406.296	-119.831	0.136	0.024
-405.282	351.378	0.031	-0.062
-404.267	800.000	0.039	0.152
-403.252	23.847	0.112	0.093
-402.238	-49.521	-0.175	-0.085
-401.223	141.605	-0.137	0.184
-400.209	-19.800	-0.198	0.124
-399.194	216.041	-0.166	0.267
-398.179	-16.767	0.323	0.207
-397.165	307.200	0.215	-0.407
-396.150	-29.330	0.213	0.124
-395.136	-200.000	-0.018	0.211
-394.121	61.663	-0.105	-0.106
-393.106	-155.940	-0.180	-0.012
-392.092	318.557	0.058	-0.111
-391.077	-200.000	0.002	-0.101
-390.063	-200.000	0.017	-0.208
-389.048	-84.242	0.075	-0.024
-388.033	258.409	0.029	0.051
-387.019	800.000	-0.101	0.323
-386.004	-59.618	-0.167	0.072
-384.990	-200.000	0.032	-0.246
-383.975	-119.483	-0.140	-0.025
-382.960	17.188	-0.097	-0.078
-381.946	48.506	-0.363	0.345
-380.931	-122.998	0.071	0.012
-379.917	-33.390	0.189	0.106
-378.902	-52.897	0.259	0.121
-377.888	-200.000	-0.054	-0.281
-376.873	-7.173	-0.212	-0.146
-375.858	-122.441	0.190	-0.031
-374.844	-18.141	0.169	-0.107
-373.829	-175.429	-0.105	0.003
-372.815	106.761	-0.114	0.137
-371.800	-92.240	0.279	-0.080
-370.785	164.786	0.092	0.131
-369.771	800.000	0.071	-0.226
-368.756	-200.000	0.031	0.333
-367.742	-130.265	0.132	-0.018
-366.727	-34.343	-0.032	0.018
-365.712	86.934	0.195	-0.218
-364.698	-200.000	0.003	0.031
-363.683	-76.869	-0.285	0.101
-362.669	-24.601	0.399	-0.240
-361.654	-188.758	0.331	0.004
-360.639	740.398	-0.035	-0.096
-359.625	-83.860	-0.172	0.056
-358.610	800.000	-0.082	0.249
-357.596	-99.785	0.261	-0.066
-356.581	21.141	0.191	0.157
-355.566	-200.000	-0.011	0.057
-354.552	800.000	0.061	0.205
-353.537	-54.302	0.179	-0.082
-352.523	-1.324	0.020	-0.014
-351.508	-126.984	-0.149	0.022
-350.493	-36.479	0.234	0.127
-349.479	194.417	-0.048	-0.073
-348.464	-73.514	0.143	-0.053
-347.450	141.574	0.102	-0.137
-346.435	-149.556	0.035	-0.003
-345.420	495.166	-0.076	0.176
-344.406	-48.744	0.248	-0.120
-343.391	570.866	0.082	0.202
-342.377	368.783	-0.075	0.153
-341.362	800.000	0.101	-0.376
-340.348	800.000	-0.106	0.386
-339.333	-200.000	-0.008	0.240
-338.318	-81.574	0.217	0.072
-337.304	-200.000	0.001	0.177
-336.289	-25.536	-0.249	-0.149
-335.275	-200.000	0.025	-0.251
-334.260	43.059	-0.111	-0.102
-333.245	17.183	0.074	0.059
-332.231	-200.000	0.042	0.335
-331.216	15.280	0.100	-0.079
-330.202	-80.594	-0.153	0.051
-329.187	121.941	-0.088	-0.111
-328.172	-60.207	-0.109	-0.047
-327.158	-62.050	-0.272	-0.115
-326.143	800.000	0.099	-0.292
-325.129	800.000	-0.075	-0.325
-324.114	-38.303	0.133	0.071
-323.099	542.582	-0.068	-0.163
-322.085	-145.600	-0.120	-0.011
-321.070	-30.108	-0.172	0.099
-320.056	9.901	-0.281	-0.215
-319.041	-121.734	-0.379	0.063
-318.026	13.490	0.066	0.052
-317.012	800.000	-0.046	0.158
-315.997	-200.000	0.002	0.033
-314.983	135.554	-0.271	0.356
-313.968	800.000	-0.127	0.368
-312.953	49.903	0.118	0.112
-311.939	-200.000	-0.046	-0.239
-310.924	220.509	-0.153	0.248
-309.910	0.774	0.097	0.070
-308.895	-61.117	-0.094	0.040
-307.880	800.000	0.037	0.150
-306.866	-200.000	-0.020	0.217
-305.851	-96.093	0.175	-0.047
-304.837	-117.793	0.395	-0.072
-303.822	49.189	0.208	-0.197
-302.807	-200.000	-0.029	0.187
-301.793	-200.000	0.010	0.188
-300.778	24.764	0.111	-0.092
-299.764	93.444	0.167	-0.191
-298.749	800.000	-0.002	-0.005
-297.735	768.341	-0.062	-0.169
-296.720	131.436	-0.124	-0.161
-295.705	762.270	-0.093	0.255
-294.691	-46.047	0.147	0.073
-293.676	-200.000	-0.018	-0.657
-292.662	-200.000	-0.009	-0.095
-291.647	-200.000	0.003	0.162
-290.632	-140.404	-0.257	-0.027
-289.618	-155.363	0.102	-0.007
-288.603	-17.980	0.024	-0.015
-287.589	-120.093	-0.288	-0.050
-286.574	-200.000	-0.009	-0.151
-285.559	148.182	-0.149	0.203
-284.545	-151.341	0.168	-0.013
-283.530	21.946	-0.211	0.173
-282.516	133.780	0.172	-0.225
-281.501	498.587	0.094	0.219
-280.486	-82.525	0.237	-0.077
-279.472	64.857	-0.090	-0.091
-278.457	94.256	-0.136	-0.156
-277.443	-118.029	0.193	-0.035
-276.428	129.988	-0.107	-0.138
-275.413	800.000	-0.017	-0.054
-274.399	800.000	0.082	0.335
-273.384	725.752	-0.036	-0.098
-272.370	11.277	-0.224	0.173
-271.355	-188.988	-0.196	-0.002
-270.340	-200.000	-0.049	-0.285
-269.326	612.449	-0.087	0.220
-268.311	35.095	-0.424	0.374
-267.297	-200.000	-0.063	-0.478
-266.282	580.967	-0.129	0.318
-265.267	-177.979	0.383	0.009
-264.253	-136.796	0.101	0.012
-263.238	659.742	-0.047	-0.121
-262.224	-200.000	0.013	-0.281
-261.209	-21.547	-0.120	-0.074
-260.195	542.942	-0.091	0.219
-259.180	-44.302	-0.295	0.149
-258.165	-162.548	0.150	-0.007
-257.151	-178.530	0.223	-0.005
-256.136	-5.987	0.291	0.200
-255.122	-53.549	-0.216	0.100
-254.107	-54.402	0.091	0.042
-253.092	174.886	-0.167	0.243
-252.078	800.000	-0.022	0.088
-251.063	-3.840	0.174	-0.121
-250.049	800.000	0.066	0.211
-249.034	28.702	-0.102	-0.087
-248.019	-80.514	-0.309	0.104
-247.005	552.963	0.109	0.265
-245.990	800.000	0.076	0.277
-244.976	14.841	-0.201	0.159
-243.961	212.113	-0.062	-0.099
-242.946	800.000	0.097	0.301
-241.932	-149.971	-0.080	0.006
-240.917	50.625	0.132	0.126
-239.903	-200.000	0.034	0.160
-238.888	-160.440	-0.231	-0.012
-237.873	-103.202	-0.426	0.101
-236.859	73.780	-0.080	-0.084
-235.844	800.000	-0.035	-0.131
-234.830	62.265	0.191	0.192
-233.815	464.108	0.119	-0.267
-232.800	-200.000	-0.062	0.314
-231.786	-200.000	-0.086	-0.525
-230.771	130.991	-0.060	-0.078
-229.757	-200.000	-0.006	-0.054
-228.742	-51.114	-0.154	0.073
-227.727	-132.963	0.376	-0.048
-226.713	152.586	0.108	-0.149
-225.698	3.896	-0.313	-0.230
-224.684	6.923	-0.244	0.183
-223.669	-38.242	0.081	-0.043
-222.655	234.752	-0.141	-0.235
-221.640	156.374	-0.196	-0.272
-220.625	147.862	-0.094	0.128
-219.611	345.517	0.062	-0.122
-218.596	-32.902	0.139	0.078
-217.582	447.189	0.064	0.142
-216.567	800.000	0.046	0.175
-215.552	-52.321	0.144	0.067
-214.538	39.879	0.199	-0.180
-213.523	-91.708	-0.319	0.091
-212.509	-107.742	0.212	0.047
-211.494	-137.538	0.068	-0.008
-210.479	528.428	0.272	-0.645
-209.465	-200.000	-0.020	-0.137
-208.450	-49.728	-0.268	-0.128
-207.436	-30.327	-0.146	-0.083
-206.421	-54.300	0.284	0.130
-205.406	687.234	-0.094	0.247
-204.392	-32.533	-0.178	0.100
-203.377	-93.783	-0.241	0.067
-202.363	181.617	-0.143	0.212
-201.348	42.324	0.057	-0.052
-200.333	800.000	0.093	-0.274
-199.319	116.751	0.222	-0.274
-198.304	162.209	-0.085	-0.120
-197.290	-200.000	0.001	-0.036
-196.275	800.000	0.046	-0.199
-195.260	-119.740	-0.094	-0.016
-194.246	-125.856	0.455	-0.069
-193.231	-112.983	-0.083	0.016
-192.217	-142.471	-0.147	-0.015
-191.202	-200.000	0.012	0.101
-190.187	-200.000	-0.062	-0.303
-189.173	-200.000	0.006	0.125
-188.158	-105.790	-0.372	0.084
-187.144	147.173	-0.081	0.109
-186.129	-200.000	-0.011	-0.140
-185.114	-149.746	-0.098	-0.008
-184.100	-94.657	0.114	0.031
-183.085	6.822	0.117	0.088
-182.071	800.000	-0.113	0.351
-181.056	-106.724	0.303	0.068
-180.042	-90.928	0.110	-0.032
-179.027	800.000	0.058	0.213
-178.012	-200.000	0.005	0.089
-176.998	-23.601	-0.098	-0.059
-175.983	-92.465	-0.354	0.100
-174.969	201.087	-0.166	-0.257
-173.954	-137.647	-0.286	-0.032
-172.939	59.778	0.135	0.134
-171.925	-76.475	-0.088	-0.031
-170.910	-118.576	0.392	0.070
-169.896	-67.066	-0.174	-0.069
-168.881	-200.000	0.013	0.159
-167.866	-36.692	-0.221	-0.119
-166.852	-200.000	-0.015	0.117
-165.837	321.369	0.149	0.284
-164.823	-22.951	0.321	-0.194
-163.808	-148.609	0.158	0.013
-162.793	-114.526	0.539	-0.104
-161.779	800.000	0.133	0.412
-160.764	148.343	-0.076	0.104
-159.750	-200.000	-0.014	0.135
-158.735	-53.229	0.088	-0.041
-157.720	20.813	0.236	0.192
-156.706	-70.213	0.367	0.140
-155.691	-200.000	0.001	0.012
-154.677	-1.903	0.129	0.091
-153.662	-126.226	-0.061	-0.009
-152.647	-186.955	0.068	-0.001
-151.633	-124.271	-0.339	-0.053
-150.618	800.000	-0.086	0.315
-149.604	0.213	0.152	0.109
-148.589	-73.614	-0.146	0.053
-147.574	792.247	0.085	0.236
-146.560	-25.444	-0.273	0.162
-145.545	-75.218	-0.123	-0.044
-144.531	278.076	-0.179	-0.319
-143.516	59.363	0.100	-0.099
-142.502	139.885	-0.118	0.157
-141.487	57.730	-0.032	-0.032
-140.472	-200.000	-0.049	0.363
-139.458	709.745	0.102	0.271
-138.443	259.148	-0.194	0.335
-137.429	-200.000	-0.004	-0.153
-136.414	800.000	-0.028	-0.090
-135.399	-200.000	-0.043	-0.352
-134.385	-32.656	-0.196	0.109
-133.370	-40.583	0.283	-0.147
-132.356	208.444	0.165	-0.259
-131.341	18.516	0.185	-0.148
-130.326	-91.666	0.357	0.102
-129.312	311.815	0.142	0.266
-128.297	306.672	-0.084	0.157
-127.283	-82.719	-0.056	-0.018
-126.268	-200.000	-0.262	0.001
-125.253	692.722	0.053	0.140
-124.239	800.000	-0.020	-0.063
-123.224	-16.717	-0.153	-0.097
-122.210	-200.000	0.022	-0.147
