DTS Sentinel unit serial number:	SN413079Multiplexer serial number:	ORYXHardware model number:	OX4-SRSoftware version number:	ORYX F/W v4.00 Oryx Data Collector v3.7.2.0data status	okinstallation	princeton_trtdifferential loss correction	single-endedforward channel	channel 2reverse channel	N/Adate	2019/09/17time	06:03:35forward acquisition time	60.00reverse acquisition time	0.00gamma	496.2192k internal	0.2331k external	0.2331temperature offset calibration	0.9977default loss term (dB/km)	0.3790temperature slope calibration	1.0000multiplexer offset coefficient	1.0000multiplexer slope coefficient	1.0000fibre end	0.00T internal ref (°C)	28.72T ext. ref 1 (°C)	0.13T ext. ref 2 (°C)	22.32length (m)	temperature (°C)	Stokes	anti-Stokes-747.200	142.707	0.070	-0.093
-746.185	-57.668	0.210	-0.093
-745.171	800.000	-0.102	0.374
-744.156	78.785	-0.188	0.202
-743.142	-200.000	-0.014	0.063
-742.127	178.049	0.224	0.329
-741.112	-77.232	-0.065	0.023
-740.098	-200.000	0.024	0.350
-739.083	-166.035	0.222	-0.010
-738.069	800.000	-0.075	0.274
-737.054	105.624	0.106	-0.126
-736.039	-58.493	-0.358	-0.157
-735.025	-58.077	0.189	0.083
-734.010	800.000	0.056	-0.213
-732.996	-91.544	-0.170	0.049
-731.981	-83.899	-0.253	-0.081
-730.966	419.160	-0.059	0.128
-729.952	-200.000	0.041	-0.194
-728.937	112.157	0.132	-0.160
-727.923	-106.193	0.121	0.027
-726.908	800.000	0.104	-0.319
-725.894	-200.000	0.005	-0.203
-724.879	-200.000	-0.044	-0.240
-723.864	800.000	0.019	-0.057
-722.850	800.000	-0.100	-0.290
-721.835	300.932	-0.221	0.410
-720.821	-70.361	0.032	-0.012
-719.806	-200.000	-0.026	-0.125
-718.791	-129.786	0.194	0.027
-717.777	-200.000	-0.107	-0.627
-716.762	-190.604	-0.105	0.001
-715.748	157.304	-0.045	0.062
-714.733	-200.000	0.014	-0.248
-713.718	-89.633	0.195	-0.058
-712.704	-81.257	-0.292	-0.097
-711.689	206.642	-0.089	-0.139
-710.675	-54.226	-0.192	-0.088
-709.660	43.325	0.091	-0.084
-708.645	85.231	-0.103	0.114
-707.631	-92.505	0.246	0.070
-706.616	-14.743	0.190	-0.123
-705.602	258.635	-0.111	0.192
-704.587	-96.653	0.107	0.028
-703.572	37.430	-0.096	0.086
-702.558	-200.000	0.397	0.001
-701.543	182.548	-0.102	-0.152
-700.529	-40.523	-0.137	-0.071
-699.514	-200.000	0.005	0.073
-698.499	-200.000	-0.036	-0.368
-697.485	39.534	-0.212	-0.191
-696.470	800.000	0.068	0.281
-695.456	800.000	-0.115	-0.413
-694.441	-35.537	0.162	-0.089
-693.426	-80.673	0.204	0.068
-692.412	13.364	-0.083	0.064
-691.397	-200.000	-0.010	-0.068
-690.383	-200.000	0.003	-0.106
-689.368	129.960	-0.166	-0.214
-688.354	231.993	0.034	0.057
-687.339	404.839	0.084	0.179
-686.324	337.115	-0.139	-0.271
-685.310	-71.394	0.241	0.091
-684.295	125.824	-0.304	-0.386
-683.281	-42.988	-0.141	-0.072
-682.266	193.683	-0.015	0.022
-681.251	-26.109	0.360	-0.213
-680.237	-7.184	-0.201	0.137
-679.222	-133.066	-0.274	-0.035
-678.208	-200.000	0.017	-0.101
-677.193	-97.436	-0.387	0.101
-676.178	-151.123	-0.149	0.011
-675.164	-37.531	0.251	-0.134
-674.149	-94.228	0.512	-0.141
-673.135	489.369	-0.078	-0.178
-672.120	-200.000	-0.046	-0.208
-671.105	36.338	0.273	-0.241
-670.091	-38.921	0.065	0.034
-669.076	21.844	0.153	-0.125
-668.062	346.157	-0.074	-0.147
-667.047	-165.057	-0.277	-0.012
-666.032	-5.604	0.252	0.173
-665.018	-200.000	-0.021	0.135
-664.003	-65.980	0.259	0.104
-662.989	800.000	0.059	-0.198
-661.974	-200.000	0.027	0.233
-660.959	-200.000	-0.002	-0.082
-659.945	31.997	-0.194	0.168
-658.930	-28.995	0.255	0.147
-657.916	-200.000	-0.017	0.292
-656.901	-182.180	0.242	0.005
-655.886	-200.000	0.005	-0.378
-654.872	180.881	0.239	0.352
-653.857	-91.000	-0.164	0.047
-652.843	94.847	0.122	-0.139
-651.828	36.895	-0.176	-0.156
-650.814	-87.901	0.362	-0.109
-649.799	800.000	-0.057	0.249
-648.784	-14.497	-0.225	0.145
-647.770	443.445	-0.153	0.337
-646.755	800.000	0.121	-0.357
-645.741	63.015	-0.105	0.105
-644.726	-71.559	-0.288	-0.108
-643.711	-33.198	-0.347	-0.193
-642.697	-14.080	0.215	-0.139
-641.682	47.207	-0.110	-0.103
-640.668	66.581	0.107	0.109
-639.653	800.000	0.082	0.278
-638.638	-45.351	0.089	0.044
-637.624	-13.191	0.458	0.298
-636.609	-30.318	-0.174	-0.099
-635.595	514.093	0.102	0.239
-634.580	54.770	0.146	-0.141
-633.565	-45.459	0.151	-0.075
-632.551	239.907	-0.048	-0.081
-631.536	-118.994	0.256	0.045
-630.522	-5.174	-0.271	-0.187
-629.507	52.120	0.167	0.159
-628.492	-103.402	-0.124	0.029
-627.478	179.555	-0.117	-0.172
-626.463	-200.000	-0.013	0.091
-625.449	-99.546	0.102	-0.026
-624.434	-89.333	-0.206	0.061
-623.419	-175.744	0.404	-0.011
-622.405	-173.039	-0.272	0.008
-621.390	-91.818	-0.219	-0.062
-620.376	-200.000	0.034	-0.157
-619.361	-200.000	0.020	-0.225
-618.346	305.643	-0.085	0.159
-617.332	242.023	-0.164	0.275
-616.317	-200.000	-0.129	0.000
-615.303	-200.000	-0.012	-0.156
-614.288	-200.000	0.041	0.309
-613.273	-163.621	-0.211	-0.010
-612.259	-34.618	0.185	0.101
-611.244	-51.801	-0.302	0.141
-610.230	14.204	-0.127	0.099
-609.215	-39.061	-0.176	0.093
-608.201	-115.510	0.198	-0.037
-607.186	19.548	-0.139	-0.112
-606.171	800.000	0.098	0.307
-605.157	398.925	0.086	-0.180
-604.142	280.340	-0.070	-0.126
-603.128	184.164	-0.082	-0.121
-602.113	4.685	0.158	-0.116
-601.098	86.675	-0.107	-0.118
-600.084	-177.962	-0.389	0.009
-599.069	-200.000	0.164	-0.000
-598.055	235.151	0.163	0.269
-597.040	-200.000	0.059	0.314
-596.025	-55.312	0.181	0.081
-595.011	362.549	-0.095	-0.191
-593.996	-102.966	0.079	0.019
-592.982	16.760	-0.208	0.165
-591.967	64.276	-0.115	-0.116
-590.952	34.860	-0.160	-0.140
-589.938	-8.864	0.171	-0.115
-588.923	-93.299	0.237	-0.066
-587.909	236.378	-0.058	-0.097
-586.894	28.386	0.149	0.126
-585.879	7.523	0.263	0.197
-584.865	-79.126	-0.312	0.106
-583.850	-134.600	0.129	0.016
-582.836	-67.863	-0.146	0.057
-581.821	-200.000	0.012	0.230
-580.806	82.536	-0.239	-0.259
-579.792	-200.000	0.012	-0.165
-578.777	-200.000	0.035	0.231
-577.763	-12.603	0.057	-0.037
-576.748	710.909	0.065	0.173
-575.733	-200.000	-0.017	0.278
-574.719	726.635	-0.115	-0.307
-573.704	140.132	-0.178	0.235
-572.690	-200.000	-0.015	0.242
-571.675	-135.221	-0.124	0.015
-570.661	-200.000	-0.045	-0.217
-569.646	-200.000	0.043	-0.249
-568.631	-136.573	0.070	-0.008
-567.617	-62.293	-0.276	-0.115
-566.602	795.338	0.079	0.216
-565.588	-131.148	0.120	-0.016
-564.573	275.121	0.138	-0.244
-563.558	-193.842	-0.499	-0.004
-562.544	-8.500	0.046	0.031
-561.529	-176.583	0.131	0.003
-560.515	-28.036	0.189	0.110
-559.500	-173.002	-0.141	-0.004
-558.485	-52.878	0.063	-0.029
-557.471	800.000	0.055	0.214
-556.456	242.261	-0.219	0.366
-555.442	-112.136	-0.485	-0.097
-554.427	800.000	0.070	-0.213
-553.412	-8.319	-0.127	0.085
-552.398	493.234	-0.066	0.152
-551.383	9.046	-0.159	0.120
-550.369	-67.921	-0.093	-0.036
-549.354	-157.796	-0.228	-0.014
-548.339	-44.384	0.048	0.024
-547.325	623.772	0.050	0.126
-546.310	-200.000	0.020	0.230
-545.296	-100.616	-0.158	-0.039
-544.281	35.622	0.080	-0.070
-543.266	-52.496	-0.369	0.170
-542.252	-174.052	0.039	0.001
-541.237	181.261	0.129	-0.190
-540.223	72.116	-0.314	0.326
-539.208	-200.000	0.027	-0.205
-538.193	-200.000	-0.004	-0.167
-537.179	-200.000	0.011	-0.114
-536.164	-28.941	-0.074	-0.042
-535.150	283.451	0.138	0.247
-534.135	50.081	0.197	0.186
-533.121	164.154	-0.181	-0.255
-532.106	-200.000	0.031	-0.193
-531.091	713.286	0.095	-0.252
-530.077	-200.000	-0.015	-0.119
-529.062	-7.175	0.246	-0.167
-528.048	-12.950	-0.111	0.072
-527.033	-200.000	-0.043	-0.250
-526.018	800.000	-0.150	-0.419
-525.004	-144.431	-0.205	-0.019
-523.989	-58.475	-0.238	0.103
-522.975	169.307	-0.091	0.130
-521.960	-174.907	0.139	-0.004
-520.945	-200.000	0.020	0.139
-519.931	-200.000	0.046	0.307
-518.916	-59.468	0.196	-0.084
-517.902	34.900	-0.070	-0.061
-516.887	343.108	-0.327	0.639
-515.872	800.000	-0.122	-0.442
-514.858	493.489	0.111	-0.254
-513.843	-14.663	-0.317	-0.204
-512.829	-77.944	-0.373	0.128
-511.814	-147.306	0.104	0.009
-510.799	-79.077	-0.260	-0.088
-509.785	210.132	-0.239	-0.373
-508.770	800.000	-0.096	0.275
-507.756	734.300	-0.048	-0.127
-506.741	-19.217	0.261	0.162
-505.726	-200.000	0.004	-0.081
-504.712	-1.723	0.495	0.348
-503.697	-92.247	-0.159	-0.045
-502.683	214.420	-0.125	-0.197
-501.668	146.994	-0.082	-0.109
-500.653	587.315	0.143	0.352
-499.639	583.862	-0.060	0.147
-498.624	-200.000	-0.018	0.102
-497.610	150.611	-0.308	0.418
-496.595	174.765	-0.057	-0.082
-495.581	-124.097	-0.150	-0.023
-494.566	471.652	-0.067	-0.150
-493.551	-11.549	-0.146	0.096
-492.537	-140.281	0.211	-0.022
-491.522	-200.000	0.031	0.329
-490.508	77.540	-0.075	-0.080
-489.493	800.000	-0.035	-0.105
-488.478	140.080	0.128	-0.168
-487.464	257.055	0.156	-0.268
-486.449	-200.000	-0.013	0.075
-485.435	-79.379	0.287	-0.097
-484.420	-200.000	0.032	-0.243
-483.405	-47.826	-0.224	0.108
-482.391	103.058	-0.120	-0.140
-481.376	112.960	0.268	0.323
-480.362	56.086	0.200	-0.193
-479.347	258.444	0.177	-0.303
-478.332	800.000	-0.077	-0.297
-477.318	-200.000	-0.051	-0.307
-476.303	-200.000	-0.026	-0.164
-475.289	-200.000	-0.036	-0.179
-474.274	-126.855	-0.253	-0.037
-473.259	-27.868	0.208	-0.120
-472.245	-169.173	0.192	0.007
-471.230	-200.000	-0.017	0.400
-470.216	-157.026	0.226	0.014
-469.201	23.484	-0.226	-0.185
-468.186	740.230	-0.117	-0.314
-467.172	-200.000	0.007	0.423
-466.157	60.772	0.114	0.113
-465.143	618.340	0.078	-0.195
-464.128	-132.546	0.265	0.034
-463.113	18.211	0.143	0.113
-462.099	-200.000	-0.017	-0.115
-461.084	-56.020	-0.057	-0.025
-460.070	800.000	-0.056	0.222
-459.055	800.000	0.058	-0.160
-458.040	-200.000	0.016	0.081
-457.026	800.000	-0.062	0.187
-456.011	-140.355	0.076	-0.008
-454.997	362.758	-0.090	0.180
-453.982	-200.000	0.026	-0.149
-452.968	-163.325	-0.223	0.011
-451.953	55.875	-0.190	0.183
-450.938	-0.133	0.099	0.070
-449.924	800.000	-0.031	0.090
-448.909	-28.987	-0.151	-0.086
-447.895	137.285	-0.108	-0.141
-446.880	65.239	0.233	0.234
-445.865	800.000	-0.032	-0.130
-444.851	-79.022	-0.439	-0.149
-443.836	35.098	-0.129	0.112
-442.822	148.966	0.140	0.188
-441.807	-200.000	0.026	0.333
-440.792	-125.248	0.220	0.033
-439.778	-42.971	-0.234	0.118
-438.763	-200.000	-0.022	0.190
-437.749	-119.694	0.416	-0.072
-436.734	228.036	0.122	-0.197
-435.719	-56.594	0.170	-0.075
-434.705	-200.000	-0.030	-0.137
-433.690	-38.116	0.327	0.173
-432.676	96.348	0.229	0.261
-431.661	-200.000	0.061	0.549
-430.646	394.662	0.107	0.222
-429.632	-116.208	0.149	0.028
-428.617	-21.780	-0.186	0.113
-427.603	-76.947	-0.169	0.059
-426.588	-200.000	-0.025	-0.127
-425.573	24.454	-0.075	0.062
-424.559	-145.855	-0.210	-0.019
-423.544	-200.000	-0.027	-0.269
-422.530	233.225	-0.135	-0.221
-421.515	33.361	0.087	-0.075
-420.500	327.782	-0.143	-0.272
-419.486	-200.000	-0.030	-0.249
-418.471	25.223	-0.135	0.112
-417.457	33.184	-0.082	-0.070
-416.442	-200.000	0.073	-0.479
-415.428	-200.000	0.044	0.324
-414.413	-52.769	-0.154	-0.071
-413.398	-200.000	-0.015	-0.207
-412.384	-46.421	-0.062	-0.030
-411.369	-200.000	0.006	-0.274
-410.355	-200.000	-0.040	-0.178
-409.340	-200.000	-0.015	0.095
-408.325	-91.169	0.340	-0.097
-407.311	-124.717	-0.245	-0.038
-406.296	-115.462	0.142	0.027
-405.282	-107.852	-0.178	-0.039
-404.267	-200.000	0.012	0.174
-403.252	-77.374	0.078	0.027
-402.238	800.000	-0.129	0.442
-401.223	-200.000	0.062	0.332
-400.209	103.118	-0.068	-0.080
-399.194	145.173	-0.110	-0.146
-398.179	407.069	-0.129	0.270
-397.165	104.253	-0.039	-0.045
-396.150	90.625	0.089	0.099
-395.136	-38.804	-0.318	0.166
-394.121	-121.089	-0.219	0.036
-393.106	-71.461	0.176	-0.065
-392.092	-6.916	0.121	-0.082
-391.077	800.000	0.054	-0.162
-390.063	116.737	-0.142	-0.173
-389.048	218.309	-0.089	0.142
-388.033	298.421	0.130	0.237
-387.019	-47.343	0.242	-0.117
-386.004	-81.318	0.010	0.003
-384.990	-64.206	-0.173	0.070
-383.975	800.000	0.118	-0.435
-382.960	720.144	0.028	0.073
-381.946	173.193	-0.151	0.216
-380.931	1.380	-0.172	0.122
-379.917	-200.000	0.044	0.242
-378.902	115.906	0.110	-0.134
-377.888	-134.265	-0.445	0.054
-376.873	-132.914	0.293	0.037
-375.858	-130.992	0.129	-0.017
-374.844	202.255	0.132	-0.202
-373.829	-0.359	-0.240	-0.169
-372.815	59.805	0.139	-0.136
-371.800	-0.290	-0.201	0.142
-370.785	119.666	-0.143	-0.176
-369.771	-200.000	0.005	-0.199
-368.756	125.949	-0.155	-0.194
-367.742	-200.000	0.003	-0.183
-366.727	56.161	0.172	0.166
-365.712	-44.323	-0.277	0.138
-364.698	800.000	-0.043	0.150
-363.683	240.128	0.057	-0.094
-362.669	665.705	0.176	0.450
-361.654	171.806	0.235	0.335
-360.639	-93.614	0.326	-0.089
-359.625	-83.760	-0.319	-0.101
-358.610	210.874	-0.096	0.150
-357.596	135.062	-0.225	0.290
-356.581	-16.480	0.095	0.059
-355.566	-91.211	0.253	0.072
-354.552	-141.491	-0.050	0.005
-353.537	-105.212	0.466	0.106
-352.523	-200.000	0.016	0.158
-351.508	-5.819	0.301	0.204
-350.493	-200.000	0.002	0.167
-349.479	401.090	-0.199	0.414
-348.464	-200.000	-0.035	-0.210
-347.450	28.711	0.110	-0.092
-346.435	800.000	0.120	-0.331
-345.420	-200.000	0.023	-0.265
-344.406	-15.900	0.053	0.033
-343.391	-165.974	-0.209	0.009
-342.377	-200.000	-0.001	-0.041
-341.362	-120.132	-0.344	-0.058
-340.348	-200.000	-0.030	-0.195
-339.333	-5.289	0.092	0.063
-338.318	-200.000	0.016	0.108
-337.304	-161.930	-0.046	0.002
-336.289	361.514	-0.124	-0.247
-335.275	-127.759	-0.383	-0.055
-334.260	-94.896	-0.149	0.040
-333.245	-51.507	0.263	-0.122
-332.231	46.736	0.047	-0.043
-331.216	-122.392	-0.255	-0.041
-330.202	265.773	-0.114	0.197
-329.187	112.553	-0.335	-0.401
-328.172	102.059	0.086	0.099
-327.158	197.103	-0.086	-0.130
-326.143	-29.396	0.236	-0.134
-325.129	800.000	-0.150	0.571
-324.114	800.000	0.040	-0.133
-323.099	-95.974	0.400	-0.105
-322.085	45.702	0.032	-0.029
-321.070	-108.091	-0.155	0.033
-320.056	-164.587	-0.077	-0.003
-319.041	-200.000	0.018	0.125
-318.026	27.282	-0.066	-0.055
-317.012	69.108	-0.091	0.093
-315.997	402.112	-0.166	0.346
-314.983	165.720	0.174	0.244
-313.968	-143.463	-0.597	0.056
-312.953	-160.860	0.140	-0.007
-311.939	78.075	-0.159	-0.168
-310.924	-157.984	0.490	0.029
-309.910	192.095	-0.226	-0.337
-308.895	-127.585	0.224	-0.032
-307.880	-200.000	-0.024	0.166
-306.866	92.416	-0.039	-0.044
-305.851	-35.401	-0.131	0.071
-304.837	-200.000	-0.016	0.348
-303.822	332.702	0.103	-0.198
-302.807	-1.976	0.176	-0.122
-301.793	5.172	-0.223	0.162
-300.778	94.321	-0.097	-0.109
-299.764	61.063	0.197	0.194
-298.749	61.019	0.285	-0.280
-297.735	394.579	-0.077	0.158
-296.720	-200.000	-0.006	0.106
-295.705	17.309	-0.234	-0.184
-294.691	-3.561	0.209	-0.144
-293.676	-52.350	0.307	0.141
-292.662	3.274	0.188	-0.136
-291.647	-200.000	0.071	0.312
-290.632	487.619	-0.056	0.126
-289.618	-47.533	0.398	0.191
-288.603	-108.264	-0.245	-0.052
-287.589	800.000	-0.040	0.170
-286.574	239.824	0.184	-0.303
-285.559	149.004	-0.019	0.025
-284.545	-136.846	0.237	-0.027
-283.530	232.861	0.067	0.109
-282.516	-48.552	0.103	0.049
-281.501	18.101	-0.049	-0.039
-280.486	-129.147	0.285	0.039
-279.472	103.448	-0.087	-0.101
-278.457	-200.000	-0.001	-0.064
-277.443	-158.562	0.435	-0.025
-276.428	280.821	0.084	0.148
-275.413	252.790	0.033	-0.056
-274.399	24.299	0.151	0.123
-273.384	800.000	-0.053	-0.214
-272.370	-56.359	0.264	-0.116
-271.355	-112.349	-0.110	-0.022
-270.340	-200.000	-0.037	0.258
-269.326	-53.027	-0.174	-0.079
-268.311	-143.753	0.237	0.022
-267.297	74.673	-0.108	-0.113
-266.282	4.224	0.180	-0.130
-265.267	78.328	-0.179	0.189
-264.253	62.786	-0.232	-0.230
-263.238	-200.000	-0.004	0.078
-262.224	-200.000	0.001	0.133
-261.209	18.541	0.153	-0.121
-260.195	-27.092	-0.166	-0.095
-259.180	-56.040	-0.231	-0.101
-258.165	-24.791	0.386	-0.227
-257.151	-200.000	-0.018	-0.093
-256.136	31.782	-0.113	-0.096
-255.122	-18.242	0.107	0.066
-254.107	-200.000	0.024	0.133
-253.092	-22.340	-0.188	0.112
-252.078	-160.493	0.096	-0.005
-251.063	36.168	0.260	-0.226
-250.049	562.660	-0.036	-0.085
-249.034	364.935	-0.128	-0.254
-248.019	-97.000	-0.187	-0.048
-247.005	58.906	0.171	0.166
-245.990	800.000	-0.043	-0.141
-244.976	164.288	-0.092	-0.129
-243.961	61.438	0.072	-0.070
-242.946	-113.566	-0.221	-0.043
-241.932	-12.553	-0.067	-0.043
-240.917	800.000	0.128	0.457
-239.903	133.229	0.129	0.165
-238.888	-200.000	0.013	-0.144
-237.873	-50.220	-0.158	0.074
-236.859	172.160	-0.101	-0.144
-235.844	-25.657	0.192	-0.112
-234.830	-146.442	0.319	-0.027
-233.815	490.761	-0.104	0.235
-232.800	800.000	0.066	-0.184
-231.786	34.187	-0.232	-0.199
-230.771	-110.160	0.196	-0.040
-229.757	426.646	-0.016	0.035
-228.742	275.777	0.077	-0.135
-227.727	-82.957	-0.231	0.073
-226.713	-150.569	-0.246	-0.019
-225.698	122.943	-0.043	-0.053
-224.684	655.444	0.060	-0.152
-223.669	-30.270	0.319	-0.179
-222.655	-108.648	-0.234	-0.050
-221.640	182.083	0.156	0.227
-220.625	-157.963	0.244	0.014
-219.611	-65.559	0.217	-0.086
-218.596	25.405	-0.080	0.066
-217.582	-200.000	-0.036	-0.171
-216.567	-18.939	0.103	-0.063
-215.552	-67.218	0.195	-0.076
-214.538	-200.000	0.027	-0.306
-213.523	86.964	0.171	0.186
-212.509	-39.150	0.517	-0.268
-211.494	-200.000	0.045	-0.256
-210.479	39.706	-0.187	-0.166
-209.465	-135.270	0.156	0.018
-208.450	33.292	0.198	0.169
-207.436	51.288	0.309	-0.289
-206.421	-95.546	-0.092	0.024
-205.406	51.129	-0.224	-0.210
-204.392	-30.110	-0.054	0.030
-203.377	343.753	0.119	0.230
-202.363	800.000	0.078	0.316
-201.348	-200.000	0.020	0.125
-200.333	-200.000	-0.000	-0.217
-199.319	-14.617	0.173	-0.110
-198.304	-200.000	-0.005	0.183
-197.290	118.698	0.322	-0.392
-196.275	-75.887	0.175	-0.061
-195.260	126.193	0.163	0.203
-194.246	800.000	-0.035	-0.138
-193.231	-200.000	-0.012	-0.175
-192.217	800.000	0.132	0.437
-191.202	-74.075	-0.570	-0.204
-190.187	399.024	0.048	0.100
-189.173	371.754	-0.071	-0.143
-188.158	72.474	0.075	-0.077
-187.144	106.712	0.148	-0.173
-186.129	-113.693	0.225	0.043
-185.114	-200.000	-0.006	0.100
-184.100	800.000	-0.086	-0.318
-183.085	-152.797	0.100	-0.007
-182.071	3.528	0.212	0.152
-181.056	16.949	-0.131	-0.102
-180.042	-13.240	-0.076	0.048
-179.027	-37.893	0.117	0.061
-178.012	-97.608	0.106	-0.027
-176.998	242.797	-0.017	-0.027
-175.983	800.000	0.091	-0.289
-174.969	-33.422	0.205	-0.111
-173.954	-200.000	-0.021	0.194
-172.939	585.412	0.061	0.147
-171.925	-89.318	0.126	0.037
-170.910	-35.318	-0.194	0.104
-169.896	800.000	-0.005	-0.017
-168.881	792.787	0.021	-0.057
-167.866	-54.022	0.402	-0.180
-166.852	-200.000	0.008	0.153
-165.837	800.000	0.093	0.322
-164.823	-120.247	0.411	-0.069
-163.808	-200.000	-0.045	0.245
-162.793	-47.206	-0.189	-0.091
-161.779	-154.472	-0.220	0.014
-160.764	77.341	0.190	0.199
-159.750	36.953	0.164	0.143
-158.735	389.883	0.106	0.216
-157.720	-106.755	0.311	-0.068
-156.706	-152.630	-0.316	0.022
-155.691	407.409	-0.106	-0.220
-154.677	-68.759	-0.119	0.045
-153.662	333.297	0.112	0.213
-152.647	-200.000	0.044	-0.240
-151.633	69.191	-0.206	-0.208
-150.618	32.940	0.211	0.180
-149.604	296.654	0.103	0.186
-148.589	59.734	0.310	0.300
-147.574	297.741	0.170	0.307
-146.560	-87.926	0.090	0.026
-145.545	-200.000	-0.009	0.220
-144.531	-66.917	0.172	-0.067
-143.516	382.726	0.031	0.063
-142.502	-93.365	0.381	0.104
-141.487	-99.662	-0.181	-0.045
-140.472	-14.108	-0.041	0.026
-139.458	-200.000	0.032	-0.136
-138.443	-200.000	0.012	0.324
-137.429	-200.000	-0.015	0.132
-136.414	35.309	-0.089	-0.076
-135.399	-80.656	0.224	0.073
-134.385	-91.036	0.250	0.071
-133.370	275.069	0.056	0.098
-132.356	-119.767	0.262	-0.044
-131.341	186.768	0.159	-0.232
-130.326	-200.000	-0.004	-0.056
-129.312	439.745	0.106	-0.228
-128.297	800.000	-0.060	0.199
-127.283	-61.086	0.121	-0.050
-126.268	-146.511	0.176	-0.015
-125.253	446.456	-0.097	-0.209
-124.239	9.485	-0.194	-0.144
-123.224	-200.000	0.031	-0.298
-122.210	103.288	0.087	-0.100
