DTS Sentinel unit serial number:	SN413079Multiplexer serial number:	ORYXHardware model number:	OX4-SRSoftware version number:	ORYX F/W v4.00 Oryx Data Collector v3.7.2.0data status	okinstallation	princeton_trtdifferential loss correction	single-endedforward channel	channel 2reverse channel	N/Adate	2019/09/15time	21:43:34forward acquisition time	60.00reverse acquisition time	0.00gamma	496.2192k internal	0.2334k external	0.2334temperature offset calibration	0.9945default loss term (dB/km)	0.3790temperature slope calibration	1.0000multiplexer offset coefficient	1.0000multiplexer slope coefficient	1.0000fibre end	0.00T internal ref (°C)	30.31T ext. ref 1 (°C)	8.39T ext. ref 2 (°C)	23.46length (m)	temperature (°C)	Stokes	anti-Stokes-747.200	-50.820	0.064	-0.030
-746.185	-200.000	-0.022	0.193
-745.171	193.104	-0.069	-0.104
-744.156	-52.349	-0.273	-0.127
-743.142	800.000	0.090	0.343
-742.127	-200.000	-0.015	0.075
-741.112	-200.000	-0.025	-0.216
-740.098	434.744	-0.065	-0.141
-739.083	-134.178	0.165	-0.020
-738.069	800.000	0.078	0.250
-737.054	-116.554	0.147	-0.027
-736.039	-200.000	-0.260	0.000
-735.025	-2.255	0.062	0.044
-734.010	-42.732	0.013	-0.007
-732.996	800.000	0.048	-0.151
-731.981	-200.000	-0.020	0.246
-730.966	241.432	-0.105	0.177
-729.952	-200.000	0.056	-0.558
-728.937	800.000	-0.074	0.266
-727.923	-200.000	0.000	0.132
-726.908	165.709	-0.126	-0.178
-725.894	43.691	-0.260	0.239
-724.879	539.479	-0.078	-0.187
-723.864	-72.191	0.079	-0.029
-722.850	298.096	0.090	-0.165
-721.835	202.094	0.131	0.204
-720.821	-200.000	-0.026	-0.335
-719.806	-143.848	-0.159	0.015
-718.791	-43.695	0.187	-0.094
-717.777	-86.405	-0.153	0.047
-716.762	311.668	0.098	0.184
-715.748	20.434	0.263	0.213
-714.733	-34.203	0.030	-0.016
-713.718	-125.464	0.426	0.065
-712.704	739.456	0.076	0.205
-711.689	-128.781	-0.225	-0.032
-710.675	-89.276	0.021	-0.006
-709.660	-200.000	0.012	0.306
-708.645	156.386	0.139	-0.193
-707.631	349.929	0.095	-0.188
-706.616	-128.889	0.102	-0.014
-705.602	-66.291	0.296	0.118
-704.587	-147.026	-0.238	0.020
-703.572	-25.028	-0.261	-0.155
-702.558	115.726	0.068	-0.084
-701.543	-150.247	0.173	-0.013
-700.529	-76.357	0.343	-0.121
-699.514	651.450	0.124	-0.319
-698.499	558.135	0.042	0.102
-697.485	-54.628	-0.225	-0.102
-696.470	-35.360	0.157	-0.086
-695.456	-200.000	-0.000	0.137
-694.441	-200.000	-0.027	-0.165
-693.426	-86.976	-0.300	-0.092
-692.412	-200.000	0.021	-0.243
-691.397	-118.606	0.047	0.008
-690.383	-45.929	-0.157	-0.078
-689.368	13.384	0.045	-0.035
-688.354	108.838	0.196	-0.235
-687.339	188.143	-0.153	-0.229
-686.324	800.000	0.050	-0.145
-685.310	279.345	-0.298	0.533
-684.295	-200.000	-0.005	-0.180
-683.281	-36.277	0.207	-0.112
-682.266	-200.000	-0.001	-0.151
-681.251	-5.932	-0.202	0.139
-680.237	485.538	-0.112	0.257
-679.222	33.394	-0.090	-0.078
-678.208	800.000	0.063	-0.272
-677.193	800.000	0.077	-0.282
-676.178	800.000	0.078	0.304
-675.164	293.574	-0.180	0.330
-674.149	-23.792	0.234	0.141
-673.135	-200.000	-0.036	-0.256
-672.120	-200.000	-0.012	-0.091
-671.105	-200.000	0.066	-0.520
-670.091	-118.365	-0.241	-0.043
-669.076	333.120	-0.094	-0.181
-668.062	-127.703	0.335	0.048
-667.047	-52.167	0.023	-0.011
-666.032	-122.556	0.141	0.023
-665.018	-200.000	-0.002	-0.403
-664.003	222.210	-0.008	0.013
-662.989	95.651	-0.169	0.193
-661.974	107.623	-0.126	-0.151
-660.959	-136.206	-0.190	-0.022
-659.945	-200.000	-0.041	-0.297
-658.930	14.805	0.037	0.029
-657.916	-4.656	0.324	0.224
-656.901	46.682	0.254	0.237
-655.886	-200.000	-0.052	0.273
-654.872	800.000	0.052	-0.148
-653.857	-200.000	-0.027	-0.182
-652.843	-200.000	-0.050	-0.306
-651.828	-162.246	-0.255	-0.013
-650.814	-110.269	0.257	-0.054
-649.799	-200.000	-0.013	0.217
-648.784	6.166	-0.226	0.168
-647.770	-82.400	0.261	-0.085
-646.755	214.545	-0.195	-0.309
-645.741	140.195	0.059	-0.078
-644.726	323.130	0.184	-0.350
-643.711	157.287	-0.171	-0.236
-642.697	-98.024	-0.121	0.031
-641.682	-142.904	0.035	-0.003
-640.668	-10.184	-0.249	-0.165
-639.653	156.636	-0.090	-0.124
-638.638	-129.104	-0.127	0.018
-637.624	800.000	0.130	-0.395
-636.609	-38.602	-0.201	0.106
-635.595	169.388	0.051	-0.072
-634.580	-91.945	0.470	-0.133
-633.565	169.985	-0.203	0.290
-632.551	-10.773	0.026	-0.017
-631.536	-131.350	-0.034	0.004
-630.522	-134.177	-0.154	-0.019
-629.507	164.745	-0.359	-0.507
-628.492	800.000	0.011	0.042
-627.478	207.522	-0.077	0.121
-626.463	113.332	0.339	0.412
-625.449	111.116	-0.164	-0.198
-624.434	305.096	0.179	-0.333
-623.419	-20.572	0.133	0.082
-622.405	-150.851	-0.144	0.011
-621.390	304.661	-0.030	-0.056
-620.376	759.379	0.063	0.172
-619.361	144.775	-0.102	0.136
-618.346	281.343	0.183	0.328
-617.332	-200.000	0.011	-0.291
-616.317	800.000	-0.044	0.129
-615.303	-29.340	0.352	-0.202
-614.288	-49.139	0.110	-0.052
-613.273	110.707	-0.110	-0.132
-612.259	800.000	0.071	-0.200
-611.244	143.295	0.252	-0.336
-610.230	318.074	-0.084	-0.159
-609.215	117.700	-0.043	0.052
-608.201	45.589	0.082	0.076
-607.186	-200.000	-0.018	0.164
-606.171	-0.413	-0.240	0.170
-605.157	-200.000	-0.011	0.077
-604.142	44.110	-0.268	0.246
-603.128	-200.000	-0.027	-0.249
-602.113	-200.000	-0.009	0.120
-601.098	521.077	0.071	-0.167
-600.084	493.526	-0.027	-0.061
-599.069	46.511	0.175	0.162
-598.055	413.883	0.077	0.163
-597.040	-66.652	-0.222	0.088
-596.025	-80.955	-0.156	-0.052
-595.011	-112.344	0.214	0.043
-593.996	3.061	0.149	-0.108
-592.982	-195.857	-0.208	0.001
-591.967	40.301	-0.111	-0.100
-590.952	82.944	-0.074	0.081
-589.938	243.517	-0.085	0.142
-588.923	-200.000	0.010	0.238
-587.909	-187.970	-0.419	0.005
-586.894	100.783	0.276	-0.321
-585.879	-100.593	-0.304	-0.075
-584.865	-87.102	0.181	0.055
-583.850	-133.204	0.171	-0.022
-582.836	-200.000	0.027	0.323
-581.821	474.717	-0.078	0.176
-580.806	-200.000	-0.003	-0.296
-579.792	367.704	0.096	-0.194
-578.777	-200.000	0.032	0.202
-577.763	651.788	0.112	0.285
-576.748	-65.445	-0.282	0.113
-575.733	-56.125	0.260	-0.116
-574.719	175.985	-0.157	0.227
-573.704	-200.000	-0.054	0.283
-572.690	-200.000	-0.027	-0.227
-571.675	693.837	-0.083	0.219
-570.661	256.046	0.117	-0.201
-569.646	-110.091	0.115	-0.024
-568.631	669.307	0.199	0.513
-567.617	9.860	-0.122	0.092
-566.602	-104.897	0.111	0.025
-565.588	479.290	-0.108	0.245
-564.573	-200.000	0.055	0.307
-563.558	-200.000	0.044	-0.205
-562.544	-26.469	-0.109	-0.064
-561.529	225.084	-0.135	-0.218
-560.515	214.798	0.095	0.150
-559.500	164.405	0.072	0.101
-558.485	-200.000	-0.019	-0.170
-557.471	800.000	-0.023	0.068
-556.456	79.839	-0.143	-0.153
-555.442	210.819	0.070	0.109
-554.427	44.405	-0.198	-0.181
-553.412	-200.000	0.027	-0.256
-552.398	-200.000	-0.001	-0.122
-551.383	-187.915	0.085	-0.001
-550.369	-200.000	-0.078	0.365
-549.354	800.000	-0.074	0.235
-548.339	256.258	0.087	0.149
-547.325	-98.612	-0.264	-0.067
-546.310	102.391	0.153	0.179
-545.296	78.574	-0.093	-0.099
-544.281	-78.712	-0.311	0.106
-543.266	694.697	0.025	0.066
-542.252	705.905	0.073	-0.193
-541.237	69.544	0.079	-0.081
-540.223	-200.000	-0.029	0.214
-539.208	-200.000	0.006	0.057
-538.193	128.230	-0.116	-0.147
-537.179	-113.609	-0.376	-0.073
-536.164	16.090	-0.176	0.139
-535.150	-13.873	0.095	-0.061
-534.135	20.006	0.337	-0.271
-533.121	-200.000	-0.016	0.254
-532.106	-35.705	0.139	-0.075
-531.091	-105.439	-0.202	-0.046
-530.077	9.428	-0.150	-0.113
-529.062	-57.986	0.192	-0.084
-528.048	-8.488	0.309	-0.207
-527.033	67.450	0.098	0.100
-526.018	24.318	-0.066	0.054
-525.004	-129.503	-0.280	-0.039
-523.989	-161.003	0.093	-0.005
-522.975	-127.743	0.177	0.025
-521.960	-101.988	0.072	-0.017
-520.945	-200.000	-0.002	-0.062
-519.931	23.638	0.221	0.181
-518.916	101.828	0.111	0.129
-517.902	5.387	0.435	0.320
-516.887	17.523	-0.204	-0.162
-515.872	-200.000	-0.048	0.302
-514.858	-103.290	0.261	0.061
-513.843	366.916	-0.026	0.052
-512.829	-39.035	0.214	-0.112
-511.814	800.000	-0.087	0.246
-510.799	-128.921	-0.472	0.066
-509.785	0.797	-0.112	-0.080
-508.770	165.148	0.159	0.224
-507.756	40.622	0.050	-0.045
-506.741	-37.609	0.115	-0.061
-505.726	-12.775	-0.227	-0.147
-504.712	11.870	0.154	0.118
-503.697	800.000	0.036	-0.117
-502.683	-25.489	0.209	-0.123
-501.668	-200.000	0.005	-0.084
-500.653	-123.863	-0.184	-0.029
-499.639	322.554	0.021	0.040
-498.624	345.152	-0.101	-0.198
-497.610	-100.221	0.122	0.030
-496.595	-111.592	0.224	0.045
-495.581	304.864	0.017	-0.031
-494.566	-200.000	-0.020	-0.259
-493.551	-136.911	0.099	0.011
-492.537	-192.880	0.289	0.003
-491.522	526.287	0.092	-0.216
-490.508	-136.538	0.031	-0.004
-489.493	400.444	0.014	0.029
-488.478	126.207	-0.231	-0.290
-487.464	-89.030	-0.168	-0.049
-486.449	-200.000	-0.001	0.211
-485.435	267.664	0.120	0.209
-484.420	-168.765	0.006	0.000
-483.405	397.776	-0.089	-0.186
-482.391	197.196	-0.197	0.299
-481.376	-88.090	-0.337	-0.101
-480.362	-200.000	0.014	-0.137
-479.347	24.656	-0.178	-0.147
-478.332	12.067	0.165	0.126
-477.318	196.928	0.052	0.079
-476.303	28.665	0.159	0.134
-475.289	7.522	0.197	0.147
-474.274	173.646	-0.131	-0.188
-473.259	-25.433	-0.224	0.132
-472.245	30.375	0.293	-0.249
-471.230	800.000	0.041	0.174
-470.216	292.239	0.116	-0.211
-469.201	13.030	0.176	-0.135
-468.186	60.008	-0.056	-0.055
-467.172	800.000	-0.084	-0.331
-466.157	59.358	-0.121	-0.118
-465.143	800.000	0.042	0.141
-464.128	1.308	-0.151	-0.108
-463.113	-200.000	-0.009	0.102
-462.099	-128.395	-0.269	-0.038
-461.084	278.925	0.147	0.261
-460.070	-7.092	0.359	-0.242
-459.055	-126.573	-0.162	0.024
-458.040	-50.722	-0.109	0.051
-457.026	-117.808	0.194	-0.035
-456.011	381.072	-0.057	-0.117
-454.997	267.581	-0.213	0.370
-453.982	151.199	-0.099	-0.133
-452.968	-23.322	0.041	-0.024
-451.953	-200.000	-0.034	0.155
-450.938	800.000	-0.087	0.315
-449.924	767.142	0.154	0.416
-448.909	292.912	0.052	0.094
-447.895	-55.185	0.082	-0.037
-446.880	-200.000	0.030	0.157
-445.865	284.590	0.068	-0.122
-444.851	-200.000	-0.032	-0.141
-443.836	5.495	-0.131	-0.096
-442.822	579.285	0.140	0.341
-441.807	-38.215	0.137	0.072
-440.792	-102.078	0.294	0.070
-439.778	-15.798	-0.043	-0.028
-438.763	-155.314	-0.225	0.015
-437.749	288.839	0.117	0.210
-436.734	90.502	-0.150	-0.167
-435.719	93.857	-0.075	-0.084
-434.705	347.114	-0.050	0.098
-433.690	-78.259	-0.053	-0.018
-432.676	369.812	0.227	0.456
-431.661	-159.111	0.197	0.011
-430.646	349.051	-0.012	0.023
-429.632	201.020	-0.119	-0.182
-428.617	-81.232	0.076	-0.025
-427.603	800.000	0.056	0.212
-426.588	-127.808	0.248	-0.035
-425.573	-182.501	0.370	0.007
-424.559	-86.948	0.331	0.100
-423.544	800.000	-0.070	0.217
-422.530	800.000	-0.064	-0.211
-421.515	-68.323	-0.089	-0.034
-420.500	7.300	-0.072	-0.053
-419.486	800.000	0.039	-0.164
-418.471	401.344	0.064	-0.133
-417.457	800.000	-0.058	0.230
-416.442	-95.731	-0.282	-0.075
-415.428	800.000	0.043	-0.146
-414.413	190.402	0.091	-0.136
-413.398	7.764	-0.204	0.151
-412.384	-193.787	0.266	0.002
-411.369	-135.522	-0.351	0.041
-410.355	-152.260	0.120	-0.009
-409.340	615.856	-0.049	0.121
-408.325	121.301	-0.242	0.299
-407.311	-22.772	-0.251	-0.151
-406.296	-53.499	0.197	0.090
-405.282	-46.420	-0.105	-0.051
-404.267	-55.165	-0.027	0.012
-403.252	230.795	0.094	0.152
-402.238	128.313	0.311	0.392
-401.223	-9.573	-0.101	-0.067
-400.209	-200.000	-0.001	-0.347
-399.194	-133.544	-0.095	0.012
-398.179	-26.510	0.247	0.144
-397.165	-7.583	-0.080	0.054
-396.150	0.061	0.071	-0.050
-395.136	7.138	0.154	-0.114
-394.121	180.074	-0.121	0.176
-393.106	-112.362	0.198	0.039
-392.092	-49.877	-0.072	-0.034
-391.077	800.000	0.078	-0.224
-390.063	-108.729	-0.275	-0.058
-389.048	-122.507	0.267	-0.043
-388.033	-200.000	-0.015	-0.071
-387.019	133.023	0.169	-0.216
-386.004	-7.297	-0.221	0.149
-384.990	-200.000	-0.012	0.163
-383.975	-115.968	-0.216	0.040
-382.960	-119.620	-0.242	-0.041
-381.946	135.827	-0.138	0.179
-380.931	-2.132	-0.128	0.089
-379.917	-48.494	-0.173	-0.082
-378.902	-200.000	-0.037	0.243
-377.888	-182.418	0.154	0.003
-376.873	199.909	-0.169	-0.257
-375.858	800.000	-0.088	-0.251
-374.844	-54.750	0.103	0.046
-373.829	800.000	0.078	-0.320
-372.815	7.868	0.171	-0.127
-371.800	109.818	-0.170	-0.202
-370.785	-110.592	0.374	0.077
-369.771	-200.000	0.014	0.363
-368.756	32.892	-0.295	-0.253
-367.742	-200.000	-0.001	0.043
-366.727	-28.140	0.178	0.102
-365.712	16.088	-0.186	-0.145
-364.698	53.224	-0.094	-0.089
-363.683	87.659	0.145	-0.159
-362.669	-200.000	-0.004	0.073
-361.654	-200.000	0.008	0.197
-360.639	-19.399	-0.329	0.202
-359.625	800.000	-0.079	-0.252
-358.610	-150.435	0.323	-0.025
-357.596	-10.567	0.169	0.111
-356.581	133.189	0.039	-0.050
-355.566	299.031	-0.035	0.064
-354.552	368.243	-0.059	0.117
-353.537	28.431	-0.205	0.172
-352.523	130.440	-0.062	-0.078
-351.508	-67.826	0.156	0.061
-350.493	-200.000	-0.069	0.614
-349.479	-115.944	0.310	0.057
-348.464	-169.875	-0.169	-0.006
-347.450	-150.144	0.280	-0.021
-346.435	364.316	0.091	0.182
-345.420	-200.000	-0.020	0.094
-344.406	-16.703	0.062	0.039
-343.391	800.000	-0.067	0.278
-342.377	-67.783	-0.161	0.062
-341.362	129.267	0.039	0.049
-340.348	68.519	0.277	-0.282
-339.333	42.076	-0.234	-0.210
-338.318	-32.909	-0.079	-0.044
-337.304	-193.781	0.427	0.004
-336.289	743.992	-0.033	0.088
-335.275	-200.000	0.026	0.144
-334.260	-200.000	0.020	-0.239
-333.245	-146.916	0.120	0.010
-332.231	204.082	-0.041	0.063
-331.216	-200.000	0.024	0.152
-330.202	-42.223	-0.259	0.131
-329.187	-73.669	-0.061	-0.022
-328.172	427.231	0.150	-0.320
-327.158	45.383	-0.122	-0.111
-326.143	-200.000	-0.019	-0.152
-325.129	-200.000	-0.023	0.363
-324.114	265.006	-0.061	0.105
-323.099	447.247	-0.216	-0.469
-322.085	-200.000	0.026	-0.216
-321.070	-200.000	-0.058	-0.266
-320.056	-200.000	-0.037	-0.173
-319.041	327.019	0.011	0.021
-318.026	519.379	-0.079	0.183
-317.012	132.973	0.101	0.128
-315.997	140.016	0.242	-0.315
-314.983	17.801	-0.156	-0.122
-313.968	800.000	0.039	-0.113
-312.953	76.692	-0.160	-0.168
-311.939	-67.037	-0.194	-0.076
-310.924	800.000	0.100	0.332
-309.910	8.269	0.391	0.291
-308.895	-84.444	0.144	0.045
-307.880	-58.193	0.058	-0.025
-306.866	333.929	0.076	-0.145
-305.851	24.904	-0.023	0.018
-304.837	-178.144	-0.337	0.008
-303.822	-32.478	-0.140	0.077
-302.807	-200.000	0.020	-0.136
-301.793	800.000	-0.074	-0.239
-300.778	800.000	0.040	-0.140
-299.764	-115.320	-0.151	0.028
-298.749	-42.125	-0.033	-0.017
-297.735	207.392	0.307	-0.473
-296.720	205.758	-0.083	0.128
-295.705	-75.545	-0.034	-0.012
-294.691	800.000	-0.046	-0.153
-293.676	-140.595	-0.101	-0.010
-292.662	-163.330	-0.302	0.014
-291.647	253.137	-0.077	0.130
-290.632	434.537	-0.141	0.302
-289.618	-200.000	-0.051	-0.510
-288.603	-200.000	-0.002	-0.090
-287.589	-87.393	-0.425	0.127
-286.574	330.877	0.045	0.086
-285.559	153.304	0.144	0.194
-284.545	-141.472	0.156	0.016
-283.530	637.518	0.094	0.236
-282.516	-152.180	-0.151	0.011
-281.501	148.825	-0.126	-0.168
-280.486	800.000	0.046	0.131
-279.472	-129.119	-0.034	-0.005
-278.457	800.000	-0.074	-0.315
-277.443	-200.000	0.046	-0.272
-276.428	414.771	0.068	-0.144
-275.413	503.101	-0.050	0.113
-274.399	128.700	-0.074	-0.094
-273.384	197.837	-0.055	-0.083
-272.370	-200.000	-0.054	-0.238
-271.355	174.857	0.026	0.037
-270.340	-200.000	0.035	-0.161
-269.326	-76.650	0.337	0.116
-268.311	144.078	-0.033	0.043
-267.297	104.886	0.196	-0.228
-266.282	-200.000	-0.064	-0.392
-265.267	800.000	0.077	-0.270
-264.253	797.802	0.094	-0.257
-263.238	-78.028	0.164	0.056
-262.224	-200.000	0.035	-0.261
-261.209	-175.699	-0.070	-0.002
-260.195	-150.757	-0.137	0.010
-259.180	-3.245	-0.089	0.061
-258.165	-200.000	0.014	-0.301
-257.151	156.650	0.162	0.221
-256.136	517.425	0.062	-0.143
-255.122	82.895	-0.106	0.113
-254.107	51.858	0.078	0.074
-253.092	-159.020	0.203	-0.011
-252.078	800.000	-0.065	0.222
-251.063	52.529	-0.156	-0.147
-250.049	206.580	0.161	-0.248
-249.034	152.180	0.151	0.203
-248.019	-0.745	0.034	0.024
-247.005	-111.299	0.233	0.047
-245.990	-17.452	-0.079	0.049
-244.976	207.826	0.139	0.214
-243.961	168.590	0.196	-0.276
-242.946	184.121	-0.086	-0.125
-241.932	169.027	0.074	0.104
-240.917	39.933	-0.112	-0.099
-239.903	211.784	0.068	0.105
-238.888	207.935	0.086	-0.133
-237.873	-79.234	-0.374	0.125
-236.859	-51.604	-0.067	-0.031
-235.844	120.521	-0.068	-0.083
-234.830	-3.455	0.218	-0.149
-233.815	-92.547	0.287	-0.079
-232.800	130.824	-0.113	-0.142
-231.786	-16.620	-0.213	-0.133
-230.771	79.736	-0.085	-0.090
-229.757	69.230	-0.093	-0.094
-228.742	800.000	0.011	0.041
-227.727	-200.000	-0.015	0.170
-226.713	471.648	0.055	0.122
-225.698	-200.000	-0.003	0.032
-224.684	-90.868	0.102	-0.029
-223.669	-143.447	0.397	0.037
-222.655	21.835	0.208	-0.167
-221.640	-36.615	-0.134	0.071
-220.625	-53.530	0.139	0.063
-219.611	698.676	-0.060	-0.156
-218.596	61.982	0.198	-0.195
-217.582	800.000	-0.051	0.140
-216.567	-21.567	0.169	0.101
-215.552	-132.297	0.162	-0.021
-214.538	443.504	-0.057	0.122
-213.523	47.462	-0.107	0.099
-212.509	573.265	0.124	0.297
-211.494	-136.050	-0.123	0.014
-210.479	108.807	-0.076	-0.089
-209.465	-200.000	0.047	0.419
-208.450	72.328	0.008	-0.009
-207.436	68.408	-0.074	0.074
-206.421	-5.741	0.415	0.280
-205.406	626.526	0.110	0.274
-204.392	-200.000	-0.046	-0.212
-203.377	-200.000	-0.063	0.532
-202.363	-6.258	-0.168	0.113
-201.348	59.917	0.357	-0.347
-200.333	-19.783	-0.231	0.140
-199.319	66.008	-0.223	0.223
-198.304	-75.287	-0.143	-0.050
-197.290	214.649	-0.051	-0.079
-196.275	-47.231	0.392	0.188
-195.260	19.478	0.153	0.121
-194.246	282.220	0.097	0.171
-193.231	272.267	0.090	0.156
-192.217	-41.693	-0.030	0.015
-191.202	800.000	0.066	-0.201
-190.187	800.000	0.027	0.101
-189.173	-102.451	-0.162	0.038
-188.158	-157.357	-0.131	-0.008
-187.144	-28.570	0.145	0.082
-186.129	91.205	-0.319	-0.352
-185.114	699.457	-0.002	-0.004
-184.100	575.381	0.042	0.101
-183.085	-200.000	0.007	-0.075
-182.071	-14.085	0.234	0.148
-181.056	640.036	0.146	-0.364
-180.042	105.197	-0.071	0.082
-179.027	17.050	-0.214	0.167
-178.012	800.000	0.097	0.398
-176.998	239.527	-0.182	-0.299
-175.983	-200.000	-0.041	-0.246
-174.969	-108.055	0.259	0.055
-173.954	-66.379	-0.414	-0.162
-172.939	362.081	0.026	0.051
-171.925	-180.864	-0.033	-0.001
-170.910	-99.441	-0.349	0.086
-169.896	174.512	-0.192	0.273
-168.881	-1.876	-0.135	-0.094
-167.866	10.482	-0.183	-0.137
-166.852	-18.722	-0.233	-0.143
-165.837	-200.000	-0.020	0.131
-164.823	-200.000	0.067	0.293
-163.808	261.516	0.073	-0.124
-162.793	800.000	-0.043	-0.160
-161.779	-200.000	0.016	0.350
-160.764	-200.000	0.001	0.131
-159.750	800.000	0.069	0.246
-158.735	405.671	0.115	-0.238
-157.720	-200.000	0.050	-0.362
-156.706	-200.000	0.011	-0.309
-155.691	-122.417	0.089	0.014
-154.677	460.117	-0.082	-0.179
-153.662	-45.088	-0.144	-0.070
-152.647	160.716	-0.183	0.250
-151.633	800.000	0.026	0.101
-150.618	-117.712	-0.136	0.024
-149.604	-71.503	0.202	-0.074
-148.589	800.000	0.090	0.324
-147.574	-109.185	0.276	0.058
-146.560	59.226	0.231	0.223
-145.545	800.000	-0.036	-0.099
-144.531	-115.204	-0.148	0.028
-143.516	-162.115	0.083	-0.004
-142.502	29.881	0.269	0.225
-141.487	-14.608	-0.055	0.035
-140.472	-35.201	-0.048	-0.026
-139.458	-52.594	0.253	0.115
-138.443	-32.028	0.280	0.154
-137.429	-50.327	0.257	0.119
-136.414	-27.065	-0.292	-0.167
-135.399	-79.269	0.204	-0.068
-134.385	-200.000	0.057	0.305
-133.370	118.013	-0.086	0.104
-132.356	153.814	-0.056	-0.076
-131.341	-154.075	0.030	-0.002
-130.326	-52.367	-0.126	0.057
-129.312	-23.545	-0.154	0.091
-128.297	-147.512	0.589	0.049
-127.283	-84.060	0.125	-0.039
-126.268	-200.000	0.010	-0.399
-125.253	396.016	0.155	-0.318
-124.239	161.795	0.190	0.261
-123.224	-187.738	-0.087	0.001
-122.210	-92.669	0.108	0.030
