DTS Sentinel unit serial number:	SN413079Multiplexer serial number:	ORYXHardware model number:	OX4-SRSoftware version number:	ORYX F/W v4.00 Oryx Data Collector v3.7.2.0data status	okinstallation	princeton_trtdifferential loss correction	single-endedforward channel	channel 2reverse channel	N/Adate	2019/09/18time	02:07:34forward acquisition time	60.00reverse acquisition time	0.00gamma	496.2192k internal	0.2349k external	0.2349temperature offset calibration	0.9981default loss term (dB/km)	0.3790temperature slope calibration	1.0000multiplexer offset coefficient	1.0000multiplexer slope coefficient	1.0000fibre end	0.00T internal ref (°C)	22.87T ext. ref 1 (°C)	0.16T ext. ref 2 (°C)	16.66length (m)	temperature (°C)	Stokes	anti-Stokes-747.200	59.813	-0.197	0.194
-746.185	-200.000	0.003	0.585
-745.171	800.000	-0.158	0.485
-744.156	-200.000	0.016	0.220
-743.142	651.870	-0.096	0.244
-742.127	-200.000	-0.011	0.111
-741.112	-28.424	0.271	-0.156
-740.098	800.000	-0.042	0.139
-739.083	-200.000	0.041	-0.238
-738.069	-16.118	-0.296	0.188
-737.054	-10.995	-0.308	-0.203
-736.039	57.815	-0.270	-0.264
-735.025	55.149	0.094	-0.090
-734.010	-32.571	-0.100	0.055
-732.996	15.718	-0.168	-0.132
-731.981	-200.000	0.032	0.190
-730.966	-200.000	-0.085	-0.516
-729.952	-112.363	-0.270	-0.054
-728.937	5.540	0.108	0.080
-727.923	-40.133	-0.121	-0.063
-726.908	13.915	-0.299	-0.232
-725.894	-34.103	0.230	-0.126
-724.879	135.842	-0.170	-0.221
-723.864	-69.857	0.153	-0.058
-722.850	-110.744	0.329	-0.068
-721.835	267.902	-0.083	0.145
-720.821	800.000	0.047	0.175
-719.806	-200.000	-0.024	-0.145
-718.791	-157.369	-0.295	0.018
-717.777	186.269	-0.088	-0.130
-716.762	651.475	0.046	-0.117
-715.748	-43.037	0.147	0.074
-714.733	193.386	0.231	0.349
-713.718	720.499	-0.113	0.300
-712.704	225.119	0.208	0.336
-711.689	531.582	-0.095	-0.225
-710.675	-87.565	0.237	0.072
-709.660	-93.253	-0.046	-0.013
-708.645	90.892	-0.147	-0.165
-707.631	-6.211	0.158	-0.107
-706.616	-3.237	0.189	-0.131
-705.602	335.028	-0.025	0.047
-704.587	-200.000	0.026	0.343
-703.572	-28.364	-0.533	-0.307
-702.558	451.917	-0.179	-0.393
-701.543	-158.869	0.123	0.007
-700.529	-200.000	0.018	0.119
-699.514	169.881	0.072	0.103
-698.499	447.652	0.008	-0.017
-697.485	-52.991	-0.212	0.097
-696.470	317.396	0.082	0.155
-695.456	199.357	0.108	0.165
-694.441	83.768	-0.316	-0.344
-693.426	174.874	-0.090	0.130
-692.412	282.329	0.121	-0.215
-691.397	-12.386	-0.058	-0.038
-690.383	-91.944	-0.129	-0.036
-689.368	-15.953	0.194	0.123
-688.354	-89.019	-0.239	-0.071
-687.339	-71.285	-0.279	0.104
-686.324	-30.284	-0.187	0.106
-685.310	22.681	-0.273	0.222
-684.295	-128.278	0.155	0.022
-683.281	800.000	0.043	0.143
-682.266	-6.435	0.052	0.036
-681.251	-62.712	-0.094	-0.039
-680.237	-18.895	-0.269	-0.167
-679.222	16.015	0.166	-0.130
-678.208	-15.466	-0.208	-0.132
-677.193	-178.176	0.315	0.007
-676.178	154.064	0.171	-0.233
-675.164	643.360	-0.066	-0.168
-674.149	-131.863	0.214	0.028
-673.135	588.322	0.073	-0.180
-672.120	419.157	-0.059	-0.126
-671.105	-21.896	-0.142	0.086
-670.091	800.000	0.077	0.219
-669.076	-15.497	0.078	-0.050
-668.062	43.637	-0.312	0.284
-667.047	800.000	0.023	0.065
-666.032	718.367	-0.006	0.016
-665.018	800.000	0.052	-0.185
-664.003	33.591	-0.264	-0.228
-662.989	24.482	0.349	-0.288
-661.974	800.000	0.103	-0.307
-660.959	711.153	-0.077	-0.204
-659.945	526.278	-0.056	-0.131
-658.930	-53.792	0.125	0.057
-657.916	32.336	-0.201	-0.173
-656.901	49.617	-0.028	0.026
-655.886	800.000	-0.163	-0.477
-654.872	-76.646	-0.163	-0.057
-653.857	90.580	-0.236	-0.263
-652.843	-18.834	0.128	-0.079
-651.828	-128.918	0.186	-0.026
-650.814	-200.000	-0.000	0.077
-649.799	28.020	-0.039	-0.033
-648.784	-200.000	-0.024	0.310
-647.770	-40.353	-0.201	-0.104
-646.755	-200.000	0.018	-0.309
-645.741	29.579	0.070	-0.059
-644.726	63.707	0.213	0.213
-643.711	-151.404	0.135	-0.010
-642.697	-200.000	-0.002	-0.410
-641.682	8.616	-0.103	-0.077
-640.668	117.695	0.262	-0.320
-639.653	104.279	0.301	-0.353
-638.638	-80.565	-0.519	-0.172
-637.624	-62.462	0.225	0.093
-636.609	-200.000	0.019	0.231
-635.595	-130.013	0.212	-0.029
-634.580	-6.422	0.094	-0.063
-633.565	800.000	0.013	-0.051
-632.551	-4.701	-0.194	-0.133
-631.536	-98.668	-0.337	0.085
-630.522	-41.346	-0.240	0.123
-629.507	726.591	0.112	-0.298
-628.492	-73.341	-0.088	-0.032
-627.478	-42.970	-0.182	0.092
-626.463	-41.580	-0.281	-0.143
-625.449	-41.474	0.196	-0.100
-624.434	-200.000	-0.015	-0.077
-623.419	-41.179	0.169	-0.087
-622.405	-116.426	-0.146	0.027
-621.390	-122.202	0.172	-0.028
-620.376	-200.000	0.011	0.098
-619.361	-3.384	0.063	0.044
-618.346	475.606	0.053	-0.119
-617.332	-69.968	0.216	0.082
-616.317	145.510	0.089	0.118
-615.303	-141.745	0.169	-0.017
-614.288	-200.000	-0.003	0.020
-613.273	21.630	-0.217	0.175
-612.259	-35.715	-0.259	-0.140
-611.244	-200.000	-0.028	-0.161
-610.230	-67.505	-0.201	0.078
-609.215	40.729	-0.251	-0.225
-608.201	-59.279	0.153	-0.065
-607.186	-128.048	-0.185	-0.026
-606.171	-200.000	-0.008	-0.293
-605.157	-9.675	-0.406	-0.269
-604.142	-105.500	0.158	-0.036
-603.128	-200.000	0.023	0.236
-602.113	-200.000	-0.017	-0.168
-601.098	-200.000	-0.031	0.272
-600.084	-200.000	-0.058	0.307
-599.069	66.759	-0.018	0.018
-598.055	43.993	0.009	-0.008
-597.040	-200.000	0.018	0.137
-596.025	6.995	0.233	-0.173
-595.011	-2.221	-0.024	-0.017
-593.996	105.915	0.083	0.097
-592.982	-115.326	0.284	0.053
-591.967	-54.834	-0.055	-0.025
-590.952	-66.884	-0.377	0.148
-589.938	-156.604	0.325	0.020
-588.923	436.227	0.059	-0.128
-587.909	-51.468	0.278	-0.129
-586.894	-28.844	-0.217	-0.124
-585.879	76.836	-0.085	-0.089
-584.865	153.144	-0.257	-0.349
-583.850	-173.573	-0.403	0.012
-582.836	-200.000	0.041	0.603
-581.821	-2.084	0.124	-0.087
-580.806	178.792	0.152	-0.220
-579.792	-200.000	-0.016	0.151
-578.777	-39.850	0.135	-0.070
-577.763	-200.000	-0.026	-0.176
-576.748	-100.090	-0.250	-0.062
-575.733	-33.049	0.118	-0.065
-574.719	-67.649	0.175	0.068
-573.704	-200.000	-0.023	0.243
-572.690	125.012	-0.251	0.314
-571.675	800.000	-0.097	-0.351
-570.661	-79.701	0.258	-0.086
-569.646	-58.712	-0.080	0.034
-568.631	-56.863	-0.171	-0.075
-567.617	-200.000	-0.028	0.212
-566.602	100.276	0.159	-0.183
-565.588	-200.000	-0.029	-0.315
-564.573	-94.002	-0.178	0.048
-563.558	234.781	-0.202	0.330
-562.544	158.972	0.184	0.254
-561.529	-200.000	-0.011	-0.333
-560.515	79.956	0.137	-0.146
-559.500	44.541	-0.164	-0.150
-558.485	691.094	0.104	-0.271
-557.471	344.313	-0.107	-0.209
-556.456	6.444	0.182	-0.134
-555.442	28.433	-0.055	-0.046
-554.427	234.664	-0.054	-0.088
-553.412	19.643	-0.115	0.091
-552.398	-128.521	0.270	0.038
-551.383	72.563	-0.183	-0.189
-550.369	-40.999	-0.169	0.087
-549.354	800.000	0.203	-0.604
-548.339	-105.966	0.202	-0.045
-547.325	582.180	-0.184	0.447
-546.310	121.078	-0.080	-0.099
-545.296	-160.974	0.131	-0.007
-544.281	-25.546	0.210	0.123
-543.266	176.669	0.192	0.277
-542.252	-167.074	0.046	0.002
-541.237	-200.000	-0.008	0.067
-540.223	-200.000	0.010	-0.593
-539.208	15.957	0.093	-0.072
-538.193	54.111	-0.153	-0.146
-537.179	-99.063	0.372	0.093
-536.164	-39.984	0.174	-0.090
-535.150	505.271	0.189	0.433
-534.135	156.584	0.124	0.169
-533.121	133.765	-0.184	-0.236
-532.106	-165.850	0.176	-0.007
-531.091	184.547	0.196	-0.287
-530.077	-200.000	0.302	0.000
-529.062	-65.543	-0.353	-0.140
-528.048	-200.000	0.018	0.215
-527.033	-200.000	0.025	0.157
-526.018	-200.000	-0.010	0.127
-525.004	230.935	-0.065	0.105
-523.989	-28.181	0.121	-0.069
-522.975	40.580	-0.274	0.244
-521.960	62.854	-0.060	-0.059
-520.945	800.000	0.038	0.146
-519.931	-79.863	-0.195	-0.065
-518.916	50.337	-0.043	0.040
-517.902	11.965	-0.075	-0.057
-516.887	253.543	-0.094	0.158
-515.872	-200.000	-0.022	-0.184
-514.858	-17.681	0.228	0.142
-513.843	-140.054	-0.419	0.044
-512.829	-116.253	0.187	-0.034
-511.814	800.000	-0.068	0.196
-510.799	-32.669	-0.165	-0.091
-509.785	358.094	0.059	0.117
-508.770	-200.000	0.025	0.214
-507.756	-148.758	-0.269	0.022
-506.741	-93.674	0.098	-0.027
-505.726	9.430	0.086	0.065
-504.712	3.513	0.076	-0.055
-503.697	-76.351	-0.083	-0.029
-502.683	558.522	0.105	-0.251
-501.668	-200.000	-0.031	-0.272
-500.653	800.000	-0.049	-0.154
-499.639	1.957	-0.058	0.041
-498.624	146.920	-0.080	0.106
-497.610	-113.853	0.227	0.044
-496.595	153.131	-0.037	-0.050
-495.581	37.990	-0.078	0.069
-494.566	800.000	-0.037	-0.135
-493.551	44.929	-0.033	-0.030
-492.537	276.001	-0.106	0.186
-491.522	-200.000	-0.201	0.000
-490.508	-200.000	-0.026	0.252
-489.493	186.773	0.076	0.112
-488.478	-89.683	-0.121	-0.035
-487.464	123.858	-0.169	0.209
-486.449	279.909	0.101	-0.179
-485.435	-25.801	-0.123	0.072
-484.420	800.000	0.050	0.210
-483.405	114.133	-0.097	-0.117
-482.391	669.411	0.054	-0.137
-481.376	-200.000	-0.035	-0.232
-480.362	557.520	0.149	-0.356
-479.347	-200.000	0.000	0.244
-478.332	9.010	-0.166	0.124
-477.318	-200.000	-0.049	-0.254
-476.303	-199.171	0.310	-0.002
-475.289	-46.783	-0.357	0.172
-474.274	155.975	-0.232	0.316
-473.259	335.097	-0.101	-0.193
-472.245	800.000	-0.022	-0.091
-471.230	-200.000	0.010	0.247
-470.216	800.000	0.076	-0.219
-469.201	-75.772	0.491	0.172
-468.186	800.000	0.023	-0.091
-467.172	-103.745	0.452	-0.104
-466.157	398.795	0.208	-0.429
-465.143	35.871	-0.212	0.184
-464.128	423.595	0.183	0.390
-463.113	-37.579	0.392	0.207
-462.099	-36.995	-0.115	0.061
-461.084	174.307	0.105	0.150
-460.070	2.417	0.037	0.027
-459.055	559.181	-0.119	0.285
-458.040	239.561	-0.032	-0.053
-457.026	-79.375	0.111	0.037
-456.011	227.747	0.051	-0.082
-454.997	-57.118	0.085	-0.037
-453.982	-200.000	-0.014	0.326
-452.968	-147.735	-0.454	0.038
-451.953	63.855	-0.199	-0.198
-450.938	-200.000	-0.071	0.474
-449.924	-91.116	-0.272	-0.077
-448.909	53.958	-0.127	0.120
-447.895	107.227	0.050	-0.059
-446.880	-112.143	0.207	-0.041
-445.865	800.000	-0.065	-0.198
-444.851	-0.809	0.121	-0.085
-443.836	-129.378	0.176	-0.024
-442.822	-35.436	-0.085	-0.046
-441.807	109.258	0.163	0.193
-440.792	-47.308	0.381	0.183
-439.778	64.809	0.224	-0.223
-438.763	800.000	0.073	0.228
-437.749	-103.356	-0.205	-0.048
-436.734	-26.929	-0.274	-0.158
-435.719	398.618	0.071	-0.147
-434.705	414.984	0.056	0.117
-433.690	-200.000	-0.039	0.215
-432.676	-124.372	0.143	-0.022
-431.661	425.179	-0.130	-0.277
-430.646	75.687	-0.269	0.280
-429.632	353.859	0.107	0.210
-428.617	54.381	-0.242	-0.230
-427.603	800.000	0.010	-0.032
-426.588	572.424	-0.128	-0.308
-425.573	299.735	-0.054	0.098
-424.559	29.414	0.243	-0.204
-423.544	-200.000	-0.010	-0.132
-422.530	296.367	0.047	0.085
-421.515	-10.377	0.091	0.060
-420.500	-200.000	0.043	0.187
-419.486	-123.424	-0.444	0.070
-418.471	111.259	-0.178	-0.212
-417.457	120.985	0.166	0.204
-416.442	800.000	0.101	0.298
-415.428	-43.241	-0.050	0.025
-414.413	-139.478	0.148	-0.016
-413.398	-99.724	0.344	0.085
-412.384	-142.217	-0.092	0.009
-411.369	-14.439	0.282	0.179
-410.355	-200.000	0.020	0.277
-409.340	422.605	-0.079	-0.167
-408.325	48.339	0.169	0.156
-407.311	-146.943	0.112	0.009
-406.296	800.000	0.042	-0.127
-405.282	52.125	-0.243	0.228
-404.267	-117.678	0.159	0.028
-403.252	800.000	-0.048	-0.180
-402.238	800.000	-0.076	0.250
-401.223	28.665	-0.067	0.056
-400.209	-63.670	0.253	0.102
-399.194	-117.538	0.164	-0.029
-398.179	-78.117	0.225	-0.076
-397.165	547.343	0.046	-0.108
-396.150	507.158	-0.090	-0.205
-395.136	-200.000	0.017	0.460
-394.121	81.675	-0.217	0.231
-393.106	304.622	-0.042	-0.076
-392.092	800.000	-0.081	-0.225
-391.077	-10.449	-0.254	-0.166
-390.063	-12.671	-0.123	0.079
-389.048	73.804	0.150	-0.154
-388.033	147.168	0.039	-0.051
-387.019	-175.563	0.261	0.007
-386.004	-28.629	-0.093	0.053
-384.990	87.244	0.076	0.083
-383.975	-200.000	0.017	0.128
-382.960	-40.709	0.158	-0.081
-381.946	82.405	-0.031	0.033
-380.931	-74.047	-0.216	-0.077
-379.917	-120.780	-0.397	-0.066
-378.902	75.890	0.042	0.044
-377.888	69.772	0.028	-0.028
-376.873	-145.993	-0.131	-0.011
-375.858	184.847	-0.155	0.227
-374.844	-200.000	-0.002	0.258
-373.829	-122.147	-0.305	-0.049
-372.815	15.480	-0.127	0.098
-371.800	800.000	0.134	0.366
-370.785	-104.546	-0.215	0.049
-369.771	-43.715	0.226	0.112
-368.756	-13.405	-0.431	-0.275
-367.742	26.793	-0.143	-0.118
-366.727	-60.276	-0.123	-0.052
-365.712	323.539	-0.046	-0.086
-364.698	-200.000	-0.031	-0.236
-363.683	71.514	-0.132	0.135
-362.669	182.320	-0.150	0.217
-361.654	-7.529	-0.175	0.116
-360.639	-35.352	0.333	0.178
-359.625	-173.525	-0.123	-0.004
-358.610	43.731	0.212	-0.191
-357.596	800.000	-0.046	-0.130
-356.581	-65.013	-0.259	0.103
-355.566	800.000	-0.105	0.333
-354.552	196.759	0.142	-0.213
-353.537	-108.718	0.206	-0.043
-352.523	-120.782	0.282	-0.047
-351.508	1.946	-0.138	-0.098
-350.493	145.882	0.160	-0.210
-349.479	125.492	-0.204	-0.253
-348.464	27.365	-0.061	0.051
-347.450	450.690	0.192	0.416
-346.435	52.578	-0.091	0.086
-345.420	42.499	0.243	0.217
-344.406	5.499	0.153	-0.111
-343.391	-21.345	0.229	-0.137
-342.377	-27.095	0.336	-0.192
-341.362	409.382	0.169	-0.352
-340.348	271.609	0.086	-0.148
-339.333	-200.000	-0.015	-0.365
-338.318	548.915	0.157	-0.370
-337.304	-34.542	0.078	-0.042
-336.289	-152.318	-0.333	-0.024
-335.275	-91.397	-0.149	0.042
-334.260	-99.835	0.067	0.016
-333.245	-200.000	-0.045	0.319
-332.231	194.794	-0.129	-0.193
-331.216	-87.848	-0.206	0.061
-330.202	15.990	-0.307	0.237
-329.187	-6.439	-0.158	0.106
-328.172	232.940	0.127	-0.204
-327.158	-51.180	0.455	-0.210
-326.143	800.000	-0.070	0.263
-325.129	-42.083	-0.245	-0.123
-324.114	492.002	-0.132	-0.297
-323.099	-200.000	-0.022	-0.185
-322.085	-200.000	-0.005	-0.271
-321.070	-58.439	-0.086	-0.037
-320.056	-55.000	-0.043	-0.019
-319.041	141.348	-0.147	0.190
-318.026	-200.000	-0.025	-0.136
-317.012	-52.968	-0.356	-0.161
-315.997	360.526	-0.203	0.400
-314.983	211.756	0.096	0.149
-313.968	-200.000	-0.007	-0.225
-312.953	-200.000	-0.026	0.251
-311.939	-105.863	0.193	0.043
-310.924	763.097	0.141	0.375
-309.910	-78.774	0.172	0.058
-308.895	-62.167	0.154	-0.063
-307.880	-200.000	-0.010	0.100
-306.866	-200.000	0.025	-0.229
-305.851	-101.722	-0.090	-0.022
-304.837	167.452	-0.053	-0.073
-303.822	-39.271	0.119	-0.062
-302.807	410.887	0.140	0.291
-301.793	800.000	0.127	0.364
-300.778	-121.357	-0.145	0.024
-299.764	-42.688	0.049	0.025
-298.749	128.811	0.150	0.188
-297.735	83.420	0.145	-0.155
-296.720	-200.000	-0.002	-0.141
-295.705	-200.000	0.017	0.286
-294.691	20.454	0.207	-0.164
-293.676	-104.004	0.136	-0.031
-292.662	-200.000	0.072	-0.351
-291.647	-76.561	-0.279	-0.096
-290.632	-21.279	-0.191	0.114
-289.618	136.708	-0.124	0.159
-288.603	-24.536	0.449	0.262
-287.589	-60.600	-0.277	0.115
-286.574	110.269	0.076	0.090
-285.559	800.000	0.089	0.272
-284.545	-200.000	0.094	-0.422
-283.530	800.000	-0.066	-0.207
-282.516	-152.461	0.165	0.012
-281.501	277.168	0.096	-0.167
-280.486	-200.000	-0.037	0.233
-279.472	-115.148	-0.164	-0.031
-278.457	-31.743	-0.228	-0.125
-277.443	287.600	-0.225	-0.399
-276.428	-20.348	0.203	-0.123
-275.413	77.966	0.227	0.238
-274.399	-136.914	0.123	-0.014
-273.384	-63.592	0.306	-0.123
-272.370	-7.274	-0.153	0.102
-271.355	-200.000	-0.001	0.350
-270.340	79.922	0.152	-0.160
-269.326	-24.650	-0.216	-0.126
-268.311	-83.394	-0.292	-0.092
-267.297	59.408	0.284	0.274
-266.282	-37.928	-0.252	0.131
-265.267	-200.000	-0.039	0.361
-264.253	56.989	-0.095	0.091
-263.238	139.080	-0.163	-0.210
-262.224	-11.668	0.096	0.062
-261.209	-200.000	0.006	-0.074
-260.195	-200.000	0.030	-0.174
-259.180	-58.923	-0.220	0.093
-258.165	800.000	0.096	-0.405
-257.151	40.100	-0.120	-0.106
-256.136	-117.864	0.355	0.062
-255.122	-17.448	-0.103	0.063
-254.107	-200.000	-0.042	-0.229
-253.092	-83.203	-0.170	0.054
-252.078	-64.709	0.383	-0.152
-251.063	176.960	0.211	-0.301
-250.049	-31.085	-0.106	0.058
-249.034	-48.219	-0.215	-0.102
-248.019	800.000	-0.100	0.275
-247.005	96.794	0.134	-0.151
-245.990	-48.242	-0.159	0.075
-244.976	800.000	0.054	0.164
-243.961	800.000	0.097	-0.366
-242.946	33.447	-0.125	0.106
-241.932	800.000	0.039	0.121
-240.917	-77.920	-0.227	0.077
-239.903	70.281	-0.262	-0.265
-238.888	375.661	-0.050	-0.099
-237.873	-200.000	0.012	0.115
-236.859	433.700	0.070	-0.149
-235.844	8.476	-0.180	0.133
-234.830	0.145	0.167	-0.116
-233.815	-94.361	-0.399	0.107
-232.800	95.388	0.256	0.285
-231.786	111.709	-0.302	0.357
-230.771	-14.987	0.186	0.117
-229.757	-107.950	0.117	0.025
-228.742	90.436	0.027	0.030
-227.727	256.985	-0.225	-0.378
-226.713	-104.830	0.194	0.044
-225.698	-105.593	0.239	0.053
-224.684	-67.334	0.272	-0.105
-223.669	202.852	0.128	0.194
-222.655	129.228	0.154	0.192
-221.640	30.090	-0.169	-0.141
-220.625	23.951	0.248	-0.200
-219.611	-200.000	-0.018	0.139
-218.596	-200.000	-0.005	0.106
-217.582	-38.250	-0.242	0.125
-216.567	-200.000	0.121	0.580
-215.552	321.111	0.157	-0.292
-214.538	-85.052	-0.347	0.106
-213.523	199.581	-0.044	-0.066
-212.509	-163.542	-0.166	0.008
-211.494	217.532	-0.094	0.146
-210.479	695.803	0.054	-0.138
-209.465	-200.000	-0.008	-0.046
-208.450	-56.833	0.286	0.124
-207.436	-200.000	-0.005	-0.296
-206.421	-1.057	-0.172	0.119
-205.406	110.593	0.183	0.215
-204.392	560.508	-0.063	-0.149
-203.377	800.000	-0.143	-0.415
-202.363	-45.192	0.231	-0.112
-201.348	7.091	0.240	-0.175
-200.333	66.842	0.104	-0.103
-199.319	-137.536	-0.299	0.033
-198.304	41.930	0.250	-0.222
-197.290	39.669	0.229	-0.200
-196.275	116.788	0.223	-0.268
-195.260	111.014	0.203	0.239
-194.246	739.191	-0.125	0.329
-193.231	36.292	0.181	0.156
-192.217	467.417	-0.065	0.143
-191.202	-200.000	0.007	0.125
-190.187	-132.664	-0.254	-0.032
-189.173	-200.000	-0.009	-0.119
-188.158	459.227	0.074	0.161
-187.144	-200.000	0.009	-0.153
-186.129	-144.053	0.503	0.046
-185.114	1.265	0.174	0.122
-184.100	84.000	-0.323	0.344
-183.085	-140.957	-0.265	0.027
-182.071	-33.776	-0.211	-0.114
-181.056	800.000	0.022	-0.077
-180.042	800.000	-0.114	0.332
-179.027	-133.938	-0.438	-0.053
-178.012	-111.066	-0.184	0.037
-176.998	117.089	0.202	-0.242
-175.983	800.000	0.094	0.330
-174.969	-30.229	0.210	0.116
-173.954	400.357	-0.079	0.163
-172.939	-6.220	0.146	0.097
-171.925	-154.610	-0.394	0.026
-170.910	800.000	0.045	-0.183
-169.896	-15.684	0.091	-0.056
-168.881	501.745	0.021	0.047
-167.866	36.174	0.186	0.160
-166.852	-80.835	-0.239	-0.077
-165.837	18.679	-0.168	-0.132
-164.823	-200.000	0.011	-0.186
-163.808	375.375	-0.076	-0.152
-162.793	277.465	0.062	-0.108
-161.779	-6.662	0.237	0.157
-160.764	165.426	0.169	-0.233
-159.750	-121.366	-0.212	-0.034
-158.735	-113.894	0.230	-0.044
-157.720	-25.709	-0.098	0.057
-156.706	497.245	0.114	0.257
-155.691	-200.000	0.061	0.410
-154.677	413.329	-0.098	-0.204
-153.662	106.770	0.099	-0.115
-152.647	205.466	-0.219	0.333
-151.633	-68.902	0.412	0.155
-150.618	581.628	-0.060	0.144
-149.604	-145.425	0.157	0.014
-148.589	-19.703	-0.394	0.238
-147.574	-200.000	0.018	0.089
-146.560	-108.425	-0.086	0.018
-145.545	-200.000	0.028	0.307
-144.531	-200.000	-0.016	-0.077
-143.516	800.000	-0.019	-0.073
-142.502	800.000	0.027	-0.085
-141.487	35.730	0.298	0.256
-140.472	-30.479	-0.053	-0.029
-139.458	-78.272	-0.081	-0.027
-138.443	-200.000	0.001	-0.074
-137.429	800.000	0.068	-0.191
-136.414	-94.276	-0.053	-0.014
-135.399	-165.639	0.358	0.015
-134.385	345.638	-0.051	0.098
-133.370	-200.000	0.042	0.297
-132.356	141.241	-0.077	0.099
-131.341	-86.992	0.091	0.027
-130.326	60.139	0.062	0.060
-129.312	18.880	-0.254	0.199
-128.297	-12.143	-0.244	-0.156
-127.283	162.954	-0.197	0.269
-126.268	800.000	0.033	0.089
-125.253	52.529	0.187	0.174
-124.239	-200.000	0.005	0.036
-123.224	-200.000	-0.002	-0.104
-122.210	-149.647	0.192	0.015
-121.195	-164.314	-0.033	-0.001
