DTS Sentinel unit serial number:	SN413079Multiplexer serial number:	ORYXHardware model number:	OX4-SRSoftware version number:	ORYX F/W v4.00 Oryx Data Collector v3.7.2.0data status	okinstallation	princeton_trtdifferential loss correction	single-endedforward channel	channel 2reverse channel	N/Adate	2019/09/12time	19:56:49forward acquisition time	15.00reverse acquisition time	0.00gamma	496.2192k internal	0.2328k external	0.2328temperature offset calibration	1.0157default loss term (dB/km)	0.3790temperature slope calibration	1.0000multiplexer offset coefficient	1.0000multiplexer slope coefficient	1.0000fibre end	0.00T internal ref (°C)	31.81T ext. ref 1 (°C)	3.42T ext. ref 2 (°C)	26.33length (m)	temperature (°C)	Stokes	anti-Stokes-747.200	178.164	-0.223	-0.328
-746.185	-200.000	-0.074	1.018
-745.171	-136.970	-0.202	0.023
-744.156	800.000	0.238	-0.763
-743.142	-2.041	-0.319	-0.226
-742.127	477.671	0.163	-0.372
-741.112	-65.531	-0.231	0.093
-740.098	800.000	0.049	0.173
-739.083	50.316	-0.114	-0.108
-738.069	-105.252	-0.612	-0.141
-737.054	2.429	0.641	-0.467
-736.039	-77.152	-0.693	-0.243
-735.025	243.973	0.170	0.288
-734.010	-200.000	0.045	0.849
-732.996	-113.049	-1.058	-0.210
-731.981	-71.734	-0.799	0.300
-730.966	226.717	-0.351	-0.574
-729.952	-200.000	0.080	-0.549
-728.937	12.638	0.161	0.125
-727.923	18.451	-0.792	0.638
-726.908	539.756	-0.163	0.390
-725.894	320.544	0.360	-0.688
-724.879	175.427	-0.146	0.213
-723.864	-200.000	0.084	-0.709
-722.850	-131.992	-0.155	0.020
-721.835	-200.000	-0.061	-0.532
-720.821	800.000	-0.286	1.054
-719.806	16.546	-0.151	0.121
-718.791	-126.187	0.138	0.021
-717.777	-159.941	-0.962	0.053
-716.762	-123.466	-0.203	-0.033
-715.748	-200.000	0.072	0.417
-714.733	-156.088	0.338	0.022
-713.718	5.081	0.382	-0.283
-712.704	800.000	-0.252	0.893
-711.689	-74.169	0.494	0.180
-710.675	-70.133	-0.280	0.107
-709.660	-142.834	1.117	0.109
-708.645	-20.526	-0.336	0.208
-707.631	411.696	0.423	-0.905
-706.616	-70.206	0.339	0.130
-705.602	223.776	0.189	-0.306
-704.587	-189.840	0.352	0.004
-703.572	390.253	-0.260	-0.542
-702.558	26.523	0.468	0.394
-701.543	-200.000	-0.017	0.162
-700.529	-149.323	-0.200	0.016
-699.514	-166.231	-0.142	-0.006
-698.499	209.581	0.474	-0.748
-697.485	-165.944	0.402	-0.017
-696.470	-149.080	-0.819	-0.066
-695.456	-51.635	-0.850	0.399
-694.441	98.551	-0.207	0.240
-693.426	-108.211	0.577	0.126
-692.412	-200.000	0.027	0.664
-691.397	-19.136	-0.344	0.215
-690.383	-33.366	-1.198	-0.666
-689.368	-21.112	0.233	-0.143
-688.354	-183.394	0.917	0.016
-687.339	69.057	-0.183	0.190
-686.324	501.277	0.207	0.480
-685.310	462.533	0.322	0.722
-684.295	-200.000	0.029	0.631
-683.281	168.830	-0.277	-0.397
-682.266	-51.775	0.301	-0.141
-681.251	-200.000	-0.056	0.711
-680.237	71.202	-0.139	0.145
-679.222	-108.648	0.168	-0.036
-678.208	45.188	0.421	-0.390
-677.193	80.159	-0.584	-0.631
-676.178	800.000	0.113	0.433
-675.164	-49.122	1.170	-0.563
-674.149	-200.000	0.014	0.191
-673.135	57.289	-0.630	0.618
-672.120	108.390	0.065	0.078
-671.105	800.000	0.165	-0.505
-670.091	3.972	-0.580	0.426
-669.076	-200.000	-0.167	0.942
-668.062	78.050	0.355	0.381
-667.047	-200.000	0.055	0.593
-666.032	282.104	0.121	0.217
-665.018	197.187	-0.327	0.502
-664.003	74.199	0.673	0.710
-662.989	800.000	0.066	0.224
-661.974	-114.218	0.259	-0.050
-660.959	82.984	-0.639	-0.699
-659.945	800.000	-0.070	0.212
-658.930	-200.000	0.005	0.827
-657.916	277.218	0.302	0.539
-656.901	166.532	-0.502	-0.715
-655.886	86.949	-0.154	-0.171
-654.872	-132.649	0.307	-0.039
-653.857	-149.684	-0.357	0.028
-652.843	-141.365	0.040	-0.004
-651.828	-19.541	0.187	-0.116
-650.814	746.740	0.268	0.724
-649.799	-200.000	-0.074	0.361
-648.784	89.632	-0.319	0.357
-647.770	482.027	-0.235	0.537
-646.755	800.000	0.116	-0.404
-645.741	-194.586	1.065	-0.008
-644.726	150.830	0.360	-0.491
-643.711	-200.000	-0.022	-0.482
-642.697	616.688	0.122	-0.307
-641.682	-71.930	-0.985	-0.368
-640.668	56.290	0.251	0.245
-639.653	315.064	0.438	0.829
-638.638	359.720	-0.239	0.479
-637.624	-76.439	0.745	0.263
-636.609	-200.000	0.020	-0.440
-635.595	800.000	0.144	0.531
-634.580	87.291	0.221	-0.245
-633.565	800.000	-0.247	0.778
-632.551	19.633	0.796	0.643
-631.536	-24.403	0.214	-0.128
-630.522	-46.466	-0.646	-0.318
-629.507	-37.247	0.377	0.202
-628.492	-68.374	0.569	-0.222
-627.478	-87.254	-0.178	-0.054
-626.463	188.973	-0.433	-0.650
-625.449	-200.000	0.034	-0.357
-624.434	240.043	-0.250	0.418
-623.419	183.244	-0.342	-0.506
-622.405	-185.812	0.384	0.006
-621.390	-48.230	0.726	0.351
-620.376	587.797	0.196	0.484
-619.361	764.681	0.121	-0.330
-618.346	-200.000	0.102	-0.599
-617.332	-39.166	0.226	-0.119
-616.317	137.310	-0.274	0.360
-615.303	-88.151	0.429	0.129
-614.288	-6.321	-0.337	0.231
-613.273	-103.843	0.725	0.170
-612.259	800.000	-0.132	-0.386
-611.244	-200.000	0.054	-0.700
-610.230	800.000	0.018	0.079
-609.215	800.000	0.261	1.051
-608.201	-79.434	1.535	-0.520
-607.186	800.000	0.188	-0.723
-606.171	-94.539	0.533	-0.146
-605.157	423.720	-0.070	-0.151
-604.142	-184.949	-0.188	0.003
-603.128	218.358	0.091	-0.146
-602.113	800.000	-0.260	-0.936
-601.098	-130.137	0.784	-0.107
-600.084	412.882	-0.354	0.755
-599.069	136.615	0.383	0.501
-598.055	800.000	-0.138	0.466
-597.040	-50.112	-0.407	0.193
-596.025	-8.207	0.430	0.290
-595.011	-15.799	-0.762	-0.486
-593.996	518.682	0.267	0.625
-592.982	621.872	0.158	-0.398
-591.967	63.070	0.365	0.366
-590.952	-100.974	-0.156	-0.038
-589.938	-109.647	-0.622	-0.131
-588.923	345.316	0.448	-0.882
-587.909	664.938	0.002	0.005
-586.894	800.000	0.162	-0.466
-585.879	-73.787	0.661	0.241
-584.865	800.000	0.062	0.207
-583.850	800.000	-0.195	0.687
-582.836	-104.199	-0.567	0.132
-581.821	13.470	0.580	0.451
-580.806	247.611	0.188	0.317
-579.792	-200.000	0.057	0.285
-578.777	-200.000	-0.053	-0.329
-577.763	275.234	0.216	-0.384
-576.748	-200.000	0.080	0.539
-575.733	-200.000	-0.069	0.557
-574.719	-200.000	0.194	-0.908
-573.704	-149.361	0.574	0.046
-572.690	250.931	0.312	-0.531
-571.675	-200.000	-0.071	-1.049
-570.661	-74.478	-0.966	-0.349
-569.646	-117.163	-0.604	-0.110
-568.631	-118.697	0.545	-0.096
-567.617	-200.000	-0.102	-0.564
-566.602	800.000	-0.247	-0.974
-565.588	-142.289	-0.511	0.051
-564.573	5.253	-0.501	-0.370
-563.558	-170.597	0.686	0.024
-562.544	-141.676	-0.325	-0.033
-561.529	800.000	-0.082	-0.350
-560.515	-70.460	-0.215	-0.081
-559.500	171.935	0.227	0.326
-558.485	-200.000	0.139	-0.960
-557.471	16.615	0.338	0.267
-556.456	-185.255	-0.763	0.012
-555.442	-16.730	0.251	0.159
-554.427	38.219	-0.541	-0.482
-553.412	-11.964	-0.355	0.233
-552.398	193.105	-0.446	0.674
-551.383	49.831	0.635	0.599
-550.369	-117.542	0.271	-0.049
-549.354	-58.950	-0.438	0.189
-548.339	-200.000	-0.026	-0.464
-547.325	-125.084	-0.131	-0.020
-546.310	-4.701	-0.394	-0.272
-545.296	-200.000	0.080	-0.393
-544.281	139.865	0.405	0.534
-543.266	-200.000	-0.038	0.301
-542.252	-147.492	-0.304	0.026
-541.237	-200.000	-0.074	-0.621
-540.223	-36.901	-0.418	0.224
-539.208	-102.228	1.086	-0.261
-538.193	-200.000	0.062	-0.704
-537.179	-180.263	-0.859	0.018
-536.164	186.076	-0.533	0.793
-535.150	-76.930	-0.657	0.230
-534.135	-61.429	-0.351	-0.148
-533.121	384.778	0.116	0.239
-532.106	10.225	-1.095	-0.833
-531.091	-57.481	0.080	-0.035
-530.077	-112.787	0.476	-0.094
-529.062	304.531	-0.186	-0.346
-528.048	-128.292	0.310	0.044
-527.033	-200.000	-0.020	0.293
-526.018	267.230	-0.227	0.396
-525.004	-200.000	-0.035	-0.222
-523.989	-200.000	-0.057	0.623
-522.975	-6.866	-0.363	-0.247
-521.960	-100.533	-0.092	0.023
-520.945	90.738	-0.181	0.203
-519.931	-15.329	0.516	-0.329
-518.916	360.782	0.401	0.802
-517.902	-110.303	0.398	-0.083
-516.887	800.000	-0.223	-0.618
-515.872	-51.002	-0.456	0.214
-514.858	31.595	0.197	-0.169
-513.843	99.397	-0.534	0.616
-512.829	-200.000	0.004	0.519
-511.814	10.429	-0.534	0.406
-510.799	-15.391	0.128	0.082
-509.785	800.000	-0.351	1.123
-508.770	-200.000	0.119	0.806
-507.756	-1.510	-0.297	-0.209
-506.741	63.588	-0.151	0.151
-505.726	800.000	-0.257	0.887
-504.712	-200.000	0.017	-0.617
-503.697	-116.607	-0.142	0.026
-502.683	-25.346	0.224	-0.132
-501.668	-6.951	-0.546	-0.370
-500.653	265.797	0.241	0.419
-499.639	-9.878	-0.556	0.369
-498.624	-150.174	0.361	-0.028
-497.610	-83.130	0.751	-0.241
-496.595	-72.915	0.496	0.182
-495.581	800.000	0.051	-0.219
-494.566	-200.000	0.052	-0.541
-493.551	31.415	-0.299	0.257
-492.537	30.738	0.799	0.682
-491.522	-153.742	0.081	-0.006
-490.508	-200.000	-0.135	-0.952
-489.493	-60.457	0.223	-0.095
-488.478	-79.259	-0.338	0.114
-487.464	10.577	-0.372	0.283
-486.449	800.000	-0.072	0.296
-485.435	556.547	-0.205	0.493
-484.420	274.827	0.341	0.602
-483.405	-24.964	0.437	0.259
-482.391	-24.920	-0.377	0.223
-481.376	58.964	0.271	0.265
-480.362	-200.000	-0.026	0.491
-479.347	57.927	0.340	0.332
-478.332	-26.825	-0.349	0.204
-477.318	-175.350	1.088	-0.030
-476.303	-157.857	0.310	-0.018
-475.289	-64.363	0.470	-0.191
-474.274	-126.115	-0.222	0.033
-473.259	-75.749	0.443	0.157
-472.245	-121.446	-1.219	0.202
-471.230	-87.787	0.538	0.162
-470.216	417.107	0.301	-0.641
-469.201	-135.159	0.260	-0.031
-468.186	207.551	0.297	-0.463
-467.172	-90.085	-0.409	0.119
-466.157	800.000	0.208	0.832
-465.143	4.399	0.359	-0.262
-464.128	-143.860	0.340	-0.032
-463.113	800.000	-0.029	-0.089
-462.099	-200.000	-0.048	-0.752
-461.084	257.081	-0.196	-0.335
-460.070	800.000	-0.285	-1.003
-459.055	-22.121	-0.161	0.097
-458.040	-0.387	-0.437	-0.309
-457.026	-5.818	0.887	0.605
-456.011	-13.122	-0.012	-0.008
-454.997	-200.000	0.016	-0.294
-453.982	67.948	0.290	0.295
-452.968	-10.886	0.432	0.284
-451.953	479.479	-0.055	-0.124
-450.938	-2.614	0.256	0.179
-449.924	-200.000	0.028	0.893
-448.909	457.322	0.226	-0.501
-447.895	31.386	0.447	0.383
-446.880	-132.209	0.904	0.117
-445.865	373.709	-0.248	0.503
-444.851	-154.267	0.272	-0.018
-443.836	44.443	0.451	0.413
-442.822	-26.055	-0.666	0.390
-441.807	465.658	0.151	-0.336
-440.792	-200.000	-0.034	-0.368
-439.778	245.969	-0.415	0.696
-438.763	-152.643	0.442	-0.031
-437.749	62.252	0.631	-0.627
-436.734	800.000	0.370	-1.309
-435.719	-116.405	0.719	-0.132
-434.705	-200.000	0.021	-0.303
-433.690	-38.804	0.501	0.263
-432.676	-50.245	-0.051	0.024
-431.661	122.255	-0.341	0.424
-430.646	-200.000	0.150	-0.813
-429.632	334.511	0.323	-0.623
-428.617	-200.000	-0.242	-1.137
-427.603	-57.777	-0.288	0.125
-426.588	-10.512	-0.443	0.292
-425.573	-200.000	0.013	0.489
-424.559	468.865	-0.386	-0.863
-423.544	69.128	-0.140	0.143
-422.530	-164.336	0.107	-0.005
-421.515	-97.590	0.292	0.075
-420.500	-29.098	-0.165	0.094
-419.486	-200.000	-0.048	0.886
-418.471	33.712	0.099	-0.085
-417.457	-127.303	0.605	-0.088
-416.442	-172.479	0.845	0.027
-415.428	92.214	0.383	0.430
-414.413	800.000	0.099	-0.278
-413.398	67.532	0.160	-0.163
-412.384	-30.326	-0.499	-0.282
-411.369	-80.067	0.330	-0.110
-410.355	179.412	0.166	0.242
-409.340	800.000	0.152	0.428
-408.325	-126.466	-0.221	-0.033
-407.311	800.000	-0.253	0.825
-406.296	-200.000	-0.095	0.819
-405.282	-105.960	-0.234	-0.052
-404.267	-200.000	-0.133	-0.689
-403.252	-6.974	0.287	-0.194
-402.238	208.910	-0.191	-0.298
-401.223	-39.236	-0.483	-0.252
-400.209	-142.352	-0.024	-0.002
-399.194	-88.418	0.571	0.170
-398.179	146.266	0.111	0.148
-397.165	-141.518	-0.228	0.023
-396.150	-25.472	-0.280	-0.164
-395.136	-159.334	0.922	0.051
-394.121	-61.805	-0.411	-0.171
-393.106	11.120	0.584	0.444
-392.092	-88.384	0.243	-0.072
-391.077	800.000	-0.279	-0.845
-390.063	41.551	0.303	-0.273
-389.048	-35.459	-0.233	-0.126
-388.033	800.000	0.211	-0.725
-387.019	346.713	-0.388	0.758
-386.004	-200.000	-0.043	-0.210
-384.990	70.425	-0.375	-0.386
-383.975	125.532	0.454	-0.569
-382.960	-60.955	0.398	-0.167
-381.946	-200.000	-0.013	0.667
-380.931	-114.261	0.705	-0.135
-379.917	160.140	0.122	-0.169
-378.902	-162.333	0.362	0.018
-377.888	27.683	-0.785	0.656
-376.873	-129.802	0.196	-0.027
-375.858	204.600	0.113	-0.175
-374.844	-85.170	0.491	0.153
-373.829	-168.047	0.661	-0.026
-372.815	-200.000	0.066	-0.306
-371.800	-23.456	-0.630	0.376
-370.785	86.561	-0.606	0.664
-369.771	-102.863	0.319	0.075
-368.756	212.508	-0.314	0.492
-367.742	65.868	0.259	0.261
-366.727	1.013	0.318	0.226
-365.712	44.424	0.212	0.193
-364.698	-78.379	0.738	-0.251
-363.683	-11.810	-0.390	0.254
-362.669	-92.227	0.462	0.129
-361.654	172.655	0.506	0.723
-360.639	-200.000	-0.071	-0.441
-359.625	210.156	0.177	0.276
-358.610	-200.000	0.029	-0.866
-357.596	4.417	-0.287	-0.209
-356.581	-200.000	-0.078	0.359
-355.566	362.099	0.240	-0.477
-354.552	-113.525	0.695	-0.135
-353.537	86.198	-0.440	-0.481
-352.523	-18.264	-0.676	0.420
-351.508	246.244	-0.137	-0.229
-350.493	-200.000	-0.033	0.777
-349.479	-5.030	0.520	-0.355
-348.464	-104.570	0.757	-0.173
-347.450	800.000	0.116	-0.333
-346.435	505.193	-0.206	0.473
-345.420	42.253	-0.523	-0.471
-344.406	-53.419	-0.609	0.277
-343.391	-122.954	-0.549	-0.088
-342.377	-200.000	0.049	-0.408
-341.362	154.370	-0.283	-0.385
-340.348	183.634	-0.379	-0.556
-339.333	-200.000	-0.121	-0.920
-338.318	256.578	-0.409	-0.697
-337.304	-200.000	-0.030	0.152
-336.289	-200.000	0.060	-1.201
-335.275	306.503	-0.314	0.579
-334.260	22.159	-0.629	-0.510
-333.245	-200.000	0.070	0.445
-332.231	24.290	0.041	0.033
-331.216	43.761	-0.603	0.547
-330.202	14.716	0.415	0.322
-329.187	-41.435	0.395	0.202
-328.172	-36.999	-0.735	0.391
-327.158	-49.783	0.467	-0.220
-326.143	75.826	-0.865	0.907
-325.129	222.389	0.378	0.604
-324.114	-53.491	-0.525	0.238
-323.099	-99.585	0.518	-0.129
-322.085	48.667	0.420	0.390
-321.070	800.000	0.031	0.094
-320.056	-46.431	-1.422	-0.692
-319.041	39.734	-0.351	-0.312
-318.026	-200.000	-0.007	0.477
-317.012	-142.578	0.574	-0.056
-315.997	240.584	0.652	-1.078
-314.983	-163.015	-1.133	-0.054
-313.968	-176.747	-1.278	0.032
-312.953	-37.714	-0.248	-0.131
-311.939	-102.388	0.280	0.067
-310.924	-81.112	-0.493	-0.162
-309.910	-9.544	-0.346	0.229
-308.895	-200.000	0.045	-0.410
-307.880	396.995	-0.234	0.485
-306.866	-18.756	0.386	0.238
-305.851	318.586	0.443	-0.832
-304.837	800.000	-0.067	-0.273
-303.822	-136.181	-0.599	0.069
-302.807	481.390	0.187	-0.421
-301.793	-44.151	-0.897	-0.446
-300.778	-58.880	-0.369	-0.158
-299.764	57.907	-0.576	-0.559
-298.749	22.338	-0.133	0.107
-297.735	81.933	-0.205	0.220
-296.720	-63.931	-0.408	-0.165
-295.705	-40.740	-0.475	-0.244
-294.691	46.427	-0.479	0.440
-293.676	-200.000	0.094	0.559
-292.662	-200.000	0.124	0.616
-291.647	-64.274	-0.427	-0.172
-290.632	-86.184	-0.753	0.230
-289.618	-29.573	0.501	-0.283
-288.603	410.214	0.177	0.372
-287.589	-86.704	0.700	0.212
-286.574	16.985	-0.441	-0.346
-285.559	65.237	-0.495	-0.495
-284.545	-200.000	0.009	0.712
-283.530	-110.387	0.322	0.066
-282.516	56.237	0.194	0.186
-281.501	-94.705	-0.460	0.124
-280.486	-123.673	0.559	-0.088
-279.472	-24.243	-0.374	0.221
-278.457	86.863	0.233	0.255
-277.443	-131.835	-0.876	0.113
-276.428	-42.011	-0.294	0.149
-275.413	-43.949	0.537	-0.267
-274.399	-21.421	0.227	-0.137
-273.384	7.061	0.331	0.244
-272.370	-173.240	0.229	-0.007
-271.355	465.377	-0.205	-0.453
-270.340	-200.000	0.129	-0.602
-269.326	62.786	-0.590	-0.584
-268.311	41.195	-0.758	0.678
-267.297	800.000	0.256	0.837
-266.282	800.000	0.145	0.496
-265.267	-200.000	-0.071	0.314
-264.253	48.713	0.314	-0.291
-263.238	106.116	0.639	0.748
-262.224	623.932	0.150	0.374
-261.209	-84.482	-0.324	-0.101
-260.195	-59.748	-0.535	0.227
-259.180	34.489	0.291	0.252
-258.165	-24.853	-0.279	0.164
-257.151	21.321	0.077	-0.062
-256.136	199.638	0.747	1.133
-255.122	153.603	0.256	0.347
-254.107	7.295	-0.224	-0.165
-253.092	19.288	-0.650	-0.516
-252.078	-167.402	-0.550	-0.022
-251.063	76.829	0.256	0.269
-250.049	231.857	0.157	0.255
-249.034	-26.587	-0.296	-0.171
-248.019	-200.000	0.000	0.447
-247.005	-75.816	-0.885	0.310
-245.990	-200.000	-0.001	0.381
-244.976	-200.000	-0.033	0.257
-243.961	-17.034	0.447	0.279
-242.946	-200.000	0.021	0.194
-241.932	-117.939	-0.235	0.042
-240.917	-34.813	-0.648	-0.350
-239.903	-159.352	0.566	-0.031
-238.888	209.669	0.164	0.254
-237.873	-25.502	0.194	0.113
-236.859	-200.000	-0.139	-0.946
-235.844	47.758	0.449	0.414
-234.830	54.602	-0.957	-0.911
-233.815	7.368	-0.053	0.039
-232.800	800.000	-0.170	0.490
-231.786	-98.962	0.400	-0.100
-230.771	-59.371	-0.388	0.165
-229.757	-98.336	-0.793	-0.201
-228.742	44.007	-0.500	0.452
-227.727	-200.000	-0.074	-0.346
-226.713	-200.000	0.020	-0.328
-225.698	-35.857	0.493	0.263
-224.684	-120.851	-0.399	0.066
-223.669	-200.000	0.055	-0.263
-222.655	93.885	-0.298	0.333
-221.640	11.719	-0.359	0.272
-220.625	-200.000	-0.113	-0.611
-219.611	-138.974	-0.690	-0.074
-218.596	-35.904	0.329	-0.176
-217.582	-200.000	0.075	-0.669
-216.567	72.567	0.442	-0.455
-215.552	-200.000	-0.163	0.716
-214.538	18.149	-0.457	-0.360
-213.523	-63.048	0.412	-0.168
-212.509	79.670	0.338	0.358
-211.494	-85.390	0.238	0.073
-210.479	5.214	-0.108	0.079
-209.465	-140.180	-0.562	-0.058
-208.450	136.242	0.475	0.611
-207.436	32.208	-0.747	0.636
-206.421	-66.150	0.802	0.316
-205.406	-21.284	-0.389	0.235
-204.392	94.872	0.302	0.340
-203.377	-23.498	-0.160	-0.095
-202.363	-118.453	-0.862	0.151
-201.348	-110.097	0.404	0.083
-200.333	176.489	0.113	-0.162
-199.319	-120.298	0.475	-0.080
-198.304	-200.000	-0.481	-0.002
-197.290	-126.936	0.157	-0.023
-196.275	-38.110	0.493	-0.258
-195.260	-200.000	0.050	-0.713
-194.246	800.000	0.036	-0.102
-193.231	132.482	0.216	-0.275
-192.217	-110.078	-0.278	-0.057
-191.202	90.255	0.669	0.738
-190.187	-39.703	-0.356	0.184
-189.173	-200.000	0.108	0.539
-188.158	346.104	-0.635	-1.231
-187.144	-200.000	0.257	-0.001
-186.129	60.859	0.148	-0.144
-185.114	368.954	-0.424	0.845
-184.100	-122.224	-0.545	-0.088
-183.085	18.526	-0.258	0.203
-182.071	-200.000	-0.037	-0.255
-181.056	-21.241	0.246	0.148
-180.042	234.651	-0.147	0.240
-179.027	-7.254	-0.878	0.587
-178.012	800.000	0.361	-1.166
-176.998	87.658	-0.131	-0.143
-175.983	800.000	0.293	-0.916
-174.969	-200.000	0.039	-0.298
-173.954	249.836	0.377	-0.631
-172.939	-33.350	-0.856	-0.467
-171.925	-41.391	0.393	0.199
-170.910	-106.410	-0.931	-0.205
-169.896	483.273	0.096	-0.214
-168.881	45.966	0.921	-0.839
-167.866	-116.616	-0.519	-0.094
-166.852	175.633	-0.131	-0.188
-165.837	-49.538	-0.467	0.219
-164.823	27.631	0.697	0.578
-163.808	106.691	0.534	0.624
-162.793	3.325	-0.273	0.196
-161.779	-80.247	-0.124	-0.041
-160.764	-34.769	0.642	-0.345
-159.750	345.126	-0.162	-0.314
-158.735	-134.044	-0.952	0.116
-157.720	-200.000	0.206	1.014
-156.706	8.595	0.605	0.449
-155.691	-37.130	0.466	-0.246
-154.677	483.548	0.192	-0.431
-153.662	676.693	0.397	-1.016
-152.647	263.402	0.153	-0.262
-151.633	291.219	0.525	-0.939
-150.618	-147.106	0.172	-0.014
-149.604	800.000	0.059	-0.221
-148.589	-63.842	-0.790	-0.318
-147.574	7.103	0.401	0.294
-146.560	41.468	-0.701	-0.625
-145.545	800.000	0.099	0.308
-144.531	150.654	-0.299	0.400
-143.516	-103.626	0.808	0.187
-142.502	-97.016	-1.001	0.258
-141.487	-200.000	-0.037	0.366
-140.472	-64.357	0.854	0.342
-139.458	800.000	-0.199	0.833
-138.443	-200.000	-0.007	0.147
-137.429	-67.577	-0.329	-0.127
-136.414	113.959	0.489	-0.586
-135.399	-200.000	0.071	-0.832
-134.385	202.561	-0.258	-0.392
-133.370	-102.175	0.565	0.134
-132.356	169.385	0.395	0.555
-131.341	212.195	0.280	0.434
-130.326	800.000	0.137	0.492
-129.312	-200.000	-0.175	-1.017
-128.297	645.674	-0.199	0.499
-127.283	715.632	0.211	0.550
-126.268	-73.831	-0.801	-0.286
-125.253	800.000	-0.231	-0.673
-124.239	27.254	0.533	0.440
-123.224	800.000	0.255	0.985
-122.210	39.052	0.207	0.182
-121.195	-200.000	-0.068	0.422
-120.180	31.742	-0.212	-0.179
