DTS Sentinel unit serial number:	SN413079Multiplexer serial number:	ORYXHardware model number:	OX4-SRSoftware version number:	ORYX F/W v4.00 Oryx Data Collector v3.7.2.0data status	okinstallation	princeton_trtdifferential loss correction	single-endedforward channel	channel 2reverse channel	N/Adate	2019/09/15time	09:55:35forward acquisition time	60.00reverse acquisition time	0.00gamma	496.2192k internal	0.2316k external	0.2316temperature offset calibration	1.0017default loss term (dB/km)	0.3790temperature slope calibration	1.0000multiplexer offset coefficient	1.0000multiplexer slope coefficient	1.0000fibre end	0.00T internal ref (°C)	34.06T ext. ref 1 (°C)	4.99T ext. ref 2 (°C)	29.87length (m)	temperature (°C)	Stokes	anti-Stokes-747.200	800.000	-0.063	0.207
-746.185	-200.000	-0.005	0.359
-745.171	-200.000	0.047	-0.244
-744.156	24.869	-0.121	0.102
-743.142	-112.626	0.168	0.034
-742.127	-85.795	0.072	0.023
-741.112	110.990	-0.144	0.176
-740.098	-200.000	-0.003	0.071
-739.083	-21.766	-0.073	0.045
-738.069	101.362	-0.142	0.167
-737.054	-68.011	-0.139	0.055
-736.039	-167.810	0.191	0.008
-735.025	-200.000	0.009	0.164
-734.010	448.086	-0.084	0.186
-732.996	-200.000	-0.018	0.167
-731.981	-45.100	0.149	0.075
-730.966	64.410	0.283	-0.288
-729.952	-200.000	0.014	-0.074
-728.937	-200.000	0.039	-0.225
-727.923	800.000	-0.037	-0.142
-726.908	-200.000	-0.021	0.159
-725.894	57.605	-0.099	0.097
-724.879	-185.967	0.224	0.003
-723.864	-145.784	0.098	0.009
-722.850	-178.049	-0.293	0.007
-721.835	5.680	0.355	-0.265
-720.821	277.608	-0.102	-0.184
-719.806	74.715	-0.096	-0.102
-718.791	121.800	-0.075	0.095
-717.777	-0.316	0.354	0.255
-716.762	173.568	0.103	-0.150
-715.748	-200.000	0.001	0.010
-714.733	800.000	-0.059	0.217
-713.718	495.261	-0.091	-0.211
-712.704	338.793	-0.098	0.194
-711.689	492.800	-0.037	0.086
-710.675	386.927	0.070	0.146
-709.660	-117.919	-0.295	-0.053
-708.645	264.990	0.065	-0.114
-707.631	112.361	0.175	-0.214
-706.616	17.094	0.101	0.081
-705.602	95.552	-0.069	0.080
-704.587	-200.000	-0.009	0.085
-703.572	-39.391	-0.283	-0.150
-702.558	-200.000	-0.034	-0.178
-701.543	76.569	0.266	-0.285
-700.529	62.863	0.275	-0.279
-699.514	603.550	-0.051	-0.129
-698.499	-200.000	0.063	0.321
-697.485	800.000	0.085	-0.315
-696.470	28.386	-0.096	-0.082
-695.456	-200.000	-0.050	-0.475
-694.441	-200.000	0.009	-0.140
-693.426	-200.000	0.043	0.298
-692.412	-42.572	-0.455	0.235
-691.397	56.772	0.173	-0.170
-690.383	204.220	-0.106	-0.165
-689.368	-106.549	0.183	-0.041
-688.354	-1.918	-0.158	-0.112
-687.339	800.000	0.045	-0.199
-686.324	800.000	-0.089	0.248
-685.310	145.258	-0.091	-0.123
-684.295	-36.461	-0.149	-0.081
-683.281	54.296	-0.016	0.016
-682.266	25.863	-0.153	0.129
-681.251	-200.000	-0.023	0.150
-680.237	800.000	0.059	-0.202
-679.222	-58.947	-0.209	-0.091
-678.208	-138.969	0.240	0.026
-677.193	142.031	-0.096	-0.129
-676.178	-1.623	-0.130	-0.093
-675.164	-87.191	-0.199	-0.061
-674.149	171.457	-0.198	-0.287
-673.135	800.000	0.063	-0.181
-672.120	580.114	-0.194	-0.480
-671.105	-200.000	0.020	-0.121
-670.091	122.307	-0.298	-0.377
-669.076	66.000	-0.307	-0.314
-668.062	-183.184	-0.388	0.007
-667.047	-85.954	0.126	0.039
-666.032	409.670	-0.028	0.060
-665.018	-83.809	-0.372	-0.120
-664.003	417.074	0.052	-0.111
-662.989	203.757	0.239	-0.374
-661.974	800.000	-0.013	-0.038
-660.959	5.284	-0.187	0.139
-659.945	-200.000	0.120	-0.000
-658.930	800.000	0.055	-0.193
-657.916	-82.902	0.142	0.046
-656.901	-100.868	-0.438	-0.109
-655.886	-10.481	-0.213	0.142
-654.872	36.327	-0.131	-0.116
-653.857	-149.396	-0.367	-0.029
-652.843	260.756	-0.140	0.244
-651.828	-97.345	0.393	-0.103
-650.814	147.063	0.115	-0.156
-649.799	73.719	-0.024	-0.026
-648.784	323.802	-0.217	-0.419
-647.770	3.401	0.144	-0.106
-646.755	93.590	-0.198	0.227
-645.741	-130.781	-0.253	0.034
-644.726	-64.233	0.434	-0.178
-643.711	-0.740	0.264	-0.189
-642.697	-200.000	0.045	0.299
-641.682	16.031	-0.160	0.127
-640.668	-23.802	0.194	0.117
-639.653	16.453	-0.269	0.214
-638.638	18.889	-0.248	0.201
-637.624	-139.103	0.089	0.010
-636.609	22.383	-0.294	0.243
-635.595	40.546	-0.199	0.181
-634.580	589.420	-0.189	0.470
-633.565	-83.188	0.048	-0.015
-632.551	343.128	-0.075	-0.148
-631.536	151.791	0.230	-0.316
-630.522	266.814	0.067	-0.119
-629.507	677.496	0.180	-0.472
-628.492	-154.745	0.114	-0.008
-627.478	800.000	0.035	-0.142
-626.463	387.454	-0.176	-0.367
-625.449	-200.000	0.023	0.109
-624.434	2.294	0.175	-0.127
-623.419	66.469	0.151	-0.155
-622.405	-121.291	0.122	0.021
-621.390	-155.805	-0.149	0.010
-620.376	118.643	-0.161	-0.201
-619.361	-53.211	-0.285	-0.132
-618.346	-116.513	-0.247	0.046
-617.332	-200.000	0.008	-0.224
-616.317	102.159	-0.049	-0.058
-615.303	-50.181	0.242	0.116
-614.288	-96.132	0.247	0.066
-613.273	-200.000	0.034	0.204
-612.259	258.906	0.060	0.104
-611.244	86.592	0.133	0.148
-610.230	-171.132	0.080	0.003
-609.215	133.684	0.055	-0.072
-608.201	-200.000	-0.027	-0.499
-607.186	122.861	0.087	0.109
-606.171	-200.000	0.012	0.081
-605.157	54.020	-0.135	0.131
-604.142	142.553	-0.312	0.418
-603.128	-200.000	-0.041	0.197
-602.113	-84.825	0.119	0.038
-601.098	25.708	-0.102	-0.085
-600.084	-200.000	-0.010	-0.261
-599.069	800.000	-0.007	0.027
-598.055	-200.000	0.091	0.552
-597.040	-135.076	-0.230	0.028
-596.025	-200.000	0.000	-0.115
-595.011	-86.134	0.183	-0.057
-593.996	-43.076	0.212	0.108
-592.982	-87.361	-0.276	0.084
-591.967	188.940	-0.187	0.281
-590.952	-200.000	0.104	-0.524
-589.938	344.628	0.086	-0.170
-588.923	92.117	-0.051	-0.058
-587.909	252.610	0.053	0.092
-586.894	800.000	-0.077	0.274
-585.879	800.000	-0.044	-0.153
-584.865	-139.391	0.043	-0.005
-583.850	-69.588	0.099	0.038
-582.836	-61.514	-0.132	-0.056
-581.821	126.306	0.088	-0.112
-580.806	800.000	0.030	0.089
-579.792	-117.985	0.050	0.009
-578.777	170.719	-0.099	-0.142
-577.763	-200.000	0.001	0.063
-576.748	800.000	-0.043	0.158
-575.733	-84.885	0.249	-0.079
-574.719	-15.432	0.118	0.076
-573.704	648.901	0.001	0.002
-572.690	-66.145	0.280	-0.112
-571.675	50.392	-0.143	-0.136
-570.661	-112.737	0.103	0.021
-569.646	-29.863	-0.058	0.033
-568.631	800.000	0.078	0.278
-567.617	-200.000	-0.030	0.243
-566.602	-41.183	0.268	0.139
-565.588	543.292	0.088	0.212
-564.573	103.789	-0.140	-0.165
-563.558	67.850	-0.213	-0.219
-562.544	-200.000	0.041	0.229
-561.529	466.755	-0.069	0.155
-560.515	-200.000	0.037	-0.165
-559.500	-77.769	-0.032	-0.011
-558.485	152.451	-0.184	-0.253
-557.471	-3.641	0.171	0.120
-556.456	33.356	0.305	-0.267
-555.442	150.507	0.098	0.134
-554.427	-130.823	-0.279	0.038
-553.412	225.478	-0.108	-0.175
-552.398	-94.112	-0.367	-0.101
-551.383	-153.059	0.479	0.034
-550.369	800.000	-0.007	0.020
-549.354	-200.000	0.024	-0.177
-548.339	-154.618	0.214	0.014
-547.325	-49.788	0.149	0.071
-546.310	-156.394	-0.143	0.009
-545.296	55.959	0.103	0.100
-544.281	321.131	0.128	0.244
-543.266	1.072	0.044	0.032
-542.252	-200.000	0.012	-0.084
-541.237	268.476	-0.163	-0.288
-540.223	11.452	-0.160	0.123
-539.208	-23.383	0.216	-0.130
-538.193	-200.000	0.023	0.149
-537.179	-103.440	-0.086	-0.020
-536.164	-23.262	-0.224	0.136
-535.150	82.908	-0.211	0.231
-534.135	-57.028	-0.068	-0.030
-533.121	-20.811	-0.349	0.215
-532.106	-61.802	0.133	-0.056
-531.091	57.341	-0.108	0.106
-530.077	15.959	-0.363	0.287
-529.062	154.157	-0.280	-0.385
-528.048	-121.221	-0.319	-0.054
-527.033	-120.260	-0.231	0.040
-526.018	134.367	0.198	0.258
-525.004	800.000	0.063	-0.217
-523.989	276.001	0.147	0.261
-522.975	354.763	0.033	-0.066
-521.960	787.291	-0.008	0.021
-520.945	120.744	-0.174	-0.218
-519.931	-90.766	-0.086	-0.025
-518.916	-103.044	0.156	-0.037
-517.902	351.638	-0.098	-0.196
-516.887	800.000	0.067	-0.257
-515.872	18.779	0.339	-0.273
-514.858	42.303	-0.242	0.221
-513.843	-200.000	0.009	0.166
-512.829	800.000	-0.145	0.416
-511.814	-48.740	0.132	-0.064
-510.799	-109.213	0.121	0.026
-509.785	44.399	-0.352	-0.325
-508.770	-200.000	0.031	0.156
-507.756	233.645	-0.145	0.239
-506.741	-23.901	-0.049	0.029
-505.726	55.066	0.350	0.340
-504.712	116.940	0.091	-0.112
-503.697	-139.505	0.200	0.021
-502.683	23.341	0.125	-0.103
-501.668	-200.000	0.050	-0.228
-500.653	-58.779	-0.293	-0.127
-499.639	404.496	0.037	-0.078
-498.624	-138.398	-0.076	0.008
-497.610	111.345	-0.174	-0.210
-496.595	19.587	0.129	0.104
-495.581	-200.000	-0.045	-0.347
-494.566	-200.000	-0.006	0.271
-493.551	-149.267	-0.190	0.015
-492.537	48.050	0.134	0.126
-491.522	-43.876	-0.236	0.119
-490.508	-67.033	-0.416	-0.165
-489.493	-42.590	-0.129	-0.066
-488.478	-32.199	0.117	0.065
-487.464	283.936	0.146	-0.263
-486.449	-200.000	-0.016	0.284
-485.435	-14.338	-0.284	-0.184
-484.420	-131.197	0.233	0.031
-483.405	-128.318	-0.083	-0.012
-482.391	800.000	-0.083	-0.324
-481.376	-132.961	-0.077	0.010
-480.362	683.666	-0.057	0.149
-479.347	74.380	0.272	0.287
-478.332	119.042	0.123	0.153
-477.318	-200.000	-0.038	0.205
-476.303	-135.906	-0.249	0.029
-475.289	-200.000	-0.048	0.226
-474.274	180.075	-0.147	-0.216
-473.259	20.520	0.111	-0.090
-472.245	800.000	0.018	0.067
-471.230	-200.000	-0.100	0.548
-470.216	-82.306	-0.103	0.034
-469.201	-200.000	-0.026	0.138
-468.186	-200.000	-0.015	0.408
-467.172	-18.758	0.141	0.088
-466.157	-99.346	0.238	-0.060
-465.143	-200.000	0.022	-0.152
-464.128	-200.000	-0.038	-0.168
-463.113	800.000	-0.092	0.315
-462.099	162.941	-0.073	0.103
-461.084	215.287	0.086	0.137
-460.070	-200.000	0.004	0.075
-459.055	203.185	0.195	0.303
-458.040	149.147	-0.075	0.102
-457.026	58.535	-0.103	-0.101
-456.011	13.452	-0.197	-0.153
-454.997	-152.207	0.308	-0.022
-453.982	125.536	-0.259	0.328
-452.968	-200.000	-0.004	0.207
-451.953	-186.472	0.161	-0.002
-450.938	78.989	0.191	-0.205
-449.924	800.000	-0.074	0.255
-448.909	-146.306	-0.254	-0.022
-447.895	28.147	-0.058	-0.049
-446.880	775.491	0.085	-0.232
-445.865	240.621	0.075	-0.126
-444.851	-112.367	-0.390	-0.078
-443.836	459.767	0.119	-0.266
-442.822	-146.155	-0.280	-0.025
-441.807	21.610	0.263	-0.214
-440.792	800.000	0.117	0.336
-439.778	52.549	0.132	0.126
-438.763	-44.976	-0.238	0.118
-437.749	545.394	0.129	0.309
-436.734	53.843	-0.211	-0.203
-435.719	-65.485	0.347	-0.140
-434.705	-69.027	-0.065	0.025
-433.690	-77.131	-0.086	0.030
-432.676	800.000	0.035	-0.107
-431.661	-147.261	-0.158	-0.013
-430.646	119.349	-0.210	0.261
-429.632	-154.414	0.030	-0.002
-428.617	759.000	0.090	0.243
-427.603	-200.000	0.030	-0.232
-426.588	-200.000	0.006	-0.201
-425.573	-126.219	-0.164	0.025
-424.559	109.496	0.106	-0.127
-423.544	259.440	0.096	0.167
-422.530	403.582	0.071	-0.149
-421.515	190.413	0.102	0.154
-420.500	-7.128	0.402	-0.273
-419.486	193.741	0.073	-0.111
-418.471	16.773	-0.286	-0.227
-417.457	264.536	0.205	-0.358
-416.442	75.441	-0.225	0.238
-415.428	-200.000	0.087	-0.385
-414.413	-47.892	-0.188	-0.091
-413.398	-200.000	0.029	-0.429
-412.384	-200.000	0.090	0.533
-411.369	49.317	0.078	0.073
-410.355	482.083	0.095	-0.215
-409.340	194.766	0.061	-0.093
-408.325	4.075	0.335	0.245
-407.311	26.232	-0.155	-0.129
-406.296	-100.560	-0.042	-0.010
-405.282	316.722	-0.131	-0.248
-404.267	-161.119	0.198	0.010
-403.252	122.862	0.002	-0.002
-402.238	31.105	0.071	0.061
-401.223	705.701	-0.048	0.127
-400.209	-200.000	0.033	-0.175
-399.194	42.902	0.045	0.041
-398.179	239.887	-0.118	0.196
-397.165	344.821	0.061	0.121
-396.150	-180.538	0.154	-0.003
-395.136	762.621	-0.026	-0.069
-394.121	-200.000	0.026	0.306
-393.106	467.438	0.062	0.138
-392.092	80.550	-0.218	0.235
-391.077	60.641	0.181	-0.180
-390.063	800.000	0.072	-0.262
-389.048	172.392	-0.058	0.084
-388.033	33.727	-0.134	-0.117
-387.019	-84.499	0.343	0.108
-386.004	-106.775	-0.194	-0.043
-384.990	-195.292	0.368	-0.003
-383.975	-200.000	0.004	0.151
-382.960	-5.963	-0.052	0.036
-381.946	-200.000	0.012	0.095
-380.931	35.812	0.093	0.081
-379.917	800.000	-0.089	0.253
-378.902	-99.684	-0.271	0.068
-377.888	134.274	0.090	-0.117
-376.873	-200.000	0.018	0.136
-375.858	-138.616	0.661	0.072
-374.844	59.601	-0.107	-0.105
-373.829	71.910	0.129	0.134
-372.815	65.050	0.117	-0.118
-371.800	234.464	0.222	-0.366
-370.785	-119.970	-0.341	-0.059
-369.771	-57.329	0.084	0.037
-368.756	414.261	0.039	-0.084
-367.742	800.000	-0.011	-0.045
-366.727	23.708	0.219	0.180
-365.712	-200.000	-0.022	-0.103
-364.698	-200.000	-0.031	0.286
-363.683	-143.705	-0.115	-0.011
-362.669	507.319	-0.045	-0.105
-361.654	104.568	-0.128	0.150
-360.639	-120.448	0.288	-0.049
-359.625	-156.983	0.217	-0.013
-358.610	-51.835	0.298	0.139
-357.596	34.036	0.350	0.304
-356.581	-52.411	-0.356	-0.164
-355.566	211.573	-0.067	0.106
-354.552	800.000	0.076	0.326
-353.537	-200.000	-0.030	0.188
-352.523	190.626	0.159	-0.239
-351.508	100.689	0.145	-0.168
-350.493	-38.827	0.069	0.037
-349.479	-152.999	0.170	0.012
-348.464	234.146	-0.088	-0.145
-347.450	-85.208	-0.250	-0.078
-346.435	34.328	-0.160	-0.139
-345.420	95.445	0.069	-0.078
-344.406	-200.000	-0.015	-0.070
-343.391	-97.655	0.207	-0.054
-342.377	234.753	-0.061	0.100
-341.362	-11.511	-0.172	-0.113
-340.348	56.179	0.114	0.110
-339.333	-200.000	0.006	0.212
-338.318	35.128	-0.048	-0.042
-337.304	-125.510	-0.269	0.041
-336.289	500.961	0.046	0.107
-335.275	-23.192	-0.348	0.209
-334.260	-200.000	-0.006	0.185
-333.245	153.087	-0.154	0.210
-332.231	6.200	-0.206	-0.152
-331.216	-40.421	-0.087	0.045
-330.202	125.636	-0.100	-0.126
-329.187	-28.959	0.124	0.071
-328.172	-106.132	0.016	-0.004
-327.158	115.876	0.214	-0.260
-326.143	-158.144	0.156	0.009
-325.129	-107.884	-0.098	0.021
-324.114	37.244	0.194	-0.171
-323.099	-48.353	0.131	0.063
-322.085	-99.278	-0.297	-0.075
-321.070	29.846	-0.129	-0.110
-320.056	-182.333	-0.197	-0.004
-319.041	692.992	-0.051	-0.132
-318.026	-200.000	0.008	-0.142
-317.012	-200.000	-0.010	-0.160
-315.997	99.108	0.085	0.098
-314.983	-200.000	0.016	0.090
-313.968	-200.000	0.040	0.176
-312.953	-112.348	0.253	-0.050
-311.939	-200.000	-0.053	0.487
-310.924	-73.046	0.320	0.117
-309.910	800.000	0.037	-0.135
-308.895	51.561	0.099	-0.094
-307.880	-26.476	-0.051	0.030
-306.866	37.879	-0.224	-0.198
-305.851	-76.084	-0.072	0.025
-304.837	-42.282	0.111	-0.056
-303.822	-87.645	0.055	-0.016
-302.807	-146.630	-0.411	0.036
-301.793	474.611	-0.118	0.264
-300.778	-200.000	0.015	-0.126
-299.764	-156.440	0.252	0.016
-298.749	-42.355	-0.292	0.149
-297.735	-200.000	-0.019	0.256
-296.720	-17.873	-0.155	0.097
-295.705	-177.712	0.262	-0.006
-294.691	206.867	-0.088	-0.136
-293.676	190.937	-0.164	-0.246
-292.662	-42.957	-0.259	0.131
-291.647	-170.513	0.160	0.006
-290.632	169.961	-0.039	0.056
-289.618	214.663	-0.133	-0.210
-288.603	-200.000	-0.033	0.224
-287.589	-53.829	0.294	-0.133
-286.574	-100.057	0.070	0.017
-285.559	-138.091	-0.329	-0.036
-284.545	-69.384	0.023	0.009
-283.530	295.729	0.128	0.233
-282.516	67.826	-0.141	-0.143
-281.501	-200.000	0.002	0.290
-280.486	-6.547	0.157	-0.106
-279.472	800.000	-0.051	0.201
-278.457	113.756	0.159	0.192
-277.443	33.716	0.247	0.213
-276.428	-147.562	0.394	0.033
-275.413	-148.985	0.419	-0.034
-274.399	-200.000	-0.004	-0.061
-273.384	-200.000	0.016	0.246
-272.370	-8.184	0.089	0.060
-271.355	23.117	-0.239	0.195
-270.340	-200.000	0.012	-0.170
-269.326	56.432	-0.210	-0.203
-268.311	-200.000	0.007	0.178
-267.297	245.602	0.148	0.248
-266.282	23.479	0.138	-0.113
-265.267	-200.000	-0.000	0.077
-264.253	124.224	0.049	-0.061
-263.238	9.699	0.059	0.045
-262.224	9.770	-0.167	0.126
-261.209	282.329	0.023	0.041
-260.195	800.000	0.023	-0.099
-259.180	-114.965	0.223	-0.042
-258.165	-3.212	0.060	0.041
-257.151	-87.694	-0.155	-0.046
-256.136	-34.870	-0.083	0.045
-255.122	18.620	-0.089	-0.071
-254.107	322.878	-0.044	0.083
-253.092	510.899	0.109	-0.253
-252.078	-129.772	0.170	0.023
-251.063	515.942	0.050	-0.117
-250.049	800.000	-0.137	-0.469
-249.034	381.650	-0.090	0.184
-248.019	-36.785	0.264	0.141
-247.005	212.669	-0.239	-0.374
-245.990	-200.000	0.018	-0.122
-244.976	800.000	0.058	0.235
-243.961	800.000	-0.120	-0.363
-242.946	85.882	0.060	0.066
-241.932	111.360	0.101	0.121
-240.917	120.479	0.070	0.086
-239.903	523.571	0.056	0.131
-238.888	0.406	0.094	-0.067
-237.873	-191.937	-0.392	0.004
-236.859	-160.970	-0.200	-0.010
-235.844	-59.937	-0.305	0.130
-234.830	151.437	0.078	-0.106
-233.815	-59.653	0.008	0.003
-232.800	-200.000	-0.082	0.429
-231.786	-53.961	0.267	0.121
-230.771	200.138	0.164	-0.250
-229.757	-176.491	-0.125	0.003
-228.742	127.055	0.145	0.183
-227.727	-26.119	-0.258	0.151
-226.713	-200.000	-0.028	-0.178
-225.698	-12.597	0.224	-0.145
-224.684	-15.510	-0.169	-0.107
-223.669	800.000	0.060	0.204
-222.655	-93.996	0.212	0.058
-221.640	-68.422	0.359	0.138
-220.625	2.068	-0.126	-0.090
-219.611	-125.602	0.107	-0.016
-218.596	287.340	-0.159	-0.286
-217.582	-46.785	-0.094	-0.046
-216.567	63.800	0.057	-0.057
-215.552	162.819	0.205	-0.286
-214.538	-200.000	-0.041	-0.465
-213.523	195.816	-0.081	0.122
-212.509	129.206	0.066	0.084
-211.494	-200.000	0.042	-0.483
-210.479	385.305	-0.176	-0.359
-209.465	302.028	0.045	0.083
-208.450	-200.000	0.038	0.337
-207.436	469.487	0.076	-0.170
-206.421	800.000	0.061	-0.204
-205.406	186.369	0.057	-0.084
-204.392	314.512	-0.142	0.266
-203.377	63.631	0.130	-0.130
-202.363	-200.000	-0.003	-0.118
-201.348	800.000	0.067	-0.245
-200.333	-103.586	-0.226	-0.053
-199.319	-110.136	-0.232	-0.048
-198.304	19.177	0.158	0.126
-197.290	-53.114	-0.171	-0.078
-196.275	210.682	-0.101	-0.157
-195.260	-74.358	0.157	-0.056
-194.246	0.712	-0.136	0.097
-193.231	289.166	0.049	-0.088
-192.217	379.348	0.126	0.257
-191.202	-91.113	-0.329	-0.093
-190.187	-200.000	0.088	-0.398
-189.173	-89.272	0.310	0.091
-188.158	-60.765	-0.237	0.100
-187.144	13.102	-0.235	0.181
-186.129	342.183	-0.071	0.138
-185.114	128.617	0.062	-0.078
-184.100	-26.510	0.161	-0.094
-183.085	-99.296	-0.176	-0.044
-182.071	-176.081	0.025	0.001
-181.056	-200.000	0.081	-0.513
-180.042	135.333	-0.073	-0.094
-179.027	115.796	0.127	-0.154
-178.012	53.924	0.069	-0.065
-176.998	-200.000	0.009	-0.391
-175.983	320.744	-0.131	-0.246
-174.969	50.306	-0.138	0.129
-173.954	-46.342	0.304	0.148
-172.939	-177.706	0.046	-0.001
-171.925	514.599	-0.073	-0.168
-170.910	1.665	-0.161	0.115
-169.896	-120.831	-0.206	-0.034
-168.881	-68.513	0.160	-0.061
-167.866	41.185	0.075	-0.067
-166.852	-200.000	-0.032	-0.249
-165.837	800.000	-0.072	-0.201
-164.823	132.593	0.248	0.317
-163.808	-85.129	0.191	0.059
-162.793	17.519	-0.039	-0.030
-161.779	-23.552	-0.091	-0.054
-160.764	122.255	0.224	-0.277
-159.750	-75.002	-0.277	-0.098
-158.735	800.000	-0.026	0.107
-157.720	800.000	0.032	-0.114
-156.706	74.461	0.082	0.085
-155.691	800.000	-0.031	-0.130
-154.677	57.160	-0.054	-0.053
-153.662	-23.273	-0.142	0.084
-152.647	345.383	-0.143	0.279
-151.633	43.324	-0.014	-0.012
-150.618	232.831	-0.200	0.325
-149.604	800.000	0.020	0.063
-148.589	-200.000	0.001	0.249
-147.574	-70.491	-0.128	0.048
-146.560	-94.258	-0.112	0.030
-145.545	-200.000	-0.002	-0.190
-144.531	499.940	-0.117	-0.267
-143.516	159.543	-0.243	-0.334
-142.502	211.977	-0.146	0.227
-141.487	614.918	-0.117	0.290
-140.472	228.266	-0.069	0.110
-139.458	388.341	-0.148	0.304
-138.443	387.694	0.131	0.267
-137.429	265.990	0.205	0.354
-136.414	-70.771	-0.097	-0.036
-135.399	-31.180	0.200	0.111
-134.385	406.849	-0.095	-0.199
-133.370	-200.000	0.040	0.288
-132.356	800.000	0.090	0.249
-131.341	-60.151	0.241	0.102
-130.326	47.878	0.178	-0.165
-129.312	-200.000	-0.014	-0.177
-128.297	-31.169	-0.225	-0.126
-127.283	407.345	-0.054	0.113
-126.268	498.099	-0.121	-0.276
-125.253	376.005	0.079	-0.159
-124.239	800.000	0.086	0.263
-123.224	800.000	0.054	-0.234
-122.210	-10.140	-0.096	0.063
-121.195	-200.000	-0.026	0.159
-120.180	70.237	0.129	-0.131
