DTS Sentinel unit serial number:	SN413079Multiplexer serial number:	ORYXHardware model number:	OX4-SRSoftware version number:	ORYX F/W v4.00 Oryx Data Collector v3.7.2.0data status	okinstallation	princeton_trtdifferential loss correction	single-endedforward channel	channel 2reverse channel	N/Adate	2019/09/12time	16:49:10forward acquisition time	60.00reverse acquisition time	0.00gamma	496.2192k internal	0.2324k external	0.2324temperature offset calibration	1.0121default loss term (dB/km)	0.3790temperature slope calibration	1.0000multiplexer offset coefficient	1.0000multiplexer slope coefficient	1.0000fibre end	0.00T internal ref (°C)	36.30T ext. ref 1 (°C)	2.72T ext. ref 2 (°C)	29.53length (m)	temperature (°C)	Stokes	anti-Stokes-747.200	63.778	-0.224	0.227
-746.185	-200.000	0.008	0.350
-745.171	-200.000	-0.032	0.462
-744.156	800.000	0.070	0.202
-743.142	-200.000	-0.021	0.142
-742.127	-200.000	-0.027	0.164
-741.112	20.425	-0.104	0.084
-740.098	-108.271	-0.187	-0.041
-739.083	2.488	0.088	0.064
-738.069	800.000	-0.084	0.372
-737.054	-34.347	-0.097	-0.054
-736.039	-81.490	-0.292	-0.097
-735.025	167.520	0.149	0.214
-734.010	13.079	0.376	-0.293
-732.996	-200.000	0.005	-0.098
-731.981	800.000	-0.015	0.042
-730.966	-72.387	0.261	0.097
-729.952	22.199	-0.151	0.124
-728.937	-189.715	-0.226	-0.003
-727.923	717.616	-0.054	-0.144
-726.908	800.000	-0.066	0.222
-725.894	-88.547	-0.145	0.043
-724.879	260.628	-0.034	0.059
-723.864	-200.000	-0.057	-0.288
-722.850	297.699	-0.133	0.247
-721.835	150.397	-0.169	-0.232
-720.821	-148.895	0.090	0.007
-719.806	-33.056	-0.325	0.182
-718.791	-200.000	0.030	-0.170
-717.777	-26.100	0.116	0.069
-716.762	-33.623	-0.244	-0.136
-715.748	74.612	0.128	-0.136
-714.733	-200.000	0.014	-0.189
-713.718	-87.232	-0.229	-0.070
-712.704	134.522	-0.081	0.105
-711.689	-124.723	-0.261	-0.041
-710.675	117.557	-0.158	-0.196
-709.660	-38.306	-0.339	0.181
-708.645	-200.000	0.034	0.232
-707.631	-14.458	-0.407	-0.264
-706.616	-73.716	-0.195	-0.071
-705.602	-122.857	-0.258	-0.042
-704.587	-116.983	0.147	-0.027
-703.572	401.678	0.040	-0.085
-702.558	16.212	0.149	0.118
-701.543	-101.177	0.403	0.099
-700.529	800.000	-0.092	-0.320
-699.514	-38.652	0.171	0.091
-698.499	145.356	-0.073	-0.099
-697.485	103.032	-0.171	0.202
-696.470	23.292	-0.044	-0.037
-695.456	-200.000	0.002	-0.234
-694.441	59.223	0.195	0.194
-693.426	-87.848	-0.217	0.066
-692.412	-76.316	0.090	0.032
-691.397	8.071	0.409	-0.309
-690.383	-200.000	0.017	0.177
-689.368	73.855	-0.255	-0.269
-688.354	-48.468	-0.057	-0.028
-687.339	-0.476	-0.279	-0.200
-686.324	51.934	-0.211	-0.202
-685.310	51.334	-0.288	0.276
-684.295	160.912	-0.090	0.126
-683.281	247.095	0.216	0.367
-682.266	222.309	0.172	0.279
-681.251	-200.000	-0.010	0.057
-680.237	-6.631	-0.197	-0.135
-679.222	-18.223	0.088	0.056
-678.208	437.947	0.120	0.264
-677.193	59.976	0.177	0.176
-676.178	-91.643	-0.137	-0.039
-675.164	213.223	-0.070	-0.112
-674.149	-158.279	0.424	-0.025
-673.135	-200.000	0.015	0.336
-672.120	395.393	0.160	0.336
-671.105	122.553	-0.136	0.172
-670.091	-200.000	-0.009	-0.059
-669.076	-74.027	-0.279	0.102
-668.062	9.627	-0.052	-0.040
-667.047	32.047	0.343	-0.298
-666.032	-119.688	0.416	0.072
-665.018	-81.399	-0.262	0.087
-664.003	117.800	0.080	-0.100
-662.989	-200.000	0.072	-0.317
-661.974	-101.019	-0.293	0.072
-660.959	350.582	0.088	0.175
-659.945	-200.000	-0.038	-0.332
-658.930	-86.956	-0.037	0.011
-657.916	-161.279	0.229	-0.012
-656.901	356.135	-0.053	-0.106
-655.886	-92.795	0.272	-0.077
-654.872	-103.471	0.286	0.068
-653.857	52.807	0.423	-0.407
-652.843	-57.163	-0.476	0.211
-651.828	-8.539	-0.410	0.277
-650.814	-200.000	0.044	0.330
-649.799	105.005	-0.104	0.123
-648.784	4.261	-0.245	-0.181
-647.770	-95.772	-0.244	0.066
-646.755	-200.000	-0.004	-0.240
-645.741	430.626	-0.034	0.074
-644.726	-17.337	0.120	-0.076
-643.711	-200.000	-0.017	-0.092
-642.697	800.000	0.034	0.112
-641.682	312.248	0.069	-0.130
-640.668	800.000	-0.157	-0.442
-639.653	466.583	-0.069	0.156
-638.638	241.846	0.072	-0.121
-637.624	51.043	-0.112	-0.106
-636.609	-40.546	-0.319	0.166
-635.595	-137.827	-0.280	0.031
-634.580	-88.350	0.200	-0.060
-633.565	-200.000	-0.034	0.174
-632.551	-41.756	-0.279	-0.144
-631.536	217.357	-0.111	0.178
-630.522	-119.991	-0.233	-0.040
-629.507	175.542	0.208	-0.303
-628.492	105.250	0.072	0.085
-627.478	-95.994	0.271	-0.072
-626.463	-3.839	-0.225	0.157
-625.449	-43.578	-0.132	-0.067
-624.434	-155.636	-0.232	-0.015
-623.419	-107.769	-0.402	-0.088
-622.405	41.860	-0.136	-0.124
-621.390	800.000	-0.066	-0.255
-620.376	-200.000	0.064	-0.390
-619.361	531.255	-0.011	-0.026
-618.346	-200.000	-0.034	0.173
-617.332	-65.676	0.194	0.078
-616.317	-119.098	-0.115	-0.020
-615.303	-200.000	-0.067	-0.424
-614.288	-29.247	0.177	0.102
-613.273	-172.042	-0.240	-0.008
-612.259	54.528	0.025	0.024
-611.244	-28.856	-0.251	-0.145
-610.230	169.048	-0.050	0.072
-609.215	-100.491	0.252	-0.063
-608.201	-39.441	0.157	0.082
-607.186	-90.600	0.178	0.052
-606.171	-72.823	-0.247	0.091
-605.157	-1.607	-0.094	0.066
-604.142	-94.395	-0.291	-0.080
-603.128	31.064	-0.033	-0.029
-602.113	800.000	0.083	0.341
-601.098	-154.298	0.162	-0.011
-600.084	76.101	0.047	0.049
-599.069	106.615	-0.194	-0.230
-598.055	127.496	-0.362	-0.462
-597.040	715.244	0.064	-0.171
-596.025	-65.728	0.128	0.051
-595.011	113.412	-0.256	-0.311
-593.996	-200.000	0.030	-0.365
-592.982	56.384	0.195	-0.190
-591.967	-89.058	0.194	-0.058
-590.952	-200.000	-0.004	0.074
-589.938	-101.247	0.270	-0.066
-588.923	800.000	0.062	-0.222
-587.909	800.000	0.021	0.083
-586.894	-147.773	-0.109	-0.009
-585.879	-81.031	-0.196	-0.065
-584.865	593.657	0.128	0.318
-583.850	-127.963	0.302	0.043
-582.836	-200.000	0.027	0.197
-581.821	33.664	0.234	0.204
-580.806	-156.026	-0.090	0.006
-579.792	-200.000	0.005	-0.191
-578.777	80.383	0.109	-0.118
-577.763	266.109	-0.241	-0.422
-576.748	-45.951	0.102	0.050
-575.733	5.195	0.245	0.181
-574.719	-111.781	0.296	-0.060
-573.704	-200.000	-0.001	0.024
-572.690	152.664	-0.099	0.136
-571.675	22.955	-0.105	0.086
-570.661	-200.000	0.014	0.168
-569.646	-154.587	0.199	-0.013
-568.631	-200.000	0.003	0.055
-567.617	-111.446	-0.132	0.027
-566.602	273.620	-0.076	-0.135
-565.588	-64.941	-0.220	0.089
-564.573	5.822	0.209	0.155
-563.558	141.204	0.055	-0.073
-562.544	274.659	0.163	-0.290
-561.529	-9.972	0.519	-0.346
-560.515	-115.175	0.099	-0.019
-559.500	-84.392	-0.401	0.127
-558.485	113.677	-0.023	-0.028
-557.471	45.935	0.177	-0.164
-556.456	-172.301	-0.141	0.005
-555.442	-143.726	0.125	0.012
-554.427	800.000	0.097	-0.268
-553.412	-49.519	0.122	0.058
-552.398	-15.147	-0.168	-0.108
-551.383	12.850	0.227	0.176
-550.369	-77.961	0.283	0.098
-549.354	181.466	0.051	-0.076
-548.339	800.000	-0.035	0.103
-547.325	-155.706	0.168	-0.011
-546.310	136.420	-0.096	-0.126
-545.296	-66.825	0.377	0.149
-544.281	800.000	0.148	0.549
-543.266	800.000	0.060	0.230
-542.252	-78.025	0.034	0.012
-541.237	705.750	0.037	-0.099
-540.223	-133.689	0.042	-0.005
-539.208	31.165	-0.177	0.152
-538.193	-52.306	-0.137	-0.063
-537.179	-7.817	0.286	-0.193
-536.164	800.000	0.134	0.489
-535.150	-49.047	0.325	0.156
-534.135	-52.136	0.277	0.129
-533.121	81.448	-0.053	-0.058
-532.106	-139.286	0.378	-0.041
-531.091	-200.000	0.131	0.000
-530.077	-14.712	-0.038	-0.024
-529.062	-146.306	0.218	-0.019
-528.048	-66.911	0.195	-0.077
-527.033	800.000	-0.037	0.155
-526.018	-35.970	-0.199	0.108
-525.004	-121.166	0.363	-0.061
-523.989	508.836	-0.043	0.100
-522.975	39.610	-0.131	-0.117
-521.960	800.000	-0.097	-0.332
-520.945	383.770	0.125	-0.257
-519.931	-34.473	0.198	0.108
-518.916	353.258	-0.059	-0.117
-517.902	-200.000	0.004	-0.201
-516.887	-1.151	0.161	0.114
-515.872	-120.745	-0.089	0.015
-514.858	-150.767	-0.271	-0.021
-513.843	-33.464	-0.275	-0.152
-512.829	125.264	0.128	0.161
-511.814	-146.852	-0.103	-0.009
-510.799	-122.579	-0.318	-0.052
-509.785	-200.000	-0.024	-0.258
-508.770	-43.522	-0.172	-0.087
-507.756	192.899	0.139	0.210
-506.741	-83.728	0.310	0.099
-505.726	800.000	-0.046	-0.167
-504.712	-200.000	-0.080	-0.402
-503.697	-49.016	0.252	0.121
-502.683	-95.797	0.180	-0.048
-501.668	-139.555	0.062	-0.007
-500.653	-161.988	-0.315	0.016
-499.639	-200.000	-0.046	0.412
-498.624	69.390	-0.158	0.163
-497.610	339.300	0.110	-0.214
-496.595	-174.791	0.367	-0.010
-495.581	-200.000	0.020	0.116
-494.566	-154.310	0.134	-0.009
-493.551	-9.394	-0.154	0.103
-492.537	32.711	-0.116	-0.100
-491.522	-143.938	-0.242	0.023
-490.508	-100.570	-0.209	-0.052
-489.493	351.551	0.052	-0.103
-488.478	15.569	0.173	0.136
-487.464	-200.000	-0.041	0.250
-486.449	-33.978	-0.302	-0.166
-485.435	-200.000	0.233	0.000
-484.420	57.818	0.215	0.210
-483.405	-87.335	0.384	-0.116
-482.391	86.138	0.214	0.236
-481.376	-103.089	0.148	0.035
-480.362	-17.683	-0.469	-0.294
-479.347	-3.885	0.050	-0.035
-478.332	88.044	0.096	-0.107
-477.318	-200.000	0.023	0.270
-476.303	157.980	-0.075	-0.103
-475.289	-86.202	-0.285	-0.088
-474.274	17.807	-0.098	-0.078
-473.259	191.548	0.106	-0.159
-472.245	-137.488	-0.067	-0.008
-471.230	134.668	-0.092	0.120
-470.216	-94.670	0.121	-0.033
-469.201	51.634	-0.048	-0.045
-468.186	-200.000	-0.027	0.344
-467.172	145.086	0.123	0.164
-466.157	-200.000	0.002	0.056
-465.143	-200.000	0.039	-0.222
-464.128	-200.000	0.022	0.185
-463.113	332.482	0.094	0.181
-462.099	800.000	0.057	-0.199
-461.084	-200.000	-0.033	-0.165
-460.070	78.815	-0.350	-0.374
-459.055	-75.395	0.310	0.110
-458.040	800.000	0.074	0.216
-457.026	-37.142	-0.022	-0.012
-456.011	-200.000	0.173	-0.000
-454.997	-200.000	0.028	0.235
-453.982	-147.498	0.152	0.013
-452.968	-49.063	-0.159	0.076
-451.953	800.000	0.082	0.246
-450.938	202.234	0.196	0.302
-449.924	135.755	-0.052	-0.067
-448.909	290.944	-0.109	-0.199
-447.895	465.557	-0.087	-0.195
-446.880	-124.167	-0.208	0.033
-445.865	-200.000	0.012	-0.061
-444.851	88.806	-0.223	-0.247
-443.836	800.000	-0.075	0.289
-442.822	-106.661	0.296	0.066
-441.807	-200.000	0.031	0.280
-440.792	-130.965	0.248	-0.033
-439.778	-147.566	0.078	0.007
-438.763	-43.323	-0.230	0.116
-437.749	-55.158	0.318	-0.142
-436.734	-200.000	-0.006	0.053
-435.719	-163.173	0.208	0.010
-434.705	-154.878	0.122	0.008
-433.690	153.656	0.092	-0.125
-432.676	78.154	-0.231	-0.246
-431.661	130.738	0.021	0.027
-430.646	70.353	-0.233	-0.240
-429.632	-22.204	0.244	-0.148
-428.617	148.844	-0.185	0.249
-427.603	299.632	-0.116	-0.213
-426.588	-173.976	-0.337	-0.010
-425.573	308.756	-0.078	0.145
-424.559	414.994	-0.128	-0.272
-423.544	-15.117	-0.189	-0.121
-422.530	60.099	0.095	-0.093
-421.515	46.509	0.048	0.045
-420.500	-183.796	0.137	-0.002
-419.486	87.132	-0.049	0.054
-418.471	84.500	-0.206	-0.225
-417.457	43.404	-0.101	0.092
-416.442	-36.388	-0.224	-0.120
-415.428	-81.827	-0.247	0.081
-414.413	244.102	-0.226	-0.378
-413.398	168.911	-0.173	-0.246
-412.384	-113.423	-0.306	-0.060
-411.369	-200.000	0.007	-0.137
-410.355	-71.458	-0.025	0.009
-409.340	7.123	0.259	-0.193
-408.325	-200.000	-0.027	0.236
-407.311	545.296	0.023	-0.054
-406.296	62.620	0.049	-0.048
-405.282	-104.027	0.125	-0.029
-404.267	-48.301	0.266	-0.128
-403.252	-154.350	-0.240	0.016
-402.238	433.056	-0.089	0.192
-401.223	-78.638	0.464	0.158
-400.209	30.362	-0.054	-0.046
-399.194	-117.210	0.205	-0.037
-398.179	-200.000	-0.312	-0.001
-397.165	40.987	0.089	-0.080
-396.150	397.912	-0.066	-0.137
-395.136	-145.529	-0.237	-0.021
-394.121	211.427	-0.164	0.257
-393.106	266.172	-0.083	-0.144
-392.092	-88.114	0.139	0.042
-391.077	152.523	-0.070	-0.095
-390.063	-92.756	0.050	-0.014
-389.048	-76.958	-0.352	0.122
-388.033	76.779	-0.062	0.065
-387.019	-109.041	0.116	0.025
-386.004	53.056	-0.305	-0.291
-384.990	137.142	0.080	-0.105
-383.975	107.377	0.054	0.063
-382.960	6.463	0.240	0.178
-381.946	-74.507	0.054	-0.020
-380.931	-48.638	0.109	-0.052
-379.917	205.118	0.120	0.185
-378.902	800.000	-0.061	0.230
-377.888	-53.460	0.231	0.105
-376.873	89.417	-0.163	0.180
-375.858	-165.577	0.197	0.009
-374.844	122.105	0.088	0.110
-373.829	-161.183	0.396	0.021
-372.815	90.100	0.125	0.139
-371.800	-200.000	-0.034	-0.180
-370.785	-146.844	-0.350	0.030
-369.771	504.247	-0.260	0.598
-368.756	-200.000	-0.054	0.342
-367.742	-6.014	0.085	0.058
-366.727	-200.000	0.010	-0.132
-365.712	24.984	-0.135	-0.111
-364.698	31.501	0.214	0.183
-363.683	200.565	0.278	-0.424
-362.669	84.818	-0.345	0.376
-361.654	6.676	-0.411	-0.304
-360.639	-1.934	0.152	-0.106
-359.625	319.066	-0.071	0.135
-358.610	106.625	0.165	0.194
-357.596	800.000	-0.071	-0.215
-356.581	-200.000	-0.000	-0.083
-355.566	-102.383	-0.350	-0.083
-354.552	-23.827	0.081	-0.048
-353.537	-172.251	0.338	-0.011
-352.523	39.536	-0.122	-0.108
-351.508	392.146	-0.093	0.193
-350.493	57.922	-0.214	0.208
-349.479	-200.000	-0.019	0.302
-348.464	-167.525	-0.130	-0.005
-347.450	-33.399	-0.291	0.160
-346.435	-28.522	0.198	0.114
-345.420	-200.000	0.036	0.304
-344.406	698.760	-0.135	0.352
-343.391	539.318	0.087	0.205
-342.377	94.807	0.286	0.324
-341.362	458.991	0.119	0.264
-340.348	15.116	-0.028	-0.022
-339.333	-58.774	0.089	-0.038
-338.318	1.284	-0.142	-0.101
-337.304	-200.000	-0.046	-0.395
-336.289	-72.318	0.345	0.127
-335.275	800.000	-0.069	0.270
-334.260	-200.000	-0.006	0.033
-333.245	11.009	0.229	-0.174
-332.231	-83.040	-0.199	-0.064
-331.216	-78.941	0.126	0.042
-330.202	-159.667	0.305	-0.017
-329.187	146.579	-0.006	-0.008
-328.172	-110.217	0.319	0.066
-327.158	-200.000	0.075	-0.383
-326.143	262.555	-0.061	0.106
-325.129	-200.000	-0.017	0.505
-324.114	-29.157	0.044	0.025
-323.099	-66.351	0.318	0.126
-322.085	800.000	-0.096	0.310
-321.070	-200.000	0.025	-0.228
-320.056	133.060	0.053	0.068
-319.041	17.396	0.112	-0.089
-318.026	-200.000	0.056	-0.255
-317.012	-153.090	0.150	0.010
-315.997	-200.000	0.004	-0.185
-314.983	800.000	-0.039	0.155
-313.968	-187.472	0.143	-0.002
-312.953	-69.320	-0.230	0.088
-311.939	-5.532	-0.142	-0.097
-310.924	63.947	-0.021	-0.021
-309.910	206.159	0.078	-0.121
-308.895	135.660	-0.125	0.162
-307.880	-19.015	-0.178	-0.110
-306.866	-200.000	0.009	-0.297
-305.851	-142.821	-0.030	-0.003
-304.837	156.254	0.218	0.299
-303.822	-79.962	-0.281	-0.094
-302.807	434.952	0.154	0.333
-301.793	-200.000	-0.012	-0.272
-300.778	132.988	0.027	-0.034
-299.764	-80.719	0.350	0.115
-298.749	80.001	-0.187	0.199
-297.735	-200.000	-0.020	0.249
-296.720	-25.453	0.293	0.172
-295.705	-22.589	0.018	0.011
-294.691	-200.000	-0.025	-0.249
-293.676	800.000	-0.056	-0.158
-292.662	-200.000	-0.036	0.239
-291.647	-200.000	0.025	-0.156
-290.632	-123.186	-0.152	-0.024
-289.618	-132.929	0.306	-0.039
-288.603	-200.000	0.019	-0.118
-287.589	-65.416	-0.451	-0.180
-286.574	-200.000	-0.021	-0.134
-285.559	712.835	-0.104	0.273
-284.545	-200.000	0.024	0.464
-283.530	2.940	0.078	0.056
-282.516	-48.938	-0.298	-0.142
-281.501	-30.210	-0.214	0.121
-280.486	800.000	-0.012	0.047
-279.472	14.822	0.079	0.061
-278.457	-109.664	0.227	0.047
-277.443	-68.591	0.084	0.032
-276.428	41.074	0.110	0.098
-275.413	-120.207	-0.315	-0.053
-274.399	-142.450	-0.337	-0.033
-273.384	-200.000	0.066	-0.429
-272.370	800.000	0.036	0.134
-271.355	215.606	0.044	-0.070
-270.340	-54.054	0.245	0.110
-269.326	-200.000	-0.031	0.142
-268.311	178.385	-0.207	-0.300
-267.297	-118.619	0.212	0.037
-266.282	461.706	0.162	0.358
-265.267	-200.000	0.004	0.247
-264.253	593.767	0.066	0.161
-263.238	-200.000	-0.010	-0.453
-262.224	87.946	-0.149	0.163
-261.209	38.043	-0.069	0.061
-260.195	447.628	-0.100	-0.219
-259.180	-200.000	-0.060	0.421
-258.165	218.044	-0.036	-0.058
-257.151	-200.000	-0.008	0.036
-256.136	196.993	-0.201	-0.303
-255.122	-96.924	-0.416	-0.108
-254.107	800.000	-0.069	-0.272
-253.092	314.938	-0.088	-0.165
-252.078	11.465	-0.158	-0.120
-251.063	-124.654	0.241	-0.037
-250.049	168.790	0.126	0.178
-249.034	-200.000	-0.025	0.197
-248.019	-200.000	0.025	-0.214
-247.005	28.870	-0.279	0.234
-245.990	-57.663	0.177	0.077
-244.976	-100.715	-0.224	-0.055
-243.961	-85.340	0.395	0.122
-242.946	-131.398	-0.278	0.036
-241.932	712.371	0.024	0.063
-240.917	-200.000	0.022	0.127
-239.903	339.086	0.009	-0.018
-238.888	154.587	0.191	0.260
-237.873	-85.148	0.102	-0.032
-236.859	-1.012	0.263	0.184
-235.844	552.553	0.035	0.083
-234.830	-200.000	-0.038	-0.282
-233.815	-43.255	-0.079	0.040
-232.800	372.800	-0.158	0.318
-231.786	-9.038	-0.224	-0.148
-230.771	-118.490	0.311	0.054
-229.757	335.757	0.113	0.216
-228.742	-132.249	-0.352	-0.045
-227.727	-200.000	0.003	-0.129
-226.713	43.726	-0.179	-0.162
-225.698	185.285	-0.029	-0.043
-224.684	-83.080	-0.042	0.014
-223.669	532.817	0.121	-0.284
-222.655	-33.323	-0.152	0.083
-221.640	-79.342	0.229	0.077
-220.625	97.869	-0.198	0.226
-219.611	184.980	-0.187	-0.274
-218.596	-134.875	0.283	0.034
-217.582	800.000	-0.142	0.459
-216.567	509.879	0.048	0.109
-215.552	201.609	-0.202	-0.308
-214.538	800.000	-0.054	0.213
-213.523	558.638	-0.104	0.247
-212.509	-37.940	0.216	0.113
-211.494	-200.000	-0.003	-0.138
-210.479	127.072	0.123	-0.154
-209.465	-121.951	-0.149	-0.024
-208.450	31.285	0.168	0.143
-207.436	-2.019	0.184	-0.128
-206.421	198.102	0.099	-0.150
-205.406	57.148	0.084	-0.081
-204.392	701.390	-0.033	0.086
-203.377	800.000	-0.168	0.483
-202.363	800.000	0.033	-0.120
-201.348	-200.000	-0.017	0.078
-200.333	-86.227	-0.363	-0.110
-199.319	33.008	-0.146	0.125
-198.304	-92.816	0.207	0.057
-197.290	-200.000	0.039	0.384
-196.275	-200.000	-0.050	0.426
-195.260	-51.609	0.401	0.185
-194.246	81.580	0.225	-0.241
-193.231	-200.000	-0.095	-0.563
-192.217	-32.596	0.008	0.005
-191.202	-111.525	-0.177	-0.036
-190.187	42.165	-0.264	-0.237
-189.173	267.615	-0.098	-0.169
-188.158	116.163	0.060	0.073
-187.144	-200.000	0.035	-0.240
-186.129	-61.668	0.041	0.017
-185.114	-200.000	-0.005	-0.187
-184.100	-64.048	-0.188	-0.076
-183.085	-191.262	-0.182	0.002
-182.071	350.232	-0.166	-0.323
-181.056	152.698	-0.029	0.039
-180.042	800.000	0.020	0.072
-179.027	-18.139	-0.159	-0.098
-178.012	-200.000	-0.003	-0.202
-176.998	152.960	0.113	-0.152
-175.983	274.968	-0.079	0.138
-174.969	800.000	0.064	-0.187
-173.954	9.530	0.231	0.172
-172.939	-200.000	0.084	0.427
-171.925	-138.541	-0.030	-0.003
-170.910	133.914	0.047	-0.060
-169.896	14.264	0.155	0.119
-168.881	-44.804	0.241	0.119
-167.866	-200.000	-0.017	-0.338
-166.852	-200.000	-0.107	-0.513
-165.837	163.828	-0.218	-0.303
-164.823	308.428	-0.102	0.188
-163.808	21.829	-0.230	-0.185
-162.793	-7.569	0.129	-0.086
-161.779	449.268	0.039	0.084
-160.764	800.000	-0.013	0.048
-159.750	-200.000	-0.015	-0.081
-158.735	-33.818	0.318	-0.173
-157.720	800.000	0.075	-0.211
-156.706	800.000	0.096	0.365
-155.691	-37.667	-0.338	0.178
-154.677	-15.181	-0.053	0.033
-153.662	800.000	0.105	0.309
-152.647	-57.927	0.198	-0.085
-151.633	28.837	-0.146	-0.122
-150.618	800.000	-0.008	-0.032
-149.604	257.498	0.094	-0.159
-148.589	-200.000	0.008	-0.054
-147.574	-48.200	0.120	-0.057
-146.560	-102.911	0.126	-0.029
-145.545	-161.438	0.230	-0.012
-144.531	-200.000	-0.007	-0.171
-143.516	800.000	-0.021	0.087
-142.502	279.901	0.330	0.580
-141.487	-85.263	0.286	-0.088
-140.472	152.067	0.109	0.146
-139.458	-200.000	-0.033	0.185
-138.443	444.266	-0.108	0.233
-137.429	-14.968	-0.187	0.118
-136.414	-152.974	-0.043	0.003
-135.399	-200.000	0.046	0.388
-134.385	-6.161	-0.258	0.174
-133.370	-138.887	-0.088	-0.009
-132.356	445.878	-0.094	0.205
-131.341	800.000	0.157	-0.432
-130.326	78.051	-0.141	0.148
-129.312	-200.000	0.008	-0.094
-128.297	800.000	0.043	0.135
-127.283	-99.924	0.181	0.045
-126.268	179.961	0.210	0.303
-125.253	-135.591	-0.058	-0.007
-124.239	-200.000	-0.030	0.138
-123.224	302.301	0.181	0.330
-122.210	-200.000	0.004	-0.084
