DTS Sentinel unit serial number:	SN413079Multiplexer serial number:	ORYXHardware model number:	OX4-SRSoftware version number:	ORYX F/W v4.00 Oryx Data Collector v3.7.2.0data status	okinstallation	princeton_trtdifferential loss correction	single-endedforward channel	channel 2reverse channel	N/Adate	2019/09/12time	18:05:49forward acquisition time	15.00reverse acquisition time	0.00gamma	496.2192k internal	0.2323k external	0.2323temperature offset calibration	1.0138default loss term (dB/km)	0.3790temperature slope calibration	1.0000multiplexer offset coefficient	1.0000multiplexer slope coefficient	1.0000fibre end	0.00T internal ref (°C)	33.69T ext. ref 1 (°C)	2.97T ext. ref 2 (°C)	28.20length (m)	temperature (°C)	Stokes	anti-Stokes-747.200	-156.623	0.185	0.012
-746.185	-14.846	0.247	0.160
-745.171	-200.000	-0.023	-0.396
-744.156	28.978	-1.014	0.869
-743.142	-30.772	0.098	-0.056
-742.127	472.717	0.230	0.524
-741.112	-60.457	0.064	-0.027
-740.098	-200.000	-0.052	-0.505
-739.083	-103.178	0.697	-0.167
-738.069	-4.052	-0.764	0.535
-737.054	68.373	-0.411	-0.426
-736.039	-25.927	-0.220	0.131
-735.025	563.073	-0.335	-0.818
-734.010	-181.564	-0.784	0.015
-732.996	87.393	0.129	-0.144
-731.981	-200.000	0.005	0.984
-730.966	217.554	0.109	0.176
-729.952	81.126	-0.153	-0.166
-728.937	-52.348	0.276	0.129
-727.923	800.000	0.185	-0.600
-726.908	-104.217	-0.256	0.060
-725.894	-162.503	-1.257	0.063
-724.879	-200.000	0.021	-0.504
-723.864	-200.000	0.174	0.828
-722.850	-79.390	-0.412	0.141
-721.835	-200.000	0.064	-0.369
-720.821	800.000	-0.354	-1.175
-719.806	-123.985	-1.074	-0.171
-718.791	5.432	-0.252	0.187
-717.777	-173.063	-0.707	0.022
-716.762	-112.247	0.406	0.082
-715.748	383.124	-0.171	0.354
-714.733	144.850	-0.304	-0.410
-713.718	102.010	-0.384	0.452
-712.704	49.868	-0.460	0.437
-711.689	-97.682	0.272	-0.071
-710.675	-200.000	0.005	-0.881
-709.660	-200.000	0.004	-0.027
-708.645	70.095	0.816	0.850
-707.631	-113.829	-0.244	-0.048
-706.616	57.149	0.362	-0.356
-705.602	800.000	-0.314	0.879
-704.587	28.298	-0.354	-0.302
-703.572	-27.522	0.461	-0.270
-702.558	-21.446	1.008	-0.620
-701.543	-79.876	0.501	0.170
-700.529	-143.938	0.671	0.064
-699.514	499.684	-0.361	0.839
-698.499	-16.325	-0.186	0.119
-697.485	147.939	0.207	0.281
-696.470	-200.000	0.004	-0.023
-695.456	800.000	0.167	0.514
-694.441	-122.302	0.913	-0.150
-693.426	41.479	-0.488	0.445
-692.412	-185.772	-1.077	0.016
-691.397	107.844	-0.371	0.446
-690.383	-200.000	-0.019	0.099
-689.368	-137.096	-0.187	-0.022
-688.354	-200.000	0.025	0.743
-687.339	-101.100	-0.658	0.163
-686.324	-103.274	0.405	-0.096
-685.310	-96.282	0.098	0.026
-684.295	-200.000	0.158	-1.008
-683.281	-200.000	-0.024	0.477
-682.266	-49.034	-0.329	-0.159
-681.251	-22.485	-0.479	-0.292
-680.237	165.785	0.075	-0.106
-679.222	-200.000	-0.066	0.301
-678.208	83.470	-0.659	0.723
-677.193	-181.416	0.201	-0.004
-676.178	-3.843	0.681	0.476
-675.164	-36.979	0.120	-0.065
-674.149	-126.648	0.284	0.042
-673.135	-123.854	0.360	-0.057
-672.120	167.499	-0.583	-0.834
-671.105	525.762	-0.382	-0.905
-670.091	-17.262	0.540	-0.343
-669.076	-181.104	0.989	-0.020
-668.062	-123.443	0.544	-0.087
-667.047	-54.558	-0.177	0.081
-666.032	65.572	0.297	-0.303
-665.018	95.035	0.430	0.493
-664.003	-54.675	-0.088	-0.040
-662.989	-98.915	0.873	0.223
-661.974	-200.000	-0.147	-0.683
-660.959	-200.000	0.066	-1.205
-659.945	-33.201	-0.331	0.185
-658.930	-89.592	1.015	0.300
-657.916	-125.531	0.637	0.097
-656.901	242.128	-0.101	0.170
-655.886	537.887	-0.184	-0.440
-654.872	223.439	0.259	-0.420
-653.857	-200.000	-0.104	0.614
-652.843	-40.246	-0.230	0.120
-651.828	-36.005	-0.526	-0.286
-650.814	800.000	-0.170	-0.627
-649.799	645.075	0.324	0.831
-648.784	-151.771	0.246	0.018
-647.770	-11.507	0.389	-0.257
-646.755	136.012	0.283	0.371
-645.741	-33.272	-0.386	-0.215
-644.726	77.948	0.262	0.281
-643.711	-85.382	-0.409	0.128
-642.697	-200.000	-0.089	0.399
-641.682	-108.851	0.439	0.095
-640.668	84.279	-0.208	-0.229
-639.653	-65.074	-0.116	-0.047
-638.638	24.730	0.529	0.441
-637.624	144.676	-0.592	-0.795
-636.609	-52.379	0.282	-0.131
-635.595	186.539	0.193	0.289
-634.580	24.617	0.146	-0.121
-633.565	800.000	-0.078	-0.339
-632.551	-188.174	-0.440	-0.006
-631.536	-200.000	0.039	-0.315
-630.522	14.148	0.755	0.591
-629.507	-200.000	-0.148	-0.747
-628.492	-39.942	-0.408	-0.214
-627.478	-200.000	-0.018	-0.672
-626.463	322.833	-0.177	0.338
-625.449	-83.145	0.516	-0.167
-624.434	10.138	-0.507	0.387
-623.419	25.091	0.350	-0.292
-622.405	800.000	0.043	0.149
-621.390	-135.715	0.288	0.034
-620.376	210.608	-0.343	-0.542
-619.361	168.310	-0.229	-0.328
-618.346	-200.000	-0.091	0.805
-617.332	66.957	-0.130	0.133
-616.317	-108.470	-0.793	0.172
-615.303	119.550	0.744	-0.926
-614.288	-106.099	-0.571	-0.129
-613.273	-200.000	-0.010	0.155
-612.259	172.385	-0.381	0.551
-611.244	-200.000	-0.073	0.341
-610.230	185.593	0.262	0.391
-609.215	-94.487	-0.791	-0.217
-608.201	-86.161	0.222	-0.069
-607.186	18.297	-0.499	-0.400
-606.171	-136.408	-0.858	-0.100
-605.157	-200.000	0.086	-0.562
-604.142	790.585	0.294	0.813
-603.128	-32.793	0.476	0.266
-602.113	-133.015	-0.270	0.034
-601.098	309.113	0.103	0.194
-600.084	800.000	0.152	0.501
-599.069	-2.509	-0.215	-0.151
-598.055	-50.004	-0.683	-0.325
-597.040	98.859	0.313	0.363
-596.025	800.000	0.057	0.201
-595.011	-200.000	-0.001	0.545
-593.996	10.843	-0.835	-0.641
-592.982	146.426	-0.434	0.586
-591.967	28.173	-0.538	0.456
-590.952	-144.006	-0.287	0.027
-589.938	214.002	0.423	0.672
-588.923	-68.186	0.822	-0.321
-587.909	800.000	-0.211	0.655
-586.894	26.130	0.519	-0.435
-585.879	197.796	0.599	-0.918
-584.865	-200.000	-0.113	-0.928
-583.850	335.056	0.175	0.340
-582.836	232.157	-0.340	0.560
-581.821	-185.137	-0.716	-0.011
-580.806	-64.597	0.375	-0.153
-579.792	-8.061	-0.459	0.310
-578.777	-200.000	0.027	0.536
-577.763	-84.497	-0.887	0.281
-576.748	-200.000	-0.004	0.124
-575.733	94.221	-0.239	0.272
-574.719	-50.730	0.905	0.427
-573.704	-101.756	-0.065	0.016
-572.690	-105.823	-0.617	0.140
-571.675	272.393	-0.437	-0.774
-570.661	94.145	0.344	-0.392
-569.646	94.962	-0.270	-0.308
-568.631	-106.467	0.089	-0.020
-567.617	43.269	0.249	0.228
-566.602	238.493	-0.106	-0.177
-565.588	726.185	-0.240	-0.641
-564.573	-200.000	-0.030	-0.656
-563.558	351.444	-0.102	0.203
-562.544	25.734	0.163	0.136
-561.529	-112.496	0.329	-0.066
-560.515	317.539	0.377	-0.715
-559.500	527.678	-0.339	0.800
-558.485	123.679	0.185	0.232
-557.471	-107.841	-0.363	0.079
-556.456	-200.000	0.006	-0.148
-555.442	-83.635	0.359	-0.115
-554.427	46.982	0.427	0.398
-553.412	714.726	0.144	0.382
-552.398	56.604	-0.414	0.404
-551.383	516.500	-0.518	-1.214
-550.369	46.357	-0.133	-0.124
-549.354	23.789	-0.466	0.385
-548.339	-200.000	-0.002	-0.269
-547.325	-56.716	1.080	-0.479
-546.310	-84.306	0.691	-0.219
-545.296	-34.195	0.975	-0.537
-544.281	-48.687	1.022	0.492
-543.266	136.837	0.353	0.462
-542.252	-134.902	0.623	0.076
-541.237	-7.069	-0.575	0.391
-540.223	-200.000	-0.027	-0.251
-539.208	-138.370	0.433	0.048
-538.193	248.814	-0.225	0.382
-537.179	800.000	0.099	0.342
-536.164	-93.776	0.986	-0.272
-535.150	35.498	-0.863	0.759
-534.135	321.866	0.372	-0.709
-533.121	-200.000	0.132	0.595
-532.106	-56.812	0.307	-0.136
-531.091	-35.436	0.680	0.370
-530.077	-200.000	-0.003	0.329
-529.062	625.248	-0.220	0.555
-528.048	163.180	0.166	-0.234
-527.033	800.000	-0.155	-0.626
-526.018	46.199	-0.736	-0.683
-525.004	3.915	-0.616	-0.451
-523.989	75.856	0.334	-0.354
-522.975	9.953	0.483	0.367
-521.960	-61.627	0.324	0.136
-520.945	-200.000	0.005	-1.184
-519.931	-200.000	-0.039	0.705
-518.916	800.000	-0.351	-1.051
-517.902	-36.534	-0.295	-0.159
-516.887	800.000	0.300	-1.223
-515.872	726.751	0.093	-0.249
-514.858	-36.800	-0.728	-0.391
-513.843	-66.174	-0.214	0.085
-512.829	79.276	-0.090	0.097
-511.814	-80.142	0.245	-0.082
-510.799	-61.742	-0.330	0.138
-509.785	-200.000	0.151	0.833
-508.770	52.538	-0.235	-0.224
-507.756	-197.277	0.439	-0.003
-506.741	16.419	0.618	-0.488
-505.726	-33.431	-0.384	0.212
-504.712	-53.599	0.458	0.210
-503.697	-52.538	-0.346	0.160
-502.683	-17.964	0.391	-0.245
-501.668	-39.026	-0.220	-0.116
-500.653	800.000	-0.224	0.853
-499.639	-150.702	0.605	0.046
-498.624	4.732	0.298	0.219
-497.610	800.000	0.098	-0.376
-496.595	-125.018	0.054	0.008
-495.581	65.223	0.328	-0.331
-494.566	203.069	-0.205	0.317
-493.551	-200.000	0.010	-0.457
-492.537	-157.362	0.191	-0.012
-491.522	203.308	-0.292	-0.452
-490.508	-200.000	0.028	-0.304
-489.493	155.135	-0.384	-0.529
-488.478	-91.223	0.224	-0.064
-487.464	-200.000	0.037	0.645
-486.449	64.872	-0.698	0.704
-485.435	-26.186	0.400	-0.235
-484.420	-33.150	-0.436	0.242
-483.405	737.173	-0.190	0.510
-482.391	-101.653	0.746	0.181
-481.376	-132.658	0.340	-0.044
-480.362	-28.479	-1.174	-0.677
-479.347	-73.593	0.795	0.290
-478.332	551.329	0.327	-0.785
-477.318	-109.714	0.425	-0.089
-476.303	102.475	-0.267	-0.312
-475.289	117.943	-0.265	0.327
-474.274	-42.978	0.660	0.335
-473.259	-200.000	-0.023	-0.533
-472.245	-200.000	-0.062	-0.542
-471.230	99.570	0.300	-0.347
-470.216	327.304	0.433	-0.829
-469.201	144.628	0.027	-0.037
-468.186	263.305	-0.240	0.417
-467.172	270.841	-0.335	0.589
-466.157	800.000	-0.106	0.458
-465.143	-14.884	0.143	-0.092
-464.128	41.938	-0.251	0.227
-463.113	74.246	-0.361	0.379
-462.099	286.196	0.255	-0.459
-461.084	800.000	0.391	1.247
-460.070	-27.708	0.611	0.354
-459.055	-107.592	0.706	0.154
-458.040	-75.658	0.669	0.237
-457.026	141.418	0.218	-0.289
-456.011	-200.000	-0.024	-0.237
-454.997	-200.000	0.012	0.197
-453.982	-190.459	0.408	-0.004
-452.968	-110.965	0.679	-0.139
-451.953	-100.659	-0.622	0.153
-450.938	-100.025	0.219	-0.055
-449.924	-117.696	-0.474	-0.085
-448.909	-200.000	0.111	-0.494
-447.895	-122.994	1.307	0.210
-446.880	-156.463	-0.454	-0.028
-445.865	752.626	-0.067	-0.181
-444.851	305.537	0.327	-0.606
-443.836	166.889	-0.096	-0.136
-442.822	-128.425	0.956	-0.136
-441.807	19.544	0.095	-0.076
-440.792	-8.772	0.685	0.458
-439.778	-3.936	-0.246	0.170
-438.763	-21.566	-0.220	0.134
-437.749	-200.000	0.111	-0.505
-436.734	480.918	0.056	0.126
-435.719	-200.000	0.014	-0.421
-434.705	-164.318	-0.555	0.025
-433.690	-200.000	-0.034	0.296
-432.676	-93.435	-0.677	0.187
-431.661	45.125	0.213	-0.196
-430.646	228.292	-0.164	0.267
-429.632	176.963	-0.213	-0.310
-428.617	-197.406	0.642	0.004
-427.603	93.801	0.227	-0.256
-426.588	-115.424	-0.490	0.092
-425.573	115.386	0.948	-1.155
-424.559	-200.000	-0.039	0.436
-423.544	-66.131	-0.137	0.055
-422.530	170.691	-0.348	0.497
-421.515	27.943	-0.293	0.247
-420.500	-200.000	0.038	-0.418
-419.486	-28.672	0.763	-0.438
-418.471	-155.041	-1.026	-0.067
-417.457	-71.203	0.541	0.203
-416.442	97.486	0.146	0.168
-415.428	-3.308	0.552	-0.384
-414.413	-41.553	0.443	-0.227
-413.398	-46.318	-0.314	0.154
-412.384	44.968	-0.676	-0.621
-411.369	520.035	-0.327	-0.765
-410.355	-30.756	0.814	-0.459
-409.340	518.768	-0.074	0.174
-408.325	240.848	-0.146	0.243
-407.311	-117.003	-0.807	0.147
-406.296	-200.000	-0.071	0.719
-405.282	41.094	0.199	-0.179
-404.267	-102.976	-0.558	-0.132
-403.252	800.000	-0.295	-0.981
-402.238	42.691	-0.422	0.383
-401.223	-200.000	0.047	-0.715
-400.209	195.231	-0.280	0.424
-399.194	-200.000	0.068	-0.521
-398.179	-200.000	-0.035	0.942
-397.165	537.437	-0.160	-0.378
-396.150	79.995	-0.242	-0.259
-395.136	25.847	-0.273	-0.226
-394.121	347.767	0.340	-0.668
-393.106	-122.219	-0.555	0.091
-392.092	372.019	0.124	-0.252
-391.077	428.702	-0.147	0.317
-390.063	-200.000	0.089	0.494
-389.048	-200.000	0.059	-1.002
-388.033	-80.163	-0.833	-0.278
-387.019	95.019	0.312	0.354
-386.004	32.084	0.678	0.582
-384.990	-160.496	0.870	-0.046
-383.975	800.000	-0.302	-1.108
-382.960	-200.000	0.021	0.675
-381.946	-37.179	0.544	0.290
-380.931	28.911	0.579	-0.489
-379.917	38.190	-0.670	-0.594
-378.902	91.260	0.565	0.632
-377.888	19.903	-0.505	-0.406
-376.873	0.934	0.470	0.336
-375.858	556.015	-0.066	-0.158
-374.844	-200.000	0.010	0.442
-373.829	-70.885	0.588	-0.221
-372.815	-19.425	0.698	-0.431
-371.800	-200.000	-0.050	0.261
-370.785	308.039	0.223	-0.415
-369.771	-179.804	0.613	0.013
-368.756	203.574	-0.467	0.719
-367.742	395.559	0.278	0.576
-366.727	45.341	-0.948	0.871
-365.712	-169.976	0.542	-0.019
-364.698	-166.024	-0.450	-0.019
-363.683	800.000	-0.244	-0.734
-362.669	-111.939	0.770	-0.155
-361.654	-200.000	0.054	-0.381
-360.639	562.254	-0.136	-0.327
-359.625	-25.497	0.445	0.262
-358.610	-3.050	-0.525	-0.365
-357.596	517.173	0.100	-0.232
-356.581	-156.670	0.491	-0.030
-355.566	163.571	0.306	-0.429
-354.552	-175.942	-0.380	0.010
-353.537	-69.687	0.182	-0.069
-352.523	-200.000	0.032	0.482
-351.508	-156.465	-0.126	-0.008
-350.493	-200.000	-0.055	0.398
-349.479	33.018	-0.738	0.636
-348.464	644.338	0.378	0.958
-347.450	297.134	-0.226	0.413
-346.435	-200.000	0.013	-0.408
-345.420	-165.178	0.309	0.014
-344.406	72.518	0.238	-0.247
-343.391	-135.905	0.535	0.063
-342.377	38.292	-0.340	-0.301
-341.362	-157.558	0.651	0.039
-340.348	800.000	-0.083	-0.257
-339.333	-24.198	-0.968	0.574
-338.318	-0.378	0.312	0.221
-337.304	183.094	-0.541	0.795
-336.289	1.135	0.241	-0.172
-335.275	-89.489	-0.705	-0.206
-334.260	-200.000	-0.006	-0.558
-333.245	-150.576	-0.447	-0.034
-332.231	-149.961	0.738	0.057
-331.216	-30.530	-0.996	-0.561
-330.202	18.381	0.229	-0.182
-329.187	-200.000	-0.045	0.278
-328.172	-200.000	0.011	0.068
-327.158	3.998	0.617	0.448
-326.143	-125.710	0.584	0.088
-325.129	-200.000	0.048	-0.621
-324.114	-200.000	0.073	1.113
-323.099	800.000	-0.313	-0.945
-322.085	740.354	-0.356	0.949
-321.070	584.308	-0.164	-0.401
-320.056	363.198	0.410	0.818
-319.041	295.284	-0.136	0.247
-318.026	-138.015	-0.387	0.043
-317.012	-200.000	-0.125	-0.556
-315.997	-83.394	-0.378	-0.121
-314.983	800.000	-0.135	-0.409
-313.968	-13.450	-0.385	0.248
-312.953	73.279	-0.574	0.596
-311.939	-31.188	0.351	-0.196
-310.924	-88.747	0.467	-0.138
-309.910	-41.701	-0.478	-0.244
-308.895	-2.870	0.367	0.255
-307.880	800.000	0.036	0.151
-306.866	-12.939	-0.391	0.253
-305.851	-126.644	-0.502	0.074
-304.837	-109.013	-0.683	-0.144
-303.822	-200.000	-0.048	0.348
-302.807	-18.248	0.379	-0.236
-301.793	-101.543	-0.284	0.069
-300.778	-200.000	-0.034	0.221
-299.764	2.253	0.549	-0.394
-298.749	-54.708	0.223	-0.100
-297.735	-25.584	-0.460	-0.270
-296.720	-160.863	-0.140	-0.007
-295.705	-129.621	-0.489	0.067
-294.691	789.629	0.232	-0.633
-293.676	-114.671	-1.075	0.204
-292.662	-200.000	0.190	-0.883
-291.647	-68.880	0.264	-0.101
-290.632	314.377	0.267	-0.499
-289.618	-200.000	0.058	0.351
-288.603	-106.311	-0.770	0.171
-287.589	710.622	0.194	0.509
-286.574	800.000	-0.128	-0.379
-285.559	800.000	0.265	0.900
-284.545	-62.814	-1.185	0.487
-283.530	-98.375	-0.719	0.183
-282.516	-27.903	1.007	0.579
-281.501	-165.590	-0.157	-0.007
-280.486	-12.697	-0.785	0.507
-279.472	759.491	-0.082	0.221
-278.457	-17.165	0.348	0.218
-277.443	-71.634	-0.499	-0.185
-276.428	-36.381	0.263	0.140
-275.413	-92.596	1.149	0.320
-274.399	-200.000	0.051	0.681
-273.384	59.109	0.364	-0.356
-272.370	335.371	-0.081	0.156
-271.355	-200.000	0.138	-0.839
-270.340	-157.142	0.543	-0.033
-269.326	-76.010	0.205	0.072
-268.311	-65.267	-0.664	0.265
-267.297	31.070	0.266	0.226
-266.282	-122.981	0.224	0.036
-265.267	180.396	-0.319	0.464
-264.253	800.000	0.091	0.279
-263.238	299.794	-0.215	-0.393
-262.224	-10.471	-0.271	0.178
-261.209	-200.000	-0.002	-0.034
-260.195	-200.000	0.020	0.306
-259.180	-5.185	-0.380	-0.259
-258.165	-200.000	0.142	-0.804
-257.151	-200.000	0.027	0.135
-256.136	-17.208	0.187	-0.117
-255.122	-73.967	0.518	-0.186
-254.107	-122.032	-0.384	-0.063
-253.092	-58.297	-0.688	0.297
-252.078	800.000	0.071	0.305
-251.063	-200.000	0.026	-0.630
-250.049	-104.241	-0.742	-0.171
-249.034	202.045	0.391	-0.597
-248.019	15.078	-0.281	0.218
-247.005	224.588	0.260	-0.416
-245.990	-200.000	0.067	1.372
-244.976	-26.218	-0.551	-0.320
-243.961	56.943	0.076	-0.073
-242.946	-200.000	-0.068	-0.491
-241.932	799.402	-0.282	-0.769
-240.917	94.412	0.229	0.258
-239.903	-200.000	0.209	1.011
-238.888	66.009	0.640	0.643
-237.873	514.275	0.233	0.539
-236.859	55.670	-0.494	-0.474
-235.844	-200.000	0.264	0.001
-234.830	800.000	-0.130	-0.478
-233.815	-36.845	-0.348	0.185
-232.800	-170.653	-1.218	-0.042
-231.786	200.765	0.186	0.283
-230.771	-129.458	0.666	0.091
-229.757	249.128	-0.556	-0.932
-228.742	59.380	0.260	0.253
-227.727	132.732	-0.611	0.780
-226.713	-200.000	0.095	0.599
-225.698	-74.896	0.503	-0.179
-224.684	550.515	0.230	0.546
-223.669	-94.627	1.096	0.295
-222.655	-200.000	0.070	-1.131
-221.640	544.013	0.390	0.921
-220.625	-131.444	0.573	0.075
-219.611	-99.597	0.765	-0.190
-218.596	-126.750	0.412	-0.060
-217.582	202.846	0.181	-0.276
-216.567	-50.006	-0.866	0.406
-215.552	-123.211	-0.808	-0.128
-214.538	1.004	-0.113	0.080
-213.523	800.000	-0.215	0.715
-212.509	31.985	0.322	0.274
-211.494	35.191	0.281	0.244
-210.479	-1.373	-0.136	-0.095
-209.465	112.161	0.450	0.538
-208.450	17.280	-0.356	-0.280
-207.436	-15.785	-0.852	-0.537
-206.421	67.370	-0.429	-0.433
-205.406	-54.001	-0.657	0.296
-204.392	145.247	0.381	0.505
-203.377	192.391	-0.499	0.744
-202.363	-151.943	-0.130	0.009
-201.348	10.155	-0.468	-0.352
-200.333	800.000	0.329	-0.955
-199.319	-18.888	-0.306	-0.188
-198.304	-120.890	0.407	0.068
-197.290	173.881	0.255	-0.364
-196.275	800.000	0.077	0.325
-195.260	163.673	-0.053	-0.074
-194.246	54.314	0.128	0.122
-193.231	800.000	0.019	-0.081
-192.217	765.953	0.087	-0.234
-191.202	66.076	-0.320	0.321
-190.187	64.816	0.587	-0.585
-189.173	-87.858	-0.821	-0.244
-188.158	-43.125	-0.366	0.183
-187.144	46.123	-0.388	-0.355
-186.129	-97.984	-0.282	-0.072
-185.114	-200.000	-0.043	0.196
-184.100	71.189	0.198	-0.203
-183.085	-88.195	-0.693	-0.205
-182.071	-200.000	-0.120	0.679
-181.056	192.672	-0.287	0.429
-180.042	-3.785	-0.541	-0.371
-179.027	-51.481	-0.368	0.170
-178.012	-200.000	0.058	-0.655
-176.998	184.385	0.229	-0.335
-175.983	-200.000	0.068	0.313
-174.969	310.949	0.312	-0.578
-173.954	162.260	0.440	0.609
-172.939	189.178	-0.240	0.356
-171.925	100.012	0.221	-0.253
-170.910	800.000	-0.024	-0.095
-169.896	-80.352	-0.296	-0.098
-168.881	-24.684	0.717	-0.421
-167.866	-25.919	0.210	0.122
-166.852	163.415	-0.233	0.323
-165.837	-11.460	-0.314	-0.204
-164.823	8.369	-0.355	0.263
-163.808	-200.000	-0.039	-0.179
-162.793	-86.584	-0.614	0.186
-161.779	0.703	0.697	0.493
-160.764	-200.000	0.126	0.934
-159.750	262.674	0.140	0.239
-158.735	718.497	0.314	-0.824
-157.720	-89.700	-0.427	0.124
-156.706	-150.546	-0.532	0.040
-155.691	800.000	0.152	0.449
-154.677	-200.000	-0.064	-0.694
-153.662	78.493	0.456	-0.481
-152.647	-200.000	0.009	0.253
-151.633	-51.167	0.328	0.152
-150.618	-163.885	0.377	0.017
-149.604	266.423	0.115	-0.199
-148.589	-161.272	0.408	0.021
-147.574	31.038	0.332	0.281
-146.560	543.635	0.481	-1.134
-145.545	482.084	-0.013	0.029
-144.531	94.124	0.408	0.457
-143.516	36.966	-0.240	0.210
-142.502	-66.764	-0.595	-0.232
-141.487	800.000	-0.048	0.152
-140.472	-200.000	0.021	0.671
-139.458	113.788	-0.294	0.352
-138.443	159.333	-0.362	-0.496
-137.429	-120.500	0.575	0.096
-136.414	-200.000	0.081	0.420
-135.399	-80.620	-0.423	-0.139
-134.385	-200.000	0.062	0.372
-133.370	-76.202	-0.304	-0.106
-132.356	191.407	0.136	0.202
-131.341	199.588	-0.238	-0.360
-130.326	33.454	-0.334	-0.286
-129.312	-26.506	-0.508	-0.293
-128.297	-32.439	0.732	-0.402
-127.283	165.628	0.308	-0.429
-126.268	-1.569	0.530	0.369
-125.253	800.000	-0.050	0.204
-124.239	86.525	-0.532	-0.578
-123.224	-200.000	-0.023	0.289
-122.210	205.391	-0.181	-0.277
-121.195	800.000	-0.043	0.148
