DTS Sentinel unit serial number:	SN413079Multiplexer serial number:	ORYXHardware model number:	OX4-SRSoftware version number:	ORYX F/W v4.00 Oryx Data Collector v3.7.2.0data status	okinstallation	princeton_trtdifferential loss correction	single-endedforward channel	channel 2reverse channel	N/Adate	2019/09/16time	06:59:35forward acquisition time	60.00reverse acquisition time	0.00gamma	496.2192k internal	0.2335k external	0.2335temperature offset calibration	0.9976default loss term (dB/km)	0.3790temperature slope calibration	1.0000multiplexer offset coefficient	1.0000multiplexer slope coefficient	1.0000fibre end	0.00T internal ref (°C)	27.37T ext. ref 1 (°C)	11.49T ext. ref 2 (°C)	21.78length (m)	temperature (°C)	Stokes	anti-Stokes-747.200	-150.418	0.409	-0.032
-746.185	-200.000	-0.008	-0.351
-745.171	279.430	0.106	-0.190
-744.156	3.917	0.192	-0.141
-743.142	-20.515	0.062	-0.038
-742.127	69.057	0.177	-0.182
-741.112	-23.427	0.228	0.138
-740.098	-124.364	-0.234	0.037
-739.083	-5.772	-0.265	-0.182
-738.069	125.062	-0.152	0.193
-737.054	-105.908	-0.246	0.056
-736.039	-81.057	-0.462	0.154
-735.025	32.341	-0.087	-0.075
-734.010	-96.969	0.216	-0.057
-732.996	167.831	-0.062	-0.088
-731.981	-103.317	0.267	0.063
-730.966	-75.116	-0.094	0.034
-729.952	69.537	-0.257	0.265
-728.937	-84.972	-0.210	-0.066
-727.923	24.233	-0.122	-0.101
-726.908	-89.877	-0.131	0.039
-725.894	-161.298	0.213	-0.011
-724.879	-108.718	-0.269	-0.058
-723.864	622.726	-0.077	0.195
-722.850	-200.000	-0.005	0.308
-721.835	15.478	-0.107	-0.084
-720.821	5.940	-0.131	0.098
-719.806	-116.194	0.147	0.027
-718.791	36.129	0.376	-0.332
-717.777	-200.000	-0.022	-0.251
-716.762	176.325	-0.079	-0.115
-715.748	-28.783	-0.060	0.035
-714.733	-200.000	0.032	0.143
-713.718	13.947	-0.288	0.225
-712.704	-112.505	-0.375	-0.075
-711.689	30.208	-0.214	0.183
-710.675	-110.523	0.157	0.033
-709.660	800.000	-0.071	0.232
-708.645	7.989	0.099	0.074
-707.631	37.265	-0.063	-0.056
-706.616	-56.601	-0.088	0.039
-705.602	-200.000	0.026	-0.238
-704.587	-200.000	-0.077	-0.364
-703.572	-99.752	0.518	-0.130
-702.558	-97.140	0.234	0.061
-701.543	-200.000	0.055	-0.345
-700.529	-43.663	0.062	0.031
-699.514	285.906	-0.142	-0.256
-698.499	-76.320	-0.259	-0.091
-697.485	-12.967	0.423	0.276
-696.470	41.853	0.153	-0.140
-695.456	-200.000	-0.020	0.149
-694.441	423.886	0.084	0.180
-693.426	-50.381	-0.308	-0.146
-692.412	151.994	-0.060	-0.082
-691.397	50.663	0.088	-0.083
-690.383	-28.495	0.275	0.159
-689.368	646.872	0.054	-0.137
-688.354	50.911	-0.215	0.204
-687.339	800.000	-0.097	0.273
-686.324	-90.863	-0.211	0.061
-685.310	-155.968	-0.153	-0.010
-684.295	244.183	0.170	-0.286
-683.281	-128.858	0.378	0.053
-682.266	-200.000	-0.001	-0.226
-681.251	-54.793	-0.137	0.062
-680.237	-143.442	-0.258	-0.025
-679.222	-174.586	-0.333	0.010
-678.208	333.551	-0.043	0.083
-677.193	533.547	-0.119	-0.282
-676.178	-27.288	-0.041	0.024
-675.164	306.185	-0.148	-0.276
-674.149	574.178	-0.100	-0.244
-673.135	-11.245	0.318	-0.210
-672.120	-200.000	0.002	0.192
-671.105	436.147	-0.025	-0.055
-670.091	-18.200	-0.237	0.148
-669.076	584.752	-0.067	0.165
-668.062	308.581	-0.134	-0.251
-667.047	94.557	0.022	0.025
-666.032	-166.689	-0.232	-0.010
-665.018	800.000	0.022	-0.090
-664.003	187.390	-0.253	-0.378
-662.989	-41.641	0.161	-0.083
-661.974	-200.000	0.025	0.338
-660.959	-200.000	0.038	-0.172
-659.945	-9.967	-0.104	0.069
-658.930	800.000	0.078	-0.245
-657.916	-200.000	0.010	0.121
-656.901	-200.000	-0.065	-0.320
-655.886	436.844	0.138	-0.301
-654.872	-78.980	-0.266	-0.090
-653.857	-38.558	0.188	0.099
-652.843	800.000	-0.052	0.217
-651.828	-200.000	-0.023	0.134
-650.814	459.391	-0.075	-0.166
-649.799	435.552	0.047	-0.101
-648.784	72.479	0.265	0.277
-647.770	15.041	-0.049	-0.039
-646.755	22.265	-0.111	-0.091
-645.741	-200.000	0.015	-0.232
-644.726	-200.000	0.011	0.078
-643.711	306.248	-0.073	0.136
-642.697	-53.886	0.348	0.159
-641.682	9.581	0.186	-0.141
-640.668	-163.776	0.214	-0.010
-639.653	195.128	0.078	0.119
-638.638	-145.059	-0.238	0.022
-637.624	-118.419	-0.079	-0.014
-636.609	75.449	0.178	0.188
-635.595	-200.000	0.012	-0.169
-634.580	-125.235	0.099	-0.015
-633.565	-119.904	-0.368	-0.063
-632.551	-200.000	0.038	-0.177
-631.536	-200.000	0.010	0.076
-630.522	4.586	-0.103	-0.076
-629.507	490.319	-0.148	-0.338
-628.492	-200.000	-0.026	0.145
-627.478	800.000	-0.036	0.141
-626.463	20.266	-0.085	0.068
-625.449	-19.435	0.248	0.154
-624.434	148.956	0.045	-0.061
-623.419	-200.000	0.011	-0.251
-622.405	372.218	-0.058	0.118
-621.390	-127.420	-0.020	-0.003
-620.376	800.000	-0.044	0.142
-619.361	-200.000	-0.028	-0.147
-618.346	-200.000	-0.024	-0.199
-617.332	54.903	-0.101	-0.097
-616.317	-92.934	-0.228	-0.064
-615.303	187.186	0.111	-0.165
-614.288	-61.087	0.111	0.047
-613.273	135.963	0.253	-0.330
-612.259	-200.000	-0.057	-0.361
-611.244	64.648	0.190	-0.191
-610.230	-10.521	-0.196	0.130
-609.215	-200.000	-0.132	0.000
-608.201	-80.951	-0.412	0.137
-607.186	-200.000	-0.084	0.396
-606.171	42.487	-0.171	0.155
-605.157	-200.000	0.025	0.273
-604.142	502.139	-0.146	0.336
-603.128	-134.456	-0.134	0.016
-602.113	-104.014	0.158	-0.037
-601.098	-104.393	-0.151	-0.035
-600.084	48.806	-0.107	-0.100
-599.069	77.427	0.218	0.232
-598.055	-77.653	-0.369	-0.128
-597.040	-100.556	0.121	0.030
-596.025	-14.054	-0.140	-0.090
-595.011	112.993	0.105	0.127
-593.996	-133.288	-0.538	0.068
-592.982	-200.000	0.005	0.429
-591.967	-69.140	0.228	0.088
-590.952	-200.000	-0.004	0.224
-589.938	42.919	-0.025	-0.023
-588.923	-82.460	0.170	-0.055
-587.909	259.037	-0.082	0.142
-586.894	800.000	-0.095	0.296
-585.879	-200.000	-0.007	0.045
-584.865	-200.000	0.024	0.412
-583.850	-84.694	-0.129	0.041
-582.836	800.000	-0.092	-0.366
-581.821	-50.051	-0.059	-0.028
-580.806	-200.000	0.006	0.182
-579.792	-7.914	-0.068	0.046
-578.777	-160.060	-0.139	-0.008
-577.763	48.801	0.224	0.210
-576.748	85.001	-0.157	0.172
-575.733	-26.356	0.035	0.021
-574.719	60.704	-0.369	-0.365
-573.704	215.787	0.171	0.271
-572.690	-161.746	-0.289	0.015
-571.675	800.000	-0.029	0.088
-570.661	-126.507	-0.305	-0.045
-569.646	-2.215	0.345	0.242
-568.631	16.283	-0.117	0.092
-567.617	475.710	0.131	0.295
-566.602	-144.927	0.132	-0.012
-565.588	-42.278	0.065	0.033
-564.573	76.610	0.167	-0.177
-563.558	-200.000	-0.057	-0.264
-562.544	800.000	-0.064	0.196
-561.529	-57.423	-0.237	0.104
-560.515	-30.062	0.062	0.035
-559.500	-97.985	-0.210	0.054
-558.485	-74.368	0.079	-0.029
-557.471	-5.116	-0.066	-0.046
-556.456	800.000	-0.091	0.344
-555.442	-200.000	-0.004	-0.085
-554.427	800.000	-0.014	0.049
-553.412	-200.000	-0.045	-0.309
-552.398	-200.000	-0.025	-0.111
-551.383	2.912	0.314	0.227
-550.369	-157.865	-0.126	0.007
-549.354	-130.230	0.223	0.030
-548.339	74.502	-0.165	0.173
-547.325	-109.914	0.082	0.017
-546.310	641.995	0.041	-0.103
-545.296	1.512	-0.336	0.241
-544.281	-7.062	-0.185	-0.125
-543.266	673.503	-0.140	0.361
-542.252	4.656	0.201	0.147
-541.237	-10.461	-0.213	0.141
-540.223	-200.000	0.014	-0.087
-539.208	-91.167	0.495	-0.141
-538.193	137.217	0.178	0.232
-537.179	-26.707	0.284	0.166
-536.164	4.190	-0.133	0.097
-535.150	754.341	-0.080	0.215
-534.135	-200.000	0.000	0.195
-533.121	-200.000	0.002	0.155
-532.106	330.918	-0.104	0.199
-531.091	-123.012	0.185	-0.030
-530.077	800.000	0.045	0.148
-529.062	46.386	-0.273	-0.253
-528.048	-200.000	0.004	0.227
-527.033	-90.614	0.208	-0.060
-526.018	800.000	-0.045	-0.151
-525.004	524.420	-0.149	0.350
-523.989	4.703	0.051	-0.038
-522.975	-32.804	0.099	-0.055
-521.960	-113.513	-0.137	-0.027
-520.945	288.154	-0.098	-0.177
-519.931	-87.215	0.090	0.027
-518.916	22.132	0.360	0.293
-517.902	-8.199	-0.268	-0.180
-516.887	-101.462	-0.132	-0.032
-515.872	-93.483	-0.272	-0.075
-514.858	-200.000	-0.041	0.332
-513.843	-18.786	-0.186	-0.115
-512.829	-200.000	0.006	-0.055
-511.814	220.001	-0.090	0.143
-510.799	109.592	-0.161	0.192
-509.785	108.296	-0.091	0.108
-508.770	-118.637	-0.173	-0.030
-507.756	-200.000	-0.017	0.215
-506.741	800.000	-0.028	-0.118
-505.726	-141.101	0.249	0.025
-504.712	-86.436	-0.362	-0.111
-503.697	-141.100	0.100	-0.010
-502.683	193.342	-0.129	0.195
-501.668	117.753	-0.110	-0.135
-500.653	-91.696	0.125	0.035
-499.639	-176.546	0.092	-0.002
-498.624	644.406	0.145	0.368
-497.610	-16.726	-0.249	-0.157
-496.595	491.339	0.047	0.107
-495.581	-32.369	0.151	-0.084
-494.566	-173.495	0.370	-0.011
-493.551	108.574	-0.324	-0.385
-492.537	-200.000	0.058	-0.291
-491.522	133.351	0.163	-0.210
-490.508	178.739	0.084	0.123
-489.493	-102.707	-0.380	0.090
-488.478	-138.426	-0.056	0.006
-487.464	203.501	0.133	0.204
-486.449	-89.128	0.215	-0.063
-485.435	262.307	-0.049	-0.085
-484.420	-200.000	-0.007	-0.067
-483.405	546.703	0.073	-0.174
-482.391	-200.000	-0.029	-0.163
-481.376	29.077	-0.164	-0.138
-480.362	582.616	0.098	0.240
-479.347	479.284	-0.015	-0.033
-478.332	-200.000	0.002	-0.065
-477.318	-60.644	0.136	0.057
-476.303	-56.476	0.239	0.105
-475.289	-72.525	0.146	-0.054
-474.274	-11.591	0.330	0.216
-473.259	-150.201	-0.112	0.009
-472.245	352.878	-0.115	0.226
-471.230	-200.000	0.001	0.090
-470.216	-200.000	0.033	-0.290
-469.201	463.988	-0.086	-0.192
-468.186	115.267	-0.161	-0.196
-467.172	-200.000	-0.012	-0.078
-466.157	-98.599	-0.379	-0.096
-465.143	-71.513	0.261	0.097
-464.128	301.174	-0.043	-0.080
-463.113	196.961	0.099	0.151
-462.099	-28.412	-0.222	-0.127
-461.084	383.357	-0.107	0.218
-460.070	800.000	-0.091	0.256
-459.055	-100.347	-0.272	0.067
-458.040	-197.414	0.124	0.001
-457.026	572.559	-0.153	0.371
-456.011	37.162	0.054	0.048
-454.997	-15.150	0.405	-0.258
-453.982	59.128	0.288	-0.281
-452.968	-99.688	0.207	0.052
-451.953	-62.740	0.204	-0.084
-450.938	134.683	0.146	-0.189
-449.924	-200.000	-0.019	-0.277
-448.909	143.642	-0.222	-0.294
-447.895	326.432	0.188	-0.358
-446.880	800.000	-0.096	-0.279
-445.865	440.137	-0.082	0.178
-444.851	-20.791	-0.269	0.164
-443.836	-200.000	-0.016	-0.311
-442.822	-54.735	0.372	0.167
-441.807	227.537	-0.234	0.378
-440.792	381.085	0.066	-0.134
-439.778	-200.000	0.002	-0.060
-438.763	16.448	-0.172	0.135
-437.749	33.236	-0.167	-0.144
-436.734	-120.284	0.200	-0.034
-435.719	655.862	-0.066	-0.169
-434.705	800.000	-0.057	-0.244
-433.690	-105.278	0.177	0.040
-432.676	-8.134	-0.109	0.073
-431.661	-106.868	-0.264	-0.058
-430.646	96.490	-0.200	-0.227
-429.632	635.859	0.094	-0.237
-428.617	-146.462	0.183	-0.016
-427.603	563.680	-0.069	-0.167
-426.588	-200.000	0.006	0.325
-425.573	16.726	-0.312	0.245
-424.559	-46.903	-0.271	-0.132
-423.544	-183.069	0.259	-0.005
-422.530	-102.832	-0.165	-0.039
-421.515	-33.770	-0.200	-0.109
-420.500	-126.926	0.150	-0.022
-419.486	-68.650	-0.391	0.150
-418.471	200.458	0.148	-0.226
-417.457	-200.000	-0.008	0.146
-416.442	800.000	0.097	0.311
-415.428	91.420	-0.081	0.090
-414.413	-59.974	-0.363	0.154
-413.398	-58.176	0.365	0.158
-412.384	-29.017	-0.288	-0.164
-411.369	-39.209	0.287	0.150
-410.355	14.169	-0.283	0.219
-409.340	-200.000	-0.051	0.277
-408.325	-31.867	-0.148	-0.082
-407.311	-147.844	0.353	0.029
-406.296	-200.000	-0.009	0.395
-405.282	800.000	-0.046	0.139
-404.267	-200.000	0.010	0.476
-403.252	-57.328	-0.406	0.177
-402.238	-25.781	0.251	0.147
-401.223	408.818	0.128	-0.268
-400.209	312.148	0.107	-0.199
-399.194	227.990	0.071	-0.115
-398.179	-83.328	-0.165	-0.052
-397.165	-200.000	-0.051	-0.231
-396.150	-64.648	0.278	0.112
-395.136	-200.000	0.017	-0.130
-394.121	46.347	0.259	-0.238
-393.106	-54.966	0.137	0.061
-392.092	-200.000	-0.032	0.489
-391.077	98.368	-0.108	-0.124
-390.063	248.873	0.113	0.190
-389.048	144.629	-0.030	-0.039
-388.033	-200.000	0.005	0.259
-387.019	-200.000	-0.010	0.190
-386.004	-183.267	0.334	0.006
-384.990	65.631	-0.094	0.095
-383.975	716.179	-0.012	0.032
-382.960	800.000	-0.037	0.144
-381.946	-105.206	-0.062	-0.014
-380.931	-200.000	0.012	-0.101
-379.917	-49.360	-0.117	0.055
-378.902	253.711	0.038	0.064
-377.888	-10.451	-0.314	-0.206
-376.873	225.386	0.090	0.145
-375.858	-72.838	0.399	0.145
-374.844	79.439	0.182	0.193
-373.829	391.752	0.080	0.165
-372.815	-106.192	0.177	-0.039
-371.800	57.349	0.306	0.295
-370.785	800.000	0.025	0.073
-369.771	180.453	0.147	0.214
-368.756	-5.544	0.135	-0.092
-367.742	-95.011	0.349	-0.093
-366.727	11.027	-0.143	-0.109
-365.712	19.805	-0.329	0.262
-364.698	299.142	-0.080	-0.145
-363.683	236.959	0.129	-0.212
-362.669	-99.185	-0.228	0.057
-361.654	-95.253	0.143	-0.038
-360.639	-200.000	-0.038	-0.266
-359.625	800.000	-0.106	-0.332
-358.610	-43.311	0.182	-0.091
-357.596	100.721	0.204	-0.235
-356.581	-101.426	-0.126	0.030
-355.566	-37.286	-0.052	-0.027
-354.552	800.000	-0.063	0.249
-353.537	-0.676	0.327	-0.229
-352.523	385.373	-0.206	-0.421
-351.508	39.791	0.091	0.080
-350.493	-200.000	0.017	0.092
-349.479	-14.069	0.187	-0.120
-348.464	-200.000	-0.001	0.196
-347.450	-159.992	0.481	0.026
-346.435	800.000	-0.079	0.266
-345.420	-118.077	-0.307	-0.054
-344.406	-63.018	0.113	0.046
-343.391	-10.722	0.074	0.048
-342.377	-200.000	-0.057	0.284
-341.362	-200.000	0.057	-0.253
-340.348	-69.472	0.343	-0.130
-339.333	800.000	-0.039	0.159
-338.318	433.867	-0.073	-0.157
-337.304	800.000	-0.188	-0.579
-336.289	492.021	0.099	-0.225
-335.275	-200.000	-0.004	-0.125
-334.260	-200.000	-0.068	-0.332
-333.245	-200.000	-0.046	-0.392
-332.231	794.096	0.062	-0.168
-331.216	-40.604	-0.209	-0.107
-330.202	-111.694	0.070	-0.014
-329.187	-200.000	-0.026	0.127
-328.172	800.000	-0.061	-0.216
-327.158	31.348	0.037	-0.031
-326.143	-36.949	0.415	-0.220
-325.129	-84.016	-0.462	-0.145
-324.114	356.457	-0.144	0.283
-323.099	-68.546	0.132	0.051
-322.085	59.663	0.126	-0.123
-321.070	30.009	0.299	0.252
-320.056	154.745	0.249	0.338
-319.041	155.373	0.220	0.299
-318.026	-58.070	0.169	-0.073
-317.012	319.943	-0.082	-0.154
-315.997	800.000	0.035	0.099
-314.983	-106.449	0.107	-0.024
-313.968	-200.000	-0.046	-0.225
-312.953	21.540	0.077	0.062
-311.939	7.053	-0.094	-0.069
-310.924	-118.486	0.153	0.027
-309.910	-142.435	-0.016	0.002
-308.895	63.411	-0.091	-0.090
-307.880	-200.000	0.047	0.294
-306.866	27.097	-0.132	0.109
-305.851	0.029	-0.183	-0.129
-304.837	-148.990	-0.295	0.023
-303.822	54.466	0.073	0.069
-302.807	434.327	-0.036	0.077
-301.793	-33.131	0.193	0.106
-300.778	187.628	0.186	0.274
-299.764	-22.475	-0.308	-0.184
-298.749	-200.000	-0.015	-0.210
-297.735	51.258	0.156	-0.147
-296.720	64.407	-0.269	-0.267
-295.705	185.477	-0.168	0.247
-294.691	-25.436	-0.272	0.159
-293.676	200.813	-0.075	-0.114
-292.662	-200.000	0.004	0.045
-291.647	-126.593	0.444	0.065
-290.632	-200.000	-0.072	-0.593
-289.618	7.682	-0.158	0.117
-288.603	-50.932	0.323	0.150
-287.589	800.000	-0.042	-0.143
-286.574	-174.619	-0.231	-0.007
-285.559	-0.447	-0.193	0.135
-284.545	101.820	0.183	-0.210
-283.530	-200.000	0.031	-0.164
-282.516	449.395	0.057	-0.124
-281.501	145.383	0.070	0.093
-280.486	-117.604	0.219	0.039
-279.472	-94.527	0.077	0.021
-278.457	-17.301	-0.255	0.158
-277.443	-93.828	-0.117	-0.032
-276.428	171.115	-0.109	-0.154
-275.413	26.306	0.293	0.241
-274.399	488.183	0.069	0.155
-273.384	-200.000	-0.018	-0.107
-272.370	-13.632	0.402	-0.257
-271.355	-189.775	0.095	0.001
-270.340	-127.835	-0.184	0.026
-269.326	-200.000	-0.047	0.265
-268.311	-39.679	0.278	0.144
-267.297	-133.083	-0.186	-0.023
-266.282	-200.000	-0.056	0.272
-265.267	-91.103	0.145	0.041
-264.253	30.530	-0.218	-0.184
-263.238	91.180	-0.187	-0.207
-262.224	77.474	0.140	0.147
-261.209	29.168	0.124	-0.104
-260.195	-43.663	0.249	-0.124
-259.180	183.868	0.160	-0.233
-258.165	-54.641	0.330	-0.147
-257.151	-200.000	-0.011	0.187
-256.136	329.417	-0.067	-0.127
-255.122	33.782	0.119	0.102
-254.107	-79.682	0.138	-0.046
-253.092	-80.040	-0.217	-0.072
-252.078	12.677	0.272	-0.207
-251.063	-94.478	-0.224	0.060
-250.049	-200.000	0.042	0.249
-249.034	135.910	-0.220	-0.282
-248.019	-200.000	0.014	-0.245
-247.005	-125.008	-0.014	-0.002
-245.990	-41.535	0.129	0.065
-244.976	111.348	0.131	0.156
-243.961	-132.883	-0.146	-0.018
-242.946	324.457	-0.069	0.130
-241.932	-117.521	-0.323	0.058
-240.917	-7.023	0.297	0.199
-239.903	30.452	-0.196	-0.165
-238.888	191.281	-0.193	-0.286
-237.873	27.727	-0.247	0.205
-236.859	-163.959	-0.090	-0.004
-235.844	800.000	0.085	0.240
-234.830	-63.873	0.079	-0.032
-233.815	-174.440	-0.120	-0.003
-232.800	-48.638	0.707	-0.335
-231.786	-97.643	-0.070	0.018
-230.771	-77.730	-0.366	0.125
-229.757	742.759	0.054	0.143
-228.742	-200.000	0.006	-0.160
-227.727	-156.637	0.100	0.006
-226.713	-200.000	-0.017	-0.350
-225.698	-13.857	0.098	0.062
-224.684	31.189	-0.034	-0.028
-223.669	-200.000	0.054	0.330
-222.655	-73.174	-0.085	-0.031
-221.640	-63.540	-0.309	0.125
-220.625	91.205	-0.059	-0.065
-219.611	-128.941	0.323	0.045
-218.596	-200.000	0.005	0.027
-217.582	800.000	-0.046	-0.134
-216.567	221.909	0.085	0.134
-215.552	288.198	0.156	-0.279
-214.538	-200.000	-0.014	-0.083
-213.523	187.834	0.176	-0.258
-212.509	-107.881	0.470	0.101
-211.494	-68.078	0.246	-0.094
-210.479	-129.180	0.359	0.049
-209.465	413.786	0.044	0.093
-208.450	-77.065	-0.482	-0.165
-207.436	800.000	-0.055	0.184
-206.421	87.425	0.227	-0.247
-205.406	793.544	0.092	-0.248
-204.392	-200.000	-0.040	-0.341
-203.377	-142.985	-0.003	-0.000
-202.363	17.178	0.207	0.162
-201.348	-103.710	-0.175	0.040
-200.333	-102.456	-0.164	0.039
-199.319	247.645	0.101	0.167
-198.304	-84.052	0.283	-0.089
-197.290	251.420	-0.149	-0.249
-196.275	-144.181	0.163	0.015
-195.260	-200.000	-0.010	-0.214
-194.246	602.184	-0.095	-0.233
-193.231	558.371	-0.040	0.094
-192.217	-200.000	0.017	-0.117
-191.202	138.068	0.136	-0.175
-190.187	557.135	-0.141	-0.333
-189.173	-70.242	-0.112	-0.042
-188.158	-41.405	-0.352	-0.178
-187.144	-50.019	-0.112	0.052
-186.129	-84.896	0.233	0.072
-185.114	-55.548	-0.209	-0.092
-184.100	800.000	-0.028	0.079
-183.085	800.000	-0.009	-0.026
-182.071	-39.842	-0.208	-0.107
-181.056	64.202	0.107	-0.106
-180.042	50.966	-0.150	-0.140
-179.027	-200.000	0.011	-0.077
-178.012	430.569	-0.077	-0.163
-176.998	117.743	0.076	0.092
-175.983	-170.385	0.320	0.011
-174.969	-200.000	0.055	-0.324
-173.954	17.762	-0.162	-0.127
-172.939	-200.000	-0.019	0.143
-171.925	186.534	-0.205	0.299
-170.910	413.184	-0.127	0.265
-169.896	168.146	-0.253	-0.353
-168.881	800.000	-0.069	-0.206
-167.866	150.845	0.100	-0.133
-166.852	60.676	-0.108	0.105
-165.837	-134.771	-0.336	-0.040
-164.823	480.325	0.051	-0.113
-163.808	-69.823	0.188	-0.071
-162.793	46.271	0.199	0.181
-161.779	-38.620	-0.089	0.046
-160.764	-95.358	0.132	0.035
-159.750	-39.998	0.210	-0.107
-158.735	-70.187	0.113	-0.042
-157.720	307.568	-0.063	-0.116
-156.706	-10.229	-0.098	0.064
-155.691	556.878	-0.094	0.222
-154.677	215.258	0.046	0.072
-153.662	-200.000	0.010	-0.123
-152.647	800.000	-0.056	-0.156
-151.633	390.376	-0.094	0.192
-150.618	450.805	-0.028	0.060
-149.604	-200.000	-0.008	0.199
-148.589	733.102	0.056	-0.146
-147.574	-145.707	-0.056	0.005
-146.560	-200.000	0.003	0.164
-145.545	614.695	0.103	0.254
-144.531	9.411	-0.152	0.113
-143.516	131.870	-0.113	0.143
-142.502	52.581	0.465	0.436
-141.487	378.615	0.111	0.224
-140.472	79.381	-0.061	0.065
-139.458	-23.960	0.141	0.083
-138.443	800.000	-0.035	-0.127
-137.429	-21.778	-0.387	-0.231
-136.414	8.986	0.138	-0.102
-135.399	-42.372	-0.174	-0.087
-134.385	234.137	-0.062	0.100
-133.370	-57.232	-0.394	0.170
-132.356	-150.322	0.345	0.026
-131.341	91.925	-0.199	-0.220
-130.326	-200.000	0.056	-0.243
-129.312	-92.015	0.230	0.064
-128.297	-14.842	-0.262	0.165
-127.283	-200.000	-0.001	-0.013
-126.268	-200.000	-0.056	0.260
-125.253	-200.000	0.049	-0.258
-124.239	-200.000	0.003	0.094
-123.224	-200.000	0.038	0.222
-122.210	56.864	0.008	0.008
