DTS Sentinel unit serial number:	SN413079Multiplexer serial number:	ORYXHardware model number:	OX4-SRSoftware version number:	ORYX F/W v4.00 Oryx Data Collector v3.7.2.0data status	okinstallation	princeton_trtdifferential loss correction	single-endedforward channel	channel 2reverse channel	N/Adate	2019/09/14time	10:59:35forward acquisition time	60.00reverse acquisition time	0.00gamma	496.2192k internal	0.2313k external	0.2313temperature offset calibration	1.0145default loss term (dB/km)	0.3790temperature slope calibration	1.0000multiplexer offset coefficient	1.0000multiplexer slope coefficient	1.0000fibre end	0.00T internal ref (°C)	35.97T ext. ref 1 (°C)	4.36T ext. ref 2 (°C)	33.81length (m)	temperature (°C)	Stokes	anti-Stokes-747.200	-200.000	-0.028	0.183
-746.185	286.392	0.139	0.255
-745.171	-108.540	0.241	0.053
-744.156	-200.000	-0.023	0.196
-743.142	-93.238	0.228	-0.064
-742.127	185.148	-0.037	0.056
-741.112	215.928	-0.054	-0.087
-740.098	-41.766	-0.160	0.083
-739.083	-102.570	0.230	-0.056
-738.069	215.697	0.101	0.163
-737.054	66.591	-0.074	0.076
-736.039	-41.375	-0.206	-0.107
-735.025	242.005	0.126	0.214
-734.010	-42.914	-0.401	-0.206
-732.996	-19.281	-0.340	-0.214
-731.981	314.286	0.124	0.237
-730.966	800.000	-0.048	0.204
-729.952	800.000	-0.047	-0.173
-728.937	-17.680	-0.288	0.183
-727.923	-200.000	0.010	0.185
-726.908	-52.555	0.114	-0.054
-725.894	-200.000	0.001	-0.253
-724.879	104.471	-0.091	0.108
-723.864	800.000	-0.124	0.361
-722.850	360.233	-0.075	-0.152
-721.835	-114.088	-0.240	-0.047
-720.821	-25.377	-0.179	-0.107
-719.806	-78.359	0.068	-0.023
-718.791	-116.365	0.116	0.022
-717.777	60.956	-0.201	-0.202
-716.762	-53.625	-0.515	-0.239
-715.748	-91.449	0.237	0.069
-714.733	-11.945	-0.198	0.131
-713.718	-74.288	-0.190	-0.070
-712.704	44.549	-0.276	0.256
-711.689	-127.230	-0.288	0.043
-710.675	9.800	0.096	-0.073
-709.660	-87.655	-0.234	0.071
-708.645	88.208	0.141	0.158
-707.631	64.669	0.319	0.326
-706.616	800.000	0.052	0.162
-705.602	-24.136	0.139	-0.084
-704.587	131.893	-0.260	-0.339
-703.572	103.604	0.068	0.080
-702.558	-200.000	-0.020	-0.287
-701.543	-85.106	0.237	-0.075
-700.529	-190.729	0.351	0.004
-699.514	196.360	-0.108	-0.167
-698.499	-200.000	0.024	-0.138
-697.485	-49.014	-0.140	0.068
-696.470	113.646	0.084	0.104
-695.456	158.726	0.141	0.199
-694.441	-200.000	-0.007	0.139
-693.426	315.720	-0.029	0.056
-692.412	287.745	0.117	-0.214
-691.397	72.466	0.121	0.128
-690.383	75.668	0.094	-0.100
-689.368	-125.832	-0.061	-0.009
-688.354	486.989	-0.150	-0.346
-687.339	800.000	-0.120	-0.398
-686.324	24.478	-0.304	0.255
-685.310	106.677	0.064	0.076
-684.295	-200.000	-0.038	-0.235
-683.281	-132.953	-0.486	-0.062
-682.266	-200.000	0.042	0.198
-681.251	-26.048	-0.322	-0.192
-680.237	-74.620	0.225	-0.082
-679.222	-40.688	0.249	0.131
-678.208	-10.102	-0.219	0.147
-677.193	800.000	0.057	-0.234
-676.178	-200.000	0.020	0.186
-675.164	-44.856	-0.142	0.072
-674.149	-200.000	-0.076	-0.496
-673.135	-121.201	-0.045	0.008
-672.120	-63.642	-0.174	-0.072
-671.105	-200.000	0.012	-0.323
-670.091	-98.776	0.402	0.104
-669.076	239.219	-0.264	0.445
-668.062	210.536	-0.198	0.314
-667.047	497.672	-0.130	-0.301
-666.032	-164.105	0.176	0.008
-665.018	-200.000	-0.041	0.326
-664.003	299.858	-0.172	0.321
-662.989	273.192	0.018	-0.032
-661.974	-111.789	-0.087	-0.018
-660.959	800.000	0.063	0.180
-659.945	37.651	0.139	0.125
-658.930	31.839	0.074	0.065
-657.916	-161.208	0.402	0.021
-656.901	-107.776	-0.227	0.050
-655.886	-200.000	-0.031	-0.142
-654.872	-89.121	0.118	0.035
-653.857	106.974	0.269	-0.322
-652.843	172.558	0.133	0.193
-651.828	-195.515	-0.350	0.003
-650.814	-200.000	0.101	0.465
-649.799	-200.000	0.007	0.192
-648.784	-32.225	-0.235	-0.133
-647.770	-91.896	0.132	0.038
-646.755	743.749	-0.192	-0.521
-645.741	800.000	0.056	0.219
-644.726	-14.029	0.144	-0.094
-643.711	468.208	0.029	-0.065
-642.697	800.000	0.028	0.102
-641.682	-200.000	-0.019	0.188
-640.668	800.000	0.086	0.258
-639.653	-178.715	0.029	0.001
-638.638	620.434	0.027	-0.068
-637.624	231.220	0.125	-0.208
-636.609	-137.432	-0.101	0.012
-635.595	149.540	-0.019	-0.026
-634.580	-59.413	0.082	-0.036
-633.565	47.083	-0.166	-0.156
-632.551	182.365	-0.081	0.120
-631.536	277.744	-0.093	-0.167
-630.522	0.169	0.160	0.115
-629.507	-200.000	-0.009	-0.151
-628.492	800.000	-0.088	0.264
-627.478	-65.666	0.322	-0.130
-626.463	301.327	-0.092	-0.172
-625.449	-48.918	0.218	0.106
-624.434	68.966	-0.068	-0.071
-623.419	437.437	-0.138	-0.304
-622.405	-121.357	-0.402	0.068
-621.390	-123.471	0.316	-0.051
-620.376	-200.000	0.027	-0.249
-619.361	-105.514	0.206	0.047
-618.346	-200.000	-0.024	-0.276
-617.332	800.000	0.063	0.185
-616.317	26.341	-0.118	-0.100
-615.303	-153.364	-0.153	-0.011
-614.288	-151.551	-0.340	-0.025
-613.273	800.000	0.047	-0.189
-612.259	175.240	0.064	0.093
-611.244	145.013	0.064	-0.087
-610.230	-42.889	0.232	0.119
-609.215	-101.605	-0.141	0.034
-608.201	669.894	0.033	-0.085
-607.186	-200.000	0.012	0.067
-606.171	482.043	0.284	-0.652
-605.157	-140.501	0.183	0.019
-604.142	-30.549	0.163	-0.093
-603.128	-51.497	-0.272	0.128
-602.113	-69.080	-0.295	0.115
-601.098	-57.870	0.138	-0.061
-600.084	-30.411	-0.292	0.167
-599.069	-14.683	0.142	0.092
-598.055	-146.856	0.126	0.011
-597.040	302.023	-0.127	0.236
-596.025	67.146	-0.071	0.073
-595.011	696.396	-0.093	0.246
-593.996	-200.000	0.008	0.124
-592.982	-187.473	-0.082	-0.001
-591.967	800.000	0.083	0.328
-590.952	800.000	-0.024	0.089
-589.938	-40.034	-0.365	0.192
-588.923	785.363	-0.073	0.203
-587.909	99.254	-0.097	-0.113
-586.894	183.338	-0.077	0.115
-585.879	-200.000	0.005	0.150
-584.865	-61.945	0.166	-0.070
-583.850	319.548	-0.143	0.273
-582.836	-65.845	0.262	-0.106
-581.821	-106.319	0.037	0.008
-580.806	170.919	-0.196	-0.283
-579.792	312.202	0.184	-0.349
-578.777	-144.190	-0.371	-0.035
-577.763	115.071	0.144	0.177
-576.748	800.000	-0.036	0.112
-575.733	69.673	0.070	0.072
-574.719	-200.000	-0.043	-0.315
-573.704	-76.851	0.125	0.044
-572.690	-200.000	0.016	-0.106
-571.675	448.009	0.095	0.210
-570.661	-176.206	0.171	0.005
-569.646	735.195	0.017	-0.045
-568.631	115.423	-0.030	-0.037
-567.617	-170.707	-0.263	0.009
-566.602	402.935	0.094	-0.198
-565.588	-172.938	-0.168	-0.005
-564.573	-143.941	0.174	-0.017
-563.558	-26.140	0.051	0.030
-562.544	525.293	0.078	-0.186
-561.529	-153.689	-0.111	0.008
-560.515	-160.580	0.250	-0.013
-559.500	207.441	0.105	0.164
-558.485	-200.000	0.013	-0.249
-557.471	-200.000	0.016	-0.280
-556.456	85.213	0.191	0.211
-555.442	800.000	0.114	0.336
-554.427	423.415	-0.029	0.064
-553.412	-39.224	-0.275	-0.145
-552.398	800.000	-0.109	-0.345
-551.383	-200.000	0.019	-0.186
-550.369	-48.870	0.055	-0.027
-549.354	24.561	-0.078	0.065
-548.339	-200.000	0.072	0.422
-547.325	-148.699	0.091	-0.007
-546.310	-200.000	-0.040	0.427
-545.296	56.851	-0.164	-0.161
-544.281	80.086	0.316	-0.341
-543.266	244.610	-0.077	0.130
-542.252	-46.520	0.207	0.102
-541.237	-133.430	0.312	-0.040
-540.223	800.000	0.039	0.159
-539.208	-10.063	0.176	0.118
-538.193	430.285	0.193	-0.421
-537.179	-83.233	-0.075	0.024
-536.164	-106.548	-0.390	-0.087
-535.150	719.671	-0.033	-0.088
-534.135	-118.197	0.109	0.020
-533.121	166.795	-0.048	0.069
-532.106	-99.658	-0.124	-0.031
-531.091	-54.059	0.415	0.190
-530.077	-71.753	0.136	-0.051
-529.062	-186.305	0.149	0.002
-528.048	-200.000	0.007	-0.135
-527.033	161.847	-0.080	-0.113
-526.018	290.405	0.097	0.177
-525.004	-200.000	0.041	-0.237
-523.989	187.937	0.056	0.084
-522.975	-35.867	-0.168	0.091
-521.960	184.892	0.186	-0.278
-520.945	-123.384	-0.090	-0.014
-519.931	-104.570	0.237	-0.055
-518.916	-200.000	-0.018	0.148
-517.902	800.000	-0.084	-0.320
-516.887	-66.684	-0.257	-0.103
-515.872	800.000	0.052	-0.185
-514.858	-154.594	0.289	-0.019
-513.843	27.230	-0.115	0.097
-512.829	272.111	-0.095	0.169
-511.814	208.053	0.204	-0.321
-510.799	-159.153	0.080	0.005
-509.785	-45.880	-0.318	0.158
-508.770	-14.713	-0.104	0.067
-507.756	-95.151	-0.138	0.037
-506.741	-27.744	0.245	0.143
-505.726	56.887	-0.214	-0.210
-504.712	-143.649	-0.257	0.025
-503.697	-42.240	0.184	-0.095
-502.683	211.482	0.030	0.048
-501.668	-200.000	0.000	0.165
-500.653	-200.000	-0.005	0.143
-499.639	-200.000	-0.006	-0.065
-498.624	63.800	0.273	0.276
-497.610	30.298	0.045	0.039
-496.595	777.209	-0.016	0.045
-495.581	-180.302	0.286	0.006
-494.566	-200.000	0.010	0.109
-493.551	96.357	-0.348	-0.400
-492.537	368.397	-0.039	0.080
-491.522	-24.073	0.308	0.185
-490.508	800.000	-0.043	0.127
-489.493	-3.707	-0.148	0.103
-488.478	-200.000	-0.025	0.117
-487.464	-85.842	-0.050	-0.016
-486.449	800.000	0.030	-0.108
-485.435	455.348	0.074	0.165
-484.420	-12.927	0.180	0.118
-483.405	238.161	0.058	-0.097
-482.391	500.234	-0.085	-0.198
-481.376	402.848	0.076	-0.160
-480.362	-200.000	-0.038	0.243
-479.347	57.775	0.223	0.219
-478.332	539.209	0.135	-0.323
-477.318	1.609	-0.319	-0.230
-476.303	183.530	-0.142	0.210
-475.289	-200.000	-0.000	-0.219
-474.274	37.983	-0.244	-0.217
-473.259	6.272	-0.124	-0.092
-472.245	-200.000	-0.000	-0.152
-471.230	-129.153	-0.451	0.063
-470.216	-104.306	0.161	-0.037
-469.201	78.832	0.015	-0.016
-468.186	-66.863	-0.352	0.140
-467.172	800.000	0.030	-0.090
-466.157	-19.302	-0.251	-0.156
-465.143	67.796	-0.090	-0.092
-464.128	-123.273	-0.232	-0.037
-463.113	-74.872	0.059	0.021
-462.099	128.938	-0.212	0.271
-461.084	-82.658	-0.269	0.087
-460.070	-158.576	-0.275	-0.016
-459.055	-91.608	0.363	-0.104
-458.040	20.889	-0.269	-0.219
-457.026	-200.000	0.063	-0.280
-456.011	-200.000	-0.010	-0.228
-454.997	800.000	0.042	0.126
-453.982	52.259	0.122	0.117
-452.968	-133.994	0.119	-0.015
-451.953	732.609	-0.079	-0.211
-450.938	-200.000	-0.011	0.114
-449.924	-110.261	0.133	0.028
-448.909	-82.046	0.317	0.104
-447.895	-200.000	0.034	-0.161
-446.880	76.178	-0.353	0.375
-445.865	-27.799	-0.151	0.088
-444.851	-135.682	0.286	-0.034
-443.836	148.140	0.133	0.180
-442.822	-200.000	0.061	-0.299
-441.807	-200.000	-0.035	0.219
-440.792	-200.000	0.014	-0.084
-439.778	-200.000	-0.021	-0.138
-438.763	-125.230	0.326	-0.050
-437.749	-61.138	-0.045	-0.019
-436.734	800.000	0.025	-0.094
-435.719	800.000	0.026	-0.097
-434.705	180.245	-0.085	0.126
-433.690	-98.592	-0.098	0.025
-432.676	192.763	0.086	0.131
-431.661	-200.000	-0.001	0.165
-430.646	-5.101	0.181	0.124
-429.632	70.515	0.106	-0.110
-428.617	2.575	-0.303	0.220
-427.603	625.047	0.008	0.020
-426.588	-145.298	0.107	0.010
-425.573	-64.344	0.330	-0.134
-424.559	3.594	0.034	-0.025
-423.544	-12.779	-0.229	0.150
-422.530	-98.142	0.119	0.031
-421.515	-101.838	0.120	0.029
-420.500	198.575	0.053	-0.081
-419.486	-182.093	0.152	-0.003
-418.471	-23.639	-0.136	-0.082
-417.457	-200.000	-0.017	-0.412
-416.442	19.414	0.135	-0.109
-415.428	7.277	0.208	-0.155
-414.413	-101.656	0.099	0.024
-413.398	-99.411	0.066	0.017
-412.384	-200.000	-0.007	0.167
-411.369	-200.000	0.004	0.039
-410.355	20.887	0.183	0.148
-409.340	-28.832	0.164	0.094
-408.325	-61.427	-0.121	-0.051
-407.311	-200.000	0.027	-0.365
-406.296	-38.769	-0.319	0.169
-405.282	-75.386	-0.101	0.036
-404.267	800.000	-0.029	-0.080
-403.252	-200.000	-0.007	-0.237
-402.238	404.341	-0.073	0.155
-401.223	59.261	0.226	-0.223
-400.209	-28.628	0.134	0.077
-399.194	-200.000	0.002	-0.172
-398.179	-38.503	-0.246	0.130
-397.165	-73.173	0.115	-0.042
-396.150	286.446	-0.078	-0.140
-395.136	-91.974	0.222	-0.063
-394.121	647.837	0.159	0.405
-393.106	-87.355	-0.178	0.054
-392.092	-200.000	-0.030	-0.143
-391.077	-28.525	-0.144	0.083
-390.063	-29.731	-0.223	-0.127
-389.048	32.785	0.125	0.108
-388.033	194.211	-0.219	0.332
-387.019	-28.187	-0.114	0.066
-386.004	-200.000	-0.006	0.172
-384.990	164.440	-0.122	0.172
-383.975	-200.000	0.000	-0.123
-382.960	56.470	0.226	-0.220
-381.946	-200.000	-0.034	0.369
-380.931	-200.000	-0.017	-0.330
-379.917	56.868	0.167	-0.163
-378.902	322.802	0.142	0.270
-377.888	-5.633	0.224	-0.153
-376.873	535.253	0.148	0.350
-375.858	6.519	0.035	-0.026
-374.844	599.468	-0.233	0.578
-373.829	-200.000	-0.024	0.299
-372.815	334.292	0.122	0.237
-371.800	800.000	-0.057	0.204
-370.785	109.997	-0.122	-0.146
-369.771	800.000	-0.068	0.241
-368.756	76.244	0.036	0.038
-367.742	800.000	-0.102	0.294
-366.727	259.013	0.118	-0.204
-365.712	-60.659	0.057	0.024
-364.698	74.855	-0.188	-0.198
-363.683	-51.685	0.069	-0.032
-362.669	137.511	0.146	0.190
-361.654	249.985	-0.062	0.105
-360.639	132.539	0.127	0.164
-359.625	-70.886	-0.316	0.119
-358.610	-61.888	0.285	-0.119
-357.596	-23.545	0.286	0.171
-356.581	136.221	0.055	-0.072
-355.566	-86.619	0.343	-0.105
-354.552	-200.000	0.003	-0.136
-353.537	396.473	0.088	-0.183
-352.523	-96.794	0.038	0.010
-351.508	66.140	-0.048	-0.048
-350.493	-64.180	-0.330	0.134
-349.479	-44.744	-0.089	0.044
-348.464	-200.000	-0.023	0.163
-347.450	-200.000	-0.036	-0.173
-346.435	8.154	-0.153	0.114
-345.420	-158.866	-0.202	-0.011
-344.406	800.000	-0.044	0.142
-343.391	-200.000	-0.001	0.361
-342.377	165.838	-0.097	-0.137
-341.362	800.000	-0.083	-0.269
-340.348	-136.423	0.080	0.009
-339.333	-79.485	0.132	0.044
-338.318	56.138	-0.043	-0.042
-337.304	155.224	-0.084	-0.116
-336.289	800.000	-0.042	0.152
-335.275	284.411	-0.109	-0.197
-334.260	-89.485	-0.130	-0.038
-333.245	-75.608	0.226	0.080
-332.231	800.000	0.058	0.228
-331.216	-200.000	-0.001	0.064
-330.202	800.000	0.085	-0.297
-329.187	78.957	-0.273	-0.291
-328.172	97.319	0.160	-0.183
-327.158	95.685	-0.020	0.022
-326.143	-130.588	-0.350	0.047
-325.129	-112.533	-0.082	-0.016
-324.114	57.555	-0.212	-0.206
-323.099	-200.000	0.009	-0.242
-322.085	800.000	0.044	-0.139
-321.070	214.280	-0.071	0.112
-320.056	731.531	-0.087	0.232
-319.041	-200.000	0.029	-0.181
-318.026	-4.367	-0.022	-0.015
-317.012	-75.095	0.210	-0.075
-315.997	374.182	-0.226	0.459
-314.983	-200.000	-0.009	0.152
-313.968	-178.143	0.216	-0.005
-312.953	49.472	-0.194	0.182
-311.939	378.827	-0.108	-0.220
-310.924	-200.000	0.018	-0.118
-309.910	474.937	0.187	0.420
-308.895	407.870	-0.188	0.397
-307.880	-84.317	-0.126	-0.040
-306.866	-49.754	-0.009	-0.004
-305.851	102.945	0.227	0.266
-304.837	800.000	0.043	-0.138
-303.822	-200.000	-0.002	0.194
-302.807	-104.741	0.162	-0.037
-301.793	-200.000	0.040	0.484
-300.778	-61.155	0.243	0.102
-299.764	-200.000	0.030	-0.229
-298.749	800.000	-0.049	0.155
-297.735	-10.408	0.335	-0.221
-296.720	-117.968	0.354	-0.063
-295.705	100.334	-0.149	0.173
-294.691	610.216	-0.125	-0.310
-293.676	281.006	-0.051	-0.091
-292.662	592.207	-0.094	0.232
-291.647	-100.452	0.237	0.059
-290.632	647.267	-0.027	0.068
-289.618	430.469	0.064	-0.139
-288.603	-18.267	0.163	-0.102
-287.589	-200.000	-0.010	-0.046
-286.574	800.000	0.031	-0.122
-285.559	800.000	-0.118	-0.376
-284.545	-37.557	0.298	0.158
-283.530	143.440	0.047	0.063
-282.516	-107.434	-0.209	0.046
-281.501	-200.000	0.030	-0.184
-280.486	-59.595	-0.163	-0.070
-279.472	800.000	-0.042	0.122
-278.457	-56.425	0.121	0.054
-277.443	125.782	0.101	-0.126
-276.428	56.928	0.092	0.089
-275.413	-200.000	0.010	0.343
-274.399	109.073	0.080	-0.095
-273.384	551.741	-0.101	-0.242
-272.370	-200.000	-0.042	-0.234
-271.355	-200.000	0.011	-0.228
-270.340	23.156	0.237	-0.193
-269.326	110.830	-0.168	-0.201
-268.311	-185.467	0.044	0.001
-267.297	1.982	0.182	-0.131
-266.282	800.000	-0.110	0.326
-265.267	800.000	-0.131	0.445
-264.253	-182.637	0.184	0.003
-263.238	197.957	-0.230	-0.349
-262.224	-65.490	-0.086	-0.034
-261.209	246.493	-0.080	0.134
-260.195	-188.496	-0.162	0.002
-259.180	-200.000	0.029	0.158
-258.165	-23.137	0.337	-0.202
-257.151	-193.958	0.316	0.003
-256.136	-116.208	-0.462	-0.085
-255.122	-46.845	-0.337	0.164
-254.107	-75.487	-0.108	0.038
-253.092	-200.000	0.020	0.214
-252.078	800.000	-0.064	0.194
-251.063	-20.365	-0.285	0.174
-250.049	74.333	-0.258	0.270
-249.034	-116.832	-0.354	0.065
-248.019	-200.000	0.010	0.127
-247.005	-166.920	0.099	-0.004
-245.990	19.665	-0.109	0.087
-244.976	-200.000	0.010	-0.351
-243.961	-81.571	-0.302	-0.099
-242.946	-200.000	0.005	-0.093
-241.932	-200.000	0.030	-0.154
-240.917	-18.563	-0.298	-0.185
-239.903	52.489	-0.218	-0.207
-238.888	800.000	0.103	0.368
-237.873	800.000	0.039	-0.142
-236.859	-90.328	-0.065	0.019
-235.844	-7.612	-0.200	0.134
-234.830	-24.554	0.323	-0.191
-233.815	43.561	-0.146	0.133
-232.800	63.876	0.216	-0.216
-231.786	-21.924	-0.288	-0.174
-230.771	-200.000	0.003	-0.197
-229.757	800.000	-0.059	-0.182
-228.742	668.957	0.081	-0.208
-227.727	-127.458	-0.319	-0.046
-226.713	342.123	0.073	0.143
-225.698	-86.839	0.312	0.095
-224.684	-200.000	0.018	-0.080
-223.669	19.222	-0.355	0.283
-222.655	274.499	0.098	0.172
-221.640	-42.069	0.115	0.059
-220.625	-176.241	0.224	-0.006
-219.611	7.974	-0.102	-0.076
-218.596	29.084	0.177	0.150
-217.582	107.986	0.274	0.324
-216.567	527.362	0.099	0.233
-215.552	-200.000	-0.030	0.133
-214.538	32.225	0.196	-0.168
-213.523	277.764	0.074	-0.132
-212.509	800.000	0.088	-0.268
-211.494	103.904	0.077	-0.090
-210.479	-34.233	-0.075	0.041
-209.465	-200.000	0.096	0.451
-208.450	314.035	0.060	0.112
-207.436	538.288	0.011	-0.026
-206.421	-198.044	0.236	-0.001
-205.406	80.529	0.097	0.104
-204.392	107.044	0.300	-0.353
-203.377	282.957	0.216	-0.384
-202.363	-200.000	0.016	-0.094
-201.348	800.000	-0.132	0.410
-200.333	-3.164	-0.273	-0.189
-199.319	-146.219	0.072	-0.006
-198.304	166.542	-0.078	-0.110
-197.290	271.381	-0.062	0.109
-196.275	-41.529	0.495	-0.253
-195.260	-131.070	0.066	-0.009
-194.246	-89.835	0.248	0.072
-193.231	114.030	0.120	-0.145
-192.217	198.863	0.115	-0.175
-191.202	-94.752	-0.448	-0.121
-190.187	-108.740	-0.223	-0.047
-189.173	-59.788	-0.314	-0.133
-188.158	144.300	0.116	0.154
-187.144	191.467	0.217	-0.324
-186.129	-102.478	-0.085	-0.020
-185.114	-32.679	0.165	-0.091
-184.100	-48.000	-0.154	0.074
-183.085	-75.065	-0.204	0.072
-182.071	-14.707	-0.226	0.144
-181.056	-133.033	-0.134	-0.017
-180.042	-46.918	0.080	0.039
-179.027	-101.200	-0.224	0.054
-178.012	99.068	-0.248	0.285
-176.998	97.009	0.041	0.046
-175.983	126.759	-0.187	0.235
-174.969	-91.116	-0.255	-0.073
-173.954	5.325	0.282	0.206
-172.939	-122.155	0.105	0.017
-171.925	800.000	0.062	0.207
-170.910	-113.580	-0.297	-0.058
-169.896	61.632	-0.033	-0.033
-168.881	778.255	0.065	-0.176
-167.866	601.088	0.189	-0.465
-166.852	-200.000	-0.003	-0.185
-165.837	-165.545	0.270	0.012
-164.823	800.000	-0.085	0.333
-163.808	-113.922	-0.298	-0.057
-162.793	-71.158	-0.293	0.109
-161.779	305.672	0.032	-0.059
-160.764	-200.000	0.236	-0.001
-159.750	107.272	0.080	0.094
-158.735	-33.219	-0.123	0.067
-157.720	-79.953	0.176	-0.058
-156.706	-200.000	0.000	0.110
-155.691	294.745	-0.058	-0.105
-154.677	-123.180	0.240	0.038
-153.662	52.629	-0.205	0.194
-152.647	109.478	-0.112	-0.133
-151.633	-200.000	0.067	-0.438
-150.618	800.000	-0.085	0.255
-149.604	-34.580	0.093	-0.050
-148.589	67.733	-0.040	-0.041
-147.574	403.858	0.055	-0.115
-146.560	-200.000	0.038	-0.197
-145.545	-120.427	0.196	0.033
-144.531	-200.000	-0.002	0.067
-143.516	31.467	0.071	0.060
-142.502	624.180	0.181	0.452
-141.487	-200.000	0.022	0.225
-140.472	47.890	0.225	0.208
-139.458	800.000	0.047	0.201
-138.443	-47.802	-0.254	-0.122
-137.429	534.295	0.059	-0.137
-136.414	-51.643	0.330	-0.153
-135.399	800.000	-0.046	-0.137
-134.385	301.493	0.118	-0.215
-133.370	-96.366	0.160	-0.042
-132.356	-13.153	-0.162	0.104
-131.341	34.483	-0.168	0.145
-130.326	-200.000	-0.062	0.401
-129.312	-121.349	-0.078	-0.013
-128.297	-79.041	0.196	0.066
-127.283	403.133	0.045	-0.093
-126.268	-69.319	0.124	0.047
-125.253	800.000	0.113	0.374
-124.239	-200.000	0.044	0.510
-123.224	-200.000	-0.007	0.099
-122.210	-83.519	-0.151	-0.048
-121.195	-48.617	-0.082	0.039
