DTS Sentinel unit serial number:	SN413079Multiplexer serial number:	ORYXHardware model number:	OX4-SRSoftware version number:	ORYX F/W v4.00 Oryx Data Collector v3.7.2.0data status	okinstallation	princeton_trtdifferential loss correction	single-endedforward channel	channel 2reverse channel	N/Adate	2019/09/12time	15:45:11forward acquisition time	60.00reverse acquisition time	0.00gamma	496.2192k internal	0.2304k external	0.2304temperature offset calibration	1.0102default loss term (dB/km)	0.3790temperature slope calibration	1.0000multiplexer offset coefficient	1.0000multiplexer slope coefficient	1.0000fibre end	0.00T internal ref (°C)	39.87T ext. ref 1 (°C)	2.45T ext. ref 2 (°C)	32.49length (m)	temperature (°C)	Stokes	anti-Stokes-747.200	-79.894	-0.061	-0.021
-746.185	213.565	0.192	0.310
-745.171	-200.000	-0.001	0.361
-744.156	129.330	-0.192	0.250
-743.142	-200.000	-0.007	0.122
-742.127	-95.462	-0.322	0.088
-741.112	-2.376	-0.173	0.123
-740.098	-200.000	0.003	0.235
-739.083	22.337	0.164	-0.136
-738.069	222.892	0.208	0.341
-737.054	800.000	0.120	0.356
-736.039	800.000	-0.113	-0.354
-735.025	-36.189	0.179	0.098
-734.010	-48.094	-0.363	-0.178
-732.996	-200.000	-0.001	0.124
-731.981	-8.462	0.135	-0.093
-730.966	434.367	0.057	-0.127
-729.952	786.166	-0.075	0.208
-728.937	-84.778	-0.155	0.050
-727.923	226.706	-0.144	0.237
-726.908	453.698	0.085	-0.191
-725.894	800.000	0.080	-0.244
-724.879	800.000	0.077	-0.279
-723.864	800.000	-0.097	-0.382
-722.850	-100.095	-0.292	0.074
-721.835	-38.640	-0.193	-0.104
-720.821	273.423	-0.201	0.362
-719.806	161.616	-0.099	-0.141
-718.791	119.271	0.151	-0.190
-717.777	204.785	0.099	0.156
-716.762	-200.000	0.053	0.299
-715.748	-200.000	-0.037	0.210
-714.733	13.888	0.253	-0.200
-713.718	70.084	0.114	-0.120
-712.704	-48.168	0.122	0.060
-711.689	800.000	-0.056	0.248
-710.675	-200.000	-0.055	0.287
-709.660	-6.583	-0.110	-0.076
-708.645	188.492	-0.207	-0.315
-707.631	-66.633	-0.429	0.173
-706.616	13.685	-0.271	-0.214
-705.602	-104.616	-0.164	0.038
-704.587	682.163	-0.084	0.222
-703.572	-71.786	0.369	0.140
-702.558	174.035	0.123	-0.180
-701.543	-166.118	-0.536	-0.023
-700.529	153.455	-0.099	0.137
-699.514	180.716	-0.078	-0.117
-698.499	18.968	-0.316	-0.257
-697.485	742.014	-0.108	-0.294
-696.470	-200.000	-0.035	-0.215
-695.456	-200.000	0.033	0.247
-694.441	132.771	0.286	0.376
-693.426	68.404	0.251	-0.261
-692.412	-200.000	-0.089	-0.421
-691.397	125.243	-0.265	-0.340
-690.383	-96.554	-0.170	0.046
-689.368	800.000	0.099	0.409
-688.354	-97.465	-0.114	-0.030
-687.339	-200.000	0.001	0.150
-686.324	800.000	-0.061	-0.225
-685.310	800.000	-0.050	-0.141
-684.295	-158.953	-0.071	0.004
-683.281	800.000	0.107	0.399
-682.266	-7.833	0.072	0.049
-681.251	150.728	0.218	0.301
-680.237	238.251	0.101	-0.171
-679.222	285.186	-0.123	-0.226
-678.208	188.926	0.162	-0.247
-677.193	-48.878	-0.269	0.131
-676.178	-92.934	-0.242	-0.069
-675.164	4.198	-0.248	0.184
-674.149	-132.776	-0.405	-0.053
-673.135	-200.000	-0.011	0.434
-672.120	-112.534	-0.125	-0.025
-671.105	800.000	-0.002	0.008
-670.091	29.820	0.137	0.118
-669.076	-130.074	-0.114	0.016
-668.062	547.444	0.058	-0.140
-667.047	784.302	-0.091	0.254
-666.032	106.484	-0.095	-0.114
-665.018	-28.548	-0.172	0.100
-664.003	-68.373	0.282	0.111
-662.989	-200.000	0.010	-0.225
-661.974	-105.064	-0.332	-0.077
-660.959	-32.496	0.122	0.069
-659.945	474.636	-0.151	0.345
-658.930	-115.425	-0.287	-0.055
-657.916	-37.827	-0.180	0.097
-656.901	-200.000	0.008	-0.319
-655.886	-123.294	-0.343	0.056
-654.872	-33.208	-0.158	0.089
-653.857	-51.342	-0.025	0.012
-652.843	-160.315	0.350	-0.019
-651.828	62.993	-0.055	0.056
-650.814	373.671	0.085	-0.175
-649.799	-161.074	-0.152	-0.008
-648.784	-162.010	-0.235	-0.012
-647.770	510.429	-0.061	-0.144
-646.755	63.954	0.099	-0.101
-645.741	136.451	0.184	-0.243
-644.726	-33.378	0.141	0.079
-643.711	-105.410	-0.216	-0.050
-642.697	-66.842	0.051	-0.021
-641.682	-47.766	0.049	-0.024
-640.668	-200.000	0.081	-0.391
-639.653	302.252	-0.212	0.399
-638.638	-200.000	0.016	-0.102
-637.624	-33.340	0.583	0.327
-636.609	117.710	0.142	0.177
-635.595	-102.510	-0.030	0.007
-634.580	-65.290	0.335	0.137
-633.565	-200.000	-0.004	0.369
-632.551	800.000	-0.058	0.183
-631.536	-200.000	0.004	0.291
-630.522	-40.658	0.354	0.186
-629.507	-83.752	-0.148	0.048
-628.492	424.459	0.117	0.255
-627.478	-111.457	-0.068	0.014
-626.463	99.968	-0.147	0.172
-625.449	92.651	0.323	-0.369
-624.434	-7.363	-0.385	-0.264
-623.419	-200.000	-0.009	-0.064
-622.405	165.184	0.177	-0.254
-621.390	302.773	-0.051	0.096
-620.376	800.000	0.100	0.350
-619.361	800.000	0.085	-0.321
-618.346	161.364	0.084	-0.119
-617.332	-200.000	-0.026	0.170
-616.317	-139.595	0.170	-0.018
-615.303	-147.019	0.079	-0.007
-614.288	800.000	-0.029	-0.107
-613.273	206.172	0.156	-0.246
-612.259	48.891	0.065	-0.062
-611.244	63.402	0.134	0.136
-610.230	-163.176	-0.581	0.028
-609.215	-17.063	-0.097	-0.062
-608.201	8.612	0.044	-0.034
-607.186	-82.054	-0.013	0.004
-606.171	33.136	0.110	-0.097
-605.157	-200.000	0.056	0.250
-604.142	217.071	-0.134	-0.216
-603.128	48.055	0.041	-0.039
-602.113	-200.000	-0.018	0.205
-601.098	-92.092	0.245	-0.070
-600.084	-200.000	-0.022	0.172
-599.069	556.035	0.026	0.064
-598.055	-161.199	0.219	0.012
-597.040	-138.274	0.262	0.029
-596.025	175.464	-0.252	0.369
-595.011	359.676	-0.214	0.434
-593.996	-33.846	0.117	0.065
-592.982	18.428	0.343	0.278
-591.967	28.959	-0.293	-0.252
-590.952	-56.916	-0.105	0.047
-589.938	-124.891	0.140	0.022
-588.923	-200.000	-0.013	-0.168
-587.909	-200.000	0.015	0.084
-586.894	-58.679	-0.148	0.065
-585.879	800.000	-0.100	-0.378
-584.865	182.859	-0.180	-0.269
-583.850	154.325	0.074	0.103
-582.836	188.853	0.112	-0.169
-581.821	-200.000	0.010	0.073
-580.806	800.000	-0.088	-0.258
-579.792	6.379	-0.193	-0.145
-578.777	-60.077	-0.200	0.087
-577.763	22.958	0.124	0.103
-576.748	-44.283	0.257	-0.130
-575.733	800.000	-0.053	-0.160
-574.719	524.293	0.141	0.335
-573.704	-4.299	-0.076	0.053
-572.690	53.419	-0.069	0.067
-571.675	-200.000	-0.070	-0.366
-570.661	-40.895	-0.156	-0.082
-569.646	-74.352	0.078	0.028
-568.631	-200.000	-0.010	0.122
-567.617	302.382	-0.029	-0.055
-566.602	-8.437	-0.080	-0.055
-565.588	-143.805	0.060	0.006
-564.573	765.502	0.144	-0.396
-563.558	-44.155	-0.066	0.034
-562.544	-81.947	0.332	-0.110
-561.529	-200.000	-0.067	-0.301
-560.515	-135.833	0.343	-0.041
-559.500	-33.490	-0.091	0.051
-558.485	-200.000	-0.008	0.136
-557.471	-161.532	0.057	-0.003
-556.456	-54.748	0.229	0.105
-555.442	-19.959	0.298	-0.186
-554.427	237.496	0.090	-0.151
-553.412	32.784	-0.194	0.170
-552.398	800.000	0.010	0.034
-551.383	-11.333	0.334	-0.222
-550.369	-36.797	-0.184	0.100
-549.354	15.867	0.164	0.131
-548.339	15.135	0.204	-0.162
-547.325	-33.936	0.524	-0.291
-546.310	-200.000	-0.031	-0.360
-545.296	394.857	-0.083	0.174
-544.281	37.606	0.159	0.142
-543.266	-41.094	0.131	0.068
-542.252	-49.650	0.144	-0.069
-541.237	-125.379	0.332	-0.051
-540.223	-200.000	0.004	-0.048
-539.208	546.656	0.132	0.320
-538.193	66.282	-0.123	-0.126
-537.179	6.961	-0.299	0.225
-536.164	800.000	0.049	0.160
-535.150	800.000	0.035	0.113
-534.135	-200.000	-0.002	0.162
-533.121	-21.242	-0.164	0.101
-532.106	800.000	-0.072	-0.233
-531.091	-114.010	-0.099	-0.019
-530.077	346.524	-0.142	0.282
-529.062	213.528	0.144	-0.229
-528.048	-167.316	-0.141	0.006
-527.033	-121.843	0.287	-0.048
-526.018	-124.472	-0.132	-0.021
-525.004	-200.000	0.022	-0.360
-523.989	621.249	0.034	0.087
-522.975	-78.496	-0.132	-0.046
-521.960	-200.000	0.016	-0.211
-520.945	240.931	0.084	0.141
-519.931	-68.287	0.164	0.064
-518.916	-200.000	0.010	0.459
-517.902	-200.000	0.006	0.328
-516.887	-200.000	-0.019	0.089
-515.872	398.704	-0.075	-0.158
-514.858	-200.000	0.012	0.104
-513.843	38.615	-0.203	-0.183
-512.829	800.000	-0.056	0.238
-511.814	-146.034	-0.089	-0.008
-510.799	800.000	-0.056	-0.188
-509.785	-128.687	-0.149	-0.021
-508.770	-200.000	0.029	-0.685
-507.756	444.883	0.156	-0.345
-506.741	88.236	0.115	0.129
-505.726	-31.919	-0.337	0.190
-504.712	26.844	-0.244	0.206
-503.697	13.538	0.115	0.090
-502.683	166.767	0.129	-0.185
-501.668	38.763	0.420	-0.378
-500.653	-75.954	-0.277	-0.099
-499.639	8.172	-0.221	-0.167
-498.624	33.745	-0.191	-0.168
-497.610	-200.000	-0.026	-0.119
-496.595	-200.000	-0.022	-0.388
-495.581	-63.746	-0.164	-0.068
-494.566	183.975	0.114	-0.170
-493.551	800.000	-0.094	-0.270
-492.537	85.080	0.086	0.095
-491.522	388.926	0.117	0.244
-490.508	800.000	-0.086	-0.242
-489.493	-200.000	0.002	-0.073
-488.478	-25.686	-0.135	0.080
-487.464	360.374	-0.074	0.150
-486.449	91.128	0.142	-0.160
-485.435	-52.741	0.128	0.060
-484.420	-197.550	0.166	0.001
-483.405	241.967	0.100	0.169
-482.391	9.008	0.124	-0.094
-481.376	800.000	-0.047	-0.178
-480.362	493.299	0.042	-0.097
-479.347	-96.279	-0.251	-0.067
-478.332	-46.095	-0.254	-0.126
-477.318	-135.376	0.121	-0.015
-476.303	-116.181	0.187	-0.035
-475.289	645.370	-0.076	-0.194
-474.274	-58.657	-0.313	-0.137
-473.259	227.088	-0.040	0.066
-472.245	800.000	0.066	-0.187
-471.230	9.523	-0.173	0.132
-470.216	15.254	0.204	0.161
-469.201	60.241	-0.102	-0.101
-468.186	-15.322	-0.258	0.166
-467.172	444.947	-0.028	-0.062
-466.157	-150.726	0.250	0.019
-465.143	7.184	-0.176	-0.133
-464.128	-61.346	0.044	-0.019
-463.113	149.587	0.147	-0.200
-462.099	34.107	-0.255	0.224
-461.084	-148.008	0.160	-0.013
-460.070	53.788	-0.101	0.098
-459.055	-104.181	-0.329	0.077
-458.040	-147.690	0.270	-0.023
-457.026	-20.225	0.127	-0.079
-456.011	-66.341	-0.271	0.109
-454.997	-200.000	0.003	-0.252
-453.982	-169.364	-0.297	-0.011
-452.968	-151.868	-0.142	0.010
-451.953	-51.560	0.085	-0.040
-450.938	-2.936	-0.236	0.166
-449.924	45.225	-0.209	0.194
-448.909	18.830	-0.210	-0.169
-447.895	176.297	0.051	-0.074
-446.880	-75.661	0.280	-0.100
-445.865	-194.295	0.219	-0.002
-444.851	-76.694	0.302	-0.107
-443.836	313.513	0.043	-0.082
-442.822	171.456	-0.165	0.239
-441.807	800.000	-0.128	0.393
-440.792	-70.805	-0.215	0.082
-439.778	-200.000	-0.033	-0.147
-438.763	290.782	0.144	-0.263
-437.749	-158.037	-0.399	-0.024
-436.734	141.495	-0.044	0.059
-435.719	800.000	0.037	-0.152
-434.705	800.000	0.035	0.108
-433.690	7.804	-0.164	-0.124
-432.676	77.425	0.116	-0.124
-431.661	445.820	0.110	0.244
-430.646	-174.643	0.263	0.008
-429.632	800.000	-0.103	-0.325
-428.617	648.905	0.080	-0.206
-427.603	18.181	0.334	0.268
-426.588	-200.000	0.013	0.065
-425.573	486.002	-0.053	0.121
-424.559	193.110	0.048	-0.073
-423.544	-38.373	0.345	-0.184
-422.530	100.445	0.238	-0.278
-421.515	33.223	0.195	-0.170
-420.500	85.959	-0.218	-0.241
-419.486	-120.995	0.382	-0.065
-418.471	-125.771	-0.082	0.012
-417.457	800.000	0.104	-0.398
-416.442	113.027	0.097	0.119
-415.428	-130.439	0.155	-0.021
-414.413	-44.637	-0.125	0.063
-413.398	41.537	-0.164	0.149
-412.384	716.020	0.070	-0.187
-411.369	38.685	0.086	-0.077
-410.355	-107.416	0.175	-0.039
-409.340	-34.472	-0.162	0.089
-408.325	215.541	0.062	-0.099
-407.311	163.311	-0.164	0.231
-406.296	190.297	0.193	-0.291
-405.282	-151.978	0.324	-0.024
-404.267	-157.310	-0.250	-0.015
-403.252	-200.000	-0.005	-0.043
-402.238	-146.865	-0.269	0.023
-401.223	117.819	0.141	0.175
-400.209	134.601	0.209	-0.273
-399.194	-18.154	-0.292	-0.183
-398.179	-200.000	0.012	-0.259
-397.165	800.000	0.162	-0.474
-396.150	800.000	0.029	0.093
-395.136	-7.915	0.217	0.147
-394.121	70.215	-0.186	0.193
-393.106	-200.000	0.017	0.082
-392.092	-139.509	0.062	0.007
-391.077	-68.046	-0.261	-0.102
-390.063	-79.990	0.152	-0.051
-389.048	533.086	-0.056	-0.132
-388.033	-200.000	0.011	0.053
-387.019	-12.851	0.134	0.087
-386.004	90.848	-0.112	-0.126
-384.990	800.000	-0.100	-0.351
-383.975	700.776	0.033	-0.087
-382.960	-110.188	0.146	0.031
-381.946	-136.955	-0.294	-0.034
-380.931	-86.636	0.159	0.049
-379.917	-107.385	-0.218	-0.048
-378.902	-125.033	-0.127	0.020
-377.888	-65.715	0.182	-0.073
-376.873	-94.945	0.271	0.074
-375.858	800.000	-0.006	-0.018
-374.844	35.074	-0.165	0.145
-373.829	-37.941	0.096	0.051
-372.815	-23.892	-0.136	0.082
-371.800	256.300	-0.173	0.298
-370.785	15.215	-0.148	-0.116
-369.771	-42.660	0.189	0.096
-368.756	44.420	0.213	0.196
-367.742	-63.506	-0.344	-0.142
-366.727	6.782	0.046	-0.034
-365.712	-87.184	-0.080	0.024
-364.698	-119.727	-0.227	0.039
-363.683	240.122	-0.058	-0.097
-362.669	-46.229	0.066	0.033
-361.654	313.232	0.080	0.151
-360.639	-0.683	-0.217	0.155
-359.625	-132.319	0.037	0.005
-358.610	183.415	-0.151	0.224
-357.596	-200.000	0.030	-0.220
-356.581	-54.936	0.390	-0.176
-355.566	800.000	-0.020	-0.083
-354.552	-10.120	0.303	-0.202
-353.537	519.497	-0.054	0.126
-352.523	800.000	0.084	0.270
-351.508	-200.000	0.013	0.180
-350.493	-124.233	-0.193	-0.030
-349.479	416.111	-0.045	0.096
-348.464	-124.118	0.433	0.068
-347.450	-69.755	0.286	-0.110
-346.435	293.412	-0.035	-0.065
-345.420	12.375	-0.173	0.134
-344.406	800.000	-0.051	0.176
-343.391	800.000	-0.025	0.083
-342.377	-127.862	-0.271	-0.039
-341.362	25.662	-0.263	-0.220
-340.348	-25.234	0.026	-0.016
-339.333	-200.000	0.008	0.177
-338.318	-148.717	-0.056	0.005
-337.304	-51.218	0.040	-0.019
-336.289	-52.795	-0.133	0.062
-335.275	-53.191	-0.136	-0.062
-334.260	291.443	0.147	-0.268
-333.245	-1.261	-0.075	0.053
-332.231	12.320	0.326	-0.252
-331.216	-132.105	0.355	-0.046
-330.202	56.441	0.130	0.127
-329.187	800.000	0.079	0.255
-328.172	-69.923	0.364	0.139
-327.158	43.200	0.187	-0.171
-326.143	-40.779	-0.141	0.073
-325.129	-200.000	-0.081	0.379
-324.114	-170.517	-0.085	0.003
-323.099	-101.778	0.112	0.027
-322.085	800.000	-0.101	0.298
-321.070	-200.000	-0.031	0.148
-320.056	13.111	0.107	0.083
-319.041	67.700	0.289	0.296
-318.026	88.517	0.127	-0.141
-317.012	156.997	-0.087	0.121
-315.997	-78.158	0.244	-0.084
-314.983	598.107	-0.057	0.141
-313.968	-60.106	-0.057	-0.024
-312.953	-200.000	-0.002	-0.053
-311.939	-200.000	0.064	0.337
-310.924	-119.713	-0.162	0.028
-309.910	374.481	-0.086	-0.175
-308.895	-200.000	0.016	-0.144
-307.880	155.638	-0.102	-0.141
-306.866	-88.375	0.279	0.083
-305.851	77.427	-0.143	0.152
-304.837	35.490	0.144	-0.127
-303.822	5.702	-0.258	0.191
-302.807	-53.588	-0.025	0.012
-301.793	537.856	-0.038	0.091
-300.778	62.168	-0.187	0.187
-299.764	-39.560	0.097	-0.051
-298.749	-108.747	-0.188	-0.040
-297.735	-132.931	0.186	-0.024
-296.720	-69.923	0.328	0.125
-295.705	156.532	-0.080	-0.110
-294.691	208.254	0.113	-0.176
-293.676	-43.655	-0.228	0.115
-292.662	77.271	0.213	0.226
-291.647	-18.884	-0.066	-0.041
-290.632	800.000	-0.025	0.075
-289.618	-60.327	-0.092	0.039
-288.603	362.867	-0.121	0.242
-287.589	106.911	-0.067	-0.079
-286.574	226.449	0.105	-0.170
-285.559	26.503	-0.092	0.077
-284.545	-200.000	-0.079	-0.379
-283.530	-19.722	-0.070	0.044
-282.516	738.571	-0.098	0.263
-281.501	-200.000	-0.018	0.116
-280.486	-57.969	-0.273	-0.119
-279.472	-200.000	-0.069	0.315
-278.457	-200.000	0.036	-0.364
-277.443	49.341	-0.110	0.104
-276.428	-53.103	-0.223	-0.103
-275.413	-24.303	0.141	0.084
-274.399	-151.223	-0.189	-0.014
-273.384	80.875	-0.126	0.136
-272.370	1.390	-0.043	0.031
-271.355	-148.245	-0.203	0.017
-270.340	591.743	0.134	-0.330
-269.326	210.567	0.157	-0.246
-268.311	50.280	-0.253	0.239
-267.297	-113.618	-0.274	-0.054
-266.282	127.467	0.081	-0.102
-265.267	331.851	0.116	-0.224
-264.253	-34.258	-0.392	0.215
-263.238	-113.292	-0.795	0.156
-262.224	161.168	-0.119	0.166
-261.209	98.370	-0.137	0.157
-260.195	441.151	-0.151	0.330
-259.180	476.406	0.105	-0.237
-258.165	-143.020	0.186	-0.018
-257.151	-48.000	-0.147	0.071
-256.136	-45.968	-0.287	-0.142
-255.122	-49.787	0.099	0.047
-254.107	-96.109	0.245	-0.065
-253.092	-107.703	0.169	0.037
-252.078	-3.731	-0.518	-0.359
-251.063	46.918	0.284	-0.263
-250.049	-114.591	0.058	-0.011
-249.034	-200.000	0.001	0.017
-248.019	-61.616	-0.222	0.093
-247.005	114.381	-0.216	0.263
-245.990	-96.613	0.027	0.007
-244.976	196.490	0.197	-0.300
-243.961	800.000	-0.080	-0.229
-242.946	-200.000	0.027	0.229
-241.932	-160.187	0.197	0.011
-240.917	-138.514	-0.103	0.011
-239.903	-13.098	-0.155	0.101
-238.888	209.597	-0.100	0.157
-237.873	-71.055	0.082	0.031
-236.859	-200.000	-0.008	-0.048
-235.844	-200.000	0.090	0.396
-234.830	-200.000	-0.042	-0.243
-233.815	-86.216	-0.259	0.080
-232.800	-14.587	0.236	-0.152
-231.786	800.000	0.018	0.065
-230.771	-200.000	0.044	0.222
-229.757	-200.000	-0.029	0.208
-228.742	800.000	0.029	-0.093
-227.727	-200.000	-0.008	0.060
-226.713	149.521	-0.132	-0.179
-225.698	800.000	-0.045	-0.158
-224.684	-200.000	0.035	0.164
-223.669	-65.597	0.237	0.095
-222.655	185.914	0.155	0.230
-221.640	-94.773	0.225	0.061
-220.625	800.000	0.097	-0.359
-219.611	-91.430	0.192	0.055
-218.596	41.507	-0.451	0.408
-217.582	800.000	0.058	0.170
-216.567	-44.247	0.267	-0.133
-215.552	23.283	-0.109	-0.089
-214.538	-6.980	0.317	-0.214
-213.523	63.297	-0.127	0.127
-212.509	354.746	-0.160	0.316
-211.494	-200.000	0.031	0.153
-210.479	-200.000	-0.006	0.191
-209.465	66.993	-0.102	0.103
-208.450	-80.755	-0.358	0.119
-207.436	-200.000	-0.055	-0.251
-206.421	-200.000	-0.045	0.433
-205.406	-200.000	0.029	-0.303
-204.392	-200.000	-0.007	0.130
-203.377	800.000	0.034	-0.145
-202.363	-57.410	0.041	-0.018
-201.348	-70.599	0.288	-0.109
-200.333	-200.000	-0.016	-0.231
-199.319	28.790	-0.166	-0.140
-198.304	-200.000	-0.031	0.144
-197.290	-193.653	0.040	-0.000
-196.275	-10.785	0.135	-0.089
-195.260	-94.694	0.224	0.061
-194.246	66.889	-0.147	-0.149
-193.231	71.292	0.120	0.124
-192.217	257.525	-0.139	-0.239
-191.202	800.000	0.021	0.084
-190.187	800.000	-0.100	-0.413
-189.173	-167.538	-0.036	0.001
-188.158	192.716	-0.127	-0.191
-187.144	104.142	0.120	0.140
-186.129	-200.000	-0.010	0.184
-185.114	-12.891	-0.220	0.143
-184.100	17.683	0.211	-0.167
-183.085	-137.480	-0.350	0.039
-182.071	800.000	-0.099	0.317
-181.056	-138.431	0.129	0.014
-180.042	-74.810	-0.365	-0.130
-179.027	52.634	-0.190	0.181
-178.012	-36.438	-0.042	-0.023
-176.998	21.794	-0.027	-0.022
-175.983	-200.000	0.014	0.210
-174.969	-200.000	-0.004	0.048
-173.954	355.802	0.020	0.040
-172.939	-52.116	-0.095	0.044
-171.925	-200.000	0.020	0.375
-170.910	-158.165	-0.253	-0.015
-169.896	-100.098	0.432	-0.107
-168.881	31.998	0.211	0.181
-167.866	800.000	-0.047	-0.131
-166.852	-40.780	0.187	0.096
-165.837	-173.016	-0.478	-0.015
-164.823	11.005	-0.112	0.085
-163.808	-200.000	-0.003	0.017
-162.793	-200.000	0.339	0.001
-161.779	161.550	-0.038	0.053
-160.764	-106.077	-0.266	-0.060
-159.750	-157.295	-0.214	-0.013
-158.735	-200.000	-0.029	0.137
-157.720	-200.000	-0.007	-0.270
-156.706	-125.081	0.230	-0.035
-155.691	800.000	-0.075	0.237
-154.677	309.193	0.097	0.180
-153.662	320.428	-0.044	0.083
-152.647	93.821	0.211	0.238
-151.633	18.119	0.223	0.177
-150.618	-71.501	0.130	0.048
-149.604	65.521	0.131	0.132
-148.589	-172.301	0.239	-0.008
-147.574	-177.417	0.176	-0.004
-146.560	183.332	-0.083	0.122
-145.545	87.140	-0.283	-0.311
-144.531	89.559	-0.050	0.055
-143.516	9.231	0.164	-0.123
-142.502	-52.167	-0.128	0.059
-141.487	-126.779	-0.195	-0.029
-140.472	-103.659	-0.185	-0.043
-139.458	-70.313	0.083	0.031
-138.443	-200.000	-0.015	-0.263
-137.429	-200.000	0.035	0.325
-136.414	-43.535	0.288	-0.145
-135.399	45.858	-0.113	-0.104
-134.385	339.701	0.072	0.139
-133.370	-20.062	-0.137	-0.084
-132.356	-200.000	-0.078	0.386
-131.341	465.136	0.202	0.449
-130.326	345.665	-0.164	-0.319
-129.312	16.317	0.225	0.176
-128.297	-115.761	0.125	-0.023
-127.283	-200.000	0.107	-0.543
-126.268	61.958	0.014	-0.014
-125.253	-123.638	0.158	0.025
-124.239	-100.489	-0.037	0.009
-123.224	18.663	-0.080	-0.063
-122.210	82.706	-0.231	-0.250
-121.195	-200.000	0.039	0.179
