DTS Sentinel unit serial number:	SN413079Multiplexer serial number:	ORYXHardware model number:	OX4-SRSoftware version number:	ORYX F/W v4.00 Oryx Data Collector v3.7.2.0data status	okinstallation	princeton_trtdifferential loss correction	single-endedforward channel	channel 2reverse channel	N/Adate	2019/09/13time	04:07:35forward acquisition time	60.00reverse acquisition time	0.00gamma	496.2192k internal	0.2336k external	0.2336temperature offset calibration	1.0185default loss term (dB/km)	0.3790temperature slope calibration	1.0000multiplexer offset coefficient	1.0000multiplexer slope coefficient	1.0000fibre end	0.00T internal ref (°C)	26.94T ext. ref 1 (°C)	4.05T ext. ref 2 (°C)	21.26length (m)	temperature (°C)	Stokes	anti-Stokes-747.200	-130.419	0.214	0.029
-746.185	-64.850	-0.283	0.115
-745.171	248.083	0.040	0.069
-744.156	-126.259	0.337	0.051
-743.142	-68.067	-0.277	0.108
-742.127	-40.152	0.051	0.027
-741.112	64.159	-0.132	0.133
-740.098	569.202	0.130	0.318
-739.083	-144.512	-0.197	-0.018
-738.069	-134.538	-0.206	-0.025
-737.054	-127.344	-0.122	-0.018
-736.039	-122.368	-0.233	-0.038
-735.025	-112.674	-0.211	0.042
-734.010	-103.577	-0.248	-0.058
-732.996	-106.222	0.239	0.054
-731.981	800.000	0.106	-0.294
-730.966	99.286	0.148	0.171
-729.952	-200.000	-0.021	-0.252
-728.937	-107.499	-0.320	-0.070
-727.923	-200.000	-0.007	-0.043
-726.908	26.160	-0.125	0.105
-725.894	-66.888	-0.161	0.064
-724.879	267.973	0.187	-0.328
-723.864	490.604	-0.006	0.014
-722.850	-200.000	-0.043	-0.239
-721.835	800.000	0.057	-0.182
-720.821	337.092	-0.140	0.274
-719.806	139.970	0.106	-0.141
-718.791	-80.462	-0.209	-0.070
-717.777	71.584	-0.284	-0.296
-716.762	132.685	0.097	-0.125
-715.748	-144.664	0.280	0.026
-714.733	-200.000	-0.024	-0.113
-713.718	-46.780	0.228	-0.112
-712.704	-60.559	-0.096	0.041
-711.689	114.632	0.218	-0.267
-710.675	-167.631	0.240	0.010
-709.660	84.807	0.089	-0.098
-708.645	65.151	0.192	0.195
-707.631	-103.570	0.363	-0.085
-706.616	-83.406	-0.379	-0.122
-705.602	88.390	-0.137	0.152
-704.587	-156.030	0.295	0.019
-703.572	-122.419	0.378	-0.062
-702.558	-75.841	-0.371	-0.132
-701.543	-0.451	-0.142	-0.101
-700.529	168.742	0.177	-0.253
-699.514	103.398	-0.096	0.113
-698.499	-200.000	0.033	-0.297
-697.485	-74.593	0.201	0.073
-696.470	169.811	-0.247	0.354
-695.456	-200.000	0.018	-0.180
-694.441	289.781	-0.102	-0.186
-693.426	573.653	-0.233	-0.571
-692.412	-200.000	0.051	0.237
-691.397	39.030	-0.217	-0.195
-690.383	-53.280	-0.138	-0.063
-689.368	146.427	0.286	-0.385
-688.354	-38.755	0.183	-0.096
-687.339	800.000	-0.076	-0.238
-686.324	-200.000	-0.032	-0.181
-685.310	-111.671	-0.386	-0.078
-684.295	212.400	-0.282	-0.446
-683.281	-50.666	0.256	-0.121
-682.266	43.010	-0.333	0.304
-681.251	-81.461	-0.296	0.097
-680.237	-200.000	0.013	0.072
-679.222	-19.344	-0.245	-0.152
-678.208	-19.900	0.253	0.157
-677.193	143.493	-0.036	0.048
-676.178	-32.415	0.027	-0.015
-675.164	272.445	-0.143	0.253
-674.149	-78.343	-0.247	0.085
-673.135	174.107	-0.008	-0.011
-672.120	200.079	0.038	0.058
-671.105	-200.000	0.033	0.211
-670.091	-200.000	-0.023	-0.294
-669.076	18.548	0.145	0.116
-668.062	34.807	-0.344	-0.302
-667.047	-79.655	0.169	-0.057
-666.032	-200.000	-0.006	0.036
-665.018	-154.901	0.075	0.005
-664.003	288.215	0.132	-0.239
-662.989	-85.961	0.446	0.138
-661.974	800.000	-0.079	-0.283
-660.959	-136.042	0.049	-0.006
-659.945	800.000	-0.070	-0.239
-658.930	8.514	-0.209	-0.158
-657.916	552.431	-0.074	-0.178
-656.901	-200.000	0.017	-0.187
-655.886	800.000	0.071	0.259
-654.872	800.000	-0.104	0.356
-653.857	295.746	-0.182	0.333
-652.843	13.818	-0.204	0.159
-651.828	173.585	0.035	0.051
-650.814	465.672	-0.051	0.114
-649.799	80.575	-0.105	-0.114
-648.784	-200.000	-0.027	-0.316
-647.770	14.356	-0.147	-0.115
-646.755	412.079	0.060	-0.127
-645.741	-152.937	-0.161	-0.011
-644.726	59.750	-0.123	-0.121
-643.711	-99.561	-0.124	0.031
-642.697	250.873	-0.162	-0.275
-641.682	353.986	-0.141	0.280
-640.668	172.153	-0.095	0.137
-639.653	-103.232	0.068	0.016
-638.638	-200.000	0.020	-0.213
-637.624	46.881	0.274	0.255
-636.609	274.895	0.164	0.291
-635.595	-200.000	0.049	-0.250
-634.580	-200.000	0.026	-0.418
-633.565	-129.346	-0.259	0.036
-632.551	-73.836	-0.409	0.149
-631.536	-8.973	0.283	0.189
-630.522	-145.713	-0.335	-0.030
-629.507	-49.733	0.197	-0.094
-628.492	175.484	-0.069	-0.101
-627.478	-200.000	0.035	-0.225
-626.463	-111.669	0.328	-0.067
-625.449	800.000	0.055	-0.185
-624.434	-19.818	-0.204	0.126
-623.419	369.880	-0.228	-0.462
-622.405	-69.190	-0.106	-0.041
-621.390	-120.721	0.097	-0.016
-620.376	-200.000	0.025	0.266
-619.361	496.594	-0.127	-0.291
-618.346	73.482	-0.040	-0.042
-617.332	764.480	0.020	-0.053
-616.317	-200.000	-0.024	-0.272
-615.303	81.016	-0.059	-0.064
-614.288	136.347	-0.076	-0.098
-613.273	-92.375	-0.210	-0.059
-612.259	-200.000	-0.052	-0.423
-611.244	-172.297	-0.332	-0.011
-610.230	-84.063	0.061	0.019
-609.215	473.651	0.132	-0.298
-608.201	800.000	0.030	0.121
-607.186	264.666	-0.069	-0.121
-606.171	-200.000	0.008	-0.067
-605.157	67.304	-0.270	0.275
-604.142	-51.076	-0.174	0.081
-603.128	126.950	-0.321	-0.407
-602.113	-0.840	0.153	-0.108
-601.098	-68.316	0.089	0.034
-600.084	-39.941	0.196	-0.102
-599.069	223.296	0.093	0.150
-598.055	800.000	-0.094	0.290
-597.040	-200.000	0.042	-0.209
-596.025	19.178	-0.119	0.096
-595.011	-148.644	-0.333	-0.027
-593.996	135.248	0.054	0.070
-592.982	-23.109	0.212	0.127
-591.967	296.245	0.197	0.360
-590.952	800.000	-0.106	0.317
-589.938	379.117	0.047	0.097
-588.923	-200.000	-0.003	-0.183
-587.909	-145.377	0.166	-0.015
-586.894	-200.000	-0.008	0.092
-585.879	-37.992	-0.170	0.090
-584.865	-151.602	0.246	0.018
-583.850	-66.160	-0.216	0.086
-582.836	16.093	0.202	0.159
-581.821	-150.665	-0.123	0.009
-580.806	800.000	-0.046	-0.178
-579.792	223.559	0.062	-0.099
-578.777	340.983	0.260	-0.507
-577.763	-38.484	-0.355	0.187
-576.748	144.542	0.160	-0.214
-575.733	-26.136	-0.338	0.198
-574.719	69.690	-0.156	-0.160
-573.704	156.011	0.052	0.072
-572.690	406.569	0.089	0.187
-571.675	-90.046	0.129	-0.038
-570.661	-129.534	0.152	-0.021
-569.646	-79.070	-0.216	0.073
-568.631	130.168	-0.142	0.181
-567.617	-200.000	0.005	0.079
-566.602	-89.358	-0.076	0.022
-565.588	-135.475	0.375	0.045
-564.573	70.621	-0.058	0.059
-563.558	800.000	-0.060	-0.222
-562.544	187.497	0.239	-0.356
-561.529	687.043	0.155	-0.403
-560.515	-200.000	0.014	-0.238
-559.500	-200.000	0.000	-0.151
-558.485	-99.310	0.090	0.023
-557.471	-200.000	-0.089	-0.445
-556.456	-200.000	-0.028	0.358
-555.442	43.238	0.119	0.109
-554.427	-87.964	0.164	-0.049
-553.412	-108.533	-0.329	0.070
-552.398	-200.000	-0.005	0.265
-551.383	-184.375	0.175	0.003
-550.369	-200.000	-0.024	0.158
-549.354	311.117	-0.135	0.252
-548.339	0.307	-0.174	-0.124
-547.325	-142.071	0.083	-0.008
-546.310	800.000	0.106	-0.308
-545.296	215.198	-0.163	-0.257
-544.281	169.019	0.229	0.325
-543.266	117.651	-0.036	-0.044
-542.252	522.658	0.038	0.089
-541.237	-132.501	0.277	0.035
-540.223	-131.626	-0.174	0.023
-539.208	-81.090	-0.223	-0.073
-538.193	106.812	-0.123	0.145
-537.179	36.370	-0.184	-0.161
-536.164	-124.017	-0.223	-0.035
-535.150	24.270	-0.248	-0.204
-534.135	-27.188	-0.096	-0.056
-533.121	-41.592	-0.306	-0.157
-532.106	-73.397	0.250	0.091
-531.091	-200.000	-0.005	0.209
-530.077	-89.672	0.199	-0.058
-529.062	-25.337	-0.188	-0.111
-528.048	45.200	0.013	0.012
-527.033	-44.607	0.154	-0.077
-526.018	210.099	0.124	0.193
-525.004	23.033	-0.394	-0.322
-523.989	81.459	-0.030	-0.032
-522.975	275.679	0.086	-0.152
-521.960	-200.000	-0.052	-0.283
-520.945	800.000	-0.072	-0.237
-519.931	-96.908	0.251	-0.066
-518.916	800.000	0.099	-0.312
-517.902	-37.295	-0.213	-0.114
-516.887	-101.813	0.210	0.051
-515.872	-200.000	-0.030	-0.251
-514.858	-55.809	0.141	0.063
-513.843	-190.424	-0.337	-0.004
-512.829	-121.710	0.304	0.050
-511.814	155.331	0.135	0.185
-510.799	200.483	-0.072	0.110
-509.785	82.973	-0.148	0.161
-508.770	-200.000	-0.258	0.001
-507.756	-200.000	0.027	0.123
-506.741	-88.785	0.145	-0.043
-505.726	-57.833	-0.002	0.001
-504.712	800.000	-0.055	0.210
-503.697	-78.498	-0.120	-0.041
-502.683	-8.265	0.352	0.236
-501.668	-70.974	0.410	-0.153
-500.653	-100.834	-0.319	0.078
-499.639	-29.694	-0.140	0.079
-498.624	335.699	0.079	0.153
-497.610	102.251	-0.040	0.046
-496.595	-27.223	0.229	-0.133
-495.581	-200.000	-0.024	-0.182
-494.566	21.154	-0.150	-0.121
-493.551	181.107	-0.178	0.260
-492.537	-141.295	0.307	0.031
-491.522	289.089	0.195	-0.352
-490.508	-154.539	0.423	0.028
-489.493	-193.996	-0.172	-0.001
-488.478	-200.000	0.064	0.395
-487.464	103.870	-0.144	-0.168
-486.449	-48.664	0.189	-0.090
-485.435	-150.475	0.166	0.013
-484.420	158.065	-0.120	-0.166
-483.405	800.000	0.077	-0.216
-482.391	573.003	-0.068	0.164
-481.376	-121.717	-0.235	-0.039
-480.362	-15.885	-0.305	0.193
-479.347	-170.562	-0.475	-0.016
-478.332	800.000	0.060	-0.226
-477.318	101.088	0.109	0.126
-476.303	-79.489	0.231	-0.078
-475.289	-87.358	0.332	0.100
-474.274	800.000	0.042	-0.162
-473.259	-200.000	-0.031	-0.148
-472.245	-192.918	0.004	0.000
-471.230	334.657	-0.088	0.169
-470.216	-148.829	0.079	-0.006
-469.201	-103.596	0.242	-0.056
-468.186	-200.000	0.058	0.279
-467.172	-93.521	-0.059	0.016
-466.157	-154.230	0.319	0.021
-465.143	397.396	-0.088	0.182
-464.128	-67.245	-0.204	0.080
-463.113	57.779	-0.128	-0.124
-462.099	800.000	0.052	0.156
-461.084	-200.000	-0.037	0.191
-460.070	-66.208	-0.232	0.092
-459.055	-132.409	0.260	-0.033
-458.040	-145.019	-0.070	-0.006
-457.026	800.000	-0.032	-0.130
-456.011	85.740	-0.109	-0.119
-454.997	4.564	-0.004	-0.003
-453.982	158.951	-0.083	-0.114
-452.968	35.741	-0.096	-0.084
-451.953	477.641	0.165	0.371
-450.938	800.000	0.093	-0.269
-449.924	165.356	-0.045	-0.063
-448.909	-85.937	-0.159	-0.049
-447.895	800.000	-0.060	0.175
-446.880	-152.431	0.209	0.015
-445.865	-87.568	0.406	0.122
-444.851	-153.106	-0.176	-0.012
-443.836	-20.882	0.154	-0.094
-442.822	-200.000	0.007	-0.187
-441.807	23.958	-0.456	-0.373
-440.792	-0.075	0.230	-0.162
-439.778	800.000	0.078	-0.239
-438.763	193.470	-0.049	-0.074
-437.749	136.347	-0.345	-0.446
-436.734	110.786	-0.124	-0.147
-435.719	-200.000	0.063	-0.373
-434.705	44.266	-0.011	0.010
-433.690	-20.019	0.128	0.078
-432.676	-116.536	-0.106	0.019
-431.661	-200.000	-0.006	0.126
-430.646	-200.000	-0.003	-0.084
-429.632	49.681	-0.224	0.210
-428.617	217.245	0.031	0.049
-427.603	-200.000	-0.025	0.144
-426.588	-90.092	0.323	0.093
-425.573	-200.000	-0.025	0.253
-424.559	175.595	-0.287	-0.412
-423.544	94.009	0.203	-0.229
-422.530	-16.938	-0.047	0.029
-421.515	-200.000	-0.005	0.057
-420.500	-81.016	0.145	0.048
-419.486	-153.512	0.130	0.009
-418.471	-19.990	-0.359	-0.219
-417.457	-31.799	0.244	0.136
-416.442	85.663	0.178	0.194
-415.428	800.000	-0.050	0.217
-414.413	-73.474	-0.116	0.042
-413.398	-200.000	0.000	0.193
-412.384	-117.541	0.285	-0.051
-411.369	416.759	0.029	0.062
-410.355	-10.277	0.131	-0.086
-409.340	186.166	0.036	0.053
-408.325	-8.946	-0.220	-0.146
-407.311	733.572	-0.041	-0.108
-406.296	57.979	0.061	-0.059
-405.282	-122.392	-0.369	-0.060
-404.267	14.164	0.197	0.152
-403.252	-200.000	0.002	-0.127
-402.238	109.725	-0.088	0.104
-401.223	-132.352	-0.224	0.029
-400.209	-186.826	-0.199	-0.003
-399.194	67.048	0.072	0.072
-398.179	800.000	0.014	-0.045
-397.165	-61.081	0.138	-0.058
-396.150	-85.435	0.201	-0.062
-395.136	800.000	-0.051	-0.214
-394.121	50.113	0.124	0.116
-393.106	230.857	0.044	-0.071
-392.092	-40.500	-0.201	0.104
-391.077	107.254	0.156	0.184
-390.063	142.836	0.123	0.162
-389.048	5.944	-0.177	0.130
-388.033	-15.080	0.078	-0.049
-387.019	11.154	-0.094	0.071
-386.004	-96.187	0.242	-0.064
-384.990	582.670	-0.023	-0.057
-383.975	-127.755	0.286	0.041
-382.960	-200.000	-0.026	-0.153
-381.946	-61.767	-0.134	-0.056
-380.931	-66.329	0.192	0.076
-379.917	-200.000	0.006	0.037
-378.902	-80.447	0.121	-0.040
-377.888	-200.000	-0.012	0.147
-376.873	-68.155	0.155	0.060
-375.858	340.139	-0.027	-0.053
-374.844	-92.881	0.213	0.059
-373.829	317.417	0.107	0.200
-372.815	800.000	0.034	0.124
-371.800	-91.510	0.269	-0.076
-370.785	25.799	-0.142	0.117
-369.771	-17.557	-0.116	0.072
-368.756	21.121	0.201	0.162
-367.742	113.405	-0.089	-0.107
-366.727	-83.526	-0.196	-0.062
-365.712	-27.846	0.174	-0.100
-364.698	458.036	-0.125	-0.275
-363.683	108.203	-0.181	-0.213
-362.669	4.601	-0.047	-0.034
-361.654	-127.910	0.334	0.048
-360.639	-35.926	0.297	-0.159
-359.625	288.223	-0.087	0.156
-358.610	307.587	-0.085	0.157
-357.596	173.193	0.129	0.184
-356.581	-41.029	0.201	0.103
-355.566	800.000	0.077	0.213
-354.552	-169.323	0.139	0.005
-353.537	-200.000	0.035	0.180
-352.523	-99.360	-0.184	-0.046
-351.508	-78.634	0.031	-0.010
-350.493	254.236	0.239	0.404
-349.479	72.350	0.227	0.234
-348.464	-148.859	-0.203	0.016
-347.450	-200.000	0.004	-0.160
-346.435	-200.000	-0.008	-0.333
-345.420	242.558	0.132	0.218
-344.406	-23.171	0.118	0.070
-343.391	800.000	0.081	-0.307
-342.377	-82.181	0.197	-0.064
-341.362	187.253	0.102	0.151
-340.348	60.271	0.150	0.146
-339.333	220.132	-0.172	0.272
-338.318	-166.584	-0.169	-0.007
-337.304	232.264	0.175	0.284
-336.289	47.686	0.208	-0.191
-335.275	800.000	-0.041	-0.114
-334.260	38.846	0.204	0.180
-333.245	28.752	0.093	-0.078
-332.231	800.000	-0.128	-0.381
-331.216	182.438	0.092	0.135
-330.202	300.043	-0.129	0.235
-329.187	-80.371	-0.236	0.078
-328.172	15.826	-0.093	0.073
-327.158	-145.842	-0.317	-0.028
-326.143	-97.627	-0.189	0.049
-325.129	-200.000	0.023	-0.135
-324.114	448.976	0.026	-0.057
-323.099	48.521	0.339	0.314
-322.085	-115.439	-0.252	-0.047
-321.070	195.987	-0.179	-0.269
-320.056	800.000	0.060	0.178
-319.041	39.683	0.148	-0.131
-318.026	-39.907	0.391	-0.201
-317.012	-10.622	-0.047	-0.031
-315.997	41.967	0.126	0.113
-314.983	97.012	0.113	0.128
-313.968	-200.000	0.041	0.525
-312.953	800.000	0.068	0.214
-311.939	121.160	0.174	0.214
-310.924	19.547	-0.136	0.108
-309.910	-25.513	-0.381	0.222
-308.895	-132.548	-0.076	-0.010
-307.880	-200.000	-0.045	0.360
-306.866	-69.768	0.297	-0.112
-305.851	129.132	0.192	0.242
-304.837	-200.000	0.021	-0.136
-303.822	-200.000	-0.005	-0.067
-302.807	-46.367	0.192	0.093
-301.793	-106.469	0.181	0.040
-300.778	-200.000	0.020	-0.218
-299.764	109.837	-0.178	-0.211
-298.749	-122.657	0.152	0.024
-297.735	1.198	-0.266	-0.189
-296.720	763.002	-0.066	-0.178
-295.705	3.336	-0.183	0.132
-294.691	193.712	0.096	-0.144
-293.676	-200.000	-0.011	-0.069
-292.662	-170.424	-0.192	-0.007
-291.647	-200.000	0.007	0.330
-290.632	102.011	-0.236	0.272
-289.618	10.184	0.356	0.267
-288.603	295.860	-0.057	-0.104
-287.589	-19.257	-0.103	0.063
-286.574	-125.592	-0.282	-0.042
-285.559	545.136	0.108	0.256
-284.545	-188.085	-0.276	-0.003
-283.530	-34.732	0.108	0.058
-282.516	-200.000	0.060	0.272
-281.501	-68.280	0.249	0.095
-280.486	800.000	-0.091	0.339
-279.472	-29.099	-0.329	-0.186
-278.457	64.081	-0.180	0.178
-277.443	-200.000	0.019	0.127
-276.428	-200.000	0.053	0.507
-275.413	30.129	0.148	-0.125
-274.399	116.349	0.146	0.176
-273.384	-200.000	-0.002	-0.136
-272.370	-75.479	0.343	-0.120
-271.355	-103.591	-0.298	-0.069
-270.340	800.000	0.067	0.218
-269.326	-200.000	0.007	0.336
-268.311	-200.000	-0.019	0.130
-267.297	20.073	0.173	-0.137
-266.282	800.000	-0.052	-0.196
-265.267	-166.198	0.276	-0.012
-264.253	-200.000	0.009	0.053
-263.238	101.269	0.045	0.051
-262.224	-41.134	0.128	0.065
-261.209	-48.692	-0.424	-0.201
-260.195	-70.811	-0.171	-0.064
-259.180	-169.379	0.073	-0.003
-258.165	47.768	-0.046	0.042
-257.151	800.000	-0.115	-0.320
-256.136	-144.348	0.219	-0.020
-255.122	234.238	-0.209	0.339
-254.107	6.594	-0.145	0.106
-253.092	-66.825	0.210	-0.082
-252.078	-112.665	-0.387	-0.076
-251.063	-104.274	-0.025	0.006
-250.049	-117.342	-0.226	0.040
-249.034	-193.462	-0.135	-0.001
-248.019	-76.386	0.317	-0.110
-247.005	-53.795	0.183	-0.082
-245.990	-200.000	-0.002	0.129
-244.976	-122.843	0.071	-0.011
-243.961	16.156	-0.186	0.145
-242.946	-200.000	-0.009	0.208
-241.932	-200.000	0.025	-0.216
-240.917	-107.909	-0.118	-0.025
-239.903	84.312	0.222	-0.239
-238.888	148.806	0.087	-0.116
-237.873	41.664	0.054	0.048
-236.859	100.829	-0.073	-0.084
-235.844	-45.672	-0.319	0.155
-234.830	800.000	0.108	-0.441
-233.815	-200.000	-0.020	0.129
-232.800	800.000	0.042	0.119
-231.786	151.404	0.166	0.222
-230.771	-172.449	0.272	0.008
-229.757	800.000	0.094	-0.354
-228.742	7.111	0.198	-0.145
-227.727	40.369	-0.232	0.205
-226.713	-200.000	0.091	0.479
-225.698	-102.323	-0.296	-0.070
-224.684	800.000	0.096	-0.324
-223.669	-102.692	-0.083	0.019
-222.655	-109.293	0.198	0.041
-221.640	800.000	-0.013	0.053
-220.625	237.769	-0.154	-0.251
-219.611	301.136	-0.021	-0.038
-218.596	17.674	-0.072	0.056
-217.582	-152.720	-0.183	-0.013
-216.567	188.106	0.087	-0.128
-215.552	323.447	0.180	0.337
-214.538	-124.606	0.222	-0.034
-213.523	-17.740	-0.381	-0.235
-212.509	81.945	-0.196	-0.209
-211.494	-200.000	0.029	-0.303
-210.479	603.029	0.168	0.411
-209.465	-133.115	-0.194	-0.024
-208.450	-72.001	-0.138	-0.050
-207.436	-60.010	0.147	0.062
-206.421	-68.925	0.343	0.130
-205.406	-26.581	0.311	0.179
-204.392	-200.000	0.003	-0.457
-203.377	85.709	-0.328	-0.354
-202.363	777.172	0.025	0.067
-201.348	119.725	-0.118	-0.144
-200.333	-78.955	-0.278	-0.093
-199.319	-127.911	-0.205	0.029
-198.304	-83.499	0.196	0.062
-197.290	-52.373	0.145	0.066
-196.275	-106.577	0.157	0.034
-195.260	-200.000	-0.018	0.248
-194.246	-55.549	-0.300	-0.132
-193.231	-132.296	0.181	0.023
-192.217	800.000	0.050	-0.161
-191.202	-0.156	0.140	0.098
-190.187	-42.306	-0.218	0.109
-189.173	-7.010	0.217	0.145
-188.158	-135.831	0.306	0.035
-187.144	-83.102	0.185	-0.059
-186.129	-34.225	0.343	-0.185
-185.114	-173.417	-0.262	-0.008
-184.100	598.238	-0.046	0.113
-183.085	-200.000	0.007	0.063
-182.071	-82.846	-0.176	-0.056
-181.056	-200.000	0.015	-0.248
-180.042	-76.178	-0.370	-0.128
-179.027	199.856	-0.104	0.156
-178.012	800.000	0.032	0.120
-176.998	-115.010	0.213	-0.040
-175.983	-64.247	-0.364	0.146
-174.969	-200.000	-0.035	0.262
-173.954	478.865	0.102	-0.227
-172.939	-144.162	-0.049	0.005
-171.925	-21.526	-0.363	0.217
-170.910	219.253	-0.185	0.291
-169.896	119.034	0.197	0.239
-168.881	123.941	0.065	-0.081
-167.866	-122.353	-0.471	0.075
-166.852	800.000	-0.044	0.143
-165.837	563.178	0.069	-0.165
-164.823	39.152	-0.186	0.163
-163.808	124.789	0.083	-0.103
-162.793	429.325	-0.108	0.229
-161.779	-46.401	-0.062	0.030
-160.764	-174.244	0.112	-0.003
-159.750	77.113	0.049	-0.051
-158.735	52.265	0.142	-0.133
-157.720	48.453	-0.099	0.091
-156.706	800.000	-0.021	0.073
-155.691	-200.000	-0.009	-0.177
-154.677	-32.162	0.355	-0.195
-153.662	-69.187	0.253	-0.095
-152.647	-200.000	-0.031	-0.168
-151.633	800.000	0.112	0.388
-150.618	-57.755	-0.224	-0.096
-149.604	-200.000	-0.055	0.250
-148.589	-200.000	0.011	0.171
-147.574	-200.000	-0.035	0.306
-146.560	-200.000	0.031	-0.152
-145.545	-65.343	-0.167	-0.066
-144.531	0.126	0.280	-0.196
-143.516	-200.000	-0.099	-0.448
-142.502	57.178	0.245	-0.234
-141.487	522.338	0.071	0.164
-140.472	-34.787	-0.092	0.049
-139.458	-77.892	-0.304	0.103
-138.443	246.036	0.127	0.210
-137.429	800.000	0.197	0.611
-136.414	-200.000	-0.040	0.197
-135.399	9.025	0.125	0.093
-134.385	-2.021	-0.089	-0.062
-133.370	-70.035	-0.298	-0.111
-132.356	-200.000	-0.035	-0.186
-131.341	561.346	-0.105	0.248
-130.326	-200.000	0.005	-0.101
-129.312	-153.931	0.206	-0.014
-128.297	-66.710	-0.250	-0.097
-127.283	234.947	-0.090	-0.145
-126.268	-22.258	0.159	-0.095
-125.253	23.627	0.053	-0.043
-124.239	-200.000	0.074	0.318
-123.224	-137.287	0.244	0.027
-122.210	-200.000	-0.052	0.000
