DTS Sentinel unit serial number:	SN413079Multiplexer serial number:	ORYXHardware model number:	OX4-SRSoftware version number:	ORYX F/W v4.00 Oryx Data Collector v3.7.2.0data status	okinstallation	princeton_trtdifferential loss correction	single-endedforward channel	channel 2reverse channel	N/Adate	2019/09/18time	21:59:34forward acquisition time	60.00reverse acquisition time	0.00gamma	496.2192k internal	0.2348k external	0.2348temperature offset calibration	1.0018default loss term (dB/km)	0.3790temperature slope calibration	1.0000multiplexer offset coefficient	1.0000multiplexer slope coefficient	1.0000fibre end	0.00T internal ref (°C)	24.61T ext. ref 1 (°C)	0.81T ext. ref 2 (°C)	18.28length (m)	temperature (°C)	Stokes	anti-Stokes-747.200	-200.000	0.029	0.223
-746.185	137.062	0.033	-0.043
-745.171	800.000	-0.041	-0.138
-744.156	473.104	-0.236	0.531
-743.142	139.403	0.101	-0.133
-742.127	-86.436	-0.124	-0.038
-741.112	132.632	0.186	0.239
-740.098	-38.336	-0.350	0.185
-739.083	52.146	0.400	0.381
-738.069	-152.254	-0.098	-0.007
-737.054	-141.448	0.151	-0.015
-736.039	-25.928	-0.319	-0.188
-735.025	-50.559	0.279	-0.132
-734.010	-16.960	0.195	0.123
-732.996	-160.345	-0.317	-0.017
-731.981	285.483	-0.133	0.240
-730.966	421.778	0.097	0.207
-729.952	-117.006	0.233	0.043
-728.937	-68.767	-0.191	0.074
-727.923	79.057	-0.160	-0.171
-726.908	298.418	-0.141	-0.259
-725.894	-96.552	-0.215	0.057
-724.879	281.894	0.011	0.020
-723.864	31.367	0.077	-0.066
-722.850	800.000	0.061	0.174
-721.835	-200.000	-0.009	-0.045
-720.821	94.639	-0.080	0.091
-719.806	-147.192	-0.232	0.020
-718.791	-46.730	-0.228	-0.111
-717.777	125.353	0.021	0.027
-716.762	-200.000	0.016	0.082
-715.748	-160.152	-0.126	0.007
-714.733	-116.473	-0.115	0.021
-713.718	-90.565	0.242	-0.070
-712.704	800.000	0.038	-0.153
-711.689	-54.695	0.159	-0.072
-710.675	-31.924	0.082	0.046
-709.660	-97.755	0.134	-0.035
-708.645	-14.304	-0.187	0.120
-707.631	-52.496	0.263	-0.121
-706.616	51.467	0.101	-0.096
-705.602	652.246	-0.091	-0.233
-704.587	-200.000	-0.013	-0.152
-703.572	34.845	0.195	-0.170
-702.558	-192.364	0.333	-0.003
-701.543	-12.008	0.474	-0.310
-700.529	-101.372	-0.236	0.058
-699.514	-200.000	-0.025	0.187
-698.499	229.341	0.158	0.258
-697.485	-33.821	-0.071	-0.039
-696.470	-158.918	0.363	0.021
-695.456	12.575	0.106	0.082
-694.441	-200.000	-0.022	-0.146
-693.426	-114.107	-0.094	-0.018
-692.412	424.634	-0.029	-0.063
-691.397	-149.957	-0.170	-0.013
-690.383	-52.965	-0.246	-0.113
-689.368	101.391	0.095	0.110
-688.354	158.398	-0.130	-0.180
-687.339	461.518	-0.034	0.075
-686.324	-45.208	0.195	-0.097
-685.310	-111.542	-0.167	0.034
-684.295	-200.000	0.017	0.156
-683.281	-200.000	-0.003	0.083
-682.266	-29.296	0.272	-0.155
-681.251	-200.000	-0.019	-0.093
-680.237	-102.020	0.231	0.056
-679.222	-74.574	0.295	-0.106
-678.208	-117.949	0.292	-0.052
-677.193	-200.000	-0.032	0.149
-676.178	231.704	0.144	0.235
-675.164	-200.000	0.021	-0.129
-674.149	92.689	0.153	0.172
-673.135	160.029	-0.075	-0.105
-672.120	-85.527	-0.057	0.018
-671.105	101.824	-0.109	-0.127
-670.091	608.636	0.079	-0.196
-669.076	-15.736	-0.166	0.106
-668.062	800.000	-0.055	0.199
-667.047	800.000	0.092	-0.273
-666.032	-166.580	0.261	-0.011
-665.018	379.485	0.113	-0.230
-664.003	264.113	0.156	-0.271
-662.989	106.881	0.222	0.262
-661.974	-200.000	0.009	0.277
-660.959	800.000	-0.114	0.344
-659.945	-121.424	-0.085	-0.014
-658.930	-66.123	0.133	0.053
-657.916	-155.221	0.210	-0.014
-656.901	-35.442	-0.343	0.186
-655.886	-131.846	-0.149	-0.019
-654.872	18.976	-0.156	-0.124
-653.857	480.498	-0.058	-0.132
-652.843	31.195	-0.235	-0.201
-651.828	-0.670	0.470	-0.332
-650.814	-81.629	0.108	0.035
-649.799	800.000	-0.037	-0.141
-648.784	673.933	0.096	-0.248
-647.770	-47.767	0.353	-0.171
-646.755	-155.012	-0.354	-0.023
-645.741	-200.000	-0.006	0.112
-644.726	800.000	-0.043	-0.184
-643.711	120.691	-0.034	-0.042
-642.697	-114.813	0.332	0.063
-641.682	-60.575	-0.194	0.082
-640.668	232.227	0.238	0.389
-639.653	22.981	0.087	-0.071
-638.638	-147.361	-0.459	-0.039
-637.624	800.000	0.089	-0.321
-636.609	227.885	-0.113	0.184
-635.595	800.000	-0.057	0.216
-634.580	241.224	-0.088	0.146
-633.565	-157.855	-0.093	-0.006
-632.551	800.000	-0.055	0.202
-631.536	800.000	0.112	0.339
-630.522	800.000	0.023	-0.076
-629.507	800.000	-0.031	-0.132
-628.492	107.453	0.078	0.093
-627.478	555.747	0.020	-0.047
-626.463	192.366	0.011	0.016
-625.449	-200.000	-0.012	-0.137
-624.434	-200.000	0.023	0.140
-623.419	-200.000	-0.117	-0.640
-622.405	97.064	-0.114	-0.130
-621.390	-166.146	0.049	0.002
-620.376	129.571	0.146	0.185
-619.361	-200.000	0.003	-0.358
-618.346	-41.757	-0.294	0.150
-617.332	74.154	0.123	0.129
-616.317	-65.379	0.365	-0.146
-615.303	57.010	0.195	0.189
-614.288	-135.396	0.358	-0.043
-613.273	800.000	-0.030	0.092
-612.259	-169.034	0.116	0.004
-611.244	-200.000	-0.068	-0.318
-610.230	28.221	-0.126	0.105
-609.215	-76.879	0.100	-0.035
-608.201	86.094	0.074	-0.081
-607.186	-102.578	-0.553	0.131
-606.171	450.466	-0.179	-0.393
-605.157	169.874	-0.117	-0.166
-604.142	-99.849	-0.134	-0.033
-603.128	-51.067	-0.212	-0.099
-602.113	-28.152	-0.226	0.130
-601.098	209.976	0.221	0.344
-600.084	435.763	-0.071	-0.154
-599.069	186.775	-0.126	-0.187
-598.055	800.000	-0.008	0.027
-597.040	-58.054	-0.268	-0.116
-596.025	504.800	0.187	-0.429
-595.011	449.173	-0.175	-0.384
-593.996	326.650	0.086	-0.163
-592.982	-130.246	-0.404	0.055
-591.967	190.641	-0.100	-0.149
-590.952	265.926	-0.130	-0.225
-589.938	-54.812	0.138	0.062
-588.923	-200.000	-0.027	0.146
-587.909	-164.459	0.164	0.007
-586.894	800.000	-0.099	0.277
-585.879	-17.791	-0.208	-0.130
-584.865	-35.499	0.226	-0.122
-583.850	-10.013	0.226	0.149
-582.836	222.308	0.078	-0.124
-581.821	800.000	-0.106	-0.395
-580.806	800.000	-0.022	0.071
-579.792	-77.283	-0.393	-0.136
-578.777	-167.591	-0.461	0.018
-577.763	-7.532	-0.196	0.132
-576.748	-87.950	0.193	-0.058
-575.733	-200.000	0.009	-0.461
-574.719	103.279	-0.282	-0.329
-573.704	-200.000	-0.003	-0.084
-572.690	-46.302	0.422	-0.206
-571.675	-64.681	0.318	-0.128
-570.661	92.864	-0.058	0.065
-569.646	-200.000	-0.028	-0.265
-568.631	593.240	-0.105	0.258
-567.617	-131.745	-0.321	-0.042
-566.602	130.551	-0.012	-0.016
-565.588	119.906	-0.146	-0.180
-564.573	-100.889	-0.202	0.049
-563.558	458.299	0.076	-0.168
-562.544	70.141	0.162	-0.166
-561.529	800.000	0.131	-0.400
-560.515	-200.000	-0.018	-0.268
-559.500	-200.000	-0.017	0.266
-558.485	100.505	0.224	-0.258
-557.471	-77.989	0.294	0.101
-556.456	-102.684	-0.337	-0.080
-555.442	160.539	0.155	-0.215
-554.427	-80.950	-0.500	-0.164
-553.412	-180.662	-0.109	-0.002
-552.398	-62.153	0.157	0.065
-551.383	8.329	0.213	0.159
-550.369	88.553	0.304	0.335
-549.354	-33.597	-0.290	0.159
-548.339	800.000	-0.104	-0.365
-547.325	766.141	-0.064	-0.173
-546.310	-109.451	0.086	-0.018
-545.296	-57.225	-0.135	0.059
-544.281	53.250	0.055	0.052
-543.266	-41.414	0.312	0.159
-542.252	-200.000	0.037	-0.192
-541.237	-39.760	0.232	0.120
-540.223	73.100	-0.104	-0.108
-539.208	335.933	-0.126	-0.242
-538.193	-76.397	-0.311	0.108
-537.179	210.991	-0.112	0.174
-536.164	1.532	0.096	0.069
-535.150	-200.000	0.006	0.297
-534.135	-200.000	0.037	0.426
-533.121	-82.172	0.106	0.034
-532.106	-146.709	-0.396	0.034
-531.091	-25.744	-0.319	-0.186
-530.077	-200.000	0.014	-0.200
-529.062	42.067	-0.089	-0.080
-528.048	-46.524	0.557	-0.271
-527.033	-103.793	-0.349	0.081
-526.018	-46.549	-0.129	-0.063
-525.004	325.611	-0.133	-0.253
-523.989	800.000	-0.007	-0.027
-522.975	84.147	-0.075	0.082
-521.960	-200.000	0.010	0.177
-520.945	800.000	-0.058	-0.248
-519.931	800.000	0.051	0.197
-518.916	193.198	-0.069	-0.103
-517.902	800.000	0.078	0.275
-516.887	-42.933	0.215	0.108
-515.872	113.256	-0.200	-0.241
-514.858	-200.000	-0.011	0.127
-513.843	74.341	0.528	0.550
-512.829	-200.000	-0.019	-0.226
-511.814	117.060	0.212	0.258
-510.799	100.244	0.068	-0.078
-509.785	-99.421	0.422	0.105
-508.770	-200.000	0.005	0.062
-507.756	-80.157	0.179	-0.059
-506.741	800.000	-0.086	0.272
-505.726	-33.088	0.131	-0.072
-504.712	-54.561	-0.083	-0.037
-503.697	-60.069	0.351	-0.148
-502.683	-130.673	0.043	0.006
-501.668	-108.985	0.302	-0.064
-500.653	174.482	0.092	0.131
-499.639	38.082	-0.188	0.166
-498.624	-200.000	0.001	0.140
-497.610	160.397	-0.106	0.146
-496.595	800.000	-0.013	0.046
-495.581	-75.357	-0.174	-0.061
-494.566	-5.142	0.252	-0.171
-493.551	-48.209	-0.661	0.316
-492.537	-79.634	0.242	0.081
-491.522	-200.000	-0.111	0.497
-490.508	51.627	-0.316	0.297
-489.493	-30.125	-0.351	-0.197
-488.478	-50.616	0.296	0.138
-487.464	800.000	-0.057	-0.220
-486.449	265.346	-0.122	-0.210
-485.435	800.000	-0.104	-0.308
-484.420	426.759	0.063	-0.135
-483.405	652.059	0.062	-0.157
-482.391	-200.000	-0.021	0.247
-481.376	-157.355	-0.410	-0.024
-480.362	-107.288	-0.234	-0.051
-479.347	303.779	-0.043	0.079
-478.332	-200.000	0.059	-0.259
-477.318	6.740	-0.345	-0.254
-476.303	-7.574	0.043	-0.029
-475.289	82.381	-0.052	-0.055
-474.274	159.554	0.134	0.184
-473.259	-200.000	-0.194	-0.001
-472.245	-84.202	-0.557	0.175
-471.230	-85.037	0.291	0.090
-470.216	-115.337	0.098	-0.018
-469.201	661.044	-0.067	-0.170
-468.186	-200.000	0.032	0.164
-467.172	-136.233	0.298	0.034
-466.157	-200.000	0.020	0.164
-465.143	800.000	-0.041	-0.166
-464.128	800.000	-0.045	0.153
-463.113	119.428	0.194	0.237
-462.099	800.000	-0.069	0.273
-461.084	-33.218	0.254	-0.139
-460.070	-4.458	0.328	-0.224
-459.055	-71.423	0.248	0.092
-458.040	571.216	0.057	-0.136
-457.026	-200.000	-0.045	0.194
-456.011	-90.723	0.188	0.054
-454.997	373.032	-0.133	-0.266
-453.982	-42.451	0.099	0.050
-452.968	-83.410	0.210	0.066
-451.953	-56.973	-0.072	0.031
-450.938	259.117	0.129	0.220
-449.924	-200.000	-0.018	0.238
-448.909	800.000	0.036	0.128
-447.895	-27.681	-0.228	0.131
-446.880	-92.637	-0.324	-0.090
-445.865	-141.457	-0.282	0.028
-444.851	-90.975	-0.098	0.028
-443.836	-20.877	-0.201	0.121
-442.822	-177.654	0.205	-0.005
-441.807	686.598	-0.088	0.226
-440.792	320.161	-0.023	0.043
-439.778	511.404	-0.027	0.063
-438.763	-200.000	-0.004	-0.384
-437.749	18.269	0.194	-0.153
-436.734	-88.302	0.639	0.189
-435.719	121.965	0.156	-0.193
-434.705	-27.652	0.232	0.133
-433.690	204.865	0.193	-0.295
-432.676	-14.885	0.150	0.095
-431.661	-108.381	0.392	0.083
-430.646	-54.877	0.173	0.077
-429.632	2.446	-0.261	-0.186
-428.617	190.775	0.233	-0.346
-427.603	482.899	0.107	0.239
-426.588	-16.484	0.037	0.023
-425.573	-200.000	0.004	0.056
-424.559	411.935	-0.054	0.112
-423.544	79.301	-0.136	0.144
-422.530	-147.327	0.163	-0.014
-421.515	800.000	0.065	-0.218
-420.500	-200.000	0.003	-0.066
-419.486	244.130	-0.158	0.261
-418.471	-16.615	-0.205	0.128
-417.457	-200.000	-0.016	0.206
-416.442	3.954	0.219	-0.158
-415.428	-21.260	0.055	0.033
-414.413	-200.000	0.057	-0.248
-413.398	-11.928	-0.166	0.108
-412.384	114.914	-0.158	0.191
-411.369	-87.865	-0.323	0.096
-410.355	155.466	-0.177	0.240
-409.340	-200.000	0.034	0.160
-408.325	-22.882	0.058	-0.034
-407.311	800.000	0.047	0.142
-406.296	-200.000	0.007	0.107
-405.282	-200.000	-0.054	-0.326
-404.267	-200.000	0.020	0.200
-403.252	-60.402	0.181	0.076
-402.238	82.813	0.075	0.081
-401.223	-59.215	-0.187	-0.080
-400.209	-200.000	0.048	0.259
-399.194	15.538	0.166	0.128
-398.179	166.002	-0.139	-0.194
-397.165	26.268	0.241	-0.199
-396.150	-200.000	-0.003	0.186
-395.136	69.139	0.264	-0.267
-394.121	140.129	0.048	-0.062
-393.106	580.756	0.105	-0.254
-392.092	800.000	0.051	0.205
-391.077	396.327	0.059	0.121
-390.063	213.908	-0.025	0.039
-389.048	-171.402	0.072	-0.002
-388.033	14.131	-0.117	0.090
-387.019	670.611	0.036	0.091
-386.004	30.456	-0.203	0.171
-384.990	-200.000	0.011	-0.382
-383.975	-27.745	-0.177	-0.101
-382.960	800.000	-0.053	-0.191
-381.946	687.270	0.053	0.137
-380.931	800.000	-0.014	-0.058
-379.917	226.601	0.247	0.395
-378.902	749.979	-0.062	0.164
-377.888	-53.837	0.372	0.167
-376.873	800.000	0.065	0.230
-375.858	-80.365	-0.027	-0.009
-374.844	352.846	-0.086	-0.169
-373.829	800.000	0.154	0.454
-372.815	117.440	0.278	0.337
-371.800	197.120	-0.125	0.187
-370.785	507.801	0.085	0.195
-369.771	-68.716	0.035	0.013
-368.756	48.779	0.183	-0.169
-367.742	-196.945	0.257	-0.002
-366.727	718.262	0.141	-0.369
-365.712	162.179	-0.037	-0.051
-364.698	44.104	0.046	-0.041
-363.683	-81.710	-0.243	0.079
-362.669	800.000	-0.048	0.168
-361.654	-87.138	-0.205	-0.061
-360.639	134.169	0.098	0.126
-359.625	88.557	-0.054	0.059
-358.610	-57.965	0.305	0.131
-357.596	-98.811	-0.177	0.044
-356.581	800.000	-0.026	-0.105
-355.566	214.192	-0.079	0.124
-354.552	-200.000	0.052	-0.428
-353.537	607.475	-0.099	0.242
-352.523	134.625	0.103	-0.131
-351.508	552.215	-0.067	-0.158
-350.493	-200.000	-0.038	0.203
-349.479	-137.592	-0.273	-0.030
-348.464	101.928	0.170	-0.195
-347.450	-108.354	0.368	-0.078
-346.435	-200.000	0.031	-0.284
-345.420	800.000	-0.045	-0.133
-344.406	75.455	0.124	0.129
-343.391	145.386	0.094	0.124
-342.377	76.291	-0.039	0.041
-341.362	712.719	0.066	-0.172
-340.348	465.776	-0.034	-0.076
-339.333	-12.681	0.098	0.063
-338.318	-121.785	0.165	-0.027
-337.304	788.547	0.121	-0.328
-336.289	-25.794	-0.202	-0.117
-335.275	800.000	0.102	-0.279
-334.260	-200.000	0.007	-0.087
-333.245	62.872	-0.091	0.089
-332.231	12.147	-0.153	0.116
-331.216	-186.364	0.263	-0.004
-330.202	66.804	0.011	0.011
-329.187	61.660	0.073	0.071
-328.172	224.747	-0.097	0.154
-327.158	102.292	0.043	0.050
-326.143	-56.589	-0.028	0.012
-325.129	136.401	0.140	-0.180
-324.114	800.000	-0.045	0.175
-323.099	-200.000	-0.063	-0.347
-322.085	-80.563	-0.050	0.016
-321.070	264.322	-0.060	-0.102
-320.056	800.000	-0.111	-0.339
-319.041	26.641	0.202	-0.166
-318.026	138.255	-0.072	-0.093
-317.012	50.434	0.130	-0.121
-315.997	55.178	-0.065	-0.062
-314.983	45.321	-0.147	-0.133
-313.968	249.050	-0.085	-0.142
-312.953	57.961	-0.291	-0.280
-311.939	-184.345	-0.295	0.005
-310.924	-72.300	0.419	0.152
-309.910	140.254	-0.216	0.280
-308.895	-85.539	-0.175	0.054
-307.880	165.924	-0.074	0.102
-306.866	-200.000	0.020	0.102
-305.851	-56.851	0.034	-0.015
-304.837	-200.000	0.009	0.321
-303.822	-23.592	-0.312	0.184
-302.807	652.094	0.111	0.279
-301.793	240.457	0.147	0.240
-300.778	188.305	0.087	0.128
-299.764	-4.320	0.038	-0.026
-298.749	800.000	-0.043	0.167
-297.735	-50.321	-0.306	0.142
-296.720	61.126	-0.212	-0.206
-295.705	-200.000	0.030	-0.187
-294.691	800.000	0.085	-0.257
-293.676	-102.158	-0.157	-0.037
-292.662	0.337	-0.150	-0.105
-291.647	-100.551	0.090	0.022
-290.632	800.000	-0.111	0.362
-289.618	-200.000	-0.072	-0.325
-288.603	-26.741	-0.208	0.120
-287.589	-200.000	-0.011	0.477
-286.574	-114.694	0.138	-0.026
-285.559	579.212	0.053	-0.128
-284.545	96.058	0.116	0.131
-283.530	-200.000	0.059	-0.256
-282.516	800.000	0.082	-0.281
-281.501	-82.600	-0.145	0.046
-280.486	143.985	0.089	-0.116
-279.472	-153.568	-0.238	0.016
-278.457	20.756	-0.284	0.226
-277.443	80.356	-0.221	-0.233
-276.428	241.724	-0.037	-0.060
-275.413	-53.127	-0.218	0.098
-274.399	-112.610	-0.072	-0.014
-273.384	-200.000	-0.003	-0.506
-272.370	-200.000	-0.026	-0.394
-271.355	157.192	0.124	-0.168
-270.340	-200.000	0.077	-0.000
-269.326	-119.466	0.280	0.048
-268.311	24.743	-0.239	-0.194
-267.297	-3.644	-0.206	-0.140
-266.282	128.065	-0.072	0.090
-265.267	131.059	-0.175	0.221
-264.253	-33.495	-0.134	-0.072
-263.238	-121.735	0.299	0.048
-262.224	-21.116	0.254	-0.152
-261.209	-7.545	0.163	0.108
-260.195	-62.490	0.181	0.074
-259.180	-200.000	0.031	0.320
-258.165	-165.832	0.334	0.014
-257.151	-14.780	-0.131	-0.082
-256.136	103.166	-0.066	-0.076
-255.122	376.085	0.042	0.083
-254.107	-67.721	-0.132	-0.051
-253.092	423.138	0.024	0.050
-252.078	-27.534	-0.307	0.175
-251.063	-26.619	0.378	-0.217
-250.049	-200.000	-0.024	-0.128
-249.034	65.258	0.116	0.114
-248.019	427.337	0.044	0.093
-247.005	86.675	0.231	0.250
-245.990	-200.000	-0.005	0.121
-244.976	22.268	0.274	-0.219
-243.961	14.388	-0.170	-0.130
-242.946	-82.251	0.039	-0.012
-241.932	-162.864	0.311	-0.015
-240.917	-111.509	-0.257	0.051
-239.903	800.000	0.055	-0.233
-238.888	-84.508	-0.146	0.045
-237.873	-93.352	0.246	-0.067
-236.859	451.051	-0.079	0.171
-235.844	800.000	0.062	-0.217
-234.830	370.963	-0.257	-0.510
-233.815	-94.543	-0.135	-0.036
-232.800	162.892	-0.135	0.186
-231.786	-78.023	-0.284	-0.096
-230.771	-75.842	0.191	0.066
-229.757	-63.788	0.286	-0.115
-228.742	-31.006	-0.053	0.030
-227.727	-89.861	-0.111	0.032
-226.713	-200.000	0.068	0.353
-225.698	-200.000	-0.091	0.402
-224.684	-109.604	0.203	0.042
-223.669	226.633	0.217	0.345
-222.655	-65.112	0.102	-0.040
-221.640	-60.457	0.040	-0.017
-220.625	31.093	0.147	-0.124
-219.611	73.793	0.200	0.205
-218.596	198.794	0.059	0.089
-217.582	226.879	-0.163	0.259
-216.567	-92.185	-0.174	0.048
-215.552	40.759	0.272	-0.240
-214.538	457.026	-0.057	-0.124
-213.523	171.978	0.079	-0.112
-212.509	15.985	0.300	-0.231
-211.494	103.115	0.109	0.126
-210.479	800.000	0.038	0.157
-209.465	-200.000	-0.039	-0.270
-208.450	251.466	0.125	0.208
-207.436	-132.807	0.052	0.007
-206.421	-124.053	0.171	-0.026
-205.406	-200.000	-0.056	0.430
-204.392	800.000	-0.058	-0.184
-203.377	-5.921	0.194	0.130
-202.363	-79.051	0.196	-0.065
-201.348	81.462	-0.111	0.117
-200.333	-200.000	0.028	-0.140
-199.319	-82.315	0.134	0.043
-198.304	-139.155	-0.317	0.034
-197.290	52.760	0.201	-0.188
-196.275	-29.404	0.156	0.087
-195.260	-200.000	0.030	0.244
-194.246	139.975	-0.100	0.129
-193.231	800.000	-0.029	-0.118
-192.217	94.378	-0.378	-0.419
-191.202	112.263	0.240	-0.284
-190.187	98.864	-0.222	-0.251
-189.173	66.618	0.145	-0.144
-188.158	-97.623	-0.101	-0.026
-187.144	260.328	-0.213	-0.360
-186.129	800.000	0.065	-0.241
-185.114	-200.000	0.033	0.201
-184.100	-37.719	-0.155	-0.081
-183.085	-44.839	-0.082	0.040
-182.071	-121.256	-0.050	0.008
-181.056	-108.122	0.169	-0.036
-180.042	-132.474	0.300	-0.038
-179.027	-146.486	0.190	0.016
-178.012	800.000	-0.135	0.416
-176.998	-61.265	-0.501	0.206
-175.983	-92.601	0.378	-0.104
-174.969	-147.576	-0.042	-0.003
-173.954	131.796	0.086	0.109
-172.939	68.400	-0.045	-0.045
-171.925	299.182	0.217	0.391
-170.910	78.715	-0.080	0.083
-169.896	-200.000	0.011	0.185
-168.881	-97.149	-0.229	0.058
-167.866	-19.997	0.174	0.105
-166.852	-22.553	-0.251	0.148
-165.837	142.083	-0.157	-0.203
-164.823	177.236	-0.154	0.219
-163.808	711.186	0.102	0.263
-162.793	-106.846	-0.229	-0.050
-161.779	800.000	0.092	0.372
-160.764	-200.000	-0.000	0.211
-159.750	-84.222	-0.216	0.067
-158.735	188.318	-0.063	-0.092
-157.720	-200.000	-0.003	0.249
-156.706	-81.969	-0.219	-0.070
-155.691	470.951	0.115	0.252
-154.677	87.654	-0.034	-0.036
-153.662	-124.143	-0.088	-0.013
-152.647	-200.000	-0.000	0.156
-151.633	-43.247	-0.140	0.069
-150.618	800.000	0.007	-0.020
-149.604	800.000	0.089	0.289
-148.589	-200.000	-0.052	-0.235
-147.574	16.467	-0.209	-0.161
-146.560	-200.000	0.023	0.165
-145.545	385.534	-0.075	0.152
-144.531	33.310	0.141	-0.119
-143.516	23.840	-0.150	-0.121
-142.502	-138.290	0.095	0.010
-141.487	315.155	-0.019	0.034
-140.472	135.975	0.192	-0.244
-139.458	800.000	-0.060	0.168
-138.443	-0.237	-0.249	-0.173
-137.429	-85.356	0.095	0.029
-136.414	-103.527	0.337	0.077
-135.399	-3.396	-0.253	0.172
-134.385	-200.000	0.005	0.044
-133.370	-66.839	0.183	-0.070
-132.356	-200.000	-0.034	-0.213
-131.341	-141.431	0.459	0.045
-130.326	-61.293	0.242	-0.100
-129.312	302.324	0.233	0.421
-128.297	-200.000	0.029	0.140
-127.283	-75.224	-0.171	0.060
-126.268	17.111	-0.215	0.166
-125.253	-28.366	0.234	-0.132
-124.239	27.540	-0.075	0.062
-123.224	-133.076	0.219	0.027
-122.210	-200.000	0.077	-0.348
-121.195	56.133	-0.279	-0.265
