DTS Sentinel unit serial number:	SN413079Multiplexer serial number:	ORYXHardware model number:	OX4-SRSoftware version number:	ORYX F/W v4.00 Oryx Data Collector v3.7.2.0data status	okinstallation	princeton_trtdifferential loss correction	single-endedforward channel	channel 2reverse channel	N/Adate	2019/09/17time	07:55:34forward acquisition time	60.00reverse acquisition time	0.00gamma	496.2192k internal	0.2333k external	0.2333temperature offset calibration	0.9974default loss term (dB/km)	0.3790temperature slope calibration	1.0000multiplexer offset coefficient	1.0000multiplexer slope coefficient	1.0000fibre end	0.00T internal ref (°C)	27.20T ext. ref 1 (°C)	0.12T ext. ref 2 (°C)	22.29length (m)	temperature (°C)	Stokes	anti-Stokes-747.200	-47.908	-0.210	-0.102
-746.185	-200.000	-0.035	0.200
-745.171	-200.000	-0.020	-0.201
-744.156	-200.000	0.011	-0.063
-743.142	43.834	-0.123	-0.113
-742.127	-136.144	0.346	0.041
-741.112	213.347	0.077	-0.122
-740.098	144.900	-0.075	0.101
-739.083	800.000	0.070	0.292
-738.069	-62.919	-0.260	-0.108
-737.054	565.974	0.013	0.031
-736.039	-200.000	0.004	0.041
-735.025	30.902	0.372	0.320
-734.010	-200.000	-0.069	-0.345
-732.996	-45.570	0.350	0.174
-731.981	-38.201	-0.104	0.056
-730.966	-173.706	-0.164	-0.005
-729.952	-200.000	-0.008	0.238
-728.937	-154.902	-0.313	0.021
-727.923	-113.887	-0.182	-0.036
-726.908	480.771	-0.187	-0.425
-725.894	-183.254	-0.373	-0.007
-724.879	56.125	-0.156	0.152
-723.864	-188.372	-0.263	-0.003
-722.850	-200.000	0.004	-0.228
-721.835	-200.000	-0.006	0.052
-720.821	-161.012	0.251	-0.013
-719.806	413.775	0.062	-0.133
-718.791	-14.414	0.095	-0.061
-717.777	243.459	-0.142	0.239
-716.762	-200.000	0.002	-0.046
-715.748	-200.000	-0.002	0.131
-714.733	-200.000	0.077	0.342
-713.718	-82.484	0.388	-0.127
-712.704	439.769	-0.157	-0.345
-711.689	-107.547	-0.254	-0.056
-710.675	-200.000	0.007	-0.408
-709.660	800.000	0.046	0.177
-708.645	-200.000	0.019	0.311
-707.631	-200.000	-0.013	0.223
-706.616	-84.518	-0.216	0.069
-705.602	-10.340	0.109	0.073
-704.587	-200.000	-0.006	-0.059
-703.572	-108.588	-0.367	-0.079
-702.558	83.348	0.273	-0.298
-701.543	-200.000	0.056	0.274
-700.529	-73.190	0.413	0.152
-699.514	206.675	-0.180	0.281
-698.499	83.322	0.216	-0.236
-697.485	-33.908	-0.084	-0.046
-696.470	-200.000	0.045	-0.455
-695.456	-200.000	-0.013	-0.080
-694.441	-200.000	-0.025	0.265
-693.426	800.000	0.037	-0.110
-692.412	-120.528	0.187	-0.032
-691.397	-115.396	0.275	-0.052
-690.383	518.678	0.071	0.167
-689.368	-55.273	-0.222	-0.100
-688.354	-200.000	0.030	0.382
-687.339	-78.064	-0.503	-0.174
-686.324	19.216	-0.261	0.210
-685.310	-70.765	-0.190	-0.072
-684.295	-200.000	-0.004	-0.179
-683.281	83.124	-0.243	-0.266
-682.266	-102.587	-0.356	0.085
-681.251	-137.652	0.064	-0.007
-680.237	264.959	-0.065	0.113
-679.222	-200.000	0.008	0.072
-678.208	-200.000	0.029	-0.168
-677.193	-93.941	-0.381	-0.105
-676.178	58.961	0.141	-0.139
-675.164	-43.419	-0.007	-0.004
-674.149	428.139	-0.102	-0.221
-673.135	800.000	-0.039	0.138
-672.120	-41.436	-0.217	0.112
-671.105	42.983	0.137	-0.126
-670.091	91.831	0.045	-0.051
-669.076	-97.765	0.330	0.086
-668.062	-130.445	-0.095	-0.013
-667.047	77.174	-0.175	-0.187
-666.032	64.028	0.157	0.159
-665.018	-200.000	0.007	-0.036
-664.003	-29.686	-0.148	-0.084
-662.989	83.392	0.146	-0.159
-661.974	-22.488	-0.029	0.018
-660.959	-68.777	-0.348	-0.135
-659.945	330.699	0.127	-0.245
-658.930	741.050	-0.117	0.316
-657.916	-104.874	0.144	0.033
-656.901	-135.002	0.122	-0.015
-655.886	800.000	0.104	0.336
-654.872	59.724	0.177	-0.175
-653.857	337.566	0.064	-0.125
-652.843	21.738	0.157	-0.128
-651.828	133.442	-0.110	0.142
-650.814	400.211	0.094	-0.197
-649.799	173.753	0.085	-0.123
-648.784	-66.598	0.232	-0.092
-647.770	99.822	-0.264	-0.306
-646.755	-200.000	-0.030	0.389
-645.741	45.712	0.160	-0.148
-644.726	800.000	-0.044	0.164
-643.711	113.746	-0.268	0.326
-642.697	-200.000	-0.008	0.445
-641.682	-160.527	-0.160	0.009
-640.668	-58.426	0.143	-0.062
-639.653	-128.703	-0.242	0.034
-638.638	18.621	-0.114	0.092
-637.624	259.757	-0.176	-0.304
-636.609	203.346	0.120	0.186
-635.595	171.162	-0.059	-0.085
-634.580	-129.662	0.172	0.024
-633.565	-74.871	-0.373	-0.134
-632.551	632.367	0.051	0.130
-631.536	-127.889	0.165	-0.024
-630.522	-50.703	-0.112	-0.053
-629.507	-126.455	-0.275	0.041
-628.492	-200.000	0.012	0.239
-627.478	800.000	-0.029	0.097
-626.463	624.737	0.055	-0.139
-625.449	391.791	-0.117	0.243
-624.434	-133.350	0.242	-0.030
-623.419	-84.622	0.298	-0.094
-622.405	390.458	0.098	0.203
-621.390	-184.953	0.412	0.007
-620.376	317.085	-0.170	0.322
-619.361	51.991	-0.166	-0.158
-618.346	-74.094	-0.325	-0.118
-617.332	-92.535	-0.201	-0.056
-616.317	3.933	0.079	-0.058
-615.303	345.000	0.102	0.200
-614.288	-45.866	-0.108	0.053
-613.273	162.873	-0.194	-0.273
-612.259	800.000	-0.066	-0.205
-611.244	-143.643	0.350	0.033
-610.230	55.520	0.226	0.219
-609.215	-200.000	0.047	0.384
-608.201	-36.749	-0.136	0.073
-607.186	72.297	-0.107	-0.112
-606.171	68.548	-0.199	-0.204
-605.157	-200.000	0.030	-0.231
-604.142	-124.553	0.151	0.024
-603.128	-139.782	0.214	0.023
-602.113	246.779	-0.185	-0.311
-601.098	-143.176	-0.129	0.012
-600.084	-14.956	-0.218	-0.140
-599.069	147.193	-0.117	-0.157
-598.055	430.587	0.086	0.185
-597.040	800.000	-0.058	-0.222
-596.025	-146.914	-0.008	-0.001
-595.011	-119.240	-0.103	-0.018
-593.996	281.557	0.111	-0.198
-592.982	-200.000	0.017	-0.156
-591.967	621.169	0.020	0.049
-590.952	-200.000	0.028	0.150
-589.938	-200.000	0.066	-0.327
-588.923	-127.835	0.061	-0.009
-587.909	-171.501	-0.235	0.008
-586.894	800.000	-0.060	0.190
-585.879	-123.516	-0.174	-0.028
-584.865	121.384	-0.181	0.225
-583.850	92.588	-0.219	-0.247
-582.836	411.425	-0.040	-0.085
-581.821	66.451	-0.137	-0.139
-580.806	191.986	0.122	-0.184
-579.792	-200.000	-0.048	0.248
-578.777	-23.803	-0.199	0.119
-577.763	-85.793	-0.362	0.112
-576.748	93.843	0.085	-0.096
-575.733	-151.181	0.221	0.017
-574.719	397.921	-0.097	0.203
-573.704	159.381	-0.112	-0.156
-572.690	12.776	0.070	-0.054
-571.675	84.277	-0.162	0.177
-570.661	-136.508	0.150	0.017
-569.646	-104.432	0.089	0.021
-568.631	-15.896	0.295	-0.187
-567.617	9.622	0.117	-0.089
-566.602	-131.962	-0.310	-0.040
-565.588	424.397	-0.031	0.068
-564.573	-200.000	-0.049	0.319
-563.558	217.149	-0.147	0.234
-562.544	-10.599	0.159	0.105
-561.529	-200.000	-0.028	-0.198
-560.515	-164.927	-0.222	0.010
-559.500	281.941	-0.100	-0.180
-558.485	-200.000	-0.001	-0.214
-557.471	194.247	-0.245	0.370
-556.456	118.536	-0.033	0.040
-555.442	-200.000	-0.027	0.189
-554.427	335.942	-0.178	0.344
-553.412	-133.967	-0.071	-0.009
-552.398	-60.942	0.236	0.099
-551.383	-200.000	-0.167	0.001
-550.369	339.918	-0.125	-0.243
-549.354	-173.818	-0.209	0.006
-548.339	168.879	-0.046	0.066
-547.325	110.389	-0.146	0.175
-546.310	367.055	-0.071	-0.144
-545.296	215.410	0.137	0.217
-544.281	-130.351	-0.401	-0.054
-543.266	281.490	-0.149	-0.266
-542.252	-200.000	0.000	0.113
-541.237	289.147	0.075	-0.135
-540.223	-15.396	0.275	-0.175
-539.208	-35.858	0.257	0.139
-538.193	-200.000	-0.014	-0.161
-537.179	800.000	-0.031	0.125
-536.164	-200.000	-0.007	-0.116
-535.150	177.691	-0.117	-0.171
-534.135	800.000	-0.051	-0.145
-533.121	195.753	-0.174	-0.264
-532.106	800.000	-0.041	-0.136
-531.091	263.301	0.170	-0.294
-530.077	-200.000	-0.001	-0.084
-529.062	192.219	-0.090	0.135
-528.048	-29.780	-0.160	-0.091
-527.033	-77.828	0.330	-0.114
-526.018	133.500	-0.072	-0.093
-525.004	149.010	-0.128	-0.172
-523.989	-55.810	-0.210	0.094
-522.975	61.555	0.258	-0.256
-521.960	37.716	-0.183	0.162
-520.945	63.589	-0.141	0.141
-519.931	217.430	0.114	0.182
-518.916	-32.838	-0.059	0.033
-517.902	-64.412	-0.261	0.106
-516.887	-18.834	0.359	-0.223
-515.872	-133.565	-0.285	-0.036
-514.858	234.953	-0.131	-0.215
-513.843	169.277	-0.181	0.257
-512.829	246.863	-0.158	-0.265
-511.814	-200.000	0.004	-0.025
-510.799	-200.000	0.011	-0.165
-509.785	-7.768	-0.086	-0.058
-508.770	51.370	-0.045	0.043
-507.756	121.625	-0.234	-0.291
-506.741	-90.956	-0.486	0.139
-505.726	-62.815	-0.060	0.025
-504.712	-103.582	0.151	0.035
-503.697	2.665	0.145	0.105
-502.683	-80.018	-0.390	-0.130
-501.668	-37.755	0.152	0.080
-500.653	-105.550	0.082	0.019
-499.639	-142.627	0.163	0.016
-498.624	-0.549	-0.139	0.098
-497.610	-2.303	-0.189	0.132
-496.595	543.871	-0.169	0.402
-495.581	334.336	-0.028	0.053
-494.566	-60.441	-0.501	-0.212
-493.551	-189.021	0.274	-0.003
-492.537	343.846	0.047	-0.092
-491.522	-112.758	-0.293	-0.058
-490.508	800.000	0.065	0.216
-489.493	231.663	-0.176	0.287
-488.478	-200.000	-0.002	0.272
-487.464	-200.000	0.066	-0.321
-486.449	368.539	-0.060	-0.122
-485.435	-128.134	-0.245	0.035
-484.420	510.590	0.102	0.237
-483.405	107.990	0.200	-0.237
-482.391	-162.522	0.297	-0.015
-481.376	-7.255	-0.092	-0.062
-480.362	-200.000	0.038	-0.227
-479.347	71.244	-0.144	0.149
-478.332	-46.522	0.120	-0.058
-477.318	-93.899	-0.160	0.044
-476.303	233.933	-0.064	-0.105
-475.289	-28.230	-0.148	0.085
-474.274	800.000	0.048	-0.196
-473.259	-200.000	0.019	-0.154
-472.245	-142.621	-0.287	-0.028
-471.230	800.000	0.087	0.280
-470.216	-65.163	-0.449	0.180
-469.201	-105.614	-0.120	-0.027
-468.186	-106.870	0.277	-0.061
-467.172	17.201	-0.114	-0.090
-466.157	-56.916	0.172	-0.076
-465.143	59.607	0.119	0.117
-464.128	-200.000	0.058	0.358
-463.113	-72.474	0.040	-0.015
-462.099	334.314	-0.140	0.269
-461.084	800.000	0.090	0.391
-460.070	82.164	-0.172	0.185
-459.055	-146.910	-0.189	0.016
-458.040	43.324	-0.161	-0.146
-457.026	111.779	0.241	-0.290
-456.011	118.120	-0.142	-0.174
-454.997	135.728	0.112	0.145
-453.982	-200.000	-0.032	-0.280
-452.968	208.586	-0.057	-0.088
-451.953	-100.849	-0.119	0.029
-450.938	-136.529	0.034	-0.004
-449.924	-29.702	0.024	-0.014
-448.909	579.231	0.151	-0.367
-447.895	-109.573	0.108	-0.023
-446.880	-42.129	0.151	-0.077
-445.865	173.105	-0.275	0.393
-444.851	-200.000	-0.013	-0.205
-443.836	-200.000	0.009	0.054
-442.822	9.414	0.111	0.083
-441.807	370.476	0.138	0.277
-440.792	412.507	-0.099	0.210
-439.778	-136.591	0.282	0.032
-438.763	-83.580	-0.104	0.033
-437.749	-124.732	0.270	-0.042
-436.734	-98.922	-0.032	0.008
-435.719	-200.000	0.010	0.197
-434.705	800.000	0.104	0.416
-433.690	416.824	-0.046	-0.097
-432.676	25.505	0.248	-0.205
-431.661	-200.000	0.007	0.286
-430.646	-49.469	0.524	-0.248
-429.632	47.896	-0.081	-0.076
-428.617	-70.469	-0.052	0.020
-427.603	800.000	0.076	0.232
-426.588	268.678	-0.188	0.327
-425.573	-200.000	-0.004	-0.254
-424.559	-125.995	-0.318	-0.047
-423.544	-65.679	-0.076	-0.030
-422.530	22.941	0.208	-0.170
-421.515	-200.000	0.005	-0.068
-420.500	104.611	-0.228	0.267
-419.486	-125.892	-0.090	-0.013
-418.471	-38.990	-0.225	-0.118
-417.457	-125.276	0.442	0.067
-416.442	-154.738	-0.106	0.007
-415.428	-200.000	0.047	0.235
-414.413	464.287	0.052	0.116
-413.398	155.868	0.108	-0.148
-412.384	800.000	-0.080	-0.287
-411.369	-46.770	-0.178	-0.087
-410.355	239.972	0.065	0.107
-409.340	-48.127	0.190	-0.091
-408.325	-86.674	-0.270	-0.082
-407.311	-148.890	0.371	-0.030
-406.296	800.000	-0.085	0.248
-405.282	79.666	-0.065	0.069
-404.267	-128.473	0.382	0.054
-403.252	296.730	0.149	-0.272
-402.238	-124.634	-0.442	-0.068
-401.223	-200.000	-0.082	0.000
-400.209	-200.000	0.089	-0.413
-399.194	-200.000	-0.038	-0.421
-398.179	-200.000	0.013	0.102
-397.165	-156.181	0.063	0.004
-396.150	-200.000	-0.035	0.438
-395.136	-84.775	0.177	-0.055
-394.121	25.387	-0.067	-0.055
-393.106	800.000	-0.052	0.223
-392.092	-30.571	0.132	-0.074
-391.077	-132.588	0.121	0.015
-390.063	-111.605	0.249	0.050
-389.048	-8.248	-0.244	-0.163
-388.033	-165.463	-0.206	-0.009
-387.019	800.000	-0.046	0.172
-386.004	-39.626	0.094	-0.049
-384.990	28.167	-0.256	0.214
-383.975	-55.973	0.063	0.028
-382.960	123.701	-0.161	0.201
-381.946	74.706	0.102	0.106
-380.931	-200.000	-0.056	0.275
-379.917	231.716	0.146	0.237
-378.902	235.519	-0.137	-0.224
-377.888	33.162	0.109	-0.094
-376.873	-120.004	0.496	0.084
-375.858	-72.689	-0.143	-0.052
-374.844	-63.267	-0.391	0.160
-373.829	-200.000	-0.000	-0.272
-372.815	-200.000	-0.041	0.237
-371.800	-140.736	0.194	0.020
-370.785	407.386	-0.100	0.209
-369.771	81.070	0.095	-0.102
-368.756	-200.000	0.031	0.250
-367.742	-200.000	-0.030	0.253
-366.727	78.468	-0.174	0.184
-365.712	800.000	0.006	0.024
-364.698	-43.120	-0.265	0.133
-363.683	800.000	0.049	0.158
-362.669	209.886	0.104	-0.161
-361.654	800.000	-0.077	-0.261
-360.639	-200.000	0.014	0.078
-359.625	-47.012	-0.210	-0.102
-358.610	362.104	0.047	0.094
-357.596	208.692	-0.204	0.315
-356.581	-200.000	0.003	-0.047
-355.566	-2.709	0.144	-0.100
-354.552	-78.539	0.504	-0.171
-353.537	29.425	-0.259	-0.218
-352.523	-200.000	-0.001	0.114
-351.508	64.787	-0.107	-0.106
-350.493	78.780	0.097	0.103
-349.479	9.649	-0.137	-0.103
-348.464	-200.000	-0.057	-0.467
-347.450	-41.762	0.147	-0.074
-346.435	-54.771	-0.306	-0.137
-345.420	233.022	0.120	0.195
-344.406	401.698	0.212	0.440
-343.391	-200.000	-0.042	0.333
-342.377	-182.887	0.089	0.002
-341.362	52.711	-0.133	-0.126
-340.348	800.000	-0.018	0.060
-339.333	-49.812	0.422	-0.198
-338.318	-200.000	-0.031	-0.339
-337.304	-200.000	0.002	-0.098
-336.289	800.000	-0.051	0.142
-335.275	353.440	-0.079	-0.156
-334.260	800.000	0.087	-0.343
-333.245	-80.672	0.230	0.076
-332.231	29.927	-0.287	-0.242
-331.216	246.750	-0.192	0.321
-330.202	-91.006	0.591	-0.168
-329.187	-98.580	0.100	-0.025
-328.172	220.148	-0.115	-0.183
-327.158	282.378	0.238	0.422
-326.143	-100.275	0.250	0.061
-325.129	-200.000	-0.017	0.198
-324.114	-200.000	0.002	0.071
-323.099	-200.000	0.008	-0.110
-322.085	-33.684	0.033	0.018
-321.070	-200.000	-0.011	-0.284
-320.056	-144.973	0.259	-0.023
-319.041	800.000	-0.043	0.120
-318.026	800.000	0.060	-0.186
-317.012	-77.483	-0.323	-0.111
-315.997	800.000	0.079	0.325
-314.983	63.996	0.112	0.112
-313.968	-80.923	-0.038	0.013
-312.953	-95.213	0.085	0.023
-311.939	6.650	0.337	0.248
-310.924	242.037	0.247	-0.408
-309.910	-43.814	0.224	-0.111
-308.895	-67.500	-0.075	0.029
-307.880	-64.106	-0.264	-0.107
-306.866	47.224	0.069	0.064
-305.851	-109.947	0.278	0.058
-304.837	108.050	0.148	0.174
-303.822	-115.410	0.011	-0.002
-302.807	-200.000	-0.027	-0.122
-301.793	-200.000	-0.007	0.095
-300.778	-106.344	0.423	-0.093
-299.764	-200.000	-0.204	-0.001
-298.749	15.078	0.164	0.127
-297.735	530.361	-0.097	-0.226
-296.720	-3.827	-0.170	-0.116
-295.705	-200.000	-0.005	-0.089
-294.691	102.142	-0.124	0.143
-293.676	64.366	0.104	-0.103
-292.662	-200.000	-0.024	0.105
-291.647	-55.143	0.398	-0.177
-290.632	-73.834	-0.239	0.086
-289.618	395.985	0.096	0.198
-288.603	-21.208	0.203	0.122
-287.589	50.372	-0.202	-0.189
-286.574	490.116	-0.042	-0.094
-285.559	101.985	0.102	-0.118
-284.545	-90.733	-0.141	0.040
-283.530	-200.000	-0.026	0.443
-282.516	-200.000	-0.028	0.146
-281.501	-130.016	-0.263	0.036
-280.486	-113.193	-0.146	-0.028
-279.472	161.347	0.182	0.251
-278.457	129.244	-0.194	-0.245
-277.443	-92.621	0.190	-0.053
-276.428	354.710	0.125	0.245
-275.413	-200.000	-0.074	-0.389
-274.399	-200.000	-0.007	-0.382
-273.384	-200.000	-0.023	-0.164
-272.370	74.359	0.186	0.193
-271.355	18.040	-0.089	-0.070
-270.340	117.609	0.176	-0.214
-269.326	-62.120	0.073	-0.030
-268.311	35.008	0.337	0.291
-267.297	-200.000	0.041	0.210
-266.282	67.954	0.122	-0.124
-265.267	800.000	-0.018	-0.070
-264.253	-190.769	0.242	-0.003
-263.238	800.000	0.082	-0.301
-262.224	52.006	-0.118	0.111
-261.209	180.206	-0.074	0.107
-260.195	38.078	0.220	-0.193
-259.180	-200.000	0.016	0.192
-258.165	-136.585	-0.195	0.022
-257.151	237.069	0.063	-0.103
-256.136	29.563	-0.138	-0.116
-255.122	-146.987	-0.106	0.009
-254.107	-39.215	-0.176	0.091
-253.092	800.000	0.059	-0.233
-252.078	-173.292	0.079	0.002
-251.063	-134.984	0.191	0.023
-250.049	-44.972	-0.411	-0.202
-249.034	25.377	0.118	0.097
-248.019	650.897	0.046	-0.116
-247.005	-200.000	0.331	-0.002
-245.990	495.559	0.179	0.405
-244.976	-119.157	-0.301	0.052
-243.961	800.000	-0.133	0.428
-242.946	-106.024	0.094	0.021
-241.932	-162.855	0.392	0.019
-240.917	-77.145	-0.198	0.068
-239.903	-71.500	0.137	-0.050
-238.888	-133.188	0.158	0.020
-237.873	160.211	0.251	0.346
-236.859	440.092	0.136	-0.292
-235.844	-92.535	0.178	-0.049
-234.830	479.069	0.122	0.271
-233.815	192.317	0.319	-0.475
-232.800	325.262	-0.053	0.101
-231.786	582.210	0.051	-0.124
-230.771	-163.149	0.046	0.002
-229.757	-200.000	-0.050	-0.532
-228.742	33.704	-0.164	-0.141
-227.727	-63.804	0.189	0.076
-226.713	154.309	-0.100	0.136
-225.698	-200.000	-0.008	-0.057
-224.684	-200.000	-0.028	0.198
-223.669	227.569	0.170	0.272
-222.655	-144.687	-0.276	0.025
-221.640	212.940	0.141	0.220
-220.625	-200.000	-0.065	-0.425
-219.611	-142.250	-0.032	0.003
-218.596	7.528	0.033	-0.025
-217.582	-123.406	-0.093	-0.015
-216.567	-200.000	-0.027	-0.187
-215.552	-200.000	0.011	0.064
-214.538	73.770	-0.125	-0.129
-213.523	-64.098	0.233	-0.094
-212.509	-200.000	-0.005	0.048
-211.494	-78.036	-0.258	-0.088
-210.479	-174.144	0.204	0.006
-209.465	535.567	-0.208	-0.487
-208.450	114.671	-0.115	-0.138
-207.436	126.747	0.065	0.081
-206.421	-115.386	0.349	0.065
-205.406	369.948	-0.087	0.174
-204.392	-92.652	0.203	0.056
-203.377	-70.998	-0.231	-0.086
-202.363	-60.845	-0.051	0.021
-201.348	111.057	-0.109	0.129
-200.333	69.547	-0.166	-0.168
-199.319	65.472	0.358	0.357
-198.304	-200.000	-0.022	-0.183
-197.290	330.720	-0.082	0.155
-196.275	447.155	-0.065	0.141
-195.260	746.238	-0.153	-0.407
-194.246	-156.085	0.187	0.012
-193.231	-175.090	0.082	-0.002
-192.217	-109.526	-0.413	-0.086
-191.202	-89.862	0.377	-0.109
-190.187	37.706	-0.194	-0.170
-189.173	-122.896	0.431	-0.068
-188.158	-113.494	0.217	0.042
-187.144	-45.056	-0.131	-0.064
-186.129	-4.568	-0.068	0.046
-185.114	-200.000	-0.011	-0.172
-184.100	-79.465	0.163	-0.054
-183.085	-94.650	-0.127	-0.034
-182.071	-200.000	-0.018	-0.241
-181.056	-58.565	0.300	-0.128
-180.042	-26.955	0.227	0.130
-179.027	-23.162	0.209	-0.124
-178.012	800.000	0.029	-0.084
-176.998	-93.177	-0.197	0.054
-175.983	-200.000	-0.004	-0.071
-174.969	800.000	0.048	0.171
-173.954	-117.719	0.240	0.043
-172.939	12.890	0.267	0.203
-171.925	276.879	0.139	0.244
-170.910	-177.595	0.174	-0.004
-169.896	800.000	-0.070	-0.300
-168.881	-93.154	-0.154	-0.042
-167.866	-200.000	0.016	-0.160
-166.852	800.000	-0.036	0.107
-165.837	321.462	0.170	-0.317
-164.823	-200.000	0.066	0.395
-163.808	800.000	0.090	0.253
-162.793	124.867	-0.091	0.113
-161.779	58.158	-0.323	0.311
-160.764	-39.304	0.163	-0.084
-159.750	-123.411	-0.085	0.013
-158.735	154.496	0.107	0.145
-157.720	482.489	0.134	-0.298
-156.706	-127.040	0.327	0.047
-155.691	-200.000	0.075	0.341
-154.677	100.751	-0.108	-0.123
-153.662	86.979	0.166	-0.180
-152.647	-94.759	-0.205	0.055
-151.633	800.000	0.039	0.159
-150.618	-188.385	-0.347	0.004
-149.604	94.973	-0.152	-0.170
-148.589	15.419	-0.203	-0.157
-147.574	134.778	-0.171	-0.218
-146.560	-200.000	0.037	-0.202
-145.545	-200.000	0.001	-0.235
-144.531	52.906	0.248	-0.233
-143.516	-111.447	0.186	-0.037
-142.502	25.666	-0.194	-0.159
-141.487	-16.054	0.128	0.080
-140.472	-200.000	-0.018	0.261
-139.458	-200.000	0.082	0.532
-138.443	11.549	0.241	0.181
-137.429	-101.575	-0.284	-0.068
-136.414	456.012	0.074	0.162
-135.399	800.000	-0.033	0.101
-134.385	-200.000	0.050	0.438
-133.370	-23.113	-0.146	0.086
-132.356	558.175	0.031	0.074
-131.341	-40.404	0.348	0.177
-130.326	124.173	0.189	0.233
-129.312	-200.000	0.115	-0.594
-128.297	-57.166	0.314	-0.136
-127.283	30.874	-0.117	0.098
-126.268	97.095	0.074	0.083
-125.253	-200.000	-0.013	0.120
-124.239	-61.320	-0.122	-0.050
-123.224	8.141	0.202	0.149
