DTS Sentinel unit serial number:	SN413079Multiplexer serial number:	ORYXHardware model number:	OX4-SRSoftware version number:	ORYX F/W v4.00 Oryx Data Collector v3.7.2.0data status	okinstallation	princeton_trtdifferential loss correction	single-endedforward channel	channel 2reverse channel	N/Adate	2019/09/17time	15:19:35forward acquisition time	60.00reverse acquisition time	0.00gamma	496.2192k internal	0.2306k external	0.2306temperature offset calibration	0.9984default loss term (dB/km)	0.3790temperature slope calibration	1.0000multiplexer offset coefficient	1.0000multiplexer slope coefficient	1.0000fibre end	0.00T internal ref (°C)	37.92T ext. ref 1 (°C)	0.38T ext. ref 2 (°C)	35.01length (m)	temperature (°C)	Stokes	anti-Stokes-747.200	27.487	-0.172	0.147
-746.185	85.604	0.094	-0.106
-745.171	400.557	-0.082	-0.175
-744.156	-92.475	-0.106	-0.030
-743.142	94.803	-0.214	0.248
-742.127	-68.961	-0.078	-0.031
-741.112	-200.000	0.003	-0.321
-740.098	-200.000	-0.002	0.131
-739.083	112.433	0.368	0.452
-738.069	315.019	0.199	0.381
-737.054	-57.235	-0.349	0.156
-736.039	-65.340	0.152	0.062
-735.025	800.000	0.191	0.551
-734.010	800.000	0.086	-0.336
-732.996	152.825	-0.271	-0.377
-731.981	61.871	-0.198	-0.200
-730.966	289.317	-0.086	-0.158
-729.952	64.894	0.185	-0.190
-728.937	-113.813	-0.194	-0.038
-727.923	78.132	0.141	0.153
-726.908	75.238	-0.022	0.024
-725.894	-119.421	-0.264	0.047
-724.879	-56.109	-0.281	-0.127
-723.864	-200.000	0.040	-0.282
-722.850	800.000	0.076	-0.264
-721.835	82.613	-0.089	0.098
-720.821	262.412	-0.144	-0.254
-719.806	622.930	-0.089	-0.229
-718.791	-137.251	-0.212	-0.024
-717.777	-104.478	-0.235	0.055
-716.762	-51.416	-0.212	0.101
-715.748	-200.000	0.014	-0.086
-714.733	20.941	-0.161	-0.132
-713.718	409.556	-0.103	-0.223
-712.704	-124.426	-0.058	0.009
-711.689	-158.324	-0.044	-0.003
-710.675	-200.000	-0.044	-0.241
-709.660	-127.117	-0.104	-0.016
-708.645	-41.320	-0.235	-0.123
-707.631	-87.324	-0.119	0.037
-706.616	-120.557	0.355	0.061
-705.602	176.244	0.044	-0.065
-704.587	-1.837	0.314	0.224
-703.572	35.818	-0.103	0.092
-702.558	-13.189	-0.160	-0.106
-701.543	-145.761	-0.221	-0.020
-700.529	151.430	-0.126	0.174
-699.514	800.000	0.039	-0.165
-698.499	180.797	-0.121	0.180
-697.485	150.866	-0.184	-0.255
-696.470	-47.337	-0.460	-0.227
-695.456	136.706	0.325	-0.431
-694.441	3.672	-0.175	-0.129
-693.426	-110.748	-0.078	-0.016
-692.412	44.427	-0.056	-0.052
-691.397	328.036	-0.092	-0.180
-690.383	-66.492	-0.073	-0.029
-689.368	-108.362	0.263	0.058
-688.354	-7.472	-0.211	-0.145
-687.339	45.779	-0.064	-0.060
-686.324	-104.940	-0.125	-0.029
-685.310	-76.167	0.013	-0.005
-684.295	85.088	-0.090	-0.100
-683.281	441.353	-0.150	-0.332
-682.266	15.279	-0.278	0.221
-681.251	90.624	-0.049	-0.056
-680.237	303.834	-0.127	-0.238
-679.222	-133.518	0.172	0.022
-678.208	-200.000	0.096	-0.546
-677.193	-7.345	0.274	-0.188
-676.178	543.442	0.059	-0.144
-675.164	255.343	-0.017	-0.030
-674.149	220.823	-0.103	-0.168
-673.135	156.108	-0.052	0.072
-672.120	101.097	-0.099	0.116
-671.105	53.212	-0.082	-0.080
-670.091	75.750	0.152	0.163
-669.076	30.260	-0.088	-0.076
-668.062	-119.424	-0.130	-0.023
-667.047	260.209	0.136	0.238
-666.032	0.000	-0.182	-0.131
-665.018	-37.303	0.058	0.032
-664.003	-30.127	0.175	0.101
-662.989	2.028	0.050	0.036
-661.974	536.579	0.063	0.152
-660.959	160.269	-0.115	0.163
-659.945	-72.334	-0.161	-0.061
-658.930	-116.854	-0.045	-0.008
-657.916	-200.000	0.029	0.486
-656.901	17.699	0.057	0.046
-655.886	-83.949	0.165	-0.053
-654.872	800.000	-0.088	-0.283
-653.857	-200.000	-0.003	-0.184
-652.843	373.098	-0.104	0.214
-651.828	248.112	0.081	-0.138
-650.814	0.806	-0.303	0.220
-649.799	90.362	-0.163	-0.185
-648.784	-154.670	-0.154	-0.010
-647.770	-111.814	0.118	-0.024
-646.755	75.895	-0.082	-0.088
-645.741	301.597	0.102	-0.191
-644.726	-200.000	0.021	-0.116
-643.711	61.588	0.046	0.046
-642.697	-16.605	-0.130	-0.083
-641.682	-200.000	-0.018	-0.500
-640.668	-91.973	-0.088	-0.025
-639.653	-103.945	-0.260	0.061
-638.638	-155.428	-0.168	0.011
-637.624	-200.000	-0.285	-0.001
-636.609	650.382	0.017	-0.045
-635.595	-116.822	-0.133	-0.025
-634.580	-69.988	0.048	0.019
-633.565	-200.000	-0.033	-0.173
-632.551	-135.228	-0.069	0.008
-631.536	246.062	-0.157	-0.268
-630.522	-128.154	0.173	-0.025
-629.507	437.102	-0.170	0.375
-628.492	-200.000	-0.022	-0.121
-627.478	-12.108	0.021	-0.014
-626.463	13.576	-0.089	-0.070
-625.449	-200.000	-0.030	-0.323
-624.434	39.099	0.239	-0.216
-623.419	125.612	-0.187	0.239
-622.405	-109.234	0.306	-0.066
-621.390	800.000	-0.061	0.237
-620.376	-37.950	0.348	0.187
-619.361	51.982	0.185	-0.179
-618.346	-200.000	-0.015	-0.201
-617.332	243.338	-0.010	0.017
-616.317	233.993	-0.227	0.379
-615.303	88.115	0.121	0.136
-614.288	-200.000	0.004	-0.051
-613.273	353.804	0.107	0.214
-612.259	21.345	-0.179	-0.148
-611.244	57.236	-0.186	-0.183
-610.230	-132.004	-0.414	-0.055
-609.215	579.844	-0.037	0.093
-608.201	-117.033	-0.313	-0.058
-607.186	-200.000	-0.049	-0.311
-606.171	-67.700	0.152	0.060
-605.157	113.151	0.081	0.100
-604.142	-147.677	0.275	0.023
-603.128	-200.000	-0.020	-0.276
-602.113	-200.000	-0.019	0.244
-601.098	-61.668	-0.189	0.080
-600.084	-38.626	-0.272	0.145
-599.069	406.652	0.124	0.266
-598.055	-163.596	-0.086	-0.004
-597.040	313.923	-0.025	-0.047
-596.025	-90.371	-0.165	-0.049
-595.011	142.261	-0.056	-0.075
-593.996	600.033	-0.022	0.056
-592.982	-195.581	-0.465	0.003
-591.967	-55.950	0.024	0.011
-590.952	-46.744	-0.115	-0.057
-589.938	-92.911	0.122	0.035
-588.923	13.947	0.069	0.054
-587.909	431.029	-0.203	0.445
-586.894	800.000	-0.084	0.298
-585.879	114.417	0.124	0.152
-584.865	76.997	-0.118	0.127
-583.850	-101.925	0.134	-0.033
-582.836	-128.852	0.079	-0.011
-581.821	800.000	0.091	-0.272
-580.806	63.374	-0.264	-0.267
-579.792	-200.000	0.036	0.185
-578.777	226.624	-0.109	0.179
-577.763	-200.000	-0.023	-0.152
-576.748	216.436	0.123	-0.197
-575.733	54.046	0.050	0.048
-574.719	-149.079	0.091	-0.007
-573.704	-200.000	0.012	0.086
-572.690	-36.182	-0.079	-0.043
-571.675	686.776	0.114	0.302
-570.661	706.193	-0.058	0.155
-569.646	-39.194	-0.060	-0.032
-568.631	800.000	-0.121	-0.454
-567.617	19.633	-0.364	0.296
-566.602	800.000	0.100	-0.290
-565.588	-69.266	-0.043	-0.017
-564.573	-200.000	0.016	0.341
-563.558	-55.494	-0.210	0.095
-562.544	-115.290	0.232	0.044
-561.529	-112.407	0.222	0.045
-560.515	800.000	-0.060	-0.197
-559.500	800.000	0.016	0.056
-558.485	57.410	0.081	0.079
-557.471	-184.602	-0.307	-0.005
-556.456	-130.284	-0.221	0.030
-555.442	-123.156	0.152	-0.025
-554.427	56.874	0.114	0.112
-553.412	-200.000	0.008	0.180
-552.398	44.588	-0.098	-0.091
-551.383	-26.367	0.188	0.111
-550.369	14.796	-0.291	-0.230
-549.354	-35.917	0.181	-0.099
-548.339	800.000	0.012	-0.047
-547.325	126.906	0.167	0.213
-546.310	-200.000	0.002	0.215
-545.296	664.521	-0.074	0.193
-544.281	-200.000	0.006	0.117
-543.266	-50.164	-0.220	0.105
-542.252	334.359	0.126	0.246
-541.237	249.667	-0.031	-0.054
-540.223	74.000	0.076	-0.081
-539.208	-200.000	-0.025	-0.129
-538.193	-79.919	0.222	0.075
-537.179	-200.000	0.046	-0.210
-536.164	-26.884	0.192	0.113
-535.150	169.165	0.178	0.257
-534.135	800.000	0.065	-0.212
-533.121	-155.679	0.103	-0.007
-532.106	361.674	0.082	-0.165
-531.091	759.230	-0.051	-0.139
-530.077	-22.911	0.201	-0.123
-529.062	159.441	-0.068	0.096
-528.048	-50.821	-0.167	-0.079
-527.033	681.068	-0.079	0.208
-526.018	6.234	-0.184	0.137
-525.004	-106.084	0.616	-0.140
-523.989	85.066	0.093	-0.103
-522.975	-13.285	-0.387	-0.253
-521.960	-15.533	0.075	-0.048
-520.945	2.442	-0.074	0.054
-519.931	-28.769	-0.223	-0.129
-518.916	800.000	0.008	-0.027
-517.902	132.971	-0.134	-0.175
-516.887	-200.000	-0.025	0.143
-515.872	200.796	0.236	-0.366
-514.858	-200.000	0.009	-0.119
-513.843	800.000	0.056	0.183
-512.829	-200.000	0.019	-0.220
-511.814	468.104	-0.091	-0.207
-510.799	-134.038	-0.060	0.007
-509.785	-108.435	-0.165	0.036
-508.770	-200.000	-0.029	0.168
-507.756	800.000	0.021	-0.065
-506.741	653.839	-0.078	-0.201
-505.726	800.000	0.056	0.224
-504.712	-116.974	-0.460	-0.085
-503.697	-115.526	0.100	0.019
-502.683	-200.000	-0.036	-0.189
-501.668	800.000	0.032	-0.138
-500.653	363.595	0.075	0.153
-499.639	800.000	0.065	0.202
-498.624	800.000	0.052	-0.150
-497.610	55.488	-0.142	-0.138
-496.595	800.000	-0.088	0.360
-495.581	-125.113	0.287	-0.044
-494.566	366.265	0.129	-0.261
-493.551	-200.000	0.011	-0.374
-492.537	-38.646	-0.117	0.062
-491.522	33.181	0.247	0.216
-490.508	-12.678	-0.208	-0.137
-489.493	-200.000	-0.047	-0.212
-488.478	77.016	0.185	-0.198
-487.464	-200.000	-0.045	-0.247
-486.449	238.226	-0.148	-0.247
-485.435	-4.304	0.152	0.106
-484.420	65.795	-0.082	-0.084
-483.405	148.977	0.125	0.170
-482.391	76.716	-0.194	-0.208
-481.376	-200.000	-0.025	-0.176
-480.362	585.282	0.053	0.131
-479.347	216.084	-0.045	-0.072
-478.332	150.776	-0.254	-0.347
-477.318	-145.748	-0.313	-0.028
-476.303	107.330	-0.023	0.028
-475.289	265.615	0.015	-0.027
-474.274	-191.480	0.186	-0.002
-473.259	22.745	-0.149	0.123
-472.245	-200.000	-0.034	-0.208
-471.230	665.530	0.038	0.100
-470.216	-94.401	-0.135	0.037
-469.201	-92.536	0.498	-0.141
-468.186	151.720	0.095	-0.131
-467.172	-200.000	0.000	0.070
-466.157	800.000	-0.025	0.090
-465.143	299.289	-0.210	-0.390
-464.128	-195.413	-0.173	-0.001
-463.113	183.819	-0.061	-0.091
-462.099	595.002	0.186	0.463
-461.084	-8.658	-0.113	-0.076
-460.070	703.855	0.094	-0.250
-459.055	-8.417	0.099	-0.067
-458.040	-200.000	0.004	0.069
-457.026	93.836	0.190	0.217
-456.011	-27.889	-0.080	0.047
-454.997	-122.240	0.311	-0.051
-453.982	-54.452	0.074	0.034
-452.968	194.348	0.208	-0.317
-451.953	-200.000	0.024	-0.116
-450.938	-26.458	0.047	-0.027
-449.924	-21.833	0.046	0.028
-448.909	-88.899	0.197	0.059
-447.895	-200.000	0.028	0.214
-446.880	800.000	0.069	-0.293
-445.865	-68.197	-0.096	0.038
-444.851	800.000	-0.051	0.164
-443.836	-200.000	0.013	-0.078
-442.822	-69.085	0.118	-0.046
-441.807	-109.891	-0.332	-0.070
-440.792	-28.157	-0.347	-0.202
-439.778	-28.264	0.044	-0.026
-438.763	-55.543	-0.035	0.016
-437.749	800.000	-0.053	-0.176
-436.734	-169.414	-0.291	0.011
-435.719	187.737	0.155	-0.233
-434.705	-200.000	0.007	-0.072
-433.690	148.255	-0.040	0.054
-432.676	-107.940	0.146	-0.032
-431.661	-62.787	-0.382	-0.159
-430.646	91.641	0.050	-0.056
-429.632	72.376	0.132	-0.138
-428.617	-200.000	-0.009	0.323
-427.603	-116.145	0.228	-0.043
-426.588	-200.000	0.047	-0.404
-425.573	-200.000	0.016	0.107
-424.559	-171.763	0.145	0.005
-423.544	101.073	0.158	-0.185
-422.530	-145.668	-0.165	-0.015
-421.515	-200.000	-0.010	-0.293
-420.500	-110.867	-0.126	-0.026
-419.486	-31.084	-0.155	0.088
-418.471	65.329	0.210	0.213
-417.457	-27.329	0.210	0.123
-416.442	0.123	0.236	-0.169
-415.428	-73.599	0.477	-0.175
-414.413	-45.625	0.374	0.186
-413.398	-43.896	-0.159	-0.080
-412.384	42.691	0.119	0.109
-411.369	606.279	0.054	-0.134
-410.355	-62.018	-0.169	0.071
-409.340	800.000	-0.083	0.272
-408.325	-200.000	-0.028	0.383
-407.311	-33.696	0.157	-0.087
-406.296	800.000	0.013	0.038
-405.282	247.766	-0.075	0.127
-404.267	-200.000	-0.023	-0.159
-403.252	110.171	0.147	-0.177
-402.238	347.258	-0.070	-0.138
-401.223	725.084	-0.105	0.282
-400.209	-151.018	-0.122	0.009
-399.194	-53.657	0.185	-0.085
-398.179	20.320	0.114	-0.092
-397.165	-200.000	0.025	0.166
-396.150	177.466	0.130	0.190
-395.136	-84.665	-0.115	-0.036
-394.121	-200.000	0.012	0.253
-393.106	644.645	-0.103	0.264
-392.092	220.789	-0.092	-0.148
-391.077	116.805	0.212	0.261
-390.063	23.055	-0.218	-0.180
-389.048	-152.563	0.283	-0.020
-388.033	391.654	0.111	0.232
-387.019	-16.884	0.019	-0.012
-386.004	-200.000	-0.036	0.165
-384.990	800.000	-0.024	-0.098
-383.975	201.756	-0.087	0.135
-382.960	146.897	0.146	0.196
-381.946	-34.352	-0.137	0.076
-380.931	-39.970	0.146	-0.076
-379.917	800.000	-0.050	0.215
-378.902	19.309	0.212	0.171
-377.888	-77.522	0.133	0.046
-376.873	-152.915	-0.344	0.024
-375.858	-131.403	0.199	-0.026
-374.844	227.272	-0.055	0.089
-373.829	-158.581	0.221	0.013
-372.815	43.849	-0.252	-0.231
-371.800	121.716	0.095	0.119
-370.785	455.249	0.224	-0.498
-369.771	666.338	-0.093	-0.240
-368.756	334.050	-0.096	-0.187
-367.742	-200.000	0.028	-0.210
-366.727	161.938	0.308	0.433
-365.712	77.310	0.202	0.215
-364.698	120.650	-0.148	0.185
-363.683	-200.000	-0.000	0.242
-362.669	-37.886	0.106	-0.056
-361.654	-107.503	0.451	0.099
-360.639	800.000	0.016	0.054
-359.625	-129.213	0.359	0.050
-358.610	-96.461	-0.378	-0.100
-357.596	90.458	-0.087	-0.098
-356.581	295.922	0.137	-0.252
-355.566	800.000	0.064	-0.219
-354.552	-97.649	0.206	-0.054
-353.537	-200.000	-0.014	0.110
-352.523	327.672	-0.047	-0.091
-351.508	11.026	0.196	0.150
-350.493	-136.376	-0.126	-0.015
-349.479	91.519	0.126	-0.141
-348.464	28.677	0.091	-0.077
-347.450	721.574	-0.088	-0.233
-346.435	-174.156	-0.365	-0.011
-345.420	-103.279	0.167	-0.039
-344.406	409.559	-0.034	-0.073
-343.391	-200.000	-0.035	0.246
-342.377	-97.456	-0.228	0.059
-341.362	-122.667	0.424	0.069
-340.348	703.580	0.090	0.238
-339.333	-200.000	-0.016	0.166
-338.318	800.000	-0.066	-0.225
-337.304	-111.119	-0.091	-0.019
-336.289	-36.362	0.146	-0.079
-335.275	563.543	-0.041	-0.098
-334.260	184.844	-0.108	-0.160
-333.245	14.915	0.061	-0.048
-332.231	82.637	-0.145	-0.158
-331.216	-67.641	0.411	-0.161
-330.202	-157.180	0.399	0.024
-329.187	186.277	0.124	-0.185
-328.172	482.954	-0.005	0.012
-327.158	-200.000	-0.022	0.213
-326.143	-102.208	-0.067	0.016
-325.129	-127.581	0.169	-0.024
-324.114	46.094	-0.390	-0.361
-323.099	115.731	-0.067	-0.082
-322.085	-200.000	0.026	0.129
-321.070	230.617	-0.040	0.066
-320.056	-84.792	-0.086	0.027
-319.041	-99.798	-0.343	0.086
-318.026	50.903	-0.279	-0.264
-317.012	-82.454	-0.082	0.027
-315.997	86.773	-0.139	-0.153
-314.983	-108.153	0.289	-0.063
-313.968	-83.227	0.211	-0.068
-312.953	-48.586	-0.022	-0.011
-311.939	-200.000	0.015	0.135
-310.924	47.138	-0.192	-0.179
-309.910	-15.876	0.044	-0.028
-308.895	-200.000	-0.017	0.092
-307.880	-200.000	0.013	0.094
-306.866	208.231	0.108	0.168
-305.851	28.637	0.128	0.108
-304.837	-31.396	-0.182	0.103
-303.822	-98.633	-0.192	-0.049
-302.807	17.403	0.034	0.027
-301.793	-112.792	-0.401	0.080
-300.778	-97.134	0.049	-0.013
-299.764	-82.326	-0.124	-0.040
-298.749	60.098	0.110	-0.108
-297.735	-200.000	0.010	0.096
-296.720	32.297	-0.072	-0.062
-295.705	-35.335	-0.186	0.101
-294.691	-79.321	0.228	-0.077
-293.676	212.796	-0.111	-0.175
-292.662	-138.336	-0.119	0.013
-291.647	-62.405	0.038	0.016
-290.632	800.000	0.075	0.232
-289.618	-9.936	0.235	-0.156
-288.603	7.695	-0.058	-0.043
-287.589	-47.838	0.251	0.122
-286.574	-200.000	-0.021	0.404
-285.559	91.562	-0.224	-0.251
-284.545	-41.798	0.110	0.056
-283.530	-200.000	0.006	0.058
-282.516	173.102	-0.121	0.174
-281.501	-137.299	-0.377	-0.043
-280.486	-200.000	0.024	-0.267
-279.472	-200.000	0.004	-0.066
-278.457	-70.192	-0.239	0.091
-277.443	85.259	-0.102	0.112
-276.428	-125.828	-0.039	-0.006
-275.413	-66.812	0.120	0.048
-274.399	623.306	0.074	-0.185
-273.384	232.253	-0.103	-0.168
-272.370	-0.171	0.143	0.102
-271.355	160.475	-0.039	0.054
-270.340	95.164	-0.096	-0.109
-269.326	-200.000	0.014	0.149
-268.311	-200.000	-0.037	-0.164
-267.297	284.624	0.065	-0.117
-266.282	800.000	-0.044	0.167
-265.267	585.702	-0.049	0.121
-264.253	125.858	0.205	0.258
-263.238	69.521	-0.069	0.071
-262.224	-50.561	0.325	0.153
-261.209	-200.000	0.001	0.163
-260.195	-66.904	-0.110	-0.043
-259.180	222.857	-0.175	0.282
-258.165	408.843	-0.132	0.279
-257.151	-200.000	0.051	0.258
-256.136	223.162	0.134	0.215
-255.122	-151.661	0.120	0.009
-254.107	366.071	-0.065	0.131
-253.092	278.385	-0.088	0.156
-252.078	-200.000	0.006	-0.170
-251.063	-29.904	0.299	0.170
-250.049	163.934	-0.123	-0.173
-249.034	-47.287	-0.147	-0.071
-248.019	190.707	-0.034	0.052
-247.005	363.927	0.021	0.043
-245.990	463.203	-0.122	0.272
-244.976	-110.357	-0.214	0.044
-243.961	520.039	-0.193	0.451
-242.946	-148.896	0.114	-0.009
-241.932	-200.000	-0.010	-0.111
-240.917	-127.528	0.091	-0.013
-239.903	83.767	-0.130	-0.142
-238.888	19.300	0.267	0.214
-237.873	136.695	0.227	-0.295
-236.859	-5.168	0.204	0.140
-235.844	-6.521	-0.203	-0.138
-234.830	244.356	0.069	-0.115
-233.815	334.236	-0.095	0.184
-232.800	239.262	0.099	-0.165
-231.786	-54.629	-0.224	-0.101
-230.771	-19.135	0.166	-0.103
-229.757	424.386	-0.078	0.168
-228.742	-200.000	0.006	0.272
-227.727	-17.501	-0.122	0.077
-226.713	39.875	0.151	0.135
-225.698	-200.000	-0.036	0.181
-224.684	8.621	-0.106	-0.079
-223.669	-145.997	0.025	0.002
-222.655	713.798	-0.074	-0.195
-221.640	800.000	-0.052	-0.173
-220.625	-66.658	0.388	0.153
-219.611	-150.022	-0.352	0.027
-218.596	-49.649	0.314	-0.149
-217.582	-165.739	-0.180	0.008
-216.567	-200.000	-0.028	-0.177
-215.552	0.721	-0.245	0.175
-214.538	-200.000	0.019	-0.185
-213.523	-200.000	-0.013	-0.091
-212.509	59.885	-0.102	0.100
-211.494	253.321	0.030	-0.051
-210.479	-60.652	0.116	0.049
-209.465	-200.000	-0.006	-0.076
-208.450	-156.506	0.124	-0.008
-207.436	-200.000	-0.009	-0.334
-206.421	-200.000	0.008	-0.165
-205.406	-116.181	0.343	0.063
-204.392	-125.018	0.024	0.004
-203.377	800.000	0.085	0.240
-202.363	-200.000	-0.051	-0.369
-201.348	-200.000	0.008	-0.369
-200.333	-200.000	-0.002	-0.101
-199.319	800.000	-0.107	0.374
-198.304	4.348	0.280	-0.205
-197.290	800.000	-0.043	0.166
-196.275	-200.000	-0.025	0.135
-195.260	112.980	-0.198	-0.240
-194.246	302.397	0.325	0.598
-193.231	511.175	0.100	0.232
-192.217	-87.168	0.189	0.057
-191.202	-41.640	0.192	0.098
-190.187	800.000	0.048	0.142
-189.173	-169.051	-0.312	-0.012
-188.158	253.970	0.115	-0.195
-187.144	65.310	0.145	0.146
-186.129	-200.000	-0.034	0.235
-185.114	-130.169	-0.057	-0.008
-184.100	-77.357	0.199	-0.069
-183.085	-53.597	0.267	-0.121
-182.071	800.000	0.141	0.394
-181.056	-100.824	0.087	0.021
-180.042	119.127	0.134	-0.165
-179.027	-26.677	-0.407	0.237
-178.012	-79.815	-0.088	0.029
-176.998	-104.290	-0.201	0.046
-175.983	49.353	-0.236	0.221
-174.969	-12.889	-0.046	0.030
-173.954	-200.000	-0.017	0.182
-172.939	800.000	-0.097	-0.374
-171.925	-57.093	0.167	-0.073
-170.910	-69.390	0.170	-0.065
-169.896	-200.000	-0.027	0.174
-168.881	-200.000	0.025	0.244
-167.866	800.000	-0.032	-0.126
-166.852	-147.525	-0.324	0.027
-165.837	227.694	0.023	-0.037
-164.823	800.000	-0.121	0.438
-163.808	316.905	0.094	0.176
-162.793	-24.358	0.278	0.165
-161.779	430.211	-0.131	-0.282
-160.764	15.199	0.192	-0.150
-159.750	-200.000	0.003	-0.031
-158.735	-96.973	-0.288	-0.075
-157.720	-46.348	-0.128	0.063
-156.706	78.537	0.120	-0.127
-155.691	68.577	0.140	0.143
-154.677	-200.000	-0.020	-0.139
-153.662	-116.070	-0.257	-0.047
-152.647	688.309	-0.132	0.343
-151.633	-137.598	0.150	0.017
-150.618	-200.000	0.034	0.238
-149.604	415.808	-0.148	-0.314
-148.589	-69.987	-0.137	0.052
-147.574	800.000	0.036	0.104
-146.560	34.639	0.257	0.223
-145.545	-44.148	0.005	0.003
-144.531	-108.941	-0.189	-0.040
-143.516	-200.000	0.020	-0.200
-142.502	406.452	-0.134	0.281
-141.487	-56.454	0.392	0.173
-140.472	-67.809	-0.176	-0.068
-139.458	38.578	-0.156	-0.138
-138.443	187.675	-0.160	-0.237
-137.429	460.402	0.095	0.210
-136.414	-130.975	-0.198	0.026
-135.399	-33.382	-0.285	-0.157
-134.385	-13.989	-0.278	0.178
-133.370	-132.157	-0.201	0.026
-132.356	800.000	-0.106	0.339
-131.341	243.769	0.110	0.183
-130.326	-200.000	-0.039	-0.205
-129.312	-200.000	0.032	-0.218
-128.297	465.609	0.143	0.318
-127.283	800.000	0.042	0.177
-126.268	800.000	0.019	-0.052
-125.253	-60.619	0.281	-0.118
-124.239	147.511	0.062	0.083
-123.224	-48.290	-0.203	-0.097
-122.210	-30.290	-0.036	0.020
