DTS Sentinel unit serial number:	SN413079Multiplexer serial number:	ORYXHardware model number:	OX4-SRSoftware version number:	ORYX F/W v4.00 Oryx Data Collector v3.7.2.0data status	okinstallation	princeton_trtdifferential loss correction	single-endedforward channel	channel 2reverse channel	N/Adate	2019/09/12time	08:57:11forward acquisition time	60.00reverse acquisition time	0.00gamma	496.2192k internal	0.2316k external	0.2316temperature offset calibration	1.0068default loss term (dB/km)	0.3790temperature slope calibration	1.0000multiplexer offset coefficient	1.0000multiplexer slope coefficient	1.0000fibre end	0.00T internal ref (°C)	34.16T ext. ref 1 (°C)	1.77T ext. ref 2 (°C)	31.04length (m)	temperature (°C)	Stokes	anti-Stokes-747.200	800.000	0.036	0.149
-746.185	-200.000	-0.021	0.324
-745.171	168.118	0.152	0.220
-744.156	45.128	0.084	-0.078
-743.142	41.146	0.066	0.060
-742.127	98.953	-0.183	0.214
-741.112	-200.000	0.067	0.489
-740.098	114.455	-0.175	0.216
-739.083	-117.566	0.021	0.004
-738.069	-89.553	-0.106	0.031
-737.054	-61.860	-0.315	0.134
-736.039	53.001	0.096	0.093
-735.025	55.320	0.128	0.126
-734.010	-72.623	-0.343	-0.128
-732.996	193.992	0.149	-0.228
-731.981	40.538	-0.229	-0.209
-730.966	-200.000	0.010	0.151
-729.952	533.934	-0.072	-0.172
-728.937	279.358	0.015	0.028
-727.923	-79.639	-0.351	-0.120
-726.908	121.364	-0.077	0.098
-725.894	703.207	-0.063	-0.169
-724.879	-101.113	-0.348	0.086
-723.864	164.535	0.189	-0.270
-722.850	14.356	-0.190	-0.150
-721.835	5.760	0.093	-0.070
-720.821	800.000	0.018	0.054
-719.806	15.147	0.139	-0.110
-718.791	-41.986	0.329	0.170
-717.777	-138.414	0.208	0.023
-716.762	5.998	-0.172	-0.129
-715.748	800.000	-0.092	-0.328
-714.733	394.896	-0.212	0.448
-713.718	206.047	-0.178	0.280
-712.704	-126.574	-0.297	-0.045
-711.689	68.683	-0.273	-0.283
-710.675	-200.000	-0.026	-0.131
-709.660	120.309	0.136	-0.171
-708.645	-200.000	-0.015	0.156
-707.631	800.000	0.053	0.156
-706.616	-10.064	0.119	-0.080
-705.602	352.140	0.142	0.286
-704.587	800.000	-0.083	-0.272
-703.572	93.407	0.054	0.062
-702.558	376.409	0.064	0.133
-701.543	-5.814	-0.154	-0.107
-700.529	13.256	-0.278	-0.218
-699.514	-113.575	0.077	0.015
-698.499	-104.443	-0.177	0.041
-697.485	386.035	-0.136	-0.285
-696.470	235.352	-0.068	-0.114
-695.456	-200.000	-0.119	-0.530
-694.441	-11.841	-0.089	0.059
-693.426	-138.905	-0.084	-0.009
-692.412	-200.000	-0.008	0.156
-691.397	118.483	0.131	-0.163
-690.383	148.403	0.237	-0.323
-689.368	-169.838	0.109	0.004
-688.354	-12.214	-0.415	0.274
-687.339	75.115	-0.082	-0.087
-686.324	171.619	-0.119	-0.172
-685.310	67.226	0.179	0.184
-684.295	-200.000	-0.004	-0.219
-683.281	333.938	0.065	-0.127
-682.266	-19.093	0.203	0.127
-681.251	-0.151	0.168	0.121
-680.237	-159.107	-0.176	0.010
-679.222	800.000	-0.060	-0.179
-678.208	297.505	0.036	0.067
-677.193	-19.183	-0.049	-0.030
-676.178	-200.000	-0.051	0.407
-675.164	-153.504	0.244	-0.017
-674.149	-82.842	-0.349	0.114
-673.135	34.464	-0.133	-0.117
-672.120	-51.279	0.218	0.103
-671.105	300.844	0.157	-0.293
-670.091	286.729	0.177	-0.322
-669.076	183.262	0.329	-0.491
-668.062	6.655	-0.207	-0.155
-667.047	240.780	0.143	0.240
-666.032	79.355	-0.224	0.243
-665.018	-200.000	-0.002	-0.120
-664.003	-200.000	-0.027	0.263
-662.989	-200.000	0.015	0.289
-661.974	148.116	-0.315	0.429
-660.959	18.471	-0.118	0.095
-659.945	-76.748	-0.335	-0.118
-658.930	37.560	0.175	-0.156
-657.916	-65.239	-0.220	-0.089
-656.901	-70.343	-0.141	-0.054
-655.886	-40.985	0.194	0.101
-654.872	481.486	-0.053	-0.122
-653.857	800.000	0.075	-0.280
-652.843	-200.000	0.019	-0.275
-651.828	-32.259	0.089	-0.050
-650.814	-154.747	-0.296	0.020
-649.799	-159.444	-0.209	-0.012
-648.784	-100.059	0.195	-0.049
-647.770	800.000	0.081	-0.228
-646.755	-34.887	0.069	0.038
-645.741	49.202	-0.230	0.218
-644.726	110.231	-0.092	-0.111
-643.711	-71.483	0.189	-0.071
-642.697	182.080	-0.129	-0.192
-641.682	40.298	-0.164	0.149
-640.668	-200.000	-0.112	0.000
-639.653	-58.550	-0.163	0.072
-638.638	-117.744	-0.272	-0.049
-637.624	-90.165	0.278	0.082
-636.609	254.079	0.166	-0.286
-635.595	-200.000	-0.092	-0.457
-634.580	199.830	-0.126	-0.194
-633.565	-200.000	0.045	-0.222
-632.551	-75.321	0.128	0.046
-631.536	74.955	-0.321	-0.341
-630.522	800.000	0.078	-0.217
-629.507	-25.220	-0.190	0.113
-628.492	-113.787	0.160	-0.031
-627.478	-141.353	-0.357	-0.037
-626.463	-21.780	-0.339	-0.208
-625.449	109.718	-0.099	-0.119
-624.434	614.526	0.089	0.224
-623.419	800.000	-0.091	0.290
-622.405	65.342	-0.020	0.020
-621.390	-169.659	0.261	-0.010
-620.376	-130.953	-0.292	0.039
-619.361	-68.654	-0.265	-0.103
-618.346	-54.794	0.179	-0.082
-617.332	-54.547	-0.290	-0.132
-616.317	334.964	-0.124	0.242
-615.303	140.435	-0.106	-0.141
-614.288	-200.000	-0.085	-0.378
-613.273	-200.000	-0.079	0.388
-612.259	-116.016	0.120	-0.023
-611.244	-200.000	-0.031	0.213
-610.230	59.572	-0.243	0.242
-609.215	800.000	0.062	-0.199
-608.201	-200.000	-0.002	0.266
-607.186	-66.599	-0.306	0.122
-606.171	-22.317	0.388	0.237
-605.157	-200.000	0.008	0.108
-604.142	800.000	-0.040	-0.139
-603.128	-90.371	0.093	0.027
-602.113	200.294	0.081	0.125
-601.098	620.524	-0.152	-0.384
-600.084	-200.000	0.011	-0.096
-599.069	323.139	0.112	0.215
-598.055	-105.142	-0.178	-0.041
-597.040	-45.301	0.081	0.040
-596.025	86.157	-0.040	-0.044
-595.011	42.357	-0.130	0.119
-593.996	-200.000	-0.012	-0.233
-592.982	800.000	0.063	-0.260
-591.967	800.000	0.038	-0.143
-590.952	107.773	0.404	0.484
-589.938	204.303	-0.140	-0.218
-588.923	327.981	-0.041	-0.080
-587.909	-29.956	-0.098	0.056
-586.894	57.764	0.231	0.227
-585.879	74.102	-0.198	0.209
-584.865	-130.239	0.219	-0.030
-583.850	-41.537	0.166	0.086
-582.836	50.063	-0.223	-0.212
-581.821	-200.000	-0.006	-0.223
-580.806	171.215	-0.103	0.149
-579.792	336.105	-0.140	0.274
-578.777	-117.002	-0.237	-0.044
-577.763	444.154	-0.112	0.248
-576.748	-132.646	-0.226	0.029
-575.733	-140.974	0.409	0.042
-574.719	75.515	0.114	-0.121
-573.704	-200.000	-0.027	-0.353
-572.690	-126.792	-0.216	0.032
-571.675	181.502	-0.029	-0.043
-570.661	77.889	-0.162	0.174
-569.646	114.065	0.043	0.053
-568.631	212.914	0.212	0.337
-567.617	-9.451	-0.057	-0.038
-566.602	-101.922	-0.123	-0.030
-565.588	800.000	0.051	0.150
-564.573	800.000	-0.088	-0.288
-563.558	800.000	-0.089	0.255
-562.544	-200.000	0.077	0.485
-561.529	129.827	-0.164	-0.211
-560.515	153.596	0.128	0.176
-559.500	189.569	-0.059	0.089
-558.485	87.761	0.143	-0.159
-557.471	-31.061	-0.229	-0.130
-556.456	-126.921	-0.098	-0.014
-555.442	-146.541	0.261	0.023
-554.427	-200.000	-0.076	-0.441
-553.412	-124.034	0.348	-0.055
-552.398	69.278	-0.182	0.188
-551.383	321.804	-0.068	-0.131
-550.369	353.061	-0.091	0.182
-549.354	-69.943	-0.323	-0.124
-548.339	-133.032	-0.119	0.015
-547.325	-92.693	0.121	0.034
-546.310	-16.657	0.083	-0.053
-545.296	339.410	-0.085	0.166
-544.281	-89.517	-0.292	-0.086
-543.266	-50.015	-0.213	-0.101
-542.252	-200.000	0.035	-0.353
-541.237	-94.607	-0.211	-0.058
-540.223	478.799	-0.120	-0.273
-539.208	-14.157	-0.114	0.074
-538.193	-200.000	-0.015	-0.075
-537.179	687.655	-0.091	-0.238
-536.164	-54.894	0.258	-0.117
-535.150	18.001	0.140	-0.112
-534.135	78.282	-0.104	0.112
-533.121	800.000	-0.119	-0.401
-532.106	35.895	-0.135	-0.120
-531.091	-7.936	0.170	-0.115
-530.077	136.554	-0.200	-0.262
-529.062	-200.000	-0.018	-0.185
-528.048	-200.000	-0.002	0.034
-527.033	-38.359	0.144	0.077
-526.018	594.514	0.072	-0.178
-525.004	215.865	-0.049	0.079
-523.989	241.898	-0.112	-0.188
-522.975	-115.755	0.181	0.034
-521.960	800.000	0.061	0.171
-520.945	800.000	0.069	0.224
-519.931	-42.971	-0.133	-0.068
-518.916	-180.628	0.193	0.004
-517.902	-59.209	0.029	0.012
-516.887	800.000	-0.044	0.140
-515.872	111.640	-0.200	-0.243
-514.858	800.000	0.087	0.244
-513.843	-70.266	0.052	-0.020
-512.829	151.766	0.069	0.095
-511.814	800.000	0.167	0.493
-510.799	60.162	0.199	0.197
-509.785	173.064	-0.198	-0.286
-508.770	64.016	0.100	-0.101
-507.756	586.002	-0.029	0.072
-506.741	322.342	0.127	0.243
-505.726	-200.000	-0.022	-0.212
-504.712	468.697	-0.103	-0.232
-503.697	800.000	-0.062	-0.203
-502.683	-200.000	0.034	0.365
-501.668	3.310	0.322	0.235
-500.653	600.494	0.016	0.041
-499.639	-28.636	-0.071	-0.041
-498.624	11.534	-0.044	0.034
-497.610	-11.361	-0.304	-0.201
-496.595	43.635	0.176	-0.162
-495.581	272.303	0.217	0.384
-494.566	67.746	-0.163	0.167
-493.551	116.723	-0.100	-0.123
-492.537	157.745	0.093	0.130
-491.522	365.708	-0.169	-0.342
-490.508	-108.666	-0.105	0.023
-489.493	22.959	0.134	0.110
-488.478	10.396	-0.079	0.060
-487.464	91.851	0.010	-0.012
-486.449	-132.601	-0.116	0.015
-485.435	-41.118	0.293	0.152
-484.420	593.669	-0.104	-0.258
-483.405	-118.917	0.181	-0.032
-482.391	18.704	-0.170	-0.137
-481.376	-200.000	0.069	-0.387
-480.362	-55.355	-0.072	-0.033
-479.347	-129.348	-0.267	-0.037
-478.332	800.000	0.057	-0.230
-477.318	51.822	0.186	0.178
-476.303	115.966	-0.306	-0.375
-475.289	-200.000	-0.008	0.055
-474.274	-200.000	-0.019	0.240
-473.259	27.955	0.273	0.230
-472.245	-101.127	-0.323	-0.079
-471.230	-89.292	0.200	0.059
-470.216	52.624	0.098	0.094
-469.201	800.000	0.005	0.019
-468.186	-59.135	0.173	0.075
-467.172	-138.661	-0.386	0.042
-466.157	-40.941	-0.264	0.137
-465.143	-169.333	-0.186	-0.007
-464.128	466.342	-0.127	-0.285
-463.113	-131.686	-0.040	-0.005
-462.099	166.812	0.134	-0.190
-461.084	663.427	0.058	-0.149
-460.070	-59.808	-0.100	0.043
-459.055	575.014	-0.052	-0.126
-458.040	-131.065	0.119	-0.016
-457.026	122.055	0.142	0.178
-456.011	-54.404	0.118	0.054
-454.997	800.000	-0.085	-0.282
-453.982	200.745	-0.152	-0.234
-452.968	1.698	-0.171	0.124
-451.953	-43.084	0.171	0.087
-450.938	-92.802	0.081	-0.023
-449.924	77.470	0.175	-0.186
-448.909	-200.000	0.012	-0.312
-447.895	-137.310	0.396	0.045
-446.880	-54.467	0.278	0.126
-445.865	800.000	-0.030	0.124
-444.851	57.370	-0.180	-0.176
-443.836	-74.556	0.197	-0.071
-442.822	-17.490	0.332	0.209
-441.807	-58.070	-0.206	-0.090
-440.792	70.709	-0.198	0.205
-439.778	341.682	-0.091	0.178
-438.763	-51.444	0.091	-0.043
-437.749	106.731	-0.343	-0.407
-436.734	69.463	-0.118	0.121
-435.719	-200.000	0.005	0.114
-434.705	-200.000	0.001	0.039
-433.690	-200.000	-0.026	0.312
-432.676	558.007	0.120	-0.289
-431.661	104.772	0.064	-0.075
-430.646	-71.882	-0.176	0.065
-429.632	129.891	-0.170	-0.218
-428.617	-25.122	-0.081	0.048
-427.603	-18.717	-0.129	0.081
-426.588	-95.930	0.159	0.043
-425.573	-200.000	0.013	-0.082
-424.559	800.000	0.035	0.145
-423.544	-200.000	0.015	0.299
-422.530	-93.470	0.257	-0.071
-421.515	-17.604	0.089	0.056
-420.500	-121.041	-0.153	-0.026
-419.486	-157.825	-0.216	-0.013
-418.471	175.132	-0.139	0.202
-417.457	-200.000	0.063	0.398
-416.442	-66.264	-0.311	0.124
-415.428	18.620	0.129	-0.103
-414.413	-71.924	0.325	-0.121
-413.398	255.612	0.186	0.319
-412.384	432.328	-0.173	0.375
-411.369	-64.678	-0.236	0.096
-410.355	-1.442	-0.159	0.112
-409.340	-133.885	-0.204	0.025
-408.325	-99.445	0.049	0.012
-407.311	316.271	0.109	-0.205
-406.296	-200.000	0.021	-0.165
-405.282	800.000	-0.021	0.072
-404.267	24.614	0.117	-0.097
-403.252	-200.000	-0.009	0.105
-402.238	-200.000	-0.012	-0.095
-401.223	800.000	-0.041	0.132
-400.209	93.144	-0.069	-0.078
-399.194	718.170	-0.005	-0.013
-398.179	59.070	-0.185	0.182
-397.165	272.478	0.132	0.232
-396.150	-200.000	0.040	0.273
-395.136	-200.000	0.021	-0.161
-394.121	101.965	0.162	-0.189
-393.106	-30.274	0.237	-0.134
-392.092	89.085	-0.025	-0.027
-391.077	800.000	-0.039	0.164
-390.063	83.006	-0.096	0.104
-389.048	-116.987	0.179	-0.033
-388.033	492.869	-0.058	-0.134
-387.019	-17.054	-0.126	-0.080
-386.004	-200.000	-0.010	0.253
-384.990	280.943	-0.143	0.255
-383.975	-200.000	-0.022	-0.126
-382.960	484.642	-0.077	-0.175
-381.946	-200.000	-0.003	0.121
-380.931	-119.683	0.215	0.037
-379.917	-151.903	-0.131	-0.010
-378.902	305.464	0.184	-0.341
-377.888	473.852	-0.010	0.022
-376.873	-200.000	0.010	-0.144
-375.858	739.062	0.091	0.243
-374.844	-200.000	0.029	-0.170
-373.829	-5.336	0.034	0.023
-372.815	-200.000	-0.023	-0.101
-371.800	-154.167	-0.293	0.020
-370.785	95.634	-0.275	-0.314
-369.771	-110.448	0.075	-0.016
-368.756	86.106	-0.201	-0.221
-367.742	-200.000	-0.012	0.098
-366.727	-152.235	0.178	0.013
-365.712	50.641	0.205	0.194
-364.698	332.066	0.163	0.314
-363.683	-200.000	-0.073	0.328
-362.669	56.692	-0.225	0.218
-361.654	99.270	0.222	-0.256
-360.639	94.772	-0.137	-0.156
-359.625	72.013	0.225	0.234
-358.610	-200.000	0.016	0.355
-357.596	428.864	-0.086	0.185
-356.581	185.659	-0.058	0.086
-355.566	-182.106	0.390	-0.007
-354.552	-159.073	0.124	-0.007
-353.537	800.000	-0.093	0.316
-352.523	-70.745	0.248	-0.093
-351.508	82.319	0.177	0.192
-350.493	-71.679	-0.332	-0.124
-349.479	-181.930	0.112	-0.002
-348.464	49.512	-0.355	0.333
-347.450	681.145	0.113	0.295
-346.435	164.938	0.234	-0.330
-345.420	208.765	-0.086	-0.134
-344.406	-43.480	0.113	-0.057
-343.391	-200.000	-0.003	-0.074
-342.377	144.237	0.111	-0.148
-341.362	-200.000	-0.014	-0.277
-340.348	69.052	-0.199	-0.203
-339.333	800.000	0.065	-0.222
-338.318	353.720	-0.039	0.078
-337.304	124.849	0.057	0.072
-336.289	67.072	0.129	0.131
-335.275	-61.706	0.278	-0.116
-334.260	120.282	-0.152	-0.188
-333.245	-129.278	-0.192	0.027
-332.231	-122.406	0.207	-0.034
-331.216	477.290	-0.125	-0.283
-330.202	20.197	-0.309	0.249
-329.187	-38.589	-0.072	0.038
-328.172	-153.288	-0.119	0.008
-327.158	-106.369	0.268	-0.060
-326.143	85.253	0.203	-0.222
-325.129	729.628	-0.101	0.270
-324.114	254.460	-0.202	-0.344
-323.099	702.833	0.019	-0.049
-322.085	35.669	0.083	0.073
-321.070	228.835	-0.050	0.082
-320.056	244.419	-0.099	0.165
-319.041	659.828	-0.030	0.078
-318.026	-88.309	-0.292	-0.087
-317.012	205.464	0.124	0.192
-315.997	182.748	-0.058	0.086
-314.983	407.343	0.140	0.294
-313.968	-0.973	0.113	0.080
-312.953	-131.838	0.281	0.037
-311.939	-200.000	-0.050	0.226
-310.924	301.564	0.239	0.439
-309.910	-61.530	0.180	0.075
-308.895	50.331	-0.066	-0.062
-307.880	800.000	0.068	-0.249
-306.866	154.669	0.226	-0.309
-305.851	-87.682	0.380	-0.114
-304.837	-200.000	0.012	-0.063
-303.822	-176.533	0.180	-0.005
-302.807	-200.000	-0.022	-0.112
-301.793	416.809	0.216	-0.460
-300.778	-86.334	0.125	-0.038
-299.764	-99.100	0.270	-0.068
-298.749	-200.000	0.036	0.330
-297.735	204.321	-0.066	0.102
-296.720	-200.000	0.038	-0.262
-295.705	706.140	-0.088	0.231
-294.691	-200.000	0.042	-0.345
-293.676	-70.632	-0.053	-0.020
-292.662	-7.739	-0.129	-0.087
-291.647	800.000	0.104	0.401
-290.632	560.257	0.113	0.271
-289.618	-200.000	-0.007	0.183
-288.603	-200.000	0.063	0.374
-287.589	-2.380	-0.263	-0.184
-286.574	-200.000	0.001	-0.161
-285.559	284.795	-0.137	-0.246
-284.545	156.053	-0.082	-0.112
-283.530	219.485	0.101	-0.160
-282.516	-176.496	0.142	0.004
-281.501	235.986	0.128	-0.210
-280.486	-135.930	-0.066	-0.008
-279.472	-76.577	0.245	0.086
-278.457	154.385	-0.137	0.187
-277.443	261.271	-0.123	0.212
-276.428	-84.282	-0.184	0.058
-275.413	800.000	0.090	0.290
-274.399	-115.789	0.113	-0.021
-273.384	-200.000	-0.003	0.052
-272.370	45.538	-0.405	0.372
-271.355	52.567	0.307	0.291
-270.340	-118.338	0.147	0.026
-269.326	472.335	-0.113	-0.253
-268.311	548.700	0.031	0.073
-267.297	-200.000	-0.007	0.192
-266.282	800.000	-0.035	0.121
-265.267	800.000	0.059	-0.253
-264.253	800.000	0.088	0.278
-263.238	258.358	0.125	0.215
-262.224	800.000	0.057	-0.237
-261.209	178.110	-0.083	0.121
-260.195	-186.090	0.282	0.004
-259.180	800.000	-0.043	-0.139
-258.165	318.050	-0.088	-0.166
-257.151	-130.001	0.331	0.045
-256.136	-200.000	-0.008	-0.065
-255.122	-14.228	-0.151	-0.097
-254.107	-200.000	-0.040	0.262
-253.092	-200.000	0.021	0.101
-252.078	-43.880	-0.238	0.119
-251.063	800.000	0.046	0.153
-250.049	515.968	-0.000	0.001
-249.034	-200.000	0.085	0.387
-248.019	-23.766	0.147	0.088
-247.005	98.010	0.258	0.294
-245.990	800.000	-0.121	-0.336
-244.976	-153.103	-0.248	0.017
-243.961	800.000	-0.024	-0.081
-242.946	339.406	0.130	0.251
-241.932	-63.991	-0.180	-0.073
-240.917	-200.000	-0.022	-0.323
-239.903	11.278	0.025	-0.019
-238.888	67.854	-0.131	0.133
-237.873	-139.371	0.096	-0.010
-236.859	-78.074	-0.107	-0.037
-235.844	46.290	0.142	-0.130
-234.830	317.207	0.087	0.163
-233.815	-104.923	0.187	-0.043
-232.800	103.168	0.117	0.136
-231.786	-134.848	0.067	0.008
-230.771	90.997	0.411	-0.457
-229.757	17.967	0.326	-0.258
-228.742	-58.348	-0.223	0.096
-227.727	-143.138	-0.123	0.012
-226.713	134.457	-0.215	-0.277
-225.698	-125.494	0.259	0.039
-224.684	-196.182	0.177	-0.001
-223.669	215.075	-0.071	0.111
-222.655	-200.000	-0.053	0.382
-221.640	-200.000	0.026	-0.204
-220.625	-9.404	0.102	0.068
-219.611	-200.000	-0.023	-0.172
-218.596	-63.415	-0.299	-0.122
-217.582	-2.971	0.259	-0.179
-216.567	158.223	-0.132	-0.181
-215.552	-40.907	0.319	0.164
-214.538	800.000	0.034	-0.095
-213.523	699.249	-0.049	-0.128
-212.509	-72.174	-0.208	0.077
-211.494	-8.335	0.280	-0.187
-210.479	-75.118	-0.237	-0.084
-209.465	-200.000	0.291	0.000
-208.450	-1.365	0.265	-0.186
-207.436	21.186	-0.316	0.254
-206.421	-40.039	0.163	0.084
-205.406	-200.000	0.002	-0.048
-204.392	12.161	-0.297	0.226
-203.377	126.872	-0.152	-0.191
-202.363	-88.338	-0.376	-0.111
-201.348	52.440	0.233	-0.221
-200.333	-157.068	-0.240	0.014
-199.319	-79.581	-0.197	0.066
-198.304	-91.600	-0.089	0.025
-197.290	-186.049	-0.227	-0.003
-196.275	-136.523	-0.085	0.010
-195.260	-41.901	0.309	0.157
-194.246	-139.857	0.043	-0.004
-193.231	139.034	-0.076	-0.099
-192.217	-6.015	-0.020	-0.013
-191.202	-200.000	0.011	-0.088
-190.187	-143.605	0.188	0.018
-189.173	-27.165	-0.209	-0.121
-188.158	-200.000	-0.004	-0.144
-187.144	-102.879	-0.268	-0.063
-186.129	185.896	-0.235	0.347
-185.114	18.302	-0.192	-0.152
-184.100	-200.000	-0.049	-0.253
-183.085	474.041	0.095	-0.212
-182.071	-20.648	0.100	-0.061
-181.056	-52.298	0.123	0.057
-180.042	-178.006	-0.058	-0.001
-179.027	-200.000	-0.009	0.192
-178.012	-42.063	0.313	0.158
-176.998	-139.019	0.179	-0.019
-175.983	69.642	0.095	-0.097
-174.969	39.650	0.109	0.096
-173.954	-55.766	0.273	0.121
-172.939	-41.568	-0.302	0.154
-171.925	1.358	0.235	-0.167
-170.910	-50.334	-0.283	-0.132
-169.896	63.018	0.128	0.127
-168.881	-200.000	-0.048	0.305
-167.866	57.467	0.328	0.317
-166.852	-117.105	0.161	-0.029
-165.837	-200.000	0.024	0.155
-164.823	-151.005	-0.102	-0.008
-163.808	243.921	0.162	-0.269
-162.793	79.992	0.173	-0.184
-161.779	172.292	-0.036	0.051
-160.764	-38.374	0.112	-0.058
-159.750	353.862	-0.098	0.193
-158.735	-41.147	0.324	0.166
-157.720	57.052	-0.138	0.133
-156.706	-200.000	-0.001	0.065
-155.691	-200.000	0.030	-0.159
-154.677	10.618	0.158	-0.120
-153.662	-119.768	0.274	-0.047
-152.647	-200.000	-0.026	-0.437
-151.633	-200.000	-0.005	0.131
-150.618	800.000	0.044	0.191
-149.604	98.414	0.305	-0.348
-148.589	-200.000	0.000	0.041
-147.574	296.328	-0.049	-0.088
-146.560	-111.376	0.212	0.043
-145.545	62.105	-0.292	-0.288
-144.531	-200.000	0.050	0.234
-143.516	-200.000	0.044	0.245
-142.502	5.606	-0.301	-0.220
-141.487	52.058	0.183	-0.172
-140.472	-200.000	-0.011	-0.161
-139.458	624.550	0.134	0.335
-138.443	554.696	-0.086	0.206
-137.429	216.432	0.140	0.220
-136.414	29.804	-0.157	0.132
-135.399	46.030	0.304	0.278
-134.385	-2.029	-0.287	0.200
-133.370	13.363	-0.151	-0.116
-132.356	126.241	-0.091	-0.114
-131.341	-125.629	-0.141	0.021
-130.326	115.865	-0.262	-0.317
-129.312	800.000	0.075	0.255
-128.297	115.888	-0.185	-0.224
-127.283	-110.394	0.169	0.035
-126.268	86.586	-0.319	-0.348
-125.253	529.342	0.051	0.120
-124.239	-200.000	-0.013	0.055
-123.224	263.329	-0.176	-0.302
-122.210	123.295	0.016	-0.020
-121.195	379.861	-0.038	0.076
