DTS Sentinel unit serial number:	SN413079Multiplexer serial number:	ORYXHardware model number:	OX4-SRSoftware version number:	ORYX F/W v4.00 Oryx Data Collector v3.7.2.0data status	okinstallation	princeton_trtdifferential loss correction	single-endedforward channel	channel 2reverse channel	N/Adate	2019/09/13time	05:19:34forward acquisition time	60.00reverse acquisition time	0.00gamma	496.2192k internal	0.2337k external	0.2337temperature offset calibration	1.0189default loss term (dB/km)	0.3790temperature slope calibration	1.0000multiplexer offset coefficient	1.0000multiplexer slope coefficient	1.0000fibre end	0.00T internal ref (°C)	26.34T ext. ref 1 (°C)	4.03T ext. ref 2 (°C)	20.85length (m)	temperature (°C)	Stokes	anti-Stokes-747.200	800.000	0.021	0.085
-746.185	-39.618	-0.297	0.156
-745.171	-69.605	0.448	-0.172
-744.156	-73.841	0.339	0.124
-743.142	36.384	-0.472	-0.418
-742.127	-120.562	-0.110	-0.019
-741.112	-104.216	0.206	-0.048
-740.098	800.000	0.053	-0.231
-739.083	-200.000	-0.016	0.176
-738.069	156.553	-0.195	0.270
-737.054	255.851	-0.074	0.127
-736.039	428.627	-0.032	-0.069
-735.025	73.140	0.186	0.195
-734.010	-73.281	0.420	0.154
-732.996	-122.563	-0.317	-0.052
-731.981	-124.696	0.112	-0.017
-730.966	95.393	-0.193	-0.221
-729.952	-200.000	-0.016	-0.149
-728.937	-56.173	-0.364	-0.163
-727.923	-95.467	-0.122	0.033
-726.908	-13.947	-0.524	-0.339
-725.894	86.867	0.359	-0.398
-724.879	-31.099	0.136	0.077
-723.864	7.775	-0.197	0.148
-722.850	135.452	0.115	0.150
-721.835	-40.153	0.272	-0.142
-720.821	-200.000	0.011	-0.198
-719.806	-41.674	-0.141	-0.073
-718.791	-40.335	-0.256	-0.134
-717.777	542.162	-0.118	-0.282
-716.762	-126.559	-0.159	-0.024
-715.748	-186.348	0.418	0.006
-714.733	-136.245	-0.269	-0.032
-713.718	-200.000	-0.095	-0.458
-712.704	-200.000	-0.008	-0.069
-711.689	5.264	0.037	0.028
-710.675	-12.566	0.114	0.075
-709.660	800.000	-0.093	-0.374
-708.645	11.106	0.220	-0.169
-707.631	326.709	0.048	0.093
-706.616	-105.373	0.139	0.032
-705.602	-165.126	0.186	0.008
-704.587	63.063	-0.175	-0.175
-703.572	-92.227	-0.398	0.113
-702.558	-130.107	-0.255	-0.035
-701.543	-90.667	-0.142	-0.041
-700.529	113.631	-0.125	0.152
-699.514	223.627	0.057	0.093
-698.499	-200.000	-0.002	0.128
-697.485	-85.979	-0.459	0.142
-696.470	-200.000	-0.021	0.106
-695.456	145.354	0.033	-0.044
-694.441	92.152	0.089	0.101
-693.426	-73.831	-0.024	-0.009
-692.412	72.545	-0.156	0.163
-691.397	-90.575	0.182	-0.053
-690.383	-20.595	-0.341	-0.210
-689.368	-200.000	0.005	-0.047
-688.354	388.040	0.094	0.195
-687.339	-18.406	-0.258	0.162
-686.324	-200.000	-0.060	-0.269
-685.310	438.829	-0.189	-0.413
-684.295	-52.268	-0.136	0.063
-683.281	-44.811	-0.027	-0.013
-682.266	-150.836	-0.102	0.008
-681.251	5.546	-0.252	-0.187
-680.237	558.265	0.044	0.107
-679.222	-200.000	-0.044	-0.197
-678.208	290.678	0.165	-0.300
-677.193	34.866	0.123	0.107
-676.178	4.853	0.049	-0.036
-675.164	-70.470	0.229	-0.087
-674.149	32.319	0.376	-0.325
-673.135	-117.943	-0.133	0.024
-672.120	800.000	0.099	0.334
-671.105	165.031	0.079	-0.112
-670.091	49.192	-0.049	-0.046
-669.076	800.000	-0.033	-0.100
-668.062	-57.592	0.177	0.078
-667.047	191.876	-0.047	-0.072
-666.032	-7.291	-0.232	0.157
-665.018	800.000	0.144	-0.500
-664.003	-200.000	0.023	0.166
-662.989	-61.588	-0.011	0.005
-661.974	306.393	-0.096	0.179
-660.959	-82.780	-0.087	0.028
-659.945	800.000	-0.062	0.249
-658.930	91.203	-0.197	-0.221
-657.916	-56.969	-0.177	-0.078
-656.901	-24.884	0.283	0.168
-655.886	-200.000	0.047	-0.327
-654.872	800.000	0.087	-0.356
-653.857	-32.700	-0.099	0.055
-652.843	800.000	0.057	0.197
-651.828	-56.802	0.139	0.061
-650.814	-108.338	-0.246	-0.053
-649.799	-131.324	0.127	0.017
-648.784	-200.000	-0.055	-0.300
-647.770	-68.382	-0.190	-0.074
-646.755	243.712	0.115	0.193
-645.741	800.000	0.116	-0.403
-644.726	56.555	-0.266	0.258
-643.711	-36.362	0.377	-0.203
-642.697	-175.159	-0.317	-0.009
-641.682	-122.508	0.392	-0.064
-640.668	119.501	-0.060	-0.074
-639.653	-97.167	-0.198	-0.052
-638.638	-42.565	0.114	0.058
-637.624	-103.332	-0.089	-0.021
-636.609	-200.000	0.056	-0.326
-635.595	-81.244	0.074	0.024
-634.580	246.621	0.058	0.098
-633.565	34.776	0.153	0.133
-632.551	29.910	-0.289	0.246
-631.536	17.583	-0.089	-0.071
-630.522	40.259	0.237	-0.213
-629.507	-200.000	0.041	0.311
-628.492	278.104	0.132	0.235
-627.478	53.865	-0.305	0.293
-626.463	-94.464	0.294	0.080
-625.449	-115.319	0.401	-0.076
-624.434	-200.000	0.005	0.172
-623.419	800.000	-0.050	-0.149
-622.405	-180.565	0.146	-0.003
-621.390	-106.005	0.171	-0.038
-620.376	170.231	-0.251	0.359
-619.361	150.225	-0.173	-0.234
-618.346	92.655	-0.064	-0.072
-617.332	101.066	-0.095	-0.110
-616.317	-40.798	0.238	0.123
-615.303	-51.340	0.118	-0.055
-614.288	142.545	-0.116	0.154
-613.273	8.414	-0.110	0.083
-612.259	800.000	0.057	0.191
-611.244	36.297	0.251	0.221
-610.230	257.690	0.133	-0.229
-609.215	-200.000	0.023	0.211
-608.201	267.208	0.017	-0.029
-607.186	-65.757	-0.124	-0.050
-606.171	-0.410	0.103	0.073
-605.157	121.195	0.131	-0.162
-604.142	-44.979	-0.283	0.141
-603.128	-115.038	-0.157	0.030
-602.113	397.714	-0.097	0.203
-601.098	-200.000	-0.029	-0.218
-600.084	296.978	0.086	-0.157
-599.069	-200.000	-0.024	0.185
-598.055	-200.000	-0.027	0.123
-597.040	-93.521	0.135	-0.037
-596.025	122.560	0.087	-0.108
-595.011	132.298	-0.270	-0.348
-593.996	21.878	0.115	-0.093
-592.982	408.819	0.081	-0.171
-591.967	-105.522	0.105	0.024
-590.952	-119.774	0.238	0.041
-589.938	-73.127	-0.190	0.069
-588.923	-60.277	-0.148	-0.063
-587.909	451.257	0.089	-0.197
-586.894	219.760	0.108	-0.173
-585.879	295.104	-0.088	-0.160
-584.865	-91.880	-0.291	0.082
-583.850	42.403	-0.200	-0.182
-582.836	-35.651	0.123	0.066
-581.821	-95.308	-0.365	-0.098
-580.806	-40.633	-0.078	-0.041
-579.792	800.000	-0.116	-0.367
-578.777	151.485	0.140	0.190
-577.763	-85.102	0.112	0.035
-576.748	72.892	-0.080	-0.084
-575.733	14.012	-0.195	0.152
-574.719	-200.000	0.014	-0.104
-573.704	800.000	-0.047	-0.164
-572.690	-169.277	0.297	-0.011
-571.675	439.352	-0.066	0.143
-570.661	-57.361	-0.228	-0.100
-569.646	-200.000	0.004	-0.284
-568.631	25.694	-0.380	-0.315
-567.617	-11.290	0.104	-0.068
-566.602	-108.041	-0.408	-0.088
-565.588	204.327	-0.200	0.309
-564.573	-132.281	0.133	0.017
-563.558	-200.000	-0.002	-0.036
-562.544	545.955	0.022	0.053
-561.529	-200.000	-0.014	0.098
-560.515	-72.823	0.394	-0.144
-559.500	-200.000	-0.016	-0.393
-558.485	425.332	-0.072	-0.155
-557.471	-11.157	-0.159	0.104
-556.456	-140.587	-0.256	0.026
-555.442	800.000	0.107	-0.377
-554.427	403.091	-0.112	-0.234
-553.412	-34.835	0.248	-0.135
-552.398	7.430	0.128	-0.095
-551.383	307.378	0.157	0.291
-550.369	35.440	0.140	0.122
-549.354	-121.702	-0.421	-0.069
-548.339	-25.280	-0.121	0.071
-547.325	378.467	-0.161	0.328
-546.310	-120.150	0.078	-0.013
-545.296	-67.598	0.145	0.056
-544.281	-200.000	0.007	-0.142
-543.266	-200.000	0.021	0.249
-542.252	283.886	0.125	0.224
-541.237	-200.000	0.029	-0.212
-540.223	278.833	0.034	0.060
-539.208	-49.125	-0.016	-0.008
-538.193	495.802	-0.007	0.015
-537.179	-26.084	-0.165	-0.097
-536.164	601.477	0.069	-0.171
-535.150	58.138	0.231	-0.226
-534.135	15.138	-0.191	-0.149
-533.121	208.001	-0.086	-0.134
-532.106	206.670	-0.100	-0.156
-531.091	-120.579	0.084	-0.014
-530.077	-194.222	0.215	-0.002
-529.062	-95.065	-0.176	0.047
-528.048	-123.201	0.238	0.038
-527.033	45.472	0.092	0.085
-526.018	49.126	-0.116	-0.108
-525.004	-25.816	-0.299	0.175
-523.989	-149.774	-0.241	-0.019
-522.975	-200.000	0.012	-0.066
-521.960	-55.811	0.075	-0.033
-520.945	207.666	0.095	-0.147
-519.931	-200.000	-0.015	0.130
-518.916	120.875	-0.099	-0.123
-517.902	-25.664	0.277	0.163
-516.887	243.308	0.103	0.172
-515.872	49.120	0.217	0.203
-514.858	-79.872	0.139	-0.047
-513.843	-32.927	-0.183	-0.101
-512.829	66.814	-0.118	0.120
-511.814	243.066	0.149	-0.248
-510.799	-8.746	-0.118	-0.079
-509.785	-68.105	-0.068	-0.027
-508.770	345.886	-0.058	0.113
-507.756	-148.540	0.332	-0.027
-506.741	69.120	0.042	0.043
-505.726	507.571	0.144	-0.333
-504.712	800.000	-0.103	-0.314
-503.697	596.564	-0.061	-0.151
-502.683	717.474	-0.185	-0.489
-501.668	-200.000	0.046	-0.253
-500.653	-59.981	-0.087	-0.037
-499.639	132.046	0.160	0.204
-498.624	9.996	-0.080	0.061
-497.610	15.222	0.242	0.189
-496.595	-44.730	-0.159	-0.079
-495.581	-71.895	-0.240	-0.089
-494.566	739.162	-0.130	-0.348
-493.551	750.245	-0.108	0.291
-492.537	1.951	0.156	-0.112
-491.522	-8.546	-0.256	0.171
-490.508	-89.749	0.234	0.068
-489.493	239.321	0.128	-0.212
-488.478	524.874	-0.066	0.155
-487.464	-57.108	-0.129	0.056
-486.449	173.582	0.048	-0.069
-485.435	238.446	0.042	-0.069
-484.420	117.321	-0.076	0.093
-483.405	142.457	-0.278	-0.366
-482.391	-94.272	0.165	0.045
-481.376	745.343	0.023	0.062
-480.362	230.117	0.151	0.246
-479.347	-200.000	-0.045	-0.247
-478.332	-7.574	-0.088	-0.059
-477.318	-200.000	-0.081	-0.475
-476.303	-165.889	0.234	-0.010
-475.289	-144.061	0.116	-0.011
-474.274	-23.292	-0.164	-0.098
-473.259	229.510	-0.086	-0.139
-472.245	-16.776	0.177	0.111
-471.230	498.522	0.071	0.162
-470.216	800.000	0.106	-0.403
-469.201	800.000	0.025	0.099
-468.186	60.369	-0.145	0.143
-467.172	293.486	-0.242	0.439
-466.157	-115.236	-0.403	-0.076
-465.143	-200.000	-0.011	0.100
-464.128	434.495	-0.158	0.342
-463.113	25.327	-0.123	-0.101
-462.099	-200.000	0.014	-0.142
-461.084	-200.000	-0.002	-0.045
-460.070	108.626	0.187	-0.222
-459.055	800.000	-0.102	-0.424
-458.040	-47.471	0.054	0.026
-457.026	164.705	0.155	0.217
-456.011	-37.722	0.141	0.075
-454.997	800.000	0.061	0.170
-453.982	-58.733	0.277	-0.119
-452.968	-30.199	0.255	-0.144
-451.953	-61.449	0.242	-0.101
-450.938	-115.812	0.253	0.047
-449.924	-46.159	-0.150	0.073
-448.909	800.000	0.026	-0.107
-447.895	216.975	0.124	0.196
-446.880	-196.131	-0.263	0.002
-445.865	28.627	-0.118	0.099
-444.851	800.000	-0.079	-0.265
-443.836	-200.000	-0.078	-0.376
-442.822	-33.533	-0.142	0.078
-441.807	170.620	0.082	-0.117
-440.792	3.967	-0.061	0.044
-439.778	197.451	0.055	0.083
-438.763	511.928	0.064	-0.147
-437.749	11.942	-0.116	-0.089
-436.734	-200.000	-0.010	0.437
-435.719	-31.709	0.072	-0.040
-434.705	800.000	-0.015	0.060
-433.690	166.796	0.016	-0.023
-432.676	-200.000	0.029	0.158
-431.661	-90.518	0.045	-0.013
-430.646	282.839	0.196	0.349
-429.632	-181.489	-0.247	-0.005
-428.617	257.458	-0.026	0.045
-427.603	-14.396	-0.087	0.056
-426.588	24.538	-0.307	0.252
-425.573	560.380	0.083	0.199
-424.559	-157.917	-0.208	0.012
-423.544	-200.000	0.030	-0.331
-422.530	-19.132	-0.229	-0.141
-421.515	430.768	-0.062	-0.133
-420.500	163.951	0.075	0.105
-419.486	-200.000	0.085	0.582
-418.471	-42.506	-0.335	-0.169
-417.457	322.972	0.106	-0.201
-416.442	37.587	-0.022	0.019
-415.428	800.000	0.057	0.193
-414.413	-17.259	0.286	0.178
-413.398	523.077	-0.129	0.299
-412.384	487.830	-0.108	-0.245
-411.369	-110.494	-0.012	0.002
-410.355	-41.620	-0.140	-0.071
-409.340	13.520	0.081	0.062
-408.325	72.833	0.297	-0.307
-407.311	425.194	0.053	-0.113
-406.296	26.229	-0.078	0.065
-405.282	-52.718	0.353	0.161
-404.267	32.150	-0.370	-0.316
-403.252	125.264	-0.185	-0.231
-402.238	53.496	-0.059	0.056
-401.223	307.160	-0.120	-0.222
-400.209	84.228	-0.128	0.138
-399.194	-40.949	-0.121	-0.062
-398.179	350.929	0.094	-0.184
-397.165	-108.490	-0.198	-0.042
-396.150	-119.309	0.231	-0.040
-395.136	800.000	0.060	0.227
-394.121	755.594	0.083	0.222
-393.106	800.000	-0.081	-0.305
-392.092	80.483	0.107	-0.114
-391.077	-66.333	-0.193	-0.076
-390.063	-200.000	-0.007	-0.174
-389.048	-200.000	0.067	-0.317
-388.033	-100.543	-0.277	0.068
-387.019	-200.000	-0.006	-0.231
-386.004	-13.137	0.170	-0.109
-384.990	374.566	0.149	0.301
-383.975	-101.835	0.168	0.040
-382.960	-200.000	0.010	-0.167
-381.946	211.034	-0.163	-0.254
-380.931	-164.165	0.080	0.004
-379.917	9.327	0.308	0.230
-378.902	800.000	-0.085	0.306
-377.888	800.000	0.081	0.241
-376.873	142.912	0.336	0.442
-375.858	800.000	0.064	0.267
-374.844	-57.611	-0.044	-0.019
-373.829	-166.718	-0.216	-0.009
-372.815	-100.385	0.345	0.085
-371.800	47.502	-0.277	0.255
-370.785	29.041	-0.248	-0.208
-369.771	628.745	-0.061	-0.152
-368.756	-200.000	-0.013	-0.183
-367.742	-32.611	0.233	0.128
-366.727	-200.000	0.013	0.367
-365.712	-200.000	0.004	0.086
-364.698	-117.356	0.387	-0.069
-363.683	97.899	-0.046	0.053
-362.669	276.134	-0.110	-0.193
-361.654	67.751	-0.131	-0.133
-360.639	270.328	-0.042	-0.073
-359.625	-27.358	-0.123	-0.071
-358.610	121.777	0.137	0.169
-357.596	43.932	0.012	0.011
-356.581	-200.000	0.041	0.216
-355.566	277.395	0.056	-0.099
-354.552	191.489	-0.103	0.154
-353.537	800.000	0.071	-0.242
-352.523	322.284	-0.036	0.068
-351.508	-140.146	-0.264	-0.027
-350.493	-35.518	0.223	0.119
-349.479	65.120	0.135	-0.135
-348.464	-200.000	-0.017	-0.209
-347.450	2.326	-0.066	-0.047
-346.435	-200.000	-0.025	-0.282
-345.420	-200.000	-0.015	0.102
-344.406	-119.218	0.256	0.044
-343.391	309.717	-0.073	0.134
-342.377	762.731	0.032	-0.086
-341.362	-25.335	-0.112	0.066
-340.348	-98.458	0.391	0.099
-339.333	-200.000	0.053	0.298
-338.318	-200.000	0.034	-0.295
-337.304	182.094	-0.240	0.350
-336.289	211.527	-0.067	0.104
-335.275	800.000	-0.079	0.256
-334.260	24.843	0.104	0.085
-333.245	19.918	-0.159	0.126
-332.231	489.155	-0.060	-0.136
-331.216	-122.175	0.082	0.013
-330.202	-116.170	0.124	-0.023
-329.187	627.538	0.031	-0.077
-328.172	-200.000	0.079	-0.372
-327.158	-103.967	-0.255	-0.059
-326.143	-70.265	0.173	-0.065
-325.129	800.000	-0.050	-0.208
-324.114	-103.361	-0.167	0.039
-323.099	165.222	-0.076	-0.106
-322.085	236.244	-0.139	-0.227
-321.070	800.000	-0.062	0.169
-320.056	-164.601	-0.148	0.007
-319.041	24.877	0.024	-0.019
-318.026	-56.060	-0.242	-0.107
-317.012	-64.951	-0.226	-0.090
-315.997	97.432	-0.175	0.199
-314.983	134.387	0.045	0.057
-313.968	800.000	-0.053	-0.179
-312.953	-78.823	0.062	0.021
-311.939	800.000	-0.107	-0.435
-310.924	-19.198	0.140	-0.086
-309.910	533.174	-0.091	0.213
-308.895	127.756	-0.069	0.086
-307.880	800.000	-0.086	-0.315
-306.866	-163.835	-0.243	-0.011
-305.851	-200.000	0.001	0.093
-304.837	-8.821	-0.224	-0.148
-303.822	-176.985	0.297	0.007
-302.807	450.352	-0.198	-0.432
-301.793	-75.186	0.224	0.079
-300.778	-66.857	0.236	0.092
-299.764	-20.902	0.151	-0.091
-298.749	267.039	0.133	-0.229
-297.735	565.770	0.044	0.106
-296.720	-142.427	0.464	-0.045
-295.705	91.097	0.058	-0.064
-294.691	10.696	0.105	-0.079
-293.676	7.969	0.284	0.210
-292.662	-75.257	-0.183	0.065
-291.647	-63.234	-0.216	-0.088
-290.632	-200.000	-0.008	-0.093
-289.618	-24.317	-0.341	-0.201
-288.603	172.924	0.129	0.183
-287.589	152.613	0.252	0.339
-286.574	-84.911	0.120	0.037
-285.559	24.027	0.219	0.178
-284.545	156.569	0.117	-0.159
-283.530	-62.730	-0.141	-0.057
-282.516	-200.000	-0.008	0.042
-281.501	505.309	-0.029	0.066
-280.486	800.000	-0.080	0.287
-279.472	800.000	-0.017	-0.057
-278.457	-200.000	0.006	0.249
-277.443	754.881	0.053	0.142
-276.428	-90.734	0.144	0.041
-275.413	-182.090	0.150	0.003
-274.399	800.000	0.106	-0.292
-273.384	334.335	0.237	-0.453
-272.370	800.000	-0.072	0.263
-271.355	17.691	0.164	0.128
-270.340	-200.000	0.029	-0.125
-269.326	800.000	0.016	0.058
-268.311	83.441	-0.169	0.182
-267.297	800.000	0.063	0.190
-266.282	-200.000	-0.003	0.124
-265.267	-200.000	-0.029	0.258
-264.253	402.506	-0.136	-0.282
-263.238	-57.886	-0.167	0.072
-262.224	-77.723	0.251	-0.086
-261.209	-77.774	-0.240	0.082
-260.195	509.305	-0.056	0.128
-259.180	55.266	0.292	0.278
-258.165	756.519	-0.045	0.119
-257.151	-10.670	-0.101	-0.066
-256.136	-100.039	0.181	0.044
-255.122	61.843	-0.254	-0.249
-254.107	-129.913	0.202	-0.027
-253.092	354.299	-0.056	0.110
-252.078	120.496	-0.210	-0.257
-251.063	-74.969	0.335	0.118
-250.049	-200.000	0.006	0.112
-249.034	800.000	0.035	-0.109
-248.019	-33.243	-0.204	-0.111
-247.005	114.686	-0.137	-0.164
-245.990	357.589	0.090	-0.177
-244.976	93.579	0.192	0.214
-243.961	-33.192	0.302	-0.165
-242.946	-62.770	-0.189	0.077
-241.932	-60.222	-0.057	-0.024
-240.917	-78.324	0.145	0.049
-239.903	459.446	-0.046	0.100
-238.888	-52.348	-0.163	0.074
-237.873	58.383	-0.088	-0.085
-236.859	800.000	-0.045	0.125
-235.844	-36.268	0.291	0.154
-234.830	800.000	-0.027	0.110
-233.815	-134.768	0.450	0.054
-232.800	187.941	-0.207	-0.304
-231.786	-49.899	0.079	0.037
-230.771	800.000	0.052	-0.161
-229.757	-200.000	0.010	0.065
-228.742	800.000	0.078	0.225
-227.727	84.993	0.076	-0.082
-226.713	800.000	0.121	-0.376
-225.698	226.012	-0.090	-0.144
-224.684	-12.152	0.233	0.150
-223.669	-87.004	0.157	-0.047
-222.655	-200.000	0.042	-0.315
-221.640	-67.211	-0.444	0.172
-220.625	0.515	-0.181	0.127
-219.611	800.000	0.085	0.255
-218.596	-142.556	0.369	-0.036
-217.582	-44.653	-0.140	-0.069
-216.567	138.119	0.122	-0.157
-215.552	800.000	-0.018	-0.057
-214.538	-131.678	0.186	-0.024
-213.523	-54.406	0.173	-0.077
-212.509	10.577	-0.067	-0.050
-211.494	-21.749	-0.280	0.167
-210.479	-133.943	0.267	0.033
-209.465	709.997	-0.113	0.295
-208.450	95.408	-0.153	0.171
-207.436	-114.287	-0.107	0.020
-206.421	12.778	-0.242	0.183
-205.406	215.468	-0.222	0.347
-204.392	416.310	-0.154	0.323
-203.377	-149.054	-0.100	0.008
-202.363	-29.347	-0.251	0.141
-201.348	-114.734	0.265	-0.050
-200.333	-25.286	0.157	0.091
-199.319	680.716	-0.078	0.199
-198.304	-25.262	-0.242	-0.141
-197.290	645.864	-0.116	0.292
-196.275	237.696	0.141	0.230
-195.260	-40.884	0.194	-0.098
-194.246	-77.554	-0.137	-0.047
-193.231	-25.675	0.358	-0.208
-192.217	-84.994	-0.152	-0.047
-191.202	-200.000	0.078	0.363
-190.187	-60.961	-0.242	-0.100
-189.173	800.000	0.137	0.372
-188.158	-200.000	-0.031	0.171
-187.144	-200.000	-0.003	0.213
-186.129	-200.000	0.028	0.136
-185.114	430.444	0.126	0.268
-184.100	311.250	-0.185	0.341
-183.085	-200.000	0.020	0.108
-182.071	800.000	-0.038	-0.156
-181.056	-25.365	-0.313	-0.182
-180.042	440.002	-0.117	0.250
-179.027	-200.000	-0.071	0.353
-178.012	-19.551	0.092	0.056
-176.998	-145.871	0.180	-0.016
-175.983	-20.817	-0.280	0.168
-174.969	-200.000	0.040	0.190
-173.954	-200.000	-0.021	0.201
-172.939	-62.834	0.192	-0.078
-171.925	-200.000	-0.037	0.239
-170.910	800.000	-0.018	-0.069
-169.896	45.702	0.062	0.056
-168.881	-163.458	-0.114	-0.005
-167.866	-124.133	0.291	-0.045
-166.852	-131.677	-0.347	-0.045
-165.837	-128.053	-0.080	0.011
-164.823	27.153	-0.173	0.143
-163.808	800.000	0.024	0.091
-162.793	586.223	0.047	-0.114
-161.779	3.729	-0.089	-0.064
-160.764	800.000	0.064	-0.193
-159.750	800.000	0.055	-0.169
-158.735	763.454	0.068	0.182
-157.720	333.286	0.024	-0.045
-156.706	69.399	0.252	0.254
-155.691	-200.000	0.018	-0.179
-154.677	303.619	0.036	-0.065
-153.662	390.905	0.015	-0.030
-152.647	-21.754	0.086	-0.051
-151.633	23.413	0.095	0.076
-150.618	125.215	0.102	-0.126
-149.604	226.065	0.114	0.182
-148.589	-200.000	0.010	0.141
-147.574	-69.979	0.326	0.122
-146.560	-56.990	-0.198	-0.086
-145.545	138.529	0.048	-0.062
-144.531	-161.117	0.200	0.010
-143.516	800.000	0.027	-0.112
-142.502	420.655	0.044	-0.093
-141.487	-3.316	0.255	-0.174
-140.472	-32.311	0.092	-0.050
-139.458	-200.000	0.020	0.154
-138.443	-31.171	-0.100	0.056
-137.429	800.000	-0.041	-0.139
-136.414	175.373	0.114	-0.162
-135.399	13.802	-0.078	0.059
-134.385	800.000	-0.039	-0.148
-133.370	-107.411	-0.063	0.014
-132.356	-161.629	-0.242	-0.012
-131.341	-129.294	-0.185	0.025
-130.326	130.274	-0.151	0.189
-129.312	-200.000	0.006	-0.085
-128.297	117.609	-0.071	-0.086
-127.283	-27.025	-0.169	0.097
-126.268	421.717	0.114	-0.239
-125.253	320.873	0.205	0.382
-124.239	-200.000	0.015	-0.147
-123.224	8.181	-0.193	-0.142
-122.210	-26.915	-0.232	-0.133
-121.195	-154.465	0.251	-0.016
