DTS Sentinel unit serial number:	SN413079Multiplexer serial number:	ORYXHardware model number:	OX4-SRSoftware version number:	ORYX F/W v4.00 Oryx Data Collector v3.7.2.0data status	okinstallation	princeton_trtdifferential loss correction	single-endedforward channel	channel 2reverse channel	N/Adate	2019/09/16time	05:51:35forward acquisition time	60.00reverse acquisition time	0.00gamma	496.2192k internal	0.2334k external	0.2334temperature offset calibration	0.9978default loss term (dB/km)	0.3790temperature slope calibration	1.0000multiplexer offset coefficient	1.0000multiplexer slope coefficient	1.0000fibre end	0.00T internal ref (°C)	27.37T ext. ref 1 (°C)	11.22T ext. ref 2 (°C)	22.25length (m)	temperature (°C)	Stokes	anti-Stokes-747.200	-170.305	0.316	0.011
-746.185	-200.000	0.016	0.165
-745.171	12.504	-0.220	0.171
-744.156	18.167	-0.154	0.124
-743.142	-55.203	-0.180	0.081
-742.127	-200.000	-0.014	0.265
-741.112	41.317	0.292	-0.265
-740.098	577.934	-0.145	0.357
-739.083	-107.540	0.118	-0.026
-738.069	660.245	-0.242	0.626
-737.054	-200.000	0.014	0.141
-736.039	156.315	0.080	-0.110
-735.025	-147.959	0.332	0.028
-734.010	800.000	0.109	0.422
-732.996	39.989	-0.172	0.155
-731.981	179.660	-0.071	0.105
-730.966	-27.214	-0.224	-0.131
-729.952	-80.813	-0.301	-0.101
-728.937	-20.286	0.271	0.167
-727.923	-20.883	-0.196	-0.121
-726.908	140.364	-0.154	-0.205
-725.894	-200.000	-0.032	-0.234
-724.879	-138.380	-0.100	-0.011
-723.864	-200.000	-0.022	-0.114
-722.850	430.750	0.045	0.098
-721.835	-14.251	-0.047	-0.031
-720.821	335.652	0.050	-0.098
-719.806	-200.000	0.057	-0.350
-718.791	-154.129	-0.275	0.019
-717.777	-142.645	0.232	-0.023
-716.762	-200.000	-0.045	-0.273
-715.748	-175.352	0.259	0.007
-714.733	-126.750	-0.146	-0.022
-713.718	-138.481	-0.088	-0.010
-712.704	117.078	-0.064	-0.078
-711.689	-32.888	-0.231	0.129
-710.675	-110.172	-0.074	-0.016
-709.660	-68.501	-0.433	-0.168
-708.645	-19.204	-0.218	0.136
-707.631	30.280	0.098	0.084
-706.616	54.079	0.352	0.340
-705.602	-57.368	-0.126	0.056
-704.587	-26.146	-0.265	-0.156
-703.572	-200.000	-0.049	-0.266
-702.558	54.508	-0.090	-0.087
-701.543	-102.697	-0.508	-0.122
-700.529	8.233	0.067	0.051
-699.514	265.614	-0.135	0.236
-698.499	-82.532	-0.174	-0.057
-697.485	649.747	-0.051	-0.131
-696.470	-164.340	0.292	0.013
-695.456	-41.998	-0.316	-0.162
-694.441	0.997	-0.169	0.122
-693.426	-82.769	0.087	0.028
-692.412	-118.384	0.235	0.042
-691.397	-68.511	0.347	-0.135
-690.383	108.112	-0.339	-0.406
-689.368	-53.052	0.226	0.104
-688.354	-45.882	0.222	-0.110
-687.339	-51.219	-0.171	-0.080
-686.324	-46.409	-0.127	0.062
-685.310	-67.028	-0.052	0.021
-684.295	-41.686	0.182	0.093
-683.281	-200.000	-0.028	-0.128
-682.266	-109.804	0.147	0.031
-681.251	-106.802	-0.211	0.047
-680.237	-85.227	0.161	-0.051
-679.222	800.000	0.143	0.402
-678.208	217.679	0.174	-0.278
-677.193	-123.574	0.210	0.033
-676.178	72.418	-0.025	0.027
-675.164	-56.374	0.314	0.140
-674.149	562.014	0.054	0.132
-673.135	-74.576	0.297	-0.107
-672.120	-77.952	0.181	0.063
-671.105	-78.535	-0.103	-0.035
-670.091	19.593	-0.118	0.095
-669.076	-38.015	-0.052	0.028
-668.062	43.805	0.086	-0.079
-667.047	-39.048	-0.228	0.120
-666.032	186.895	-0.081	-0.121
-665.018	-200.000	0.025	0.136
-664.003	-200.000	-0.001	-0.358
-662.989	-200.000	-0.019	-0.145
-661.974	-81.975	0.370	0.121
-660.959	-200.000	0.016	0.121
-659.945	276.193	0.086	-0.154
-658.930	800.000	-0.016	0.059
-657.916	290.992	-0.152	-0.277
-656.901	-200.000	-0.002	0.320
-655.886	-161.120	-0.146	-0.008
-654.872	-60.541	-0.146	-0.062
-653.857	-91.837	0.402	-0.114
-652.843	34.590	0.345	0.302
-651.828	491.645	-0.133	0.304
-650.814	-56.469	0.101	0.045
-649.799	-200.000	-0.038	0.370
-648.784	-114.731	0.253	-0.048
-647.770	-110.459	-0.400	-0.083
-646.755	-200.000	0.028	-0.152
-645.741	-54.488	-0.146	-0.066
-644.726	-122.713	0.266	-0.043
-643.711	37.566	-0.004	0.004
-642.697	-3.968	-0.107	-0.074
-641.682	-137.594	0.072	-0.008
-640.668	-200.000	0.035	0.236
-639.653	-200.000	-0.002	0.091
-638.638	-47.101	-0.138	-0.067
-637.624	101.052	-0.148	-0.172
-636.609	61.868	-0.125	0.125
-635.595	800.000	-0.043	-0.154
-634.580	698.868	-0.045	0.119
-633.565	-200.000	-0.034	0.193
-632.551	-52.617	0.172	0.080
-631.536	-197.657	0.300	0.002
-630.522	-134.357	-0.290	-0.036
-629.507	-156.951	0.273	-0.017
-628.492	-4.733	-0.135	-0.093
-627.478	-10.437	0.170	-0.113
-626.463	-78.915	0.231	0.079
-625.449	-115.949	-0.526	0.098
-624.434	-88.364	0.295	-0.088
-623.419	240.635	-0.041	-0.068
-622.405	235.172	0.175	0.289
-621.390	196.793	-0.038	0.058
-620.376	355.462	0.100	-0.200
-619.361	800.000	-0.049	0.185
-618.346	33.343	0.209	-0.182
-617.332	-200.000	-0.007	-0.138
-616.317	236.409	0.188	-0.311
-615.303	800.000	-0.059	-0.187
-614.288	-159.846	-0.081	0.004
-613.273	9.462	0.068	0.052
-612.259	-200.000	0.021	0.140
-611.244	239.073	-0.106	-0.176
-610.230	-4.671	0.172	-0.119
-609.215	96.157	0.140	0.160
-608.201	-105.627	-0.169	0.038
-607.186	460.276	0.138	-0.306
-606.171	800.000	0.095	-0.375
-605.157	143.368	0.111	-0.148
-604.142	-200.000	0.064	0.451
-603.128	800.000	0.104	0.419
-602.113	-101.683	-0.259	0.063
-601.098	-61.996	0.364	-0.152
-600.084	170.647	-0.319	-0.456
-599.069	-200.000	0.062	-0.357
-598.055	344.627	0.200	-0.393
-597.040	-18.250	-0.127	0.079
-596.025	-200.000	0.020	-0.165
-595.011	-75.188	0.131	0.047
-593.996	25.635	0.313	0.260
-592.982	-200.000	0.123	-0.539
-591.967	-200.000	-0.004	-0.065
-590.952	196.813	-0.080	0.123
-589.938	-147.249	0.097	-0.008
-588.923	-200.000	0.048	0.366
-587.909	149.225	-0.019	-0.025
-586.894	-24.240	0.030	0.018
-585.879	-44.005	-0.433	-0.217
-584.865	-80.403	0.302	-0.101
-583.850	-200.000	-0.004	-0.185
-582.836	-21.148	-0.113	0.069
-581.821	-10.318	0.161	-0.106
-580.806	-137.537	-0.082	-0.009
-579.792	-101.918	-0.144	-0.035
-578.777	102.247	-0.119	0.139
-577.763	800.000	-0.043	-0.169
-576.748	-40.352	0.046	-0.024
-575.733	-200.000	0.028	-0.433
-574.719	-200.000	0.054	-0.255
-573.704	-6.171	-0.063	-0.043
-572.690	164.401	0.079	-0.111
-571.675	-52.987	0.095	0.043
-570.661	217.648	0.073	0.116
-569.646	44.285	0.083	0.076
-568.631	9.853	0.209	-0.159
-567.617	426.037	-0.184	-0.395
-566.602	5.959	-0.059	0.044
-565.588	800.000	0.038	0.148
-564.573	-110.847	-0.333	-0.068
-563.558	438.279	-0.054	0.118
-562.544	152.589	0.228	0.311
-561.529	-154.524	-0.105	0.007
-560.515	3.964	-0.210	0.153
-559.500	-153.464	0.315	0.022
-558.485	-200.000	-0.064	0.284
-557.471	-148.967	0.335	-0.027
-556.456	-32.396	-0.016	0.009
-555.442	-120.806	-0.196	-0.033
-554.427	-53.476	-0.081	-0.037
-553.412	383.300	0.114	-0.234
-552.398	800.000	-0.013	-0.045
-551.383	-25.580	-0.180	-0.106
-550.369	74.812	-0.104	-0.109
-549.354	-110.917	-0.515	-0.106
-548.339	-200.000	0.007	0.167
-547.325	551.087	-0.059	-0.142
-546.310	95.824	-0.149	-0.169
-545.296	-134.000	0.264	0.033
-544.281	-136.473	-0.116	-0.013
-543.266	-200.000	-0.044	0.488
-542.252	-200.000	0.002	0.201
-541.237	74.133	-0.036	0.038
-540.223	800.000	-0.044	0.162
-539.208	119.902	0.064	-0.079
-538.193	-138.643	0.211	0.023
-537.179	443.904	0.020	-0.044
-536.164	-3.389	-0.165	-0.115
-535.150	-200.000	0.008	-0.272
-534.135	108.984	0.213	-0.254
-533.121	-79.456	0.313	0.106
-532.106	50.949	0.240	-0.227
-531.091	-64.946	-0.138	-0.056
-530.077	29.176	0.153	0.129
-529.062	335.120	0.133	-0.257
-528.048	98.456	-0.143	0.165
-527.033	-43.938	-0.110	0.055
-526.018	-163.619	0.387	-0.018
-525.004	57.093	-0.046	-0.045
-523.989	413.568	0.067	-0.142
-522.975	-200.000	-0.039	0.259
-521.960	-90.317	0.130	-0.037
-520.945	800.000	0.135	-0.378
-519.931	-166.342	0.275	-0.012
-518.916	-88.154	-0.153	0.046
-517.902	800.000	0.065	0.218
-516.887	-48.613	-0.133	-0.063
-515.872	-33.506	0.180	0.099
-514.858	-200.000	0.053	-0.380
-513.843	-84.815	0.264	-0.083
-512.829	-84.263	-0.373	-0.118
-511.814	27.094	0.276	0.231
-510.799	408.388	0.077	-0.162
-509.785	-200.000	-0.006	-0.090
-508.770	-100.167	-0.019	0.005
-507.756	-106.918	0.358	-0.079
-506.741	800.000	0.012	0.053
-505.726	595.949	-0.129	-0.317
-504.712	-175.947	0.219	0.006
-503.697	-200.000	0.073	0.357
-502.683	-58.851	0.168	0.072
-501.668	157.399	0.126	-0.173
-500.653	161.725	-0.087	-0.121
-499.639	-43.149	0.400	-0.202
-498.624	-60.664	0.356	-0.150
-497.610	-85.788	-0.283	-0.087
-496.595	485.319	-0.071	0.161
-495.581	151.586	-0.205	-0.279
-494.566	-200.000	-0.005	0.279
-493.551	-146.233	0.198	-0.017
-492.537	-200.000	0.032	-0.309
-491.522	512.295	0.151	0.351
-490.508	154.853	0.134	0.184
-489.493	16.275	-0.171	-0.134
-488.478	18.175	-0.224	0.178
-487.464	-71.748	0.032	-0.012
-486.449	-54.669	-0.281	-0.126
-485.435	-93.048	0.112	0.031
-484.420	326.280	0.048	-0.091
-483.405	-10.955	-0.221	0.145
-482.391	37.726	0.303	0.267
-481.376	-33.476	-0.201	0.111
-480.362	800.000	-0.122	0.421
-479.347	-200.000	-0.011	-0.205
-478.332	-84.017	0.243	-0.077
-477.318	5.881	-0.105	0.077
-476.303	407.071	-0.107	-0.224
-475.289	-20.180	-0.231	0.142
-474.274	-200.000	-0.013	0.244
-473.259	570.233	-0.057	-0.138
-472.245	117.937	0.141	-0.172
-471.230	-82.018	0.186	0.061
-470.216	142.016	-0.159	-0.210
-469.201	103.634	0.120	-0.140
-468.186	-71.260	0.145	0.054
-467.172	-68.582	0.364	0.140
-466.157	-200.000	0.023	-0.136
-465.143	-132.441	0.378	0.048
-464.128	800.000	-0.087	0.243
-463.113	6.059	-0.122	0.090
-462.099	800.000	0.080	-0.306
-461.084	-2.296	0.176	-0.122
-460.070	800.000	-0.055	-0.178
-459.055	-112.222	0.387	0.077
-458.040	-68.474	0.299	-0.115
-457.026	394.943	-0.085	-0.177
-456.011	-200.000	-0.009	-0.205
-454.997	416.864	-0.060	0.127
-453.982	-187.133	0.230	0.003
-452.968	-43.823	-0.267	-0.134
-451.953	-38.372	-0.196	0.103
-450.938	134.157	0.253	-0.326
-449.924	-200.000	-0.006	-0.314
-448.909	-200.000	0.000	0.244
-447.895	-200.000	-0.023	-0.116
-446.880	-200.000	-0.008	0.105
-445.865	-0.181	-0.304	-0.215
-444.851	-110.201	0.371	-0.077
-443.836	12.595	0.148	-0.113
-442.822	800.000	-0.045	0.186
-441.807	800.000	0.090	-0.249
-440.792	-76.765	-0.235	0.082
-439.778	-50.404	0.325	0.152
-438.763	648.712	-0.132	0.336
-437.749	-200.000	-0.006	0.214
-436.734	26.521	-0.209	-0.174
-435.719	-109.693	0.393	-0.082
-434.705	442.228	0.089	-0.195
-433.690	120.812	-0.205	-0.253
-432.676	-184.716	0.106	0.002
-431.661	-60.049	-0.133	-0.056
-430.646	-41.066	-0.149	-0.076
-429.632	5.987	-0.254	0.187
-428.617	-200.000	0.032	0.297
-427.603	39.947	-0.243	0.216
-426.588	84.553	-0.062	-0.067
-425.573	321.886	-0.095	0.179
-424.559	-200.000	-0.037	0.347
-423.544	132.665	0.138	-0.177
-422.530	143.217	0.209	-0.276
-421.515	123.090	-0.129	-0.160
-420.500	-64.033	-0.257	0.104
-419.486	348.029	0.110	-0.215
-418.471	-153.662	-0.331	0.023
-417.457	169.043	0.087	-0.123
-416.442	24.374	-0.101	-0.083
-415.428	-2.205	-0.107	0.074
-414.413	-117.120	0.042	0.008
-413.398	517.479	-0.048	0.110
-412.384	-200.000	-0.026	-0.214
-411.369	151.082	-0.128	0.173
-410.355	348.776	0.062	-0.121
-409.340	-84.700	-0.134	0.042
-408.325	176.209	0.051	0.074
-407.311	184.533	-0.241	0.354
-406.296	-121.578	-0.127	-0.021
-405.282	-28.368	-0.441	0.252
-404.267	-23.044	0.141	-0.084
-403.252	-200.000	0.006	0.032
-402.238	-86.988	0.201	-0.061
-401.223	228.910	0.123	-0.200
-400.209	165.303	0.118	0.166
-399.194	800.000	-0.033	-0.114
-398.179	70.526	0.253	0.259
-397.165	240.922	0.119	0.197
-396.150	-154.404	-0.440	0.029
-395.136	120.510	0.196	0.241
-394.121	-200.000	-0.037	-0.252
-393.106	800.000	0.063	0.250
-392.092	766.460	-0.091	-0.244
-391.077	38.276	-0.212	0.187
-390.063	100.168	-0.118	-0.136
-389.048	-73.319	0.221	-0.080
-388.033	-59.931	0.135	0.057
-387.019	-65.662	-0.129	-0.051
-386.004	-104.517	-0.434	0.099
-384.990	112.268	-0.188	0.225
-383.975	-200.000	-0.023	0.243
-382.960	328.997	-0.090	0.172
-381.946	800.000	-0.055	-0.163
-380.931	3.342	0.233	0.168
-379.917	800.000	-0.101	0.296
-378.902	-158.213	0.302	-0.017
-377.888	-200.000	0.024	-0.287
-376.873	329.888	-0.290	0.552
-375.858	800.000	-0.096	0.297
-374.844	-133.165	-0.192	0.024
-373.829	232.135	-0.147	-0.239
-372.815	-111.657	-0.095	0.019
-371.800	26.085	-0.043	-0.035
-370.785	-200.000	0.008	-0.038
-369.771	158.643	-0.095	0.131
-368.756	594.939	-0.094	-0.231
-367.742	44.880	0.157	0.143
-366.727	382.219	-0.161	0.327
-365.712	114.038	-0.380	-0.458
-364.698	-200.000	-0.012	0.187
-363.683	-72.534	-0.141	0.052
-362.669	418.233	0.089	-0.189
-361.654	21.634	-0.170	0.137
-360.639	599.009	0.066	0.162
-359.625	-53.654	0.302	0.137
-358.610	800.000	0.024	-0.095
-357.596	-62.361	0.314	-0.129
-356.581	-165.362	-0.228	-0.010
-355.566	40.528	0.167	0.149
-354.552	400.686	0.069	0.143
-353.537	-54.646	-0.052	-0.023
-352.523	266.918	-0.148	-0.256
-351.508	-50.034	-0.130	-0.061
-350.493	152.397	0.196	-0.265
-349.479	-82.953	-0.191	-0.061
-348.464	-35.726	-0.297	-0.159
-347.450	-200.000	0.052	-0.267
-346.435	267.357	0.119	-0.206
-345.420	-195.122	-0.087	0.001
-344.406	121.540	-0.135	0.167
-343.391	289.210	0.154	-0.276
-342.377	-91.275	-0.251	-0.071
-341.362	-161.269	-0.140	0.007
-340.348	79.464	-0.153	-0.163
-339.333	-200.000	0.001	-0.038
-338.318	800.000	0.095	0.351
-337.304	-200.000	0.014	0.249
-336.289	243.808	-0.145	0.240
-335.275	-66.030	0.322	0.127
-334.260	249.117	-0.112	-0.187
-333.245	-200.000	0.032	-0.288
-332.231	206.823	0.180	0.277
-331.216	-111.002	-0.308	0.063
-330.202	-33.519	0.124	-0.068
-329.187	70.113	-0.198	0.202
-328.172	-51.355	0.294	0.136
-327.158	-69.250	0.260	-0.099
-326.143	-200.000	0.271	-0.001
-325.129	-146.896	-0.041	-0.004
-324.114	-138.657	0.155	0.017
-323.099	800.000	-0.056	-0.191
-322.085	161.273	-0.156	-0.216
-321.070	-200.000	0.029	0.159
-320.056	330.159	-0.201	0.383
-319.041	-77.578	-0.224	0.077
-318.026	-88.323	0.274	-0.081
-317.012	116.770	-0.094	-0.114
-315.997	-98.797	0.081	-0.020
-314.983	-5.779	-0.304	-0.206
-313.968	425.725	-0.054	-0.114
-312.953	-70.579	-0.227	0.085
-311.939	14.405	0.207	-0.159
-310.924	800.000	-0.043	0.135
-309.910	47.759	-0.188	0.173
-308.895	-72.315	-0.159	0.058
-307.880	183.865	0.189	0.276
-306.866	9.730	-0.223	0.167
-305.851	-77.925	-0.084	0.029
-304.837	227.025	0.089	-0.142
-303.822	30.208	0.261	-0.220
-302.807	311.064	0.095	-0.175
-301.793	-41.910	0.083	0.042
-300.778	800.000	0.086	-0.237
-299.764	337.853	-0.244	0.469
-298.749	-59.631	0.343	0.145
-297.735	409.027	-0.116	0.242
-296.720	-5.680	-0.199	0.135
-295.705	139.762	-0.084	-0.109
-294.691	-35.850	-0.286	0.153
-293.676	-12.228	-0.197	-0.127
-292.662	-142.052	0.281	0.028
-291.647	333.498	-0.076	-0.145
-290.632	-200.000	0.002	0.009
-289.618	-200.000	0.012	-0.151
-288.603	-9.061	0.203	0.134
-287.589	61.538	-0.106	-0.104
-286.574	-22.504	0.417	-0.249
-285.559	-112.461	-0.179	0.035
-284.545	388.937	-0.058	-0.119
-283.530	-152.535	-0.228	-0.016
-282.516	156.629	-0.123	-0.168
-281.501	313.950	-0.159	0.295
-280.486	177.827	-0.130	-0.187
-279.472	91.524	-0.131	-0.145
-278.457	-107.765	-0.231	-0.050
-277.443	-62.544	-0.258	0.106
-276.428	81.833	-0.205	0.219
-275.413	268.941	0.161	0.278
-274.399	-14.901	0.046	0.029
-273.384	166.275	-0.120	0.168
-272.370	4.498	0.321	0.232
-271.355	58.120	-0.150	-0.145
-270.340	240.741	0.114	0.188
-269.326	20.947	0.100	-0.080
-268.311	-56.394	-0.172	-0.075
-267.297	800.000	0.092	-0.277
-266.282	-200.000	-0.004	0.098
-265.267	-200.000	0.000	0.262
-264.253	483.907	-0.063	-0.142
-263.238	-200.000	0.010	0.119
-262.224	-10.132	0.075	-0.049
-261.209	-200.000	0.013	0.069
-260.195	26.241	0.159	0.131
-259.180	406.559	0.044	-0.091
-258.165	-169.108	-0.095	0.003
-257.151	175.096	-0.069	0.098
-256.136	-102.878	-0.176	0.041
-255.122	-95.267	-0.184	0.049
-254.107	-76.878	-0.137	0.047
-253.092	242.881	0.170	-0.281
-252.078	-78.961	0.222	-0.074
-251.063	800.000	0.061	0.184
-250.049	-67.827	-0.178	-0.069
-249.034	-146.812	0.197	0.017
-248.019	166.796	-0.115	-0.160
-247.005	800.000	0.056	-0.154
-245.990	34.132	-0.128	-0.110
-244.976	-16.448	-0.175	-0.109
-243.961	-200.000	0.044	0.245
-242.946	246.650	0.058	0.096
-241.932	800.000	0.074	-0.232
-240.917	389.677	0.104	0.211
-239.903	-70.952	0.312	-0.116
-238.888	-81.195	0.350	-0.114
-237.873	-31.069	-0.119	-0.066
-236.859	86.046	-0.422	0.458
-235.844	800.000	0.019	0.065
-234.830	16.698	-0.236	0.184
-233.815	209.198	0.005	0.008
-232.800	800.000	0.093	0.324
-231.786	78.420	0.120	0.126
-230.771	6.279	-0.125	0.091
-229.757	-151.691	-0.183	0.013
-228.742	245.901	0.115	-0.191
-227.727	-82.964	0.066	0.021
-226.713	3.218	-0.085	-0.061
-225.698	24.723	-0.327	0.267
-224.684	-14.018	0.092	0.058
-223.669	-114.169	0.290	-0.055
-222.655	80.255	-0.193	0.204
-221.640	-60.598	-0.201	-0.084
-220.625	-158.642	0.505	-0.029
-219.611	-200.000	0.003	-0.118
-218.596	-151.097	0.349	0.026
-217.582	3.354	0.083	0.060
-216.567	167.272	-0.151	-0.211
-215.552	319.488	-0.052	0.098
-214.538	442.181	-0.036	-0.077
-213.523	173.541	-0.046	0.065
-212.509	-200.000	0.003	0.099
-211.494	400.556	0.052	0.108
-210.479	-47.186	-0.197	-0.095
-209.465	52.910	-0.162	-0.153
-208.450	-110.764	-0.183	-0.037
-207.436	83.595	-0.270	-0.290
-206.421	-200.000	0.022	-0.172
-205.406	-156.497	-0.253	-0.016
-204.392	201.979	0.142	-0.215
-203.377	-50.937	-0.070	0.033
-202.363	92.466	-0.090	0.100
-201.348	-30.259	0.139	0.078
-200.333	-65.178	0.510	0.202
-199.319	-114.564	-0.411	0.078
-198.304	246.274	0.094	0.156
-197.290	-200.000	0.269	0.001
-196.275	114.881	0.066	-0.080
-195.260	314.677	-0.135	0.250
-194.246	-131.223	0.203	0.027
-193.231	-200.000	0.053	0.340
-192.217	-200.000	0.016	0.199
-191.202	-112.801	0.253	-0.049
-190.187	-78.805	-0.214	0.072
-189.173	275.442	0.112	0.196
-188.158	-200.000	-0.009	-0.071
-187.144	2.592	-0.091	0.065
-186.129	221.037	-0.208	0.329
-185.114	800.000	0.031	-0.131
-184.100	103.406	0.209	0.241
-183.085	800.000	-0.060	-0.230
-182.071	743.984	0.103	0.273
-181.056	-200.000	-0.079	0.406
-180.042	-200.000	0.037	-0.316
-179.027	800.000	0.003	-0.011
-178.012	-77.927	-0.179	0.061
-176.998	360.459	0.106	-0.209
-175.983	-115.191	-0.163	0.030
-174.969	129.474	-0.152	-0.191
-173.954	721.460	0.091	-0.239
-172.939	205.331	0.168	0.256
-171.925	317.715	0.057	0.107
-170.910	-124.031	0.152	0.023
-169.896	287.894	0.093	-0.166
-168.881	50.644	-0.108	-0.100
-167.866	-119.669	0.103	-0.017
-166.852	-74.455	-0.215	-0.076
-165.837	85.854	-0.069	0.074
-164.823	-200.000	-0.035	-0.152
-163.808	-90.622	-0.307	0.087
-162.793	108.018	-0.265	0.311
-161.779	800.000	0.114	-0.376
-160.764	60.487	0.108	0.105
-159.750	14.666	0.092	-0.071
-158.735	-200.000	-0.011	-0.057
-157.720	-200.000	-0.050	0.306
-156.706	94.894	0.269	-0.301
-155.691	333.074	-0.128	0.243
-154.677	-200.000	-0.007	0.338
-153.662	30.405	0.168	0.141
-152.647	-97.583	0.201	-0.051
-151.633	23.493	0.194	-0.157
-150.618	-69.132	0.300	-0.113
-149.604	9.325	0.138	0.102
-148.589	192.471	-0.049	-0.072
-147.574	32.152	-0.060	0.050
-146.560	183.353	-0.130	0.188
-145.545	50.578	0.077	0.072
-144.531	-11.451	0.020	0.013
-143.516	-43.023	-0.188	0.094
-142.502	-26.430	-0.242	0.139
-141.487	-105.771	0.189	0.042
-140.472	-200.000	0.018	0.231
-139.458	361.857	-0.035	-0.069
-138.443	303.002	-0.135	-0.245
-137.429	144.688	0.202	0.265
-136.414	192.627	-0.060	-0.089
-135.399	-135.967	0.320	0.037
-134.385	131.417	-0.117	0.148
-133.370	506.911	-0.117	0.267
-132.356	560.010	0.132	-0.314
-131.341	107.065	-0.131	-0.153
-130.326	-138.058	0.082	-0.009
-129.312	-24.058	0.421	-0.247
-128.297	244.024	-0.073	-0.121
-127.283	-40.859	0.353	-0.179
-126.268	284.784	-0.059	-0.104
-125.253	474.584	0.157	-0.348
-124.239	110.857	-0.129	-0.152
-123.224	-68.265	0.043	-0.017
-122.210	50.096	-0.187	0.173
-121.195	-20.685	-0.319	-0.192
