DTS Sentinel unit serial number:	SN413079Multiplexer serial number:	ORYXHardware model number:	OX4-SRSoftware version number:	ORYX F/W v4.00 Oryx Data Collector v3.7.2.0data status	okinstallation	princeton_trtdifferential loss correction	single-endedforward channel	channel 2reverse channel	N/Adate	2019/09/18time	17:39:34forward acquisition time	60.00reverse acquisition time	0.00gamma	496.2192k internal	0.2298k external	0.2298temperature offset calibration	1.0018default loss term (dB/km)	0.3790temperature slope calibration	1.0000multiplexer offset coefficient	1.0000multiplexer slope coefficient	1.0000fibre end	0.00T internal ref (°C)	40.25T ext. ref 1 (°C)	0.91T ext. ref 2 (°C)	35.06length (m)	temperature (°C)	Stokes	anti-Stokes-747.200	-157.739	0.225	-0.014
-746.185	13.843	-0.290	0.230
-745.171	-200.000	-0.010	0.048
-744.156	-200.000	0.018	0.114
-743.142	-116.998	-0.267	-0.050
-742.127	-145.665	0.124	-0.011
-741.112	73.363	0.139	0.148
-740.098	60.769	0.028	0.029
-739.083	-176.532	0.219	0.006
-738.069	20.758	-0.048	0.040
-737.054	800.000	0.032	0.117
-736.039	0.632	-0.292	0.213
-735.025	-121.393	0.266	0.045
-734.010	207.986	-0.117	0.186
-732.996	-132.492	-0.402	-0.053
-731.981	800.000	0.074	-0.225
-730.966	207.383	-0.075	0.119
-729.952	85.931	-0.151	0.169
-728.937	24.883	0.132	0.112
-727.923	800.000	-0.041	0.125
-726.908	-7.775	-0.251	-0.173
-725.894	85.569	-0.193	-0.217
-724.879	800.000	-0.075	0.217
-723.864	147.279	0.109	0.149
-722.850	-200.000	0.040	-0.326
-721.835	380.130	-0.172	-0.359
-720.821	196.992	-0.069	-0.108
-719.806	337.007	0.081	-0.161
-718.791	800.000	0.114	-0.404
-717.777	39.444	0.123	0.113
-716.762	-69.025	-0.283	0.111
-715.748	-66.727	0.371	-0.150
-714.733	-200.000	-0.006	0.055
-713.718	-100.921	-0.410	-0.103
-712.704	-28.677	0.262	-0.154
-711.689	451.440	0.095	-0.214
-710.675	-151.447	0.101	0.008
-709.660	103.736	-0.040	0.047
-708.645	194.822	0.091	0.140
-707.631	576.901	-0.037	0.092
-706.616	161.510	0.125	-0.179
-705.602	250.736	-0.093	-0.161
-704.587	508.097	0.056	0.133
-703.572	172.161	0.118	-0.173
-702.558	-113.614	0.376	-0.075
-701.543	107.918	-0.036	-0.043
-700.529	239.010	0.087	-0.148
-699.514	-86.553	0.104	0.033
-698.499	-38.848	-0.238	0.128
-697.485	378.445	0.117	0.243
-696.470	-200.000	-0.014	-0.144
-695.456	323.252	-0.191	-0.371
-694.441	800.000	0.034	0.141
-693.426	88.262	0.168	-0.190
-692.412	35.624	-0.121	0.108
-691.397	-92.616	-0.378	-0.108
-690.383	79.687	-0.089	-0.097
-689.368	240.621	0.115	-0.196
-688.354	-53.035	0.179	0.084
-687.339	27.300	-0.204	-0.175
-686.324	-0.109	-0.290	-0.210
-685.310	-192.558	-0.164	-0.002
-684.295	-42.267	-0.396	0.206
-683.281	800.000	-0.089	0.256
-682.266	97.052	0.030	-0.035
-681.251	-136.479	0.063	0.007
-680.237	-128.122	0.266	-0.039
-679.222	-80.631	-0.320	-0.108
-678.208	-200.000	-0.004	0.123
-677.193	-200.000	-0.013	-0.254
-676.178	-200.000	-0.028	-0.349
-675.164	-36.618	-0.275	-0.150
-674.149	-200.000	-0.032	0.153
-673.135	-44.503	0.382	-0.194
-672.120	-138.565	-0.279	-0.031
-671.105	-69.993	0.124	-0.048
-670.091	584.675	-0.043	-0.108
-669.076	90.943	0.156	-0.178
-668.062	-21.510	-0.166	0.103
-667.047	478.615	0.033	0.076
-666.032	-200.000	-0.032	0.220
-665.018	-200.000	0.045	0.228
-664.003	-128.387	-0.315	-0.046
-662.989	-200.000	0.004	-0.153
-661.974	-200.000	-0.006	0.144
-660.959	800.000	-0.034	0.131
-659.945	134.966	0.126	-0.166
-658.930	349.122	0.019	-0.037
-657.916	558.219	0.051	-0.125
-656.901	800.000	-0.029	0.091
-655.886	767.828	0.084	-0.233
-654.872	800.000	-0.085	0.304
-653.857	4.841	0.246	-0.184
-652.843	-200.000	-0.012	-0.084
-651.828	188.482	0.109	-0.166
-650.814	-169.216	-0.112	-0.004
-649.799	113.782	0.183	-0.227
-648.784	-71.205	-0.164	0.062
-647.770	0.998	-0.148	-0.108
-646.755	-82.283	-0.251	-0.083
-645.741	-200.000	0.007	-0.093
-644.726	-173.356	-0.209	0.006
-643.711	-32.381	-0.274	0.156
-642.697	-168.778	-0.172	-0.007
-641.682	800.000	-0.057	0.207
-640.668	83.509	-0.136	0.151
-639.653	-2.936	-0.275	-0.195
-638.638	254.130	-0.122	-0.212
-637.624	800.000	-0.131	-0.372
-636.609	-44.215	-0.463	-0.236
-635.595	-57.368	-0.065	-0.029
-634.580	-85.662	-0.170	0.054
-633.565	88.554	0.113	0.128
-632.551	-82.258	-0.262	0.087
-631.536	95.575	0.099	-0.114
-630.522	-40.404	-0.197	0.104
-629.507	275.942	-0.030	0.054
-628.492	800.000	-0.066	0.274
-627.478	800.000	-0.070	-0.296
-626.463	-200.000	-0.070	-0.429
-625.449	80.884	-0.016	0.018
-624.434	800.000	0.077	-0.228
-623.419	-93.246	-0.355	-0.100
-622.405	82.301	-0.124	-0.137
-621.390	34.300	-0.027	-0.024
-620.376	23.208	-0.154	0.129
-619.361	-17.664	0.411	0.262
-618.346	391.534	-0.093	-0.195
-617.332	-24.332	-0.079	0.048
-616.317	658.192	0.064	0.168
-615.303	-200.000	-0.034	0.380
-614.288	-12.500	0.027	0.018
-613.273	-70.624	-0.158	-0.061
-612.259	135.256	0.121	0.160
-611.244	-16.700	0.127	-0.082
-610.230	-136.868	0.354	-0.041
-609.215	800.000	-0.159	-0.526
-608.201	-199.662	-0.129	0.001
-607.186	-179.027	-0.131	-0.003
-606.171	-200.000	-0.006	0.283
-605.157	78.970	0.192	0.209
-604.142	800.000	0.034	0.139
-603.128	800.000	0.091	-0.376
-602.113	23.803	-0.199	-0.167
-601.098	-200.000	-0.020	-0.445
-600.084	-200.000	0.009	0.191
-599.069	121.935	0.067	0.085
-598.055	9.260	0.182	-0.140
-597.040	296.242	-0.111	0.207
-596.025	-116.928	0.212	0.039
-595.011	-130.910	0.119	0.016
-593.996	-62.662	-0.286	-0.120
-592.982	314.669	0.054	0.103
-591.967	331.572	0.175	-0.342
-590.952	-192.222	-0.356	-0.003
-589.938	502.703	0.107	-0.251
-588.923	800.000	0.018	-0.072
-587.909	141.653	0.026	0.035
-586.894	-200.000	-0.019	-0.122
-585.879	-200.000	0.035	-0.206
-584.865	-5.166	0.088	0.061
-583.850	-25.641	-0.170	-0.102
-582.836	-88.745	-0.243	-0.073
-581.821	-200.000	0.047	0.285
-580.806	-27.645	-0.130	-0.077
-579.792	42.381	0.059	0.054
-578.777	-200.000	-0.024	-0.138
-577.763	326.001	0.040	0.078
-576.748	6.592	0.235	0.177
-575.733	-85.528	-0.213	-0.067
-574.719	-0.768	-0.181	-0.130
-573.704	-44.849	0.102	-0.052
-572.690	43.951	-0.269	0.250
-571.675	622.042	-0.025	-0.064
-570.661	111.891	-0.089	-0.109
-569.646	-74.997	-0.299	0.109
-568.631	455.743	-0.110	-0.247
-567.617	-61.461	0.057	-0.024
-566.602	261.578	0.153	0.268
-565.588	-200.000	0.006	0.152
-564.573	212.833	-0.132	0.211
-563.558	243.188	-0.054	-0.091
-562.544	-30.728	-0.009	-0.005
-561.529	-75.168	0.309	-0.112
-560.515	-104.401	0.177	-0.042
-559.500	64.863	-0.221	-0.226
-558.485	-176.508	-0.364	-0.010
-557.471	-20.888	0.117	-0.073
-556.456	-34.246	0.329	-0.183
-555.442	-98.800	-0.039	0.010
-554.427	-75.884	0.099	0.036
-553.412	64.730	0.101	0.104
-552.398	46.888	-0.116	0.109
-551.383	263.099	-0.038	-0.066
-550.369	639.437	-0.069	-0.177
-549.354	-84.760	0.084	0.027
-548.339	176.416	0.244	0.359
-547.325	-28.244	0.042	0.025
-546.310	-99.550	-0.161	0.041
-545.296	-80.012	-0.205	0.070
-544.281	133.341	0.127	0.167
-543.266	-62.993	-0.188	-0.079
-542.252	-157.046	-0.027	-0.002
-541.237	-24.961	0.055	0.033
-540.223	155.163	-0.133	-0.186
-539.208	654.907	-0.026	0.067
-538.193	-200.000	-0.009	0.177
-537.179	-200.000	0.005	-0.068
-536.164	253.367	-0.119	-0.206
-535.150	28.702	-0.193	-0.165
-534.135	329.367	0.076	0.148
-533.121	-200.000	0.017	-0.143
-532.106	115.309	0.105	0.130
-531.091	-71.775	-0.140	0.053
-530.077	49.090	0.195	0.185
-529.062	-200.000	0.014	0.066
-528.048	376.170	-0.171	-0.353
-527.033	-55.291	-0.377	0.171
-526.018	-138.081	-0.344	-0.039
-525.004	-58.328	0.173	0.076
-523.989	800.000	-0.109	0.463
-522.975	230.641	0.036	-0.060
-521.960	-61.737	0.180	-0.077
-520.945	-200.000	-0.080	0.378
-519.931	67.183	-0.129	0.133
-518.916	-47.282	-0.207	-0.102
-517.902	133.683	0.316	-0.414
-516.887	-112.955	0.148	-0.030
-515.872	479.135	-0.100	-0.229
-514.858	-133.423	-0.341	0.043
-513.843	325.208	-0.110	0.213
-512.829	-87.561	-0.278	-0.085
-511.814	-200.000	0.061	0.301
-510.799	-113.824	-0.116	-0.023
-509.785	-120.660	0.229	0.039
-508.770	553.736	0.097	0.235
-507.756	186.573	0.023	0.034
-506.741	34.039	0.058	0.051
-505.726	69.670	0.292	-0.304
-504.712	-0.732	-0.159	0.114
-503.697	-182.490	-0.246	0.005
-502.683	-59.688	-0.312	-0.135
-501.668	800.000	-0.045	-0.160
-500.653	-53.510	0.353	0.163
-499.639	-87.532	-0.067	-0.021
-498.624	-43.155	-0.279	0.143
-497.610	-137.959	0.133	-0.015
-496.595	-200.000	-0.023	0.286
-495.581	-200.000	0.045	-0.361
-494.566	-200.000	0.028	-0.210
-493.551	-52.599	0.264	-0.123
-492.537	-125.968	0.250	0.038
-491.522	-53.575	0.150	-0.070
-490.508	122.641	-0.147	0.186
-489.493	-108.877	0.244	-0.053
-488.478	-200.000	0.007	-0.040
-487.464	249.128	0.119	-0.204
-486.449	154.558	-0.080	0.112
-485.435	-178.771	0.168	-0.004
-484.420	39.439	0.227	-0.205
-483.405	31.833	0.089	0.078
-482.391	-27.251	0.160	-0.094
-481.376	-200.000	-0.015	-0.098
-480.362	-128.875	0.129	-0.018
-479.347	-11.650	0.039	-0.026
-478.332	-91.531	-0.182	-0.052
-477.318	417.315	0.054	0.115
-476.303	13.082	0.131	-0.103
-475.289	-200.000	-0.002	-0.181
-474.274	193.346	-0.139	-0.212
-473.259	-46.499	-0.134	-0.067
-472.245	-51.546	-0.096	0.045
-471.230	-200.000	-0.013	-0.266
-470.216	184.981	-0.299	0.449
-469.201	266.819	0.123	0.217
-468.186	53.643	0.183	-0.178
-467.172	249.371	-0.199	-0.340
-466.157	-40.349	-0.054	0.028
-465.143	-73.663	0.293	0.108
-464.128	-200.000	0.024	0.497
-463.113	98.486	-0.106	-0.123
-462.099	-200.000	0.026	-0.215
-461.084	121.504	0.098	-0.124
-460.070	-78.757	-0.224	0.077
-459.055	-200.000	0.031	-0.142
-458.040	800.000	-0.064	0.261
-457.026	-14.762	-0.298	-0.193
-456.011	43.459	0.030	0.028
-454.997	9.223	-0.168	-0.128
-453.982	-110.416	0.106	0.022
-452.968	-135.074	-0.227	-0.028
-451.953	55.256	0.259	0.253
-450.938	800.000	0.025	-0.079
-449.924	-200.000	0.018	0.196
-448.909	-132.469	0.178	-0.023
-447.895	669.684	0.114	-0.299
-446.880	240.280	0.189	0.319
-445.865	84.681	-0.096	0.106
-444.851	380.204	-0.170	-0.351
-443.836	-11.252	-0.032	-0.021
-442.822	-95.811	-0.211	0.057
-441.807	-62.152	-0.229	-0.097
-440.792	157.524	-0.109	0.152
-439.778	91.864	0.182	0.207
-438.763	-200.000	0.027	0.268
-437.749	-111.477	-0.242	0.050
-436.734	-190.576	0.093	0.001
-435.719	-121.651	-0.409	-0.068
-434.705	277.279	-0.031	-0.056
-433.690	-81.444	0.110	-0.037
-432.676	-136.735	0.125	0.015
-431.661	1.251	-0.224	0.162
-430.646	798.641	0.020	0.056
-429.632	255.072	-0.097	-0.168
-428.617	-57.838	-0.323	-0.142
-427.603	47.050	0.265	-0.249
-426.588	-8.707	0.182	0.123
-425.573	-200.000	0.006	0.207
-424.559	30.880	-0.189	-0.164
-423.544	-136.406	0.272	-0.032
-422.530	-14.796	-0.055	-0.036
-421.515	177.048	0.094	-0.138
-420.500	800.000	-0.184	0.555
-419.486	800.000	-0.020	0.078
-418.471	12.651	0.389	0.303
-417.457	189.498	0.221	-0.333
-416.442	106.515	0.220	-0.263
-415.428	128.754	-0.223	-0.286
-414.413	226.940	0.166	0.271
-413.398	-200.000	0.051	0.546
-412.384	2.102	-0.240	-0.175
-411.369	800.000	-0.077	-0.216
-410.355	-0.050	-0.201	-0.144
-409.340	204.914	0.075	0.117
-408.325	-65.733	-0.243	0.098
-407.311	15.950	-0.175	0.139
-406.296	-40.401	-0.306	0.160
-405.282	-55.814	0.296	-0.133
-404.267	-200.000	-0.014	0.117
-403.252	-13.672	0.136	0.089
-402.238	111.642	-0.042	0.052
-401.223	-16.717	-0.117	-0.075
-400.209	-180.496	-0.101	-0.002
-399.194	800.000	0.043	-0.135
-398.179	-8.793	0.179	-0.121
-397.165	-105.608	-0.165	0.038
-396.150	4.150	0.388	0.286
-395.136	-95.471	0.200	0.054
-394.121	278.811	-0.081	-0.145
-393.106	-106.295	0.147	0.033
-392.092	-73.356	-0.247	0.091
-391.077	-200.000	-0.234	0.000
-390.063	-200.000	0.007	-0.099
-389.048	148.803	-0.146	0.199
-388.033	37.321	0.145	0.129
-387.019	713.069	-0.066	0.177
-386.004	-28.494	-0.132	0.077
-384.990	800.000	-0.107	0.350
-383.975	-145.572	0.161	0.015
-382.960	290.570	-0.058	0.107
-381.946	-45.888	0.150	0.075
-380.931	-200.000	0.036	0.289
-379.917	66.631	-0.137	-0.140
-378.902	346.159	0.021	-0.041
-377.888	-138.025	0.106	0.012
-376.873	-140.117	0.179	0.019
-375.858	-88.598	0.035	0.010
-374.844	-22.787	0.260	0.158
-373.829	-134.654	-0.133	-0.016
-372.815	800.000	0.114	-0.340
-371.800	789.786	-0.094	-0.260
-370.785	-200.000	0.048	0.215
-369.771	-143.568	-0.130	-0.012
-368.756	-38.547	0.165	-0.088
-367.742	-123.140	0.258	-0.042
-366.727	596.814	0.027	0.068
-365.712	176.937	0.155	0.227
-364.698	28.216	-0.263	-0.224
-363.683	-47.306	-0.330	0.162
-362.669	-131.686	0.005	0.001
-361.654	199.178	-0.090	0.139
-360.639	57.982	-0.120	-0.119
-359.625	-62.681	-0.359	0.150
-358.610	800.000	-0.124	0.391
-357.596	541.308	0.146	-0.351
-356.581	-107.819	-0.243	-0.053
-355.566	744.226	0.111	0.300
-354.552	-47.966	0.072	0.035
-353.537	563.179	-0.077	-0.187
-352.523	800.000	-0.019	0.059
-351.508	-53.766	0.244	0.112
-350.493	72.344	-0.036	-0.038
-349.479	-200.000	0.039	0.282
-348.464	-200.000	-0.043	0.320
-347.450	-106.586	0.312	0.070
-346.435	642.172	0.087	0.223
-345.420	-159.990	-0.094	0.005
-344.406	-83.308	-0.260	0.084
-343.391	-74.757	0.190	0.068
-342.377	-200.000	0.029	-0.180
-341.362	252.169	0.025	0.042
-340.348	382.654	0.159	0.328
-339.333	-105.246	0.129	-0.030
-338.318	68.017	0.269	0.276
-337.304	-70.113	-0.281	-0.108
-336.289	-200.000	-0.027	-0.136
-335.275	-200.000	0.034	0.284
-334.260	-200.000	0.002	-0.243
-333.245	-115.125	0.200	-0.038
-332.231	-172.851	0.097	0.003
-331.216	-24.447	0.554	-0.332
-330.202	-200.000	-0.012	0.068
-329.187	3.134	0.069	0.051
-328.172	210.442	-0.213	-0.336
-327.158	347.516	0.179	-0.353
-326.143	-56.669	0.109	0.048
-325.129	-200.000	-0.010	-0.313
-324.114	78.953	-0.017	0.018
-323.099	546.388	-0.101	-0.242
-322.085	800.000	-0.110	-0.395
-321.070	3.939	-0.258	-0.189
-320.056	-102.785	-0.057	0.014
-319.041	-200.000	-0.004	0.283
-318.026	-200.000	-0.010	0.250
-317.012	-200.000	-0.033	0.290
-315.997	-105.266	0.418	-0.096
-314.983	-200.000	-0.029	-0.132
-313.968	-200.000	-0.009	0.245
-312.953	7.090	0.242	-0.181
-311.939	-200.000	-0.018	0.099
-310.924	277.118	-0.319	0.569
-309.910	201.409	-0.083	0.129
-308.895	-134.788	-0.389	0.047
-307.880	-16.042	0.280	-0.178
-306.866	-87.311	0.227	0.069
-305.851	-134.721	0.382	-0.047
-304.837	191.757	-0.282	0.427
-303.822	438.538	0.100	0.219
-302.807	-133.677	0.264	-0.033
-301.793	-200.000	-0.005	0.149
-300.778	-106.746	0.321	-0.072
-299.764	-65.558	0.131	-0.053
-298.749	800.000	-0.035	-0.124
-297.735	-118.338	0.144	-0.026
-296.720	800.000	0.094	-0.280
-295.705	175.463	0.043	0.063
-294.691	-20.183	-0.241	0.149
-293.676	800.000	0.044	-0.168
-292.662	64.352	0.076	-0.076
-291.647	-44.816	0.255	0.127
-290.632	-133.409	-0.386	-0.049
-289.618	800.000	0.140	-0.506
-288.603	245.639	0.067	0.113
-287.589	338.102	0.088	0.172
-286.574	-134.600	0.045	0.005
-285.559	443.194	-0.166	-0.365
-284.545	136.198	0.294	-0.384
-283.530	466.589	0.097	-0.219
-282.516	-13.686	0.090	-0.059
-281.501	-200.000	-0.002	-0.144
-280.486	-107.506	0.428	-0.094
-279.472	800.000	-0.035	-0.135
-278.457	-200.000	0.003	-0.121
-277.443	-19.146	0.051	-0.032
-276.428	-31.574	-0.057	-0.032
-275.413	280.087	0.060	-0.107
-274.399	-200.000	-0.014	-0.172
-273.384	-200.000	-0.016	0.088
-272.370	5.339	0.241	0.178
-271.355	800.000	0.057	0.182
-270.340	120.231	-0.115	-0.143
-269.326	128.263	0.246	-0.314
-268.311	-77.222	-0.497	-0.174
-267.297	-34.674	-0.227	-0.124
-266.282	105.127	-0.061	-0.072
-265.267	800.000	0.033	-0.128
-264.253	-71.010	0.222	0.084
-263.238	-200.000	0.020	-0.093
-262.224	515.293	-0.100	-0.233
-261.209	40.700	-0.238	0.215
-260.195	-200.000	0.008	0.099
-259.180	46.373	0.164	0.153
-258.165	-200.000	-0.086	0.408
-257.151	24.135	0.265	0.219
-256.136	-10.996	0.239	0.158
-255.122	531.967	0.060	-0.142
-254.107	800.000	0.089	-0.289
-253.092	250.512	-0.086	-0.146
-252.078	-87.469	0.253	0.077
-251.063	-200.000	-0.013	-0.067
-250.049	-73.584	0.298	-0.109
-249.034	561.031	0.098	0.237
-248.019	70.183	-0.233	0.241
-247.005	-71.103	0.124	-0.047
-245.990	-42.947	-0.113	0.057
-244.976	154.810	0.082	-0.112
-243.961	-111.348	0.400	0.082
-242.946	-22.166	-0.060	0.037
-241.932	-200.000	-0.006	-0.094
-240.917	-103.095	0.207	0.049
-239.903	754.389	-0.073	0.197
-238.888	67.210	-0.155	0.158
-237.873	-76.632	0.143	0.050
-236.859	-26.298	0.074	-0.044
-235.844	800.000	-0.024	0.087
-234.830	32.578	-0.022	-0.019
-233.815	800.000	-0.064	0.238
-232.800	-137.669	-0.125	0.014
-231.786	-200.000	0.044	-0.340
-230.771	-12.999	0.274	0.178
-229.757	-162.119	0.222	-0.011
-228.742	378.498	-0.078	-0.159
-227.727	-200.000	0.006	-0.109
-226.713	-34.401	0.110	0.060
-225.698	-61.857	-0.150	0.063
-224.684	-64.225	0.173	-0.071
-223.669	-146.144	-0.337	-0.030
-222.655	-200.000	-0.010	-0.129
-221.640	178.508	-0.171	-0.250
-220.625	-103.507	-0.237	0.056
-219.611	-200.000	0.002	0.289
-218.596	74.265	0.074	0.078
-217.582	-13.865	0.185	0.120
-216.567	800.000	0.109	-0.337
-215.552	-33.127	0.159	-0.088
-214.538	-91.856	0.263	-0.075
-213.523	280.991	0.109	0.196
-212.509	-95.385	-0.240	0.064
-211.494	118.369	0.039	0.048
-210.479	367.851	-0.072	0.146
-209.465	-102.660	-0.165	0.039
-208.450	38.634	0.234	-0.209
-207.436	-148.762	0.195	0.016
-206.421	-21.857	-0.202	-0.123
-205.406	-69.572	-0.055	-0.021
-204.392	86.026	-0.094	-0.104
-203.377	153.161	0.044	0.061
-202.363	110.274	-0.033	0.040
-201.348	-179.772	-0.249	-0.005
-200.333	243.799	-0.031	0.052
-199.319	218.120	-0.271	0.432
-198.304	-115.867	-0.233	0.044
-197.290	-13.814	0.105	-0.068
-196.275	-200.000	-0.028	-0.185
-195.260	-127.298	-0.312	0.045
-194.246	58.781	0.071	0.070
-193.231	713.424	-0.177	0.468
-192.217	-200.000	-0.066	0.304
-191.202	800.000	-0.048	0.153
-190.187	379.625	0.070	-0.142
-189.173	-105.799	0.263	0.059
-188.158	263.364	0.174	0.301
-187.144	-142.701	-0.079	0.008
-186.129	39.488	0.240	0.215
-185.114	51.751	-0.165	0.157
-184.100	113.735	0.119	-0.144
-183.085	409.845	-0.064	-0.135
-182.071	789.314	-0.095	0.261
-181.056	-183.998	0.090	-0.002
-180.042	-34.533	-0.318	-0.174
-179.027	-95.916	0.229	-0.061
-178.012	800.000	0.043	-0.187
-176.998	-65.981	0.123	0.049
-175.983	-94.368	-0.148	0.040
-174.969	-75.323	-0.165	0.059
-173.954	85.887	0.153	-0.168
-172.939	800.000	-0.039	-0.117
-171.925	800.000	-0.050	0.194
-170.910	-200.000	-0.007	-0.156
-169.896	244.637	0.239	-0.401
-168.881	800.000	-0.059	0.182
-167.866	-9.274	0.226	-0.151
-166.852	61.335	0.191	0.190
-165.837	132.888	0.073	0.094
-164.823	686.938	0.015	0.039
-163.808	-200.000	0.006	-0.366
-162.793	-109.059	-0.411	0.087
-161.779	-2.667	0.049	-0.034
-160.764	26.013	0.181	0.150
-159.750	-1.186	0.318	0.224
-158.735	309.702	0.039	0.072
-157.720	-200.000	-0.015	-0.514
-156.706	-200.000	-0.001	-0.008
-155.691	-85.805	0.199	0.061
-154.677	-145.515	0.274	0.025
-153.662	-200.000	-0.007	-0.133
-152.647	-200.000	-0.014	-0.237
-151.633	-142.777	0.338	0.033
-150.618	800.000	0.009	-0.038
-149.604	69.534	0.208	0.214
-148.589	61.785	0.206	0.204
-147.574	-200.000	-0.004	-0.572
-146.560	-109.728	0.272	-0.057
-145.545	99.524	0.121	0.139
-144.531	-200.000	-0.002	-0.319
-143.516	68.756	0.158	0.162
-142.502	715.012	0.011	0.029
-141.487	-25.531	-0.189	-0.111
-140.472	800.000	0.056	0.154
-139.458	235.469	0.112	-0.185
-138.443	-9.247	0.102	0.068
-137.429	376.772	0.066	0.135
-136.414	16.569	-0.132	0.104
-135.399	117.919	0.174	-0.213
-134.385	-29.512	0.082	0.047
-133.370	183.526	0.202	0.297
-132.356	346.883	0.020	0.038
-131.341	118.237	0.134	0.165
-130.326	800.000	-0.026	-0.102
-129.312	9.321	-0.425	0.320
-128.297	800.000	-0.032	0.088
-127.283	-42.609	-0.111	-0.056
-126.268	27.215	0.199	0.167
-125.253	800.000	-0.057	-0.185
-124.239	-104.753	0.056	-0.013
-123.224	-95.588	-0.219	0.058
-122.210	-200.000	0.016	0.211
-121.195	-115.119	-0.124	0.024
