DTS Sentinel unit serial number:	SN413079Multiplexer serial number:	ORYXHardware model number:	OX4-SRSoftware version number:	ORYX F/W v4.00 Oryx Data Collector v3.7.2.0data status	okinstallation	princeton_trtdifferential loss correction	single-endedforward channel	channel 2reverse channel	N/Adate	2019/09/18time	01:59:35forward acquisition time	60.00reverse acquisition time	0.00gamma	496.2192k internal	0.2350k external	0.2350temperature offset calibration	0.9983default loss term (dB/km)	0.3790temperature slope calibration	1.0000multiplexer offset coefficient	1.0000multiplexer slope coefficient	1.0000fibre end	0.00T internal ref (°C)	22.91T ext. ref 1 (°C)	0.17T ext. ref 2 (°C)	16.68length (m)	temperature (°C)	Stokes	anti-Stokes-747.200	468.547	-0.072	0.162
-746.185	-86.255	-0.512	-0.158
-745.171	49.310	0.196	-0.184
-744.156	-98.102	-0.129	0.033
-743.142	800.000	-0.015	-0.055
-742.127	800.000	-0.100	0.432
-741.112	-76.729	0.151	-0.053
-740.098	28.726	-0.090	-0.076
-739.083	800.000	0.071	-0.197
-738.069	-200.000	0.003	-0.101
-737.054	-106.669	-0.356	0.079
-736.039	93.364	-0.161	-0.182
-735.025	-33.093	-0.191	-0.105
-734.010	-200.000	0.042	0.203
-732.996	-21.972	-0.086	0.052
-731.981	-83.665	-0.292	-0.093
-730.966	-169.779	-0.398	0.014
-729.952	-200.000	-0.004	-0.173
-728.937	57.234	-0.123	-0.120
-727.923	238.023	-0.092	-0.153
-726.908	-7.527	-0.297	-0.200
-725.894	-14.023	-0.194	-0.125
-724.879	-200.000	0.029	-0.189
-723.864	800.000	0.076	0.210
-722.850	-200.000	0.035	-0.218
-721.835	-35.671	-0.255	0.138
-720.821	-200.000	-0.054	0.350
-719.806	-63.997	-0.222	0.090
-718.791	-97.157	-0.416	0.108
-717.777	-114.012	-0.113	0.022
-716.762	1.296	0.198	0.142
-715.748	34.484	-0.144	0.126
-714.733	-67.818	-0.196	-0.076
-713.718	246.624	-0.149	-0.251
-712.704	525.485	0.162	-0.380
-711.689	-200.000	-0.109	0.000
-710.675	315.214	-0.103	0.194
-709.660	108.367	0.061	0.073
-708.645	-44.775	0.177	-0.088
-707.631	476.756	0.144	0.326
-706.616	-112.397	-0.278	-0.056
-705.602	-75.592	0.141	0.050
-704.587	-200.000	-0.026	-0.324
-703.572	800.000	0.029	-0.120
-702.558	-116.563	0.093	0.017
-701.543	118.577	-0.191	-0.235
-700.529	-200.000	0.197	0.001
-699.514	-16.198	-0.217	-0.138
-698.499	57.585	-0.120	-0.116
-697.485	-118.707	-0.406	-0.071
-696.470	237.261	-0.153	0.252
-695.456	-20.217	0.267	-0.164
-694.441	30.479	-0.120	-0.102
-693.426	28.774	0.205	-0.173
-692.412	-200.000	-0.005	-0.078
-691.397	314.566	0.124	-0.233
-690.383	365.390	-0.040	-0.081
-689.368	-85.995	-0.219	-0.067
-688.354	75.058	-0.052	0.055
-687.339	-134.805	0.204	-0.025
-686.324	-200.000	0.030	0.448
-685.310	-200.000	-0.045	-0.366
-684.295	-30.394	-0.026	-0.014
-683.281	274.420	0.141	-0.248
-682.266	600.470	0.068	0.168
-681.251	-90.798	-0.376	-0.108
-680.237	215.884	-0.114	-0.180
-679.222	31.643	0.273	-0.234
-678.208	800.000	-0.093	-0.321
-677.193	-45.406	0.128	-0.063
-676.178	800.000	-0.088	-0.307
-675.164	52.112	0.201	-0.191
-674.149	-54.656	0.446	0.201
-673.135	221.171	0.105	-0.167
-672.120	62.341	-0.088	0.087
-671.105	-141.382	-0.216	0.022
-670.091	-200.000	-0.015	0.220
-669.076	800.000	-0.064	0.194
-668.062	153.634	-0.072	-0.098
-667.047	-63.161	-0.210	-0.086
-666.032	145.001	-0.044	0.059
-665.018	-80.476	0.258	-0.086
-664.003	-158.827	0.286	0.016
-662.989	800.000	-0.020	0.055
-661.974	-34.348	-0.461	-0.252
-660.959	-18.410	-0.148	-0.092
-659.945	-150.566	0.403	0.031
-658.930	-3.278	-0.090	0.063
-657.916	154.320	0.123	0.168
-656.901	-57.823	0.032	-0.014
-655.886	223.565	-0.236	-0.379
-654.872	203.357	0.285	-0.439
-653.857	-134.299	0.103	-0.013
-652.843	-200.000	0.006	-0.161
-651.828	416.040	-0.143	0.303
-650.814	-0.628	-0.177	-0.125
-649.799	-192.681	0.254	0.002
-648.784	-200.000	-0.063	0.300
-647.770	596.424	0.165	0.406
-646.755	-97.001	-0.336	-0.087
-645.741	800.000	-0.064	-0.208
-644.726	-160.418	-0.115	0.006
-643.711	15.333	0.069	0.054
-642.697	69.754	-0.192	-0.197
-641.682	800.000	-0.011	-0.046
-640.668	-38.259	0.183	-0.096
-639.653	154.268	-0.151	-0.205
-638.638	285.105	-0.103	-0.185
-637.624	-200.000	-0.005	-0.074
-636.609	-200.000	0.027	-0.171
-635.595	535.651	-0.050	0.117
-634.580	-5.904	0.160	0.109
-633.565	-200.000	0.076	-0.381
-632.551	39.688	-0.297	0.265
-631.536	-200.000	-0.116	-0.000
-630.522	-25.108	0.163	-0.096
-629.507	437.269	-0.120	-0.259
-628.492	800.000	-0.100	0.358
-627.478	562.528	0.093	0.225
-626.463	-99.935	-0.259	-0.064
-625.449	-38.050	0.216	0.114
-624.434	-78.678	-0.161	0.055
-623.419	-59.702	-0.113	-0.048
-622.405	14.904	-0.266	0.207
-621.390	-71.563	-0.201	-0.075
-620.376	-200.000	0.001	-0.004
-619.361	-200.000	-0.063	0.307
-618.346	14.773	-0.367	-0.285
-617.332	78.991	-0.214	-0.228
-616.317	84.719	0.065	0.070
-615.303	-160.588	0.118	-0.006
-614.288	800.000	0.036	-0.153
-613.273	-109.119	-0.165	0.035
-612.259	25.481	-0.060	0.050
-611.244	-85.799	0.122	0.038
-610.230	-120.920	-0.214	0.036
-609.215	26.123	0.087	0.072
-608.201	-200.000	-0.008	0.315
-607.186	-49.389	-0.185	-0.088
-606.171	32.590	0.074	0.064
-605.157	0.073	0.138	-0.097
-604.142	-200.000	-0.005	0.179
-603.128	-26.208	0.193	-0.113
-602.113	-113.899	0.324	-0.063
-601.098	-51.099	-0.126	-0.059
-600.084	29.772	0.078	0.066
-599.069	-73.101	-0.370	0.135
-598.055	-200.000	0.005	0.492
-597.040	-106.657	-0.269	0.059
-596.025	236.811	0.040	0.066
-595.011	89.050	0.115	-0.127
-593.996	72.600	-0.223	0.231
-592.982	-65.311	0.197	0.079
-591.967	-200.000	0.024	-0.217
-590.952	317.240	0.118	-0.221
-589.938	37.016	-0.256	0.225
-588.923	53.558	0.336	-0.320
-587.909	281.796	-0.205	0.364
-586.894	-109.306	0.445	0.094
-585.879	29.822	-0.082	-0.069
-584.865	-102.977	-0.229	-0.054
-583.850	800.000	-0.060	0.233
-582.836	-77.162	-0.095	-0.033
-581.821	-105.558	0.295	-0.066
-580.806	9.324	-0.199	0.149
-579.792	19.946	-0.334	0.267
-578.777	-64.117	-0.331	-0.134
-577.763	212.830	-0.050	0.078
-576.748	348.243	-0.121	-0.237
-575.733	-114.531	0.269	-0.051
-574.719	-200.000	-0.032	-0.161
-573.704	-77.759	0.207	-0.071
-572.690	-20.511	-0.084	-0.051
-571.675	149.564	-0.125	-0.167
-570.661	52.607	0.242	0.229
-569.646	26.871	0.052	0.043
-568.631	-186.435	-0.382	0.005
-567.617	-8.538	-0.205	-0.136
-566.602	141.209	0.219	-0.287
-565.588	800.000	-0.040	-0.137
-564.573	70.739	0.093	-0.096
-563.558	100.862	0.179	0.206
-562.544	531.767	0.044	0.103
-561.529	-53.551	0.077	-0.035
-560.515	-118.501	-0.175	-0.031
-559.500	86.535	-0.042	-0.046
-558.485	-200.000	0.034	-0.172
-557.471	800.000	-0.082	-0.248
-556.456	-143.055	0.215	0.021
-555.442	800.000	0.056	-0.167
-554.427	800.000	0.063	0.184
-553.412	275.266	0.133	-0.234
-552.398	-200.000	0.030	0.214
-551.383	-77.253	-0.124	0.043
-550.369	-113.426	0.231	0.045
-549.354	-200.000	0.090	0.430
-548.339	23.948	0.082	-0.067
-547.325	-39.043	-0.404	-0.211
-546.310	-102.609	-0.079	0.019
-545.296	-157.746	0.192	0.011
-544.281	-16.844	0.126	-0.079
-543.266	-200.000	0.045	0.214
-542.252	-200.000	-0.048	0.317
-541.237	344.086	-0.038	-0.073
-540.223	-200.000	0.004	-0.061
-539.208	-33.974	0.119	-0.065
-538.193	-200.000	-0.035	0.419
-537.179	-59.575	0.140	0.059
-536.164	-70.451	-0.250	0.094
-535.150	-200.000	-0.024	0.191
-534.135	516.318	-0.124	0.286
-533.121	-17.060	-0.376	-0.235
-532.106	496.200	0.067	-0.154
-531.091	68.895	-0.136	-0.138
-530.077	-70.851	-0.221	0.083
-529.062	-56.990	0.513	-0.224
-528.048	800.000	0.068	0.198
-527.033	-200.000	0.032	-0.198
-526.018	-42.665	0.153	-0.077
-525.004	3.985	-0.347	-0.251
-523.989	800.000	-0.068	-0.202
-522.975	-200.000	-0.035	0.155
-521.960	-36.334	-0.098	-0.052
-520.945	-55.887	-0.294	0.130
-519.931	-200.000	-0.011	-0.227
-518.916	-18.845	0.268	-0.165
-517.902	-114.050	0.648	0.124
-516.887	106.325	-0.200	0.235
-515.872	49.792	-0.087	0.081
-514.858	374.814	-0.103	0.208
-513.843	179.918	-0.024	0.035
-512.829	-71.555	-0.177	-0.065
-511.814	-5.090	-0.346	-0.235
-510.799	29.781	-0.212	-0.179
-509.785	26.089	0.210	0.174
-508.770	144.295	0.041	-0.054
-507.756	-36.147	0.403	-0.216
-506.741	-200.000	0.011	0.061
-505.726	-150.879	-0.173	-0.013
-504.712	-108.794	0.133	-0.028
-503.697	534.813	-0.049	-0.114
-502.683	800.000	-0.046	0.168
-501.668	-12.948	0.057	0.037
-500.653	-6.787	-0.148	0.100
-499.639	800.000	0.105	-0.332
-498.624	-200.000	0.062	-0.375
-497.610	261.405	-0.171	-0.293
-496.595	800.000	-0.102	-0.366
-495.581	-136.599	-0.187	0.021
-494.566	-139.238	0.290	0.031
-493.551	-176.167	0.261	0.007
-492.537	-156.564	0.250	0.015
-491.522	122.389	0.065	0.080
-490.508	-200.000	0.005	-0.210
-489.493	800.000	-0.039	0.119
-488.478	-71.390	-0.211	-0.078
-487.464	-1.095	-0.388	-0.271
-486.449	-200.000	-0.015	-0.202
-485.435	800.000	0.059	-0.185
-484.420	-125.489	-0.077	0.012
-483.405	308.448	0.119	0.219
-482.391	73.708	0.302	-0.313
-481.376	-150.859	-0.164	0.012
-480.362	313.996	0.063	-0.116
-479.347	-1.727	0.114	-0.080
-478.332	77.784	0.075	-0.079
-477.318	-88.456	0.078	-0.023
-476.303	38.665	0.121	0.107
-475.289	260.117	0.004	-0.006
-474.274	-200.000	0.090	-0.646
-473.259	54.195	0.083	-0.078
-472.245	370.059	0.174	0.349
-471.230	58.696	0.066	0.064
-470.216	2.397	0.215	0.153
-469.201	339.866	0.069	-0.133
-468.186	-114.407	-0.117	0.022
-467.172	-150.789	-0.426	-0.032
-466.157	120.228	0.184	0.226
-465.143	-55.843	-0.088	-0.039
-464.128	-134.423	-0.471	-0.057
-463.113	-200.000	0.065	-0.290
-462.099	111.781	-0.027	-0.033
-461.084	24.850	-0.090	-0.073
-460.070	-49.342	-0.164	-0.078
-459.055	9.131	-0.136	0.101
-458.040	-200.000	0.034	0.189
-457.026	-200.000	-0.020	0.098
-456.011	112.880	-0.050	-0.059
-454.997	-125.870	0.157	-0.023
-453.982	23.068	-0.239	0.194
-452.968	800.000	0.039	0.106
-451.953	-200.000	-0.023	0.191
-450.938	16.508	0.124	-0.097
-449.924	-198.887	-0.201	0.001
-448.909	-41.099	-0.342	-0.174
-447.895	-48.307	0.281	-0.134
-446.880	114.380	-0.168	0.202
-445.865	-200.000	-0.008	0.034
-444.851	800.000	-0.042	0.134
-443.836	47.111	-0.092	-0.084
-442.822	-41.733	-0.217	0.110
-441.807	279.125	0.174	0.306
-440.792	48.420	0.202	-0.186
-439.778	-50.838	-0.053	-0.025
-438.763	144.593	0.117	0.154
-437.749	75.198	-0.064	0.066
-436.734	-200.000	-0.000	0.149
-435.719	71.351	-0.204	-0.208
-434.705	800.000	0.042	0.162
-433.690	19.257	0.182	-0.144
-432.676	41.846	0.160	0.143
-431.661	800.000	0.134	-0.553
-430.646	800.000	-0.011	0.033
-429.632	160.585	-0.226	-0.312
-428.617	136.216	0.098	0.126
-427.603	-101.892	0.351	-0.084
-426.588	670.584	-0.018	0.047
-425.573	91.777	-0.261	0.290
-424.559	428.839	-0.146	-0.311
-423.544	44.699	-0.093	-0.084
-422.530	94.083	0.237	0.266
-421.515	748.465	0.109	0.291
-420.500	-137.343	0.206	-0.023
-419.486	-161.145	-0.322	-0.017
-418.471	312.105	0.116	-0.215
-417.457	202.317	0.055	-0.083
-416.442	-66.184	0.145	0.057
-415.428	128.904	0.068	-0.085
-414.413	-54.295	0.257	-0.115
-413.398	800.000	-0.079	0.283
-412.384	-151.565	-0.121	0.009
-411.369	49.554	0.312	0.289
-410.355	-200.000	-0.026	0.223
-409.340	800.000	-0.034	-0.127
-408.325	134.908	-0.102	-0.131
-407.311	-200.000	-0.026	-0.303
-406.296	20.171	0.155	-0.123
-405.282	480.870	-0.060	-0.134
-404.267	271.623	0.237	0.412
-403.252	-57.603	0.235	-0.101
-402.238	-200.000	0.030	-0.436
-401.223	152.912	0.045	0.061
-400.209	-173.123	0.062	0.002
-399.194	7.250	0.153	-0.113
-398.179	301.733	0.083	0.152
-397.165	-200.000	-0.051	-0.321
-396.150	-200.000	0.047	0.211
-395.136	-54.868	-0.148	-0.066
-394.121	310.973	-0.110	0.203
-393.106	-45.974	0.339	0.165
-392.092	-200.000	0.017	0.083
-391.077	-94.372	0.370	0.100
-390.063	800.000	0.092	-0.258
-389.048	17.341	-0.220	-0.172
-388.033	499.828	-0.115	0.262
-387.019	-31.476	0.272	0.151
-386.004	55.822	-0.342	-0.327
-384.990	150.594	0.075	-0.100
-383.975	800.000	0.067	-0.206
-382.960	33.737	0.219	0.188
-381.946	-185.546	0.205	0.003
-380.931	-119.344	-0.091	-0.016
-379.917	-200.000	-0.069	-0.397
-378.902	61.812	-0.109	-0.107
-377.888	-200.000	-0.021	-0.213
-376.873	-140.298	0.169	-0.017
-375.858	108.156	-0.055	0.065
-374.844	-123.418	0.228	0.036
-373.829	288.378	-0.132	0.236
-372.815	-80.786	-0.268	-0.088
-371.800	-55.698	-0.160	-0.071
-370.785	800.000	-0.022	-0.063
-369.771	-79.579	0.115	0.038
-368.756	-157.602	0.137	0.008
-367.742	540.968	-0.042	0.097
-366.727	-60.565	0.177	-0.074
-365.712	800.000	0.070	0.195
-364.698	-200.000	0.198	0.000
-363.683	-8.048	-0.187	0.124
-362.669	800.000	0.011	-0.041
-361.654	-44.306	0.224	0.111
-360.639	-11.263	0.283	-0.183
-359.625	-24.369	-0.151	0.089
-358.610	471.041	-0.104	-0.231
-357.596	-9.772	-0.102	0.067
-356.581	-94.145	-0.190	-0.051
-355.566	88.629	0.266	0.290
-354.552	43.033	-0.246	0.220
-353.537	-13.380	0.149	0.095
-352.523	9.852	0.088	-0.065
-351.508	31.684	-0.090	0.076
-350.493	-200.000	-0.032	0.219
-349.479	320.752	-0.069	0.130
-348.464	-40.900	-0.201	-0.102
-347.450	-150.197	0.205	-0.016
-346.435	-200.000	-0.035	-0.172
-345.420	134.249	0.115	0.146
-344.406	163.148	-0.106	-0.146
-343.391	-39.684	-0.170	-0.087
-342.377	-200.000	-0.010	-0.222
-341.362	63.155	-0.083	0.082
-340.348	-134.399	0.118	-0.014
-339.333	257.188	-0.080	-0.136
-338.318	17.703	-0.093	-0.073
-337.304	504.303	0.046	-0.104
-336.289	-127.854	0.069	-0.010
-335.275	800.000	-0.130	0.363
-334.260	-200.000	0.003	0.210
-333.245	320.670	-0.194	-0.362
-332.231	-76.351	-0.078	-0.027
-331.216	-75.963	-0.187	-0.065
-330.202	-200.000	-0.027	0.365
-329.187	-35.675	0.092	0.049
-328.172	-98.675	-0.122	-0.031
-327.158	-145.783	0.150	-0.013
-326.143	-137.059	-0.039	-0.004
-325.129	132.265	-0.254	0.321
-324.114	-200.000	0.002	0.128
-323.099	-74.038	0.098	-0.035
-322.085	-109.286	-0.219	-0.046
-321.070	64.192	0.207	0.205
-320.056	260.525	0.208	0.354
-319.041	-200.000	0.023	0.117
-318.026	363.196	0.044	-0.088
-317.012	343.870	-0.162	0.312
-315.997	-33.909	-0.239	-0.129
-314.983	46.682	0.140	-0.128
-313.968	-200.000	-0.016	0.069
-312.953	-120.610	0.184	0.031
-311.939	-10.057	0.183	0.119
-310.924	135.698	-0.210	0.269
-309.910	113.702	0.179	-0.214
-308.895	249.057	0.068	0.113
-307.880	800.000	0.061	-0.234
-306.866	-93.233	0.333	-0.091
-305.851	-45.097	-0.255	-0.125
-304.837	-54.231	0.347	0.154
-303.822	75.053	-0.202	-0.209
-302.807	-12.758	0.340	0.217
-301.793	445.215	-0.073	0.157
-300.778	121.362	0.203	-0.248
-299.764	296.870	0.088	-0.158
-298.749	652.087	0.180	-0.452
-297.735	-148.418	-0.291	-0.023
-296.720	481.690	-0.085	0.190
-295.705	18.780	0.213	0.167
-294.691	-177.557	-0.200	-0.005
-293.676	357.205	0.141	0.276
-292.662	200.672	0.146	-0.220
-291.647	27.265	-0.200	-0.165
-290.632	-200.000	0.011	0.313
-289.618	-200.000	0.004	-0.071
-288.603	211.459	-0.030	0.047
-287.589	330.205	-0.147	0.277
-286.574	-200.000	0.007	-0.159
-285.559	465.529	0.032	0.069
-284.545	-92.142	-0.279	0.077
-283.530	-43.508	0.171	0.084
-282.516	800.000	-0.063	-0.208
-281.501	-200.000	-0.033	0.142
-280.486	800.000	0.041	-0.145
-279.472	78.053	0.116	-0.121
-278.457	-78.550	-0.182	0.061
-277.443	47.673	0.058	0.053
-276.428	-22.337	0.139	0.083
-275.413	-200.000	0.043	-0.233
-274.399	36.464	-0.267	0.231
-273.384	79.804	-0.200	0.210
-272.370	800.000	0.052	-0.208
-271.355	86.095	0.120	-0.129
-270.340	-200.000	-0.006	-0.203
-269.326	-7.910	-0.122	-0.081
-268.311	74.542	0.153	-0.158
-267.297	164.216	0.066	0.091
-266.282	-200.000	0.059	0.278
-265.267	800.000	-0.022	0.070
-264.253	800.000	0.092	0.319
-263.238	-200.000	-0.082	0.408
-262.224	-96.236	-0.046	-0.012
-261.209	28.129	0.234	-0.194
-260.195	-200.000	-0.002	-0.026
-259.180	-200.000	-0.047	-0.269
-258.165	-200.000	0.015	0.155
-257.151	315.165	0.057	-0.106
-256.136	800.000	0.011	0.046
-255.122	-34.827	-0.132	-0.070
-254.107	50.479	0.091	-0.085
-253.092	-200.000	-0.013	-0.092
-252.078	367.331	0.079	0.156
-251.063	-200.000	0.020	0.340
-250.049	-90.825	0.267	0.075
-249.034	332.021	0.130	0.246
-248.019	-200.000	-0.016	-0.166
-247.005	49.733	-0.165	0.152
-245.990	-43.829	-0.120	-0.059
-244.976	800.000	-0.040	-0.111
-243.961	800.000	0.092	0.269
-242.946	-200.000	-0.003	0.037
-241.932	-41.303	-0.105	-0.053
-240.917	64.770	0.174	-0.172
-239.903	97.085	0.077	0.087
-238.888	-14.128	0.222	0.140
-237.873	-200.000	-0.033	-0.338
-236.859	48.219	0.105	0.096
-235.844	-200.000	-0.045	-0.339
-234.830	74.279	-0.066	-0.068
-233.815	32.722	-0.140	-0.119
-232.800	692.810	-0.062	0.160
-231.786	74.434	-0.151	-0.155
-230.771	-70.255	-0.061	-0.022
-229.757	-84.113	0.293	-0.091
-228.742	12.363	0.124	0.093
-227.727	416.812	-0.037	0.078
-226.713	-200.000	-0.003	-0.143
-225.698	-11.094	-0.219	-0.141
-224.684	800.000	-0.105	0.294
-223.669	109.314	-0.131	0.154
-222.655	19.162	0.405	0.318
-221.640	-200.000	0.021	-0.275
-220.625	-107.260	0.282	-0.061
-219.611	-76.176	0.332	-0.115
-218.596	-101.318	0.241	-0.057
-217.582	139.357	0.149	0.191
-216.567	159.941	0.118	0.161
-215.552	-33.519	-0.280	0.151
-214.538	77.895	0.347	0.362
-213.523	458.494	-0.154	0.334
-212.509	-200.000	0.000	0.059
-211.494	115.406	-0.131	0.156
-210.479	-53.506	0.117	0.053
-209.465	-200.000	-0.019	-0.161
-208.450	11.150	-0.065	-0.049
-207.436	46.325	0.026	-0.024
-206.421	575.368	-0.088	0.210
-205.406	-45.348	-0.117	-0.057
-204.392	-114.793	-0.132	-0.025
-203.377	-14.686	-0.075	0.047
-202.363	-200.000	-0.001	-0.035
-201.348	52.544	0.110	-0.103
-200.333	2.881	0.040	-0.029
-199.319	-200.000	0.001	-0.223
-198.304	-89.976	-0.202	-0.057
-197.290	-52.287	-0.155	0.070
-196.275	-75.750	0.178	-0.062
-195.260	-200.000	-0.015	0.203
-194.246	41.278	0.308	0.272
-193.231	-200.000	0.068	0.315
-192.217	155.742	0.170	0.229
-191.202	80.231	-0.461	0.484
-190.187	-18.292	0.231	0.141
-189.173	-137.166	0.141	0.016
-188.158	-47.301	-0.301	-0.143
-187.144	-41.033	-0.205	0.103
-186.129	-133.079	-0.014	-0.002
-185.114	609.644	-0.073	-0.178
-184.100	131.450	-0.289	0.362
-183.085	-132.209	-0.099	-0.013
-182.071	-68.134	0.239	0.091
-181.056	169.304	0.135	0.189
-180.042	-93.703	0.186	-0.050
-179.027	-200.000	0.094	-0.477
-178.012	41.990	-0.132	-0.117
-176.998	-200.000	-0.001	0.083
-175.983	484.261	-0.058	-0.128
-174.969	-154.655	0.062	-0.004
-173.954	800.000	0.120	0.414
-172.939	800.000	-0.037	-0.152
-171.925	168.890	-0.119	0.165
-170.910	-73.369	-0.505	-0.180
-169.896	800.000	-0.038	-0.143
-168.881	39.527	0.250	-0.218
-167.866	797.512	0.036	-0.097
-166.852	113.995	0.098	0.117
-165.837	-200.000	-0.008	-0.106
-164.823	123.953	-0.203	0.249
-163.808	312.559	0.084	0.154
-162.793	800.000	0.097	-0.329
-161.779	800.000	0.084	-0.359
-160.764	-92.403	0.247	0.068
-159.750	43.306	0.245	-0.218
-158.735	-39.794	-0.158	0.080
-157.720	800.000	-0.034	-0.121
-156.706	-200.000	0.044	0.203
-155.691	110.876	-0.123	-0.144
-154.677	800.000	-0.074	-0.252
-153.662	454.097	-0.169	-0.366
-152.647	70.727	-0.350	-0.354
-151.633	141.174	-0.082	-0.106
-150.618	39.290	0.031	-0.027
-149.604	702.674	-0.124	-0.318
-148.589	-113.837	0.324	-0.061
-147.574	-78.053	-0.189	-0.063
-146.560	-200.000	0.036	0.454
-145.545	-142.466	0.474	0.045
-144.531	-115.021	0.346	-0.064
-143.516	-99.026	0.044	-0.011
-142.502	103.334	-0.180	-0.205
-141.487	-145.713	-0.170	-0.015
-140.472	-53.384	0.272	0.122
-139.458	-200.000	-0.017	-0.244
-138.443	-153.496	0.070	0.005
-137.429	-148.623	0.220	-0.017
-136.414	-4.763	0.054	0.037
-135.399	-75.493	0.120	0.042
-134.385	-53.975	0.218	0.097
-133.370	90.139	0.212	-0.231
-132.356	800.000	-0.093	0.253
-131.341	-99.835	0.171	-0.042
-130.326	87.908	0.179	-0.194
-129.312	-200.000	0.002	0.094
-128.297	216.151	-0.122	0.189
-127.283	10.544	-0.362	-0.269
-126.268	405.323	0.092	0.188
-125.253	-69.302	-0.058	-0.022
-124.239	12.317	0.293	0.220
-123.224	-200.000	0.072	0.372
-122.210	-18.801	0.190	-0.115
-121.195	125.250	-0.101	0.124
