DTS Sentinel unit serial number:	SN413079Multiplexer serial number:	ORYXHardware model number:	OX4-SRSoftware version number:	ORYX F/W v4.00 Oryx Data Collector v3.7.2.0data status	okinstallation	princeton_trtdifferential loss correction	single-endedforward channel	channel 2reverse channel	N/Adate	2019/09/16time	00:11:35forward acquisition time	60.00reverse acquisition time	0.00gamma	496.2192k internal	0.2337k external	0.2337temperature offset calibration	0.9959default loss term (dB/km)	0.3790temperature slope calibration	1.0000multiplexer offset coefficient	1.0000multiplexer slope coefficient	1.0000fibre end	0.00T internal ref (°C)	27.75T ext. ref 1 (°C)	9.45T ext. ref 2 (°C)	21.62length (m)	temperature (°C)	Stokes	anti-Stokes-747.200	-28.473	0.084	-0.049
-746.185	-200.000	0.011	-0.219
-745.171	-149.342	-0.389	-0.031
-744.156	118.942	-0.215	0.267
-743.142	120.071	0.189	0.235
-742.127	353.681	0.081	0.161
-741.112	-200.000	0.030	-0.252
-740.098	342.150	-0.213	0.418
-739.083	201.087	0.121	0.186
-738.069	-200.000	-0.025	0.196
-737.054	147.835	-0.137	-0.186
-736.039	-73.288	-0.213	-0.078
-735.025	-40.481	0.289	0.151
-734.010	-200.000	-0.017	-0.322
-732.996	46.872	0.306	-0.285
-731.981	204.875	-0.162	-0.253
-730.966	160.202	-0.236	-0.331
-729.952	-200.000	-0.028	-0.249
-728.937	279.014	0.078	0.139
-727.923	-91.128	0.355	-0.102
-726.908	-123.204	-0.229	-0.037
-725.894	0.884	0.117	0.084
-724.879	-40.450	0.203	-0.106
-723.864	-79.304	0.135	0.046
-722.850	800.000	0.043	-0.136
-721.835	-200.000	-0.038	0.196
-720.821	36.364	0.130	-0.115
-719.806	243.145	0.259	-0.436
-718.791	163.616	0.099	-0.140
-717.777	-93.743	-0.279	-0.077
-716.762	53.600	0.172	-0.165
-715.748	-154.275	0.077	0.005
-714.733	800.000	-0.082	-0.239
-713.718	-107.536	-0.368	-0.081
-712.704	-95.864	0.354	-0.095
-711.689	-8.943	0.137	-0.092
-710.675	73.905	0.181	0.190
-709.660	-200.000	0.003	-0.085
-708.645	82.985	0.114	0.125
-707.631	-69.147	0.230	-0.089
-706.616	379.045	0.067	-0.137
-705.602	-114.517	-0.069	0.013
-704.587	181.827	-0.179	-0.264
-703.572	110.811	0.192	-0.232
-702.558	-46.846	-0.411	-0.201
-701.543	-47.285	-0.226	0.111
-700.529	637.644	0.165	0.419
-699.514	-141.943	-0.068	-0.007
-698.499	425.067	-0.117	0.253
-697.485	78.289	-0.097	0.104
-696.470	-118.552	0.150	-0.027
-695.456	282.218	-0.096	-0.173
-694.441	-31.869	0.490	-0.275
-693.426	800.000	0.069	-0.202
-692.412	539.054	-0.111	-0.264
-691.397	-69.275	0.214	0.082
-690.383	-200.000	0.023	-0.159
-689.368	56.678	0.166	0.162
-688.354	-96.177	0.060	0.016
-687.339	-200.000	-0.066	0.300
-686.324	-23.736	0.206	0.124
-685.310	-19.893	0.166	0.103
-684.295	-8.887	-0.251	-0.169
-683.281	77.480	-0.135	-0.144
-682.266	275.891	0.224	0.398
-681.251	-69.489	-0.229	-0.088
-680.237	60.718	0.306	0.304
-679.222	497.965	0.130	0.300
-678.208	800.000	-0.104	0.366
-677.193	-148.917	0.090	-0.007
-676.178	33.703	-0.207	-0.181
-675.164	800.000	-0.028	0.092
-674.149	-200.000	0.032	0.165
-673.135	321.785	-0.039	-0.075
-672.120	800.000	0.057	0.217
-671.105	608.231	-0.167	-0.417
-670.091	-85.816	-0.238	-0.074
-669.076	103.494	-0.201	-0.237
-668.062	37.653	0.060	0.054
-667.047	800.000	-0.055	0.225
-666.032	-113.659	-0.159	0.031
-665.018	48.705	0.089	-0.083
-664.003	-121.902	0.176	-0.029
-662.989	-200.000	-0.008	-0.148
-661.974	64.132	0.138	-0.139
-660.959	-114.124	0.107	-0.021
-659.945	-97.979	-0.316	-0.082
-658.930	-155.584	0.447	0.029
-657.916	-138.895	-0.265	-0.029
-656.901	-198.249	0.175	0.001
-655.886	50.601	-0.099	-0.094
-654.872	-3.542	-0.143	0.100
-653.857	200.851	-0.122	-0.187
-652.843	-42.265	0.118	-0.060
-651.828	10.682	0.028	0.022
-650.814	-200.000	-0.033	0.159
-649.799	339.462	0.089	0.173
-648.784	13.809	0.055	-0.043
-647.770	-200.000	-0.010	-0.248
-646.755	55.570	0.112	-0.108
-645.741	291.481	0.143	-0.260
-644.726	-61.307	0.189	-0.079
-643.711	-200.000	-0.025	-0.135
-642.697	800.000	-0.012	-0.050
-641.682	170.217	-0.352	0.504
-640.668	-68.800	-0.071	-0.027
-639.653	39.764	0.128	-0.115
-638.638	-110.555	0.120	0.025
-637.624	-200.000	-0.058	-0.344
-636.609	-135.176	0.193	-0.023
-635.595	199.534	0.072	-0.110
-634.580	-8.931	-0.055	0.037
-633.565	-200.000	0.015	-0.217
-632.551	-57.905	0.185	0.081
-631.536	-78.755	0.090	0.031
-630.522	19.766	0.315	0.254
-629.507	-164.472	-0.197	-0.009
-628.492	242.990	0.054	0.091
-627.478	800.000	-0.076	-0.229
-626.463	-129.447	0.193	-0.027
-625.449	-2.274	-0.371	0.260
-624.434	-51.913	0.179	0.083
-623.419	-200.000	-0.003	0.052
-622.405	9.889	-0.151	-0.115
-621.390	-200.000	-0.023	-0.115
-620.376	-141.573	-0.477	-0.048
-619.361	221.537	0.176	0.283
-618.346	124.795	0.142	0.178
-617.332	-200.000	-0.011	0.092
-616.317	-75.392	0.086	-0.031
-615.303	161.496	-0.051	0.072
-614.288	-83.929	-0.305	0.097
-613.273	522.635	-0.041	-0.096
-612.259	800.000	0.060	-0.248
-611.244	653.494	-0.133	-0.340
-610.230	171.374	0.093	0.133
-609.215	-200.000	0.001	0.055
-608.201	-75.006	-0.123	0.044
-607.186	-178.090	0.293	0.007
-606.171	-112.073	0.297	0.060
-605.157	-200.000	-0.013	0.116
-604.142	-106.956	0.300	-0.066
-603.128	-200.000	-0.054	0.251
-602.113	-200.000	0.008	-0.212
-601.098	-175.108	-0.328	-0.009
-600.084	-98.052	0.030	-0.008
-599.069	-155.131	0.371	-0.024
-598.055	379.813	-0.126	0.257
-597.040	43.483	-0.116	0.106
-596.025	115.011	0.259	-0.315
-595.011	579.958	0.061	-0.150
-593.996	-17.484	0.244	0.153
-592.982	-17.729	-0.092	-0.057
-591.967	-23.527	-0.204	-0.122
-590.952	-114.650	0.091	0.017
-589.938	81.822	0.162	0.175
-588.923	207.458	0.146	0.228
-587.909	2.251	-0.057	-0.041
-586.894	-151.285	-0.103	0.008
-585.879	78.051	-0.094	0.100
-584.865	-102.732	-0.135	-0.032
-583.850	-64.490	0.222	-0.090
-582.836	220.427	-0.088	0.141
-581.821	95.290	0.103	0.117
-580.806	184.388	-0.109	0.161
-579.792	28.966	-0.115	0.097
-578.777	58.715	0.179	0.175
-577.763	800.000	0.035	-0.126
-576.748	-113.894	-0.154	-0.030
-575.733	26.721	-0.232	-0.193
-574.719	323.583	-0.255	-0.486
-573.704	-158.580	-0.467	0.027
-572.690	407.667	-0.102	-0.215
-571.675	22.187	-0.094	-0.077
-570.661	-4.312	-0.134	0.092
-569.646	-200.000	-0.023	0.328
-568.631	72.076	-0.265	0.275
-567.617	54.223	0.113	-0.108
-566.602	-72.672	-0.227	-0.083
-565.588	3.830	0.460	-0.335
-564.573	16.276	-0.123	0.097
-563.558	-200.000	0.001	-0.111
-562.544	-71.360	-0.438	-0.164
-561.529	-200.000	0.002	-0.271
-560.515	-10.630	-0.340	0.224
-559.500	-97.335	0.198	-0.051
-558.485	113.965	-0.067	-0.082
-557.471	-52.121	0.240	0.111
-556.456	800.000	0.076	0.224
-555.442	19.384	0.101	-0.081
-554.427	249.779	0.151	0.255
-553.412	573.673	-0.047	-0.115
-552.398	-51.513	0.209	0.097
-551.383	-128.370	0.382	0.054
-550.369	-4.909	0.115	-0.079
-549.354	-132.125	0.250	-0.032
-548.339	26.456	-0.200	0.166
-547.325	-76.597	0.212	0.074
-546.310	-200.000	0.028	0.276
-545.296	-8.838	0.304	-0.203
-544.281	800.000	0.029	-0.090
-543.266	-133.793	-0.383	0.047
-542.252	128.450	-0.072	-0.091
-541.237	-200.000	0.052	0.276
-540.223	324.144	0.238	0.453
-539.208	62.666	-0.113	0.112
-538.193	-82.471	0.168	0.054
-537.179	-115.839	0.025	0.005
-536.164	50.581	-0.114	0.107
-535.150	-200.000	0.029	0.148
-534.135	-200.000	0.002	-0.035
-533.121	125.370	-0.060	0.076
-532.106	-4.228	-0.195	-0.134
-531.091	800.000	-0.094	0.269
-530.077	-19.183	0.166	-0.103
-529.062	-81.165	-0.029	0.009
-528.048	162.356	-0.244	0.341
-527.033	-200.000	-0.020	0.315
-526.018	220.133	0.198	-0.315
-525.004	800.000	0.124	0.357
-523.989	112.243	-0.136	0.164
-522.975	-200.000	-0.027	0.209
-521.960	-6.867	0.187	0.127
-520.945	199.297	-0.110	-0.168
-519.931	6.722	-0.073	0.054
-518.916	-200.000	0.010	-0.220
-517.902	-99.440	0.047	0.012
-516.887	800.000	0.098	0.320
-515.872	-84.295	0.205	0.065
-514.858	-144.417	0.186	0.017
-513.843	-77.108	-0.124	-0.043
-512.829	800.000	0.065	0.191
-511.814	-200.000	-0.045	-0.000
-510.799	-81.877	-0.080	0.026
-509.785	17.400	-0.115	-0.091
-508.770	7.269	-0.148	-0.110
-507.756	691.437	-0.085	0.221
-506.741	800.000	0.008	-0.030
-505.726	-200.000	-0.012	0.104
-504.712	-59.781	0.120	0.051
-503.697	800.000	0.110	-0.448
-502.683	-32.981	-0.081	-0.045
-501.668	63.549	-0.135	-0.135
-500.653	-10.040	0.112	0.074
-499.639	99.573	-0.301	-0.347
-498.624	213.600	-0.189	-0.297
-497.610	30.963	-0.209	-0.178
-496.595	71.037	0.337	0.347
-495.581	102.437	-0.198	-0.230
-494.566	181.543	-0.035	0.051
-493.551	-73.855	-0.252	-0.091
-492.537	332.764	0.152	-0.292
-491.522	782.640	-0.119	-0.323
-490.508	146.464	-0.189	0.252
-489.493	-138.141	0.408	-0.045
-488.478	-157.761	-0.249	-0.015
-487.464	-79.134	-0.106	0.036
-486.449	-111.667	-0.217	-0.044
-485.435	392.284	-0.060	0.123
-484.420	-86.610	0.239	0.073
-483.405	-56.342	0.121	0.054
-482.391	568.137	0.137	-0.331
-481.376	-200.000	-0.031	-0.458
-480.362	-200.000	0.068	-0.305
-479.347	-157.250	-0.270	0.016
-478.332	-72.028	-0.137	-0.050
-477.318	-64.600	0.222	0.089
-476.303	229.542	0.123	0.199
-475.289	-144.321	0.312	-0.029
-474.274	-131.441	-0.384	0.050
-473.259	-200.000	-0.035	0.369
-472.245	800.000	0.072	0.203
-471.230	-82.882	-0.040	0.013
-470.216	-200.000	0.223	-0.000
-469.201	561.419	-0.025	0.060
-468.186	332.235	-0.249	-0.478
-467.172	-2.255	-0.195	0.136
-466.157	-79.833	-0.233	0.078
-465.143	-75.173	0.048	0.017
-464.128	492.433	0.112	0.254
-463.113	545.976	-0.100	0.238
-462.099	112.484	-0.251	0.302
-461.084	-200.000	-0.002	0.135
-460.070	40.779	0.159	0.142
-459.055	134.926	-0.078	0.101
-458.040	-200.000	-0.013	0.268
-457.026	-200.000	0.017	0.224
-456.011	44.338	-0.226	0.206
-454.997	-21.682	0.056	0.034
-453.982	800.000	0.011	0.034
-452.968	-68.313	0.331	-0.128
-451.953	800.000	0.057	0.211
-450.938	-3.912	0.120	0.083
-449.924	-0.760	-0.151	-0.106
-448.909	800.000	0.019	0.062
-447.895	-200.000	0.050	0.218
-446.880	-131.777	-0.179	0.023
-445.865	114.516	-0.019	-0.023
-444.851	55.182	0.277	0.266
-443.836	-81.305	0.542	-0.178
-442.822	-149.750	0.184	0.014
-441.807	304.451	-0.109	0.200
-440.792	-200.000	0.006	-0.099
-439.778	800.000	0.051	-0.155
-438.763	-167.802	0.154	0.006
-437.749	545.754	-0.161	-0.382
-436.734	-200.000	-0.036	-0.417
-435.719	43.607	0.091	-0.082
-434.705	27.063	0.125	0.104
-433.690	800.000	-0.169	0.476
-432.676	-14.398	0.061	0.039
-431.661	-55.881	-0.046	0.020
-430.646	-127.015	-0.268	-0.039
-429.632	-200.000	-0.075	-0.563
-428.617	39.663	0.195	-0.174
-427.603	-11.475	-0.211	0.138
-426.588	-29.766	-0.069	-0.039
-425.573	-0.824	-0.160	0.112
-424.559	-144.510	-0.187	-0.017
-423.544	-139.749	-0.241	-0.025
-422.530	167.647	0.098	-0.138
-421.515	-125.895	-0.288	0.043
-420.500	-122.093	0.367	0.060
-419.486	325.120	0.126	0.238
-418.471	-54.335	0.180	-0.081
-417.457	99.625	0.140	0.161
-416.442	-6.904	-0.164	0.111
-415.428	800.000	0.163	0.554
-414.413	-126.622	0.114	0.017
-413.398	800.000	0.095	-0.293
-412.384	-200.000	0.047	-0.391
-411.369	55.210	-0.071	-0.068
-410.355	142.704	0.058	0.076
-409.340	800.000	0.067	0.225
-408.325	163.283	0.239	0.333
-407.311	250.302	-0.103	-0.173
-406.296	-74.447	-0.225	-0.080
-405.282	-55.750	0.122	0.054
-404.267	-67.864	-0.052	-0.020
-403.252	800.000	-0.083	-0.227
-402.238	-93.842	-0.043	0.012
-401.223	650.283	0.084	0.212
-400.209	454.796	-0.032	-0.070
-399.194	30.530	0.201	0.170
-398.179	-200.000	-0.043	-0.207
-397.165	-200.000	-0.006	0.074
-396.150	81.388	0.163	-0.175
-395.136	142.041	-0.044	0.058
-394.121	-63.279	-0.277	-0.113
-393.106	43.708	0.207	0.188
-392.092	394.550	0.168	0.347
-391.077	-105.315	0.022	-0.005
-390.063	448.163	0.110	-0.239
-389.048	-79.904	0.040	-0.013
-388.033	-124.475	-0.203	-0.031
-387.019	-200.000	0.016	-0.280
-386.004	364.960	0.089	0.178
-384.990	800.000	0.014	0.041
-383.975	333.095	-0.060	-0.114
-382.960	49.739	-0.302	-0.282
-381.946	-34.492	0.148	0.080
-380.931	-109.813	-0.274	-0.057
-379.917	-139.121	-0.212	0.023
-378.902	800.000	0.032	0.105
-377.888	12.979	-0.230	-0.176
-376.873	18.470	-0.084	-0.067
-375.858	236.470	0.094	-0.155
-374.844	125.917	0.027	-0.034
-373.829	-81.722	0.095	-0.031
-372.815	409.179	-0.212	-0.444
-371.800	144.651	0.042	0.055
-370.785	-200.000	0.040	-0.409
-369.771	-200.000	0.018	-0.173
-368.756	9.368	0.025	0.019
-367.742	413.567	-0.029	-0.060
-366.727	-155.640	0.387	0.025
-365.712	53.570	0.074	-0.071
-364.698	-120.004	-0.322	-0.055
-363.683	71.787	-0.108	0.111
-362.669	137.306	0.102	-0.132
-361.654	-46.494	0.178	-0.086
-360.639	110.947	-0.149	-0.177
-359.625	661.685	0.039	-0.098
-358.610	-200.000	0.013	-0.109
-357.596	-200.000	0.074	-0.401
-356.581	-59.682	0.155	-0.066
-355.566	291.005	0.159	0.287
-354.552	-200.000	0.062	-0.306
-353.537	-200.000	-0.050	0.241
-352.523	153.371	-0.031	-0.043
-351.508	-36.735	-0.233	-0.124
-350.493	122.212	0.028	0.035
-349.479	800.000	0.060	-0.194
-348.464	626.976	-0.035	0.088
-347.450	340.913	0.062	0.120
-346.435	668.349	0.062	0.159
-345.420	-200.000	-0.026	0.134
-344.406	157.542	0.133	0.183
-343.391	-7.883	0.022	0.015
-342.377	-200.000	0.060	-0.281
-341.362	-200.000	-0.021	-0.111
-340.348	800.000	0.080	0.275
-339.333	-18.937	0.340	0.209
-338.318	-78.798	-0.139	-0.047
-337.304	-144.345	0.235	0.022
-336.289	13.173	0.118	0.090
-335.275	296.269	0.011	0.020
-334.260	26.771	-0.269	-0.222
-333.245	-58.904	-0.263	-0.112
-332.231	-200.000	-0.047	-0.225
-331.216	146.003	-0.037	-0.049
-330.202	58.466	-0.111	-0.108
-329.187	53.754	0.189	-0.179
-328.172	-135.475	-0.335	-0.039
-327.158	-68.556	-0.061	-0.023
-326.143	-200.000	-0.053	-0.329
-325.129	-108.224	0.528	0.113
-324.114	104.426	0.163	0.190
-323.099	-103.718	-0.202	0.047
-322.085	-200.000	-0.064	0.473
-321.070	-62.584	0.223	0.091
-320.056	-58.068	0.013	-0.006
-319.041	-12.147	0.310	-0.201
-318.026	221.340	-0.088	0.140
-317.012	17.355	-0.341	0.267
-315.997	-44.579	-0.118	0.058
-314.983	800.000	-0.055	-0.198
-313.968	-96.612	0.057	0.015
-312.953	132.414	0.071	0.091
-311.939	200.764	-0.136	-0.206
-310.924	-92.368	-0.173	-0.048
-309.910	498.219	-0.042	-0.096
-308.895	187.366	-0.077	0.114
-307.880	-69.962	0.176	-0.066
-306.866	-9.584	-0.191	0.125
-305.851	-97.214	0.281	-0.072
-304.837	-43.895	-0.133	-0.066
-303.822	50.578	-0.293	-0.273
-302.807	-45.832	-0.201	-0.098
-301.793	378.278	-0.095	-0.193
-300.778	244.301	0.131	0.217
-299.764	-65.593	-0.154	-0.061
-298.749	50.489	0.043	-0.040
-297.735	-78.802	0.169	-0.057
-296.720	-48.098	-0.023	-0.011
-295.705	-59.618	-0.057	-0.024
-294.691	-54.697	0.015	0.006
-293.676	-167.974	0.111	0.004
-292.662	373.558	-0.118	-0.237
-291.647	800.000	-0.060	-0.239
-290.632	-95.653	-0.220	0.058
-289.618	-90.755	-0.112	-0.032
-288.603	149.739	-0.208	-0.278
-287.589	-76.937	-0.221	-0.076
-286.574	111.194	0.161	-0.192
-285.559	800.000	0.072	0.262
-284.545	67.734	-0.319	0.321
-283.530	15.417	-0.068	-0.053
-282.516	-149.483	-0.182	0.014
-281.501	558.345	0.053	-0.126
-280.486	-171.056	0.170	-0.006
-279.472	-200.000	0.020	0.165
-278.457	352.362	-0.121	0.236
-277.443	800.000	-0.045	-0.190
-276.428	-19.877	0.228	-0.139
-275.413	51.445	-0.019	0.018
-274.399	-193.417	-0.358	0.003
-273.384	-200.000	0.032	0.194
-272.370	800.000	0.052	0.213
-271.355	-95.917	0.281	0.074
-270.340	-200.000	-0.035	0.222
-269.326	-200.000	-0.028	0.167
-268.311	-200.000	0.036	0.385
-267.297	-104.965	-0.472	0.107
-266.282	-90.237	0.227	0.065
-265.267	-200.000	-0.074	-0.346
-264.253	-31.756	0.156	0.086
-263.238	-200.000	0.004	-0.209
-262.224	169.174	-0.064	0.090
-261.209	-107.094	-0.276	-0.060
-260.195	-13.675	0.282	-0.180
-259.180	144.470	-0.133	0.174
-258.165	384.430	-0.112	-0.227
-257.151	-60.867	-0.234	-0.098
-256.136	1.146	0.167	-0.118
-255.122	-200.000	0.041	-0.468
-254.107	-200.000	0.020	-0.163
-253.092	-200.000	-0.031	-0.303
-252.078	507.316	-0.074	-0.169
-251.063	-79.774	-0.268	-0.089
-250.049	110.368	-0.166	0.196
-249.034	43.446	-0.073	-0.065
-248.019	54.861	0.150	0.143
-247.005	725.534	-0.133	-0.350
-245.990	-200.000	-0.023	-0.325
-244.976	-102.137	-0.076	-0.018
-243.961	19.572	0.099	0.079
-242.946	-63.876	-0.173	0.070
-241.932	159.596	-0.125	0.172
-240.917	-109.449	0.217	0.045
-239.903	-112.677	-0.066	-0.013
-238.888	-176.946	0.312	-0.008
-237.873	-20.729	-0.174	0.105
-236.859	-128.144	-0.237	-0.033
-235.844	-72.128	0.223	0.081
-234.830	800.000	-0.129	0.382
-233.815	201.614	-0.087	0.132
-232.800	222.101	-0.123	0.194
-231.786	-200.000	0.034	0.302
-230.771	167.581	0.143	0.200
-229.757	-93.837	0.302	0.082
-228.742	59.736	-0.148	-0.144
-227.727	-127.380	-0.069	-0.010
-226.713	-31.744	-0.067	0.037
-225.698	603.266	0.060	-0.147
-224.684	800.000	0.058	-0.163
-223.669	85.378	0.101	-0.109
-222.655	187.378	0.099	0.146
-221.640	-200.000	0.008	0.176
-220.625	-200.000	-0.029	0.407
-219.611	-71.097	-0.569	-0.210
-218.596	-148.283	-0.062	0.005
-217.582	596.160	0.107	0.262
-216.567	-22.830	0.092	-0.054
-215.552	-194.337	-0.348	0.003
-214.538	-30.226	-0.063	0.035
-213.523	-80.665	0.366	-0.120
-212.509	-200.000	0.020	0.247
-211.494	18.479	0.471	0.370
-210.479	186.031	0.210	0.308
-209.465	98.486	-0.188	-0.213
-208.450	-121.419	-0.085	-0.014
-207.436	18.667	0.178	-0.140
-206.421	-191.168	-0.247	0.003
-205.406	42.438	0.158	0.142
-204.392	230.397	0.089	-0.143
-203.377	-135.893	-0.041	0.005
-202.363	-200.000	-0.066	0.297
-201.348	-2.162	0.376	-0.259
-200.333	-79.020	0.336	0.112
-199.319	-173.307	-0.106	-0.003
-198.304	-166.321	-0.132	0.005
-197.290	-121.930	0.248	0.040
-196.275	800.000	0.063	-0.180
-195.260	-200.000	-0.013	0.140
-194.246	7.385	0.124	-0.091
-193.231	-200.000	-0.066	-0.292
-192.217	-92.421	0.371	-0.102
-191.202	144.992	-0.090	0.118
-190.187	-128.076	0.160	-0.023
-189.173	-43.780	-0.194	0.096
-188.158	76.003	-0.204	0.212
-187.144	-20.048	-0.238	-0.144
-186.129	18.307	-0.294	-0.230
-185.114	-33.730	0.180	-0.097
-184.100	800.000	0.035	0.146
-183.085	-200.000	-0.035	-0.247
-182.071	-55.162	0.138	0.061
-181.056	800.000	-0.091	-0.324
-180.042	449.634	0.080	-0.173
-179.027	58.132	-0.246	-0.236
-178.012	61.431	0.364	0.355
-176.998	83.656	0.337	0.361
-175.983	-78.998	-0.252	-0.084
-174.969	800.000	-0.041	-0.150
-173.954	390.235	-0.102	-0.208
-172.939	-109.058	0.281	-0.059
-171.925	350.468	0.062	-0.120
-170.910	800.000	-0.075	0.267
-169.896	800.000	-0.107	0.367
-168.881	25.083	-0.158	0.129
-167.866	4.660	0.207	-0.149
-166.852	-123.764	0.307	0.048
-165.837	327.045	0.072	-0.135
-164.823	12.504	-0.007	0.005
-163.808	-200.000	-0.033	-0.172
-162.793	800.000	0.047	-0.144
-161.779	8.158	0.062	0.046
-160.764	786.040	0.001	0.004
-159.750	-54.913	-0.126	0.056
-158.735	-36.807	-0.263	-0.139
-157.720	-86.074	0.183	-0.056
-156.706	-170.464	0.354	0.012
-155.691	-36.222	0.087	-0.046
-154.677	-72.091	0.332	0.121
-153.662	-37.304	-0.202	-0.106
-152.647	-193.614	0.395	-0.003
-151.633	705.979	-0.106	0.276
-150.618	-200.000	0.013	-0.063
-149.604	204.492	-0.248	0.377
-148.589	414.409	0.018	0.038
-147.574	-92.204	0.056	0.016
-146.560	29.752	0.178	0.149
-145.545	-200.000	0.035	0.308
-144.531	-9.877	0.279	0.182
-143.516	-160.699	0.206	-0.011
-142.502	800.000	0.072	0.258
-141.487	-101.158	-0.264	-0.063
-140.472	-200.000	0.049	-0.323
-139.458	-200.000	0.005	-0.046
-138.443	-200.000	0.026	0.120
-137.429	-200.000	0.020	-0.145
-136.414	316.925	0.161	0.299
-135.399	800.000	-0.076	-0.246
-134.385	-14.181	0.374	0.236
-133.370	-71.771	-0.036	-0.013
-132.356	-5.470	0.181	-0.122
-131.341	-124.802	0.171	-0.026
-130.326	-24.231	-0.279	0.163
-129.312	317.362	-0.133	-0.246
-128.297	-200.000	0.023	0.160
-127.283	154.587	0.107	0.144
-126.268	-158.767	0.371	-0.021
-125.253	-136.613	-0.101	0.011
-124.239	-37.523	0.196	-0.102
-123.224	560.117	0.174	0.412
-122.210	-48.960	0.108	0.051
-121.195	-200.000	0.005	0.053
