DTS Sentinel unit serial number:	SN413079Multiplexer serial number:	ORYXHardware model number:	OX4-SRSoftware version number:	ORYX F/W v4.00 Oryx Data Collector v3.7.2.0data status	okinstallation	princeton_trtdifferential loss correction	single-endedforward channel	channel 2reverse channel	N/Adate	2019/09/16time	23:43:35forward acquisition time	60.00reverse acquisition time	0.00gamma	496.2192k internal	0.2330k external	0.2330temperature offset calibration	0.9973default loss term (dB/km)	0.3790temperature slope calibration	1.0000multiplexer offset coefficient	1.0000multiplexer slope coefficient	1.0000fibre end	0.00T internal ref (°C)	29.69T ext. ref 1 (°C)	0.08T ext. ref 2 (°C)	23.75length (m)	temperature (°C)	Stokes	anti-Stokes-747.200	401.585	0.130	-0.274
-746.185	153.739	-0.145	0.200
-745.171	299.696	0.191	-0.354
-744.156	21.999	0.277	0.228
-743.142	-140.495	0.347	-0.036
-742.127	800.000	-0.071	-0.264
-741.112	800.000	-0.062	-0.209
-740.098	65.242	-0.161	0.163
-739.083	-200.000	0.040	-0.413
-738.069	-6.820	0.068	-0.047
-737.054	-73.318	-0.348	-0.128
-736.039	-37.184	-0.097	-0.052
-735.025	-32.867	0.359	0.201
-734.010	339.419	-0.012	0.023
-732.996	-50.336	-0.203	-0.097
-731.981	91.908	-0.295	-0.335
-730.966	-73.916	-0.146	0.053
-729.952	220.216	0.054	-0.087
-728.937	328.525	-0.101	-0.195
-727.923	-200.000	0.001	0.255
-726.908	-10.632	-0.076	0.050
-725.894	-19.809	-0.356	0.221
-724.879	800.000	-0.173	0.765
-723.864	-200.000	-0.019	-0.138
-722.850	-127.213	-0.166	0.024
-721.835	133.541	0.100	0.130
-720.821	214.866	-0.154	-0.246
-719.806	66.487	0.153	-0.156
-718.791	-120.628	-0.363	-0.062
-717.777	739.235	0.129	0.349
-716.762	-200.000	0.001	-0.203
-715.748	-59.119	0.129	0.056
-714.733	-200.000	-0.036	0.250
-713.718	-200.000	-0.002	-0.344
-712.704	620.349	-0.097	-0.246
-711.689	-125.539	-0.236	-0.036
-710.675	4.353	0.179	-0.132
-709.660	-61.423	-0.076	-0.032
-708.645	150.435	0.148	0.203
-707.631	-155.977	0.179	-0.011
-706.616	9.046	-0.309	0.235
-705.602	8.496	0.069	-0.052
-704.587	303.162	0.029	-0.055
-703.572	-200.000	0.034	0.419
-702.558	800.000	-0.060	-0.178
-701.543	-97.305	0.245	0.064
-700.529	-35.363	-0.140	0.077
-699.514	-103.668	0.015	-0.004
-698.499	-135.743	-0.080	0.009
-697.485	103.624	-0.040	0.047
-696.470	-21.129	-0.286	-0.176
-695.456	335.514	0.207	-0.403
-694.441	148.586	-0.085	0.116
-693.426	17.836	0.303	-0.242
-692.412	800.000	0.082	0.262
-691.397	317.097	-0.240	0.456
-690.383	-8.548	0.124	-0.084
-689.368	77.628	0.357	-0.382
-688.354	-91.688	-0.334	-0.095
-687.339	-200.000	-0.013	-0.199
-686.324	47.490	0.094	-0.088
-685.310	-200.000	-0.060	-0.296
-684.295	64.143	-0.058	-0.059
-683.281	21.693	-0.047	-0.038
-682.266	-200.000	-0.002	-0.148
-681.251	-200.000	-0.025	0.113
-680.237	20.692	-0.120	-0.097
-679.222	-62.873	0.164	0.068
-678.208	800.000	0.084	-0.236
-677.193	-22.228	0.127	-0.078
-676.178	-36.563	-0.361	0.195
-675.164	-167.899	0.380	-0.015
-674.149	-200.000	-0.036	-0.325
-673.135	-200.000	0.011	-0.171
-672.120	19.991	0.315	0.255
-671.105	240.268	0.192	0.322
-670.091	10.876	-0.391	0.300
-669.076	-200.000	-0.033	0.198
-668.062	800.000	-0.144	0.433
-667.047	-0.796	-0.245	-0.174
-666.032	107.021	0.245	0.292
-665.018	-185.693	-0.374	0.006
-664.003	323.068	-0.005	0.009
-662.989	-44.996	-0.212	-0.106
-661.974	-171.908	0.259	-0.008
-660.959	-44.320	-0.033	-0.017
-659.945	694.804	-0.094	0.247
-658.930	109.932	0.167	0.201
-657.916	84.237	-0.348	-0.381
-656.901	-110.076	0.426	0.089
-655.886	-200.000	0.032	0.189
-654.872	150.648	-0.140	-0.191
-653.857	452.844	-0.023	0.051
-652.843	-38.131	-0.305	0.162
-651.828	38.447	-0.182	-0.163
-650.814	-64.595	-0.138	0.056
-649.799	-200.000	-0.020	0.247
-648.784	-84.331	-0.138	0.044
-647.770	-200.000	-0.001	-0.059
-646.755	772.519	0.142	-0.388
-645.741	800.000	0.084	0.251
-644.726	457.117	0.100	-0.223
-643.711	800.000	-0.025	-0.082
-642.697	800.000	0.023	-0.065
-641.682	76.376	-0.233	-0.247
-640.668	787.959	-0.029	0.079
-639.653	24.859	0.373	-0.310
-638.638	71.032	-0.130	-0.135
-637.624	-200.000	0.035	0.261
-636.609	55.880	-0.144	-0.140
-635.595	-200.000	-0.068	-0.311
-634.580	800.000	-0.072	0.210
-633.565	-44.621	-0.149	0.075
-632.551	800.000	-0.058	-0.176
-631.536	800.000	-0.044	0.172
-630.522	-200.000	0.024	0.227
-629.507	-36.891	-0.315	-0.170
-628.492	-135.671	-0.149	0.018
-627.478	49.908	0.114	-0.108
-626.463	-165.600	0.064	-0.003
-625.449	-137.594	-0.144	0.016
-624.434	-91.749	0.213	0.061
-623.419	-34.405	0.342	-0.188
-622.405	800.000	0.098	0.391
-621.390	-0.488	-0.118	0.084
-620.376	376.966	0.146	0.299
-619.361	-127.534	0.080	-0.012
-618.346	145.717	0.063	0.085
-617.332	-80.159	0.260	-0.087
-616.317	131.528	0.145	-0.187
-615.303	13.103	0.049	0.038
-614.288	37.983	-0.157	0.140
-613.273	800.000	-0.078	0.333
-612.259	111.376	-0.160	0.193
-611.244	-200.000	0.003	-0.133
-610.230	800.000	0.027	0.113
-609.215	-109.203	0.170	0.036
-608.201	-72.533	0.111	-0.041
-607.186	168.294	-0.145	0.206
-606.171	800.000	0.060	0.212
-605.157	-194.759	-0.344	-0.003
-604.142	644.983	-0.052	-0.132
-603.128	-105.501	0.106	0.024
-602.113	-200.000	0.058	-0.303
-601.098	52.538	-0.064	0.061
-600.084	41.320	-0.150	0.136
-599.069	-95.081	0.204	-0.055
-598.055	295.491	-0.249	-0.457
-597.040	-105.690	0.250	-0.057
-596.025	-91.684	-0.255	0.073
-595.011	44.147	0.056	-0.052
-593.996	-14.904	0.146	-0.094
-592.982	-156.088	-0.342	0.022
-591.967	-152.947	-0.429	0.030
-590.952	-73.057	-0.231	0.085
-589.938	-127.627	-0.570	-0.083
-588.923	140.913	0.099	-0.131
-587.909	-157.520	-0.225	0.014
-586.894	-53.192	0.192	-0.088
-585.879	-29.262	0.087	0.050
-584.865	-144.112	0.249	-0.023
-583.850	361.212	0.135	0.270
-582.836	800.000	0.110	0.343
-581.821	46.148	0.186	-0.172
-580.806	800.000	0.033	-0.105
-579.792	-200.000	-0.019	-0.193
-578.777	65.670	-0.168	-0.170
-577.763	-111.741	-0.089	0.018
-576.748	-4.795	0.253	-0.175
-575.733	-38.990	0.194	0.102
-574.719	730.276	-0.150	0.400
-573.704	119.495	-0.353	-0.437
-572.690	-12.081	0.094	-0.062
-571.675	-53.536	-0.148	-0.068
-570.661	-112.136	0.067	-0.014
-569.646	800.000	-0.070	-0.203
-568.631	-138.207	0.201	0.022
-567.617	-200.000	-0.008	-0.204
-566.602	-200.000	0.033	0.168
-565.588	-36.346	0.297	-0.160
-564.573	-200.000	0.040	-0.390
-563.558	244.504	0.175	-0.295
-562.544	540.524	-0.125	-0.298
-561.529	-174.364	-0.114	0.003
-560.515	-57.706	0.104	-0.045
-559.500	79.530	0.178	-0.191
-558.485	-200.000	0.017	-0.293
-557.471	-84.647	0.312	-0.098
-556.456	-200.000	-0.014	-0.245
-555.442	-118.375	-0.211	-0.037
-554.427	281.796	-0.053	-0.095
-553.412	-65.387	-0.246	0.099
-552.398	-16.049	0.193	-0.123
-551.383	-200.000	0.012	0.182
-550.369	-189.098	-0.160	0.002
-549.354	-136.273	0.279	-0.032
-548.339	55.074	0.156	-0.150
-547.325	-200.000	0.034	0.213
-546.310	-79.636	0.192	0.065
-545.296	206.042	-0.097	-0.151
-544.281	-113.880	0.137	0.027
-543.266	-200.000	0.011	0.237
-542.252	200.268	0.186	0.285
-541.237	-133.515	-0.118	-0.015
-540.223	119.325	-0.165	-0.204
-539.208	-27.378	0.157	0.091
-538.193	-106.030	0.240	-0.054
-537.179	-39.055	0.130	0.068
-536.164	-77.099	0.180	0.063
-535.150	-200.000	-0.027	0.130
-534.135	-102.806	0.096	-0.023
-533.121	28.122	-0.159	-0.134
-532.106	-151.414	-0.200	0.015
-531.091	104.192	-0.173	-0.203
-530.077	-82.277	-0.045	-0.015
-529.062	622.030	0.151	0.380
-528.048	-26.713	0.372	0.217
-527.033	-1.945	-0.186	0.131
-526.018	34.808	-0.204	-0.178
-525.004	-200.000	0.014	-0.111
-523.989	22.477	-0.286	0.233
-522.975	-200.000	-0.069	0.388
-521.960	-200.000	0.006	-0.054
-520.945	-200.000	-0.006	0.390
-519.931	800.000	-0.118	0.325
-518.916	-159.499	-0.070	0.004
-517.902	-200.000	-0.030	-0.133
-516.887	56.853	0.153	-0.149
-515.872	-200.000	-0.002	-0.073
-514.858	381.896	0.036	0.073
-513.843	153.177	0.158	0.216
-512.829	-152.383	0.097	0.007
-511.814	-38.250	0.177	0.093
-510.799	547.285	-0.093	0.221
-509.785	-157.292	-0.529	-0.032
-508.770	-49.801	-0.104	0.049
-507.756	20.010	-0.073	-0.059
-506.741	95.873	-0.164	0.186
-505.726	-26.956	0.370	0.216
-504.712	229.479	-0.096	0.156
-503.697	-164.740	0.156	-0.007
-502.683	84.958	-0.367	-0.402
-501.668	-96.305	-0.111	-0.029
-500.653	-145.083	-0.196	-0.018
-499.639	-111.302	0.123	-0.025
-498.624	13.475	0.191	0.148
-497.610	-200.000	0.078	0.353
-496.595	435.331	-0.225	0.487
-495.581	-162.960	0.252	-0.012
-494.566	85.485	0.052	0.057
-493.551	20.791	-0.157	0.127
-492.537	91.021	-0.256	0.286
-491.522	-200.000	0.012	0.143
-490.508	-46.144	0.219	-0.107
-489.493	-153.077	0.148	0.010
-488.478	148.381	-0.070	0.094
-487.464	3.016	0.209	-0.151
-486.449	238.706	0.092	0.152
-485.435	-74.707	-0.327	-0.117
-484.420	-140.754	0.186	-0.019
-483.405	531.542	-0.077	-0.182
-482.391	456.443	-0.119	-0.263
-481.376	-97.599	-0.378	0.098
-480.362	-200.000	-0.041	-0.234
-479.347	800.000	-0.016	-0.064
-478.332	-148.037	0.258	-0.021
-477.318	-200.000	-0.038	-0.170
-476.303	-200.000	0.010	-0.216
-475.289	-6.312	0.223	-0.151
-474.274	-102.603	0.258	-0.061
-473.259	-24.053	-0.445	0.265
-472.245	-67.539	0.053	-0.021
-471.230	-110.547	-0.086	0.018
-470.216	-116.946	0.374	0.068
-469.201	-200.000	0.065	0.338
-468.186	-11.178	-0.064	0.042
-467.172	-200.000	0.011	0.102
-466.157	-200.000	-0.042	0.300
-465.143	30.219	0.209	-0.178
-464.128	-54.748	-0.381	-0.171
-463.113	299.429	0.089	-0.163
-462.099	-3.660	0.333	-0.231
-461.084	-68.840	0.304	0.117
-460.070	-99.621	-0.286	-0.072
-459.055	-95.296	-0.346	0.093
-458.040	-111.967	-0.290	-0.058
-457.026	800.000	-0.066	0.207
-456.011	-118.924	-0.256	-0.045
-454.997	-25.331	0.247	-0.146
-453.982	-167.754	-0.200	-0.008
-452.968	40.587	-0.109	-0.098
-451.953	800.000	0.117	-0.380
-450.938	59.644	0.141	-0.139
-449.924	117.680	0.059	0.072
-448.909	800.000	0.018	-0.069
-447.895	-200.000	0.007	0.098
-446.880	-200.000	0.020	0.258
-445.865	257.098	0.081	-0.139
-444.851	-13.025	-0.118	0.076
-443.836	-10.147	-0.260	0.172
-442.822	332.930	-0.055	-0.106
-441.807	-92.266	-0.149	-0.042
-440.792	67.257	-0.199	0.202
-439.778	800.000	-0.057	-0.191
-438.763	303.877	0.183	-0.338
-437.749	292.461	-0.066	0.120
-436.734	29.439	-0.211	0.178
-435.719	-0.363	0.196	-0.138
-434.705	182.107	0.088	0.130
-433.690	223.089	0.155	-0.249
-432.676	-114.768	-0.173	-0.033
-431.661	14.328	-0.233	0.181
-430.646	-70.684	0.261	-0.098
-429.632	90.268	-0.128	-0.143
-428.617	-44.259	0.333	-0.166
-427.603	193.688	-0.075	0.113
-426.588	96.845	-0.089	-0.102
-425.573	415.654	0.136	-0.288
-424.559	-82.294	0.285	0.092
-423.544	-103.010	0.200	0.047
-422.530	185.992	-0.155	0.230
-421.515	-200.000	-0.002	-0.113
-420.500	-200.000	-0.210	-0.001
-419.486	800.000	0.080	-0.222
-418.471	800.000	0.034	0.144
-417.457	20.275	0.317	-0.254
-416.442	1.331	0.201	-0.143
-415.428	-171.808	0.146	0.005
-414.413	-33.207	-0.178	0.098
-413.398	243.862	-0.084	0.140
-412.384	5.033	-0.153	-0.112
-411.369	-92.497	-0.041	0.012
-410.355	-120.706	-0.082	0.014
-409.340	62.187	-0.061	0.061
-408.325	720.367	-0.144	-0.380
-407.311	171.027	0.100	0.143
-406.296	-4.157	-0.143	-0.099
-405.282	1.091	-0.070	0.050
-404.267	661.802	0.050	0.127
-403.252	52.423	0.125	0.118
-402.238	-200.000	0.001	-0.007
-401.223	336.930	0.051	0.098
-400.209	-14.844	0.119	-0.076
-399.194	93.710	-0.329	-0.370
-398.179	800.000	-0.092	0.287
-397.165	-200.000	0.011	-0.082
-396.150	-200.000	-0.057	-0.263
-395.136	800.000	-0.066	0.218
-394.121	253.714	0.119	-0.202
-393.106	51.326	-0.265	-0.250
-392.092	-200.000	0.016	0.144
-391.077	-200.000	0.011	0.256
-390.063	800.000	0.081	0.340
-389.048	800.000	-0.020	-0.060
-388.033	51.972	-0.230	0.217
-387.019	-187.301	-0.121	-0.002
-386.004	-96.739	0.077	0.020
-384.990	41.521	0.227	-0.204
-383.975	73.162	-0.215	-0.223
-382.960	-34.943	0.073	-0.040
-381.946	469.841	-0.056	-0.125
-380.931	-200.000	-0.039	-0.187
-379.917	52.619	-0.106	-0.100
-378.902	-200.000	0.015	-0.172
-377.888	14.802	0.073	-0.057
-376.873	-114.873	0.330	0.062
-375.858	-34.778	0.112	-0.061
-374.844	173.431	0.289	0.414
-373.829	185.712	0.270	-0.398
-372.815	-109.346	0.394	-0.083
-371.800	310.771	0.015	-0.028
-370.785	800.000	0.036	0.118
-369.771	-200.000	-0.018	0.154
-368.756	46.267	-0.132	0.121
-367.742	-174.417	-0.181	0.005
-366.727	-200.000	0.027	-0.154
-365.712	800.000	0.059	-0.178
-364.698	-43.423	0.020	-0.010
-363.683	-39.890	-0.302	-0.157
-362.669	34.117	-0.128	0.110
-361.654	33.922	-0.234	-0.202
-360.639	-132.545	0.126	-0.016
-359.625	-146.563	0.396	-0.034
-358.610	215.730	-0.157	0.247
-357.596	-125.011	-0.299	0.046
-356.581	-200.000	-0.039	0.178
-355.566	-158.873	-0.308	-0.017
-354.552	-200.000	-0.016	0.203
-353.537	-111.228	-0.405	0.082
-352.523	800.000	0.112	-0.351
-351.508	186.079	0.060	-0.088
-350.493	-161.700	0.261	-0.013
-349.479	-24.704	0.063	0.037
-348.464	-13.529	0.170	0.109
-347.450	-200.000	-0.003	0.478
-346.435	-200.000	-0.055	-0.264
-345.420	274.300	0.158	0.278
-344.406	-200.000	0.002	0.208
-343.391	-57.496	0.144	-0.063
-342.377	541.361	-0.133	-0.314
-341.362	512.546	-0.177	-0.409
-340.348	-43.679	0.149	-0.074
-339.333	-121.180	-0.187	-0.031
-338.318	244.659	-0.132	0.220
-337.304	92.517	0.089	0.099
-336.289	166.790	0.125	-0.176
-335.275	-49.680	-0.081	0.038
-334.260	54.859	0.077	-0.074
-333.245	-200.000	-0.039	-0.218
-332.231	-200.000	0.064	0.585
-331.216	207.412	0.065	-0.101
-330.202	-129.850	0.275	0.037
-329.187	800.000	0.121	0.343
-328.172	-77.954	0.052	0.018
-327.158	416.932	-0.031	0.066
-326.143	800.000	0.070	0.247
-325.129	165.206	0.102	0.142
-324.114	-84.091	-0.348	0.110
-323.099	107.462	0.142	0.167
-322.085	800.000	-0.047	-0.195
-321.070	800.000	0.118	-0.389
-320.056	113.888	0.154	0.185
-319.041	-92.899	-0.321	-0.089
-318.026	98.915	-0.043	0.049
-317.012	232.482	-0.085	0.139
-315.997	33.181	-0.079	0.068
-314.983	800.000	-0.082	0.288
-313.968	25.547	-0.185	0.152
-312.953	-200.000	-0.002	0.098
-311.939	658.667	-0.120	-0.305
-310.924	-109.388	0.208	0.044
-309.910	-122.940	0.086	-0.014
-308.895	-200.000	0.025	-0.179
-307.880	443.848	-0.094	-0.205
-306.866	800.000	-0.046	-0.159
-305.851	702.008	0.052	-0.136
-304.837	-82.816	-0.171	-0.055
-303.822	16.849	0.377	-0.295
-302.807	675.214	-0.041	0.105
-301.793	-200.000	-0.038	-0.341
-300.778	179.745	0.142	0.206
-299.764	-200.000	-0.066	0.340
-298.749	199.201	-0.099	0.151
-297.735	-36.050	-0.146	-0.078
-296.720	176.608	0.184	-0.265
-295.705	800.000	-0.028	0.078
-294.691	-200.000	0.012	-0.289
-293.676	-200.000	-0.012	-0.232
-292.662	-200.000	-0.054	-0.250
-291.647	27.514	0.289	-0.240
-290.632	-129.400	-0.262	-0.036
-289.618	-32.689	0.185	0.102
-288.603	234.397	-0.140	-0.228
-287.589	357.964	0.034	0.068
-286.574	136.895	-0.171	0.221
-285.559	800.000	0.103	-0.373
-284.545	75.712	-0.059	0.062
-283.530	78.385	-0.130	0.138
-282.516	165.227	-0.130	0.181
-281.501	34.298	0.036	-0.031
-280.486	50.959	0.185	-0.173
-279.472	344.776	-0.106	0.205
-278.457	-31.794	0.292	0.162
-277.443	-200.000	0.020	0.128
-276.428	-107.833	0.327	-0.071
-275.413	-31.710	-0.098	-0.054
-274.399	60.362	-0.234	0.229
-273.384	716.885	0.153	0.401
-272.370	-44.306	0.104	0.051
-271.355	800.000	0.091	0.378
-270.340	-200.000	0.007	0.171
-269.326	-200.000	0.045	-0.271
-268.311	-200.000	0.057	0.382
-267.297	-9.058	-0.197	-0.130
-266.282	-200.000	0.015	0.133
-265.267	17.917	0.083	-0.065
-264.253	-165.534	-0.069	0.003
-263.238	0.059	-0.176	-0.124
-262.224	-85.337	0.184	-0.057
-261.209	126.995	0.093	-0.117
-260.195	-101.129	0.288	-0.070
-259.180	-99.245	0.106	0.027
-258.165	-200.000	0.008	0.195
-257.151	70.972	-0.079	0.080
-256.136	146.064	-0.099	-0.131
-255.122	126.424	0.029	-0.037
-254.107	800.000	0.040	0.121
-253.092	26.862	-0.098	-0.081
-252.078	-61.730	-0.133	-0.055
-251.063	-94.084	-0.243	0.066
-250.049	88.637	-0.114	-0.125
-249.034	-63.869	-0.333	-0.134
-248.019	-86.350	0.036	0.011
-247.005	61.442	0.178	0.174
-245.990	-103.868	-0.224	0.052
-244.976	-11.833	-0.126	0.082
-243.961	-16.882	-0.063	0.039
-242.946	22.261	-0.119	-0.096
-241.932	389.276	-0.187	-0.382
-240.917	-200.000	-0.043	-0.317
-239.903	-200.000	0.000	-0.253
-238.888	-67.332	-0.321	0.125
-237.873	15.804	0.183	0.142
-236.859	-200.000	-0.040	0.329
-235.844	76.321	-0.081	0.085
-234.830	201.653	0.108	0.164
-233.815	800.000	0.069	-0.246
-232.800	-200.000	0.008	0.083
-231.786	800.000	0.055	0.186
-230.771	-200.000	0.063	0.328
-229.757	-200.000	-0.042	0.577
-228.742	-105.927	-0.128	0.029
-227.727	710.953	-0.111	-0.290
-226.713	-162.567	-0.104	0.005
-225.698	-200.000	0.067	0.335
-224.684	-154.428	0.213	-0.014
-223.669	221.027	-0.176	-0.280
-222.655	-37.256	-0.021	0.011
-221.640	-44.561	-0.121	0.060
-220.625	-133.203	0.052	0.007
-219.611	-200.000	-0.032	0.250
-218.596	-200.000	0.029	-0.177
-217.582	44.479	0.092	0.084
-216.567	-88.440	0.133	0.039
-215.552	162.291	0.129	0.178
-214.538	114.248	0.225	-0.270
-213.523	-200.000	0.040	0.374
-212.509	-14.865	0.315	0.200
-211.494	41.962	0.192	0.172
-210.479	-27.422	-0.149	-0.085
-209.465	552.078	-0.149	-0.353
-208.450	-30.693	0.260	-0.145
-207.436	-200.000	0.011	-0.201
-206.421	91.388	-0.101	0.112
-205.406	-40.814	0.142	-0.072
-204.392	-200.000	0.002	0.031
-203.377	696.237	-0.040	0.103
-202.363	-200.000	-0.019	-0.412
-201.348	-44.849	-0.140	0.069
-200.333	-43.303	-0.387	-0.193
-199.319	72.246	0.137	0.140
-198.304	800.000	0.046	-0.173
-197.290	12.726	0.377	-0.287
-196.275	5.926	-0.270	0.197
-195.260	800.000	-0.056	0.181
-194.246	800.000	0.055	-0.159
-193.231	127.831	0.112	-0.140
-192.217	205.284	0.287	0.440
-191.202	154.048	-0.221	0.298
-190.187	-86.346	-0.228	0.069
-189.173	-148.417	-0.406	-0.033
-188.158	699.351	0.097	0.250
-187.144	224.905	0.045	-0.072
-186.129	5.041	-0.220	0.160
-185.114	-97.632	0.117	-0.030
-184.100	255.327	0.120	0.202
-183.085	147.400	0.069	-0.091
-182.071	-189.451	0.298	0.003
-181.056	148.057	0.194	-0.258
-180.042	-152.182	0.395	-0.028
-179.027	58.431	-0.234	0.226
-178.012	-200.000	0.015	-0.138
-176.998	800.000	-0.087	-0.308
-175.983	800.000	-0.032	-0.121
-174.969	-200.000	-0.057	0.360
-173.954	-174.513	-0.500	-0.014
-172.939	-159.611	0.253	0.014
-171.925	-200.000	-0.020	0.293
-170.910	11.852	0.143	0.108
-169.896	126.873	0.184	0.230
-168.881	-200.000	-0.057	0.281
-167.866	-200.000	0.017	-0.140
-166.852	800.000	0.128	-0.407
-165.837	-145.812	0.120	0.011
-164.823	78.032	-0.149	-0.157
-163.808	64.477	0.138	0.137
-162.793	800.000	-0.046	0.187
-161.779	298.449	0.027	-0.048
-160.764	-200.000	0.009	-0.049
-159.750	-46.899	0.176	-0.084
-158.735	800.000	0.027	-0.099
-157.720	800.000	-0.051	-0.167
-156.706	137.285	-0.078	-0.101
-155.691	-118.791	0.420	0.073
-154.677	-117.115	-0.135	-0.024
-153.662	263.405	0.041	-0.071
-152.647	-200.000	0.002	-0.241
-151.633	51.646	0.049	0.046
-150.618	256.543	-0.153	0.258
-149.604	-36.496	0.526	0.278
-148.589	-92.218	-0.370	-0.103
-147.574	800.000	-0.033	0.100
-146.560	-200.000	0.074	-0.442
-145.545	-112.478	0.292	-0.057
-144.531	-200.000	-0.039	-0.272
-143.516	-200.000	-0.009	-0.479
-142.502	-25.502	0.283	0.165
-141.487	335.600	-0.138	0.263
-140.472	281.098	0.186	0.328
-139.458	59.450	0.138	-0.134
-138.443	156.644	-0.254	-0.345
-137.429	86.772	0.096	-0.104
-136.414	37.596	0.179	0.156
-135.399	304.949	0.066	0.120
-134.385	-195.292	0.184	-0.001
-133.370	800.000	0.046	-0.149
-132.356	800.000	-0.013	-0.044
-131.341	236.631	0.112	0.182
-130.326	-103.986	0.264	-0.061
-129.312	-6.835	0.123	0.082
-128.297	13.781	0.289	0.221
-127.283	295.739	0.078	-0.141
-126.268	217.201	0.062	0.098
-125.253	-200.000	0.024	0.221
-124.239	-64.366	0.279	-0.111
-123.224	-94.873	-0.273	0.073
-122.210	530.655	0.121	0.281
-121.195	-200.000	-0.000	0.218
