DTS Sentinel unit serial number:	SN413079Multiplexer serial number:	ORYXHardware model number:	OX4-SRSoftware version number:	ORYX F/W v4.00 Oryx Data Collector v3.7.2.0data status	okinstallation	princeton_trtdifferential loss correction	single-endedforward channel	channel 2reverse channel	N/Adate	2019/09/13time	11:51:34forward acquisition time	60.00reverse acquisition time	0.00gamma	496.2192k internal	0.2317k external	0.2317temperature offset calibration	1.0214default loss term (dB/km)	0.3790temperature slope calibration	1.0000multiplexer offset coefficient	1.0000multiplexer slope coefficient	1.0000fibre end	0.00T internal ref (°C)	33.36T ext. ref 1 (°C)	4.56T ext. ref 2 (°C)	30.46length (m)	temperature (°C)	Stokes	anti-Stokes-747.200	349.119	0.096	0.192
-746.185	34.174	-0.066	-0.058
-745.171	-19.542	-0.093	-0.058
-744.156	556.614	-0.112	0.274
-743.142	-35.989	0.175	-0.096
-742.127	-52.276	-0.133	0.062
-741.112	-70.991	0.261	-0.099
-740.098	-200.000	0.000	0.245
-739.083	-200.000	-0.033	-0.196
-738.069	-14.026	0.054	-0.035
-737.054	-90.940	-0.258	-0.075
-736.039	-78.942	-0.150	0.052
-735.025	-200.000	-0.021	0.145
-734.010	4.993	0.209	0.156
-732.996	76.872	0.261	-0.280
-731.981	385.677	-0.184	-0.384
-730.966	-187.106	0.106	-0.001
-729.952	-45.960	0.159	0.080
-728.937	-85.230	-0.202	0.064
-727.923	64.145	0.028	-0.029
-726.908	138.959	0.033	0.044
-725.894	375.119	0.085	0.176
-724.879	614.854	-0.018	0.046
-723.864	-148.727	0.181	0.015
-722.850	117.745	-0.179	-0.223
-721.835	97.947	-0.138	-0.161
-720.821	332.724	0.175	-0.342
-719.806	800.000	0.092	0.269
-718.791	-25.107	0.150	-0.090
-717.777	-100.222	-0.265	-0.067
-716.762	800.000	0.086	0.356
-715.748	44.607	0.150	0.139
-714.733	-166.133	0.127	-0.005
-713.718	800.000	0.036	0.132
-712.704	-67.931	-0.044	0.017
-711.689	-61.274	-0.306	0.130
-710.675	800.000	0.050	-0.154
-709.660	204.920	0.108	-0.169
-708.645	309.367	-0.091	0.171
-707.631	-63.558	-0.323	-0.134
-706.616	494.197	-0.121	0.281
-705.602	426.183	-0.036	0.079
-704.587	206.947	0.125	-0.197
-703.572	586.185	0.076	0.190
-702.558	302.235	-0.228	-0.427
-701.543	-7.008	-0.082	-0.056
-700.529	210.143	0.026	-0.041
-699.514	184.336	0.085	-0.128
-698.499	800.000	-0.035	-0.109
-697.485	-18.205	-0.227	0.144
-696.470	4.732	0.305	0.227
-695.456	2.353	-0.160	-0.117
-694.441	-140.988	-0.222	-0.023
-693.426	307.860	0.050	-0.094
-692.412	-85.477	-0.188	0.059
-691.397	86.584	0.076	-0.084
-690.383	348.049	-0.182	0.362
-689.368	28.362	0.178	-0.152
-688.354	747.577	-0.107	-0.290
-687.339	-200.000	-0.013	0.136
-686.324	-111.074	0.081	0.017
-685.310	-13.355	0.043	0.028
-684.295	182.781	-0.036	-0.054
-683.281	90.378	0.122	-0.138
-682.266	604.307	0.035	0.088
-681.251	46.883	0.256	-0.240
-680.237	-200.000	0.019	-0.086
-679.222	-200.000	-0.047	-0.211
-678.208	-83.617	-0.224	0.072
-677.193	-22.810	0.318	0.194
-676.178	-150.732	-0.296	0.023
-675.164	-156.840	0.217	-0.013
-674.149	-200.000	-0.059	-0.422
-673.135	-130.935	0.134	0.018
-672.120	285.072	-0.305	-0.554
-671.105	165.564	-0.113	-0.162
-670.091	-123.906	-0.228	0.036
-669.076	366.021	0.026	-0.053
-668.062	-139.816	-0.263	-0.028
-667.047	-43.035	-0.203	-0.104
-666.032	650.872	0.065	-0.169
-665.018	-78.309	0.244	-0.085
-664.003	-3.827	-0.095	0.066
-662.989	-37.067	-0.186	-0.101
-661.974	482.719	-0.103	-0.236
-660.959	800.000	0.064	0.203
-659.945	-61.888	0.293	-0.124
-658.930	108.810	-0.145	-0.175
-657.916	-200.000	0.028	-0.491
-656.901	-89.855	-0.181	0.053
-655.886	-36.017	0.155	-0.084
-654.872	-65.512	0.044	0.018
-653.857	-200.000	0.003	0.074
-652.843	800.000	-0.082	0.321
-651.828	45.284	0.102	0.095
-650.814	242.547	-0.157	-0.265
-649.799	87.091	-0.038	-0.043
-648.784	-200.000	0.037	-0.340
-647.770	-15.295	-0.135	-0.087
-646.755	800.000	-0.032	-0.100
-645.741	-0.177	0.278	0.199
-644.726	284.916	-0.188	-0.341
-643.711	396.604	0.209	-0.440
-642.697	-48.884	0.247	-0.119
-641.682	16.454	0.325	-0.259
-640.668	139.655	-0.170	-0.226
-639.653	433.761	0.069	0.151
-638.638	-173.835	0.138	-0.004
-637.624	800.000	0.032	-0.138
-636.609	-95.165	-0.305	0.083
-635.595	142.275	0.050	0.067
-634.580	40.413	0.122	0.111
-633.565	-64.633	-0.114	0.047
-632.551	129.173	-0.195	0.251
-631.536	-56.707	-0.034	-0.015
-630.522	800.000	0.081	0.238
-629.507	159.484	0.172	0.241
-628.492	109.835	0.145	0.175
-627.478	-71.377	-0.041	-0.015
-626.463	100.930	0.147	-0.172
-625.449	396.617	0.031	-0.066
-624.434	-200.000	-0.016	0.151
-623.419	-168.050	0.207	-0.008
-622.405	387.492	0.090	0.188
-621.390	157.583	0.125	-0.175
-620.376	411.846	0.027	-0.057
-619.361	-82.695	0.091	-0.030
-618.346	111.498	-0.294	-0.358
-617.332	102.009	0.065	-0.076
-616.317	-137.173	0.213	0.025
-615.303	3.878	0.145	-0.107
-614.288	-200.000	0.013	-0.073
-613.273	-115.775	-0.170	0.032
-612.259	80.787	-0.297	-0.323
-611.244	277.209	0.151	-0.270
-610.230	43.534	0.141	0.130
-609.215	39.660	-0.155	-0.140
-608.201	85.227	0.277	-0.306
-607.186	690.163	-0.059	-0.156
-606.171	81.656	-0.198	-0.216
-605.157	624.260	0.063	0.160
-604.142	800.000	-0.047	0.195
-603.128	-34.793	0.243	-0.134
-602.113	130.204	0.153	0.198
-601.098	-116.649	-0.202	-0.037
-600.084	800.000	0.050	0.213
-599.069	-33.574	-0.058	0.032
-598.055	-54.722	-0.435	0.198
-597.040	-200.000	0.033	-0.289
-596.025	-30.726	0.164	-0.094
-595.011	-21.632	-0.138	-0.085
-593.996	800.000	0.072	-0.226
-592.982	171.875	0.049	0.071
-591.967	-107.816	-0.113	0.025
-590.952	146.484	0.067	-0.091
-589.938	763.663	-0.080	-0.218
-588.923	76.812	-0.081	0.086
-587.909	-140.015	-0.135	-0.014
-586.894	-48.377	-0.215	0.104
-585.879	38.439	-0.211	0.189
-584.865	-76.728	-0.142	0.050
-583.850	97.191	-0.069	-0.080
-582.836	-200.000	0.020	-0.281
-581.821	-85.872	-0.086	0.027
-580.806	-6.315	-0.183	-0.125
-579.792	152.003	-0.070	0.096
-578.777	-139.651	-0.245	0.026
-577.763	133.425	0.101	0.131
-576.748	-35.670	-0.278	-0.152
-575.733	88.672	0.153	-0.172
-574.719	-200.000	-0.036	0.171
-573.704	800.000	0.059	0.221
-572.690	-12.067	-0.099	0.065
-571.675	800.000	-0.137	0.419
-570.661	-73.541	-0.358	-0.131
-569.646	55.359	0.277	-0.270
-568.631	326.447	-0.114	0.221
-567.617	89.249	0.117	-0.132
-566.602	-200.000	0.084	-0.534
-565.588	-16.842	0.268	-0.171
-564.573	102.232	0.161	0.190
-563.558	95.467	-0.111	0.127
-562.544	10.570	-0.273	0.209
-561.529	265.739	0.154	0.270
-560.515	-176.282	0.163	-0.004
-559.500	-144.911	0.075	0.007
-558.485	379.510	0.063	-0.129
-557.471	-50.654	0.148	-0.070
-556.456	233.393	-0.147	-0.244
-555.442	-200.000	0.013	-0.120
-554.427	-96.299	0.150	-0.040
-553.412	-200.000	0.008	-0.172
-552.398	238.179	0.176	0.293
-551.383	80.057	0.205	-0.222
-550.369	-200.000	-0.005	-0.295
-549.354	-200.000	0.020	-0.180
-548.339	89.146	0.122	-0.136
-547.325	176.116	0.225	0.328
-546.310	131.427	0.053	-0.068
-545.296	70.279	0.086	0.089
-544.281	-0.481	0.218	-0.155
-543.266	113.123	-0.178	0.217
-542.252	-159.660	-0.211	0.012
-541.237	306.701	-0.045	0.084
-540.223	20.209	0.016	0.013
-539.208	-117.042	0.411	0.075
-538.193	-138.068	-0.362	-0.040
-537.179	-61.627	-0.457	-0.193
-536.164	-59.817	0.164	0.070
-535.150	-200.000	0.008	-0.126
-534.135	130.823	0.054	0.070
-533.121	47.623	-0.110	-0.103
-532.106	-200.000	0.122	-0.555
-531.091	-75.892	-0.152	-0.054
-530.077	15.533	0.239	0.189
-529.062	44.080	0.288	0.265
-528.048	302.748	-0.198	-0.367
-527.033	-93.670	0.237	-0.066
-526.018	84.204	0.146	-0.161
-525.004	137.769	-0.164	0.216
-523.989	-29.281	-0.298	-0.172
-522.975	31.714	0.186	-0.160
-521.960	800.000	-0.026	0.073
-520.945	330.399	-0.050	-0.097
-519.931	-76.657	-0.418	-0.147
-518.916	176.388	0.070	0.102
-517.902	31.697	0.385	-0.332
-516.887	608.394	0.035	0.087
-515.872	-200.000	0.013	-0.282
-514.858	59.827	-0.048	-0.048
-513.843	800.000	0.190	0.568
-512.829	-200.000	0.008	-0.109
-511.814	-74.649	-0.242	0.087
-510.799	21.964	0.264	0.216
-509.785	-200.000	0.002	-0.188
-508.770	-155.048	0.189	-0.012
-507.756	254.645	-0.054	0.093
-506.741	-147.804	0.231	-0.019
-505.726	89.290	0.171	0.191
-504.712	-200.000	-0.009	0.405
-503.697	59.307	-0.260	0.257
-502.683	-200.000	0.013	-0.066
-501.668	800.000	-0.066	-0.242
-500.653	299.579	0.138	0.254
-499.639	158.635	0.275	-0.382
-498.624	-141.758	0.220	0.022
-497.610	130.385	0.076	0.097
-496.595	-200.000	-0.005	-0.235
-495.581	-95.034	-0.077	0.021
-494.566	-200.000	-0.000	0.293
-493.551	282.682	-0.175	0.315
-492.537	-200.000	0.042	0.223
-491.522	365.721	0.116	-0.235
-490.508	-42.185	-0.010	-0.005
-489.493	-200.000	0.021	-0.107
-488.478	-19.947	-0.263	-0.163
-487.464	86.060	0.354	0.391
-486.449	-166.670	-0.324	-0.013
-485.435	148.457	0.223	0.302
-484.420	-120.695	0.126	0.021
-483.405	-133.956	0.307	-0.038
-482.391	9.187	0.276	0.209
-481.376	-135.299	0.055	-0.007
-480.362	275.886	-0.118	0.210
-479.347	800.000	0.055	0.190
-478.332	-25.813	0.180	0.107
-477.318	-126.890	-0.420	-0.062
-476.303	-200.000	-0.043	0.193
-475.289	800.000	-0.055	-0.168
-474.274	644.196	-0.177	-0.453
-473.259	152.634	0.187	-0.256
-472.245	-140.905	-0.478	0.049
-471.230	-200.000	0.043	-0.265
-470.216	94.891	0.086	-0.098
-469.201	-3.179	-0.188	0.132
-468.186	-147.409	-0.192	-0.016
-467.172	-89.758	-0.167	0.049
-466.157	274.494	0.134	-0.238
-465.143	81.091	-0.106	0.114
-464.128	800.000	0.081	-0.228
-463.113	-161.782	-0.459	-0.023
-462.099	-9.171	-0.231	0.154
-461.084	210.430	0.114	-0.180
-460.070	-159.578	0.301	-0.017
-459.055	307.702	0.080	-0.150
-458.040	-142.698	0.064	0.006
-457.026	-67.326	-0.149	-0.059
-456.011	-22.284	-0.277	-0.168
-454.997	13.636	-0.224	0.174
-453.982	800.000	-0.073	0.302
-452.968	-42.748	-0.165	0.084
-451.953	47.673	-0.038	-0.036
-450.938	-131.325	-0.319	0.042
-449.924	-86.177	0.124	-0.038
-448.909	1.296	0.182	-0.131
-447.895	-158.754	-0.403	-0.023
-446.880	-146.637	-0.200	0.017
-445.865	-98.829	0.080	0.020
-444.851	-200.000	0.019	0.140
-443.836	169.721	-0.111	-0.159
-442.822	121.403	0.078	-0.097
-441.807	-41.698	0.424	-0.218
-440.792	-200.000	0.011	-0.171
-439.778	-80.471	0.061	0.020
-438.763	-200.000	0.006	0.112
-437.749	116.358	-0.026	0.032
-436.734	800.000	0.051	-0.177
-435.719	-120.207	-0.116	0.020
-434.705	800.000	0.133	0.483
-433.690	-88.428	-0.293	-0.087
-432.676	170.250	0.083	0.118
-431.661	-200.000	0.026	-0.207
-430.646	800.000	-0.047	0.189
-429.632	-63.777	-0.424	-0.174
-428.617	-113.479	0.257	-0.050
-427.603	-133.013	0.208	-0.026
-426.588	593.166	0.097	-0.240
-425.573	-99.496	-0.244	0.061
-424.559	-200.000	-0.021	-0.206
-423.544	-13.789	-0.241	-0.156
-422.530	469.563	0.064	-0.144
-421.515	800.000	0.135	0.590
-420.500	-183.159	-0.329	0.006
-419.486	-30.379	0.151	-0.086
-418.471	146.369	-0.123	-0.165
-417.457	-79.151	-0.107	0.036
-416.442	-72.903	0.265	0.097
-415.428	12.112	0.053	0.041
-414.413	227.648	0.074	-0.121
-413.398	-200.000	0.005	-0.411
-412.384	-38.496	0.125	-0.066
-411.369	-122.469	0.201	-0.033
-410.355	-114.470	-0.414	-0.079
-409.340	41.129	0.195	-0.176
-408.325	-200.000	-0.012	0.220
-407.311	62.353	0.196	0.196
-406.296	-193.074	-0.218	0.002
-405.282	-134.691	0.517	-0.063
-404.267	800.000	-0.056	-0.196
-403.252	125.937	-0.130	-0.164
-402.238	-54.625	0.151	0.068
-401.223	-200.000	0.026	-0.194
-400.209	-62.569	-0.325	-0.135
-399.194	320.671	0.048	0.092
-398.179	336.847	0.151	0.293
-397.165	-2.567	-0.117	-0.082
-396.150	-68.916	0.192	0.074
-395.136	-200.000	0.019	-0.148
-394.121	199.819	0.204	-0.312
-393.106	73.828	-0.132	-0.138
-392.092	528.281	-0.095	0.224
-391.077	-200.000	-0.033	0.174
-390.063	41.338	-0.332	0.300
-389.048	142.150	0.139	0.185
-388.033	-31.103	-0.130	0.073
-387.019	173.296	0.053	0.077
-386.004	576.585	0.093	0.226
-384.990	-126.671	0.490	-0.072
-383.975	437.970	-0.193	0.421
-382.960	-22.613	-0.182	0.110
-381.946	-61.347	0.313	0.131
-380.931	72.420	-0.028	0.029
-379.917	583.929	0.170	0.417
-378.902	-96.052	-0.212	0.056
-377.888	792.386	-0.132	0.363
-376.873	-102.491	-0.059	0.014
-375.858	-200.000	-0.034	0.233
-374.844	-200.000	-0.002	-0.015
-373.829	-200.000	0.004	-0.049
-372.815	-77.314	-0.146	-0.051
-371.800	800.000	-0.024	0.089
-370.785	-113.152	0.116	0.023
-369.771	-18.770	-0.102	0.063
-368.756	75.882	0.081	0.085
-367.742	22.834	0.246	-0.202
-366.727	-39.890	-0.123	0.064
-365.712	-138.616	0.156	0.017
-364.698	-200.000	0.015	0.285
-363.683	-75.795	0.363	0.128
-362.669	-146.871	0.200	-0.017
-361.654	800.000	0.065	-0.260
-360.639	-96.147	-0.257	-0.068
-359.625	182.215	0.091	-0.134
-358.610	296.991	0.136	0.248
-357.596	-31.758	0.160	0.090
-356.581	201.258	0.142	0.218
-355.566	14.480	0.315	-0.245
-354.552	-81.851	0.214	0.070
-353.537	-68.438	-0.312	0.121
-352.523	352.843	0.042	0.082
-351.508	-100.592	0.075	-0.018
-350.493	73.132	0.021	0.022
-349.479	-200.000	0.011	-0.188
-348.464	-200.000	-0.039	0.210
-347.450	146.896	0.048	-0.065
-346.435	465.744	-0.050	-0.112
-345.420	493.556	-0.130	0.297
-344.406	-10.134	0.354	0.234
-343.391	229.013	-0.111	0.180
-342.377	78.561	0.034	0.036
-341.362	4.986	-0.152	0.112
-340.348	368.620	-0.103	0.207
-339.333	427.063	0.097	0.209
-338.318	348.951	0.113	0.222
-337.304	-68.611	-0.213	0.082
-336.289	491.605	-0.106	0.241
-335.275	121.475	-0.014	0.017
-334.260	-200.000	0.062	-0.339
-333.245	49.726	0.211	0.198
-332.231	284.763	0.033	-0.059
-331.216	-77.420	0.152	-0.052
-330.202	-200.000	0.007	-0.241
-329.187	-162.493	-0.216	-0.011
-328.172	175.012	-0.176	0.255
-327.158	254.456	0.111	-0.189
-326.143	-200.000	-0.005	-0.081
-325.129	-6.843	0.182	-0.124
-324.114	-89.458	0.086	0.025
-323.099	800.000	-0.017	0.068
-322.085	585.517	-0.104	0.255
-321.070	76.652	-0.213	0.225
-320.056	358.381	-0.170	-0.339
-319.041	-85.568	0.313	0.097
-318.026	284.470	-0.097	-0.173
-317.012	-54.502	-0.092	0.042
-315.997	800.000	-0.043	-0.187
-314.983	800.000	0.054	0.224
-313.968	-166.834	-0.415	-0.017
-312.953	800.000	0.066	0.263
-311.939	-38.507	0.361	-0.190
-310.924	6.477	0.108	0.080
-309.910	-83.721	-0.133	0.042
-308.895	-39.546	0.152	-0.079
-307.880	-131.791	-0.257	0.034
-306.866	-200.000	-0.014	0.175
-305.851	-154.575	0.303	-0.020
-304.837	-200.000	0.004	-0.104
-303.822	-200.000	-0.025	-0.178
-302.807	-150.842	-0.158	0.012
-301.793	30.472	0.147	0.125
-300.778	4.920	0.176	0.129
-299.764	31.871	-0.213	-0.182
-298.749	-72.809	0.167	0.061
-297.735	-140.869	0.204	-0.021
-296.720	-5.613	-0.043	-0.029
-295.705	418.555	0.044	-0.094
-294.691	698.564	0.110	-0.288
-293.676	509.179	0.129	0.298
-292.662	-74.711	-0.306	0.109
-291.647	48.112	0.103	-0.096
-290.632	-200.000	-0.008	0.201
-289.618	-200.000	0.109	-0.485
-288.603	800.000	0.059	0.257
-287.589	161.316	-0.096	-0.133
-286.574	-3.879	0.246	-0.169
-285.559	6.234	-0.252	0.186
-284.545	-8.507	-0.162	0.108
-283.530	-200.000	-0.014	-0.070
-282.516	-200.000	0.000	0.066
-281.501	664.766	0.097	0.250
-280.486	131.959	-0.138	0.177
-279.472	-81.077	-0.086	-0.028
-278.457	800.000	-0.097	0.342
-277.443	-19.404	0.187	0.116
-276.428	223.280	0.155	-0.249
-275.413	363.362	-0.176	-0.352
-274.399	675.411	-0.056	0.145
-273.384	41.818	-0.013	0.011
-272.370	-200.000	0.018	0.218
-271.355	-200.000	-0.017	0.193
-270.340	70.106	0.155	0.159
-269.326	-200.000	-0.002	0.271
-268.311	183.233	0.256	-0.376
-267.297	-174.204	-0.230	-0.007
-266.282	-68.263	0.244	-0.094
-265.267	-187.567	-0.362	0.005
-264.253	-200.000	-0.066	0.302
-263.238	122.749	-0.146	-0.182
-262.224	-8.696	-0.213	-0.142
-261.209	82.091	0.085	0.091
-260.195	800.000	0.026	0.089
-259.180	-64.679	0.224	-0.090
-258.165	34.577	-0.349	0.303
-257.151	-200.000	0.027	0.121
-256.136	706.210	0.068	-0.178
-255.122	-24.120	-0.280	0.166
-254.107	-103.215	-0.193	0.045
-253.092	-200.000	0.022	-0.169
-252.078	-6.303	0.150	-0.102
-251.063	800.000	0.066	0.182
-250.049	-66.687	0.096	0.038
-249.034	-35.334	0.228	-0.123
-248.019	90.737	-0.120	0.133
-247.005	10.803	-0.036	0.028
-245.990	-32.486	0.419	0.232
-244.976	-200.000	-0.002	0.060
-243.961	214.625	-0.187	0.293
-242.946	800.000	-0.070	-0.209
-241.932	-129.903	-0.466	-0.063
-240.917	640.709	-0.102	-0.257
-239.903	-35.095	0.174	0.094
-238.888	-200.000	0.025	-0.168
-237.873	-157.898	0.056	0.003
-236.859	-127.489	-0.097	0.014
-235.844	-69.627	0.256	0.097
-234.830	-94.037	-0.055	0.015
-233.815	-98.017	-0.227	0.058
-232.800	-200.000	-0.026	-0.200
-231.786	-27.584	0.271	-0.156
-230.771	94.764	0.096	-0.109
-229.757	-43.659	-0.140	-0.070
-228.742	-71.795	-0.184	0.068
-227.727	-200.000	0.013	0.154
-226.713	70.675	-0.235	0.242
-225.698	190.755	-0.082	0.122
-224.684	41.246	0.251	-0.225
-223.669	-47.165	0.206	-0.099
-222.655	479.591	-0.093	0.209
-221.640	-61.550	-0.468	0.195
-220.625	258.657	0.124	0.213
-219.611	-97.678	0.208	0.054
-218.596	385.803	-0.156	-0.319
-217.582	-63.291	0.246	-0.100
-216.567	48.337	-0.116	-0.108
-215.552	17.688	0.182	-0.144
-214.538	-73.146	-0.157	0.057
-213.523	-78.351	-0.341	-0.116
-212.509	-200.000	-0.074	0.405
-211.494	-125.429	-0.134	0.020
-210.479	-200.000	0.011	-0.083
-209.465	30.477	0.113	0.096
-208.450	144.428	0.065	0.086
-207.436	-200.000	0.031	-0.142
-206.421	-200.000	0.034	-0.164
-205.406	231.047	0.160	-0.259
-204.392	-200.000	-0.004	-0.251
-203.377	-129.072	0.116	-0.016
-202.363	140.434	-0.081	-0.106
-201.348	-76.136	-0.263	0.092
-200.333	4.486	-0.185	0.135
-199.319	-28.861	0.164	-0.093
-198.304	-200.000	0.003	0.239
-197.290	-178.003	0.131	-0.003
-196.275	40.184	-0.054	0.048
-195.260	231.606	-0.106	-0.172
-194.246	-103.926	-0.150	-0.035
-193.231	-63.303	-0.562	-0.230
-192.217	101.898	0.080	-0.093
-191.202	800.000	-0.023	-0.080
-190.187	800.000	-0.109	-0.362
-189.173	-84.910	-0.223	0.069
-188.158	-144.768	0.268	0.024
-187.144	-113.114	-0.037	-0.007
-186.129	-92.165	-0.352	-0.099
-185.114	800.000	-0.043	0.167
-184.100	-200.000	-0.011	-0.066
-183.085	-11.206	-0.167	-0.109
-182.071	61.019	0.123	0.121
-181.056	800.000	0.046	-0.193
-180.042	-41.162	0.148	-0.076
-179.027	800.000	-0.127	-0.496
-178.012	33.739	-0.088	-0.076
-176.998	-200.000	0.039	-0.251
-175.983	-200.000	-0.071	0.407
-174.969	234.709	-0.167	0.273
-173.954	-200.000	0.001	-0.023
-172.939	800.000	0.028	0.111
-171.925	800.000	0.047	-0.148
-170.910	56.979	0.130	0.126
-169.896	-138.040	-0.169	-0.019
-168.881	-9.493	-0.096	0.063
-167.866	-21.046	0.226	0.137
-166.852	25.247	0.210	-0.172
-165.837	378.822	-0.089	0.181
-164.823	49.821	-0.104	0.097
-163.808	-200.000	0.058	0.382
-162.793	-101.557	-0.164	-0.039
-161.779	198.177	-0.102	0.154
-160.764	800.000	-0.047	-0.136
-159.750	79.072	-0.125	0.132
-158.735	-63.652	0.123	-0.050
-157.720	-200.000	-0.027	-0.182
-156.706	-200.000	0.010	0.071
-155.691	-21.334	0.171	-0.103
-154.677	-137.545	0.222	0.025
-153.662	409.652	-0.084	-0.176
-152.647	111.405	0.109	-0.130
-151.633	-19.556	0.243	0.149
-150.618	71.958	-0.188	0.193
-149.604	206.904	-0.197	0.304
-148.589	-82.445	0.105	0.034
-147.574	-200.000	-0.008	0.044
-146.560	16.293	-0.154	-0.120
-145.545	-78.834	-0.083	-0.028
-144.531	65.278	0.150	0.150
-143.516	-120.882	0.191	-0.032
-142.502	-138.009	0.307	-0.034
-141.487	-200.000	-0.037	-0.262
-140.472	-180.755	0.023	0.000
-139.458	-120.088	0.148	-0.025
-138.443	-168.502	0.506	-0.019
-137.429	-37.368	0.359	0.190
-136.414	15.863	-0.342	0.266
-135.399	48.807	0.086	0.080
-134.385	-23.893	-0.153	0.090
-133.370	-46.023	0.063	0.031
-132.356	53.803	-0.250	0.237
-131.341	-91.744	0.262	-0.074
-130.326	153.018	0.161	0.218
-129.312	52.169	-0.181	0.171
-128.297	-200.000	-0.021	0.269
-127.283	-6.704	-0.089	-0.060
-126.268	281.743	-0.102	-0.181
-125.253	-200.000	-0.006	-0.160
-124.239	-97.510	-0.270	-0.069
-123.224	-175.018	-0.303	0.008
-122.210	557.054	0.143	0.340
-121.195	-200.000	-0.011	0.048
-120.180	-91.266	0.022	0.006
