DTS Sentinel unit serial number:	SN413079Multiplexer serial number:	ORYXHardware model number:	OX4-SRSoftware version number:	ORYX F/W v4.00 Oryx Data Collector v3.7.2.0data status	okinstallation	princeton_trtdifferential loss correction	single-endedforward channel	channel 2reverse channel	N/Adate	2019/09/15time	17:59:35forward acquisition time	60.00reverse acquisition time	0.00gamma	496.2192k internal	0.2284k external	0.2284temperature offset calibration	0.9923default loss term (dB/km)	0.3790temperature slope calibration	1.0000multiplexer offset coefficient	1.0000multiplexer slope coefficient	1.0000fibre end	0.00T internal ref (°C)	44.75T ext. ref 1 (°C)	6.45T ext. ref 2 (°C)	39.48length (m)	temperature (°C)	Stokes	anti-Stokes-747.200	607.346	-0.052	-0.132
-746.185	239.605	0.072	0.124
-745.171	459.835	-0.149	0.340
-744.156	747.948	-0.164	0.453
-743.142	24.024	0.322	0.273
-742.127	83.152	0.228	-0.255
-741.112	282.471	-0.109	0.200
-740.098	257.139	-0.289	0.510
-739.083	-171.984	-0.156	-0.005
-738.069	435.823	0.033	-0.073
-737.054	800.000	0.083	-0.283
-736.039	237.151	-0.161	-0.274
-735.025	106.680	-0.050	0.061
-734.010	-200.000	-0.056	0.486
-732.996	23.611	0.192	-0.162
-731.981	-200.000	-0.063	-0.303
-730.966	-200.000	-0.017	0.402
-729.952	12.067	0.266	-0.210
-728.937	398.176	-0.125	-0.268
-727.923	-191.574	-0.465	-0.005
-726.908	150.104	-0.125	0.174
-725.894	-47.251	-0.286	0.143
-724.879	418.528	0.039	-0.086
-723.864	-59.213	0.086	0.038
-722.850	800.000	-0.100	0.291
-721.835	-71.653	-0.164	0.063
-720.821	171.341	0.165	0.243
-719.806	383.997	-0.150	-0.317
-718.791	67.883	-0.252	-0.265
-717.777	-66.136	-0.254	0.104
-716.762	39.645	0.175	-0.161
-715.748	516.017	0.136	0.326
-714.733	50.348	0.139	0.134
-713.718	-79.544	0.078	0.027
-712.704	439.037	-0.075	-0.167
-711.689	-72.359	-0.345	0.131
-710.675	-66.819	-0.337	-0.137
-709.660	139.805	-0.127	0.171
-708.645	-147.600	-0.278	0.024
-707.631	-200.000	0.034	-0.152
-706.616	494.567	0.097	-0.228
-705.602	498.089	-0.016	-0.038
-704.587	-5.120	-0.327	-0.231
-703.572	800.000	-0.090	0.334
-702.558	117.811	-0.067	-0.084
-701.543	119.156	0.094	0.119
-700.529	57.932	0.183	-0.184
-699.514	-200.000	-0.053	-0.414
-698.499	341.039	0.122	0.244
-697.485	330.211	-0.062	0.122
-696.470	102.199	0.138	-0.165
-695.456	381.001	-0.106	-0.223
-694.441	-11.842	0.236	0.158
-693.426	-115.318	-0.236	0.046
-692.412	-143.286	-0.279	0.027
-691.397	231.136	0.115	0.193
-690.383	-148.103	0.281	-0.024
-689.368	800.000	0.042	-0.144
-688.354	231.956	0.056	-0.094
-687.339	1.041	0.322	0.237
-686.324	-14.003	-0.076	-0.050
-685.310	-200.000	0.004	-0.166
-684.295	800.000	-0.071	-0.258
-683.281	39.285	-0.198	0.182
-682.266	295.844	0.096	0.180
-681.251	-200.000	0.048	-0.262
-680.237	-30.992	-0.176	0.102
-679.222	-11.842	-0.133	-0.089
-678.208	-200.000	0.018	0.415
-677.193	-29.875	-0.111	-0.065
-676.178	800.000	0.083	-0.287
-675.164	800.000	-0.082	-0.235
-674.149	-150.377	0.049	0.004
-673.135	61.414	-0.148	0.150
-672.120	-24.796	-0.109	-0.067
-671.105	-118.876	-0.261	0.047
-670.091	-48.019	-0.091	0.045
-669.076	-157.974	-0.191	0.012
-668.062	-200.000	0.026	-0.398
-667.047	152.097	0.175	-0.244
-666.032	-67.345	0.111	-0.044
-665.018	217.468	-0.053	0.087
-664.003	-200.000	0.026	-0.219
-662.989	-90.647	-0.349	-0.103
-661.974	-200.000	0.052	0.283
-660.959	-200.000	-0.047	0.432
-659.945	16.368	0.039	0.031
-658.930	148.332	0.133	0.184
-657.916	92.207	0.308	0.355
-656.901	337.764	0.142	0.284
-655.886	168.216	0.262	0.382
-654.872	224.185	-0.228	0.377
-653.857	89.238	-0.168	0.192
-652.843	549.791	-0.057	-0.140
-651.828	45.102	-0.190	0.179
-650.814	-81.110	-0.192	0.065
-649.799	-14.541	-0.091	-0.060
-648.784	664.251	-0.133	0.351
-647.770	-121.932	0.081	-0.014
-646.755	-42.355	-0.323	0.169
-645.741	93.041	-0.086	0.100
-644.726	313.151	-0.110	0.212
-643.711	-115.903	-0.071	-0.014
-642.697	26.729	-0.166	0.143
-641.682	620.432	-0.076	0.197
-640.668	-57.191	-0.265	0.119
-639.653	-23.940	-0.198	0.121
-638.638	-63.682	0.036	0.015
-637.624	-6.726	-0.127	-0.089
-636.609	-2.372	-0.168	0.121
-635.595	800.000	-0.086	0.351
-634.580	-8.424	0.123	-0.084
-633.565	-161.665	-0.252	-0.013
-632.551	800.000	0.129	-0.452
-631.536	47.466	0.048	-0.046
-630.522	-200.000	-0.021	0.094
-629.507	-22.417	-0.078	0.048
-628.492	69.781	0.142	0.150
-627.478	-114.261	0.152	-0.030
-626.463	-93.764	-0.116	-0.033
-625.449	-100.864	-0.112	-0.028
-624.434	2.935	-0.344	-0.255
-623.419	-149.767	-0.053	0.004
-622.405	46.480	0.186	-0.176
-621.390	-187.986	-0.101	0.001
-620.376	-200.000	-0.029	-0.299
-619.361	39.170	0.290	0.265
-618.346	-177.712	-0.193	-0.005
-617.332	379.454	-0.100	-0.210
-616.317	499.406	-0.031	-0.073
-615.303	-200.000	-0.051	-0.239
-614.288	-200.000	0.009	-0.253
-613.273	-164.313	0.130	-0.006
-612.259	-200.000	0.045	-0.215
-611.244	-200.000	-0.009	-0.281
-610.230	182.034	-0.150	0.226
-609.215	61.172	0.216	0.219
-608.201	-200.000	-0.067	0.391
-607.186	-61.659	-0.109	-0.047
-606.171	-118.065	0.418	-0.076
-605.157	-89.766	0.249	0.074
-604.142	-169.205	-0.134	-0.005
-603.128	-58.369	-0.362	-0.161
-602.113	-144.925	-0.540	-0.050
-601.098	198.144	-0.044	-0.069
-600.084	-200.000	-0.007	-0.255
-599.069	108.822	0.252	-0.308
-598.055	-132.473	-0.009	0.001
-597.040	-150.478	0.185	0.015
-596.025	-200.000	-0.031	-0.147
-595.011	560.764	-0.118	0.292
-593.996	-66.165	0.125	0.051
-592.982	34.500	-0.120	-0.107
-591.967	32.870	0.054	-0.048
-590.952	-183.294	-0.033	-0.001
-589.938	113.971	0.176	0.218
-588.923	118.731	-0.123	0.156
-587.909	229.768	0.081	0.135
-586.894	198.900	0.085	-0.134
-585.879	390.394	0.031	0.065
-584.865	-200.000	0.003	0.033
-583.850	-33.369	-0.212	-0.120
-582.836	800.000	-0.063	-0.184
-581.821	-17.040	-0.206	-0.133
-580.806	-200.000	-0.039	0.512
-579.792	-184.092	0.333	-0.006
-578.777	503.624	-0.105	-0.249
-577.763	-130.175	0.018	-0.003
-576.748	-58.098	-0.210	-0.093
-575.733	219.051	-0.076	-0.124
-574.719	535.344	-0.097	0.234
-573.704	326.262	0.082	0.161
-572.690	-200.000	-0.009	-0.174
-571.675	-75.855	0.345	0.125
-570.661	-134.633	0.209	0.026
-569.646	61.902	-0.138	0.140
-568.631	17.849	-0.127	-0.103
-567.617	361.078	-0.052	-0.106
-566.602	-24.193	-0.137	-0.083
-565.588	-200.000	0.001	0.113
-564.573	-200.000	0.135	-0.755
-563.558	-200.000	0.065	-0.335
-562.544	-41.828	0.201	-0.105
-561.529	-191.095	0.138	0.001
-560.515	-200.000	0.077	-0.368
-559.500	87.127	-0.241	0.271
-558.485	439.701	-0.091	-0.202
-557.471	-162.022	0.220	-0.011
-556.456	2.665	0.213	-0.157
-555.442	-200.000	-0.030	-0.169
-554.427	-156.820	-0.260	-0.016
-553.412	-162.839	-0.423	0.021
-552.398	40.707	0.303	-0.279
-551.383	59.735	-0.084	0.084
-550.369	800.000	-0.057	0.172
-549.354	-98.977	0.191	0.049
-548.339	-85.843	0.209	-0.066
-547.325	-33.446	0.173	0.097
-546.310	-3.682	-0.282	-0.200
-545.296	386.998	-0.065	-0.137
-544.281	97.183	0.147	0.172
-543.266	-0.852	-0.128	0.092
-542.252	-200.000	-0.016	-0.074
-541.237	-123.523	-0.171	-0.028
-540.223	800.000	0.063	0.208
-539.208	-42.862	-0.215	0.111
-538.193	124.496	-0.091	0.116
-537.179	-200.000	-0.015	-0.129
-536.164	-29.157	0.211	-0.123
-535.150	294.949	-0.073	0.136
-534.135	-27.065	-0.168	-0.100
-533.121	-129.922	0.433	0.060
-532.106	290.157	-0.165	0.304
-531.091	-97.961	-0.130	0.034
-530.077	174.608	-0.065	-0.096
-529.062	90.168	-0.071	0.081
-528.048	-200.000	-0.025	-0.112
-527.033	-200.000	0.010	0.148
-526.018	-140.510	0.416	0.044
-525.004	-182.346	-0.124	0.002
-523.989	800.000	0.064	0.198
-522.975	-14.680	0.132	0.086
-521.960	29.435	-0.177	0.154
-520.945	-79.667	0.043	0.015
-519.931	109.567	-0.086	0.105
-518.916	92.776	0.149	-0.171
-517.902	-2.108	0.149	-0.107
-516.887	428.799	-0.073	0.162
-515.872	-41.124	0.057	0.030
-514.858	-200.000	0.018	-0.168
-513.843	-200.000	0.001	0.325
-512.829	-89.719	-0.242	-0.072
-511.814	-39.896	-0.278	0.148
-510.799	-12.569	0.140	-0.093
-509.785	725.218	-0.040	-0.110
-508.770	476.550	-0.068	0.157
-507.756	-105.222	0.218	0.051
-506.741	-23.661	0.116	0.071
-505.726	-108.360	0.241	-0.053
-504.712	-99.508	-0.093	0.024
-503.697	243.656	-0.042	0.071
-502.683	-200.000	-0.018	-0.089
-501.668	-17.599	0.091	0.058
-500.653	-104.358	-0.276	0.065
-499.639	32.064	0.126	0.110
-498.624	-200.000	0.006	-0.050
-497.610	28.170	-0.276	-0.237
-496.595	-58.104	0.154	-0.068
-495.581	-41.180	0.398	-0.209
-494.566	800.000	-0.042	-0.124
-493.551	16.486	-0.165	0.133
-492.537	180.401	0.162	0.241
-491.522	-114.883	-0.084	-0.016
-490.508	-6.335	0.134	0.093
-489.493	-200.000	-0.008	-0.372
-488.478	-200.000	-0.012	-0.163
-487.464	36.122	0.168	-0.151
-486.449	-119.077	-0.237	-0.042
-485.435	31.720	-0.086	0.076
-484.420	-54.010	0.194	-0.090
-483.405	-145.922	-0.061	-0.005
-482.391	-131.268	0.322	0.043
-481.376	707.194	0.084	-0.225
-480.362	-200.000	-0.010	0.089
-479.347	670.838	-0.073	-0.192
-478.332	-89.058	0.080	-0.024
-477.318	-64.021	0.320	0.133
-476.303	-200.000	0.066	-0.358
-475.289	-17.005	-0.395	0.254
-474.274	405.756	0.032	0.069
-473.259	65.871	0.105	0.109
-472.245	-73.578	0.212	0.079
-471.230	116.765	0.086	-0.108
-470.216	145.748	0.075	0.102
-469.201	-37.819	0.229	0.124
-468.186	-60.095	0.172	-0.075
-467.172	-101.971	0.349	0.086
-466.157	-87.943	-0.269	-0.082
-465.143	639.776	0.058	0.150
-464.128	-200.000	0.034	0.485
-463.113	-200.000	0.005	0.027
-462.099	-104.981	-0.163	-0.038
-461.084	-36.261	0.358	-0.196
-460.070	-80.817	-0.190	-0.064
-459.055	32.003	0.303	-0.265
-458.040	-200.000	-0.131	-0.768
-457.026	27.876	-0.528	0.452
-456.011	800.000	-0.066	0.225
-454.997	306.209	-0.121	-0.228
-453.982	800.000	0.030	0.116
-452.968	-71.694	-0.257	0.097
-451.953	106.104	-0.091	0.110
-450.938	194.936	0.054	0.083
-449.924	800.000	0.052	-0.175
-448.909	-125.583	0.309	0.048
-447.895	-47.739	0.097	0.048
-446.880	-200.000	0.015	-0.329
-445.865	121.718	0.059	0.075
-444.851	4.004	-0.337	0.250
-443.836	800.000	-0.035	0.129
-442.822	-200.000	-0.012	-0.319
-441.807	127.880	0.070	-0.090
-440.792	17.173	0.361	0.291
-439.778	-5.933	-0.190	-0.132
-438.763	-63.631	-0.255	-0.106
-437.749	-70.397	0.194	0.075
-436.734	800.000	0.036	0.120
-435.719	-200.000	0.008	0.067
-434.705	5.413	-0.152	0.114
-433.690	-79.210	-0.065	-0.022
-432.676	-200.000	-0.006	0.171
-431.661	-40.483	0.041	0.022
-430.646	800.000	0.034	-0.124
-429.632	-149.809	-0.078	0.006
-428.617	335.285	-0.096	0.189
-427.603	-174.941	0.158	-0.004
-426.588	12.258	-0.248	-0.194
-425.573	654.998	0.073	0.191
-424.559	36.739	0.039	0.035
-423.544	747.430	0.111	0.303
-422.530	98.720	-0.312	0.365
-421.515	650.779	0.157	-0.408
-420.500	-200.000	0.002	-0.187
-419.486	-0.039	-0.237	0.171
-418.471	293.375	0.103	-0.191
-417.457	-36.102	0.181	-0.099
-416.442	-56.437	-0.291	-0.131
-415.428	-68.416	0.227	0.089
-414.413	206.917	-0.053	-0.084
-413.398	655.513	0.009	-0.022
-412.384	-117.208	0.236	0.044
-411.369	310.839	0.199	0.377
-410.355	-6.867	0.102	-0.070
-409.340	-40.599	-0.197	-0.104
-408.325	232.565	0.013	0.022
-407.311	-200.000	-0.029	0.238
-406.296	-75.646	-0.166	0.060
-405.282	109.376	0.272	-0.330
-404.267	-106.358	-0.092	0.021
-403.252	74.660	0.241	0.257
-402.238	-18.261	0.178	0.113
-401.223	371.774	0.055	0.114
-400.209	18.934	-0.104	0.085
-399.194	-83.943	0.146	-0.047
-398.179	-90.109	-0.163	-0.048
-397.165	55.305	-0.106	-0.104
-396.150	-100.004	0.154	0.039
-395.136	-157.392	0.191	0.012
-394.121	10.523	0.363	-0.280
-393.106	253.995	-0.144	0.250
-392.092	-33.056	0.132	-0.074
-391.077	-200.000	0.002	0.153
-390.063	36.658	0.155	-0.139
-389.048	-200.000	0.000	-0.155
-388.033	-200.000	0.031	-0.184
-387.019	800.000	0.007	0.030
-386.004	800.000	0.040	-0.122
-384.990	800.000	0.034	0.118
-383.975	-200.000	-0.032	-0.179
-382.960	-4.373	0.287	-0.201
-381.946	122.664	0.237	0.300
-380.931	407.717	0.059	-0.126
-379.917	183.147	0.049	0.073
-378.902	15.173	0.117	0.093
-377.888	-85.430	0.626	-0.198
-376.873	152.455	0.072	0.099
-375.858	121.662	-0.137	0.173
-374.844	590.748	0.075	-0.188
-373.829	-200.000	0.006	0.110
-372.815	-21.617	0.205	-0.126
-371.800	78.898	0.062	-0.067
-370.785	-116.309	-0.062	0.012
-369.771	281.995	-0.147	0.266
-368.756	-143.711	0.313	0.030
-367.742	-24.635	0.214	0.129
-366.727	-200.000	-0.006	0.082
-365.712	800.000	-0.028	0.113
-364.698	127.546	0.041	0.052
-363.683	-200.000	-0.009	0.146
-362.669	-76.254	0.285	0.102
-361.654	-200.000	-0.036	0.213
-360.639	800.000	0.029	0.111
-359.625	84.856	-0.078	-0.087
-358.610	-200.000	0.004	0.113
-357.596	131.728	0.094	0.122
-356.581	-91.223	0.298	0.086
-355.566	275.333	0.170	0.304
-354.552	-58.579	-0.270	0.119
-353.537	-97.591	-0.232	-0.061
-352.523	-53.631	0.036	-0.017
-351.508	52.189	0.151	-0.145
-350.493	-200.000	-0.042	0.234
-349.479	-200.000	-0.016	0.313
-348.464	-122.499	-0.096	0.016
-347.450	800.000	-0.053	-0.207
-346.435	-200.000	0.006	0.035
-345.420	800.000	-0.059	0.189
-344.406	-200.000	0.055	0.254
-343.391	-200.000	0.006	0.170
-342.377	-187.204	0.239	-0.003
-341.362	46.863	-0.108	-0.101
-340.348	800.000	-0.069	0.228
-339.333	232.154	-0.121	-0.200
-338.318	317.675	-0.158	0.302
-337.304	787.839	-0.054	-0.151
-336.289	101.855	-0.126	-0.149
-335.275	-200.000	0.030	-0.216
-334.260	-200.000	-0.028	0.131
-333.245	526.398	-0.088	-0.211
-332.231	-200.000	-0.012	0.170
-331.216	-45.510	-0.131	-0.066
-330.202	800.000	-0.081	-0.257
-329.187	-198.473	-0.104	-0.001
-328.172	-200.000	-0.302	-0.001
-327.158	-41.115	0.196	0.102
-326.143	800.000	0.106	0.359
-325.129	-156.877	0.038	0.002
-324.114	41.530	0.239	-0.219
-323.099	-63.119	0.132	0.055
-322.085	190.032	-0.043	0.065
-321.070	-111.423	-0.249	-0.051
-320.056	519.064	0.068	0.161
-319.041	52.665	-0.315	0.305
-318.026	800.000	-0.062	-0.250
-317.012	5.527	0.120	0.090
-315.997	-200.000	-0.022	0.323
-314.983	-157.288	-0.167	0.010
-313.968	-40.625	-0.038	0.020
-312.953	17.931	0.083	-0.067
-311.939	-163.093	-0.207	-0.010
-310.924	800.000	-0.058	0.191
-309.910	-63.188	-0.163	0.068
-308.895	-67.194	-0.242	0.096
-307.880	-135.265	-0.248	-0.030
-306.866	96.523	0.156	-0.180
-305.851	-125.203	-0.193	-0.030
-304.837	-33.756	0.270	0.150
-303.822	118.081	-0.105	0.130
-302.807	-34.895	-0.178	0.098
-301.793	-88.662	-0.078	0.023
-300.778	12.539	0.393	0.306
-299.764	-200.000	-0.030	-0.441
-298.749	800.000	-0.031	0.120
-297.735	-69.501	-0.472	-0.183
-296.720	191.602	-0.135	0.206
-295.705	164.159	0.078	0.111
-294.691	-132.712	-0.242	-0.031
-293.676	-49.797	0.291	-0.139
-292.662	616.048	0.035	0.089
-291.647	164.552	-0.227	-0.323
-290.632	-24.440	0.045	0.027
-289.618	109.164	0.133	-0.160
-288.603	-95.362	-0.234	-0.063
-287.589	72.025	0.049	-0.051
-286.574	260.380	0.083	-0.144
-285.559	296.139	-0.074	0.136
-284.545	79.285	-0.306	-0.331
-283.530	-200.000	0.030	-0.231
-282.516	-118.471	0.141	-0.025
-281.501	15.202	0.220	0.174
-280.486	15.432	0.184	0.146
-279.472	241.859	-0.164	0.277
-278.457	347.528	0.017	-0.033
-277.443	206.208	-0.037	0.058
-276.428	39.398	0.184	-0.167
-275.413	52.202	0.096	0.092
-274.399	628.037	0.027	-0.070
-273.384	-69.845	0.307	0.118
-272.370	178.558	-0.105	-0.155
-271.355	-103.880	0.169	-0.040
-270.340	116.085	-0.200	-0.247
-269.326	314.325	-0.053	-0.101
-268.311	-200.000	0.000	-0.021
-267.297	120.969	0.148	-0.185
-266.282	181.294	0.092	-0.136
-265.267	-162.913	-0.241	0.012
-264.253	113.861	-0.047	0.057
-263.238	701.198	0.084	-0.224
-262.224	396.056	-0.103	0.217
-261.209	800.000	-0.070	-0.240
-260.195	800.000	-0.013	0.042
-259.180	-90.999	0.339	-0.098
-258.165	-129.156	-0.105	-0.015
-257.151	323.862	0.044	0.084
-256.136	14.950	0.166	0.131
-255.122	58.647	-0.354	0.350
-254.107	-91.719	-0.185	0.053
-253.092	460.901	0.049	-0.109
-252.078	-29.816	-0.124	-0.071
-251.063	-113.514	0.328	0.065
-250.049	35.948	-0.177	-0.157
-249.034	-83.516	0.174	0.056
-248.019	270.850	0.045	-0.081
-247.005	-191.021	-0.011	0.000
-245.990	-69.428	0.156	0.060
-244.976	-87.012	0.173	-0.053
-243.961	-141.825	-0.216	0.022
-242.946	-200.000	0.049	0.251
-241.932	-84.703	-0.176	0.056
-240.917	-1.810	0.183	-0.130
-239.903	-30.954	0.244	0.139
-238.888	105.366	-0.128	-0.152
-237.873	-115.990	0.082	-0.015
-236.859	-200.000	-0.014	0.070
-235.844	-200.000	0.017	-0.297
-234.830	-80.289	-0.165	-0.055
-233.815	-52.685	0.210	-0.098
-232.800	-103.214	-0.217	-0.052
-231.786	-41.396	0.260	-0.135
-230.771	72.134	0.192	-0.201
-229.757	42.675	0.232	0.213
-228.742	-41.103	-0.311	-0.161
-227.727	106.266	-0.141	-0.168
-226.713	227.796	0.062	-0.101
-225.698	8.929	0.142	-0.108
-224.684	76.315	-0.245	0.262
-223.669	-21.179	0.067	0.041
-222.655	46.798	0.177	-0.166
-221.640	179.970	0.169	-0.250
-220.625	-200.000	0.030	0.341
-219.611	136.495	-0.086	0.113
-218.596	111.667	0.082	-0.100
-217.582	-36.823	0.336	-0.181
-216.567	-200.000	0.071	-0.423
-215.552	178.265	-0.048	-0.070
-214.538	-111.143	0.326	0.067
-213.523	715.975	0.135	0.360
-212.509	22.849	0.263	-0.217
-211.494	800.000	-0.018	0.076
-210.479	3.459	0.401	0.294
-209.465	138.730	-0.199	0.262
-208.450	0.148	-0.198	0.142
-207.436	16.072	0.126	0.100
-206.421	28.266	0.010	0.008
-205.406	-200.000	0.043	-0.526
-204.392	-93.452	-0.310	0.086
-203.377	-57.100	-0.316	-0.140
-202.363	74.914	-0.217	0.229
-201.348	-92.821	-0.239	0.067
-200.333	800.000	0.113	-0.410
-199.319	353.929	0.076	-0.151
-198.304	10.458	0.190	-0.146
-197.290	89.341	-0.037	-0.042
-196.275	-200.000	-0.011	-0.105
-195.260	21.280	-0.121	-0.099
-194.246	-174.814	-0.266	0.008
-193.231	-200.000	0.017	0.362
-192.217	288.962	-0.117	-0.213
-191.202	751.993	-0.061	-0.165
-190.187	-72.574	-0.168	-0.062
-189.173	763.805	0.025	0.068
-188.158	-200.000	-0.079	0.582
-187.144	-51.434	-0.078	-0.036
-186.129	-78.112	0.145	0.050
-185.114	-124.440	-0.143	-0.022
-184.100	666.044	0.111	-0.288
-183.085	-84.271	-0.281	-0.090
-182.071	41.621	-0.340	-0.310
-181.056	800.000	-0.050	0.218
-180.042	-41.571	-0.143	-0.074
-179.027	414.290	-0.105	0.224
-178.012	178.623	-0.131	-0.192
-176.998	-200.000	0.019	0.160
-175.983	-62.641	-0.066	-0.027
-174.969	-75.940	-0.279	-0.099
-173.954	203.600	-0.213	-0.330
-172.939	800.000	0.063	0.204
-171.925	-9.472	-0.024	0.016
-170.910	348.261	-0.096	0.189
-169.896	-87.196	0.184	0.056
-168.881	-200.000	-0.041	0.265
-167.866	-118.093	0.096	0.017
-166.852	-80.978	0.196	0.065
-165.837	168.851	-0.152	0.217
-164.823	-200.000	-0.010	0.152
-163.808	202.189	0.053	-0.083
-162.793	30.065	-0.183	0.156
-161.779	-200.000	-0.011	0.136
-160.764	-4.491	0.172	-0.119
-159.750	182.945	-0.052	-0.077
-158.735	-150.373	0.319	-0.025
-157.720	221.544	-0.085	-0.138
-156.706	75.810	0.220	-0.234
-155.691	22.406	-0.120	-0.098
-154.677	144.350	0.226	0.303
-153.662	-20.202	-0.196	-0.121
-152.647	-55.263	-0.301	-0.136
-151.633	-200.000	0.067	-0.352
-150.618	596.031	-0.126	0.314
-149.604	800.000	-0.047	0.193
-148.589	-200.000	-0.027	0.165
-147.574	-200.000	-0.006	-0.169
-146.560	-8.516	-0.291	-0.196
-145.545	13.141	0.011	0.009
-144.531	-200.000	0.002	0.084
-143.516	-65.070	0.254	-0.103
-142.502	-182.862	0.156	-0.003
-141.487	-200.000	-0.005	0.130
-140.472	204.219	-0.050	0.077
-139.458	-131.269	0.176	0.023
-138.443	-200.000	-0.001	0.223
-137.429	-84.590	0.210	0.066
-136.414	55.444	0.276	-0.268
-135.399	800.000	-0.060	-0.237
-134.385	-62.359	-0.218	0.091
-133.370	76.410	0.249	-0.265
-132.356	-200.000	0.014	0.067
-131.341	-44.384	0.166	0.083
-130.326	-72.193	0.208	0.077
-129.312	739.321	-0.075	0.201
-128.297	-70.305	0.178	-0.068
-127.283	89.754	-0.223	0.249
-126.268	34.631	-0.182	0.159
-125.253	42.283	-0.081	0.074
-124.239	35.586	0.056	0.050
-123.224	15.710	-0.454	-0.358
-122.210	117.583	-0.203	0.250
-121.195	-21.620	-0.234	0.143
-120.180	199.882	0.085	0.130
