DTS Sentinel unit serial number:	SN413079Multiplexer serial number:	ORYXHardware model number:	OX4-SRSoftware version number:	ORYX F/W v4.00 Oryx Data Collector v3.7.2.0data status	okinstallation	princeton_trtdifferential loss correction	single-endedforward channel	channel 2reverse channel	N/Adate	2019/09/12time	19:28:48forward acquisition time	15.00reverse acquisition time	0.00gamma	496.2192k internal	0.2326k external	0.2326temperature offset calibration	1.0147default loss term (dB/km)	0.3790temperature slope calibration	1.0000multiplexer offset coefficient	1.0000multiplexer slope coefficient	1.0000fibre end	0.00T internal ref (°C)	32.25T ext. ref 1 (°C)	3.23T ext. ref 2 (°C)	26.83length (m)	temperature (°C)	Stokes	anti-Stokes-747.200	-150.082	-0.006	0.000
-746.185	800.000	-0.035	-0.143
-745.171	351.643	0.384	-0.766
-744.156	-64.977	-0.257	0.105
-743.142	-98.045	0.258	-0.067
-742.127	-44.688	-0.917	-0.462
-741.112	-200.000	-0.141	0.855
-740.098	158.061	-0.563	-0.788
-739.083	800.000	0.184	-0.668
-738.069	301.333	-0.355	0.662
-737.054	625.424	0.167	0.425
-736.039	180.277	0.203	-0.300
-735.025	-67.235	0.336	-0.133
-734.010	22.207	-0.316	-0.260
-732.996	800.000	0.159	0.677
-731.981	800.000	0.096	-0.377
-730.966	69.453	-0.453	0.470
-729.952	-22.887	-0.131	-0.080
-728.937	-96.267	0.472	0.126
-727.923	429.184	0.374	-0.815
-726.908	-9.464	-0.300	-0.202
-725.894	-16.833	-0.431	-0.275
-724.879	75.474	0.386	-0.411
-723.864	-98.511	-0.181	0.047
-722.850	-200.000	0.185	-0.818
-721.835	800.000	0.064	0.277
-720.821	41.351	0.490	0.447
-719.806	15.268	0.169	0.134
-718.791	98.073	0.387	0.449
-717.777	563.657	-0.307	-0.749
-716.762	62.513	-0.256	-0.258
-715.748	-9.947	1.099	-0.736
-714.733	1.214	0.433	-0.313
-713.718	-154.778	-0.507	-0.034
-712.704	148.273	0.038	0.052
-711.689	-112.471	-0.704	0.142
-710.675	360.820	0.337	-0.679
-709.660	139.131	0.590	-0.781
-708.645	-0.225	-0.622	-0.445
-707.631	236.683	-0.183	-0.305
-706.616	462.398	-0.379	-0.852
-705.602	28.553	0.366	0.312
-704.587	-102.049	0.738	-0.179
-703.572	111.518	-0.229	0.278
-702.558	-200.000	0.029	0.225
-701.543	173.107	0.487	0.706
-700.529	-88.355	-0.173	-0.052
-699.514	-107.641	-0.253	-0.056
-698.499	-18.868	-0.075	-0.047
-697.485	526.486	0.239	0.566
-696.470	-142.778	-0.773	0.076
-695.456	59.326	0.353	0.350
-694.441	84.179	-0.489	-0.538
-693.426	129.706	-0.106	-0.137
-692.412	191.417	0.153	-0.232
-691.397	56.435	0.519	-0.508
-690.383	-98.851	-0.975	-0.249
-689.368	-200.000	0.112	0.576
-688.354	-81.495	0.446	-0.148
-687.339	-99.659	-0.247	-0.062
-686.324	-200.000	0.127	-0.590
-685.310	89.435	-0.833	0.935
-684.295	-44.449	-0.424	-0.214
-683.281	-96.907	-0.745	0.197
-682.266	-150.283	-0.402	-0.031
-681.251	254.472	0.067	-0.115
-680.237	92.739	0.684	-0.777
-679.222	-154.042	0.276	-0.019
-678.208	1.645	-0.934	-0.677
-677.193	-124.352	-0.911	0.143
-676.178	137.368	0.145	-0.191
-675.164	202.398	0.517	0.802
-674.149	-190.361	0.777	0.009
-673.135	800.000	-0.061	-0.200
-672.120	-200.000	0.058	0.273
-671.105	-5.484	-0.513	-0.354
-670.091	88.986	0.229	0.256
-669.076	5.102	-0.627	0.464
-668.062	30.974	0.253	-0.218
-667.047	1.024	-0.594	-0.428
-666.032	-42.827	-0.108	-0.055
-665.018	-13.002	0.265	0.173
-664.003	-4.813	-0.678	-0.470
-662.989	-90.036	-0.596	-0.175
-661.974	800.000	0.107	0.342
-660.959	-200.000	-0.014	0.675
-659.945	189.503	0.422	0.636
-658.930	-200.000	0.161	0.983
-657.916	679.868	0.345	-0.902
-656.901	-85.375	0.400	-0.125
-655.886	138.824	0.545	-0.720
-654.872	209.199	0.205	-0.322
-653.857	364.584	0.083	-0.168
-652.843	116.493	-0.681	-0.839
-651.828	-3.116	0.749	0.525
-650.814	-200.000	-0.140	0.825
-649.799	63.549	0.409	0.412
-648.784	104.864	-0.547	0.648
-647.770	-200.000	0.100	0.492
-646.755	-146.203	-0.615	0.054
-645.741	390.607	-0.152	-0.316
-644.726	40.259	-0.292	0.264
-643.711	123.500	0.294	-0.370
-642.697	46.378	-0.127	-0.118
-641.682	181.759	-0.251	0.371
-640.668	255.747	-0.119	0.205
-639.653	762.394	0.224	-0.612
-638.638	33.876	0.889	-0.777
-637.624	-89.821	-0.455	-0.134
-636.609	-200.000	-0.188	-0.937
-635.595	800.000	0.112	-0.348
-634.580	635.797	0.226	-0.577
-633.565	-200.000	-0.016	0.708
-632.551	690.758	0.045	0.118
-631.536	-77.897	-0.190	0.066
-630.522	-151.782	-0.281	-0.021
-629.507	-200.000	0.080	0.840
-628.492	-200.000	0.045	-0.495
-627.478	-104.074	-0.683	-0.160
-626.463	289.582	0.402	0.732
-625.449	-153.963	1.244	0.085
-624.434	16.347	-0.443	0.351
-623.419	4.481	-0.574	-0.423
-622.405	-114.608	0.595	0.114
-621.390	95.568	-0.182	0.208
-620.376	-12.971	-0.208	0.136
-619.361	91.913	-0.408	-0.461
-618.346	118.105	0.192	0.237
-617.332	91.950	-0.399	-0.451
-616.317	800.000	-0.124	-0.499
-615.303	-108.080	0.252	0.055
-614.288	59.572	-0.380	0.376
-613.273	-103.316	0.088	0.021
-612.259	22.221	-0.304	-0.249
-611.244	-200.000	-0.034	-0.537
-610.230	42.386	-0.123	-0.112
-609.215	24.613	0.443	0.368
-608.201	800.000	-0.015	-0.066
-607.186	-38.330	-0.340	0.181
-606.171	800.000	0.053	-0.224
-605.157	187.878	-0.145	-0.217
-604.142	-200.000	0.028	-0.775
-603.128	-121.651	0.395	-0.066
-602.113	-43.389	1.064	0.540
-601.098	-38.369	0.240	0.127
-600.084	300.263	0.300	0.555
-599.069	122.468	-0.549	0.688
-598.055	-68.326	-0.718	-0.280
-597.040	-167.029	-0.565	-0.023
-596.025	800.000	0.289	1.041
-595.011	-153.079	-0.415	-0.029
-593.996	33.100	-0.525	-0.456
-592.982	800.000	-0.114	0.417
-591.967	800.000	0.159	0.535
-590.952	-152.810	0.834	-0.059
-589.938	100.296	1.006	1.170
-588.923	68.207	0.310	-0.318
-587.909	800.000	-0.264	0.837
-586.894	421.455	-0.157	0.338
-585.879	557.083	0.239	0.577
-584.865	-48.690	-0.778	0.374
-583.850	498.186	0.296	0.684
-582.836	15.450	0.458	-0.360
-581.821	800.000	-0.089	0.359
-580.806	-131.411	-0.549	0.073
-579.792	-33.458	-0.388	-0.215
-578.777	-60.693	0.668	-0.284
-577.763	-46.130	-0.516	0.255
-576.748	61.722	-0.113	0.113
-575.733	542.891	0.411	-0.983
-574.719	35.149	-0.696	-0.611
-573.704	327.038	-0.462	0.886
-572.690	-200.000	0.039	0.661
-571.675	242.008	-0.467	-0.782
-570.661	354.266	0.669	-1.332
-569.646	-104.506	0.163	-0.038
-568.631	-172.790	-0.543	0.017
-567.617	506.984	-0.105	0.244
-566.602	-200.000	-0.092	0.456
-565.588	638.991	0.161	0.411
-564.573	-100.898	-0.375	0.092
-563.558	143.300	-0.257	0.342
-562.544	85.152	0.145	0.159
-561.529	47.104	0.721	0.672
-560.515	-106.918	-0.604	0.134
-559.500	499.551	0.291	-0.672
-558.485	-142.674	0.824	0.081
-557.471	-118.802	-0.942	0.166
-556.456	-200.000	0.047	0.210
-555.442	99.380	0.024	-0.027
-554.427	-25.214	-0.812	-0.482
-553.412	18.051	0.325	0.260
-552.398	-200.000	-0.050	0.520
-551.383	799.914	0.255	0.704
-550.369	-200.000	-0.057	-0.284
-549.354	-200.000	0.027	0.196
-548.339	7.010	0.214	0.160
-547.325	-200.000	-0.043	0.222
-546.310	152.201	-0.383	-0.523
-545.296	-105.666	0.685	0.155
-544.281	87.225	0.153	0.169
-543.266	-153.930	0.110	0.008
-542.252	-29.834	0.150	0.086
-541.237	-78.149	0.403	-0.139
-540.223	-50.214	-0.708	-0.335
-539.208	800.000	-0.185	-0.631
-538.193	-80.320	-0.245	-0.082
-537.179	-139.872	-0.411	0.044
-536.164	800.000	-0.250	0.721
-535.150	-200.000	0.053	0.267
-534.135	564.728	0.068	0.165
-533.121	-187.342	0.155	0.002
-532.106	-189.496	-0.142	-0.002
-531.091	33.617	0.207	-0.180
-530.077	-5.018	-0.446	0.307
-529.062	669.901	0.079	-0.206
-528.048	-0.014	0.719	-0.512
-527.033	373.031	-0.281	-0.572
-526.018	800.000	-0.045	0.137
-525.004	-82.008	-0.531	0.174
-523.989	800.000	-0.210	0.694
-522.975	-46.726	0.355	0.174
-521.960	-37.239	0.717	0.383
-520.945	-5.406	-0.638	0.438
-519.931	48.842	0.192	0.180
-518.916	800.000	-0.084	-0.242
-517.902	-16.729	-0.420	0.265
-516.887	800.000	-0.363	1.060
-515.872	-200.000	-0.013	0.733
-514.858	58.331	0.368	0.361
-513.843	-73.967	0.158	-0.057
-512.829	-162.176	-0.255	-0.013
-511.814	296.677	0.213	-0.390
-510.799	-146.839	-0.435	0.037
-509.785	-58.487	-0.092	0.040
-508.770	102.077	-0.100	0.117
-507.756	-200.000	-0.173	-0.808
-506.741	-97.524	0.084	0.022
-505.726	800.000	-0.180	-0.547
-504.712	-45.598	-0.636	-0.315
-503.697	491.555	0.474	-1.084
-502.683	-200.000	0.012	-0.112
-501.668	-76.794	0.532	-0.186
-500.653	-74.947	0.489	0.175
-499.639	-200.000	0.012	0.253
-498.624	-33.046	0.372	0.206
-497.610	69.013	-0.223	-0.229
-496.595	68.206	-0.287	0.293
-495.581	-26.135	0.527	-0.309
-494.566	-200.000	0.040	0.559
-493.551	-67.807	0.952	0.372
-492.537	800.000	0.189	-0.578
-491.522	-42.467	-0.316	-0.161
-490.508	-54.877	-0.235	0.106
-489.493	-98.630	0.370	0.094
-488.478	243.145	0.518	-0.868
-487.464	-34.351	0.219	-0.120
-486.449	-68.903	-0.828	0.319
-485.435	-118.041	0.135	0.024
-484.420	149.910	-0.564	-0.763
-483.405	-93.528	0.622	0.172
-482.391	59.736	0.370	-0.364
-481.376	-25.950	0.217	0.127
-480.362	-200.000	-0.020	0.308
-479.347	-118.602	-0.386	-0.068
-478.332	196.420	0.564	-0.858
-477.318	62.308	-0.406	0.405
-476.303	-200.000	-0.021	0.520
-475.289	-200.000	-0.017	0.306
-474.274	-79.896	0.383	-0.128
-473.259	-200.000	0.119	0.628
-472.245	-200.000	-0.248	-1.090
-471.230	-137.268	-0.686	-0.078
-470.216	50.986	-0.154	-0.146
-469.201	41.937	0.055	0.050
-468.186	-12.066	-0.678	0.443
-467.172	-142.899	0.873	-0.085
-466.157	-33.671	0.359	0.198
-465.143	-31.191	-0.400	-0.225
-464.128	449.889	-0.371	-0.816
-463.113	-30.701	0.611	-0.345
-462.099	-68.359	-0.209	-0.081
-461.084	41.540	0.406	-0.366
-460.070	170.984	0.548	-0.784
-459.055	800.000	-0.229	0.848
-458.040	-200.000	0.216	-1.097
-457.026	-20.895	-0.267	-0.163
-456.011	-10.809	-0.195	0.129
-454.997	-106.076	-0.133	0.030
-453.982	-24.030	-1.016	-0.606
-452.968	-200.000	-0.067	0.517
-451.953	-41.655	0.984	0.504
-450.938	-104.627	-1.147	0.264
-449.924	-99.234	0.626	0.158
-448.909	-61.281	-0.237	-0.100
-447.895	800.000	-0.234	0.913
-446.880	-106.453	-0.493	0.110
-445.865	-200.000	-0.021	-0.793
-444.851	800.000	-0.135	-0.443
-443.836	-172.627	0.485	-0.015
-442.822	58.722	-0.413	0.404
-441.807	-25.406	0.351	0.207
-440.792	56.404	-0.126	0.122
-439.778	-57.337	0.313	0.137
-438.763	-54.471	0.562	0.254
-437.749	591.623	-0.345	-0.849
-436.734	-200.000	0.032	-0.287
-435.719	-200.000	-0.043	0.446
-434.705	-200.000	0.008	-0.163
-433.690	42.127	0.154	-0.139
-432.676	-74.983	0.731	-0.261
-431.661	-32.559	-0.812	-0.451
-430.646	-8.539	0.348	-0.233
-429.632	-98.685	-0.557	0.141
-428.617	80.620	-0.530	0.569
-427.603	-37.058	-0.700	0.374
-426.588	-5.552	0.870	-0.595
-425.573	-29.349	0.669	-0.381
-424.559	21.228	-0.429	-0.347
-423.544	259.748	0.060	0.103
-422.530	-182.718	0.688	0.012
-421.515	-131.520	0.493	0.065
-420.500	74.617	-0.583	-0.611
-419.486	-200.000	-0.122	0.608
-418.471	-200.000	0.009	0.062
-417.457	229.199	0.586	-0.952
-416.442	-153.898	0.293	-0.020
-415.428	-88.332	0.903	-0.269
-414.413	257.271	-0.101	0.173
-413.398	-200.000	-0.009	-0.792
-412.384	-117.297	-0.367	-0.066
-411.369	-47.286	0.616	0.299
-410.355	-200.000	0.078	-0.524
-409.340	-200.000	0.043	-0.535
-408.325	75.392	-0.317	-0.333
-407.311	-96.634	0.201	0.053
-406.296	-180.738	-0.316	-0.006
-405.282	800.000	-0.290	0.851
-404.267	104.183	0.568	0.665
-403.252	-55.082	-0.678	-0.304
-402.238	800.000	0.197	-0.645
-401.223	211.582	0.330	0.517
-400.209	-38.157	0.730	0.385
-399.194	-126.728	0.154	0.023
-398.179	25.058	0.306	0.253
-397.165	-200.000	-0.002	-0.164
-396.150	260.615	-0.510	0.877
-395.136	-157.073	0.259	0.016
-394.121	-138.101	-0.450	-0.050
-393.106	-107.705	0.250	0.054
-392.092	-200.000	0.001	0.379
-391.077	14.684	-0.951	0.739
-390.063	-85.685	0.273	-0.084
-389.048	-103.306	0.311	-0.073
-388.033	-56.126	-0.713	0.316
-387.019	39.094	-0.884	-0.787
-386.004	267.026	0.398	-0.693
-384.990	386.923	0.208	0.428
-383.975	-100.219	0.138	-0.034
-382.960	-57.107	-0.548	-0.240
-381.946	143.215	-0.406	-0.537
-380.931	202.036	0.284	0.435
-379.917	387.747	-0.171	0.352
-378.902	800.000	-0.108	0.366
-377.888	799.620	0.384	-1.054
-376.873	-146.293	-1.097	0.096
-375.858	-50.588	0.359	0.168
-374.844	-200.000	0.042	-0.822
-373.829	-128.474	-0.155	-0.022
-372.815	80.915	0.801	-0.859
-371.800	-167.591	0.502	0.020
-370.785	33.962	0.973	0.842
-369.771	89.380	-0.413	0.458
-368.756	366.377	0.195	0.390
-367.742	-182.967	-0.524	-0.009
-366.727	275.533	-0.278	0.490
-365.712	91.103	-0.658	0.734
-364.698	800.000	-0.051	-0.186
-363.683	232.313	0.163	0.266
-362.669	-153.110	0.475	-0.033
-361.654	-200.000	0.040	-0.553
-360.639	-200.000	-0.111	0.647
-359.625	-200.000	0.049	-0.607
-358.610	46.852	-0.865	-0.799
-357.596	-200.000	0.026	0.526
-356.581	32.995	-0.851	0.732
-355.566	150.912	-0.262	-0.354
-354.552	-89.108	0.288	0.085
-353.537	-178.785	-0.470	0.011
-352.523	800.000	-0.256	-0.865
-351.508	-3.416	0.722	-0.499
-350.493	281.190	-0.323	0.574
-349.479	57.350	0.330	0.320
-348.464	-72.032	-0.229	-0.085
-347.450	84.611	0.497	0.541
-346.435	115.432	0.160	-0.195
-345.420	3.845	0.565	-0.410
-344.406	-148.774	-0.893	-0.072
-343.391	-139.249	-1.028	-0.110
-342.377	-67.948	-0.201	0.078
-341.362	26.848	0.186	0.155
-340.348	800.000	-0.028	0.111
-339.333	427.258	-0.116	0.249
-338.318	17.324	0.107	0.084
-337.304	13.638	0.501	-0.386
-336.289	-110.702	0.761	0.156
-335.275	510.994	-0.148	-0.342
-334.260	-180.885	0.310	-0.006
-333.245	163.303	0.090	0.125
-332.231	-49.658	0.618	-0.292
-331.216	101.311	-0.365	0.422
-330.202	682.245	-0.254	-0.657
-329.187	124.576	-0.177	-0.221
-328.172	-200.000	0.056	-0.304
-327.158	800.000	0.278	-0.993
-326.143	1.833	-1.181	0.845
-325.129	70.740	-0.461	-0.474
-324.114	-155.344	-0.349	0.022
-323.099	106.468	-0.361	0.424
-322.085	13.337	-0.255	-0.196
-321.070	10.685	0.299	-0.226
-320.056	25.541	-0.434	0.358
-319.041	-81.245	-0.246	0.081
-318.026	66.005	0.421	-0.423
-317.012	647.852	-0.329	0.834
-315.997	-200.000	-0.007	0.479
-314.983	800.000	0.266	-0.834
-313.968	153.901	-0.131	-0.178
-312.953	-70.036	0.408	0.154
-311.939	800.000	-0.099	0.350
-310.924	18.186	0.498	-0.394
-309.910	110.880	0.332	0.396
-308.895	-56.348	0.393	0.173
-307.880	-142.826	0.772	-0.074
-306.866	-154.770	0.258	-0.017
-305.851	800.000	-0.180	-0.550
-304.837	800.000	-0.180	0.695
-303.822	800.000	-0.115	0.371
-302.807	800.000	-0.072	-0.307
-301.793	-9.175	-0.430	0.285
-300.778	59.933	0.294	0.287
-299.764	-25.556	-0.529	0.309
-298.749	0.034	0.453	-0.320
-297.735	485.432	0.270	0.610
-296.720	41.322	-0.567	-0.508
-295.705	12.318	-0.104	0.079
-294.691	-150.516	0.455	-0.035
-293.676	-129.335	-0.417	-0.057
-292.662	-200.000	0.008	-0.088
-291.647	51.254	-0.077	-0.072
-290.632	-136.789	0.634	-0.072
-289.618	-112.500	-0.546	-0.108
-288.603	506.909	0.066	0.151
-287.589	350.882	0.083	0.163
-286.574	-200.000	0.026	-0.681
-285.559	-15.843	-0.516	-0.326
-284.545	-102.463	-0.943	-0.224
-283.530	-160.573	0.160	-0.008
-282.516	-200.000	0.025	0.661
-281.501	-79.400	-0.452	0.151
-280.486	72.692	-0.282	-0.291
-279.472	-128.592	-0.560	0.078
-278.457	-200.000	0.064	0.360
-277.443	-43.797	-0.425	-0.212
-276.428	246.685	-0.259	-0.433
-275.413	-200.000	0.156	0.810
-274.399	169.355	-0.336	0.474
-273.384	-59.062	0.784	0.335
-272.370	306.565	0.482	-0.889
-271.355	-154.352	-0.238	-0.016
-270.340	79.071	-0.570	-0.604
-269.326	800.000	-0.178	-0.520
-268.311	290.543	-0.076	-0.136
-267.297	-200.000	-0.005	-0.433
-266.282	88.551	-0.006	-0.007
-265.267	800.000	0.124	-0.379
-264.253	-200.000	-0.014	0.345
-263.238	393.399	0.140	0.289
-262.224	-89.271	-0.545	0.159
-261.209	10.968	0.067	0.050
-260.195	-80.996	-0.435	0.143
-259.180	233.441	0.277	0.450
-258.165	139.301	0.149	-0.194
-257.151	-200.000	-0.004	0.140
-256.136	800.000	0.143	-0.530
-255.122	-67.710	0.500	-0.194
-254.107	142.945	0.147	0.193
-253.092	3.216	-0.579	0.417
-252.078	22.009	0.376	-0.303
-251.063	105.451	0.516	-0.603
-250.049	800.000	0.279	0.983
-249.034	24.884	-0.044	0.036
-248.019	-48.733	-0.130	-0.062
-247.005	-97.053	-0.698	-0.181
-245.990	-90.024	0.486	-0.140
-244.976	-16.980	-0.411	0.257
-243.961	-170.651	0.874	-0.030
-242.946	-200.000	-0.144	-0.697
-241.932	130.448	0.329	0.417
-240.917	800.000	-0.142	0.409
-239.903	9.301	-0.374	0.280
-238.888	-58.398	-0.340	-0.146
-237.873	388.878	0.081	-0.167
-236.859	0.312	0.765	0.540
-235.844	-200.000	0.003	-0.236
-234.830	-65.515	-0.563	0.224
-233.815	-200.000	-0.001	0.635
-232.800	-158.344	0.717	0.041
-231.786	-89.325	-0.591	0.172
-230.771	22.716	0.480	-0.388
-229.757	99.858	0.321	0.368
-228.742	-10.138	0.532	0.349
-227.727	-122.674	0.201	-0.032
-226.713	-73.975	-0.837	-0.300
-225.698	-200.000	-0.141	0.948
-224.684	80.341	0.187	-0.199
-223.669	800.000	0.113	-0.407
-222.655	153.311	0.462	-0.624
-221.640	-200.000	0.100	-1.146
-220.625	800.000	-0.233	-0.730
-219.611	-0.037	0.177	0.125
-218.596	5.544	-0.430	0.313
-217.582	141.596	-0.251	0.328
-216.567	-200.000	0.003	-0.690
-215.552	800.000	0.085	0.282
-214.538	-132.686	0.586	-0.074
-213.523	82.044	-0.376	0.403
-212.509	-180.719	0.603	0.012
-211.494	-62.212	-0.282	0.116
-210.479	-200.000	-0.013	-0.133
-209.465	-18.730	-0.313	0.193
-208.450	181.301	-0.230	-0.334
-207.436	610.352	-0.108	0.265
-206.421	62.794	0.315	-0.312
-205.406	428.890	0.227	-0.484
-204.392	-200.000	-0.102	-0.464
-203.377	44.457	0.163	0.148
-202.363	-200.000	-0.016	-0.535
-201.348	118.378	0.322	-0.393
-200.333	27.477	0.275	0.229
-199.319	-200.000	0.024	-0.268
-198.304	297.200	0.290	-0.526
-197.290	-200.000	-0.129	1.050
-196.275	-60.705	0.241	-0.101
-195.260	-19.593	-0.643	-0.393
-194.246	-200.000	-0.142	1.041
-193.231	268.946	-0.239	-0.413
-192.217	66.586	0.515	-0.517
-191.202	452.870	0.367	0.801
-190.187	145.275	0.082	-0.108
-189.173	202.508	-0.187	0.285
-188.158	165.261	0.417	-0.582
-187.144	-111.311	0.498	-0.100
-186.129	-115.426	0.343	-0.064
-185.114	223.043	0.125	0.198
-184.100	-200.000	0.023	-0.236
-183.085	-175.371	0.323	-0.009
-182.071	-200.000	-0.027	-0.870
-181.056	262.098	0.253	0.434
-180.042	-200.000	-0.069	-0.365
-179.027	15.678	0.477	-0.370
-178.012	-7.721	-0.177	-0.118
-176.998	-91.791	0.766	-0.215
-175.983	800.000	-0.251	1.074
-174.969	-76.932	-1.005	-0.346
-173.954	-128.382	0.410	-0.058
-172.939	28.225	-0.258	-0.215
-171.925	96.646	0.511	0.578
-170.910	-117.192	-0.039	-0.007
-169.896	445.958	-0.115	-0.248
-168.881	800.000	-0.081	0.248
-167.866	14.307	0.538	-0.414
-166.852	-151.269	-0.369	0.027
-165.837	-87.486	-0.593	0.177
-164.823	15.259	0.518	-0.401
-163.808	800.000	-0.073	-0.313
-162.793	479.786	0.444	-0.993
-161.779	-137.190	0.165	-0.019
-160.764	-69.670	-0.397	-0.150
-159.750	37.194	0.423	0.369
-158.735	-22.643	-1.148	0.684
-157.720	81.112	0.249	0.265
-156.706	-200.000	-0.021	-0.107
-155.691	-158.994	0.402	0.022
-154.677	-200.000	0.145	0.713
-153.662	-200.000	0.042	1.052
-152.647	-67.052	0.609	0.237
-151.633	-60.327	0.478	-0.201
-150.618	122.126	0.298	-0.366
-149.604	-149.456	0.485	-0.038
-148.589	121.015	0.222	-0.272
-147.574	-200.000	-0.002	-0.306
-146.560	746.579	-0.175	0.464
-145.545	-200.000	0.066	1.230
-144.531	172.072	-0.195	-0.276
-143.516	148.342	0.105	0.139
-142.502	118.599	-0.442	-0.537
-141.487	2.661	-1.077	-0.769
-140.472	-16.947	0.247	0.154
-139.458	-64.760	0.512	0.204
-138.443	-200.000	0.030	-0.964
-137.429	301.911	0.343	-0.625
-136.414	175.809	-0.221	0.316
-135.399	-200.000	-0.104	0.625
-134.385	65.644	-0.458	0.457
-133.370	184.742	0.513	0.749
-132.356	-88.402	-0.413	0.122
-131.341	-200.000	-0.047	0.391
-130.326	800.000	-0.127	0.472
-129.312	-144.636	0.671	0.061
-128.297	-200.000	-0.123	0.875
-127.283	119.444	0.332	-0.404
-126.268	138.094	-0.223	-0.288
-125.253	-56.246	0.398	-0.174
-124.239	-126.738	0.212	-0.031
-123.224	-26.536	0.120	0.069
-122.210	-200.000	0.138	-1.117
-121.195	104.132	0.428	-0.495
-120.180	800.000	-0.104	-0.293
