DTS Sentinel unit serial number:	SN413079Multiplexer serial number:	ORYXHardware model number:	OX4-SRSoftware version number:	ORYX F/W v4.00 Oryx Data Collector v3.7.2.0data status	okinstallation	princeton_trtdifferential loss correction	single-endedforward channel	channel 2reverse channel	N/Adate	2019/09/12time	07:53:11forward acquisition time	60.00reverse acquisition time	0.00gamma	496.2192k internal	0.2320k external	0.2320temperature offset calibration	1.0063default loss term (dB/km)	0.3790temperature slope calibration	1.0000multiplexer offset coefficient	1.0000multiplexer slope coefficient	1.0000fibre end	0.00T internal ref (°C)	32.94T ext. ref 1 (°C)	1.65T ext. ref 2 (°C)	29.06length (m)	temperature (°C)	Stokes	anti-Stokes-747.200	-153.033	0.231	0.016
-746.185	-80.527	-0.262	-0.088
-745.171	800.000	-0.053	0.184
-744.156	800.000	-0.100	0.280
-743.142	-133.902	0.071	0.009
-742.127	-153.505	-0.265	0.019
-741.112	-93.187	0.245	0.069
-740.098	-200.000	-0.079	0.500
-739.083	36.925	0.293	0.262
-738.069	800.000	-0.047	0.153
-737.054	3.286	0.152	-0.112
-736.039	800.000	-0.017	-0.060
-735.025	765.083	0.093	0.256
-734.010	-200.000	-0.015	-0.123
-732.996	-0.515	-0.131	0.094
-731.981	-83.513	-0.217	-0.070
-730.966	638.735	0.107	0.276
-729.952	80.254	-0.191	-0.207
-728.937	199.976	-0.127	-0.197
-727.923	50.998	-0.083	-0.080
-726.908	-200.000	-0.007	-0.125
-725.894	363.919	0.106	-0.215
-724.879	-171.932	0.212	0.007
-723.864	-200.000	0.016	0.106
-722.850	192.220	-0.043	0.065
-721.835	-30.913	-0.114	0.065
-720.821	800.000	-0.050	-0.195
-719.806	-68.987	0.091	-0.035
-718.791	-123.553	0.319	-0.051
-717.777	35.731	0.200	-0.177
-716.762	-200.000	0.016	-0.335
-715.748	288.477	0.050	-0.091
-714.733	47.720	-0.151	-0.142
-713.718	-48.254	0.030	-0.015
-712.704	-14.683	-0.212	0.137
-711.689	-88.262	-0.139	0.042
-710.675	-35.308	-0.306	-0.168
-709.660	208.063	-0.142	-0.223
-708.645	-106.377	-0.449	-0.101
-707.631	800.000	-0.007	-0.023
-706.616	22.859	-0.096	0.079
-705.602	-200.000	-0.062	-0.280
-704.587	626.049	0.003	-0.009
-703.572	-200.000	0.019	0.292
-702.558	-200.000	-0.036	-0.164
-701.543	713.712	0.150	-0.402
-700.529	24.032	-0.194	0.161
-699.514	800.000	0.057	0.175
-698.499	800.000	0.079	-0.339
-697.485	-200.000	0.007	-0.550
-696.470	160.520	-0.252	-0.355
-695.456	49.804	-0.133	0.126
-694.441	-200.000	0.049	0.249
-693.426	286.790	0.090	0.164
-692.412	-63.234	-0.108	0.045
-691.397	98.951	0.142	0.165
-690.383	143.369	0.095	-0.128
-689.368	437.447	0.174	-0.383
-688.354	-32.350	-0.382	-0.215
-687.339	-166.645	0.376	-0.016
-686.324	-200.000	-0.013	0.380
-685.310	-127.959	-0.113	0.016
-684.295	-77.763	0.141	0.049
-683.281	-172.859	0.166	-0.005
-682.266	-200.000	0.001	-0.121
-681.251	81.266	0.102	-0.111
-680.237	17.020	0.085	-0.068
-679.222	219.726	-0.210	0.339
-678.208	312.477	-0.015	-0.029
-677.193	104.063	-0.023	-0.027
-676.178	35.947	0.432	-0.383
-675.164	-102.715	0.387	-0.093
-674.149	6.213	-0.180	-0.135
-673.135	61.315	-0.168	0.168
-672.120	25.756	-0.107	0.090
-671.105	-39.778	0.084	0.044
-670.091	21.999	0.225	0.185
-669.076	-44.206	-0.121	0.061
-668.062	-109.565	0.103	0.022
-667.047	438.016	-0.119	-0.261
-666.032	-110.169	-0.321	-0.067
-665.018	193.774	0.072	0.110
-664.003	97.961	-0.119	0.139
-662.989	51.159	-0.246	0.235
-661.974	-180.805	0.037	0.001
-660.959	72.466	-0.062	0.065
-659.945	264.150	0.132	-0.232
-658.930	-103.121	-0.006	0.001
-657.916	-200.000	-0.036	-0.194
-656.901	-200.000	0.014	-0.164
-655.886	-105.474	0.186	-0.043
-654.872	145.621	0.162	-0.219
-653.857	-24.268	-0.269	-0.162
-652.843	-111.252	-0.200	0.041
-651.828	520.716	-0.051	0.120
-650.814	117.491	0.107	-0.133
-649.799	-200.000	0.030	-0.222
-648.784	-200.000	0.057	0.393
-647.770	800.000	0.115	-0.473
-646.755	-116.121	0.197	-0.037
-645.741	348.222	-0.114	-0.226
-644.726	-200.000	0.028	0.218
-643.711	-67.579	-0.178	-0.070
-642.697	760.008	0.041	0.111
-641.682	-31.144	-0.278	-0.158
-640.668	-4.955	-0.331	0.230
-639.653	-200.000	-0.014	0.067
-638.638	-130.141	0.247	-0.034
-637.624	800.000	0.078	-0.269
-636.609	800.000	0.029	0.106
-635.595	-148.837	0.104	0.008
-634.580	197.638	0.106	-0.162
-633.565	-150.735	0.279	0.021
-632.551	-135.278	-0.111	0.013
-631.536	178.260	-0.179	-0.264
-630.522	399.723	0.032	0.067
-629.507	126.659	0.136	0.173
-628.492	-200.000	-0.074	0.420
-627.478	-53.107	-0.419	-0.194
-626.463	-80.034	-0.028	-0.009
-625.449	7.393	0.153	-0.115
-624.434	172.939	-0.093	0.135
-623.419	800.000	-0.097	0.270
-622.405	-6.178	0.256	-0.176
-621.390	224.114	0.118	0.191
-620.376	-200.000	-0.019	-0.272
-619.361	-46.554	-0.097	-0.048
-618.346	-200.000	0.043	-0.344
-617.332	-105.456	-0.209	-0.048
-616.317	-72.717	0.260	-0.097
-615.303	442.717	0.052	0.114
-614.288	37.279	0.152	-0.135
-613.273	-94.883	-0.365	0.099
-612.259	-81.504	-0.111	-0.037
-611.244	-200.000	0.069	0.330
-610.230	168.833	-0.100	-0.143
-609.215	-200.000	-0.010	-0.178
-608.201	-182.710	-0.212	-0.004
-607.186	-2.040	-0.118	0.083
-606.171	800.000	-0.092	0.259
-605.157	236.756	-0.129	-0.215
-604.142	104.727	-0.155	0.184
-603.128	83.164	-0.172	-0.188
-602.113	-125.509	0.354	0.054
-601.098	148.748	0.334	0.453
-600.084	-195.650	0.103	-0.001
-599.069	-173.428	0.195	-0.006
-598.055	472.375	-0.122	0.276
-597.040	-101.182	0.380	0.093
-596.025	-200.000	-0.001	0.116
-595.011	-200.000	0.044	-0.223
-593.996	-200.000	0.061	-0.329
-592.982	74.178	-0.074	0.078
-591.967	-189.512	0.279	0.003
-590.952	-57.796	-0.159	-0.070
-589.938	-30.564	0.361	-0.206
-588.923	-143.512	-0.554	0.053
-587.909	-24.765	-0.157	-0.094
-586.894	184.251	-0.142	0.212
-585.879	-51.884	-0.430	0.201
-584.865	-128.556	-0.235	-0.034
-583.850	800.000	-0.036	0.133
-582.836	-69.029	-0.282	-0.109
-581.821	191.628	0.061	0.092
-580.806	3.001	0.079	-0.058
-579.792	-72.133	-0.272	-0.101
-578.777	-95.061	-0.510	-0.138
-577.763	800.000	0.167	-0.464
-576.748	304.458	-0.183	-0.342
-575.733	-4.140	0.137	0.095
-574.719	455.325	0.078	-0.175
-573.704	101.326	-0.205	0.240
-572.690	-200.000	-0.039	-0.256
-571.675	-200.000	-0.051	0.258
-570.661	800.000	-0.079	0.327
-569.646	309.755	-0.102	0.191
-568.631	103.929	0.092	0.108
-567.617	9.104	-0.280	-0.212
-566.602	-58.225	0.292	0.128
-565.588	-200.000	-0.025	-0.136
-564.573	-200.000	-0.005	0.414
-563.558	-137.439	-0.065	0.007
-562.544	200.872	-0.127	-0.196
-561.529	-28.380	-0.230	-0.133
-560.515	-124.771	-0.465	0.072
-559.500	-48.081	0.199	-0.096
-558.485	-17.235	-0.095	0.060
-557.471	99.366	0.109	0.126
-556.456	-200.000	-0.074	-0.383
-555.442	427.089	0.047	-0.102
-554.427	130.266	0.051	0.066
-553.412	-46.402	0.106	-0.052
-552.398	418.997	-0.101	-0.217
-551.383	-64.693	-0.092	-0.037
-550.369	52.648	0.012	0.012
-549.354	800.000	-0.098	0.292
-548.339	-133.668	0.175	0.022
-547.325	-200.000	0.016	0.276
-546.310	148.583	-0.097	-0.131
-545.296	214.542	-0.168	-0.267
-544.281	-200.000	0.008	0.224
-543.266	42.558	-0.227	0.208
-542.252	-128.905	0.316	-0.044
-541.237	800.000	0.027	-0.077
-540.223	-78.749	0.206	-0.071
-539.208	-63.061	-0.218	-0.090
-538.193	800.000	0.126	-0.357
-537.179	-200.000	-0.016	-0.179
-536.164	71.973	0.149	0.155
-535.150	-200.000	0.038	-0.186
-534.135	800.000	-0.021	-0.073
-533.121	-50.046	-0.253	-0.120
-532.106	215.627	-0.303	-0.483
-531.091	-63.439	0.203	-0.084
-530.077	-200.000	0.050	0.272
-529.062	-71.224	-0.433	0.163
-528.048	195.447	-0.068	-0.103
-527.033	313.577	-0.130	-0.245
-526.018	-27.521	0.211	-0.123
-525.004	-200.000	0.011	0.184
-523.989	-55.808	0.110	0.049
-522.975	-96.255	0.175	-0.046
-521.960	-200.000	-0.013	0.237
-520.945	253.588	-0.182	0.311
-519.931	800.000	0.059	0.198
-518.916	-200.000	-0.012	-0.113
-517.902	800.000	0.053	-0.183
-516.887	-130.136	-0.175	0.024
-515.872	-118.935	-0.400	-0.070
-514.858	41.523	-0.078	0.071
-513.843	134.350	-0.045	-0.058
-512.829	2.167	-0.252	-0.182
-511.814	8.854	0.119	0.090
-510.799	50.286	0.231	0.219
-509.785	-45.836	0.118	0.058
-508.770	-169.817	0.354	-0.013
-507.756	-67.089	0.155	-0.061
-506.741	-200.000	0.000	0.138
-505.726	7.270	-0.204	-0.153
-504.712	283.612	-0.040	-0.073
-503.697	-110.709	-0.352	-0.073
-502.683	281.554	0.057	0.103
-501.668	0.693	0.178	0.128
-500.653	141.764	-0.246	-0.326
-499.639	-109.982	-0.354	-0.074
-498.624	800.000	0.018	-0.073
-497.610	266.814	0.099	0.172
-496.595	-114.953	-0.236	-0.045
-495.581	86.648	0.301	-0.333
-494.566	240.200	-0.196	-0.327
-493.551	-19.632	0.163	0.101
-492.537	-162.594	0.214	-0.011
-491.522	3.831	-0.155	-0.114
-490.508	-11.333	0.173	-0.114
-489.493	261.038	0.068	0.118
-488.478	800.000	-0.076	-0.211
-487.464	-123.269	-0.342	-0.055
-486.449	404.977	0.059	-0.124
-485.435	285.514	-0.082	0.147
-484.420	-147.608	0.338	0.028
-483.405	-125.881	-0.254	0.038
-482.391	427.424	-0.125	-0.270
-481.376	-129.272	-0.181	0.025
-480.362	-142.176	0.404	0.040
-479.347	71.668	-0.051	0.053
-478.332	4.416	-0.231	0.170
-477.318	-126.731	0.188	-0.028
-476.303	122.836	0.269	-0.336
-475.289	334.069	0.104	0.202
-474.274	-200.000	0.080	0.000
-473.259	-24.062	-0.053	-0.031
-472.245	20.509	0.117	-0.094
-471.230	698.182	0.095	0.249
-470.216	-127.361	-0.243	0.035
-469.201	-186.790	0.202	0.003
-468.186	-25.549	0.409	0.242
-467.172	329.963	0.055	-0.107
-466.157	-44.410	0.069	0.035
-465.143	-200.000	-0.044	0.207
-464.128	-59.759	0.018	0.008
-463.113	623.878	0.021	0.052
-462.099	22.137	0.202	-0.165
-461.084	800.000	0.088	-0.328
-460.070	-145.702	0.121	0.011
-459.055	2.542	0.154	-0.111
-458.040	-110.456	0.308	0.064
-457.026	17.202	-0.214	-0.170
-456.011	-200.000	-0.021	0.150
-454.997	-200.000	0.006	0.193
-453.982	-72.785	0.083	0.031
-452.968	-78.020	0.182	0.063
-451.953	252.210	-0.130	0.221
-450.938	73.766	-0.108	0.113
-449.924	-200.000	0.003	0.069
-448.909	-10.582	0.120	-0.080
-447.895	-82.325	0.373	-0.121
-446.880	-200.000	0.018	0.095
-445.865	-200.000	-0.036	0.300
-444.851	800.000	-0.079	0.249
-443.836	246.996	-0.061	0.102
-442.822	-106.479	0.288	-0.064
-441.807	428.129	0.158	-0.340
-440.792	-200.000	0.019	-0.148
-439.778	800.000	-0.146	-0.456
-438.763	-2.583	0.118	0.083
-437.749	49.185	-0.089	-0.083
-436.734	42.016	0.122	-0.110
-435.719	252.491	-0.172	-0.293
-434.705	-200.000	0.021	-0.202
-433.690	-102.652	0.054	-0.013
-432.676	198.603	-0.184	0.281
-431.661	-26.323	0.332	-0.195
-430.646	147.712	-0.027	-0.037
-429.632	110.196	-0.195	0.233
-428.617	183.536	-0.128	0.190
-427.603	800.000	-0.050	-0.158
-426.588	-68.780	0.325	-0.126
-425.573	151.962	-0.138	0.188
-424.559	158.051	-0.106	-0.147
-423.544	-200.000	0.110	0.539
-422.530	47.126	-0.227	0.211
-421.515	210.677	0.269	-0.421
-420.500	-200.000	-0.053	0.327
-419.486	-56.809	0.129	0.057
-418.471	417.563	-0.216	-0.461
-417.457	-22.111	-0.170	0.103
-416.442	43.462	0.136	-0.124
-415.428	-200.000	0.002	-0.035
-414.413	-152.918	-0.088	0.006
-413.398	-50.119	-0.245	-0.116
-412.384	-3.093	0.155	-0.108
-411.369	496.763	-0.059	0.134
-410.355	-200.000	0.002	0.201
-409.340	-41.318	-0.304	0.156
-408.325	800.000	-0.103	0.323
-407.311	166.711	0.011	0.016
-406.296	70.290	-0.070	0.073
-405.282	-117.606	0.166	-0.030
-404.267	-43.211	-0.165	-0.083
-403.252	94.682	-0.222	0.252
-402.238	-12.244	-0.104	0.068
-401.223	128.401	0.078	-0.100
-400.209	82.561	0.170	0.184
-399.194	-7.050	-0.229	0.155
-398.179	-120.502	-0.352	0.060
-397.165	33.201	-0.055	0.047
-396.150	800.000	0.029	-0.125
-395.136	-40.687	0.403	-0.208
-394.121	-136.974	-0.241	0.028
-393.106	130.766	-0.245	-0.313
-392.092	13.136	0.315	-0.243
-391.077	800.000	-0.101	-0.309
-390.063	192.065	0.196	0.295
-389.048	-133.219	0.139	0.017
-388.033	222.701	-0.070	-0.112
-387.019	-200.000	0.015	0.241
-386.004	-20.901	-0.351	0.214
-384.990	311.274	-0.094	0.176
-383.975	127.695	0.178	0.225
-382.960	27.289	0.372	-0.312
-381.946	29.150	0.231	0.195
-380.931	561.035	0.017	0.040
-379.917	-183.437	-0.197	-0.003
-378.902	800.000	-0.064	-0.254
-377.888	-72.911	0.333	0.122
-376.873	170.972	-0.219	-0.313
-375.858	800.000	0.034	0.111
-374.844	-200.000	0.037	0.525
-373.829	510.536	0.047	0.108
-372.815	-200.000	0.002	0.067
-371.800	330.843	-0.066	0.127
-370.785	-200.000	-0.051	0.314
-369.771	20.170	-0.078	-0.062
-368.756	164.107	-0.209	-0.293
-367.742	-164.304	-0.104	0.005
-366.727	101.930	-0.064	-0.075
-365.712	181.672	-0.051	-0.075
-364.698	66.431	-0.197	-0.199
-363.683	-151.654	0.230	-0.017
-362.669	-131.836	0.176	0.023
-361.654	141.428	0.141	-0.186
-360.639	420.959	0.142	0.303
-359.625	-200.000	0.069	0.362
-358.610	581.109	0.062	-0.151
-357.596	800.000	0.087	-0.333
-356.581	299.220	0.055	0.101
-355.566	32.483	0.141	0.121
-354.552	358.679	-0.115	-0.229
-353.537	6.057	0.095	0.070
-352.523	-7.787	0.166	0.112
-351.508	-60.878	0.221	0.093
-350.493	-79.358	0.333	-0.112
-349.479	800.000	-0.036	-0.147
-348.464	-178.966	0.258	-0.006
-347.450	253.546	0.034	-0.058
-346.435	20.320	0.361	0.290
-345.420	585.030	-0.113	0.277
-344.406	648.333	-0.025	0.064
-343.391	67.406	-0.157	0.159
-342.377	-10.490	0.151	-0.099
-341.362	-120.892	0.136	0.023
-340.348	-48.728	0.282	0.135
-339.333	-200.000	-0.002	0.125
-338.318	146.905	0.244	-0.326
-337.304	-200.000	0.008	-0.486
-336.289	779.173	0.110	0.300
-335.275	-24.033	0.098	0.058
-334.260	-75.093	-0.147	0.052
-333.245	-93.135	0.281	0.078
-332.231	-109.776	0.119	0.025
-331.216	514.074	-0.079	0.183
-330.202	329.090	-0.087	0.166
-329.187	-200.000	-0.029	0.143
-328.172	37.946	-0.119	-0.105
-327.158	44.000	0.167	-0.152
-326.143	39.255	-0.260	-0.231
-325.129	-66.449	0.137	0.054
-324.114	-70.625	0.412	0.155
-323.099	444.350	-0.151	0.329
-322.085	-70.437	0.059	0.022
-321.070	-168.841	-0.345	0.013
-320.056	202.872	-0.149	0.229
-319.041	-200.000	0.011	-0.423
-318.026	35.929	-0.203	0.178
-317.012	209.209	-0.153	-0.239
-315.997	-200.000	-0.089	-0.426
-314.983	131.248	-0.221	0.282
-313.968	-200.000	0.034	-0.419
-312.953	-86.474	0.284	0.087
-311.939	413.162	-0.122	0.258
-310.924	-92.846	-0.052	-0.015
-309.910	-20.504	-0.329	0.201
-308.895	800.000	-0.030	-0.089
-307.880	-59.214	0.141	-0.060
-306.866	42.784	0.095	-0.086
-305.851	-157.527	-0.236	0.014
-304.837	-31.596	-0.215	-0.120
-303.822	-189.760	-0.145	-0.002
-302.807	-110.935	0.081	0.016
-301.793	800.000	0.011	0.038
-300.778	-54.278	0.180	-0.081
-299.764	309.224	0.041	-0.076
-298.749	-10.140	-0.095	-0.063
-297.735	-200.000	0.029	-0.256
-296.720	800.000	0.058	0.160
-295.705	-28.844	-0.183	-0.105
-294.691	-200.000	-0.016	-0.125
-293.676	-61.231	-0.191	-0.080
-292.662	-176.542	-0.284	-0.007
-291.647	452.496	-0.121	-0.265
-290.632	323.646	-0.097	-0.184
-289.618	-75.120	0.398	-0.141
-288.603	119.841	0.186	-0.229
-287.589	254.014	-0.218	0.370
-286.574	-5.256	0.064	-0.044
-285.559	46.347	0.094	0.087
-284.545	-13.355	-0.202	0.130
-283.530	-200.000	0.013	0.139
-282.516	-95.920	0.172	0.046
-281.501	785.860	-0.125	-0.341
-280.486	-154.464	-0.192	0.013
-279.472	11.009	0.322	0.244
-278.457	-159.878	0.479	-0.026
-277.443	237.319	-0.288	0.475
-276.428	49.339	0.050	0.047
-275.413	-108.737	0.367	0.078
-274.399	41.447	0.138	-0.124
-273.384	-117.420	-0.178	0.032
-272.370	-132.870	-0.295	0.037
-271.355	147.628	0.060	0.080
-270.340	566.741	0.042	0.101
-269.326	227.096	0.075	-0.121
-268.311	58.902	-0.088	0.086
-267.297	-200.000	0.016	-0.098
-266.282	-200.000	0.019	0.139
-265.267	704.996	0.073	0.192
-264.253	155.102	0.140	-0.191
-263.238	-164.204	0.097	-0.004
-262.224	-200.000	0.024	0.310
-261.209	800.000	0.063	0.216
-260.195	-200.000	0.038	0.231
-259.180	15.450	-0.155	0.121
-258.165	16.224	-0.357	-0.279
-257.151	795.091	0.046	-0.125
-256.136	800.000	-0.092	0.365
-255.122	-200.000	-0.024	-0.228
-254.107	800.000	0.097	0.370
-253.092	10.368	-0.236	0.178
-252.078	-40.830	0.242	0.124
-251.063	146.006	-0.121	0.160
-250.049	-76.916	0.152	0.053
-249.034	553.248	-0.139	0.331
-248.019	52.021	0.124	0.117
-247.005	10.128	0.054	-0.040
-245.990	-200.000	0.003	-0.061
-244.976	-112.182	0.086	0.017
-243.961	233.373	-0.120	0.197
-242.946	298.927	0.195	-0.356
-241.932	-108.380	0.134	-0.029
-240.917	14.159	0.124	-0.096
-239.903	-78.182	0.274	-0.093
-238.888	-200.000	0.034	0.352
-237.873	272.927	0.089	-0.155
-236.859	-164.673	-0.106	-0.005
-235.844	27.628	-0.118	0.099
-234.830	-184.645	-0.261	-0.004
-233.815	121.982	-0.209	0.258
-232.800	-200.000	0.015	0.150
-231.786	-94.091	0.113	-0.031
-230.771	551.616	-0.148	-0.352
-229.757	70.418	0.236	0.242
-228.742	-200.000	0.048	0.303
-227.727	-151.030	-0.207	0.015
-226.713	-150.172	0.228	0.017
-225.698	175.692	0.107	-0.153
-224.684	184.322	-0.120	-0.176
-223.669	280.872	0.168	0.298
-222.655	19.259	-0.152	0.121
-221.640	-200.000	0.081	0.370
-220.625	-38.377	0.176	0.092
-219.611	-49.963	0.141	0.066
-218.596	-200.000	-0.031	0.174
-217.582	-130.667	-0.129	-0.017
-216.567	-96.523	0.042	-0.011
-215.552	-40.584	0.229	0.118
-214.538	800.000	-0.073	-0.304
-213.523	-186.078	0.337	0.005
-212.509	800.000	0.094	-0.400
-211.494	-26.697	0.141	0.082
-210.479	-200.000	0.008	0.206
-209.465	-20.567	-0.319	0.194
-208.450	800.000	-0.035	0.123
-207.436	-200.000	0.028	-0.220
-206.421	800.000	0.051	-0.162
-205.406	800.000	0.055	-0.184
-204.392	-62.069	-0.144	0.059
-203.377	-200.000	0.017	-0.308
-202.363	800.000	-0.032	0.108
-201.348	383.922	-0.161	0.328
-200.333	-50.385	0.204	0.095
-199.319	250.487	-0.026	-0.043
-198.304	-102.707	-0.147	0.035
-197.290	57.186	0.196	-0.189
-196.275	-78.127	-0.392	-0.133
-195.260	-58.781	-0.156	-0.067
-194.246	-52.679	-0.045	-0.021
-193.231	-80.822	0.156	0.051
-192.217	35.509	-0.016	0.013
-191.202	-74.950	0.133	-0.047
-190.187	391.964	0.108	-0.221
-189.173	335.270	-0.027	0.051
-188.158	-12.837	0.191	0.123
-187.144	-200.000	-0.024	-0.245
-186.129	-169.061	-0.161	-0.006
-185.114	-55.931	-0.300	-0.133
-184.100	-1.096	-0.162	0.113
-183.085	800.000	-0.046	-0.156
-182.071	202.909	-0.015	0.023
-181.056	-200.000	0.070	-0.338
-180.042	290.500	-0.223	-0.400
-179.027	75.317	0.081	0.084
-178.012	-200.000	0.001	0.112
-176.998	103.692	0.299	-0.348
-175.983	-200.000	-0.017	0.170
-174.969	192.418	-0.100	-0.150
-173.954	800.000	0.105	-0.315
-172.939	800.000	0.157	-0.646
-171.925	-141.546	0.207	-0.021
-170.910	16.653	-0.199	-0.156
-169.896	-12.136	0.128	0.083
-168.881	-116.179	0.025	-0.005
-167.866	-113.745	-0.465	0.090
-166.852	198.962	0.178	0.270
-165.837	-93.024	-0.180	0.050
-164.823	349.616	-0.043	-0.085
-163.808	-53.159	0.057	-0.026
-162.793	-52.903	0.170	0.078
-161.779	217.669	0.188	-0.296
-160.764	-200.000	0.008	-0.205
-159.750	-200.000	-0.018	0.122
-158.735	-81.977	-0.030	0.010
-157.720	800.000	0.142	0.466
-156.706	800.000	0.103	0.287
-155.691	-16.876	0.091	0.057
-154.677	27.639	-0.084	0.070
-153.662	-200.000	0.049	-0.310
-152.647	185.288	-0.052	-0.076
-151.633	-200.000	0.013	0.158
-150.618	-75.108	0.076	0.027
-149.604	-126.222	0.373	0.055
-148.589	800.000	0.095	-0.360
-147.574	800.000	-0.071	0.300
-146.560	64.870	-0.124	-0.124
-145.545	-114.957	0.053	0.010
-144.531	-200.000	-0.024	0.127
-143.516	800.000	0.088	-0.257
-142.502	-39.094	-0.290	-0.150
-141.487	64.372	0.120	0.119
-140.472	-116.650	0.109	-0.020
-139.458	-63.008	0.045	0.019
-138.443	-23.761	0.063	-0.037
-137.429	212.454	0.129	-0.201
-136.414	-22.604	-0.084	-0.050
-135.399	434.403	0.202	0.432
-134.385	-52.489	0.263	0.120
-133.370	-200.000	-0.026	0.216
-132.356	346.718	0.054	-0.106
-131.341	175.965	0.182	0.260
-130.326	146.249	-0.233	0.308
-129.312	-194.092	-0.238	-0.002
-128.297	89.935	0.186	-0.205
-127.283	38.731	0.319	-0.281
-126.268	65.421	-0.262	-0.262
-125.253	446.456	0.103	-0.223
-124.239	-24.742	0.162	0.095
-123.224	295.324	-0.097	-0.175
-122.210	-200.000	0.011	-0.241
-121.195	97.421	0.043	-0.049
