DTS Sentinel unit serial number:	SN413079Multiplexer serial number:	ORYXHardware model number:	OX4-SRSoftware version number:	ORYX F/W v4.00 Oryx Data Collector v3.7.2.0data status	okinstallation	princeton_trtdifferential loss correction	single-endedforward channel	channel 2reverse channel	N/Adate	2019/09/10time	16:41:11forward acquisition time	60.00reverse acquisition time	0.00gamma	496.2192k internal	0.2311k external	0.2311temperature offset calibration	0.9932default loss term (dB/km)	0.3790temperature slope calibration	1.0000multiplexer offset coefficient	1.0000multiplexer slope coefficient	1.0000fibre end	0.00T internal ref (°C)	37.81T ext. ref 1 (°C)	-0.29T ext. ref 2 (°C)	30.32length (m)	temperature (°C)	Stokes	anti-Stokes-747.200	162.830	0.112	-0.159
-746.185	800.000	0.067	0.265
-745.171	-29.648	0.389	-0.226
-744.156	773.279	-0.052	-0.145
-743.142	128.045	-0.128	-0.165
-742.127	-99.130	0.233	-0.060
-741.112	-200.000	-0.044	0.314
-740.098	91.234	0.198	0.225
-739.083	-136.162	0.215	-0.025
-738.069	-7.368	0.224	-0.154
-737.054	-37.578	0.423	0.229
-736.039	-121.070	-0.080	-0.014
-735.025	-153.008	0.485	-0.035
-734.010	364.251	-0.262	-0.535
-732.996	49.887	-0.184	-0.176
-731.981	-100.094	0.178	0.045
-730.966	342.402	0.136	0.271
-729.952	-80.655	0.214	-0.072
-728.937	-200.000	0.005	-0.134
-727.923	-200.000	-0.011	0.144
-726.908	-5.260	0.250	-0.175
-725.894	-117.989	-0.333	-0.060
-724.879	-200.000	0.013	0.265
-723.864	-168.566	-0.560	-0.022
-722.850	-200.000	-0.074	-0.408
-721.835	182.762	0.073	0.109
-720.821	-148.353	-0.327	-0.027
-719.806	521.848	-0.041	0.098
-718.791	227.175	-0.109	0.179
-717.777	179.350	-0.215	-0.319
-716.762	-42.420	0.161	0.083
-715.748	800.000	0.055	0.196
-714.733	-123.564	0.306	0.049
-713.718	62.139	0.165	-0.167
-712.704	599.539	-0.155	0.390
-711.689	355.527	-0.069	-0.138
-710.675	-200.000	0.032	-0.233
-709.660	-109.603	0.180	0.038
-708.645	-102.182	0.174	-0.043
-707.631	-75.804	-0.388	0.139
-706.616	297.299	-0.098	0.182
-705.602	-180.906	0.088	0.002
-704.587	-50.901	-0.446	-0.212
-703.572	91.077	-0.208	-0.236
-702.558	-200.000	0.038	0.278
-701.543	756.587	-0.072	0.197
-700.529	109.713	-0.080	-0.098
-699.514	800.000	-0.110	0.389
-698.499	715.430	0.050	0.135
-697.485	-23.221	-0.326	0.199
-696.470	60.935	0.199	-0.200
-695.456	800.000	0.056	0.215
-694.441	551.792	-0.089	-0.217
-693.426	-21.110	-0.088	0.055
-692.412	-28.850	0.325	-0.189
-691.397	-189.402	-0.076	0.001
-690.383	-81.544	-0.213	0.071
-689.368	-74.481	0.184	-0.067
-688.354	138.177	-0.180	0.239
-687.339	-35.362	-0.360	0.198
-686.324	157.627	0.155	-0.217
-685.310	-43.300	0.255	-0.131
-684.295	-164.658	0.081	0.004
-683.281	741.158	-0.063	0.173
-682.266	-200.000	-0.008	0.238
-681.251	178.136	-0.018	0.026
-680.237	303.985	0.135	0.254
-679.222	-76.902	-0.153	-0.054
-678.208	22.519	0.103	-0.086
-677.193	-20.585	-0.139	0.086
-676.178	-127.835	0.124	-0.018
-675.164	-68.176	-0.168	-0.066
-674.149	5.078	0.135	-0.101
-673.135	-200.000	0.060	-0.278
-672.120	-200.000	-0.175	-0.000
-671.105	-49.568	-0.184	0.089
-670.091	800.000	0.027	-0.086
-669.076	85.780	0.148	0.165
-668.062	-200.000	0.061	-0.493
-667.047	-56.812	0.178	0.080
-666.032	800.000	-0.062	0.254
-665.018	-200.000	-0.007	0.291
-664.003	415.675	0.051	0.109
-662.989	800.000	0.077	-0.332
-661.974	207.853	-0.080	-0.127
-660.959	5.906	-0.198	-0.148
-659.945	-7.236	-0.183	0.125
-658.930	-157.076	0.122	-0.008
-657.916	-140.731	-0.044	0.005
-656.901	-150.374	0.196	-0.015
-655.886	800.000	0.090	0.255
-654.872	-57.393	-0.337	-0.150
-653.857	800.000	-0.038	0.129
-652.843	-200.000	0.019	0.120
-651.828	-86.583	0.129	0.040
-650.814	76.037	0.057	0.061
-649.799	287.682	-0.227	0.415
-648.784	39.012	0.285	0.257
-647.770	-48.369	-0.143	-0.070
-646.755	-200.000	-0.043	-0.330
-645.741	-108.803	0.215	-0.047
-644.726	-200.000	0.025	-0.144
-643.711	-95.582	-0.374	0.101
-642.697	-113.545	-0.046	-0.009
-641.682	-4.344	-0.079	-0.055
-640.668	-115.002	-0.325	-0.062
-639.653	-87.476	0.135	0.041
-638.638	1.826	-0.139	-0.101
-637.624	800.000	0.057	0.158
-636.609	800.000	-0.088	0.335
-635.595	-200.000	0.068	-0.304
-634.580	31.597	-0.118	0.102
-633.565	800.000	-0.034	0.113
-632.551	-63.983	0.191	-0.079
-631.536	41.061	0.117	0.107
-630.522	127.450	0.169	0.217
-629.507	423.452	-0.115	0.250
-628.492	17.166	-0.176	-0.141
-627.478	218.847	0.130	0.209
-626.463	316.554	0.085	0.162
-625.449	41.294	-0.087	-0.079
-624.434	-200.000	-0.021	0.159
-623.419	-131.747	0.200	-0.027
-622.405	800.000	0.052	0.151
-621.390	-176.363	-0.209	0.005
-620.376	-7.132	0.238	-0.163
-619.361	33.510	-0.244	-0.214
-618.346	262.711	-0.082	-0.143
-617.332	289.329	0.142	-0.261
-616.317	-48.855	0.092	-0.045
-615.303	126.770	-0.173	-0.222
-614.288	283.731	0.086	0.156
-613.273	76.502	-0.155	-0.165
-612.259	213.248	0.143	-0.228
-611.244	-46.003	0.104	-0.052
-610.230	767.183	-0.031	0.084
-609.215	-147.637	-0.281	0.024
-608.201	-65.956	0.235	0.095
-607.186	-185.760	-0.293	-0.004
-606.171	167.569	0.197	0.282
-605.157	130.399	0.265	-0.343
-604.142	-147.540	0.117	0.010
-603.128	189.015	-0.127	0.191
-602.113	229.008	0.239	0.394
-601.098	-183.338	-0.395	-0.007
-600.084	-200.000	-0.013	0.223
-599.069	-200.000	0.055	-0.315
-598.055	-20.677	-0.216	0.134
-597.040	800.000	0.043	-0.142
-596.025	193.027	-0.115	0.176
-595.011	800.000	-0.116	-0.381
-593.996	-70.909	0.144	-0.055
-592.982	800.000	0.010	0.035
-591.967	-90.088	0.245	-0.072
-590.952	522.754	0.145	-0.344
-589.938	63.709	-0.080	0.081
-588.923	-37.538	0.246	0.132
-587.909	-60.831	-0.265	-0.113
-586.894	69.980	0.131	-0.136
-585.879	-87.123	-0.268	-0.082
-584.865	-136.763	0.106	0.012
-583.850	-200.000	-0.022	-0.112
-582.836	-128.695	0.155	0.022
-581.821	225.524	0.072	-0.117
-580.806	49.238	-0.145	-0.137
-579.792	-39.460	0.145	0.077
-578.777	-126.763	0.095	-0.014
-577.763	-33.702	0.004	0.002
-576.748	-91.900	0.306	-0.087
-575.733	-200.000	0.020	-0.167
-574.719	379.146	0.127	0.262
-573.704	-175.896	-0.133	0.004
-572.690	110.528	0.199	0.241
-571.675	21.094	-0.246	0.201
-570.661	175.406	-0.095	-0.138
-569.646	87.840	-0.339	0.378
-568.631	643.523	-0.151	-0.389
-567.617	-200.000	-0.018	-0.127
-566.602	-33.409	0.235	0.131
-565.588	-200.000	-0.032	-0.281
-564.573	-78.458	0.128	-0.044
-563.558	130.284	0.033	0.043
-562.544	-200.000	-0.017	0.091
-561.529	-200.000	0.030	-0.213
-560.515	-83.393	-0.097	0.031
-559.500	-85.014	0.122	0.038
-558.485	-16.303	0.384	0.246
-557.471	228.800	-0.059	0.097
-556.456	444.571	-0.093	-0.206
-555.442	-200.000	-0.050	-0.506
-554.427	-200.000	-0.012	-0.134
-553.412	-200.000	-0.003	-0.134
-552.398	-95.556	-0.121	-0.033
-551.383	181.369	0.166	-0.245
-550.369	68.406	-0.234	-0.242
-549.354	-32.301	0.072	-0.040
-548.339	-200.000	-0.018	-0.080
-547.325	-57.121	-0.163	0.073
-546.310	-87.913	-0.229	-0.069
-545.296	110.510	-0.009	-0.011
-544.281	179.590	-0.091	0.135
-543.266	-80.199	-0.223	0.075
-542.252	-47.231	0.277	0.136
-541.237	398.528	0.089	-0.187
-540.223	357.347	-0.157	-0.315
-539.208	-137.433	0.155	-0.018
-538.193	-152.807	0.403	0.029
-537.179	800.000	-0.072	0.225
-536.164	684.667	-0.078	-0.206
-535.150	-69.424	-0.422	0.163
-534.135	72.671	-0.339	0.356
-533.121	322.001	0.139	-0.267
-532.106	498.910	0.094	0.218
-531.091	-133.709	0.265	-0.033
-530.077	160.833	0.156	0.219
-529.062	375.808	0.182	-0.374
-528.048	116.860	0.240	-0.297
-527.033	339.401	-0.245	-0.481
-526.018	353.515	0.097	0.194
-525.004	85.019	0.173	0.191
-523.989	378.558	-0.053	-0.109
-522.975	-43.105	-0.157	0.080
-521.960	156.050	0.136	-0.189
-520.945	528.143	-0.100	-0.237
-519.931	-57.696	-0.465	0.205
-518.916	0.340	0.161	-0.116
-517.902	800.000	-0.023	0.088
-516.887	-183.948	-0.525	-0.009
-515.872	-45.924	-0.136	-0.068
-514.858	-200.000	0.007	-0.200
-513.843	800.000	-0.078	-0.254
-512.829	-200.000	0.018	0.281
-511.814	454.368	0.041	0.092
-510.799	-15.262	-0.152	-0.098
-509.785	-79.342	-0.312	0.106
-508.770	-20.737	0.159	0.098
-507.756	-72.415	-0.128	0.047
-506.741	-12.971	0.242	0.159
-505.726	400.625	-0.052	0.109
-504.712	-32.549	0.347	0.194
-503.697	-200.000	0.003	-0.139
-502.683	800.000	0.141	-0.458
-501.668	800.000	0.120	0.441
-500.653	-19.020	-0.196	0.123
-499.639	-200.000	-0.022	-0.172
-498.624	293.622	0.095	0.174
-497.610	-200.000	-0.030	-0.140
-496.595	-200.000	0.037	0.300
-495.581	-200.000	-0.029	0.385
-494.566	394.037	-0.128	-0.269
-493.551	647.032	-0.025	0.065
-492.537	53.542	-0.082	0.079
-491.522	174.055	0.005	-0.007
-490.508	161.878	0.067	-0.095
-489.493	8.500	-0.320	-0.242
-488.478	135.378	0.248	-0.324
-487.464	-46.101	0.149	-0.074
-486.449	-70.306	-0.249	0.095
-485.435	-200.000	-0.017	-0.086
-484.420	-98.995	-0.392	-0.100
-483.405	91.109	-0.093	0.105
-482.391	-200.000	0.043	0.408
-481.376	58.214	-0.170	-0.168
-480.362	-180.625	-0.274	0.006
-479.347	-71.347	0.258	-0.097
-478.332	477.923	-0.099	0.226
-477.318	465.382	0.086	0.194
-476.303	-61.102	-0.313	0.133
-475.289	229.550	-0.072	0.118
-474.274	71.248	-0.135	0.141
-473.259	-149.081	0.197	-0.016
-472.245	-111.621	-0.180	-0.037
-471.230	-200.000	0.046	-0.247
-470.216	-200.000	-0.008	-0.377
-469.201	-47.202	-0.144	-0.071
-468.186	234.163	0.095	-0.157
-467.172	-11.105	-0.228	-0.151
-466.157	373.578	-0.064	0.130
-465.143	800.000	-0.045	-0.172
-464.128	800.000	0.007	-0.020
-463.113	-84.861	-0.152	0.048
-462.099	-107.113	-0.604	-0.134
-461.084	57.544	0.036	0.035
-460.070	294.685	0.036	-0.065
-459.055	-200.000	0.015	0.198
-458.040	-29.552	-0.245	-0.140
-457.026	218.884	0.132	0.212
-456.011	800.000	0.041	-0.164
-454.997	-37.188	-0.332	-0.178
-453.982	13.647	0.370	0.288
-452.968	618.166	-0.126	0.317
-451.953	-200.000	-0.015	0.136
-450.938	-29.308	-0.307	-0.177
-449.924	540.827	-0.039	0.092
-448.909	165.174	0.064	-0.091
-447.895	36.571	-0.167	0.148
-446.880	284.605	-0.256	0.462
-445.865	47.777	0.183	-0.172
-444.851	-150.494	0.223	-0.017
-443.836	-130.914	0.160	-0.021
-442.822	800.000	-0.022	0.089
-441.807	800.000	-0.063	0.190
-440.792	89.602	-0.230	0.257
-439.778	636.718	-0.070	0.178
-438.763	50.976	-0.213	-0.202
-437.749	136.040	0.213	-0.279
-436.734	800.000	0.050	0.147
-435.719	-165.780	-0.034	-0.001
-434.705	163.337	-0.084	0.118
-433.690	-173.812	0.160	0.005
-432.676	129.967	0.075	-0.096
-431.661	133.117	-0.237	-0.308
-430.646	-200.000	0.025	-0.187
-429.632	-150.425	0.260	0.020
-428.617	-200.000	0.007	-0.047
-427.603	252.786	-0.018	0.031
-426.588	800.000	0.088	0.297
-425.573	-126.304	-0.185	0.028
-424.559	-93.125	0.318	-0.089
-423.544	-23.794	0.188	0.113
-422.530	-120.777	-0.207	-0.035
-421.515	-200.000	0.012	0.102
-420.500	110.476	-0.102	-0.123
-419.486	183.463	0.138	0.204
-418.471	800.000	-0.081	0.300
-417.457	-22.030	0.213	0.129
-416.442	396.353	-0.060	0.125
-415.428	68.471	0.182	-0.187
-414.413	-63.228	0.312	-0.129
-413.398	430.374	-0.153	-0.332
-412.384	18.204	0.095	-0.076
-411.369	800.000	-0.014	0.046
-410.355	-65.119	-0.219	-0.088
-409.340	93.886	0.219	0.249
-408.325	387.564	0.095	0.196
-407.311	175.044	0.077	-0.111
-406.296	-67.312	0.059	0.023
-405.282	75.728	0.460	0.487
-404.267	106.560	0.066	-0.079
-403.252	-4.039	0.219	0.152
-402.238	-113.774	0.249	0.049
-401.223	-80.814	0.164	-0.055
-400.209	238.552	-0.106	0.176
-399.194	0.237	0.277	0.198
-398.179	59.693	-0.018	-0.017
-397.165	415.568	-0.032	0.069
-396.150	-10.621	0.337	0.223
-395.136	-85.508	0.113	-0.035
-394.121	-155.381	0.169	-0.011
-393.106	-200.000	-0.007	-0.224
-392.092	40.993	-0.229	0.207
-391.077	213.353	-0.088	0.140
-390.063	800.000	-0.002	-0.006
-389.048	-31.445	0.104	0.058
-388.033	-200.000	-0.004	0.046
-387.019	-117.889	0.097	-0.017
-386.004	620.660	-0.097	-0.245
-384.990	-122.694	-0.219	-0.035
-383.975	-8.667	0.358	-0.240
-382.960	149.927	-0.076	0.103
-381.946	800.000	-0.065	0.206
-380.931	-109.348	-0.201	-0.043
-379.917	-79.090	0.071	0.024
-378.902	72.411	0.086	0.089
-377.888	-45.470	-0.223	0.111
-376.873	-27.711	-0.273	-0.159
-375.858	152.616	0.070	0.095
-374.844	-73.938	-0.321	-0.117
-373.829	-4.685	-0.044	-0.030
-372.815	-108.920	-0.245	-0.052
-371.800	161.449	-0.128	0.180
-370.785	-200.000	0.038	0.242
-369.771	-200.000	-0.269	0.001
-368.756	-132.319	0.311	-0.040
-367.742	288.625	0.064	0.116
-366.727	-110.807	0.073	0.015
-365.712	-83.426	0.204	-0.066
-364.698	-97.586	-0.561	-0.146
-363.683	-200.000	0.025	0.410
-362.669	-177.520	-0.054	-0.001
-361.654	121.291	-0.232	0.289
-360.639	-200.000	-0.007	0.117
-359.625	800.000	-0.018	-0.055
-358.610	800.000	-0.073	0.204
-357.596	-200.000	0.007	0.043
-356.581	200.797	-0.061	-0.094
-355.566	137.744	-0.171	-0.224
-354.552	-129.051	0.241	-0.034
-353.537	665.462	0.050	0.130
-352.523	293.000	-0.162	0.295
-351.508	-200.000	-0.244	-0.000
-350.493	-49.484	-0.129	-0.062
-349.479	-22.088	0.217	-0.132
-348.464	-148.007	-0.209	0.017
-347.450	-116.720	-0.204	-0.037
-346.435	446.699	0.052	-0.114
-345.420	376.119	-0.129	-0.263
-344.406	104.084	-0.065	0.077
-343.391	134.136	-0.066	0.085
-342.377	-200.000	-0.015	-0.092
-341.362	194.771	-0.136	-0.206
-340.348	-127.399	0.391	-0.057
-339.333	31.923	-0.066	-0.057
-338.318	800.000	-0.086	0.273
-337.304	144.215	-0.174	0.232
-336.289	-42.460	-0.487	-0.248
-335.275	800.000	0.100	-0.287
-334.260	189.370	-0.318	-0.476
-333.245	26.361	0.428	0.358
-332.231	-200.000	-0.014	0.105
-331.216	800.000	-0.165	0.500
-330.202	-200.000	-0.024	0.140
-329.187	-63.033	0.170	-0.070
-328.172	-200.000	-0.003	-0.334
-327.158	299.054	0.173	0.318
-326.143	-104.321	0.254	-0.059
-325.129	28.978	0.215	-0.182
-324.114	48.722	0.245	0.230
-323.099	165.712	-0.226	-0.320
-322.085	-200.000	0.031	-0.144
-321.070	44.175	-0.553	-0.507
-320.056	24.386	0.116	0.096
-319.041	172.979	0.188	-0.271
-318.026	800.000	-0.080	-0.305
-317.012	-71.347	-0.050	0.019
-315.997	-21.035	-0.266	0.163
-314.983	143.409	-0.105	0.140
-313.968	-37.279	-0.090	-0.048
-312.953	192.406	-0.105	0.158
-311.939	87.739	0.140	0.155
-310.924	-200.000	0.030	0.153
-309.910	-76.236	0.200	0.070
-308.895	-56.287	0.214	0.095
-307.880	153.875	0.071	-0.097
-306.866	413.769	0.087	-0.185
-305.851	188.144	0.151	-0.225
-304.837	-200.000	-0.063	0.344
-303.822	-30.749	-0.095	-0.054
-302.807	-121.851	0.178	-0.029
-301.793	-200.000	-0.022	-0.111
-300.778	-46.704	-0.107	-0.052
-299.764	41.903	0.197	-0.178
-298.749	-172.755	0.185	-0.006
-297.735	89.370	-0.257	-0.285
-296.720	-40.455	0.394	0.204
-295.705	-37.761	-0.137	0.073
-294.691	70.890	-0.035	0.036
-293.676	54.767	0.131	-0.126
-292.662	381.463	-0.141	0.288
-291.647	-200.000	-0.063	-0.309
-290.632	-177.817	-0.062	0.001
-289.618	-53.255	0.222	0.101
-288.603	-38.868	-0.136	0.071
-287.589	106.039	0.169	-0.199
-286.574	-117.508	0.215	0.039
-285.559	-44.653	-0.153	-0.076
-284.545	-200.000	-0.019	0.174
-283.530	-200.000	-0.024	0.369
-282.516	-115.053	0.304	0.058
-281.501	-200.000	-0.087	-0.409
-280.486	-24.511	0.097	-0.057
-279.472	69.579	0.138	0.141
-278.457	-164.413	0.120	-0.005
-277.443	-162.548	0.082	0.004
-276.428	-200.000	-0.043	-0.216
-275.413	-172.453	-0.436	-0.014
-274.399	-98.622	0.193	0.049
-273.384	-10.896	-0.101	-0.067
-272.370	-87.395	0.168	0.051
-271.355	-0.818	0.329	0.232
-270.340	-98.492	-0.046	0.012
-269.326	-92.418	0.042	0.012
-268.311	-200.000	0.024	-0.268
-267.297	12.535	0.129	0.099
-266.282	53.475	-0.121	0.116
-265.267	-112.570	0.442	0.088
-264.253	-60.516	0.171	0.073
-263.238	-100.201	-0.348	0.086
-262.224	-62.187	0.142	0.059
-261.209	-200.000	0.011	0.159
-260.195	-200.000	-0.042	-0.233
-259.180	-95.411	0.064	0.017
-258.165	-5.592	-0.181	-0.124
-257.151	184.700	0.163	-0.241
-256.136	-200.000	-0.053	-0.270
-255.122	191.645	-0.101	0.152
-254.107	-42.860	0.253	-0.128
-253.092	800.000	-0.042	-0.147
-252.078	-140.514	-0.046	-0.005
-251.063	-53.584	-0.208	0.095
-250.049	-19.763	-0.286	0.176
-249.034	191.562	0.112	0.169
-248.019	-125.581	-0.231	0.035
-247.005	-200.000	0.014	-0.224
-245.990	-127.901	0.275	0.039
-244.976	-70.314	-0.068	0.026
-243.961	-200.000	-0.061	0.280
-242.946	-200.000	0.019	-0.102
-241.932	98.247	-0.125	0.144
-240.917	322.529	0.111	-0.210
-239.903	87.417	0.123	-0.136
-238.888	-200.000	0.013	0.114
-237.873	192.657	-0.131	0.197
-236.859	26.446	0.049	0.041
-235.844	-200.000	-0.009	-0.251
-234.830	209.731	0.188	-0.293
-233.815	-102.399	0.093	-0.022
-232.800	100.673	0.217	0.251
-231.786	-159.460	0.093	-0.005
-230.771	-58.943	0.128	0.055
-229.757	-175.564	-0.028	0.001
-228.742	-31.826	0.206	0.115
-227.727	-33.636	0.334	0.184
-226.713	800.000	0.057	-0.208
-225.698	-26.150	-0.447	0.262
-224.684	-200.000	0.044	0.264
-223.669	146.384	0.164	0.219
-222.655	800.000	-0.059	0.225
-221.640	-200.000	0.060	0.490
-220.625	248.975	-0.188	0.317
-219.611	-176.775	0.246	-0.006
-218.596	375.595	-0.244	-0.495
-217.582	114.667	-0.392	-0.475
-216.567	-97.523	0.100	-0.026
-215.552	4.288	0.189	-0.138
-214.538	460.220	-0.060	0.134
-213.523	-72.205	0.138	-0.051
-212.509	800.000	0.101	-0.382
-211.494	-3.764	0.127	-0.088
-210.479	800.000	0.014	0.058
-209.465	89.731	0.076	0.085
-208.450	-200.000	0.040	0.174
-207.436	-37.077	0.129	-0.069
-206.421	-123.261	-0.113	0.018
-205.406	-31.150	0.195	-0.109
-204.392	118.712	0.059	0.072
-203.377	282.972	0.165	-0.294
-202.363	-81.061	0.177	0.058
-201.348	186.455	-0.083	-0.123
-200.333	-18.971	-0.207	0.128
-199.319	-5.869	0.167	0.114
-198.304	163.106	-0.019	-0.027
-197.290	178.231	-0.138	-0.199
-196.275	-90.065	-0.106	-0.031
-195.260	-163.558	0.218	0.010
-194.246	245.779	-0.101	-0.168
-193.231	87.795	0.080	0.088
-192.217	-108.814	-0.091	-0.019
-191.202	-11.733	0.122	-0.080
-190.187	467.652	0.145	-0.323
-189.173	-200.000	0.012	-0.282
-188.158	-45.181	-0.276	0.136
-187.144	22.720	0.259	-0.211
-186.129	-200.000	-0.045	0.221
-185.114	21.073	-0.271	0.218
-184.100	123.060	-0.113	0.141
-183.085	-40.336	0.443	-0.229
-182.071	-42.257	-0.226	0.115
-181.056	105.553	0.058	0.069
-180.042	-181.032	-0.349	-0.007
-179.027	284.050	0.101	-0.181
-178.012	122.304	0.198	0.245
-176.998	-124.255	0.029	0.004
-175.983	37.759	0.270	0.238
-174.969	-37.192	-0.156	-0.083
-173.954	-136.739	-0.207	-0.024
-172.939	287.187	-0.044	0.078
-171.925	-55.126	0.330	0.147
-170.910	-149.232	-0.422	-0.034
-169.896	275.337	0.061	-0.107
-168.881	-200.000	0.002	-0.031
-167.866	475.745	0.097	-0.216
-166.852	51.276	0.209	0.197
-165.837	-44.621	0.196	0.097
-164.823	-200.000	-0.031	-0.469
-163.808	430.178	-0.099	-0.212
-162.793	162.301	-0.057	0.079
-161.779	-200.000	-0.004	0.249
-160.764	-59.533	0.338	0.144
-159.750	-102.853	-0.227	-0.054
-158.735	-12.358	0.208	-0.135
-157.720	-101.621	0.305	0.073
-156.706	-139.573	-0.319	-0.034
-155.691	-109.924	0.125	0.026
-154.677	-9.295	-0.291	0.193
-153.662	-65.223	0.167	0.067
-152.647	-117.809	-0.091	-0.016
-151.633	-2.714	0.183	-0.127
-150.618	800.000	-0.008	0.029
-149.604	-128.489	0.292	0.041
-148.589	757.366	0.005	0.013
-147.574	-99.078	0.197	-0.050
-146.560	206.791	0.077	0.119
-145.545	-65.484	-0.058	-0.023
-144.531	-174.296	-0.279	-0.008
-143.516	-107.499	0.134	-0.029
-142.502	-86.622	0.144	-0.044
-141.487	104.907	-0.173	-0.203
-140.472	-112.992	0.070	0.014
-139.458	230.749	0.115	0.187
-138.443	-62.825	-0.294	0.121
-137.429	209.749	0.155	0.240
-136.414	800.000	0.087	0.269
-135.399	-200.000	0.009	-0.062
-134.385	-200.000	-0.373	0.002
-133.370	-36.706	-0.338	0.180
-132.356	155.924	0.166	-0.227
-131.341	-86.660	0.217	0.066
-130.326	178.325	-0.127	0.183
-129.312	800.000	0.080	-0.311
-128.297	800.000	0.017	0.048
-127.283	201.343	0.068	0.104
-126.268	405.277	0.210	0.439
-125.253	-92.657	0.477	0.132
-124.239	76.744	0.209	-0.219
-123.224	-73.901	-0.097	-0.035
-122.210	56.178	-0.275	0.265
-121.195	-21.391	-0.148	0.090
