DTS Sentinel unit serial number:	SN413079Multiplexer serial number:	ORYXHardware model number:	OX4-SRSoftware version number:	ORYX F/W v4.00 Oryx Data Collector v3.7.2.0data status	okinstallation	princeton_trtdifferential loss correction	single-endedforward channel	channel 2reverse channel	N/Adate	2019/09/12time	21:59:35forward acquisition time	60.00reverse acquisition time	0.00gamma	496.2192k internal	0.2330k external	0.2330temperature offset calibration	1.0176default loss term (dB/km)	0.3790temperature slope calibration	1.0000multiplexer offset coefficient	1.0000multiplexer slope coefficient	1.0000fibre end	0.00T internal ref (°C)	30.08T ext. ref 1 (°C)	3.74T ext. ref 2 (°C)	24.65length (m)	temperature (°C)	Stokes	anti-Stokes-747.200	-200.000	0.018	0.087
-746.185	-113.326	-0.171	0.034
-745.171	-36.654	0.278	-0.151
-744.156	800.000	0.078	0.287
-743.142	-200.000	0.019	-0.177
-742.127	800.000	-0.105	0.312
-741.112	-200.000	0.006	-0.112
-740.098	127.841	-0.247	0.316
-739.083	32.524	0.144	-0.125
-738.069	-47.075	-0.147	-0.072
-737.054	800.000	-0.054	-0.224
-736.039	-60.228	-0.243	0.104
-735.025	250.557	0.058	-0.099
-734.010	-137.685	0.269	-0.030
-732.996	-103.477	-0.077	-0.018
-731.981	-200.000	-0.271	-0.001
-730.966	800.000	0.082	-0.269
-729.952	-200.000	0.031	0.137
-728.937	-140.778	-0.103	0.011
-727.923	239.578	0.212	-0.355
-726.908	16.752	0.067	-0.053
-725.894	53.619	-0.120	-0.116
-724.879	-72.449	-0.297	-0.110
-723.864	46.687	0.107	0.100
-722.850	-54.035	-0.265	-0.121
-721.835	800.000	-0.043	-0.158
-720.821	-140.415	0.412	-0.043
-719.806	31.723	0.093	-0.081
-718.791	-110.365	-0.328	-0.069
-717.777	593.146	-0.032	0.080
-716.762	-70.572	-0.320	-0.122
-715.748	-14.217	0.157	0.102
-714.733	342.646	0.107	0.211
-713.718	-140.614	-0.345	-0.036
-712.704	61.510	-0.123	-0.123
-711.689	248.149	-0.058	-0.098
-710.675	-200.000	0.039	0.183
-709.660	300.727	0.143	0.265
-708.645	175.322	-0.063	0.092
-707.631	-57.204	-0.205	-0.091
-706.616	79.331	0.180	-0.194
-705.602	218.636	-0.096	-0.155
-704.587	-200.000	-0.027	0.289
-703.572	-156.478	0.214	-0.013
-702.558	8.304	-0.214	-0.162
-701.543	-71.745	0.146	0.055
-700.529	-200.000	0.001	0.247
-699.514	1.748	0.171	-0.124
-698.499	800.000	0.068	0.251
-697.485	800.000	-0.048	-0.143
-696.470	777.319	-0.040	0.111
-695.456	61.488	0.115	-0.115
-694.441	-196.398	0.218	-0.001
-693.426	228.656	-0.173	-0.283
-692.412	420.755	0.053	0.115
-691.397	330.731	0.118	-0.229
-690.383	-80.264	-0.364	-0.123
-689.368	-142.551	0.163	0.016
-688.354	-94.370	-0.218	0.060
-687.339	800.000	-0.051	0.223
-686.324	33.030	-0.294	-0.256
-685.310	-32.447	0.260	-0.146
-684.295	-94.272	-0.062	0.017
-683.281	-200.000	-0.033	-0.230
-682.266	-13.053	-0.197	0.129
-681.251	98.292	-0.016	-0.019
-680.237	-170.915	-0.086	0.003
-679.222	-47.840	-0.056	0.027
-678.208	800.000	-0.095	-0.284
-677.193	800.000	0.067	-0.234
-676.178	15.774	-0.313	-0.247
-675.164	143.859	0.052	0.070
-674.149	-154.590	0.093	-0.006
-673.135	-6.334	0.225	-0.154
-672.120	47.772	0.138	-0.129
-671.105	-127.197	-0.385	0.057
-670.091	189.712	0.176	0.265
-669.076	218.345	0.121	0.194
-668.062	-200.000	-0.009	-0.222
-667.047	576.512	0.019	-0.046
-666.032	-78.815	-0.190	-0.065
-665.018	104.585	0.340	0.402
-664.003	-158.874	0.078	0.004
-662.989	86.562	0.103	-0.115
-661.974	-72.720	0.102	0.038
-660.959	-62.701	-0.238	0.099
-659.945	207.753	-0.170	0.266
-658.930	-80.407	-0.271	0.091
-657.916	800.000	-0.085	-0.330
-656.901	-200.000	-0.087	-0.547
-655.886	-200.000	-0.045	-0.225
-654.872	-110.901	-0.338	-0.070
-653.857	-67.917	-0.268	-0.105
-652.843	-105.623	0.127	0.029
-651.828	-42.967	-0.106	0.054
-650.814	-66.370	0.225	-0.090
-649.799	379.328	-0.145	0.297
-648.784	-195.003	-0.397	0.003
-647.770	283.716	0.009	-0.017
-646.755	90.741	0.059	-0.067
-645.741	-57.868	-0.236	-0.103
-644.726	-41.599	-0.243	0.125
-643.711	-102.959	0.211	-0.050
-642.697	309.885	0.246	0.461
-641.682	-200.000	0.028	-0.267
-640.668	-28.698	0.188	0.108
-639.653	-59.635	0.039	0.017
-638.638	307.240	0.094	0.175
-637.624	-79.239	0.219	0.074
-636.609	-130.891	-0.129	-0.017
-635.595	-164.279	-0.573	0.026
-634.580	-97.995	-0.190	-0.049
-633.565	-80.312	0.353	-0.118
-632.551	-151.046	-0.091	-0.007
-631.536	21.904	-0.163	0.133
-630.522	-110.693	0.106	-0.022
-629.507	-200.000	0.042	-0.199
-628.492	389.827	-0.069	0.142
-627.478	-119.305	0.026	-0.004
-626.463	-124.626	-0.092	-0.014
-625.449	-105.918	0.458	-0.103
-624.434	-60.601	-0.083	-0.035
-623.419	5.925	-0.222	-0.164
-622.405	-93.072	0.192	-0.054
-621.390	-66.227	-0.260	0.104
-620.376	465.042	-0.147	0.330
-619.361	-68.309	-0.194	0.075
-618.346	-200.000	0.043	-0.214
-617.332	13.311	0.174	0.135
-616.317	215.114	0.139	-0.221
-615.303	14.621	-0.256	-0.201
-614.288	74.831	0.029	0.031
-613.273	258.478	0.168	0.289
-612.259	273.108	-0.156	-0.276
-611.244	-194.250	0.256	-0.002
-610.230	74.296	0.130	0.137
-609.215	800.000	-0.111	-0.393
-608.201	50.773	-0.175	0.166
-607.186	430.542	-0.120	0.261
-606.171	-117.636	0.244	0.044
-605.157	138.622	-0.196	-0.258
-604.142	-80.298	-0.147	0.049
-603.128	-173.726	-0.149	-0.004
-602.113	-161.522	0.350	-0.018
-601.098	334.405	-0.069	-0.133
-600.084	-17.119	0.152	0.096
-599.069	462.236	-0.028	0.063
-598.055	-76.860	-0.338	-0.118
-597.040	-200.000	-0.022	-0.239
-596.025	59.909	-0.234	0.231
-595.011	172.526	0.185	0.266
-593.996	167.308	-0.071	0.101
-592.982	140.799	0.093	-0.123
-591.967	181.306	-0.047	-0.069
-590.952	-53.837	0.094	-0.043
-589.938	-5.519	-0.086	-0.059
-588.923	-4.868	-0.330	-0.228
-587.909	-13.526	-0.204	0.132
-586.894	-200.000	-0.013	0.309
-585.879	120.548	-0.095	0.118
-584.865	800.000	-0.101	-0.343
-583.850	-44.495	-0.084	-0.042
-582.836	442.668	-0.020	0.045
-581.821	-200.000	0.033	-0.148
-580.806	-68.200	0.067	0.026
-579.792	590.066	-0.064	0.157
-578.777	24.445	0.197	0.163
-577.763	-200.000	0.036	0.160
-576.748	-78.847	0.257	0.087
-575.733	135.442	-0.121	0.157
-574.719	-14.437	0.250	-0.161
-573.704	167.580	-0.143	0.203
-572.690	101.060	-0.198	0.230
-571.675	-84.922	0.291	-0.091
-570.661	222.059	0.158	-0.253
-569.646	41.451	0.146	-0.132
-568.631	-163.071	0.325	0.016
-567.617	-104.152	-0.316	0.073
-566.602	482.379	-0.102	-0.232
-565.588	204.856	0.243	0.377
-564.573	65.849	-0.058	-0.059
-563.558	200.674	0.125	0.192
-562.544	-100.003	0.448	-0.112
-561.529	-108.030	-0.143	-0.031
-560.515	-101.934	-0.215	-0.052
-559.500	428.735	-0.120	-0.260
-558.485	223.134	0.101	0.163
-557.471	-52.342	-0.267	-0.123
-556.456	-200.000	-0.008	-0.307
-555.442	-7.141	0.143	0.097
-554.427	-53.782	0.229	0.104
-553.412	328.070	0.211	0.405
-552.398	20.272	0.194	0.157
-551.383	-200.000	0.012	-0.215
-550.369	52.857	-0.123	-0.117
-549.354	7.348	0.155	-0.115
-548.339	69.496	0.143	-0.147
-547.325	-68.551	0.052	-0.020
-546.310	-24.239	-0.053	0.032
-545.296	354.573	0.147	0.291
-544.281	481.481	0.123	0.279
-543.266	259.030	-0.181	0.312
-542.252	45.199	-0.110	0.102
-541.237	738.533	-0.056	0.151
-540.223	-158.211	-0.130	-0.008
-539.208	-200.000	-0.026	0.227
-538.193	131.402	-0.095	0.122
-537.179	44.284	-0.167	0.153
-536.164	-131.122	-0.206	0.027
-535.150	-9.585	-0.155	-0.103
-534.135	-34.536	-0.117	0.064
-533.121	-166.096	-0.103	-0.004
-532.106	199.059	-0.158	0.241
-531.091	-200.000	0.024	-0.143
-530.077	113.892	0.123	0.149
-529.062	800.000	0.032	0.099
-528.048	-200.000	0.061	-0.492
-527.033	316.519	0.121	-0.228
-526.018	136.554	-0.128	-0.167
-525.004	800.000	0.096	0.267
-523.989	-200.000	0.049	-0.225
-522.975	689.530	0.028	-0.073
-521.960	-178.442	0.371	-0.009
-520.945	81.737	-0.061	-0.066
-519.931	20.724	-0.124	-0.100
-518.916	-12.732	-0.305	-0.198
-517.902	-200.000	-0.022	0.367
-516.887	783.781	-0.159	-0.436
-515.872	11.686	0.416	-0.318
-514.858	-88.435	-0.079	0.024
-513.843	-125.420	-0.251	-0.038
-512.829	-200.000	0.028	-0.208
-511.814	349.803	-0.210	0.414
-510.799	64.603	-0.126	-0.127
-509.785	-125.343	0.034	-0.005
-508.770	50.952	-0.046	0.043
-507.756	-172.191	0.181	-0.006
-506.741	-200.000	0.018	0.119
-505.726	800.000	0.032	-0.123
-504.712	616.376	-0.121	-0.304
-503.697	-200.000	0.028	0.135
-502.683	-200.000	0.049	-0.264
-501.668	40.115	0.122	0.110
-500.653	241.435	0.140	-0.234
-499.639	4.529	-0.250	0.183
-498.624	-181.524	-0.371	0.007
-497.610	19.337	0.074	0.059
-496.595	-120.066	-0.100	0.017
-495.581	-87.291	0.314	-0.095
-494.566	435.501	-0.050	-0.108
-493.551	228.589	-0.157	0.255
-492.537	800.000	-0.029	-0.102
-491.522	800.000	0.042	0.118
-490.508	-94.417	-0.134	-0.036
-489.493	-200.000	-0.023	-0.152
-488.478	-101.518	-0.239	-0.058
-487.464	-200.000	-0.012	0.188
-486.449	800.000	-0.025	-0.086
-485.435	800.000	0.099	-0.281
-484.420	127.455	-0.151	-0.191
-483.405	-134.335	-0.258	0.032
-482.391	305.094	0.043	-0.080
-481.376	-127.921	0.152	0.022
-480.362	800.000	-0.009	-0.027
-479.347	487.461	-0.039	-0.089
-478.332	-36.486	-0.115	-0.062
-477.318	368.929	-0.162	0.327
-476.303	800.000	0.052	-0.170
-475.289	800.000	0.109	0.312
-474.274	800.000	-0.033	0.116
-473.259	-37.336	-0.165	0.088
-472.245	-177.136	0.194	0.005
-471.230	-102.237	-0.059	0.014
-470.216	-200.000	-0.011	-0.375
-469.201	313.492	-0.030	-0.056
-468.186	204.614	-0.134	-0.207
-467.172	131.755	0.130	-0.166
-466.157	-31.857	0.151	0.084
-465.143	-139.987	0.394	0.041
-464.128	-199.489	0.560	0.003
-463.113	30.558	0.164	0.140
-462.099	250.756	0.155	0.263
-461.084	-185.864	0.119	0.002
-460.070	387.050	0.054	-0.111
-459.055	-200.000	0.040	0.292
-458.040	-36.778	0.296	0.158
-457.026	253.712	-0.036	0.061
-456.011	133.536	-0.198	-0.256
-454.997	-200.000	0.003	-0.027
-453.982	-59.851	0.084	0.036
-452.968	-71.824	-0.330	0.122
-451.953	-36.178	-0.143	0.077
-450.938	49.371	0.176	0.165
-449.924	800.000	-0.031	0.091
-448.909	-200.000	0.038	-0.180
-447.895	-61.416	-0.225	0.094
-446.880	-47.053	0.100	-0.049
-445.865	-12.874	-0.246	0.160
-444.851	-176.073	0.191	0.005
-443.836	800.000	0.023	-0.072
-442.822	-200.000	-0.197	0.000
-441.807	3.881	0.243	0.177
-440.792	800.000	0.050	0.159
-439.778	-144.137	0.313	0.029
-438.763	10.560	0.182	0.138
-437.749	73.200	0.149	-0.155
-436.734	379.169	0.089	0.181
-435.719	119.542	-0.225	0.277
-434.705	-73.623	-0.127	0.046
-433.690	-48.328	0.152	-0.073
-432.676	-85.616	-0.086	0.027
-431.661	-64.676	-0.276	-0.111
-430.646	-76.810	-0.172	-0.060
-429.632	81.406	-0.286	-0.308
-428.617	-84.235	0.148	0.047
-427.603	96.794	0.076	-0.087
-426.588	-200.000	0.011	-0.060
-425.573	199.867	0.058	-0.089
-424.559	-92.356	-0.392	0.110
-423.544	-200.000	-0.010	-0.203
-422.530	-24.325	-0.294	-0.175
-421.515	-200.000	0.027	-0.125
-420.500	-200.000	0.022	0.151
-419.486	-200.000	-0.012	0.346
-418.471	99.110	-0.111	0.127
-417.457	492.356	0.016	-0.036
-416.442	800.000	-0.055	-0.181
-415.428	-100.740	-0.225	-0.055
-414.413	-100.034	0.302	0.075
-413.398	-81.706	0.269	-0.088
-412.384	-200.000	0.007	-0.187
-411.369	-112.286	-0.169	0.034
-410.355	-134.562	-0.158	-0.019
-409.340	-98.215	-0.255	-0.065
-408.325	-72.795	-0.207	0.076
-407.311	800.000	-0.031	-0.090
-406.296	77.096	-0.152	-0.161
-405.282	-118.055	-0.171	-0.030
-404.267	21.927	-0.250	-0.203
-403.252	-51.109	0.280	-0.131
-402.238	144.787	-0.067	0.088
-401.223	-98.369	-0.109	-0.028
-400.209	82.000	0.153	-0.164
-399.194	-98.120	0.355	0.091
-398.179	114.078	0.198	-0.240
-397.165	73.377	-0.169	-0.176
-396.150	-42.791	0.330	-0.166
-395.136	-59.530	-0.281	-0.120
-394.121	69.282	-0.103	0.106
-393.106	-200.000	-0.007	-0.138
-392.092	800.000	0.078	-0.275
-391.077	7.796	-0.180	-0.134
-390.063	48.309	-0.098	0.091
-389.048	-200.000	0.002	0.329
-388.033	111.535	0.139	-0.167
-387.019	800.000	-0.066	0.227
-386.004	19.597	-0.175	0.140
-384.990	35.312	-0.089	-0.078
-383.975	204.562	0.212	-0.327
-382.960	14.411	0.440	-0.341
-381.946	-72.764	-0.029	0.011
-380.931	14.091	0.207	0.160
-379.917	-200.000	0.062	-0.358
-378.902	-100.820	-0.179	-0.044
-377.888	297.724	-0.111	0.202
-376.873	800.000	-0.074	-0.209
-375.858	800.000	-0.113	-0.350
-374.844	-200.000	-0.017	-0.171
-373.829	-200.000	-0.013	0.413
-372.815	-145.710	-0.066	-0.006
-371.800	155.175	0.016	-0.022
-370.785	56.810	0.133	0.129
-369.771	-200.000	0.034	-0.273
-368.756	178.410	0.132	0.191
-367.742	-171.438	0.216	-0.007
-366.727	800.000	-0.089	0.259
-365.712	-116.613	0.242	-0.044
-364.698	-159.315	0.255	0.014
-363.683	-200.000	0.021	-0.172
-362.669	800.000	0.066	-0.201
-361.654	270.433	-0.148	0.258
-360.639	-126.335	0.182	0.027
-359.625	-200.000	0.055	0.325
-358.610	529.545	-0.138	0.324
-357.596	-58.995	0.198	0.085
-356.581	44.964	0.062	-0.057
-355.566	146.869	-0.133	-0.178
-354.552	800.000	0.092	-0.332
-353.537	-200.000	-0.063	0.287
-352.523	-7.319	0.134	0.090
-351.508	-108.369	0.227	-0.049
-350.493	-71.348	0.183	-0.068
-349.479	129.865	0.068	0.086
-348.464	-167.793	0.351	0.014
-347.450	146.537	0.151	-0.202
-346.435	-131.188	-0.058	0.008
-345.420	-114.844	0.253	0.048
-344.406	-143.990	0.297	-0.028
-343.391	17.869	0.052	0.041
-342.377	319.317	0.049	-0.093
-341.362	-147.662	0.089	-0.007
-340.348	-1.473	-0.345	-0.241
-339.333	268.648	0.081	-0.141
-338.318	371.503	-0.091	-0.184
-337.304	14.565	-0.159	0.123
-336.289	-200.000	-0.021	0.104
-335.275	800.000	0.048	0.167
-334.260	-200.000	-0.018	-0.087
-333.245	581.561	0.083	-0.203
-332.231	-55.224	0.138	0.061
-331.216	68.363	-0.166	0.169
-330.202	4.905	0.064	-0.046
-329.187	-200.000	-0.107	-0.492
-328.172	-110.313	0.242	0.050
-327.158	23.853	0.225	-0.184
-326.143	-17.123	0.262	-0.164
-325.129	159.623	0.132	-0.182
-324.114	245.807	-0.288	-0.481
-323.099	-44.888	0.094	-0.047
-322.085	229.230	-0.100	0.161
-321.070	30.272	-0.007	-0.006
-320.056	53.119	0.113	-0.107
-319.041	-200.000	-0.009	-0.239
-318.026	525.260	0.162	0.377
-317.012	-57.442	0.192	0.083
-315.997	800.000	-0.078	0.268
-314.983	40.735	0.147	-0.131
-313.968	35.768	0.258	-0.224
-312.953	-200.000	0.028	0.141
-311.939	257.273	-0.120	0.204
-310.924	800.000	0.067	-0.268
-309.910	237.301	-0.078	0.128
-308.895	301.040	-0.156	-0.286
-307.880	68.347	0.245	-0.249
-306.866	-24.717	-0.136	0.080
-305.851	-200.000	-0.074	-0.383
-304.837	800.000	-0.023	0.078
-303.822	800.000	-0.112	-0.323
-302.807	-200.000	0.023	0.405
-301.793	457.485	0.128	0.282
-300.778	-200.000	-0.004	-0.258
-299.764	148.025	0.255	0.341
-298.749	328.141	-0.033	0.063
-297.735	-200.000	0.023	-0.338
-296.720	-16.867	0.056	-0.035
-295.705	246.836	0.115	-0.193
-294.691	-53.991	-0.339	-0.153
-293.676	-200.000	-0.042	0.190
-292.662	470.639	0.072	0.161
-291.647	285.942	-0.066	0.118
-290.632	-139.965	-0.267	-0.028
-289.618	17.648	0.181	-0.142
-288.603	-92.228	-0.144	0.040
-287.589	-30.699	-0.173	-0.097
-286.574	130.471	-0.225	0.285
-285.559	758.043	-0.188	0.503
-284.545	-31.915	0.368	0.204
-283.530	800.000	0.102	0.314
-282.516	128.447	0.240	0.303
-281.501	31.068	0.106	0.090
-280.486	-155.887	0.203	-0.013
-279.472	-59.846	-0.205	0.087
-278.457	-19.447	0.150	-0.092
-277.443	460.184	-0.194	-0.428
-276.428	-81.733	-0.250	0.081
-275.413	-60.434	-0.174	0.073
-274.399	-200.000	0.006	-0.141
-273.384	-26.911	-0.191	0.111
-272.370	-200.000	-0.119	0.548
-271.355	-32.972	-0.133	-0.073
-270.340	-66.799	0.127	-0.050
-269.326	-133.119	0.164	-0.021
-268.311	-200.000	0.041	-0.261
-267.297	-117.028	0.293	0.053
-266.282	800.000	0.037	0.144
-265.267	455.574	-0.094	0.205
-264.253	55.560	0.132	0.126
-263.238	-25.084	0.088	0.052
-262.224	800.000	0.089	0.286
-261.209	641.578	-0.166	-0.417
-260.195	252.926	0.238	-0.402
-259.180	144.727	-0.224	-0.296
-258.165	136.712	-0.152	-0.195
-257.151	-174.578	-0.129	0.004
-256.136	352.190	0.016	-0.031
-255.122	-11.525	0.265	0.172
-254.107	205.648	-0.019	-0.029
-253.092	74.838	-0.164	-0.170
-252.078	-13.996	-0.114	-0.073
-251.063	62.563	0.164	-0.162
-250.049	43.450	-0.263	-0.238
-249.034	-48.570	0.493	0.234
-248.019	-200.000	-0.016	0.185
-247.005	-200.000	0.026	-0.274
-245.990	255.522	-0.231	0.391
-244.976	9.539	0.148	-0.111
-243.961	-134.996	-0.014	0.002
-242.946	-83.569	-0.310	-0.098
-241.932	107.643	-0.177	0.208
-240.917	-200.000	-0.010	-0.142
-239.903	2.228	0.065	-0.046
-238.888	579.945	0.145	0.351
-237.873	-154.033	-0.484	0.032
-236.859	234.865	-0.021	-0.034
-235.844	321.473	0.150	-0.281
-234.830	-36.367	-0.004	-0.002
-233.815	527.970	0.101	0.236
-232.800	800.000	-0.067	0.214
-231.786	52.645	-0.207	-0.195
-230.771	-113.206	0.188	0.037
-229.757	-140.355	0.376	-0.039
-228.742	201.240	-0.128	-0.194
-227.727	-4.394	-0.203	0.138
-226.713	334.665	0.082	0.156
-225.698	396.317	0.109	-0.226
-224.684	-200.000	0.001	-0.132
-223.669	-200.000	0.021	0.431
-222.655	800.000	-0.051	0.198
-221.640	-47.693	0.038	-0.018
-220.625	800.000	0.142	-0.419
-219.611	-200.000	0.006	0.247
-218.596	-178.165	-0.150	0.003
-217.582	-85.665	-0.399	-0.122
-216.567	-144.773	0.183	0.017
-215.552	-200.000	0.009	0.281
-214.538	800.000	0.112	0.315
-213.523	-125.748	-0.178	0.027
-212.509	603.484	0.052	-0.128
-211.494	-200.000	-0.039	0.192
-210.479	-128.333	-0.124	-0.017
-209.465	-200.000	0.032	-0.189
-208.450	533.038	0.077	-0.179
-207.436	163.103	0.160	0.221
-206.421	-200.000	-0.026	0.357
-205.406	197.270	-0.143	0.215
-204.392	-83.125	0.178	0.057
-203.377	-141.300	-0.253	-0.025
-202.363	-98.832	0.316	-0.079
-201.348	23.370	-0.125	-0.101
-200.333	-17.935	0.155	-0.096
-199.319	-200.000	-0.005	0.233
-198.304	800.000	0.088	0.292
-197.290	-36.276	-0.118	-0.063
-196.275	-135.449	0.240	0.028
-195.260	-10.546	-0.223	-0.146
-194.246	-55.201	-0.213	-0.094
-193.231	438.613	0.080	-0.173
-192.217	82.479	0.180	0.193
-191.202	-101.088	0.134	-0.032
-190.187	784.648	-0.135	-0.363
-189.173	178.989	0.026	-0.037
-188.158	800.000	-0.042	-0.173
-187.144	-22.566	0.076	-0.045
-186.129	-200.000	-0.054	0.336
-185.114	94.846	0.146	0.163
-184.100	-107.292	0.070	0.015
-183.085	800.000	-0.130	-0.382
-182.071	60.792	-0.291	0.284
-181.056	-170.929	-0.357	-0.012
-180.042	800.000	-0.045	0.188
-179.027	-200.000	-0.039	0.308
-178.012	91.354	-0.125	-0.138
-176.998	-60.628	-0.185	-0.077
-175.983	800.000	0.023	0.067
-174.969	-67.984	-0.346	-0.133
-173.954	94.057	-0.164	0.183
-172.939	103.160	0.106	-0.122
-171.925	75.786	0.050	-0.052
-170.910	-144.847	-0.289	-0.026
-169.896	800.000	-0.137	0.410
-168.881	-200.000	0.024	-0.119
-167.866	-96.709	0.336	0.087
-166.852	-75.991	0.253	-0.088
-165.837	37.409	-0.011	0.010
-164.823	-200.000	0.125	-0.001
-163.808	-159.803	0.254	0.014
-162.793	75.082	0.146	0.151
-161.779	532.438	-0.103	0.239
-160.764	-200.000	-0.001	0.065
-159.750	-127.917	-0.085	0.012
-158.735	797.852	0.090	-0.245
-157.720	-133.425	0.244	-0.030
-156.706	114.520	-0.046	0.056
-155.691	-97.252	-0.402	0.103
-154.677	58.134	-0.061	-0.058
-153.662	-21.382	-0.086	0.052
-152.647	312.845	0.079	0.146
-151.633	-200.000	0.125	-0.000
-150.618	136.952	0.298	-0.382
-149.604	800.000	0.105	-0.430
-148.589	16.726	0.177	0.138
-147.574	-93.260	0.186	0.051
-146.560	-104.766	-0.178	0.040
-145.545	78.286	0.129	-0.136
-144.531	716.565	-0.098	-0.257
-143.516	-28.009	0.110	0.062
-142.502	-200.000	-0.013	0.103
-141.487	800.000	-0.014	-0.056
-140.472	543.865	-0.013	0.030
-139.458	738.726	-0.046	-0.121
-138.443	800.000	0.135	0.401
-137.429	-143.297	0.185	-0.017
-136.414	54.160	-0.137	-0.129
-135.399	103.939	-0.231	-0.267
-134.385	124.692	-0.031	-0.039
-133.370	-24.060	-0.464	-0.273
-132.356	194.604	0.125	0.187
-131.341	-145.129	-0.144	0.013
-130.326	-129.159	0.117	-0.016
-129.312	67.011	0.164	-0.165
-128.297	-200.000	0.000	0.237
-127.283	-200.000	-0.015	0.393
-126.268	-110.901	-0.165	-0.033
-125.253	-61.326	0.119	0.049
-124.239	-21.607	-0.165	-0.099
-123.224	31.121	-0.133	0.112
-122.210	112.837	-0.261	0.311
