DTS Sentinel unit serial number:	SN413079Multiplexer serial number:	ORYXHardware model number:	OX4-SRSoftware version number:	ORYX F/W v4.00 Oryx Data Collector v3.7.2.0data status	okinstallation	princeton_trtdifferential loss correction	single-endedforward channel	channel 2reverse channel	N/Adate	2019/09/16time	04:59:35forward acquisition time	60.00reverse acquisition time	0.00gamma	496.2192k internal	0.2335k external	0.2335temperature offset calibration	0.9976default loss term (dB/km)	0.3790temperature slope calibration	1.0000multiplexer offset coefficient	1.0000multiplexer slope coefficient	1.0000fibre end	0.00T internal ref (°C)	27.16T ext. ref 1 (°C)	10.98T ext. ref 2 (°C)	21.92length (m)	temperature (°C)	Stokes	anti-Stokes-747.200	-115.318	0.152	0.029
-746.185	187.374	-0.261	0.392
-745.171	1.973	-0.083	-0.060
-744.156	60.816	-0.262	0.261
-743.142	800.000	0.042	-0.154
-742.127	-43.753	-0.222	-0.112
-741.112	-63.184	0.136	0.056
-740.098	30.623	-0.287	0.247
-739.083	21.505	-0.188	0.154
-738.069	-74.285	0.144	0.052
-737.054	191.014	-0.220	-0.332
-736.039	-56.267	-0.147	-0.066
-735.025	197.137	-0.198	-0.303
-734.010	-107.050	-0.440	-0.098
-732.996	-200.000	0.009	0.202
-731.981	-35.073	0.072	0.039
-730.966	800.000	0.074	0.237
-729.952	-130.538	0.073	0.010
-728.937	-87.737	-0.130	0.039
-727.923	-200.000	-0.010	-0.047
-726.908	403.858	0.120	0.253
-725.894	-45.440	-0.094	-0.047
-724.879	94.413	-0.204	-0.233
-723.864	-67.245	0.363	-0.143
-722.850	-200.000	0.022	0.124
-721.835	-57.460	-0.216	-0.095
-720.821	-164.762	-0.252	-0.011
-719.806	431.351	-0.079	-0.171
-718.791	-14.602	-0.135	-0.087
-717.777	164.375	-0.094	-0.133
-716.762	-102.944	0.167	-0.040
-715.748	-149.911	-0.183	-0.014
-714.733	-111.052	-0.206	-0.043
-713.718	287.862	-0.148	-0.268
-712.704	186.128	-0.083	-0.124
-711.689	350.680	-0.082	-0.162
-710.675	-84.024	-0.223	0.071
-709.660	-200.000	0.014	0.176
-708.645	-200.000	-0.039	-0.234
-707.631	-89.544	-0.202	0.059
-706.616	-200.000	0.020	-0.270
-705.602	-33.982	0.134	0.074
-704.587	-97.365	0.221	-0.058
-703.572	-47.599	-0.250	-0.122
-702.558	-92.157	-0.039	0.011
-701.543	459.178	0.025	-0.057
-700.529	800.000	-0.048	0.203
-699.514	-200.000	0.044	0.343
-698.499	-16.357	0.177	0.112
-697.485	-200.000	-0.034	0.272
-696.470	-200.000	0.009	0.170
-695.456	-17.826	-0.125	0.079
-694.441	800.000	0.064	0.246
-693.426	56.521	-0.051	0.050
-692.412	159.975	0.159	-0.222
-691.397	800.000	-0.053	0.203
-690.383	-70.919	-0.088	0.033
-689.368	-93.421	-0.168	0.047
-688.354	-26.004	-0.410	-0.242
-687.339	-200.000	-0.023	-0.186
-686.324	66.974	0.039	0.040
-685.310	128.055	0.174	-0.222
-684.295	-200.000	-0.081	0.401
-683.281	800.000	-0.026	-0.094
-682.266	-46.378	-0.232	-0.114
-681.251	16.938	-0.450	-0.357
-680.237	-180.610	0.099	-0.002
-679.222	-92.083	-0.210	-0.060
-678.208	-160.202	0.282	0.015
-677.193	-13.017	-0.104	-0.068
-676.178	-200.000	-0.029	-0.214
-675.164	-200.000	-0.023	-0.234
-674.149	114.097	-0.091	0.111
-673.135	-60.901	0.193	0.082
-672.120	-180.996	0.130	-0.003
-671.105	-11.021	0.074	-0.049
-670.091	50.525	0.187	-0.177
-669.076	-200.000	-0.005	0.214
-668.062	230.554	0.019	0.031
-667.047	-11.094	0.324	-0.214
-666.032	-154.470	0.023	0.002
-665.018	13.006	-0.097	-0.075
-664.003	-113.000	0.167	-0.033
-662.989	-83.943	0.285	0.091
-661.974	48.341	-0.294	0.275
-660.959	-53.528	0.226	-0.104
-659.945	-200.000	0.083	-0.443
-658.930	-200.000	-0.122	-0.001
-657.916	-200.000	-0.049	0.292
-656.901	800.000	-0.012	-0.047
-655.886	-20.200	0.094	-0.058
-654.872	-200.000	0.052	-0.248
-653.857	-107.974	0.308	0.067
-652.843	-200.000	0.008	-0.436
-651.828	234.231	0.054	0.089
-650.814	82.668	-0.060	-0.065
-649.799	755.878	-0.098	-0.266
-648.784	221.014	0.097	-0.157
-647.770	-174.289	-0.283	0.008
-646.755	66.122	-0.192	-0.196
-645.741	-200.000	-0.035	-0.170
-644.726	218.348	-0.099	-0.159
-643.711	145.694	0.188	-0.252
-642.697	-34.858	-0.238	-0.130
-641.682	-57.395	0.144	0.063
-640.668	277.701	0.023	-0.041
-639.653	-200.000	-0.001	-0.041
-638.638	800.000	0.024	-0.069
-637.624	53.840	0.105	0.101
-636.609	263.024	0.091	0.158
-635.595	80.102	-0.097	-0.104
-634.580	-200.000	-0.001	0.011
-633.565	583.058	0.065	-0.159
-632.551	-82.852	-0.215	0.070
-631.536	70.199	0.043	0.045
-630.522	-183.729	-0.170	-0.003
-629.507	-42.761	0.180	-0.091
-628.492	-150.106	-0.171	-0.013
-627.478	-9.584	0.167	-0.112
-626.463	-33.359	-0.529	-0.293
-625.449	-136.208	-0.170	-0.020
-624.434	72.794	-0.079	-0.083
-623.419	-200.000	-0.065	0.309
-622.405	-85.165	-0.439	0.137
-621.390	299.763	-0.126	-0.232
-620.376	283.990	0.150	-0.270
-619.361	-2.585	0.185	-0.130
-618.346	-200.000	-0.051	-0.238
-617.332	-21.749	-0.127	-0.077
-616.317	395.009	-0.179	-0.372
-615.303	-58.830	0.173	-0.075
-614.288	255.037	-0.206	0.353
-613.273	94.178	0.184	0.209
-612.259	-200.000	-0.019	0.125
-611.244	-200.000	-0.027	-0.252
-610.230	-85.446	-0.109	-0.034
-609.215	574.237	-0.062	-0.152
-608.201	-165.182	-0.170	-0.007
-607.186	-76.674	0.149	-0.052
-606.171	3.439	-0.181	0.132
-605.157	-62.247	0.179	-0.075
-604.142	-129.327	0.254	0.035
-603.128	541.626	0.158	0.377
-602.113	-111.077	0.183	0.037
-601.098	106.175	-0.150	0.177
-600.084	52.443	-0.145	0.139
-599.069	156.348	-0.152	-0.209
-598.055	44.640	-0.128	-0.118
-597.040	-113.232	0.167	0.033
-596.025	85.803	-0.236	-0.259
-595.011	491.113	0.103	-0.236
-593.996	-199.876	0.220	0.001
-592.982	-187.419	-0.439	-0.006
-591.967	-200.000	-0.023	-0.167
-590.952	120.082	0.218	0.270
-589.938	-23.297	-0.123	0.074
-588.923	800.000	-0.144	-0.425
-587.909	-145.752	0.204	-0.018
-586.894	-200.000	-0.024	0.180
-585.879	53.977	0.234	0.225
-584.865	-76.354	0.110	-0.039
-583.850	-200.000	-0.008	-0.090
-582.836	-47.387	0.415	0.202
-581.821	-200.000	-0.026	-0.224
-580.806	-35.517	-0.145	-0.079
-579.792	-57.150	-0.213	-0.094
-578.777	800.000	-0.024	-0.075
-577.763	111.579	0.093	-0.112
-576.748	-149.905	-0.163	-0.013
-575.733	452.376	-0.134	0.295
-574.719	424.372	-0.149	0.320
-573.704	18.650	-0.074	0.059
-572.690	-40.574	0.058	0.030
-571.675	-200.000	0.004	-0.296
-570.661	6.404	0.187	-0.139
-569.646	56.625	-0.120	-0.116
-568.631	-200.000	-0.030	0.320
-567.617	-8.242	0.106	-0.071
-566.602	-109.470	0.248	0.052
-565.588	-200.000	-0.028	0.186
-564.573	-72.696	-0.327	0.120
-563.558	374.881	0.244	-0.497
-562.544	-19.631	0.037	0.023
-561.529	-102.987	0.114	0.027
-560.515	31.894	-0.142	0.122
-559.500	-149.404	-0.128	-0.010
-558.485	-157.095	0.221	-0.013
-557.471	67.151	0.120	-0.122
-556.456	195.162	-0.084	-0.127
-555.442	-200.000	-0.007	-0.150
-554.427	-163.648	0.075	-0.004
-553.412	36.105	-0.119	-0.104
-552.398	708.771	-0.167	-0.441
-551.383	92.182	0.199	-0.224
-550.369	34.190	-0.090	0.078
-549.354	-46.920	0.168	-0.082
-548.339	-155.191	-0.154	-0.010
-547.325	165.051	0.220	0.310
-546.310	117.276	0.104	0.127
-545.296	-200.000	0.017	-0.281
-544.281	88.754	0.287	-0.318
-543.266	-200.000	0.048	-0.270
-542.252	-33.740	-0.308	0.169
-541.237	250.917	0.167	0.283
-540.223	-51.922	-0.175	-0.081
-539.208	74.709	0.269	0.282
-538.193	-101.464	-0.337	0.082
-537.179	71.761	0.134	0.139
-536.164	244.432	0.044	-0.073
-535.150	-10.417	-0.147	-0.097
-534.135	-132.989	0.214	-0.027
-533.121	334.333	-0.108	0.208
-532.106	124.584	0.143	0.179
-531.091	117.733	0.028	-0.034
-530.077	232.232	0.111	0.182
-529.062	649.954	0.024	-0.062
-528.048	140.345	-0.164	-0.216
-527.033	-180.865	0.239	-0.005
-526.018	14.045	-0.246	0.191
-525.004	-118.891	0.208	0.036
-523.989	92.675	0.022	0.025
-522.975	62.281	-0.012	-0.012
-521.960	-21.851	-0.311	-0.188
-520.945	800.000	0.023	-0.072
-519.931	89.710	-0.355	-0.395
-518.916	800.000	0.066	-0.248
-517.902	597.857	-0.044	0.108
-516.887	-87.155	-0.145	0.044
-515.872	-149.979	-0.278	-0.022
-514.858	91.142	-0.223	-0.249
-513.843	800.000	-0.091	-0.375
-512.829	56.276	-0.111	-0.107
-511.814	-200.000	-0.005	0.066
-510.799	69.257	0.021	0.022
-509.785	617.927	0.118	0.294
-508.770	135.010	-0.197	0.255
-507.756	223.110	0.094	0.151
-506.741	-178.365	0.111	0.003
-505.726	-200.000	0.025	-0.181
-504.712	651.209	0.114	-0.291
-503.697	-200.000	-0.006	-0.195
-502.683	209.198	0.281	0.439
-501.668	-90.825	0.370	0.106
-500.653	-118.587	-0.398	0.070
-499.639	-200.000	-0.006	0.249
-498.624	525.859	0.049	0.115
-497.610	-106.035	-0.146	0.033
-496.595	800.000	-0.039	0.138
-495.581	145.642	-0.193	-0.258
-494.566	224.097	-0.021	0.033
-493.551	82.807	0.232	0.251
-492.537	0.471	0.203	-0.145
-491.522	70.587	0.240	-0.247
-490.508	800.000	0.075	-0.209
-489.493	362.590	0.006	0.012
-488.478	-58.938	0.395	0.170
-487.464	8.086	-0.017	0.013
-486.449	-24.758	-0.115	-0.068
-485.435	94.924	0.082	0.092
-484.420	-200.000	-0.044	-0.306
-483.405	34.765	0.255	-0.222
-482.391	-12.527	0.156	-0.101
-481.376	-200.000	0.042	-0.473
-480.362	-157.172	0.119	-0.007
-479.347	794.413	-0.067	-0.184
-478.332	-170.023	0.178	-0.006
-477.318	-102.964	0.162	0.038
-476.303	180.398	0.087	-0.128
-475.289	273.914	-0.053	0.093
-474.274	-150.235	0.286	0.022
-473.259	800.000	-0.041	-0.171
-472.245	429.851	0.045	0.097
-471.230	-147.846	-0.179	0.015
-470.216	-73.139	-0.235	0.085
-469.201	-108.424	0.196	-0.042
-468.186	43.276	0.165	0.149
-467.172	-161.245	0.085	-0.004
-466.157	157.540	-0.135	0.186
-465.143	-122.753	0.334	-0.054
-464.128	290.018	-0.121	-0.219
-463.113	539.041	-0.070	0.167
-462.099	-200.000	0.035	0.182
-461.084	-200.000	-0.018	-0.115
-460.070	-79.260	-0.262	0.088
-459.055	-21.475	0.250	-0.152
-458.040	-5.706	-0.109	0.075
-457.026	192.879	0.119	0.178
-456.011	4.031	0.264	0.192
-454.997	-143.618	-0.317	-0.030
-453.982	-127.597	0.138	-0.020
-452.968	22.010	-0.243	-0.197
-451.953	800.000	0.101	0.362
-450.938	-75.100	-0.313	-0.111
-449.924	-200.000	-0.008	0.053
-448.909	800.000	0.179	0.616
-447.895	-127.328	-0.197	0.029
-446.880	47.163	-0.080	0.074
-445.865	800.000	-0.053	-0.194
-444.851	-165.423	0.306	-0.013
-443.836	-24.131	-0.264	-0.157
-442.822	17.623	0.098	-0.077
-441.807	121.990	-0.082	-0.102
-440.792	800.000	-0.012	-0.050
-439.778	-191.217	0.065	0.001
-438.763	24.412	-0.108	0.088
-437.749	-0.953	-0.333	0.234
-436.734	-110.586	-0.223	0.046
-435.719	-134.385	-0.230	0.028
-434.705	800.000	-0.063	0.273
-433.690	-143.644	-0.306	-0.029
-432.676	-8.063	0.096	0.064
-431.661	40.226	-0.074	-0.066
-430.646	-200.000	0.016	-0.327
-429.632	-200.000	-0.009	-0.109
-428.617	258.457	0.151	-0.258
-427.603	60.660	0.342	0.337
-426.588	219.685	0.186	0.296
-425.573	-47.401	-0.149	-0.072
-424.559	100.345	-0.072	0.082
-423.544	199.504	-0.117	-0.178
-422.530	3.408	-0.294	0.213
-421.515	-200.000	0.060	0.515
-420.500	-149.217	-0.143	0.011
-419.486	26.348	-0.148	0.123
-418.471	-58.361	-0.211	0.091
-417.457	-72.555	-0.205	0.075
-416.442	-103.265	0.277	-0.065
-415.428	-200.000	-0.049	-0.464
-414.413	-128.358	-0.076	0.011
-413.398	523.388	0.095	-0.222
-412.384	-200.000	-0.017	0.326
-411.369	42.655	0.141	-0.127
-410.355	800.000	-0.152	-0.481
-409.340	20.436	-0.174	0.139
-408.325	-22.971	-0.287	-0.172
-407.311	800.000	0.071	-0.288
-406.296	-200.000	0.020	0.122
-405.282	17.511	-0.100	0.079
-404.267	-107.164	-0.114	-0.025
-403.252	-115.476	0.067	-0.013
-402.238	-200.000	0.054	0.498
-401.223	-200.000	-0.060	0.274
-400.209	-200.000	-0.033	0.304
-399.194	-116.677	-0.290	-0.053
-398.179	-46.855	-0.207	0.100
-397.165	696.284	0.013	-0.034
-396.150	-200.000	-0.034	0.304
-395.136	-200.000	-0.006	0.179
-394.121	-1.479	0.217	-0.152
-393.106	-92.687	0.270	0.075
-392.092	-200.000	0.018	-0.245
-391.077	-114.896	0.267	-0.050
-390.063	-115.572	-0.079	0.015
-389.048	168.201	-0.144	-0.203
-388.033	40.200	0.237	0.211
-387.019	800.000	-0.114	0.425
-386.004	58.182	-0.102	0.099
-384.990	800.000	-0.087	-0.361
-383.975	-200.000	-0.001	-0.087
-382.960	-200.000	0.001	0.055
-381.946	-200.000	-0.059	-0.424
-380.931	800.000	0.042	0.136
-379.917	-99.526	0.075	-0.019
-378.902	-169.653	-0.254	0.009
-377.888	800.000	0.007	-0.029
-376.873	-120.797	-0.200	-0.033
-375.858	800.000	-0.046	-0.199
-374.844	613.061	-0.097	-0.242
-373.829	-79.253	-0.224	0.075
-372.815	50.505	-0.216	0.202
-371.800	800.000	0.015	-0.059
-370.785	-200.000	-0.001	-0.177
-369.771	-102.256	-0.204	0.049
-368.756	672.194	0.052	-0.133
-367.742	33.392	0.151	0.130
-366.727	-123.252	0.063	0.010
-365.712	419.762	-0.104	0.220
-364.698	206.300	-0.180	0.277
-363.683	-153.830	0.015	-0.001
-362.669	434.463	-0.048	0.104
-361.654	-200.000	0.029	-0.252
-360.639	-135.556	-0.137	-0.016
-359.625	-22.654	-0.197	0.118
-358.610	89.535	-0.108	-0.119
-357.596	-126.582	0.228	0.033
-356.581	-200.000	0.015	-0.401
-355.566	39.005	-0.056	-0.049
-354.552	87.323	0.244	0.267
-353.537	-200.000	0.008	0.459
-352.523	-37.572	-0.140	0.074
-351.508	775.391	-0.135	0.365
-350.493	-122.611	0.065	0.010
-349.479	-19.873	0.435	0.266
-348.464	-146.123	-0.343	-0.030
-347.450	-57.198	-0.199	-0.087
-346.435	-92.417	0.194	0.054
-345.420	-200.000	0.008	0.037
-344.406	87.008	0.100	0.109
-343.391	-200.000	0.006	-0.136
-342.377	800.000	-0.033	-0.091
-341.362	-200.000	0.019	-0.316
-340.348	140.054	-0.170	0.221
-339.333	-60.924	0.123	-0.051
-338.318	-82.345	0.087	0.028
-337.304	-163.769	-0.196	0.009
-336.289	-200.000	-0.040	-0.378
-335.275	675.766	-0.157	0.403
-334.260	-76.540	0.172	0.060
-333.245	-40.845	-0.078	0.040
-332.231	-121.274	-0.115	0.019
-331.216	105.668	0.145	0.170
-330.202	-43.627	-0.200	-0.100
-329.187	-200.000	0.098	0.441
-328.172	-168.844	0.277	-0.010
-327.158	236.285	0.114	0.186
-326.143	98.042	0.228	-0.259
-325.129	602.743	0.046	-0.113
-324.114	29.200	0.195	-0.163
-323.099	4.888	0.096	0.070
-322.085	-200.000	0.014	-0.145
-321.070	-142.877	-0.160	0.015
-320.056	-85.844	0.369	-0.113
-319.041	726.259	-0.061	-0.162
-318.026	-115.753	-0.218	0.040
-317.012	-1.711	0.127	-0.088
-315.997	-91.444	0.320	0.090
-314.983	335.219	0.087	0.167
-313.968	270.442	-0.028	0.049
-312.953	159.631	0.118	0.162
-311.939	-127.728	0.260	-0.037
-310.924	-63.536	-0.203	-0.082
-309.910	700.769	-0.038	-0.100
-308.895	211.921	0.051	-0.079
-307.880	1.495	-0.498	-0.354
-306.866	-101.020	-0.430	0.104
-305.851	-161.913	-0.099	0.005
-304.837	143.763	-0.046	0.061
-303.822	612.219	-0.063	0.157
-302.807	-200.000	-0.022	-0.207
-301.793	-16.486	0.055	-0.034
-300.778	235.902	-0.038	0.062
-299.764	-25.303	0.250	0.146
-298.749	-44.690	0.222	0.109
-297.735	57.000	0.305	0.294
-296.720	-200.000	-0.011	-0.088
-295.705	-200.000	-0.006	-0.117
-294.691	-90.238	0.328	-0.094
-293.676	166.720	0.170	-0.238
-292.662	354.037	0.052	-0.101
-291.647	-24.817	0.163	-0.096
-290.632	646.409	0.031	-0.078
-289.618	800.000	-0.064	0.209
-288.603	-133.682	-0.186	-0.023
-287.589	472.779	0.028	-0.063
-286.574	113.464	-0.258	0.310
-285.559	-200.000	-0.004	-0.024
-284.545	-87.717	-0.269	-0.080
-283.530	90.908	0.136	-0.151
-282.516	336.656	0.083	0.160
-281.501	-39.274	-0.194	-0.100
-280.486	-94.061	0.293	0.079
-279.472	116.282	0.177	-0.214
-278.457	2.291	-0.063	-0.045
-277.443	-138.219	-0.299	0.033
-276.428	800.000	0.042	-0.166
-275.413	-99.263	-0.115	-0.029
-274.399	800.000	-0.088	0.335
-273.384	422.832	0.096	-0.203
-272.370	49.670	-0.280	0.260
-271.355	-200.000	-0.016	-0.074
-270.340	-200.000	0.042	-0.241
-269.326	800.000	0.019	0.066
-268.311	-200.000	0.042	0.193
-267.297	-200.000	-0.009	-0.128
-266.282	-127.290	0.111	0.016
-265.267	684.297	-0.043	-0.110
-264.253	243.324	0.113	-0.187
-263.238	-125.385	-0.105	0.016
-262.224	-35.441	0.195	-0.104
-261.209	-200.000	0.005	0.179
-260.195	-140.768	0.163	-0.017
-259.180	-150.316	-0.348	0.026
-258.165	-49.773	-0.030	-0.014
-257.151	-200.000	0.049	0.472
-256.136	602.040	-0.094	0.231
-255.122	-200.000	-0.043	-0.355
-254.107	-32.330	-0.138	0.076
-253.092	62.868	0.328	0.323
-252.078	-41.427	0.333	0.169
-251.063	156.903	0.223	0.304
-250.049	-132.455	-0.108	0.014
-249.034	800.000	-0.131	-0.411
-248.019	1.162	0.132	0.093
-247.005	800.000	0.082	-0.327
-245.990	-200.000	-0.007	-0.231
-244.976	-22.724	0.053	0.032
-243.961	-148.346	0.192	-0.016
-242.946	308.434	-0.156	0.287
-241.932	375.075	-0.112	0.226
-240.917	-53.651	0.330	0.149
-239.903	-110.888	0.137	-0.028
-238.888	-83.048	0.093	-0.030
-237.873	-200.000	-0.017	-0.089
-236.859	67.190	0.157	0.158
-235.844	800.000	-0.125	0.358
-234.830	-200.000	-0.005	-0.129
-233.815	-65.506	0.164	-0.065
-232.800	96.812	0.190	0.214
-231.786	155.638	-0.073	-0.099
-230.771	-200.000	-0.010	0.219
-229.757	-39.170	0.215	-0.111
-228.742	-200.000	0.005	-0.078
-227.727	-60.753	-0.137	-0.057
-226.713	-103.876	-0.194	-0.045
-225.698	-45.241	-0.221	-0.108
-224.684	148.405	0.153	0.203
-223.669	24.568	-0.307	-0.250
-222.655	-200.000	-0.017	-0.302
-221.640	595.617	-0.066	-0.162
-220.625	800.000	-0.068	0.204
-219.611	117.588	-0.063	0.077
-218.596	800.000	0.128	0.450
-217.582	-200.000	0.006	-0.185
-216.567	533.642	-0.186	0.432
-215.552	-114.637	0.600	-0.113
-214.538	237.584	-0.147	0.239
-213.523	-53.921	-0.198	-0.089
-212.509	182.654	0.157	-0.228
-211.494	-20.270	-0.159	0.096
-210.479	102.371	-0.224	0.257
-209.465	-200.000	0.037	-0.212
-208.450	412.095	-0.249	0.520
-207.436	157.305	-0.126	-0.172
-206.421	-148.880	-0.260	0.021
-205.406	-67.907	-0.208	0.080
-204.392	-71.861	0.191	0.070
-203.377	750.355	0.101	-0.268
-202.363	58.419	0.217	-0.210
-201.348	-200.000	0.019	0.163
-200.333	101.167	0.106	-0.122
-199.319	108.634	0.188	-0.220
-198.304	92.343	0.236	0.261
-197.290	145.411	-0.167	-0.220
-196.275	800.000	-0.044	0.166
-195.260	13.365	0.295	-0.225
-194.246	54.407	0.234	0.222
-193.231	-176.477	-0.039	-0.001
-192.217	-3.816	-0.138	0.094
-191.202	800.000	-0.110	-0.360
-190.187	-120.588	-0.251	-0.042
-189.173	121.870	0.176	0.216
-188.158	22.323	0.122	0.098
-187.144	74.579	-0.127	0.132
-186.129	-164.897	-0.325	0.014
-185.114	-110.982	-0.049	0.010
-184.100	136.670	-0.012	-0.016
-183.085	9.398	-0.428	0.318
-182.071	800.000	0.059	-0.173
-181.056	-21.132	-0.355	-0.213
-180.042	-200.000	0.034	-0.160
-179.027	6.858	-0.222	0.162
-178.012	-19.661	0.109	0.066
-176.998	-26.986	0.113	0.065
-175.983	-17.707	0.287	0.177
-174.969	305.283	0.032	0.059
-173.954	-26.186	0.220	0.127
-172.939	649.373	-0.085	-0.214
-171.925	587.050	0.161	-0.389
-170.910	-108.058	0.260	-0.055
-169.896	500.269	-0.046	-0.104
-168.881	-68.370	0.385	0.147
-167.866	-121.716	-0.120	0.019
-166.852	139.582	0.243	-0.314
-165.837	-75.871	0.344	0.120
-164.823	-200.000	-0.044	0.234
-163.808	-33.248	0.203	0.110
-162.793	-131.821	0.469	-0.060
-161.779	179.849	-0.008	0.011
-160.764	440.997	0.032	0.069
-159.750	800.000	0.168	0.485
-158.735	61.676	0.351	0.343
-157.720	800.000	-0.024	-0.069
-156.706	800.000	0.066	0.193
-155.691	-12.547	0.058	0.037
-154.677	52.767	-0.211	-0.198
-153.662	-13.660	0.186	-0.118
-152.647	-73.612	0.157	-0.056
-151.633	253.986	0.086	0.144
-150.618	89.324	-0.207	0.226
-149.604	19.068	-0.154	-0.121
-148.589	-105.482	0.040	-0.009
-147.574	-184.219	-0.352	-0.006
-146.560	-149.853	-0.201	0.015
-145.545	-140.658	-0.482	0.049
-144.531	431.643	0.037	-0.078
-143.516	-144.357	0.129	-0.012
-142.502	245.535	-0.174	0.288
-141.487	-86.829	-0.229	-0.069
-140.472	-200.000	0.075	-0.325
-139.458	-135.071	0.118	0.014
-138.443	40.144	0.211	-0.186
-137.429	-101.730	0.234	0.056
-136.414	47.410	-0.235	0.215
-135.399	-29.958	0.186	0.104
-134.385	-200.000	0.038	-0.172
-133.370	-105.960	0.298	0.066
-132.356	171.214	-0.078	-0.110
-131.341	-200.000	-0.081	-0.458
-130.326	100.674	0.094	0.107
-129.312	-36.112	-0.059	0.032
-128.297	82.054	0.185	0.197
-127.283	247.216	-0.140	-0.232
-126.268	201.735	-0.128	-0.193
-125.253	-200.000	-0.034	-0.160
-124.239	49.546	0.031	-0.029
-123.224	800.000	-0.074	-0.275
