DTS Sentinel unit serial number:	SN413079Multiplexer serial number:	ORYXHardware model number:	OX4-SRSoftware version number:	ORYX F/W v4.00 Oryx Data Collector v3.7.2.0data status	okinstallation	princeton_trtdifferential loss correction	single-endedforward channel	channel 2reverse channel	N/Adate	2019/09/18time	07:27:35forward acquisition time	60.00reverse acquisition time	0.00gamma	496.2192k internal	0.2349k external	0.2349temperature offset calibration	0.9984default loss term (dB/km)	0.3790temperature slope calibration	1.0000multiplexer offset coefficient	1.0000multiplexer slope coefficient	1.0000fibre end	0.00T internal ref (°C)	23.19T ext. ref 1 (°C)	0.18T ext. ref 2 (°C)	17.51length (m)	temperature (°C)	Stokes	anti-Stokes-747.200	-93.367	0.191	0.053
-746.185	-58.931	-0.292	0.126
-745.171	-89.850	-0.052	-0.015
-744.156	-200.000	0.021	0.235
-743.142	485.131	0.051	0.116
-742.127	-200.000	-0.002	0.203
-741.112	800.000	0.030	0.101
-740.098	800.000	-0.061	0.210
-739.083	273.722	0.087	0.154
-738.069	208.434	0.246	0.384
-737.054	-112.484	-0.342	-0.068
-736.039	-57.818	0.024	-0.010
-735.025	-38.959	0.474	0.249
-734.010	270.316	0.067	0.118
-732.996	-200.000	0.027	-0.628
-731.981	24.554	-0.236	-0.195
-730.966	800.000	0.009	0.036
-729.952	-200.000	-0.069	0.516
-728.937	75.671	-0.210	0.222
-727.923	209.349	-0.146	-0.229
-726.908	-200.000	0.022	0.152
-725.894	-123.417	-0.145	0.023
-724.879	-22.191	-0.151	-0.091
-723.864	-200.000	0.009	0.112
-722.850	-103.382	-0.113	-0.027
-721.835	-96.529	-0.193	0.051
-720.821	800.000	-0.111	-0.343
-719.806	800.000	0.050	-0.169
-718.791	177.145	0.165	0.239
-717.777	112.759	-0.049	-0.059
-716.762	755.351	-0.069	-0.187
-715.748	224.721	0.131	0.211
-714.733	-23.176	-0.330	-0.198
-713.718	-66.457	0.220	0.087
-712.704	75.791	0.174	-0.183
-711.689	53.889	0.082	-0.079
-710.675	83.556	-0.070	0.076
-709.660	11.057	-0.209	0.160
-708.645	-200.000	0.012	-0.061
-707.631	-43.915	-0.222	-0.111
-706.616	-7.301	-0.162	-0.109
-705.602	-17.242	0.205	-0.129
-704.587	-14.084	-0.224	0.144
-703.572	-18.058	-0.187	-0.117
-702.558	-200.000	0.046	0.265
-701.543	-200.000	0.023	0.119
-700.529	-107.204	0.332	0.073
-699.514	54.952	-0.235	-0.226
-698.499	-35.469	-0.085	-0.046
-697.485	-200.000	-0.014	-0.101
-696.470	-139.898	0.263	0.028
-695.456	23.243	0.261	-0.214
-694.441	77.266	-0.170	-0.180
-693.426	-35.877	0.298	-0.161
-692.412	-200.000	-0.003	0.270
-691.397	-26.033	0.177	-0.104
-690.383	3.962	-0.138	-0.101
-689.368	-75.087	0.269	0.096
-688.354	-57.350	0.184	-0.080
-687.339	-5.777	-0.156	-0.107
-686.324	46.924	-0.268	0.248
-685.310	-34.729	-0.210	-0.115
-684.295	141.202	-0.023	-0.030
-683.281	-171.586	0.199	0.007
-682.266	442.017	-0.109	0.237
-681.251	29.170	0.250	-0.211
-680.237	393.724	0.110	-0.229
-679.222	324.301	0.112	-0.213
-678.208	-1.891	-0.201	-0.141
-677.193	48.270	0.147	0.137
-676.178	-57.196	0.132	-0.058
-675.164	-200.000	-0.051	-0.243
-674.149	-37.366	0.022	0.012
-673.135	250.378	-0.266	0.450
-672.120	-200.000	-0.037	0.364
-671.105	96.970	-0.095	0.109
-670.091	800.000	-0.094	-0.270
-669.076	8.999	0.203	0.153
-668.062	800.000	-0.053	0.189
-667.047	344.651	-0.059	-0.115
-666.032	-200.000	-0.057	-0.435
-665.018	800.000	0.083	-0.238
-664.003	0.917	0.116	0.083
-662.989	-44.654	-0.131	0.065
-661.974	800.000	-0.031	0.103
-660.959	-11.915	-0.163	-0.107
-659.945	215.236	0.121	0.192
-658.930	-151.313	0.111	0.008
-657.916	-200.000	-0.003	0.023
-656.901	-143.879	-0.137	-0.013
-655.886	-186.893	-0.215	-0.003
-654.872	42.142	0.068	0.062
-653.857	16.882	-0.320	-0.252
-652.843	-69.715	0.421	-0.160
-651.828	77.937	0.174	0.184
-650.814	135.157	0.078	-0.101
-649.799	-99.400	-0.306	0.077
-648.784	123.151	-0.167	-0.208
-647.770	65.604	-0.029	-0.030
-646.755	364.515	0.100	-0.200
-645.741	800.000	0.056	-0.211
-644.726	295.884	-0.125	-0.228
-643.711	409.245	0.024	-0.050
-642.697	-103.825	-0.383	0.089
-641.682	-120.899	0.216	0.036
-640.668	32.916	0.171	-0.148
-639.653	199.583	0.109	-0.167
-638.638	273.763	0.234	-0.411
-637.624	-86.282	-0.254	-0.078
-636.609	-26.731	-0.029	-0.017
-635.595	393.194	0.049	0.102
-634.580	-200.000	0.009	-0.079
-633.565	-200.000	0.049	-0.229
-632.551	-87.263	-0.176	0.053
-631.536	-200.000	0.016	0.088
-630.522	-25.450	-0.103	0.061
-629.507	-200.000	0.019	-0.240
-628.492	227.416	-0.117	-0.189
-627.478	800.000	-0.031	0.090
-626.463	133.838	0.069	-0.089
-625.449	-200.000	-0.002	-0.035
-624.434	155.635	0.052	-0.071
-623.419	-64.697	0.248	0.100
-622.405	-200.000	0.020	0.196
-621.390	-64.706	0.059	0.024
-620.376	-49.295	0.135	-0.064
-619.361	-90.084	0.336	-0.097
-618.346	-144.835	-0.158	-0.014
-617.332	-79.238	-0.340	0.114
-616.317	-81.858	0.040	-0.013
-615.303	-178.029	-0.238	0.006
-614.288	-200.000	0.011	-0.079
-613.273	728.830	0.087	-0.232
-612.259	800.000	0.097	0.344
-611.244	-85.341	0.322	0.100
-610.230	102.856	-0.148	-0.173
-609.215	278.252	-0.074	-0.132
-608.201	-31.346	-0.212	-0.118
-607.186	-21.851	0.361	-0.218
-606.171	78.000	-0.052	0.055
-605.157	72.287	-0.069	0.072
-604.142	-58.659	-0.327	-0.141
-603.128	-8.677	0.239	0.159
-602.113	276.507	-0.078	-0.138
-601.098	338.569	0.192	-0.372
-600.084	-113.609	0.309	0.060
-599.069	-40.441	-0.052	0.027
-598.055	-78.933	0.369	-0.125
-597.040	-200.000	-0.016	-0.464
-596.025	-200.000	0.012	-0.070
-595.011	-111.068	-0.392	-0.080
-593.996	-64.335	-0.326	-0.132
-592.982	88.851	-0.276	-0.305
-591.967	392.797	0.060	0.123
-590.952	34.127	0.310	-0.268
-589.938	-118.582	0.247	0.043
-588.923	-2.502	0.294	0.205
-587.909	-6.907	-0.075	0.051
-586.894	96.158	0.221	-0.251
-585.879	-200.000	-0.004	-0.043
-584.865	51.316	0.130	0.123
-583.850	101.083	-0.146	0.168
-582.836	52.797	-0.060	0.057
-581.821	33.483	0.161	0.139
-580.806	800.000	-0.079	-0.277
-579.792	359.784	0.097	-0.192
-578.777	196.370	-0.102	-0.154
-577.763	800.000	0.079	-0.267
-576.748	4.417	0.200	-0.146
-575.733	83.190	-0.203	0.220
-574.719	-71.908	-0.299	-0.111
-573.704	285.594	0.205	-0.366
-572.690	54.840	-0.258	0.247
-571.675	-200.000	-0.001	-0.028
-570.661	-200.000	0.039	0.604
-569.646	5.282	-0.250	0.183
-568.631	-67.136	-0.270	0.106
-567.617	123.532	0.184	-0.229
-566.602	80.187	-0.165	-0.176
-565.588	23.747	0.586	-0.478
-564.573	-200.000	0.042	-0.205
-563.558	277.579	-0.067	0.119
-562.544	-134.400	-0.059	-0.007
-561.529	-3.761	0.087	-0.060
-560.515	-200.000	0.001	-0.322
-559.500	800.000	0.033	0.098
-558.485	-34.956	0.063	-0.034
-557.471	324.465	0.136	-0.258
-556.456	-200.000	0.013	0.184
-555.442	800.000	0.113	-0.399
-554.427	-123.243	0.214	-0.034
-553.412	166.737	-0.087	-0.122
-552.398	800.000	-0.101	0.368
-551.383	-193.259	0.176	0.002
-550.369	-47.510	0.335	0.161
-549.354	-56.581	0.203	0.089
-548.339	81.116	-0.176	-0.189
-547.325	116.099	0.114	-0.138
-546.310	-106.290	-0.314	-0.070
-545.296	253.080	0.056	-0.096
-544.281	9.955	0.196	0.148
-543.266	-72.671	-0.021	0.008
-542.252	221.284	0.159	0.253
-541.237	-7.938	-0.244	0.163
-540.223	-200.000	0.055	0.249
-539.208	12.064	0.180	-0.137
-538.193	321.893	0.057	0.108
-537.179	-104.178	-0.142	-0.033
-536.164	3.144	-0.178	-0.128
-535.150	-124.473	0.059	0.009
-534.135	114.555	0.105	-0.127
-533.121	283.257	0.017	0.030
-532.106	-51.856	-0.097	0.045
-531.091	-159.978	0.315	-0.017
-530.077	340.121	0.092	0.178
-529.062	800.000	-0.068	0.282
-528.048	242.914	0.071	-0.118
-527.033	454.523	-0.161	0.353
-526.018	-52.883	-0.307	0.140
-525.004	243.557	-0.094	-0.156
-523.989	-173.971	-0.184	-0.005
-522.975	-124.420	-0.396	0.061
-521.960	-200.000	0.017	0.308
-520.945	85.183	0.079	-0.086
-519.931	800.000	0.087	0.248
-518.916	-200.000	0.016	-0.159
-517.902	38.274	-0.086	-0.076
-516.887	76.071	0.116	-0.121
-515.872	-80.758	-0.082	-0.027
-514.858	-111.707	-0.198	0.040
-513.843	-5.797	-0.126	0.085
-512.829	55.235	0.083	-0.079
-511.814	10.136	0.202	-0.152
-510.799	59.081	0.081	0.079
-509.785	581.475	0.080	-0.194
-508.770	-189.496	-0.185	0.002
-507.756	-3.550	0.341	0.234
-506.741	-104.010	0.189	0.044
-505.726	-144.081	-0.272	-0.025
-504.712	-200.000	0.035	0.152
-503.697	252.723	-0.044	-0.074
-502.683	800.000	0.122	0.500
-501.668	-128.635	0.434	-0.061
-500.653	-200.000	0.001	-0.112
-499.639	-200.000	-0.008	0.388
-498.624	406.983	-0.088	0.185
-497.610	180.107	-0.173	-0.251
-496.595	270.674	-0.204	0.355
-495.581	-94.730	-0.298	0.080
-494.566	-61.098	0.217	0.090
-493.551	51.474	0.107	0.101
-492.537	328.375	-0.104	0.197
-491.522	-73.038	0.211	0.076
-490.508	-58.251	-0.064	0.028
-489.493	-200.000	0.055	-0.425
-488.478	231.525	0.106	0.172
-487.464	-142.745	0.197	-0.019
-486.449	487.108	0.071	0.160
-485.435	-119.161	-0.148	-0.026
-484.420	-200.000	-0.020	0.280
-483.405	149.097	-0.237	0.317
-482.391	-89.662	0.259	-0.075
-481.376	-153.883	-0.121	0.008
-480.362	800.000	0.055	0.214
-479.347	249.435	0.051	0.086
-478.332	-87.673	-0.244	0.073
-477.318	225.161	0.095	0.153
-476.303	391.455	0.063	-0.130
-475.289	464.709	0.180	0.397
-474.274	-168.207	0.145	0.006
-473.259	178.899	0.128	0.185
-472.245	2.609	0.082	0.059
-471.230	-200.000	0.001	-0.262
-470.216	-150.484	0.107	-0.008
-469.201	12.974	0.314	-0.240
-468.186	539.136	-0.087	0.205
-467.172	-124.430	0.394	-0.061
-466.157	45.846	-0.145	0.132
-465.143	114.502	-0.183	-0.221
-464.128	13.070	-0.349	-0.267
-463.113	64.441	0.108	-0.107
-462.099	-200.000	0.024	-0.126
-461.084	93.771	0.047	-0.052
-460.070	800.000	0.076	-0.297
-459.055	536.308	0.065	0.153
-458.040	-200.000	0.027	0.253
-457.026	97.126	-0.005	0.005
-456.011	-200.000	-0.037	0.277
-454.997	22.728	-0.132	0.107
-453.982	17.225	-0.097	0.076
-452.968	190.762	-0.160	0.237
-451.953	-78.206	0.158	0.054
-450.938	367.274	0.092	0.184
-449.924	277.131	-0.149	-0.262
-448.909	100.622	0.129	0.148
-447.895	-27.607	0.279	-0.160
-446.880	161.210	0.050	-0.069
-445.865	-115.691	0.158	-0.029
-444.851	-31.543	0.126	-0.070
-443.836	645.959	-0.073	0.183
-442.822	-52.354	-0.504	0.230
-441.807	-53.182	0.213	-0.096
-440.792	-200.000	0.003	-0.081
-439.778	337.535	-0.160	0.308
-438.763	800.000	0.057	-0.176
-437.749	103.866	0.204	-0.236
-436.734	-45.724	-0.211	-0.103
-435.719	-116.363	-0.180	-0.033
-434.705	-135.084	-0.155	0.018
-433.690	81.446	0.066	0.070
-432.676	473.548	0.053	-0.118
-431.661	-200.000	-0.006	0.144
-430.646	800.000	-0.102	0.347
-429.632	-73.081	0.101	-0.037
-428.617	161.626	0.072	-0.099
-427.603	-190.891	0.296	-0.003
-426.588	-171.504	-0.235	0.008
-425.573	14.835	0.303	0.234
-424.559	407.320	0.213	0.443
-423.544	178.549	0.142	0.204
-422.530	178.960	0.110	0.158
-421.515	-81.547	-0.100	-0.032
-420.500	136.186	-0.090	0.116
-419.486	128.391	0.040	0.051
-418.471	-5.331	0.168	0.114
-417.457	-3.081	-0.090	0.062
-416.442	-160.252	-0.359	0.019
-415.428	800.000	-0.053	-0.199
-414.413	-98.646	-0.288	-0.072
-413.398	-19.294	-0.162	0.099
-412.384	345.255	-0.002	-0.005
-411.369	515.987	0.100	-0.229
-410.355	75.715	0.116	0.121
-409.340	-28.970	-0.303	0.172
-408.325	-200.000	0.016	-0.155
-407.311	-200.000	0.013	0.147
-406.296	-116.866	-0.358	0.065
-405.282	82.260	-0.076	-0.081
-404.267	-200.000	-0.041	-0.400
-403.252	94.978	0.222	-0.249
-402.238	390.909	0.161	-0.329
-401.223	-200.000	-0.008	-0.320
-400.209	343.415	0.143	-0.277
-399.194	-200.000	-0.022	0.109
-398.179	-27.586	0.291	0.166
-397.165	-114.361	0.234	-0.044
-396.150	-200.000	-0.002	0.413
-395.136	50.170	0.197	0.183
-394.121	-78.765	0.138	-0.046
-393.106	-134.666	-0.407	0.049
-392.092	-7.649	0.082	0.054
-391.077	-200.000	-0.025	-0.488
-390.063	-200.000	0.048	-0.392
-389.048	-31.902	0.125	0.069
-388.033	113.520	-0.255	-0.305
-387.019	-17.766	-0.255	0.158
-386.004	-87.199	-0.184	0.055
-384.990	-42.816	-0.141	-0.070
-383.975	-92.985	-0.118	-0.033
-382.960	-200.000	0.020	-0.218
-381.946	97.136	-0.067	0.075
-380.931	-17.275	-0.167	0.104
-379.917	-187.656	0.033	0.000
-378.902	800.000	0.135	0.523
-377.888	261.551	0.114	0.194
-376.873	228.789	-0.153	0.246
-375.858	-36.624	0.040	-0.021
-374.844	800.000	-0.101	0.333
-373.829	465.478	0.070	-0.153
-372.815	-31.947	0.149	-0.082
-371.800	-59.172	-0.090	-0.038
-370.785	183.559	0.108	-0.158
-369.771	164.660	-0.213	-0.295
-368.756	-19.735	0.402	-0.244
-367.742	-60.879	0.226	-0.094
-366.727	-111.715	-0.154	-0.031
-365.712	-150.704	0.061	0.005
-364.698	38.277	0.233	0.204
-363.683	-3.373	0.218	0.149
-362.669	-59.015	0.286	-0.121
-361.654	-109.257	0.257	-0.054
-360.639	14.378	0.142	-0.109
-359.625	166.649	-0.111	0.155
-358.610	-61.032	-0.366	0.152
-357.596	-9.479	0.271	-0.178
-356.581	800.000	0.050	-0.172
-355.566	-46.295	-0.217	0.105
-354.552	-200.000	0.023	0.263
-353.537	-200.000	-0.048	0.212
-352.523	-200.000	-0.087	0.391
-351.508	77.571	0.105	0.110
-350.493	26.145	-0.220	-0.181
-349.479	-200.000	-0.012	0.274
-348.464	-39.386	0.149	-0.077
-347.450	289.126	-0.138	-0.246
-346.435	-105.777	0.129	-0.029
-345.420	-60.424	0.180	-0.075
-344.406	78.676	-0.265	0.278
-343.391	800.000	0.070	0.254
-342.377	134.120	0.210	-0.268
-341.362	-200.000	-0.014	0.084
-340.348	-92.786	0.229	0.063
-339.333	-4.197	-0.166	-0.113
-338.318	800.000	-0.044	0.128
-337.304	-172.662	0.279	-0.009
-336.289	-94.331	-0.375	-0.101
-335.275	-158.938	0.332	-0.019
-334.260	-37.795	-0.310	0.162
-333.245	104.305	0.301	0.348
-332.231	-136.991	0.121	-0.014
-331.216	800.000	-0.064	-0.197
-330.202	-71.073	0.099	-0.037
-329.187	800.000	-0.052	0.171
-328.172	87.793	0.093	0.101
-327.158	-69.328	-0.302	-0.114
-326.143	647.735	0.127	-0.319
-325.129	800.000	-0.083	-0.262
-324.114	-130.430	-0.249	0.033
-323.099	-200.000	-0.003	-0.110
-322.085	-200.000	0.002	-0.016
-321.070	800.000	0.041	-0.113
-320.056	800.000	-0.037	0.120
-319.041	-200.000	0.076	-0.341
-318.026	-200.000	-0.035	0.503
-317.012	-200.000	-0.014	0.214
-315.997	-42.404	0.277	0.139
-314.983	701.185	-0.062	-0.161
-313.968	-186.389	0.182	0.003
-312.953	-133.525	-0.063	0.008
-311.939	104.995	-0.169	0.196
-310.924	201.096	0.076	0.114
-309.910	800.000	0.176	-0.529
-308.895	-18.285	0.051	-0.031
-307.880	-135.289	-0.269	0.032
-306.866	800.000	0.126	-0.405
-305.851	-6.412	-0.158	0.106
-304.837	-43.886	-0.397	-0.196
-303.822	-200.000	0.046	-0.281
-302.807	-0.568	0.072	-0.050
-301.793	-200.000	0.028	-0.225
-300.778	-154.593	-0.356	0.023
-299.764	206.517	0.054	0.083
-298.749	-46.580	-0.192	-0.092
-297.735	-174.392	-0.338	0.010
-296.720	352.581	-0.113	0.220
-295.705	800.000	-0.100	-0.422
-294.691	-87.501	0.128	-0.038
-293.676	-51.855	0.171	0.078
-292.662	-122.693	0.121	-0.019
-291.647	800.000	0.050	0.175
-290.632	-104.253	-0.100	-0.023
-289.618	303.399	0.063	0.114
-288.603	20.185	0.108	0.086
-287.589	77.723	-0.351	0.367
-286.574	-172.592	0.091	0.003
-285.559	70.533	-0.247	-0.250
-284.545	-136.985	-0.152	0.017
-283.530	-200.000	0.016	-0.261
-282.516	800.000	0.039	-0.132
-281.501	-200.000	-0.019	-0.166
-280.486	139.354	-0.235	0.303
-279.472	76.335	0.151	0.157
-278.457	57.733	0.293	0.281
-277.443	-13.450	0.272	0.173
-276.428	37.560	-0.139	-0.121
-275.413	42.611	-0.074	-0.066
-274.399	-200.000	-0.023	0.244
-273.384	-20.493	-0.267	0.161
-272.370	-109.407	-0.111	0.023
-271.355	-200.000	0.042	-0.193
-270.340	-200.000	0.009	-0.144
-269.326	46.795	0.288	-0.263
-268.311	239.547	-0.170	0.277
-267.297	-99.881	0.149	-0.036
-266.282	-9.054	0.139	-0.091
-265.267	-28.336	-0.064	-0.036
-264.253	56.478	-0.072	0.069
-263.238	-126.126	0.143	0.021
-262.224	-151.298	-0.120	-0.009
-261.209	-133.894	-0.215	0.026
-260.195	-118.975	0.220	0.038
-259.180	800.000	0.050	0.189
-258.165	-31.879	0.083	-0.045
-257.151	34.826	-0.244	-0.209
-256.136	606.985	-0.143	0.349
-255.122	-75.648	0.142	0.049
-254.107	85.731	-0.007	-0.007
-253.092	-68.160	-0.041	0.015
-252.078	253.176	0.028	-0.046
-251.063	-19.597	0.343	0.208
-250.049	-200.000	-0.007	-0.249
-249.034	800.000	0.077	0.263
-248.019	141.396	0.021	-0.027
-247.005	391.177	0.115	0.234
-245.990	-24.454	0.266	-0.155
-244.976	120.198	-0.052	0.063
-243.961	-59.505	0.288	-0.121
-242.946	167.047	-0.175	0.244
-241.932	448.617	-0.106	-0.229
-240.917	158.360	-0.030	-0.041
-239.903	84.396	-0.074	-0.079
-238.888	49.846	0.263	-0.243
-237.873	-127.441	-0.090	-0.013
-236.859	722.635	0.048	0.126
-235.844	109.221	-0.002	0.002
-234.830	-70.664	-0.221	-0.082
-233.815	202.560	-0.207	-0.313
-232.800	9.390	0.151	0.112
-231.786	30.515	0.109	0.091
-230.771	-84.096	-0.254	0.079
-229.757	39.013	0.103	0.090
-228.742	-6.187	-0.218	-0.145
-227.727	-200.000	-0.023	-0.212
-226.713	800.000	-0.168	-0.481
-225.698	-64.755	-0.022	-0.009
-224.684	-200.000	0.115	0.000
-223.669	47.737	-0.222	0.203
-222.655	129.808	0.194	0.243
-221.640	-119.730	-0.302	-0.051
-220.625	312.910	-0.117	-0.215
-219.611	-88.759	0.156	-0.045
-218.596	-29.743	-0.096	0.053
-217.582	800.000	-0.080	0.250
-216.567	22.667	0.176	0.141
-215.552	800.000	0.057	0.210
-214.538	-200.000	-0.002	-0.198
-213.523	-17.523	-0.083	0.051
-212.509	292.569	-0.149	-0.266
-211.494	800.000	0.059	0.193
-210.479	277.644	-0.120	-0.210
-209.465	-167.154	0.179	0.007
-208.450	-200.000	0.050	0.261
-207.436	72.044	-0.144	0.146
-206.421	-66.082	0.074	0.029
-205.406	251.516	-0.054	-0.090
-204.392	80.278	-0.145	-0.153
-203.377	-38.974	0.237	0.122
-202.363	-116.345	-0.132	0.024
-201.348	86.243	-0.270	-0.291
-200.333	800.000	0.021	0.084
-199.319	405.402	0.180	-0.372
-198.304	193.179	-0.027	-0.040
-197.290	-178.008	0.165	0.004
-196.275	-200.000	0.008	-0.090
-195.260	-144.064	-0.385	0.035
-194.246	78.412	-0.224	0.234
-193.231	198.561	-0.071	0.107
-192.217	-27.877	-0.189	-0.107
-191.202	568.481	0.128	-0.305
-190.187	-200.000	0.000	-0.065
-189.173	-15.095	-0.116	0.073
-188.158	-127.085	0.027	0.004
-187.144	-117.397	-0.155	-0.027
-186.129	234.706	0.131	0.211
-185.114	66.321	0.071	0.071
-184.100	800.000	-0.049	0.169
-183.085	26.753	-0.207	0.170
-182.071	184.578	0.133	-0.193
-181.056	-29.601	-0.423	0.236
-180.042	-90.343	0.252	-0.071
-179.027	-200.000	-0.029	0.174
-178.012	73.163	-0.182	-0.185
-176.998	800.000	0.030	0.114
-175.983	-93.009	-0.375	0.102
-174.969	-9.798	0.594	0.387
-173.954	-193.547	-0.295	-0.002
-172.939	71.249	0.118	0.120
-171.925	800.000	-0.081	-0.261
-170.910	-164.435	-0.243	0.011
-169.896	-75.215	-0.244	0.085
-168.881	-2.974	-0.049	-0.034
-167.866	41.714	-0.216	-0.191
-166.852	-200.000	0.008	-0.265
-165.837	-192.938	0.180	-0.002
-164.823	110.717	-0.161	-0.189
-163.808	-106.147	-0.268	0.059
-162.793	-112.196	-0.232	0.046
-161.779	-42.171	0.258	0.129
-160.764	-52.600	0.130	-0.059
-159.750	-200.000	0.061	0.282
-158.735	-74.212	0.107	-0.038
-157.720	93.839	-0.090	0.100
-156.706	-0.994	0.080	0.055
-155.691	-90.060	0.251	-0.071
-154.677	680.227	-0.050	0.127
-153.662	131.241	0.150	-0.188
-152.647	-200.000	0.062	0.276
-151.633	-200.000	0.009	0.263
-150.618	-200.000	0.062	-0.327
-149.604	-74.203	-0.079	0.028
-148.589	355.125	-0.133	-0.259
-147.574	-139.139	-0.320	0.034
-146.560	-54.338	-0.257	-0.114
-145.545	-152.704	0.258	-0.018
-144.531	93.136	-0.184	-0.203
-143.516	276.095	-0.148	0.257
-142.502	-101.554	0.277	0.066
-141.487	228.840	0.138	-0.219
-140.472	-200.000	-0.004	-0.139
-139.458	800.000	0.065	-0.187
-138.443	305.981	-0.115	0.208
-137.429	-70.547	-0.141	-0.052
-136.414	192.776	-0.040	-0.059
-135.399	350.529	-0.174	0.335
-134.385	-83.188	-0.341	-0.107
-133.370	249.884	-0.091	-0.151
-132.356	-69.758	-0.143	-0.053
-131.341	-67.149	0.170	0.066
-130.326	800.000	-0.048	0.159
-129.312	-200.000	-0.033	-0.305
-128.297	-33.123	-0.130	0.070
-127.283	-55.843	0.281	-0.122
-126.268	-123.552	-0.190	0.029
-125.253	240.303	-0.113	0.184
-124.239	-49.515	0.235	0.109
-123.224	277.062	-0.052	-0.090
-122.210	800.000	0.038	0.155
-121.195	-43.057	0.567	0.280
-120.180	-200.000	0.025	0.390
