DTS Sentinel unit serial number:	SN413079Multiplexer serial number:	ORYXHardware model number:	OX4-SRSoftware version number:	ORYX F/W v4.00 Oryx Data Collector v3.7.2.0data status	okinstallation	princeton_trtdifferential loss correction	single-endedforward channel	channel 2reverse channel	N/Adate	2019/09/16time	20:23:35forward acquisition time	60.00reverse acquisition time	0.00gamma	496.2192k internal	0.2328k external	0.2328temperature offset calibration	0.9961default loss term (dB/km)	0.3790temperature slope calibration	1.0000multiplexer offset coefficient	1.0000multiplexer slope coefficient	1.0000fibre end	0.00T internal ref (°C)	32.78T ext. ref 1 (°C)	0.03T ext. ref 2 (°C)	26.69length (m)	temperature (°C)	Stokes	anti-Stokes-747.200	-200.000	-0.017	0.233
-746.185	-144.804	-0.067	-0.006
-745.171	-200.000	-0.004	0.198
-744.156	-200.000	0.011	0.232
-743.142	-93.139	0.076	0.021
-742.127	-200.000	0.005	-0.210
-741.112	136.843	0.212	0.279
-740.098	148.923	-0.158	0.216
-739.083	55.212	0.180	-0.175
-738.069	339.829	0.105	0.206
-737.054	-123.917	-0.261	-0.041
-736.039	-200.000	-0.072	-0.342
-735.025	800.000	-0.024	0.073
-734.010	145.092	0.247	0.332
-732.996	-200.000	0.038	0.205
-731.981	-99.952	-0.061	-0.015
-730.966	5.316	0.232	0.172
-729.952	17.111	-0.178	-0.142
-728.937	323.724	-0.065	-0.124
-727.923	-95.828	-0.092	0.025
-726.908	800.000	-0.039	-0.166
-725.894	53.475	-0.169	-0.163
-724.879	-200.000	-0.002	-0.104
-723.864	-133.114	0.119	0.015
-722.850	568.081	-0.033	-0.081
-721.835	47.173	-0.172	-0.161
-720.821	-60.362	-0.278	-0.119
-719.806	800.000	-0.073	0.215
-718.791	-75.207	-0.321	0.115
-717.777	101.165	-0.087	-0.101
-716.762	135.011	-0.168	-0.219
-715.748	402.868	-0.152	-0.321
-714.733	27.385	-0.124	0.105
-713.718	-144.178	0.302	0.028
-712.704	-200.000	0.005	0.099
-711.689	80.058	-0.258	-0.280
-710.675	170.663	-0.119	-0.171
-709.660	179.264	0.149	0.220
-708.645	-13.558	-0.069	-0.045
-707.631	152.551	0.171	0.235
-706.616	72.622	-0.030	-0.031
-705.602	493.077	-0.112	0.259
-704.587	-14.123	-0.321	-0.209
-703.572	-200.000	0.042	-0.520
-702.558	-84.725	0.201	0.064
-701.543	-200.000	-0.011	0.162
-700.529	8.285	0.129	-0.097
-699.514	604.266	-0.054	-0.134
-698.499	-119.838	0.199	-0.035
-697.485	386.231	-0.058	0.121
-696.470	-200.000	-0.148	-0.001
-695.456	541.564	0.102	0.244
-694.441	-35.026	-0.206	0.113
-693.426	-200.000	0.013	-0.056
-692.412	-112.998	-0.052	0.010
-691.397	123.713	-0.157	-0.198
-690.383	-166.239	0.172	0.007
-689.368	-125.239	-0.365	0.056
-688.354	-134.163	-0.372	-0.046
-687.339	99.471	0.249	0.289
-686.324	-56.358	-0.399	0.178
-685.310	-4.463	-0.151	-0.105
-684.295	134.882	-0.219	0.286
-683.281	-45.795	0.250	-0.124
-682.266	65.966	0.136	0.139
-681.251	530.536	0.179	-0.425
-680.237	800.000	-0.028	-0.099
-679.222	-14.547	0.254	0.164
-678.208	-48.712	0.152	-0.074
-677.193	55.852	-0.081	-0.079
-676.178	-50.394	0.064	0.030
-675.164	-155.977	-0.098	0.006
-674.149	-200.000	0.343	-0.000
-673.135	-144.272	-0.308	0.029
-672.120	-200.000	0.012	0.059
-671.105	-41.167	0.160	-0.083
-670.091	385.690	0.090	-0.187
-669.076	-200.000	0.002	-0.239
-668.062	-183.238	0.091	-0.002
-667.047	-200.000	-0.016	-0.158
-666.032	800.000	-0.027	0.090
-665.018	354.430	0.078	0.155
-664.003	-36.749	-0.070	0.038
-662.989	800.000	0.078	-0.329
-661.974	800.000	0.110	-0.329
-660.959	800.000	0.082	0.319
-659.945	-40.132	0.163	0.085
-658.930	406.099	0.152	-0.322
-657.916	154.573	0.096	-0.133
-656.901	-47.774	-0.259	0.126
-655.886	-200.000	-0.028	-0.145
-654.872	-143.494	0.241	0.023
-653.857	800.000	-0.075	-0.260
-652.843	312.268	-0.224	-0.422
-651.828	221.771	0.081	-0.130
-650.814	-80.775	-0.241	0.080
-649.799	-55.298	-0.068	0.030
-648.784	31.573	0.106	-0.092
-647.770	800.000	-0.134	-0.465
-646.755	756.085	-0.136	-0.371
-645.741	-200.000	-0.017	-0.092
-644.726	800.000	0.137	0.411
-643.711	51.783	0.109	0.104
-642.697	-31.783	-0.202	-0.114
-641.682	156.884	0.258	-0.358
-640.668	104.620	0.145	-0.171
-639.653	-200.000	0.006	-0.327
-638.638	-104.328	-0.168	0.039
-637.624	-1.910	0.282	0.199
-636.609	-107.865	-0.135	0.029
-635.595	-63.564	-0.020	0.008
-634.580	-103.900	-0.044	0.010
-633.565	-112.589	0.190	0.038
-632.551	135.160	0.014	0.018
-631.536	90.693	0.097	0.109
-630.522	800.000	-0.054	-0.193
-629.507	-115.983	0.323	0.060
-628.492	14.196	-0.092	-0.072
-627.478	28.877	0.174	-0.148
-626.463	206.349	-0.192	-0.301
-625.449	-169.890	-0.244	0.009
-624.434	43.968	-0.204	0.188
-623.419	-114.560	0.233	-0.045
-622.405	89.754	-0.371	0.416
-621.390	118.267	-0.229	-0.283
-620.376	800.000	0.158	0.581
-619.361	191.955	-0.213	0.322
-618.346	88.361	-0.236	0.263
-617.332	-200.000	-0.104	0.482
-616.317	-177.547	-0.080	0.002
-615.303	-105.593	0.062	-0.014
-614.288	-200.000	0.025	0.276
-613.273	36.049	-0.056	-0.049
-612.259	246.362	0.109	0.185
-611.244	-44.108	-0.054	0.027
-610.230	-116.152	-0.100	0.019
-609.215	-52.070	-0.270	0.126
-608.201	161.422	0.155	0.217
-607.186	-200.000	-0.193	-0.001
-606.171	125.875	0.055	0.070
-605.157	-4.804	0.303	-0.210
-604.142	173.624	0.018	-0.026
-603.128	-32.935	0.280	-0.156
-602.113	-68.699	-0.268	0.104
-601.098	-187.668	-0.077	-0.001
-600.084	383.707	-0.118	0.244
-599.069	-200.000	-0.246	0.001
-598.055	800.000	0.046	0.148
-597.040	-200.000	-0.032	0.218
-596.025	-200.000	-0.010	0.218
-595.011	-71.812	-0.206	-0.077
-593.996	223.109	-0.043	-0.069
-592.982	484.044	0.058	-0.133
-591.967	10.751	0.032	-0.024
-590.952	-200.000	0.035	0.216
-589.938	-132.348	-0.155	-0.020
-588.923	-102.610	-0.124	0.030
-587.909	-13.914	0.080	0.052
-586.894	-200.000	-0.030	0.149
-585.879	-127.904	0.116	-0.017
-584.865	598.383	0.035	-0.087
-583.850	800.000	0.033	0.107
-582.836	-200.000	-0.007	0.035
-581.821	800.000	0.055	0.230
-580.806	-154.157	-0.261	0.018
-579.792	-18.184	0.153	-0.096
-578.777	500.710	0.033	-0.077
-577.763	-200.000	-0.070	-0.377
-576.748	-33.493	0.301	-0.167
-575.733	800.000	-0.114	0.353
-574.719	207.500	-0.149	-0.232
-573.704	656.643	-0.120	-0.308
-572.690	-162.615	-0.124	0.006
-571.675	-184.045	-0.251	0.004
-570.661	319.990	-0.059	-0.113
-569.646	41.559	0.152	-0.138
-568.631	197.003	0.167	-0.254
-567.617	-200.000	0.023	-0.169
-566.602	-19.825	-0.354	-0.219
-565.588	-20.273	0.071	-0.044
-564.573	-200.000	-0.008	0.143
-563.558	-82.071	-0.199	0.065
-562.544	-107.585	-0.182	0.040
-561.529	-200.000	-0.002	-0.053
-560.515	-103.628	-0.350	-0.082
-559.500	108.011	-0.053	-0.064
-558.485	3.172	0.153	-0.112
-557.471	-84.395	0.161	-0.051
-556.456	619.591	-0.076	0.191
-555.442	-1.135	0.221	-0.156
-554.427	9.482	0.404	0.306
-553.412	310.138	-0.086	-0.161
-552.398	460.916	-0.083	-0.185
-551.383	-82.703	0.171	-0.055
-550.369	257.620	-0.106	0.183
-549.354	177.586	-0.054	0.079
-548.339	-192.907	0.249	0.002
-547.325	800.000	-0.039	0.139
-546.310	139.387	-0.029	-0.038
-545.296	54.081	0.215	0.206
-544.281	-200.000	-0.029	-0.180
-543.266	660.118	-0.046	0.118
-542.252	647.381	-0.167	-0.427
-541.237	-157.356	0.322	-0.019
-540.223	103.601	-0.076	0.090
-539.208	-101.553	0.115	-0.028
-538.193	-39.827	0.188	-0.098
-537.179	-38.061	-0.300	-0.159
-536.164	-58.699	-0.157	0.068
-535.150	-98.938	0.201	0.051
-534.135	36.528	0.200	0.177
-533.121	800.000	0.046	0.166
-532.106	397.844	0.081	-0.170
-531.091	-102.062	-0.295	-0.071
-530.077	-200.000	-0.022	0.099
-529.062	43.225	-0.083	0.076
-528.048	-101.013	0.235	-0.058
-527.033	268.871	-0.368	0.645
-526.018	-200.000	0.021	0.231
-525.004	-23.161	-0.278	-0.167
-523.989	180.529	0.210	-0.307
-522.975	-200.000	-0.005	-0.174
-521.960	110.399	-0.243	-0.292
-520.945	728.014	-0.108	-0.287
-519.931	-53.603	-0.333	0.152
-518.916	125.484	0.172	-0.217
-517.902	70.209	0.177	-0.182
-516.887	-42.305	-0.133	0.068
-515.872	399.350	0.075	-0.156
-514.858	800.000	0.056	-0.177
-513.843	-56.412	-0.081	0.036
-512.829	182.740	0.268	0.394
-511.814	44.922	-0.288	-0.265
-510.799	-48.154	-0.109	-0.052
-509.785	-108.800	0.319	-0.068
-508.770	-104.675	-0.312	-0.072
-507.756	-200.000	0.018	0.100
-506.741	-117.718	-0.103	0.018
-505.726	99.670	-0.130	-0.151
-504.712	-130.589	-0.340	-0.046
-503.697	800.000	-0.063	0.181
-502.683	-200.000	0.051	-0.263
-501.668	-200.000	-0.007	-0.246
-500.653	138.050	0.121	0.158
-499.639	-62.652	-0.160	0.066
-498.624	-200.000	-0.004	-0.432
-497.610	284.010	-0.130	-0.233
-496.595	-200.000	-0.055	0.317
-495.581	199.060	-0.070	0.108
-494.566	-88.342	-0.266	-0.079
-493.551	617.261	0.061	0.154
-492.537	-32.817	-0.132	-0.073
-491.522	-133.606	0.186	-0.023
-490.508	218.121	-0.112	0.179
-489.493	-137.895	-0.179	-0.020
-488.478	655.371	0.063	-0.162
-487.464	208.537	0.106	-0.165
-486.449	9.171	0.241	0.182
-485.435	-166.932	0.258	0.011
-484.420	-113.620	-0.062	-0.012
-483.405	-200.000	0.031	-0.176
-482.391	630.432	0.117	-0.297
-481.376	-104.703	0.247	-0.057
-480.362	-10.356	-0.239	0.158
-479.347	-5.444	0.384	-0.263
-478.332	-200.000	0.054	-0.262
-477.318	104.689	0.263	0.309
-476.303	-50.184	0.183	-0.086
-475.289	800.000	-0.053	0.174
-474.274	93.139	-0.147	-0.166
-473.259	243.537	-0.310	0.519
-472.245	-1.377	-0.121	0.085
-471.230	-114.362	-0.213	-0.041
-470.216	14.310	0.159	-0.123
-469.201	-12.738	0.084	0.055
-468.186	266.538	-0.085	0.148
-467.172	-67.342	-0.276	0.108
-466.157	-200.000	0.019	0.206
-465.143	-200.000	-0.025	0.224
-464.128	-200.000	0.009	-0.055
-463.113	-200.000	-0.036	0.305
-462.099	-19.296	-0.098	0.060
-461.084	-4.559	-0.051	-0.035
-460.070	116.010	0.184	0.224
-459.055	-200.000	-0.012	-0.057
-458.040	96.189	0.048	-0.055
-457.026	34.232	0.132	-0.115
-456.011	-15.338	0.305	-0.194
-454.997	184.506	0.151	0.224
-453.982	-36.613	0.211	-0.113
-452.968	346.956	0.081	0.158
-451.953	-126.959	-0.463	0.068
-450.938	210.429	0.252	0.394
-449.924	-42.229	-0.090	0.046
-448.909	51.852	0.130	-0.123
-447.895	651.149	0.026	-0.066
-446.880	27.550	-0.235	0.197
-445.865	800.000	0.072	0.251
-444.851	-146.367	0.068	-0.006
-443.836	800.000	0.017	0.049
-442.822	-32.604	0.037	-0.021
-441.807	-151.570	-0.334	-0.025
-440.792	-62.375	0.080	-0.033
-439.778	-15.816	0.205	0.130
-438.763	89.082	0.065	-0.072
-437.749	-119.942	0.286	0.049
-436.734	-137.732	0.081	-0.009
-435.719	-132.529	0.175	0.022
-434.705	800.000	0.091	-0.257
-433.690	-200.000	-0.026	0.260
-432.676	52.080	-0.155	0.147
-431.661	65.123	0.188	0.189
-430.646	-2.501	-0.203	-0.141
-429.632	253.490	0.100	-0.170
-428.617	-52.650	-0.201	0.092
-427.603	-67.448	0.088	-0.035
-426.588	142.438	-0.105	0.139
-425.573	-87.311	-0.150	0.045
-424.559	-89.292	0.291	-0.085
-423.544	30.357	0.111	0.095
-422.530	-32.379	0.347	0.193
-421.515	-9.188	-0.092	0.061
-420.500	800.000	0.106	-0.295
-419.486	-7.135	-0.150	0.102
-418.471	188.596	-0.191	0.285
-417.457	170.207	0.250	-0.356
-416.442	800.000	0.029	-0.080
-415.428	-200.000	-0.012	0.058
-414.413	-44.424	0.363	0.181
-413.398	800.000	0.035	0.115
-412.384	50.690	0.084	0.079
-411.369	182.305	-0.156	0.229
-410.355	121.924	-0.129	-0.160
-409.340	-49.948	0.090	0.042
-408.325	261.807	0.085	0.146
-407.311	-117.774	0.288	-0.051
-406.296	-45.872	-0.186	0.091
-405.282	160.940	-0.199	0.277
-404.267	78.862	0.108	-0.115
-403.252	-38.351	0.120	-0.063
-402.238	174.170	-0.129	0.185
-401.223	735.323	0.023	0.060
-400.209	-114.413	-0.373	0.071
-399.194	-18.346	-0.201	-0.125
-398.179	-200.000	-0.015	0.180
-397.165	-25.618	-0.171	-0.100
-396.150	-31.834	0.247	-0.138
-395.136	-95.789	-0.123	-0.033
-394.121	362.419	0.064	0.128
-393.106	-200.000	-0.046	0.223
-392.092	-30.545	-0.166	0.093
-391.077	-147.558	0.155	0.013
-390.063	-23.895	-0.300	0.178
-389.048	343.420	0.088	-0.172
-388.033	139.919	-0.206	-0.270
-387.019	313.962	-0.053	-0.099
-386.004	228.135	-0.171	-0.276
-384.990	-76.090	0.047	-0.016
-383.975	-97.971	0.240	0.061
-382.960	-40.115	0.038	0.019
-381.946	-129.457	0.309	-0.043
-380.931	27.155	-0.092	0.077
-379.917	-2.316	0.294	-0.205
-378.902	-131.515	-0.088	-0.012
-377.888	-72.144	-0.174	-0.064
-376.873	-59.593	0.117	0.050
-375.858	-49.983	0.089	0.042
-374.844	-200.000	-0.022	-0.252
-373.829	46.960	0.097	0.090
-372.815	-79.777	-0.219	-0.073
-371.800	-200.000	-0.009	-0.135
-370.785	64.420	0.054	-0.054
-369.771	13.272	-0.189	0.146
-368.756	-101.919	-0.245	0.059
-367.742	383.681	0.099	-0.203
-366.727	32.067	0.145	-0.124
-365.712	2.014	-0.056	0.040
-364.698	45.515	-0.146	-0.134
-363.683	70.309	0.121	0.124
-362.669	702.854	-0.092	0.241
-361.654	60.998	-0.051	-0.051
-360.639	417.369	-0.059	-0.125
-359.625	46.481	0.099	0.092
-358.610	78.498	0.141	0.150
-357.596	-200.000	-0.003	0.273
-356.581	-94.547	0.118	-0.032
-355.566	-30.690	-0.350	0.197
-354.552	-200.000	-0.080	0.367
-353.537	28.091	-0.302	-0.253
-352.523	422.368	-0.121	-0.258
-351.508	-26.117	0.178	0.104
-350.493	-122.044	0.115	-0.019
-349.479	-200.000	-0.016	-0.147
-348.464	536.679	0.138	-0.326
-347.450	800.000	0.046	0.163
-346.435	-200.000	0.042	0.361
-345.420	452.216	0.052	0.114
-344.406	6.003	0.144	0.106
-343.391	-200.000	0.041	-0.270
-342.377	280.579	0.030	-0.053
-341.362	620.539	-0.070	-0.176
-340.348	138.655	0.152	-0.198
-339.333	332.939	-0.153	0.293
-338.318	-200.000	0.015	-0.245
-337.304	-200.000	-0.062	0.382
-336.289	-109.682	-0.198	0.041
-335.275	188.580	-0.166	0.246
-334.260	-98.091	0.305	0.078
-333.245	-77.679	-0.358	-0.123
-332.231	-200.000	0.075	-0.400
-331.216	-47.643	0.382	-0.184
-330.202	-123.668	-0.250	0.039
-329.187	-101.399	0.216	0.052
-328.172	434.840	0.067	-0.145
-327.158	154.486	-0.077	-0.105
-326.143	444.645	0.111	0.242
-325.129	-200.000	0.004	0.057
-324.114	-200.000	0.107	-0.529
-323.099	-6.525	-0.021	-0.014
-322.085	-82.674	0.145	-0.047
-321.070	-200.000	-0.013	-0.093
-320.056	-200.000	-0.010	-0.392
-319.041	-79.825	0.135	0.045
-318.026	-200.000	0.008	-0.080
-317.012	121.533	-0.213	0.264
-315.997	-40.971	-0.042	0.022
-314.983	21.012	0.218	-0.175
-313.968	-80.245	0.105	0.035
-312.953	610.243	-0.056	0.139
-311.939	-200.000	0.023	0.291
-310.924	-120.059	0.157	0.027
-309.910	-71.808	0.050	0.018
-308.895	-200.000	0.196	-0.000
-307.880	21.093	0.255	-0.205
-306.866	800.000	0.111	-0.338
-305.851	150.661	0.204	0.274
-304.837	723.489	0.041	0.107
-303.822	95.534	0.173	0.196
-302.807	-200.000	-0.050	-0.339
-301.793	-43.841	0.155	0.077
-300.778	49.255	-0.058	-0.054
-299.764	-200.000	-0.001	-0.307
-298.749	-19.953	0.078	-0.047
-297.735	-200.000	0.040	0.208
-296.720	-140.008	0.364	0.038
-295.705	-59.027	-0.248	-0.106
-294.691	-68.686	-0.204	-0.078
-293.676	59.526	0.240	0.234
-292.662	-103.263	-0.249	-0.058
-291.647	-119.323	-0.148	0.026
-290.632	800.000	-0.011	0.033
-289.618	-112.988	-0.388	0.076
-288.603	-112.202	-0.019	-0.004
-287.589	-166.350	-0.261	0.011
-286.574	800.000	0.034	0.097
-285.559	-200.000	-0.014	0.066
-284.545	-103.065	0.117	-0.027
-283.530	229.537	-0.236	-0.381
-282.516	-65.431	-0.270	-0.108
-281.501	26.763	0.200	-0.165
-280.486	96.168	-0.093	0.105
-279.472	-89.197	-0.210	0.061
-278.457	143.990	-0.179	-0.236
-277.443	-200.000	0.032	-0.154
-276.428	-24.139	0.148	0.087
-275.413	-153.427	0.047	-0.003
-274.399	373.659	-0.079	-0.160
-273.384	454.201	-0.080	-0.175
-272.370	-200.000	0.013	0.128
-271.355	299.178	0.087	-0.158
-270.340	175.249	0.091	-0.130
-269.326	800.000	-0.081	0.310
-268.311	4.730	-0.237	0.172
-267.297	618.389	0.066	-0.165
-266.282	435.713	-0.080	0.173
-265.267	-48.613	0.076	0.036
-264.253	-30.910	-0.256	0.143
-263.238	-0.165	-0.079	-0.056
-262.224	316.858	-0.125	0.234
-261.209	176.512	-0.102	-0.146
-260.195	-100.043	0.137	-0.034
-259.180	214.107	-0.103	-0.161
-258.165	-92.691	-0.290	0.080
-257.151	-200.000	-0.019	-0.108
-256.136	305.553	0.111	0.204
-255.122	416.656	-0.130	-0.275
-254.107	-200.000	0.013	-0.202
-253.092	167.300	0.124	-0.174
-252.078	-91.463	0.141	-0.040
-251.063	192.058	0.089	0.132
-250.049	22.459	0.087	0.070
-249.034	-124.482	0.229	-0.035
-248.019	508.425	0.085	-0.196
-247.005	-118.265	-0.070	-0.012
-245.990	64.032	-0.069	0.068
-244.976	-200.000	-0.007	-0.101
-243.961	-142.531	0.193	0.019
-242.946	230.077	-0.097	0.157
-241.932	267.837	-0.047	0.081
-240.917	205.892	-0.155	0.239
-239.903	-200.000	0.060	-0.304
-238.888	471.224	0.057	-0.127
-237.873	-141.485	0.163	-0.016
-236.859	800.000	-0.050	0.200
-235.844	-24.784	-0.137	-0.080
-234.830	-157.092	-0.347	-0.021
-233.815	369.964	0.133	0.267
-232.800	-62.797	0.225	0.092
-231.786	592.396	-0.156	-0.381
-230.771	-34.311	0.097	-0.053
-229.757	800.000	0.101	0.293
-228.742	800.000	0.102	-0.286
-227.727	-30.302	0.286	-0.160
-226.713	26.072	0.076	-0.062
-225.698	-103.611	0.228	-0.053
-224.684	670.329	0.001	-0.003
-223.669	-49.072	-0.377	0.178
-222.655	-145.963	0.491	0.043
-221.640	-200.000	-0.013	-0.096
-220.625	29.881	0.173	-0.145
-219.611	-110.394	-0.129	-0.026
-218.596	-24.866	-0.248	0.145
-217.582	-11.727	-0.030	-0.020
-216.567	800.000	-0.031	0.086
-215.552	116.521	-0.161	-0.195
-214.538	165.281	-0.032	-0.045
-213.523	800.000	0.079	-0.224
-212.509	69.349	-0.087	-0.089
-211.494	-11.596	0.090	0.058
-210.479	42.165	-0.078	-0.070
-209.465	-97.879	-0.086	-0.022
-208.450	-200.000	-0.014	-0.107
-207.436	-19.908	-0.073	0.044
-206.421	16.894	-0.119	-0.093
-205.406	126.238	-0.088	-0.110
-204.392	333.908	0.138	-0.263
-203.377	126.760	-0.048	0.060
-202.363	800.000	0.044	-0.159
-201.348	308.599	-0.061	0.112
-200.333	-15.712	0.292	-0.183
-199.319	-3.380	-0.104	0.072
-198.304	-147.501	-0.154	0.013
-197.290	-82.023	-0.006	-0.002
-196.275	-200.000	-0.004	0.229
-195.260	-45.173	0.333	0.163
-194.246	-5.447	0.091	-0.062
-193.231	-200.000	0.028	-0.230
-192.217	-40.645	-0.065	0.033
-191.202	-200.000	0.027	0.154
-190.187	-195.518	0.374	0.003
-189.173	-149.238	-0.236	0.019
-188.158	-200.000	0.008	0.306
-187.144	93.843	-0.212	0.237
-186.129	-137.705	0.262	0.029
-185.114	368.601	0.050	0.100
-184.100	70.611	-0.202	-0.206
-183.085	-157.691	0.353	-0.021
-182.071	-60.153	-0.169	0.071
-181.056	-32.798	0.331	0.181
-180.042	2.310	0.080	0.057
-179.027	21.507	0.175	0.140
-178.012	-107.856	-0.131	-0.028
-176.998	-200.000	-0.008	0.253
-175.983	-145.399	0.098	-0.009
-174.969	11.875	0.160	0.121
-173.954	-122.179	-0.108	0.017
-172.939	58.366	-0.107	-0.104
-171.925	-200.000	0.012	0.090
-170.910	121.375	-0.164	-0.202
-169.896	590.661	-0.105	0.256
-168.881	-47.745	-0.047	-0.023
-167.866	-194.588	0.119	0.001
-166.852	-200.000	-0.031	-0.135
-165.837	-104.681	0.288	0.065
-164.823	124.801	0.033	-0.040
-163.808	-87.766	0.507	0.151
-162.793	-84.918	-0.027	0.008
-161.779	266.972	-0.044	0.075
-160.764	426.769	-0.048	-0.101
-159.750	-97.113	0.174	-0.045
-158.735	-124.593	-0.135	-0.021
-157.720	104.722	-0.211	-0.245
-156.706	-200.000	0.001	0.096
-155.691	-22.569	0.201	0.120
-154.677	-67.428	-0.228	-0.088
-153.662	194.351	-0.021	0.031
-152.647	-160.651	0.199	0.010
-151.633	-200.000	0.048	0.255
-150.618	-16.726	0.248	0.155
-149.604	-200.000	-0.063	0.335
-148.589	-77.155	-0.110	0.038
-147.574	119.219	0.062	-0.076
-146.560	520.184	-0.177	-0.409
-145.545	-176.117	-0.073	-0.002
-144.531	-129.280	-0.187	-0.026
-143.516	68.150	0.108	0.109
-142.502	172.224	0.166	0.235
-141.487	-132.994	0.345	-0.043
-140.472	-200.000	-0.032	-0.378
-139.458	-154.443	0.159	-0.011
-138.443	-200.000	-0.025	0.130
-137.429	-200.000	0.019	-0.194
-136.414	-152.566	0.272	-0.019
-135.399	444.663	-0.097	-0.210
-134.385	-23.001	-0.151	0.090
-133.370	-55.473	-0.273	0.120
-132.356	25.479	-0.092	0.075
-131.341	-145.644	-0.256	-0.023
-130.326	-200.000	-0.023	0.147
-129.312	12.685	-0.071	-0.054
-128.297	70.776	-0.031	-0.032
-127.283	-179.121	-0.191	0.004
-126.268	48.609	0.282	0.260
-125.253	379.561	0.080	0.161
-124.239	104.970	-0.047	0.055
-123.224	219.117	0.125	-0.197
-122.210	-200.000	-0.001	0.079
