DTS Sentinel unit serial number:	SN413079Multiplexer serial number:	ORYXHardware model number:	OX4-SRSoftware version number:	ORYX F/W v4.00 Oryx Data Collector v3.7.2.0data status	okinstallation	princeton_trtdifferential loss correction	single-endedforward channel	channel 2reverse channel	N/Adate	2019/09/12time	05:25:11forward acquisition time	60.00reverse acquisition time	0.00gamma	496.2192k internal	0.2325k external	0.2325temperature offset calibration	1.0068default loss term (dB/km)	0.3790temperature slope calibration	1.0000multiplexer offset coefficient	1.0000multiplexer slope coefficient	1.0000fibre end	0.00T internal ref (°C)	31.89T ext. ref 1 (°C)	1.62T ext. ref 2 (°C)	27.33length (m)	temperature (°C)	Stokes	anti-Stokes-747.200	189.779	-0.148	0.224
-746.185	800.000	-0.043	0.147
-745.171	-108.771	0.160	-0.034
-744.156	51.822	-0.065	-0.062
-743.142	-2.544	0.151	0.107
-742.127	-94.625	-0.093	0.025
-741.112	-30.665	0.121	0.069
-740.098	117.746	-0.196	0.244
-739.083	126.097	0.146	0.187
-738.069	-68.874	-0.067	0.026
-737.054	-101.583	0.365	-0.089
-736.039	-136.232	-0.430	-0.051
-735.025	-81.717	0.287	0.095
-734.010	246.332	-0.118	-0.201
-732.996	-200.000	-0.031	-0.311
-731.981	527.142	-0.059	-0.141
-730.966	-193.716	0.180	0.002
-729.952	86.014	0.280	-0.311
-728.937	122.132	-0.162	-0.204
-727.923	165.343	0.217	-0.309
-726.908	-124.370	0.175	0.027
-725.894	79.879	-0.085	-0.092
-724.879	-200.000	-0.050	-0.375
-723.864	1.275	0.203	-0.147
-722.850	-200.000	-0.030	-0.213
-721.835	109.978	-0.209	0.253
-720.821	800.000	-0.093	-0.314
-719.806	800.000	0.055	-0.236
-718.791	-200.000	-0.031	0.242
-717.777	264.758	0.075	-0.132
-716.762	-70.002	0.172	-0.066
-715.748	-200.000	-0.015	-0.215
-714.733	-120.511	0.179	-0.031
-713.718	-126.962	-0.341	-0.051
-712.704	-118.056	0.068	-0.012
-711.689	-200.000	0.028	-0.151
-710.675	-200.000	0.005	0.472
-709.660	-200.000	-0.023	0.123
-708.645	-200.000	-0.001	0.037
-707.631	-102.955	0.284	-0.068
-706.616	-119.911	-0.435	-0.075
-705.602	800.000	0.062	-0.250
-704.587	-113.903	-0.134	0.026
-703.572	109.979	-0.151	-0.183
-702.558	-94.406	0.116	0.032
-701.543	-127.408	-0.173	0.025
-700.529	147.695	0.082	0.111
-699.514	679.267	0.090	0.236
-698.499	90.854	0.262	0.295
-697.485	-26.937	-0.119	-0.070
-696.470	44.884	0.265	0.245
-695.456	-31.488	-0.138	-0.078
-694.441	352.789	0.083	-0.166
-693.426	-51.461	0.212	-0.100
-692.412	296.928	0.045	0.082
-691.397	55.795	-0.322	0.315
-690.383	-200.000	-0.019	-0.311
-689.368	-24.551	-0.265	0.159
-688.354	-81.046	-0.131	0.044
-687.339	-200.000	-0.025	0.220
-686.324	50.368	-0.146	-0.139
-685.310	368.967	-0.123	-0.251
-684.295	-93.330	0.348	-0.097
-683.281	-200.000	-0.128	-0.001
-682.266	475.965	-0.152	0.345
-681.251	-27.533	0.148	0.087
-680.237	-200.000	0.003	0.164
-679.222	16.891	-0.133	-0.106
-678.208	35.831	-0.097	0.086
-677.193	800.000	-0.022	0.092
-676.178	-200.000	-0.027	0.123
-675.164	-91.493	-0.137	-0.039
-674.149	97.563	-0.176	-0.203
-673.135	181.275	0.134	0.199
-672.120	-101.283	0.201	-0.049
-671.105	102.187	-0.100	-0.117
-670.091	-128.441	0.118	0.017
-669.076	-23.769	-0.316	0.190
-668.062	-141.493	-0.142	-0.014
-667.047	-32.804	0.142	0.080
-666.032	-121.418	0.215	-0.036
-665.018	64.147	-0.147	0.149
-664.003	39.583	0.166	-0.150
-662.989	-200.000	0.016	-0.209
-661.974	-42.530	0.294	-0.151
-660.959	-159.683	0.324	0.018
-659.945	-12.380	-0.186	0.122
-658.930	-100.462	-0.221	0.055
-657.916	556.728	0.104	0.253
-656.901	217.057	0.223	0.356
-655.886	-200.000	-0.014	0.150
-654.872	-200.000	-0.046	0.295
-653.857	-122.791	0.130	0.021
-652.843	-122.585	-0.175	0.029
-651.828	41.392	0.181	0.164
-650.814	800.000	-0.060	-0.223
-649.799	800.000	0.098	-0.306
-648.784	-200.000	0.024	0.155
-647.770	800.000	0.027	-0.108
-646.755	28.285	0.244	0.207
-645.741	-154.488	-0.179	0.012
-644.726	-114.974	-0.186	-0.036
-643.711	480.860	-0.047	-0.107
-642.697	-200.000	-0.054	-0.395
-641.682	-196.810	-0.547	0.004
-640.668	800.000	-0.117	-0.343
-639.653	-111.040	0.353	-0.073
-638.638	104.385	-0.146	0.173
-637.624	5.027	-0.293	0.217
-636.609	52.796	-0.101	0.097
-635.595	13.594	-0.198	0.154
-634.580	-121.552	-0.093	0.015
-633.565	-27.455	-0.265	-0.155
-632.551	14.169	0.241	0.188
-631.536	91.634	0.160	-0.181
-630.522	-31.625	-0.122	-0.069
-629.507	-200.000	-0.036	-0.253
-628.492	35.977	0.274	-0.242
-627.478	106.160	-0.153	-0.182
-626.463	-200.000	0.000	-0.337
-625.449	0.493	-0.084	0.060
-624.434	-142.667	0.059	0.006
-623.419	-55.966	0.185	0.083
-622.405	419.860	0.070	-0.150
-621.390	-162.590	-0.146	-0.007
-620.376	51.685	-0.031	-0.029
-619.361	14.150	0.197	-0.154
-618.346	474.187	-0.139	0.316
-617.332	-100.701	0.045	0.011
-616.317	-25.149	-0.159	-0.095
-615.303	179.779	0.127	0.187
-614.288	32.645	-0.173	0.150
-613.273	376.151	0.163	-0.335
-612.259	274.199	-0.041	-0.072
-611.244	698.022	-0.129	0.341
-610.230	-200.000	0.001	0.054
-609.215	-62.313	0.339	0.142
-608.201	-200.000	0.001	-0.211
-607.186	5.287	0.280	-0.207
-606.171	-154.933	-0.051	-0.003
-605.157	364.142	-0.117	0.236
-604.142	-44.195	-0.117	-0.059
-603.128	-58.739	-0.194	-0.084
-602.113	800.000	-0.072	-0.242
-601.098	-79.562	-0.149	-0.050
-600.084	301.879	0.100	-0.186
-599.069	-155.801	-0.059	-0.004
-598.055	665.488	0.074	0.192
-597.040	800.000	0.052	-0.174
-596.025	17.313	0.197	0.157
-595.011	106.446	-0.065	0.077
-593.996	330.578	0.178	0.344
-592.982	123.032	-0.131	0.164
-591.967	0.839	-0.344	0.247
-590.952	-33.570	-0.214	0.118
-589.938	-200.000	-0.010	0.311
-588.923	13.702	0.254	0.198
-587.909	118.734	-0.084	0.104
-586.894	800.000	-0.043	-0.148
-585.879	-148.451	-0.201	0.016
-584.865	-150.392	-0.354	0.027
-583.850	25.931	0.249	0.208
-582.836	-200.000	-0.042	0.294
-581.821	-165.531	0.199	-0.009
-580.806	-93.631	-0.415	-0.115
-579.792	133.543	-0.041	-0.053
-578.777	-200.000	-0.021	0.197
-577.763	-144.923	0.350	0.032
-576.748	754.197	-0.089	-0.240
-575.733	-127.953	0.088	0.013
-574.719	454.418	0.041	0.091
-573.704	210.379	-0.106	-0.166
-572.690	800.000	-0.031	-0.113
-571.675	-42.408	-0.187	-0.095
-570.661	243.524	0.061	0.102
-569.646	734.470	-0.086	-0.231
-568.631	146.012	0.114	0.153
-567.617	-72.745	0.138	-0.051
-566.602	195.776	-0.147	0.225
-565.588	5.104	0.153	-0.113
-564.573	792.946	-0.046	0.127
-563.558	-73.045	0.106	0.039
-562.544	480.235	-0.096	0.217
-561.529	-183.934	-0.086	-0.001
-560.515	800.000	0.047	-0.202
-559.500	283.964	-0.165	0.297
-558.485	602.406	0.067	-0.168
-557.471	104.815	-0.233	-0.275
-556.456	-18.676	0.074	-0.046
-555.442	171.364	-0.018	-0.025
-554.427	0.941	0.280	0.201
-553.412	-153.340	-0.403	-0.028
-552.398	10.052	-0.029	0.022
-551.383	-66.295	-0.241	0.096
-550.369	-56.038	0.239	0.107
-549.354	800.000	-0.019	0.080
-548.339	69.635	0.318	0.328
-547.325	-80.123	-0.092	-0.031
-546.310	646.673	-0.096	0.244
-545.296	-200.000	0.002	-0.381
-544.281	-28.839	0.106	0.061
-543.266	-132.539	0.222	-0.029
-542.252	800.000	0.068	-0.232
-541.237	-106.964	0.100	0.022
-540.223	-136.183	0.564	0.066
-539.208	-200.000	-0.018	-0.122
-538.193	-40.676	-0.117	-0.061
-537.179	40.742	0.078	-0.070
-536.164	-130.000	0.106	-0.014
-535.150	-179.371	0.213	-0.005
-534.135	-200.000	0.016	0.330
-533.121	214.344	0.156	-0.247
-532.106	-200.000	0.059	-0.426
-531.091	-13.664	-0.161	0.104
-530.077	-68.665	-0.100	0.039
-529.062	-200.000	-0.019	-0.125
-528.048	287.346	0.006	0.011
-527.033	43.993	-0.173	0.159
-526.018	-200.000	-0.082	0.468
-525.004	24.062	-0.387	-0.320
-523.989	-117.172	-0.161	-0.029
-522.975	-146.531	0.289	-0.025
-521.960	229.984	-0.208	-0.340
-520.945	-91.486	0.039	-0.011
-519.931	-106.533	0.024	-0.005
-518.916	-200.000	-0.035	0.165
-517.902	167.582	-0.031	0.044
-516.887	800.000	0.042	0.178
-515.872	-107.043	0.393	0.087
-514.858	800.000	-0.057	0.208
-513.843	341.968	0.073	0.142
-512.829	177.394	0.172	0.251
-511.814	800.000	0.047	-0.191
-510.799	279.275	0.045	0.080
-509.785	136.899	-0.143	0.187
-508.770	800.000	-0.081	0.277
-507.756	-200.000	0.027	-0.240
-506.741	43.202	0.104	-0.095
-505.726	-54.365	-0.505	-0.229
-504.712	800.000	0.053	-0.196
-503.697	132.789	-0.040	0.052
-502.683	-108.390	0.329	-0.071
-501.668	-200.000	0.042	-0.465
-500.653	-99.348	0.075	0.019
-499.639	257.011	-0.156	0.267
-498.624	-135.014	-0.105	-0.013
-497.610	56.524	0.128	0.124
-496.595	106.083	0.052	-0.062
-495.581	-42.557	-0.298	0.152
-494.566	148.122	0.107	0.144
-493.551	549.282	0.074	-0.177
-492.537	-200.000	-0.046	-0.223
-491.522	61.005	0.194	-0.192
-490.508	-200.000	0.012	0.088
-489.493	-58.828	0.200	-0.086
-488.478	147.570	-0.051	-0.068
-487.464	-200.000	0.039	0.372
-486.449	-144.038	-0.244	0.023
-485.435	164.889	-0.183	-0.259
-484.420	-62.920	0.161	-0.066
-483.405	211.296	0.146	0.229
-482.391	-200.000	0.014	0.403
-481.376	202.730	-0.071	-0.110
-480.362	156.178	0.132	-0.181
-479.347	37.312	-0.094	0.083
-478.332	19.310	0.167	-0.134
-477.318	-200.000	-0.013	-0.202
-476.303	713.611	-0.081	-0.213
-475.289	800.000	-0.061	-0.232
-474.274	729.776	0.175	0.466
-473.259	800.000	0.155	0.460
-472.245	-21.724	0.140	-0.085
-471.230	310.045	0.063	0.117
-470.216	20.498	-0.177	-0.143
-469.201	-142.108	-0.182	0.018
-468.186	-114.395	-0.426	-0.082
-467.172	48.397	0.193	0.181
-466.157	-186.432	0.277	-0.004
-465.143	800.000	-0.104	0.297
-464.128	-57.151	-0.211	-0.093
-463.113	132.562	-0.195	-0.251
-462.099	-134.507	-0.198	0.024
-461.084	-71.699	-0.324	0.121
-460.070	-200.000	0.060	0.438
-459.055	88.113	0.045	0.050
-458.040	-121.993	0.231	0.038
-457.026	17.750	-0.148	-0.118
-456.011	140.860	-0.021	-0.027
-454.997	800.000	0.103	-0.315
-453.982	273.936	-0.101	-0.177
-452.968	-200.000	0.010	-0.406
-451.953	175.854	0.221	-0.319
-450.938	800.000	-0.077	0.264
-449.924	-200.000	-0.006	0.029
-448.909	-81.254	0.166	-0.055
-447.895	-83.179	-0.138	0.044
-446.880	96.685	-0.292	-0.333
-445.865	-54.106	0.168	-0.076
-444.851	260.463	-0.046	0.080
-443.836	55.434	0.224	0.216
-442.822	-9.295	-0.220	0.147
-441.807	-99.002	0.258	0.065
-440.792	92.521	0.257	-0.289
-439.778	344.158	0.125	0.245
-438.763	-165.073	-0.119	0.005
-437.749	800.000	-0.098	-0.341
-436.734	0.810	0.077	0.055
-435.719	-154.481	0.224	-0.015
-434.705	-21.803	-0.251	0.152
-433.690	800.000	-0.075	-0.213
-432.676	-11.414	0.178	-0.116
-431.661	-84.443	-0.207	-0.065
-430.646	-200.000	0.032	0.415
-429.632	30.327	0.044	-0.037
-428.617	-131.819	0.158	-0.021
-427.603	567.612	0.109	-0.263
-426.588	800.000	-0.071	-0.199
-425.573	-153.799	-0.046	0.003
-424.559	-51.141	0.129	-0.060
-423.544	-200.000	0.050	0.292
-422.530	52.475	0.173	-0.165
-421.515	-148.793	0.453	-0.037
-420.500	800.000	0.084	0.264
-419.486	-67.419	-0.223	-0.087
-418.471	-200.000	-0.004	-0.238
-417.457	-200.000	0.046	-0.450
-416.442	-200.000	-0.023	0.106
-415.428	-72.146	0.006	-0.002
-414.413	296.336	-0.041	-0.075
-413.398	800.000	-0.031	-0.135
-412.384	163.067	-0.218	0.305
-411.369	-177.682	-0.149	0.004
-410.355	800.000	0.109	-0.361
-409.340	104.790	0.170	-0.200
-408.325	800.000	0.024	0.069
-407.311	-200.000	-0.025	-0.150
-406.296	3.807	0.268	-0.195
-405.282	-200.000	-0.008	0.058
-404.267	90.066	0.259	0.288
-403.252	-9.814	-0.154	-0.102
-402.238	-108.214	-0.229	-0.049
-401.223	131.578	0.031	0.040
-400.209	62.719	0.067	-0.067
-399.194	-146.712	0.391	0.034
-398.179	224.379	-0.116	0.187
-397.165	-200.000	-0.009	-0.066
-396.150	-44.245	-0.210	0.105
-395.136	-15.623	0.071	-0.045
-394.121	-43.546	0.302	-0.152
-393.106	-80.778	-0.326	-0.108
-392.092	61.786	0.084	-0.083
-391.077	-200.000	-0.068	0.000
-390.063	208.804	0.041	0.065
-389.048	-200.000	0.007	-0.148
-388.033	-102.461	-0.172	0.041
-387.019	-200.000	0.015	-0.161
-386.004	24.403	-0.105	0.087
-384.990	-133.395	-0.238	0.030
-383.975	213.293	0.074	0.117
-382.960	470.553	0.096	0.215
-381.946	-200.000	-0.007	0.149
-380.931	86.361	0.066	-0.072
-379.917	-121.176	0.249	-0.041
-378.902	36.465	-0.194	0.170
-377.888	-96.737	-0.204	0.053
-376.873	37.497	0.146	0.128
-375.858	-74.796	0.120	0.043
-374.844	-37.281	0.180	-0.095
-373.829	-94.342	0.029	-0.008
-372.815	-106.899	-0.097	-0.021
-371.800	-97.956	-0.363	-0.093
-370.785	-114.282	-0.089	0.017
-369.771	-49.258	-0.163	-0.078
-368.756	-95.775	0.250	-0.066
-367.742	800.000	0.071	-0.281
-366.727	589.120	-0.057	0.139
-365.712	-98.101	-0.354	-0.091
-364.698	800.000	0.026	0.083
-363.683	-64.884	-0.031	0.013
-362.669	321.620	-0.125	0.237
-361.654	132.024	0.142	-0.182
-360.639	168.329	-0.218	0.309
-359.625	-67.033	0.137	-0.054
-358.610	-97.692	-0.163	-0.042
-357.596	401.663	-0.127	-0.264
-356.581	-33.308	-0.150	-0.083
-355.566	-200.000	0.002	0.177
-354.552	-63.264	-0.200	-0.082
-353.537	800.000	-0.088	0.260
-352.523	30.610	0.184	0.156
-351.508	-67.300	-0.161	-0.063
-350.493	-57.682	-0.249	-0.108
-349.479	-118.699	-0.119	0.021
-348.464	800.000	0.017	-0.067
-347.450	-32.546	-0.208	-0.115
-346.435	-48.050	-0.062	0.030
-345.420	800.000	-0.035	-0.129
-344.406	-83.777	-0.300	0.095
-343.391	-200.000	-0.002	-0.373
-342.377	501.783	0.056	0.129
-341.362	-200.000	0.021	-0.150
-340.348	35.373	0.133	-0.116
-339.333	-57.124	-0.136	-0.059
-338.318	-95.639	-0.360	-0.096
-337.304	-149.705	0.344	0.027
-336.289	102.936	-0.159	-0.185
-335.275	-11.952	0.163	0.106
-334.260	-200.000	-0.013	-0.213
-333.245	418.829	0.146	0.311
-332.231	-135.431	0.545	0.065
-331.216	579.872	0.029	-0.071
-330.202	133.876	0.101	0.130
-329.187	-91.505	-0.210	0.060
-328.172	-68.006	0.119	-0.046
-327.158	45.714	-0.066	-0.061
-326.143	-200.000	0.041	0.214
-325.129	-89.858	0.071	-0.021
-324.114	800.000	0.055	-0.173
-323.099	172.115	0.077	0.110
-322.085	-25.459	-0.203	0.119
-321.070	-113.858	0.336	-0.065
-320.056	-153.500	-0.148	-0.010
-319.041	114.776	0.129	-0.155
-318.026	-200.000	0.112	-0.504
-317.012	800.000	0.033	-0.124
-315.997	-15.419	0.153	0.097
-314.983	21.466	-0.384	-0.310
-313.968	-160.325	0.077	-0.004
-312.953	-200.000	0.001	-0.108
-311.939	778.015	-0.067	0.183
-310.924	96.191	-0.023	0.026
-309.910	12.223	0.341	-0.261
-308.895	15.081	0.162	-0.126
-307.880	800.000	0.022	0.086
-306.866	36.827	-0.175	-0.154
-305.851	239.972	-0.122	-0.202
-304.837	197.891	-0.041	0.062
-303.822	426.510	0.067	0.143
-302.807	-6.238	-0.123	-0.083
-301.793	29.101	-0.216	0.182
-300.778	424.772	-0.098	-0.209
-299.764	-73.218	-0.334	0.121
-298.749	367.772	0.056	0.113
-297.735	7.419	0.260	0.193
-296.720	41.303	0.177	0.158
-295.705	33.515	-0.171	0.147
-294.691	-153.233	0.189	0.013
-293.676	49.915	-0.262	0.245
-292.662	11.254	0.159	0.121
-291.647	800.000	0.096	-0.321
-290.632	-200.000	0.007	-0.323
-289.618	318.299	-0.070	0.131
-288.603	-93.267	0.474	0.130
-287.589	-33.149	-0.094	0.051
-286.574	800.000	0.064	-0.200
-285.559	80.027	0.100	0.107
-284.545	-200.000	0.010	0.200
-283.530	104.382	0.317	0.370
-282.516	130.783	-0.171	-0.217
-281.501	-14.961	-0.395	0.251
-280.486	-197.325	0.366	0.002
-279.472	-200.000	0.040	0.338
-278.457	-200.000	-0.017	0.244
-277.443	-120.819	0.158	-0.026
-276.428	-84.767	-0.165	-0.052
-275.413	267.146	0.114	0.198
-274.399	749.243	-0.024	-0.065
-273.384	70.931	0.138	0.142
-272.370	120.195	0.201	0.247
-271.355	-20.344	-0.259	0.158
-270.340	109.075	0.034	-0.041
-269.326	-200.000	-0.015	0.132
-268.311	-82.635	-0.137	-0.044
-267.297	758.765	-0.076	0.203
-266.282	-28.699	-0.022	-0.013
-265.267	541.813	-0.102	0.242
-264.253	-90.083	0.255	-0.073
-263.238	-82.351	0.427	-0.137
-262.224	383.284	-0.078	0.158
-261.209	40.132	0.109	0.097
-260.195	-27.967	-0.117	0.067
-259.180	32.974	-0.101	-0.087
-258.165	-80.741	-0.175	0.058
-257.151	27.082	0.433	-0.360
-256.136	-135.482	-0.306	-0.036
-255.122	-76.111	-0.398	0.139
-254.107	-187.139	-0.070	0.001
-253.092	-33.336	0.121	0.066
-252.078	-63.405	0.261	-0.106
-251.063	800.000	-0.025	0.094
-250.049	-142.122	0.013	0.001
-249.034	84.912	-0.152	-0.165
-248.019	15.140	-0.084	-0.065
-247.005	-37.124	0.318	0.169
-245.990	54.590	-0.090	0.086
-244.976	800.000	0.126	0.359
-243.961	17.369	0.123	-0.097
-242.946	392.109	0.080	0.165
-241.932	-95.174	0.254	0.068
-240.917	-200.000	0.005	-0.039
-239.903	52.555	0.094	-0.089
-238.888	300.737	0.027	-0.050
-237.873	596.351	-0.040	0.098
-236.859	-24.793	-0.118	-0.069
-235.844	800.000	0.062	0.172
-234.830	428.811	0.112	0.239
-233.815	310.994	0.125	-0.232
-232.800	-200.000	0.009	-0.291
-231.786	2.877	0.132	0.095
-230.771	165.112	0.094	-0.131
-229.757	211.096	-0.257	0.400
-228.742	-200.000	0.005	0.171
-227.727	-200.000	-0.013	-0.304
-226.713	-64.335	0.193	-0.078
-225.698	-78.848	0.273	-0.092
-224.684	46.818	0.143	-0.131
-223.669	-200.000	0.011	0.157
-222.655	-54.497	0.074	-0.033
-221.640	148.582	0.119	-0.159
-220.625	-55.038	0.024	-0.010
-219.611	-184.075	0.184	0.003
-218.596	-133.316	-0.138	0.017
-217.582	481.215	-0.143	0.321
-216.567	-60.087	-0.148	-0.062
-215.552	75.989	-0.287	0.300
-214.538	-107.228	0.129	-0.028
-213.523	-200.000	0.018	-0.284
-212.509	-200.000	-0.066	-0.692
-211.494	-103.065	0.234	-0.055
-210.479	-200.000	0.005	0.127
-209.465	536.404	-0.162	0.380
-208.450	53.841	0.142	0.135
-207.436	263.213	0.076	0.130
-206.421	194.184	-0.206	-0.308
-205.406	-83.229	0.242	-0.077
-204.392	75.912	0.136	-0.142
-203.377	-200.000	-0.059	0.322
-202.363	-11.350	0.140	0.091
-201.348	20.220	0.100	-0.080
-200.333	40.333	0.128	0.113
-199.319	143.023	0.153	0.201
-198.304	184.262	0.092	-0.134
-197.290	6.861	0.021	0.015
-196.275	760.025	-0.062	0.165
-195.260	-71.714	0.028	-0.010
-194.246	800.000	0.032	0.090
-193.231	-10.630	-0.091	-0.059
-192.217	344.796	0.149	-0.289
-191.202	116.133	-0.043	-0.052
-190.187	-40.811	-0.122	-0.062
-189.173	-159.796	0.373	-0.020
-188.158	-92.855	-0.031	0.009
-187.144	42.553	-0.330	-0.296
-186.129	-157.358	0.296	-0.018
-185.114	-23.475	-0.252	0.149
-184.100	-50.034	0.072	-0.034
-183.085	-106.074	-0.128	-0.028
-182.071	-53.862	-0.212	0.095
-181.056	-163.856	0.091	0.004
-180.042	71.415	-0.079	0.081
-179.027	-125.617	0.271	-0.041
-178.012	-83.651	-0.256	0.081
-176.998	-94.132	-0.123	-0.033
-175.983	222.779	0.153	-0.243
-174.969	116.137	0.239	0.289
-173.954	538.922	-0.143	0.335
-172.939	-103.831	0.081	0.019
-171.925	800.000	-0.066	0.218
-170.910	-200.000	-0.041	0.222
-169.896	-200.000	0.005	0.145
-168.881	56.246	-0.068	0.065
-167.866	21.232	-0.301	-0.241
-166.852	-0.369	0.057	-0.040
-165.837	-61.538	-0.050	0.021
-164.823	342.914	-0.141	-0.273
-163.808	-200.000	-0.005	0.245
-162.793	13.810	-0.111	0.085
-161.779	-75.031	0.183	-0.065
-160.764	169.210	0.110	0.155
-159.750	424.587	-0.131	-0.277
-158.735	-7.905	0.263	-0.175
-157.720	151.812	-0.235	-0.317
-156.706	586.632	-0.062	0.152
-155.691	10.515	-0.269	0.202
-154.677	2.832	-0.277	-0.198
-153.662	-200.000	0.020	0.237
-152.647	-132.714	-0.116	-0.015
-151.633	331.237	-0.202	-0.384
-150.618	-24.036	-0.210	-0.124
-149.604	-108.180	-0.250	-0.053
-148.589	416.587	-0.054	0.113
-147.574	-132.102	0.192	0.025
-146.560	50.970	0.185	-0.173
-145.545	-50.757	0.292	-0.135
-144.531	377.124	-0.105	0.212
-143.516	-115.939	-0.372	-0.068
-142.502	-69.478	0.178	0.067
-141.487	502.845	-0.041	-0.093
-140.472	-74.016	0.182	-0.065
-139.458	-200.000	0.097	0.470
-138.443	347.572	0.218	-0.424
-137.429	-159.826	0.066	0.004
-136.414	-200.000	0.057	-0.249
-135.399	-200.000	-0.012	0.230
-134.385	-200.000	0.020	-0.131
-133.370	790.709	0.060	-0.163
-132.356	345.769	-0.199	0.385
-131.341	-200.000	0.063	-0.281
-130.326	49.282	0.251	-0.233
-129.312	-200.000	0.055	-0.297
-128.297	242.441	-0.072	-0.118
-127.283	73.324	-0.190	0.196
-126.268	-200.000	0.027	0.183
-125.253	-58.846	-0.150	-0.064
-124.239	-26.639	-0.236	-0.136
-123.224	-200.000	0.001	-0.126
-122.210	-83.228	0.289	-0.091
-121.195	33.623	0.113	-0.097
