DTS Sentinel unit serial number:	SN413079Multiplexer serial number:	ORYXHardware model number:	OX4-SRSoftware version number:	ORYX F/W v4.00 Oryx Data Collector v3.7.2.0data status	okinstallation	princeton_trtdifferential loss correction	single-endedforward channel	channel 2reverse channel	N/Adate	2019/09/12time	18:09:49forward acquisition time	15.00reverse acquisition time	0.00gamma	496.2192k internal	0.2323k external	0.2323temperature offset calibration	1.0139default loss term (dB/km)	0.3790temperature slope calibration	1.0000multiplexer offset coefficient	1.0000multiplexer slope coefficient	1.0000fibre end	0.00T internal ref (°C)	33.62T ext. ref 1 (°C)	2.95T ext. ref 2 (°C)	28.20length (m)	temperature (°C)	Stokes	anti-Stokes-747.200	181.537	-0.045	0.067
-746.185	218.613	0.325	-0.524
-745.171	-152.115	0.409	-0.030
-744.156	215.686	0.144	0.230
-743.142	103.529	-0.599	0.710
-742.127	-98.610	-0.398	-0.103
-741.112	-132.205	0.350	0.046
-740.098	-200.000	-0.015	-0.080
-739.083	-114.217	-0.677	-0.132
-738.069	-89.049	-0.558	-0.167
-737.054	-68.265	0.962	0.378
-736.039	92.680	-0.616	-0.702
-735.025	358.519	-0.417	-0.842
-734.010	418.188	0.220	-0.475
-732.996	800.000	0.129	-0.562
-731.981	-94.281	-0.794	0.219
-730.966	561.429	-0.325	0.793
-729.952	800.000	-0.154	-0.499
-728.937	800.000	0.165	-0.513
-727.923	245.144	0.203	0.345
-726.908	646.275	0.237	0.610
-725.894	-139.075	-0.891	-0.097
-724.879	-200.000	0.013	-0.928
-723.864	89.834	-0.182	-0.205
-722.850	-156.359	0.621	-0.039
-721.835	-200.000	0.023	0.918
-720.821	256.728	0.567	-0.982
-719.806	109.230	-0.182	0.219
-718.791	-46.945	-0.564	-0.278
-717.777	-56.020	0.438	-0.197
-716.762	-71.099	-1.154	-0.438
-715.748	554.086	0.196	-0.476
-714.733	-169.672	-0.535	-0.020
-713.718	569.230	0.094	-0.231
-712.704	-11.413	0.454	0.301
-711.689	-147.372	-1.104	0.094
-710.675	295.380	0.200	0.369
-709.660	199.932	0.181	-0.281
-708.645	548.059	-0.268	0.646
-707.631	-158.793	0.356	0.021
-706.616	-45.122	-0.193	-0.097
-705.602	40.529	0.312	-0.284
-704.587	107.818	0.125	-0.150
-703.572	48.966	-0.246	-0.233
-702.558	-136.184	-0.929	-0.110
-701.543	-29.746	-0.620	-0.356
-700.529	76.650	0.422	-0.451
-699.514	-200.000	0.050	-0.241
-698.499	-130.638	0.409	-0.056
-697.485	94.215	0.727	0.832
-696.470	800.000	-0.185	-0.817
-695.456	114.799	0.294	-0.362
-694.441	-154.426	-0.041	0.003
-693.426	150.672	0.169	-0.231
-692.412	-200.000	-0.033	0.544
-691.397	-200.000	-0.079	-0.699
-690.383	99.454	0.631	0.735
-689.368	466.050	-0.291	0.657
-688.354	-158.636	0.671	0.039
-687.339	32.169	-0.413	0.359
-686.324	376.551	0.264	-0.543
-685.310	-157.648	-0.580	0.035
-684.295	11.977	-0.698	0.541
-683.281	76.899	0.209	-0.224
-682.266	-35.179	-0.413	0.227
-681.251	-12.918	-0.458	0.300
-680.237	107.090	0.249	0.298
-679.222	717.065	0.315	0.843
-678.208	-84.819	-0.446	-0.141
-677.193	23.579	-0.495	-0.410
-676.178	-36.469	0.248	-0.135
-675.164	-130.173	-0.588	0.081
-674.149	-200.000	-0.003	0.095
-673.135	-52.921	0.607	-0.281
-672.120	-88.218	0.206	-0.062
-671.105	362.107	0.176	0.355
-670.091	-152.868	-0.355	0.025
-669.076	-41.209	-0.780	0.405
-668.062	-166.694	0.804	0.034
-667.047	35.770	0.449	0.397
-666.032	189.152	0.423	-0.638
-665.018	-200.000	0.001	0.023
-664.003	-200.000	-0.031	0.700
-662.989	270.794	-0.148	-0.262
-661.974	800.000	0.085	-0.240
-660.959	-200.000	-0.101	-0.761
-659.945	800.000	0.067	-0.251
-658.930	-137.314	0.082	0.009
-657.916	78.883	0.373	0.401
-656.901	130.809	-0.414	0.535
-655.886	-62.444	-0.344	0.144
-654.872	-103.670	-1.377	-0.325
-653.857	-50.891	0.653	-0.309
-652.843	413.406	-0.223	-0.477
-651.828	38.464	0.481	0.432
-650.814	-147.850	0.328	0.028
-649.799	800.000	-0.045	0.154
-648.784	-106.757	-0.670	0.150
-647.770	63.623	-0.607	-0.613
-646.755	421.629	0.311	-0.670
-645.741	-23.708	1.473	0.888
-644.726	-200.000	-0.097	0.592
-643.711	800.000	0.148	0.552
-642.697	414.366	-0.259	-0.555
-641.682	-18.548	0.269	0.169
-640.668	51.830	-0.646	-0.619
-639.653	-184.919	-0.642	0.010
-638.638	160.054	-0.333	0.466
-637.624	-117.370	-0.421	0.077
-636.609	-200.000	-0.107	0.502
-635.595	284.013	-0.287	-0.518
-634.580	-200.000	-0.033	-0.745
-633.565	-54.737	0.269	-0.122
-632.551	27.846	-0.056	-0.047
-631.536	-116.753	0.093	0.017
-630.522	402.579	0.446	-0.942
-629.507	166.971	-0.569	-0.812
-628.492	15.231	0.220	-0.173
-627.478	-101.597	-0.761	0.186
-626.463	139.797	-0.546	-0.723
-625.449	-161.088	-0.532	0.028
-624.434	-105.152	0.364	0.084
-623.419	-145.154	0.075	0.007
-622.405	136.346	0.556	0.729
-621.390	-200.000	-0.063	0.520
-620.376	-115.855	-0.796	0.150
-619.361	62.178	-0.331	0.332
-618.346	-174.463	0.149	0.004
-617.332	127.387	-0.341	0.435
-616.317	800.000	0.139	0.518
-615.303	154.706	-0.124	0.172
-614.288	386.394	-0.327	0.679
-613.273	-7.616	-0.460	0.312
-612.259	-73.370	0.354	0.130
-611.244	333.043	-0.346	-0.673
-610.230	-200.000	0.005	-0.448
-609.215	800.000	-0.092	-0.362
-608.201	-4.999	0.528	0.365
-607.186	-126.507	-0.944	0.141
-606.171	31.027	0.257	-0.221
-605.157	-169.013	0.210	0.008
-604.142	79.560	0.121	0.130
-603.128	800.000	-0.202	-0.672
-602.113	107.786	-0.379	0.453
-601.098	584.972	-0.135	0.334
-600.084	-56.816	-0.472	0.210
-599.069	-125.930	-0.509	0.077
-598.055	47.555	0.333	0.311
-597.040	800.000	-0.085	-0.277
-596.025	627.390	0.074	0.189
-595.011	-200.000	-0.078	0.536
-593.996	160.115	0.480	-0.672
-592.982	26.137	0.396	0.332
-591.967	-66.686	0.115	0.046
-590.952	-70.977	0.478	-0.181
-589.938	-200.000	-0.048	0.375
-588.923	61.762	-0.488	-0.488
-587.909	220.106	-0.171	-0.276
-586.894	36.709	0.272	-0.241
-585.879	800.000	0.176	-0.734
-584.865	3.681	-0.243	-0.178
-583.850	800.000	-0.143	-0.472
-582.836	-56.400	-0.353	-0.157
-581.821	-77.591	0.334	0.116
-580.806	433.630	0.225	0.490
-579.792	-16.707	0.374	-0.238
-578.777	122.202	-0.441	0.553
-577.763	-129.137	-0.685	0.096
-576.748	6.511	-0.325	-0.243
-575.733	100.120	-0.512	0.595
-574.719	-73.763	0.291	-0.106
-573.704	457.572	0.365	-0.813
-572.690	52.040	-0.141	0.135
-571.675	-176.172	0.132	-0.003
-570.661	115.437	0.643	0.789
-569.646	-17.681	-0.266	0.167
-568.631	-52.084	0.539	-0.251
-567.617	61.909	0.477	-0.476
-566.602	259.370	-0.168	-0.290
-565.588	800.000	-0.072	-0.280
-564.573	182.426	0.171	0.254
-563.558	162.802	0.111	0.156
-562.544	-18.182	0.301	0.189
-561.529	-83.642	-0.263	0.084
-560.515	0.745	0.453	-0.325
-559.500	800.000	-0.141	-0.417
-558.485	-148.744	0.359	-0.029
-557.471	27.572	-0.084	0.071
-556.456	-31.176	0.576	-0.326
-555.442	-200.000	0.028	-0.690
-554.427	-116.766	-0.460	0.085
-553.412	800.000	-0.117	-0.323
-552.398	6.837	0.400	-0.299
-551.383	-200.000	-0.073	-0.323
-550.369	800.000	-0.147	0.578
-549.354	-61.420	-0.407	-0.171
-548.339	-200.000	-0.006	-0.318
-547.325	228.188	-0.464	-0.758
-546.310	516.814	0.075	0.177
-545.296	-178.668	0.755	-0.017
-544.281	81.132	-0.280	0.303
-543.266	-12.694	0.829	0.542
-542.252	-8.894	-0.194	-0.130
-541.237	-200.000	-0.745	0.000
-540.223	-200.000	0.007	-0.219
-539.208	17.166	-0.638	0.507
-538.193	-131.082	0.068	0.009
-537.179	-79.784	-0.448	0.151
-536.164	-112.120	0.095	-0.019
-535.150	-200.000	0.072	-1.040
-534.135	-105.764	0.436	-0.099
-533.121	402.644	0.428	0.901
-532.106	800.000	0.124	0.368
-531.091	-106.118	0.486	0.109
-530.077	-153.504	-0.848	-0.059
-529.062	127.078	0.270	-0.343
-528.048	-120.598	1.231	0.209
-527.033	-25.038	-0.591	-0.351
-526.018	-102.443	-0.450	-0.108
-525.004	-85.908	0.094	-0.029
-523.989	-122.268	-1.237	-0.202
-522.975	800.000	-0.110	0.308
-521.960	800.000	-0.136	0.557
-520.945	-63.739	0.759	0.311
-519.931	156.234	-0.502	-0.693
-518.916	1.723	-0.116	0.083
-517.902	-5.439	-0.194	-0.134
-516.887	-38.612	-0.801	-0.423
-515.872	781.613	0.129	-0.352
-514.858	-115.298	-0.852	0.161
-513.843	-99.342	0.395	-0.100
-512.829	-57.711	-0.234	0.102
-511.814	-79.642	-0.427	-0.144
-510.799	371.206	-0.304	0.616
-509.785	-164.652	0.479	-0.022
-508.770	126.426	0.511	-0.648
-507.756	59.262	0.412	0.406
-506.741	-46.603	-0.906	-0.444
-505.726	800.000	-0.114	-0.420
-504.712	245.433	-0.400	-0.673
-503.697	46.077	0.124	0.115
-502.683	-95.727	-0.149	0.040
-501.668	-102.633	0.399	0.095
-500.653	-200.000	-0.173	-0.782
-499.639	-200.000	-0.009	-0.580
-498.624	800.000	-0.193	-0.750
-497.610	-146.926	-0.160	-0.014
-496.595	306.334	0.084	-0.156
-495.581	-49.418	-1.138	0.543
-494.566	-200.000	0.048	-0.557
-493.551	-2.282	-0.180	-0.126
-492.537	-38.917	-0.243	-0.128
-491.522	-138.435	0.515	0.057
-490.508	632.180	0.097	0.246
-489.493	17.368	-0.411	-0.326
-488.478	-104.853	-0.166	-0.038
-487.464	569.004	0.148	-0.360
-486.449	235.321	0.331	0.546
-485.435	-7.663	-0.499	-0.337
-484.420	-57.954	-0.509	-0.222
-483.405	-200.000	-0.164	0.819
-482.391	66.849	-0.812	-0.826
-481.376	-28.986	-0.347	0.199
-480.362	-51.231	0.839	-0.393
-479.347	88.973	-0.884	-0.984
-478.332	-200.000	-0.065	0.550
-477.318	-111.975	0.912	-0.184
-476.303	31.261	0.165	0.141
-475.289	-200.000	-0.077	0.342
-474.274	55.534	-0.228	0.221
-473.259	344.803	0.215	0.422
-472.245	-200.000	0.153	1.176
-471.230	116.218	0.311	0.381
-470.216	-4.581	-0.678	-0.468
-469.201	-126.440	-0.591	-0.088
-468.186	-100.983	-0.211	0.052
-467.172	-134.440	-0.485	0.059
-466.157	800.000	-0.100	-0.297
-465.143	144.150	-0.489	-0.652
-464.128	-200.000	0.089	-0.589
-463.113	-200.000	0.011	0.189
-462.099	-62.564	0.484	-0.201
-461.084	84.207	0.251	-0.274
-460.070	411.872	-0.047	-0.100
-459.055	-10.550	0.423	-0.279
-458.040	-41.769	0.868	0.445
-457.026	-200.000	0.011	-0.376
-456.011	-117.589	0.264	-0.048
-454.997	800.000	0.300	0.955
-453.982	15.433	-0.075	-0.059
-452.968	270.061	-0.227	0.399
-451.953	-86.290	-0.065	-0.020
-450.938	-58.657	-0.382	0.165
-449.924	-175.269	-0.688	-0.019
-448.909	-18.319	-0.680	-0.424
-447.895	-152.327	-0.267	0.019
-446.880	-119.627	-0.103	-0.018
-445.865	-57.967	0.236	-0.103
-444.851	-155.095	-0.306	0.020
-443.836	-200.000	0.116	-0.800
-442.822	-111.929	1.102	-0.222
-441.807	-45.036	-0.787	0.391
-440.792	384.051	0.180	0.369
-439.778	800.000	0.317	1.170
-438.763	800.000	0.263	0.760
-437.749	539.824	0.315	-0.749
-436.734	28.940	-0.391	0.331
-435.719	-46.034	0.889	0.437
-434.705	-106.279	0.514	-0.115
-433.690	5.792	0.129	-0.095
-432.676	19.965	-0.386	-0.310
-431.661	44.110	0.489	0.448
-430.646	-62.490	-0.367	-0.152
-429.632	-200.000	-0.032	0.395
-428.617	40.629	-0.629	-0.565
-427.603	16.636	0.615	-0.485
-426.588	-65.124	-0.425	-0.171
-425.573	665.580	-0.403	1.037
-424.559	235.242	-0.279	0.460
-423.544	704.772	0.301	-0.792
-422.530	-56.914	1.244	0.548
-421.515	-62.097	-0.439	-0.183
-420.500	111.909	0.365	-0.440
-419.486	-67.073	-0.587	-0.231
-418.471	-107.185	0.328	0.072
-417.457	130.857	-0.114	-0.145
-416.442	94.392	-0.353	-0.400
-415.428	453.212	0.247	-0.546
-414.413	293.817	-0.154	-0.280
-413.398	-172.871	0.684	0.021
-412.384	578.974	0.143	0.350
-411.369	5.386	0.551	-0.405
-410.355	800.000	0.119	-0.429
-409.340	-200.000	-0.154	1.041
-408.325	-200.000	0.080	0.971
-407.311	269.588	0.385	0.673
-406.296	-85.304	0.454	0.141
-405.282	-51.586	-0.486	-0.226
-404.267	367.281	-0.122	0.245
-403.252	-42.274	-0.142	0.072
-402.238	-10.405	0.361	0.238
-401.223	800.000	-0.325	1.027
-400.209	-200.000	0.001	-0.617
-399.194	107.644	0.384	0.456
-398.179	239.437	-0.119	-0.197
-397.165	-74.315	-0.593	0.213
-396.150	800.000	-0.237	0.892
-395.136	8.210	-1.151	0.861
-394.121	140.442	-0.071	-0.094
-393.106	53.796	0.408	-0.390
-392.092	-73.624	-0.304	-0.110
-391.077	431.244	0.360	-0.776
-390.063	93.593	-0.480	0.542
-389.048	-14.788	0.756	0.484
-388.033	-185.326	-0.615	0.009
-387.019	-200.000	-0.055	0.382
-386.004	197.464	-0.542	-0.824
-384.990	54.221	-0.964	-0.924
-383.975	46.756	0.137	0.127
-382.960	45.847	0.404	-0.372
-381.946	243.089	0.527	-0.879
-380.931	-0.892	0.158	-0.111
-379.917	-98.424	-0.722	0.184
-378.902	-6.089	-0.662	0.450
-377.888	-87.977	0.852	0.255
-376.873	-65.226	-0.704	0.282
-375.858	-200.000	-0.050	-0.490
-374.844	-200.000	0.029	-0.175
-373.829	355.990	0.165	0.327
-372.815	36.970	0.111	-0.097
-371.800	-200.000	-0.035	-0.407
-370.785	-127.292	-0.749	0.109
-369.771	-200.000	0.088	-0.532
-368.756	800.000	-0.036	0.135
-367.742	-138.192	-0.367	-0.040
-366.727	165.195	-0.337	-0.474
-365.712	188.619	-0.336	0.500
-364.698	800.000	0.227	-0.666
-363.683	-200.000	-0.023	0.317
-362.669	-175.382	1.165	0.032
-361.654	-43.068	0.515	0.260
-360.639	167.307	-0.289	-0.408
-359.625	12.883	0.701	0.539
-358.610	-200.000	0.029	0.875
-357.596	-123.190	-0.668	-0.106
-356.581	-164.325	1.244	0.057
-355.566	-116.038	0.090	-0.017
-354.552	800.000	0.342	1.374
-353.537	176.360	-0.711	1.028
-352.523	46.239	0.297	0.273
-351.508	-200.000	0.033	-0.197
-350.493	144.815	0.704	0.935
-349.479	-33.266	0.433	-0.238
-348.464	20.351	0.274	0.220
-347.450	27.340	0.654	0.547
-346.435	203.601	0.406	0.625
-345.420	-116.117	0.445	-0.082
-344.406	-28.451	-0.302	-0.173
-343.391	103.690	-0.327	-0.382
-342.377	-27.109	-1.334	-0.774
-341.362	-200.000	0.182	1.075
-340.348	-200.000	-0.101	0.602
-339.333	-36.015	-1.070	0.575
-338.318	146.959	-0.349	0.466
-337.304	333.710	0.368	0.708
-336.289	98.839	0.592	0.679
-335.275	-200.000	0.024	0.488
-334.260	60.792	-0.475	0.468
-333.245	114.079	-0.373	0.451
-332.231	82.969	0.574	-0.620
-331.216	-200.000	0.010	-0.295
-330.202	793.704	0.208	-0.569
-329.187	-20.873	0.405	-0.246
-328.172	563.278	0.260	0.625
-327.158	-148.250	-1.035	0.085
-326.143	-104.323	0.572	0.132
-325.129	-200.000	-0.028	0.441
-324.114	442.764	-0.201	0.438
-323.099	-47.947	0.628	-0.302
-322.085	84.327	0.251	0.272
-321.070	-200.000	0.083	0.632
-320.056	768.799	-0.033	0.089
-319.041	9.508	0.429	0.322
-318.026	-200.000	0.102	0.535
-317.012	477.677	0.164	0.369
-315.997	-200.000	-0.064	0.672
-314.983	-133.126	0.687	-0.086
-313.968	219.737	-0.101	-0.160
-312.953	-200.000	0.113	-0.813
-311.939	-44.658	-0.269	-0.133
-310.924	54.917	-0.205	-0.196
-309.910	96.838	0.157	-0.179
-308.895	608.609	-0.070	-0.175
-307.880	-62.272	0.489	0.202
-306.866	615.884	0.086	0.213
-305.851	166.270	-0.278	0.391
-304.837	-200.000	0.240	-1.209
-303.822	-133.030	-0.444	0.056
-302.807	-66.943	-0.409	0.160
-301.793	-49.159	-0.492	-0.234
-300.778	27.186	0.349	-0.291
-299.764	-39.437	0.151	-0.079
-298.749	-22.740	0.320	-0.192
-297.735	-157.320	0.777	-0.047
-296.720	-99.577	-0.225	0.056
-295.705	800.000	0.206	-0.709
-294.691	-200.000	0.090	-0.755
-293.676	-180.024	-0.117	-0.002
-292.662	-56.067	-0.508	0.224
-291.647	236.824	0.291	-0.478
-290.632	448.514	-0.074	0.162
-289.618	-54.421	-0.275	-0.124
-288.603	-146.765	0.276	-0.024
-287.589	-140.090	-0.716	0.075
-286.574	-168.259	-0.255	-0.010
-285.559	-200.000	0.043	-0.565
-284.545	800.000	0.285	-0.830
-283.530	-136.989	0.505	-0.057
-282.516	-25.142	0.439	-0.258
-281.501	29.513	0.282	-0.238
-280.486	631.700	0.088	0.220
-279.472	235.080	0.090	-0.147
-278.457	98.698	0.240	-0.274
-277.443	316.536	-0.374	0.701
-276.428	800.000	0.049	-0.156
-275.413	357.416	0.095	0.187
-274.399	-200.000	1.293	0.000
-273.384	-0.397	-0.369	0.260
-272.370	-76.201	0.747	0.261
-271.355	-82.001	-0.371	0.120
-270.340	-200.000	-0.028	0.384
-269.326	-21.961	-0.494	-0.298
-268.311	800.000	0.178	-0.664
-267.297	798.304	0.134	-0.366
-266.282	-67.797	-0.454	-0.176
-265.267	641.239	-0.041	0.103
-264.253	-108.588	0.460	-0.098
-263.238	-200.000	-0.058	-0.752
-262.224	-65.196	0.299	0.119
-261.209	25.898	-0.093	-0.077
-260.195	419.152	0.505	1.070
-259.180	33.264	0.329	0.283
-258.165	56.027	0.506	-0.486
-257.151	-58.825	-0.290	-0.124
-256.136	188.535	0.299	0.443
-255.122	-7.725	-0.557	0.373
-254.107	-37.627	0.316	-0.167
-253.092	-147.568	-0.506	-0.042
-252.078	0.175	-0.123	0.087
-251.063	-200.000	-0.039	-0.449
-250.049	-75.830	-0.159	-0.056
-249.034	655.343	-0.197	-0.501
-248.019	-176.249	0.420	0.011
-247.005	800.000	-0.083	0.312
-245.990	502.893	-0.309	-0.707
-244.976	79.029	-0.112	-0.118
-243.961	107.632	-0.292	0.344
-242.946	-200.000	-0.117	0.760
-241.932	53.392	0.791	-0.751
-240.917	800.000	0.187	-0.619
-239.903	-200.000	0.029	0.133
-238.888	800.000	-0.238	0.905
-237.873	315.976	-0.180	-0.337
-236.859	188.121	-0.363	0.537
-235.844	305.615	0.430	-0.791
-234.830	-200.000	-0.108	-0.536
-233.815	-200.000	-0.012	0.424
-232.800	109.348	-0.269	-0.319
-231.786	800.000	0.214	-0.859
-230.771	70.349	0.246	0.251
-229.757	552.215	-0.154	-0.365
-228.742	-148.524	1.015	0.082
-227.727	656.711	0.295	0.751
-226.713	-99.038	0.499	0.125
-225.698	-127.795	0.726	-0.104
-224.684	-200.000	0.005	-0.185
-223.669	-153.602	-0.584	-0.040
-222.655	50.298	0.451	0.422
-221.640	435.152	-0.409	-0.879
-220.625	-59.355	-0.549	-0.234
-219.611	-200.000	0.008	0.162
-218.596	800.000	0.121	0.399
-217.582	-49.645	-0.549	0.258
-216.567	800.000	-0.092	0.286
-215.552	-68.574	-0.910	-0.349
-214.538	163.268	0.359	0.500
-213.523	227.958	-0.316	-0.509
-212.509	-12.457	0.048	-0.031
-211.494	800.000	-0.065	0.258
-210.479	70.886	-0.067	-0.069
-209.465	-141.979	0.604	0.060
-208.450	800.000	0.098	-0.350
-207.436	-45.960	-0.315	0.154
-206.421	-200.000	0.139	0.633
-205.406	-200.000	0.113	-0.538
-204.392	105.112	0.257	-0.300
-203.377	-200.000	-0.107	0.983
-202.363	40.105	0.592	0.526
-201.348	800.000	-0.116	-0.338
-200.333	308.653	0.109	-0.202
-199.319	-119.980	0.602	-0.102
-198.304	187.130	0.172	-0.253
-197.290	249.836	-0.432	0.724
-196.275	64.665	-0.677	-0.675
-195.260	800.000	0.213	-0.688
-194.246	122.188	0.565	0.697
-193.231	-134.922	-0.632	0.076
-192.217	-89.012	0.320	0.094
-191.202	-200.000	0.181	-0.920
-190.187	-200.000	0.016	-0.236
-189.173	189.050	-0.185	0.274
-188.158	28.192	0.594	-0.496
-187.144	-200.000	0.012	0.232
-186.129	-200.000	0.067	0.665
-185.114	171.041	-0.281	0.398
-184.100	-200.000	0.174	-0.787
-183.085	178.676	0.222	0.321
-182.071	-200.000	0.034	0.209
-181.056	10.479	0.327	0.246
-180.042	-176.527	-0.605	0.015
-179.027	-117.715	0.209	0.037
-178.012	-137.828	0.426	0.047
-176.998	-64.119	-0.733	0.295
-175.983	-200.000	0.059	0.524
-174.969	-74.175	-0.185	0.066
-173.954	276.569	-0.185	-0.324
-172.939	268.941	0.446	-0.772
-171.925	800.000	-0.201	-0.744
-170.910	-2.792	-0.455	0.314
-169.896	-37.808	0.670	-0.352
-168.881	-200.000	0.006	-0.371
-167.866	-188.413	0.383	0.005
-166.852	97.027	-0.313	-0.355
-165.837	-86.512	0.537	-0.163
-164.823	310.911	0.374	0.691
-163.808	10.245	0.723	0.543
-162.793	-4.859	1.061	-0.722
-161.779	119.099	-0.444	0.542
-160.764	-200.000	0.065	0.490
-159.750	-128.934	-0.150	0.021
-158.735	95.268	0.060	-0.068
-157.720	268.700	0.415	0.719
-156.706	79.936	-0.142	0.151
-155.691	720.981	-0.279	-0.733
-154.677	-57.088	0.548	-0.239
-153.662	-200.000	-0.106	-0.688
-152.647	16.098	0.652	0.507
-151.633	-32.722	-0.460	0.253
-150.618	143.380	0.527	0.692
-149.604	602.364	-0.139	-0.340
-148.589	800.000	0.221	-0.726
-147.574	291.126	-0.509	0.913
-146.560	800.000	-0.197	-0.575
-145.545	-38.101	0.840	0.440
-144.531	-103.061	0.483	-0.113
-143.516	-200.000	0.330	0.001
-142.502	82.934	0.683	-0.733
-141.487	-82.214	-0.177	0.057
-140.472	-61.035	-0.208	0.087
-139.458	-153.411	0.644	-0.044
-138.443	-10.888	-0.314	0.204
-137.429	16.223	-0.177	-0.137
-136.414	644.065	-0.065	-0.163
-135.399	-48.881	-0.515	-0.244
-134.385	69.023	0.737	-0.747
-133.370	-200.000	-0.008	-0.473
-132.356	164.005	-0.045	-0.063
-131.341	-200.000	0.258	-1.153
-130.326	-3.314	0.453	0.311
-129.312	-83.673	-0.617	0.194
-128.297	720.813	0.125	-0.328
-127.283	-102.154	0.285	0.068
-126.268	-200.000	-0.057	0.607
-125.253	-70.515	-0.943	0.352
-124.239	800.000	-0.129	0.554
-123.224	132.843	0.266	0.338
-122.210	12.927	0.783	-0.597
-121.195	47.076	0.291	-0.267
