DTS Sentinel unit serial number:	SN413079Multiplexer serial number:	ORYXHardware model number:	OX4-SRSoftware version number:	ORYX F/W v4.00 Oryx Data Collector v3.7.2.0data status	okinstallation	princeton_trtdifferential loss correction	single-endedforward channel	channel 2reverse channel	N/Adate	2019/09/13time	10:03:35forward acquisition time	60.00reverse acquisition time	0.00gamma	496.2192k internal	0.2324k external	0.2324temperature offset calibration	1.0190default loss term (dB/km)	0.3790temperature slope calibration	1.0000multiplexer offset coefficient	1.0000multiplexer slope coefficient	1.0000fibre end	0.00T internal ref (°C)	30.31T ext. ref 1 (°C)	4.49T ext. ref 2 (°C)	27.75length (m)	temperature (°C)	Stokes	anti-Stokes-747.200	-200.000	0.007	0.091
-746.185	-77.437	-0.328	0.115
-745.171	95.243	-0.229	0.263
-744.156	-36.394	0.209	0.114
-743.142	-83.676	0.390	0.126
-742.127	-200.000	-0.040	0.324
-741.112	60.387	0.386	0.386
-740.098	-200.000	-0.000	-0.003
-739.083	-141.281	0.082	0.008
-738.069	165.220	0.170	0.243
-737.054	800.000	-0.079	0.226
-736.039	118.388	-0.212	-0.264
-735.025	164.454	0.173	0.246
-734.010	162.550	0.134	-0.190
-732.996	34.240	-0.264	-0.232
-731.981	-200.000	-0.021	0.094
-730.966	-200.000	0.007	-0.120
-729.952	800.000	0.028	0.107
-728.937	-97.162	-0.396	0.104
-727.923	800.000	-0.058	0.192
-726.908	-138.173	0.173	-0.019
-725.894	-200.000	-0.051	-0.255
-724.879	-105.399	-0.219	0.050
-723.864	-200.000	0.008	0.093
-722.850	719.514	0.121	-0.324
-721.835	-79.010	-0.310	-0.106
-720.821	25.319	-0.274	0.230
-719.806	720.457	-0.029	-0.077
-718.791	-117.370	0.056	0.010
-717.777	-127.146	0.262	0.039
-716.762	800.000	-0.108	-0.371
-715.748	-89.119	-0.103	0.031
-714.733	183.214	0.097	0.144
-713.718	-200.000	0.061	0.289
-712.704	303.887	-0.019	0.035
-711.689	-200.000	0.003	-0.462
-710.675	-200.000	-0.004	-0.104
-709.660	-89.269	0.206	-0.061
-708.645	8.534	0.362	-0.275
-707.631	-46.482	-0.245	-0.121
-706.616	36.666	-0.083	-0.074
-705.602	-200.000	-0.034	-0.277
-704.587	35.722	-0.182	-0.161
-703.572	7.024	0.215	-0.162
-702.558	205.425	-0.196	-0.306
-701.543	800.000	-0.096	-0.361
-700.529	328.392	0.117	0.227
-699.514	-200.000	0.019	-0.232
-698.499	13.776	-0.230	-0.180
-697.485	-100.689	-0.240	0.060
-696.470	251.798	0.137	-0.236
-695.456	-200.000	-0.018	-0.114
-694.441	50.163	-0.214	0.203
-693.426	-60.271	-0.159	-0.068
-692.412	-9.953	-0.211	-0.141
-691.397	-53.738	0.077	-0.035
-690.383	550.806	-0.105	-0.253
-689.368	8.068	-0.275	-0.208
-688.354	8.018	0.328	-0.247
-687.339	-111.432	-0.437	0.090
-686.324	-108.129	-0.146	0.032
-685.310	-83.042	-0.180	-0.059
-684.295	-120.191	0.365	-0.063
-683.281	800.000	0.023	-0.099
-682.266	-95.232	-0.511	0.139
-681.251	-32.472	-0.245	0.138
-680.237	243.816	-0.182	-0.308
-679.222	276.594	0.175	0.313
-678.208	21.480	-0.193	0.158
-677.193	-200.000	0.016	-0.180
-676.178	404.811	0.090	-0.191
-675.164	-78.050	-0.149	0.052
-674.149	-200.000	0.027	0.156
-673.135	-1.766	0.080	0.057
-672.120	35.591	-0.151	-0.134
-671.105	-7.141	-0.049	-0.033
-670.091	-34.465	0.189	-0.104
-669.076	166.343	0.065	-0.093
-668.062	28.601	0.036	-0.031
-667.047	800.000	-0.157	-0.489
-666.032	195.005	-0.093	-0.143
-665.018	-200.000	0.022	-0.247
-664.003	-110.097	0.275	0.058
-662.989	109.592	0.083	0.100
-661.974	13.789	-0.225	0.176
-660.959	759.927	0.050	0.137
-659.945	-42.650	0.040	-0.020
-658.930	-24.535	-0.256	-0.153
-657.916	-111.566	0.165	-0.034
-656.901	-144.949	-0.317	-0.029
-655.886	-118.717	0.307	-0.054
-654.872	23.423	0.285	-0.235
-653.857	-38.358	0.236	-0.126
-652.843	102.050	0.269	-0.316
-651.828	197.675	0.127	-0.195
-650.814	344.306	0.098	0.194
-649.799	495.902	-0.186	-0.430
-648.784	-200.000	0.019	-0.269
-647.770	-4.083	-0.242	0.169
-646.755	-7.550	0.062	0.042
-645.741	-200.000	0.026	0.169
-644.726	79.544	-0.266	-0.287
-643.711	682.076	-0.114	-0.298
-642.697	-200.000	0.003	-0.158
-641.682	33.781	0.075	-0.065
-640.668	-103.516	0.197	0.047
-639.653	-200.000	0.028	-0.122
-638.638	-111.882	-0.129	0.026
-637.624	-142.312	-0.295	-0.029
-636.609	272.827	-0.105	-0.186
-635.595	39.367	0.120	0.108
-634.580	6.172	0.169	0.126
-633.565	185.726	0.067	0.100
-632.551	-72.843	0.043	-0.016
-631.536	61.970	-0.157	-0.157
-630.522	146.188	-0.117	-0.158
-629.507	-200.000	0.005	-0.213
-628.492	-64.245	0.361	-0.148
-627.478	800.000	-0.098	-0.382
-626.463	800.000	-0.055	-0.169
-625.449	800.000	0.119	-0.356
-624.434	9.135	-0.105	-0.080
-623.419	797.543	-0.110	-0.306
-622.405	-200.000	-0.019	0.146
-621.390	10.243	-0.125	0.095
-620.376	800.000	0.039	-0.150
-619.361	-108.720	-0.147	0.032
-618.346	31.808	0.091	-0.078
-617.332	-117.608	-0.220	-0.040
-616.317	-37.795	0.321	-0.171
-615.303	24.915	-0.196	-0.164
-614.288	-8.683	0.286	-0.193
-613.273	152.103	0.025	-0.035
-612.259	761.133	-0.056	-0.151
-611.244	88.348	0.266	-0.296
-610.230	-140.890	-0.390	0.040
-609.215	-14.296	0.293	-0.189
-608.201	361.634	-0.133	-0.269
-607.186	713.212	-0.052	-0.138
-606.171	605.053	-0.080	0.200
-605.157	-70.754	0.375	0.142
-604.142	-38.467	-0.277	-0.147
-603.128	800.000	0.051	-0.176
-602.113	-78.382	-0.121	-0.042
-601.098	-200.000	-0.044	0.198
-600.084	138.488	0.130	-0.171
-599.069	72.275	0.225	-0.235
-598.055	182.162	-0.212	-0.314
-597.040	389.824	-0.058	0.120
-596.025	-33.388	-0.405	-0.225
-595.011	800.000	-0.037	0.136
-593.996	-116.918	0.167	-0.031
-592.982	251.079	0.080	0.136
-591.967	-200.000	-0.040	0.296
-590.952	33.484	0.353	-0.307
-589.938	-64.603	-0.208	0.084
-588.923	16.888	-0.242	0.192
-587.909	-200.000	-0.018	-0.234
-586.894	121.237	-0.160	0.200
-585.879	559.892	0.029	0.071
-584.865	-69.751	0.198	-0.076
-583.850	35.199	0.222	-0.195
-582.836	45.618	-0.092	-0.085
-581.821	-158.480	-0.415	-0.024
-580.806	41.295	-0.289	-0.262
-579.792	648.044	0.010	0.026
-578.777	156.386	0.132	-0.183
-577.763	184.179	0.158	0.234
-576.748	-24.776	0.074	-0.044
-575.733	-88.297	-0.465	0.139
-574.719	-104.556	-0.244	0.056
-573.704	92.787	0.076	-0.086
-572.690	113.255	0.072	-0.088
-571.675	800.000	-0.068	-0.264
-570.661	120.105	-0.155	0.192
-569.646	-10.721	-0.206	-0.136
-568.631	-49.771	-0.077	0.037
-567.617	-200.000	-0.042	0.338
-566.602	-200.000	-0.024	0.214
-565.588	-69.115	-0.097	0.038
-564.573	86.377	-0.107	-0.119
-563.558	800.000	-0.087	-0.254
-562.544	48.719	0.205	-0.193
-561.529	526.290	-0.173	-0.407
-560.515	-126.717	-0.145	0.021
-559.500	-119.862	-0.131	-0.023
-558.485	800.000	0.024	0.106
-557.471	-103.075	0.348	0.083
-556.456	-200.000	0.013	-0.065
-555.442	291.548	0.178	-0.325
-554.427	149.324	0.270	-0.366
-553.412	29.811	-0.276	-0.236
-552.398	-11.251	-0.312	0.206
-551.383	506.742	-0.043	-0.100
-550.369	-81.057	-0.398	-0.132
-549.354	181.601	0.161	0.238
-548.339	138.128	-0.137	-0.180
-547.325	140.582	-0.066	-0.087
-546.310	360.886	-0.094	-0.188
-545.296	-123.011	-0.134	-0.022
-544.281	385.878	-0.021	0.043
-543.266	-130.883	-0.194	0.026
-542.252	166.761	0.025	-0.036
-541.237	123.205	-0.082	-0.103
-540.223	421.014	-0.012	-0.026
-539.208	707.667	-0.118	-0.311
-538.193	-200.000	-0.015	0.217
-537.179	800.000	-0.050	0.151
-536.164	512.347	0.161	0.375
-535.150	198.162	0.235	0.360
-534.135	-200.000	0.000	-0.015
-533.121	206.121	0.134	-0.208
-532.106	1.920	-0.312	0.225
-531.091	74.283	0.039	0.041
-530.077	11.820	0.196	0.151
-529.062	278.498	0.073	0.130
-528.048	-200.000	0.079	-0.424
-527.033	202.294	0.123	0.190
-526.018	-200.000	0.060	0.343
-525.004	161.934	-0.143	-0.200
-523.989	-99.793	-0.198	0.050
-522.975	-200.000	-0.072	-0.454
-521.960	-133.225	-0.521	-0.066
-520.945	800.000	-0.070	-0.198
-519.931	800.000	0.042	0.119
-518.916	-118.475	0.102	-0.018
-517.902	800.000	0.047	0.151
-516.887	298.395	0.095	-0.176
-515.872	-125.679	-0.239	0.036
-514.858	-52.114	-0.205	0.095
-513.843	-22.527	-0.148	-0.090
-512.829	22.442	0.037	-0.030
-511.814	134.996	0.250	-0.325
-510.799	-200.000	-0.014	-0.192
-509.785	-42.352	-0.114	-0.058
-508.770	-200.000	-0.008	0.074
-507.756	-200.000	-0.001	0.065
-506.741	-64.278	-0.149	0.061
-505.726	85.162	0.065	0.071
-504.712	31.047	-0.217	-0.186
-503.697	527.915	-0.078	0.184
-502.683	-200.000	0.016	-0.116
-501.668	800.000	0.010	0.042
-500.653	-29.749	0.351	0.200
-499.639	-88.732	-0.020	0.006
-498.624	-121.205	0.175	-0.029
-497.610	800.000	0.056	0.170
-496.595	-72.844	0.378	0.139
-495.581	-200.000	0.046	0.339
-494.566	-55.260	0.213	0.095
-493.551	-61.380	-0.425	0.179
-492.537	-135.988	0.144	0.017
-491.522	37.259	0.107	0.095
-490.508	800.000	0.050	0.187
-489.493	800.000	-0.068	0.224
-488.478	137.988	-0.150	0.196
-487.464	-85.854	-0.336	-0.104
-486.449	-142.578	-0.199	0.019
-485.435	63.432	0.189	-0.189
-484.420	800.000	-0.044	0.134
-483.405	-47.296	0.163	-0.079
-482.391	34.982	-0.363	-0.318
-481.376	-25.128	-0.264	0.156
-480.362	800.000	0.062	-0.203
-479.347	297.720	0.118	-0.217
-478.332	-200.000	-0.019	0.227
-477.318	-2.779	-0.106	-0.074
-476.303	-94.953	-0.226	-0.061
-475.289	-200.000	-0.053	0.506
-474.274	-200.000	-0.053	0.294
-473.259	45.194	0.378	0.348
-472.245	-41.971	-0.279	0.143
-471.230	179.504	0.228	-0.333
-470.216	-146.093	0.398	-0.035
-469.201	120.915	0.030	0.038
-468.186	87.134	-0.134	0.148
-467.172	-200.000	-0.043	0.458
-466.157	138.958	0.247	0.325
-465.143	-47.861	0.376	-0.182
-464.128	-22.712	0.333	0.201
-463.113	-157.543	0.113	0.007
-462.099	-93.758	-0.210	0.058
-461.084	800.000	-0.158	-0.494
-460.070	-152.554	0.033	-0.002
-459.055	-200.000	-0.030	0.298
-458.040	2.568	0.086	-0.062
-457.026	101.943	-0.141	-0.164
-456.011	-200.000	-0.006	0.293
-454.997	393.980	0.119	0.247
-453.982	-200.000	0.031	-0.194
-452.968	-164.119	-0.030	-0.001
-451.953	268.004	-0.012	-0.022
-450.938	-200.000	-0.046	-0.341
-449.924	-0.530	0.211	0.149
-448.909	355.145	-0.045	0.090
-447.895	-200.000	0.002	-0.120
-446.880	-200.000	0.001	-0.112
-445.865	-129.613	-0.165	-0.023
-444.851	-18.966	-0.121	-0.075
-443.836	-200.000	-0.042	0.236
-442.822	176.113	0.065	0.094
-441.807	-132.415	0.112	-0.014
-440.792	144.782	0.131	-0.175
-439.778	-200.000	0.045	-0.257
-438.763	-62.279	0.275	0.114
-437.749	42.331	-0.015	0.014
-436.734	-200.000	-0.007	0.079
-435.719	61.237	-0.121	-0.120
-434.705	-200.000	-0.013	0.191
-433.690	36.162	-0.175	-0.154
-432.676	798.800	0.054	0.148
-431.661	800.000	0.039	0.141
-430.646	628.632	-0.034	0.084
-429.632	-104.663	-0.185	0.042
-428.617	-4.072	0.076	-0.053
-427.603	189.365	-0.020	-0.030
-426.588	46.431	0.171	0.158
-425.573	-38.137	-0.197	0.104
-424.559	-44.283	-0.173	-0.087
-423.544	39.690	0.201	-0.180
-422.530	-200.000	0.022	-0.280
-421.515	-114.847	0.102	-0.019
-420.500	-200.000	0.013	-0.205
-419.486	69.348	-0.240	0.247
-418.471	-200.000	0.033	-0.192
-417.457	319.143	0.099	-0.187
-416.442	147.731	0.052	0.070
-415.428	-28.132	0.157	-0.091
-414.413	-200.000	-0.006	-0.059
-413.398	800.000	-0.056	0.158
-412.384	-68.026	-0.333	-0.129
-411.369	-88.178	-0.154	-0.046
-410.355	-200.000	0.043	-0.190
-409.340	-200.000	-0.023	-0.113
-408.325	-64.542	0.186	0.075
-407.311	-200.000	-0.009	-0.167
-406.296	-62.168	0.031	-0.013
-405.282	103.675	0.222	0.260
-404.267	-82.498	-0.147	0.047
-403.252	35.930	-0.174	-0.152
-402.238	-79.087	0.112	0.038
-401.223	-91.531	0.402	-0.114
-400.209	-200.000	0.005	0.251
-399.194	800.000	-0.047	-0.153
-398.179	-200.000	0.020	0.357
-397.165	67.095	0.304	0.308
-396.150	57.674	0.105	0.103
-395.136	4.939	-0.180	-0.132
-394.121	-132.330	0.221	0.028
-393.106	87.184	-0.175	-0.192
-392.092	16.868	0.175	0.138
-391.077	85.163	-0.077	-0.084
-390.063	-1.152	0.178	-0.126
-389.048	-200.000	0.094	-0.480
-388.033	-152.351	0.219	0.016
-387.019	473.757	0.048	0.108
-386.004	-200.000	0.032	0.322
-384.990	-200.000	0.012	0.235
-383.975	6.020	-0.098	0.072
-382.960	206.118	-0.141	-0.219
-381.946	-158.386	0.110	0.006
-380.931	178.340	0.054	-0.078
-379.917	-167.771	0.063	0.002
-378.902	-58.752	0.384	0.165
-377.888	211.051	-0.072	-0.113
-376.873	-44.953	0.323	-0.160
-375.858	-29.930	-0.283	0.160
-374.844	-200.000	-0.004	0.144
-373.829	-200.000	-0.015	0.302
-372.815	-39.690	-0.100	0.052
-371.800	-200.000	0.023	0.428
-370.785	-139.493	0.243	-0.026
-369.771	144.988	-0.137	-0.182
-368.756	-37.827	0.131	0.069
-367.742	-200.000	-0.011	-0.254
-366.727	120.329	-0.183	0.226
-365.712	-200.000	-0.031	-0.137
-364.698	465.330	0.113	0.251
-363.683	455.717	0.071	0.157
-362.669	402.441	-0.171	0.357
-361.654	25.617	-0.185	-0.153
-360.639	-35.152	0.247	0.134
-359.625	-21.291	-0.188	0.114
-358.610	258.003	0.193	0.331
-357.596	326.201	0.141	-0.268
-356.581	800.000	0.011	-0.034
-355.566	-37.987	-0.156	-0.083
-354.552	-200.000	-0.009	-0.251
-353.537	202.226	0.074	-0.114
-352.523	192.478	-0.368	0.552
-351.508	14.434	0.280	-0.217
-350.493	550.299	-0.123	-0.294
-349.479	800.000	-0.046	-0.186
-348.464	800.000	0.064	0.234
-347.450	684.365	0.082	0.213
-346.435	-155.185	0.160	0.010
-345.420	-14.545	0.116	-0.074
-344.406	-49.347	-0.365	0.173
-343.391	208.618	0.085	0.132
-342.377	-200.000	-0.123	0.000
-341.362	-200.000	0.006	0.090
-340.348	-39.705	0.123	0.064
-339.333	-123.843	0.353	-0.055
-338.318	9.896	0.070	-0.053
-337.304	-200.000	-0.038	0.203
-336.289	150.363	0.213	-0.288
-335.275	-200.000	0.038	0.181
-334.260	-71.466	-0.132	-0.049
-333.245	-73.230	-0.304	-0.111
-332.231	-200.000	0.068	0.426
-331.216	-52.631	-0.158	-0.072
-330.202	115.398	-0.064	-0.077
-329.187	-73.238	-0.164	-0.060
-328.172	-157.992	0.449	0.026
-327.158	-126.586	-0.301	-0.044
-326.143	43.686	-0.100	0.091
-325.129	-200.000	0.060	-0.284
-324.114	729.021	0.019	0.050
-323.099	-43.848	-0.218	-0.109
-322.085	-42.118	-0.108	0.055
-321.070	402.879	0.116	0.243
-320.056	-149.332	-0.085	-0.007
-319.041	-117.755	0.144	-0.026
-318.026	791.491	-0.083	0.226
-317.012	-200.000	-0.050	0.276
-315.997	203.459	-0.226	0.347
-314.983	800.000	-0.074	0.254
-313.968	0.507	-0.054	-0.039
-312.953	-73.878	-0.178	-0.064
-311.939	-90.989	0.216	0.062
-310.924	-93.382	0.109	0.030
-309.910	60.459	0.055	-0.054
-308.895	-200.000	0.016	-0.265
-307.880	-182.590	0.262	0.005
-306.866	77.416	-0.063	-0.067
-305.851	-64.930	0.105	0.042
-304.837	-50.173	-0.102	-0.048
-303.822	-37.312	-0.404	0.214
-302.807	-200.000	-0.024	0.378
-301.793	-16.299	-0.127	-0.080
-300.778	160.308	0.008	0.011
-299.764	-88.249	-0.190	-0.056
-298.749	-200.000	-0.064	-0.358
-297.735	226.761	0.089	0.143
-296.720	65.562	-0.165	-0.166
-295.705	288.357	-0.130	-0.233
-294.691	218.405	0.094	0.149
-293.676	65.514	0.170	0.170
-292.662	-200.000	-0.030	-0.137
-291.647	-141.007	0.409	-0.042
-290.632	106.578	0.154	0.181
-289.618	-200.000	-0.001	0.407
-288.603	-150.341	0.192	0.015
-287.589	-59.776	0.301	0.128
-286.574	-200.000	0.010	0.227
-285.559	-21.324	-0.226	0.137
-284.545	-91.743	0.081	-0.023
-283.530	-103.393	0.469	0.109
-282.516	390.839	0.067	0.138
-281.501	-46.913	0.126	-0.061
-280.486	59.246	-0.025	0.024
-279.472	-87.990	0.302	0.090
-278.457	54.166	0.349	-0.333
-277.443	82.572	-0.162	-0.175
-276.428	-200.000	-0.063	-0.320
-275.413	-61.437	-0.197	-0.082
-274.399	54.441	-0.175	-0.167
-273.384	-53.888	-0.275	0.124
-272.370	-200.000	-0.015	-0.169
-271.355	-52.565	-0.218	0.100
-270.340	-47.123	-0.015	0.007
-269.326	119.796	-0.104	0.128
-268.311	200.446	0.185	0.281
-267.297	-200.000	0.016	0.156
-266.282	40.922	0.202	-0.181
-265.267	-200.000	0.004	0.086
-264.253	-200.000	-0.032	-0.145
-263.238	35.499	0.202	-0.176
-262.224	-144.791	-0.094	0.009
-261.209	1.826	0.139	-0.099
-260.195	137.327	0.107	0.139
-259.180	-117.367	-0.132	0.024
-258.165	162.883	0.252	0.350
-257.151	36.757	0.149	0.131
-256.136	800.000	0.089	0.270
-255.122	25.320	-0.089	-0.074
-254.107	-200.000	0.014	0.086
-253.092	-113.719	0.054	0.010
-252.078	21.244	0.177	-0.143
-251.063	800.000	-0.070	0.241
-250.049	-38.447	0.058	-0.030
-249.034	-200.000	-0.012	-0.211
-248.019	-20.403	0.062	-0.038
-247.005	-200.000	-0.056	0.458
-245.990	-64.223	-0.093	0.038
-244.976	-200.000	0.039	-0.312
-243.961	592.837	0.126	0.308
-242.946	-45.422	-0.045	0.022
-241.932	186.324	-0.118	-0.173
-240.917	800.000	-0.027	-0.112
-239.903	134.219	0.218	0.279
-238.888	88.616	0.090	-0.099
-237.873	122.638	0.070	-0.087
-236.859	-108.622	0.305	-0.065
-235.844	-32.543	0.340	0.187
-234.830	-22.913	-0.082	0.049
-233.815	-200.000	0.016	0.094
-232.800	-21.747	0.318	0.191
-231.786	-96.636	-0.122	-0.032
-230.771	-10.298	-0.119	-0.078
-229.757	546.142	0.078	-0.184
-228.742	-200.000	-0.006	0.098
-227.727	800.000	0.138	-0.390
-226.713	-140.525	0.201	-0.021
-225.698	800.000	0.031	-0.122
-224.684	32.649	0.303	-0.259
-223.669	133.551	0.040	0.051
-222.655	29.534	0.167	0.140
-221.640	-99.630	0.125	0.031
-220.625	-177.969	-0.409	0.010
-219.611	-84.878	0.360	0.112
-218.596	800.000	0.018	-0.072
-217.582	66.158	-0.228	-0.229
-216.567	613.114	-0.056	0.138
-215.552	-3.305	-0.261	0.179
-214.538	-126.191	0.189	-0.028
-213.523	449.513	-0.046	-0.101
-212.509	-38.670	0.426	-0.222
-211.494	800.000	-0.029	0.121
-210.479	-25.563	0.045	0.026
-209.465	24.100	0.362	-0.295
-208.450	-200.000	0.031	0.246
-207.436	-78.427	-0.473	-0.160
-206.421	-104.369	-0.107	0.025
-205.406	-63.275	-0.428	-0.174
-204.392	800.000	0.045	0.166
-203.377	800.000	0.042	-0.132
-202.363	143.068	-0.209	-0.275
-201.348	94.346	0.043	0.048
-200.333	42.309	-0.250	0.225
-199.319	61.776	-0.010	0.009
-198.304	11.976	-0.151	0.115
-197.290	76.810	-0.076	0.080
-196.275	-200.000	0.031	-0.149
-195.260	-48.714	0.443	-0.210
-194.246	107.875	-0.114	-0.134
-193.231	-38.967	-0.537	0.279
-192.217	-200.000	0.012	-0.132
-191.202	-112.464	0.092	0.018
-190.187	34.705	0.187	0.161
-189.173	-12.124	0.197	-0.127
-188.158	-119.826	-0.139	0.024
-187.144	-154.108	0.150	0.010
-186.129	212.293	-0.053	-0.082
-185.114	-108.612	0.297	-0.063
-184.100	-65.572	0.272	0.108
-183.085	-82.124	-0.232	-0.075
-182.071	15.971	-0.348	0.271
-181.056	209.733	0.126	0.196
-180.042	252.012	0.038	0.064
-179.027	-117.271	0.247	0.044
-178.012	-90.681	-0.263	0.075
-176.998	86.146	-0.223	0.243
-175.983	-43.590	-0.214	0.107
-174.969	-99.452	-0.226	-0.056
-173.954	68.554	0.127	-0.129
-172.939	15.059	-0.081	-0.063
-171.925	39.397	0.367	0.324
-170.910	-38.478	0.388	0.203
-169.896	-40.654	-0.180	0.092
-168.881	-46.169	0.061	-0.029
-167.866	-85.405	0.097	-0.030
-166.852	-200.000	-0.052	0.283
-165.837	25.086	-0.274	-0.224
-164.823	160.557	-0.245	0.337
-163.808	321.709	-0.099	-0.187
-162.793	140.564	-0.161	0.209
-161.779	800.000	-0.054	0.209
-160.764	330.895	0.064	-0.121
-159.750	800.000	-0.032	-0.119
-158.735	140.554	0.101	-0.131
-157.720	-59.500	0.185	0.079
-156.706	-83.286	-0.190	0.060
-155.691	17.921	0.163	-0.128
-154.677	247.421	-0.128	0.212
-153.662	-200.000	-0.003	-0.036
-152.647	263.968	0.028	0.049
-151.633	-200.000	0.017	-0.329
-150.618	68.100	-0.294	-0.296
-149.604	-122.515	-0.165	-0.026
-148.589	-131.635	-0.293	0.038
-147.574	-153.501	-0.139	0.010
-146.560	34.786	-0.117	-0.101
-145.545	22.140	0.240	-0.193
-144.531	-200.000	0.024	0.147
-143.516	-200.000	-0.026	0.129
-142.502	-150.269	0.048	-0.004
-141.487	35.658	-0.153	-0.132
-140.472	8.513	0.080	-0.059
-139.458	24.983	-0.281	-0.229
-138.443	149.759	-0.059	0.079
-137.429	416.221	0.039	0.082
-136.414	-114.313	-0.208	0.040
-135.399	-200.000	-0.001	0.063
-134.385	-104.918	-0.196	-0.044
-133.370	800.000	0.107	-0.297
-132.356	25.937	-0.223	-0.183
-131.341	217.704	0.026	0.040
-130.326	-200.000	-0.035	-0.167
-129.312	135.162	0.059	-0.076
-128.297	800.000	-0.088	0.371
-127.283	-166.726	0.138	0.006
-126.268	-167.069	0.142	-0.006
-125.253	-200.000	0.022	-0.239
-124.239	-121.742	0.291	0.047
-123.224	-30.349	0.176	-0.099
-122.210	-126.207	0.058	-0.009
-121.195	464.451	0.054	0.120
