DTS Sentinel unit serial number:	SN413079Multiplexer serial number:	ORYXHardware model number:	OX4-SRSoftware version number:	ORYX F/W v4.00 Oryx Data Collector v3.7.2.0data status	okinstallation	princeton_trtdifferential loss correction	single-endedforward channel	channel 2reverse channel	N/Adate	2019/09/15time	23:27:35forward acquisition time	60.00reverse acquisition time	0.00gamma	496.2192k internal	0.2335k external	0.2335temperature offset calibration	0.9958default loss term (dB/km)	0.3790temperature slope calibration	1.0000multiplexer offset coefficient	1.0000multiplexer slope coefficient	1.0000fibre end	0.00T internal ref (°C)	28.19T ext. ref 1 (°C)	9.16T ext. ref 2 (°C)	22.11length (m)	temperature (°C)	Stokes	anti-Stokes-747.200	-175.399	0.073	-0.002
-746.185	32.527	0.286	0.248
-745.171	-79.781	0.440	0.149
-744.156	28.458	0.119	0.101
-743.142	155.140	0.105	-0.145
-742.127	5.618	-0.159	0.118
-741.112	-200.000	-0.018	-0.252
-740.098	310.422	0.185	0.347
-739.083	-77.079	-0.267	0.093
-738.069	-200.000	0.010	0.158
-737.054	25.023	-0.056	-0.047
-736.039	800.000	0.048	-0.145
-735.025	17.969	0.175	0.140
-734.010	-24.163	-0.216	-0.130
-732.996	-151.883	-0.175	-0.013
-731.981	-37.729	0.067	-0.036
-730.966	112.922	-0.123	0.150
-729.952	32.356	-0.189	0.164
-728.937	417.320	-0.101	-0.217
-727.923	-93.013	0.238	0.067
-726.908	-53.200	0.227	0.105
-725.894	123.233	0.082	0.103
-724.879	268.242	-0.236	0.414
-723.864	8.924	-0.185	0.140
-722.850	172.800	0.054	-0.078
-721.835	101.887	-0.329	0.385
-720.821	-174.608	-0.044	-0.001
-719.806	-176.673	-0.285	-0.007
-718.791	589.689	0.016	-0.040
-717.777	-104.807	-0.279	0.064
-716.762	55.000	0.174	-0.169
-715.748	549.336	0.047	0.112
-714.733	46.823	-0.121	-0.113
-713.718	-31.715	0.154	-0.087
-712.704	800.000	0.041	0.158
-711.689	-200.000	0.030	0.229
-710.675	-107.103	0.174	0.038
-709.660	-200.000	-0.066	-0.333
-708.645	31.058	-0.211	-0.182
-707.631	439.693	0.014	0.030
-706.616	58.564	0.246	0.243
-705.602	9.250	0.131	0.100
-704.587	316.230	0.061	0.116
-703.572	-200.000	0.009	-0.333
-702.558	-45.525	-0.109	0.054
-701.543	800.000	0.043	-0.186
-700.529	25.505	-0.164	-0.137
-699.514	-64.989	-0.373	0.151
-698.499	-6.006	-0.197	0.135
-697.485	27.951	0.226	-0.191
-696.470	9.491	0.096	0.073
-695.456	-110.647	-0.088	0.018
-694.441	45.184	-0.151	0.140
-693.426	800.000	0.058	0.202
-692.412	-119.227	0.126	-0.022
-691.397	154.020	0.077	0.106
-690.383	-20.515	-0.275	0.170
-689.368	-193.788	-0.011	0.000
-688.354	12.252	-0.099	-0.076
-687.339	-63.390	-0.261	0.108
-686.324	-82.625	0.202	-0.065
-685.310	288.214	-0.201	-0.365
-684.295	158.954	0.088	-0.123
-683.281	-140.389	-0.383	-0.040
-682.266	186.050	0.060	0.090
-681.251	80.955	0.225	-0.244
-680.237	154.019	-0.117	0.161
-679.222	-168.513	-0.061	0.002
-678.208	-69.905	0.168	0.064
-677.193	12.731	-0.280	0.217
-676.178	-97.308	0.361	0.094
-675.164	272.058	0.190	-0.336
-674.149	-90.070	-0.344	0.100
-673.135	192.996	-0.054	-0.082
-672.120	163.081	0.116	0.163
-671.105	412.925	0.183	0.391
-670.091	-26.158	0.144	-0.085
-669.076	-182.529	-0.296	0.005
-668.062	-92.920	0.166	-0.046
-667.047	-200.000	-0.013	-0.116
-666.032	-82.163	0.072	-0.024
-665.018	277.838	0.318	0.567
-664.003	129.483	0.108	0.138
-662.989	84.410	-0.084	0.092
-661.974	-144.774	-0.498	-0.046
-660.959	-200.000	0.009	0.149
-659.945	-111.532	-0.101	-0.021
-658.930	161.175	-0.145	0.203
-657.916	-135.568	-0.034	-0.004
-656.901	345.773	0.091	-0.180
-655.886	-8.833	-0.221	0.148
-654.872	-189.582	0.111	0.001
-653.857	-79.879	-0.154	-0.052
-652.843	-64.847	0.035	0.014
-651.828	358.221	-0.053	-0.107
-650.814	-67.783	-0.265	0.104
-649.799	70.496	0.228	-0.236
-648.784	-86.015	0.191	0.059
-647.770	-42.618	0.242	0.123
-646.755	192.945	0.054	-0.082
-645.741	-56.582	0.241	0.107
-644.726	301.464	-0.122	-0.226
-643.711	-19.948	-0.442	0.273
-642.697	67.744	0.274	0.280
-641.682	-132.011	0.229	-0.030
-640.668	85.040	0.221	0.243
-639.653	282.632	-0.133	-0.239
-638.638	11.368	-0.251	-0.192
-637.624	-200.000	-0.028	-0.227
-636.609	-3.963	0.103	0.072
-635.595	-95.679	-0.231	-0.062
-634.580	-87.431	0.083	0.025
-633.565	411.504	0.093	-0.198
-632.551	749.780	-0.097	-0.262
-631.536	800.000	0.010	-0.030
-630.522	4.978	0.149	0.110
-629.507	-156.465	-0.215	-0.013
-628.492	-200.000	-0.016	-0.112
-627.478	-200.000	-0.038	0.368
-626.463	231.005	-0.147	0.242
-625.449	-91.432	-0.161	0.046
-624.434	-54.235	-0.086	0.039
-623.419	-200.000	-0.027	0.150
-622.405	-200.000	0.041	0.269
-621.390	537.487	0.082	-0.195
-620.376	-103.173	-0.301	0.071
-619.361	800.000	-0.064	-0.256
-618.346	-161.619	0.210	0.011
-617.332	-43.523	0.135	-0.068
-616.317	-22.927	-0.307	-0.185
-615.303	77.637	-0.191	-0.203
-614.288	-31.968	-0.300	0.168
-613.273	-170.495	0.100	0.003
-612.259	-166.926	0.020	0.001
-611.244	171.770	-0.010	0.014
-610.230	202.316	-0.162	-0.250
-609.215	311.455	-0.104	-0.195
-608.201	800.000	0.070	-0.294
-607.186	59.759	-0.129	-0.128
-606.171	542.518	0.117	-0.280
-605.157	-200.000	-0.025	0.461
-604.142	-71.574	0.125	0.047
-603.128	-1.740	-0.085	-0.060
-602.113	-144.250	-0.133	-0.012
-601.098	295.741	-0.116	0.212
-600.084	800.000	-0.057	-0.162
-599.069	-200.000	-0.027	-0.148
-598.055	-108.321	-0.490	0.106
-597.040	800.000	-0.065	0.242
-596.025	-200.000	-0.004	-0.101
-595.011	-200.000	-0.072	-0.349
-593.996	21.647	0.129	-0.105
-592.982	-200.000	-0.025	-0.207
-591.967	800.000	-0.029	-0.089
-590.952	11.590	-0.155	-0.118
-589.938	-54.259	-0.278	-0.126
-588.923	54.916	0.087	-0.084
-587.909	138.615	-0.067	0.088
-586.894	21.101	0.293	-0.238
-585.879	-200.000	-0.011	-0.128
-584.865	179.553	0.232	0.339
-583.850	-28.039	-0.152	0.088
-582.836	-200.000	0.000	0.183
-581.821	115.951	0.117	0.143
-580.806	2.646	-0.185	-0.134
-579.792	163.417	-0.049	0.068
-578.777	-142.002	-0.134	-0.013
-577.763	-189.077	0.107	0.001
-576.748	366.238	-0.110	0.221
-575.733	88.282	-0.158	0.175
-574.719	800.000	0.098	0.403
-573.704	83.412	-0.126	0.137
-572.690	111.768	0.066	-0.079
-571.675	800.000	0.049	-0.139
-570.661	-200.000	0.002	-0.154
-569.646	174.816	0.220	-0.317
-568.631	17.486	0.173	-0.137
-567.617	397.749	0.041	-0.087
-566.602	777.055	-0.249	-0.678
-565.588	-130.669	-0.087	0.012
-564.573	39.094	-0.314	0.280
-563.558	-106.209	0.095	0.021
-562.544	-200.000	0.001	-0.223
-561.529	4.357	0.085	-0.062
-560.515	-175.996	0.205	-0.005
-559.500	124.819	-0.098	0.123
-558.485	-35.363	-0.234	-0.127
-557.471	188.304	0.075	-0.111
-556.456	596.861	0.065	0.161
-555.442	800.000	0.068	0.215
-554.427	-200.000	0.051	0.250
-553.412	-151.074	0.288	0.022
-552.398	55.601	-0.139	-0.134
-551.383	-66.081	0.175	0.070
-550.369	-76.713	-0.038	-0.013
-549.354	266.891	0.132	-0.230
-548.339	547.345	0.113	0.269
-547.325	-56.124	-0.143	0.064
-546.310	217.969	-0.145	0.231
-545.296	-64.428	0.115	-0.047
-544.281	800.000	-0.043	0.128
-543.266	86.316	-0.032	-0.035
-542.252	-78.211	0.282	0.097
-541.237	141.458	-0.242	-0.319
-540.223	106.495	0.139	0.165
-539.208	-59.670	-0.097	-0.041
-538.193	69.084	0.175	0.180
-537.179	70.609	-0.200	-0.206
-536.164	-115.526	0.262	-0.049
-535.150	-121.652	-0.236	-0.039
-534.135	-123.570	0.192	-0.030
-533.121	-28.645	0.012	-0.007
-532.106	-42.785	0.234	-0.119
-531.091	-12.653	0.300	0.195
-530.077	18.366	-0.153	0.122
-529.062	-83.480	0.168	-0.053
-528.048	244.729	-0.050	0.084
-527.033	-42.014	-0.157	-0.080
-526.018	256.555	-0.223	0.381
-525.004	-200.000	-0.045	0.237
-523.989	-110.366	0.039	-0.008
-522.975	130.944	-0.142	0.181
-521.960	-200.000	-0.017	0.110
-520.945	36.569	-0.189	0.166
-519.931	770.305	-0.103	-0.278
-518.916	229.152	0.068	-0.111
-517.902	584.451	0.003	-0.009
-516.887	800.000	-0.057	0.203
-515.872	800.000	-0.066	-0.260
-514.858	7.594	-0.141	-0.105
-513.843	-81.708	0.199	-0.065
-512.829	-0.189	-0.114	0.081
-511.814	-68.641	0.269	0.104
-510.799	-72.752	-0.415	0.152
-509.785	-20.772	-0.180	0.110
-508.770	86.534	0.115	0.127
-507.756	800.000	-0.079	0.306
-506.741	-200.000	0.005	0.321
-505.726	43.913	-0.148	0.135
-504.712	48.636	-0.071	-0.066
-503.697	-14.917	-0.308	-0.197
-502.683	-200.000	0.004	-0.284
-501.668	-128.176	0.229	0.033
-500.653	87.568	0.164	-0.181
-499.639	-200.000	-0.039	-0.355
-498.624	-200.000	0.039	-0.226
-497.610	-154.497	0.193	0.013
-496.595	177.170	0.009	-0.012
-495.581	-158.528	-0.649	-0.037
-494.566	-200.000	-0.021	0.107
-493.551	-63.785	-0.041	0.017
-492.537	60.912	-0.058	-0.057
-491.522	-88.975	0.166	-0.049
-490.508	116.656	0.051	0.062
-489.493	-5.930	-0.059	-0.040
-488.478	-102.651	-0.548	0.130
-487.464	130.693	0.049	0.063
-486.449	-172.733	0.197	-0.006
-485.435	-7.765	-0.257	-0.172
-484.420	800.000	0.074	-0.220
-483.405	-185.767	0.344	-0.005
-482.391	800.000	0.017	0.067
-481.376	33.890	-0.194	0.168
-480.362	362.664	-0.181	0.362
-479.347	-194.207	0.339	-0.003
-478.332	-73.570	-0.111	0.040
-477.318	-98.755	-0.137	-0.035
-476.303	118.166	0.102	-0.125
-475.289	47.758	-0.149	0.138
-474.274	800.000	-0.149	0.587
-473.259	-138.998	-0.038	0.004
-472.245	-115.637	0.282	0.053
-471.230	-107.540	-0.256	-0.056
-470.216	-29.661	-0.250	0.142
-469.201	-200.000	0.003	-0.033
-468.186	-99.675	0.264	0.066
-467.172	455.758	-0.081	-0.178
-466.157	-171.123	-0.240	-0.008
-465.143	-79.462	0.108	0.036
-464.128	46.714	-0.158	0.145
-463.113	-121.700	-0.211	-0.035
-462.099	-200.000	-0.048	0.302
-461.084	87.265	-0.074	-0.081
-460.070	-200.000	-0.007	0.281
-459.055	767.259	0.054	0.147
-458.040	-148.969	0.177	0.014
-457.026	-131.093	0.405	-0.054
-456.011	189.950	0.199	0.296
-454.997	-23.285	-0.169	-0.101
-453.982	64.686	-0.014	0.014
-452.968	800.000	0.071	-0.262
-451.953	-90.525	-0.252	-0.072
-450.938	128.580	0.222	0.281
-449.924	-128.608	0.091	0.013
-448.909	341.953	0.099	-0.192
-447.895	-14.589	0.181	-0.116
-446.880	-82.667	0.075	-0.024
-445.865	240.012	0.141	-0.233
-444.851	0.850	0.033	0.024
-443.836	-200.000	0.009	0.046
-442.822	-167.804	0.217	0.009
-441.807	9.593	0.243	-0.183
-440.792	-103.116	-0.148	0.035
-439.778	-39.523	-0.401	0.209
-438.763	-200.000	-0.009	0.225
-437.749	-41.385	0.275	0.140
-436.734	-139.587	0.170	0.018
-435.719	-28.191	0.383	-0.220
-434.705	-200.000	-0.018	-0.404
-433.690	-147.733	-0.072	0.006
-432.676	239.942	0.161	-0.266
-431.661	43.634	-0.310	-0.281
-430.646	184.112	0.055	0.080
-429.632	-200.000	0.024	0.374
-428.617	240.468	-0.105	0.173
-427.603	-24.482	-0.433	-0.256
-426.588	-55.279	-0.170	-0.076
-425.573	-50.321	0.328	0.154
-424.559	29.161	0.081	0.068
-423.544	-181.784	0.324	0.006
-422.530	194.748	-0.034	0.051
-421.515	-132.361	-0.338	-0.043
-420.500	169.718	0.057	-0.081
-419.486	800.000	0.065	-0.233
-418.471	-23.235	0.107	0.064
-417.457	-42.727	-0.259	0.131
-416.442	151.408	-0.121	0.164
-415.428	-60.450	0.351	-0.148
-414.413	-42.166	-0.267	-0.136
-413.398	30.440	0.225	-0.191
-412.384	800.000	-0.011	-0.041
-411.369	-90.484	0.185	-0.053
-410.355	-99.268	0.157	-0.039
-409.340	216.237	0.058	0.091
-408.325	-200.000	-0.013	-0.146
-407.311	-31.863	-0.132	-0.073
-406.296	-200.000	0.033	0.185
-405.282	-156.242	0.213	0.013
-404.267	-200.000	0.001	0.018
-403.252	-40.768	0.257	0.132
-402.238	721.934	-0.086	0.227
-401.223	-126.800	0.365	0.053
-400.209	84.520	0.152	0.165
-399.194	173.749	0.072	0.103
-398.179	-200.000	-0.005	0.470
-397.165	256.885	0.055	0.093
-396.150	503.038	0.056	0.129
-395.136	-90.695	0.342	0.098
-394.121	-123.040	-0.440	0.070
-393.106	-13.792	-0.215	-0.138
-392.092	-43.559	0.228	0.114
-391.077	232.131	-0.135	0.220
-390.063	-18.213	0.118	-0.073
-389.048	-200.000	-0.051	-0.274
-388.033	-180.768	0.195	-0.004
-387.019	-32.198	0.203	-0.113
-386.004	83.002	0.082	-0.088
-384.990	-117.437	-0.306	0.055
-383.975	-83.503	0.071	0.022
-382.960	1.724	0.087	-0.062
-381.946	-200.000	0.060	0.303
-380.931	800.000	0.124	0.397
-379.917	-67.060	0.287	-0.112
-378.902	585.700	0.032	0.077
-377.888	-53.572	-0.146	0.066
-376.873	-200.000	0.020	-0.187
-375.858	7.680	0.193	0.143
-374.844	414.664	0.105	0.222
-373.829	-146.532	0.166	-0.014
-372.815	116.150	0.197	-0.239
-371.800	-200.000	0.036	0.268
-370.785	553.232	0.036	0.086
-369.771	-139.498	0.394	0.042
-368.756	-200.000	0.026	-0.189
-367.742	-110.713	-0.264	0.054
-366.727	-200.000	-0.003	-0.131
-365.712	-162.369	-0.016	0.001
-364.698	75.312	0.181	0.189
-363.683	-85.280	-0.221	0.068
-362.669	221.004	0.042	-0.066
-361.654	-105.085	-0.087	-0.020
-360.639	-200.000	0.064	0.285
-359.625	-200.000	-0.037	-0.272
-358.610	-120.682	-0.338	-0.057
-357.596	777.261	-0.111	-0.299
-356.581	312.990	0.177	-0.330
-355.566	204.179	0.313	-0.481
-354.552	268.544	-0.143	-0.248
-353.537	-53.304	0.090	-0.041
-352.523	591.562	-0.124	0.302
-351.508	204.178	-0.190	-0.292
-350.493	-68.254	0.061	-0.023
-349.479	29.866	0.164	-0.138
-348.464	-96.528	-0.107	0.028
-347.450	-38.024	-0.360	-0.189
-346.435	-1.458	0.309	0.216
-345.420	800.000	-0.028	0.114
-344.406	-3.472	-0.215	-0.148
-343.391	-72.823	0.253	-0.092
-342.377	260.173	0.071	0.122
-341.362	-27.582	-0.216	-0.124
-340.348	-200.000	0.009	-0.119
-339.333	66.941	0.164	-0.165
-338.318	-184.757	-0.212	0.003
-337.304	-149.421	-0.186	0.015
-336.289	392.007	-0.059	0.121
-335.275	-74.308	-0.206	0.074
-334.260	-78.874	0.259	-0.087
-333.245	-95.675	0.227	-0.060
-332.231	-3.133	0.149	0.102
-331.216	121.131	-0.172	-0.211
-330.202	91.299	-0.122	0.135
-329.187	-200.000	0.040	-0.231
-328.172	544.944	-0.117	-0.276
-327.158	-200.000	0.032	-0.269
-326.143	25.702	0.201	-0.165
-325.129	1.556	0.229	-0.163
-324.114	110.943	0.165	-0.196
-323.099	-112.891	-0.322	-0.063
-322.085	-110.993	0.006	0.001
-321.070	-24.143	-0.081	-0.048
-320.056	-38.796	0.254	-0.132
-319.041	181.425	-0.064	-0.093
-318.026	34.605	-0.454	0.392
-317.012	-23.250	-0.167	-0.099
-315.997	-139.477	-0.212	-0.022
-314.983	496.691	0.146	0.332
-313.968	18.058	-0.195	-0.154
-312.953	-200.000	-0.011	-0.158
-311.939	800.000	-0.071	0.219
-310.924	-122.943	0.420	0.067
-309.910	-200.000	-0.020	-0.101
-308.895	5.238	-0.224	-0.163
-307.880	2.975	0.137	-0.098
-306.866	230.992	0.119	-0.193
-305.851	-144.937	-0.029	0.003
-304.837	54.918	0.131	0.125
-303.822	-188.944	0.107	0.001
-302.807	-200.000	-0.100	0.622
-301.793	-91.637	0.248	-0.070
-300.778	716.708	0.061	0.161
-299.764	-200.000	0.004	0.157
-298.749	34.551	-0.080	-0.069
-297.735	-64.963	0.360	-0.143
-296.720	-34.329	-0.369	0.200
-295.705	190.809	-0.123	-0.182
-294.691	217.742	-0.238	0.375
-293.676	-143.826	-0.118	-0.011
-292.662	-30.420	0.295	-0.165
-291.647	-66.786	-0.235	0.092
-290.632	184.105	0.205	0.300
-289.618	-155.746	0.287	-0.018
-288.603	-81.485	0.071	0.023
-287.589	-68.904	0.272	0.103
-286.574	-9.933	0.262	-0.172
-285.559	-200.000	-0.010	0.120
-284.545	229.654	0.137	0.221
-283.530	86.257	0.265	-0.288
-282.516	-156.737	0.235	-0.014
-281.501	800.000	-0.076	-0.281
-280.486	477.504	0.027	0.060
-279.472	-33.675	0.264	-0.144
-278.457	-2.636	-0.323	0.223
-277.443	11.313	0.109	0.082
-276.428	6.755	-0.093	0.068
-275.413	-200.000	0.022	-0.169
-274.399	-119.554	-0.188	-0.032
-273.384	241.623	0.118	-0.194
-272.370	282.116	0.088	-0.156
-271.355	-94.734	0.225	0.060
-270.340	-6.107	-0.195	-0.131
-269.326	-200.000	0.017	0.155
-268.311	800.000	-0.050	-0.180
-267.297	51.089	0.075	0.071
-266.282	-200.000	0.033	0.377
-265.267	-20.294	-0.191	0.116
-264.253	800.000	0.054	-0.219
-263.238	-169.063	-0.304	-0.011
-262.224	357.578	-0.102	0.200
-261.209	-10.887	-0.266	-0.173
-260.195	131.200	-0.074	0.094
-259.180	-53.179	0.239	-0.108
-258.165	49.270	0.203	0.188
-257.151	-200.000	0.012	0.416
-256.136	-176.684	0.168	-0.004
-255.122	478.337	0.033	0.074
-254.107	800.000	0.103	-0.319
-253.092	-8.548	-0.385	-0.255
-252.078	-88.743	-0.021	0.006
-251.063	135.655	0.090	-0.116
-250.049	-200.000	-0.018	-0.218
-249.034	151.162	0.163	-0.219
-248.019	-200.000	0.009	0.458
-247.005	183.554	-0.085	-0.124
-245.990	-200.000	0.010	-0.071
-244.976	-27.354	-0.472	-0.271
-243.961	-171.725	0.071	0.002
-242.946	-200.000	-0.046	0.307
-241.932	177.769	-0.036	-0.052
-240.917	76.972	-0.187	0.195
-239.903	-31.531	-0.197	-0.109
-238.888	-200.000	0.003	0.265
-237.873	-186.273	0.181	0.003
-236.859	-92.916	0.061	0.017
-235.844	77.285	0.094	0.098
-234.830	101.154	0.099	0.114
-233.815	154.495	-0.166	-0.224
-232.800	-39.329	0.190	-0.098
-231.786	-200.000	0.013	0.079
-230.771	273.797	0.055	-0.096
-229.757	800.000	0.080	0.244
-228.742	88.802	0.246	0.269
-227.727	-31.641	-0.051	0.028
-226.713	27.649	-0.260	0.215
-225.698	-200.000	0.017	-0.190
-224.684	-140.103	-0.348	0.036
-223.669	-104.204	-0.298	-0.068
-222.655	-51.828	-0.144	0.066
-221.640	12.797	0.357	0.271
-220.625	-200.000	-0.019	0.110
-219.611	220.009	0.126	0.198
-218.596	800.000	-0.089	-0.241
-217.582	283.619	-0.126	-0.223
-216.567	800.000	0.038	-0.142
-215.552	42.216	0.088	0.079
-214.538	-85.057	0.163	-0.050
-213.523	428.772	-0.107	0.228
-212.509	800.000	-0.013	-0.054
-211.494	-200.000	-0.006	-0.369
-210.479	-89.559	0.391	-0.113
-209.465	298.013	0.162	-0.293
-208.450	-200.000	-0.023	0.191
-207.436	-54.277	-0.240	0.107
-206.421	721.506	-0.086	-0.225
-205.406	-73.837	0.176	-0.063
-204.392	-68.080	0.209	0.080
-203.377	555.348	-0.116	-0.274
-202.363	-151.106	-0.421	0.031
-201.348	-43.640	-0.179	0.089
-200.333	-200.000	0.016	0.204
-199.319	-200.000	0.010	-0.203
-198.304	31.000	0.059	0.049
-197.290	-50.903	-0.179	0.083
-196.275	133.914	0.083	-0.106
-195.260	-125.645	-0.230	-0.034
-194.246	-93.524	-0.352	0.096
-193.231	-105.660	0.291	0.065
-192.217	111.188	-0.142	0.169
-191.202	-55.525	-0.287	0.126
-190.187	-170.754	0.107	-0.004
-189.173	241.739	-0.143	-0.235
-188.158	-106.787	-0.091	0.020
-187.144	451.237	0.135	-0.292
-186.129	787.784	-0.099	-0.268
-185.114	800.000	-0.032	0.115
-184.100	-158.072	-0.027	-0.002
-183.085	-37.428	0.335	-0.176
-182.071	-113.582	0.099	0.019
-181.056	278.785	-0.144	-0.252
-180.042	-200.000	0.057	-0.366
-179.027	-200.000	0.060	0.259
-178.012	-45.593	-0.269	0.131
-176.998	-98.017	0.271	-0.069
-175.983	87.978	0.167	-0.182
-174.969	-57.853	-0.491	0.211
-173.954	-200.000	0.015	-0.256
-172.939	56.435	0.345	0.330
-171.925	-59.187	0.145	0.061
-170.910	-140.504	-0.397	0.041
-169.896	-76.053	-0.373	0.130
-168.881	-21.569	0.036	0.022
-167.866	-200.000	-0.019	0.152
-166.852	32.100	0.113	-0.096
-165.837	800.000	0.055	-0.219
-164.823	-45.162	0.111	0.054
-163.808	800.000	0.093	0.323
-162.793	199.561	-0.146	0.219
-161.779	-70.040	-0.230	-0.086
-160.764	-53.218	0.409	0.184
-159.750	20.580	0.182	0.145
-158.735	-65.486	-0.225	-0.089
-157.720	318.293	-0.054	0.100
-156.706	63.679	-0.149	0.147
-155.691	-33.476	0.093	0.051
-154.677	-2.326	0.238	0.164
-153.662	22.295	0.346	-0.277
-152.647	-15.740	-0.073	-0.046
-151.633	85.677	-0.114	-0.123
-150.618	244.138	0.045	-0.075
-149.604	208.392	-0.093	0.143
-148.589	341.474	0.077	0.149
-147.574	-112.253	0.026	-0.005
-146.560	-114.877	0.233	-0.044
-145.545	-191.537	0.473	-0.005
-144.531	800.000	0.018	0.073
-143.516	-200.000	-0.033	0.194
-142.502	350.108	0.085	-0.164
-141.487	564.281	-0.079	0.188
-140.472	800.000	0.038	-0.146
-139.458	-200.000	0.001	0.016
-138.443	277.008	-0.144	-0.251
-137.429	-7.468	0.330	-0.219
-136.414	-200.000	0.023	-0.112
-135.399	33.642	0.029	0.025
-134.385	78.717	0.177	0.186
-133.370	-127.981	0.021	-0.003
-132.356	0.086	0.252	-0.176
-131.341	-39.089	0.307	0.158
-130.326	-156.109	0.241	-0.015
-129.312	-200.000	-0.039	0.259
-128.297	67.196	0.067	-0.067
-127.283	339.545	0.110	0.211
-126.268	-200.000	-0.001	-0.064
-125.253	29.968	0.212	0.178
-124.239	85.623	0.034	0.037
-123.224	263.297	0.091	-0.155
-122.210	322.927	0.056	0.105
-121.195	767.844	0.100	0.268
-120.180	133.249	-0.239	0.303
-119.166	-164.672	0.173	0.008
