DTS Sentinel unit serial number:	SN413079Multiplexer serial number:	ORYXHardware model number:	OX4-SRSoftware version number:	ORYX F/W v4.00 Oryx Data Collector v3.7.2.0data status	okinstallation	princeton_trtdifferential loss correction	single-endedforward channel	channel 2reverse channel	N/Adate	2019/09/13time	20:35:34forward acquisition time	60.00reverse acquisition time	0.00gamma	496.2192k internal	0.2334k external	0.2334temperature offset calibration	1.0135default loss term (dB/km)	0.3790temperature slope calibration	1.0000multiplexer offset coefficient	1.0000multiplexer slope coefficient	1.0000fibre end	0.00T internal ref (°C)	29.00T ext. ref 1 (°C)	3.25T ext. ref 2 (°C)	23.69length (m)	temperature (°C)	Stokes	anti-Stokes-747.200	34.659	0.269	-0.237
-746.185	65.029	0.155	-0.158
-745.171	154.783	0.183	0.253
-744.156	302.347	-0.082	0.152
-743.142	-200.000	-0.012	0.417
-742.127	-25.233	0.186	-0.111
-741.112	64.655	-0.161	-0.163
-740.098	140.498	-0.160	0.212
-739.083	800.000	-0.049	0.141
-738.069	0.874	0.072	-0.052
-737.054	47.297	-0.029	0.027
-736.039	-137.675	0.045	0.005
-735.025	-60.759	0.365	-0.155
-734.010	-72.214	0.147	0.055
-732.996	-200.000	-0.006	0.070
-731.981	406.164	-0.057	0.121
-730.966	-18.347	0.307	-0.193
-729.952	-124.652	-0.173	-0.027
-728.937	-51.379	-0.289	-0.136
-727.923	463.579	0.298	-0.668
-726.908	8.695	-0.174	0.132
-725.894	800.000	0.014	-0.058
-724.879	6.404	0.069	0.051
-723.864	-67.865	-0.163	-0.064
-722.850	-30.063	0.180	-0.103
-721.835	23.036	-0.298	-0.245
-720.821	-51.414	0.090	-0.042
-719.806	-117.156	0.384	0.070
-718.791	-172.146	0.347	0.011
-717.777	-200.000	-0.037	-0.211
-716.762	-200.000	0.002	0.173
-715.748	275.724	-0.066	0.118
-714.733	455.955	0.096	0.213
-713.718	-134.581	0.164	-0.020
-712.704	-11.049	-0.111	0.073
-711.689	-96.633	-0.044	0.012
-710.675	-200.000	-0.008	-0.299
-709.660	-16.866	-0.369	-0.234
-708.645	-200.000	0.000	-0.267
-707.631	119.956	-0.098	0.122
-706.616	-11.539	-0.165	0.109
-705.602	5.735	-0.233	0.173
-704.587	-22.399	0.153	-0.093
-703.572	800.000	-0.124	-0.436
-702.558	-157.356	0.048	0.003
-701.543	-200.000	0.029	-0.311
-700.529	213.918	0.051	-0.080
-699.514	-130.095	0.227	-0.031
-698.499	-200.000	-0.010	-0.251
-697.485	133.847	-0.056	0.073
-696.470	-200.000	0.028	-0.154
-695.456	-184.967	-0.105	0.002
-694.441	-18.082	0.274	0.172
-693.426	62.692	-0.165	-0.166
-692.412	27.827	-0.032	0.027
-691.397	-200.000	0.069	-0.307
-690.383	-50.204	0.126	-0.060
-689.368	10.747	-0.142	0.108
-688.354	89.798	0.293	0.329
-687.339	-88.981	0.068	-0.020
-686.324	562.833	0.052	-0.127
-685.310	-99.007	0.186	-0.047
-684.295	-45.160	-0.430	-0.214
-683.281	-200.000	-0.030	-0.149
-682.266	800.000	0.043	-0.173
-681.251	800.000	0.016	0.044
-680.237	165.853	0.263	-0.373
-679.222	10.680	-0.190	0.146
-678.208	-89.022	0.328	-0.097
-677.193	161.692	-0.237	-0.333
-676.178	-89.800	-0.297	0.087
-675.164	-200.000	0.008	-0.052
-674.149	-200.000	0.008	0.387
-673.135	-29.337	0.196	-0.112
-672.120	120.980	-0.261	0.325
-671.105	-200.000	0.006	-0.120
-670.091	-19.016	-0.178	-0.111
-669.076	-23.790	-0.088	-0.053
-668.062	-115.969	0.380	-0.071
-667.047	50.057	-0.115	0.109
-666.032	800.000	0.078	-0.219
-665.018	800.000	-0.130	-0.433
-664.003	83.466	-0.271	-0.295
-662.989	800.000	-0.051	-0.199
-661.974	132.888	0.183	-0.236
-660.959	344.606	-0.144	-0.284
-659.945	-76.095	0.157	-0.055
-658.930	800.000	-0.085	-0.283
-657.916	580.085	-0.126	-0.310
-656.901	515.343	-0.114	-0.267
-655.886	-200.000	-0.002	-0.264
-654.872	79.434	0.197	0.211
-653.857	160.433	-0.114	0.159
-652.843	-200.000	-0.018	0.291
-651.828	88.519	-0.213	-0.237
-650.814	286.678	0.122	-0.221
-649.799	28.023	-0.118	0.100
-648.784	-152.885	0.353	-0.025
-647.770	-53.773	0.236	-0.108
-646.755	216.461	-0.240	-0.382
-645.741	202.400	0.088	0.136
-644.726	800.000	0.093	0.327
-643.711	-107.963	0.173	-0.038
-642.697	118.193	-0.138	-0.170
-641.682	-148.281	0.190	0.016
-640.668	213.018	-0.045	-0.070
-639.653	135.132	0.161	-0.210
-638.638	-38.721	-0.081	0.043
-637.624	-53.748	-0.105	-0.048
-636.609	-99.461	0.260	-0.066
-635.595	93.756	-0.029	0.033
-634.580	21.954	0.018	-0.014
-633.565	-188.770	0.203	0.002
-632.551	46.819	0.164	0.152
-631.536	-61.568	-0.325	0.137
-630.522	-100.752	0.289	0.071
-629.507	-185.457	-0.347	0.005
-628.492	-120.415	-0.165	-0.028
-627.478	800.000	-0.078	-0.287
-626.463	47.053	0.069	0.065
-625.449	-71.614	-0.108	-0.040
-624.434	-200.000	-0.028	0.171
-623.419	5.104	0.235	-0.173
-622.405	-200.000	-0.002	-0.036
-621.390	-64.400	-0.222	-0.090
-620.376	234.164	0.087	-0.143
-619.361	-200.000	-0.027	0.478
-618.346	-114.568	-0.117	0.022
-617.332	800.000	-0.038	0.156
-616.317	127.575	0.039	-0.049
-615.303	-200.000	-0.063	0.564
-614.288	-197.581	-0.260	-0.002
-613.273	332.250	0.066	-0.128
-612.259	-15.127	-0.251	-0.160
-611.244	-103.210	0.126	0.030
-610.230	-85.202	0.186	0.058
-609.215	158.358	0.130	-0.181
-608.201	800.000	-0.133	-0.394
-607.186	-200.000	0.000	-0.042
-606.171	-84.558	0.215	-0.068
-605.157	-200.000	0.004	0.024
-604.142	502.205	-0.097	-0.223
-603.128	15.505	0.068	-0.053
-602.113	800.000	0.080	0.299
-601.098	76.010	-0.058	0.061
-600.084	-86.293	0.089	0.027
-599.069	-117.080	-0.056	0.010
-598.055	-200.000	0.007	-0.336
-597.040	245.439	0.186	-0.314
-596.025	-171.776	-0.376	0.012
-595.011	-111.434	0.469	-0.095
-593.996	800.000	-0.067	0.218
-592.982	-108.246	-0.055	-0.012
-591.967	2.512	0.333	0.241
-590.952	-91.044	0.054	0.015
-589.938	-73.089	0.016	-0.006
-588.923	-188.321	-0.138	0.002
-587.909	291.179	0.095	-0.173
-586.894	-57.760	-0.220	-0.096
-585.879	67.300	-0.089	-0.091
-584.865	-37.306	0.171	-0.091
-583.850	115.267	0.082	-0.101
-582.836	-200.000	-0.058	0.270
-581.821	73.213	0.075	0.078
-580.806	-138.391	-0.750	0.083
-579.792	100.437	0.117	-0.136
-578.777	353.503	0.196	0.389
-577.763	-145.650	-0.303	0.027
-576.748	131.103	0.142	0.182
-575.733	-200.000	-0.011	-0.096
-574.719	-166.896	-0.334	-0.014
-573.704	450.485	0.055	0.122
-572.690	-200.000	-0.017	-0.145
-571.675	453.583	-0.149	0.330
-570.661	-48.164	-0.128	-0.062
-569.646	-120.515	0.269	-0.046
-568.631	129.529	0.254	0.323
-567.617	368.536	-0.099	0.201
-566.602	-68.136	-0.327	-0.127
-565.588	-8.179	-0.059	-0.040
-564.573	-6.484	0.125	-0.085
-563.558	800.000	-0.087	0.267
-562.544	51.073	-0.370	0.351
-561.529	699.499	0.088	-0.232
-560.515	-98.560	-0.126	0.032
-559.500	-95.539	0.301	-0.081
-558.485	-200.000	0.005	-0.105
-557.471	222.149	-0.097	-0.156
-556.456	79.995	0.072	0.077
-555.442	41.373	-0.232	-0.210
-554.427	-135.357	-0.301	0.036
-553.412	-15.966	-0.089	-0.057
-552.398	434.845	-0.111	-0.241
-551.383	-26.040	-0.102	0.060
-550.369	-150.545	-0.372	0.028
-549.354	-40.146	0.310	-0.161
-548.339	-81.994	0.277	0.090
-547.325	-110.668	-0.061	-0.013
-546.310	560.652	-0.034	0.083
-545.296	-153.427	0.092	0.006
-544.281	-55.551	-0.121	0.054
-543.266	-126.473	-0.195	-0.029
-542.252	800.000	0.037	-0.119
-541.237	-49.670	-0.216	-0.103
-540.223	-200.000	0.002	0.159
-539.208	-79.888	0.286	-0.096
-538.193	15.057	-0.046	0.036
-537.179	334.099	0.177	0.342
-536.164	-45.920	0.047	-0.023
-535.150	99.502	-0.078	0.090
-534.135	-76.183	0.338	0.119
-533.121	-71.603	0.190	0.071
-532.106	5.726	0.106	-0.078
-531.091	23.502	0.273	-0.223
-530.077	-103.094	-0.099	0.023
-529.062	-21.513	-0.093	0.057
-528.048	115.050	0.275	-0.334
-527.033	-131.668	0.141	0.018
-526.018	69.979	-0.062	-0.064
-525.004	-87.321	-0.057	-0.017
-523.989	14.123	-0.195	-0.151
-522.975	800.000	0.080	0.238
-521.960	800.000	-0.057	0.169
-520.945	-158.286	-0.145	-0.008
-519.931	101.445	0.249	-0.289
-518.916	-134.106	0.126	-0.016
-517.902	-89.566	0.443	-0.130
-516.887	4.124	-0.168	-0.123
-515.872	-95.624	-0.123	-0.033
-514.858	122.662	0.078	0.097
-513.843	-15.066	-0.181	0.116
-512.829	-157.599	0.156	-0.009
-511.814	-137.719	-0.366	-0.041
-510.799	-200.000	-0.017	-0.232
-509.785	35.004	-0.119	0.104
-508.770	413.789	0.118	-0.249
-507.756	417.680	0.034	-0.072
-506.741	440.245	-0.130	-0.284
-505.726	-113.956	0.226	-0.044
-504.712	800.000	-0.051	-0.217
-503.697	-58.393	-0.380	0.164
-502.683	135.494	0.087	-0.113
-501.668	-23.905	-0.101	-0.060
-500.653	-30.304	-0.160	-0.091
-499.639	327.591	0.024	0.045
-498.624	-52.421	0.119	0.055
-497.610	411.189	-0.114	-0.241
-496.595	-191.015	-0.389	0.004
-495.581	14.948	-0.095	0.074
-494.566	365.796	0.096	0.192
-493.551	800.000	-0.074	0.310
-492.537	-21.409	-0.252	0.153
-491.522	23.913	0.185	0.152
-490.508	264.491	-0.029	-0.050
-489.493	91.277	0.135	-0.151
-488.478	107.721	0.199	-0.236
-487.464	800.000	-0.042	0.174
-486.449	-187.210	-0.221	0.003
-485.435	-49.896	-0.222	0.105
-484.420	-61.117	0.127	-0.053
-483.405	22.000	-0.205	-0.166
-482.391	800.000	-0.039	-0.128
-481.376	40.319	-0.262	-0.235
-480.362	-114.904	-0.266	-0.050
-479.347	384.919	0.028	0.058
-478.332	155.849	0.097	0.133
-477.318	-64.637	-0.122	-0.049
-476.303	800.000	-0.018	-0.071
-475.289	50.278	-0.148	-0.139
-474.274	57.059	-0.199	-0.193
-473.259	-52.002	-0.229	0.106
-472.245	-70.314	0.199	0.075
-471.230	-64.097	-0.283	0.115
-470.216	-140.446	0.217	-0.023
-469.201	-15.565	0.159	0.101
-468.186	800.000	-0.136	-0.491
-467.172	-69.188	0.205	0.078
-466.157	-99.091	-0.132	0.033
-465.143	202.058	0.019	-0.030
-464.128	66.131	-0.062	0.063
-463.113	390.047	-0.053	0.109
-462.099	-51.477	-0.108	-0.050
-461.084	174.549	0.173	-0.249
-460.070	14.197	0.194	0.151
-459.055	800.000	0.056	-0.232
-458.040	800.000	-0.035	-0.131
-457.026	800.000	-0.050	0.145
-456.011	94.397	-0.210	0.237
-454.997	429.215	-0.057	-0.123
-453.982	439.968	0.125	0.270
-452.968	70.675	-0.203	-0.209
-451.953	471.230	-0.081	-0.180
-450.938	-5.357	-0.087	-0.059
-449.924	444.387	0.068	-0.148
-448.909	800.000	0.015	0.042
-447.895	79.433	-0.002	0.002
-446.880	9.414	0.282	0.212
-445.865	493.153	0.106	0.240
-444.851	207.829	-0.217	0.336
-443.836	-117.139	-0.334	-0.060
-442.822	374.436	-0.067	-0.136
-441.807	237.136	-0.046	-0.076
-440.792	800.000	0.046	0.157
-439.778	138.058	0.085	0.111
-438.763	-97.704	0.105	0.027
-437.749	110.303	-0.108	0.129
-436.734	-157.394	-0.170	0.010
-435.719	384.537	0.063	-0.128
-434.705	-67.218	0.358	-0.140
-433.690	-103.054	-0.127	-0.030
-432.676	-139.205	0.329	-0.035
-431.661	-22.311	0.286	0.172
-430.646	-111.196	-0.153	0.031
-429.632	11.003	-0.154	0.117
-428.617	-200.000	0.010	0.126
-427.603	-92.649	-0.244	-0.068
-426.588	-39.750	-0.285	-0.148
-425.573	-151.032	-0.302	0.023
-424.559	-45.334	0.081	-0.040
-423.544	-11.546	0.094	-0.062
-422.530	-58.975	-0.256	0.110
-421.515	30.221	-0.023	0.020
-420.500	-171.142	0.260	0.009
-419.486	800.000	-0.091	-0.308
-418.471	83.880	-0.167	-0.181
-417.457	545.324	-0.041	-0.098
-416.442	25.387	0.155	-0.128
-415.428	75.830	-0.368	-0.386
-414.413	-104.587	-0.320	-0.073
-413.398	-155.159	0.267	-0.017
-412.384	-181.644	0.133	-0.003
-411.369	-200.000	-0.029	0.221
-410.355	-52.560	-0.064	-0.029
-409.340	-194.944	-0.140	0.001
-408.325	-200.000	0.029	-0.344
-407.311	-16.183	0.320	0.202
-406.296	77.363	-0.181	0.191
-405.282	33.448	0.108	-0.093
-404.267	800.000	-0.030	-0.122
-403.252	-55.087	0.291	0.130
-402.238	454.439	-0.027	-0.058
-401.223	-83.470	-0.207	0.066
-400.209	-141.602	-0.396	-0.040
-399.194	800.000	-0.039	-0.138
-398.179	-136.252	0.054	-0.006
-397.165	474.121	-0.091	0.202
-396.150	217.679	0.184	-0.291
-395.136	259.656	0.037	0.063
-394.121	-131.134	-0.278	-0.037
-393.106	440.224	0.127	-0.275
-392.092	158.531	0.044	0.060
-391.077	-14.112	0.234	0.149
-390.063	321.666	-0.100	-0.188
-389.048	800.000	-0.048	0.163
-388.033	322.376	-0.107	-0.201
-387.019	-35.612	-0.112	0.060
-386.004	-7.114	0.328	0.221
-384.990	-57.207	-0.155	-0.067
-383.975	358.631	0.047	0.094
-382.960	-5.063	-0.146	-0.099
-381.946	-45.080	0.148	0.073
-380.931	-21.385	-0.214	0.129
-379.917	-200.000	0.017	0.175
-378.902	72.637	-0.160	-0.165
-377.888	105.327	-0.038	-0.045
-376.873	-87.074	0.300	0.090
-375.858	-200.000	-0.020	0.320
-374.844	-65.667	-0.132	-0.052
-373.829	46.307	0.337	0.310
-372.815	-116.437	-0.224	0.041
-371.800	407.965	-0.119	-0.250
-370.785	-83.092	-0.366	0.117
-369.771	64.850	-0.175	-0.175
-368.756	-139.685	0.131	-0.014
-367.742	-74.805	-0.071	0.025
-366.727	-85.080	-0.305	0.094
-365.712	389.477	-0.122	0.250
-364.698	14.153	0.213	-0.164
-363.683	-4.401	-0.128	-0.088
-362.669	-200.000	0.032	0.183
-361.654	-11.701	0.228	-0.148
-360.639	800.000	0.045	0.136
-359.625	140.298	0.046	0.060
-358.610	9.402	-0.092	-0.069
-357.596	160.659	-0.233	-0.322
-356.581	-200.000	0.029	0.132
-355.566	-66.626	0.221	0.087
-354.552	-125.493	-0.078	-0.012
-353.537	-57.176	-0.249	-0.108
-352.523	-21.860	-0.231	-0.139
-351.508	-200.000	-0.017	-0.291
-350.493	-42.136	0.119	-0.060
-349.479	1.729	-0.105	0.075
-348.464	52.737	0.223	0.211
-347.450	-119.436	-0.206	0.035
-346.435	-200.000	-0.002	-0.045
-345.420	-47.674	0.362	-0.174
-344.406	-200.000	0.004	0.193
-343.391	268.369	0.094	0.163
-342.377	-117.049	-0.390	-0.070
-341.362	-15.776	0.200	-0.126
-340.348	22.236	-0.200	0.162
-339.333	-20.521	0.244	-0.148
-338.318	305.727	-0.056	0.103
-337.304	-200.000	-0.003	0.218
-336.289	-200.000	0.045	-0.286
-335.275	-63.379	-0.209	-0.085
-334.260	-112.362	0.301	-0.060
-333.245	-32.365	-0.092	0.051
-332.231	75.268	0.242	0.253
-331.216	76.016	0.052	0.054
-330.202	800.000	0.075	0.252
-329.187	-68.059	0.453	-0.175
-328.172	-55.566	0.279	-0.124
-327.158	250.506	0.048	-0.081
-326.143	-107.195	-0.315	0.069
-325.129	52.766	-0.105	0.099
-324.114	168.251	0.302	0.426
-323.099	259.954	0.106	0.181
-322.085	-200.000	0.025	-0.295
-321.070	-200.000	0.076	-0.384
-320.056	-200.000	0.009	0.389
-319.041	-200.000	0.078	0.349
-318.026	95.245	-0.030	0.034
-317.012	-5.338	0.386	0.262
-315.997	166.906	0.057	-0.080
-314.983	-44.763	-0.259	0.128
-313.968	49.228	0.263	-0.245
-312.953	302.581	-0.171	-0.312
-311.939	800.000	0.082	-0.236
-310.924	-200.000	-0.000	-0.014
-309.910	-200.000	0.044	0.313
-308.895	222.949	0.082	0.131
-307.880	-135.151	0.302	0.036
-306.866	-78.827	0.179	0.060
-305.851	-86.704	0.211	0.064
-304.837	262.459	-0.094	-0.162
-303.822	74.779	0.160	-0.167
-302.807	299.470	-0.116	-0.211
-301.793	-20.055	0.083	0.050
-300.778	295.087	0.149	-0.269
-299.764	104.318	-0.170	0.198
-298.749	141.962	0.157	0.205
-297.735	-200.000	-0.017	0.142
-296.720	219.820	-0.099	-0.157
-295.705	322.613	0.166	-0.312
-294.691	270.613	0.104	0.180
-293.676	208.084	-0.078	0.120
-292.662	-119.315	-0.334	-0.057
-291.647	-2.012	-0.081	-0.056
-290.632	72.426	-0.224	0.231
-289.618	-200.000	-0.005	0.103
-288.603	189.996	0.046	-0.069
-287.589	-200.000	-0.038	0.412
-286.574	-23.425	0.197	0.117
-285.559	143.648	0.176	-0.231
-284.545	99.618	-0.138	-0.158
-283.530	442.414	-0.060	-0.131
-282.516	232.436	0.273	-0.443
-281.501	85.860	0.138	0.149
-280.486	-200.000	0.036	0.220
-279.472	-81.362	0.458	-0.149
-278.457	53.330	0.032	0.031
-277.443	-195.366	-0.145	0.001
-276.428	298.288	0.213	0.387
-275.413	-97.854	-0.025	0.006
-274.399	382.839	-0.108	-0.219
-273.384	-78.937	-0.099	0.033
-272.370	-200.000	-0.011	0.302
-271.355	-200.000	0.017	0.132
-270.340	-200.000	-0.022	0.131
-269.326	108.879	0.105	0.124
-268.311	-200.000	0.001	-0.042
-267.297	247.098	0.112	-0.187
-266.282	-200.000	0.044	-0.220
-265.267	139.887	-0.122	0.159
-264.253	66.518	-0.120	0.120
-263.238	34.710	-0.300	0.259
-262.224	-109.007	0.295	0.062
-261.209	140.556	-0.135	-0.175
-260.195	-156.061	-0.266	0.017
-259.180	678.049	-0.108	-0.277
-258.165	129.794	0.168	-0.212
-257.151	500.648	0.034	-0.078
-256.136	-116.321	-0.083	0.015
-255.122	-200.000	0.008	-0.067
-254.107	57.232	-0.171	0.165
-253.092	-139.028	0.239	0.026
-252.078	-200.000	-0.013	-0.096
-251.063	-112.907	0.217	0.042
-250.049	607.715	0.196	0.482
-249.034	632.625	-0.114	0.284
-248.019	211.235	-0.133	-0.207
-247.005	636.299	0.085	-0.214
-245.990	-84.901	0.081	0.025
-244.976	-59.309	-0.043	0.018
-243.961	-200.000	-0.002	-0.068
-242.946	32.012	-0.083	0.070
-241.932	-200.000	-0.006	0.133
-240.917	-200.000	0.071	-0.321
-239.903	-200.000	0.019	0.089
-238.888	241.533	-0.068	-0.111
-237.873	-200.000	-0.055	-0.285
-236.859	-36.658	0.162	0.086
-235.844	-133.998	0.124	-0.015
-234.830	376.049	0.065	-0.132
-233.815	276.256	0.129	-0.226
-232.800	-79.179	0.189	-0.063
-231.786	-82.821	-0.086	0.027
-230.771	-134.202	0.283	-0.034
-229.757	629.320	0.036	-0.090
-228.742	-200.000	-0.022	0.277
-227.727	800.000	-0.044	0.125
-226.713	42.709	-0.301	0.270
-225.698	21.412	0.212	-0.169
-224.684	96.839	-0.189	-0.214
-223.669	655.847	-0.033	-0.085
-222.655	355.886	-0.117	-0.229
-221.640	-193.271	0.158	-0.001
-220.625	-45.146	-0.204	-0.100
-219.611	311.966	0.195	0.361
-218.596	-179.640	0.168	0.004
-217.582	-159.812	0.265	0.014
-216.567	-200.000	0.198	-0.001
-215.552	-56.986	0.226	-0.098
-214.538	800.000	0.036	0.112
-213.523	291.503	0.070	-0.125
-212.509	45.923	0.147	0.134
-211.494	344.110	-0.086	0.165
-210.479	-163.114	0.203	-0.010
-209.465	-20.862	-0.131	-0.079
-208.450	155.185	-0.281	0.380
-207.436	27.372	0.230	0.190
-206.421	75.080	0.229	0.238
-205.406	-97.293	0.176	-0.045
-204.392	137.018	-0.089	0.115
-203.377	11.764	0.154	0.116
-202.363	19.181	0.125	-0.099
-201.348	161.053	-0.044	-0.060
-200.333	55.396	0.190	0.181
-199.319	800.000	0.121	-0.330
-198.304	-200.000	-0.025	-0.254
-197.290	148.066	-0.041	-0.054
-196.275	-78.381	-0.283	-0.095
-195.260	800.000	0.018	0.072
-194.246	-182.510	-0.141	0.003
-193.231	185.463	0.305	0.446
-192.217	-200.000	0.036	0.170
-191.202	-134.130	0.173	0.021
-190.187	273.026	-0.028	-0.048
-189.173	-145.334	0.160	0.014
-188.158	800.000	0.004	0.013
-187.144	-164.794	0.269	-0.012
-186.129	-37.953	0.049	-0.026
-185.114	-123.876	-0.295	0.046
-184.100	-200.000	-0.005	0.092
-183.085	-104.388	-0.124	0.028
-182.071	-200.000	-0.047	0.244
-181.056	266.437	-0.132	-0.226
-180.042	315.978	-0.170	-0.316
-179.027	-173.107	0.244	0.007
-178.012	-98.998	-0.205	0.051
-176.998	417.694	0.140	0.294
-175.983	81.781	0.255	0.272
-174.969	-29.385	-0.305	0.172
-173.954	-200.000	0.010	0.063
-172.939	348.905	0.189	-0.367
-171.925	218.977	0.152	-0.238
-170.910	310.040	0.057	0.104
-169.896	-92.348	-0.225	0.062
-168.881	82.595	-0.066	-0.070
-167.866	-8.809	0.170	0.112
-166.852	800.000	0.014	0.044
-165.837	8.227	-0.206	-0.152
-164.823	800.000	-0.035	-0.136
-163.808	-134.247	0.251	-0.030
-162.793	-56.581	0.176	-0.077
-161.779	-25.240	-0.101	0.059
-160.764	102.648	-0.234	-0.269
-159.750	-24.562	0.127	-0.074
-158.735	34.629	-0.234	0.201
-157.720	-200.000	0.060	0.322
-156.706	330.609	-0.110	0.208
-155.691	-140.483	-0.476	-0.049
-154.677	-5.830	0.154	0.103
-153.662	-41.741	0.138	0.070
-152.647	-172.052	-0.055	0.002
-151.633	-22.027	-0.336	-0.200
-150.618	592.590	0.066	0.161
-149.604	353.135	0.089	0.174
-148.589	27.341	0.178	0.147
-147.574	375.393	0.120	-0.240
-146.560	800.000	0.080	0.330
-145.545	36.230	0.076	-0.066
-144.531	-89.970	-0.094	-0.027
-143.516	800.000	0.058	-0.197
-142.502	-74.834	-0.292	-0.103
-141.487	-192.909	-0.398	-0.004
-140.472	349.422	-0.123	0.239
-139.458	-200.000	0.007	0.258
-138.443	259.992	0.109	0.185
-137.429	800.000	-0.052	-0.152
-136.414	-121.947	0.077	0.012
-135.399	-84.651	-0.194	0.060
-134.385	800.000	-0.055	0.163
-133.370	184.613	-0.087	-0.127
-132.356	-34.329	-0.210	-0.113
-131.341	3.051	0.015	0.011
-130.326	637.932	-0.108	-0.270
-129.312	800.000	0.039	0.123
-128.297	39.149	-0.225	-0.197
-127.283	800.000	-0.037	0.140
-126.268	117.299	-0.097	0.117
-125.253	4.801	-0.064	-0.046
-124.239	-82.176	0.124	-0.040
-123.224	-200.000	-0.011	0.143
-122.210	-66.778	0.026	0.010
-121.195	-81.984	0.090	-0.029
