DTS Sentinel unit serial number:	SN413079Multiplexer serial number:	ORYXHardware model number:	OX4-SRSoftware version number:	ORYX F/W v4.00 Oryx Data Collector v3.7.2.0data status	okinstallation	princeton_trtdifferential loss correction	single-endedforward channel	channel 2reverse channel	N/Adate	2019/09/15time	03:15:35forward acquisition time	60.00reverse acquisition time	0.00gamma	496.2192k internal	0.2326k external	0.2326temperature offset calibration	1.0031default loss term (dB/km)	0.3790temperature slope calibration	1.0000multiplexer offset coefficient	1.0000multiplexer slope coefficient	1.0000fibre end	0.00T internal ref (°C)	31.12T ext. ref 1 (°C)	4.58T ext. ref 2 (°C)	25.71length (m)	temperature (°C)	Stokes	anti-Stokes-747.200	-200.000	-0.048	-0.272
-746.185	583.026	-0.089	0.220
-745.171	96.379	-0.041	0.047
-744.156	19.632	-0.158	0.128
-743.142	23.672	-0.290	0.241
-742.127	84.336	-0.295	0.325
-741.112	-61.722	-0.150	-0.063
-740.098	-36.533	-0.101	-0.055
-739.083	-0.924	0.128	0.091
-738.069	358.505	0.102	0.205
-737.054	-200.000	-0.063	0.279
-736.039	139.448	-0.089	0.118
-735.025	-200.000	-0.060	0.306
-734.010	389.842	-0.132	-0.277
-732.996	408.347	-0.062	0.133
-731.981	-18.583	-0.233	0.146
-730.966	-23.385	0.094	0.057
-729.952	-74.462	-0.111	0.041
-728.937	-69.294	-0.261	-0.101
-727.923	-68.082	-0.329	-0.129
-726.908	-82.214	0.310	0.102
-725.894	201.693	-0.088	0.137
-724.879	26.717	0.051	0.043
-723.864	-200.000	0.013	0.123
-722.850	50.544	-0.274	0.261
-721.835	-17.748	-0.307	-0.194
-720.821	67.888	-0.071	0.073
-719.806	464.259	0.131	0.296
-718.791	-96.140	-0.290	0.078
-717.777	-200.000	-0.026	0.212
-716.762	-113.156	-0.256	-0.051
-715.748	-94.233	-0.153	0.042
-714.733	-125.057	-0.081	0.013
-713.718	-174.551	-0.040	-0.001
-712.704	-88.530	0.335	-0.101
-711.689	478.563	-0.064	-0.146
-710.675	149.772	-0.289	-0.395
-709.660	-200.000	-0.009	0.061
-708.645	124.150	0.103	0.130
-707.631	367.846	0.118	0.240
-706.616	352.445	0.177	0.353
-705.602	200.866	0.187	0.290
-704.587	25.860	0.290	0.244
-703.572	800.000	0.107	-0.447
-702.558	800.000	0.067	-0.196
-701.543	280.240	0.142	0.255
-700.529	36.044	0.113	0.100
-699.514	-34.568	0.275	-0.152
-698.499	-42.184	-0.246	-0.127
-697.485	56.074	-0.071	-0.070
-696.470	-155.433	-0.213	-0.014
-695.456	56.324	0.164	0.160
-694.441	800.000	0.088	-0.303
-693.426	105.484	-0.041	-0.048
-692.412	-200.000	0.012	-0.064
-691.397	120.688	0.167	-0.210
-690.383	800.000	0.019	0.061
-689.368	198.932	-0.178	0.274
-688.354	37.942	-0.289	0.259
-687.339	509.830	0.174	-0.408
-686.324	-69.235	-0.263	0.102
-685.310	155.464	-0.195	-0.270
-684.295	-4.187	0.149	0.104
-683.281	-200.000	-0.041	-0.292
-682.266	684.135	0.050	-0.132
-681.251	-200.000	-0.026	0.246
-680.237	78.078	-0.144	-0.155
-679.222	168.003	-0.056	0.080
-678.208	-200.000	-0.021	-0.186
-677.193	-77.227	0.037	0.013
-676.178	-46.489	-0.172	0.085
-675.164	242.443	0.133	0.224
-674.149	800.000	0.145	-0.406
-673.135	-6.034	0.172	0.119
-672.120	-200.000	-0.031	0.273
-671.105	-25.185	0.211	0.126
-670.091	-90.074	-0.149	0.044
-669.076	-133.503	0.224	-0.028
-668.062	540.310	-0.077	-0.185
-667.047	506.663	0.118	-0.274
-666.032	-142.696	0.200	0.020
-665.018	-46.426	0.116	0.057
-664.003	113.272	-0.097	-0.118
-662.989	-123.530	-0.228	0.037
-661.974	-5.747	-0.034	-0.023
-660.959	-167.723	-0.400	0.016
-659.945	-200.000	0.004	0.188
-658.930	315.060	-0.105	0.198
-657.916	-200.000	-0.011	-0.160
-656.901	11.946	0.202	-0.156
-655.886	24.385	-0.153	-0.127
-654.872	-126.122	-0.321	-0.048
-653.857	191.865	0.056	0.085
-652.843	31.037	0.117	0.101
-651.828	-12.976	0.178	0.116
-650.814	800.000	-0.104	-0.446
-649.799	-22.507	-0.122	0.074
-648.784	-200.000	-0.027	0.140
-647.770	456.613	-0.039	-0.088
-646.755	234.171	0.034	0.056
-645.741	800.000	0.082	0.235
-644.726	-200.000	-0.007	0.078
-643.711	-127.153	0.053	0.008
-642.697	800.000	0.085	0.312
-641.682	188.372	-0.121	0.182
-640.668	-144.454	0.092	-0.009
-639.653	-200.000	-0.005	-0.106
-638.638	-200.000	-0.054	0.268
-637.624	154.790	0.072	0.099
-636.609	-100.461	0.364	-0.090
-635.595	-83.564	0.081	-0.026
-634.580	-200.000	0.066	-0.552
-633.565	41.707	-0.135	-0.122
-632.551	515.344	0.008	0.018
-631.536	-3.510	0.192	-0.134
-630.522	342.405	-0.043	0.085
-629.507	299.026	0.025	-0.046
-628.492	-99.033	-0.134	-0.034
-627.478	464.411	-0.075	0.169
-626.463	117.160	0.099	0.122
-625.449	-151.268	0.357	0.027
-624.434	-200.000	-0.022	-0.315
-623.419	-200.000	0.011	0.218
-622.405	-44.184	-0.202	-0.102
-621.390	-42.748	0.297	-0.151
-620.376	800.000	-0.119	-0.462
-619.361	-99.195	-0.351	-0.089
-618.346	-200.000	0.022	-0.203
-617.332	27.200	0.131	0.111
-616.317	-83.826	-0.351	0.112
-615.303	290.216	0.112	-0.205
-614.288	-71.988	-0.230	0.086
-613.273	-156.185	0.369	-0.023
-612.259	-135.370	-0.123	-0.015
-611.244	14.544	0.249	0.195
-610.230	201.924	-0.181	0.280
-609.215	52.833	-0.050	-0.048
-608.201	-200.000	0.027	-0.174
-607.186	-20.965	-0.272	0.167
-606.171	19.238	0.272	-0.219
-605.157	-0.100	-0.264	-0.188
-604.142	800.000	0.026	-0.076
-603.128	-24.609	0.258	-0.154
-602.113	688.726	0.074	-0.195
-601.098	-81.171	-0.286	0.095
-600.084	-200.000	0.010	0.180
-599.069	-75.013	0.044	0.016
-598.055	-49.277	-0.145	-0.069
-597.040	219.161	-0.247	-0.396
-596.025	-35.702	-0.241	0.131
-595.011	-49.636	-0.122	0.058
-593.996	18.831	-0.038	-0.031
-592.982	10.672	0.127	-0.097
-591.967	329.462	-0.069	0.132
-590.952	-38.002	-0.366	0.195
-589.938	664.310	0.020	0.051
-588.923	800.000	-0.071	0.208
-587.909	-166.280	-0.136	-0.006
-586.894	-200.000	0.037	-0.310
-585.879	-100.410	-0.291	0.072
-584.865	440.369	-0.066	-0.145
-583.850	291.098	0.063	-0.115
-582.836	-79.408	-0.095	-0.032
-581.821	472.388	0.187	0.421
-580.806	-200.000	0.017	-0.254
-579.792	-34.045	-0.095	0.053
-578.777	-16.422	-0.317	-0.202
-577.763	68.110	0.098	0.100
-576.748	127.375	-0.138	-0.175
-575.733	-152.519	-0.359	-0.026
-574.719	721.898	0.108	-0.289
-573.704	-130.500	-0.221	-0.030
-572.690	-11.182	0.086	-0.057
-571.675	-200.000	-0.008	-0.068
-570.661	-79.595	0.136	-0.046
-569.646	800.000	0.047	0.160
-568.631	149.738	0.092	-0.125
-567.617	-170.388	0.356	0.012
-566.602	-200.000	0.017	0.137
-565.588	-41.599	-0.134	-0.069
-564.573	246.596	-0.035	-0.059
-563.558	-23.956	-0.172	-0.103
-562.544	800.000	-0.022	-0.066
-561.529	-195.796	0.098	-0.001
-560.515	800.000	-0.053	-0.156
-559.500	-30.913	0.124	-0.070
-558.485	800.000	0.059	0.233
-557.471	-49.464	-0.229	-0.109
-556.456	-173.011	0.299	-0.009
-555.442	800.000	-0.039	0.151
-554.427	95.495	0.043	0.049
-553.412	800.000	-0.070	0.273
-552.398	-18.531	-0.223	0.139
-551.383	82.079	0.176	0.191
-550.369	-137.092	-0.199	0.023
-549.354	-200.000	0.016	-0.097
-548.339	800.000	0.069	-0.264
-547.325	-200.000	-0.018	-0.265
-546.310	197.920	-0.026	0.040
-545.296	-95.427	-0.153	-0.041
-544.281	328.838	-0.184	-0.354
-543.266	579.130	0.162	0.396
-542.252	800.000	0.046	0.147
-541.237	-146.732	-0.340	0.029
-540.223	-200.000	-0.045	-0.516
-539.208	-52.916	0.295	-0.136
-538.193	-39.670	-0.246	-0.129
-537.179	137.794	0.187	0.245
-536.164	-3.454	0.124	0.086
-535.150	-17.814	-0.392	-0.246
-534.135	-127.518	-0.167	0.024
-533.121	-52.114	0.035	0.016
-532.106	132.353	-0.051	-0.066
-531.091	271.499	-0.070	-0.123
-530.077	-200.000	-0.008	-0.121
-529.062	-72.137	-0.234	-0.087
-528.048	52.136	0.461	-0.440
-527.033	800.000	0.093	-0.262
-526.018	800.000	-0.034	0.114
-525.004	-200.000	0.033	0.247
-523.989	81.236	0.280	-0.302
-522.975	-145.784	-0.492	0.044
-521.960	-200.000	0.021	0.141
-520.945	-66.611	0.276	0.109
-519.931	184.067	-0.148	-0.219
-518.916	-95.040	0.058	0.016
-517.902	800.000	-0.012	0.039
-516.887	-140.356	-0.276	0.029
-515.872	111.865	-0.136	-0.165
-514.858	96.525	-0.249	0.285
-513.843	800.000	-0.092	-0.376
-512.829	-66.395	-0.222	0.088
-511.814	-200.000	-0.056	-0.272
-510.799	-123.783	0.429	-0.068
-509.785	-45.079	-0.276	0.137
-508.770	-122.436	-0.409	-0.067
-507.756	-93.143	-0.209	-0.058
-506.741	-156.088	0.199	-0.013
-505.726	184.463	0.229	0.339
-504.712	-124.190	0.245	-0.038
-503.697	-200.000	0.199	-0.001
-502.683	-109.274	-0.264	-0.056
-501.668	297.769	0.100	0.184
-500.653	21.260	-0.086	-0.070
-499.639	-200.000	0.016	0.144
-498.624	-200.000	0.004	0.393
-497.610	-147.447	-0.206	-0.017
-496.595	37.941	0.167	0.148
-495.581	88.624	-0.205	-0.227
-494.566	-200.000	0.020	-0.329
-493.551	77.547	-0.149	-0.158
-492.537	-200.000	0.027	-0.228
-491.522	-145.794	-0.308	0.027
-490.508	-50.470	0.126	0.059
-489.493	800.000	-0.012	-0.048
-488.478	-33.557	0.262	-0.145
-487.464	-58.907	-0.398	-0.172
-486.449	-200.000	-0.024	0.203
-485.435	324.664	-0.182	0.347
-484.420	85.565	-0.085	0.093
-483.405	-142.161	0.234	-0.023
-482.391	800.000	-0.086	0.359
-481.376	-91.125	-0.168	-0.048
-480.362	-175.450	0.059	-0.002
-479.347	-46.464	-0.158	-0.077
-478.332	-42.435	0.125	-0.064
-477.318	-200.000	-0.005	0.316
-476.303	149.048	0.223	0.301
-475.289	447.202	0.126	-0.276
-474.274	800.000	0.048	-0.148
-473.259	-109.486	0.080	0.017
-472.245	-200.000	0.106	-0.480
-471.230	-47.656	-0.167	0.081
-470.216	800.000	0.078	0.237
-469.201	361.185	-0.148	0.297
-468.186	-161.512	-0.138	-0.007
-467.172	308.219	0.140	0.261
-466.157	800.000	-0.091	0.344
-465.143	-52.932	0.159	0.073
-464.128	680.701	-0.102	0.265
-463.113	800.000	-0.036	-0.118
-462.099	-136.952	-0.190	0.022
-461.084	-65.613	-0.423	0.169
-460.070	37.930	-0.089	-0.079
-459.055	259.388	-0.053	0.092
-458.040	449.989	0.081	-0.178
-457.026	-61.531	-0.126	0.053
-456.011	196.651	0.350	-0.531
-454.997	159.853	-0.167	-0.233
-453.982	-200.000	0.024	-0.189
-452.968	458.290	-0.128	-0.284
-451.953	7.539	0.149	0.111
-450.938	-12.288	-0.304	0.198
-449.924	800.000	0.061	-0.186
-448.909	-11.244	-0.097	0.063
-447.895	-200.000	0.050	-0.246
-446.880	53.815	0.309	0.296
-445.865	-8.768	0.173	-0.116
-444.851	-119.955	0.017	-0.003
-443.836	68.638	0.180	-0.184
-442.822	528.798	0.029	-0.068
-441.807	46.906	0.097	0.090
-440.792	68.649	-0.280	0.286
-439.778	-146.062	0.328	-0.029
-438.763	-130.633	-0.365	-0.049
-437.749	14.591	-0.076	-0.059
-436.734	-31.648	0.228	-0.127
-435.719	-43.720	-0.131	0.066
-434.705	185.559	0.099	0.147
-433.690	800.000	-0.050	-0.201
-432.676	800.000	0.103	0.330
-431.661	-52.382	-0.245	0.113
-430.646	-164.429	-0.331	0.015
-429.632	87.401	0.067	0.073
-428.617	-200.000	-0.086	0.000
-427.603	800.000	0.061	-0.167
-426.588	-200.000	0.071	-0.331
-425.573	475.133	-0.045	-0.101
-424.559	-46.737	-0.134	-0.065
-423.544	-185.060	0.273	-0.004
-422.530	-136.686	0.220	0.025
-421.515	-200.000	-0.006	-0.423
-420.500	58.731	-0.087	-0.085
-419.486	21.242	0.095	0.077
-418.471	-173.170	-0.099	-0.003
-417.457	4.029	-0.192	-0.140
-416.442	-75.441	0.316	0.112
-415.428	368.847	-0.160	-0.323
-414.413	-54.441	0.216	-0.098
-413.398	-72.939	-0.147	-0.054
-412.384	-36.151	0.365	-0.196
-411.369	135.145	0.165	0.213
-410.355	-80.032	0.149	-0.050
-409.340	-99.416	0.182	0.046
-408.325	-200.000	-0.013	0.249
-407.311	800.000	-0.030	-0.103
-406.296	607.518	0.088	0.219
-405.282	-118.117	0.374	0.066
-404.267	800.000	-0.022	0.075
-403.252	93.492	0.245	-0.276
-402.238	-200.000	-0.013	-0.237
-401.223	-200.000	-0.008	-0.133
-400.209	-87.876	0.095	0.028
-399.194	-157.425	0.196	0.012
-398.179	-200.000	-0.024	-0.329
-397.165	-200.000	0.002	-0.010
-396.150	272.859	-0.212	0.372
-395.136	411.200	-0.096	0.202
-394.121	-133.009	-0.363	-0.046
-393.106	-200.000	0.003	-0.031
-392.092	4.511	-0.229	-0.167
-391.077	-164.979	-0.302	0.013
-390.063	58.575	0.130	-0.127
-389.048	242.456	-0.088	-0.146
-388.033	-200.000	-0.020	0.109
-387.019	-48.630	0.144	0.069
-386.004	-46.407	0.307	0.150
-384.990	-200.000	0.020	0.156
-383.975	455.912	-0.092	0.203
-382.960	800.000	0.015	-0.043
-381.946	-200.000	0.008	-0.115
-380.931	800.000	0.101	-0.372
-379.917	-61.125	0.212	0.089
-378.902	-4.045	-0.079	-0.054
-377.888	144.030	-0.115	-0.153
-376.873	-200.000	-0.054	-0.304
-375.858	-32.709	0.093	-0.052
-374.844	370.337	0.165	-0.333
-373.829	686.381	-0.048	0.124
-372.815	-104.143	-0.458	0.106
-371.800	-53.316	0.099	-0.045
-370.785	-64.005	-0.233	0.095
-369.771	628.708	0.127	-0.319
-368.756	800.000	0.024	-0.083
-367.742	280.176	-0.073	-0.129
-366.727	141.346	-0.184	0.242
-365.712	800.000	0.053	0.171
-364.698	-174.894	0.142	-0.004
-363.683	-200.000	-0.080	-0.511
-362.669	453.548	-0.047	0.104
-361.654	-200.000	-0.030	0.270
-360.639	37.737	-0.196	0.173
-359.625	119.400	0.205	-0.252
-358.610	385.079	-0.133	-0.272
-357.596	63.355	-0.066	-0.065
-356.581	-41.578	0.231	-0.118
-355.566	247.997	0.061	-0.102
-354.552	-200.000	-0.027	0.173
-353.537	800.000	0.078	-0.219
-352.523	-73.897	-0.157	0.057
-351.508	54.771	0.081	-0.077
-350.493	-36.592	0.270	-0.144
-349.479	576.990	-0.030	0.074
-348.464	800.000	-0.015	-0.063
-347.450	-122.274	0.220	0.036
-346.435	746.496	-0.050	0.133
-345.420	17.489	-0.153	0.121
-344.406	-200.000	-0.060	-0.277
-343.391	800.000	-0.041	-0.123
-342.377	174.595	-0.025	-0.036
-341.362	-45.961	0.175	-0.086
-340.348	-110.662	-0.131	-0.027
-339.333	-131.392	0.338	-0.044
-338.318	53.761	-0.211	0.201
-337.304	85.376	-0.078	-0.085
-336.289	-52.408	0.129	-0.059
-335.275	-113.692	0.342	0.066
-334.260	72.429	0.173	-0.179
-333.245	37.852	0.204	0.180
-332.231	-53.267	0.228	0.104
-331.216	-200.000	0.009	0.075
-330.202	158.984	-0.132	0.183
-329.187	-200.000	-0.047	-0.395
-328.172	-200.000	0.036	-0.163
-327.158	86.688	-0.220	0.241
-326.143	45.651	-0.193	0.177
-325.129	800.000	-0.101	0.348
-324.114	-200.000	0.021	-0.255
-323.099	670.518	-0.069	0.176
-322.085	-0.877	-0.060	0.042
-321.070	800.000	0.035	0.147
-320.056	-138.778	-0.352	0.038
-319.041	63.075	0.122	0.121
-318.026	0.268	0.048	0.034
-317.012	800.000	0.068	0.207
-315.997	468.882	-0.139	0.310
-314.983	-124.998	0.350	-0.053
-313.968	103.740	0.165	0.192
-312.953	495.486	0.060	-0.138
-311.939	-95.542	0.140	0.037
-310.924	-112.089	-0.138	-0.027
-309.910	-186.450	0.170	0.002
-308.895	23.833	-0.164	-0.134
-307.880	-21.167	-0.089	0.054
-306.866	-200.000	0.035	-0.352
-305.851	275.658	-0.067	-0.118
-304.837	86.292	-0.118	0.129
-303.822	35.200	0.207	0.180
-302.807	53.544	0.122	0.116
-301.793	800.000	0.094	0.290
-300.778	121.034	0.054	0.067
-299.764	-187.919	0.326	0.004
-298.749	-16.173	0.036	0.023
-297.735	765.034	0.124	0.335
-296.720	-76.019	-0.113	-0.040
-295.705	-60.003	0.135	-0.057
-294.691	-33.596	0.177	0.097
-293.676	-200.000	-0.072	-0.415
-292.662	-200.000	0.002	-0.150
-291.647	-99.644	-0.270	0.067
-290.632	278.624	0.049	0.087
-289.618	800.000	-0.054	0.212
-288.603	-120.214	-0.172	0.029
-287.589	-28.180	0.150	0.086
-286.574	-102.707	0.283	-0.067
-285.559	-117.698	-0.251	0.045
-284.545	-112.586	0.329	0.065
-283.530	86.554	-0.257	0.281
-282.516	-34.093	0.055	0.030
-281.501	-125.971	0.183	0.027
-280.486	-26.658	-0.227	0.132
-279.472	329.461	0.153	0.292
-278.457	-200.000	-0.082	0.458
-277.443	217.188	0.182	0.287
-276.428	-67.159	0.272	-0.106
-275.413	-64.188	-0.123	-0.049
-274.399	375.758	0.116	-0.235
-273.384	22.069	0.131	0.106
-272.370	-200.000	0.002	-0.106
-271.355	-59.451	-0.079	0.034
-270.340	-131.534	-0.260	-0.034
-269.326	-127.676	-0.172	-0.025
-268.311	-95.161	0.315	-0.084
-267.297	690.101	0.020	-0.051
-266.282	-161.415	0.213	-0.011
-265.267	-200.000	0.030	-0.181
-264.253	-35.168	-0.305	-0.164
-263.238	1.764	-0.153	0.109
-262.224	800.000	0.098	0.295
-261.209	293.653	0.042	0.075
-260.195	800.000	-0.005	-0.019
-259.180	-115.612	-0.017	-0.003
-258.165	-101.084	0.190	-0.046
-257.151	4.020	-0.119	-0.086
-256.136	-109.987	0.084	0.017
-255.122	-18.735	-0.184	-0.113
-254.107	247.044	-0.114	-0.190
-253.092	145.632	0.117	0.156
-252.078	-200.000	0.010	0.112
-251.063	56.840	0.292	-0.281
-250.049	62.184	-0.357	0.352
-249.034	130.621	-0.084	-0.107
-248.019	456.347	0.107	0.234
-247.005	249.060	-0.031	-0.051
-245.990	-200.000	0.021	0.255
-244.976	-13.386	-0.177	0.113
-243.961	316.505	-0.081	-0.150
-242.946	74.253	0.113	-0.117
-241.932	-103.418	-0.137	0.032
-240.917	45.890	0.124	-0.114
-239.903	166.187	0.121	-0.169
-238.888	17.697	0.061	-0.048
-237.873	793.349	-0.031	0.084
-236.859	97.394	0.115	0.131
-235.844	151.048	-0.128	-0.173
-234.830	-102.024	-0.195	0.046
-233.815	-200.000	0.031	0.164
-232.800	-134.197	0.166	0.020
-231.786	258.600	0.068	0.116
-230.771	-200.000	-0.001	0.204
-229.757	-78.447	-0.213	-0.072
-228.742	-151.514	-0.087	-0.006
-227.727	-63.557	-0.095	-0.038
-226.713	-200.000	0.045	-0.490
-225.698	70.395	0.067	0.068
-224.684	-76.520	-0.189	0.066
-223.669	186.565	0.207	0.304
-222.655	-200.000	-0.013	0.252
-221.640	-92.273	-0.229	0.064
-220.625	193.690	0.109	0.162
-219.611	88.940	0.264	-0.290
-218.596	-200.000	-0.005	-0.144
-217.582	-200.000	0.018	0.287
-216.567	-36.974	0.151	0.080
-215.552	800.000	0.079	0.268
-214.538	316.862	-0.074	-0.139
-213.523	43.787	-0.182	0.165
-212.509	-48.362	-0.087	-0.041
-211.494	-182.756	0.202	-0.004
-210.479	0.199	-0.043	0.031
-209.465	-200.000	0.057	0.465
-208.450	-116.408	0.319	0.058
-207.436	678.894	-0.033	-0.084
-206.421	-112.837	0.273	0.053
-205.406	97.116	0.145	0.164
-204.392	-45.124	0.221	0.109
-203.377	-38.425	-0.161	-0.084
-202.363	38.462	-0.272	0.239
-201.348	-48.541	0.313	0.149
-200.333	-4.785	-0.222	-0.151
-199.319	188.672	-0.169	0.249
-198.304	-200.000	0.045	0.269
-197.290	-200.000	-0.012	-0.063
-196.275	-85.627	0.150	0.046
-195.260	800.000	0.079	0.246
-194.246	-82.507	-0.145	0.046
-193.231	-98.317	0.078	0.020
-192.217	-136.159	-0.216	0.025
-191.202	66.409	0.365	-0.366
-190.187	115.957	-0.167	-0.201
-189.173	100.320	0.076	-0.087
-188.158	237.678	-0.012	0.019
-187.144	-165.600	-0.168	0.007
-186.129	-61.502	0.196	0.081
-185.114	256.353	-0.102	-0.173
-184.100	-69.872	0.169	0.064
-183.085	-80.784	-0.079	-0.026
-182.071	-108.197	0.353	-0.075
-181.056	-99.749	-0.449	0.111
-180.042	-200.000	-0.015	-0.200
-179.027	-200.000	0.010	0.211
-178.012	-157.941	0.271	0.016
-176.998	-146.322	0.198	-0.017
-175.983	-2.467	-0.176	0.122
-174.969	180.336	-0.065	-0.094
-173.954	797.809	0.019	0.053
-172.939	-200.000	0.038	0.182
-171.925	-200.000	-0.008	0.198
-170.910	-55.010	-0.245	-0.109
-169.896	-185.362	0.276	0.004
-168.881	250.752	0.183	0.307
-167.866	-200.000	0.040	-0.368
-166.852	318.792	-0.077	-0.145
-165.837	800.000	0.057	0.185
-164.823	-97.146	0.119	0.031
-163.808	-58.343	-0.211	-0.090
-162.793	-148.081	0.184	-0.015
-161.779	53.991	0.146	-0.139
-160.764	-99.977	0.174	-0.043
-159.750	800.000	0.061	0.234
-158.735	-81.977	0.147	0.047
-157.720	471.499	-0.126	0.280
-156.706	-200.000	-0.031	0.327
-155.691	54.574	-0.163	-0.155
-154.677	42.108	-0.221	-0.198
-153.662	-34.413	0.144	0.078
-152.647	127.051	0.177	0.221
-151.633	800.000	0.078	-0.220
-150.618	529.706	-0.033	-0.076
-149.604	-21.952	-0.186	0.111
-148.589	36.616	-0.040	0.035
-147.574	-49.640	0.111	-0.052
-146.560	-151.093	-0.157	0.012
-145.545	337.544	0.129	0.247
-144.531	78.090	0.220	0.231
-143.516	-151.736	0.629	0.046
-142.502	120.290	-0.244	0.298
-141.487	-170.502	0.301	-0.010
-140.472	-61.198	0.087	-0.036
-139.458	-115.262	0.424	0.079
-138.443	-1.001	0.070	-0.049
-137.429	-28.522	0.337	-0.191
-136.414	-131.358	-0.099	-0.013
-135.399	-200.000	-0.004	0.185
-134.385	-154.460	0.307	-0.020
-133.370	800.000	-0.099	-0.314
-132.356	55.251	-0.328	-0.312
-131.341	-200.000	0.090	-0.507
-130.326	-103.187	-0.363	-0.085
-129.312	-62.123	0.076	0.031
-128.297	-89.034	-0.111	-0.032
-127.283	696.989	-0.027	0.070
-126.268	150.223	0.161	0.216
-125.253	36.112	0.263	0.228
-124.239	280.002	-0.178	-0.312
-123.224	326.642	-0.127	-0.239
-122.210	-191.224	0.186	0.002
-121.195	-126.556	0.393	0.057
