DTS Sentinel unit serial number:	SN413079Multiplexer serial number:	ORYXHardware model number:	OX4-SRSoftware version number:	ORYX F/W v4.00 Oryx Data Collector v3.7.2.0data status	okinstallation	princeton_trtdifferential loss correction	single-endedforward channel	channel 2reverse channel	N/Adate	2019/09/12time	17:37:10forward acquisition time	60.00reverse acquisition time	0.00gamma	496.2192k internal	0.2324k external	0.2324temperature offset calibration	1.0130default loss term (dB/km)	0.3790temperature slope calibration	1.0000multiplexer offset coefficient	1.0000multiplexer slope coefficient	1.0000fibre end	0.00T internal ref (°C)	34.42T ext. ref 1 (°C)	2.87T ext. ref 2 (°C)	28.51length (m)	temperature (°C)	Stokes	anti-Stokes-747.200	200.190	0.110	-0.170
-746.185	-102.697	-0.199	-0.048
-745.171	103.309	0.282	0.334
-744.156	-200.000	0.016	0.311
-743.142	64.643	-0.215	0.219
-742.127	-95.078	-0.241	0.066
-741.112	-15.409	0.290	0.187
-740.098	2.258	-0.191	-0.139
-739.083	-47.537	-0.203	-0.100
-738.069	800.000	0.134	0.501
-737.054	-119.306	0.263	0.046
-736.039	455.316	-0.156	-0.350
-735.025	-96.135	0.397	0.106
-734.010	-200.000	-0.008	-0.098
-732.996	112.261	0.219	-0.267
-731.981	800.000	0.118	0.349
-730.966	-119.632	0.081	-0.014
-729.952	-4.564	-0.184	-0.128
-728.937	621.491	-0.039	0.099
-727.923	221.192	0.239	0.387
-726.908	-48.111	0.174	-0.085
-725.894	272.843	-0.202	-0.361
-724.879	-169.864	0.233	0.008
-723.864	181.493	-0.189	0.280
-722.850	223.197	0.232	0.377
-721.835	101.517	-0.098	0.115
-720.821	12.669	-0.129	-0.101
-719.806	-184.013	-0.048	-0.001
-718.791	-78.433	-0.161	0.056
-717.777	-92.640	-0.370	0.105
-716.762	635.937	-0.171	-0.438
-715.748	800.000	0.051	-0.163
-714.733	800.000	0.069	-0.282
-713.718	-105.032	-0.142	0.033
-712.704	800.000	0.077	-0.258
-711.689	277.673	-0.035	-0.063
-710.675	-26.083	-0.251	-0.149
-709.660	67.503	-0.093	-0.096
-708.645	-88.098	-0.114	-0.035
-707.631	-1.893	0.218	-0.155
-706.616	32.260	-0.080	0.069
-705.602	-159.057	-0.087	0.005
-704.587	-119.656	-0.242	-0.042
-703.572	-200.000	-0.010	0.252
-702.558	800.000	-0.056	0.239
-701.543	-200.000	-0.040	-0.178
-700.529	64.882	-0.148	-0.150
-699.514	80.137	-0.036	-0.039
-698.499	110.229	-0.103	-0.125
-697.485	773.996	0.209	0.574
-696.470	70.564	0.070	0.073
-695.456	-68.930	-0.097	0.038
-694.441	800.000	0.068	0.249
-693.426	426.359	-0.219	-0.475
-692.412	-98.857	-0.070	-0.018
-691.397	-137.089	0.261	0.030
-690.383	211.238	-0.074	-0.117
-689.368	515.254	0.051	0.121
-688.354	-200.000	-0.003	-0.070
-687.339	331.602	0.158	-0.308
-686.324	-30.318	0.100	0.057
-685.310	-200.000	-0.019	-0.182
-684.295	89.479	-0.260	0.292
-683.281	399.447	0.056	-0.119
-682.266	-182.551	0.264	0.005
-681.251	800.000	-0.075	-0.225
-680.237	64.266	0.259	-0.262
-679.222	754.367	0.108	0.293
-678.208	-25.151	0.253	0.151
-677.193	-200.000	-0.011	-0.103
-676.178	324.379	-0.030	-0.058
-675.164	-200.000	0.006	0.125
-674.149	-200.000	-0.002	-0.076
-673.135	-70.712	-0.287	-0.109
-672.120	-200.000	-0.022	0.280
-671.105	229.195	-0.047	0.077
-670.091	-126.069	-0.233	0.035
-669.076	-177.700	-0.228	0.006
-668.062	-143.896	0.064	0.006
-667.047	56.214	-0.149	0.146
-666.032	-200.000	-0.045	0.238
-665.018	-177.830	0.291	0.007
-664.003	99.133	-0.086	-0.100
-662.989	-58.109	-0.201	-0.088
-661.974	-200.000	-0.015	0.194
-660.959	520.443	-0.157	-0.369
-659.945	-91.599	-0.143	-0.041
-658.930	-200.000	0.042	0.407
-657.916	35.899	-0.152	0.135
-656.901	129.743	-0.163	-0.209
-655.886	33.837	0.244	0.214
-654.872	18.729	0.197	-0.159
-653.857	297.896	-0.103	0.190
-652.843	-200.000	0.098	-0.551
-651.828	-71.839	0.116	0.043
-650.814	-200.000	-0.010	-0.116
-649.799	138.760	-0.165	0.218
-648.784	171.404	-0.187	-0.270
-647.770	-36.550	-0.102	-0.055
-646.755	77.157	0.204	-0.218
-645.741	800.000	0.047	-0.159
-644.726	36.239	-0.186	0.165
-643.711	225.017	0.150	0.243
-642.697	62.703	-0.231	0.232
-641.682	-200.000	0.013	-0.123
-640.668	-18.778	-0.609	0.381
-639.653	-200.000	-0.054	-0.387
-638.638	287.115	0.078	-0.141
-637.624	139.593	-0.107	0.141
-636.609	135.751	0.118	-0.155
-635.595	522.433	0.061	-0.145
-634.580	-200.000	0.062	-0.342
-633.565	104.832	-0.124	-0.147
-632.551	101.281	-0.238	-0.279
-631.536	200.734	-0.030	-0.047
-630.522	48.100	0.126	0.119
-629.507	-47.318	-0.111	0.054
-628.492	-178.375	-0.244	-0.006
-627.478	-105.739	-0.033	-0.008
-626.463	-141.744	0.277	0.028
-625.449	354.395	0.091	-0.182
-624.434	-81.110	-0.495	0.164
-623.419	-90.306	-0.136	-0.040
-622.405	14.051	0.262	0.205
-621.390	393.319	0.149	-0.311
-620.376	800.000	0.095	-0.340
-619.361	-11.704	0.130	0.086
-618.346	-15.005	-0.201	-0.129
-617.332	-128.783	-0.129	-0.018
-616.317	-41.532	0.193	-0.100
-615.303	-81.992	0.326	-0.107
-614.288	800.000	-0.040	-0.166
-613.273	-200.000	-0.014	0.247
-612.259	-200.000	-0.083	-0.376
-611.244	275.168	0.119	-0.213
-610.230	-163.674	-0.328	-0.015
-609.215	-151.751	0.156	0.012
-608.201	-116.411	0.118	0.022
-607.186	-26.305	-0.167	-0.098
-606.171	-82.503	-0.149	0.049
-605.157	-9.233	-0.229	-0.153
-604.142	83.885	0.077	0.084
-603.128	-103.940	-0.067	-0.016
-602.113	290.571	0.036	-0.065
-601.098	800.000	-0.033	0.129
-600.084	-115.181	0.157	-0.030
-599.069	669.257	-0.077	-0.199
-598.055	-200.000	-0.021	-0.305
-597.040	-88.201	-0.105	0.031
-596.025	-148.387	-0.042	0.003
-595.011	343.614	0.149	0.293
-593.996	530.594	0.030	0.072
-592.982	-143.960	0.284	0.027
-591.967	-200.000	-0.008	0.105
-590.952	-40.975	0.058	0.030
-589.938	-68.662	-0.193	-0.075
-588.923	81.702	-0.178	0.193
-587.909	2.703	-0.210	0.153
-586.894	76.505	0.351	-0.373
-585.879	297.995	-0.070	0.129
-584.865	-51.950	-0.315	-0.147
-583.850	-200.000	-0.024	-0.188
-582.836	-144.501	-0.276	0.026
-581.821	-14.953	-0.264	-0.170
-580.806	-200.000	-0.036	0.283
-579.792	800.000	0.039	-0.153
-578.777	315.112	0.119	-0.225
-577.763	-106.234	0.153	-0.034
-576.748	48.133	-0.262	-0.245
-575.733	-8.622	-0.084	0.057
-574.719	-30.983	0.159	-0.090
-573.704	39.601	-0.192	-0.172
-572.690	-79.342	-0.255	0.086
-571.675	800.000	0.096	-0.296
-570.661	-14.879	-0.135	0.087
-569.646	-36.168	0.216	0.117
-568.631	204.429	0.050	0.078
-567.617	-143.232	0.122	0.012
-566.602	-200.000	-0.048	-0.266
-565.588	-131.124	-0.351	0.047
-564.573	-200.000	0.025	0.123
-563.558	-200.000	-0.016	0.181
-562.544	-200.000	0.073	-0.470
-561.529	117.844	-0.065	-0.081
-560.515	-200.000	0.011	0.250
-559.500	541.474	-0.049	-0.118
-558.485	300.256	-0.122	-0.225
-557.471	-200.000	0.042	0.233
-556.456	800.000	-0.045	-0.151
-555.442	77.906	-0.042	0.045
-554.427	117.833	-0.305	0.376
-553.412	-23.361	0.121	0.073
-552.398	-108.838	-0.282	-0.061
-551.383	399.918	0.056	0.117
-550.369	-144.583	-0.279	-0.026
-549.354	800.000	0.091	0.300
-548.339	351.689	-0.017	0.034
-547.325	-169.388	-0.220	0.008
-546.310	-200.000	-0.003	-0.244
-545.296	-3.272	-0.249	-0.174
-544.281	206.937	-0.100	0.156
-543.266	-200.000	0.125	0.000
-542.252	-96.575	-0.327	0.086
-541.237	310.081	-0.124	-0.233
-540.223	17.035	0.078	-0.062
-539.208	28.052	0.252	0.213
-538.193	296.902	-0.030	-0.055
-537.179	-67.807	-0.302	0.118
-536.164	93.816	0.154	0.175
-535.150	-200.000	-0.056	0.430
-534.135	-28.738	-0.121	-0.070
-533.121	-51.716	-0.293	-0.137
-532.106	-100.932	0.323	-0.079
-531.091	3.577	0.283	0.207
-530.077	-200.000	-0.052	-0.311
-529.062	-81.511	-0.237	-0.078
-528.048	177.473	0.068	0.099
-527.033	-39.043	0.053	-0.028
-526.018	86.811	-0.161	0.178
-525.004	128.152	0.101	0.128
-523.989	-188.186	0.059	-0.001
-522.975	114.600	-0.149	-0.182
-521.960	86.113	-0.153	-0.169
-520.945	-200.000	0.022	0.106
-519.931	105.537	-0.059	0.070
-518.916	-62.637	-0.261	0.108
-517.902	-113.094	0.389	-0.077
-516.887	-127.170	0.248	0.036
-515.872	8.493	-0.183	-0.138
-514.858	-12.334	0.300	-0.196
-513.843	-151.226	-0.097	-0.007
-512.829	124.944	0.202	0.255
-511.814	-36.508	-0.081	0.044
-510.799	-200.000	0.046	0.271
-509.785	606.588	-0.205	0.512
-508.770	-105.219	0.237	0.054
-507.756	26.151	-0.123	-0.103
-506.741	25.673	-0.306	-0.255
-505.726	-4.432	0.260	0.179
-504.712	-20.102	0.259	-0.160
-503.697	250.062	0.105	0.179
-502.683	800.000	-0.051	0.200
-501.668	-23.492	0.107	-0.064
-500.653	-51.178	0.181	-0.085
-499.639	800.000	-0.121	0.444
-498.624	195.918	0.062	-0.094
-497.610	158.064	-0.237	0.328
-496.595	-101.112	-0.065	-0.016
-495.581	219.008	0.195	-0.311
-494.566	-200.000	-0.007	-0.114
-493.551	-88.392	0.271	-0.081
-492.537	-200.000	0.012	-0.162
-491.522	-36.390	0.446	0.240
-490.508	-200.000	-0.002	0.026
-489.493	-200.000	-0.006	0.237
-488.478	-123.609	-0.275	-0.044
-487.464	-96.981	-0.230	0.060
-486.449	-49.824	0.371	-0.176
-485.435	739.314	0.054	0.146
-484.420	-102.673	0.165	-0.039
-483.405	800.000	-0.096	0.407
-482.391	153.702	-0.075	-0.103
-481.376	286.710	-0.071	-0.128
-480.362	44.406	-0.240	-0.220
-479.347	32.322	0.196	-0.169
-478.332	-31.276	0.159	0.089
-477.318	266.828	0.070	-0.123
-476.303	-45.133	-0.267	0.133
-475.289	12.591	0.077	0.059
-474.274	4.788	0.190	0.140
-473.259	-14.899	-0.375	0.240
-472.245	61.542	0.147	0.146
-471.230	186.392	-0.146	0.217
-470.216	335.329	-0.124	0.241
-469.201	121.189	-0.066	-0.082
-468.186	-200.000	-0.013	0.336
-467.172	-108.431	0.103	-0.022
-466.157	-88.527	0.415	-0.123
-465.143	139.797	-0.167	-0.220
-464.128	354.054	0.117	-0.231
-463.113	137.547	0.119	-0.156
-462.099	-200.000	0.029	-0.363
-461.084	-100.208	-0.236	-0.059
-460.070	-36.136	0.217	0.117
-459.055	348.159	-0.128	-0.252
-458.040	-200.000	0.004	-0.129
-457.026	118.372	0.154	-0.189
-456.011	-108.412	0.213	-0.046
-454.997	-21.341	-0.106	0.064
-453.982	-126.785	-0.114	0.017
-452.968	800.000	0.085	0.281
-451.953	111.289	-0.147	0.177
-450.938	-106.169	0.084	-0.019
-449.924	800.000	-0.043	0.165
-448.909	514.531	-0.080	0.186
-447.895	111.546	0.191	0.230
-446.880	800.000	0.113	0.402
-445.865	-19.775	-0.181	-0.112
-444.851	27.645	-0.215	-0.180
-443.836	-200.000	-0.026	0.292
-442.822	69.901	-0.184	0.190
-441.807	-200.000	-0.031	-0.134
-440.792	-31.783	0.161	-0.090
-439.778	205.668	0.145	-0.224
-438.763	-27.709	-0.071	0.041
-437.749	66.959	-0.180	0.183
-436.734	260.303	-0.059	-0.102
-435.719	-187.013	0.339	0.005
-434.705	-81.769	-0.258	-0.084
-433.690	800.000	0.089	-0.279
-432.676	277.280	0.085	-0.151
-431.661	-107.412	-0.174	-0.038
-430.646	88.564	0.384	-0.425
-429.632	134.214	0.109	-0.141
-428.617	-116.984	-0.014	-0.003
-427.603	52.142	0.019	-0.018
-426.588	326.432	0.143	-0.272
-425.573	692.299	-0.054	-0.140
-424.559	-166.754	0.177	-0.007
-423.544	-27.671	-0.109	0.063
-422.530	-200.000	-0.051	-0.255
-421.515	800.000	-0.066	-0.253
-420.500	390.894	-0.156	0.322
-419.486	62.269	-0.046	0.046
-418.471	-200.000	0.028	-0.257
-417.457	-88.763	0.282	0.083
-416.442	-10.067	0.371	0.246
-415.428	800.000	-0.027	0.109
-414.413	74.884	-0.256	0.268
-413.398	296.020	0.048	-0.087
-412.384	800.000	-0.030	-0.117
-411.369	-79.665	0.392	0.132
-410.355	117.854	-0.203	-0.249
-409.340	800.000	0.074	-0.278
-408.325	-51.242	-0.363	0.169
-407.311	281.049	-0.114	-0.203
-406.296	343.217	0.050	0.097
-405.282	-200.000	-0.062	0.289
-404.267	26.170	-0.226	0.188
-403.252	-152.705	-0.248	0.018
-402.238	-200.000	-0.018	0.098
-401.223	263.374	0.146	0.253
-400.209	9.605	0.098	-0.074
-399.194	-15.745	0.159	-0.101
-398.179	-200.000	-0.002	-0.201
-397.165	70.777	0.065	0.067
-396.150	-124.194	0.232	-0.036
-395.136	-11.462	-0.080	0.052
-394.121	86.845	0.225	-0.248
-393.106	-200.000	0.019	-0.110
-392.092	218.086	0.145	-0.230
-391.077	-200.000	-0.003	-0.033
-390.063	209.143	-0.166	-0.259
-389.048	-6.221	-0.365	-0.248
-388.033	91.141	0.331	-0.369
-387.019	800.000	0.029	0.101
-386.004	87.575	-0.102	0.112
-384.990	115.184	0.090	0.109
-383.975	-0.838	-0.218	0.153
-382.960	191.892	0.119	-0.179
-381.946	-128.483	-0.248	-0.035
-380.931	3.365	0.274	0.198
-379.917	-148.780	0.160	0.013
-378.902	-13.141	0.233	-0.150
-377.888	-94.901	-0.426	-0.115
-376.873	-56.013	0.269	-0.119
-375.858	-65.254	-0.151	-0.060
-374.844	211.135	-0.152	0.238
-373.829	100.830	0.378	0.437
-372.815	-200.000	-0.014	0.270
-371.800	-142.949	0.391	-0.038
-370.785	305.218	-0.096	-0.177
-369.771	112.477	0.007	0.009
-368.756	-141.921	-0.162	0.016
-367.742	-10.389	-0.140	-0.092
-366.727	336.624	0.083	0.160
-365.712	134.550	0.085	0.109
-364.698	800.000	0.057	-0.216
-363.683	123.527	0.177	0.221
-362.669	-200.000	0.021	0.364
-361.654	-187.664	0.202	0.003
-360.639	-77.525	-0.325	-0.112
-359.625	-9.469	-0.129	0.086
-358.610	251.222	0.057	0.096
-357.596	-138.134	-0.207	0.023
-356.581	-166.778	-0.356	0.015
-355.566	-71.908	0.396	0.146
-354.552	-200.000	-0.012	0.059
-353.537	150.772	0.139	0.188
-352.523	-44.001	-0.025	0.013
-351.508	413.793	0.130	0.274
-350.493	-115.084	-0.096	-0.018
-349.479	-128.217	0.292	0.042
-348.464	-56.859	-0.268	0.118
-347.450	-163.263	0.072	-0.003
-346.435	-200.000	0.318	0.001
-345.420	-94.817	-0.283	-0.076
-344.406	-200.000	-0.017	0.177
-343.391	-93.988	-0.161	-0.044
-342.377	33.969	0.042	-0.037
-341.362	193.581	0.162	-0.244
-340.348	-136.250	-0.168	-0.020
-339.333	793.118	-0.037	-0.101
-338.318	-114.439	-0.288	-0.055
-337.304	33.826	0.201	-0.174
-336.289	128.016	0.010	0.013
-335.275	-74.656	0.296	0.106
-334.260	800.000	0.017	-0.060
-333.245	403.579	0.060	-0.126
-332.231	-65.394	0.259	-0.104
-331.216	-200.000	-0.024	0.192
-330.202	26.422	-0.286	-0.237
-329.187	-7.641	0.161	0.108
-328.172	143.809	0.206	0.272
-327.158	13.900	-0.097	-0.075
-326.143	-113.685	0.205	-0.040
-325.129	-80.848	-0.160	0.053
-324.114	800.000	0.117	0.406
-323.099	91.386	0.067	-0.075
-322.085	800.000	0.041	-0.157
-321.070	-200.000	0.055	-0.274
-320.056	800.000	-0.020	-0.087
-319.041	266.932	-0.064	-0.112
-318.026	800.000	0.075	0.224
-317.012	195.241	0.156	0.235
-315.997	-200.000	0.020	-0.161
-314.983	800.000	0.089	0.288
-313.968	800.000	-0.121	0.424
-312.953	-9.637	-0.195	0.129
-311.939	-200.000	-0.027	0.261
-310.924	-64.907	0.211	0.085
-309.910	-155.512	-0.089	0.006
-308.895	-200.000	-0.024	-0.174
-307.880	4.548	-0.322	0.235
-306.866	675.789	0.096	-0.246
-305.851	-200.000	-0.004	-0.435
-304.837	800.000	0.191	0.525
-303.822	-146.863	0.122	0.010
-302.807	800.000	-0.024	-0.095
-301.793	-6.419	0.246	0.166
-300.778	-107.763	-0.081	-0.018
-299.764	-76.701	-0.422	0.147
-298.749	-200.000	0.011	0.049
-297.735	-3.855	-0.171	0.118
-296.720	-70.674	-0.386	-0.145
-295.705	-52.251	-0.210	-0.097
-294.691	23.123	-0.216	0.176
-293.676	-40.534	0.442	0.228
-292.662	-20.158	-0.060	-0.037
-291.647	-189.873	-0.482	-0.005
-290.632	182.191	-0.053	0.078
-289.618	800.000	0.113	-0.447
-288.603	800.000	-0.085	0.356
-287.589	15.831	0.178	0.139
-286.574	-39.403	0.166	0.086
-285.559	269.339	0.176	0.306
-284.545	-180.357	-0.329	0.007
-283.530	-158.823	-0.211	-0.012
-282.516	257.737	0.095	0.162
-281.501	232.768	-0.102	0.166
-280.486	-200.000	-0.000	0.355
-279.472	369.469	0.085	-0.170
-278.457	-200.000	0.017	0.214
-277.443	-21.808	-0.273	-0.164
-276.428	800.000	0.049	0.163
-275.413	567.396	-0.032	0.077
-274.399	282.693	-0.212	-0.377
-273.384	800.000	0.052	-0.181
-272.370	314.479	-0.119	-0.223
-271.355	-72.905	0.119	0.043
-270.340	54.583	0.160	0.152
-269.326	-146.586	-0.183	0.016
-268.311	-81.079	0.326	0.107
-267.297	-48.941	-0.118	-0.056
-266.282	-200.000	0.021	0.272
-265.267	-109.737	-0.051	0.011
-264.253	367.076	0.121	0.242
-263.238	-132.371	0.248	-0.032
-262.224	-133.780	-0.340	0.042
-261.209	800.000	0.066	-0.222
-260.195	391.712	0.133	0.274
-259.180	-123.680	0.207	-0.033
-258.165	285.338	-0.112	-0.200
-257.151	767.393	0.027	0.072
-256.136	-200.000	0.007	-0.057
-255.122	-164.408	-0.031	-0.001
-254.107	139.858	-0.124	-0.162
-253.092	-12.676	-0.068	-0.044
-252.078	-130.440	-0.121	-0.016
-251.063	22.922	-0.314	-0.255
-250.049	-77.924	-0.225	-0.077
-249.034	340.846	0.227	-0.440
-248.019	800.000	-0.068	0.192
-247.005	132.163	0.119	-0.152
-245.990	669.724	0.167	0.429
-244.976	-45.007	0.152	0.075
-243.961	-80.478	-0.189	0.062
-242.946	40.609	-0.030	-0.026
-241.932	-200.000	0.022	-0.270
-240.917	78.229	-0.006	-0.007
-239.903	-15.430	0.309	-0.196
-238.888	-200.000	0.056	-0.343
-237.873	47.395	-0.202	-0.186
-236.859	800.000	0.133	0.442
-235.844	-155.999	0.178	-0.011
-234.830	-21.675	0.131	0.079
-233.815	20.197	-0.165	0.132
-232.800	285.911	0.057	0.101
-231.786	-21.701	0.264	0.159
-230.771	323.303	-0.013	0.024
-229.757	-148.736	0.249	-0.020
-228.742	21.327	0.221	-0.178
-227.727	-200.000	-0.010	-0.297
-226.713	488.139	0.057	0.128
-225.698	-121.154	-0.286	-0.047
-224.684	157.379	0.064	0.088
-223.669	21.213	0.126	0.101
-222.655	139.572	0.130	-0.170
-221.640	-200.000	0.001	0.148
-220.625	-16.458	0.089	0.056
-219.611	-142.186	-0.133	-0.013
-218.596	459.640	0.041	0.090
-217.582	69.772	0.207	-0.211
-216.567	-45.917	-0.388	-0.189
-215.552	-200.000	0.019	-0.378
-214.538	778.283	0.114	0.309
-213.523	135.149	0.033	-0.042
-212.509	95.382	0.237	0.267
-211.494	58.201	0.211	0.204
-210.479	800.000	0.077	0.272
-209.465	98.039	0.174	-0.198
-208.450	800.000	-0.078	-0.330
-207.436	-123.402	-0.234	-0.037
-206.421	-200.000	0.011	-0.195
-205.406	-55.723	0.269	0.119
-204.392	800.000	0.051	0.173
-203.377	-121.992	0.198	-0.032
-202.363	-129.745	-0.295	-0.040
-201.348	-40.987	0.159	-0.081
-200.333	-27.349	-0.087	0.050
-199.319	76.569	0.100	-0.104
-198.304	-158.189	0.207	0.012
-197.290	800.000	0.022	0.069
-196.275	-200.000	0.020	-0.090
-195.260	-200.000	-0.029	-0.230
-194.246	-200.000	0.045	-0.376
-193.231	-11.213	-0.229	-0.149
-192.217	-200.000	-0.006	-0.046
-191.202	-144.322	-0.222	0.020
-190.187	800.000	0.049	0.161
-189.173	55.093	-0.221	0.211
-188.158	-200.000	0.028	0.157
-187.144	-94.883	0.244	0.065
-186.129	-118.949	-0.206	0.036
-185.114	-200.000	0.012	0.094
-184.100	6.342	0.111	0.081
-183.085	-25.352	-0.230	0.134
-182.071	-83.293	0.080	-0.025
-181.056	318.042	0.141	0.263
-180.042	423.969	0.039	0.084
-179.027	89.395	0.199	-0.219
-178.012	108.547	0.107	-0.126
-176.998	-200.000	-0.085	-0.399
-175.983	-99.900	0.279	0.069
-174.969	27.672	0.112	0.093
-173.954	-54.375	0.112	0.050
-172.939	-200.000	-0.010	-0.047
-171.925	-162.658	0.249	0.012
-170.910	-10.835	0.242	0.158
-169.896	-14.754	-0.212	0.134
-168.881	-112.384	-0.283	0.056
-167.866	140.229	0.189	-0.246
-166.852	9.279	0.370	-0.276
-165.837	221.259	-0.162	0.257
-164.823	-194.731	0.194	-0.001
-163.808	-200.000	0.107	0.472
-162.793	122.893	0.087	-0.108
-161.779	28.706	-0.223	-0.186
-160.764	-94.301	-0.052	0.014
-159.750	-128.502	-0.156	-0.022
-158.735	-200.000	-0.038	-0.349
-157.720	-200.000	0.012	-0.290
-156.706	-200.000	0.071	0.312
-155.691	162.055	-0.256	0.353
-154.677	-41.753	0.056	0.028
-153.662	16.704	0.142	-0.111
-152.647	314.700	-0.070	-0.129
-151.633	-200.000	0.020	-0.263
-150.618	15.790	0.126	-0.098
-149.604	800.000	0.111	0.320
-148.589	-72.170	0.210	-0.077
-147.574	-200.000	0.030	0.264
-146.560	-0.702	0.251	-0.176
-145.545	800.000	-0.046	-0.130
-144.531	141.871	0.200	0.261
-143.516	305.206	0.110	0.201
-142.502	-76.266	-0.062	0.022
-141.487	-200.000	0.013	0.146
-140.472	-84.137	0.120	-0.038
-139.458	-200.000	-0.002	0.113
-138.443	-71.248	-0.090	-0.033
-137.429	800.000	-0.002	-0.010
-136.414	-200.000	-0.031	-0.204
-135.399	-95.098	-0.304	-0.081
-134.385	144.332	0.039	-0.052
-133.370	694.192	0.061	0.158
-132.356	48.568	-0.087	-0.080
-131.341	-133.060	0.253	-0.032
-130.326	441.909	-0.129	0.279
-129.312	-200.000	-0.006	-0.208
-128.297	-29.821	-0.343	-0.193
-127.283	318.006	-0.024	-0.045
-126.268	-45.407	-0.183	0.089
-125.253	-123.215	-0.130	0.021
-124.239	-137.294	0.139	-0.016
-123.224	72.133	-0.043	-0.044
-122.210	-58.063	0.172	-0.074
