DTS Sentinel unit serial number:	SN413079Multiplexer serial number:	ORYXHardware model number:	OX4-SRSoftware version number:	ORYX F/W v4.00 Oryx Data Collector v3.7.2.0data status	okinstallation	princeton_trtdifferential loss correction	single-endedforward channel	channel 2reverse channel	N/Adate	2019/09/18time	21:03:35forward acquisition time	60.00reverse acquisition time	0.00gamma	496.2192k internal	0.2342k external	0.2342temperature offset calibration	1.0044default loss term (dB/km)	0.3790temperature slope calibration	1.0000multiplexer offset coefficient	1.0000multiplexer slope coefficient	1.0000fibre end	0.00T internal ref (°C)	26.37T ext. ref 1 (°C)	1.13T ext. ref 2 (°C)	17.97length (m)	temperature (°C)	Stokes	anti-Stokes-747.200	-200.000	0.022	0.240
-746.185	-43.821	-0.026	-0.013
-745.171	326.693	-0.082	-0.157
-744.156	288.960	-0.033	0.060
-743.142	-200.000	0.031	-0.366
-742.127	-9.261	-0.348	-0.233
-741.112	-118.476	-0.178	0.032
-740.098	121.349	0.113	0.142
-739.083	-39.745	0.186	-0.097
-738.069	800.000	0.057	0.159
-737.054	-32.419	0.202	-0.113
-736.039	-163.619	-0.191	-0.009
-735.025	-37.628	0.363	0.194
-734.010	-45.134	0.112	-0.056
-732.996	16.371	-0.326	-0.258
-731.981	-70.428	0.138	0.052
-730.966	-50.655	-0.140	-0.066
-729.952	-200.000	-0.028	-0.277
-728.937	-113.737	-0.286	0.056
-727.923	-200.000	0.051	-0.253
-726.908	59.123	-0.079	0.078
-725.894	-200.000	0.025	0.277
-724.879	-55.900	0.181	-0.081
-723.864	-166.694	-0.076	0.003
-722.850	-200.000	0.046	0.220
-721.835	-175.116	-0.127	-0.004
-720.821	800.000	0.080	0.238
-719.806	-63.863	0.185	0.076
-718.791	229.848	0.148	0.242
-717.777	108.092	-0.359	-0.429
-716.762	800.000	-0.021	-0.067
-715.748	166.830	-0.251	0.356
-714.733	470.840	0.069	0.156
-713.718	800.000	0.092	-0.311
-712.704	156.532	-0.051	-0.071
-711.689	-81.429	-0.082	0.027
-710.675	-53.533	0.109	0.050
-709.660	-200.000	0.026	-0.425
-708.645	31.875	0.463	-0.398
-707.631	218.699	-0.150	0.239
-706.616	139.590	0.134	-0.177
-705.602	56.677	0.177	0.173
-704.587	-200.000	0.002	0.109
-703.572	-6.382	-0.209	-0.143
-702.558	800.000	0.080	-0.323
-701.543	-200.000	0.015	0.388
-700.529	-114.878	-0.212	0.040
-699.514	15.568	0.026	0.020
-698.499	800.000	-0.049	-0.206
-697.485	-124.032	0.239	0.038
-696.470	-2.576	0.079	0.055
-695.456	-65.512	0.225	0.090
-694.441	-143.476	0.056	0.005
-693.426	234.866	0.097	0.159
-692.412	-40.873	-0.064	0.033
-691.397	-19.925	-0.212	-0.131
-690.383	64.454	-0.067	-0.067
-689.368	-34.971	-0.140	-0.076
-688.354	-9.454	0.168	0.112
-687.339	200.484	0.092	-0.142
-686.324	38.701	-0.082	-0.073
-685.310	57.422	-0.033	-0.032
-684.295	-70.042	-0.060	0.023
-683.281	733.613	-0.041	-0.110
-682.266	154.134	-0.080	0.109
-681.251	-200.000	0.000	0.049
-680.237	-200.000	0.013	-0.303
-679.222	-200.000	0.021	-0.254
-678.208	-103.762	0.393	-0.092
-677.193	188.248	-0.199	0.298
-676.178	800.000	-0.044	-0.124
-675.164	47.629	-0.059	0.055
-674.149	-22.753	-0.280	-0.169
-673.135	-18.141	0.195	-0.122
-672.120	800.000	0.115	0.493
-671.105	-133.670	-0.043	0.005
-670.091	800.000	-0.025	-0.076
-669.076	462.973	0.186	0.414
-668.062	362.428	-0.079	-0.159
-667.047	-200.000	-0.005	0.112
-666.032	-200.000	0.035	-0.172
-665.018	488.724	0.029	0.067
-664.003	800.000	0.027	0.079
-662.989	-192.528	0.252	-0.002
-661.974	88.798	-0.121	-0.134
-660.959	-18.639	0.217	0.135
-659.945	715.222	-0.200	0.530
-658.930	-61.340	0.373	-0.157
-657.916	-145.236	-0.069	-0.006
-656.901	-200.000	-0.028	0.126
-655.886	-146.139	0.095	-0.008
-654.872	251.796	0.132	-0.225
-653.857	-200.000	-0.005	0.186
-652.843	563.104	0.102	-0.245
-651.828	-60.876	-0.241	-0.102
-650.814	-65.783	0.177	0.071
-649.799	-29.878	-0.221	0.126
-648.784	632.071	0.189	0.477
-647.770	-200.000	-0.001	0.114
-646.755	-200.000	-0.017	0.226
-645.741	-52.907	-0.347	0.160
-644.726	-159.685	0.161	-0.009
-643.711	455.213	-0.111	0.246
-642.697	-189.091	-0.209	-0.002
-641.682	-5.343	0.291	-0.199
-640.668	-47.881	-0.335	0.162
-639.653	426.610	0.045	0.096
-638.638	472.567	0.047	-0.107
-637.624	5.799	-0.325	0.240
-636.609	-200.000	0.058	0.288
-635.595	171.100	0.133	0.190
-634.580	313.059	-0.031	-0.058
-633.565	800.000	0.056	0.176
-632.551	-200.000	0.013	-0.293
-631.536	-200.000	-0.010	-0.088
-630.522	-106.647	-0.122	0.027
-629.507	-30.254	0.222	-0.126
-628.492	61.871	-0.097	-0.096
-627.478	-17.393	-0.223	0.140
-626.463	-136.976	0.187	-0.021
-625.449	247.583	-0.187	-0.316
-624.434	-30.534	0.079	-0.045
-623.419	54.352	0.242	0.233
-622.405	-110.616	-0.190	-0.039
-621.390	800.000	0.062	-0.265
-620.376	82.096	-0.033	-0.035
-619.361	-15.676	0.247	0.157
-618.346	800.000	0.053	-0.219
-617.332	-115.400	-0.072	0.014
-616.317	-101.120	-0.145	0.035
-615.303	-200.000	0.002	0.088
-614.288	-59.182	-0.076	-0.033
-613.273	800.000	0.065	0.253
-612.259	-142.212	0.408	0.040
-611.244	-39.349	-0.389	0.204
-610.230	800.000	-0.015	-0.059
-609.215	-200.000	0.033	0.217
-608.201	800.000	-0.062	-0.199
-607.186	-13.793	0.172	0.111
-606.171	-200.000	-0.018	-0.210
-605.157	-200.000	-0.075	0.360
-604.142	-200.000	0.040	-0.226
-603.128	95.881	-0.330	0.375
-602.113	-200.000	-0.019	-0.142
-601.098	-47.052	-0.295	0.144
-600.084	-200.000	-0.041	-0.268
-599.069	800.000	-0.030	0.113
-598.055	-78.379	0.552	-0.188
-597.040	800.000	0.064	-0.261
-596.025	-2.469	0.139	-0.097
-595.011	-200.000	-0.027	0.279
-593.996	-6.817	0.079	-0.053
-592.982	-200.000	-0.032	0.340
-591.967	-64.174	-0.374	-0.152
-590.952	118.597	-0.116	0.142
-589.938	179.236	-0.208	-0.304
-588.923	-100.159	0.140	0.035
-587.909	-200.000	0.055	-0.346
-586.894	-116.857	-0.350	0.064
-585.879	-200.000	0.023	-0.337
-584.865	-74.021	-0.071	-0.026
-583.850	-200.000	-0.074	0.381
-582.836	-200.000	0.003	0.078
-581.821	51.791	0.257	0.244
-580.806	-101.979	-0.422	-0.101
-579.792	206.387	0.083	0.129
-578.777	257.790	0.186	0.319
-577.763	-103.683	0.186	-0.043
-576.748	101.066	0.125	0.144
-575.733	-88.166	0.146	-0.043
-574.719	-57.349	0.174	-0.076
-573.704	-154.338	0.157	-0.011
-572.690	184.904	-0.133	0.196
-571.675	86.694	0.153	-0.168
-570.661	319.200	0.211	-0.399
-569.646	133.024	0.156	0.200
-568.631	-37.697	0.041	0.022
-567.617	800.000	-0.040	0.118
-566.602	63.565	0.099	-0.099
-565.588	112.802	-0.087	-0.105
-564.573	-156.647	0.270	-0.017
-563.558	367.289	0.061	0.123
-562.544	-200.000	0.017	-0.209
-561.529	60.927	-0.193	-0.190
-560.515	800.000	0.040	0.160
-559.500	443.942	0.134	0.293
-558.485	-2.200	0.111	0.078
-557.471	53.241	-0.116	0.110
-556.456	359.222	-0.071	0.141
-555.442	800.000	0.057	-0.212
-554.427	-171.690	-0.185	0.006
-553.412	-63.945	0.189	0.077
-552.398	-43.345	0.219	-0.110
-551.383	744.724	0.053	0.142
-550.369	-35.248	0.149	0.081
-549.354	36.091	-0.218	0.190
-548.339	-200.000	-0.022	0.316
-547.325	-200.000	0.006	-0.099
-546.310	-15.023	-0.245	-0.156
-545.296	-141.036	0.172	0.018
-544.281	102.338	-0.122	-0.142
-543.266	274.641	0.031	0.054
-542.252	32.983	0.066	-0.057
-541.237	-62.670	-0.400	-0.165
-540.223	84.817	-0.183	-0.199
-539.208	-200.000	-0.084	-0.397
-538.193	-43.328	0.119	-0.060
-537.179	110.052	-0.185	-0.220
-536.164	800.000	0.087	0.245
-535.150	125.512	0.156	0.196
-534.135	169.879	0.037	-0.053
-533.121	-55.493	-0.158	0.070
-532.106	-2.839	-0.134	-0.093
-531.091	-33.010	-0.186	0.102
-530.077	-118.877	-0.346	-0.060
-529.062	54.812	-0.229	0.219
-528.048	-200.000	0.016	-0.170
-527.033	1.875	0.166	0.119
-526.018	-39.017	-0.358	-0.187
-525.004	800.000	-0.081	-0.267
-523.989	-85.867	0.548	-0.169
-522.975	-200.000	0.031	-0.260
-521.960	-200.000	0.041	-0.302
-520.945	155.841	-0.103	-0.141
-519.931	446.391	-0.054	-0.117
-518.916	717.272	-0.102	0.269
-517.902	-200.000	-0.016	-0.379
-516.887	353.395	0.030	-0.059
-515.872	-108.048	0.350	0.075
-514.858	28.433	0.145	0.121
-513.843	113.092	0.030	-0.036
-512.829	20.489	0.105	-0.085
-511.814	-139.888	-0.083	-0.009
-510.799	14.269	-0.112	-0.087
-509.785	-200.000	0.079	-0.458
-508.770	-84.730	0.140	0.044
-507.756	-200.000	0.006	0.178
-506.741	69.715	-0.122	-0.125
-505.726	-200.000	0.009	0.263
-504.712	-200.000	0.014	0.172
-503.697	-50.663	-0.136	-0.063
-502.683	-200.000	0.027	0.381
-501.668	-200.000	0.007	-0.191
-500.653	-200.000	-0.045	0.199
-499.639	87.797	-0.057	-0.063
-498.624	-200.000	-0.062	-0.338
-497.610	-200.000	-0.041	-0.279
-496.595	18.148	-0.073	0.058
-495.581	229.642	0.116	-0.188
-494.566	-61.134	0.217	0.091
-493.551	-49.697	-0.311	-0.147
-492.537	-200.000	0.070	-0.363
-491.522	-171.706	-0.146	-0.005
-490.508	264.473	-0.063	-0.108
-489.493	-200.000	0.095	-0.578
-488.478	114.122	0.083	0.101
-487.464	88.188	-0.250	-0.275
-486.449	569.875	0.033	-0.079
-485.435	-147.839	0.259	0.021
-484.420	40.941	0.334	-0.298
-483.405	151.821	-0.236	-0.319
-482.391	-200.000	-0.018	-0.193
-481.376	-82.702	-0.378	0.121
-480.362	-163.650	-0.066	-0.003
-479.347	800.000	-0.039	-0.156
-478.332	-200.000	0.008	0.036
-477.318	-109.786	-0.120	0.025
-476.303	22.768	0.164	-0.133
-475.289	340.003	0.115	0.221
-474.274	170.373	0.093	-0.132
-473.259	436.501	-0.110	0.237
-472.245	-92.197	-0.062	-0.017
-471.230	218.626	-0.197	0.312
-470.216	31.278	0.100	0.085
-469.201	-106.507	-0.318	0.070
-468.186	800.000	0.163	-0.506
-467.172	26.692	-0.157	0.130
-466.157	800.000	-0.088	-0.242
-465.143	85.975	0.164	-0.179
-464.128	98.140	0.006	-0.007
-463.113	606.729	0.034	0.085
-462.099	-200.000	0.013	0.000
-461.084	-24.628	0.283	0.167
-460.070	301.972	-0.214	-0.393
-459.055	770.999	0.090	-0.243
-458.040	-53.879	0.207	0.094
-457.026	-200.000	-0.040	-0.349
-456.011	-200.000	0.015	0.178
-454.997	45.144	-0.286	0.261
-453.982	238.752	-0.130	-0.213
-452.968	16.945	0.333	0.261
-451.953	-128.476	-0.016	0.002
-450.938	549.190	-0.172	-0.408
-449.924	-200.000	-0.013	-0.067
-448.909	149.579	-0.167	0.224
-447.895	54.520	0.158	0.151
-446.880	800.000	-0.127	-0.406
-445.865	-200.000	-0.029	0.206
-444.851	122.712	0.065	-0.081
-443.836	-200.000	0.018	0.289
-442.822	-200.000	0.033	0.150
-441.807	-200.000	0.004	0.157
-440.792	427.812	0.195	-0.416
-439.778	-200.000	-0.061	-0.369
-438.763	-101.441	-0.399	0.096
-437.749	800.000	0.025	-0.094
-436.734	-24.033	-0.355	-0.210
-435.719	-200.000	-0.039	0.195
-434.705	-143.819	-0.239	0.022
-433.690	-21.815	-0.140	-0.084
-432.676	800.000	0.154	-0.432
-431.661	-33.743	0.191	-0.104
-430.646	-111.217	-0.477	0.097
-429.632	64.125	-0.130	0.129
-428.617	-180.836	-0.326	-0.007
-427.603	-106.626	0.103	-0.023
-426.588	397.333	0.102	0.210
-425.573	-200.000	0.016	-0.219
-424.559	581.430	-0.136	0.331
-423.544	-200.000	0.032	0.251
-422.530	-200.000	-0.005	0.118
-421.515	-67.417	-0.421	-0.163
-420.500	-26.476	-0.186	0.108
-419.486	54.077	0.210	-0.200
-418.471	199.824	0.292	-0.443
-417.457	800.000	-0.076	-0.237
-416.442	481.311	0.096	0.216
-415.428	-159.602	0.325	0.018
-414.413	-15.437	-0.227	-0.143
-413.398	-200.000	-0.013	0.067
-412.384	350.722	0.085	0.166
-411.369	319.085	-0.094	0.177
-410.355	-169.069	-0.229	0.008
-409.340	202.598	0.042	-0.064
-408.325	-72.742	-0.068	-0.025
-407.311	-32.803	-0.110	-0.060
-406.296	192.127	-0.015	0.022
-405.282	49.487	0.163	0.152
-404.267	800.000	-0.040	-0.166
-403.252	800.000	0.182	0.507
-402.238	-200.000	-0.056	-0.250
-401.223	-132.881	-0.166	0.021
-400.209	89.346	0.229	-0.252
-399.194	722.510	-0.032	0.084
-398.179	373.814	-0.033	-0.066
-397.165	-200.000	0.059	-0.297
-396.150	-200.000	-0.029	0.446
-395.136	101.802	-0.045	0.052
-394.121	-75.786	0.251	0.088
-393.106	-200.000	0.011	-0.256
-392.092	325.088	0.170	0.320
-391.077	800.000	0.099	-0.413
-390.063	-34.891	-0.152	-0.082
-389.048	135.578	-0.116	-0.149
-388.033	-65.532	-0.287	-0.114
-387.019	167.933	-0.210	0.295
-386.004	-4.577	0.324	0.221
-384.990	800.000	-0.056	-0.170
-383.975	39.951	0.146	-0.129
-382.960	800.000	-0.069	-0.255
-381.946	800.000	-0.027	-0.099
-380.931	800.000	-0.060	0.183
-379.917	330.400	0.189	0.359
-378.902	-73.927	0.155	0.055
-377.888	38.163	0.228	-0.200
-376.873	-66.373	0.159	0.062
-375.858	-69.841	0.273	0.103
-374.844	455.713	-0.129	0.282
-373.829	15.105	0.123	-0.095
-372.815	-70.449	-0.166	-0.062
-371.800	598.727	0.076	0.186
-370.785	-170.751	0.248	-0.008
-369.771	142.573	0.238	-0.312
-368.756	38.407	0.077	0.068
-367.742	-200.000	-0.019	0.408
-366.727	-41.044	0.193	-0.098
-365.712	43.630	-0.079	-0.071
-364.698	-69.396	-0.168	-0.064
-363.683	-37.165	0.350	0.185
-362.669	268.155	-0.180	0.312
-361.654	800.000	-0.039	0.148
-360.639	-200.000	-0.033	-0.306
-359.625	-137.554	-0.184	0.020
-358.610	800.000	-0.090	0.297
-357.596	-87.722	-0.388	-0.115
-356.581	-2.300	-0.131	0.091
-355.566	174.913	-0.136	0.194
-354.552	450.064	0.010	-0.022
-353.537	62.498	0.052	-0.051
-352.523	79.299	-0.251	0.265
-351.508	121.263	0.096	-0.118
-350.493	126.041	0.021	0.026
-349.479	151.759	-0.155	0.208
-348.464	-0.907	0.189	0.132
-347.450	-200.000	-0.008	-0.283
-346.435	11.373	-0.151	-0.114
-345.420	-92.291	-0.186	-0.052
-344.406	800.000	0.050	-0.170
-343.391	-103.015	0.210	0.049
-342.377	-57.540	0.240	-0.104
-341.362	-35.782	0.224	-0.120
-340.348	-166.535	-0.098	0.004
-339.333	800.000	-0.121	0.381
-338.318	-200.000	-0.056	0.261
-337.304	-82.872	0.212	0.068
-336.289	-200.000	-0.032	0.206
-335.275	242.126	0.076	-0.125
-334.260	800.000	-0.035	-0.115
-333.245	-200.000	-0.006	-0.066
-332.231	-200.000	0.050	0.265
-331.216	11.582	0.126	0.095
-330.202	-134.953	0.335	-0.040
-329.187	-75.097	-0.316	0.112
-328.172	167.484	-0.146	-0.205
-327.158	-79.507	-0.153	0.051
-326.143	-98.770	0.124	0.031
-325.129	-50.623	-0.266	0.124
-324.114	-50.078	-0.337	0.157
-323.099	-67.945	0.175	0.067
-322.085	84.600	-0.195	0.210
-321.070	560.327	0.086	-0.204
-320.056	-126.931	-0.092	0.013
-319.041	-200.000	-0.013	0.168
-318.026	-200.000	0.058	0.321
-317.012	32.966	-0.287	0.245
-315.997	425.309	-0.173	0.366
-314.983	-76.174	0.216	-0.075
-313.968	-200.000	0.030	-0.295
-312.953	-200.000	0.006	0.191
-311.939	800.000	-0.094	0.404
-310.924	-200.000	0.058	0.272
-309.910	12.921	-0.324	0.247
-308.895	-126.586	0.362	0.053
-307.880	-2.665	-0.204	-0.141
-306.866	626.390	0.133	-0.330
-305.851	580.975	-0.018	-0.043
-304.837	-200.000	-0.024	-0.141
-303.822	-124.215	-0.091	-0.014
-302.807	70.988	-0.052	0.053
-301.793	11.424	0.133	-0.100
-300.778	102.851	-0.251	0.289
-299.764	-200.000	-0.017	-0.098
-298.749	392.932	0.217	-0.445
-297.735	-200.000	0.041	-0.320
-296.720	28.150	0.152	0.126
-295.705	-80.717	0.173	0.057
-294.691	313.666	-0.174	0.323
-293.676	348.120	-0.145	-0.281
-292.662	-122.150	-0.348	-0.056
-291.647	800.000	-0.037	-0.152
-290.632	129.811	-0.175	-0.220
-289.618	-57.832	0.069	0.030
-288.603	-200.000	0.019	0.180
-287.589	800.000	-0.023	0.080
-286.574	39.356	0.243	0.214
-285.559	33.837	0.307	-0.263
-284.545	-200.000	-0.012	-0.096
-283.530	335.079	-0.090	0.172
-282.516	-134.037	-0.140	0.017
-281.501	-200.000	-0.009	0.477
-280.486	-21.820	0.093	-0.056
-279.472	-196.739	0.255	0.002
-278.457	-16.857	0.264	0.164
-277.443	7.949	-0.137	-0.101
-276.428	686.724	0.117	-0.302
-275.413	-73.681	0.097	-0.035
-274.399	800.000	0.048	-0.136
-273.384	-200.000	-0.006	-0.067
-272.370	-61.800	0.026	0.011
-271.355	-151.770	-0.417	0.030
-270.340	265.862	0.052	-0.089
-269.326	6.517	0.245	0.179
-268.311	-15.015	0.096	0.060
-267.297	-200.000	0.005	0.125
-266.282	446.459	0.114	0.247
-265.267	-200.000	-0.020	-0.102
-264.253	94.546	0.249	-0.279
-263.238	47.152	-0.072	-0.066
-262.224	-92.750	0.141	0.039
-261.209	85.379	-0.197	0.213
-260.195	800.000	0.069	0.267
-259.180	-21.292	0.153	0.092
-258.165	-57.879	-0.165	0.071
-257.151	-32.704	-0.157	0.086
-256.136	-92.418	0.279	-0.077
-255.122	356.228	-0.083	0.163
-254.107	-78.010	0.118	0.040
-253.092	-200.000	0.025	-0.115
-252.078	-49.278	0.289	-0.136
-251.063	-30.514	-0.070	-0.039
-250.049	60.087	0.200	-0.195
-249.034	-200.000	0.065	-0.498
-248.019	-50.234	0.304	-0.141
-247.005	52.841	0.154	-0.145
-245.990	329.728	0.057	-0.107
-244.976	94.872	-0.203	-0.226
-243.961	-200.000	-0.073	-0.443
-242.946	247.240	-0.079	-0.131
-241.932	800.000	-0.050	0.137
-240.917	-79.109	0.104	-0.035
-239.903	-200.000	0.004	-0.118
-238.888	-200.000	-0.009	0.129
-237.873	-18.828	0.245	-0.150
-236.859	227.816	0.091	-0.145
-235.844	352.870	-0.078	-0.152
-234.830	800.000	0.075	0.254
-233.815	-26.662	0.213	-0.122
-232.800	-78.916	-0.225	0.075
-231.786	800.000	0.114	-0.390
-230.771	628.856	-0.012	0.031
-229.757	-200.000	-0.003	0.305
-228.742	800.000	-0.066	0.190
-227.727	37.427	-0.067	0.059
-226.713	800.000	0.104	0.303
-225.698	411.539	0.109	0.228
-224.684	33.987	0.129	0.111
-223.669	-132.545	0.328	0.041
-222.655	-38.113	0.156	0.081
-221.640	-200.000	0.029	0.250
-220.625	-132.657	-0.204	-0.026
-219.611	800.000	-0.032	0.122
-218.596	-47.235	-0.023	0.011
-217.582	-58.138	0.315	0.135
-216.567	-200.000	0.012	0.054
-215.552	-200.000	-0.010	0.173
-214.538	-200.000	0.029	-0.209
-213.523	-200.000	0.001	0.038
-212.509	194.112	-0.119	0.177
-211.494	343.775	0.137	-0.264
-210.479	594.895	-0.050	0.121
-209.465	-3.470	0.073	0.050
-208.450	-53.076	0.141	-0.063
-207.436	-115.042	-0.107	-0.020
-206.421	-135.030	0.161	-0.019
-205.406	-200.000	-0.028	0.123
-204.392	47.804	-0.170	0.156
-203.377	-58.957	-0.258	0.109
-202.363	9.244	0.358	-0.265
-201.348	2.650	-0.333	-0.237
-200.333	-200.000	0.004	0.123
-199.319	-200.000	0.027	-0.345
-198.304	715.582	0.067	0.175
-197.290	800.000	-0.111	0.313
-196.275	-36.892	-0.102	-0.054
-195.260	-200.000	0.028	-0.201
-194.246	-200.000	-0.008	0.177
-193.231	-130.790	0.124	0.016
-192.217	308.364	0.227	0.415
-191.202	-200.000	-0.005	-0.083
-190.187	205.858	0.097	0.148
-189.173	-123.544	-0.327	-0.051
-188.158	800.000	0.006	0.017
-187.144	51.115	-0.044	0.041
-186.129	18.009	-0.153	0.120
-185.114	57.641	0.372	0.356
-184.100	32.831	0.180	0.152
-183.085	55.577	-0.090	0.085
-182.071	-200.000	0.040	0.343
-181.056	503.677	-0.086	-0.196
-180.042	-200.000	-0.012	0.131
-179.027	448.785	-0.114	-0.246
-178.012	104.416	0.028	0.033
-176.998	182.096	-0.127	-0.184
-175.983	-200.000	0.032	0.137
-174.969	45.569	0.130	0.117
-173.954	18.342	-0.230	-0.180
-172.939	58.227	0.332	0.319
-171.925	642.010	-0.100	0.249
-170.910	50.054	-0.072	-0.067
-169.896	227.419	-0.082	-0.131
-168.881	47.176	-0.226	-0.206
-167.866	-46.666	0.141	0.068
-166.852	252.824	-0.145	-0.242
-165.837	-200.000	0.025	-0.242
-164.823	-55.096	0.348	-0.153
-163.808	78.835	0.066	0.069
-162.793	26.559	-0.165	-0.135
-161.779	39.695	0.104	-0.091
-160.764	1.112	-0.093	-0.065
-159.750	-39.169	-0.125	-0.064
-158.735	-98.279	0.191	-0.048
-157.720	31.163	0.118	-0.099
-156.706	-20.026	0.226	-0.137
-155.691	800.000	0.043	-0.181
-154.677	45.227	0.127	0.114
-153.662	800.000	-0.075	0.302
-152.647	29.074	-0.073	0.061
-151.633	18.002	-0.165	-0.129
-150.618	-97.801	-0.165	0.042
-149.604	-56.003	0.243	-0.106
-148.589	-24.449	0.173	-0.101
-147.574	-25.519	0.170	-0.098
-146.560	-189.904	-0.186	0.002
-145.545	21.755	-0.100	-0.080
-144.531	800.000	-0.061	0.186
-143.516	-19.301	0.284	0.172
-142.502	103.628	0.065	-0.074
-141.487	-141.679	0.285	0.028
-140.472	-200.000	-0.021	-0.127
-139.458	-19.995	0.259	0.156
-138.443	315.525	0.057	0.105
-137.429	-60.843	0.244	-0.101
-136.414	-167.911	0.109	-0.004
-135.399	-200.000	0.030	-0.230
-134.385	-3.548	0.122	0.083
-133.370	800.000	0.024	-0.089
-132.356	138.221	-0.191	-0.245
-131.341	-159.866	-0.141	0.008
-130.326	433.177	0.038	0.081
-129.312	800.000	0.109	-0.398
-128.297	7.321	-0.232	0.169
-127.283	-18.178	-0.164	0.100
-126.268	82.170	0.118	0.125
-125.253	35.780	0.238	0.205
-124.239	169.361	0.131	0.183
-123.224	-112.808	0.059	0.011
-122.210	289.660	-0.137	0.243
-121.195	-108.811	0.315	0.066
