DTS Sentinel unit serial number:	SN413079Multiplexer serial number:	ORYXHardware model number:	OX4-SRSoftware version number:	ORYX F/W v4.00 Oryx Data Collector v3.7.2.0data status	okinstallation	princeton_trtdifferential loss correction	single-endedforward channel	channel 2reverse channel	N/Adate	2019/09/13time	10:47:35forward acquisition time	60.00reverse acquisition time	0.00gamma	496.2192k internal	0.2323k external	0.2323temperature offset calibration	1.0190default loss term (dB/km)	0.3790temperature slope calibration	1.0000multiplexer offset coefficient	1.0000multiplexer slope coefficient	1.0000fibre end	0.00T internal ref (°C)	31.62T ext. ref 1 (°C)	4.60T ext. ref 2 (°C)	28.27length (m)	temperature (°C)	Stokes	anti-Stokes-747.200	800.000	0.062	-0.201
-746.185	-200.000	-0.100	0.481
-745.171	81.578	-0.111	-0.121
-744.156	63.621	-0.364	0.369
-743.142	337.627	-0.122	0.240
-742.127	800.000	-0.096	0.320
-741.112	16.167	0.248	0.197
-740.098	63.994	-0.182	0.185
-739.083	-32.012	-0.069	-0.039
-738.069	-139.970	-0.108	-0.012
-737.054	-200.000	0.041	0.207
-736.039	-35.258	-0.238	-0.130
-735.025	4.648	0.102	-0.075
-734.010	344.693	0.141	-0.280
-732.996	-200.000	-0.041	-0.459
-731.981	-63.615	0.178	-0.074
-730.966	-19.734	-0.202	0.126
-729.952	4.617	-0.035	0.026
-728.937	-131.710	-0.203	0.027
-727.923	-200.000	-0.034	0.396
-726.908	800.000	0.021	-0.075
-725.894	-116.411	0.038	0.007
-724.879	265.633	-0.182	0.320
-723.864	-200.000	-0.021	-0.123
-722.850	88.888	-0.206	-0.231
-721.835	51.300	-0.073	-0.070
-720.821	80.434	-0.048	0.053
-719.806	-100.013	-0.034	0.009
-718.791	-107.403	-0.250	-0.055
-717.777	-27.978	-0.214	0.125
-716.762	248.817	-0.062	-0.106
-715.748	358.339	-0.101	-0.203
-714.733	49.812	-0.147	0.140
-713.718	649.623	0.016	-0.041
-712.704	777.518	0.049	-0.134
-711.689	-164.538	0.240	0.011
-710.675	-24.693	-0.368	0.221
-709.660	560.748	-0.063	0.152
-708.645	-0.355	0.372	-0.266
-707.631	346.268	0.106	-0.210
-706.616	450.175	-0.053	0.119
-705.602	-101.296	0.235	0.058
-704.587	163.919	0.209	0.297
-703.572	-156.158	-0.050	0.003
-702.558	561.107	0.106	0.259
-701.543	248.782	0.200	-0.341
-700.529	7.319	-0.236	-0.178
-699.514	-85.701	-0.207	-0.065
-698.499	78.729	0.218	-0.235
-697.485	10.209	-0.118	0.090
-696.470	800.000	0.045	0.160
-695.456	13.659	-0.046	-0.036
-694.441	800.000	-0.140	0.493
-693.426	-104.857	-0.181	0.042
-692.412	-37.369	-0.270	-0.146
-691.397	-100.646	-0.157	0.039
-690.383	103.971	-0.208	0.246
-689.368	69.295	-0.149	0.154
-688.354	224.866	-0.122	0.198
-687.339	800.000	-0.054	0.171
-686.324	-117.421	0.407	0.074
-685.310	400.886	0.104	0.221
-684.295	-200.000	-0.051	-0.258
-683.281	-56.696	-0.305	0.136
-682.266	263.594	0.056	-0.099
-681.251	65.599	0.262	-0.267
-680.237	57.213	0.130	-0.128
-679.222	-200.000	-0.034	0.342
-678.208	800.000	-0.076	0.215
-677.193	-200.000	-0.043	0.262
-676.178	800.000	0.004	-0.018
-675.164	303.562	0.077	-0.143
-674.149	800.000	0.076	0.305
-673.135	516.483	-0.049	0.115
-672.120	172.964	-0.097	-0.140
-671.105	59.573	-0.048	0.047
-670.091	800.000	0.048	0.175
-669.076	-200.000	0.001	0.168
-668.062	97.215	-0.133	0.154
-667.047	83.448	-0.352	-0.386
-666.032	-138.225	0.116	0.013
-665.018	-157.799	0.049	-0.003
-664.003	-30.795	-0.148	0.084
-662.989	129.099	0.120	0.155
-661.974	-200.000	0.017	0.508
-660.959	-56.506	0.228	0.102
-659.945	-108.984	-0.096	0.021
-658.930	113.062	-0.060	0.074
-657.916	-48.554	0.197	0.095
-656.901	-154.611	-0.356	-0.024
-655.886	87.582	0.178	0.198
-654.872	-123.971	0.233	-0.037
-653.857	-200.000	0.002	0.051
-652.843	41.962	-0.081	-0.074
-651.828	-200.000	0.077	0.340
-650.814	12.183	0.268	-0.208
-649.799	800.000	0.037	0.151
-648.784	800.000	0.120	-0.371
-647.770	-87.889	0.141	-0.043
-646.755	27.017	0.060	-0.050
-645.741	-64.288	-0.189	0.077
-644.726	-200.000	0.017	-0.084
-643.711	-200.000	0.062	-0.312
-642.697	151.148	0.188	0.257
-641.682	800.000	0.044	-0.164
-640.668	-54.548	0.202	0.092
-639.653	800.000	0.011	0.035
-638.638	-5.430	0.386	-0.267
-637.624	105.779	-0.202	-0.240
-636.609	-5.740	0.223	0.153
-635.595	-78.967	-0.257	-0.088
-634.580	782.976	0.157	-0.432
-633.565	800.000	-0.033	-0.145
-632.551	-85.910	-0.122	0.038
-631.536	413.920	-0.013	0.027
-630.522	-51.474	-0.608	0.286
-629.507	-126.118	-0.324	-0.049
-628.492	69.947	-0.252	0.261
-627.478	24.674	0.193	0.160
-626.463	133.934	0.208	-0.270
-625.449	467.774	0.085	-0.192
-624.434	800.000	0.180	0.535
-623.419	-91.804	0.344	-0.098
-622.405	452.231	-0.022	0.049
-621.390	-78.723	0.141	-0.048
-620.376	-31.231	-0.096	-0.055
-619.361	55.274	-0.068	-0.066
-618.346	-12.452	-0.082	0.054
-617.332	-46.774	0.079	-0.039
-616.317	213.387	-0.287	0.455
-615.303	-200.000	-0.003	-0.022
-614.288	-151.889	0.389	-0.029
-613.273	645.967	0.180	0.461
-612.259	-163.858	-0.389	0.018
-611.244	-50.483	-0.355	-0.168
-610.230	-200.000	-0.008	-0.189
-609.215	-87.812	-0.174	-0.053
-608.201	126.134	0.085	-0.108
-607.186	-29.913	0.195	0.111
-606.171	218.121	-0.116	-0.186
-605.157	28.071	-0.149	0.127
-604.142	800.000	-0.041	0.138
-603.128	800.000	-0.221	-0.653
-602.113	-200.000	-0.062	-0.304
-601.098	-200.000	0.008	-0.290
-600.084	46.752	-0.224	-0.209
-599.069	106.165	0.070	-0.083
-598.055	-200.000	0.005	0.189
-597.040	4.700	-0.336	-0.247
-596.025	800.000	0.033	-0.127
-595.011	-95.573	0.332	0.089
-593.996	-186.288	-0.248	0.004
-592.982	682.034	-0.115	0.301
-591.967	-118.190	0.018	0.003
-590.952	-200.000	0.011	0.106
-589.938	-37.464	0.102	-0.055
-588.923	-1.092	-0.223	-0.158
-587.909	240.353	-0.131	0.220
-586.894	129.087	-0.180	0.230
-585.879	-82.743	-0.160	-0.052
-584.865	-103.455	0.118	-0.028
-583.850	-87.746	-0.198	-0.060
-582.836	-73.732	-0.299	0.109
-581.821	-163.806	0.069	-0.003
-580.806	482.724	0.165	-0.377
-579.792	800.000	0.068	0.195
-578.777	-200.000	0.013	-0.105
-577.763	-116.394	0.179	-0.033
-576.748	55.142	-0.169	0.164
-575.733	-58.665	-0.499	0.217
-574.719	0.136	-0.125	0.090
-573.704	516.920	0.123	0.290
-572.690	367.646	-0.262	0.530
-571.675	-191.573	0.196	0.002
-570.661	-200.000	-0.001	-0.284
-569.646	157.316	-0.077	-0.106
-568.631	310.156	-0.147	-0.276
-567.617	101.298	-0.141	0.165
-566.602	780.689	0.069	-0.189
-565.588	-200.000	0.042	0.194
-564.573	23.817	-0.162	0.134
-563.558	-69.020	0.191	0.074
-562.544	-55.202	-0.381	0.172
-561.529	54.318	0.223	0.215
-560.515	-71.817	0.285	-0.106
-559.500	-200.000	0.044	-0.254
-558.485	0.782	0.179	0.128
-557.471	729.353	-0.127	0.339
-556.456	800.000	-0.082	-0.278
-555.442	-99.079	-0.148	-0.037
-554.427	38.244	0.145	0.129
-553.412	-8.091	-0.120	-0.081
-552.398	-200.000	0.011	-0.267
-551.383	-21.314	0.130	0.079
-550.369	-67.011	0.329	0.130
-549.354	800.000	0.126	-0.450
-548.339	-139.267	-0.354	-0.038
-547.325	-5.114	0.140	-0.096
-546.310	800.000	0.031	-0.105
-545.296	-91.028	0.132	-0.038
-544.281	37.397	0.252	-0.224
-543.266	-103.477	0.244	0.058
-542.252	238.196	-0.101	-0.167
-541.237	-84.601	-0.244	-0.077
-540.223	126.144	-0.041	0.052
-539.208	-9.330	0.128	-0.086
-538.193	-115.890	-0.203	0.038
-537.179	800.000	0.091	-0.266
-536.164	-60.524	0.348	0.148
-535.150	-141.489	-0.223	0.023
-534.135	-98.223	-0.452	0.116
-533.121	48.757	0.173	-0.162
-532.106	-116.183	-0.068	0.013
-531.091	142.650	-0.305	-0.405
-530.077	-200.000	-0.035	0.211
-529.062	-34.632	0.243	-0.133
-528.048	31.649	0.156	-0.135
-527.033	109.874	0.194	-0.233
-526.018	-200.000	0.025	-0.153
-525.004	153.980	0.274	0.376
-523.989	800.000	0.009	0.024
-522.975	-200.000	0.011	0.085
-521.960	93.306	-0.166	0.188
-520.945	-15.166	0.284	-0.182
-519.931	-136.969	-0.303	0.035
-518.916	-55.916	-0.100	-0.045
-517.902	-200.000	0.013	-0.148
-516.887	800.000	-0.080	0.324
-515.872	230.478	0.062	0.101
-514.858	-144.537	0.391	0.036
-513.843	338.893	0.098	-0.192
-512.829	-200.000	0.059	-0.342
-511.814	47.997	-0.324	-0.303
-510.799	-200.000	-0.018	-0.084
-509.785	800.000	0.042	0.146
-508.770	313.070	-0.111	-0.208
-507.756	-200.000	0.009	0.275
-506.741	-50.626	-0.161	-0.076
-505.726	119.981	0.107	-0.133
-504.712	711.429	-0.029	-0.078
-503.697	-77.194	0.218	0.076
-502.683	20.779	0.174	0.141
-501.668	210.845	-0.127	0.199
-500.653	186.073	0.169	0.252
-499.639	-200.000	-0.027	0.134
-498.624	-200.000	0.027	0.260
-497.610	262.471	0.017	0.029
-496.595	48.288	0.236	0.221
-495.581	488.809	0.037	0.084
-494.566	-200.000	-0.006	0.102
-493.551	-84.396	-0.072	-0.023
-492.537	-95.490	0.058	-0.016
-491.522	116.983	-0.125	-0.153
-490.508	123.498	-0.179	-0.224
-489.493	-84.724	-0.141	-0.044
-488.478	800.000	-0.067	0.225
-487.464	-179.178	-0.122	-0.003
-486.449	-72.528	0.107	0.039
-485.435	-125.606	0.199	0.030
-484.420	-109.282	-0.218	-0.046
-483.405	49.265	0.049	0.046
-482.391	101.435	0.315	-0.367
-481.376	11.367	-0.087	0.066
-480.362	-66.335	0.292	0.116
-479.347	-9.618	0.196	-0.131
-478.332	395.127	-0.037	0.078
-477.318	-200.000	-0.024	-0.113
-476.303	-23.472	-0.110	-0.066
-475.289	396.765	0.101	-0.210
-474.274	19.628	0.119	0.096
-473.259	-200.000	0.009	-0.252
-472.245	-200.000	-0.036	-0.228
-471.230	-145.831	0.241	-0.021
-470.216	274.858	-0.049	0.086
-469.201	-64.578	-0.061	-0.025
-468.186	-56.807	-0.213	0.094
-467.172	65.119	0.139	-0.141
-466.157	-200.000	-0.021	-0.244
-465.143	262.828	0.155	-0.269
-464.128	193.077	0.071	-0.107
-463.113	-200.000	0.017	0.091
-462.099	800.000	-0.078	-0.227
-461.084	800.000	-0.069	0.259
-460.070	-200.000	0.036	0.179
-459.055	321.304	0.218	-0.414
-458.040	20.044	0.179	-0.144
-457.026	0.369	0.193	-0.138
-456.011	-88.924	0.094	-0.028
-454.997	-200.000	0.025	0.150
-453.982	-104.284	0.059	-0.014
-452.968	98.967	0.122	0.141
-451.953	-99.917	0.149	-0.037
-450.938	103.167	-0.064	0.075
-449.924	64.478	0.108	-0.109
-448.909	-34.705	-0.153	-0.083
-447.895	80.124	-0.116	0.125
-446.880	10.490	-0.159	-0.121
-445.865	-200.000	-0.028	0.136
-444.851	-49.114	-0.130	-0.062
-443.836	-82.514	-0.154	0.050
-442.822	209.010	-0.190	-0.297
-441.807	-33.629	0.137	0.076
-440.792	72.792	0.246	0.256
-439.778	-24.203	0.137	0.082
-438.763	-27.063	-0.165	0.096
-437.749	718.311	0.101	0.269
-436.734	-133.642	-0.012	-0.002
-435.719	-200.000	-0.011	0.057
-434.705	800.000	-0.034	0.138
-433.690	135.637	0.244	-0.316
-432.676	131.571	0.040	0.052
-431.661	721.424	-0.056	0.148
-430.646	383.375	0.228	0.467
-429.632	-118.828	-0.337	0.059
-428.617	28.384	-0.073	0.062
-427.603	-139.505	0.187	-0.020
-426.588	521.143	0.025	-0.058
-425.573	800.000	-0.065	0.200
-424.559	44.281	0.077	0.070
-423.544	521.557	-0.044	0.102
-422.530	-144.404	-0.380	-0.035
-421.515	113.039	-0.042	-0.051
-420.500	18.317	-0.164	-0.131
-419.486	-68.687	-0.285	0.110
-418.471	27.143	0.108	-0.091
-417.457	-44.639	0.219	-0.109
-416.442	142.954	0.191	0.254
-415.428	411.695	-0.146	-0.309
-414.413	-200.000	0.022	-0.256
-413.398	-81.417	0.143	0.047
-412.384	800.000	-0.050	0.147
-411.369	230.424	0.033	-0.053
-410.355	-200.000	0.004	0.057
-409.340	80.465	-0.205	-0.220
-408.325	-108.175	-0.218	0.047
-407.311	-83.579	-0.299	0.095
-406.296	800.000	0.090	0.263
-405.282	140.448	0.155	-0.204
-404.267	39.729	-0.106	-0.095
-403.252	2.150	-0.062	-0.045
-402.238	-200.000	-0.051	0.250
-401.223	55.059	-0.199	0.191
-400.209	800.000	0.045	0.186
-399.194	-48.645	0.132	-0.063
-398.179	292.777	0.049	-0.089
-397.165	-105.663	0.170	0.038
-396.150	800.000	0.056	-0.223
-395.136	800.000	-0.061	0.224
-394.121	30.164	-0.158	-0.134
-393.106	36.042	0.125	0.110
-392.092	666.593	-0.016	0.042
-391.077	800.000	-0.036	-0.151
-390.063	800.000	0.035	-0.101
-389.048	-200.000	-0.099	0.456
-388.033	48.074	0.078	-0.072
-387.019	-94.870	-0.140	0.038
-386.004	-188.250	0.251	-0.003
-384.990	499.977	0.117	0.269
-383.975	-200.000	0.010	0.172
-382.960	113.792	0.134	-0.163
-381.946	-200.000	-0.046	-0.213
-380.931	-85.000	-0.104	0.033
-379.917	-124.277	0.148	-0.023
-378.902	-124.922	-0.279	-0.043
-377.888	-69.281	0.071	-0.027
-376.873	-83.872	-0.116	-0.037
-375.858	263.756	0.139	-0.240
-374.844	429.111	0.111	0.239
-373.829	34.475	0.139	0.121
-372.815	110.348	-0.283	0.339
-371.800	255.499	-0.008	-0.013
-370.785	800.000	-0.065	-0.268
-369.771	51.433	-0.043	-0.041
-368.756	-111.063	0.215	0.044
-367.742	-23.516	-0.219	-0.131
-366.727	-78.688	-0.063	0.021
-365.712	443.718	0.138	0.302
-364.698	-67.615	0.238	0.093
-363.683	-200.000	0.052	0.287
-362.669	-200.000	-0.016	0.183
-361.654	472.015	0.143	0.321
-360.639	44.862	-0.064	0.058
-359.625	800.000	-0.093	-0.333
-358.610	46.985	-0.090	0.083
-357.596	-107.247	-0.106	-0.023
-356.581	72.260	0.224	-0.232
-355.566	167.369	0.171	0.242
-354.552	800.000	-0.043	-0.139
-353.537	-200.000	0.016	-0.143
-352.523	-42.487	-0.118	0.060
-351.508	-200.000	-0.007	-0.169
-350.493	-12.555	-0.361	-0.235
-349.479	-200.000	-0.038	-0.174
-348.464	-39.641	0.176	-0.091
-347.450	100.872	0.125	-0.145
-346.435	-200.000	-0.012	-0.073
-345.420	-128.109	-0.281	0.040
-344.406	800.000	-0.047	0.174
-343.391	322.112	-0.050	-0.095
-342.377	-63.136	0.288	-0.118
-341.362	114.659	0.095	0.115
-340.348	-93.282	0.302	0.083
-339.333	-7.883	0.190	0.127
-338.318	85.530	-0.349	-0.382
-337.304	-84.070	-0.232	-0.073
-336.289	-79.542	-0.049	0.016
-335.275	-200.000	0.010	-0.340
-334.260	800.000	0.082	-0.250
-333.245	-200.000	0.010	0.057
-332.231	205.760	-0.079	-0.122
-331.216	-48.646	-0.053	0.025
-330.202	474.560	-0.063	0.140
-329.187	-114.807	0.360	0.068
-328.172	-86.699	-0.084	0.026
-327.158	-52.156	0.039	-0.018
-326.143	-64.919	-0.287	-0.115
-325.129	71.735	-0.143	0.147
-324.114	-165.774	0.487	-0.021
-323.099	83.590	-0.193	-0.209
-322.085	163.942	0.107	0.150
-321.070	74.936	-0.039	-0.040
-320.056	-27.520	-0.039	0.023
-319.041	-70.513	0.179	0.067
-318.026	-18.770	0.219	-0.135
-317.012	-172.513	0.092	-0.003
-315.997	2.727	0.325	0.234
-314.983	-33.945	0.110	-0.060
-313.968	-69.901	-0.205	-0.078
-312.953	-55.135	0.206	-0.092
-311.939	-200.000	0.035	-0.389
-310.924	-200.000	-0.004	-0.164
-309.910	-105.004	-0.520	-0.118
-308.895	160.579	-0.053	-0.073
-307.880	-200.000	0.082	0.432
-306.866	-200.000	0.001	0.039
-305.851	-200.000	-0.031	0.160
-304.837	-104.885	0.335	0.076
-303.822	-200.000	-0.036	-0.221
-302.807	285.253	-0.060	0.107
-301.793	-74.052	-0.083	0.030
-300.778	31.939	-0.129	0.110
-299.764	75.611	-0.228	0.238
-298.749	-200.000	0.005	-0.031
-297.735	210.474	-0.046	0.071
-296.720	15.231	0.335	0.261
-295.705	-200.000	0.023	-0.119
-294.691	513.132	-0.127	0.295
-293.676	320.470	-0.137	0.258
-292.662	5.622	0.143	0.105
-291.647	800.000	-0.040	0.141
-290.632	800.000	-0.083	0.252
-289.618	225.404	0.047	-0.075
-288.603	-200.000	0.032	-0.291
-287.589	-24.141	-0.322	0.191
-286.574	-81.376	0.242	0.079
-285.559	-137.840	-0.366	0.041
-284.545	226.538	-0.157	0.253
-283.530	-130.253	0.176	-0.024
-282.516	-200.000	0.042	-0.217
-281.501	-74.692	0.248	0.088
-280.486	-200.000	-0.050	-0.322
-279.472	0.255	-0.195	-0.138
-278.457	-66.019	-0.311	0.123
-277.443	131.286	0.180	0.229
-276.428	800.000	-0.074	0.258
-275.413	-101.044	0.360	-0.088
-274.399	-81.878	-0.369	-0.120
-273.384	-200.000	0.016	-0.092
-272.370	-200.000	-0.001	0.035
-271.355	0.065	0.075	-0.053
-270.340	316.427	0.099	0.185
-269.326	-200.000	-0.006	0.269
-268.311	-129.173	-0.095	0.013
-267.297	-200.000	-0.055	-0.249
-266.282	332.911	0.029	0.055
-265.267	543.424	0.191	0.452
-264.253	27.091	0.232	0.193
-263.238	-200.000	0.034	-0.172
-262.224	291.781	0.155	0.280
-261.209	-200.000	-0.078	0.465
-260.195	-23.241	0.163	0.097
-259.180	-109.515	-0.211	0.044
-258.165	324.085	0.146	-0.275
-257.151	-140.480	0.154	-0.016
-256.136	691.267	0.122	0.315
-255.122	-135.689	-0.261	-0.031
-254.107	107.528	-0.151	0.178
-253.092	-152.062	-0.178	-0.013
-252.078	24.223	0.180	0.147
-251.063	-117.551	-0.110	0.020
-250.049	310.291	0.114	-0.212
-249.034	24.360	0.160	0.131
-248.019	-200.000	-0.041	0.222
-247.005	32.290	-0.084	0.072
-245.990	243.532	0.149	0.248
-244.976	-110.200	-0.279	0.058
-243.961	-57.053	-0.055	0.024
-242.946	-200.000	0.011	-0.230
-241.932	-12.566	-0.204	0.132
-240.917	86.576	0.313	0.341
-239.903	76.946	0.133	0.140
-238.888	-145.646	-0.332	0.029
-237.873	-190.823	-0.218	-0.002
-236.859	800.000	0.044	-0.136
-235.844	-178.991	-0.335	-0.007
-234.830	174.374	-0.119	-0.171
-233.815	-200.000	-0.049	-0.295
-232.800	33.944	0.066	-0.057
-231.786	-200.000	0.018	0.138
-230.771	-15.283	-0.235	-0.149
-229.757	800.000	0.015	0.063
-228.742	14.568	-0.300	0.232
-227.727	-129.304	0.170	0.023
-226.713	-200.000	-0.007	-0.041
-225.698	800.000	0.090	-0.315
-224.684	91.219	-0.063	-0.070
-223.669	191.335	0.215	0.320
-222.655	-103.015	0.287	-0.067
-221.640	-52.531	0.168	-0.077
-220.625	-200.000	-0.020	-0.283
-219.611	-200.000	-0.002	0.120
-218.596	194.863	0.131	-0.196
-217.582	-18.343	0.144	-0.089
-216.567	-162.894	0.471	-0.023
-215.552	800.000	-0.080	-0.232
-214.538	-45.717	-0.289	0.142
-213.523	-113.035	0.164	-0.032
-212.509	-200.000	0.065	-0.442
-211.494	800.000	0.065	0.182
-210.479	-88.780	-0.274	-0.080
-209.465	-200.000	0.010	0.093
-208.450	98.136	-0.104	0.118
-207.436	-135.009	0.110	0.013
-206.421	211.799	-0.127	-0.198
-205.406	-40.175	-0.157	-0.081
-204.392	-105.205	-0.322	-0.073
-203.377	-65.360	0.180	-0.072
-202.363	71.624	0.070	0.072
-201.348	50.810	0.121	0.113
-200.333	-200.000	0.033	0.230
-199.319	-200.000	-0.022	-0.208
-198.304	-200.000	0.003	0.201
-197.290	-64.448	0.065	-0.026
-196.275	360.343	0.060	0.118
-195.260	13.625	0.108	0.083
-194.246	-6.252	0.282	-0.190
-193.231	-148.406	-0.387	-0.031
-192.217	-72.903	-0.084	-0.030
-191.202	-72.282	0.222	0.081
-190.187	-200.000	-0.020	0.393
-189.173	-200.000	0.084	0.390
-188.158	-36.987	0.151	-0.080
-187.144	-200.000	0.210	-0.000
-186.129	74.536	0.204	-0.212
-185.114	-151.759	-0.142	0.010
-184.100	99.947	0.181	0.207
-183.085	-21.301	-0.024	-0.014
-182.071	-200.000	0.010	0.066
-181.056	-53.884	-0.279	-0.126
-180.042	-82.818	0.071	-0.023
-179.027	-69.138	0.309	0.117
-178.012	13.038	-0.132	0.101
-176.998	800.000	0.046	-0.194
-175.983	404.060	-0.015	0.032
-174.969	-10.478	0.314	-0.205
-173.954	-200.000	0.046	-0.394
-172.939	-200.000	-0.032	0.234
-171.925	108.622	0.176	-0.208
-170.910	38.077	0.056	-0.049
-169.896	-85.418	-0.263	-0.081
-168.881	-136.356	-0.243	-0.028
-167.866	-116.662	0.311	0.057
-166.852	-185.401	-0.327	-0.005
-165.837	31.368	-0.042	0.036
-164.823	-200.000	0.042	-0.262
-163.808	-200.000	-0.015	-0.084
-162.793	-12.811	-0.103	-0.066
-161.779	-114.121	-0.203	0.039
-160.764	800.000	0.102	0.342
-159.750	2.049	-0.220	0.157
-158.735	-200.000	0.009	0.089
-157.720	13.235	0.175	-0.134
-156.706	-104.786	0.247	-0.056
-155.691	429.106	-0.100	-0.213
-154.677	-112.319	-0.282	0.056
-153.662	185.012	0.098	-0.143
-152.647	-109.494	-0.568	-0.118
-151.633	-200.000	0.030	-0.130
-150.618	-10.168	-0.081	0.053
-149.604	-101.332	-0.273	-0.066
-148.589	-105.480	0.356	-0.080
-147.574	-200.000	0.072	0.318
-146.560	-200.000	-0.011	-0.081
-145.545	-200.000	0.018	0.321
-144.531	-84.064	0.090	-0.028
-143.516	17.482	0.208	0.163
-142.502	58.785	0.159	-0.154
-141.487	134.477	0.061	-0.078
-140.472	-7.046	0.276	0.185
-139.458	-58.549	-0.143	-0.061
-138.443	-63.263	-0.110	0.045
-137.429	-11.571	0.191	-0.124
-136.414	-200.000	0.020	-0.109
-135.399	-118.114	0.387	-0.068
-134.385	125.818	-0.233	0.291
-133.370	-200.000	0.008	-0.035
-132.356	-111.585	-0.412	0.083
-131.341	158.069	-0.029	0.040
-130.326	-8.847	0.275	-0.182
-129.312	171.011	-0.143	0.202
-128.297	38.372	0.178	0.156
-127.283	-46.801	0.088	-0.042
-126.268	-55.904	-0.091	-0.040
-125.253	-200.000	-0.004	0.131
-124.239	-59.092	-0.145	-0.062
-123.224	-200.000	-0.013	-0.164
-122.210	206.759	-0.021	0.032
-121.195	-79.669	0.054	-0.018
