DTS Sentinel unit serial number:	SN413079Multiplexer serial number:	ORYXHardware model number:	OX4-SRSoftware version number:	ORYX F/W v4.00 Oryx Data Collector v3.7.2.0data status	okinstallation	princeton_trtdifferential loss correction	single-endedforward channel	channel 2reverse channel	N/Adate	2019/09/14time	21:47:35forward acquisition time	60.00reverse acquisition time	0.00gamma	496.2192k internal	0.2323k external	0.2323temperature offset calibration	1.0071default loss term (dB/km)	0.3790temperature slope calibration	1.0000multiplexer offset coefficient	1.0000multiplexer slope coefficient	1.0000fibre end	0.00T internal ref (°C)	32.75T ext. ref 1 (°C)	4.74T ext. ref 2 (°C)	27.73length (m)	temperature (°C)	Stokes	anti-Stokes-747.200	-160.354	0.129	-0.007
-746.185	71.969	0.121	0.127
-745.171	-74.297	-0.170	-0.062
-744.156	-200.000	0.052	0.302
-743.142	-48.985	-0.081	0.039
-742.127	-64.842	-0.108	0.044
-741.112	34.626	-0.205	-0.181
-740.098	-200.000	0.027	0.147
-739.083	-97.812	0.287	-0.075
-738.069	-72.956	-0.413	0.153
-737.054	-15.902	0.024	0.016
-736.039	-200.000	-0.004	0.150
-735.025	208.239	0.120	0.189
-734.010	-140.174	-0.250	0.026
-732.996	-170.635	-0.413	-0.014
-731.981	-11.230	-0.059	-0.039
-730.966	-125.048	0.352	0.055
-729.952	-175.523	-0.296	-0.008
-728.937	-200.000	-0.010	0.300
-727.923	525.079	-0.074	0.177
-726.908	263.910	-0.087	0.152
-725.894	-99.881	0.189	0.048
-724.879	-200.000	0.071	-0.511
-723.864	2.388	-0.169	-0.123
-722.850	37.046	-0.110	0.099
-721.835	148.099	0.172	0.234
-720.821	203.126	-0.254	-0.397
-719.806	113.836	-0.151	-0.186
-718.791	81.105	-0.118	-0.128
-717.777	-64.494	0.047	0.019
-716.762	800.000	-0.100	-0.406
-715.748	197.751	0.205	-0.316
-714.733	767.292	-0.075	-0.206
-713.718	-98.710	-0.273	-0.070
-712.704	236.419	-0.048	0.081
-711.689	-108.352	0.299	-0.065
-710.675	193.736	-0.268	-0.409
-709.660	800.000	-0.070	-0.253
-708.645	130.361	0.099	-0.127
-707.631	-141.915	0.244	-0.025
-706.616	800.000	0.207	-0.577
-705.602	277.440	0.116	-0.208
-704.587	-168.370	-0.100	-0.004
-703.572	-150.174	-0.381	-0.030
-702.558	800.000	0.029	-0.113
-701.543	-173.535	-0.032	-0.001
-700.529	-91.648	0.024	-0.007
-699.514	288.566	0.087	-0.158
-698.499	244.367	0.245	-0.415
-697.485	149.909	-0.095	-0.130
-696.470	-200.000	0.005	-0.108
-695.456	79.734	-0.119	-0.128
-694.441	40.469	0.181	-0.164
-693.426	288.340	-0.120	-0.220
-692.412	22.842	0.095	-0.078
-691.397	213.104	-0.138	-0.219
-690.383	-43.552	-0.079	0.040
-689.368	-130.157	-0.257	-0.035
-688.354	60.189	-0.214	-0.214
-687.339	25.612	0.282	-0.237
-686.324	800.000	0.057	0.163
-685.310	-200.000	-0.032	-0.159
-684.295	541.716	0.086	0.206
-683.281	-7.037	-0.248	0.170
-682.266	82.871	-0.315	-0.345
-681.251	633.182	-0.105	-0.269
-680.237	104.689	-0.129	-0.153
-679.222	-111.113	-0.097	0.020
-678.208	800.000	-0.035	-0.134
-677.193	-116.536	-0.060	-0.011
-676.178	-93.699	0.126	-0.035
-675.164	88.042	0.136	-0.152
-674.149	38.125	-0.312	-0.280
-673.135	-73.485	0.237	-0.087
-672.120	800.000	0.077	0.292
-671.105	141.343	-0.039	-0.052
-670.091	51.936	-0.071	0.068
-669.076	25.612	-0.112	-0.094
-668.062	-200.000	-0.003	-0.379
-667.047	10.518	-0.148	0.113
-666.032	-28.759	0.075	0.043
-665.018	245.028	-0.199	-0.337
-664.003	183.560	-0.036	0.054
-662.989	-72.975	0.265	-0.098
-661.974	800.000	0.105	-0.343
-660.959	-200.000	0.024	-0.169
-659.945	-170.971	0.031	-0.001
-658.930	800.000	-0.036	0.104
-657.916	-200.000	0.013	0.360
-656.901	230.328	0.087	0.143
-655.886	-200.000	0.047	-0.640
-654.872	-200.000	0.006	0.121
-653.857	371.587	0.074	-0.152
-652.843	10.764	0.104	0.080
-651.828	-47.355	0.036	0.018
-650.814	-200.000	-0.010	0.069
-649.799	-21.642	0.110	0.068
-648.784	-200.000	-0.033	0.216
-647.770	800.000	0.035	-0.107
-646.755	44.001	-0.212	-0.195
-645.741	-80.759	0.221	-0.074
-644.726	-108.567	0.163	-0.035
-643.711	99.962	-0.292	0.340
-642.697	-48.747	0.235	0.114
-641.682	29.888	-0.202	0.173
-640.668	-82.519	-0.240	-0.078
-639.653	-96.071	-0.334	-0.089
-638.638	800.000	0.025	0.106
-637.624	35.304	-0.196	-0.173
-636.609	194.859	0.153	-0.233
-635.595	-200.000	0.058	-0.279
-634.580	84.682	0.096	0.106
-633.565	-8.794	0.054	0.036
-632.551	-82.017	0.284	0.093
-631.536	-49.658	-0.472	-0.226
-630.522	133.313	-0.180	-0.234
-629.507	53.609	-0.136	-0.131
-628.492	0.136	0.034	0.025
-627.478	69.660	-0.180	0.186
-626.463	-109.857	0.114	0.024
-625.449	11.783	0.250	-0.193
-624.434	-42.632	0.198	-0.101
-623.419	-83.197	-0.371	-0.120
-622.405	16.180	-0.131	-0.104
-621.390	-124.446	0.362	-0.057
-620.376	280.390	-0.137	-0.245
-619.361	-19.425	-0.230	-0.143
-618.346	-13.437	-0.157	-0.102
-617.332	-200.000	-0.047	-0.235
-616.317	-7.157	-0.141	0.096
-615.303	-145.185	0.192	0.017
-614.288	18.054	0.280	0.224
-613.273	800.000	-0.018	-0.060
-612.259	179.095	-0.203	0.298
-611.244	25.468	0.226	0.188
-610.230	12.798	0.181	-0.141
-609.215	-200.000	0.016	-0.258
-608.201	36.208	0.093	0.082
-607.186	-25.519	-0.267	-0.159
-606.171	555.467	0.101	0.243
-605.157	-10.057	0.275	0.184
-604.142	-200.000	-0.035	-0.271
-603.128	-200.000	-0.120	0.000
-602.113	-21.954	0.131	0.080
-601.098	53.454	0.027	0.026
-600.084	132.446	0.182	0.235
-599.069	43.834	-0.087	-0.080
-598.055	374.979	0.058	0.119
-597.040	800.000	0.038	0.152
-596.025	-84.227	-0.317	-0.101
-595.011	-34.567	0.384	-0.211
-593.996	-170.722	0.161	-0.006
-592.982	-97.729	-0.437	-0.113
-591.967	694.020	0.047	-0.122
-590.952	219.095	-0.040	-0.064
-589.938	87.957	-0.172	-0.191
-588.923	-200.000	-0.005	-0.192
-587.909	241.432	-0.123	-0.206
-586.894	152.159	-0.131	-0.179
-585.879	151.551	-0.198	-0.270
-584.865	61.602	-0.022	-0.022
-583.850	-181.789	-0.319	0.006
-582.836	42.265	0.108	-0.099
-581.821	108.687	-0.240	-0.288
-580.806	8.470	0.094	0.071
-579.792	-87.720	-0.048	0.014
-578.777	800.000	-0.011	0.032
-577.763	-60.802	0.150	0.064
-576.748	-105.508	-0.104	0.024
-575.733	-49.558	0.133	-0.064
-574.719	54.914	-0.027	0.026
-573.704	287.486	-0.031	-0.057
-572.690	78.849	-0.197	0.212
-571.675	382.506	-0.081	0.167
-570.661	-48.458	0.225	0.109
-569.646	5.407	-0.033	0.025
-568.631	-200.000	-0.080	-0.374
-567.617	-80.575	-0.068	-0.023
-566.602	636.043	0.113	0.287
-565.588	-66.154	0.136	0.054
-564.573	188.207	0.132	-0.197
-563.558	-43.130	0.273	0.139
-562.544	800.000	-0.023	-0.065
-561.529	-156.657	-0.075	0.005
-560.515	4.353	0.324	0.238
-559.500	-200.000	-0.011	-0.214
-558.485	-118.751	-0.220	0.039
-557.471	27.842	0.154	-0.130
-556.456	4.345	0.130	0.095
-555.442	-111.216	-0.201	0.041
-554.427	800.000	-0.146	0.527
-553.412	52.863	0.145	-0.139
-552.398	-200.000	0.003	-0.272
-551.383	13.171	0.148	-0.115
-550.369	-200.000	-0.006	-0.128
-549.354	-24.279	-0.321	0.192
-548.339	-200.000	-0.002	0.357
-547.325	57.787	-0.265	-0.260
-546.310	-27.058	0.212	-0.124
-545.296	-200.000	0.010	-0.091
-544.281	7.879	0.051	0.038
-543.266	116.231	0.307	0.377
-542.252	100.464	-0.150	0.175
-541.237	-80.138	-0.093	0.031
-540.223	-200.000	-0.025	-0.198
-539.208	-45.914	0.110	0.054
-538.193	-166.273	-0.092	-0.004
-537.179	-200.000	-0.017	-0.137
-536.164	109.370	0.166	-0.199
-535.150	253.631	-0.198	0.339
-534.135	-200.000	0.032	0.235
-533.121	20.910	0.223	-0.181
-532.106	105.851	0.089	-0.105
-531.091	800.000	0.003	0.012
-530.077	-200.000	-0.001	-0.065
-529.062	-101.712	-0.258	0.063
-528.048	-105.595	-0.208	-0.047
-527.033	-200.000	-0.035	-0.646
-526.018	800.000	-0.028	0.100
-525.004	80.848	-0.101	0.110
-523.989	-25.022	0.223	0.133
-522.975	-96.967	-0.158	0.041
-521.960	-99.975	-0.128	-0.032
-520.945	800.000	0.072	-0.201
-519.931	-54.264	-0.360	-0.164
-518.916	28.366	-0.266	0.225
-517.902	169.709	0.134	0.192
-516.887	-84.652	0.091	0.029
-515.872	-123.099	-0.334	0.054
-514.858	-7.409	-0.221	-0.150
-513.843	-161.361	0.192	0.010
-512.829	69.755	0.284	0.293
-511.814	-53.284	-0.170	0.078
-510.799	-121.179	-0.338	0.057
-509.785	496.311	0.045	0.103
-508.770	-95.058	-0.027	-0.007
-507.756	49.649	0.348	0.328
-506.741	502.746	-0.035	0.081
-505.726	45.127	-0.077	-0.071
-504.712	-83.561	0.264	-0.085
-503.697	191.689	0.091	0.136
-502.683	-90.279	0.158	0.046
-501.668	-200.000	0.037	-0.209
-500.653	-177.025	0.140	-0.004
-499.639	385.782	-0.044	0.091
-498.624	148.758	0.153	-0.207
-497.610	-182.252	0.050	-0.001
-496.595	72.727	-0.128	-0.134
-495.581	121.145	0.220	0.274
-494.566	110.312	0.093	0.112
-493.551	-200.000	-0.006	0.166
-492.537	26.575	0.202	-0.169
-491.522	-69.408	0.275	-0.105
-490.508	114.783	-0.057	-0.070
-489.493	800.000	-0.067	-0.275
-488.478	3.557	0.209	-0.152
-487.464	356.624	-0.069	-0.137
-486.449	-15.692	-0.301	0.192
-485.435	42.748	-0.163	-0.148
-484.420	-30.058	-0.214	0.122
-483.405	-56.580	0.092	0.041
-482.391	-74.680	-0.188	-0.068
-481.376	-15.385	-0.036	-0.023
-480.362	188.770	-0.092	-0.138
-479.347	1.765	0.144	0.104
-478.332	-200.000	0.003	-0.095
-477.318	73.891	-0.077	-0.080
-476.303	-66.691	0.173	-0.069
-475.289	-132.417	0.052	0.007
-474.274	-154.455	0.027	0.002
-473.259	-132.392	-0.450	-0.058
-472.245	-200.000	0.037	-0.198
-471.230	-95.494	0.176	0.047
-470.216	78.871	0.194	0.207
-469.201	82.812	-0.129	0.140
-468.186	-60.971	0.186	0.078
-467.172	-165.577	-0.332	-0.014
-466.157	-162.811	0.078	-0.004
-465.143	199.930	-0.217	-0.333
-464.128	800.000	0.065	-0.187
-463.113	-146.247	-0.284	0.025
-462.099	332.657	0.140	-0.270
-461.084	492.572	0.095	-0.218
-460.070	125.829	-0.107	-0.134
-459.055	82.332	0.147	-0.159
-458.040	-8.465	-0.079	-0.053
-457.026	299.385	0.019	0.035
-456.011	800.000	0.022	0.068
-454.997	-111.692	-0.169	-0.034
-453.982	-103.221	0.223	-0.053
-452.968	-49.729	-0.401	0.190
-451.953	-98.117	-0.145	0.037
-450.938	97.680	-0.019	-0.022
-449.924	83.758	-0.118	0.128
-448.909	-200.000	0.009	-0.218
-447.895	-85.570	-0.218	-0.068
-446.880	-187.392	-0.290	-0.004
-445.865	5.650	-0.315	0.232
-444.851	800.000	-0.060	-0.210
-443.836	-112.107	-0.173	-0.035
-442.822	-61.964	-0.178	0.074
-441.807	-200.000	0.136	0.636
-440.792	-60.855	-0.199	0.084
-439.778	800.000	0.033	-0.096
-438.763	-200.000	-0.019	-0.136
-437.749	102.861	0.240	-0.281
-436.734	126.283	0.132	0.166
-435.719	-94.976	-0.454	-0.122
-434.705	-47.131	0.171	0.083
-433.690	194.938	-0.147	0.222
-432.676	-17.368	-0.229	-0.144
-431.661	-200.000	0.048	0.296
-430.646	-200.000	0.047	0.354
-429.632	-200.000	0.014	-0.133
-428.617	46.895	0.162	-0.150
-427.603	268.022	-0.187	0.326
-426.588	-109.141	0.070	-0.015
-425.573	-38.089	-0.450	-0.238
-424.559	-157.732	0.270	0.016
-423.544	800.000	0.030	-0.093
-422.530	-173.354	-0.006	-0.000
-421.515	-62.921	0.030	-0.013
-420.500	-200.000	-0.011	0.227
-419.486	651.255	0.025	0.063
-418.471	70.218	-0.009	-0.009
-417.457	133.171	0.199	0.256
-416.442	1.327	-0.202	0.145
-415.428	800.000	-0.037	-0.105
-414.413	-65.772	0.333	-0.133
-413.398	646.012	-0.116	0.296
-412.384	-200.000	0.006	0.098
-411.369	-127.476	-0.058	-0.008
-410.355	-6.541	0.246	-0.167
-409.340	800.000	-0.042	0.171
-408.325	-200.000	0.038	0.221
-407.311	-95.332	-0.076	0.020
-406.296	222.652	0.104	-0.167
-405.282	48.587	-0.075	-0.070
-404.267	31.108	-0.105	0.090
-403.252	383.097	0.072	-0.149
-402.238	92.512	0.219	-0.246
-401.223	-189.808	0.280	0.003
-400.209	-132.038	-0.137	-0.018
-399.194	-36.382	0.272	-0.146
-398.179	800.000	-0.034	-0.099
-397.165	56.135	-0.315	0.304
-396.150	-200.000	-0.051	0.228
-395.136	3.903	0.160	0.116
-394.121	-42.415	-0.240	0.122
-393.106	-200.000	-0.006	0.054
-392.092	54.130	-0.135	-0.130
-391.077	184.328	0.074	0.108
-390.063	-78.200	-0.242	0.083
-389.048	-200.000	-0.017	-0.133
-388.033	56.962	-0.031	-0.030
-387.019	-200.000	0.020	-0.214
-386.004	428.439	0.126	0.270
-384.990	800.000	-0.065	-0.244
-383.975	800.000	-0.033	-0.134
-382.960	-200.000	0.063	0.319
-381.946	189.815	-0.032	0.047
-380.931	-32.253	0.124	0.069
-379.917	51.574	0.116	0.109
-378.902	800.000	-0.013	-0.044
-377.888	56.636	0.225	-0.218
-376.873	106.112	0.050	-0.059
-375.858	-50.400	0.258	-0.121
-374.844	21.060	0.256	-0.207
-373.829	-59.248	0.262	-0.112
-372.815	4.338	-0.153	0.111
-371.800	-145.166	-0.222	-0.020
-370.785	-58.778	-0.108	0.047
-369.771	638.168	-0.117	0.295
-368.756	-28.869	-0.162	0.093
-367.742	-200.000	0.016	-0.218
-366.727	26.547	-0.206	0.172
-365.712	-200.000	0.004	-0.026
-364.698	-200.000	-0.031	-0.171
-363.683	-92.835	-0.183	-0.051
-362.669	466.500	-0.066	-0.148
-361.654	-200.000	0.034	0.159
-360.639	243.736	-0.154	0.257
-359.625	-200.000	-0.060	-0.401
-358.610	-70.610	0.390	-0.147
-357.596	-100.536	0.125	-0.031
-356.581	-136.040	0.166	0.019
-355.566	-140.143	-0.165	-0.017
-354.552	-153.854	-0.167	-0.011
-353.537	206.413	0.229	0.354
-352.523	62.623	-0.086	0.085
-351.508	-200.000	-0.025	0.365
-350.493	305.515	0.150	0.277
-349.479	10.923	-0.124	0.094
-348.464	310.131	0.086	0.161
-347.450	-9.878	0.202	0.134
-346.435	-120.153	0.316	0.054
-345.420	-38.930	-0.249	-0.130
-344.406	47.916	-0.149	0.138
-343.391	-16.487	-0.163	0.103
-342.377	-200.000	-0.046	-0.267
-341.362	281.305	-0.136	-0.242
-340.348	230.016	0.074	0.119
-339.333	-200.000	0.036	0.254
-338.318	58.188	0.209	-0.204
-337.304	-30.924	-0.259	0.145
-336.289	-29.682	-0.341	0.193
-335.275	-200.000	0.017	0.165
-334.260	-54.465	-0.069	0.031
-333.245	-102.902	-0.028	0.007
-332.231	13.166	-0.305	0.235
-331.216	-43.229	-0.102	0.051
-330.202	800.000	-0.058	-0.185
-329.187	57.566	-0.211	-0.205
-328.172	178.000	0.119	-0.172
-327.158	-200.000	-0.011	-0.052
-326.143	33.559	-0.206	-0.177
-325.129	610.149	-0.019	-0.048
-324.114	-123.481	0.131	-0.021
-323.099	-53.282	0.202	-0.092
-322.085	-43.590	0.137	-0.069
-321.070	-51.566	0.345	0.160
-320.056	-200.000	-0.036	-0.253
-319.041	-107.949	-0.194	0.042
-318.026	38.182	-0.329	-0.291
-317.012	-55.611	-0.239	-0.106
-315.997	-118.064	-0.345	-0.061
-314.983	-85.598	0.189	0.058
-313.968	-200.000	0.045	0.479
-312.953	-118.360	0.289	-0.051
-311.939	660.166	0.034	0.087
-310.924	179.201	-0.093	-0.136
-309.910	-189.479	-0.239	-0.003
-308.895	67.090	0.040	0.041
-307.880	137.194	-0.285	-0.370
-306.866	-109.467	-0.205	-0.043
-305.851	-48.624	-0.123	0.059
-304.837	-196.411	0.215	0.001
-303.822	800.000	0.046	0.138
-302.807	-168.107	0.349	0.013
-301.793	-200.000	-0.012	-0.147
-300.778	145.108	0.105	0.140
-299.764	28.768	0.250	0.210
-298.749	140.273	-0.231	-0.302
-297.735	-200.000	0.032	-0.163
-296.720	-16.810	-0.255	-0.160
-295.705	-200.000	-0.006	-0.166
-294.691	158.655	0.040	0.055
-293.676	38.765	0.015	-0.013
-292.662	-138.345	-0.110	0.012
-291.647	-58.925	-0.140	0.060
-290.632	-159.861	0.359	0.020
-289.618	518.805	0.138	0.321
-288.603	-71.452	-0.122	-0.045
-287.589	237.208	-0.121	0.200
-286.574	155.612	-0.121	-0.165
-285.559	41.302	0.200	0.179
-284.545	320.907	0.045	-0.085
-283.530	800.000	0.076	-0.247
-282.516	184.043	0.070	0.102
-281.501	-120.440	-0.097	0.016
-280.486	800.000	-0.025	0.106
-279.472	-200.000	0.028	-0.179
-278.457	-200.000	0.001	-0.167
-277.443	47.699	0.099	0.092
-276.428	445.960	-0.159	0.347
-275.413	-29.734	0.218	0.123
-274.399	-72.932	-0.216	-0.079
-273.384	-92.866	0.336	0.093
-272.370	-107.115	-0.037	0.008
-271.355	50.999	0.177	0.166
-270.340	282.497	0.107	0.190
-269.326	64.087	0.188	-0.188
-268.311	-200.000	-0.090	-0.443
-267.297	303.265	0.093	0.171
-266.282	11.588	-0.126	-0.096
-265.267	-116.555	-0.270	-0.049
-264.253	-200.000	0.055	-0.246
-263.238	-24.258	-0.143	-0.084
-262.224	-81.300	0.224	0.073
-261.209	-200.000	-0.016	0.093
-260.195	-92.644	0.236	0.065
-259.180	-27.811	0.089	-0.051
-258.165	209.022	0.301	0.467
-257.151	-148.801	0.286	-0.023
-256.136	-161.879	-0.140	-0.007
-255.122	293.921	0.030	-0.055
-254.107	-5.010	0.414	0.283
-253.092	-25.214	0.218	0.128
-252.078	-200.000	-0.019	0.206
-251.063	143.503	-0.296	0.390
-250.049	-46.686	0.305	0.148
-249.034	32.586	-0.310	0.266
-248.019	-165.931	-0.209	0.009
-247.005	800.000	0.053	-0.214
-245.990	-88.928	-0.364	0.107
-244.976	-56.553	0.212	-0.093
-243.961	800.000	-0.074	0.287
-242.946	-200.000	0.050	0.279
-241.932	66.856	-0.179	-0.180
-240.917	800.000	-0.061	-0.256
-239.903	800.000	-0.022	-0.061
-238.888	-150.615	0.252	0.019
-237.873	-200.000	-0.227	0.001
-236.859	-96.169	0.335	0.088
-235.844	-75.657	0.338	0.119
-234.830	-14.294	-0.221	-0.141
-233.815	65.085	0.211	0.211
-232.800	-38.942	0.236	0.123
-231.786	52.694	-0.114	0.108
-230.771	-139.071	0.296	-0.032
-229.757	9.941	0.193	0.145
-228.742	23.233	0.070	-0.057
-227.727	131.089	-0.096	0.122
-226.713	-53.006	0.329	-0.150
-225.698	-18.621	0.328	0.202
-224.684	-200.000	-0.043	0.220
-223.669	-161.121	0.185	-0.010
-222.655	6.162	0.156	-0.115
-221.640	-89.405	0.067	0.020
-220.625	800.000	-0.131	-0.408
-219.611	464.190	0.118	-0.261
-218.596	-68.337	-0.383	-0.147
-217.582	-200.000	0.042	-0.262
-216.567	-56.227	-0.237	-0.104
-215.552	-163.673	0.249	-0.012
-214.538	34.306	0.016	-0.014
-213.523	-200.000	0.028	-0.212
-212.509	800.000	0.049	-0.149
-211.494	-144.620	-0.127	-0.012
-210.479	58.122	-0.049	-0.047
-209.465	19.154	0.298	0.236
-208.450	352.337	0.078	0.152
-207.436	-58.655	-0.226	-0.097
-206.421	-193.880	0.154	-0.001
-205.406	116.441	-0.167	-0.203
-204.392	-200.000	-0.090	-0.418
-203.377	-109.388	0.082	-0.017
-202.363	42.305	0.132	-0.119
-201.348	800.000	0.081	0.233
-200.333	-200.000	0.030	0.337
-199.319	-200.000	-0.003	0.141
-198.304	65.923	-0.173	-0.173
-197.290	-72.114	0.290	0.106
-196.275	100.192	0.146	0.168
-195.260	403.745	0.103	0.213
-194.246	-200.000	-0.047	0.242
-193.231	800.000	0.071	-0.220
-192.217	800.000	-0.041	0.146
-191.202	800.000	0.080	-0.286
-190.187	100.784	-0.343	0.394
-189.173	-200.000	-0.011	0.171
-188.158	-104.446	0.201	-0.046
-187.144	-115.822	0.262	-0.048
-186.129	-27.457	-0.258	-0.148
-185.114	-51.914	-0.266	0.122
-184.100	-54.473	0.231	-0.103
-183.085	45.046	0.204	-0.185
-182.071	508.865	0.048	-0.110
-181.056	-200.000	0.016	-0.085
-180.042	346.763	0.219	0.426
-179.027	176.471	0.052	0.075
-178.012	800.000	-0.034	0.139
-176.998	-12.005	0.170	0.110
-175.983	328.599	0.150	0.285
-174.969	347.562	0.099	0.193
-173.954	-200.000	0.006	0.201
-172.939	-132.992	0.277	-0.035
-171.925	-200.000	-0.003	-0.045
-170.910	29.365	-0.097	-0.081
-169.896	2.980	0.100	0.071
-168.881	-35.427	-0.023	0.012
-167.866	800.000	-0.066	-0.242
-166.852	800.000	0.030	-0.122
-165.837	138.346	0.149	-0.193
-164.823	-103.844	-0.265	0.061
-163.808	28.723	-0.291	-0.243
-162.793	415.002	-0.061	-0.128
-161.779	-66.658	-0.217	0.085
-160.764	-67.235	-0.234	-0.091
-159.750	17.240	0.128	-0.100
-158.735	-95.829	0.271	0.071
-157.720	71.585	-0.039	0.040
-156.706	800.000	-0.055	-0.238
-155.691	-29.048	0.115	0.065
-154.677	-103.112	0.312	-0.073
-153.662	-200.000	-0.012	0.081
-152.647	-10.185	-0.112	-0.073
-151.633	45.907	0.135	-0.124
-150.618	800.000	-0.053	0.166
-149.604	62.853	0.447	-0.441
-148.589	-57.893	0.073	-0.032
-147.574	-154.396	0.073	0.005
-146.560	-200.000	0.028	0.368
-145.545	24.985	0.110	-0.090
-144.531	800.000	0.033	0.133
-143.516	136.603	0.235	0.302
-142.502	-81.004	0.172	0.056
-141.487	4.531	-0.261	0.189
-140.472	-175.967	0.401	0.011
-139.458	-95.224	0.088	-0.023
-138.443	105.155	0.033	-0.039
-137.429	-200.000	0.049	-0.377
-136.414	-11.519	0.145	-0.094
-135.399	191.111	0.062	0.093
-134.385	19.125	-0.155	0.122
-133.370	779.898	-0.045	0.122
-132.356	-57.940	0.317	-0.137
-131.341	-200.000	-0.010	0.298
-130.326	641.648	-0.075	-0.189
-129.312	467.989	0.179	0.395
-128.297	-80.088	0.318	0.105
-127.283	800.000	0.050	-0.177
-126.268	800.000	0.036	-0.101
-125.253	-79.662	-0.149	-0.050
-124.239	510.230	0.106	-0.244
-123.224	-200.000	-0.047	0.298
-122.210	-200.000	-0.043	-0.441
-121.195	78.168	-0.235	-0.247
-120.180	17.745	0.110	0.086
