DTS Sentinel unit serial number:	SN413079Multiplexer serial number:	ORYXHardware model number:	OX4-SRSoftware version number:	ORYX F/W v4.00 Oryx Data Collector v3.7.2.0data status	okinstallation	princeton_trtdifferential loss correction	single-endedforward channel	channel 2reverse channel	N/Adate	2019/09/11time	11:21:11forward acquisition time	60.00reverse acquisition time	0.00gamma	496.2192k internal	0.2306k external	0.2306temperature offset calibration	0.9967default loss term (dB/km)	0.3790temperature slope calibration	1.0000multiplexer offset coefficient	1.0000multiplexer slope coefficient	1.0000fibre end	0.00T internal ref (°C)	37.75T ext. ref 1 (°C)	0.19T ext. ref 2 (°C)	35.03length (m)	temperature (°C)	Stokes	anti-Stokes-747.200	212.582	-0.082	-0.132
-746.185	-172.864	-0.345	-0.011
-745.171	-65.095	0.261	-0.107
-744.156	-191.930	-0.235	-0.002
-743.142	-139.235	0.058	-0.006
-742.127	255.745	-0.173	0.303
-741.112	27.701	0.160	0.137
-740.098	299.335	-0.068	0.127
-739.083	-128.312	-0.085	-0.012
-738.069	-24.070	0.289	-0.176
-737.054	16.597	0.344	-0.276
-736.039	483.576	0.124	0.288
-735.025	32.517	-0.101	-0.089
-734.010	-200.000	-0.003	-0.234
-732.996	-97.915	-0.256	-0.067
-731.981	498.746	-0.058	-0.136
-730.966	-82.463	-0.301	-0.099
-729.952	-115.855	-0.390	0.074
-728.937	-200.000	0.021	-0.334
-727.923	88.951	-0.090	-0.102
-726.908	623.154	-0.102	-0.261
-725.894	-36.971	-0.277	0.151
-724.879	-105.922	-0.332	0.076
-723.864	-200.000	0.041	0.280
-722.850	125.292	-0.226	-0.290
-721.835	-36.339	0.257	0.141
-720.821	-143.275	-0.426	0.042
-719.806	-65.834	-0.207	0.084
-718.791	334.104	0.149	-0.293
-717.777	-100.706	-0.255	-0.064
-716.762	290.574	0.238	-0.439
-715.748	-134.596	-0.356	0.044
-714.733	212.280	-0.042	0.068
-713.718	66.559	-0.067	-0.069
-712.704	46.725	-0.349	-0.330
-711.689	-155.623	-0.296	0.019
-710.675	319.556	0.057	-0.111
-709.660	82.015	-0.151	0.166
-708.645	688.180	0.075	-0.199
-707.631	39.857	-0.150	-0.137
-706.616	-200.000	-0.090	-0.438
-705.602	-58.651	0.260	-0.114
-704.587	-136.154	0.046	-0.005
-703.572	-200.000	0.005	0.209
-702.558	-150.585	-0.221	-0.017
-701.543	364.562	0.122	-0.250
-700.529	450.531	0.212	-0.476
-699.514	66.902	0.149	-0.154
-698.499	-108.763	0.032	0.007
-697.485	229.018	0.089	0.147
-696.470	176.519	-0.134	0.198
-695.456	800.000	0.074	0.229
-694.441	12.780	0.075	-0.059
-693.426	-200.000	0.051	-0.474
-692.412	-30.811	-0.138	0.079
-691.397	11.040	0.117	0.091
-690.383	-117.887	-0.052	0.009
-689.368	44.347	-0.062	0.058
-688.354	316.378	0.193	-0.370
-687.339	-57.019	-0.149	0.067
-686.324	6.152	-0.089	0.067
-685.310	338.606	-0.244	0.483
-684.295	32.143	0.091	0.080
-683.281	33.530	-0.211	-0.186
-682.266	-117.794	0.284	-0.052
-681.251	47.012	-0.061	-0.057
-680.237	587.387	-0.052	-0.130
-679.222	-62.046	0.229	0.097
-678.208	-40.431	0.139	0.073
-677.193	308.358	0.169	-0.320
-676.178	263.679	0.064	-0.113
-675.164	-121.142	0.075	-0.013
-674.149	193.547	-0.144	0.221
-673.135	-29.789	0.261	0.151
-672.120	-178.332	-0.229	-0.005
-671.105	-185.255	-0.205	-0.003
-670.091	-73.621	0.030	-0.011
-669.076	-79.478	-0.365	-0.125
-668.062	584.842	-0.133	-0.333
-667.047	-108.342	0.410	-0.090
-666.032	9.422	0.173	0.132
-665.018	800.000	-0.033	-0.142
-664.003	-39.089	-0.087	-0.046
-662.989	-40.640	-0.226	0.119
-661.974	-158.382	0.396	0.023
-660.959	271.696	-0.025	0.045
-659.945	390.210	-0.104	0.219
-658.930	100.277	0.188	-0.221
-657.916	800.000	0.029	-0.087
-656.901	-130.047	0.299	-0.041
-655.886	-123.956	0.284	0.045
-654.872	-49.906	0.282	0.135
-653.857	53.617	0.090	0.088
-652.843	791.978	-0.081	-0.225
-651.828	40.102	-0.103	-0.094
-650.814	-8.709	0.060	0.041
-649.799	-160.609	-0.039	0.002
-648.784	-69.263	-0.192	-0.075
-647.770	-200.000	-0.027	0.165
-646.755	115.364	0.196	-0.242
-645.741	135.808	0.317	0.418
-644.726	-100.348	0.136	0.034
-643.711	-104.721	0.218	0.051
-642.697	276.813	-0.140	0.251
-641.682	141.871	0.204	-0.274
-640.668	251.843	0.169	0.292
-639.653	187.067	0.023	0.034
-638.638	-117.708	0.225	-0.041
-637.624	58.172	-0.175	-0.174
-636.609	-200.000	0.003	-0.193
-635.595	800.000	-0.085	0.359
-634.580	107.456	0.179	0.215
-633.565	800.000	0.049	-0.159
-632.551	-105.271	0.439	-0.101
-631.536	-6.459	-0.159	-0.110
-630.522	11.004	-0.191	0.148
-629.507	-165.178	-0.035	-0.002
-628.492	389.423	-0.131	0.275
-627.478	-61.748	-0.164	0.070
-626.463	-200.000	-0.048	-0.252
-625.449	-9.239	0.103	0.070
-624.434	125.657	-0.092	0.117
-623.419	0.027	0.232	-0.168
-622.405	-125.829	0.140	0.021
-621.390	36.754	0.123	-0.110
-620.376	-200.000	-0.001	-0.046
-619.361	551.578	0.076	0.186
-618.346	465.689	-0.085	-0.193
-617.332	166.705	-0.131	-0.188
-616.317	165.905	0.150	-0.215
-615.303	-109.854	0.289	-0.061
-614.288	-121.475	0.119	-0.020
-613.273	-141.105	0.083	-0.009
-612.259	-200.000	0.049	-0.235
-611.244	800.000	-0.096	-0.417
-610.230	-200.000	-0.038	0.270
-609.215	-61.504	0.039	-0.017
-608.201	371.806	0.057	0.116
-607.186	-56.096	0.218	-0.098
-606.171	800.000	0.025	0.080
-605.157	-142.423	0.281	-0.028
-604.142	146.559	-0.052	-0.071
-603.128	79.489	0.048	-0.052
-602.113	800.000	-0.088	0.267
-601.098	-116.879	-0.267	0.049
-600.084	-72.795	-0.185	0.069
-599.069	120.313	0.249	-0.312
-598.055	110.732	0.302	-0.367
-597.040	-110.524	-0.102	-0.021
-596.025	-148.566	-0.330	-0.027
-595.011	-68.801	0.258	0.101
-593.996	800.000	-0.035	0.125
-592.982	318.446	-0.064	-0.123
-591.967	800.000	-0.049	-0.161
-590.952	260.716	-0.064	0.112
-589.938	171.466	0.060	-0.087
-588.923	-68.344	0.103	0.041
-587.909	-84.903	-0.145	-0.046
-586.894	55.020	0.218	-0.213
-585.879	-138.377	-0.095	-0.011
-584.865	341.177	0.078	-0.155
-583.850	408.281	0.047	-0.101
-582.836	-200.000	0.016	-0.204
-581.821	26.609	-0.245	-0.207
-580.806	-200.000	0.003	0.135
-579.792	-83.637	0.335	-0.108
-578.777	800.000	-0.079	-0.322
-577.763	17.270	0.228	-0.183
-576.748	78.379	0.093	-0.100
-575.733	-100.609	-0.091	-0.023
-574.719	-91.442	0.103	0.030
-573.704	-200.000	0.022	0.217
-572.690	113.232	-0.168	-0.206
-571.675	-170.568	-0.234	0.008
-570.661	-200.000	-0.001	-0.069
-569.646	-158.656	-0.279	0.016
-568.631	240.878	0.136	-0.230
-567.617	800.000	0.082	0.346
-566.602	137.439	-0.007	-0.009
-565.588	-17.907	0.083	0.053
-564.573	68.959	0.135	0.140
-563.558	-92.707	-0.228	-0.065
-562.544	19.953	-0.352	0.287
-561.529	800.000	-0.020	0.066
-560.515	-122.631	-0.409	0.067
-559.500	26.105	0.124	-0.105
-558.485	-83.359	-0.228	-0.074
-557.471	12.664	0.374	0.291
-556.456	584.993	0.101	0.251
-555.442	800.000	-0.075	0.331
-554.427	246.851	-0.045	-0.077
-553.412	488.432	-0.036	-0.084
-552.398	5.615	0.209	0.156
-551.383	49.171	-0.256	-0.243
-550.369	-200.000	0.015	0.224
-549.354	274.894	0.096	-0.172
-548.339	12.271	-0.201	0.156
-547.325	-200.000	-0.028	0.202
-546.310	270.514	-0.034	-0.061
-545.296	-18.939	-0.169	-0.106
-544.281	-42.096	-0.170	0.088
-543.266	800.000	-0.041	-0.122
-542.252	-200.000	-0.037	0.250
-541.237	93.750	0.026	0.030
-540.223	161.109	0.160	-0.226
-539.208	-148.970	-0.452	-0.037
-538.193	800.000	0.074	-0.218
-537.179	304.530	-0.087	-0.164
-536.164	-101.745	0.124	-0.030
-535.150	48.797	0.105	0.100
-534.135	32.026	0.123	-0.107
-533.121	-25.548	0.074	0.044
-532.106	-64.535	0.016	0.006
-531.091	-53.191	0.241	0.112
-530.077	-200.000	0.039	0.214
-529.062	75.807	-0.208	-0.222
-528.048	-30.955	0.184	-0.105
-527.033	-125.064	-0.204	-0.032
-526.018	800.000	0.015	0.055
-525.004	55.493	0.138	0.135
-523.989	800.000	-0.077	-0.253
-522.975	-200.000	0.005	-0.227
-521.960	-117.429	0.236	-0.043
-520.945	28.308	-0.178	0.151
-519.931	-28.181	0.043	0.025
-518.916	-138.353	0.318	-0.035
-517.902	14.710	0.302	-0.238
-516.887	-161.501	0.202	-0.010
-515.872	107.076	-0.098	-0.117
-514.858	800.000	-0.011	0.037
-513.843	-105.302	-0.307	-0.071
-512.829	-200.000	0.078	-0.377
-511.814	-200.000	-0.023	0.129
-510.799	41.748	0.227	0.207
-509.785	-64.654	0.105	0.043
-508.770	-80.194	0.234	0.079
-507.756	629.812	0.023	0.059
-506.741	283.459	0.160	0.290
-505.726	-127.294	0.203	-0.030
-504.712	800.000	-0.065	-0.226
-503.697	-200.000	-0.002	0.099
-502.683	357.266	-0.184	-0.371
-501.668	275.658	-0.042	0.075
-500.653	-120.202	0.161	-0.028
-499.639	384.996	-0.039	0.080
-498.624	104.044	-0.170	-0.202
-497.610	-200.000	0.025	0.114
-496.595	-146.166	-0.219	-0.019
-495.581	-158.757	-0.294	0.017
-494.566	-200.000	-0.071	0.410
-493.551	800.000	0.064	0.224
-492.537	114.920	-0.111	0.137
-491.522	-200.000	-0.013	0.107
-490.508	-142.614	-0.338	-0.033
-489.493	800.000	0.070	0.204
-488.478	-184.484	-0.057	0.001
-487.464	382.427	-0.117	-0.242
-486.449	151.163	0.035	-0.047
-485.435	337.681	-0.071	0.139
-484.420	-122.091	-0.185	0.031
-483.405	122.842	-0.086	0.109
-482.391	400.316	0.146	-0.308
-481.376	145.108	0.105	-0.142
-480.362	-200.000	0.041	-0.344
-479.347	-102.245	-0.255	-0.062
-478.332	70.783	0.137	0.143
-477.318	800.000	0.100	0.285
-476.303	-29.942	-0.046	0.027
-475.289	-1.426	-0.069	0.049
-474.274	52.001	0.202	0.193
-473.259	-138.629	0.104	-0.012
-472.245	-79.139	0.104	0.035
-471.230	69.924	-0.165	-0.171
-470.216	720.621	-0.051	-0.136
-469.201	-200.000	-0.009	-0.104
-468.186	-38.014	-0.168	0.090
-467.172	67.768	0.132	0.136
-466.157	608.966	-0.083	-0.207
-465.143	355.689	0.082	0.165
-464.128	-71.429	0.405	-0.153
-463.113	170.888	-0.164	-0.237
-462.099	-150.339	0.158	-0.012
-461.084	95.591	0.093	0.107
-460.070	-145.079	-0.341	0.031
-459.055	800.000	-0.045	0.182
-458.040	-67.202	0.270	-0.107
-457.026	-200.000	-0.007	0.181
-456.011	327.301	-0.198	-0.381
-454.997	-16.783	-0.158	-0.100
-453.982	-142.087	0.284	-0.028
-452.968	223.784	-0.284	0.462
-451.953	96.294	0.160	-0.184
-450.938	-86.324	0.240	0.074
-449.924	687.340	-0.092	0.242
-448.909	122.501	0.314	-0.395
-447.895	800.000	-0.055	-0.223
-446.880	63.855	0.359	-0.363
-445.865	172.408	0.113	0.163
-444.851	-87.201	-0.386	0.118
-443.836	230.070	0.144	0.236
-442.822	-200.000	0.426	0.002
-441.807	-46.371	-0.139	-0.069
-440.792	226.914	0.057	-0.092
-439.778	19.715	-0.175	0.142
-438.763	-120.491	-0.304	-0.052
-437.749	-10.024	-0.086	-0.057
-436.734	-74.038	0.048	0.018
-435.719	4.720	0.060	0.044
-434.705	-73.237	0.264	0.097
-433.690	-200.000	-0.015	0.216
-432.676	-91.156	0.082	-0.024
-431.661	97.065	0.031	-0.036
-430.646	-200.000	-0.059	-0.275
-429.632	-90.723	0.202	-0.059
-428.617	399.487	0.036	0.076
-427.603	-157.923	-0.097	-0.006
-426.588	376.855	0.164	0.337
-425.573	-86.654	0.408	-0.125
-424.559	534.727	-0.020	-0.048
-423.544	51.759	0.146	-0.140
-422.530	84.544	-0.218	0.240
-421.515	-200.000	0.014	0.213
-420.500	-41.517	-0.178	-0.092
-419.486	41.539	0.142	0.130
-418.471	-61.229	-0.273	0.116
-417.457	-123.462	0.012	0.002
-416.442	108.397	0.144	-0.172
-415.428	800.000	0.066	-0.235
-414.413	18.319	-0.133	-0.107
-413.398	-189.828	-0.212	0.002
-412.384	-181.839	-0.250	0.005
-411.369	497.349	0.046	-0.106
-410.355	-145.295	0.184	-0.017
-409.340	-34.951	-0.322	0.176
-408.325	-200.000	-0.014	-0.194
-407.311	-107.285	0.141	0.031
-406.296	800.000	0.054	0.154
-405.282	-155.024	-0.223	0.015
-404.267	-127.108	-0.408	-0.060
-403.252	59.469	0.268	0.265
-402.238	564.858	0.158	0.384
-401.223	40.244	-0.156	-0.141
-400.209	54.508	0.129	0.125
-399.194	124.927	-0.087	0.110
-398.179	800.000	0.099	-0.342
-397.165	91.200	-0.295	0.332
-396.150	-200.000	-0.010	0.094
-395.136	-70.977	0.071	-0.027
-394.121	153.285	0.100	-0.138
-393.106	-39.642	0.172	0.091
-392.092	247.283	-0.137	-0.232
-391.077	-200.000	0.015	-0.086
-390.063	390.586	-0.086	0.178
-389.048	-35.373	0.119	-0.065
-388.033	17.551	0.123	-0.098
-387.019	205.009	0.129	0.201
-386.004	-93.311	0.044	0.012
-384.990	-97.970	0.294	0.076
-383.975	800.000	-0.051	-0.174
-382.960	-59.265	-0.296	-0.128
-381.946	-72.560	-0.085	-0.032
-380.931	-135.303	-0.042	0.005
-379.917	35.700	0.067	-0.059
-378.902	-104.476	0.134	-0.031
-377.888	-54.449	-0.132	-0.060
-376.873	-80.698	-0.072	0.024
-375.858	-149.449	-0.186	-0.015
-374.844	-50.272	-0.026	0.012
-373.829	132.293	-0.091	-0.117
-372.815	-82.748	-0.097	-0.031
-371.800	-112.576	0.147	-0.029
-370.785	-30.000	0.414	0.236
-369.771	25.006	-0.282	-0.235
-368.756	4.253	0.198	-0.146
-367.742	295.273	0.011	0.020
-366.727	-127.038	-0.200	0.029
-365.712	79.685	-0.030	0.032
-364.698	138.681	0.216	0.284
-363.683	-11.001	-0.159	-0.105
-362.669	339.791	-0.150	0.294
-361.654	546.069	0.117	-0.280
-360.639	157.668	-0.176	0.244
-359.625	-200.000	-0.003	0.058
-358.610	22.979	0.468	0.385
-357.596	151.264	0.161	-0.219
-356.581	52.832	0.124	0.119
-355.566	-101.200	0.122	0.030
-354.552	29.421	0.113	0.096
-353.537	149.019	0.168	-0.228
-352.523	391.105	0.085	0.177
-351.508	698.598	-0.082	0.217
-350.493	-87.705	-0.414	0.125
-349.479	-200.000	-0.049	-0.246
-348.464	97.174	-0.258	-0.297
-347.450	24.240	-0.054	-0.044
-346.435	-48.828	0.178	-0.086
-345.420	114.925	-0.254	-0.311
-344.406	124.748	-0.255	0.322
-343.391	-97.965	0.092	0.024
-342.377	265.404	-0.099	0.173
-341.362	6.447	-0.036	-0.026
-340.348	-85.522	-0.193	-0.060
-339.333	800.000	-0.141	0.499
-338.318	-119.367	0.280	0.049
-337.304	-96.822	-0.243	-0.064
-336.289	631.724	0.068	0.172
-335.275	-67.149	-0.222	0.088
-334.260	800.000	-0.177	0.620
-333.245	601.474	-0.099	0.245
-332.231	-54.073	0.063	-0.029
-331.216	9.696	-0.180	-0.137
-330.202	-26.399	-0.310	-0.182
-329.187	-200.000	-0.083	-0.527
-328.172	-123.243	-0.245	0.039
-327.158	-56.815	0.257	0.114
-326.143	9.294	-0.279	-0.211
-325.129	21.092	-0.075	-0.061
-324.114	-14.742	-0.250	0.161
-323.099	-95.160	-0.150	-0.040
-322.085	242.902	0.107	-0.179
-321.070	-82.375	0.399	0.130
-320.056	294.198	-0.055	0.100
-319.041	800.000	0.100	0.390
-318.026	350.279	0.015	0.030
-317.012	-97.717	-0.545	0.141
-315.997	-200.000	0.008	0.180
-314.983	37.677	-0.126	0.112
-313.968	190.562	-0.137	-0.206
-312.953	-76.648	0.277	-0.097
-311.939	103.585	0.168	0.197
-310.924	-112.753	-0.227	-0.045
-309.910	652.858	0.021	0.054
-308.895	54.590	0.060	0.058
-307.880	-44.288	-0.113	0.057
-306.866	-200.000	-0.002	0.241
-305.851	458.048	0.056	-0.124
-304.837	-98.413	0.347	-0.089
-303.822	-100.469	-0.165	-0.041
-302.807	61.059	-0.030	-0.030
-301.793	38.333	0.198	0.176
-300.778	800.000	-0.123	0.396
-299.764	-200.000	0.009	-0.221
-298.749	57.533	-0.106	-0.103
-297.735	-75.614	-0.226	-0.080
-296.720	-102.915	0.093	0.022
-295.705	-47.916	-0.087	0.042
-294.691	95.959	-0.230	-0.263
-293.676	-200.000	-0.016	-0.217
-292.662	800.000	0.024	-0.091
-291.647	-73.717	-0.353	-0.128
-290.632	-85.695	0.270	-0.084
-289.618	-30.745	0.247	-0.140
-288.603	33.759	-0.081	0.071
-287.589	64.908	-0.308	0.311
-286.574	3.016	-0.093	-0.067
-285.559	-68.844	0.144	-0.055
-284.545	263.125	0.035	0.061
-283.530	-146.453	0.273	0.024
-282.516	486.081	0.069	0.157
-281.501	-90.639	-0.302	0.087
-280.486	262.627	0.143	0.249
-279.472	-48.995	0.281	-0.135
-278.457	-98.783	-0.134	-0.034
-277.443	146.056	0.133	-0.178
-276.428	-24.252	-0.080	0.048
-275.413	48.541	-0.243	-0.227
-274.399	-123.938	-0.214	0.034
-273.384	-90.233	-0.131	0.038
-272.370	-0.375	0.192	-0.136
-271.355	-134.982	-0.186	0.022
-270.340	89.850	0.026	0.029
-269.326	-61.123	-0.114	0.048
-268.311	240.284	-0.064	-0.106
-267.297	95.296	0.175	0.200
-266.282	-147.143	-0.215	0.018
-265.267	-68.037	-0.241	0.094
-264.253	-131.336	-0.277	-0.037
-263.238	389.105	-0.109	0.225
-262.224	59.393	-0.216	0.213
-261.209	-195.337	0.206	0.002
-260.195	452.451	0.070	-0.154
-259.180	800.000	-0.017	0.059
-258.165	-147.800	-0.268	-0.022
-257.151	-170.215	0.083	-0.003
-256.136	195.991	-0.089	0.135
-255.122	-200.000	-0.001	-0.024
-254.107	-157.971	0.233	-0.014
-253.092	-129.820	0.138	0.019
-252.078	508.643	0.099	0.230
-251.063	10.264	0.167	0.127
-250.049	610.232	0.078	-0.194
-249.034	-19.762	0.317	-0.196
-248.019	140.560	-0.369	-0.486
-247.005	96.140	-0.126	-0.143
-245.990	162.373	0.189	0.265
-244.976	-28.278	-0.019	0.011
-243.961	-200.000	-0.004	0.218
-242.946	-89.007	0.249	0.073
-241.932	269.564	0.048	-0.085
-240.917	-29.868	-0.211	-0.120
-239.903	800.000	0.060	-0.169
-238.888	-200.000	0.031	-0.189
-237.873	-31.915	-0.357	0.200
-236.859	-200.000	0.004	-0.370
-235.844	-200.000	-0.050	-0.292
-234.830	800.000	-0.108	-0.350
-233.815	-200.000	0.008	0.315
-232.800	-55.244	0.084	-0.038
-231.786	-200.000	0.052	0.293
-230.771	-100.489	-0.221	0.055
-229.757	425.062	0.110	0.236
-228.742	200.415	-0.081	-0.125
-227.727	800.000	-0.022	0.084
-226.713	181.519	0.079	-0.116
-225.698	152.663	0.042	0.058
-224.684	45.333	0.144	0.132
-223.669	-41.804	-0.252	0.129
-222.655	-52.118	0.148	0.069
-221.640	-200.000	-0.025	0.166
-220.625	-144.082	0.113	0.011
-219.611	-138.303	-0.149	-0.016
-218.596	151.662	-0.155	0.210
-217.582	-200.000	-0.053	0.236
-216.567	-200.000	0.026	-0.178
-215.552	6.017	0.183	-0.135
-214.538	166.977	0.052	0.073
-213.523	9.847	0.206	0.156
-212.509	630.609	-0.170	-0.428
-211.494	-72.893	0.165	-0.060
-210.479	25.487	0.130	-0.108
-209.465	127.360	-0.160	0.202
-208.450	168.357	0.232	-0.329
-207.436	563.987	0.118	-0.284
-206.421	-21.712	0.061	-0.037
-205.406	-200.000	-0.034	0.165
-204.392	800.000	0.029	0.092
-203.377	749.059	0.111	0.297
-202.363	449.815	0.266	0.585
-201.348	-15.019	0.327	-0.209
-200.333	-200.000	0.026	-0.197
-199.319	-31.774	0.357	0.200
-198.304	-123.077	0.235	0.038
-197.290	-200.000	0.003	-0.037
-196.275	-200.000	0.001	-0.172
-195.260	127.587	-0.193	-0.244
-194.246	-41.020	-0.177	-0.091
-193.231	800.000	-0.039	-0.114
-192.217	-62.478	-0.127	-0.052
-191.202	-200.000	-0.012	0.097
-190.187	77.773	-0.246	0.261
-189.173	-109.373	-0.390	0.082
-188.158	-84.450	-0.351	-0.110
-187.144	15.261	-0.109	-0.085
-186.129	800.000	0.085	0.259
-185.114	-79.148	-0.160	-0.054
-184.100	-14.932	-0.081	0.052
-183.085	30.749	0.225	0.192
-182.071	165.138	-0.039	-0.055
-181.056	431.447	-0.105	0.225
-180.042	29.265	0.100	-0.085
-179.027	541.817	-0.129	-0.305
-178.012	-50.808	0.069	-0.032
-176.998	128.767	0.064	-0.082
-175.983	-200.000	0.019	-0.232
-174.969	30.161	0.065	-0.055
-173.954	-13.572	0.235	0.152
-172.939	368.451	-0.027	0.055
-171.925	156.261	-0.124	-0.170
-170.910	-24.639	0.310	-0.183
-169.896	-3.225	-0.147	0.102
-168.881	309.584	0.113	0.210
-167.866	370.348	-0.087	-0.176
-166.852	-10.269	0.412	-0.272
-165.837	800.000	-0.092	0.317
-164.823	800.000	0.038	0.158
-163.808	417.221	-0.024	0.051
-162.793	-200.000	-0.008	-0.060
-161.779	-200.000	0.039	-0.211
-160.764	18.192	0.115	0.091
-159.750	-6.696	0.155	-0.105
-158.735	-12.385	0.288	-0.187
-157.720	214.786	-0.093	-0.147
-156.706	-171.214	-0.198	-0.007
-155.691	204.708	0.164	-0.254
-154.677	800.000	-0.039	-0.167
-153.662	206.647	-0.085	0.131
-152.647	678.450	-0.114	0.295
-151.633	-65.971	0.080	0.032
-150.618	-43.488	-0.118	-0.059
-149.604	312.108	-0.117	0.218
-148.589	102.548	-0.253	-0.294
-147.574	800.000	-0.110	0.334
-146.560	428.849	-0.069	0.149
-145.545	140.442	-0.113	0.148
-144.531	100.673	0.256	0.295
-143.516	-85.490	-0.193	-0.060
-142.502	259.120	0.128	0.220
-141.487	37.544	0.245	0.216
-140.472	221.278	-0.143	0.228
-139.458	605.609	-0.077	0.191
-138.443	-78.502	0.125	0.043
-137.429	-11.016	0.245	-0.161
-136.414	-87.998	0.121	0.036
-135.399	159.308	-0.152	0.210
-134.385	7.007	-0.210	-0.156
-133.370	800.000	0.058	-0.171
-132.356	-110.367	-0.358	-0.074
-131.341	719.510	0.084	0.221
-130.326	19.153	0.092	0.074
-129.312	-74.908	0.151	-0.054
-128.297	7.268	-0.328	-0.243
-127.283	15.223	-0.163	-0.127
-126.268	196.917	-0.131	-0.198
-125.253	-76.518	-0.055	0.019
-124.239	185.092	-0.027	0.039
-123.224	-200.000	0.060	-0.276
-122.210	36.046	0.084	-0.073
-121.195	-106.084	-0.264	-0.059
