DTS Sentinel unit serial number:	SN413079Multiplexer serial number:	ORYXHardware model number:	OX4-SRSoftware version number:	ORYX F/W v4.00 Oryx Data Collector v3.7.2.0data status	okinstallation	princeton_trtdifferential loss correction	single-endedforward channel	channel 2reverse channel	N/Adate	2019/09/19time	01:59:34forward acquisition time	60.00reverse acquisition time	0.00gamma	496.2192k internal	0.2353k external	0.2353temperature offset calibration	1.0019default loss term (dB/km)	0.3790temperature slope calibration	1.0000multiplexer offset coefficient	1.0000multiplexer slope coefficient	1.0000fibre end	0.00T internal ref (°C)	21.28T ext. ref 1 (°C)	0.69T ext. ref 2 (°C)	14.90length (m)	temperature (°C)	Stokes	anti-Stokes-747.200	-75.330	-0.136	0.048
-746.185	-34.373	0.141	-0.077
-745.171	5.433	-0.042	-0.031
-744.156	800.000	-0.088	0.272
-743.142	-3.740	0.353	0.244
-742.127	-33.622	-0.650	-0.358
-741.112	-50.696	0.203	-0.095
-740.098	-73.743	-0.285	-0.103
-739.083	646.812	0.111	0.283
-738.069	35.332	-0.171	0.150
-737.054	-53.514	0.043	0.020
-736.039	-156.536	-0.344	0.021
-735.025	-85.954	0.022	-0.007
-734.010	-80.490	0.182	-0.061
-732.996	-13.184	-0.100	-0.065
-731.981	800.000	0.087	0.248
-730.966	-200.000	0.027	0.172
-729.952	-166.064	-0.224	-0.010
-728.937	-44.545	-0.221	0.110
-727.923	-46.708	-0.378	0.184
-726.908	-62.439	-0.317	0.131
-725.894	-200.000	-0.068	0.300
-724.879	-42.613	-0.166	-0.084
-723.864	800.000	-0.093	-0.349
-722.850	-200.000	-0.023	0.226
-721.835	-61.800	0.441	-0.184
-720.821	800.000	0.117	-0.346
-719.806	384.814	0.109	-0.224
-718.791	-156.103	0.268	0.017
-717.777	-1.063	-0.137	0.096
-716.762	-200.000	0.119	0.600
-715.748	232.067	0.077	0.126
-714.733	261.342	-0.048	0.083
-713.718	-63.834	0.115	-0.047
-712.704	149.351	-0.051	-0.068
-711.689	-101.481	-0.309	0.075
-710.675	-44.570	-0.417	-0.207
-709.660	-65.711	0.202	-0.081
-708.645	157.026	-0.075	0.104
-707.631	3.755	-0.089	-0.065
-706.616	-200.000	0.026	-0.140
-705.602	74.639	0.298	-0.312
-704.587	-163.898	-0.356	0.017
-703.572	-200.000	0.018	-0.095
-702.558	-200.000	-0.005	-0.129
-701.543	143.673	-0.179	-0.237
-700.529	-49.911	0.200	-0.095
-699.514	370.592	-0.052	-0.104
-698.499	86.074	0.205	0.224
-697.485	531.393	-0.040	-0.095
-696.470	227.366	-0.036	0.059
-695.456	-117.533	-0.343	-0.062
-694.441	360.948	-0.108	-0.216
-693.426	-97.055	0.265	-0.069
-692.412	446.838	0.059	-0.130
-691.397	31.821	-0.094	-0.081
-690.383	-200.000	-0.047	-0.205
-689.368	-126.484	-0.396	0.059
-688.354	156.268	-0.230	0.315
-687.339	-200.000	-0.063	0.300
-686.324	123.502	-0.125	0.156
-685.310	-171.349	0.249	0.008
-684.295	800.000	0.040	-0.166
-683.281	-200.000	0.005	-0.093
-682.266	-146.266	-0.089	-0.008
-681.251	-107.822	-0.094	-0.020
-680.237	800.000	-0.056	-0.164
-679.222	-45.971	-0.044	-0.022
-678.208	465.685	-0.090	-0.201
-677.193	588.207	-0.117	-0.285
-676.178	165.466	-0.123	0.173
-675.164	-200.000	-0.003	-0.057
-674.149	364.856	0.117	-0.235
-673.135	480.075	0.119	-0.268
-672.120	221.116	-0.106	-0.169
-671.105	-30.099	0.108	-0.061
-670.091	-128.778	0.120	-0.017
-669.076	106.508	0.139	-0.164
-668.062	77.605	0.109	-0.115
-667.047	190.158	-0.294	-0.439
-666.032	-83.792	0.111	0.035
-665.018	214.575	0.099	0.156
-664.003	-2.362	0.018	0.012
-662.989	-150.853	-0.141	0.011
-661.974	70.493	0.021	-0.021
-660.959	285.292	0.079	-0.141
-659.945	800.000	0.087	0.323
-658.930	82.620	-0.060	-0.065
-657.916	761.859	-0.046	-0.125
-656.901	800.000	-0.048	-0.163
-655.886	-82.239	0.151	0.049
-654.872	-44.942	-0.135	0.067
-653.857	-162.262	0.265	0.013
-652.843	99.957	-0.159	0.183
-651.828	20.283	-0.275	-0.221
-650.814	-78.222	0.298	-0.102
-649.799	101.061	-0.100	-0.115
-648.784	76.294	-0.179	0.188
-647.770	-58.898	0.280	-0.120
-646.755	800.000	-0.059	0.197
-645.741	-72.739	-0.623	-0.228
-644.726	800.000	0.109	0.423
-643.711	-200.000	-0.050	0.313
-642.697	113.230	-0.270	0.325
-641.682	791.642	-0.017	-0.045
-640.668	363.511	-0.041	0.081
-639.653	184.176	-0.150	0.220
-638.638	44.882	-0.088	0.081
-637.624	35.214	-0.170	0.148
-636.609	568.645	-0.059	-0.143
-635.595	232.594	0.100	-0.163
-634.580	177.927	-0.119	-0.173
-633.565	-117.556	-0.165	-0.030
-632.551	19.959	-0.085	-0.068
-631.536	-137.318	0.227	0.026
-630.522	120.119	-0.058	0.071
-629.507	800.000	-0.052	-0.151
-628.492	572.027	-0.031	-0.076
-627.478	-189.398	0.146	-0.002
-626.463	-200.000	0.007	0.178
-625.449	-136.303	-0.153	-0.018
-624.434	-200.000	0.013	-0.059
-623.419	-52.258	-0.389	0.179
-622.405	44.140	-0.096	0.087
-621.390	12.209	-0.183	0.140
-620.376	-118.740	-0.166	-0.029
-619.361	372.297	0.119	-0.240
-618.346	-200.000	0.010	-0.053
-617.332	-84.638	-0.220	-0.069
-616.317	278.310	0.151	0.268
-615.303	178.246	0.088	-0.127
-614.288	-200.000	-0.015	-0.668
-613.273	-97.413	0.396	0.102
-612.259	-16.928	-0.301	-0.189
-611.244	800.000	0.063	-0.226
-610.230	-50.316	0.179	0.084
-609.215	-130.627	-0.124	-0.017
-608.201	113.302	-0.155	-0.186
-607.186	-75.582	-0.433	-0.153
-606.171	-98.521	0.132	0.033
-605.157	193.129	-0.219	-0.328
-604.142	114.618	-0.209	-0.253
-603.128	138.633	0.189	0.246
-602.113	-200.000	0.002	-0.050
-601.098	-131.994	-0.295	-0.038
-600.084	-59.938	-0.133	-0.056
-599.069	-200.000	0.027	-0.207
-598.055	142.352	0.107	-0.140
-597.040	-200.000	-0.014	0.066
-596.025	286.001	0.176	-0.314
-595.011	-200.000	0.012	-0.381
-593.996	135.884	0.074	0.096
-592.982	349.940	0.113	-0.222
-591.967	19.887	-0.094	-0.075
-590.952	160.220	-0.229	-0.317
-589.938	-118.504	0.365	0.064
-588.923	-200.000	0.011	0.106
-587.909	59.294	0.150	0.146
-586.894	-200.000	-0.019	0.091
-585.879	800.000	0.071	0.209
-584.865	-61.788	-0.221	-0.092
-583.850	29.368	-0.086	0.073
-582.836	98.321	0.102	-0.116
-581.821	769.729	0.058	-0.157
-580.806	-51.795	-0.304	0.140
-579.792	-140.430	0.227	-0.023
-578.777	-125.376	0.146	0.022
-577.763	193.707	-0.096	-0.143
-576.748	194.631	0.094	-0.142
-575.733	800.000	0.056	-0.159
-574.719	39.273	0.386	-0.342
-573.704	-116.613	-0.321	0.059
-572.690	93.879	0.041	0.046
-571.675	323.783	-0.095	-0.180
-570.661	-2.538	0.109	-0.076
-569.646	206.857	-0.095	-0.146
-568.631	164.344	-0.058	-0.081
-567.617	800.000	0.130	-0.458
-566.602	371.754	-0.111	-0.222
-565.588	100.823	0.218	0.251
-564.573	132.938	-0.224	0.286
-563.558	-153.669	0.107	-0.007
-562.544	-200.000	0.006	0.120
-561.529	-95.803	-0.129	-0.034
-560.515	-173.548	-0.396	-0.012
-559.500	398.939	0.138	0.286
-558.485	-131.084	-0.235	-0.031
-557.471	28.437	-0.199	0.167
-556.456	-118.518	-0.180	0.032
-555.442	800.000	0.009	-0.032
-554.427	-170.642	0.124	0.004
-553.412	-156.080	0.078	0.005
-552.398	800.000	0.052	-0.170
-551.383	115.342	-0.168	0.203
-550.369	-200.000	-0.008	0.221
-549.354	-132.186	-0.214	-0.027
-548.339	800.000	0.042	-0.161
-547.325	583.582	0.112	-0.272
-546.310	-130.523	-0.004	-0.001
-545.296	800.000	-0.083	0.321
-544.281	-42.716	0.259	-0.131
-543.266	800.000	-0.076	-0.226
-542.252	800.000	0.039	-0.111
-541.237	75.796	-0.215	-0.225
-540.223	744.592	-0.091	0.241
-539.208	699.515	-0.095	-0.246
-538.193	248.141	-0.035	0.058
-537.179	-21.503	-0.021	0.012
-536.164	-34.532	0.227	0.123
-535.150	-200.000	-0.064	-0.310
-534.135	-200.000	0.029	0.271
-533.121	-30.233	0.213	-0.119
-532.106	-17.296	-0.070	0.044
-531.091	800.000	-0.059	0.236
-530.077	-36.946	-0.269	-0.143
-529.062	469.325	0.047	-0.105
-528.048	324.445	0.185	-0.350
-527.033	-86.436	0.245	-0.074
-526.018	-17.613	0.055	0.034
-525.004	290.858	0.112	-0.202
-523.989	-200.000	-0.264	-0.001
-522.975	800.000	-0.098	-0.282
-521.960	9.206	0.141	0.106
-520.945	-200.000	0.076	-0.507
-519.931	-200.000	-0.081	-0.385
-518.916	61.649	-0.235	-0.231
-517.902	-115.483	0.039	-0.007
-516.887	100.961	0.133	-0.153
-515.872	-50.517	0.102	-0.048
-514.858	83.889	0.032	-0.035
-513.843	-200.000	-0.095	0.411
-512.829	-17.358	0.112	-0.070
-511.814	151.101	0.199	0.268
-510.799	516.249	0.147	-0.339
-509.785	800.000	-0.068	-0.228
-508.770	333.941	-0.099	0.190
-507.756	-200.000	-0.013	-0.258
-506.741	174.872	0.092	-0.131
-505.726	75.733	0.258	0.269
-504.712	267.743	-0.263	0.455
-503.697	-111.651	-0.267	-0.053
-502.683	114.500	0.020	0.024
-501.668	-200.000	-0.003	0.361
-500.653	800.000	-0.038	0.109
-499.639	800.000	0.032	-0.128
-498.624	-82.228	0.214	0.069
-497.610	282.960	0.148	-0.262
-496.595	-200.000	0.010	0.290
-495.581	113.808	0.210	-0.252
-494.566	-86.252	0.170	0.052
-493.551	36.999	-0.052	-0.045
-492.537	800.000	-0.082	-0.274
-491.522	-62.900	0.240	0.098
-490.508	-6.113	-0.172	0.116
-489.493	-112.483	-0.385	-0.076
-488.478	-57.105	0.111	0.048
-487.464	65.997	-0.213	-0.214
-486.449	275.147	-0.062	0.108
-485.435	372.399	-0.133	0.267
-484.420	800.000	0.072	0.309
-483.405	-151.557	-0.091	0.007
-482.391	-161.837	-0.217	-0.011
-481.376	215.539	-0.125	0.195
-480.362	-200.000	0.026	0.246
-479.347	-102.985	-0.117	0.027
-478.332	336.884	-0.081	0.154
-477.318	800.000	0.029	-0.084
-476.303	149.223	0.157	-0.210
-475.289	95.225	0.323	-0.363
-474.274	107.139	-0.157	-0.185
-473.259	-24.245	-0.131	0.077
-472.245	-123.117	0.238	0.038
-471.230	323.814	0.024	-0.044
-470.216	-38.892	-0.302	-0.157
-469.201	-200.000	0.002	0.197
-468.186	-200.000	-0.009	0.202
-467.172	-22.811	0.107	-0.064
-466.157	-63.496	0.108	0.044
-465.143	48.880	0.066	0.061
-464.128	699.464	0.127	0.329
-463.113	173.317	-0.090	0.127
-462.099	-141.058	0.179	0.018
-461.084	-200.000	-0.029	-0.234
-460.070	49.165	0.212	-0.197
-459.055	800.000	0.033	0.099
-458.040	533.502	0.184	0.429
-457.026	-200.000	-0.008	0.074
-456.011	-72.936	0.049	0.018
-454.997	800.000	0.079	-0.233
-453.982	-200.000	-0.052	-0.652
-452.968	-115.335	0.241	-0.045
-451.953	560.745	-0.159	0.380
-450.938	154.763	0.108	-0.146
-449.924	-45.109	0.141	-0.069
-448.909	-200.000	0.032	-0.264
-447.895	93.800	0.130	0.146
-446.880	-200.000	-0.039	-0.229
-445.865	-200.000	0.039	-0.218
-444.851	98.887	-0.185	-0.211
-443.836	-200.000	-0.017	0.167
-442.822	731.128	0.036	0.094
-441.807	130.279	0.060	0.076
-440.792	46.440	-0.203	-0.186
-439.778	682.112	0.069	-0.177
-438.763	72.897	-0.199	-0.205
-437.749	800.000	-0.047	-0.136
-436.734	82.946	0.110	-0.118
-435.719	64.821	0.210	0.209
-434.705	-194.783	-0.379	0.003
-433.690	-6.683	-0.073	0.049
-432.676	-67.255	-0.115	0.045
-431.661	-158.899	-0.310	-0.017
-430.646	-200.000	-0.021	-0.238
-429.632	800.000	-0.054	-0.188
-428.617	445.144	0.014	-0.030
-427.603	-200.000	-0.015	0.348
-426.588	25.504	-0.082	0.067
-425.573	51.290	0.116	-0.108
-424.559	-200.000	-0.013	0.110
-423.544	-200.000	-0.000	-0.292
-422.530	-200.000	-0.023	0.129
-421.515	-134.191	0.128	0.016
-420.500	69.069	0.384	-0.389
-419.486	-59.964	-0.065	0.027
-418.471	800.000	0.007	0.022
-417.457	-200.000	0.064	0.322
-416.442	11.860	-0.183	0.138
-415.428	-43.637	-0.466	-0.231
-414.413	50.681	-0.091	0.085
-413.398	110.794	0.080	-0.094
-412.384	18.157	0.230	0.180
-411.369	227.887	-0.155	0.248
-410.355	-117.641	0.208	0.037
-409.340	-200.000	0.019	0.253
-408.325	224.925	-0.102	0.162
-407.311	-65.149	-0.165	0.065
-406.296	156.031	0.341	0.463
-405.282	-67.618	0.108	0.042
-404.267	-159.624	-0.333	-0.018
-403.252	-200.000	-0.031	0.269
-402.238	-42.151	0.137	0.069
-401.223	88.275	0.090	0.098
-400.209	41.202	0.203	0.181
-399.194	321.216	-0.153	0.287
-398.179	800.000	-0.018	0.079
-397.165	-200.000	-0.004	0.039
-396.150	40.740	0.168	0.149
-395.136	76.604	0.062	0.064
-394.121	406.451	0.077	0.159
-393.106	88.285	-0.135	0.148
-392.092	88.662	0.167	-0.182
-391.077	-75.623	0.260	0.091
-390.063	-11.735	0.180	-0.116
-389.048	800.000	0.094	-0.257
-388.033	-200.000	0.227	-0.001
-387.019	-200.000	0.032	0.179
-386.004	260.442	-0.029	0.049
-384.990	-81.190	0.078	0.025
-383.975	118.580	-0.158	-0.192
-382.960	104.143	0.105	-0.121
-381.946	-200.000	0.045	-0.205
-380.931	40.972	-0.362	-0.321
-379.917	-200.000	0.030	-0.281
-378.902	195.967	-0.175	-0.262
-377.888	260.493	-0.087	-0.148
-376.873	494.289	-0.148	-0.335
-375.858	511.289	-0.048	0.110
-374.844	370.204	-0.223	0.444
-373.829	-200.000	-0.023	0.286
-372.815	-200.000	-0.017	0.262
-371.800	37.288	0.337	0.293
-370.785	52.966	0.109	0.103
-369.771	376.191	-0.077	0.154
-368.756	-81.060	0.063	0.021
-367.742	-177.870	0.147	-0.003
-366.727	-200.000	0.013	-0.209
-365.712	-200.000	0.015	0.204
-364.698	-200.000	-0.001	0.114
-363.683	727.016	-0.111	-0.290
-362.669	-200.000	0.008	0.066
-361.654	-200.000	-0.027	-0.119
-360.639	800.000	-0.059	0.229
-359.625	188.021	-0.217	-0.319
-358.610	177.368	-0.047	-0.067
-357.596	800.000	0.067	0.215
-356.581	-82.895	-0.231	0.073
-355.566	-128.491	-0.250	-0.035
-354.552	499.957	-0.148	0.335
-353.537	-108.496	0.295	0.062
-352.523	-200.000	-0.046	0.347
-351.508	726.201	-0.056	0.145
-350.493	-33.984	0.396	-0.214
-349.479	800.000	-0.051	0.170
-348.464	-70.539	-0.060	0.022
-347.450	36.396	0.366	0.317
-346.435	569.404	-0.025	-0.061
-345.420	800.000	-0.092	0.299
-344.406	245.464	0.063	-0.104
-343.391	325.928	-0.131	0.246
-342.377	40.680	-0.148	-0.131
-341.362	-25.589	0.227	0.132
-340.348	58.664	0.123	-0.118
-339.333	-154.384	-0.332	-0.022
-338.318	-200.000	-0.004	0.159
-337.304	-19.995	0.209	0.127
-336.289	-21.219	-0.311	0.187
-335.275	-89.812	0.191	0.055
-334.260	-200.000	0.001	0.203
-333.245	162.714	-0.098	-0.134
-332.231	-200.000	-0.028	0.300
-331.216	-123.183	-0.151	0.024
-330.202	69.044	-0.309	-0.311
-329.187	-180.100	-0.133	0.003
-328.172	-200.000	0.028	-0.166
-327.158	-61.070	0.153	0.063
-326.143	-61.152	0.050	0.021
-325.129	480.475	0.116	-0.259
-324.114	-10.622	-0.027	0.017
-323.099	800.000	0.071	0.261
-322.085	-46.145	-0.235	0.114
-321.070	-154.899	0.106	-0.007
-320.056	-34.112	0.220	0.118
-319.041	800.000	-0.111	0.334
-318.026	-47.929	-0.183	-0.087
-317.012	-43.700	-0.310	0.153
-315.997	-99.286	0.397	0.098
-314.983	-200.000	-0.035	0.637
-313.968	-20.668	0.333	0.200
-312.953	-200.000	0.060	0.328
-311.939	-79.746	-0.150	-0.049
-310.924	-95.305	0.288	-0.076
-309.910	-46.123	-0.212	0.102
-308.895	-41.375	-0.127	-0.064
-307.880	-200.000	-0.015	0.142
-306.866	93.261	-0.168	-0.186
-305.851	-200.000	0.003	-0.113
-304.837	132.451	0.324	-0.409
-303.822	54.432	-0.103	-0.097
-302.807	234.605	-0.147	-0.237
-301.793	106.616	0.131	-0.152
-300.778	-10.722	0.220	-0.143
-299.764	260.555	0.100	-0.170
-298.749	-200.000	-0.032	-0.214
-297.735	147.857	-0.154	0.204
-296.720	800.000	0.033	0.125
-295.705	-200.000	-0.006	-0.130
-294.691	-124.970	-0.044	-0.007
-293.676	89.760	-0.196	0.214
-292.662	-47.055	0.377	0.180
-291.647	308.224	-0.194	-0.355
-290.632	800.000	0.079	-0.284
-289.618	-200.000	0.002	-0.263
-288.603	800.000	0.091	0.279
-287.589	5.802	0.147	0.106
-286.574	160.611	-0.133	0.182
-285.559	800.000	-0.006	0.023
-284.545	339.394	-0.096	0.184
-283.530	-172.336	0.099	0.003
-282.516	-14.378	0.161	0.101
-281.501	564.114	0.102	0.241
-280.486	-107.360	0.272	0.059
-279.472	87.927	-0.288	-0.313
-278.457	-12.639	-0.061	-0.039
-277.443	-200.000	0.015	0.217
-276.428	-98.444	0.277	-0.069
-275.413	800.000	0.029	-0.112
-274.399	74.845	-0.296	0.305
-273.384	-200.000	-0.053	-0.268
-272.370	800.000	-0.031	-0.126
-271.355	-10.894	0.200	0.129
-270.340	-43.589	-0.379	-0.187
-269.326	55.112	0.205	-0.194
-268.311	88.319	-0.192	-0.208
-267.297	43.826	-0.126	0.113
-266.282	-142.762	0.075	-0.007
-265.267	-58.482	0.350	-0.149
-264.253	85.647	0.230	-0.247
-263.238	-200.000	0.028	0.221
-262.224	1.986	-0.184	0.130
-261.209	-176.053	0.085	0.002
-260.195	-162.308	0.251	0.012
-259.180	-200.000	-0.001	-0.092
-258.165	-10.506	0.525	-0.340
-257.151	656.427	-0.015	0.038
-256.136	-200.000	-0.032	0.185
-255.122	-200.000	0.017	0.165
-254.107	226.578	0.146	-0.232
-253.092	800.000	0.128	-0.371
-252.078	-200.000	0.045	0.290
-251.063	-5.562	0.030	0.020
-250.049	155.708	-0.033	-0.044
-249.034	-200.000	-0.025	0.394
-248.019	26.017	-0.255	-0.208
-247.005	-200.000	0.053	-0.415
-245.990	-200.000	-0.004	-0.109
-244.976	-86.468	-0.032	-0.010
-243.961	-200.000	0.056	0.384
-242.946	-25.670	-0.212	-0.122
-241.932	-35.225	-0.078	0.041
-240.917	208.359	-0.105	-0.160
-239.903	-200.000	-0.003	-0.046
-238.888	-89.204	0.128	-0.037
-237.873	-40.385	-0.205	-0.104
-236.859	-78.078	-0.272	-0.091
-235.844	-200.000	0.085	0.421
-234.830	-36.144	0.108	-0.057
-233.815	475.350	0.074	0.164
-232.800	619.898	-0.137	-0.336
-231.786	-59.131	-0.269	-0.113
-230.771	-76.093	0.128	0.044
-229.757	70.084	0.117	-0.118
-228.742	-200.000	-0.002	-0.300
-227.727	-200.000	0.012	0.172
-226.713	-19.302	0.209	-0.127
-225.698	29.368	-0.222	-0.184
-224.684	108.285	0.166	0.193
-223.669	23.829	0.300	0.241
-222.655	-114.195	0.268	-0.051
-221.640	-74.401	0.087	-0.031
-220.625	-200.000	-0.041	-0.178
-219.611	453.329	0.169	-0.365
-218.596	-200.000	0.008	0.254
-217.582	80.834	-0.208	0.219
-216.567	-113.725	-0.178	0.034
-215.552	29.161	0.153	0.126
-214.538	-105.411	-0.248	0.055
-213.523	197.529	-0.030	-0.045
-212.509	54.704	0.062	0.058
-211.494	20.314	0.276	0.218
-210.479	96.051	0.050	-0.056
-209.465	-200.000	-0.010	-0.235
-208.450	-200.000	-0.000	-0.129
-207.436	429.164	-0.048	-0.100
-206.421	-85.378	0.248	-0.075
-205.406	800.000	0.103	-0.366
-204.392	229.626	0.142	-0.226
-203.377	-39.188	0.210	0.108
-202.363	-33.418	0.172	-0.093
-201.348	-85.363	-0.068	0.021
-200.333	-103.041	0.454	-0.105
-199.319	-200.000	0.028	0.136
-198.304	-200.000	0.045	0.309
-197.290	-103.884	0.136	-0.031
-196.275	5.685	0.151	0.109
-195.260	-18.738	-0.145	-0.088
-194.246	800.000	-0.082	0.329
-193.231	214.491	-0.058	0.090
-192.217	93.494	0.149	-0.165
-191.202	-101.660	0.297	-0.070
-190.187	138.560	-0.026	-0.033
-189.173	316.788	-0.115	0.212
-188.158	38.262	0.140	0.122
-187.144	-200.000	-0.046	-0.202
-186.129	-27.167	0.141	-0.080
-185.114	-200.000	-0.024	0.236
-184.100	3.902	-0.194	0.138
-183.085	-89.704	-0.264	0.075
-182.071	-29.235	-0.232	-0.130
-181.056	-200.000	0.039	0.267
-180.042	60.857	-0.309	0.299
-179.027	417.160	-0.076	-0.159
-178.012	206.343	-0.079	-0.120
-176.998	331.590	-0.034	-0.065
-175.983	-200.000	0.003	0.243
-174.969	-31.839	-0.177	-0.097
-173.954	180.452	0.076	-0.108
-172.939	153.864	-0.112	-0.150
-171.925	-83.893	-0.230	0.071
-170.910	-121.841	0.156	0.025
-169.896	686.451	0.146	0.372
-168.881	-200.000	0.064	0.290
-167.866	117.340	0.072	-0.086
-166.852	-200.000	-0.027	0.129
-165.837	66.265	-0.032	0.031
-164.823	303.505	-0.115	-0.207
-163.808	221.578	-0.186	0.292
-162.793	-200.000	0.006	0.065
-161.779	-58.772	0.356	-0.150
-160.764	-62.304	-0.188	0.076
-159.750	-112.653	-0.190	0.037
-158.735	-200.000	-0.064	0.328
-157.720	-97.919	0.113	-0.028
-156.706	-111.166	0.157	0.031
-155.691	427.300	0.060	-0.125
-154.677	-95.312	0.134	0.035
-153.662	-107.711	0.262	-0.056
-152.647	-106.143	0.230	0.050
-151.633	-200.000	-0.020	0.186
-150.618	800.000	0.038	-0.106
-149.604	5.539	0.095	-0.068
-148.589	246.057	-0.175	0.287
-147.574	-200.000	0.013	0.155
-146.560	-151.955	-0.276	-0.020
-145.545	267.638	-0.126	-0.215
-144.531	384.015	-0.069	0.139
-143.516	-64.334	-0.150	-0.059
-142.502	41.019	0.026	0.023
-141.487	-71.284	0.112	0.041
-140.472	-69.874	0.068	0.025
-139.458	-200.000	-0.043	0.270
-138.443	12.428	-0.161	0.121
-137.429	-143.099	-0.126	-0.012
-136.414	37.389	-0.173	-0.150
-135.399	44.146	-0.313	-0.279
-134.385	-114.841	-0.111	-0.021
-133.370	800.000	-0.112	0.340
-132.356	-77.153	0.205	0.069
-131.341	-88.293	-0.194	-0.057
-130.326	-200.000	-0.019	-0.276
-129.312	154.597	-0.117	0.157
-128.297	-107.163	0.042	-0.009
-127.283	439.289	-0.121	-0.257
-126.268	-45.651	-0.271	-0.131
-125.253	-63.398	0.194	0.078
-124.239	374.228	-0.169	0.336
-123.224	509.767	-0.085	0.193
-122.210	162.434	-0.137	0.186
