DTS Sentinel unit serial number:	SN413079Multiplexer serial number:	ORYXHardware model number:	OX4-SRSoftware version number:	ORYX F/W v4.00 Oryx Data Collector v3.7.2.0data status	okinstallation	princeton_trtdifferential loss correction	single-endedforward channel	channel 2reverse channel	N/Adate	2019/09/17time	08:47:35forward acquisition time	60.00reverse acquisition time	0.00gamma	496.2192k internal	0.2332k external	0.2332temperature offset calibration	0.9980default loss term (dB/km)	0.3790temperature slope calibration	1.0000multiplexer offset coefficient	1.0000multiplexer slope coefficient	1.0000fibre end	0.00T internal ref (°C)	27.80T ext. ref 1 (°C)	0.14T ext. ref 2 (°C)	23.33length (m)	temperature (°C)	Stokes	anti-Stokes-747.200	529.609	0.136	-0.324
-746.185	-200.000	0.013	0.218
-745.171	-107.877	-0.259	-0.057
-744.156	-28.264	-0.333	0.193
-743.142	-115.143	-0.216	0.041
-742.127	-178.290	-0.395	0.009
-741.112	-58.336	0.114	0.050
-740.098	135.010	-0.167	0.218
-739.083	800.000	-0.048	-0.187
-738.069	21.687	-0.055	0.045
-737.054	800.000	-0.022	0.062
-736.039	-200.000	-0.011	-0.122
-735.025	-110.961	0.529	-0.109
-734.010	-200.000	0.009	-0.076
-732.996	800.000	-0.072	-0.234
-731.981	-137.793	0.129	-0.015
-730.966	800.000	0.032	-0.139
-729.952	151.155	0.304	-0.416
-728.937	-18.346	-0.136	-0.085
-727.923	800.000	0.086	-0.274
-726.908	70.919	0.056	0.058
-725.894	-92.753	-0.173	-0.049
-724.879	40.790	-0.183	-0.166
-723.864	748.740	0.033	-0.089
-722.850	-99.859	0.260	-0.065
-721.835	86.982	0.109	-0.122
-720.821	-200.000	-0.054	-0.318
-719.806	800.000	0.082	-0.285
-718.791	-54.630	0.037	-0.017
-717.777	-31.333	-0.146	-0.082
-716.762	-103.649	-0.200	-0.047
-715.748	72.321	-0.135	-0.141
-714.733	167.371	-0.150	-0.215
-713.718	-134.397	0.204	-0.025
-712.704	678.706	0.030	0.078
-711.689	-134.229	-0.225	0.028
-710.675	-65.828	0.256	-0.103
-709.660	329.174	-0.117	0.226
-708.645	-200.000	0.003	0.198
-707.631	591.104	0.018	-0.044
-706.616	151.002	0.026	0.035
-705.602	-24.684	0.281	-0.168
-704.587	-200.000	-0.003	0.076
-703.572	383.526	-0.048	-0.098
-702.558	-65.235	0.149	0.060
-701.543	-200.000	0.001	-0.085
-700.529	-82.408	-0.488	-0.159
-699.514	800.000	-0.085	-0.323
-698.499	-52.595	0.055	0.026
-697.485	-40.160	0.394	0.206
-696.470	731.943	-0.107	0.287
-695.456	-115.967	-0.356	0.067
-694.441	-125.271	-0.227	-0.035
-693.426	-70.795	-0.102	-0.038
-692.412	-200.000	0.051	-0.231
-691.397	8.903	0.327	0.247
-690.383	14.325	0.188	-0.147
-689.368	-21.231	0.073	0.045
-688.354	-132.295	-0.122	0.016
-687.339	-148.022	0.056	0.005
-686.324	-200.000	0.250	-0.001
-685.310	357.429	-0.127	0.255
-684.295	155.778	0.152	0.210
-683.281	2.386	-0.199	0.145
-682.266	20.182	0.070	0.057
-681.251	800.000	-0.093	-0.326
-680.237	800.000	-0.062	-0.245
-679.222	378.960	0.071	0.147
-678.208	-62.035	0.225	-0.094
-677.193	-76.243	-0.133	0.047
-676.178	-24.571	0.346	-0.207
-675.164	2.102	0.091	-0.066
-674.149	-113.831	-0.211	-0.041
-673.135	101.087	-0.153	0.178
-672.120	-200.000	0.026	0.230
-671.105	-60.126	-0.151	-0.065
-670.091	800.000	0.090	0.287
-669.076	90.140	0.117	-0.131
-668.062	-143.148	0.125	0.012
-667.047	-122.117	-0.237	0.039
-666.032	-55.636	0.278	0.125
-665.018	-200.000	0.006	0.109
-664.003	200.499	-0.207	0.318
-662.989	261.988	-0.126	-0.219
-661.974	97.847	0.122	0.141
-660.959	553.043	0.121	-0.291
-659.945	418.778	-0.039	-0.083
-658.930	-120.257	0.242	-0.041
-657.916	-158.868	0.318	0.018
-656.901	-200.000	0.001	-0.054
-655.886	800.000	-0.114	-0.354
-654.872	-64.731	-0.069	-0.028
-653.857	-130.367	-0.141	-0.019
-652.843	-65.388	-0.029	0.012
-651.828	167.738	-0.284	-0.405
-650.814	257.760	0.059	-0.103
-649.799	800.000	-0.044	0.158
-648.784	-127.886	0.167	-0.024
-647.770	-88.147	0.266	0.080
-646.755	-32.984	0.148	0.083
-645.741	-178.745	-0.121	-0.003
-644.726	94.906	-0.085	0.097
-643.711	-144.408	0.192	0.018
-642.697	379.758	0.080	-0.164
-641.682	-8.944	0.240	-0.161
-640.668	-139.518	-0.504	-0.054
-639.653	800.000	-0.161	-0.516
-638.638	-21.572	0.176	-0.107
-637.624	-158.400	0.372	-0.022
-636.609	-200.000	-0.005	0.272
-635.595	480.280	0.077	-0.175
-634.580	-104.528	-0.460	0.106
-633.565	66.113	0.220	-0.224
-632.551	-25.482	-0.207	0.123
-631.536	-200.000	-0.003	0.116
-630.522	143.925	-0.086	0.115
-629.507	310.136	-0.064	0.120
-628.492	-142.302	-0.166	0.016
-627.478	16.176	0.261	0.206
-626.463	87.438	-0.214	-0.237
-625.449	106.132	0.148	0.176
-624.434	-47.659	0.043	0.021
-623.419	99.566	0.279	0.323
-622.405	800.000	0.045	-0.125
-621.390	-54.547	0.085	-0.039
-620.376	-19.948	-0.197	-0.122
-619.361	-59.609	-0.055	-0.024
-618.346	-62.730	-0.268	0.111
-617.332	-110.142	-0.214	-0.045
-616.317	-200.000	-0.003	-0.099
-615.303	-200.000	-0.003	-0.344
-614.288	-114.463	0.211	-0.041
-613.273	20.830	0.205	-0.166
-612.259	-200.000	-0.035	-0.198
-611.244	251.850	-0.168	-0.287
-610.230	38.370	0.101	-0.090
-609.215	-25.705	0.195	0.115
-608.201	117.025	-0.177	-0.218
-607.186	800.000	-0.043	-0.155
-606.171	266.277	-0.133	0.233
-605.157	415.375	0.094	0.200
-604.142	397.023	0.110	-0.231
-603.128	63.582	0.196	-0.197
-602.113	-9.208	-0.119	0.080
-601.098	-155.219	0.285	0.019
-600.084	-200.000	0.019	-0.243
-599.069	499.024	-0.109	-0.251
-598.055	34.231	0.239	-0.208
-597.040	-58.917	0.075	0.032
-596.025	-18.909	-0.155	0.097
-595.011	66.334	0.072	-0.074
-593.996	800.000	0.075	0.263
-592.982	20.526	0.103	-0.084
-591.967	-92.938	0.484	0.135
-590.952	-6.784	-0.187	-0.127
-589.938	78.563	-0.170	-0.181
-588.923	-5.310	0.211	-0.145
-587.909	800.000	-0.037	-0.133
-586.894	154.554	-0.150	-0.206
-585.879	-92.983	0.385	0.107
-584.865	-94.347	-0.111	0.030
-583.850	-94.274	0.268	-0.073
-582.836	-200.000	-0.027	0.289
-581.821	-52.707	0.083	-0.038
-580.806	-56.215	-0.210	0.094
-579.792	143.470	-0.191	0.254
-578.777	-200.000	-0.017	-0.253
-577.763	-200.000	0.009	-0.144
-576.748	-121.410	-0.276	-0.046
-575.733	13.886	-0.337	-0.262
-574.719	165.039	0.081	0.114
-573.704	206.285	-0.042	0.065
-572.690	49.828	-0.095	0.089
-571.675	-55.373	0.271	0.122
-570.661	295.225	0.015	0.027
-569.646	-200.000	-0.005	0.033
-568.631	59.841	0.082	0.080
-567.617	-78.243	0.057	0.020
-566.602	-88.039	-0.344	0.103
-565.588	-129.047	-0.358	0.050
-564.573	692.621	0.101	-0.266
-563.558	-118.503	-0.131	-0.023
-562.544	543.717	-0.126	-0.301
-561.529	333.125	-0.078	-0.151
-560.515	-138.955	-0.311	0.034
-559.500	-105.937	-0.158	-0.036
-558.485	677.736	-0.078	0.202
-557.471	-200.000	0.001	0.121
-556.456	-80.570	-0.342	0.114
-555.442	274.163	-0.029	0.052
-554.427	-200.000	0.033	-0.188
-553.412	-67.184	-0.071	0.028
-552.398	800.000	-0.078	-0.223
-551.383	466.814	0.064	0.144
-550.369	656.262	-0.076	0.196
-549.354	258.744	0.185	0.318
-548.339	25.899	-0.204	0.169
-547.325	-2.601	0.281	-0.196
-546.310	134.924	-0.126	-0.164
-545.296	-108.991	-0.072	0.015
-544.281	88.458	0.216	-0.240
-543.266	-154.867	-0.369	0.024
-542.252	101.405	0.148	0.172
-541.237	-200.000	-0.013	0.074
-540.223	-156.596	-0.313	-0.019
-539.208	497.201	0.059	-0.137
-538.193	411.978	0.180	0.381
-537.179	3.772	0.110	-0.080
-536.164	31.078	0.080	0.068
-535.150	127.376	0.155	-0.197
-534.135	-102.064	0.106	0.026
-533.121	-103.458	-0.434	-0.102
-532.106	31.870	0.273	-0.235
-531.091	800.000	0.083	-0.260
-530.077	109.486	0.058	-0.069
-529.062	-200.000	-0.009	-0.069
-528.048	800.000	-0.049	-0.139
-527.033	-111.150	0.066	-0.013
-526.018	-39.812	-0.103	0.054
-525.004	800.000	-0.069	0.289
-523.989	800.000	-0.075	0.232
-522.975	-102.630	-0.160	0.038
-521.960	800.000	0.050	0.166
-520.945	-189.973	-0.096	-0.001
-519.931	25.260	-0.204	0.169
-518.916	90.320	-0.143	0.159
-517.902	270.966	-0.117	-0.205
-516.887	174.735	0.079	0.114
-515.872	79.269	0.247	0.264
-514.858	800.000	-0.045	0.184
-513.843	106.490	0.015	-0.018
-512.829	116.572	0.065	0.080
-511.814	57.158	0.195	-0.190
-510.799	10.952	-0.202	-0.154
-509.785	-200.000	-0.012	-0.078
-508.770	186.228	0.224	0.332
-507.756	-114.830	0.125	-0.024
-506.741	800.000	0.095	-0.358
-505.726	-6.441	-0.205	0.139
-504.712	-174.488	0.370	-0.011
-503.697	-44.262	0.114	-0.057
-502.683	-169.176	-0.071	0.003
-501.668	95.437	0.128	0.145
-500.653	-133.429	0.238	0.030
-499.639	-83.396	-0.176	0.056
-498.624	-142.659	-0.096	-0.009
-497.610	-41.516	0.339	-0.174
-496.595	7.958	0.056	0.042
-495.581	-48.322	-0.283	-0.136
-494.566	421.307	0.062	-0.132
-493.551	-9.356	0.176	0.117
-492.537	-72.324	-0.446	-0.165
-491.522	-200.000	0.027	0.217
-490.508	-200.000	-0.050	-0.241
-489.493	-50.386	0.320	0.150
-488.478	9.073	-0.148	-0.111
-487.464	-173.002	0.325	0.010
-486.449	405.117	0.098	-0.205
-485.435	23.383	-0.093	-0.076
-484.420	-112.588	-0.324	0.064
-483.405	258.043	0.137	-0.235
-482.391	23.418	0.234	0.192
-481.376	-200.000	-0.000	0.069
-480.362	-200.000	0.001	-0.348
-479.347	-200.000	0.011	0.334
-478.332	-174.601	0.260	0.007
-477.318	188.642	-0.055	-0.082
-476.303	-64.261	-0.181	0.073
-475.289	762.034	-0.055	0.150
-474.274	670.383	-0.073	0.188
-473.259	-16.596	-0.119	-0.075
-472.245	-200.000	-0.011	0.062
-471.230	53.300	-0.274	0.261
-470.216	-36.486	0.295	-0.158
-469.201	-72.916	-0.122	-0.045
-468.186	-200.000	0.018	-0.121
-467.172	157.180	-0.009	0.013
-466.157	-200.000	0.037	-0.447
-465.143	220.674	0.246	-0.393
-464.128	-94.562	0.242	-0.065
-463.113	-200.000	0.029	0.177
-462.099	238.539	0.161	0.266
-461.084	-132.213	0.480	0.062
-460.070	-200.000	-0.017	0.272
-459.055	-48.525	0.078	-0.037
-458.040	407.266	0.147	0.308
-457.026	302.982	-0.120	0.221
-456.011	-25.959	-0.076	-0.044
-454.997	155.531	0.211	0.289
-453.982	300.079	-0.089	0.164
-452.968	-111.052	0.226	-0.046
-451.953	162.549	-0.122	0.171
-450.938	-70.130	0.240	0.091
-449.924	-95.832	-0.057	0.015
-448.909	123.314	-0.110	-0.137
-447.895	115.073	0.034	-0.042
-446.880	77.350	-0.139	-0.147
-445.865	-35.546	0.236	-0.127
-444.851	-130.168	-0.274	-0.037
-443.836	-12.510	-0.246	-0.160
-442.822	-35.403	-0.228	0.123
-441.807	-200.000	0.019	0.170
-440.792	42.258	0.209	-0.189
-439.778	-200.000	0.001	0.070
-438.763	24.440	-0.069	0.057
-437.749	390.004	-0.127	-0.262
-436.734	-3.375	-0.105	-0.073
-435.719	309.151	-0.211	0.391
-434.705	-200.000	-0.001	0.156
-433.690	-72.112	-0.309	0.114
-432.676	-148.900	0.235	0.019
-431.661	145.581	-0.205	-0.273
-430.646	-144.617	0.093	0.009
-429.632	92.942	0.080	0.090
-428.617	253.517	-0.139	-0.236
-427.603	500.921	0.129	-0.295
-426.588	173.128	-0.128	-0.183
-425.573	-13.836	0.160	0.103
-424.559	-200.000	0.025	0.289
-423.544	312.810	-0.024	-0.044
-422.530	-42.273	-0.113	0.057
-421.515	-104.229	-0.118	-0.027
-420.500	6.592	0.081	-0.060
-419.486	437.998	0.113	-0.245
-418.471	539.116	0.063	-0.149
-417.457	-29.788	0.107	0.060
-416.442	281.487	-0.071	0.126
-415.428	800.000	0.090	0.387
-414.413	-12.179	-0.129	0.084
-413.398	-200.000	0.015	-0.194
-412.384	4.671	0.138	-0.101
-411.369	-103.068	0.226	0.053
-410.355	-127.592	0.158	0.023
-409.340	168.560	-0.235	0.333
-408.325	-91.969	0.236	-0.066
-407.311	-130.061	-0.170	-0.023
-406.296	-200.000	-0.007	-0.152
-405.282	128.260	-0.065	0.083
-404.267	138.180	0.134	0.174
-403.252	-200.000	0.039	-0.201
-402.238	46.768	-0.025	0.023
-401.223	373.208	0.074	0.149
-400.209	800.000	-0.054	-0.213
-399.194	-200.000	0.037	-0.266
-398.179	-126.804	-0.360	-0.053
-397.165	81.416	0.077	0.083
-396.150	-13.819	-0.176	0.113
-395.136	800.000	0.040	0.147
-394.121	13.769	0.037	-0.029
-393.106	-113.968	-0.243	-0.047
-392.092	800.000	-0.062	0.196
-391.077	-105.247	-0.372	-0.084
-390.063	23.783	0.058	-0.047
-389.048	128.910	-0.299	-0.378
-388.033	-200.000	0.006	0.215
-387.019	49.469	-0.136	0.127
-386.004	-39.025	-0.050	-0.026
-384.990	109.872	-0.054	0.064
-383.975	654.284	-0.026	-0.065
-382.960	406.918	-0.027	0.056
-381.946	145.395	-0.178	-0.236
-380.931	-97.176	0.074	0.019
-379.917	-145.685	-0.106	0.009
-378.902	-200.000	0.038	0.185
-377.888	-65.198	0.064	0.025
-376.873	132.241	-0.126	0.161
-375.858	-139.431	0.206	0.022
-374.844	800.000	0.083	-0.279
-373.829	800.000	-0.062	0.172
-372.815	-28.926	0.304	0.173
-371.800	-100.085	-0.123	0.030
-370.785	800.000	-0.094	-0.258
-369.771	-86.550	-0.048	-0.015
-368.756	-200.000	0.005	0.075
-367.742	135.668	-0.143	-0.184
-366.727	-78.949	0.361	-0.122
-365.712	-200.000	0.096	0.420
-364.698	800.000	0.130	0.439
-363.683	136.593	-0.044	0.057
-362.669	-126.935	0.187	0.027
-361.654	-48.503	0.155	0.074
-360.639	800.000	-0.013	-0.052
-359.625	-200.000	0.004	0.151
-358.610	12.349	-0.130	-0.099
-357.596	91.319	-0.221	0.246
-356.581	280.410	-0.183	-0.324
-355.566	-35.659	0.238	0.128
-354.552	155.920	-0.130	0.178
-353.537	800.000	0.108	-0.295
-352.523	65.354	-0.184	-0.185
-351.508	213.231	0.076	0.119
-350.493	-91.106	-0.089	-0.025
-349.479	323.559	-0.055	-0.104
-348.464	194.743	0.102	0.154
-347.450	149.608	-0.243	-0.327
-346.435	30.718	0.236	-0.200
-345.420	-36.996	-0.108	-0.057
-344.406	192.536	-0.104	0.156
-343.391	628.634	0.112	0.280
-342.377	229.455	-0.126	0.204
-341.362	303.520	-0.193	-0.354
-340.348	-15.614	0.283	-0.179
-339.333	-20.540	0.300	-0.183
-338.318	339.865	-0.045	0.087
-337.304	44.582	-0.118	-0.108
-336.289	-166.917	-0.048	-0.002
-335.275	-167.043	0.208	-0.008
-334.260	-15.522	-0.150	-0.095
-333.245	137.153	0.130	-0.168
-332.231	-154.977	0.277	0.018
-331.216	77.560	0.068	-0.072
-330.202	10.372	-0.293	-0.221
-329.187	-200.000	-0.019	0.326
-328.172	-200.000	-0.047	0.319
-327.158	800.000	-0.171	0.555
-326.143	-200.000	-0.006	0.199
-325.129	81.494	-0.122	0.131
-324.114	166.439	-0.092	-0.129
-323.099	-161.928	0.194	0.010
-322.085	-59.368	0.142	-0.060
-321.070	-200.000	0.048	-0.271
-320.056	61.750	-0.031	-0.031
-319.041	-85.463	0.278	-0.086
-318.026	-97.375	0.185	0.048
-317.012	174.458	0.078	0.111
-315.997	281.354	0.101	-0.179
-314.983	238.089	-0.105	-0.173
-313.968	220.554	0.100	0.159
-312.953	123.569	0.211	0.262
-311.939	267.750	0.023	0.039
-310.924	433.289	0.099	0.212
-309.910	-89.690	0.229	-0.066
-308.895	-200.000	-0.041	-0.471
-307.880	-107.697	-0.311	0.067
-306.866	361.813	-0.082	-0.163
-305.851	-200.000	0.024	0.255
-304.837	487.554	-0.025	-0.057
-303.822	-77.961	0.104	-0.035
-302.807	-105.959	-0.387	0.086
-301.793	197.860	0.063	0.096
-300.778	7.064	0.093	-0.069
-299.764	82.618	0.073	-0.079
-298.749	-86.728	-0.241	0.073
-297.735	-136.019	-0.159	-0.018
-296.720	27.645	-0.086	-0.072
-295.705	459.759	0.064	-0.141
-294.691	-200.000	-0.030	0.257
-293.676	-183.699	-0.481	0.008
-292.662	225.518	0.047	0.076
-291.647	63.241	-0.162	-0.161
-290.632	32.854	-0.177	-0.151
-289.618	322.817	-0.244	-0.459
-288.603	800.000	0.046	-0.182
-287.589	-200.000	-0.004	-0.127
-286.574	-7.673	-0.094	0.063
-285.559	-77.716	-0.154	-0.053
-284.545	273.392	0.039	0.068
-283.530	216.023	0.166	-0.261
-282.516	-105.565	-0.163	-0.037
-281.501	-82.630	0.086	-0.027
-280.486	-85.062	-0.380	0.118
-279.472	-62.162	-0.229	-0.095
-278.457	124.183	-0.063	0.078
-277.443	54.685	0.165	-0.157
-276.428	-200.000	0.032	-0.234
-275.413	-5.936	0.198	0.134
-274.399	-200.000	0.013	-0.111
-273.384	49.905	-0.134	0.124
-272.370	207.976	0.125	0.193
-271.355	800.000	0.092	0.319
-270.340	-73.895	0.018	0.007
-269.326	800.000	-0.028	0.090
-268.311	800.000	0.091	0.304
-267.297	-200.000	0.002	-0.030
-266.282	-149.767	0.203	0.016
-265.267	6.870	-0.123	0.090
-264.253	102.055	0.081	-0.094
-263.238	-55.083	0.376	0.167
-262.224	24.218	-0.291	-0.237
-261.209	800.000	0.058	-0.172
-260.195	151.358	0.139	0.186
-259.180	22.917	0.019	0.015
-258.165	-28.988	-0.068	-0.038
-257.151	-103.941	0.786	-0.181
-256.136	-200.000	-0.018	-0.609
-255.122	437.036	-0.189	-0.406
-254.107	95.988	0.176	0.199
-253.092	-200.000	0.014	-0.083
-252.078	-51.220	0.272	-0.126
-251.063	-200.000	0.000	0.063
-250.049	74.757	-0.170	-0.176
-249.034	189.613	-0.108	0.160
-248.019	118.954	-0.026	0.031
-247.005	-200.000	-0.036	0.440
-245.990	-200.000	-0.030	-0.137
-244.976	-45.517	0.438	0.214
-243.961	-200.000	0.027	-0.297
-242.946	30.681	-0.092	0.078
-241.932	567.976	-0.167	0.400
-240.917	-53.604	-0.151	-0.068
-239.903	-169.314	-0.095	0.003
-238.888	-67.474	0.115	0.045
-237.873	-38.124	0.234	-0.122
-236.859	49.521	-0.213	0.198
-235.844	-11.751	0.047	0.031
-234.830	88.915	0.058	0.063
-233.815	-31.327	-0.201	-0.112
-232.800	800.000	0.027	-0.085
-231.786	-200.000	0.007	-0.142
-230.771	-146.471	-0.176	0.015
-229.757	-200.000	0.010	0.258
-228.742	109.508	-0.125	-0.148
-227.727	-104.002	0.334	0.077
-226.713	-200.000	-0.269	0.001
-225.698	260.293	-0.094	0.161
-224.684	279.818	-0.107	-0.188
-223.669	43.101	-0.102	0.092
-222.655	-75.480	0.152	-0.053
-221.640	160.452	0.052	0.072
-220.625	17.212	0.131	0.102
-219.611	-200.000	-0.012	-0.053
-218.596	-19.806	-0.205	-0.125
-217.582	135.998	-0.166	-0.213
-216.567	178.575	0.082	0.118
-215.552	-35.388	0.176	0.095
-214.538	163.394	0.148	-0.206
-213.523	-133.199	-0.101	-0.013
-212.509	-106.783	-0.175	0.038
-211.494	-147.991	-0.253	-0.021
-210.479	-183.807	0.095	0.002
-209.465	18.561	0.132	0.104
-208.450	-200.000	-0.028	0.180
-207.436	-171.657	0.098	0.003
-206.421	800.000	0.067	0.278
-205.406	-91.822	-0.437	-0.122
-204.392	-133.082	0.333	0.042
-203.377	-30.002	-0.185	-0.104
-202.363	-200.000	0.039	-0.430
-201.348	326.330	-0.091	-0.172
-200.333	654.836	0.120	0.303
-199.319	447.689	-0.096	-0.209
-198.304	-69.463	0.078	-0.030
-197.290	-95.114	0.060	0.016
-196.275	-200.000	0.087	0.385
-195.260	-200.000	0.006	0.161
-194.246	140.368	-0.153	0.198
-193.231	-200.000	-0.069	0.418
-192.217	221.945	0.142	-0.225
-191.202	800.000	0.078	-0.290
-190.187	12.138	-0.082	-0.062
-189.173	276.522	-0.202	-0.353
-188.158	36.743	0.108	0.094
-187.144	287.218	-0.057	0.102
-186.129	365.866	-0.187	0.371
-185.114	-200.000	0.108	0.553
-184.100	-200.000	-0.007	0.412
-183.085	800.000	-0.123	-0.338
-182.071	-29.318	0.223	0.125
-181.056	-76.008	-0.370	0.129
-180.042	-4.071	0.232	-0.158
-179.027	82.218	0.202	0.216
-178.012	-38.115	0.180	-0.094
-176.998	-101.421	-0.296	-0.071
-175.983	231.410	-0.102	-0.165
-174.969	67.419	0.126	0.126
-173.954	-200.000	0.045	-0.396
-172.939	-136.543	0.258	-0.029
-171.925	800.000	-0.017	-0.061
-170.910	354.238	-0.066	0.129
-169.896	-200.000	0.023	0.515
-168.881	168.354	-0.094	-0.132
-167.866	-84.989	0.244	-0.075
-166.852	105.156	-0.184	0.214
-165.837	-200.000	0.006	-0.145
-164.823	-71.047	0.358	0.133
-163.808	234.501	0.159	-0.258
-162.793	-140.889	0.197	-0.020
-161.779	-200.000	0.043	0.197
-160.764	778.325	-0.135	-0.362
-159.750	-200.000	-0.014	-0.067
-158.735	-110.065	-0.106	-0.022
-157.720	-200.000	-0.001	-0.109
-156.706	-1.226	-0.198	0.138
-155.691	241.331	0.246	0.404
-154.677	59.985	0.401	0.390
-153.662	-80.689	-0.246	-0.081
-152.647	-88.089	-0.371	0.110
-151.633	-129.125	0.333	-0.046
-150.618	101.507	-0.180	0.207
-149.604	-139.020	-0.363	0.039
-148.589	-200.000	0.015	0.094
-147.574	602.197	-0.016	0.039
-146.560	-49.367	0.203	0.095
-145.545	-165.077	-0.135	0.006
-144.531	-172.125	0.171	-0.005
-143.516	-45.050	0.150	-0.073
-142.502	-200.000	0.017	0.095
-141.487	-28.629	0.160	0.090
-140.472	-200.000	-0.007	-0.193
-139.458	67.272	0.036	-0.036
-138.443	-117.280	0.207	0.037
-137.429	-186.274	-0.227	0.003
-136.414	-27.914	-0.313	0.178
-135.399	-45.806	0.067	0.032
-134.385	74.219	0.241	0.249
-133.370	-200.000	-0.053	0.320
-132.356	800.000	-0.081	-0.271
-131.341	800.000	-0.050	0.157
-130.326	800.000	0.087	0.240
-129.312	-88.147	0.138	0.041
-128.297	-200.000	-0.051	-0.296
-127.283	24.245	0.175	0.142
-126.268	800.000	0.088	-0.276
-125.253	36.373	0.037	-0.032
-124.239	-200.000	0.053	0.235
-123.224	-42.568	0.283	-0.141
-122.210	-43.653	0.083	-0.041
-121.195	-81.100	-0.527	0.171
