DTS Sentinel unit serial number:	SN413079Multiplexer serial number:	ORYXHardware model number:	OX4-SRSoftware version number:	ORYX F/W v4.00 Oryx Data Collector v3.7.2.0data status	okinstallation	princeton_trtdifferential loss correction	single-endedforward channel	channel 2reverse channel	N/Adate	2019/09/16time	23:07:34forward acquisition time	60.00reverse acquisition time	0.00gamma	496.2192k internal	0.2330k external	0.2330temperature offset calibration	0.9971default loss term (dB/km)	0.3790temperature slope calibration	1.0000multiplexer offset coefficient	1.0000multiplexer slope coefficient	1.0000fibre end	0.00T internal ref (°C)	30.23T ext. ref 1 (°C)	0.08T ext. ref 2 (°C)	23.86length (m)	temperature (°C)	Stokes	anti-Stokes-747.200	-142.645	0.179	-0.018
-746.185	-200.000	-0.039	0.188
-745.171	-48.760	-0.171	-0.083
-744.156	508.322	0.036	0.084
-743.142	103.554	-0.022	0.026
-742.127	-200.000	-0.030	0.247
-741.112	-9.893	0.290	0.194
-740.098	40.018	-0.056	-0.051
-739.083	-98.877	-0.244	0.062
-738.069	796.752	0.108	0.300
-737.054	-121.556	0.121	0.020
-736.039	-200.000	-0.369	0.001
-735.025	306.533	0.020	-0.037
-734.010	12.548	-0.177	-0.137
-732.996	-200.000	0.026	-0.306
-731.981	-56.652	-0.195	-0.087
-730.966	800.000	-0.067	-0.188
-729.952	-163.157	0.118	0.006
-728.937	-15.678	-0.147	-0.094
-727.923	425.013	0.093	-0.203
-726.908	586.201	0.037	-0.091
-725.894	-69.785	0.356	-0.137
-724.879	800.000	0.061	-0.175
-723.864	72.455	0.237	-0.248
-722.850	2.623	0.240	-0.175
-721.835	-200.000	0.070	-0.377
-720.821	-68.024	0.172	-0.067
-719.806	166.904	-0.052	-0.074
-718.791	-37.264	0.445	-0.239
-717.777	-136.438	-0.041	-0.005
-716.762	588.276	-0.073	-0.182
-715.748	138.250	0.179	-0.236
-714.733	-200.000	0.039	0.183
-713.718	-11.595	-0.257	-0.170
-712.704	-23.679	0.154	0.093
-711.689	743.367	-0.056	-0.151
-710.675	-192.232	0.168	-0.002
-709.660	411.335	-0.037	-0.079
-708.645	-200.000	-0.058	-0.356
-707.631	800.000	-0.017	0.053
-706.616	625.649	-0.179	0.454
-705.602	115.528	0.106	0.131
-704.587	-145.401	-0.396	0.036
-703.572	371.701	0.104	0.213
-702.558	-200.000	-0.010	-0.446
-701.543	20.320	0.173	-0.140
-700.529	-115.967	0.110	-0.021
-699.514	94.043	0.163	-0.186
-698.499	800.000	-0.044	-0.135
-697.485	800.000	-0.040	-0.128
-696.470	-200.000	-0.006	0.167
-695.456	-68.879	-0.265	0.103
-694.441	-9.743	-0.113	-0.076
-693.426	344.127	0.119	0.235
-692.412	-200.000	-0.056	0.326
-691.397	27.126	0.118	-0.100
-690.383	426.791	0.057	-0.124
-689.368	246.633	0.159	-0.270
-688.354	266.886	0.131	0.229
-687.339	33.014	-0.032	-0.028
-686.324	-111.075	0.263	0.054
-685.310	143.659	0.246	0.329
-684.295	800.000	0.017	0.058
-683.281	-101.295	-0.433	-0.106
-682.266	-65.161	-0.053	-0.021
-681.251	240.783	0.140	0.235
-680.237	-53.124	0.236	0.109
-679.222	455.585	0.031	0.069
-678.208	-200.000	0.014	-0.255
-677.193	-170.008	-0.073	-0.003
-676.178	192.144	-0.106	-0.161
-675.164	379.166	0.084	-0.172
-674.149	-120.869	-0.235	0.040
-673.135	164.790	-0.154	0.218
-672.120	-10.309	0.254	-0.169
-671.105	-68.552	-0.168	-0.065
-670.091	-101.967	-0.324	0.078
-669.076	-110.894	0.033	-0.007
-668.062	-18.288	0.297	0.187
-667.047	16.717	0.068	0.054
-666.032	32.672	0.103	0.090
-665.018	-62.446	0.138	-0.058
-664.003	29.996	-0.118	-0.101
-662.989	644.508	0.076	0.195
-661.974	187.522	0.125	-0.187
-660.959	294.558	-0.085	-0.156
-659.945	95.640	0.033	-0.037
-658.930	678.489	0.067	0.175
-657.916	-60.952	-0.022	0.010
-656.901	-138.698	0.114	0.013
-655.886	160.902	0.174	0.244
-654.872	-46.990	-0.095	0.047
-653.857	-125.056	-0.324	0.050
-652.843	-29.308	0.235	0.135
-651.828	-36.551	-0.210	-0.113
-650.814	-200.000	0.031	-0.179
-649.799	-107.546	0.284	0.062
-648.784	56.706	-0.280	0.273
-647.770	-55.061	-0.179	-0.081
-646.755	229.405	-0.265	-0.434
-645.741	35.232	-0.294	0.258
-644.726	60.653	-0.344	-0.341
-643.711	135.279	0.059	-0.076
-642.697	800.000	-0.057	-0.201
-641.682	-83.375	0.284	-0.091
-640.668	-138.583	0.277	0.030
-639.653	800.000	-0.094	0.308
-638.638	800.000	-0.013	-0.054
-637.624	800.000	-0.046	-0.137
-636.609	44.804	-0.238	0.220
-635.595	163.799	-0.193	0.273
-634.580	-116.325	-0.133	0.025
-633.565	-40.801	0.087	0.045
-632.551	77.582	0.146	-0.155
-631.536	30.070	-0.241	-0.206
-630.522	8.406	-0.090	-0.068
-629.507	-88.463	0.067	0.020
-628.492	-200.000	-0.010	-0.252
-627.478	-47.106	-0.178	-0.087
-626.463	800.000	0.016	-0.059
-625.449	94.542	0.235	0.268
-624.434	-0.323	-0.068	0.049
-623.419	-200.000	0.010	0.106
-622.405	-200.000	0.016	0.175
-621.390	146.026	0.133	0.179
-620.376	-200.000	-0.023	-0.147
-619.361	-200.000	-0.038	-0.176
-618.346	-200.000	0.045	-0.253
-617.332	75.086	0.162	-0.171
-616.317	36.495	0.183	-0.162
-615.303	800.000	-0.012	0.042
-614.288	404.593	-0.129	-0.272
-613.273	-200.000	-0.003	0.082
-612.259	49.177	0.147	-0.138
-611.244	-200.000	-0.030	-0.540
-610.230	800.000	-0.108	0.317
-609.215	-133.886	0.118	0.015
-608.201	-41.885	0.230	-0.118
-607.186	800.000	-0.050	-0.194
-606.171	800.000	0.044	0.126
-605.157	-200.000	0.033	-0.282
-604.142	-200.000	-0.030	-0.212
-603.128	800.000	0.017	0.048
-602.113	-200.000	-0.023	-0.145
-601.098	-127.903	0.093	-0.013
-600.084	-200.000	-0.027	-0.136
-599.069	-141.007	-0.221	-0.023
-598.055	-200.000	0.036	0.446
-597.040	11.483	-0.275	0.211
-596.025	-200.000	0.041	-0.270
-595.011	27.111	-0.172	0.144
-593.996	-48.494	-0.418	0.201
-592.982	132.519	0.350	-0.452
-591.967	39.509	-0.126	0.113
-590.952	20.643	-0.253	0.205
-589.938	-200.000	0.013	0.085
-588.923	800.000	0.049	-0.184
-587.909	-141.425	0.245	0.025
-586.894	-51.279	-0.312	0.146
-585.879	-200.000	-0.014	-0.357
-584.865	48.090	0.163	-0.153
-583.850	7.394	0.031	-0.023
-582.836	-200.000	0.032	-0.344
-581.821	228.198	-0.077	0.125
-580.806	-81.731	0.249	-0.082
-579.792	387.633	0.071	-0.146
-578.777	-200.000	-0.011	0.105
-577.763	-32.514	-0.275	0.153
-576.748	-116.600	-0.379	0.070
-575.733	800.000	-0.122	-0.379
-574.719	204.717	0.164	-0.254
-573.704	800.000	-0.059	-0.213
-572.690	-187.902	0.287	0.004
-571.675	94.551	-0.291	-0.330
-570.661	800.000	0.074	-0.249
-569.646	293.322	0.192	-0.350
-568.631	-2.507	0.327	0.229
-567.617	800.000	-0.016	-0.063
-566.602	-133.034	0.415	0.053
-565.588	-84.803	0.161	-0.051
-564.573	665.884	-0.021	-0.055
-563.558	226.724	0.058	-0.094
-562.544	65.896	-0.147	-0.149
-561.529	-59.021	-0.111	0.048
-560.515	98.376	0.070	-0.081
-559.500	-28.581	0.045	-0.026
-558.485	454.687	0.036	-0.080
-557.471	-87.972	-0.235	0.071
-556.456	-24.836	0.207	0.123
-555.442	-200.000	-0.006	-0.135
-554.427	800.000	-0.031	-0.129
-553.412	-156.817	0.170	-0.010
-552.398	104.931	0.245	0.289
-551.383	33.708	0.118	0.102
-550.369	-41.270	0.090	0.046
-549.354	-22.422	-0.234	0.142
-548.339	43.985	-0.173	0.158
-547.325	6.823	0.170	0.126
-546.310	-100.384	-0.141	-0.035
-545.296	800.000	-0.129	-0.398
-544.281	173.574	-0.150	-0.216
-543.266	-29.309	-0.085	0.048
-542.252	170.392	0.086	-0.122
-541.237	-200.000	0.012	0.056
-540.223	254.137	-0.028	0.048
-539.208	63.732	-0.036	0.036
-538.193	-36.221	-0.191	-0.103
-537.179	800.000	-0.077	0.310
-536.164	-200.000	-0.077	0.429
-535.150	-104.876	-0.104	-0.024
-534.135	-200.000	-0.013	-0.402
-533.121	-118.262	-0.080	0.014
-532.106	246.308	0.173	0.291
-531.091	172.047	-0.158	0.227
-530.077	-103.006	0.122	0.029
-529.062	-200.000	-0.016	0.088
-528.048	76.142	0.105	-0.110
-527.033	-200.000	0.000	0.007
-526.018	-125.801	-0.290	0.044
-525.004	-200.000	-0.018	0.146
-523.989	-66.545	-0.185	-0.073
-522.975	800.000	-0.089	0.267
-521.960	-147.794	0.176	-0.015
-520.945	-23.205	0.212	0.128
-519.931	50.413	0.002	-0.002
-518.916	800.000	-0.021	-0.089
-517.902	-192.761	0.160	-0.001
-516.887	177.490	0.144	0.209
-515.872	-66.901	-0.358	-0.141
-514.858	-48.568	-0.164	-0.079
-513.843	800.000	-0.045	0.129
-512.829	-139.475	-0.259	0.028
-511.814	-44.930	-0.048	0.024
-510.799	50.844	-0.087	0.082
-509.785	-94.724	-0.369	-0.100
-508.770	-200.000	-0.023	0.118
-507.756	-200.000	0.001	-0.028
-506.741	295.424	0.052	0.096
-505.726	800.000	0.076	0.259
-504.712	-11.384	-0.248	-0.163
-503.697	161.284	0.144	-0.201
-502.683	-125.490	0.245	-0.037
-501.668	-200.000	0.015	-0.303
-500.653	800.000	0.076	0.218
-499.639	165.385	0.148	-0.209
-498.624	-0.042	0.036	-0.026
-497.610	50.751	0.220	0.208
-496.595	1.812	0.228	0.164
-495.581	-9.250	0.062	0.041
-494.566	-200.000	0.047	-0.244
-493.551	-152.717	0.062	-0.004
-492.537	-200.000	-0.009	0.144
-491.522	-55.755	-0.155	-0.069
-490.508	-169.509	0.161	0.006
-489.493	-200.000	-0.071	-0.638
-488.478	-200.000	0.009	0.262
-487.464	90.126	-0.179	0.199
-486.449	69.702	-0.173	-0.178
-485.435	48.338	0.292	-0.273
-484.420	-177.451	0.349	-0.009
-483.405	-118.465	-0.236	-0.042
-482.391	-67.132	-0.362	0.142
-481.376	236.248	0.098	0.161
-480.362	-35.585	-0.065	-0.035
-479.347	468.771	-0.015	-0.034
-478.332	88.679	-0.063	-0.070
-477.318	363.492	0.029	0.058
-476.303	-200.000	0.007	-0.063
-475.289	-80.983	-0.361	-0.119
-474.274	658.404	-0.077	-0.197
-473.259	-143.670	0.140	0.013
-472.245	-200.000	0.029	-0.230
-471.230	-143.132	-0.187	0.018
-470.216	-136.494	0.122	0.014
-469.201	-51.272	0.107	0.050
-468.186	384.407	0.167	-0.342
-467.172	-64.800	0.187	-0.075
-466.157	120.512	0.106	0.131
-465.143	-200.000	0.036	0.168
-464.128	-102.569	-0.420	-0.100
-463.113	-78.650	-0.081	-0.027
-462.099	800.000	0.107	-0.446
-461.084	12.353	0.247	-0.190
-460.070	-33.252	0.441	-0.243
-459.055	-200.000	-0.012	-0.227
-458.040	119.155	0.174	0.214
-457.026	-200.000	0.006	0.211
-456.011	219.081	0.171	0.272
-454.997	-200.000	0.001	0.219
-453.982	-113.793	-0.137	0.026
-452.968	-96.864	0.172	-0.045
-451.953	-107.180	0.190	-0.042
-450.938	800.000	0.079	-0.336
-449.924	-200.000	0.036	-0.378
-448.909	-181.263	-0.378	0.007
-447.895	65.688	0.143	0.144
-446.880	-7.326	-0.053	-0.035
-445.865	-70.680	-0.251	-0.095
-444.851	-45.037	-0.274	-0.136
-443.836	800.000	0.131	-0.514
-442.822	-60.472	-0.159	-0.067
-441.807	25.313	0.137	-0.113
-440.792	130.076	-0.175	0.223
-439.778	310.703	0.184	0.343
-438.763	-51.574	0.167	-0.077
-437.749	-42.857	-0.171	-0.087
-436.734	-108.237	-0.239	0.051
-435.719	-97.982	0.087	0.022
-434.705	76.094	0.239	-0.252
-433.690	36.588	-0.087	0.076
-432.676	-200.000	-0.015	0.341
-431.661	33.344	-0.028	-0.024
-430.646	-141.533	-0.139	0.014
-429.632	-200.000	-0.034	0.228
-428.617	-200.000	-0.023	0.169
-427.603	-200.000	0.000	-0.129
-426.588	800.000	-0.040	0.148
-425.573	45.598	0.280	-0.258
-424.559	-200.000	-0.010	0.114
-423.544	-200.000	-0.034	0.165
-422.530	-3.346	0.132	0.091
-421.515	127.488	-0.192	-0.242
-420.500	-77.376	0.362	0.125
-419.486	76.938	0.038	-0.040
-418.471	800.000	0.141	0.511
-417.457	171.597	0.125	0.178
-416.442	-124.224	-0.083	-0.013
-415.428	-200.000	-0.112	0.587
-414.413	126.062	0.086	0.108
-413.398	126.993	0.023	-0.029
-412.384	2.038	0.070	0.050
-411.369	44.581	0.096	0.088
-410.355	264.167	-0.148	-0.255
-409.340	12.982	-0.165	-0.127
-408.325	149.906	-0.089	0.120
-407.311	68.230	-0.399	0.406
-406.296	-118.555	-0.320	0.056
-405.282	239.128	-0.092	0.152
-404.267	-200.000	-0.060	-0.354
-403.252	-32.380	-0.068	-0.037
-402.238	349.790	0.035	-0.069
-401.223	367.412	0.062	0.125
-400.209	-128.554	0.118	0.017
-399.194	-36.386	-0.257	0.138
-398.179	427.982	-0.084	0.179
-397.165	-200.000	-0.017	-0.087
-396.150	102.070	-0.294	-0.341
-395.136	-40.799	0.341	-0.175
-394.121	-114.998	-0.243	0.046
-393.106	229.224	0.099	0.160
-392.092	59.327	0.135	0.132
-391.077	-200.000	0.006	-0.223
-390.063	800.000	0.061	-0.256
-389.048	18.798	0.138	0.109
-388.033	-98.696	-0.160	0.041
-387.019	-77.164	0.368	0.127
-386.004	566.444	0.115	0.277
-384.990	-67.027	-0.101	0.040
-383.975	537.333	-0.043	0.102
-382.960	-200.000	-0.017	0.199
-381.946	-34.961	-0.220	-0.119
-380.931	-64.503	-0.207	0.083
-379.917	20.298	0.067	-0.053
-378.902	21.705	0.094	-0.076
-377.888	800.000	0.015	-0.044
-376.873	-146.541	-0.300	-0.026
-375.858	800.000	0.088	0.291
-374.844	387.378	-0.058	-0.120
-373.829	800.000	0.019	-0.066
-372.815	-169.613	-0.084	0.003
-371.800	-200.000	0.054	0.374
-370.785	42.127	0.160	0.145
-369.771	454.279	0.069	-0.152
-368.756	-45.653	0.183	0.090
-367.742	692.805	-0.032	0.083
-366.727	-200.000	0.042	-0.257
-365.712	-200.000	0.062	0.358
-364.698	-126.651	0.179	-0.026
-363.683	-200.000	0.032	0.172
-362.669	13.520	-0.202	-0.156
-361.654	-57.728	0.036	0.015
-360.639	346.255	0.058	0.114
-359.625	-70.027	-0.250	0.094
-358.610	800.000	-0.147	-0.482
-357.596	460.303	-0.137	-0.303
-356.581	-200.000	-0.002	0.285
-355.566	10.839	-0.221	-0.168
-354.552	431.856	-0.138	-0.297
-353.537	-11.855	0.067	-0.044
-352.523	-70.301	0.099	0.037
-351.508	-30.036	0.171	0.097
-350.493	-9.204	-0.340	-0.225
-349.479	-200.000	0.093	-0.509
-348.464	-157.216	0.334	0.020
-347.450	106.318	0.086	-0.101
-346.435	-200.000	0.018	0.124
-345.420	-96.201	-0.038	-0.010
-344.406	35.059	0.058	0.051
-343.391	-200.000	0.011	0.049
-342.377	645.849	-0.064	0.161
-341.362	165.318	-0.217	0.303
-340.348	135.852	-0.076	0.098
-339.333	166.781	0.227	0.319
-338.318	89.739	0.048	-0.053
-337.304	20.239	-0.277	0.222
-336.289	-36.742	0.166	0.089
-335.275	-200.000	-0.012	-0.092
-334.260	800.000	-0.088	-0.261
-333.245	22.082	0.057	0.046
-332.231	614.044	0.036	-0.088
-331.216	450.375	0.143	0.312
-330.202	362.996	-0.010	-0.019
-329.187	40.283	0.316	0.282
-328.172	26.403	0.177	0.147
-327.158	91.455	-0.089	0.099
-326.143	-20.738	0.067	-0.041
-325.129	1.503	0.197	-0.140
-324.114	355.721	-0.151	0.297
-323.099	-197.477	0.292	0.002
-322.085	-200.000	0.016	-0.149
-321.070	-114.307	0.138	-0.026
-320.056	-200.000	-0.012	-0.144
-319.041	-145.541	0.198	-0.018
-318.026	-18.950	-0.043	-0.026
-317.012	800.000	-0.111	0.323
-315.997	112.768	0.199	0.239
-314.983	278.950	0.234	0.414
-313.968	800.000	-0.111	0.447
-312.953	3.406	0.235	-0.169
-311.939	493.830	-0.066	0.149
-310.924	-79.072	-0.118	-0.040
-309.910	-200.000	-0.008	-0.103
-308.895	144.991	-0.076	0.100
-307.880	-200.000	0.054	0.342
-306.866	-200.000	-0.001	-0.468
-305.851	60.245	-0.150	0.147
-304.837	-35.027	0.095	-0.051
-303.822	122.886	0.065	-0.081
-302.807	-24.177	-0.116	-0.069
-301.793	-106.746	0.306	-0.067
-300.778	461.542	-0.066	0.147
-299.764	-149.009	0.353	-0.028
-298.749	-98.664	0.218	0.055
-297.735	6.601	0.157	0.116
-296.720	76.917	-0.025	-0.027
-295.705	15.123	0.105	0.081
-294.691	302.791	0.087	0.159
-293.676	-153.545	0.114	-0.008
-292.662	-1.570	0.264	-0.184
-291.647	-142.971	-0.117	-0.011
-290.632	169.124	-0.107	0.151
-289.618	331.159	-0.223	0.424
-288.603	800.000	-0.053	0.196
-287.589	87.658	-0.054	0.059
-286.574	303.575	-0.168	-0.307
-285.559	-200.000	-0.006	-0.337
-284.545	-30.101	-0.083	0.047
-283.530	-139.446	0.180	0.019
-282.516	-200.000	-0.005	-0.261
-281.501	29.592	0.021	0.017
-280.486	-149.057	-0.458	0.036
-279.472	-200.000	-0.001	0.152
-278.457	-40.980	0.293	-0.150
-277.443	-183.867	0.297	0.005
-276.428	-18.765	-0.133	-0.082
-275.413	8.437	-0.146	0.109
-274.399	428.909	-0.070	-0.150
-273.384	423.582	0.013	-0.027
-272.370	-40.144	0.208	-0.107
-271.355	-129.886	-0.207	0.028
-270.340	-41.529	-0.151	0.077
-269.326	-107.134	-0.466	-0.102
-268.311	800.000	-0.059	0.255
-267.297	407.519	0.055	-0.114
-266.282	-200.000	0.006	-0.202
-265.267	-126.129	-0.174	-0.026
-264.253	212.103	-0.027	-0.043
-263.238	76.230	0.170	0.178
-262.224	-200.000	-0.034	0.150
-261.209	20.011	0.319	-0.255
-260.195	1.859	-0.132	-0.094
-259.180	15.523	-0.254	-0.197
-258.165	-96.337	-0.133	0.035
-257.151	-154.215	-0.101	0.007
-256.136	129.266	-0.221	-0.278
-255.122	-59.108	0.387	-0.165
-254.107	-200.000	0.045	0.322
-253.092	-65.395	0.136	-0.054
-252.078	-19.529	-0.042	-0.026
-251.063	292.600	-0.121	-0.217
-250.049	88.101	0.164	-0.180
-249.034	-62.980	0.385	-0.157
-248.019	-200.000	-0.010	-0.330
-247.005	-9.778	0.259	0.170
-245.990	119.896	-0.182	0.223
-244.976	3.276	0.306	0.220
-243.961	37.299	-0.076	0.066
-242.946	38.057	-0.179	0.158
-241.932	232.144	-0.059	-0.096
-240.917	-48.472	0.226	0.108
-239.903	-135.809	-0.098	0.011
-238.888	49.927	-0.045	-0.042
-237.873	447.011	0.085	0.185
-236.859	800.000	-0.030	0.091
-235.844	800.000	-0.087	-0.269
-234.830	125.175	-0.224	-0.279
-233.815	-200.000	0.018	-0.115
-232.800	181.302	0.041	-0.060
-231.786	163.720	-0.217	0.301
-230.771	-200.000	0.008	0.294
-229.757	-200.000	0.048	0.284
-228.742	-33.499	0.297	-0.162
-227.727	624.036	0.095	0.237
-226.713	-35.835	-0.301	0.161
-225.698	-200.000	0.002	0.014
-224.684	718.415	0.080	0.210
-223.669	151.704	-0.087	0.117
-222.655	-28.068	-0.245	0.140
-221.640	-34.425	-0.051	0.028
-220.625	800.000	-0.037	-0.136
-219.611	-24.345	-0.116	0.068
-218.596	-68.183	-0.117	0.045
-217.582	618.831	-0.035	-0.086
-216.567	-27.831	0.155	-0.088
-215.552	-59.011	0.122	0.052
-214.538	-200.000	0.009	-0.123
-213.523	-167.017	0.100	0.004
-212.509	-200.000	-0.003	-0.099
-211.494	-134.286	0.176	0.021
-210.479	67.141	0.198	0.199
-209.465	428.292	-0.023	0.048
-208.450	25.866	0.159	0.131
-207.436	-200.000	0.000	-0.114
-206.421	-200.000	0.062	-0.343
-205.406	-74.810	0.323	0.114
-204.392	800.000	-0.056	-0.212
-203.377	800.000	0.054	-0.147
-202.363	-22.143	0.276	-0.165
-201.348	197.921	-0.048	-0.072
-200.333	-2.936	-0.228	-0.157
-199.319	122.871	-0.026	0.032
-198.304	-57.343	-0.216	0.094
-197.290	-200.000	0.077	-0.340
-196.275	800.000	-0.047	0.151
-195.260	800.000	-0.110	-0.336
-194.246	49.211	-0.164	0.151
-193.231	800.000	-0.068	-0.244
-192.217	4.354	0.064	-0.046
-191.202	-200.000	0.004	0.352
-190.187	108.173	0.241	-0.284
-189.173	190.971	0.107	-0.158
-188.158	-83.504	0.279	0.088
-187.144	800.000	-0.125	0.410
-186.129	-140.286	0.163	0.017
-185.114	-36.614	0.031	0.016
-184.100	4.775	-0.177	0.128
-183.085	26.600	0.097	-0.080
-182.071	66.200	0.050	0.050
-181.056	159.095	0.147	-0.202
-180.042	-98.803	-0.556	0.139
-179.027	-200.000	-0.065	0.309
-178.012	635.514	-0.033	0.083
-176.998	-200.000	0.180	-0.001
-175.983	122.924	-0.184	0.227
-174.969	108.460	0.231	-0.272
-173.954	-101.871	0.058	0.014
-172.939	-159.515	-0.319	-0.017
-171.925	81.646	0.102	0.109
-170.910	223.648	-0.130	-0.207
-169.896	84.552	0.157	0.169
-168.881	-200.000	-0.009	0.133
-167.866	74.506	-0.211	0.218
-166.852	800.000	-0.165	0.677
-165.837	-200.000	0.024	0.414
-164.823	-92.712	0.186	0.051
-163.808	42.198	-0.045	-0.040
-162.793	-107.290	-0.045	-0.010
-161.779	212.648	0.159	0.247
-160.764	-10.773	-0.154	-0.100
-159.750	-200.000	-0.030	0.367
-158.735	-200.000	0.010	-0.307
-157.720	-123.628	-0.204	-0.032
-156.706	-92.853	0.293	0.081
-155.691	109.479	0.110	-0.129
-154.677	-200.000	0.012	0.141
-153.662	-200.000	-0.027	-0.273
-152.647	-62.045	0.124	-0.051
-151.633	219.965	-0.136	-0.214
-150.618	-200.000	-0.006	0.277
-149.604	-146.034	0.304	0.026
-148.589	111.434	0.158	-0.188
-147.574	-140.529	-0.131	0.013
-146.560	-123.392	-0.136	-0.021
-145.545	-200.000	-0.033	0.246
-144.531	-115.442	-0.318	-0.059
-143.516	52.728	-0.223	0.210
-142.502	-200.000	-0.017	0.360
-141.487	800.000	0.056	-0.194
-140.472	-30.970	0.225	-0.125
-139.458	-183.118	-0.310	0.005
-138.443	531.629	-0.005	-0.012
-137.429	54.453	-0.203	-0.192
-136.414	364.519	0.095	-0.189
-135.399	149.712	0.112	-0.149
-134.385	-200.000	-0.002	0.095
-133.370	513.356	-0.146	0.334
-132.356	-42.760	0.053	-0.027
-131.341	-200.000	0.032	-0.144
-130.326	170.509	0.282	0.397
-129.312	-133.763	0.244	0.030
-128.297	225.031	-0.115	0.183
-127.283	-92.555	0.060	0.017
-126.268	-151.144	-0.281	-0.021
-125.253	-77.559	0.175	0.060
-124.239	8.748	-0.247	0.183
-123.224	800.000	-0.108	0.313
-122.210	4.048	-0.042	-0.030
-121.195	-77.223	0.231	0.079
