DTS Sentinel unit serial number:	SN413079Multiplexer serial number:	ORYXHardware model number:	OX4-SRSoftware version number:	ORYX F/W v4.00 Oryx Data Collector v3.7.2.0data status	okinstallation	princeton_trtdifferential loss correction	single-endedforward channel	channel 2reverse channel	N/Adate	2019/09/15time	22:31:34forward acquisition time	60.00reverse acquisition time	0.00gamma	496.2192k internal	0.2335k external	0.2335temperature offset calibration	0.9946default loss term (dB/km)	0.3790temperature slope calibration	1.0000multiplexer offset coefficient	1.0000multiplexer slope coefficient	1.0000fibre end	0.00T internal ref (°C)	29.12T ext. ref 1 (°C)	8.75T ext. ref 2 (°C)	22.58length (m)	temperature (°C)	Stokes	anti-Stokes-747.200	-172.425	0.042	-0.001
-746.185	91.128	0.036	-0.040
-745.171	800.000	0.083	0.260
-744.156	188.777	-0.134	0.201
-743.142	-200.000	-0.007	0.174
-742.127	-134.663	-0.151	0.018
-741.112	98.414	0.213	0.246
-740.098	-26.206	-0.186	-0.110
-739.083	344.870	-0.061	-0.120
-738.069	283.646	0.111	0.200
-737.054	-81.332	0.294	0.097
-736.039	-65.555	-0.361	-0.146
-735.025	468.565	0.084	-0.189
-734.010	61.915	-0.202	-0.202
-732.996	-83.762	-0.237	0.076
-731.981	-106.156	0.286	-0.064
-730.966	206.260	-0.117	0.183
-729.952	-20.809	0.290	0.179
-728.937	728.452	-0.010	0.027
-727.923	295.650	-0.038	0.069
-726.908	-200.000	0.011	0.054
-725.894	613.519	0.129	-0.323
-724.879	111.364	0.183	-0.221
-723.864	800.000	-0.086	-0.253
-722.850	-29.314	-0.453	0.260
-721.835	427.420	-0.068	-0.147
-720.821	93.402	-0.096	-0.109
-719.806	260.789	-0.047	0.081
-718.791	800.000	-0.057	-0.231
-717.777	287.544	0.246	0.446
-716.762	-111.305	0.062	0.013
-715.748	800.000	-0.063	-0.195
-714.733	34.389	-0.256	0.224
-713.718	-155.944	-0.066	-0.004
-712.704	-200.000	0.014	-0.129
-711.689	-121.520	0.442	-0.074
-710.675	168.980	-0.214	-0.307
-709.660	-45.553	-0.115	0.057
-708.645	-71.876	-0.049	0.018
-707.631	-98.228	0.300	0.077
-706.616	-98.360	-0.176	-0.045
-705.602	129.459	0.114	0.146
-704.587	174.847	-0.156	0.226
-703.572	123.882	0.206	0.260
-702.558	717.650	-0.132	0.351
-701.543	12.877	-0.032	0.025
-700.529	-43.952	-0.237	-0.119
-699.514	800.000	0.108	-0.341
-698.499	62.967	-0.137	0.138
-697.485	153.350	0.165	-0.227
-696.470	178.858	-0.178	-0.261
-695.456	-21.644	0.296	0.181
-694.441	232.147	-0.149	0.246
-693.426	11.285	-0.113	0.087
-692.412	800.000	-0.096	-0.404
-691.397	-89.530	0.327	0.096
-690.383	295.162	-0.090	-0.165
-689.368	234.672	-0.128	-0.212
-688.354	480.848	-0.141	0.320
-687.339	-77.900	0.158	-0.055
-686.324	800.000	-0.052	-0.212
-685.310	441.605	-0.057	-0.126
-684.295	-200.000	-0.006	-0.098
-683.281	-151.716	-0.266	-0.020
-682.266	53.684	-0.264	-0.254
-681.251	-78.008	0.079	0.027
-680.237	-2.574	0.097	0.068
-679.222	-56.104	0.389	0.174
-678.208	-22.386	-0.265	0.161
-677.193	144.680	-0.061	-0.081
-676.178	-10.895	-0.265	0.175
-675.164	-40.871	-0.375	-0.194
-674.149	-200.000	0.027	0.414
-673.135	800.000	-0.090	0.284
-672.120	33.986	0.131	-0.114
-671.105	149.026	0.172	0.234
-670.091	800.000	-0.028	0.089
-669.076	747.658	0.051	0.138
-668.062	50.903	-0.170	-0.161
-667.047	-116.433	0.268	0.050
-666.032	-142.223	-0.129	0.013
-665.018	10.307	0.442	0.337
-664.003	-200.000	0.031	0.478
-662.989	-143.220	-0.090	0.009
-661.974	-36.851	0.393	0.211
-660.959	-131.488	-0.307	0.041
-659.945	-200.000	0.043	0.351
-658.930	331.535	-0.108	-0.209
-657.916	79.982	-0.033	0.035
-656.901	-200.000	-0.014	0.326
-655.886	721.646	0.134	-0.357
-654.872	-26.543	0.112	0.066
-653.857	491.241	0.024	-0.055
-652.843	-200.000	-0.037	-0.411
-651.828	-164.726	-0.381	0.017
-650.814	-12.528	0.346	0.226
-649.799	-200.000	0.000	0.239
-648.784	54.591	-0.108	0.105
-647.770	20.344	-0.113	-0.091
-646.755	-200.000	0.017	0.193
-645.741	110.579	0.023	0.027
-644.726	-74.608	-0.163	-0.059
-643.711	-66.525	-0.164	0.065
-642.697	-200.000	-0.009	0.176
-641.682	-200.000	0.059	0.290
-640.668	-105.743	0.218	-0.049
-639.653	-200.000	0.022	0.203
-638.638	364.693	0.141	0.284
-637.624	297.532	0.179	-0.330
-636.609	-163.080	-0.274	-0.013
-635.595	-112.521	0.137	-0.027
-634.580	-154.055	0.383	0.026
-633.565	-90.148	0.083	-0.024
-632.551	18.132	0.215	-0.172
-631.536	109.932	-0.125	-0.150
-630.522	-200.000	0.021	0.362
-629.507	82.776	-0.229	-0.249
-628.492	191.182	-0.023	0.034
-627.478	-200.000	0.024	-0.119
-626.463	-200.000	-0.037	0.270
-625.449	-47.453	-0.082	0.040
-624.434	-200.000	-0.003	-0.027
-623.419	-41.682	-0.376	0.193
-622.405	-66.814	-0.145	-0.057
-621.390	-75.420	0.167	-0.059
-620.376	126.151	-0.052	-0.065
-619.361	-24.428	-0.226	-0.135
-618.346	-200.000	-0.022	0.124
-617.332	-197.910	-0.297	-0.002
-616.317	-136.916	-0.232	0.027
-615.303	-158.556	-0.257	0.015
-614.288	-39.337	0.222	0.117
-613.273	-46.571	-0.281	-0.138
-612.259	-77.612	0.109	0.038
-611.244	179.137	-0.169	-0.248
-610.230	-200.000	0.004	0.030
-609.215	-83.326	0.195	-0.062
-608.201	331.690	-0.152	-0.294
-607.186	800.000	0.134	0.380
-606.171	800.000	0.062	-0.173
-605.157	-74.153	-0.078	-0.028
-604.142	80.798	0.059	0.064
-603.128	224.323	-0.107	0.172
-602.113	800.000	-0.065	-0.245
-601.098	117.418	0.120	0.148
-600.084	744.001	0.059	0.159
-599.069	210.627	0.088	-0.139
-598.055	800.000	-0.112	-0.478
-597.040	-29.429	-0.066	0.038
-596.025	198.565	-0.118	0.180
-595.011	-118.874	0.216	0.038
-593.996	800.000	0.051	0.146
-592.982	81.392	-0.148	-0.160
-591.967	-200.000	0.028	-0.180
-590.952	-58.215	-0.224	0.097
-589.938	-122.095	0.208	-0.034
-588.923	-152.432	-0.184	-0.013
-587.909	-127.322	0.215	0.031
-586.894	-200.000	0.001	0.049
-585.879	-119.320	0.281	-0.049
-584.865	143.689	0.033	-0.044
-583.850	-95.697	0.379	0.101
-582.836	-200.000	-0.110	0.545
-581.821	-200.000	0.009	-0.103
-580.806	-200.000	0.008	-0.088
-579.792	800.000	-0.078	-0.269
-578.777	-28.279	-0.025	0.014
-577.763	29.437	-0.190	0.162
-576.748	-200.000	-0.021	-0.147
-575.733	-200.000	0.047	0.302
-574.719	445.938	-0.031	-0.068
-573.704	-172.794	-0.198	0.006
-572.690	79.307	0.274	-0.293
-571.675	-200.000	-0.072	0.378
-570.661	800.000	0.101	-0.331
-569.646	-161.267	-0.139	0.007
-568.631	-62.159	-0.114	0.048
-567.617	-200.000	-0.008	0.068
-566.602	800.000	0.045	0.140
-565.588	268.780	-0.197	0.344
-564.573	501.807	0.113	-0.260
-563.558	-19.478	-0.088	-0.054
-562.544	-1.969	-0.149	-0.105
-561.529	-100.109	-0.069	-0.017
-560.515	50.269	0.095	-0.089
-559.500	-70.455	0.130	0.049
-558.485	-119.160	-0.180	0.031
-557.471	-200.000	-0.023	-0.365
-556.456	-127.802	0.181	-0.026
-555.442	-200.000	0.066	0.352
-554.427	-150.131	0.230	0.018
-553.412	800.000	0.036	-0.147
-552.398	327.834	0.099	0.189
-551.383	25.206	0.241	0.199
-550.369	-44.637	-0.283	0.141
-549.354	-200.000	0.018	0.162
-548.339	325.856	-0.083	0.159
-547.325	47.896	0.156	0.145
-546.310	-62.543	-0.263	-0.109
-545.296	708.985	0.040	0.105
-544.281	43.172	0.125	0.113
-543.266	170.867	0.106	0.151
-542.252	800.000	-0.016	0.051
-541.237	-200.000	0.014	0.316
-540.223	800.000	-0.025	-0.087
-539.208	63.500	-0.489	0.489
-538.193	-43.420	0.190	0.096
-537.179	-18.231	0.225	-0.140
-536.164	-53.343	0.302	-0.138
-535.150	-31.684	-0.294	0.164
-534.135	86.343	0.182	-0.200
-533.121	200.811	-0.148	-0.227
-532.106	-11.633	-0.101	0.066
-531.091	-200.000	-0.001	0.123
-530.077	38.896	0.195	-0.174
-529.062	800.000	0.002	0.007
-528.048	703.615	-0.102	-0.269
-527.033	-81.879	0.338	0.110
-526.018	-96.948	0.359	0.094
-525.004	-96.477	-0.277	-0.073
-523.989	-97.904	-0.247	-0.063
-522.975	-83.668	-0.293	-0.093
-521.960	800.000	0.097	0.297
-520.945	101.110	0.068	0.079
-519.931	-200.000	0.036	-0.205
-518.916	46.386	0.254	0.235
-517.902	17.391	-0.078	-0.062
-516.887	-4.695	0.281	-0.193
-515.872	-138.431	-0.026	0.003
-514.858	-2.162	-0.123	-0.086
-513.843	-34.319	-0.102	0.056
-512.829	773.405	0.076	-0.206
-511.814	800.000	0.081	-0.307
-510.799	800.000	-0.070	-0.215
-509.785	800.000	-0.050	-0.170
-508.770	800.000	-0.089	0.301
-507.756	-88.822	-0.049	-0.014
-506.741	800.000	0.092	-0.285
-505.726	32.838	0.148	-0.127
-504.712	-190.878	0.194	0.002
-503.697	-12.352	0.341	0.222
-502.683	46.693	-0.251	-0.232
-501.668	-200.000	0.008	0.145
-500.653	473.585	0.165	-0.371
-499.639	-200.000	-0.090	-0.392
-498.624	51.598	-0.236	-0.223
-497.610	11.624	-0.095	-0.072
-496.595	-200.000	-0.003	0.099
-495.581	-127.389	0.097	-0.014
-494.566	-86.447	-0.186	-0.057
-493.551	-124.436	0.076	0.012
-492.537	-141.803	-0.295	-0.029
-491.522	22.302	-0.081	0.066
-490.508	-200.000	-0.011	0.279
-489.493	-9.844	0.338	0.224
-488.478	335.096	0.067	0.130
-487.464	-144.605	0.292	-0.027
-486.449	529.994	-0.037	-0.088
-485.435	177.131	-0.058	-0.084
-484.420	56.948	0.135	0.131
-483.405	-60.065	0.336	-0.143
-482.391	71.755	0.319	-0.330
-481.376	-45.156	0.257	0.127
-480.362	-64.568	-0.009	-0.004
-479.347	-78.338	-0.339	-0.116
-478.332	800.000	-0.062	-0.221
-477.318	-200.000	0.015	-0.279
-476.303	800.000	-0.082	0.280
-475.289	-70.683	-0.286	-0.108
-474.274	-200.000	-0.024	0.219
-473.259	-43.850	0.061	-0.031
-472.245	386.029	0.057	-0.116
-471.230	400.966	0.152	0.318
-470.216	386.393	-0.093	-0.190
-469.201	800.000	0.062	-0.229
-468.186	-200.000	0.007	-0.069
-467.172	-112.071	0.305	0.061
-466.157	-76.381	0.248	-0.087
-465.143	0.592	-0.090	0.064
-464.128	46.379	-0.122	0.112
-463.113	-28.628	-0.130	0.074
-462.099	-200.000	0.009	0.277
-461.084	63.292	0.106	-0.106
-460.070	72.116	0.240	-0.248
-459.055	-19.305	0.079	0.049
-458.040	-200.000	0.024	-0.201
-457.026	-24.091	0.038	0.023
-456.011	277.457	-0.047	-0.084
-454.997	153.098	0.188	-0.255
-453.982	-30.140	-0.141	-0.080
-452.968	-111.877	0.328	0.066
-451.953	-200.000	-0.023	-0.247
-450.938	542.737	-0.121	-0.286
-449.924	-70.191	-0.142	-0.054
-448.909	-87.627	0.405	-0.122
-447.895	-90.131	0.152	-0.044
-446.880	-146.287	-0.181	-0.016
-445.865	2.411	0.261	-0.187
-444.851	184.805	0.052	-0.076
-443.836	-137.554	-0.067	-0.007
-442.822	732.063	-0.117	0.312
-441.807	-116.596	-0.246	-0.045
-440.792	-84.846	-0.204	0.064
-439.778	-137.528	0.243	-0.027
-438.763	-2.063	-0.240	-0.167
-437.749	-113.357	-0.337	0.066
-436.734	63.949	-0.253	-0.253
-435.719	-200.000	-0.016	0.144
-434.705	263.865	-0.030	-0.051
-433.690	177.306	-0.014	0.020
-432.676	-36.413	0.150	0.080
-431.661	148.357	-0.208	-0.278
-430.646	-12.703	0.192	0.124
-429.632	-200.000	-0.087	0.587
-428.617	291.577	-0.182	-0.328
-427.603	800.000	-0.052	0.177
-426.588	-32.242	-0.329	-0.182
-425.573	-86.053	0.180	-0.055
-424.559	-114.306	0.141	-0.027
-423.544	-32.162	-0.075	-0.042
-422.530	-191.120	-0.318	-0.003
-421.515	282.206	-0.042	-0.074
-420.500	-30.850	-0.214	-0.120
-419.486	404.711	0.118	-0.246
-418.471	2.831	0.280	0.202
-417.457	-46.515	0.308	0.150
-416.442	-42.754	0.208	-0.105
-415.428	176.690	-0.062	-0.089
-414.413	-80.730	0.390	-0.129
-413.398	-200.000	-0.029	-0.135
-412.384	-163.138	0.497	0.024
-411.369	-104.575	0.317	-0.073
-410.355	19.658	-0.121	-0.097
-409.340	-75.348	-0.148	-0.052
-408.325	49.698	-0.174	-0.163
-407.311	-200.000	0.008	0.060
-406.296	-109.872	-0.118	0.024
-405.282	-200.000	-0.012	0.209
-404.267	-140.750	-0.167	0.017
-403.252	-101.945	-0.476	-0.114
-402.238	-115.524	-0.036	-0.007
-401.223	779.925	-0.150	-0.406
-400.209	-4.157	-0.148	0.101
-399.194	-200.000	-0.007	0.149
-398.179	-60.378	-0.346	-0.146
-397.165	-18.432	0.010	-0.006
-396.150	-200.000	-0.011	0.159
-395.136	35.484	0.072	-0.063
-394.121	-172.884	0.140	-0.004
-393.106	-68.989	-0.293	-0.112
-392.092	31.323	0.145	0.123
-391.077	-16.532	0.196	0.123
-390.063	72.462	0.360	-0.372
-389.048	16.161	0.196	-0.153
-388.033	43.994	0.174	0.158
-387.019	383.698	0.147	0.300
-386.004	-200.000	-0.034	-0.344
-384.990	366.204	-0.051	0.103
-383.975	-95.281	0.041	-0.011
-382.960	542.430	-0.175	0.414
-381.946	-159.712	-0.244	0.013
-380.931	-39.351	0.258	0.134
-379.917	-119.253	-0.292	-0.050
-378.902	-151.404	0.262	-0.019
-377.888	74.669	-0.119	0.124
-376.873	-13.695	-0.049	-0.031
-375.858	-55.747	0.300	0.133
-374.844	105.261	0.142	0.166
-373.829	800.000	-0.078	0.276
-372.815	456.990	-0.033	-0.073
-371.800	-14.656	-0.183	-0.117
-370.785	-17.026	0.210	-0.131
-369.771	51.853	0.131	0.123
-368.756	-66.056	0.501	0.198
-367.742	-119.738	0.287	0.049
-366.727	115.787	0.157	0.191
-365.712	-200.000	0.001	0.386
-364.698	-16.651	0.051	0.032
-363.683	-200.000	0.065	-0.383
-362.669	-2.126	-0.157	0.109
-361.654	-200.000	0.039	-0.285
-360.639	-200.000	0.001	-0.410
-359.625	63.044	-0.155	0.154
-358.610	-200.000	0.002	-0.075
-357.596	-200.000	0.031	0.198
-356.581	542.195	0.097	-0.228
-355.566	-43.243	0.366	0.183
-354.552	-200.000	0.017	0.279
-353.537	800.000	-0.100	0.377
-352.523	-58.348	-0.080	-0.035
-351.508	310.213	0.086	-0.158
-350.493	800.000	0.034	0.111
-349.479	-200.000	-0.004	0.317
-348.464	187.193	-0.132	0.195
-347.450	800.000	0.058	0.212
-346.435	-200.000	0.211	0.000
-345.420	51.105	-0.109	0.102
-344.406	-129.081	0.295	-0.041
-343.391	437.552	0.050	-0.108
-342.377	75.880	-0.180	0.188
-341.362	-175.735	-0.301	-0.008
-340.348	-90.370	-0.074	0.021
-339.333	49.528	-0.112	-0.105
-338.318	-42.990	-0.146	-0.073
-337.304	-14.221	-0.301	0.192
-336.289	577.278	0.112	0.270
-335.275	-200.000	-0.025	-0.149
-334.260	212.743	-0.121	0.189
-333.245	-200.000	-0.046	0.208
-332.231	41.493	0.176	0.158
-331.216	-200.000	0.049	-0.241
-330.202	-200.000	0.008	-0.180
-329.187	-12.439	0.147	0.095
-328.172	248.161	-0.287	-0.480
-327.158	46.092	0.168	0.153
-326.143	-104.240	0.249	0.057
-325.129	-124.691	0.384	0.059
-324.114	-49.539	0.029	0.014
-323.099	12.565	-0.264	-0.201
-322.085	98.670	-0.167	0.190
-321.070	-65.469	-0.314	0.125
-320.056	-165.500	-0.377	0.016
-319.041	-15.807	-0.178	0.112
-318.026	-81.502	-0.235	-0.076
-317.012	127.304	-0.280	0.351
-315.997	-140.191	0.128	-0.013
-314.983	-43.451	-0.186	-0.093
-313.968	-101.175	0.118	-0.029
-312.953	-149.412	0.289	0.023
-311.939	-2.263	0.345	-0.239
-310.924	-200.000	-0.022	-0.149
-309.910	800.000	0.054	0.191
-308.895	23.383	0.233	0.189
-307.880	509.170	-0.024	0.056
-306.866	-106.298	-0.205	0.045
-305.851	-61.452	-0.127	0.053
-304.837	-103.100	-0.072	0.017
-303.822	-50.597	0.065	0.030
-302.807	-21.306	0.072	0.043
-301.793	105.271	-0.128	0.149
-300.778	-200.000	0.051	0.250
-299.764	-200.000	0.099	-0.454
-298.749	438.148	-0.014	-0.030
-297.735	-89.478	-0.239	0.069
-296.720	800.000	-0.075	0.247
-295.705	-200.000	0.044	0.294
-294.691	-95.453	-0.007	-0.002
-293.676	215.846	-0.039	-0.061
-292.662	254.042	-0.040	-0.067
-291.647	208.815	-0.129	0.199
-290.632	-152.617	0.320	-0.023
-289.618	-48.888	0.321	-0.152
-288.603	800.000	0.051	0.205
-287.589	-200.000	-0.007	-0.190
-286.574	-20.988	-0.344	0.208
-285.559	800.000	0.089	-0.268
-284.545	-64.950	-0.191	-0.076
-283.530	-93.941	-0.530	0.144
-282.516	69.544	0.057	0.058
-281.501	-78.433	-0.081	0.027
-280.486	360.718	-0.152	0.301
-279.472	-36.011	-0.091	0.049
-278.457	174.979	-0.135	-0.192
-277.443	-86.796	-0.248	-0.075
-276.428	800.000	-0.035	-0.102
-275.413	800.000	0.052	-0.191
-274.399	800.000	0.065	-0.255
-273.384	-17.187	0.346	0.215
-272.370	-200.000	-0.011	0.172
-271.355	-63.274	0.076	-0.031
-270.340	-22.779	0.213	-0.127
-269.326	-200.000	-0.009	0.298
-268.311	46.636	-0.348	0.319
-267.297	800.000	0.049	0.146
-266.282	800.000	-0.072	-0.266
-265.267	92.697	-0.085	0.094
-264.253	-41.080	0.292	-0.148
-263.238	-102.167	-0.377	-0.089
-262.224	-157.391	0.140	0.008
-261.209	-172.476	0.198	0.006
-260.195	-38.489	-0.093	-0.048
-259.180	-102.554	0.291	0.069
-258.165	224.021	0.175	-0.279
-257.151	4.953	0.198	-0.143
-256.136	-200.000	0.015	0.176
-255.122	8.689	-0.040	0.030
-254.107	623.456	0.126	0.313
-253.092	217.642	-0.224	0.353
-252.078	-5.414	0.126	-0.085
-251.063	86.913	-0.051	0.056
-250.049	-47.265	-0.331	-0.159
-249.034	800.000	0.031	0.127
-248.019	493.961	-0.085	-0.193
-247.005	800.000	-0.099	-0.270
-245.990	6.340	-0.117	-0.086
-244.976	-66.161	0.236	0.093
-243.961	800.000	0.043	-0.125
-242.946	-20.794	-0.272	0.164
-241.932	153.464	-0.107	-0.145
-240.917	47.657	-0.167	-0.153
-239.903	240.109	0.123	0.202
-238.888	154.085	-0.164	0.222
-237.873	-200.000	-0.008	0.141
-236.859	-74.960	0.043	-0.015
-235.844	-22.126	0.137	-0.082
-234.830	-4.154	0.136	0.093
-233.815	-16.146	0.263	0.165
-232.800	-139.998	0.182	-0.019
-231.786	141.721	0.176	-0.230
-230.771	97.591	-0.184	0.208
-229.757	-44.005	-0.119	0.059
-228.742	-200.000	0.041	0.355
-227.727	126.286	-0.037	-0.046
-226.713	-11.530	-0.350	-0.226
-225.698	-133.134	0.313	-0.039
-224.684	-110.069	-0.279	-0.057
-223.669	-35.869	0.186	-0.099
-222.655	494.462	0.187	-0.423
-221.640	340.243	0.282	-0.541
-220.625	-14.228	-0.263	-0.167
-219.611	94.700	-0.232	0.260
-218.596	18.321	0.013	-0.011
-217.582	800.000	-0.064	0.237
-216.567	-18.938	-0.089	-0.054
-215.552	1.686	0.152	0.108
-214.538	-70.321	-0.225	0.084
-213.523	-39.119	0.227	0.117
-212.509	70.040	-0.058	-0.059
-211.494	29.649	-0.218	0.183
-210.479	25.155	0.131	-0.107
-209.465	-18.599	-0.160	0.098
-208.450	-52.183	0.282	-0.129
-207.436	-198.940	-0.414	0.002
-206.421	-73.588	-0.214	0.077
-205.406	10.442	-0.037	0.028
-204.392	786.794	-0.162	-0.438
-203.377	-200.000	0.056	-0.251
-202.363	16.080	0.183	-0.142
-201.348	-55.223	-0.116	-0.051
-200.333	-87.064	0.084	-0.025
-199.319	-123.659	-0.175	-0.027
-198.304	248.702	-0.263	0.437
-197.290	800.000	0.058	-0.232
-196.275	-200.000	0.054	-0.387
-195.260	376.491	0.192	0.385
-194.246	800.000	-0.077	-0.220
-193.231	-160.758	0.145	-0.008
-192.217	432.096	-0.097	0.207
-191.202	-109.592	0.179	-0.037
-190.187	-83.520	-0.202	0.063
-189.173	404.735	0.109	-0.225
-188.158	-200.000	-0.094	-0.472
-187.144	-200.000	-0.024	0.157
-186.129	90.354	-0.313	-0.345
-185.114	595.059	-0.028	-0.067
-184.100	-122.549	0.140	0.022
-183.085	799.098	-0.124	0.337
-182.071	46.083	0.513	0.467
-181.056	-94.219	0.116	-0.031
-180.042	-200.000	0.025	-0.292
-179.027	87.115	0.116	0.126
-178.012	-200.000	0.037	-0.188
-176.998	-200.000	-0.029	0.273
-175.983	800.000	0.163	-0.474
-174.969	-31.415	0.279	-0.154
-173.954	800.000	0.143	-0.394
-172.939	-53.376	-0.212	-0.095
-171.925	616.411	0.171	0.422
-170.910	-62.384	0.212	-0.087
-169.896	-30.328	0.048	0.027
-168.881	23.400	-0.164	0.132
-167.866	-22.993	-0.159	0.094
-166.852	71.787	-0.229	0.234
-165.837	-200.000	0.117	-0.541
-164.823	-140.564	-0.233	0.024
-163.808	-25.571	0.223	-0.129
-162.793	3.747	-0.201	0.144
-161.779	-200.000	-0.008	0.039
-160.764	-76.895	0.542	0.186
-159.750	524.598	-0.046	0.106
-158.735	-130.711	-0.330	-0.044
-157.720	-24.570	0.160	0.094
-156.706	-49.217	-0.316	-0.148
-155.691	-134.659	-0.374	0.045
-154.677	-200.000	0.009	0.495
-153.662	800.000	0.100	-0.383
-152.647	-200.000	0.012	-0.340
-151.633	-200.000	0.033	0.174
-150.618	82.927	0.073	0.078
-149.604	-117.312	0.240	-0.043
-148.589	-127.011	0.180	-0.026
-147.574	800.000	0.076	-0.248
-146.560	-48.316	0.331	-0.157
-145.545	58.584	0.140	-0.135
-144.531	-139.371	-0.246	-0.026
-143.516	264.476	-0.108	0.185
-142.502	800.000	0.027	0.088
-141.487	453.252	0.078	0.169
-140.472	-79.507	-0.254	0.084
-139.458	1.722	0.087	0.061
-138.443	-19.034	-0.110	0.067
-137.429	66.085	-0.258	0.257
-136.414	-171.784	0.143	-0.005
-135.399	357.838	0.095	0.185
-134.385	118.662	0.321	0.389
-133.370	417.869	0.153	0.320
-132.356	-42.919	0.402	0.200
-131.341	-134.726	0.142	-0.017
-130.326	-124.483	-0.346	-0.053
-129.312	74.084	0.119	-0.122
-128.297	60.673	-0.261	-0.253
-127.283	175.015	-0.147	-0.209
-126.268	-147.472	0.209	0.017
-125.253	305.636	0.134	0.244
-124.239	50.325	-0.053	-0.049
-123.224	-65.993	0.172	-0.068
-122.210	193.130	0.214	0.318
-121.195	-20.489	0.154	-0.093
