DTS Sentinel unit serial number:	SN413079Multiplexer serial number:	ORYXHardware model number:	OX4-SRSoftware version number:	ORYX F/W v4.00 Oryx Data Collector v3.7.2.0data status	okinstallation	princeton_trtdifferential loss correction	single-endedforward channel	channel 2reverse channel	N/Adate	2019/09/13time	01:59:35forward acquisition time	60.00reverse acquisition time	0.00gamma	496.2192k internal	0.2334k external	0.2334temperature offset calibration	1.0178default loss term (dB/km)	0.3790temperature slope calibration	1.0000multiplexer offset coefficient	1.0000multiplexer slope coefficient	1.0000fibre end	0.00T internal ref (°C)	27.62T ext. ref 1 (°C)	3.86T ext. ref 2 (°C)	22.25length (m)	temperature (°C)	Stokes	anti-Stokes-747.200	-200.000	-0.008	-0.138
-746.185	800.000	0.163	0.468
-745.171	216.010	-0.046	0.074
-744.156	152.970	-0.106	0.146
-743.142	166.799	-0.228	-0.326
-742.127	-95.066	-0.188	-0.051
-741.112	469.335	-0.136	-0.307
-740.098	-1.907	-0.067	-0.047
-739.083	-11.739	0.257	-0.169
-738.069	-200.000	-0.006	0.213
-737.054	21.358	0.137	0.112
-736.039	-200.000	-0.004	0.099
-735.025	-98.834	0.459	-0.117
-734.010	20.097	-0.195	-0.158
-732.996	-67.806	0.161	0.063
-731.981	-200.000	0.018	-0.277
-730.966	-174.813	0.241	0.007
-729.952	-71.169	0.115	0.043
-728.937	364.515	-0.072	-0.146
-727.923	-62.239	0.038	-0.016
-726.908	-98.767	-0.229	0.059
-725.894	-55.994	0.124	-0.056
-724.879	-134.103	-0.371	0.046
-723.864	618.882	0.133	-0.336
-722.850	-148.220	-0.404	0.034
-721.835	-200.000	-0.079	-0.373
-720.821	-10.571	-0.098	-0.065
-719.806	-152.497	-0.185	-0.013
-718.791	499.857	-0.093	-0.215
-717.777	-15.730	-0.259	-0.166
-716.762	-200.000	0.016	0.070
-715.748	-117.898	0.184	-0.033
-714.733	-129.736	0.171	0.024
-713.718	91.027	0.109	-0.123
-712.704	-46.718	-0.025	0.012
-711.689	49.727	0.132	0.125
-710.675	-9.002	0.117	-0.079
-709.660	-200.000	0.002	-0.204
-708.645	800.000	-0.076	0.308
-707.631	-19.301	-0.261	-0.163
-706.616	175.341	-0.168	-0.245
-705.602	-130.635	-0.229	0.031
-704.587	-200.000	0.026	0.252
-703.572	-200.000	-0.002	-0.188
-702.558	-68.498	-0.263	-0.102
-701.543	-200.000	-0.006	0.035
-700.529	800.000	0.086	-0.247
-699.514	-13.546	-0.144	-0.094
-698.499	-200.000	0.025	-0.140
-697.485	-200.000	0.028	-0.323
-696.470	-6.907	-0.215	-0.147
-695.456	84.095	-0.068	-0.075
-694.441	86.440	-0.032	-0.036
-693.426	493.125	0.081	-0.187
-692.412	32.592	-0.174	0.151
-691.397	-200.000	0.013	0.202
-690.383	15.286	-0.346	-0.272
-689.368	-81.416	-0.146	-0.048
-688.354	800.000	-0.135	-0.383
-687.339	-32.088	0.230	0.129
-686.324	-200.000	0.001	0.089
-685.310	800.000	0.041	-0.136
-684.295	25.643	-0.066	-0.055
-683.281	100.463	0.086	-0.101
-682.266	-2.884	-0.292	0.204
-681.251	-200.000	0.001	-0.038
-680.237	8.825	0.142	-0.108
-679.222	-90.071	-0.270	-0.079
-678.208	-5.798	-0.048	-0.033
-677.193	-116.284	-0.297	0.055
-676.178	-200.000	-0.012	-0.076
-675.164	68.030	-0.348	-0.357
-674.149	623.495	0.113	-0.286
-673.135	-55.228	0.080	-0.036
-672.120	429.938	0.055	-0.120
-671.105	-60.251	-0.255	0.109
-670.091	47.806	-0.064	0.060
-669.076	-114.836	0.347	-0.066
-668.062	-151.186	-0.409	-0.031
-667.047	-61.447	0.171	0.072
-666.032	-200.000	-0.013	-0.130
-665.018	-29.833	0.051	0.029
-664.003	800.000	-0.022	-0.067
-662.989	-200.000	-0.036	-0.205
-661.974	-135.839	-0.127	-0.015
-660.959	40.901	-0.143	-0.130
-659.945	-50.276	-0.126	0.060
-658.930	800.000	0.066	0.185
-657.916	209.098	-0.096	0.150
-656.901	800.000	-0.006	-0.024
-655.886	645.079	-0.090	0.231
-654.872	-25.734	-0.215	0.127
-653.857	-200.000	0.013	-0.099
-652.843	-3.107	0.077	0.054
-651.828	78.440	-0.200	0.214
-650.814	-155.947	-0.245	0.016
-649.799	639.523	0.029	0.073
-648.784	710.087	0.040	0.105
-647.770	-136.941	0.346	-0.040
-646.755	-20.982	0.234	0.143
-645.741	212.268	-0.033	0.051
-644.726	-25.116	-0.086	0.051
-643.711	-29.990	0.051	-0.029
-642.697	330.092	-0.114	0.219
-641.682	547.741	0.062	-0.149
-640.668	-200.000	0.053	-0.249
-639.653	257.777	-0.070	-0.120
-638.638	457.593	-0.061	-0.136
-637.624	-95.526	-0.154	0.041
-636.609	-200.000	0.008	0.125
-635.595	152.929	-0.214	0.293
-634.580	-200.000	-0.038	-0.434
-633.565	-106.020	-0.058	-0.013
-632.551	-47.821	0.115	-0.056
-631.536	-66.863	0.236	0.093
-630.522	80.077	-0.323	-0.347
-629.507	-134.455	-0.176	0.022
-628.492	120.382	0.098	-0.121
-627.478	31.941	-0.225	0.194
-626.463	262.163	0.119	-0.206
-625.449	-200.000	0.037	-0.352
-624.434	800.000	0.064	-0.272
-623.419	344.720	-0.112	-0.219
-622.405	-127.147	-0.262	-0.038
-621.390	337.651	0.119	0.232
-620.376	-69.817	0.367	0.140
-619.361	800.000	0.025	-0.092
-618.346	267.733	-0.181	-0.317
-617.332	40.915	0.166	0.150
-616.317	-92.073	0.058	0.016
-615.303	-63.473	-0.079	0.032
-614.288	343.033	0.059	0.115
-613.273	-157.255	0.191	0.012
-612.259	-169.964	0.410	-0.015
-611.244	-41.311	-0.453	-0.234
-610.230	-200.000	0.020	-0.220
-609.215	124.937	-0.070	-0.088
-608.201	800.000	-0.109	0.301
-607.186	-17.724	-0.161	-0.101
-606.171	-3.846	-0.250	0.173
-605.157	-200.000	0.337	0.001
-604.142	70.952	0.115	-0.119
-603.128	228.967	0.073	0.118
-602.113	244.535	-0.163	-0.274
-601.098	-200.000	-0.008	0.040
-600.084	-152.095	-0.088	0.006
-599.069	268.260	0.105	-0.184
-598.055	-111.695	0.153	0.031
-597.040	-200.000	0.020	-0.311
-596.025	25.352	-0.139	-0.115
-595.011	161.463	0.248	-0.346
-593.996	-200.000	-0.023	-0.189
-592.982	42.994	0.144	-0.131
-591.967	-88.299	-0.039	-0.012
-590.952	-70.279	0.042	-0.016
-589.938	250.793	-0.153	-0.260
-588.923	-146.388	0.297	0.026
-587.909	800.000	-0.048	-0.156
-586.894	-110.962	0.228	0.047
-585.879	-109.084	0.252	-0.054
-584.865	-90.473	-0.230	-0.067
-583.850	105.586	0.073	-0.086
-582.836	-200.000	0.026	0.408
-581.821	-200.000	-0.033	-0.271
-580.806	800.000	-0.096	-0.304
-579.792	8.315	-0.043	-0.032
-578.777	-153.245	0.181	0.013
-577.763	-200.000	-0.011	0.128
-576.748	155.143	-0.062	-0.086
-575.733	10.108	0.140	0.106
-574.719	-65.978	-0.112	-0.045
-573.704	128.989	-0.271	-0.345
-572.690	-142.892	-0.173	-0.017
-571.675	-47.920	0.273	0.132
-570.661	162.754	0.159	-0.222
-569.646	-79.250	-0.059	-0.020
-568.631	-95.573	-0.234	0.063
-567.617	150.771	0.217	0.294
-566.602	-200.000	0.004	-0.109
-565.588	-150.642	0.043	-0.003
-564.573	-200.000	-0.003	0.017
-563.558	-83.481	-0.337	-0.108
-562.544	-137.991	-0.277	-0.031
-561.529	97.513	0.094	-0.107
-560.515	-29.515	0.230	-0.131
-559.500	516.059	-0.021	-0.050
-558.485	178.230	-0.092	-0.135
-557.471	800.000	0.057	-0.176
-556.456	282.822	-0.100	0.180
-555.442	800.000	0.061	-0.256
-554.427	-186.047	-0.222	-0.003
-553.412	-18.637	-0.260	0.162
-552.398	302.354	-0.114	-0.210
-551.383	-46.750	0.181	-0.088
-550.369	-154.733	0.298	-0.020
-549.354	-10.446	0.210	0.139
-548.339	-96.820	-0.294	-0.077
-547.325	800.000	-0.081	-0.341
-546.310	209.258	0.252	0.394
-545.296	-52.770	-0.295	-0.136
-544.281	-195.045	0.156	-0.001
-543.266	-121.037	0.318	-0.053
-542.252	-71.012	-0.338	-0.127
-541.237	679.252	-0.060	0.156
-540.223	-93.672	0.179	-0.049
-539.208	-200.000	0.004	0.131
-538.193	-127.546	0.323	-0.047
-537.179	-31.507	0.238	-0.133
-536.164	94.535	0.205	0.233
-535.150	-105.270	-0.172	0.039
-534.135	-200.000	0.024	-0.133
-533.121	-176.551	0.184	-0.005
-532.106	416.929	0.065	0.138
-531.091	306.642	0.097	0.180
-530.077	13.007	0.086	0.066
-529.062	97.783	-0.270	0.309
-528.048	-46.867	0.088	0.043
-527.033	-118.458	0.257	0.045
-526.018	43.802	0.117	0.107
-525.004	99.592	0.055	0.063
-523.989	75.753	-0.247	-0.260
-522.975	-119.255	0.019	0.003
-521.960	-47.216	-0.112	-0.054
-520.945	84.195	0.201	-0.219
-519.931	-63.428	-0.121	0.049
-518.916	84.021	0.170	0.185
-517.902	48.811	-0.111	0.104
-516.887	-181.698	-0.302	0.006
-515.872	-74.397	0.057	-0.020
-514.858	-20.827	-0.387	-0.236
-513.843	-2.424	-0.256	0.179
-512.829	-26.024	-0.111	-0.065
-511.814	-111.208	-0.412	-0.084
-510.799	-200.000	-0.022	0.226
-509.785	-75.918	0.201	-0.071
-508.770	499.616	-0.087	0.200
-507.756	-108.027	-0.177	-0.038
-506.741	-108.976	0.393	-0.083
-505.726	3.712	-0.221	-0.160
-504.712	-200.000	-0.034	0.190
-503.697	131.458	-0.136	0.174
-502.683	41.191	-0.232	0.208
-501.668	73.770	-0.120	-0.125
-500.653	-200.000	-0.012	0.221
-499.639	-89.467	0.060	0.017
-498.624	14.792	-0.198	0.154
-497.610	-137.493	-0.075	-0.008
-496.595	-94.471	0.264	-0.072
-495.581	181.919	-0.047	0.068
-494.566	349.787	-0.132	0.260
-493.551	133.202	0.186	-0.239
-492.537	380.500	-0.140	-0.285
-491.522	693.433	-0.059	-0.153
-490.508	-39.509	0.205	0.107
-489.493	800.000	-0.080	-0.297
-488.478	-200.000	-0.013	0.158
-487.464	283.754	-0.071	0.128
-486.449	65.837	0.083	0.083
-485.435	-1.052	0.056	0.039
-484.420	-131.440	0.201	0.026
-483.405	-200.000	-0.028	-0.202
-482.391	-176.072	0.321	-0.008
-481.376	26.803	-0.141	0.117
-480.362	4.474	-0.050	-0.036
-479.347	338.798	0.008	-0.015
-478.332	-200.000	-0.030	-0.201
-477.318	800.000	0.067	-0.246
-476.303	334.815	-0.122	0.234
-475.289	-175.063	0.252	-0.007
-474.274	-58.163	0.183	-0.079
-473.259	9.490	-0.287	-0.216
-472.245	-174.521	-0.359	-0.010
-471.230	-138.238	-0.128	-0.014
-470.216	22.549	0.178	0.145
-469.201	176.877	-0.060	-0.087
-468.186	-114.306	-0.231	-0.044
-467.172	206.077	-0.047	0.072
-466.157	-80.803	0.201	0.066
-465.143	118.664	-0.042	-0.051
-464.128	21.148	-0.377	-0.304
-463.113	-38.970	0.171	-0.090
-462.099	800.000	-0.034	0.145
-461.084	-200.000	-0.010	-0.086
-460.070	137.657	-0.152	0.198
-459.055	246.040	0.216	0.362
-458.040	131.306	0.127	0.162
-457.026	800.000	0.013	-0.047
-456.011	-200.000	0.024	0.178
-454.997	-200.000	-0.016	-0.278
-453.982	64.601	0.276	-0.277
-452.968	-22.144	-0.074	-0.045
-451.953	-200.000	0.009	-0.125
-450.938	-62.256	-0.143	-0.059
-449.924	-200.000	-0.019	-0.126
-448.909	-200.000	0.084	0.437
-447.895	-39.096	-0.243	0.127
-446.880	26.012	-0.177	-0.147
-445.865	-26.474	0.045	-0.026
-444.851	800.000	0.115	0.347
-443.836	-200.000	0.065	0.284
-442.822	22.859	0.138	-0.112
-441.807	-43.063	-0.065	-0.033
-440.792	60.966	0.226	0.223
-439.778	-8.150	-0.173	0.116
-438.763	800.000	-0.031	-0.096
-437.749	-72.657	0.371	0.136
-436.734	-145.715	0.159	-0.014
-435.719	-10.572	0.200	0.131
-434.705	119.642	0.209	-0.257
-433.690	-200.000	0.029	-0.197
-432.676	291.608	-0.087	0.158
-431.661	-164.550	-0.246	-0.011
-430.646	-153.326	0.165	-0.011
-429.632	134.862	0.132	-0.170
-428.617	611.428	0.107	-0.265
-427.603	61.438	-0.238	-0.235
-426.588	-153.631	0.490	0.034
-425.573	-200.000	0.088	0.395
-424.559	199.282	0.166	-0.252
-423.544	291.848	0.027	0.049
-422.530	156.687	-0.175	-0.240
-421.515	30.514	0.188	-0.160
-420.500	612.864	-0.056	0.138
-419.486	-31.901	0.293	0.163
-418.471	-83.489	-0.082	-0.026
-417.457	-109.008	0.220	0.046
-416.442	-115.573	-0.359	0.067
-415.428	-200.000	-0.022	-0.205
-414.413	113.758	0.133	-0.160
-413.398	-200.000	0.034	-0.147
-412.384	113.582	-0.134	0.161
-411.369	515.395	0.131	0.303
-410.355	-177.269	0.169	0.004
-409.340	-43.189	-0.115	0.058
-408.325	-81.473	0.166	0.054
-407.311	-51.733	0.229	0.106
-406.296	362.958	0.227	0.452
-405.282	278.119	-0.022	0.039
-404.267	6.490	0.043	-0.032
-403.252	-200.000	-0.032	0.173
-402.238	87.983	-0.017	-0.018
-401.223	327.330	-0.039	0.075
-400.209	-200.000	0.011	0.143
-399.194	-72.978	-0.287	-0.104
-398.179	-152.515	0.276	-0.020
-397.165	387.149	0.037	-0.075
-396.150	800.000	-0.081	0.270
-395.136	42.118	0.341	-0.307
-394.121	-200.000	-0.002	0.011
-393.106	111.936	0.229	0.274
-392.092	-75.551	-0.245	0.086
-391.077	290.032	-0.083	-0.150
-390.063	229.252	0.145	0.235
-389.048	12.712	0.225	-0.172
-388.033	154.910	-0.210	-0.286
-387.019	482.942	0.097	0.219
-386.004	-200.000	-0.013	-0.116
-384.990	442.830	0.036	-0.077
-383.975	-136.700	-0.268	0.031
-382.960	800.000	0.099	-0.352
-381.946	800.000	-0.031	-0.108
-380.931	-38.163	-0.185	0.097
-379.917	800.000	0.042	0.124
-378.902	-124.623	-0.131	0.020
-377.888	206.960	0.128	-0.198
-376.873	-79.878	-0.241	0.080
-375.858	326.637	0.045	0.086
-374.844	-97.998	-0.242	-0.062
-373.829	-200.000	0.028	-0.235
-372.815	-133.616	-0.127	-0.016
-371.800	-41.336	0.272	-0.139
-370.785	-200.000	-0.044	-0.342
-369.771	-200.000	0.004	0.079
-368.756	256.705	-0.195	0.331
-367.742	253.245	-0.037	-0.062
-366.727	-120.738	0.339	0.057
-365.712	800.000	-0.144	0.432
-364.698	-200.000	-0.002	0.296
-363.683	-56.748	0.089	0.039
-362.669	-0.318	0.001	-0.001
-361.654	800.000	0.053	0.188
-360.639	-200.000	0.051	0.298
-359.625	534.372	0.049	0.115
-358.610	-200.000	-0.037	0.214
-357.596	-133.634	-0.133	0.016
-356.581	114.797	-0.141	-0.171
-355.566	78.016	-0.051	0.054
-354.552	548.693	0.052	-0.124
-353.537	-200.000	-0.004	0.264
-352.523	-157.059	-0.064	0.004
-351.508	527.507	0.137	-0.320
-350.493	212.320	-0.094	0.146
-349.479	253.492	0.081	-0.137
-348.464	22.765	0.221	0.179
-347.450	31.463	-0.113	0.096
-346.435	-20.199	0.069	-0.042
-345.420	92.190	0.136	0.151
-344.406	-200.000	-0.008	-0.216
-343.391	198.957	-0.079	-0.120
-342.377	-200.000	-0.069	0.301
-341.362	8.123	-0.114	0.085
-340.348	-17.248	0.155	0.097
-339.333	-109.857	-0.149	-0.031
-338.318	303.305	-0.263	-0.483
-337.304	-66.896	-0.162	-0.063
-336.289	800.000	0.054	-0.197
-335.275	10.467	0.203	0.153
-334.260	800.000	-0.083	-0.266
-333.245	336.211	-0.095	0.183
-332.231	27.962	-0.285	0.238
-331.216	-200.000	-0.032	-0.255
-330.202	313.462	-0.149	-0.278
-329.187	70.709	-0.102	-0.105
-328.172	36.380	0.249	0.217
-327.158	-200.000	-0.032	0.180
-326.143	-200.000	0.015	-0.200
-325.129	-41.012	-0.062	0.032
-324.114	-3.078	-0.178	-0.123
-323.099	25.057	0.068	-0.056
-322.085	-200.000	-0.008	-0.083
-321.070	13.369	0.168	-0.129
-320.056	-142.734	0.184	-0.018
-319.041	689.610	0.138	0.357
-318.026	-68.205	-0.256	0.098
-317.012	-21.232	0.506	0.305
-315.997	-200.000	-0.033	0.224
-314.983	-90.754	-0.025	0.007
-313.968	800.000	-0.101	-0.282
-312.953	698.745	-0.090	-0.234
-311.939	-34.514	0.287	-0.155
-310.924	-85.170	0.240	-0.074
-309.910	68.946	-0.190	-0.193
-308.895	-200.000	0.077	-0.372
-307.880	-49.905	0.286	0.134
-306.866	-26.753	-0.169	0.098
-305.851	-50.913	0.150	-0.070
-304.837	29.604	0.146	0.123
-303.822	243.271	0.144	0.238
-302.807	92.235	0.160	-0.178
-301.793	-125.846	0.399	0.059
-300.778	519.977	0.035	0.081
-299.764	-200.000	-0.057	-0.403
-298.749	-200.000	-0.117	-0.575
-297.735	154.721	-0.123	0.167
-296.720	-97.857	-0.253	-0.065
-295.705	-24.273	0.296	0.174
-294.691	45.225	0.196	0.178
-293.676	-23.123	-0.112	0.066
-292.662	-44.592	-0.112	0.055
-291.647	431.290	-0.029	-0.063
-290.632	-200.000	-0.060	0.345
-289.618	17.283	-0.184	0.144
-288.603	145.098	-0.194	0.256
-287.589	-78.462	-0.611	0.207
-286.574	-59.325	-0.115	-0.049
-285.559	82.800	-0.068	-0.072
-284.545	111.560	0.183	0.217
-283.530	-95.729	-0.447	-0.118
-282.516	15.208	-0.197	-0.153
-281.501	-16.237	-0.318	0.200
-280.486	-64.658	-0.036	0.015
-279.472	165.913	0.140	0.196
-278.457	-20.371	0.150	0.091
-277.443	800.000	0.053	-0.151
-276.428	-23.214	0.259	0.154
-275.413	-56.257	-0.208	-0.091
-274.399	-54.352	0.275	0.123
-273.384	71.111	0.128	0.131
-272.370	63.386	0.087	0.086
-271.355	-55.483	0.461	0.204
-270.340	800.000	-0.065	0.184
-269.326	93.516	-0.179	-0.200
-268.311	-135.269	-0.183	-0.022
-267.297	800.000	-0.026	-0.109
-266.282	189.126	0.077	0.114
-265.267	-75.722	0.261	-0.091
-264.253	-118.149	-0.276	-0.048
-263.238	-122.543	-0.013	-0.002
-262.224	-57.859	0.194	-0.084
-261.209	4.657	-0.147	-0.107
-260.195	-117.128	-0.145	0.026
-259.180	-108.675	-0.226	-0.048
-258.165	69.479	-0.060	-0.061
-257.151	-76.059	-0.088	-0.031
-256.136	-73.323	0.110	0.040
-255.122	201.185	0.049	-0.075
-254.107	-71.577	-0.035	-0.013
-253.092	124.708	-0.099	0.123
-252.078	800.000	-0.040	-0.163
-251.063	-200.000	0.014	-0.234
-250.049	-43.703	0.304	0.151
-249.034	-76.963	-0.027	-0.009
-248.019	-200.000	-0.006	0.162
-247.005	800.000	-0.057	0.211
-245.990	21.438	-0.149	0.120
-244.976	-78.153	-0.278	0.094
-243.961	93.271	0.098	-0.109
-242.946	428.402	0.040	0.084
-241.932	-200.000	0.037	0.199
-240.917	162.998	-0.139	0.193
-239.903	-115.919	0.120	0.022
-238.888	-22.096	0.059	-0.035
-237.873	-144.448	-0.273	0.025
-236.859	-200.000	0.000	0.087
-235.844	8.263	-0.321	-0.238
-234.830	-200.000	-0.020	-0.122
-233.815	-11.526	0.056	-0.036
-232.800	402.867	-0.105	0.218
-231.786	-162.094	-0.219	-0.011
-230.771	47.216	0.051	-0.047
-229.757	-163.437	-0.139	0.007
-228.742	58.458	0.462	-0.446
-227.727	-39.563	-0.255	0.131
-226.713	-200.000	-0.002	-0.122
-225.698	-113.349	0.373	0.072
-224.684	-131.682	-0.311	0.040
-223.669	-200.000	-0.002	-0.022
-222.655	-200.000	-0.049	0.281
-221.640	319.784	0.136	-0.253
-220.625	-54.328	-0.188	-0.084
-219.611	207.096	-0.066	-0.102
-218.596	-125.711	0.126	0.019
-217.582	49.345	0.207	0.191
-216.567	28.470	-0.097	0.081
-215.552	91.329	-0.101	-0.112
-214.538	-190.861	0.145	0.002
-213.523	312.678	-0.127	0.235
-212.509	431.442	0.024	0.051
-211.494	-200.000	0.085	0.497
-210.479	103.368	0.096	-0.110
-209.465	124.331	0.198	-0.245
-208.450	-200.000	0.008	0.070
-207.436	800.000	0.088	-0.250
-206.421	-40.310	0.143	0.073
-205.406	800.000	0.167	0.513
-204.392	338.592	-0.094	0.179
-203.377	291.597	0.103	-0.184
-202.363	-200.000	-0.039	0.300
-201.348	-117.185	0.192	0.034
-200.333	18.472	0.069	0.054
-199.319	609.270	0.121	-0.297
-198.304	-200.000	-0.036	-0.189
-197.290	-35.829	-0.171	-0.091
-196.275	-89.004	-0.300	-0.087
-195.260	800.000	-0.091	0.334
-194.246	153.637	-0.146	0.197
-193.231	246.350	0.143	-0.237
-192.217	126.892	0.123	0.154
-191.202	-130.218	-0.341	-0.046
-190.187	-30.357	0.319	-0.178
-189.173	800.000	-0.019	0.073
-188.158	-5.868	0.053	-0.036
-187.144	800.000	0.018	-0.073
-186.129	-73.689	0.265	-0.095
-185.114	137.580	0.071	-0.092
-184.100	-47.522	0.285	-0.136
-183.085	183.653	-0.104	-0.151
-182.071	657.048	-0.142	-0.360
-181.056	711.896	-0.079	0.206
-180.042	-200.000	-0.015	0.177
-179.027	-82.217	0.106	0.034
-178.012	-120.834	-0.281	0.047
-176.998	-122.295	0.122	0.020
-175.983	800.000	0.052	-0.218
-174.969	84.458	0.183	-0.197
-173.954	14.259	0.180	0.138
-172.939	129.224	0.114	0.143
-171.925	-200.000	-0.004	0.324
-170.910	-60.848	0.154	-0.064
-169.896	800.000	-0.101	-0.302
-168.881	-74.997	-0.253	-0.089
-167.866	800.000	0.077	0.277
-166.852	157.914	-0.202	0.275
-165.837	-200.000	0.009	0.199
-164.823	-119.783	-0.158	-0.027
-163.808	71.727	0.125	0.127
-162.793	800.000	0.044	0.184
-161.779	249.878	0.236	0.393
-160.764	199.856	0.045	-0.067
-159.750	221.151	-0.241	-0.380
-158.735	-22.327	-0.319	0.190
-157.720	44.370	0.085	-0.077
-156.706	-97.495	-0.220	-0.056
-155.691	-102.148	-0.210	0.050
-154.677	-38.705	-0.418	-0.217
-153.662	-68.512	-0.347	-0.132
-152.647	233.577	-0.221	0.358
-151.633	800.000	0.162	0.448
-150.618	291.717	-0.088	-0.158
-149.604	-200.000	-0.077	0.386
-148.589	-200.000	-0.010	-0.103
-147.574	-58.762	0.086	0.037
-146.560	46.441	-0.443	0.403
-145.545	-200.000	0.018	0.566
-144.531	800.000	-0.017	0.053
-143.516	-66.592	-0.113	0.044
-142.502	43.548	0.160	-0.143
-141.487	-152.662	-0.117	0.008
-140.472	60.760	-0.176	0.171
-139.458	-112.916	-0.237	0.046
-138.443	47.946	0.250	0.230
-137.429	-200.000	0.004	-0.065
-136.414	-82.289	-0.326	0.104
-135.399	-200.000	0.023	-0.271
-134.385	18.929	0.290	0.228
-133.370	-78.723	-0.150	-0.050
-132.356	-50.912	0.147	-0.068
-131.341	-80.256	-0.135	-0.044
-130.326	-141.919	-0.221	0.022
-129.312	186.258	0.127	0.185
-128.297	-200.000	-0.053	0.472
-127.283	-200.000	0.032	0.394
-126.268	161.780	0.079	0.109
-125.253	800.000	-0.041	0.133
-124.239	161.083	0.114	0.156
-123.224	-200.000	0.029	0.222
-122.210	-138.971	0.393	0.042
