DTS Sentinel unit serial number:	SN413079Multiplexer serial number:	ORYXHardware model number:	OX4-SRSoftware version number:	ORYX F/W v4.00 Oryx Data Collector v3.7.2.0data status	okinstallation	princeton_trtdifferential loss correction	single-endedforward channel	channel 2reverse channel	N/Adate	2019/09/13time	01:23:34forward acquisition time	60.00reverse acquisition time	0.00gamma	496.2192k internal	0.2334k external	0.2334temperature offset calibration	1.0166default loss term (dB/km)	0.3790temperature slope calibration	1.0000multiplexer offset coefficient	1.0000multiplexer slope coefficient	1.0000fibre end	0.00T internal ref (°C)	27.86T ext. ref 1 (°C)	3.71T ext. ref 2 (°C)	22.46length (m)	temperature (°C)	Stokes	anti-Stokes-747.200	-38.817	0.333	-0.177
-746.185	-200.000	-0.026	0.276
-745.171	366.175	-0.034	-0.069
-744.156	81.325	-0.150	-0.163
-743.142	-134.048	0.274	0.034
-742.127	71.124	-0.239	0.249
-741.112	409.169	-0.054	0.114
-740.098	27.014	0.156	0.132
-739.083	240.334	0.111	-0.186
-738.069	44.687	0.108	0.100
-737.054	-200.000	-0.027	0.156
-736.039	140.894	-0.119	-0.159
-735.025	720.011	0.062	-0.164
-734.010	-59.841	0.254	-0.109
-732.996	-200.000	-0.043	-0.459
-731.981	-141.978	0.009	0.001
-730.966	151.503	-0.015	-0.021
-729.952	-200.000	0.000	-0.182
-728.937	656.733	-0.045	0.116
-727.923	276.659	-0.078	0.139
-726.908	-200.000	0.007	0.064
-725.894	800.000	-0.108	0.469
-724.879	128.382	-0.201	0.257
-723.864	800.000	-0.053	0.163
-722.850	-91.880	-0.314	-0.089
-721.835	-10.977	-0.059	-0.039
-720.821	800.000	-0.029	-0.118
-719.806	142.933	0.079	0.106
-718.791	156.729	-0.076	-0.105
-717.777	-78.345	-0.252	0.087
-716.762	267.221	0.199	0.349
-715.748	135.497	0.097	0.127
-714.733	18.364	0.086	-0.069
-713.718	105.117	0.119	-0.141
-712.704	-185.656	0.084	0.001
-711.689	678.631	-0.054	0.141
-710.675	-200.000	0.041	-0.288
-709.660	-27.772	0.345	-0.201
-708.645	450.488	-0.127	-0.281
-707.631	-200.000	0.029	-0.201
-706.616	800.000	-0.099	-0.423
-705.602	98.718	0.078	0.091
-704.587	205.535	0.054	-0.084
-703.572	-77.494	-0.127	0.044
-702.558	-50.487	-0.269	0.127
-701.543	-200.000	0.025	0.333
-700.529	18.383	-0.162	-0.130
-699.514	85.801	0.047	0.051
-698.499	1.424	-0.229	-0.165
-697.485	-1.447	0.255	0.180
-696.470	136.302	0.090	-0.118
-695.456	540.573	-0.014	0.033
-694.441	800.000	-0.079	-0.294
-693.426	-200.000	-0.009	0.130
-692.412	690.099	-0.066	0.174
-691.397	233.630	0.154	0.255
-690.383	-57.185	-0.112	0.049
-689.368	-34.497	0.190	0.104
-688.354	-55.507	0.101	-0.046
-687.339	77.266	0.186	-0.198
-686.324	36.785	-0.144	0.128
-685.310	264.379	0.160	-0.278
-684.295	-80.885	0.267	-0.089
-683.281	-200.000	0.004	-0.168
-682.266	-149.248	0.051	0.004
-681.251	-54.667	-0.487	0.221
-680.237	-79.724	0.327	0.111
-679.222	-76.221	-0.091	-0.032
-678.208	-128.003	-0.257	0.037
-677.193	-64.976	-0.315	-0.128
-676.178	528.361	-0.128	-0.302
-675.164	24.832	0.121	-0.100
-674.149	-98.444	-0.518	-0.133
-673.135	-177.123	-0.274	0.007
-672.120	-74.956	0.307	0.110
-671.105	57.492	-0.030	0.030
-670.091	455.711	-0.172	-0.383
-669.076	-128.064	0.167	-0.024
-668.062	-200.000	0.020	-0.099
-667.047	-56.691	0.059	-0.026
-666.032	-65.511	-0.139	0.056
-665.018	8.312	-0.255	-0.192
-664.003	-81.117	-0.088	0.029
-662.989	411.297	-0.112	-0.239
-661.974	800.000	-0.098	-0.360
-660.959	3.298	-0.258	0.188
-659.945	800.000	-0.050	0.153
-658.930	-14.431	-0.128	-0.083
-657.916	-65.101	-0.151	0.061
-656.901	190.075	-0.199	-0.299
-655.886	-4.379	0.045	-0.031
-654.872	203.152	0.159	0.247
-653.857	269.026	0.165	-0.290
-652.843	-200.000	-0.021	0.177
-651.828	800.000	-0.051	-0.179
-650.814	-139.273	-0.388	-0.042
-649.799	383.970	0.090	-0.185
-648.784	-108.502	0.104	-0.023
-647.770	-200.000	0.083	-0.378
-646.755	-200.000	-0.002	0.199
-645.741	800.000	0.074	0.285
-644.726	525.517	-0.099	0.232
-643.711	-24.506	-0.252	-0.150
-642.697	9.691	-0.203	0.154
-641.682	187.618	-0.165	-0.247
-640.668	-69.156	0.095	0.037
-639.653	800.000	0.068	0.230
-638.638	-11.955	-0.020	0.013
-637.624	-86.600	0.445	-0.137
-636.609	-66.667	-0.156	-0.062
-635.595	-25.743	-0.205	0.121
-634.580	-85.206	0.303	-0.095
-633.565	-26.597	-0.324	-0.190
-632.551	718.421	0.039	0.105
-631.536	101.180	0.372	0.433
-630.522	127.461	-0.153	-0.194
-629.507	-200.000	0.027	-0.195
-628.492	-200.000	-0.010	0.069
-627.478	241.726	0.311	0.520
-626.463	43.400	0.199	-0.182
-625.449	94.839	0.134	0.152
-624.434	168.952	0.204	0.291
-623.419	-144.213	-0.101	0.009
-622.405	495.274	0.052	0.119
-621.390	560.731	-0.053	0.127
-620.376	-141.044	-0.278	-0.028
-619.361	69.017	-0.331	0.340
-618.346	800.000	-0.039	0.163
-617.332	-38.095	-0.269	0.143
-616.317	800.000	0.104	-0.323
-615.303	199.375	-0.166	0.254
-614.288	-200.000	0.022	-0.275
-613.273	-14.649	0.556	-0.358
-612.259	227.097	-0.052	-0.084
-611.244	658.897	0.066	-0.171
-610.230	-43.138	-0.236	-0.120
-609.215	-4.793	-0.208	0.143
-608.201	-200.000	-0.015	-0.201
-607.186	-115.554	-0.207	-0.039
-606.171	753.069	0.014	-0.037
-605.157	222.484	-0.225	0.362
-604.142	209.975	-0.005	-0.008
-603.128	-91.776	-0.193	0.055
-602.113	-200.000	-0.030	-0.195
-601.098	52.727	0.024	0.023
-600.084	-98.892	-0.289	-0.073
-599.069	-200.000	-0.017	0.161
-598.055	57.110	-0.125	0.122
-597.040	-200.000	0.012	-0.195
-596.025	-124.427	0.182	0.028
-595.011	-89.144	-0.394	0.116
-593.996	37.860	0.148	0.131
-592.982	-85.583	0.110	0.034
-591.967	-200.000	-0.054	0.362
-590.952	85.179	-0.346	0.379
-589.938	-125.410	-0.305	-0.046
-588.923	54.104	-0.109	-0.105
-587.909	-34.097	0.179	-0.098
-586.894	-158.870	-0.246	0.014
-585.879	-104.188	-0.062	-0.015
-584.865	800.000	0.072	-0.224
-583.850	98.943	-0.049	-0.056
-582.836	7.643	-0.223	0.167
-581.821	128.889	-0.097	-0.123
-580.806	393.434	-0.111	-0.231
-579.792	23.314	0.275	0.226
-578.777	-51.794	0.133	0.062
-577.763	457.039	0.060	0.133
-576.748	298.398	-0.101	-0.186
-575.733	-146.306	0.022	-0.002
-574.719	-122.129	0.272	0.045
-573.704	-119.887	0.148	0.025
-572.690	153.246	-0.116	-0.159
-571.675	631.482	-0.201	-0.507
-570.661	133.106	0.236	-0.305
-569.646	542.988	-0.092	-0.220
-568.631	-14.807	0.362	0.232
-567.617	362.236	-0.194	0.388
-566.602	319.823	0.184	-0.349
-565.588	363.415	0.089	-0.178
-564.573	109.988	0.353	0.423
-563.558	276.642	-0.162	-0.287
-562.544	-135.296	0.477	-0.057
-561.529	51.855	-0.152	0.144
-560.515	27.085	-0.308	0.258
-559.500	197.840	0.158	-0.241
-558.485	22.687	-0.239	0.195
-557.471	-134.622	-0.210	0.026
-556.456	295.130	-0.144	-0.263
-555.442	-200.000	0.002	-0.121
-554.427	-74.773	0.500	0.179
-553.412	800.000	-0.069	-0.285
-552.398	224.373	0.091	0.147
-551.383	-200.000	-0.009	0.086
-550.369	-88.995	-0.269	-0.080
-549.354	753.705	0.130	-0.351
-548.339	338.178	-0.105	0.204
-547.325	-200.000	0.026	0.137
-546.310	93.897	0.018	-0.020
-545.296	800.000	-0.036	0.149
-544.281	-200.000	-0.037	-0.252
-543.266	-200.000	0.022	-0.330
-542.252	-61.797	-0.364	-0.152
-541.237	66.414	0.160	0.162
-540.223	-56.351	0.399	-0.177
-539.208	-200.000	0.022	-0.121
-538.193	578.778	-0.144	-0.351
-537.179	-82.381	-0.080	0.026
-536.164	-57.853	0.087	0.038
-535.150	134.543	-0.117	-0.151
-534.135	-133.508	-0.205	-0.026
-533.121	-111.657	-0.178	0.036
-532.106	-200.000	-0.003	-0.046
-531.091	115.202	-0.110	-0.133
-530.077	-200.000	-0.045	0.257
-529.062	10.630	0.256	-0.194
-528.048	14.912	0.050	-0.039
-527.033	800.000	0.088	-0.294
-526.018	-98.205	0.116	-0.030
-525.004	12.757	0.148	-0.114
-523.989	-67.637	-0.341	-0.133
-522.975	316.109	-0.087	0.164
-521.960	-200.000	-0.033	-0.526
-520.945	-200.000	0.017	-0.200
-519.931	-194.345	-0.008	0.000
-518.916	-200.000	0.007	0.101
-517.902	39.351	-0.184	0.164
-516.887	-96.618	-0.185	-0.049
-515.872	-64.514	0.221	0.089
-514.858	-200.000	-0.024	0.159
-513.843	-154.054	-0.126	0.009
-512.829	-83.075	0.363	0.116
-511.814	-83.021	0.351	-0.113
-510.799	-65.823	0.361	0.144
-509.785	800.000	-0.122	-0.438
-508.770	-200.000	0.009	0.230
-507.756	182.618	0.156	-0.229
-506.741	149.855	0.166	-0.225
-505.726	-200.000	-0.008	-0.177
-504.712	-128.924	-0.306	-0.043
-503.697	541.799	0.021	0.051
-502.683	-83.417	-0.048	0.015
-501.668	800.000	0.054	0.151
-500.653	-200.000	-0.045	-0.355
-499.639	227.555	-0.014	0.022
-498.624	43.751	-0.156	0.142
-497.610	-31.440	-0.122	-0.068
-496.595	-5.827	0.123	0.084
-495.581	-186.529	0.099	-0.001
-494.566	128.243	-0.101	0.129
-493.551	311.570	0.052	-0.096
-492.537	-50.655	-0.150	0.070
-491.522	-200.000	-0.003	0.554
-490.508	710.739	0.112	0.294
-489.493	-200.000	0.030	-0.320
-488.478	303.479	-0.131	0.242
-487.464	800.000	-0.042	-0.146
-486.449	-24.187	0.259	-0.154
-485.435	-59.176	0.217	-0.093
-484.420	-38.860	-0.318	0.167
-483.405	-200.000	-0.005	0.420
-482.391	72.197	0.210	-0.217
-481.376	325.891	0.140	0.266
-480.362	800.000	-0.047	0.192
-479.347	132.290	0.144	0.185
-478.332	776.224	0.034	0.093
-477.318	58.268	-0.154	0.150
-476.303	52.569	0.213	-0.202
-475.289	59.481	-0.158	-0.154
-474.274	-120.095	0.205	0.035
-473.259	-119.872	0.124	0.021
-472.245	-200.000	-0.005	0.183
-471.230	-200.000	0.008	-0.120
-470.216	-160.646	-0.177	0.009
-469.201	800.000	-0.102	-0.325
-468.186	-77.229	0.200	-0.069
-467.172	0.639	0.311	0.221
-466.157	689.764	0.060	0.157
-465.143	-200.000	-0.015	-0.343
-464.128	-82.152	0.272	-0.088
-463.113	-100.421	0.202	-0.050
-462.099	-142.107	-0.109	-0.011
-461.084	-73.381	-0.167	-0.061
-460.070	187.477	-0.115	0.171
-459.055	28.646	0.117	-0.099
-458.040	-173.234	-0.087	-0.003
-457.026	-200.000	-0.016	-0.146
-456.011	34.606	0.073	-0.063
-454.997	33.786	-0.266	-0.230
-453.982	20.870	-0.274	0.221
-452.968	77.492	0.071	0.075
-451.953	-200.000	-0.040	-0.259
-450.938	-181.508	0.134	-0.003
-449.924	41.095	0.091	-0.082
-448.909	-13.464	-0.252	0.163
-447.895	128.911	0.243	-0.307
-446.880	-37.396	-0.039	0.021
-445.865	18.532	-0.092	-0.073
-444.851	-124.140	0.333	-0.052
-443.836	697.188	0.068	0.178
-442.822	-200.000	-0.033	0.163
-441.807	-26.885	0.212	-0.123
-440.792	213.629	-0.033	0.052
-439.778	-200.000	0.062	-0.373
-438.763	-56.035	-0.167	-0.074
-437.749	-54.642	0.331	-0.149
-436.734	-56.282	-0.127	-0.056
-435.719	182.945	0.029	0.043
-434.705	127.163	0.138	0.174
-433.690	-40.637	0.147	0.076
-432.676	-114.563	-0.289	0.055
-431.661	-200.000	-0.009	0.255
-430.646	218.159	0.195	0.310
-429.632	-35.803	-0.161	0.086
-428.617	-90.893	0.225	-0.064
-427.603	-200.000	0.002	-0.138
-426.588	-21.653	0.102	-0.062
-425.573	49.574	0.223	-0.208
-424.559	57.059	-0.128	-0.124
-423.544	-47.847	0.298	0.143
-422.530	-51.093	-0.422	-0.197
-421.515	-14.134	0.152	-0.097
-420.500	88.212	0.174	-0.192
-419.486	125.060	0.056	-0.070
-418.471	38.821	0.222	0.197
-417.457	-200.000	0.006	0.080
-416.442	-135.358	0.305	-0.036
-415.428	-135.330	-0.588	0.070
-414.413	800.000	-0.031	-0.085
-413.398	527.944	0.037	-0.087
-412.384	-200.000	-0.052	-0.369
-411.369	75.232	0.098	0.102
-410.355	-75.995	-0.266	0.093
-409.340	-200.000	-0.005	-0.219
-408.325	220.457	-0.144	-0.229
-407.311	56.692	0.179	0.173
-406.296	-109.374	-0.358	-0.075
-405.282	-200.000	0.028	-0.197
-404.267	-48.091	-0.190	-0.091
-403.252	-21.421	-0.038	-0.023
-402.238	23.659	0.143	0.116
-401.223	-200.000	-0.051	0.238
-400.209	-200.000	0.024	0.253
-399.194	-200.000	-0.014	0.121
-398.179	800.000	0.059	0.244
-397.165	-178.309	0.346	0.008
-396.150	526.495	0.075	0.176
-395.136	-200.000	0.015	-0.352
-394.121	800.000	0.094	-0.298
-393.106	-61.444	-0.116	0.048
-392.092	-91.121	0.307	0.087
-391.077	-200.000	0.023	0.426
-390.063	800.000	-0.013	0.052
-389.048	-51.497	0.357	-0.165
-388.033	-83.524	-0.100	0.032
-387.019	15.891	-0.083	0.064
-386.004	247.327	0.160	0.268
-384.990	-200.000	0.020	0.308
-383.975	-200.000	0.022	-0.140
-382.960	101.883	-0.075	-0.087
-381.946	716.567	-0.125	-0.328
-380.931	-101.723	-0.204	0.049
-379.917	370.934	-0.157	0.316
-378.902	241.407	0.129	0.214
-377.888	669.082	0.064	0.164
-376.873	800.000	-0.114	-0.334
-375.858	-200.000	0.063	0.326
-374.844	62.590	-0.146	-0.145
-373.829	145.444	0.137	-0.182
-372.815	161.039	-0.135	0.187
-371.800	-103.640	0.120	-0.028
-370.785	-44.652	0.142	-0.070
-369.771	125.276	-0.037	-0.046
-368.756	-200.000	-0.012	-0.102
-367.742	50.950	-0.118	0.111
-366.727	800.000	0.068	0.226
-365.712	-9.487	-0.100	0.066
-364.698	-135.988	0.070	0.008
-363.683	-55.618	-0.055	0.024
-362.669	800.000	-0.082	0.300
-361.654	-200.000	0.027	0.170
-360.639	-28.587	-0.140	0.080
-359.625	-79.906	0.423	-0.141
-358.610	800.000	-0.080	-0.304
-357.596	-200.000	0.053	-0.344
-356.581	443.592	-0.072	0.157
-355.566	-82.529	0.303	0.097
-354.552	44.311	-0.098	0.089
-353.537	-108.943	0.245	-0.052
-352.523	-108.212	-0.182	-0.039
-351.508	-129.798	-0.067	0.009
-350.493	800.000	-0.119	0.389
-349.479	238.475	0.084	0.138
-348.464	-132.449	0.117	0.015
-347.450	98.638	-0.100	-0.114
-346.435	772.337	0.093	-0.250
-345.420	-140.644	0.174	0.018
-344.406	55.583	-0.031	-0.029
-343.391	-200.000	0.052	0.465
-342.377	-35.073	-0.275	0.148
-341.362	-122.111	0.265	-0.043
-340.348	-37.053	-0.254	0.135
-339.333	295.249	0.108	0.195
-338.318	-200.000	0.024	-0.228
-337.304	-68.988	0.266	0.101
-336.289	-143.227	-0.204	-0.019
-335.275	124.756	-0.048	-0.060
-334.260	93.065	0.084	0.093
-333.245	-115.107	0.102	-0.019
-332.231	329.505	0.029	-0.056
-331.216	-200.000	0.071	-0.403
-330.202	117.291	-0.095	0.116
-329.187	-70.241	0.187	0.070
-328.172	-174.945	0.138	-0.004
-327.158	-33.564	0.214	-0.117
-326.143	-88.327	-0.050	0.015
-325.129	-6.401	0.241	-0.162
-324.114	-66.539	0.285	-0.112
-323.099	800.000	-0.084	0.242
-322.085	-200.000	0.009	-0.297
-321.070	-50.153	-0.182	-0.085
-320.056	4.107	-0.262	0.190
-319.041	-200.000	-0.005	-0.129
-318.026	-6.803	0.213	-0.143
-317.012	-129.133	-0.259	-0.036
-315.997	-134.018	0.101	0.012
-314.983	-200.000	-0.023	-0.306
-313.968	176.557	-0.157	0.226
-312.953	-140.443	0.148	0.015
-311.939	542.620	-0.020	-0.047
-310.924	0.327	0.072	0.051
-309.910	-75.742	-0.431	0.151
-308.895	800.000	0.107	0.354
-307.880	-159.286	-0.025	0.001
-306.866	128.321	-0.204	-0.256
-305.851	124.508	0.053	-0.065
-304.837	-2.418	-0.096	-0.066
-303.822	-178.617	0.295	0.007
-302.807	31.746	-0.189	-0.161
-301.793	508.783	-0.090	0.206
-300.778	-16.982	-0.219	-0.137
-299.764	55.628	0.315	0.302
-298.749	66.624	0.204	0.205
-297.735	368.464	-0.055	-0.111
-296.720	-166.447	-0.084	-0.003
-295.705	3.018	-0.140	-0.101
-294.691	669.872	-0.099	-0.253
-293.676	107.629	0.092	-0.108
-292.662	683.370	0.070	-0.180
-291.647	326.504	0.161	-0.304
-290.632	122.674	-0.135	0.166
-289.618	-33.276	0.107	0.059
-288.603	141.752	0.012	0.016
-287.589	-200.000	-0.010	-0.195
-286.574	309.194	-0.167	0.307
-285.559	-14.146	-0.175	0.111
-284.545	-200.000	-0.032	0.286
-283.530	800.000	-0.006	-0.019
-282.516	-200.000	-0.021	-0.297
-281.501	-125.804	-0.368	-0.055
-280.486	-54.325	0.327	0.147
-279.472	538.811	-0.138	0.324
-278.457	800.000	0.130	0.380
-277.443	-200.000	0.011	0.156
-276.428	102.807	-0.256	-0.296
-275.413	-200.000	0.043	-0.204
-274.399	800.000	-0.111	0.306
-273.384	133.944	-0.231	0.295
-272.370	-98.006	-0.108	-0.028
-271.355	-94.606	0.144	-0.039
-270.340	51.875	0.184	-0.173
-269.326	-200.000	-0.026	0.156
-268.311	-40.125	-0.368	-0.189
-267.297	-160.740	0.425	-0.022
-266.282	-200.000	0.052	0.332
-265.267	-48.445	0.167	0.079
-264.253	-113.948	0.291	-0.056
-263.238	30.129	0.248	0.209
-262.224	-67.082	-0.043	-0.017
-261.209	343.194	0.061	0.119
-260.195	-80.251	0.245	-0.081
-259.180	82.268	0.230	0.246
-258.165	800.000	-0.123	0.461
-257.151	83.539	0.176	-0.189
-256.136	-108.106	-0.212	-0.045
-255.122	-46.729	0.181	-0.088
-254.107	-158.598	-0.307	-0.017
-253.092	37.490	-0.182	0.160
-252.078	-200.000	0.010	-0.072
-251.063	-200.000	0.006	-0.044
-250.049	-200.000	0.004	-0.112
-249.034	191.859	0.190	0.282
-248.019	-105.582	0.163	-0.036
-247.005	204.399	0.104	0.159
-245.990	800.000	-0.042	-0.127
-244.976	21.554	0.095	0.077
-243.961	-7.813	-0.229	-0.153
-242.946	48.297	-0.140	0.129
-241.932	126.386	-0.133	0.166
-240.917	340.586	-0.201	-0.387
-239.903	-158.951	-0.258	-0.014
-238.888	21.352	-0.183	-0.146
-237.873	-42.611	0.049	0.025
-236.859	-169.310	0.114	-0.004
-235.844	139.219	-0.275	-0.356
-234.830	12.290	0.268	-0.204
-233.815	9.886	0.050	-0.038
-232.800	68.435	0.092	-0.093
-231.786	-200.000	0.016	-0.222
-230.771	-89.761	-0.057	0.016
-229.757	98.382	0.179	0.204
-228.742	-87.001	-0.322	-0.097
-227.727	800.000	0.075	-0.313
-226.713	-101.597	-0.127	0.030
-225.698	-135.343	-0.134	0.016
-224.684	-92.902	0.206	-0.057
-223.669	-200.000	-0.034	0.342
-222.655	-200.000	0.009	-0.091
-221.640	-200.000	-0.039	0.169
-220.625	-100.418	0.142	0.035
-219.611	-105.216	-0.025	-0.006
-218.596	300.111	-0.248	0.451
-217.582	-145.297	-0.341	0.030
-216.567	-200.000	-0.012	-0.231
-215.552	-47.688	0.169	-0.081
-214.538	-99.367	-0.057	0.014
-213.523	-200.000	-0.013	0.195
-212.509	271.274	0.122	0.211
-211.494	-25.490	0.059	-0.034
-210.479	-104.808	0.300	0.068
-209.465	6.909	0.213	0.156
-208.450	31.603	0.123	0.104
-207.436	239.241	-0.087	-0.143
-206.421	-200.000	-0.044	0.267
-205.406	-200.000	-0.009	0.105
-204.392	-129.243	-0.123	0.017
-203.377	-12.923	-0.077	0.049
-202.363	343.479	0.109	-0.210
-201.348	78.977	0.303	-0.319
-200.333	-18.633	0.472	0.290
-199.319	27.185	0.174	-0.143
-198.304	800.000	-0.051	-0.178
-197.290	623.772	-0.067	-0.167
-196.275	-200.000	0.010	0.045
-195.260	-200.000	-0.032	0.151
-194.246	677.660	-0.071	-0.181
-193.231	800.000	0.047	-0.182
-192.217	800.000	-0.051	-0.184
-191.202	-27.573	0.200	0.115
-190.187	-33.509	-0.102	0.055
-189.173	146.632	-0.093	-0.123
-188.158	2.880	-0.123	-0.088
-187.144	87.116	0.212	0.231
-186.129	470.212	-0.087	0.192
-185.114	-119.941	-0.232	-0.039
-184.100	-200.000	0.052	-0.307
-183.085	29.762	-0.032	-0.026
-182.071	-200.000	-0.004	-0.198
-181.056	-200.000	-0.027	0.259
-180.042	800.000	0.103	0.305
-179.027	-165.345	-0.036	0.002
-178.012	-167.764	-0.088	0.003
-176.998	-144.132	-0.047	-0.004
-175.983	-19.085	-0.099	0.060
-174.969	800.000	0.039	-0.126
-173.954	586.936	-0.113	-0.274
-172.939	208.496	0.072	0.111
-171.925	-200.000	0.009	0.206
-170.910	-63.478	-0.212	0.086
-169.896	-200.000	0.001	-0.071
-168.881	725.312	-0.011	0.028
-167.866	167.721	-0.181	0.252
-166.852	-200.000	-0.008	-0.083
-165.837	-97.950	-0.349	0.088
-164.823	178.157	0.044	-0.063
-163.808	-139.022	0.082	0.009
-162.793	-44.951	-0.070	0.034
-161.779	-46.070	0.093	-0.045
-160.764	-50.968	-0.048	-0.022
-159.750	1.790	-0.210	-0.149
-158.735	39.947	-0.232	0.204
-157.720	-200.000	0.032	0.143
-156.706	546.617	0.084	-0.197
-155.691	-140.901	-0.320	-0.032
-154.677	210.298	-0.177	0.273
-153.662	-92.895	-0.312	-0.086
-152.647	206.339	-0.047	-0.073
-151.633	800.000	-0.094	-0.350
-150.618	-128.626	0.030	-0.004
-149.604	-119.939	0.279	0.047
-148.589	496.613	-0.165	0.372
-147.574	597.452	0.066	-0.161
-146.560	262.476	-0.162	-0.276
-145.545	94.596	0.073	0.082
-144.531	753.324	0.029	-0.076
-143.516	589.616	-0.134	-0.324
-142.502	-141.093	0.169	-0.017
-141.487	79.018	0.278	-0.292
-140.472	297.445	-0.206	-0.371
-139.458	85.341	-0.341	0.368
-138.443	-120.106	-0.362	-0.061
-137.429	-150.718	0.260	0.019
-136.414	132.382	0.212	-0.268
-135.399	-200.000	0.061	-0.275
-134.385	800.000	0.063	-0.184
-133.370	118.597	-0.193	-0.234
-132.356	80.372	0.156	0.165
-131.341	-200.000	-0.006	0.049
-130.326	628.599	0.077	-0.192
-129.312	158.641	-0.187	-0.255
-128.297	368.644	0.128	0.253
-127.283	0.137	0.117	-0.082
-126.268	-200.000	-0.103	-0.495
-125.253	800.000	-0.064	-0.213
-124.239	624.821	-0.112	0.278
-123.224	6.187	-0.256	-0.186
-122.210	71.225	0.250	0.255
