DTS Sentinel unit serial number:	SN413079Multiplexer serial number:	ORYXHardware model number:	OX4-SRSoftware version number:	ORYX F/W v4.00 Oryx Data Collector v3.7.2.0data status	okinstallation	princeton_trtdifferential loss correction	single-endedforward channel	channel 2reverse channel	N/Adate	2019/09/14time	02:15:35forward acquisition time	60.00reverse acquisition time	0.00gamma	496.2192k internal	0.2337k external	0.2337temperature offset calibration	1.0124default loss term (dB/km)	0.3790temperature slope calibration	1.0000multiplexer offset coefficient	1.0000multiplexer slope coefficient	1.0000fibre end	0.00T internal ref (°C)	26.50T ext. ref 1 (°C)	3.21T ext. ref 2 (°C)	21.47length (m)	temperature (°C)	Stokes	anti-Stokes-747.200	-59.559	0.476	-0.205
-746.185	800.000	-0.049	-0.151
-745.171	375.155	-0.072	0.147
-744.156	43.121	-0.055	0.050
-743.142	-200.000	-0.062	0.343
-742.127	-200.000	-0.032	0.149
-741.112	277.823	-0.109	-0.194
-740.098	132.474	-0.205	0.266
-739.083	-14.443	0.121	0.078
-738.069	-66.730	0.111	0.044
-737.054	800.000	-0.104	-0.322
-736.039	-93.120	-0.371	0.104
-735.025	-50.164	0.117	0.055
-734.010	39.220	-0.264	-0.237
-732.996	-74.438	-0.128	0.046
-731.981	-108.263	0.314	-0.068
-730.966	-81.671	0.179	-0.059
-729.952	-35.351	-0.154	0.084
-728.937	-39.318	-0.192	-0.101
-727.923	235.606	-0.130	-0.215
-726.908	83.652	0.180	-0.197
-725.894	639.801	-0.086	-0.220
-724.879	-72.031	0.093	-0.035
-723.864	-200.000	-0.007	-0.092
-722.850	25.783	-0.221	-0.184
-721.835	-129.757	-0.106	-0.015
-720.821	-200.000	-0.006	0.095
-719.806	243.591	-0.168	0.282
-718.791	-157.441	-0.211	0.013
-717.777	-13.753	-0.258	-0.168
-716.762	-134.697	-0.226	0.028
-715.748	186.455	-0.095	0.142
-714.733	154.786	0.152	-0.210
-713.718	-100.100	-0.120	-0.030
-712.704	152.616	0.097	-0.132
-711.689	800.000	-0.041	0.128
-710.675	659.746	-0.082	0.211
-709.660	706.751	-0.111	-0.293
-708.645	800.000	-0.058	-0.172
-707.631	-188.547	-0.186	-0.002
-706.616	-112.841	-0.319	0.063
-705.602	65.974	0.280	-0.284
-704.587	438.320	0.070	0.152
-703.572	355.329	-0.204	0.407
-702.558	-200.000	0.031	-0.187
-701.543	421.357	-0.106	-0.228
-700.529	-129.457	-0.155	0.021
-699.514	-36.850	0.305	-0.164
-698.499	-200.000	-0.002	-0.082
-697.485	-200.000	-0.014	-0.097
-696.470	-200.000	-0.269	-0.001
-695.456	-200.000	-0.058	-0.271
-694.441	-33.248	0.207	0.115
-693.426	145.004	0.163	-0.218
-692.412	191.101	0.105	0.159
-691.397	483.018	0.014	0.032
-690.383	774.508	0.110	0.300
-689.368	-53.887	-0.152	-0.069
-688.354	-200.000	0.056	0.264
-687.339	32.792	-0.255	-0.221
-686.324	800.000	-0.039	0.137
-685.310	87.755	0.185	0.206
-684.295	288.163	0.070	0.127
-683.281	-166.965	-0.161	0.007
-682.266	114.531	-0.128	0.156
-681.251	75.938	0.058	-0.062
-680.237	-83.303	-0.212	0.068
-679.222	-130.925	-0.532	0.071
-678.208	-101.512	0.193	-0.047
-677.193	174.585	-0.140	-0.203
-676.178	-198.311	-0.132	-0.001
-675.164	800.000	-0.029	0.110
-674.149	-30.735	-0.225	-0.128
-673.135	-200.000	-0.003	-0.265
-672.120	210.933	-0.236	-0.372
-671.105	-200.000	-0.064	-0.309
-670.091	9.361	-0.167	-0.127
-669.076	-200.000	-0.048	0.249
-668.062	-153.064	0.390	0.027
-667.047	-200.000	-0.002	0.086
-666.032	-64.441	0.063	-0.026
-665.018	-83.742	-0.264	0.084
-664.003	-18.157	-0.296	0.185
-662.989	9.542	0.120	-0.091
-661.974	-164.884	0.053	-0.002
-660.959	39.944	-0.060	0.054
-659.945	41.940	0.159	-0.144
-658.930	800.000	-0.100	-0.387
-657.916	78.457	-0.134	0.143
-656.901	-17.128	-0.215	-0.136
-655.886	-66.625	-0.139	0.055
-654.872	155.451	0.103	0.142
-653.857	-64.668	0.230	0.093
-652.843	-200.000	-0.015	0.187
-651.828	-200.000	0.006	-0.036
-650.814	32.000	0.089	0.077
-649.799	-99.171	0.054	0.014
-648.784	-51.954	-0.302	0.140
-647.770	207.936	0.086	0.135
-646.755	-32.978	0.140	-0.078
-645.741	-18.088	-0.195	0.122
-644.726	137.071	0.184	0.241
-643.711	49.677	0.062	0.058
-642.697	-200.000	0.015	-0.140
-641.682	-83.105	-0.283	0.091
-640.668	800.000	-0.077	-0.290
-639.653	111.689	-0.193	0.232
-638.638	16.833	-0.200	0.158
-637.624	-89.474	0.280	0.082
-636.609	-71.448	-0.218	0.081
-635.595	3.433	-0.120	-0.088
-634.580	-171.255	-0.103	0.003
-633.565	-153.620	0.213	0.015
-632.551	-27.093	-0.165	0.096
-631.536	20.877	-0.071	-0.057
-630.522	342.220	-0.055	0.107
-629.507	76.391	-0.230	0.244
-628.492	-4.300	-0.186	-0.129
-627.478	52.429	-0.207	0.198
-626.463	201.806	0.080	0.124
-625.449	800.000	0.025	-0.094
-624.434	20.021	-0.217	-0.174
-623.419	-81.190	-0.287	0.095
-622.405	-99.876	0.127	-0.032
-621.390	-129.017	0.140	-0.020
-620.376	-1.794	0.182	-0.128
-619.361	29.812	-0.023	0.019
-618.346	287.961	0.051	0.093
-617.332	-58.773	0.087	0.038
-616.317	-127.389	0.431	-0.063
-615.303	21.081	-0.154	-0.125
-614.288	-71.613	0.162	-0.061
-613.273	800.000	-0.054	0.180
-612.259	481.771	-0.004	-0.008
-611.244	-200.000	-0.009	-0.469
-610.230	800.000	0.069	0.209
-609.215	-132.711	-0.408	0.052
-608.201	716.896	-0.097	-0.256
-607.186	-100.335	0.329	-0.082
-606.171	-179.627	0.419	0.009
-605.157	668.792	-0.091	-0.236
-604.142	38.166	-0.105	0.093
-603.128	-13.469	0.194	0.125
-602.113	268.291	0.071	-0.124
-601.098	-88.969	0.172	0.051
-600.084	-115.714	0.153	0.029
-599.069	-200.000	-0.011	0.086
-598.055	-99.208	0.348	0.088
-597.040	27.817	-0.205	0.172
-596.025	-185.017	0.176	-0.003
-595.011	-43.917	-0.154	0.078
-593.996	90.865	-0.049	0.054
-592.982	800.000	-0.073	0.277
-591.967	-112.619	-0.055	-0.011
-590.952	-104.137	0.164	-0.038
-589.938	-82.468	-0.176	0.057
-588.923	5.376	-0.093	0.068
-587.909	478.497	-0.041	0.092
-586.894	-83.385	0.219	-0.070
-585.879	-200.000	0.049	-0.340
-584.865	69.184	0.081	-0.083
-583.850	208.484	-0.112	0.174
-582.836	212.613	-0.144	-0.227
-581.821	-162.996	-0.594	-0.029
-580.806	149.549	0.235	-0.317
-579.792	-33.582	-0.227	0.125
-578.777	-200.000	-0.040	0.227
-577.763	13.633	0.251	-0.194
-576.748	183.221	-0.255	-0.376
-575.733	-67.155	-0.108	0.043
-574.719	-200.000	-0.017	-0.117
-573.704	8.889	-0.359	-0.270
-572.690	800.000	-0.042	0.157
-571.675	-14.206	0.145	0.093
-570.661	-19.972	0.099	-0.061
-569.646	-200.000	0.025	-0.337
-568.631	-200.000	-0.062	-0.391
-567.617	144.569	-0.054	0.071
-566.602	-200.000	0.077	0.383
-565.588	-200.000	-0.000	-0.152
-564.573	-84.571	0.273	-0.086
-563.558	162.332	0.151	0.211
-562.544	-200.000	0.013	-0.132
-561.529	-200.000	-0.024	0.201
-560.515	800.000	-0.037	0.142
-559.500	6.632	-0.112	-0.083
-558.485	800.000	-0.025	0.076
-557.471	143.983	0.115	0.153
-556.456	2.030	-0.105	-0.076
-555.442	-200.000	0.009	0.466
-554.427	-200.000	-0.254	0.001
-553.412	50.781	-0.215	-0.203
-552.398	401.119	0.031	-0.064
-551.383	-162.200	0.563	0.028
-550.369	-16.650	-0.194	0.122
-549.354	-198.182	-0.060	0.000
-548.339	-61.089	-0.401	-0.169
-547.325	-146.535	0.074	0.006
-546.310	-20.116	-0.156	0.096
-545.296	82.089	-0.046	0.050
-544.281	287.459	0.075	0.135
-543.266	9.942	0.153	0.115
-542.252	22.625	0.161	-0.131
-541.237	-65.627	0.256	-0.102
-540.223	-106.437	0.142	0.032
-539.208	31.447	0.247	-0.212
-538.193	-14.984	-0.134	-0.086
-537.179	69.887	-0.049	0.050
-536.164	384.990	-0.083	-0.171
-535.150	-200.000	0.012	-0.082
-534.135	-200.000	-0.004	0.188
-533.121	104.175	-0.061	0.072
-532.106	5.015	0.118	0.086
-531.091	3.924	0.433	0.315
-530.077	-200.000	0.002	0.082
-529.062	-12.048	-0.131	0.085
-528.048	122.659	-0.083	-0.103
-527.033	103.033	0.036	0.042
-526.018	110.122	-0.220	-0.262
-525.004	88.910	0.022	-0.025
-523.989	-200.000	0.014	-0.067
-522.975	119.500	0.126	0.155
-521.960	-200.000	-0.015	0.110
-520.945	227.981	-0.124	-0.200
-519.931	58.470	0.177	0.173
-518.916	800.000	-0.056	-0.228
-517.902	800.000	0.050	-0.151
-516.887	-99.660	0.349	0.087
-515.872	134.175	0.146	-0.188
-514.858	179.655	0.139	0.202
-513.843	52.510	0.051	0.048
-512.829	-35.590	0.072	-0.039
-511.814	-19.575	-0.207	-0.128
-510.799	-7.465	-0.195	-0.131
-509.785	369.236	0.149	-0.300
-508.770	-69.257	0.068	0.026
-507.756	-200.000	0.029	-0.183
-506.741	244.366	-0.168	-0.280
-505.726	39.255	0.114	0.101
-504.712	-78.979	0.056	0.019
-503.697	-39.548	-0.214	0.111
-502.683	211.291	-0.103	0.161
-501.668	800.000	-0.039	-0.139
-500.653	2.969	-0.180	-0.130
-499.639	-88.393	0.243	-0.072
-498.624	-113.847	-0.037	-0.007
-497.610	-74.620	0.258	0.092
-496.595	-104.775	-0.215	-0.049
-495.581	-115.076	-0.553	-0.104
-494.566	-138.754	0.081	-0.009
-493.551	-98.389	-0.127	-0.032
-492.537	-200.000	0.034	-0.156
-491.522	-200.000	-0.048	0.214
-490.508	800.000	-0.024	0.074
-489.493	-200.000	-0.078	-0.343
-488.478	800.000	0.053	-0.182
-487.464	800.000	0.009	-0.034
-486.449	800.000	-0.118	-0.452
-485.435	-20.169	0.234	-0.143
-484.420	-91.687	0.307	-0.087
-483.405	-200.000	0.162	-0.001
-482.391	800.000	0.051	0.199
-481.376	-81.694	0.287	-0.093
-480.362	800.000	-0.136	0.403
-479.347	-45.555	-0.297	-0.146
-478.332	163.579	0.058	0.081
-477.318	-47.557	0.295	-0.142
-476.303	302.431	0.054	-0.100
-475.289	23.829	0.253	0.207
-474.274	289.634	0.124	-0.223
-473.259	-42.928	-0.204	-0.103
-472.245	-117.847	-0.095	-0.017
-471.230	800.000	-0.046	-0.137
-470.216	-200.000	0.019	0.143
-469.201	-7.196	-0.169	0.114
-468.186	-105.317	-0.151	-0.034
-467.172	-79.842	0.330	-0.110
-466.157	-42.740	0.352	0.178
-465.143	-17.730	-0.187	-0.116
-464.128	485.544	-0.005	-0.012
-463.113	73.393	-0.316	0.328
-462.099	-200.000	-0.022	-0.296
-461.084	-200.000	0.019	0.145
-460.070	-120.447	-0.124	-0.021
-459.055	-135.772	-0.156	-0.018
-458.040	65.304	0.269	0.270
-457.026	-95.908	-0.336	0.089
-456.011	-200.000	0.015	0.131
-454.997	244.588	-0.071	-0.119
-453.982	206.245	0.041	-0.064
-452.968	32.691	-0.283	0.243
-451.953	-200.000	0.008	0.080
-450.938	252.324	0.050	0.085
-449.924	193.427	0.028	0.042
-448.909	800.000	-0.010	-0.034
-447.895	-200.000	0.010	-0.060
-446.880	-31.747	0.404	-0.225
-445.865	-147.661	0.050	0.004
-444.851	332.106	-0.121	-0.231
-443.836	-44.173	-0.171	-0.085
-442.822	-200.000	0.012	0.058
-441.807	223.119	-0.133	0.213
-440.792	21.842	-0.313	0.253
-439.778	127.140	-0.147	-0.184
-438.763	-32.072	-0.235	-0.130
-437.749	-156.472	0.126	-0.008
-436.734	298.887	0.132	-0.242
-435.719	65.803	0.056	0.056
-434.705	800.000	-0.046	-0.134
-433.690	26.813	0.101	0.084
-432.676	-200.000	0.003	-0.058
-431.661	-65.655	0.045	-0.018
-430.646	-99.910	0.028	0.007
-429.632	-70.498	-0.069	-0.026
-428.617	107.121	0.175	-0.206
-427.603	800.000	-0.027	0.090
-426.588	245.544	-0.259	0.432
-425.573	65.190	-0.080	-0.080
-424.559	89.015	0.199	0.219
-423.544	-96.429	0.318	-0.083
-422.530	-200.000	-0.044	-0.204
-421.515	-177.115	-0.100	-0.002
-420.500	800.000	-0.092	-0.379
-419.486	182.470	-0.043	-0.063
-418.471	-42.411	-0.348	0.176
-417.457	800.000	-0.067	-0.209
-416.442	603.314	0.141	-0.347
-415.428	-4.901	-0.484	-0.331
-414.413	-200.000	0.043	0.224
-413.398	-52.074	-0.289	0.133
-412.384	57.269	0.194	0.188
-411.369	126.301	-0.152	-0.190
-410.355	288.022	-0.054	0.097
-409.340	-96.726	-0.209	0.054
-408.325	-121.947	-0.120	0.020
-407.311	45.107	-0.177	0.162
-406.296	222.403	-0.185	0.294
-405.282	-109.991	0.290	-0.060
-404.267	-81.871	0.194	-0.063
-403.252	-200.000	0.013	-0.146
-402.238	-200.000	0.007	-0.085
-401.223	-51.982	-0.398	-0.183
-400.209	242.363	0.131	0.218
-399.194	665.896	0.053	0.136
-398.179	-37.203	-0.147	0.078
-397.165	-33.041	-0.345	-0.190
-396.150	-200.000	-0.005	-0.229
-395.136	800.000	-0.062	0.240
-394.121	-29.852	0.333	-0.188
-393.106	250.177	0.088	0.147
-392.092	185.489	0.143	-0.210
-391.077	-38.402	-0.040	-0.021
-390.063	183.473	-0.078	0.114
-389.048	523.367	0.072	-0.168
-388.033	7.275	0.136	-0.100
-387.019	-135.868	0.114	-0.013
-386.004	485.800	0.097	0.218
-384.990	166.495	-0.214	-0.301
-383.975	-78.591	-0.182	0.062
-382.960	203.336	0.166	0.255
-381.946	-143.381	0.232	0.022
-380.931	-12.102	0.164	-0.106
-379.917	-91.524	0.200	0.056
-378.902	287.381	0.146	-0.262
-377.888	223.341	-0.051	0.081
-376.873	-20.280	0.114	0.070
-375.858	160.664	-0.195	0.269
-374.844	346.866	0.068	-0.133
-373.829	-200.000	-0.060	-0.442
-372.815	-128.348	0.081	0.011
-371.800	150.325	-0.204	-0.274
-370.785	-200.000	0.028	-0.360
-369.771	-200.000	-0.059	0.290
-368.756	800.000	-0.056	-0.216
-367.742	-107.238	0.241	0.052
-366.727	-200.000	0.063	0.353
-365.712	-37.466	0.211	-0.112
-364.698	-106.234	0.068	-0.015
-363.683	-200.000	0.003	-0.140
-362.669	800.000	0.127	-0.430
-361.654	-24.623	-0.119	-0.070
-360.639	40.076	-0.337	0.299
-359.625	-200.000	-0.042	0.446
-358.610	-168.487	0.257	-0.010
-357.596	-200.000	-0.022	-0.106
-356.581	-27.588	-0.341	0.196
-355.566	-200.000	0.046	0.212
-354.552	-70.856	0.209	-0.078
-353.537	77.042	-0.199	-0.209
-352.523	-200.000	0.053	-0.616
-351.508	-56.834	-0.329	-0.144
-350.493	277.252	-0.134	-0.235
-349.479	32.633	-0.259	0.221
-348.464	-38.694	-0.141	0.074
-347.450	31.058	0.163	-0.138
-346.435	-200.000	0.003	-0.258
-345.420	800.000	0.057	-0.221
-344.406	-127.811	0.214	-0.030
-343.391	800.000	0.017	-0.049
-342.377	-102.945	-0.245	-0.057
-341.362	-164.564	-0.254	0.011
-340.348	705.202	0.070	-0.183
-339.333	141.215	-0.013	0.016
-338.318	-200.000	0.015	0.207
-337.304	-200.000	0.010	0.225
-336.289	-82.420	-0.217	0.070
-335.275	-200.000	-0.008	0.081
-334.260	-96.245	0.256	-0.067
-333.245	35.027	-0.161	0.140
-332.231	786.813	0.077	-0.209
-331.216	-17.057	-0.243	-0.152
-330.202	-49.804	0.231	-0.108
-329.187	-40.774	-0.217	-0.111
-328.172	34.570	-0.209	0.180
-327.158	-128.446	0.107	-0.015
-326.143	6.848	0.232	0.171
-325.129	421.653	-0.143	0.304
-324.114	-17.243	-0.127	0.079
-323.099	68.417	0.244	0.247
-322.085	642.144	-0.029	0.073
-321.070	185.160	0.176	-0.258
-320.056	154.535	0.058	-0.078
-319.041	-41.643	-0.285	-0.144
-318.026	208.695	0.072	0.112
-317.012	648.835	0.126	-0.319
-315.997	68.543	-0.025	-0.026
-314.983	-200.000	0.031	0.173
-313.968	-43.993	-0.099	-0.049
-312.953	-200.000	0.022	0.138
-311.939	-200.000	-0.027	0.212
-310.924	393.583	-0.069	0.142
-309.910	-200.000	-0.080	0.571
-308.895	-100.041	0.072	0.018
-307.880	122.606	-0.169	-0.208
-306.866	-5.711	0.389	-0.263
-305.851	-17.650	0.074	-0.046
-304.837	-165.721	0.084	-0.004
-303.822	-200.000	-0.035	0.205
-302.807	800.000	-0.043	-0.161
-301.793	-40.437	-0.055	0.028
-300.778	-3.005	-0.065	0.045
-299.764	-200.000	0.031	-0.324
-298.749	46.120	0.219	-0.200
-297.735	207.614	0.151	-0.233
-296.720	800.000	0.084	-0.270
-295.705	-117.493	-0.118	0.021
-294.691	272.605	0.039	0.068
-293.676	-200.000	-0.026	0.311
-292.662	26.272	0.363	0.299
-291.647	-99.207	-0.050	0.013
-290.632	-200.000	-0.039	-0.363
-289.618	209.066	0.033	0.050
-288.603	229.410	-0.143	0.230
-287.589	308.531	0.119	-0.218
-286.574	139.226	0.148	-0.192
-285.559	287.905	-0.069	-0.123
-284.545	147.632	0.032	-0.043
-283.530	4.235	-0.318	0.230
-282.516	411.519	-0.079	-0.166
-281.501	800.000	0.037	0.150
-280.486	-47.128	0.094	0.045
-279.472	-134.692	-0.159	0.019
-278.457	-98.810	-0.240	-0.060
-277.443	43.119	-0.283	0.255
-276.428	-55.112	0.337	0.149
-275.413	350.271	-0.204	-0.397
-274.399	-83.222	-0.220	0.070
-273.384	202.389	0.224	-0.341
-272.370	-108.381	-0.435	-0.092
-271.355	31.418	0.152	0.128
-270.340	-134.319	-0.322	0.039
-269.326	89.974	0.184	0.202
-268.311	-154.422	0.052	-0.003
-267.297	-200.000	-0.022	-0.226
-266.282	128.486	0.060	-0.075
-265.267	800.000	0.103	0.358
-264.253	8.883	-0.232	-0.172
-263.238	-200.000	-0.019	-0.334
-262.224	13.531	0.178	-0.136
-261.209	-121.431	-0.056	0.009
-260.195	-68.663	0.260	-0.099
-259.180	-181.951	-0.092	-0.002
-258.165	-200.000	0.010	-0.054
-257.151	78.328	0.095	0.100
-256.136	-200.000	0.001	-0.157
-255.122	-57.412	0.237	0.103
-254.107	-106.065	-0.162	-0.036
-253.092	800.000	-0.148	0.573
-252.078	-80.910	0.258	-0.084
-251.063	-200.000	0.018	-0.083
-250.049	53.824	0.036	-0.034
-249.034	-71.012	-0.156	-0.058
-248.019	-200.000	0.026	0.164
-247.005	-152.117	-0.121	0.009
-245.990	-82.055	0.214	0.069
-244.976	-54.123	0.114	0.051
-243.961	83.381	-0.127	0.137
-242.946	735.712	0.048	-0.127
-241.932	-51.581	-0.107	-0.049
-240.917	246.068	0.077	0.128
-239.903	-20.860	0.093	-0.056
-238.888	373.226	-0.082	-0.164
-237.873	-200.000	-0.005	-0.027
-236.859	-200.000	-0.018	0.139
-235.844	631.955	0.073	0.183
-234.830	115.766	-0.133	-0.160
-233.815	686.104	0.112	-0.287
-232.800	58.685	-0.322	0.311
-231.786	2.812	0.195	-0.139
-230.771	255.135	0.053	-0.089
-229.757	375.505	0.143	0.287
-228.742	-165.691	0.217	0.009
-227.727	73.435	0.235	-0.242
-226.713	-155.220	0.424	0.027
-225.698	-104.471	0.054	-0.012
-224.684	-65.966	0.113	0.044
-223.669	-6.840	-0.152	0.101
-222.655	443.606	0.119	0.257
-221.640	-62.638	-0.112	-0.046
-220.625	-128.314	0.284	-0.040
-219.611	132.660	0.085	0.108
-218.596	-127.462	-0.376	0.054
-217.582	-98.055	0.406	0.103
-216.567	-200.000	0.047	0.287
-215.552	-145.841	0.056	-0.005
-214.538	-200.000	0.051	0.301
-213.523	-200.000	-0.041	0.340
-212.509	326.518	-0.070	-0.132
-211.494	488.610	-0.023	-0.051
-210.479	37.440	-0.298	0.260
-209.465	-3.173	0.246	-0.169
-208.450	-176.938	0.129	-0.003
-207.436	-5.601	0.279	0.188
-206.421	245.695	-0.091	-0.150
-205.406	132.211	0.228	-0.289
-204.392	44.440	-0.232	0.209
-203.377	-200.000	0.023	-0.172
-202.363	88.871	0.170	0.186
-201.348	-200.000	0.081	0.367
-200.333	-200.000	-0.001	-0.153
-199.319	800.000	0.118	0.350
-198.304	-124.110	-0.142	-0.022
-197.290	-200.000	0.023	0.170
-196.275	-200.000	0.013	0.126
-195.260	482.186	0.098	-0.220
-194.246	129.851	0.047	-0.059
-193.231	579.725	0.066	0.159
-192.217	212.576	0.171	0.266
-191.202	800.000	-0.101	0.332
-190.187	349.956	0.246	-0.478
-189.173	-29.690	0.331	0.186
-188.158	-100.071	0.358	0.088
-187.144	-200.000	-0.052	0.257
-186.129	-200.000	-0.010	-0.084
-185.114	-200.000	-0.023	0.371
-184.100	108.592	0.055	-0.065
-183.085	-11.934	-0.192	0.124
-182.071	800.000	-0.061	0.186
-181.056	800.000	-0.033	0.140
-180.042	-200.000	0.025	-0.179
-179.027	-200.000	0.038	-0.289
-178.012	-200.000	0.000	0.152
-176.998	-145.087	-0.169	0.015
-175.983	60.469	0.089	-0.086
-174.969	79.713	0.052	-0.055
-173.954	90.360	0.140	0.154
-172.939	-72.150	0.064	-0.023
-171.925	50.614	0.170	-0.158
-170.910	-91.535	0.063	-0.018
-169.896	-200.000	0.002	0.029
-168.881	-109.745	-0.009	-0.002
-167.866	-157.988	-0.447	0.026
-166.852	-91.734	0.061	0.017
-165.837	178.818	-0.187	0.268
-164.823	14.341	0.185	-0.142
-163.808	800.000	0.067	0.260
-162.793	800.000	-0.009	0.030
-161.779	-133.970	-0.254	0.031
-160.764	-75.074	-0.424	0.149
-159.750	-63.644	-0.099	-0.040
-158.735	-1.045	0.247	0.172
-157.720	11.583	0.193	-0.145
-156.706	-195.052	0.161	-0.001
-155.691	-89.036	0.031	0.009
-154.677	166.158	0.139	0.193
-153.662	-95.268	-0.264	0.070
-152.647	169.101	-0.178	0.249
-151.633	23.683	-0.067	-0.054
-150.618	203.462	0.095	-0.144
-149.604	140.925	-0.086	-0.111
-148.589	-46.115	-0.144	0.070
-147.574	303.912	-0.056	-0.102
-146.560	95.529	0.300	-0.335
-145.545	45.776	0.122	-0.110
-144.531	74.041	-0.290	-0.298
-143.516	433.441	-0.116	-0.247
-142.502	22.686	-0.092	-0.074
-141.487	4.170	-0.233	-0.167
-140.472	63.139	0.050	-0.049
-139.458	22.192	0.329	0.263
-138.443	-89.197	0.039	0.011
-137.429	-200.000	0.000	-0.090
-136.414	-200.000	-0.029	0.284
-135.399	-83.575	0.088	0.027
-134.385	800.000	0.022	-0.082
-133.370	141.794	0.133	-0.172
-132.356	183.320	-0.238	-0.344
-131.341	388.417	0.098	0.198
-130.326	26.963	-0.285	0.234
-129.312	-200.000	-0.020	0.199
-128.297	-65.615	0.440	0.173
-127.283	473.621	-0.074	-0.164
-126.268	-87.666	0.285	-0.084
-125.253	-78.881	-0.315	0.105
-124.239	390.207	-0.057	0.117
-123.224	55.184	0.006	0.006
-122.210	-150.703	0.100	-0.007
-121.195	54.115	0.141	0.133
