DTS Sentinel unit serial number:	SN413079Multiplexer serial number:	ORYXHardware model number:	OX4-SRSoftware version number:	ORYX F/W v4.00 Oryx Data Collector v3.7.2.0data status	okinstallation	princeton_trtdifferential loss correction	single-endedforward channel	channel 2reverse channel	N/Adate	2019/09/18time	01:15:34forward acquisition time	60.00reverse acquisition time	0.00gamma	496.2192k internal	0.2350k external	0.2350temperature offset calibration	0.9983default loss term (dB/km)	0.3790temperature slope calibration	1.0000multiplexer offset coefficient	1.0000multiplexer slope coefficient	1.0000fibre end	0.00T internal ref (°C)	23.19T ext. ref 1 (°C)	0.17T ext. ref 2 (°C)	16.91length (m)	temperature (°C)	Stokes	anti-Stokes-747.200	-200.000	-0.018	0.105
-746.185	91.578	0.069	0.078
-745.171	-20.727	-0.259	-0.158
-744.156	800.000	-0.018	0.066
-743.142	50.244	-0.177	0.167
-742.127	409.201	-0.151	0.318
-741.112	540.484	-0.088	-0.208
-740.098	-200.000	-0.040	-0.283
-739.083	287.663	-0.114	-0.205
-738.069	-75.509	0.202	0.072
-737.054	-156.663	0.172	-0.011
-736.039	-60.913	-0.444	-0.188
-735.025	19.440	0.270	0.216
-734.010	434.551	-0.076	-0.164
-732.996	-45.834	-0.161	0.080
-731.981	34.316	0.067	-0.058
-730.966	-200.000	-0.054	-0.576
-729.952	800.000	0.048	-0.191
-728.937	-39.026	0.236	0.124
-727.923	-49.573	-0.213	0.101
-726.908	-5.150	0.141	0.097
-725.894	800.000	-0.043	-0.167
-724.879	-132.697	-0.114	0.015
-723.864	256.627	0.156	-0.266
-722.850	-106.216	0.326	-0.073
-721.835	61.785	-0.367	-0.364
-720.821	800.000	0.101	-0.313
-719.806	66.320	0.364	0.369
-718.791	-17.317	-0.232	0.146
-717.777	47.543	0.214	-0.199
-716.762	-105.489	-0.152	-0.034
-715.748	-200.000	-0.083	-0.491
-714.733	-64.475	-0.270	0.109
-713.718	-134.710	0.102	0.012
-712.704	-149.339	-0.184	0.015
-711.689	-200.000	-0.032	-0.255
-710.675	-200.000	-0.013	-0.178
-709.660	171.589	0.045	0.065
-708.645	-15.989	0.111	-0.070
-707.631	18.105	-0.312	-0.248
-706.616	-157.694	0.148	0.009
-705.602	-48.100	-0.090	-0.043
-704.587	6.998	-0.143	-0.106
-703.572	39.336	-0.243	0.217
-702.558	92.333	-0.129	-0.145
-701.543	-112.386	-0.560	-0.112
-700.529	-127.152	0.188	-0.027
-699.514	225.260	0.046	-0.074
-698.499	529.130	0.069	-0.163
-697.485	-200.000	-0.016	0.077
-696.470	73.741	-0.221	-0.231
-695.456	-84.337	-0.202	-0.064
-694.441	-200.000	-0.040	0.387
-693.426	40.957	-0.254	0.228
-692.412	-200.000	0.015	-0.087
-691.397	-42.324	0.482	0.245
-690.383	158.704	0.081	-0.111
-689.368	-200.000	0.041	0.199
-688.354	-200.000	-0.009	0.073
-687.339	-159.294	0.124	0.007
-686.324	402.905	-0.066	-0.139
-685.310	627.620	-0.076	-0.191
-684.295	-45.432	-0.092	0.045
-683.281	-200.000	0.003	-0.092
-682.266	800.000	0.130	-0.371
-681.251	-200.000	-0.017	0.111
-680.237	-80.153	0.115	-0.038
-679.222	40.892	-0.093	0.083
-678.208	-60.301	-0.082	0.035
-677.193	800.000	0.020	0.076
-676.178	241.315	0.073	-0.121
-675.164	216.156	-0.155	0.245
-674.149	560.634	-0.223	0.536
-673.135	-100.555	0.115	0.028
-672.120	-5.046	0.273	-0.187
-671.105	-78.325	-0.124	0.043
-670.091	-200.000	-0.016	-0.237
-669.076	423.930	-0.100	-0.213
-668.062	-196.627	0.192	-0.001
-667.047	38.709	-0.189	-0.168
-666.032	2.799	-0.268	-0.194
-665.018	-66.595	-0.359	0.142
-664.003	-200.000	-0.005	-0.177
-662.989	800.000	-0.032	-0.103
-661.974	-84.564	-0.273	-0.086
-660.959	-123.213	0.197	0.031
-659.945	300.379	0.109	-0.200
-658.930	-200.000	0.049	0.429
-657.916	-152.104	0.311	-0.022
-656.901	800.000	-0.114	-0.321
-655.886	59.907	-0.238	0.234
-654.872	-200.000	0.000	-0.010
-653.857	-200.000	-0.045	0.205
-652.843	283.004	-0.015	-0.026
-651.828	0.270	0.440	0.313
-650.814	196.549	0.039	0.059
-649.799	-23.119	0.054	-0.032
-648.784	272.678	0.115	0.202
-647.770	18.619	-0.178	-0.141
-646.755	131.500	0.022	0.028
-645.741	-200.000	-0.082	-0.444
-644.726	-75.976	0.074	-0.026
-643.711	92.630	-0.151	-0.169
-642.697	-44.422	0.222	-0.111
-641.682	22.083	-0.218	-0.177
-640.668	-89.871	-0.188	0.055
-639.653	43.301	-0.197	-0.178
-638.638	800.000	-0.033	0.113
-637.624	622.983	0.107	0.268
-636.609	-200.000	-0.012	0.060
-635.595	246.327	-0.106	0.178
-634.580	-116.945	0.179	0.033
-633.565	-54.472	0.105	-0.047
-632.551	800.000	-0.044	-0.122
-631.536	-60.810	0.182	0.077
-630.522	-200.000	-0.020	0.177
-629.507	-200.000	-0.056	0.295
-628.492	-39.886	-0.424	-0.220
-627.478	-66.207	-0.052	-0.020
-626.463	800.000	0.053	-0.185
-625.449	-200.000	0.041	-0.203
-624.434	-200.000	-0.008	-0.102
-623.419	-200.000	0.003	0.033
-622.405	210.394	-0.209	0.326
-621.390	145.682	0.125	-0.166
-620.376	340.763	-0.134	0.261
-619.361	-200.000	-0.035	0.160
-618.346	214.292	0.177	0.278
-617.332	110.130	-0.042	0.050
-616.317	187.283	-0.069	0.102
-615.303	-153.957	0.244	-0.017
-614.288	13.632	-0.260	0.201
-613.273	-200.000	0.012	0.228
-612.259	800.000	0.129	-0.354
-611.244	428.372	-0.039	-0.084
-610.230	23.005	-0.212	0.172
-609.215	72.262	-0.064	0.066
-608.201	-79.939	-0.169	0.056
-607.186	-35.941	-0.203	0.109
-606.171	-52.235	-0.246	0.113
-605.157	-9.857	-0.415	-0.274
-604.142	-78.041	0.394	-0.135
-603.128	-134.579	-0.411	-0.050
-602.113	-38.050	0.162	-0.085
-601.098	177.063	0.159	0.230
-600.084	195.306	-0.157	0.237
-599.069	-200.000	-0.029	0.221
-598.055	-200.000	0.024	0.198
-597.040	-200.000	0.048	0.295
-596.025	-113.782	-0.251	-0.049
-595.011	579.477	-0.094	0.229
-593.996	-73.935	-0.081	-0.029
-592.982	800.000	0.050	-0.161
-591.967	-64.422	-0.219	-0.088
-590.952	-200.000	0.028	-0.512
-589.938	-12.430	0.287	0.186
-588.923	-32.549	-0.177	0.098
-587.909	-200.000	-0.014	0.301
-586.894	564.931	-0.075	-0.179
-585.879	-200.000	0.003	0.153
-584.865	-200.000	0.014	0.552
-583.850	-46.043	0.197	0.096
-582.836	-45.248	-0.185	-0.091
-581.821	-157.406	-0.034	0.002
-580.806	-5.996	-0.156	-0.106
-579.792	4.657	-0.137	-0.100
-578.777	-31.155	0.119	-0.067
-577.763	-200.000	0.048	-0.359
-576.748	-200.000	-0.073	-0.480
-575.733	45.790	0.073	0.067
-574.719	-54.945	0.327	0.146
-573.704	-13.262	-0.070	0.045
-572.690	-39.689	-0.142	-0.073
-571.675	425.636	-0.233	-0.498
-570.661	-70.689	-0.102	0.038
-569.646	-65.882	-0.233	0.092
-568.631	800.000	0.106	-0.327
-567.617	-78.169	-0.124	-0.042
-566.602	38.201	0.147	0.130
-565.588	-200.000	-0.046	-0.408
-564.573	-92.037	-0.297	0.083
-563.558	40.115	0.101	0.090
-562.544	116.031	-0.089	0.108
-561.529	18.130	-0.103	-0.081
-560.515	-200.000	-0.032	-0.481
-559.500	800.000	0.108	0.385
-558.485	-200.000	0.000	0.247
-557.471	-77.245	-0.373	-0.129
-556.456	-160.949	-0.240	0.013
-555.442	501.887	0.124	-0.284
-554.427	-101.540	0.171	-0.041
-553.412	75.185	0.229	0.239
-552.398	6.087	0.208	0.152
-551.383	-164.099	-0.332	0.015
-550.369	-1.698	0.314	-0.219
-549.354	52.416	-0.214	-0.202
-548.339	454.397	0.094	-0.206
-547.325	800.000	-0.093	-0.364
-546.310	-200.000	0.045	-0.243
-545.296	-169.006	0.106	-0.004
-544.281	-200.000	0.030	0.324
-543.266	-200.000	-0.020	-0.183
-542.252	-200.000	-0.012	0.200
-541.237	-200.000	-0.009	0.250
-540.223	800.000	-0.082	-0.260
-539.208	-200.000	-0.022	0.207
-538.193	-200.000	-0.035	0.252
-537.179	19.353	-0.113	0.090
-536.164	-200.000	0.034	0.183
-535.150	67.925	0.113	-0.114
-534.135	-38.834	0.139	-0.072
-533.121	87.797	0.090	0.099
-532.106	-200.000	0.032	-0.165
-531.091	197.597	0.137	-0.208
-530.077	-200.000	0.043	0.280
-529.062	561.830	-0.083	0.199
-528.048	610.359	-0.076	0.187
-527.033	262.720	-0.148	0.254
-526.018	12.331	-0.212	0.162
-525.004	716.362	0.070	-0.183
-523.989	800.000	-0.042	-0.151
-522.975	227.141	-0.104	0.167
-521.960	-43.883	-0.337	0.168
-520.945	13.708	-0.022	0.017
-519.931	-120.422	0.388	0.065
-518.916	185.656	-0.027	-0.040
-517.902	197.017	0.284	0.429
-516.887	-183.200	0.471	-0.008
-515.872	-200.000	-0.043	0.240
-514.858	-68.848	0.149	0.057
-513.843	58.156	0.198	0.192
-512.829	-200.000	-0.017	0.148
-511.814	507.208	-0.072	0.165
-510.799	-93.928	-0.141	-0.038
-509.785	-200.000	0.029	-0.143
-508.770	-170.131	0.365	-0.013
-507.756	236.656	0.164	0.268
-506.741	-200.000	0.105	-0.513
-505.726	155.498	-0.078	0.107
-504.712	800.000	0.054	-0.188
-503.697	45.941	0.160	-0.146
-502.683	514.440	0.025	-0.059
-501.668	-135.329	0.279	-0.033
-500.653	-95.391	-0.143	-0.038
-499.639	-200.000	-0.004	0.072
-498.624	147.348	0.084	-0.112
-497.610	-53.965	-0.330	-0.149
-496.595	-36.048	0.115	-0.061
-495.581	114.626	-0.135	0.162
-494.566	794.937	-0.123	0.333
-493.551	800.000	-0.055	0.194
-492.537	-80.189	-0.330	-0.109
-491.522	-64.700	0.217	0.087
-490.508	62.862	0.099	-0.098
-489.493	-200.000	0.046	-0.244
-488.478	800.000	-0.113	-0.392
-487.464	139.983	0.174	-0.226
-486.449	-200.000	-0.001	-0.082
-485.435	52.068	0.071	0.067
-484.420	120.770	0.128	0.157
-483.405	137.727	0.128	0.166
-482.391	125.321	0.157	-0.196
-481.376	116.674	-0.231	0.279
-480.362	-99.051	0.186	-0.047
-479.347	-200.000	-0.011	-0.185
-478.332	-17.190	-0.009	-0.006
-477.318	-103.134	-0.137	-0.032
-476.303	-200.000	0.028	0.144
-475.289	166.007	-0.055	0.076
-474.274	199.777	0.221	-0.336
-473.259	-200.000	-0.020	0.194
-472.245	-126.270	-0.464	0.068
-471.230	180.230	0.122	-0.176
-470.216	-161.756	-0.178	-0.009
-469.201	-81.444	-0.321	0.104
-468.186	104.003	0.072	-0.084
-467.172	-184.153	-0.329	0.005
-466.157	60.325	0.273	-0.267
-465.143	-72.654	-0.142	-0.052
-464.128	49.090	0.146	-0.135
-463.113	-200.000	0.015	0.111
-462.099	1.449	-0.160	0.114
-461.084	-200.000	-0.011	0.115
-460.070	-9.096	-0.155	-0.102
-459.055	-131.379	0.092	0.012
-458.040	399.238	-0.084	0.173
-457.026	-66.422	-0.236	0.093
-456.011	158.260	0.061	0.083
-454.997	-121.588	0.173	-0.028
-453.982	374.836	0.067	-0.135
-452.968	-40.205	-0.116	-0.060
-451.953	632.734	0.116	0.291
-450.938	-200.000	-0.024	0.302
-449.924	109.149	0.156	0.184
-448.909	-86.213	-0.142	-0.043
-447.895	15.931	-0.099	0.077
-446.880	-200.000	-0.017	0.152
-445.865	800.000	0.071	0.237
-444.851	251.376	-0.129	-0.216
-443.836	109.447	0.241	0.285
-442.822	800.000	0.048	-0.205
-441.807	-158.382	-0.053	0.003
-440.792	167.118	0.213	0.298
-439.778	-139.549	0.226	0.024
-438.763	-125.039	-0.482	0.073
-437.749	-80.625	-0.327	0.107
-436.734	502.012	-0.089	0.203
-435.719	-84.372	-0.077	0.024
-434.705	199.906	0.069	0.105
-433.690	115.445	0.098	0.118
-432.676	-200.000	-0.006	0.193
-431.661	128.712	-0.210	0.265
-430.646	-94.319	0.178	0.048
-429.632	-200.000	-0.019	-0.140
-428.617	-51.436	-0.324	-0.149
-427.603	60.792	0.121	-0.119
-426.588	-200.000	0.000	0.062
-425.573	460.767	0.044	-0.097
-424.559	159.438	0.192	-0.263
-423.544	-1.673	0.306	0.213
-422.530	176.424	-0.103	-0.147
-421.515	-200.000	0.011	0.233
-420.500	-168.546	-0.238	0.009
-419.486	800.000	-0.042	-0.156
-418.471	800.000	-0.045	-0.135
-417.457	277.615	0.200	-0.351
-416.442	-164.665	0.181	0.008
-415.428	83.010	-0.021	-0.022
-414.413	-102.206	-0.040	0.009
-413.398	-80.972	-0.231	-0.075
-412.384	-96.515	0.133	0.035
-411.369	139.716	0.060	0.078
-410.355	50.574	-0.055	0.051
-409.340	800.000	-0.070	0.213
-408.325	800.000	0.042	-0.172
-407.311	-200.000	0.009	-0.058
-406.296	800.000	-0.125	0.375
-405.282	158.095	-0.138	-0.188
-404.267	-0.464	0.041	-0.029
-403.252	-99.843	0.339	-0.083
-402.238	-150.332	0.149	0.011
-401.223	355.805	0.031	-0.060
-400.209	-143.167	0.096	0.009
-399.194	-69.182	-0.197	-0.075
-398.179	-111.115	0.222	-0.045
-397.165	-150.899	0.319	-0.024
-396.150	31.823	-0.113	0.096
-395.136	73.961	-0.160	0.165
-394.121	-73.454	0.065	-0.023
-393.106	-14.569	-0.248	-0.157
-392.092	-95.996	-0.206	0.054
-391.077	-82.246	0.388	0.124
-390.063	-76.683	-0.266	-0.092
-389.048	-6.546	0.180	0.121
-388.033	1.732	0.221	-0.157
-387.019	56.165	-0.089	0.085
-386.004	118.741	-0.311	-0.379
-384.990	119.993	-0.118	0.144
-383.975	-48.796	0.219	-0.104
-382.960	276.759	-0.235	0.411
-381.946	118.055	0.268	0.325
-380.931	-12.393	-0.158	0.101
-379.917	-96.833	-0.152	-0.039
-378.902	-200.000	-0.005	0.237
-377.888	-84.538	0.243	-0.076
-376.873	-200.000	-0.022	-0.184
-375.858	162.446	0.091	-0.125
-374.844	-135.457	0.082	0.010
-373.829	100.839	-0.154	-0.176
-372.815	288.183	-0.057	0.101
-371.800	-200.000	0.056	0.260
-370.785	-92.655	0.355	-0.098
-369.771	242.430	0.092	-0.151
-368.756	-100.977	0.213	0.051
-367.742	800.000	-0.042	-0.133
-366.727	-189.234	0.323	-0.004
-365.712	-117.997	0.583	-0.103
-364.698	-144.301	-0.173	0.016
-363.683	300.715	0.108	0.195
-362.669	-84.591	-0.084	0.026
-361.654	72.532	0.316	-0.324
-360.639	100.966	-0.138	-0.157
-359.625	800.000	0.012	-0.038
-358.610	-124.662	-0.143	0.022
-357.596	381.830	-0.107	0.217
-356.581	69.047	-0.217	-0.219
-355.566	-162.173	-0.369	-0.018
-354.552	-126.043	0.462	0.068
-353.537	111.416	0.034	0.041
-352.523	118.863	0.108	0.132
-351.508	-26.775	-0.143	0.082
-350.493	128.893	-0.090	-0.112
-349.479	-173.046	0.243	-0.007
-348.464	-200.000	-0.051	0.268
-347.450	-78.073	0.172	-0.058
-346.435	-161.589	0.239	-0.012
-345.420	7.062	0.270	0.198
-344.406	-200.000	-0.019	-0.118
-343.391	-200.000	0.054	0.397
-342.377	16.112	-0.085	-0.066
-341.362	439.618	-0.087	0.188
-340.348	-129.572	0.130	-0.018
-339.333	-18.825	-0.126	0.077
-338.318	561.454	0.112	0.267
-337.304	-200.000	-0.034	0.276
-336.289	-85.718	-0.061	-0.019
-335.275	703.237	-0.067	0.173
-334.260	-200.000	0.004	0.193
-333.245	-200.000	0.013	-0.231
-332.231	800.000	-0.031	0.089
-331.216	612.716	-0.038	0.092
-330.202	5.215	-0.146	-0.106
-329.187	53.418	0.167	-0.157
-328.172	-40.066	0.212	-0.108
-327.158	206.351	0.180	0.276
-326.143	-87.563	0.088	-0.026
-325.129	111.654	-0.080	-0.095
-324.114	-162.649	0.226	-0.011
-323.099	-200.000	0.012	-0.212
-322.085	-103.116	0.108	-0.025
-321.070	-200.000	0.022	0.145
-320.056	-200.000	0.031	-0.315
-319.041	-49.250	-0.352	-0.165
-318.026	-56.898	0.281	-0.122
-317.012	-122.788	-0.212	-0.034
-315.997	-187.473	-0.275	-0.004
-314.983	40.436	-0.084	0.075
-313.968	-29.375	-0.271	0.152
-312.953	-200.000	0.013	-0.120
-311.939	-139.291	0.442	-0.047
-310.924	-9.605	-0.361	-0.236
-309.910	-49.061	-0.146	0.069
-308.895	305.876	0.084	0.154
-307.880	-94.028	-0.202	0.054
-306.866	-166.087	-0.001	0.000
-305.851	-200.000	0.013	-0.358
-304.837	309.862	0.056	-0.103
-303.822	-200.000	-0.020	-0.170
-302.807	11.717	-0.139	-0.105
-301.793	-200.000	-0.028	0.161
-300.778	28.864	-0.141	0.117
-299.764	147.081	0.290	0.383
-298.749	800.000	0.016	0.066
-297.735	96.100	-0.117	-0.131
-296.720	-69.614	-0.125	0.047
-295.705	122.816	0.181	0.222
-294.691	-120.197	-0.214	-0.036
-293.676	232.452	0.068	0.109
-292.662	-200.000	0.014	-0.138
-291.647	-151.263	0.278	0.020
-290.632	246.518	-0.049	0.081
-289.618	280.812	0.158	-0.276
-288.603	-118.274	0.526	-0.092
-287.589	800.000	0.024	0.076
-286.574	-200.000	-0.046	-0.202
-285.559	206.822	-0.159	0.244
-284.545	-173.855	0.100	-0.003
-283.530	-53.367	0.094	-0.042
-282.516	28.213	0.173	-0.143
-281.501	174.031	0.139	0.196
-280.486	-1.602	0.256	-0.177
-279.472	1.858	0.087	0.061
-278.457	166.097	0.269	0.373
-277.443	-124.602	-0.024	-0.004
-276.428	51.559	-0.154	-0.143
-275.413	76.962	-0.252	-0.262
-274.399	-29.644	-0.039	0.022
-273.384	-39.942	0.189	-0.096
-272.370	800.000	0.046	0.171
-271.355	-24.571	0.407	0.238
-270.340	-200.000	-0.008	0.266
-269.326	68.674	-0.095	0.096
-268.311	13.387	0.235	0.179
-267.297	-200.000	-0.008	0.476
-266.282	-19.921	-0.206	-0.125
-265.267	-130.933	-0.454	-0.060
-264.253	-200.000	-0.009	-0.193
-263.238	800.000	0.059	-0.192
-262.224	75.676	-0.114	0.118
-261.209	297.909	-0.230	0.415
-260.195	126.242	0.137	0.170
-259.180	800.000	-0.069	0.262
-258.165	108.180	0.171	-0.200
-257.151	149.993	-0.257	-0.342
-256.136	361.709	0.034	0.067
-255.122	-46.794	0.338	-0.162
-254.107	800.000	-0.164	-0.453
-253.092	-82.081	0.132	-0.042
-252.078	-19.787	0.377	0.228
-251.063	178.286	-0.128	-0.182
-250.049	56.706	0.113	-0.108
-249.034	-115.344	0.266	-0.049
-248.019	24.750	-0.272	-0.221
-247.005	-11.190	-0.077	-0.050
-245.990	127.793	-0.302	0.375
-244.976	97.154	-0.176	-0.198
-243.961	-42.591	0.267	0.133
-242.946	110.250	-0.132	0.155
-241.932	-200.000	-0.009	-0.200
-240.917	-36.717	0.184	-0.097
-239.903	527.859	0.024	0.055
-238.888	-69.636	0.195	-0.073
-237.873	800.000	0.069	-0.205
-236.859	10.084	-0.140	0.104
-235.844	56.744	0.131	0.125
-234.830	7.249	-0.316	0.231
-233.815	88.235	-0.022	-0.024
-232.800	317.406	-0.117	-0.216
-231.786	47.482	-0.287	-0.261
-230.771	26.113	0.118	0.096
-229.757	59.025	-0.249	0.240
-228.742	-30.639	-0.244	0.135
-227.727	11.082	-0.099	-0.074
-226.713	167.116	0.180	-0.250
-225.698	341.934	-0.203	-0.389
-224.684	-4.025	-0.342	0.232
-223.669	30.072	-0.034	0.029
-222.655	800.000	-0.089	-0.240
-221.640	117.120	0.109	0.131
-220.625	-200.000	0.013	-0.202
-219.611	-114.913	-0.455	-0.085
-218.596	-200.000	0.004	-0.130
-217.582	485.141	0.097	-0.217
-216.567	-151.517	0.291	-0.021
-215.552	124.741	0.292	-0.360
-214.538	-129.126	-0.319	0.044
-213.523	-101.086	0.187	0.045
-212.509	128.865	0.170	-0.212
-211.494	59.878	-0.124	-0.120
-210.479	-200.000	-0.020	-0.470
-209.465	-200.000	-0.000	-0.251
-208.450	800.000	0.050	0.141
-207.436	800.000	-0.090	-0.281
-206.421	102.139	0.089	0.102
-205.406	-142.714	0.322	0.031
-204.392	1.586	-0.150	-0.105
-203.377	-54.484	0.261	0.115
-202.363	25.339	0.112	0.091
-201.348	139.575	-0.124	-0.159
-200.333	-200.000	-0.022	0.346
-199.319	-5.015	0.350	-0.235
-198.304	-160.972	-0.461	0.024
-197.290	-200.000	-0.041	0.280
-196.275	-195.814	-0.177	-0.001
-195.260	800.000	0.022	0.074
-194.246	151.761	-0.070	-0.094
-193.231	55.373	0.111	0.105
-192.217	152.177	-0.287	0.383
-191.202	-200.000	0.028	0.133
-190.187	-132.442	0.115	0.014
-189.173	27.264	-0.088	0.072
-188.158	800.000	-0.072	0.301
-187.144	-27.536	0.224	0.127
-186.129	-200.000	-0.098	-0.000
-185.114	-200.000	0.024	0.217
-184.100	-31.754	-0.141	-0.077
-183.085	-200.000	-0.015	-0.114
-182.071	196.948	0.177	-0.264
-181.056	-200.000	-0.095	-0.499
-180.042	-200.000	-0.061	0.281
-179.027	-57.512	-0.133	0.057
-178.012	264.059	-0.051	0.087
-176.998	336.800	0.046	-0.087
-175.983	-200.000	-0.075	-0.387
-174.969	-33.637	0.028	0.015
-173.954	264.565	0.032	-0.054
-172.939	8.545	-0.154	-0.113
-171.925	800.000	0.124	-0.487
-170.910	115.154	0.308	-0.367
-169.896	-74.542	-0.309	-0.109
-168.881	-148.001	0.408	0.033
-167.866	-200.000	0.039	-0.422
-166.852	800.000	0.106	-0.293
-165.837	-27.395	0.167	-0.095
-164.823	-200.000	0.008	-0.263
-163.808	298.355	0.157	-0.281
-162.793	-110.949	0.380	0.076
-161.779	312.615	-0.143	-0.263
-160.764	-39.725	-0.382	0.195
-159.750	-200.000	-0.006	0.070
-158.735	-7.157	0.226	0.150
-157.720	158.406	0.141	-0.191
-156.706	-43.658	-0.379	0.186
-155.691	800.000	0.172	0.510
-154.677	-48.668	-0.207	-0.097
-153.662	24.916	0.027	0.022
-152.647	-119.919	0.184	-0.031
-151.633	-109.896	0.193	0.040
-150.618	-83.360	0.337	0.105
-149.604	116.818	-0.171	0.205
-148.589	479.755	0.071	-0.157
-147.574	-145.870	-0.035	-0.003
-146.560	-200.000	-0.024	0.164
-145.545	42.817	-0.103	0.092
-144.531	-106.089	0.124	-0.027
-143.516	116.901	-0.234	0.281
-142.502	297.039	-0.032	0.058
-141.487	261.731	-0.140	-0.237
-140.472	391.939	0.127	-0.257
-139.458	-93.616	0.263	-0.071
-138.443	-81.892	-0.234	-0.075
-137.429	-151.340	-0.154	-0.011
-136.414	91.604	0.182	-0.199
-135.399	-67.717	0.314	0.120
-134.385	431.621	-0.102	0.216
-133.370	800.000	-0.127	-0.398
-132.356	-200.000	-0.066	-0.403
-131.341	800.000	-0.012	-0.037
-130.326	557.656	-0.120	0.282
-129.312	617.876	0.139	0.341
-128.297	167.638	-0.144	-0.199
-127.283	-139.263	-0.092	-0.010
-126.268	-200.000	0.060	-0.257
-125.253	18.695	0.140	-0.109
-124.239	800.000	-0.065	-0.276
-123.224	-200.000	-0.013	-0.144
-122.210	800.000	-0.026	-0.101
