DTS Sentinel unit serial number:	SN413079Multiplexer serial number:	ORYXHardware model number:	OX4-SRSoftware version number:	ORYX F/W v4.00 Oryx Data Collector v3.7.2.0data status	okinstallation	princeton_trtdifferential loss correction	single-endedforward channel	channel 2reverse channel	N/Adate	2019/09/17time	13:27:35forward acquisition time	60.00reverse acquisition time	0.00gamma	496.2192k internal	0.2317k external	0.2317temperature offset calibration	0.9986default loss term (dB/km)	0.3790temperature slope calibration	1.0000multiplexer offset coefficient	1.0000multiplexer slope coefficient	1.0000fibre end	0.00T internal ref (°C)	34.47T ext. ref 1 (°C)	0.41T ext. ref 2 (°C)	31.40length (m)	temperature (°C)	Stokes	anti-Stokes-747.200	-66.901	0.080	0.032
-746.185	-99.791	-0.243	0.062
-745.171	431.271	0.137	-0.300
-744.156	-88.403	0.121	-0.037
-743.142	23.703	-0.055	-0.046
-742.127	133.630	-0.137	0.180
-741.112	470.585	0.175	0.399
-740.098	-52.675	0.246	0.115
-739.083	58.996	-0.095	-0.094
-738.069	197.505	0.025	0.038
-737.054	197.421	0.075	-0.115
-736.039	170.863	-0.142	0.206
-735.025	-154.687	-0.277	-0.019
-734.010	71.033	-0.209	-0.219
-732.996	-200.000	-0.031	0.280
-731.981	115.085	0.228	-0.282
-730.966	-200.000	0.024	0.171
-729.952	-55.804	-0.134	-0.061
-728.937	759.762	-0.133	-0.365
-727.923	287.861	0.046	-0.084
-726.908	-33.558	0.263	-0.147
-725.894	341.645	-0.139	0.274
-724.879	800.000	0.086	-0.288
-723.864	130.610	0.280	-0.363
-722.850	790.136	-0.109	-0.303
-721.835	-200.000	0.006	-0.217
-720.821	127.806	0.142	-0.183
-719.806	-102.086	0.283	-0.069
-718.791	17.586	-0.285	-0.229
-717.777	342.857	-0.228	-0.452
-716.762	239.857	0.071	-0.119
-715.748	-200.000	-0.019	0.096
-714.733	-187.709	0.205	0.003
-713.718	91.059	0.196	0.223
-712.704	-200.000	-0.059	-0.274
-711.689	-31.986	0.219	-0.124
-710.675	31.665	-0.302	-0.263
-709.660	-200.000	-0.000	-0.366
-708.645	28.188	0.095	0.081
-707.631	-199.361	-0.117	0.001
-706.616	38.928	-0.176	-0.159
-705.602	19.845	-0.165	-0.134
-704.587	223.415	-0.189	0.308
-703.572	8.779	0.220	0.168
-702.558	75.611	-0.069	-0.073
-701.543	349.726	-0.074	0.147
-700.529	800.000	-0.042	-0.121
-699.514	-113.115	0.245	0.049
-698.499	800.000	0.091	-0.357
-697.485	-200.000	-0.009	-0.060
-696.470	75.499	0.073	0.077
-695.456	106.819	0.169	0.203
-694.441	634.918	0.112	-0.287
-693.426	-69.685	0.365	-0.141
-692.412	-200.000	-0.020	0.308
-691.397	-155.864	-0.185	0.012
-690.383	147.593	-0.153	0.209
-689.368	-85.808	-0.040	0.013
-688.354	242.565	-0.069	0.116
-687.339	-118.129	0.276	-0.050
-686.324	-200.000	-0.068	-0.334
-685.310	-200.000	-0.006	0.171
-684.295	-166.705	0.272	-0.011
-683.281	8.913	-0.345	0.263
-682.266	-135.716	0.093	0.011
-681.251	-42.263	-0.072	0.037
-680.237	-119.923	-0.188	-0.033
-679.222	-74.260	-0.158	-0.058
-678.208	595.866	0.119	-0.298
-677.193	800.000	0.149	-0.425
-676.178	-10.139	0.315	-0.211
-675.164	-95.773	-0.153	-0.041
-674.149	-42.624	0.411	0.211
-673.135	800.000	-0.119	0.345
-672.120	-66.755	0.177	-0.071
-671.105	54.712	-0.009	0.009
-670.091	-200.000	0.002	-0.188
-669.076	-68.341	-0.378	-0.148
-668.062	-200.000	0.034	-0.337
-667.047	325.970	-0.106	0.205
-666.032	800.000	0.111	0.326
-665.018	-200.000	-0.015	-0.070
-664.003	-30.535	0.137	-0.078
-662.989	-200.000	0.019	0.318
-661.974	-41.196	0.097	0.051
-660.959	-52.729	0.243	0.113
-659.945	800.000	0.059	-0.198
-658.930	-200.000	-0.013	0.064
-657.916	800.000	-0.115	-0.330
-656.901	-16.920	-0.126	0.080
-655.886	-61.142	-0.230	-0.098
-654.872	-200.000	0.027	-0.236
-653.857	-200.000	0.012	0.074
-652.843	800.000	0.030	0.107
-651.828	-53.790	-0.223	-0.103
-650.814	283.348	0.041	-0.074
-649.799	93.480	-0.062	0.070
-648.784	-63.335	-0.211	0.087
-647.770	-200.000	-0.015	0.148
-646.755	-30.762	-0.201	0.115
-645.741	374.314	-0.135	-0.278
-644.726	53.108	-0.016	0.015
-643.711	225.282	-0.159	-0.259
-642.697	-200.000	0.037	0.196
-641.682	151.427	-0.156	-0.214
-640.668	7.714	-0.200	-0.151
-639.653	-200.000	-0.003	0.102
-638.638	-200.000	-0.109	-0.567
-637.624	562.617	-0.117	-0.286
-636.609	-200.000	-0.027	-0.228
-635.595	-126.764	-0.269	-0.040
-634.580	-62.385	-0.269	0.113
-633.565	570.062	-0.146	0.357
-632.551	-31.568	-0.105	-0.059
-631.536	98.004	0.244	0.284
-630.522	126.196	-0.178	0.227
-629.507	-148.441	-0.520	0.043
-628.492	-97.253	0.159	0.042
-627.478	-200.000	-0.006	0.160
-626.463	800.000	-0.036	-0.116
-625.449	-200.000	-0.004	0.048
-624.434	-115.886	-0.111	0.021
-623.419	-200.000	-0.045	0.231
-622.405	800.000	-0.006	0.027
-621.390	-200.000	-0.016	0.172
-620.376	-87.911	0.124	0.037
-619.361	29.085	0.163	0.139
-618.346	-200.000	0.014	0.182
-617.332	-154.452	0.383	0.026
-616.317	111.763	-0.023	-0.028
-615.303	-10.285	-0.037	0.025
-614.288	-61.962	0.299	0.126
-613.273	-96.948	-0.195	0.051
-612.259	215.058	0.102	-0.162
-611.244	29.152	-0.311	-0.266
-610.230	-95.017	-0.056	-0.015
-609.215	-43.760	0.193	0.098
-608.201	-84.526	-0.206	-0.066
-607.186	-48.924	0.363	0.175
-606.171	-200.000	-0.056	0.393
-605.157	-47.268	-0.240	0.118
-604.142	-59.563	-0.080	0.035
-603.128	362.892	-0.059	-0.120
-602.113	800.000	-0.031	-0.103
-601.098	-200.000	-0.044	-0.472
-600.084	-37.398	-0.076	0.041
-599.069	800.000	-0.064	0.188
-598.055	-119.549	-0.161	0.028
-597.040	-38.094	-0.198	0.106
-596.025	338.015	0.152	-0.298
-595.011	-74.956	0.071	-0.026
-593.996	-68.023	-0.071	0.028
-592.982	-8.835	0.145	-0.098
-591.967	82.289	0.271	-0.296
-590.952	100.258	-0.205	0.239
-589.938	-154.639	-0.432	-0.029
-588.923	751.269	0.022	-0.059
-587.909	91.612	-0.134	0.151
-586.894	199.230	-0.080	0.123
-585.879	-100.520	0.065	-0.016
-584.865	209.960	0.108	-0.171
-583.850	57.671	-0.092	-0.091
-582.836	-110.648	-0.192	-0.040
-581.821	800.000	-0.037	0.123
-580.806	107.844	-0.070	0.084
-579.792	-105.796	-0.230	-0.052
-578.777	-76.524	-0.113	0.040
-577.763	769.296	-0.031	0.086
-576.748	-49.179	0.062	0.030
-575.733	-154.184	-0.125	0.008
-574.719	-89.845	-0.133	0.039
-573.704	15.813	-0.095	-0.075
-572.690	-95.669	0.140	-0.038
-571.675	-136.602	-0.389	-0.045
-570.661	-200.000	0.028	0.157
-569.646	-29.610	0.378	0.217
-568.631	71.976	0.224	0.234
-567.617	-200.000	-0.002	-0.087
-566.602	-105.857	0.087	0.020
-565.588	-184.137	0.256	-0.004
-564.573	-200.000	0.039	-0.192
-563.558	27.792	-0.022	-0.019
-562.544	94.232	-0.162	-0.185
-561.529	-131.663	-0.115	0.015
-560.515	-200.000	0.003	-0.150
-559.500	94.311	0.067	-0.076
-558.485	-3.294	-0.215	-0.151
-557.471	10.520	0.192	0.147
-556.456	-200.000	-0.005	-0.251
-555.442	109.692	-0.096	0.116
-554.427	800.000	0.019	-0.071
-553.412	-156.798	-0.116	0.007
-552.398	-200.000	-0.035	0.296
-551.383	-128.018	-0.041	0.006
-550.369	800.000	-0.058	-0.231
-549.354	330.186	-0.109	-0.210
-548.339	800.000	-0.012	-0.037
-547.325	-200.000	0.045	-0.379
-546.310	52.885	0.038	-0.036
-545.296	-155.003	-0.380	-0.025
-544.281	182.705	0.119	-0.177
-543.266	23.074	0.287	0.236
-542.252	-200.000	-0.000	0.128
-541.237	-156.921	-0.508	-0.031
-540.223	-200.000	-0.011	0.078
-539.208	-200.000	-0.067	-0.365
-538.193	-141.276	-0.219	-0.022
-537.179	315.295	0.129	0.244
-536.164	-11.969	-0.181	-0.119
-535.150	-110.162	0.068	-0.014
-534.135	-94.102	0.208	-0.057
-533.121	134.305	-0.132	0.172
-532.106	-147.075	-0.300	0.026
-531.091	-85.412	-0.409	0.128
-530.077	-200.000	0.024	0.255
-529.062	10.327	0.179	0.137
-528.048	-47.751	-0.230	-0.112
-527.033	-70.476	0.223	-0.085
-526.018	96.071	0.154	0.177
-525.004	-26.586	0.229	0.135
-523.989	-151.332	0.095	-0.007
-522.975	-200.000	0.015	-0.277
-521.960	-85.338	-0.087	0.027
-520.945	160.896	-0.084	-0.118
-519.931	455.472	-0.110	0.245
-518.916	800.000	0.049	-0.172
-517.902	23.711	-0.342	0.283
-516.887	800.000	-0.084	-0.235
-515.872	-200.000	0.028	0.167
-514.858	10.784	0.087	0.067
-513.843	-12.263	0.350	-0.230
-512.829	800.000	0.132	0.484
-511.814	-200.000	0.032	0.257
-510.799	730.793	-0.102	-0.274
-509.785	-200.000	-0.031	-0.136
-508.770	222.474	-0.111	-0.179
-507.756	-200.000	0.001	0.025
-506.741	800.000	-0.105	-0.325
-505.726	-200.000	-0.067	0.295
-504.712	450.317	-0.053	-0.117
-503.697	-25.154	0.237	-0.141
-502.683	-200.000	-0.064	0.320
-501.668	-27.184	0.164	-0.096
-500.653	-200.000	0.031	-0.342
-499.639	-101.234	0.146	0.036
-498.624	90.602	-0.163	0.183
-497.610	-200.000	0.097	0.564
-496.595	261.999	-0.129	0.225
-495.581	-23.788	-0.214	0.129
-494.566	-21.564	-0.159	0.097
-493.551	421.878	-0.032	-0.069
-492.537	11.045	0.329	-0.252
-491.522	-36.494	-0.028	-0.015
-490.508	-200.000	0.004	0.170
-489.493	120.660	-0.140	-0.174
-488.478	-34.977	-0.341	0.187
-487.464	461.499	-0.101	-0.225
-486.449	243.956	0.043	-0.073
-485.435	318.637	0.091	0.173
-484.420	43.951	0.206	-0.189
-483.405	-31.493	0.125	0.071
-482.391	-30.111	-0.108	0.061
-481.376	-200.000	0.001	-0.103
-480.362	800.000	-0.059	0.250
-479.347	-114.753	-0.142	-0.027
-478.332	298.484	-0.241	-0.445
-477.318	37.594	0.186	-0.166
-476.303	-200.000	0.011	-0.080
-475.289	-134.635	-0.163	0.020
-474.274	10.116	0.141	-0.107
-473.259	-84.958	0.319	-0.100
-472.245	-86.149	0.236	-0.073
-471.230	-111.197	0.054	0.011
-470.216	-160.881	0.317	-0.017
-469.201	713.590	0.151	-0.402
-468.186	-58.011	0.076	0.033
-467.172	22.056	-0.141	-0.115
-466.157	-200.000	0.016	0.286
-465.143	-87.307	0.270	-0.082
-464.128	-57.336	0.545	-0.240
-463.113	-200.000	-0.030	-0.135
-462.099	-64.892	-0.168	0.068
-461.084	-109.589	0.059	0.012
-460.070	-52.704	0.136	-0.063
-459.055	39.813	-0.193	-0.174
-458.040	343.862	-0.080	-0.157
-457.026	-43.863	0.149	-0.075
-456.011	39.813	0.278	0.250
-454.997	-196.389	0.116	0.001
-453.982	-118.090	0.144	-0.026
-452.968	65.671	0.081	0.082
-451.953	-200.000	-0.020	-0.134
-450.938	-200.000	-0.006	-0.119
-449.924	187.116	0.075	-0.111
-448.909	-50.026	0.120	-0.057
-447.895	311.643	0.057	0.107
-446.880	392.405	-0.119	-0.249
-445.865	34.554	0.353	-0.309
-444.851	43.728	0.292	-0.267
-443.836	611.949	0.119	-0.297
-442.822	-68.688	-0.286	-0.111
-441.807	-97.247	-0.292	-0.076
-440.792	-200.000	-0.001	0.079
-439.778	-39.204	-0.022	0.011
-438.763	-172.449	-0.181	-0.006
-437.749	-200.000	0.006	0.120
-436.734	-69.821	0.213	-0.081
-435.719	-54.845	0.244	0.110
-434.705	-69.986	-0.383	-0.146
-433.690	-200.000	-0.026	-0.148
-432.676	388.873	0.052	0.108
-431.661	-180.714	-0.355	-0.007
-430.646	229.117	0.063	-0.102
-429.632	-42.544	0.033	0.017
-428.617	-200.000	0.010	0.236
-427.603	-200.000	-0.039	-0.347
-426.588	-157.648	-0.039	-0.002
-425.573	-200.000	0.021	-0.186
-424.559	-7.193	0.111	-0.075
-423.544	-11.574	-0.275	0.180
-422.530	-200.000	0.010	0.137
-421.515	139.686	-0.049	-0.064
-420.500	-200.000	-0.025	-0.357
-419.486	-10.959	0.233	-0.153
-418.471	385.414	0.106	0.218
-417.457	-200.000	-0.020	0.242
-416.442	-200.000	-0.022	-0.107
-415.428	200.997	0.102	0.156
-414.413	-200.000	-0.055	0.286
-413.398	134.983	0.052	0.068
-412.384	-23.657	0.113	-0.068
-411.369	337.855	0.072	0.139
-410.355	1.964	-0.370	0.267
-409.340	191.141	-0.111	0.167
-408.325	-200.000	0.035	0.205
-407.311	-52.170	0.166	-0.077
-406.296	16.438	-0.131	-0.104
-405.282	-80.702	-0.023	-0.008
-404.267	-112.550	-0.226	0.045
-403.252	526.550	0.060	0.140
-402.238	-41.174	0.118	-0.061
-401.223	261.354	0.150	-0.259
-400.209	-200.000	-0.028	-0.124
-399.194	-200.000	0.004	0.086
-398.179	61.928	-0.089	-0.089
-397.165	-8.581	0.239	-0.160
-396.150	178.705	0.117	-0.170
-395.136	-67.003	0.181	0.071
-394.121	-92.221	-0.116	-0.033
-393.106	-87.830	0.089	-0.027
-392.092	267.680	0.103	-0.180
-391.077	225.239	0.182	-0.294
-390.063	-7.740	0.098	0.066
-389.048	-61.530	0.102	0.043
-388.033	-200.000	-0.029	-0.236
-387.019	106.732	-0.077	0.092
-386.004	495.138	0.070	0.160
-384.990	557.928	0.031	-0.076
-383.975	-89.138	0.330	0.097
-382.960	-189.193	-0.248	-0.003
-381.946	36.141	0.341	-0.300
-380.931	-22.489	0.097	-0.059
-379.917	-86.384	0.318	0.097
-378.902	245.816	0.144	0.242
-377.888	-15.170	-0.164	-0.105
-376.873	146.325	-0.235	0.315
-375.858	-61.367	0.179	0.075
-374.844	-14.486	-0.283	-0.182
-373.829	-132.301	-0.066	0.009
-372.815	-81.969	0.108	0.035
-371.800	160.037	-0.168	-0.233
-370.785	-41.116	-0.072	-0.037
-369.771	602.167	-0.042	0.104
-368.756	502.900	0.091	0.211
-367.742	-200.000	0.058	0.400
-366.727	-176.360	0.096	-0.002
-365.712	-31.242	-0.221	-0.124
-364.698	64.413	0.253	-0.255
-363.683	589.737	0.060	-0.148
-362.669	-118.694	-0.161	0.028
-361.654	29.031	0.058	0.049
-360.639	-27.354	0.300	0.174
-359.625	-166.807	-0.182	0.007
-358.610	-43.997	-0.149	0.075
-357.596	19.355	0.243	-0.195
-356.581	-200.000	0.041	0.293
-355.566	53.728	-0.224	0.215
-354.552	800.000	-0.033	0.094
-353.537	-183.835	-0.416	0.007
-352.523	800.000	0.078	0.233
-351.508	122.100	0.033	-0.042
-350.493	-66.805	-0.287	-0.113
-349.479	588.434	-0.013	-0.031
-348.464	-154.539	0.139	0.009
-347.450	92.919	-0.245	-0.276
-346.435	800.000	0.044	0.124
-345.420	326.898	-0.035	-0.067
-344.406	189.009	0.130	-0.194
-343.391	800.000	-0.082	-0.277
-342.377	-111.051	-0.243	0.050
-341.362	575.185	0.077	-0.186
-340.348	-200.000	0.036	-0.202
-339.333	339.420	-0.132	-0.257
-338.318	101.163	-0.042	-0.048
-337.304	386.318	-0.126	-0.259
-336.289	-60.512	0.128	0.054
-335.275	-200.000	0.036	-0.235
-334.260	-81.289	-0.286	-0.094
-333.245	-11.433	-0.218	0.143
-332.231	633.955	-0.031	0.079
-331.216	-200.000	0.020	-0.119
-330.202	-132.467	-0.270	0.035
-329.187	-200.000	-0.005	0.476
-328.172	571.029	-0.115	0.278
-327.158	76.798	-0.120	-0.127
-326.143	-200.000	-0.002	-0.120
-325.129	72.957	-0.099	0.103
-324.114	-97.618	-0.250	-0.065
-323.099	-113.577	0.356	-0.069
-322.085	-5.207	-0.021	-0.014
-321.070	-43.804	-0.204	-0.102
-320.056	88.152	-0.171	0.189
-319.041	-123.556	-0.209	-0.033
-318.026	171.668	-0.027	-0.038
-317.012	-200.000	0.040	0.202
-315.997	348.371	0.098	0.192
-314.983	-40.940	0.175	0.090
-313.968	800.000	0.038	0.149
-312.953	-200.000	0.012	-0.119
-311.939	49.228	0.320	-0.300
-310.924	211.523	-0.059	-0.092
-309.910	800.000	-0.032	-0.109
-308.895	-200.000	0.024	0.401
-307.880	-73.097	0.150	-0.055
-306.866	360.867	0.122	0.243
-305.851	363.575	-0.012	-0.023
-304.837	-134.860	-0.296	0.036
-303.822	-200.000	0.043	0.309
-302.807	495.470	-0.039	0.088
-301.793	47.247	-0.219	-0.203
-300.778	-91.956	-0.232	-0.065
-299.764	-75.973	0.181	-0.064
-298.749	-200.000	0.043	-0.192
-297.735	-200.000	-0.077	-0.381
-296.720	-91.461	0.360	0.102
-295.705	166.179	0.099	-0.140
-294.691	62.236	-0.077	-0.076
-293.676	-44.046	-0.090	-0.045
-292.662	-119.897	-0.026	-0.004
-291.647	79.153	0.202	-0.216
-290.632	-78.079	0.300	-0.103
-289.618	-96.593	-0.125	-0.033
-288.603	-56.742	-0.226	0.100
-287.589	96.577	0.049	0.056
-286.574	-65.907	-0.172	0.068
-285.559	-99.794	0.177	-0.044
-284.545	34.480	-0.150	-0.130
-283.530	12.791	-0.275	0.212
-282.516	800.000	-0.046	0.187
-281.501	-200.000	0.037	0.248
-280.486	800.000	0.016	-0.049
-279.472	-113.001	-0.232	0.046
-278.457	-199.930	0.279	0.001
-277.443	7.880	-0.206	-0.153
-276.428	-20.430	-0.144	0.088
-275.413	-72.409	0.370	0.136
-274.399	107.946	0.145	0.172
-273.384	-66.798	-0.065	0.026
-272.370	82.066	0.418	0.450
-271.355	-200.000	-0.042	0.191
-270.340	98.980	0.318	0.365
-269.326	-96.202	-0.201	-0.053
-268.311	150.666	-0.077	0.104
-267.297	-98.146	0.153	-0.039
-266.282	99.431	0.106	-0.122
-265.267	42.495	0.055	-0.049
-264.253	800.000	-0.081	-0.235
-263.238	800.000	0.041	-0.178
-262.224	-43.888	-0.033	-0.017
-261.209	340.629	-0.069	-0.134
-260.195	507.467	-0.060	-0.138
-259.180	-106.728	-0.308	-0.068
-258.165	-200.000	-0.010	0.108
-257.151	290.309	-0.021	-0.038
-256.136	-200.000	0.025	-0.456
-255.122	-5.136	0.226	0.154
-254.107	-200.000	-0.025	0.399
-253.092	-69.273	-0.351	0.134
-252.078	164.100	0.117	0.164
-251.063	-81.774	0.136	0.044
-250.049	146.895	0.130	-0.174
-249.034	-200.000	0.003	-0.029
-248.019	-156.765	-0.072	-0.004
-247.005	-121.633	0.308	-0.051
-245.990	588.731	0.125	-0.305
-244.976	-1.181	-0.252	0.177
-243.961	85.824	0.131	-0.143
-242.946	91.881	0.122	0.136
-241.932	27.691	0.367	0.307
-240.917	-178.361	0.210	-0.005
-239.903	-46.766	0.073	0.036
-238.888	-11.588	0.139	-0.091
-237.873	43.072	0.286	-0.259
-236.859	-46.288	0.315	-0.154
-235.844	-94.629	-0.289	-0.078
-234.830	406.970	-0.147	0.307
-233.815	-1.371	-0.238	-0.167
-232.800	178.915	0.195	0.283
-231.786	312.170	0.087	0.161
-230.771	800.000	0.035	-0.099
-229.757	800.000	0.014	-0.048
-228.742	268.358	0.222	0.386
-227.727	-127.133	0.315	-0.046
-226.713	695.338	-0.080	-0.209
-225.698	31.682	-0.119	-0.102
-224.684	-117.244	0.286	-0.052
-223.669	-41.061	0.298	0.153
-222.655	77.811	0.203	0.214
-221.640	-200.000	0.014	0.068
-220.625	441.152	-0.114	-0.246
-219.611	477.434	-0.035	-0.079
-218.596	77.140	-0.181	-0.190
-217.582	-111.945	0.172	-0.034
-216.567	-200.000	-0.079	0.410
-215.552	0.918	0.268	0.190
-214.538	785.137	0.088	0.240
-213.523	237.315	-0.097	0.160
-212.509	35.717	-0.128	-0.112
-211.494	328.889	-0.150	0.286
-210.479	-72.374	-0.109	0.040
-209.465	-27.427	-0.190	-0.109
-208.450	170.295	-0.089	-0.126
-207.436	-173.271	0.313	-0.009
-206.421	-200.000	-0.003	0.194
-205.406	-13.279	0.063	-0.040
-204.392	-200.000	-0.000	-0.035
-203.377	-200.000	0.000	-0.050
-202.363	-200.000	-0.020	-0.121
-201.348	238.890	-0.106	0.174
-200.333	-200.000	0.028	0.147
-199.319	-173.286	0.343	-0.010
-198.304	800.000	0.059	-0.208
-197.290	-137.742	-0.340	-0.038
-196.275	800.000	-0.045	-0.140
-195.260	772.527	0.020	0.053
-194.246	10.712	-0.143	0.108
-193.231	800.000	0.020	0.066
-192.217	197.620	0.006	0.009
-191.202	596.888	-0.093	0.229
-190.187	-24.553	0.289	0.170
-189.173	-41.666	0.350	0.178
-188.158	98.178	-0.212	0.242
-187.144	131.167	0.157	0.200
-186.129	-122.002	0.307	-0.050
-185.114	18.970	-0.160	-0.127
-184.100	49.521	0.268	0.250
-183.085	-159.053	-0.200	-0.011
-182.071	103.834	0.233	0.271
-181.056	294.644	0.026	-0.046
-180.042	-200.000	0.007	-0.262
-179.027	44.379	-0.087	0.079
-178.012	-67.059	-0.243	-0.095
-176.998	800.000	0.087	0.370
-175.983	597.742	0.086	-0.212
-174.969	-200.000	0.058	0.357
-173.954	85.838	-0.190	-0.207
-172.939	-156.431	-0.263	-0.016
-171.925	-31.537	-0.261	0.145
-170.910	140.578	-0.144	0.189
-169.896	-196.608	0.273	0.002
-168.881	-86.817	0.264	0.080
-167.866	-174.466	-0.135	-0.004
-166.852	-200.000	-0.009	-0.188
-165.837	-132.625	-0.099	-0.013
-164.823	49.073	0.184	-0.171
-163.808	-146.409	0.203	0.018
-162.793	-143.034	-0.459	-0.044
-161.779	-133.624	0.249	0.031
-160.764	-200.000	0.240	0.001
-159.750	800.000	0.025	0.099
-158.735	9.864	0.246	-0.185
-157.720	-143.073	-0.097	0.009
-156.706	-200.000	0.001	-0.189
-155.691	90.298	-0.136	-0.151
-154.677	-26.251	-0.111	-0.064
-153.662	108.316	0.229	0.270
-152.647	-120.434	0.357	-0.060
-151.633	486.841	0.067	0.151
-150.618	102.890	0.158	0.183
-149.604	-200.000	0.019	-0.126
-148.589	-60.410	0.154	-0.065
-147.574	-68.616	0.118	0.045
-146.560	800.000	-0.059	-0.221
-145.545	201.229	-0.222	0.338
-144.531	800.000	0.026	-0.093
-143.516	800.000	-0.137	-0.413
-142.502	-200.000	-0.039	-0.339
-141.487	800.000	-0.077	-0.293
-140.472	-200.000	-0.017	-0.225
-139.458	79.577	0.181	-0.192
-138.443	800.000	0.114	-0.468
-137.429	285.774	-0.133	-0.238
-136.414	426.910	-0.096	-0.205
-135.399	-47.502	0.223	0.107
-134.385	-120.009	0.138	0.023
-133.370	-110.871	0.291	0.059
-132.356	-200.000	0.047	-0.623
-131.341	8.552	-0.122	-0.091
-130.326	-200.000	0.023	-0.196
-129.312	-108.489	-0.215	-0.046
-128.297	-48.033	0.268	0.128
-127.283	-200.000	0.017	0.413
-126.268	-31.181	0.160	0.089
-125.253	-105.254	-0.116	-0.026
-124.239	-11.380	0.436	-0.284
-123.224	-12.961	-0.057	0.037
