DTS Sentinel unit serial number:	SN413079Multiplexer serial number:	ORYXHardware model number:	OX4-SRSoftware version number:	ORYX F/W v4.00 Oryx Data Collector v3.7.2.0data status	okinstallation	princeton_trtdifferential loss correction	single-endedforward channel	channel 2reverse channel	N/Adate	2019/09/11time	11:57:11forward acquisition time	60.00reverse acquisition time	0.00gamma	496.2192k internal	0.2300k external	0.2300temperature offset calibration	0.9969default loss term (dB/km)	0.3790temperature slope calibration	1.0000multiplexer offset coefficient	1.0000multiplexer slope coefficient	1.0000fibre end	0.00T internal ref (°C)	39.14T ext. ref 1 (°C)	0.19T ext. ref 2 (°C)	37.11length (m)	temperature (°C)	Stokes	anti-Stokes-747.200	292.094	0.180	-0.335
-746.185	306.436	-0.189	0.359
-745.171	-200.000	-0.060	0.320
-744.156	39.906	-0.202	0.185
-743.142	160.215	0.099	0.141
-742.127	-7.412	0.303	-0.210
-741.112	54.236	-0.393	-0.386
-740.098	-55.838	-0.049	0.022
-739.083	-15.094	0.294	-0.192
-738.069	254.167	-0.105	0.182
-737.054	-200.000	-0.045	0.213
-736.039	-113.241	-0.274	0.055
-735.025	-200.000	-0.001	0.202
-734.010	-9.820	-0.298	0.202
-732.996	58.942	-0.144	-0.145
-731.981	-132.387	-0.380	-0.050
-730.966	332.521	-0.152	0.299
-729.952	767.022	-0.062	-0.171
-728.937	-200.000	-0.006	0.265
-727.923	99.215	-0.052	0.061
-726.908	344.514	-0.137	-0.275
-725.894	-171.712	0.132	0.004
-724.879	201.484	-0.259	-0.407
-723.864	7.351	0.078	0.060
-722.850	-37.166	-0.484	-0.264
-721.835	56.403	-0.362	0.359
-720.821	-8.765	-0.167	-0.114
-719.806	-57.555	-0.172	-0.077
-718.791	-108.898	0.121	0.026
-717.777	-37.142	-0.340	0.186
-716.762	-19.595	-0.056	0.035
-715.748	-11.339	0.238	-0.160
-714.733	257.795	0.073	0.128
-713.718	636.144	0.058	0.150
-712.704	800.000	-0.015	0.043
-711.689	241.523	-0.062	-0.106
-710.675	-129.517	-0.157	-0.022
-709.660	57.964	-0.077	0.077
-708.645	-200.000	0.029	-0.356
-707.631	-200.000	0.011	-0.325
-706.616	-54.142	-0.222	0.103
-705.602	-200.000	-0.005	-0.137
-704.587	40.745	0.172	-0.158
-703.572	546.357	0.036	0.087
-702.558	44.274	0.163	0.152
-701.543	-200.000	-0.035	0.206
-700.529	-84.199	0.131	0.042
-699.514	40.944	0.075	-0.069
-698.499	-200.000	0.010	-0.174
-697.485	-164.306	-0.343	-0.016
-696.470	-82.903	0.145	-0.048
-695.456	-22.589	0.319	-0.196
-694.441	144.554	0.145	-0.197
-693.426	148.905	-0.060	0.083
-692.412	-19.291	0.125	-0.079
-691.397	205.777	-0.129	0.204
-690.383	436.983	0.077	-0.170
-689.368	191.477	0.042	-0.065
-688.354	-200.000	-0.020	0.163
-687.339	-178.420	-0.120	-0.003
-686.324	-117.073	-0.322	-0.060
-685.310	88.894	-0.316	-0.358
-684.295	393.142	-0.046	-0.097
-683.281	-5.374	-0.087	-0.061
-682.266	800.000	0.124	0.355
-681.251	-79.074	-0.373	-0.129
-680.237	288.345	0.105	0.193
-679.222	172.072	-0.144	-0.211
-678.208	-200.000	0.109	-0.000
-677.193	-148.204	-0.388	0.033
-676.178	-49.760	-0.205	-0.099
-675.164	21.185	-0.349	0.288
-674.149	-2.301	-0.044	0.031
-673.135	-31.790	0.252	-0.144
-672.120	-125.328	-0.273	-0.042
-671.105	-200.000	-0.018	0.219
-670.091	86.691	-0.113	0.127
-669.076	-138.319	0.182	-0.020
-668.062	-122.365	0.178	0.030
-667.047	85.958	-0.103	-0.115
-666.032	-91.093	0.114	-0.033
-665.018	284.184	-0.101	0.185
-664.003	800.000	0.011	0.044
-662.989	-144.319	0.263	-0.025
-661.974	320.976	-0.087	0.169
-660.959	-27.583	-0.178	-0.105
-659.945	-73.745	-0.087	0.032
-658.930	-102.404	0.443	0.108
-657.916	-51.534	-0.115	-0.055
-656.901	121.950	0.126	0.160
-655.886	-85.502	-0.183	0.058
-654.872	416.508	0.053	-0.115
-653.857	-200.000	0.065	0.341
-652.843	-157.975	-0.277	0.017
-651.828	-70.485	0.091	0.035
-650.814	-95.782	0.228	0.062
-649.799	21.487	-0.079	-0.065
-648.784	-68.003	-0.184	0.073
-647.770	-200.000	0.045	0.261
-646.755	98.345	-0.135	0.158
-645.741	-0.830	0.137	-0.099
-644.726	-61.888	0.080	0.034
-643.711	-200.000	0.020	0.510
-642.697	800.000	-0.021	0.085
-641.682	-151.289	-0.209	0.016
-640.668	-30.753	-0.150	-0.086
-639.653	-200.000	0.005	-0.318
-638.638	39.105	-0.093	0.085
-637.624	-7.034	-0.132	0.091
-636.609	46.341	0.140	0.132
-635.595	-12.813	0.175	-0.116
-634.580	224.979	-0.071	-0.117
-633.565	78.870	0.200	0.217
-632.551	186.639	-0.121	-0.182
-631.536	145.276	-0.247	-0.336
-630.522	800.000	0.102	0.373
-629.507	-80.524	0.088	-0.030
-628.492	-200.000	0.053	-0.340
-627.478	-104.148	0.251	0.059
-626.463	-200.000	0.002	0.097
-625.449	4.881	-0.206	-0.154
-624.434	800.000	-0.046	-0.157
-623.419	11.152	0.200	-0.155
-622.405	-76.831	0.281	-0.100
-621.390	20.560	0.262	-0.215
-620.376	-200.000	-0.028	-0.292
-619.361	800.000	-0.057	-0.245
-618.346	-200.000	-0.022	0.224
-617.332	-110.101	0.286	-0.061
-616.317	406.822	-0.040	-0.085
-615.303	800.000	0.114	-0.359
-614.288	-111.209	-0.183	-0.038
-613.273	187.101	0.113	0.171
-612.259	800.000	-0.050	0.155
-611.244	64.507	0.125	0.128
-610.230	-7.219	0.136	0.094
-609.215	-37.044	-0.355	-0.193
-608.201	-200.000	-0.001	-0.139
-607.186	171.681	0.120	0.175
-606.171	51.278	-0.054	0.052
-605.157	-165.325	-0.193	-0.009
-604.142	-200.000	-0.029	0.174
-603.128	86.741	-0.193	-0.216
-602.113	-65.632	-0.126	0.051
-601.098	-200.000	0.017	-0.136
-600.084	-100.090	0.173	-0.044
-599.069	270.976	-0.082	-0.147
-598.055	-101.121	-0.197	0.049
-597.040	-38.408	-0.046	0.025
-596.025	269.832	-0.173	0.307
-595.011	-107.459	-0.209	-0.046
-593.996	143.881	0.175	-0.236
-592.982	-200.000	0.003	-0.013
-591.967	7.146	-0.205	-0.155
-590.952	-200.000	0.052	-0.257
-589.938	-200.000	0.044	-0.286
-588.923	-200.000	0.013	-0.173
-587.909	247.558	-0.079	-0.135
-586.894	800.000	0.081	0.247
-585.879	165.862	0.087	-0.125
-584.865	-72.171	-0.231	-0.087
-583.850	-14.331	-0.097	0.063
-582.836	-103.751	-0.256	-0.061
-581.821	-115.957	-0.159	0.030
-580.806	4.419	0.116	0.086
-579.792	-100.983	0.276	0.069
-578.777	-48.605	0.086	0.042
-577.763	-200.000	0.035	0.454
-576.748	-200.000	-0.008	-0.250
-575.733	32.448	-0.110	-0.096
-574.719	19.742	-0.195	0.159
-573.704	-200.000	0.017	-0.257
-572.690	-156.195	0.298	0.019
-571.675	-79.255	0.177	-0.061
-570.661	-200.000	-0.025	-0.186
-569.646	-103.348	-0.166	-0.040
-568.631	800.000	-0.102	0.300
-567.617	-200.000	0.008	-0.150
-566.602	800.000	-0.078	-0.322
-565.588	800.000	0.039	0.140
-564.573	-12.698	0.035	0.023
-563.558	-120.976	0.143	0.024
-562.544	-25.288	0.061	0.036
-561.529	-61.790	-0.127	-0.054
-560.515	800.000	-0.200	-0.594
-559.500	800.000	-0.114	-0.467
-558.485	-200.000	0.053	-0.273
-557.471	-200.000	-0.068	0.457
-556.456	-107.884	0.269	0.059
-555.442	-2.176	0.354	0.252
-554.427	-39.585	-0.346	-0.183
-553.412	685.750	-0.072	0.190
-552.398	136.824	-0.129	-0.171
-551.383	-200.000	-0.045	0.330
-550.369	-200.000	0.009	0.215
-549.354	84.706	0.171	0.189
-548.339	-15.221	-0.206	-0.134
-547.325	177.838	0.066	-0.097
-546.310	49.161	0.188	0.179
-545.296	-200.000	-0.022	0.117
-544.281	-172.210	0.173	-0.006
-543.266	165.740	-0.039	0.056
-542.252	162.452	0.097	-0.138
-541.237	35.917	0.184	0.164
-540.223	-200.000	-0.016	0.236
-539.208	-15.883	-0.089	-0.058
-538.193	800.000	-0.118	-0.355
-537.179	-92.277	0.099	-0.028
-536.164	800.000	-0.054	0.169
-535.150	800.000	0.049	-0.210
-534.135	-130.420	0.258	0.035
-533.121	-78.754	-0.170	-0.059
-532.106	70.892	-0.104	-0.109
-531.091	-18.586	-0.066	0.042
-530.077	-24.299	0.337	-0.203
-529.062	-200.000	-0.043	0.244
-528.048	0.585	0.096	-0.070
-527.033	35.905	0.270	0.241
-526.018	98.626	-0.095	0.111
-525.004	85.755	-0.225	-0.250
-523.989	-86.250	-0.207	0.065
-522.975	-200.000	-0.013	0.127
-521.960	48.789	-0.140	-0.133
-520.945	125.005	-0.127	-0.162
-519.931	143.701	0.042	-0.057
-518.916	175.533	0.144	0.210
-517.902	-55.845	-0.227	-0.103
-516.887	800.000	0.088	-0.297
-515.872	-125.674	-0.112	-0.017
-514.858	-49.640	0.121	0.058
-513.843	46.710	-0.266	-0.249
-512.829	-200.000	-0.006	0.140
-511.814	7.756	-0.109	0.083
-510.799	20.033	0.082	-0.067
-509.785	129.634	0.138	-0.178
-508.770	4.326	-0.100	0.074
-507.756	755.651	0.112	-0.307
-506.741	32.420	0.015	-0.013
-505.726	-200.000	-0.055	-0.243
-504.712	-0.339	0.047	-0.034
-503.697	-41.216	-0.100	0.052
-502.683	-200.000	0.097	0.000
-501.668	-126.820	-0.107	-0.016
-500.653	-200.000	0.007	0.279
-499.639	-27.334	0.312	0.184
-498.624	71.340	0.059	0.061
-497.610	-62.430	-0.270	-0.113
-496.595	173.097	0.201	-0.293
-495.581	29.375	0.138	0.118
-494.566	24.017	0.135	0.113
-493.551	136.468	0.314	-0.414
-492.537	98.319	-0.168	-0.196
-491.522	177.709	0.151	-0.222
-490.508	-200.000	0.110	0.000
-489.493	-49.313	0.332	-0.160
-488.478	168.609	0.263	0.379
-487.464	-171.339	-0.114	-0.004
-486.449	73.742	0.196	-0.207
-485.435	-71.756	0.373	-0.140
-484.420	-51.140	-0.390	-0.185
-483.405	800.000	-0.045	-0.151
-482.391	-109.907	0.101	0.021
-481.376	800.000	-0.062	-0.186
-480.362	-111.329	-0.463	-0.095
-479.347	800.000	-0.091	0.330
-478.332	-19.808	0.143	-0.089
-477.318	-200.000	-0.024	-0.180
-476.303	-5.617	0.317	-0.219
-475.289	-9.612	-0.269	-0.181
-474.274	175.058	-0.178	-0.260
-473.259	-63.912	0.217	0.089
-472.245	545.555	-0.018	0.044
-471.230	409.972	-0.035	0.074
-470.216	58.622	0.227	-0.225
-469.201	-59.768	-0.112	0.048
-468.186	800.000	-0.010	-0.044
-467.172	-200.000	-0.005	0.027
-466.157	800.000	0.040	-0.159
-465.143	-5.836	-0.138	0.095
-464.128	-107.368	-0.268	-0.059
-463.113	-168.937	0.424	0.016
-462.099	-78.764	0.253	0.087
-461.084	-70.997	0.299	0.113
-460.070	-180.878	-0.086	0.002
-459.055	-3.295	-0.320	0.225
-458.040	763.156	0.173	-0.474
-457.026	-69.385	0.185	-0.072
-456.011	17.479	-0.246	-0.197
-454.997	-200.000	-0.057	-0.373
-453.982	-200.000	-0.010	-0.214
-452.968	800.000	0.034	0.102
-451.953	800.000	0.047	0.165
-450.938	-200.000	-0.005	-0.135
-449.924	-122.870	0.119	0.019
-448.909	-5.205	-0.032	-0.022
-447.895	367.454	0.050	0.103
-446.880	-125.600	-0.359	0.055
-445.865	-200.000	0.030	-0.270
-444.851	122.571	-0.153	-0.193
-443.836	262.666	-0.125	-0.218
-442.822	-60.442	-0.171	0.073
-441.807	208.422	0.101	0.160
-440.792	722.988	-0.058	0.156
-439.778	-200.000	0.027	-0.233
-438.763	-79.405	-0.171	-0.058
-437.749	123.403	-0.187	0.236
-436.734	800.000	0.047	0.206
-435.719	-120.336	-0.304	0.052
-434.705	-112.199	-0.186	0.038
-433.690	-74.898	-0.073	0.026
-432.676	-170.233	-0.179	0.006
-431.661	153.680	0.100	0.138
-430.646	254.097	0.023	-0.040
-429.632	-86.668	-0.096	-0.030
-428.617	-200.000	0.008	0.217
-427.603	-39.159	0.181	-0.096
-426.588	-200.000	0.027	0.567
-425.573	-79.757	0.390	0.132
-424.559	-34.326	0.020	0.011
-423.544	-200.000	-0.017	0.095
-422.530	-200.000	0.007	-0.042
-421.515	800.000	-0.009	0.033
-420.500	-68.067	-0.046	0.018
-419.486	624.321	0.058	-0.146
-418.471	6.681	0.057	0.043
-417.457	800.000	0.013	-0.041
-416.442	-200.000	0.027	0.277
-415.428	96.924	0.175	0.202
-414.413	259.609	0.111	-0.193
-413.398	-200.000	-0.004	0.037
-412.384	49.118	0.181	-0.171
-411.369	51.437	0.132	-0.126
-410.355	187.784	0.125	0.187
-409.340	-6.933	-0.134	0.092
-408.325	526.192	0.147	0.348
-407.311	284.909	-0.114	-0.206
-406.296	707.230	0.037	0.100
-405.282	800.000	0.043	-0.143
-404.267	123.412	0.060	0.075
-403.252	5.602	-0.089	0.066
-402.238	-200.000	-0.009	-0.229
-401.223	-137.857	0.165	-0.019
-400.209	617.740	-0.018	0.046
-399.194	508.453	-0.129	-0.301
-398.179	-114.191	-0.065	0.013
-397.165	84.316	-0.084	-0.092
-396.150	26.718	-0.207	-0.174
-395.136	-72.416	-0.297	0.110
-394.121	-88.815	-0.256	-0.077
-393.106	800.000	0.046	-0.152
-392.092	64.430	0.186	0.188
-391.077	-23.182	-0.253	0.153
-390.063	137.603	0.085	-0.112
-389.048	-88.898	-0.251	0.075
-388.033	-200.000	0.039	0.220
-387.019	-200.000	-0.023	0.166
-386.004	234.020	0.161	-0.267
-384.990	-129.511	-0.264	-0.037
-383.975	-126.789	0.207	-0.031
-382.960	-138.762	-0.151	0.017
-381.946	78.046	-0.079	-0.085
-380.931	452.885	0.076	-0.170
-379.917	-107.851	-0.190	0.042
-378.902	-200.000	-0.028	-0.143
-377.888	-200.000	0.056	-0.297
-376.873	80.045	-0.241	-0.260
-375.858	212.038	0.177	0.281
-374.844	212.239	-0.192	-0.304
-373.829	79.109	-0.082	0.089
-372.815	-200.000	-0.026	-0.285
-371.800	60.786	-0.298	0.297
-370.785	-200.000	0.080	0.453
-369.771	-200.000	-0.067	-0.491
-368.756	221.286	0.049	0.080
-367.742	-16.635	-0.188	-0.120
-366.727	54.618	0.182	0.177
-365.712	-151.585	-0.024	-0.002
-364.698	-53.419	-0.148	-0.068
-363.683	-200.000	-0.006	-0.129
-362.669	57.467	-0.108	0.106
-361.654	32.191	-0.138	-0.119
-360.639	419.537	0.092	-0.197
-359.625	-165.403	0.273	-0.012
-358.610	20.086	-0.277	0.224
-357.596	-157.186	-0.090	-0.005
-356.581	221.538	0.114	-0.184
-355.566	317.043	0.136	0.258
-354.552	87.595	0.158	0.176
-353.537	800.000	-0.039	-0.116
-352.523	-144.668	-0.064	-0.006
-351.508	135.621	-0.109	0.143
-350.493	-200.000	0.018	0.092
-349.479	-28.954	-0.177	-0.102
-348.464	800.000	0.031	-0.105
-347.450	65.551	0.177	0.180
-346.435	-200.000	-0.050	-0.327
-345.420	68.621	0.368	-0.379
-344.406	-95.306	0.175	-0.047
-343.391	-18.109	-0.391	0.246
-342.377	29.083	0.103	-0.088
-341.362	-200.000	0.006	-0.031
-340.348	-200.000	0.020	0.356
-339.333	107.092	0.315	0.376
-338.318	800.000	-0.033	-0.112
-337.304	-123.014	0.131	-0.021
-336.289	800.000	0.045	-0.155
-335.275	800.000	0.059	0.218
-334.260	-200.000	-0.064	0.367
-333.245	-12.441	0.242	-0.158
-332.231	-200.000	0.019	-0.285
-331.216	-139.156	-0.304	0.033
-330.202	-14.308	0.095	-0.061
-329.187	800.000	-0.123	0.343
-328.172	-68.179	0.054	0.021
-327.158	-200.000	0.017	-0.168
-326.143	-11.493	0.280	-0.184
-325.129	127.304	-0.134	0.171
-324.114	173.949	0.135	0.196
-323.099	398.079	-0.132	0.277
-322.085	-118.728	-0.462	0.082
-321.070	94.642	0.066	0.075
-320.056	-167.340	0.161	0.007
-319.041	-200.000	0.000	-0.188
-318.026	8.141	-0.090	0.068
-317.012	-200.000	-0.041	0.323
-315.997	-19.003	-0.138	-0.086
-314.983	-14.130	-0.268	-0.173
-313.968	2.037	0.276	-0.200
-312.953	800.000	-0.109	0.423
-311.939	-200.000	-0.023	0.206
-310.924	515.465	-0.123	-0.288
-309.910	800.000	0.033	-0.108
-308.895	-102.949	0.425	0.101
-307.880	-165.705	-0.082	0.004
-306.866	-108.863	0.114	-0.024
-305.851	99.837	0.128	-0.148
-304.837	84.983	0.080	-0.087
-303.822	-129.705	-0.145	0.020
-302.807	-125.159	0.177	-0.027
-301.793	-4.644	0.136	0.094
-300.778	-200.000	0.005	-0.222
-299.764	405.851	-0.102	-0.217
-298.749	-71.168	-0.170	-0.064
-297.735	11.993	0.138	0.106
-296.720	-55.681	-0.314	0.141
-295.705	71.878	-0.055	0.057
-294.691	-129.183	0.268	0.038
-293.676	-19.522	0.147	-0.091
-292.662	800.000	0.064	-0.196
-291.647	-200.000	0.029	-0.201
-290.632	21.717	-0.252	0.206
-289.618	800.000	-0.097	0.389
-288.603	-200.000	0.018	0.542
-287.589	-68.564	0.388	0.151
-286.574	78.607	0.161	-0.172
-285.559	-200.000	0.015	0.358
-284.545	44.116	-0.107	0.098
-283.530	-142.620	-0.086	-0.008
-282.516	-26.309	-0.104	-0.061
-281.501	-109.043	0.242	0.052
-280.486	800.000	0.035	-0.145
-279.472	-132.532	0.287	0.037
-278.457	-41.970	0.058	-0.030
-277.443	-42.972	-0.344	0.175
-276.428	-120.853	-0.300	0.051
-275.413	-90.889	0.304	-0.088
-274.399	155.102	-0.122	0.168
-273.384	555.153	-0.115	-0.278
-272.370	-189.993	0.092	-0.001
-271.355	-200.000	0.067	0.341
-270.340	-150.629	0.394	0.030
-269.326	-81.198	0.098	0.032
-268.311	-153.270	-0.297	-0.021
-267.297	-80.652	-0.337	-0.112
-266.282	89.694	0.187	0.209
-265.267	-30.406	0.448	-0.255
-264.253	-29.159	-0.304	0.175
-263.238	-101.714	-0.349	0.085
-262.224	613.660	-0.050	0.125
-261.209	800.000	0.022	-0.073
-260.195	24.069	0.145	0.120
-259.180	-111.931	0.500	-0.101
-258.165	29.363	-0.041	-0.035
-257.151	59.833	0.046	-0.046
-256.136	23.824	0.327	-0.269
-255.122	686.987	-0.062	0.162
-254.107	351.287	0.042	-0.084
-253.092	-123.239	0.231	-0.037
-252.078	784.756	0.101	0.277
-251.063	-200.000	0.028	0.190
-250.049	-200.000	0.052	0.314
-249.034	-19.135	-0.318	-0.198
-248.019	-66.352	-0.165	-0.066
-247.005	-17.858	-0.074	-0.046
-245.990	99.539	-0.081	-0.093
-244.976	-200.000	-0.018	0.156
-243.961	-30.613	0.298	-0.169
-242.946	-48.909	0.208	-0.100
-241.932	12.034	0.125	0.096
-240.917	73.362	0.134	0.140
-239.903	-119.622	-0.217	-0.038
-238.888	125.862	-0.327	0.413
-237.873	128.715	-0.096	0.123
-236.859	-166.921	0.278	0.011
-235.844	31.460	0.195	0.167
-234.830	85.283	-0.106	0.116
-233.815	-123.394	0.313	0.050
-232.800	800.000	-0.119	-0.385
-231.786	800.000	-0.021	0.075
-230.771	360.493	-0.170	0.341
-229.757	-114.038	-0.143	-0.028
-228.742	131.915	-0.169	0.218
-227.727	796.992	0.058	-0.159
-226.713	107.934	-0.129	-0.154
-225.698	-141.883	-0.344	0.034
-224.684	117.276	-0.226	0.278
-223.669	800.000	0.048	0.182
-222.655	152.196	0.113	0.153
-221.640	303.537	0.172	-0.319
-220.625	800.000	0.080	0.227
-219.611	314.000	-0.052	-0.097
-218.596	-70.249	0.216	0.082
-217.582	-126.317	-0.260	-0.039
-216.567	-99.871	0.262	0.065
-215.552	111.620	0.232	0.280
-214.538	109.870	0.064	0.076
-213.523	391.294	0.098	0.204
-212.509	-200.000	-0.078	0.461
-211.494	35.647	0.142	0.124
-210.479	-15.280	-0.453	-0.290
-209.465	-157.161	-0.213	0.013
-208.450	-31.694	0.147	0.082
-207.436	4.075	-0.141	-0.103
-206.421	92.816	-0.367	-0.414
-205.406	-104.211	-0.003	0.001
-204.392	-200.000	0.005	0.077
-203.377	-89.587	0.187	0.055
-202.363	137.089	0.075	0.098
-201.348	-88.166	-0.205	0.061
-200.333	-200.000	0.001	0.294
-199.319	-93.297	0.153	0.042
-198.304	-115.010	0.146	-0.028
-197.290	160.810	-0.087	-0.121
-196.275	44.586	0.146	0.134
-195.260	-162.496	0.315	-0.016
-194.246	-200.000	-0.017	-0.267
-193.231	100.197	0.370	0.428
-192.217	219.525	0.101	0.162
-191.202	-37.920	-0.271	-0.144
-190.187	-200.000	-0.052	-0.232
-189.173	-169.501	-0.374	0.014
-188.158	-19.287	-0.120	-0.075
-187.144	-200.000	0.009	-0.046
-186.129	-94.866	0.319	-0.086
-185.114	97.029	-0.019	-0.022
-184.100	-62.300	0.047	0.020
-183.085	800.000	-0.044	0.192
-182.071	15.958	0.064	-0.050
-181.056	25.546	-0.145	-0.121
-180.042	244.346	0.176	-0.295
-179.027	-3.316	0.060	0.042
-178.012	-200.000	-0.000	0.092
-176.998	800.000	0.038	0.113
-175.983	36.620	-0.129	0.113
-174.969	-12.239	0.259	0.169
-173.954	-37.805	-0.286	-0.152
-172.939	414.734	-0.113	-0.241
-171.925	-14.369	0.160	-0.102
-170.910	800.000	-0.048	0.195
-169.896	-200.000	-0.318	0.001
-168.881	83.319	-0.109	-0.119
-167.866	-132.628	-0.385	-0.049
-166.852	72.341	-0.139	0.144
-165.837	-186.363	0.259	-0.004
-164.823	-12.347	0.175	0.114
-163.808	-200.000	0.016	-0.170
-162.793	72.144	0.319	0.331
-161.779	-104.730	-0.282	-0.065
-160.764	-41.075	0.130	0.067
-159.750	422.018	0.057	0.121
-158.735	-8.177	-0.168	0.113
-157.720	-43.156	0.123	-0.062
-156.706	-171.873	0.146	0.005
-155.691	1.903	0.138	0.099
-154.677	39.619	-0.224	0.200
-153.662	800.000	-0.106	0.363
-152.647	-100.232	0.192	-0.048
-151.633	-69.925	-0.168	0.064
-150.618	-55.061	-0.100	-0.045
-149.604	623.191	0.219	-0.549
-148.589	-16.238	0.036	-0.023
-147.574	123.650	0.066	0.082
-146.560	-140.771	0.350	0.036
-145.545	134.284	0.193	-0.249
-144.531	-162.281	0.221	-0.011
-143.516	300.724	0.058	-0.106
-142.502	-200.000	-0.010	-0.136
-141.487	522.183	0.019	0.045
-140.472	-38.347	0.311	0.164
-139.458	428.801	-0.145	-0.312
-138.443	426.781	-0.040	0.087
-137.429	-186.504	0.009	0.000
-136.414	-46.160	-0.181	-0.089
-135.399	-140.920	0.214	0.022
-134.385	-103.018	-0.191	-0.045
-133.370	-34.366	-0.234	-0.128
-132.356	-54.393	0.377	0.170
-131.341	800.000	0.091	0.317
-130.326	151.618	0.164	0.223
-129.312	126.965	-0.157	0.199
-128.297	23.106	-0.314	-0.256
-127.283	137.002	-0.126	-0.164
-126.268	-122.697	0.299	-0.048
-125.253	-200.000	-0.009	-0.139
-124.239	-189.424	0.064	0.001
-123.224	-68.018	-0.269	0.105
-122.210	-149.093	0.139	0.011
-121.195	-29.833	-0.097	0.055
