DTS Sentinel unit serial number:	SN413079Multiplexer serial number:	ORYXHardware model number:	OX4-SRSoftware version number:	ORYX F/W v4.00 Oryx Data Collector v3.7.2.0data status	okinstallation	princeton_trtdifferential loss correction	single-endedforward channel	channel 2reverse channel	N/Adate	2019/09/15time	04:39:34forward acquisition time	60.00reverse acquisition time	0.00gamma	496.2192k internal	0.2326k external	0.2326temperature offset calibration	1.0030default loss term (dB/km)	0.3790temperature slope calibration	1.0000multiplexer offset coefficient	1.0000multiplexer slope coefficient	1.0000fibre end	0.00T internal ref (°C)	30.81T ext. ref 1 (°C)	4.72T ext. ref 2 (°C)	25.41length (m)	temperature (°C)	Stokes	anti-Stokes-747.200	-71.105	0.112	0.043
-746.185	-22.624	0.290	0.177
-745.171	20.580	0.259	0.212
-744.156	-113.348	-0.182	0.036
-743.142	-53.737	0.223	-0.103
-742.127	800.000	0.027	-0.085
-741.112	694.514	-0.059	0.157
-740.098	71.857	0.043	-0.045
-739.083	92.488	-0.046	0.052
-738.069	53.716	-0.249	0.241
-737.054	-96.059	0.303	-0.081
-736.039	800.000	-0.043	-0.120
-735.025	327.514	0.118	0.229
-734.010	-5.396	-0.080	-0.055
-732.996	-34.011	-0.410	0.228
-731.981	18.590	0.159	-0.128
-730.966	-200.000	0.034	-0.513
-729.952	-29.687	0.226	0.130
-728.937	363.188	-0.125	-0.254
-727.923	-90.326	0.073	-0.021
-726.908	199.002	-0.160	0.248
-725.894	-63.973	0.133	0.055
-724.879	-200.000	-0.004	-0.236
-723.864	800.000	-0.045	0.157
-722.850	25.923	-0.293	-0.246
-721.835	-144.759	-0.513	-0.047
-720.821	-5.508	0.190	-0.131
-719.806	800.000	0.054	0.156
-718.791	63.631	0.444	0.449
-717.777	117.928	0.113	-0.140
-716.762	-200.000	0.074	0.399
-715.748	-61.896	-0.063	0.026
-714.733	-76.482	0.273	-0.097
-713.718	-134.761	-0.128	0.016
-712.704	137.800	-0.168	0.221
-711.689	-30.593	-0.078	0.045
-710.675	-15.654	-0.324	0.208
-709.660	-29.501	0.135	-0.078
-708.645	-200.000	-0.032	0.271
-707.631	59.546	-0.133	0.132
-706.616	-20.709	-0.119	-0.073
-705.602	129.117	0.191	0.246
-704.587	119.290	0.091	0.114
-703.572	-84.944	0.321	0.102
-702.558	-33.804	0.151	-0.084
-701.543	-56.923	-0.132	-0.059
-700.529	-22.723	0.346	0.210
-699.514	40.371	0.092	-0.083
-698.499	800.000	0.061	-0.175
-697.485	-15.342	-0.234	-0.151
-696.470	291.637	-0.135	-0.248
-695.456	112.110	0.153	-0.186
-694.441	-59.513	0.169	-0.073
-693.426	721.938	-0.084	-0.226
-692.412	-126.952	0.122	0.018
-691.397	-103.027	-0.174	-0.042
-690.383	-70.161	-0.299	0.114
-689.368	-133.217	0.416	-0.053
-688.354	-200.000	0.217	0.001
-687.339	800.000	0.072	0.204
-686.324	-200.000	0.014	-0.181
-685.310	-200.000	-0.245	0.001
-684.295	-61.753	0.079	-0.033
-683.281	-55.355	-0.438	0.198
-682.266	-64.616	0.415	-0.170
-681.251	167.919	0.198	-0.283
-680.237	-200.000	0.017	-0.175
-679.222	240.936	0.081	-0.137
-678.208	800.000	0.077	0.332
-677.193	-75.246	0.253	-0.091
-676.178	-44.795	-0.490	-0.246
-675.164	-200.000	0.019	-0.091
-674.149	-200.000	-0.013	0.103
-673.135	-127.111	-0.205	-0.030
-672.120	-200.000	0.008	-0.158
-671.105	800.000	0.026	-0.098
-670.091	800.000	0.129	0.434
-669.076	342.813	-0.027	-0.053
-668.062	-200.000	-0.039	-0.279
-667.047	-200.000	0.047	-0.236
-666.032	-18.653	0.334	0.210
-665.018	293.965	0.059	0.109
-664.003	168.470	-0.111	-0.159
-662.989	292.600	-0.161	-0.295
-661.974	-34.617	-0.205	0.113
-660.959	-200.000	0.034	-0.153
-659.945	165.696	0.192	-0.273
-658.930	8.704	-0.201	0.152
-657.916	36.950	0.212	-0.189
-656.901	195.322	0.078	-0.120
-655.886	144.488	0.083	0.111
-654.872	-70.668	0.023	-0.009
-653.857	-200.000	0.009	-0.355
-652.843	284.597	-0.115	-0.208
-651.828	485.157	0.047	0.109
-650.814	-128.413	0.069	-0.010
-649.799	657.319	0.109	-0.283
-648.784	-50.560	-0.089	0.042
-647.770	-99.214	-0.303	0.077
-646.755	800.000	-0.080	-0.261
-645.741	-2.372	0.125	-0.088
-644.726	220.553	0.174	-0.281
-643.711	-71.780	-0.122	0.046
-642.697	252.529	0.072	-0.124
-641.682	63.613	-0.196	-0.198
-640.668	800.000	0.128	-0.485
-639.653	-79.502	0.200	-0.068
-638.638	88.650	-0.128	0.143
-637.624	196.017	-0.144	0.221
-636.609	-178.477	0.158	0.004
-635.595	60.999	0.170	0.169
-634.580	190.749	-0.129	-0.195
-633.565	19.625	-0.087	0.070
-632.551	-200.000	-0.007	0.064
-631.536	498.638	0.164	0.380
-630.522	123.511	-0.145	-0.182
-629.507	-40.603	-0.159	0.083
-628.492	-3.553	-0.045	0.031
-627.478	113.286	-0.199	-0.243
-626.463	800.000	-0.085	-0.272
-625.449	-55.987	-0.223	-0.100
-624.434	-10.396	-0.059	0.039
-623.419	-98.731	0.279	-0.071
-622.405	-200.000	-0.001	-0.080
-621.390	-200.000	-0.007	0.091
-620.376	-125.228	-0.250	0.038
-619.361	-62.020	0.179	-0.075
-618.346	174.501	0.126	-0.183
-617.332	-200.000	-0.025	-0.191
-616.317	800.000	-0.064	0.261
-615.303	-67.413	0.412	0.162
-614.288	-86.069	-0.542	-0.168
-613.273	-63.440	-0.450	0.186
-612.259	304.532	0.145	0.270
-611.244	112.380	-0.063	0.077
-610.230	61.851	0.140	0.140
-609.215	5.052	0.289	-0.214
-608.201	-152.845	-0.113	-0.008
-607.186	-112.707	0.178	-0.036
-606.171	-107.659	0.108	0.024
-605.157	-200.000	-0.013	0.409
-604.142	-200.000	0.006	-0.249
-603.128	102.888	0.204	0.240
-602.113	-65.847	-0.230	-0.092
-601.098	-69.063	0.194	-0.075
-600.084	32.085	-0.240	-0.208
-599.069	127.744	-0.180	-0.229
-598.055	19.876	-0.182	-0.147
-597.040	-101.999	0.271	-0.066
-596.025	110.692	-0.128	-0.155
-595.011	65.545	-0.208	-0.211
-593.996	800.000	-0.089	0.258
-592.982	-44.343	-0.151	0.076
-591.967	-200.000	-0.013	0.141
-590.952	147.217	-0.136	-0.184
-589.938	6.313	-0.134	-0.100
-588.923	-17.852	-0.149	-0.094
-587.909	-10.545	-0.078	-0.052
-586.894	97.058	0.083	0.095
-585.879	-200.000	-0.050	0.241
-584.865	-95.187	0.303	-0.082
-583.850	-200.000	-0.046	-0.273
-582.836	-200.000	-0.001	0.094
-581.821	-101.754	0.102	0.025
-580.806	-39.578	-0.029	0.015
-579.792	800.000	0.077	-0.239
-578.777	800.000	-0.005	-0.019
-577.763	253.466	-0.127	-0.217
-576.748	-125.267	-0.176	-0.027
-575.733	23.070	0.123	0.101
-574.719	800.000	0.046	0.134
-573.704	800.000	-0.024	0.082
-572.690	144.248	0.250	-0.334
-571.675	22.602	-0.064	-0.053
-570.661	-200.000	0.013	-0.207
-569.646	-22.313	0.138	-0.084
-568.631	106.982	-0.128	-0.153
-567.617	-52.995	0.060	-0.028
-566.602	196.137	0.084	0.128
-565.588	-180.249	0.142	-0.003
-564.573	109.850	-0.092	-0.111
-563.558	-80.885	-0.157	0.052
-562.544	12.476	0.140	-0.108
-561.529	373.660	0.219	-0.447
-560.515	345.243	0.052	0.102
-559.500	110.911	-0.096	0.116
-558.485	62.552	-0.071	0.071
-557.471	35.387	-0.201	-0.177
-556.456	800.000	-0.062	-0.194
-555.442	332.652	-0.047	0.091
-554.427	-200.000	0.032	0.226
-553.412	-22.581	-0.189	-0.114
-552.398	-31.489	0.212	-0.120
-551.383	87.306	-0.271	0.300
-550.369	501.754	-0.030	-0.069
-549.354	32.230	0.196	0.170
-548.339	140.696	0.098	0.129
-547.325	60.029	-0.051	-0.050
-546.310	34.725	-0.317	-0.277
-545.296	104.982	-0.190	-0.224
-544.281	-200.000	-0.004	0.057
-543.266	-21.282	0.117	-0.072
-542.252	237.220	-0.121	-0.200
-541.237	108.722	0.204	-0.244
-540.223	-200.000	-0.004	-0.042
-539.208	-109.797	0.170	-0.036
-538.193	255.336	0.038	0.065
-537.179	-68.147	-0.040	-0.016
-536.164	363.181	-0.121	0.243
-535.150	-70.781	0.290	-0.109
-534.135	183.364	-0.132	0.195
-533.121	800.000	0.098	0.347
-532.106	-138.205	0.154	0.017
-531.091	-62.647	0.333	-0.138
-530.077	284.954	0.047	0.084
-529.062	-86.593	0.251	-0.077
-528.048	-116.253	0.228	-0.042
-527.033	-77.392	-0.254	-0.088
-526.018	-103.458	-0.323	0.076
-525.004	800.000	-0.101	0.304
-523.989	-176.028	0.227	-0.006
-522.975	-101.783	-0.343	0.083
-521.960	-100.097	0.229	-0.057
-520.945	-188.911	-0.198	-0.002
-519.931	-48.044	0.241	0.117
-518.916	-102.382	0.222	0.053
-517.902	375.738	-0.164	-0.334
-516.887	-113.080	-0.109	0.021
-515.872	6.185	0.139	0.103
-514.858	-200.000	-0.052	0.242
-513.843	107.422	-0.171	0.204
-512.829	-80.416	0.185	0.062
-511.814	-101.537	-0.186	-0.045
-510.799	-20.133	0.067	0.041
-509.785	-200.000	-0.004	-0.117
-508.770	348.365	-0.107	0.211
-507.756	6.090	-0.447	0.331
-506.741	-200.000	0.008	-0.141
-505.726	-59.840	-0.095	-0.041
-504.712	-111.233	0.168	-0.034
-503.697	-74.905	0.392	0.140
-502.683	-92.805	0.246	-0.069
-501.668	-200.000	0.046	-0.444
-500.653	693.751	0.147	0.385
-499.639	-178.544	-0.369	0.009
-498.624	621.846	0.051	0.128
-497.610	-200.000	-0.040	0.235
-496.595	-200.000	-0.013	0.159
-495.581	265.669	0.046	0.081
-494.566	776.711	-0.073	0.199
-493.551	57.618	-0.124	0.121
-492.537	800.000	0.012	-0.038
-491.522	-199.968	-0.281	0.001
-490.508	-90.490	0.023	-0.007
-489.493	-80.367	0.312	-0.104
-488.478	-156.496	-0.460	0.029
-487.464	800.000	-0.041	-0.161
-486.449	800.000	-0.099	-0.319
-485.435	75.759	0.167	0.177
-484.420	-81.960	-0.370	0.121
-483.405	66.187	0.091	0.093
-482.391	-200.000	0.009	0.277
-481.376	21.290	-0.182	0.147
-480.362	-51.104	-0.139	-0.065
-479.347	87.798	-0.151	0.167
-478.332	107.118	0.204	-0.242
-477.318	602.056	-0.057	0.142
-476.303	278.828	0.113	-0.201
-475.289	-30.564	0.086	-0.049
-474.274	-200.000	-0.017	-0.221
-473.259	-53.225	-0.039	-0.018
-472.245	136.407	0.114	0.148
-471.230	-174.664	-0.243	0.007
-470.216	29.575	-0.078	-0.066
-469.201	22.779	-0.070	-0.057
-468.186	800.000	0.028	0.101
-467.172	-144.346	0.471	-0.044
-466.157	54.303	-0.067	-0.064
-465.143	727.551	-0.028	0.075
-464.128	-126.790	0.357	-0.053
-463.113	21.320	0.204	-0.165
-462.099	288.441	0.044	0.080
-461.084	-105.161	0.209	-0.048
-460.070	492.132	0.036	0.081
-459.055	-200.000	-0.043	0.467
-458.040	-85.036	-0.330	0.103
-457.026	-200.000	0.019	-0.088
-456.011	-200.000	0.038	0.214
-454.997	-200.000	0.041	0.188
-453.982	126.374	0.174	-0.220
-452.968	-111.949	0.222	-0.045
-451.953	0.852	0.440	0.314
-450.938	316.753	0.069	0.129
-449.924	-200.000	0.001	0.497
-448.909	19.727	0.054	-0.044
-447.895	-86.155	-0.129	-0.040
-446.880	-122.193	-0.234	0.038
-445.865	741.575	0.145	-0.388
-444.851	101.811	-0.186	-0.216
-443.836	-111.067	-0.236	-0.048
-442.822	-136.555	0.192	-0.022
-441.807	35.894	-0.135	-0.118
-440.792	-114.730	0.063	-0.012
-439.778	40.855	-0.089	0.080
-438.763	-200.000	0.004	0.083
-437.749	-100.409	0.018	-0.004
-436.734	83.140	0.055	-0.060
-435.719	290.349	0.061	0.110
-434.705	800.000	-0.160	0.469
-433.690	-200.000	0.037	-0.340
-432.676	-200.000	0.011	0.092
-431.661	800.000	0.027	-0.082
-430.646	797.625	0.050	-0.137
-429.632	-81.647	0.221	0.072
-428.617	2.973	-0.178	-0.129
-427.603	17.320	0.358	0.283
-426.588	-108.923	-0.184	0.039
-425.573	-35.145	0.181	-0.098
-424.559	330.494	0.081	-0.155
-423.544	-200.000	0.006	0.304
-422.530	251.592	0.053	-0.090
-421.515	-68.473	-0.423	-0.164
-420.500	-67.764	0.129	-0.050
-419.486	-56.796	-0.094	0.041
-418.471	111.567	-0.145	-0.175
-417.457	-29.350	-0.153	0.087
-416.442	270.086	0.075	0.132
-415.428	-94.618	-0.289	-0.078
-414.413	-144.708	0.145	0.013
-413.398	-200.000	0.014	-0.166
-412.384	-72.928	0.153	0.056
-411.369	-31.968	0.135	0.075
-410.355	78.477	-0.131	-0.140
-409.340	-200.000	-0.017	-0.076
-408.325	71.443	0.082	-0.085
-407.311	-200.000	0.035	-0.285
-406.296	-23.447	-0.190	-0.114
-405.282	-160.816	-0.205	0.011
-404.267	-200.000	-0.025	-0.181
-403.252	-200.000	0.012	-0.431
-402.238	41.815	0.057	-0.051
-401.223	-158.807	-0.188	-0.011
-400.209	284.118	0.134	-0.239
-399.194	456.250	0.075	0.166
-398.179	-76.441	-0.319	0.112
-397.165	93.213	-0.192	-0.216
-396.150	224.036	-0.212	0.341
-395.136	327.895	0.061	0.117
-394.121	-112.686	0.214	-0.042
-393.106	-79.964	-0.279	-0.093
-392.092	-42.586	0.223	-0.113
-391.077	4.043	0.106	-0.077
-390.063	273.833	-0.281	0.494
-389.048	-139.947	0.278	0.029
-388.033	800.000	-0.079	-0.283
-387.019	12.888	-0.058	0.044
-386.004	129.584	-0.202	-0.257
-384.990	-144.376	0.271	-0.025
-383.975	36.856	-0.060	0.053
-382.960	800.000	0.021	-0.058
-381.946	52.053	0.241	-0.229
-380.931	-200.000	0.014	-0.466
-379.917	-134.380	0.059	0.007
-378.902	-114.347	0.063	0.012
-377.888	-200.000	-0.017	0.183
-376.873	-200.000	0.029	0.140
-375.858	-196.359	-0.271	0.002
-374.844	-99.471	-0.238	0.060
-373.829	241.906	-0.029	-0.049
-372.815	-55.067	-0.394	0.176
-371.800	195.212	-0.044	-0.067
-370.785	-101.139	0.289	0.070
-369.771	44.044	0.382	-0.348
-368.756	-109.508	-0.475	0.100
-367.742	353.601	-0.086	-0.170
-366.727	31.054	0.112	-0.096
-365.712	1.876	0.059	0.043
-364.698	-66.096	-0.130	0.051
-363.683	309.486	0.015	-0.028
-362.669	87.915	-0.089	0.098
-361.654	-31.343	-0.137	-0.077
-360.639	653.047	-0.017	0.044
-359.625	-28.931	0.429	0.245
-358.610	-103.618	-0.078	-0.018
-357.596	800.000	-0.090	0.329
-356.581	-52.813	-0.070	-0.032
-355.566	479.238	0.036	0.082
-354.552	-95.415	0.140	-0.037
-353.537	800.000	-0.106	0.321
-352.523	-44.387	0.158	0.078
-351.508	24.068	-0.093	-0.076
-350.493	800.000	-0.060	0.170
-349.479	800.000	0.041	0.167
-348.464	-58.640	0.300	-0.129
-347.450	-200.000	0.024	0.117
-346.435	-200.000	0.001	0.144
-345.420	389.912	-0.062	-0.127
-344.406	209.272	-0.024	0.037
-343.391	424.042	-0.043	-0.092
-342.377	460.269	0.125	-0.277
-341.362	470.934	-0.055	0.124
-340.348	-40.671	0.107	-0.055
-339.333	-105.850	-0.191	0.043
-338.318	73.314	0.084	-0.088
-337.304	-200.000	-0.047	0.245
-336.289	142.166	0.179	0.236
-335.275	59.247	0.148	-0.145
-334.260	-200.000	-0.061	0.270
-333.245	68.704	-0.234	-0.238
-332.231	186.758	0.235	0.347
-331.216	800.000	0.046	-0.128
-330.202	475.408	0.071	-0.158
-329.187	-69.137	-0.382	0.146
-328.172	104.476	0.039	-0.045
-327.158	459.608	-0.304	-0.672
-326.143	-160.573	0.064	0.003
-325.129	-200.000	-0.173	-0.001
-324.114	-7.934	-0.066	0.044
-323.099	-86.997	0.137	0.041
-322.085	45.416	0.250	0.229
-321.070	15.017	-0.155	0.120
-320.056	-46.904	-0.131	-0.063
-319.041	-132.878	0.164	-0.021
-318.026	395.762	-0.171	0.354
-317.012	-134.362	-0.237	0.029
-315.997	7.753	0.226	-0.168
-314.983	-124.994	-0.171	0.026
-313.968	-200.000	-0.001	-0.059
-312.953	-64.864	-0.295	-0.118
-311.939	104.989	-0.044	0.051
-310.924	265.899	-0.103	-0.179
-309.910	10.791	0.230	-0.174
-308.895	136.886	-0.160	0.207
-307.880	-126.959	0.083	0.012
-306.866	-113.215	0.217	0.042
-305.851	-6.817	0.151	0.102
-304.837	39.586	0.163	-0.145
-303.822	800.000	0.051	0.199
-302.807	-116.187	-0.201	0.037
-301.793	-162.189	-0.093	-0.005
-300.778	605.864	0.167	0.412
-299.764	800.000	0.157	0.605
-298.749	413.006	0.063	0.132
-297.735	800.000	-0.101	0.281
-296.720	-88.573	-0.071	-0.021
-295.705	-3.294	-0.020	0.014
-294.691	800.000	-0.034	-0.094
-293.676	-200.000	0.008	0.330
-292.662	48.404	0.090	0.083
-291.647	242.984	-0.125	0.208
-290.632	-200.000	0.020	0.294
-289.618	-75.858	-0.049	-0.017
-288.603	-16.228	0.237	-0.149
-287.589	151.416	-0.059	0.080
-286.574	-62.663	-0.170	0.070
-285.559	70.217	-0.122	-0.125
-284.545	315.001	0.178	0.333
-283.530	-117.566	0.347	-0.062
-282.516	-26.116	0.248	-0.144
-281.501	-200.000	0.031	-0.245
-280.486	-15.884	-0.116	0.073
-279.472	-88.735	0.138	0.041
-278.457	-121.464	-0.276	0.045
-277.443	-200.000	0.038	-0.173
-276.428	-200.000	0.015	-0.171
-275.413	-200.000	0.003	-0.193
-274.399	56.028	0.146	-0.141
-273.384	-90.410	-0.103	0.030
-272.370	-29.700	-0.351	-0.199
-271.355	-83.735	0.047	0.015
-270.340	38.354	0.061	0.054
-269.326	675.989	0.091	0.235
-268.311	-146.734	-0.436	-0.037
-267.297	-200.000	0.008	-0.118
-266.282	74.848	-0.103	0.107
-265.267	364.000	0.023	0.046
-264.253	26.417	-0.224	0.186
-263.238	-46.633	0.094	-0.046
-262.224	800.000	0.103	-0.353
-261.209	10.745	-0.244	-0.184
-260.195	166.444	0.102	0.143
-259.180	-143.981	-0.112	-0.010
-258.165	778.326	0.012	-0.032
-257.151	-17.335	0.372	0.232
-256.136	-200.000	-0.010	0.309
-255.122	-151.064	0.316	0.024
-254.107	450.038	0.104	-0.227
-253.092	-38.191	-0.219	0.115
-252.078	-29.403	-0.190	0.108
-251.063	-40.273	0.091	-0.047
-250.049	800.000	0.059	-0.245
-249.034	-40.499	0.171	0.088
-248.019	-65.643	-0.146	-0.058
-247.005	-69.860	0.233	0.088
-245.990	800.000	-0.057	0.218
-244.976	173.191	0.195	0.278
-243.961	-200.000	-0.025	-0.182
-242.946	21.192	-0.102	0.082
-241.932	800.000	-0.061	0.204
-240.917	-200.000	0.043	-0.212
-239.903	-200.000	-0.057	0.279
-238.888	49.971	-0.095	0.089
-237.873	677.418	0.080	0.207
-236.859	205.979	-0.212	-0.327
-235.844	-66.442	0.195	0.076
-234.830	-200.000	-0.033	0.327
-233.815	-134.020	0.248	0.030
-232.800	85.075	0.167	-0.181
-231.786	274.477	0.057	0.099
-230.771	-102.425	0.222	0.052
-229.757	-131.935	0.364	-0.047
-228.742	62.542	0.220	-0.217
-227.727	-82.834	0.288	-0.092
-226.713	-102.630	-0.089	0.021
-225.698	-116.668	-0.278	-0.051
-224.684	-200.000	-0.036	-0.206
-223.669	43.524	-0.140	0.126
-222.655	38.534	0.292	-0.258
-221.640	-200.000	-0.005	-0.269
-220.625	85.421	-0.139	0.151
-219.611	-120.822	0.412	-0.069
-218.596	-51.828	-0.140	0.064
-217.582	-24.831	-0.228	0.134
-216.567	-200.000	-0.002	0.026
-215.552	524.273	-0.066	-0.153
-214.538	-76.207	-0.110	0.038
-213.523	-119.865	0.505	-0.086
-212.509	-6.279	-0.153	0.103
-211.494	74.010	-0.123	0.127
-210.479	-122.064	0.303	0.049
-209.465	-56.518	0.321	0.141
-208.450	-52.984	-0.108	-0.049
-207.436	-145.697	0.122	-0.011
-206.421	-100.864	0.431	-0.105
-205.406	119.661	0.107	0.131
-204.392	800.000	-0.051	0.152
-203.377	-95.450	0.197	-0.052
-202.363	127.213	0.172	-0.216
-201.348	-127.029	0.306	0.044
-200.333	94.558	0.019	-0.022
-199.319	-29.865	-0.170	-0.096
-198.304	-167.058	0.159	-0.006
-197.290	793.741	-0.075	-0.205
-196.275	-98.953	0.154	-0.039
-195.260	-200.000	-0.047	0.213
-194.246	266.665	-0.153	-0.263
-193.231	-59.267	-0.196	-0.083
-192.217	-137.768	-0.186	-0.021
-191.202	69.657	-0.203	-0.207
-190.187	-200.000	0.000	-0.105
-189.173	-16.172	0.313	-0.196
-188.158	121.523	0.034	-0.041
-187.144	120.774	-0.156	-0.191
-186.129	16.054	0.044	0.034
-185.114	465.916	-0.043	-0.096
-184.100	-38.542	-0.190	-0.099
-183.085	-102.420	-0.092	-0.022
-182.071	-69.523	-0.116	0.044
-181.056	-147.745	-0.266	-0.022
-180.042	-200.000	-0.014	-0.158
-179.027	464.259	0.023	0.052
-178.012	-200.000	-0.055	-0.271
-176.998	67.170	-0.114	-0.114
-175.983	32.134	-0.167	0.142
-174.969	-30.148	-0.049	-0.027
-173.954	70.172	-0.230	0.234
-172.939	800.000	-0.118	-0.478
-171.925	323.395	0.151	-0.285
-170.910	23.624	0.028	0.023
-169.896	34.680	0.227	0.196
-168.881	726.384	0.011	0.030
-167.866	-89.541	-0.278	0.080
-166.852	-133.626	0.206	0.025
-165.837	329.408	0.150	0.284
-164.823	-83.973	0.266	-0.084
-163.808	-193.079	0.087	-0.001
-162.793	-43.150	0.349	0.174
-161.779	62.235	-0.222	0.219
-160.764	-200.000	-0.011	0.106
-159.750	-200.000	-0.019	0.257
-158.735	567.528	-0.043	0.103
-157.720	559.447	-0.040	-0.096
-156.706	263.159	0.146	0.250
-155.691	-123.193	-0.295	-0.047
-154.677	-61.825	0.411	-0.170
-153.662	-46.244	-0.232	0.112
-152.647	-50.865	-0.077	0.036
-151.633	-89.941	-0.123	0.035
-150.618	-103.654	0.227	-0.053
-149.604	58.543	0.215	0.208
-148.589	800.000	0.071	-0.207
-147.574	-73.437	0.296	0.107
-146.560	-200.000	0.034	-0.276
-145.545	555.148	-0.067	-0.159
-144.531	-106.485	0.301	-0.066
-143.516	260.316	-0.198	0.337
-142.502	-68.623	-0.203	-0.077
-141.487	-36.973	0.073	0.038
-140.472	239.433	-0.113	-0.185
-139.458	-200.000	-0.006	-0.087
-138.443	50.751	0.158	0.147
-137.429	-57.401	0.154	0.067
-136.414	-112.141	-0.280	0.055
-135.399	304.209	0.077	-0.140
-134.385	-129.980	-0.080	0.011
-133.370	253.459	0.067	0.113
-132.356	42.786	0.058	-0.052
-131.341	-161.486	0.090	0.005
-130.326	-28.490	-0.106	0.060
-129.312	7.695	-0.064	-0.047
-128.297	-200.000	-0.001	-0.154
-127.283	-80.033	0.279	-0.092
-126.268	182.431	-0.174	-0.252
-125.253	34.258	0.277	-0.238
-124.239	-200.000	-0.047	-0.225
-123.224	-77.183	0.208	0.071
-122.210	545.306	-0.135	0.318
-121.195	-125.454	0.308	-0.046
