DTS Sentinel unit serial number:	SN413079Multiplexer serial number:	ORYXHardware model number:	OX4-SRSoftware version number:	ORYX F/W v4.00 Oryx Data Collector v3.7.2.0data status	okinstallation	princeton_trtdifferential loss correction	single-endedforward channel	channel 2reverse channel	N/Adate	2019/09/18time	23:51:35forward acquisition time	60.00reverse acquisition time	0.00gamma	496.2192k internal	0.2352k external	0.2352temperature offset calibration	1.0022default loss term (dB/km)	0.3790temperature slope calibration	1.0000multiplexer offset coefficient	1.0000multiplexer slope coefficient	1.0000fibre end	0.00T internal ref (°C)	23.28T ext. ref 1 (°C)	0.76T ext. ref 2 (°C)	16.12length (m)	temperature (°C)	Stokes	anti-Stokes-747.200	-17.576	-0.203	0.127
-746.185	-76.806	-0.183	0.064
-745.171	800.000	0.060	0.198
-744.156	39.652	-0.152	0.136
-743.142	377.606	0.029	0.059
-742.127	800.000	0.058	0.205
-741.112	-178.124	0.249	-0.006
-740.098	76.107	0.068	-0.071
-739.083	-57.138	-0.155	-0.068
-738.069	-37.115	0.083	-0.044
-737.054	-200.000	0.061	-0.280
-736.039	140.897	-0.150	-0.198
-735.025	-51.170	0.272	0.127
-734.010	-200.000	0.024	-0.345
-732.996	55.432	-0.116	-0.112
-731.981	489.552	-0.101	0.230
-730.966	800.000	-0.086	0.287
-729.952	59.355	0.097	-0.096
-728.937	-109.436	-0.164	-0.035
-727.923	-200.000	-0.021	-0.212
-726.908	-5.459	-0.117	0.080
-725.894	-55.996	-0.045	-0.020
-724.879	-200.000	0.024	0.210
-723.864	23.470	-0.139	-0.114
-722.850	354.024	-0.143	-0.284
-721.835	711.640	0.017	0.045
-720.821	-10.877	-0.061	0.040
-719.806	-32.385	0.060	0.034
-718.791	56.415	-0.175	0.169
-717.777	81.427	-0.107	-0.115
-716.762	248.592	0.053	-0.090
-715.748	159.757	-0.261	-0.362
-714.733	-116.556	0.145	0.027
-713.718	183.164	-0.194	0.286
-712.704	-153.209	-0.376	-0.026
-711.689	-152.663	0.398	-0.028
-710.675	-121.916	-0.438	0.072
-709.660	800.000	-0.020	0.062
-708.645	-200.000	0.101	0.472
-707.631	-16.106	0.289	-0.183
-706.616	-200.000	-0.024	0.120
-705.602	25.480	0.242	0.200
-704.587	90.684	0.409	0.457
-703.572	166.690	-0.330	0.466
-702.558	57.192	-0.170	-0.165
-701.543	-102.321	0.415	0.099
-700.529	89.405	-0.108	-0.120
-699.514	370.124	-0.119	-0.241
-698.499	297.469	0.062	-0.113
-697.485	498.373	0.012	0.027
-696.470	588.666	-0.023	-0.056
-695.456	14.367	0.250	-0.194
-694.441	-15.946	-0.229	0.145
-693.426	331.269	0.051	-0.099
-692.412	152.162	-0.159	-0.216
-691.397	-200.000	-0.020	0.160
-690.383	800.000	0.106	-0.332
-689.368	89.402	-0.092	-0.102
-688.354	126.164	0.064	0.080
-687.339	67.792	0.171	0.174
-686.324	724.831	0.084	-0.222
-685.310	-107.589	-0.252	0.055
-684.295	-45.988	0.205	-0.101
-683.281	20.729	0.143	-0.115
-682.266	-78.511	-0.114	0.039
-681.251	800.000	-0.067	-0.230
-680.237	-149.803	0.251	0.020
-679.222	159.096	0.049	-0.068
-678.208	-200.000	-0.027	-0.404
-677.193	756.561	0.139	-0.375
-676.178	800.000	0.035	-0.113
-675.164	-12.063	-0.164	-0.107
-674.149	-64.057	-0.290	0.118
-673.135	-128.603	0.144	0.020
-672.120	-200.000	0.032	-0.220
-671.105	-41.474	-0.076	0.039
-670.091	-200.000	-0.026	0.269
-669.076	184.138	0.080	-0.117
-668.062	-200.000	-0.003	0.085
-667.047	-200.000	-0.006	-0.336
-666.032	131.622	-0.192	0.246
-665.018	800.000	-0.025	-0.102
-664.003	800.000	0.072	-0.219
-662.989	318.275	-0.114	-0.214
-661.974	5.890	-0.161	-0.118
-660.959	-99.019	0.125	-0.032
-659.945	-200.000	0.017	0.123
-658.930	-139.336	0.238	-0.025
-657.916	-136.626	0.439	-0.051
-656.901	-200.000	0.022	-0.212
-655.886	-200.000	-0.035	-0.379
-654.872	-200.000	0.021	-0.169
-653.857	-81.995	-0.123	0.040
-652.843	-48.455	-0.214	0.102
-651.828	-78.271	0.354	0.121
-650.814	115.776	0.100	-0.121
-649.799	-9.899	-0.147	0.097
-648.784	-57.474	0.411	0.179
-647.770	133.169	0.246	-0.316
-646.755	402.605	0.123	-0.257
-645.741	496.202	-0.028	-0.065
-644.726	-31.234	0.146	-0.082
-643.711	-196.094	-0.120	-0.001
-642.697	-178.446	-0.042	-0.001
-641.682	77.946	-0.203	0.215
-640.668	-143.439	-0.332	0.032
-639.653	800.000	-0.046	-0.174
-638.638	771.580	0.105	-0.284
-637.624	800.000	-0.085	-0.293
-636.609	-127.818	-0.079	0.011
-635.595	-74.962	-0.153	-0.054
-634.580	43.120	0.244	0.221
-633.565	53.707	0.104	0.099
-632.551	-189.797	-0.006	0.000
-631.536	122.841	0.073	0.091
-630.522	113.592	-0.107	-0.129
-629.507	-200.000	-0.028	0.376
-628.492	-34.657	-0.189	0.103
-627.478	50.674	0.215	-0.202
-626.463	142.977	-0.020	-0.027
-625.449	35.566	0.242	-0.211
-624.434	501.096	0.062	-0.142
-623.419	800.000	-0.098	-0.350
-622.405	155.676	-0.035	0.048
-621.390	-200.000	-0.015	0.140
-620.376	47.665	-0.009	0.008
-619.361	-200.000	-0.021	0.194
-618.346	-98.654	0.281	-0.071
-617.332	-55.077	-0.225	-0.100
-616.317	-200.000	-0.005	0.033
-615.303	-65.200	-0.237	-0.095
-614.288	106.069	0.020	-0.023
-613.273	-170.821	-0.116	-0.004
-612.259	-92.324	0.411	0.115
-611.244	4.569	0.214	0.156
-610.230	-117.237	0.338	-0.061
-609.215	-101.328	-0.295	0.072
-608.201	-118.946	-0.166	-0.029
-607.186	-73.182	0.049	-0.018
-606.171	800.000	-0.097	0.346
-605.157	800.000	-0.072	0.228
-604.142	-200.000	-0.017	-0.282
-603.128	-5.581	0.112	-0.076
-602.113	240.402	0.136	0.225
-601.098	147.619	0.118	0.158
-600.084	175.380	0.074	0.106
-599.069	-134.590	-0.405	0.049
-598.055	93.358	-0.063	-0.071
-597.040	800.000	-0.078	0.319
-596.025	-200.000	0.038	-0.309
-595.011	56.514	-0.220	-0.212
-593.996	-62.357	-0.008	0.003
-592.982	800.000	0.064	0.177
-591.967	106.806	-0.288	0.339
-590.952	4.532	0.179	-0.130
-589.938	-200.000	0.010	-0.128
-588.923	236.670	0.060	-0.098
-587.909	-53.760	-0.182	-0.082
-586.894	-17.106	-0.129	-0.081
-585.879	759.722	0.021	0.055
-584.865	800.000	-0.060	0.213
-583.850	-137.952	0.216	0.024
-582.836	28.183	0.103	0.086
-581.821	-42.363	-0.039	0.020
-580.806	101.663	0.229	0.265
-579.792	-43.737	-0.414	-0.207
-578.777	108.097	0.215	-0.254
-577.763	-56.691	-0.420	-0.184
-576.748	-200.000	-0.015	-0.117
-575.733	257.598	-0.063	0.107
-574.719	140.161	0.091	-0.119
-573.704	800.000	-0.077	-0.229
-572.690	339.068	0.169	-0.325
-571.675	480.518	0.081	0.183
-570.661	12.618	-0.184	-0.141
-569.646	-141.016	0.269	0.027
-568.631	38.607	-0.099	0.088
-567.617	-28.283	0.062	0.036
-566.602	-145.863	-0.289	0.025
-565.588	-200.000	-0.021	0.138
-564.573	-70.556	-0.205	-0.077
-563.558	800.000	-0.140	-0.405
-562.544	-10.289	-0.307	0.201
-561.529	46.127	-0.078	0.071
-560.515	-200.000	-0.040	-0.361
-559.500	-200.000	-0.038	-0.228
-558.485	-51.064	0.238	-0.110
-557.471	-115.396	-0.479	0.089
-556.456	-33.061	0.105	0.058
-555.442	-81.551	-0.168	0.055
-554.427	-100.209	0.198	0.049
-553.412	5.633	-0.301	-0.220
-552.398	-111.531	0.120	-0.024
-551.383	-95.995	-0.171	-0.045
-550.369	-39.451	0.355	0.184
-549.354	800.000	0.070	0.191
-548.339	4.797	-0.151	0.110
-547.325	62.330	-0.155	0.153
-546.310	97.986	-0.199	-0.227
-545.296	-200.000	0.042	-0.282
-544.281	11.042	0.111	0.084
-543.266	163.205	-0.290	0.403
-542.252	-200.000	-0.036	-0.237
-541.237	-23.682	-0.372	0.221
-540.223	176.261	0.175	-0.251
-539.208	243.764	-0.113	0.187
-538.193	-45.346	0.120	-0.059
-537.179	3.132	-0.394	-0.283
-536.164	-73.439	0.039	0.014
-535.150	-200.000	0.001	-0.401
-534.135	-200.000	-0.001	-0.247
-533.121	-53.140	-0.170	-0.077
-532.106	-139.509	-0.106	-0.011
-531.091	377.872	0.099	-0.200
-530.077	-100.573	0.177	0.043
-529.062	-49.857	-0.371	0.174
-528.048	-200.000	0.001	0.426
-527.033	-92.360	0.199	-0.055
-526.018	-142.475	-0.072	0.007
-525.004	-80.664	-0.179	0.059
-523.989	-12.903	-0.154	-0.099
-522.975	-200.000	0.012	0.274
-521.960	-136.231	0.204	0.024
-520.945	38.512	0.180	-0.159
-519.931	-99.084	0.215	0.054
-518.916	-200.000	-0.001	-0.241
-517.902	800.000	0.062	-0.239
-516.887	-200.000	-0.017	-0.244
-515.872	368.372	-0.113	0.225
-514.858	6.718	-0.165	-0.121
-513.843	-158.491	-0.264	-0.015
-512.829	-133.346	-0.487	-0.061
-511.814	9.200	-0.291	-0.217
-510.799	5.947	-0.048	0.035
-509.785	-145.375	0.262	-0.023
-508.770	-22.965	0.252	0.150
-507.756	-127.602	0.233	-0.033
-506.741	326.973	-0.041	-0.077
-505.726	800.000	0.057	0.201
-504.712	800.000	-0.023	-0.068
-503.697	160.170	0.066	-0.091
-502.683	275.130	0.161	-0.282
-501.668	42.930	-0.164	0.148
-500.653	-88.458	-0.154	-0.045
-499.639	13.156	0.223	0.171
-498.624	82.703	0.109	0.117
-497.610	20.762	-0.306	0.244
-496.595	800.000	-0.088	-0.248
-495.581	-200.000	0.004	-0.318
-494.566	151.501	0.202	0.272
-493.551	-30.498	-0.282	-0.158
-492.537	169.412	0.166	0.235
-491.522	-117.256	-0.052	-0.009
-490.508	800.000	-0.029	-0.085
-489.493	-100.732	0.239	0.058
-488.478	131.567	-0.272	-0.345
-487.464	237.861	0.126	-0.207
-486.449	264.559	-0.056	-0.096
-485.435	84.220	0.074	0.080
-484.420	-200.000	0.023	0.225
-483.405	95.061	-0.177	-0.199
-482.391	-135.489	0.115	-0.014
-481.376	-77.984	-0.296	0.101
-480.362	-57.496	0.172	0.074
-479.347	800.000	0.092	0.279
-478.332	-163.880	-0.336	-0.016
-477.318	-131.437	0.237	-0.031
-476.303	248.142	-0.116	-0.193
-475.289	0.295	-0.228	-0.161
-474.274	-200.000	-0.014	0.122
-473.259	800.000	-0.057	0.174
-472.245	-22.824	0.450	0.268
-471.230	800.000	0.141	0.453
-470.216	349.856	0.178	0.346
-469.201	-135.934	-0.299	0.035
-468.186	-200.000	0.001	-0.240
-467.172	585.178	-0.107	0.260
-466.157	-98.478	-0.077	0.019
-465.143	-172.505	0.046	-0.001
-464.128	-32.854	0.357	0.196
-463.113	800.000	-0.033	-0.100
-462.099	800.000	0.043	-0.136
-461.084	85.361	0.023	-0.025
-460.070	-200.000	-0.037	-0.193
-459.055	462.778	-0.046	-0.102
-458.040	-34.737	0.183	-0.099
-457.026	-84.918	-0.227	0.070
-456.011	-45.828	-0.098	0.048
-454.997	800.000	0.087	0.254
-453.982	-200.000	-0.006	-0.060
-452.968	148.236	-0.035	-0.047
-451.953	-108.243	0.143	-0.030
-450.938	-37.391	-0.185	0.098
-449.924	-128.229	-0.201	-0.028
-448.909	800.000	0.047	-0.166
-447.895	-51.377	-0.080	0.037
-446.880	33.214	0.322	0.276
-445.865	800.000	0.040	0.162
-444.851	-108.577	-0.218	-0.046
-443.836	-69.143	0.100	-0.038
-442.822	-200.000	-0.044	0.237
-441.807	-135.551	-0.238	-0.028
-440.792	-152.995	0.129	-0.009
-439.778	800.000	-0.039	0.160
-438.763	-200.000	0.059	-0.281
-437.749	233.455	-0.161	0.261
-436.734	-200.000	0.050	0.301
-435.719	52.350	-0.048	0.045
-434.705	-170.351	-0.199	0.007
-433.690	-114.112	0.080	0.015
-432.676	-14.528	0.260	0.165
-431.661	180.839	0.244	-0.354
-430.646	-150.046	0.113	-0.009
-429.632	57.724	0.060	0.058
-428.617	800.000	-0.104	-0.325
-427.603	800.000	0.037	-0.118
-426.588	-138.580	-0.225	-0.024
-425.573	-192.661	-0.418	-0.004
-424.559	-200.000	-0.030	-0.254
-423.544	92.939	-0.122	0.135
-422.530	-200.000	0.009	-0.499
-421.515	85.959	-0.051	0.055
-420.500	-200.000	0.000	0.055
-419.486	64.686	0.152	-0.151
-418.471	-96.622	-0.409	-0.106
-417.457	15.880	-0.245	0.190
-416.442	-200.000	-0.059	0.334
-415.428	162.620	-0.188	-0.260
-414.413	246.595	-0.253	-0.421
-413.398	-106.169	0.190	-0.042
-412.384	103.960	-0.069	-0.080
-411.369	-200.000	0.006	-0.399
-410.355	-200.000	0.002	-0.583
-409.340	221.924	-0.168	0.266
-408.325	800.000	-0.028	-0.097
-407.311	-142.622	-0.150	-0.014
-406.296	-84.749	-0.220	0.068
-405.282	14.733	0.113	-0.087
-404.267	-76.001	0.245	-0.085
-403.252	-200.000	0.019	-0.119
-402.238	-200.000	-0.000	0.016
-401.223	-200.000	-0.211	0.001
-400.209	486.090	0.079	-0.176
-399.194	127.770	0.098	-0.122
-398.179	-117.728	-0.128	-0.023
-397.165	538.366	-0.072	0.169
-396.150	-2.520	-0.223	0.154
-395.136	-30.074	-0.307	0.172
-394.121	87.475	0.088	-0.096
-393.106	188.538	-0.077	0.114
-392.092	5.532	0.159	0.115
-391.077	172.069	-0.164	0.232
-390.063	373.368	0.150	-0.301
-389.048	-200.000	0.030	0.177
-388.033	194.037	-0.061	-0.091
-387.019	-92.780	-0.193	-0.053
-386.004	318.544	-0.065	0.121
-384.990	-145.288	0.169	-0.015
-383.975	125.172	0.096	0.119
-382.960	183.077	0.213	-0.309
-381.946	800.000	0.080	0.254
-380.931	556.998	0.068	0.160
-379.917	426.125	0.025	-0.052
-378.902	-164.346	-0.156	0.007
-377.888	-107.082	0.336	0.073
-376.873	800.000	-0.020	0.080
-375.858	289.055	0.188	0.336
-374.844	-147.293	0.198	-0.017
-373.829	-200.000	0.044	0.249
-372.815	-111.107	0.167	-0.034
-371.800	800.000	-0.073	0.237
-370.785	93.782	0.166	-0.184
-369.771	-82.651	0.142	-0.045
-368.756	800.000	0.045	-0.153
-367.742	-6.679	-0.080	0.053
-366.727	-149.448	-0.212	0.017
-365.712	-200.000	-0.044	0.212
-364.698	4.100	-0.231	-0.166
-363.683	-200.000	0.001	0.093
-362.669	-80.527	-0.026	-0.009
-361.654	28.869	-0.068	0.057
-360.639	229.418	-0.143	0.229
-359.625	800.000	-0.023	0.068
-358.610	800.000	-0.022	-0.071
-357.596	-16.283	0.099	0.062
-356.581	301.777	-0.175	0.318
-355.566	593.210	-0.143	0.347
-354.552	800.000	0.018	-0.073
-353.537	-40.951	0.088	-0.045
-352.523	-148.597	0.477	-0.038
-351.508	-200.000	0.056	-0.251
-350.493	136.902	-0.174	-0.224
-349.479	800.000	0.092	-0.344
-348.464	374.439	0.075	-0.151
-347.450	-29.573	-0.192	-0.108
-346.435	131.039	0.186	-0.235
-345.420	249.627	-0.028	0.046
-344.406	-200.000	-0.002	0.361
-343.391	95.008	0.329	0.368
-342.377	800.000	-0.077	0.215
-341.362	759.104	-0.161	-0.427
-340.348	128.170	0.267	-0.334
-339.333	-37.534	-0.096	0.050
-338.318	800.000	-0.080	-0.255
-337.304	663.423	-0.031	-0.079
-336.289	69.727	0.165	0.167
-335.275	-200.000	0.013	0.062
-334.260	-111.163	0.231	0.046
-333.245	-167.763	-0.158	0.006
-332.231	422.733	0.173	0.364
-331.216	-91.712	0.364	-0.102
-330.202	43.725	0.229	-0.205
-329.187	-200.000	0.055	0.418
-328.172	-156.910	0.201	-0.012
-327.158	113.643	0.106	-0.126
-326.143	8.685	0.104	0.077
-325.129	44.476	0.126	0.113
-324.114	800.000	-0.056	-0.201
-323.099	-197.769	-0.265	-0.002
-322.085	-200.000	-0.062	0.366
-321.070	-200.000	0.043	-0.310
-320.056	54.128	-0.136	0.128
-319.041	-52.409	-0.425	0.193
-318.026	-158.587	0.324	-0.018
-317.012	-200.000	-0.045	0.338
-315.997	433.572	0.119	-0.253
-314.983	96.291	-0.114	-0.128
-313.968	-82.379	0.275	-0.088
-312.953	86.541	-0.159	-0.172
-311.939	-200.000	0.046	-0.458
-310.924	-200.000	-0.010	0.221
-309.910	601.541	-0.023	0.057
-308.895	408.107	-0.237	-0.491
-307.880	28.152	-0.268	0.222
-306.866	28.128	-0.419	0.347
-305.851	-103.503	-0.108	-0.025
-304.837	-151.057	0.261	-0.019
-303.822	-82.120	-0.165	-0.053
-302.807	-185.923	-0.361	0.005
-301.793	800.000	-0.047	-0.182
-300.778	-200.000	-0.006	-0.272
-299.764	800.000	0.047	-0.172
-298.749	156.137	0.239	-0.323
-297.735	26.889	0.146	0.120
-296.720	-86.417	0.471	-0.142
-295.705	-113.412	0.338	-0.065
-294.691	-117.939	-0.102	-0.018
-293.676	-200.000	-0.001	-0.004
-292.662	171.238	0.180	0.252
-291.647	91.004	-0.502	0.551
-290.632	800.000	-0.028	-0.104
-289.618	322.846	-0.084	0.157
-288.603	-118.330	0.073	-0.013
-287.589	-85.427	-0.037	-0.011
-286.574	-89.556	-0.013	-0.004
-285.559	41.697	-0.192	-0.170
-284.545	447.538	-0.183	-0.395
-283.530	415.664	0.154	0.321
-282.516	-17.584	0.255	0.157
-281.501	-87.652	-0.243	-0.072
-280.486	-112.296	0.234	0.046
-279.472	-114.610	-0.290	-0.055
-278.457	131.995	-0.063	-0.080
-277.443	-101.883	-0.166	0.039
-276.428	57.653	0.218	0.209
-275.413	800.000	-0.098	0.279
-274.399	-15.542	0.130	0.081
-273.384	-115.254	0.366	-0.068
-272.370	-200.000	-0.084	0.364
-271.355	18.285	0.093	-0.073
-270.340	108.067	-0.067	-0.078
-269.326	33.154	-0.224	-0.190
-268.311	102.230	0.134	-0.153
-267.297	-79.845	0.369	0.122
-266.282	638.759	-0.074	-0.184
-265.267	-56.864	-0.158	-0.068
-264.253	7.701	0.061	0.045
-263.238	34.787	0.076	0.065
-262.224	-116.903	0.232	-0.042
-261.209	175.827	0.034	0.049
-260.195	303.539	-0.104	0.189
-259.180	248.634	0.076	0.126
-258.165	-48.480	-0.154	-0.072
-257.151	-71.420	0.109	0.040
-256.136	-200.000	-0.038	-0.169
-255.122	91.147	-0.060	0.066
-254.107	-200.000	-0.022	0.383
-253.092	367.874	0.059	0.116
-252.078	335.071	0.126	-0.239
-251.063	-200.000	0.009	-0.459
-250.049	800.000	-0.039	-0.148
-249.034	-162.272	-0.457	0.022
-248.019	368.300	-0.100	0.197
-247.005	-200.000	0.032	0.153
-245.990	-114.186	-0.152	0.029
-244.976	800.000	-0.118	0.419
-243.961	-4.160	0.279	-0.189
-242.946	-200.000	0.032	0.224
-241.932	11.273	0.271	-0.203
-240.917	-109.046	0.344	0.072
-239.903	-78.319	0.238	0.080
-238.888	129.773	-0.284	0.355
-237.873	145.512	0.226	0.296
-236.859	-96.470	0.140	0.036
-235.844	7.601	0.290	-0.212
-234.830	592.657	-0.086	0.208
-233.815	206.843	0.052	-0.079
-232.800	-37.910	0.010	0.005
-231.786	-200.000	-0.029	-0.208
-230.771	82.935	0.073	-0.078
-229.757	136.783	0.129	-0.165
-228.742	-19.398	-0.116	0.070
-227.727	-149.857	0.311	-0.024
-226.713	-98.916	-0.150	0.037
-225.698	-107.554	-0.258	0.055
-224.684	-141.319	0.295	-0.029
-223.669	338.418	-0.114	-0.216
-222.655	145.576	0.101	-0.133
-221.640	-200.000	-0.062	-0.303
-220.625	-117.567	0.153	-0.027
-219.611	800.000	-0.080	0.295
-218.596	-200.000	0.027	-0.197
-217.582	-92.928	0.450	-0.123
-216.567	-74.087	0.277	0.098
-215.552	-74.841	-0.194	-0.068
-214.538	800.000	-0.124	-0.377
-213.523	-86.534	0.066	-0.020
-212.509	-81.145	-0.448	-0.145
-211.494	422.620	-0.094	0.197
-210.479	269.052	0.245	0.420
-209.465	-200.000	-0.028	0.213
-208.450	494.920	-0.040	0.089
-207.436	-161.292	0.057	0.003
-206.421	800.000	0.040	-0.166
-205.406	800.000	0.089	0.273
-204.392	800.000	0.034	0.132
-203.377	-153.435	0.283	0.019
-202.363	-200.000	0.078	0.350
-201.348	119.341	0.057	0.069
-200.333	-142.260	0.325	0.031
-199.319	-87.605	-0.071	-0.021
-198.304	-27.475	0.135	0.077
-197.290	-27.853	-0.234	0.132
-196.275	-166.466	0.114	0.005
-195.260	236.127	0.091	0.146
-194.246	30.216	0.107	-0.090
-193.231	-1.480	-0.045	0.031
-192.217	648.460	0.119	0.296
-191.202	-35.006	-0.242	0.129
-190.187	661.309	0.058	0.145
-189.173	-200.000	0.030	0.173
-188.158	17.718	0.240	-0.186
-187.144	-3.564	0.246	-0.167
-186.129	-86.643	0.078	0.023
-185.114	365.566	-0.153	-0.300
-184.100	-36.424	-0.079	-0.042
-183.085	-200.000	0.010	-0.051
-182.071	287.136	-0.098	-0.174
-181.056	239.015	0.064	-0.105
-180.042	158.865	0.083	0.112
-179.027	131.440	0.046	0.058
-178.012	-200.000	0.022	-0.343
-176.998	67.927	-0.035	-0.035
-175.983	-18.995	-0.250	-0.151
-174.969	529.397	-0.175	0.403
-173.954	6.703	0.088	-0.064
-172.939	-137.748	0.270	-0.030
-171.925	-93.620	0.419	0.113
-170.910	53.229	-0.053	-0.050
-169.896	-200.000	-0.048	0.423
-168.881	166.560	-0.072	0.099
-167.866	186.068	0.168	-0.244
-166.852	-200.000	-0.057	0.313
-165.837	-43.095	-0.090	0.044
-164.823	20.273	-0.217	-0.171
-163.808	-117.218	0.408	-0.072
-162.793	560.057	-0.113	0.266
-161.779	-89.615	-0.143	0.041
-160.764	-46.467	0.064	-0.031
-159.750	461.232	0.097	-0.210
-158.735	-43.056	0.296	-0.146
-157.720	-200.000	0.049	0.290
-156.706	-118.008	-0.211	-0.037
-155.691	-41.155	0.206	0.104
-154.677	503.029	0.047	-0.107
-153.662	-200.000	0.071	-0.311
-152.647	-200.000	-0.056	0.452
-151.633	-139.709	0.232	0.024
-150.618	-200.000	0.054	0.302
-149.604	334.054	-0.070	0.133
-148.589	-178.231	-0.373	-0.009
-147.574	-200.000	-0.018	0.183
-146.560	246.014	-0.071	0.116
-145.545	-200.000	0.024	0.222
-144.531	800.000	0.168	-0.519
-143.516	-70.200	0.091	0.034
-142.502	-200.000	-0.014	0.114
-141.487	-200.000	0.001	0.240
-140.472	440.036	0.078	0.166
-139.458	-107.425	0.254	0.054
-138.443	-138.489	-0.290	0.031
-137.429	800.000	-0.063	-0.221
-136.414	-112.437	0.190	0.037
-135.399	-16.193	0.173	0.107
-134.385	-120.136	-0.020	0.003
-133.370	-137.585	0.149	-0.016
-132.356	-200.000	-0.025	-0.395
-131.341	-142.133	0.501	-0.048
-130.326	-200.000	0.074	-0.364
-129.312	-200.000	-0.014	0.170
-128.297	291.380	0.143	0.253
-127.283	-18.214	-0.232	0.141
-126.268	-6.750	0.345	-0.228
-125.253	800.000	0.026	-0.086
-124.239	-125.813	0.253	0.037
-123.224	99.043	0.175	-0.197
-122.210	-101.169	0.303	0.072
