DTS Sentinel unit serial number:	SN413079Multiplexer serial number:	ORYXHardware model number:	OX4-SRSoftware version number:	ORYX F/W v4.00 Oryx Data Collector v3.7.2.0data status	okinstallation	princeton_trtdifferential loss correction	single-endedforward channel	channel 2reverse channel	N/Adate	2019/09/16time	15:03:35forward acquisition time	60.00reverse acquisition time	0.00gamma	496.2192k internal	0.2299k external	0.2299temperature offset calibration	0.9939default loss term (dB/km)	0.3790temperature slope calibration	1.0000multiplexer offset coefficient	1.0000multiplexer slope coefficient	1.0000fibre end	0.00T internal ref (°C)	41.14T ext. ref 1 (°C)	14.48T ext. ref 2 (°C)	36.37length (m)	temperature (°C)	Stokes	anti-Stokes-747.200	-58.782	0.073	0.032
-746.185	524.041	-0.187	0.449
-745.171	800.000	-0.020	0.089
-744.156	-36.135	0.324	0.179
-743.142	368.972	-0.103	0.213
-742.127	46.471	0.179	0.169
-741.112	-82.081	-0.182	-0.061
-740.098	-200.000	0.043	0.476
-739.083	-32.216	-0.065	-0.037
-738.069	203.458	-0.344	0.543
-737.054	351.656	-0.153	-0.309
-736.039	214.341	-0.099	-0.160
-735.025	47.083	0.242	0.230
-734.010	-6.788	-0.044	-0.031
-732.996	-200.000	-0.043	-0.223
-731.981	-200.000	0.018	-0.442
-730.966	99.574	0.062	-0.073
-729.952	40.306	0.076	-0.070
-728.937	234.304	-0.031	0.052
-727.923	-200.000	0.037	-0.168
-726.908	31.107	-0.448	-0.392
-725.894	149.718	-0.111	-0.153
-724.879	51.719	0.119	-0.115
-723.864	-111.288	-0.231	0.048
-722.850	33.357	0.280	0.248
-721.835	191.308	-0.185	0.283
-720.821	0.610	-0.277	-0.202
-719.806	-20.148	0.209	0.131
-718.791	-112.874	0.220	0.044
-717.777	1.737	0.107	-0.079
-716.762	-122.201	-0.272	0.045
-715.748	18.417	-0.138	-0.113
-714.733	-5.837	0.129	-0.090
-713.718	-95.399	-0.272	0.075
-712.704	-118.277	-0.161	0.029
-711.689	102.611	0.119	-0.142
-710.675	800.000	0.093	-0.365
-709.660	-200.000	0.002	-0.253
-708.645	108.764	0.057	0.070
-707.631	800.000	0.152	0.586
-706.616	-60.487	-0.086	0.037
-705.602	-1.668	0.183	0.131
-704.587	621.766	0.063	0.161
-703.572	800.000	-0.087	-0.285
-702.558	-200.000	0.001	0.013
-701.543	-135.775	0.109	-0.013
-700.529	-127.139	-0.120	0.018
-699.514	26.727	-0.302	-0.258
-698.499	-13.655	0.171	-0.113
-697.485	-19.496	-0.274	0.173
-696.470	-117.907	-0.229	0.042
-695.456	-43.733	-0.188	0.097
-694.441	-90.074	-0.201	-0.060
-693.426	-177.559	-0.285	-0.007
-692.412	273.330	0.078	-0.140
-691.397	-200.000	-0.011	0.300
-690.383	-200.000	0.001	-0.312
-689.368	-200.000	0.063	-0.325
-688.354	538.011	-0.144	-0.349
-687.339	325.051	-0.041	-0.081
-686.324	-47.337	0.050	-0.025
-685.310	800.000	-0.072	-0.279
-684.295	123.005	-0.349	0.444
-683.281	147.580	-0.285	0.391
-682.266	492.566	-0.149	-0.347
-681.251	-102.039	0.254	0.062
-680.237	-109.338	-0.182	-0.039
-679.222	-200.000	-0.060	0.421
-678.208	-200.000	0.002	0.159
-677.193	-85.156	0.205	-0.065
-676.178	8.581	-0.288	-0.221
-675.164	-117.169	-0.424	-0.079
-674.149	-200.000	-0.023	0.157
-673.135	84.221	0.160	0.178
-672.120	432.806	0.052	-0.114
-671.105	103.881	0.200	-0.239
-670.091	-146.098	0.311	0.028
-669.076	-200.000	0.002	-0.391
-668.062	46.105	0.103	-0.097
-667.047	-200.000	-0.078	-0.496
-666.032	229.518	0.185	0.307
-665.018	45.085	0.207	0.194
-664.003	30.308	0.137	-0.119
-662.989	-76.996	0.221	-0.078
-661.974	-82.678	-0.359	0.118
-660.959	-47.980	-0.154	0.076
-659.945	-5.616	-0.151	0.105
-658.930	-85.143	0.363	-0.115
-657.916	175.298	0.141	-0.208
-656.901	-117.425	-0.256	-0.047
-655.886	-200.000	-0.062	-0.468
-654.872	800.000	-0.090	0.304
-653.857	-77.225	-0.192	0.068
-652.843	259.401	-0.125	0.219
-651.828	-200.000	0.090	0.408
-650.814	674.205	0.119	-0.315
-649.799	100.433	-0.119	0.141
-648.784	-12.204	-0.260	0.173
-647.770	-47.844	0.302	-0.149
-646.755	601.377	-0.121	-0.305
-645.741	-50.537	0.076	-0.036
-644.726	-106.272	0.155	-0.035
-643.711	-35.494	-0.271	-0.150
-642.697	-65.817	-0.155	0.063
-641.682	73.264	-0.141	0.150
-640.668	-200.000	-0.003	0.066
-639.653	-44.873	0.125	-0.063
-638.638	-61.129	-0.067	-0.029
-637.624	181.356	-0.217	-0.324
-636.609	800.000	-0.055	-0.177
-635.595	-156.512	0.139	-0.009
-634.580	-87.905	-0.167	0.051
-633.565	37.389	-0.192	-0.173
-632.551	-110.777	-0.105	-0.022
-631.536	479.173	-0.237	0.545
-630.522	72.368	-0.109	0.115
-629.507	288.718	-0.094	0.173
-628.492	-86.015	-0.514	0.161
-627.478	71.110	0.249	0.262
-626.463	649.348	-0.085	0.222
-625.449	106.006	-0.145	-0.174
-624.434	243.693	0.173	-0.295
-623.419	30.501	0.052	0.045
-622.405	-75.928	0.125	-0.045
-621.390	551.770	-0.133	-0.324
-620.376	-81.816	0.055	-0.018
-619.361	-55.559	-0.107	0.049
-618.346	-58.527	-0.144	0.063
-617.332	-60.526	-0.062	-0.027
-616.317	15.141	-0.169	0.135
-615.303	246.040	0.080	-0.137
-614.288	116.905	0.089	0.111
-613.273	-2.115	-0.105	0.075
-612.259	-128.793	-0.330	-0.047
-611.244	-200.000	0.027	0.267
-610.230	-62.542	-0.233	-0.098
-609.215	-200.000	-0.025	-0.321
-608.201	-200.000	0.020	-0.216
-607.186	48.856	-0.181	-0.173
-606.171	137.394	0.072	-0.095
-605.157	800.000	0.066	-0.237
-604.142	-26.398	-0.123	-0.073
-603.128	-27.857	0.275	-0.162
-602.113	-66.982	-0.076	-0.031
-601.098	-89.311	-0.178	-0.053
-600.084	13.827	0.145	0.115
-599.069	-12.807	0.349	0.231
-598.055	208.393	-0.102	-0.161
-597.040	800.000	0.075	0.294
-596.025	-91.016	0.226	0.066
-595.011	191.543	0.019	-0.029
-593.996	143.919	0.170	-0.230
-592.982	800.000	0.172	-0.508
-591.967	-200.000	0.001	0.036
-590.952	0.283	-0.054	-0.039
-589.938	-108.559	-0.447	-0.097
-588.923	-29.752	0.442	-0.256
-587.909	-68.824	0.048	-0.019
-586.894	-111.346	-0.209	-0.043
-585.879	0.442	-0.225	-0.163
-584.865	-200.000	-0.031	-0.171
-583.850	800.000	0.037	0.132
-582.836	-98.753	-0.298	0.077
-581.821	-65.656	-0.253	-0.103
-580.806	-100.962	-0.036	0.009
-579.792	-52.348	0.207	0.097
-578.777	211.737	-0.021	0.033
-577.763	151.005	-0.193	-0.266
-576.748	-63.967	0.294	0.122
-575.733	-109.317	-0.235	-0.051
-574.719	314.447	-0.230	-0.440
-573.704	-200.000	-0.071	-0.487
-572.690	-200.000	-0.008	-0.097
-571.675	800.000	0.075	-0.259
-570.661	-94.606	-0.138	-0.038
-569.646	-64.235	-0.356	-0.147
-568.631	-102.127	0.265	-0.065
-567.617	-200.000	0.023	0.340
-566.602	210.652	-0.108	-0.172
-565.588	500.778	-0.064	0.150
-564.573	-0.651	-0.100	0.072
-563.558	6.020	0.194	0.146
-562.544	800.000	0.060	0.193
-561.529	303.562	0.148	-0.278
-560.515	107.293	-0.112	-0.135
-559.500	72.360	-0.149	0.157
-558.485	3.798	-0.250	0.185
-557.471	-48.860	-0.089	-0.043
-556.456	77.000	-0.197	-0.212
-555.442	-200.000	-0.033	0.527
-554.427	-200.000	0.040	-0.402
-553.412	-42.281	-0.154	-0.080
-552.398	-53.743	0.270	-0.125
-551.383	91.282	0.060	-0.068
-550.369	76.267	-0.170	-0.182
-549.354	48.862	-0.062	-0.059
-548.339	800.000	-0.085	-0.239
-547.325	78.358	-0.219	0.237
-546.310	64.612	-0.162	-0.165
-545.296	512.826	-0.132	0.312
-544.281	800.000	-0.038	0.111
-543.266	-38.288	0.186	0.100
-542.252	-77.106	0.088	0.031
-541.237	163.221	0.071	-0.101
-540.223	800.000	0.097	-0.322
-539.208	800.000	0.074	0.234
-538.193	358.112	-0.077	0.156
-537.179	49.129	-0.191	0.182
-536.164	-74.206	-0.219	0.080
-535.150	800.000	-0.078	0.318
-534.135	-112.717	-0.324	0.065
-533.121	58.195	-0.195	-0.194
-532.106	-103.984	-0.268	-0.063
-531.091	576.666	-0.129	0.320
-530.077	538.179	0.157	0.377
-529.062	129.400	-0.148	-0.192
-528.048	224.447	-0.161	0.264
-527.033	-174.260	0.358	-0.010
-526.018	-35.416	0.176	-0.097
-525.004	69.074	-0.208	0.217
-523.989	-182.639	-0.234	0.004
-522.975	-46.923	0.244	-0.121
-521.960	157.204	0.154	0.215
-520.945	-21.845	0.235	-0.144
-519.931	48.841	0.172	0.164
-518.916	40.342	0.248	-0.226
-517.902	-200.000	0.017	0.081
-516.887	-59.736	0.217	0.094
-515.872	52.264	-0.038	0.037
-514.858	-200.000	-0.033	-0.301
-513.843	385.109	0.087	-0.182
-512.829	-200.000	0.033	-0.265
-511.814	-40.817	-0.110	-0.058
-510.799	-200.000	0.019	-0.560
-509.785	-200.000	0.025	0.321
-508.770	181.498	-0.090	0.134
-507.756	18.365	0.036	0.029
-506.741	-75.521	0.072	0.026
-505.726	314.063	0.330	-0.628
-504.712	-29.960	0.256	-0.147
-503.697	-103.201	0.117	-0.028
-502.683	-114.065	-0.175	-0.034
-501.668	175.734	0.154	-0.226
-500.653	-92.071	0.255	0.073
-499.639	-70.213	0.035	-0.014
-498.624	-200.000	0.027	-0.187
-497.610	-200.000	-0.022	0.308
-496.595	-128.406	-0.212	0.030
-495.581	686.555	-0.069	-0.181
-494.566	-200.000	0.000	-0.158
-493.551	324.832	0.060	-0.116
-492.537	800.000	0.039	-0.155
-491.522	278.960	-0.098	-0.176
-490.508	19.602	-0.176	-0.143
-489.493	102.645	0.169	-0.200
-488.478	127.354	0.049	0.063
-487.464	-70.316	-0.148	0.057
-486.449	433.454	0.080	-0.176
-485.435	381.707	0.098	0.202
-484.420	300.420	-0.123	0.230
-483.405	-200.000	-0.004	0.200
-482.391	-200.000	-0.004	-0.070
-481.376	-168.274	0.126	-0.005
-480.362	-43.565	0.023	0.012
-479.347	125.475	-0.120	0.152
-478.332	-153.418	-0.243	-0.017
-477.318	135.649	0.157	0.206
-476.303	-139.957	0.338	0.036
-475.289	-136.322	-0.220	0.026
-474.274	1.344	0.288	-0.209
-473.259	-64.160	-0.305	0.125
-472.245	52.840	-0.162	-0.156
-471.230	225.970	0.133	0.218
-470.216	391.849	-0.056	-0.118
-469.201	-200.000	0.003	-0.277
-468.186	-111.186	-0.453	-0.094
-467.172	-68.019	0.117	0.046
-466.157	52.697	0.132	0.127
-465.143	-200.000	0.034	0.199
-464.128	-83.833	-0.141	-0.045
-463.113	340.571	-0.075	-0.149
-462.099	109.408	-0.115	0.139
-461.084	187.218	-0.088	0.132
-460.070	-20.082	-0.154	0.096
-459.055	6.086	-0.354	-0.265
-458.040	-64.605	-0.327	0.134
-457.026	-200.000	0.085	0.464
-456.011	800.000	-0.043	-0.169
-454.997	800.000	0.043	0.139
-453.982	10.118	0.364	-0.279
-452.968	226.286	-0.151	0.248
-451.953	-200.000	0.022	-0.201
-450.938	110.007	0.269	0.325
-449.924	800.000	0.071	0.226
-448.909	53.096	0.074	0.071
-447.895	-152.034	-0.046	-0.003
-446.880	-104.130	0.232	-0.054
-445.865	87.434	0.268	-0.300
-444.851	213.003	-0.160	-0.254
-443.836	-200.000	-0.017	0.131
-442.822	800.000	-0.007	-0.020
-441.807	-113.278	-0.184	0.037
-440.792	228.312	-0.054	-0.089
-439.778	49.297	-0.180	-0.171
-438.763	-71.927	0.096	-0.036
-437.749	-170.854	0.302	0.010
-436.734	176.132	-0.095	-0.140
-435.719	242.175	0.155	0.262
-434.705	800.000	0.068	-0.234
-433.690	-174.195	-0.403	-0.012
-432.676	548.162	0.037	0.089
-431.661	445.771	0.141	0.312
-430.646	-200.000	0.033	0.394
-429.632	120.120	-0.236	0.295
-428.617	250.750	0.084	0.143
-427.603	95.064	0.040	0.046
-426.588	-200.000	-0.006	-0.214
-425.573	317.790	0.204	0.390
-424.559	280.915	0.076	-0.137
-423.544	22.959	0.184	0.152
-422.530	5.001	-0.108	-0.080
-421.515	-156.310	0.314	-0.020
-420.500	-11.222	0.148	-0.098
-419.486	800.000	0.024	0.076
-418.471	276.448	-0.062	0.111
-417.457	-67.679	-0.145	0.057
-416.442	-200.000	-0.028	-0.249
-415.428	123.507	-0.138	0.174
-414.413	-200.000	0.025	0.497
-413.398	70.063	-0.075	0.078
-412.384	-74.930	-0.387	0.140
-411.369	183.555	-0.124	0.185
-410.355	-35.401	0.091	0.050
-409.340	137.939	0.018	-0.023
-408.325	-129.845	0.234	0.032
-407.311	-99.141	0.153	-0.039
-406.296	153.264	-0.153	0.211
-405.282	268.070	-0.184	-0.324
-404.267	235.329	-0.029	-0.048
-403.252	800.000	0.091	0.254
-402.238	206.090	-0.160	-0.251
-401.223	-200.000	0.000	-0.261
-400.209	103.747	0.124	-0.146
-399.194	-200.000	-0.016	0.117
-398.179	5.540	-0.161	0.120
-397.165	-122.347	-0.094	0.015
-396.150	135.299	-0.029	-0.038
-395.136	569.592	0.038	0.093
-394.121	-97.462	-0.161	-0.042
-393.106	-170.248	-0.307	0.011
-392.092	239.396	0.174	-0.292
-391.077	-200.000	0.046	0.210
-390.063	-3.744	0.272	0.190
-389.048	104.901	0.122	0.145
-388.033	800.000	-0.100	0.285
-387.019	800.000	-0.159	-0.467
-386.004	300.394	0.096	-0.178
-384.990	-8.209	0.326	0.221
-383.975	-117.216	0.244	0.045
-382.960	-6.694	0.360	-0.247
-381.946	153.889	-0.085	-0.117
-380.931	66.589	-0.118	-0.120
-379.917	-100.662	-0.254	-0.063
-378.902	-154.841	-0.057	0.004
-377.888	31.587	-0.260	0.225
-376.873	-108.768	0.409	-0.088
-375.858	-80.914	-0.228	-0.076
-374.844	-46.845	0.101	0.050
-373.829	-200.000	-0.012	0.084
-372.815	756.655	-0.136	-0.370
-371.800	-200.000	0.008	-0.147
-370.785	479.158	0.066	-0.150
-369.771	322.108	0.055	0.106
-368.756	36.586	-0.005	0.005
-367.742	800.000	-0.061	-0.225
-366.727	118.781	-0.109	-0.135
-365.712	468.400	0.114	0.258
-364.698	800.000	-0.089	0.312
-363.683	19.438	0.067	0.054
-362.669	800.000	0.061	0.181
-361.654	142.475	0.330	0.440
-360.639	-12.812	0.081	-0.053
-359.625	25.207	-0.209	-0.174
-358.610	800.000	0.049	-0.171
-357.596	7.200	0.399	0.300
-356.581	-99.088	0.399	-0.102
-355.566	-9.218	-0.319	0.214
-354.552	-106.347	-0.255	-0.057
-353.537	-82.362	-0.491	0.161
-352.523	-157.190	-0.191	-0.012
-351.508	660.648	-0.009	0.023
-350.493	-61.936	-0.127	-0.054
-349.479	-200.000	-0.271	-0.000
-348.464	-136.242	-0.296	0.035
-347.450	-97.220	0.236	0.062
-346.435	387.007	0.148	0.308
-345.420	501.049	-0.019	-0.043
-344.406	-56.200	0.129	-0.058
-343.391	45.301	0.079	-0.073
-342.377	371.457	0.124	0.252
-341.362	551.688	0.044	-0.107
-340.348	-200.000	0.025	0.155
-339.333	-200.000	-0.016	-0.283
-338.318	-54.770	0.352	0.160
-337.304	82.587	0.136	0.148
-336.289	-80.006	-0.338	-0.114
-335.275	7.817	0.138	0.104
-334.260	227.383	-0.135	0.221
-333.245	-200.000	0.036	-0.181
-332.231	-33.949	0.287	0.159
-331.216	-200.000	-0.066	-0.309
-330.202	-113.229	-0.151	-0.030
-329.187	27.550	-0.069	-0.058
-328.172	87.331	0.094	-0.104
-327.158	-144.593	-0.303	-0.028
-326.143	531.310	-0.094	-0.223
-325.129	347.078	0.112	0.222
-324.114	-47.449	0.280	0.137
-323.099	193.889	-0.111	0.168
-322.085	550.132	-0.153	0.368
-321.070	-38.045	0.122	-0.065
-320.056	-13.352	-0.249	0.162
-319.041	-200.000	-0.117	0.000
-318.026	-72.588	-0.033	0.012
-317.012	148.511	-0.122	0.166
-315.997	417.619	0.003	0.007
-314.983	-200.000	0.036	-0.231
-313.968	11.869	-0.274	-0.211
-312.953	173.399	0.022	0.032
-311.939	343.980	-0.152	0.298
-310.924	-98.153	0.233	0.060
-309.910	800.000	0.069	0.204
-308.895	-186.549	-0.146	0.002
-307.880	157.261	-0.074	0.103
-306.866	-150.638	0.244	0.019
-305.851	800.000	-0.088	-0.247
-304.837	631.999	0.089	0.226
-303.822	-81.936	0.418	0.137
-302.807	-200.000	0.021	-0.454
-301.793	-200.000	0.045	-0.226
-300.778	-50.472	-0.184	0.087
-299.764	194.466	0.103	0.156
-298.749	-93.324	-0.112	-0.031
-297.735	265.116	-0.081	0.141
-296.720	-23.158	-0.145	-0.087
-295.705	595.355	0.024	-0.061
-294.691	-73.449	-0.261	-0.095
-293.676	75.019	0.220	0.233
-292.662	-200.000	0.034	0.212
-291.647	349.572	-0.045	-0.088
-290.632	-28.665	0.161	0.093
-289.618	150.137	-0.175	-0.237
-288.603	-40.822	0.141	0.073
-287.589	800.000	-0.046	0.129
-286.574	140.564	0.132	-0.174
-285.559	81.326	-0.070	0.075
-284.545	-46.734	-0.224	-0.110
-283.530	-106.131	0.207	0.047
-282.516	-114.416	0.351	-0.068
-281.501	343.566	0.011	-0.022
-280.486	44.663	0.081	-0.075
-279.472	377.656	0.089	0.182
-278.457	131.554	0.157	0.202
-277.443	567.237	0.114	-0.277
-276.428	417.794	-0.041	-0.088
-275.413	-200.000	0.026	0.223
-274.399	-48.967	0.103	0.050
-273.384	637.522	0.038	0.096
-272.370	-200.000	-0.080	0.402
-271.355	-200.000	0.034	0.227
-270.340	33.806	-0.303	0.264
-269.326	-182.758	0.257	0.005
-268.311	-200.000	0.012	-0.423
-267.297	217.917	-0.119	-0.190
-266.282	-159.382	0.172	-0.010
-265.267	169.039	0.233	-0.333
-264.253	-41.984	0.081	-0.041
-263.238	-137.060	0.133	-0.015
-262.224	64.548	-0.109	-0.110
-261.209	-22.696	0.225	-0.136
-260.195	-200.000	0.011	0.288
-259.180	800.000	0.058	-0.179
-258.165	-175.108	0.192	0.005
-257.151	120.183	0.113	0.141
-256.136	-200.000	-0.091	0.437
-255.122	-51.729	-0.236	0.110
-254.107	-65.234	0.200	0.080
-253.092	33.624	0.127	0.111
-252.078	-70.632	0.126	0.048
-251.063	-179.410	0.517	-0.011
-250.049	-73.717	-0.321	0.117
-249.034	-67.246	-0.290	-0.114
-248.019	-200.000	-0.006	-0.114
-247.005	800.000	0.048	-0.200
-245.990	-200.000	0.005	0.230
-244.976	89.206	-0.057	0.063
-243.961	-64.609	-0.256	0.104
-242.946	800.000	0.077	-0.289
-241.932	800.000	0.060	0.177
-240.917	40.287	0.097	-0.087
-239.903	-200.000	-0.001	-0.022
-238.888	-166.469	0.250	0.010
-237.873	-0.505	0.067	0.048
-236.859	-118.071	0.206	-0.037
-235.844	217.953	0.061	0.098
-234.830	-200.000	-0.016	0.290
-233.815	130.459	-0.171	0.220
-232.800	-200.000	0.008	0.292
-231.786	-200.000	0.009	0.066
-230.771	800.000	0.044	-0.136
-229.757	800.000	0.132	-0.510
-228.742	800.000	0.056	-0.223
-227.727	-157.890	-0.078	-0.005
-226.713	43.064	0.056	-0.051
-225.698	-31.426	-0.140	0.079
-224.684	-147.313	-0.224	0.019
-223.669	-34.280	0.312	0.171
-222.655	210.353	-0.041	0.065
-221.640	406.100	0.018	-0.037
-220.625	-14.289	0.233	-0.150
-219.611	51.792	0.232	-0.220
-218.596	769.644	-0.106	-0.290
-217.582	-200.000	0.001	0.180
-216.567	-200.000	-0.032	0.218
-215.552	-85.816	0.374	-0.116
-214.538	-105.080	0.313	-0.072
-213.523	800.000	0.072	-0.204
-212.509	800.000	0.053	0.176
-211.494	-111.709	0.094	-0.019
-210.479	-31.503	0.290	-0.163
-209.465	-67.588	0.125	-0.049
-208.450	-5.727	0.142	-0.097
-207.436	-32.875	-0.094	-0.052
-206.421	-200.000	0.000	0.041
-205.406	53.451	-0.043	0.041
-204.392	-113.944	-0.216	-0.042
-203.377	337.041	0.091	0.176
-202.363	268.521	0.100	-0.175
-201.348	-37.422	0.261	-0.139
-200.333	10.160	0.150	0.114
-199.319	126.659	0.042	-0.053
-198.304	800.000	0.041	-0.123
-197.290	800.000	0.076	-0.280
-196.275	-70.748	0.110	-0.042
-195.260	-200.000	-0.115	0.582
-194.246	-143.504	-0.034	-0.003
-193.231	-95.543	-0.452	-0.121
-192.217	84.245	-0.231	-0.252
-191.202	800.000	0.061	-0.176
-190.187	-5.455	-0.183	0.125
-189.173	800.000	-0.029	-0.090
-188.158	87.995	0.091	-0.101
-187.144	580.845	-0.065	0.158
-186.129	-200.000	-0.011	0.279
-185.114	800.000	0.100	-0.301
-184.100	23.051	0.223	-0.182
-183.085	-200.000	-0.014	0.113
-182.071	798.997	-0.084	0.230
-181.056	-70.742	-0.078	-0.030
-180.042	-200.000	0.022	-0.192
-179.027	-200.000	0.031	0.150
-178.012	86.768	-0.193	0.212
-176.998	482.728	-0.068	-0.154
-175.983	320.235	-0.183	0.347
-174.969	-59.123	0.433	0.186
-173.954	-200.000	0.003	0.168
-172.939	-200.000	-0.002	-0.061
-171.925	-10.029	-0.096	0.063
-170.910	148.793	-0.034	-0.046
-169.896	-200.000	0.043	-0.411
-168.881	-122.747	0.144	0.023
-167.866	50.251	0.218	0.205
-166.852	800.000	-0.059	0.245
-165.837	-125.181	0.110	0.017
-164.823	800.000	-0.034	0.100
-163.808	-78.399	0.196	0.067
-162.793	225.681	0.022	-0.036
-161.779	-67.744	-0.119	0.046
-160.764	-141.474	-0.263	0.027
-159.750	-169.763	0.142	0.005
-158.735	5.570	0.139	0.103
-157.720	238.200	0.112	0.186
-156.706	-200.000	-0.020	-0.420
-155.691	99.824	-0.085	-0.098
-154.677	-62.588	0.273	-0.113
-153.662	122.371	-0.021	0.026
-152.647	222.444	0.159	-0.256
-151.633	-178.595	-0.237	-0.005
-150.618	652.326	0.028	0.072
-149.604	-54.779	0.251	0.113
-148.589	186.719	-0.163	-0.242
-147.574	179.091	-0.176	-0.257
-146.560	-200.000	0.028	-0.129
-145.545	-50.373	-0.105	-0.049
-144.531	-112.374	-0.165	0.033
-143.516	354.987	-0.061	0.120
-142.502	-56.529	0.395	0.175
-141.487	101.603	0.179	-0.208
-140.472	408.567	-0.168	-0.353
-139.458	100.249	0.216	0.250
-138.443	77.193	-0.163	0.172
-137.429	-84.427	0.408	0.129
-136.414	-2.532	-0.149	-0.104
-135.399	280.295	0.174	0.311
-134.385	-116.560	0.299	0.055
-133.370	14.477	-0.296	-0.230
-132.356	296.108	-0.178	-0.326
-131.341	86.004	0.160	-0.175
-130.326	-40.821	-0.278	-0.143
-129.312	-180.534	-0.190	0.004
-128.297	-144.227	-0.339	0.031
-127.283	9.772	-0.152	-0.115
-126.268	65.255	-0.061	0.061
-125.253	554.555	-0.125	0.299
-124.239	27.126	0.425	0.355
-123.224	-96.204	0.177	0.047
-122.210	9.096	0.153	-0.115
-121.195	-58.645	0.206	-0.089
-120.180	-122.574	-0.263	0.042
