DTS Sentinel unit serial number:	SN413079Multiplexer serial number:	ORYXHardware model number:	OX4-SRSoftware version number:	ORYX F/W v4.00 Oryx Data Collector v3.7.2.0data status	okinstallation	princeton_trtdifferential loss correction	single-endedforward channel	channel 2reverse channel	N/Adate	2019/09/19time	00:43:35forward acquisition time	60.00reverse acquisition time	0.00gamma	496.2192k internal	0.2353k external	0.2353temperature offset calibration	1.0011default loss term (dB/km)	0.3790temperature slope calibration	1.0000multiplexer offset coefficient	1.0000multiplexer slope coefficient	1.0000fibre end	0.00T internal ref (°C)	22.25T ext. ref 1 (°C)	0.73T ext. ref 2 (°C)	15.46length (m)	temperature (°C)	Stokes	anti-Stokes-747.200	-82.106	0.176	0.057
-746.185	235.509	0.115	0.190
-745.171	26.716	0.400	0.334
-744.156	-25.369	0.303	0.178
-743.142	-47.618	-0.210	0.102
-742.127	46.564	0.063	0.058
-741.112	437.333	0.079	0.172
-740.098	37.750	-0.034	0.030
-739.083	268.577	-0.204	0.357
-738.069	310.924	-0.331	0.618
-737.054	-200.000	-0.041	0.288
-736.039	265.830	-0.237	-0.412
-735.025	-51.984	0.245	0.113
-734.010	-35.788	-0.320	0.173
-732.996	389.293	-0.087	-0.180
-731.981	-121.779	-0.157	-0.026
-730.966	-200.000	-0.024	0.146
-729.952	-200.000	-0.021	-0.240
-728.937	36.600	-0.083	0.073
-727.923	154.998	-0.200	-0.274
-726.908	-10.395	-0.366	-0.242
-725.894	-4.536	0.324	0.223
-724.879	-200.000	-0.045	0.291
-723.864	-200.000	-0.018	-0.210
-722.850	223.747	-0.085	0.136
-721.835	-125.395	0.169	-0.026
-720.821	-150.901	-0.284	-0.021
-719.806	-97.631	-0.165	-0.043
-718.791	22.894	-0.088	0.072
-717.777	288.110	0.068	-0.122
-716.762	184.497	-0.163	0.240
-715.748	-26.758	-0.364	0.212
-714.733	-200.000	0.006	-0.092
-713.718	-24.053	-0.125	0.075
-712.704	189.275	0.186	0.278
-711.689	-106.639	-0.281	0.062
-710.675	5.016	0.081	0.059
-709.660	91.764	-0.112	-0.126
-708.645	-104.762	-0.079	0.018
-707.631	225.449	0.229	-0.370
-706.616	800.000	-0.062	0.229
-705.602	-200.000	0.035	0.158
-704.587	-200.000	0.042	0.253
-703.572	140.437	-0.090	-0.118
-702.558	662.339	0.167	0.428
-701.543	-37.013	-0.443	0.236
-700.529	-136.914	-0.187	0.021
-699.514	6.651	-0.145	0.107
-698.499	-200.000	0.020	0.226
-697.485	-97.949	-0.275	-0.071
-696.470	800.000	-0.013	0.044
-695.456	34.599	0.142	-0.123
-694.441	-31.493	0.177	0.099
-693.426	-113.472	-0.392	-0.076
-692.412	-200.000	-0.001	0.144
-691.397	-117.276	0.076	0.014
-690.383	-96.420	-0.240	0.063
-689.368	485.801	0.072	0.162
-688.354	-89.083	-0.258	0.076
-687.339	58.856	-0.090	0.088
-686.324	-182.286	-0.240	0.004
-685.310	-102.143	-0.263	-0.063
-684.295	-32.665	-0.210	-0.116
-683.281	800.000	-0.043	0.147
-682.266	180.911	-0.064	-0.093
-681.251	274.324	-0.127	-0.223
-680.237	88.875	0.119	0.132
-679.222	323.974	-0.061	-0.115
-678.208	-5.694	0.222	-0.151
-677.193	-200.000	0.006	0.169
-676.178	-80.461	0.041	-0.014
-675.164	458.343	-0.055	-0.122
-674.149	-200.000	-0.016	0.254
-673.135	404.717	-0.127	-0.266
-672.120	209.225	-0.084	0.130
-671.105	10.729	0.451	-0.342
-670.091	-200.000	-0.046	-0.212
-669.076	-200.000	0.024	-0.259
-668.062	10.494	-0.376	-0.285
-667.047	-57.835	-0.191	0.083
-666.032	800.000	0.036	-0.154
-665.018	-200.000	0.040	-0.193
-664.003	-137.583	-0.204	0.023
-662.989	800.000	-0.104	-0.300
-661.974	279.454	0.075	-0.133
-660.959	-69.618	0.085	0.032
-659.945	308.711	-0.136	0.252
-658.930	-198.656	0.108	-0.001
-657.916	-154.257	0.443	-0.030
-656.901	800.000	-0.067	0.197
-655.886	98.089	-0.123	-0.141
-654.872	658.487	0.141	0.359
-653.857	82.288	-0.347	-0.374
-652.843	51.476	-0.202	-0.191
-651.828	-200.000	-0.068	-0.364
-650.814	373.058	0.144	0.290
-649.799	-3.100	-0.081	-0.056
-648.784	-30.605	0.039	-0.022
-647.770	-36.192	-0.077	0.041
-646.755	-48.638	0.094	0.045
-645.741	-75.737	-0.461	0.163
-644.726	229.137	0.081	0.131
-643.711	-94.144	-0.112	-0.030
-642.697	-88.214	0.141	0.042
-641.682	800.000	0.087	-0.276
-640.668	-140.982	0.080	0.008
-639.653	265.705	-0.139	-0.241
-638.638	-200.000	-0.018	0.087
-637.624	-107.493	-0.612	-0.133
-636.609	34.075	-0.135	-0.116
-635.595	-163.757	0.417	-0.019
-634.580	800.000	-0.044	0.168
-633.565	-113.706	0.130	-0.025
-632.551	-200.000	-0.012	-0.118
-631.536	294.429	0.053	-0.095
-630.522	-200.000	0.084	-0.478
-629.507	-55.967	0.218	-0.097
-628.492	12.468	0.200	-0.153
-627.478	-63.194	0.159	0.065
-626.463	45.586	-0.157	-0.144
-625.449	800.000	0.061	-0.183
-624.434	-145.709	-0.201	-0.018
-623.419	-80.865	-0.427	-0.141
-622.405	-39.488	0.270	0.140
-621.390	-200.000	-0.006	0.262
-620.376	-128.167	0.484	-0.069
-619.361	-12.459	0.245	0.159
-618.346	281.864	-0.118	-0.210
-617.332	166.460	0.164	-0.231
-616.317	-19.001	-0.572	0.353
-615.303	-200.000	0.058	-0.278
-614.288	-130.557	-0.332	-0.044
-613.273	226.178	0.247	-0.397
-612.259	551.553	0.028	-0.067
-611.244	125.072	0.100	0.124
-610.230	-18.223	-0.090	0.056
-609.215	800.000	-0.033	0.132
-608.201	-58.178	-0.255	0.110
-607.186	35.299	0.226	0.196
-606.171	800.000	0.062	-0.185
-605.157	800.000	-0.040	-0.122
-604.142	278.745	0.083	0.146
-603.128	615.093	0.172	0.426
-602.113	-43.832	-0.025	-0.012
-601.098	-172.083	-0.162	-0.005
-600.084	-79.598	0.344	0.115
-599.069	283.811	-0.201	-0.358
-598.055	-179.401	-0.313	0.007
-597.040	28.676	0.130	-0.109
-596.025	494.498	0.044	-0.099
-595.011	57.718	0.166	0.161
-593.996	190.279	-0.130	0.193
-592.982	-118.006	-0.385	0.068
-591.967	800.000	-0.036	-0.121
-590.952	-57.789	-0.109	-0.047
-589.938	-24.190	-0.181	-0.107
-588.923	800.000	0.098	-0.400
-587.909	208.282	0.076	-0.118
-586.894	-40.919	-0.206	-0.105
-585.879	800.000	-0.057	0.168
-584.865	98.682	0.107	0.122
-583.850	-200.000	0.015	0.201
-582.836	-160.961	-0.282	-0.015
-581.821	-68.996	0.501	0.191
-580.806	-130.688	0.310	0.041
-579.792	-187.590	-0.316	0.004
-578.777	-88.724	-0.221	0.065
-577.763	92.697	-0.156	-0.174
-576.748	-159.227	0.251	-0.014
-575.733	597.089	-0.048	-0.117
-574.719	800.000	0.063	-0.257
-573.704	218.328	-0.069	-0.109
-572.690	101.013	-0.290	-0.334
-571.675	-72.308	-0.247	-0.091
-570.661	-78.888	-0.092	0.031
-569.646	131.197	-0.089	-0.114
-568.631	-96.082	0.185	-0.049
-567.617	77.849	0.036	-0.038
-566.602	-18.242	-0.039	0.024
-565.588	-150.522	0.074	0.006
-564.573	333.999	0.111	-0.212
-563.558	-105.218	0.257	0.058
-562.544	-107.740	-0.329	-0.071
-561.529	-200.000	0.029	-0.200
-560.515	20.623	0.234	-0.187
-559.500	26.145	0.311	-0.257
-558.485	147.234	-0.378	-0.504
-557.471	199.266	-0.109	0.165
-556.456	265.785	-0.094	-0.162
-555.442	-76.931	0.253	-0.087
-554.427	-200.000	0.042	0.254
-553.412	-34.705	-0.395	-0.214
-552.398	800.000	0.089	-0.274
-551.383	-200.000	0.009	-0.127
-550.369	-200.000	0.009	-0.165
-549.354	-29.366	-0.164	-0.093
-548.339	81.507	-0.082	-0.087
-547.325	-146.915	-0.342	-0.029
-546.310	-79.970	-0.199	0.066
-545.296	-200.000	-0.007	0.265
-544.281	-132.121	0.042	-0.005
-543.266	-26.077	-0.221	0.128
-542.252	-78.933	-0.357	0.120
-541.237	-23.782	0.238	-0.141
-540.223	-200.000	-0.027	0.346
-539.208	-161.175	0.231	-0.012
-538.193	-36.149	-0.178	0.095
-537.179	800.000	-0.051	0.175
-536.164	-200.000	0.002	0.340
-535.150	-116.189	0.040	-0.007
-534.135	-120.144	-0.296	-0.050
-533.121	610.022	0.084	-0.207
-532.106	-65.887	0.239	-0.094
-531.091	462.393	0.266	-0.587
-530.077	800.000	-0.145	-0.543
-529.062	800.000	-0.023	-0.073
-528.048	-61.239	-0.359	-0.150
-527.033	-200.000	-0.001	-0.031
-526.018	-95.743	0.201	0.053
-525.004	-122.358	-0.216	0.035
-523.989	-200.000	-0.019	-0.366
-522.975	143.639	-0.195	0.257
-521.960	609.256	-0.080	0.198
-520.945	-59.970	0.197	-0.083
-519.931	174.087	-0.067	0.096
-518.916	-121.286	0.129	0.021
-517.902	135.795	-0.123	0.159
-516.887	-200.000	-0.039	0.209
-515.872	800.000	-0.050	0.195
-514.858	-200.000	0.001	-0.212
-513.843	-9.890	0.069	0.045
-512.829	-165.434	0.086	0.004
-511.814	-66.456	0.133	0.052
-510.799	153.084	-0.095	-0.129
-509.785	73.196	-0.065	-0.067
-508.770	319.510	0.154	-0.289
-507.756	800.000	0.074	0.214
-506.741	23.355	-0.116	0.094
-505.726	169.059	0.060	-0.084
-504.712	800.000	-0.020	-0.064
-503.697	73.306	0.173	-0.178
-502.683	261.530	0.157	0.268
-501.668	254.417	-0.071	-0.120
-500.653	-107.924	-0.231	0.050
-499.639	71.919	-0.178	-0.183
-498.624	-51.967	0.273	0.125
-497.610	800.000	-0.036	-0.117
-496.595	449.597	0.027	-0.058
-495.581	-200.000	-0.018	-0.104
-494.566	800.000	0.047	-0.137
-493.551	97.250	-0.197	0.223
-492.537	-200.000	0.089	-0.550
-491.522	-47.960	0.262	-0.125
-490.508	318.811	0.134	0.251
-489.493	470.842	-0.166	0.369
-488.478	-200.000	0.032	0.233
-487.464	64.553	-0.016	-0.016
-486.449	246.937	0.180	0.300
-485.435	37.732	0.144	0.126
-484.420	-114.177	-0.317	0.060
-483.405	182.759	0.174	-0.254
-482.391	221.467	0.083	-0.131
-481.376	89.083	-0.366	-0.402
-480.362	463.368	-0.114	0.250
-479.347	140.531	-0.018	0.024
-478.332	696.448	-0.082	-0.213
-477.318	-200.000	-0.004	-0.251
-476.303	-190.119	-0.257	0.003
-475.289	-200.000	-0.081	-0.358
-474.274	-163.029	-0.330	0.016
-473.259	-58.567	-0.134	0.057
-472.245	-200.000	0.005	0.248
-471.230	-67.031	0.014	0.005
-470.216	-149.987	0.415	-0.032
-469.201	-200.000	-0.013	0.178
-468.186	36.795	-0.182	-0.159
-467.172	-18.818	-0.245	-0.150
-466.157	800.000	0.102	-0.292
-465.143	-143.336	0.091	0.009
-464.128	-176.535	-0.327	-0.008
-463.113	800.000	-0.037	-0.132
-462.099	-63.275	0.129	0.052
-461.084	355.433	0.054	0.106
-460.070	430.688	-0.094	0.201
-459.055	-26.344	0.103	0.059
-458.040	-35.851	-0.151	0.081
-457.026	51.788	0.130	-0.122
-456.011	-200.000	0.005	0.215
-454.997	-108.459	0.249	-0.053
-453.982	-27.580	-0.070	-0.040
-452.968	125.787	-0.174	-0.217
-451.953	800.000	0.043	-0.130
-450.938	97.681	-0.125	0.141
-449.924	-200.000	0.001	-0.464
-448.909	800.000	0.063	-0.238
-447.895	-200.000	-0.047	0.273
-446.880	-108.085	0.092	0.020
-445.865	104.076	-0.106	-0.123
-444.851	800.000	0.054	0.230
-443.836	23.708	0.259	0.210
-442.822	311.058	-0.112	0.207
-441.807	-111.639	-0.217	0.043
-440.792	-112.594	-0.107	-0.021
-439.778	-200.000	0.012	-0.237
-438.763	116.129	-0.177	0.214
-437.749	-200.000	0.010	0.161
-436.734	-200.000	-0.043	0.318
-435.719	-68.971	-0.094	0.036
-434.705	-165.954	0.307	-0.013
-433.690	197.003	-0.143	0.215
-432.676	-71.215	-0.104	0.038
-431.661	-108.351	0.393	0.084
-430.646	-61.064	0.066	-0.028
-429.632	-169.251	0.237	0.009
-428.617	-135.215	0.075	0.009
-427.603	800.000	0.059	0.200
-426.588	-133.443	0.145	-0.018
-425.573	-101.326	0.173	-0.042
-424.559	786.202	-0.067	-0.180
-423.544	466.293	0.108	0.239
-422.530	-200.000	0.015	-0.074
-421.515	179.737	-0.202	-0.292
-420.500	175.114	0.109	0.156
-419.486	-121.444	0.033	0.005
-418.471	-125.838	0.309	-0.046
-417.457	800.000	0.044	0.130
-416.442	36.803	0.196	0.170
-415.428	-49.948	0.165	-0.077
-414.413	53.404	-0.191	0.180
-413.398	-200.000	-0.109	0.499
-412.384	59.287	-0.113	-0.110
-411.369	-145.283	0.245	-0.022
-410.355	329.892	0.082	-0.155
-409.340	118.691	0.202	0.246
-408.325	603.922	-0.116	-0.285
-407.311	-200.000	-0.014	-0.112
-406.296	-4.139	0.284	0.194
-405.282	-111.650	0.202	0.040
-404.267	419.880	0.115	-0.241
-403.252	800.000	-0.048	0.208
-402.238	128.681	0.020	-0.025
-401.223	475.018	-0.096	-0.213
-400.209	703.445	-0.106	0.276
-399.194	-40.750	0.152	-0.078
-398.179	-200.000	0.005	0.150
-397.165	-8.550	0.452	0.298
-396.150	800.000	-0.043	-0.129
-395.136	13.962	-0.146	0.112
-394.121	-100.228	-0.163	0.040
-393.106	603.050	0.067	0.164
-392.092	142.359	0.210	0.275
-391.077	-164.005	-0.358	-0.016
-390.063	370.827	-0.025	-0.051
-389.048	800.000	0.159	-0.444
-388.033	559.932	-0.017	-0.040
-387.019	203.736	0.169	-0.257
-386.004	-200.000	-0.034	-0.518
-384.990	-161.493	-0.346	0.018
-383.975	-33.776	0.334	0.181
-382.960	800.000	0.051	-0.196
-381.946	-200.000	-0.018	-0.285
-380.931	216.872	-0.013	-0.020
-379.917	10.141	-0.046	-0.034
-378.902	-16.124	0.068	0.042
-377.888	-49.774	0.199	0.093
-376.873	226.917	-0.040	-0.064
-375.858	-200.000	0.060	-0.292
-374.844	800.000	0.109	-0.436
-373.829	-113.950	0.160	-0.031
-372.815	-200.000	0.060	-0.309
-371.800	-40.620	-0.175	-0.089
-370.785	75.349	-0.263	-0.272
-369.771	435.471	-0.076	0.162
-368.756	-3.418	-0.084	0.057
-367.742	800.000	-0.093	0.297
-366.727	278.955	0.120	0.210
-365.712	270.915	-0.218	0.377
-364.698	-171.627	0.220	-0.007
-363.683	-200.000	0.050	0.295
-362.669	-31.648	-0.207	0.114
-361.654	107.023	-0.115	0.135
-360.639	401.501	0.142	0.294
-359.625	6.122	0.267	0.194
-358.610	31.636	0.334	0.282
-357.596	-200.000	0.021	-0.126
-356.581	-200.000	-0.023	-0.255
-355.566	-200.000	0.042	-0.266
-354.552	104.275	0.274	-0.316
-353.537	-140.205	0.428	0.044
-352.523	-95.606	-0.243	-0.064
-351.508	800.000	-0.075	-0.272
-350.493	22.172	0.315	0.253
-349.479	-200.000	-0.062	0.278
-348.464	415.660	-0.160	0.336
-347.450	-127.854	-0.054	0.008
-346.435	112.410	-0.117	0.139
-345.420	-123.841	0.203	-0.031
-344.406	-30.827	0.132	-0.073
-343.391	153.378	0.085	-0.114
-342.377	83.822	-0.296	0.317
-341.362	-200.000	0.007	0.276
-340.348	-135.650	0.071	0.008
-339.333	-200.000	-0.025	0.436
-338.318	112.540	0.268	-0.318
-337.304	-200.000	0.018	0.100
-336.289	327.677	-0.065	0.123
-335.275	-39.785	-0.195	-0.100
-334.260	-80.813	-0.290	0.095
-333.245	414.588	0.155	-0.324
-332.231	46.805	-0.081	-0.074
-331.216	800.000	0.089	-0.252
-330.202	-89.317	-0.461	-0.133
-329.187	211.079	0.061	0.094
-328.172	800.000	-0.068	0.204
-327.158	116.597	0.101	0.121
-326.143	-200.000	0.014	0.348
-325.129	-2.725	0.281	-0.193
-324.114	-200.000	0.024	0.245
-323.099	800.000	-0.059	0.179
-322.085	105.135	0.068	-0.079
-321.070	17.104	-0.178	0.138
-320.056	-200.000	0.010	-0.128
-319.041	5.062	-0.238	-0.172
-318.026	800.000	-0.053	0.162
-317.012	-82.543	0.188	-0.060
-315.997	-98.590	0.193	-0.048
-314.983	-200.000	0.023	0.349
-313.968	800.000	0.073	-0.242
-312.953	140.588	-0.121	-0.157
-311.939	-114.920	0.301	-0.056
-310.924	800.000	0.090	0.303
-309.910	13.270	-0.073	0.056
-308.895	99.977	0.260	-0.295
-307.880	800.000	-0.090	0.250
-306.866	90.052	0.110	0.120
-305.851	-200.000	-0.047	-0.302
-304.837	-162.772	0.245	0.012
-303.822	-28.845	0.274	0.154
-302.807	-91.461	-0.223	0.062
-301.793	534.221	0.079	-0.183
-300.778	-200.000	-0.001	0.139
-299.764	-200.000	-0.046	0.335
-298.749	-166.372	-0.357	0.015
-297.735	-40.066	0.066	-0.034
-296.720	-200.000	0.007	-0.131
-295.705	16.260	0.180	-0.139
-294.691	-21.558	0.096	-0.057
-293.676	-4.451	-0.206	0.139
-292.662	-40.669	-0.455	-0.231
-291.647	-95.090	0.256	-0.068
-290.632	800.000	0.033	0.125
-289.618	186.440	-0.137	-0.200
-288.603	-70.369	0.120	0.045
-287.589	63.988	0.288	-0.283
-286.574	329.192	-0.070	0.131
-285.559	80.569	0.117	0.124
-284.545	-127.560	-0.230	-0.033
-283.530	80.419	0.231	-0.244
-282.516	-54.781	0.298	-0.132
-281.501	14.215	-0.234	0.178
-280.486	-47.390	-0.193	0.092
-279.472	-140.077	-0.221	-0.023
-278.457	47.259	0.280	0.255
-277.443	101.526	-0.196	0.223
-276.428	43.320	0.109	0.097
-275.413	-27.340	0.469	-0.267
-274.399	800.000	0.124	-0.424
-273.384	-131.900	-0.588	0.075
-272.370	-200.000	-0.005	-0.023
-271.355	164.619	0.262	0.361
-270.340	167.279	0.111	0.154
-269.326	-121.805	0.040	-0.007
-268.311	583.068	-0.195	0.468
-267.297	50.529	0.099	-0.091
-266.282	800.000	-0.100	-0.298
-265.267	-147.962	-0.109	-0.009
-264.253	-19.291	-0.367	0.223
-263.238	-151.409	-0.096	0.007
-262.224	547.096	0.071	0.167
-261.209	16.572	-0.121	0.094
-260.195	447.000	-0.067	-0.145
-259.180	-46.448	0.254	-0.122
-258.165	177.800	-0.183	-0.262
-257.151	-200.000	-0.012	-0.268
-256.136	-36.083	-0.203	-0.107
-255.122	-49.887	0.258	-0.120
-254.107	70.729	-0.066	-0.067
-253.092	194.663	-0.163	0.242
-252.078	-106.594	-0.121	0.026
-251.063	264.515	-0.108	-0.183
-250.049	-200.000	-0.029	0.144
-249.034	23.910	0.230	-0.186
-248.019	-94.380	0.344	-0.092
-247.005	90.107	0.196	-0.214
-245.990	-80.380	0.300	-0.098
-244.976	-91.838	-0.202	-0.056
-243.961	-144.632	0.473	0.043
-242.946	800.000	0.004	0.016
-241.932	298.867	0.142	0.255
-240.917	-200.000	0.029	0.204
-239.903	-126.473	-0.157	-0.023
-238.888	-119.837	-0.058	-0.010
-237.873	676.619	-0.133	0.337
-236.859	800.000	0.081	-0.235
-235.844	95.646	0.095	-0.106
-234.830	93.741	-0.165	0.183
-233.815	-44.663	0.201	0.098
-232.800	-200.000	0.016	-0.367
-231.786	169.851	0.220	-0.307
-230.771	-200.000	0.074	0.344
-229.757	66.110	-0.028	0.028
-228.742	-41.554	0.073	0.037
-227.727	800.000	-0.108	0.298
-226.713	-88.001	0.071	-0.021
-225.698	-29.816	-0.240	0.134
-224.684	-46.504	0.193	0.092
-223.669	19.299	0.152	-0.119
-222.655	-200.000	-0.020	0.306
-221.640	-83.102	-0.033	0.010
-220.625	-200.000	0.021	0.315
-219.611	299.438	0.057	0.102
-218.596	187.712	0.032	0.046
-217.582	11.908	0.197	0.148
-216.567	-94.960	-0.169	0.045
-215.552	96.218	-0.119	0.133
-214.538	-164.181	-0.053	0.002
-213.523	-83.318	0.405	0.127
-212.509	75.089	-0.167	0.171
-211.494	-52.473	-0.153	0.069
-210.479	96.432	0.018	0.020
-209.465	-52.809	-0.066	-0.030
-208.450	238.210	-0.027	-0.044
-207.436	762.585	-0.029	-0.078
-206.421	-64.133	-0.310	-0.123
-205.406	-68.026	-0.027	0.010
-204.392	-50.364	0.163	-0.075
-203.377	-200.000	-0.053	-0.250
-202.363	800.000	0.065	0.190
-201.348	39.224	-0.257	0.225
-200.333	-127.544	0.064	0.009
-199.319	334.937	0.113	-0.213
-198.304	800.000	0.081	0.272
-197.290	-156.744	0.032	0.002
-196.275	-200.000	-0.055	0.255
-195.260	230.719	0.110	0.176
-194.246	-94.452	-0.344	-0.091
-193.231	310.485	0.102	0.186
-192.217	-18.822	0.189	0.115
-191.202	-200.000	-0.018	0.339
-190.187	-200.000	-0.215	0.000
-189.173	-12.844	-0.096	-0.061
-188.158	-78.417	0.323	-0.108
-187.144	634.560	-0.037	0.091
-186.129	127.251	-0.117	-0.144
-185.114	-9.657	-0.099	0.064
-184.100	-38.287	0.087	-0.045
-183.085	134.733	0.172	0.217
-182.071	148.711	0.226	-0.298
-181.056	800.000	-0.040	-0.167
-180.042	-89.649	-0.170	0.049
-179.027	-200.000	0.036	-0.174
-178.012	800.000	-0.074	-0.205
-176.998	-128.132	-0.148	-0.021
-175.983	61.662	-0.128	0.124
-174.969	320.348	-0.084	0.156
-173.954	333.911	-0.086	-0.162
-172.939	800.000	0.108	0.314
-171.925	16.408	-0.284	0.219
-170.910	800.000	-0.035	0.098
-169.896	-200.000	-0.034	-0.248
-168.881	96.692	-0.221	0.247
-167.866	-41.107	-0.081	0.041
-166.852	-30.704	0.074	-0.041
-165.837	14.923	0.268	0.205
-164.823	216.664	0.070	0.109
-163.808	-74.891	0.155	-0.054
-162.793	112.697	0.191	-0.225
-161.779	-95.089	-0.211	0.056
-160.764	800.000	-0.081	-0.334
-159.750	-132.540	-0.231	-0.029
-158.735	-186.405	0.244	-0.003
-157.720	106.730	-0.065	-0.075
-156.706	108.165	0.217	0.252
-155.691	237.880	-0.197	0.318
-154.677	179.604	-0.326	0.465
-153.662	-57.582	-0.160	-0.068
-152.647	800.000	0.057	0.181
-151.633	37.636	-0.051	-0.044
-150.618	139.613	0.060	-0.077
-149.604	24.311	-0.296	0.238
-148.589	-43.650	0.261	-0.128
-147.574	-10.694	-0.152	0.098
-146.560	319.982	0.069	-0.128
-145.545	59.340	0.137	-0.132
-144.531	-23.174	-0.138	-0.081
-143.516	285.877	-0.101	0.177
-142.502	102.151	0.152	-0.173
-141.487	800.000	0.045	-0.148
-140.472	393.376	0.080	0.161
-139.458	-200.000	-0.030	-0.183
-138.443	800.000	-0.072	0.265
-137.429	-200.000	0.001	0.102
-136.414	26.475	0.231	-0.188
-135.399	-128.248	-0.266	0.037
-134.385	-110.538	0.295	-0.060
-133.370	415.877	-0.030	-0.062
-132.356	-200.000	-0.019	0.294
-131.341	143.506	-0.158	-0.204
-130.326	-161.808	-0.030	0.001
-129.312	-43.833	-0.347	-0.170
-128.297	91.647	-0.048	-0.053
-127.283	-200.000	0.031	0.329
-126.268	-93.803	0.106	-0.029
-125.253	-66.710	-0.222	-0.086
-124.239	224.966	-0.082	0.129
-123.224	800.000	0.151	0.510
-122.210	-7.407	0.050	0.033
