DTS Sentinel unit serial number:	SN413079Multiplexer serial number:	ORYXHardware model number:	OX4-SRSoftware version number:	ORYX F/W v4.00 Oryx Data Collector v3.7.2.0data status	okinstallation	princeton_trtdifferential loss correction	single-endedforward channel	channel 2reverse channel	N/Adate	2019/09/10time	15:33:11forward acquisition time	60.00reverse acquisition time	0.00gamma	496.2192k internal	0.2307k external	0.2307temperature offset calibration	0.9935default loss term (dB/km)	0.3790temperature slope calibration	1.0000multiplexer offset coefficient	1.0000multiplexer slope coefficient	1.0000fibre end	0.00T internal ref (°C)	37.94T ext. ref 1 (°C)	-0.31T ext. ref 2 (°C)	32.62length (m)	temperature (°C)	Stokes	anti-Stokes-747.200	800.000	-0.041	-0.145
-746.185	-11.958	-0.174	0.116
-745.171	16.907	0.096	-0.077
-744.156	-60.984	-0.139	0.060
-743.142	-158.187	0.447	0.027
-742.127	-7.491	0.193	0.133
-741.112	7.481	0.263	0.200
-740.098	-151.026	-0.316	-0.024
-739.083	-107.304	0.165	0.037
-738.069	-103.507	-0.444	0.106
-737.054	9.661	-0.169	-0.130
-736.039	800.000	-0.084	-0.293
-735.025	-200.000	0.050	0.255
-734.010	-134.442	-0.339	0.042
-732.996	-14.444	-0.165	-0.108
-731.981	-121.361	-0.175	-0.030
-730.966	-110.177	0.201	0.043
-729.952	-200.000	0.003	0.460
-728.937	-14.345	-0.219	-0.143
-727.923	800.000	-0.093	0.279
-726.908	321.723	-0.198	-0.383
-725.894	-200.000	-0.027	-0.190
-724.879	-78.896	-0.144	-0.050
-723.864	617.312	0.143	-0.366
-722.850	-30.640	-0.243	-0.140
-721.835	-199.443	-0.421	-0.002
-720.821	-200.000	0.000	0.045
-719.806	-88.619	-0.385	-0.117
-718.791	146.100	0.065	0.089
-717.777	-76.164	0.094	0.034
-716.762	-44.844	-0.318	-0.161
-715.748	800.000	0.012	0.051
-714.733	-108.191	-0.098	-0.022
-713.718	-200.000	0.042	0.218
-712.704	-200.000	0.013	-0.085
-711.689	-200.000	-0.003	-0.158
-710.675	-104.400	0.046	-0.011
-709.660	-200.000	0.004	0.212
-708.645	-200.000	0.038	-0.250
-707.631	-200.000	0.045	-0.255
-706.616	-200.000	-0.012	-0.162
-705.602	800.000	0.014	0.056
-704.587	-140.017	-0.484	0.052
-703.572	189.008	0.076	0.115
-702.558	223.289	0.154	-0.252
-701.543	58.332	-0.236	0.235
-700.529	118.840	-0.069	-0.086
-699.514	757.668	0.078	-0.214
-698.499	74.545	-0.160	-0.171
-697.485	-16.124	0.237	-0.153
-696.470	749.314	-0.066	-0.180
-695.456	-83.079	0.146	0.048
-694.441	-29.779	-0.147	0.085
-693.426	-72.451	0.375	-0.141
-692.412	-88.659	-0.154	0.046
-691.397	-22.792	-0.071	-0.044
-690.383	96.616	-0.137	0.159
-689.368	144.572	-0.193	-0.261
-688.354	47.240	0.145	0.137
-687.339	-200.000	-0.026	0.159
-686.324	95.619	0.242	-0.280
-685.310	-140.333	0.141	0.015
-684.295	-55.320	0.190	-0.087
-683.281	-101.299	-0.043	-0.011
-682.266	-63.465	0.682	-0.285
-681.251	149.007	-0.196	-0.269
-680.237	27.223	-0.196	-0.167
-679.222	-11.730	-0.052	-0.035
-678.208	-88.131	-0.275	0.084
-677.193	-170.484	-0.360	0.013
-676.178	593.491	-0.052	-0.131
-675.164	-53.935	0.135	0.062
-674.149	481.402	-0.105	-0.241
-673.135	-160.109	-0.288	0.016
-672.120	155.015	0.149	0.208
-671.105	-200.000	0.005	0.182
-670.091	106.128	-0.089	0.107
-669.076	-120.971	0.187	-0.032
-668.062	215.604	-0.062	0.100
-667.047	693.784	-0.144	0.384
-666.032	-200.000	-0.040	0.532
-665.018	73.413	0.216	-0.229
-664.003	-57.856	0.081	-0.036
-662.989	93.250	0.292	-0.334
-661.974	78.824	0.065	0.070
-660.959	-4.769	-0.115	-0.080
-659.945	-200.000	-0.014	-0.470
-658.930	800.000	-0.102	0.295
-657.916	-82.447	0.205	-0.067
-656.901	-6.083	0.129	0.089
-655.886	237.194	0.100	0.167
-654.872	-139.214	-0.217	0.024
-653.857	-147.713	0.029	0.002
-652.843	800.000	0.063	-0.227
-651.828	-200.000	-0.016	0.075
-650.814	-89.339	-0.041	-0.012
-649.799	212.331	-0.202	-0.322
-648.784	498.124	0.152	0.354
-647.770	-200.000	-0.051	-0.293
-646.755	800.000	-0.064	0.195
-645.741	139.883	0.141	-0.189
-644.726	-200.000	-0.002	0.134
-643.711	51.651	-0.034	0.033
-642.697	358.010	-0.062	-0.125
-641.682	89.992	0.140	-0.158
-640.668	-48.743	-0.042	-0.020
-639.653	-200.000	0.042	-0.242
-638.638	-82.294	0.117	-0.038
-637.624	-98.431	-0.280	0.073
-636.609	-200.000	-0.044	0.336
-635.595	172.038	0.120	0.175
-634.580	-120.932	-0.488	-0.083
-633.565	472.068	-0.039	0.088
-632.551	-113.329	-0.230	-0.046
-631.536	327.073	0.051	0.098
-630.522	-200.000	0.025	-0.240
-629.507	636.830	0.113	0.290
-628.492	-200.000	0.029	0.207
-627.478	800.000	0.061	-0.250
-626.463	129.391	0.110	-0.142
-625.449	800.000	0.009	0.031
-624.434	275.171	0.061	-0.109
-623.419	41.684	-0.154	0.142
-622.405	-200.000	-0.027	-0.175
-621.390	-200.000	0.028	-0.299
-620.376	-51.098	-0.312	-0.148
-619.361	-60.231	0.039	-0.017
-618.346	-200.000	-0.032	-0.316
-617.332	-200.000	0.024	-0.477
-616.317	-16.621	-0.371	-0.238
-615.303	527.589	-0.104	-0.248
-614.288	197.222	0.051	-0.079
-613.273	-156.950	-0.483	-0.030
-612.259	19.700	-0.171	-0.139
-611.244	-156.327	-0.071	0.004
-610.230	-135.996	0.278	0.033
-609.215	-58.282	-0.097	-0.043
-608.201	310.491	-0.055	0.103
-607.186	-62.020	-0.098	0.041
-606.171	800.000	0.065	-0.224
-605.157	-79.819	-0.250	-0.085
-604.142	-56.142	-0.076	-0.034
-603.128	137.996	0.108	0.143
-602.113	-87.650	0.193	0.059
-601.098	-200.000	-0.026	-0.230
-600.084	-55.537	-0.101	-0.046
-599.069	-200.000	-0.012	-0.174
-598.055	-200.000	0.003	-0.209
-597.040	-99.514	0.290	-0.074
-596.025	250.112	0.081	0.138
-595.011	73.660	0.166	-0.176
-593.996	680.114	0.106	0.280
-592.982	89.174	0.030	-0.034
-591.967	388.190	0.042	-0.088
-590.952	92.905	0.161	0.184
-589.938	81.827	-0.270	0.295
-588.923	32.382	-0.167	0.146
-587.909	296.963	-0.172	0.320
-586.894	-43.266	0.067	0.034
-585.879	104.274	0.191	-0.227
-584.865	800.000	0.097	0.323
-583.850	52.306	-0.258	-0.249
-582.836	-135.147	0.358	0.044
-581.821	132.904	0.122	0.159
-580.806	-92.637	-0.275	-0.078
-579.792	202.239	0.104	0.163
-578.777	310.917	-0.169	-0.319
-577.763	-33.343	-0.064	0.036
-576.748	-21.916	-0.079	0.048
-575.733	800.000	0.042	-0.137
-574.719	-7.385	-0.149	0.102
-573.704	34.861	-0.180	0.159
-572.690	-60.735	-0.144	0.062
-571.675	-50.466	-0.153	0.073
-570.661	-200.000	0.029	0.190
-569.646	-45.636	0.050	0.025
-568.631	-174.760	0.268	-0.008
-567.617	28.200	-0.206	-0.176
-566.602	-200.000	-0.001	-0.035
-565.588	-72.694	-0.136	-0.051
-564.573	-176.072	-0.115	-0.003
-563.558	-56.210	0.190	0.085
-562.544	-200.000	-0.040	-0.210
-561.529	-200.000	-0.004	-0.078
-560.515	34.070	-0.105	0.093
-559.500	276.969	0.179	0.321
-558.485	-200.000	0.025	-0.124
-557.471	49.335	-0.317	0.301
-556.456	800.000	0.022	0.069
-555.442	37.437	-0.218	0.195
-554.427	26.111	0.230	-0.194
-553.412	-57.559	-0.216	-0.096
-552.398	-76.297	-0.083	-0.029
-551.383	147.812	-0.185	0.252
-550.369	164.588	-0.064	0.092
-549.354	19.232	0.274	0.222
-548.339	193.793	-0.220	0.336
-547.325	-101.266	-0.144	-0.036
-546.310	346.292	0.098	0.195
-545.296	77.413	-0.292	0.314
-544.281	133.589	-0.260	0.340
-543.266	34.003	-0.184	0.161
-542.252	106.613	-0.071	0.084
-541.237	-12.064	-0.153	0.101
-540.223	800.000	0.008	-0.028
-539.208	800.000	0.052	0.216
-538.193	-200.000	0.013	-0.262
-537.179	279.130	-0.229	-0.413
-536.164	210.044	-0.159	0.252
-535.150	207.636	-0.123	0.194
-534.135	-19.817	-0.041	0.026
-533.121	-184.274	0.169	0.003
-532.106	-200.000	0.029	0.236
-531.091	-119.800	0.252	-0.044
-530.077	-135.004	-0.126	-0.015
-529.062	540.545	0.128	-0.306
-528.048	-139.687	-0.124	-0.013
-527.033	-200.000	-0.083	0.491
-526.018	800.000	-0.045	0.129
-525.004	800.000	-0.051	-0.212
-523.989	-147.779	-0.252	0.021
-522.975	-38.763	-0.346	-0.184
-521.960	-43.611	-0.183	0.093
-520.945	13.768	0.457	0.358
-519.931	82.639	-0.037	0.040
-518.916	-200.000	-0.006	-0.399
-517.902	8.585	-0.441	0.334
-516.887	128.230	-0.175	0.225
-515.872	77.312	0.093	0.100
-514.858	-200.000	0.017	-0.356
-513.843	-111.478	0.095	0.019
-512.829	-8.101	-0.079	0.054
-511.814	-11.074	0.171	0.114
-510.799	196.172	0.306	0.470
-509.785	446.982	0.145	-0.322
-508.770	-200.000	-0.008	-0.198
-507.756	800.000	-0.033	0.104
-506.741	216.411	-0.182	0.291
-505.726	-15.956	-0.138	-0.089
-504.712	118.220	0.127	0.157
-503.697	465.113	-0.202	-0.456
-502.683	219.075	-0.064	0.102
-501.668	205.311	0.038	-0.060
-500.653	-200.000	0.108	-0.495
-499.639	-74.923	-0.088	-0.032
-498.624	-86.725	0.197	0.061
-497.610	10.358	-0.083	0.064
-496.595	71.778	-0.054	0.056
-495.581	46.291	-0.116	-0.108
-494.566	265.199	0.042	-0.073
-493.551	800.000	0.060	-0.206
-492.537	-77.075	0.107	0.038
-491.522	517.010	-0.040	0.093
-490.508	59.177	0.033	-0.032
-489.493	-36.902	0.284	0.154
-488.478	169.173	-0.065	0.093
-487.464	-100.640	-0.182	0.045
-486.449	408.287	0.190	0.404
-485.435	-110.797	-0.043	0.009
-484.420	-53.140	-0.140	-0.065
-483.405	-200.000	0.070	-0.479
-482.391	800.000	-0.071	0.224
-481.376	181.944	0.119	-0.177
-480.362	-164.597	0.253	0.012
-479.347	-200.000	-0.014	-0.077
-478.332	8.224	-0.235	0.177
-477.318	-200.000	-0.010	-0.047
-476.303	-4.821	-0.339	0.235
-475.289	-12.496	-0.355	0.233
-474.274	222.463	-0.130	0.211
-473.259	2.623	0.238	0.174
-472.245	60.968	0.275	-0.274
-471.230	-24.790	-0.088	0.053
-470.216	735.827	0.089	0.241
-469.201	-143.794	0.203	0.019
-468.186	-89.360	-0.116	-0.034
-467.172	-12.461	0.151	-0.099
-466.157	330.914	0.096	-0.187
-465.143	11.261	-0.198	-0.152
-464.128	-200.000	0.013	0.153
-463.113	105.103	-0.307	0.364
-462.099	71.667	-0.191	-0.200
-461.084	122.645	-0.147	-0.184
-460.070	-45.507	0.173	0.086
-459.055	-103.169	0.374	0.089
-458.040	-24.874	-0.344	-0.206
-457.026	-200.000	-0.031	0.158
-456.011	-200.000	0.036	0.418
-454.997	109.068	0.167	-0.201
-453.982	-200.000	0.010	-0.221
-452.968	-200.000	-0.029	-0.222
-451.953	-108.754	0.175	-0.038
-450.938	-57.817	0.181	-0.079
-449.924	-200.000	0.056	-0.356
-448.909	91.970	0.194	-0.220
-447.895	184.757	0.083	-0.124
-446.880	-200.000	0.041	-0.388
-445.865	43.132	0.417	-0.383
-444.851	-113.359	-0.071	-0.014
-443.836	18.809	-0.046	-0.037
-442.822	492.011	-0.175	0.403
-441.807	583.662	-0.144	0.355
-440.792	46.975	0.061	0.057
-439.778	6.088	0.300	-0.224
-438.763	-96.736	-0.232	0.061
-437.749	15.878	-0.040	0.031
-436.734	800.000	-0.141	-0.411
-435.719	44.338	-0.155	-0.143
-434.705	800.000	0.057	0.162
-433.690	800.000	0.014	-0.044
-432.676	85.382	0.072	0.080
-431.661	-200.000	-0.013	-0.174
-430.646	128.327	-0.222	0.284
-429.632	-57.713	0.076	-0.034
-428.617	-61.420	0.094	-0.040
-427.603	-152.882	0.177	0.013
-426.588	51.636	0.178	0.170
-425.573	35.603	0.209	0.184
-424.559	-134.389	0.256	0.031
-423.544	-200.000	-0.032	-0.190
-422.530	800.000	0.029	-0.100
-421.515	432.389	-0.031	-0.067
-420.500	-110.655	-0.235	0.049
-419.486	-200.000	0.007	-0.049
-418.471	-69.353	-0.112	-0.043
-417.457	-10.293	0.233	-0.155
-416.442	-40.739	-0.221	0.115
-415.428	-200.000	0.004	0.138
-414.413	-29.958	-0.135	-0.077
-413.398	51.736	0.118	-0.113
-412.384	199.997	-0.107	-0.165
-411.369	55.073	-0.059	0.057
-410.355	-71.394	0.209	-0.078
-409.340	273.935	0.179	-0.318
-408.325	82.565	-0.084	-0.092
-407.311	800.000	0.036	-0.134
-406.296	311.691	0.120	0.226
-405.282	28.901	-0.110	-0.094
-404.267	128.634	-0.194	-0.248
-403.252	-140.607	0.113	-0.012
-402.238	-39.347	-0.162	0.085
-401.223	800.000	-0.070	0.199
-400.209	273.150	-0.327	-0.579
-399.194	174.763	-0.073	0.105
-398.179	-97.893	0.156	0.040
-397.165	54.099	0.085	0.082
-396.150	-73.732	-0.061	-0.022
-395.136	-6.380	-0.180	0.123
-394.121	143.819	-0.229	-0.306
-393.106	-138.135	-0.270	0.030
-392.092	-109.545	-0.345	0.073
-391.077	800.000	-0.010	-0.039
-390.063	-107.492	-0.219	0.048
-389.048	-200.000	0.012	0.305
-388.033	-200.000	-0.003	-0.268
-387.019	-75.662	-0.167	-0.060
-386.004	-105.161	-0.355	-0.081
-384.990	547.472	-0.054	0.130
-383.975	132.147	-0.125	0.161
-382.960	-7.159	-0.203	-0.138
-381.946	-151.078	0.320	-0.024
-380.931	-200.000	-0.011	-0.157
-379.917	-17.740	-0.318	-0.200
-378.902	720.898	0.077	0.205
-377.888	-200.000	0.017	0.234
-376.873	-98.531	0.148	0.038
-375.858	-200.000	-0.006	-0.066
-374.844	50.843	0.179	-0.170
-373.829	336.543	0.055	-0.107
-372.815	201.357	0.176	0.272
-371.800	-4.857	0.189	0.131
-370.785	-200.000	-0.005	0.092
-369.771	-112.756	-0.170	-0.034
-368.756	535.036	0.075	-0.178
-367.742	355.329	0.067	-0.133
-366.727	-108.074	-0.149	0.032
-365.712	-52.163	0.259	0.120
-364.698	-94.166	-0.031	-0.008
-363.683	-42.260	-0.126	0.064
-362.669	15.062	-0.123	-0.097
-361.654	-76.465	0.228	-0.080
-360.639	75.701	-0.160	0.169
-359.625	-196.690	0.074	0.000
-358.610	20.374	0.134	0.108
-357.596	-200.000	0.004	0.140
-356.581	-75.837	0.053	-0.019
-355.566	-70.865	0.356	0.135
-354.552	-179.170	0.113	-0.003
-353.537	100.722	0.154	-0.180
-352.523	785.962	0.163	-0.447
-351.508	35.575	0.195	0.172
-350.493	-7.344	0.324	0.220
-349.479	-69.059	0.478	0.184
-348.464	289.904	-0.058	0.105
-347.450	770.781	0.099	-0.270
-346.435	800.000	0.115	0.425
-345.420	-84.292	-0.247	0.078
-344.406	582.422	0.082	0.200
-343.391	-177.567	0.174	-0.004
-342.377	-200.000	0.026	0.128
-341.362	-43.611	0.031	-0.016
-340.348	-85.756	-0.118	-0.037
-339.333	391.644	0.193	0.401
-338.318	-56.023	-0.176	0.079
-337.304	-120.597	0.193	-0.033
-336.289	-200.000	-0.480	0.002
-335.275	800.000	0.058	0.169
-334.260	-200.000	-0.015	0.101
-333.245	-54.319	0.181	-0.082
-332.231	752.265	-0.075	-0.203
-331.216	-35.654	-0.158	-0.086
-330.202	-200.000	-0.012	0.337
-329.187	464.923	-0.047	0.106
-328.172	1.297	0.128	0.092
-327.158	552.404	0.100	-0.241
-326.143	358.319	-0.067	0.135
-325.129	712.680	-0.142	0.377
-324.114	81.881	0.188	0.204
-323.099	384.289	0.124	0.256
-322.085	-200.000	-0.018	-0.349
-321.070	221.598	0.030	0.048
-320.056	-184.560	0.065	-0.001
-319.041	-200.000	-0.061	0.359
-318.026	-12.295	-0.290	-0.190
-317.012	250.697	0.157	-0.266
-315.997	800.000	-0.119	-0.517
-314.983	346.893	0.113	0.222
-313.968	-200.000	-0.000	-0.026
-312.953	-79.488	-0.100	-0.034
-311.939	52.259	-0.140	-0.133
-310.924	28.717	0.039	0.033
-309.910	-158.322	0.133	-0.008
-308.895	-200.000	0.037	0.167
-307.880	269.406	-0.192	-0.337
-306.866	-156.126	-0.218	-0.014
-305.851	-153.817	-0.230	-0.016
-304.837	-86.439	0.288	0.089
-303.822	-172.854	0.348	0.011
-302.807	-200.000	-0.006	-0.113
-301.793	-8.902	-0.087	-0.058
-300.778	-86.479	-0.140	-0.043
-299.764	298.157	0.103	-0.189
-298.749	263.879	0.098	0.170
-297.735	-200.000	0.015	-0.201
-296.720	-200.000	0.000	-0.240
-295.705	-200.000	-0.001	-0.039
-294.691	168.415	0.099	0.140
-293.676	-21.932	-0.127	-0.077
-292.662	147.657	0.003	0.005
-291.647	391.256	-0.146	0.302
-290.632	31.263	0.317	0.271
-289.618	-66.312	-0.182	-0.072
-288.603	-81.777	0.035	0.012
-287.589	-89.174	-0.166	-0.049
-286.574	222.993	-0.164	-0.264
-285.559	239.980	0.128	-0.212
-284.545	800.000	-0.025	0.072
-283.530	121.232	0.163	0.203
-282.516	800.000	0.063	0.197
-281.501	-80.417	0.400	-0.133
-280.486	-92.685	0.047	0.013
-279.472	624.302	0.030	-0.077
-278.457	139.153	0.187	-0.245
-277.443	50.679	-0.219	-0.207
-276.428	-200.000	0.033	-0.319
-275.413	42.121	0.113	0.102
-274.399	234.875	-0.159	-0.262
-273.384	60.528	0.328	-0.324
-272.370	-161.076	0.337	-0.018
-271.355	-159.307	0.249	-0.014
-270.340	-28.485	-0.262	0.151
-269.326	-13.881	-0.034	-0.022
-268.311	-123.521	-0.120	0.019
-267.297	-200.000	-0.002	-0.117
-266.282	81.818	0.160	0.173
-265.267	-43.564	-0.208	-0.105
-264.253	-70.741	-0.232	-0.088
-263.238	249.044	0.109	-0.185
-262.224	-82.029	-0.105	-0.034
-261.209	80.177	0.123	0.132
-260.195	-135.654	-0.132	0.016
-259.180	-184.970	-0.424	0.007
-258.165	-118.020	-0.120	-0.021
-257.151	800.000	-0.124	-0.378
-256.136	9.050	-0.106	-0.080
-255.122	-14.388	-0.187	-0.120
-254.107	-163.148	-0.623	-0.030
-253.092	-200.000	0.018	-0.228
-252.078	-200.000	-0.017	-0.082
-251.063	-96.620	0.183	0.048
-250.049	746.789	-0.033	0.088
-249.034	800.000	0.065	0.197
-248.019	-200.000	-0.054	0.248
-247.005	552.622	0.141	0.339
-245.990	324.664	0.120	-0.230
-244.976	124.627	-0.299	0.375
-243.961	42.003	0.343	0.310
-242.946	23.611	-0.215	-0.176
-241.932	-87.619	-0.141	0.042
-240.917	-132.642	-0.221	-0.028
-239.903	249.567	0.106	-0.179
-238.888	551.979	-0.102	0.245
-237.873	73.901	-0.256	0.267
-236.859	613.332	-0.047	-0.118
-235.844	159.155	-0.043	0.060
-234.830	-116.128	-0.196	0.036
-233.815	-81.740	0.469	-0.153
-232.800	25.343	-0.052	0.043
-231.786	-77.492	0.329	0.114
-230.771	-130.993	0.543	-0.072
-229.757	-127.237	0.079	-0.012
-228.742	-200.000	0.015	-0.235
-227.727	-85.997	-0.499	-0.154
-226.713	-200.000	0.072	0.359
-225.698	-200.000	0.057	0.331
-224.684	4.568	0.055	-0.040
-223.669	427.126	-0.031	0.066
-222.655	98.582	0.145	0.167
-221.640	33.102	0.148	0.128
-220.625	-148.727	0.157	0.013
-219.611	31.904	-0.260	-0.223
-218.596	372.249	-0.101	0.205
-217.582	155.775	-0.179	0.246
-216.567	61.212	0.212	-0.210
-215.552	-54.897	0.499	0.224
-214.538	261.367	0.087	-0.150
-213.523	3.039	0.198	-0.144
-212.509	-45.296	0.264	-0.130
-211.494	165.215	0.132	0.186
-210.479	183.682	0.161	0.237
-209.465	303.406	0.078	-0.145
-208.450	252.022	-0.173	-0.294
-207.436	5.798	0.217	0.160
-206.421	692.859	-0.025	-0.065
-205.406	-46.725	0.059	-0.029
-204.392	-12.416	-0.129	0.084
-203.377	-121.786	0.125	-0.021
-202.363	-200.000	-0.083	-0.476
-201.348	-200.000	0.036	0.200
-200.333	213.863	0.167	0.262
-199.319	-73.467	0.427	0.155
-198.304	-54.541	-0.099	0.045
-197.290	66.409	0.207	0.209
-196.275	40.308	0.252	0.225
-195.260	800.000	-0.132	-0.432
-194.246	349.937	-0.200	0.393
-193.231	115.152	0.277	0.337
-192.217	-188.054	0.277	0.004
-191.202	287.010	-0.134	0.242
-190.187	-199.100	0.136	0.001
-189.173	-36.078	0.074	0.040
-188.158	-115.782	-0.117	0.022
-187.144	-105.925	0.158	0.035
-186.129	19.044	0.074	0.059
-185.114	80.943	0.089	0.095
-184.100	40.406	0.244	-0.219
-183.085	-20.471	0.042	-0.026
-182.071	-17.621	0.135	0.084
-181.056	162.215	0.168	0.234
-180.042	-59.793	0.497	-0.212
-179.027	-110.505	0.191	-0.039
-178.012	-200.000	-0.000	0.106
-176.998	-200.000	0.007	-0.059
-175.983	-200.000	-0.055	-0.426
-174.969	188.314	0.121	-0.180
-173.954	-200.000	0.016	-0.148
-172.939	800.000	-0.098	-0.369
-171.925	89.118	0.197	0.218
-170.910	-200.000	0.029	0.224
-169.896	-200.000	0.003	-0.194
-168.881	208.190	-0.132	-0.205
-167.866	-23.850	-0.257	0.153
-166.852	-30.734	-0.250	-0.141
-165.837	-130.540	0.287	0.039
-164.823	-200.000	0.004	0.105
-163.808	602.630	-0.028	-0.069
-162.793	-115.640	-0.266	-0.050
-161.779	-54.013	0.054	-0.025
-160.764	-200.000	0.004	-0.196
-159.750	-25.231	0.138	-0.081
-158.735	-144.243	-0.041	-0.004
-157.720	-184.121	-0.080	0.001
-156.706	-116.845	0.186	0.034
-155.691	-2.172	0.119	0.083
-154.677	-112.922	0.073	-0.014
-153.662	-29.094	-0.020	-0.012
-152.647	-107.116	0.191	-0.042
-151.633	-74.064	-0.102	-0.037
-150.618	-121.902	0.151	0.025
-149.604	800.000	0.041	0.133
-148.589	-200.000	0.042	-0.291
-147.574	-123.633	0.224	-0.035
-146.560	-165.891	0.227	0.010
-145.545	-180.574	-0.334	-0.007
-144.531	-178.985	-0.433	0.010
-143.516	-200.000	0.028	-0.159
-142.502	-29.775	0.279	0.158
-141.487	-200.000	0.040	-0.442
-140.472	-200.000	0.218	0.000
-139.458	41.209	0.155	-0.139
-138.443	90.084	-0.322	0.357
-137.429	276.342	0.061	0.108
-136.414	221.371	0.067	-0.107
-135.399	-26.480	-0.212	-0.123
-134.385	25.950	0.324	-0.268
-133.370	-111.724	-0.171	0.034
-132.356	-1.656	-0.331	-0.232
-131.341	-145.134	0.170	-0.015
-130.326	-22.727	0.205	0.123
-129.312	248.241	0.123	0.207
-128.297	257.787	0.098	-0.168
-127.283	196.007	-0.142	0.215
-126.268	-183.927	-0.095	-0.002
-125.253	58.177	0.039	0.038
-124.239	-54.356	0.183	0.082
-123.224	-106.889	0.066	-0.015
-122.210	285.892	0.123	-0.220
-121.195	-101.482	0.362	-0.088
