DTS Sentinel unit serial number:	SN413079Multiplexer serial number:	ORYXHardware model number:	OX4-SRSoftware version number:	ORYX F/W v4.00 Oryx Data Collector v3.7.2.0data status	okinstallation	princeton_trtdifferential loss correction	single-endedforward channel	channel 2reverse channel	N/Adate	2019/09/14time	18:39:34forward acquisition time	60.00reverse acquisition time	0.00gamma	496.2192k internal	0.2319k external	0.2319temperature offset calibration	1.0103default loss term (dB/km)	0.3790temperature slope calibration	1.0000multiplexer offset coefficient	1.0000multiplexer slope coefficient	1.0000fibre end	0.00T internal ref (°C)	36.30T ext. ref 1 (°C)	4.93T ext. ref 2 (°C)	30.06length (m)	temperature (°C)	Stokes	anti-Stokes-747.200	-120.940	0.372	0.063
-746.185	125.110	-0.054	0.069
-745.171	-136.892	0.070	0.008
-744.156	600.398	-0.113	0.283
-743.142	-200.000	-0.015	-0.151
-742.127	2.755	0.232	0.170
-741.112	-41.105	0.261	0.137
-740.098	-64.747	-0.158	0.065
-739.083	800.000	-0.013	0.054
-738.069	-200.000	0.018	0.179
-737.054	307.413	0.013	0.024
-736.039	-126.546	-0.244	-0.037
-735.025	1.856	-0.171	0.125
-734.010	205.500	0.204	-0.320
-732.996	-14.869	-0.139	0.090
-731.981	194.162	0.069	0.106
-730.966	-200.000	-0.001	0.270
-729.952	22.128	-0.143	0.118
-728.937	-79.351	-0.210	-0.072
-727.923	2.246	0.155	-0.113
-726.908	-200.000	0.001	0.254
-725.894	243.308	-0.155	0.263
-724.879	-200.000	0.029	-0.249
-723.864	12.732	-0.079	-0.062
-722.850	76.893	0.209	-0.224
-721.835	800.000	-0.037	0.106
-720.821	-72.681	-0.513	-0.191
-719.806	63.499	-0.175	0.178
-718.791	800.000	-0.054	0.208
-717.777	106.582	-0.265	-0.317
-716.762	800.000	0.035	-0.154
-715.748	63.948	0.147	-0.150
-714.733	30.830	0.331	-0.286
-713.718	-0.476	-0.144	-0.104
-712.704	-11.571	-0.243	-0.162
-711.689	-186.424	0.016	-0.000
-710.675	404.760	-0.135	0.286
-709.660	142.016	-0.111	-0.149
-708.645	-49.251	-0.165	0.079
-707.631	27.098	0.044	0.037
-706.616	-69.733	0.181	-0.070
-705.602	-200.000	-0.025	-0.328
-704.587	-104.697	-0.282	0.066
-703.572	245.047	-0.146	-0.248
-702.558	21.171	-0.282	-0.231
-701.543	290.127	-0.008	0.014
-700.529	121.306	-0.058	0.073
-699.514	519.971	-0.160	0.378
-698.499	-101.801	-0.343	0.084
-697.485	-37.125	-0.197	-0.106
-696.470	215.599	-0.096	-0.154
-695.456	330.152	-0.126	0.245
-694.441	-168.611	-0.368	-0.014
-693.426	-14.473	-0.134	0.087
-692.412	626.677	-0.039	-0.098
-691.397	800.000	-0.043	0.173
-690.383	98.061	-0.123	-0.142
-689.368	-48.134	0.224	-0.109
-688.354	69.467	-0.198	0.206
-687.339	-86.701	-0.191	0.059
-686.324	59.957	0.143	-0.142
-685.310	5.712	-0.154	-0.115
-684.295	1.259	-0.198	0.144
-683.281	1.286	-0.283	0.205
-682.266	-88.418	-0.072	0.022
-681.251	-4.652	0.320	0.223
-680.237	800.000	0.100	-0.308
-679.222	-4.358	0.223	0.155
-678.208	646.658	0.125	-0.323
-677.193	445.701	0.172	-0.382
-676.178	5.152	0.212	-0.158
-675.164	-96.568	-0.108	0.029
-674.149	-137.379	0.217	-0.025
-673.135	-139.677	0.209	-0.022
-672.120	-15.305	0.236	-0.152
-671.105	159.381	0.026	-0.037
-670.091	722.306	0.117	-0.313
-669.076	-102.064	-0.295	0.072
-668.062	-22.306	-0.223	0.136
-667.047	-95.778	0.213	-0.057
-666.032	-200.000	0.046	-0.202
-665.018	-200.000	-0.021	0.249
-664.003	313.432	0.175	0.332
-662.989	5.857	0.167	-0.124
-661.974	-133.647	0.279	0.035
-660.959	-129.461	0.274	-0.038
-659.945	714.420	0.136	-0.362
-658.930	-60.109	-0.070	0.030
-657.916	-200.000	0.078	-0.462
-656.901	78.591	0.120	-0.129
-655.886	259.215	-0.129	-0.225
-654.872	422.360	0.145	-0.313
-653.857	174.011	0.185	-0.270
-652.843	-14.974	-0.357	0.231
-651.828	-57.496	0.088	-0.039
-650.814	750.239	0.093	0.252
-649.799	262.642	0.115	0.202
-648.784	-38.632	-0.244	0.130
-647.770	-31.724	0.258	0.146
-646.755	-7.428	-0.165	-0.113
-645.741	-200.000	-0.014	-0.258
-644.726	800.000	-0.049	-0.212
-643.711	-95.153	0.340	0.093
-642.697	-79.392	-0.442	0.151
-641.682	197.308	-0.023	-0.036
-640.668	-12.849	-0.288	0.189
-639.653	-51.405	0.388	0.183
-638.638	-117.012	0.319	0.059
-637.624	-25.997	-0.240	0.142
-636.609	-103.185	0.256	-0.061
-635.595	-60.412	0.194	-0.083
-634.580	17.312	-0.007	-0.006
-633.565	800.000	-0.039	0.152
-632.551	-49.047	0.218	-0.105
-631.536	148.582	0.076	0.103
-630.522	-200.000	0.009	-0.396
-629.507	-120.215	-0.100	0.017
-628.492	-153.187	-0.251	-0.018
-627.478	-130.965	0.136	0.018
-626.463	372.133	-0.162	-0.332
-625.449	166.976	0.054	0.078
-624.434	56.431	0.092	-0.090
-623.419	118.910	-0.181	0.225
-622.405	-196.609	-0.276	-0.002
-621.390	78.443	0.189	-0.203
-620.376	302.368	0.201	0.374
-619.361	-200.000	-0.062	0.346
-618.346	800.000	0.034	-0.107
-617.332	334.955	0.084	0.163
-616.317	62.606	-0.282	0.284
-615.303	219.817	0.124	0.200
-614.288	-200.000	0.012	-0.150
-613.273	-200.000	-0.003	0.029
-612.259	201.740	0.258	0.400
-611.244	-88.171	0.172	0.052
-610.230	-200.000	-0.064	-0.302
-609.215	-10.747	-0.039	0.026
-608.201	-200.000	0.030	0.162
-607.186	226.013	-0.063	0.103
-606.171	-200.000	0.042	0.216
-605.157	3.983	0.179	-0.132
-604.142	-200.000	0.020	0.000
-603.128	-200.000	-0.008	-0.141
-602.113	292.440	-0.012	-0.022
-601.098	145.643	0.171	0.231
-600.084	87.467	-0.048	0.054
-599.069	-200.000	0.004	-0.635
-598.055	-43.330	-0.267	-0.136
-597.040	47.115	-0.154	0.144
-596.025	-67.148	0.156	-0.062
-595.011	-40.923	-0.052	-0.027
-593.996	157.781	0.112	-0.157
-592.982	-18.876	-0.164	0.103
-591.967	-169.068	-0.192	-0.007
-590.952	32.197	0.102	0.089
-589.938	-107.934	0.184	-0.040
-588.923	323.745	-0.083	-0.159
-587.909	126.233	0.092	-0.117
-586.894	-91.221	-0.196	-0.057
-585.879	-16.348	-0.325	-0.208
-584.865	422.450	-0.051	-0.111
-583.850	-36.054	0.063	-0.034
-582.836	17.502	0.307	-0.245
-581.821	-189.186	0.092	0.001
-580.806	177.290	-0.169	-0.248
-579.792	-33.203	0.098	0.055
-578.777	149.812	0.020	0.028
-577.763	800.000	0.030	0.124
-576.748	-15.216	0.235	-0.151
-575.733	-27.097	-0.098	-0.057
-574.719	30.809	0.206	0.177
-573.704	-35.695	-0.027	0.015
-572.690	800.000	0.068	-0.221
-571.675	-200.000	-0.014	-0.217
-570.661	706.516	-0.056	0.148
-569.646	-93.395	-0.251	0.070
-568.631	-200.000	-0.013	-0.085
-567.617	-59.746	0.166	-0.071
-566.602	9.011	0.167	-0.127
-565.588	-139.753	-0.308	-0.033
-564.573	249.485	-0.063	-0.107
-563.558	305.387	0.043	0.080
-562.544	281.445	-0.124	0.224
-561.529	-128.587	-0.177	-0.025
-560.515	50.749	0.097	0.093
-559.500	800.000	-0.018	-0.062
-558.485	18.236	-0.025	0.020
-557.471	261.723	-0.132	-0.230
-556.456	-78.577	-0.525	-0.180
-555.442	161.025	-0.199	0.280
-554.427	800.000	0.017	0.065
-553.412	-0.156	0.207	0.148
-552.398	230.914	-0.117	-0.193
-551.383	350.602	0.079	-0.156
-550.369	37.128	-0.223	-0.198
-549.354	-104.818	-0.177	0.041
-548.339	15.634	0.220	-0.174
-547.325	-85.312	0.095	0.030
-546.310	51.595	0.233	-0.223
-545.296	-117.801	0.366	-0.066
-544.281	315.938	-0.100	-0.190
-543.266	43.516	-0.139	-0.127
-542.252	-53.986	-0.086	0.039
-541.237	22.921	0.161	-0.132
-540.223	305.952	-0.090	-0.169
-539.208	-29.674	0.246	-0.141
-538.193	16.292	-0.282	-0.224
-537.179	-94.897	0.199	0.054
-536.164	11.883	-0.111	-0.085
-535.150	-200.000	-0.020	-0.126
-534.135	-1.523	0.378	0.267
-533.121	-200.000	-0.021	-0.206
-532.106	202.242	-0.185	-0.286
-531.091	800.000	0.025	0.083
-530.077	800.000	-0.052	-0.217
-529.062	82.373	-0.032	0.034
-528.048	-103.009	0.393	-0.094
-527.033	18.811	0.018	0.015
-526.018	-29.667	-0.272	-0.156
-525.004	42.328	0.121	0.111
-523.989	-131.460	-0.479	0.063
-522.975	444.392	-0.014	-0.032
-521.960	-8.145	0.130	0.088
-520.945	800.000	-0.076	0.237
-519.931	-87.026	0.141	0.043
-518.916	4.993	-0.146	0.107
-517.902	800.000	-0.106	0.464
-516.887	-200.000	0.008	0.266
-515.872	800.000	0.029	0.090
-514.858	135.512	0.088	0.114
-513.843	-23.520	0.103	0.062
-512.829	-94.690	0.139	-0.038
-511.814	-136.134	-0.317	-0.037
-510.799	-152.515	0.168	-0.012
-509.785	-45.355	0.091	0.045
-508.770	42.757	0.222	0.203
-507.756	-111.155	0.179	-0.037
-506.741	-200.000	0.002	-0.316
-505.726	286.558	0.283	-0.512
-504.712	9.162	0.131	0.100
-503.697	-163.235	-0.336	0.016
-502.683	246.347	-0.230	0.388
-501.668	53.137	-0.200	0.192
-500.653	-56.288	-0.029	0.013
-499.639	-114.356	0.100	0.019
-498.624	-200.000	0.017	-0.111
-497.610	-200.000	0.008	-0.057
-496.595	-72.896	-0.252	0.093
-495.581	82.092	-0.093	-0.101
-494.566	-53.055	-0.105	0.048
-493.551	-200.000	0.003	0.329
-492.537	-100.423	-0.148	-0.037
-491.522	-200.000	0.013	-0.256
-490.508	800.000	-0.050	0.215
-489.493	4.186	-0.358	0.263
-488.478	-89.245	-0.197	-0.058
-487.464	-70.415	0.100	0.038
-486.449	271.927	-0.165	0.292
-485.435	-87.651	0.215	0.065
-484.420	-65.056	-0.228	0.092
-483.405	-186.552	0.019	0.000
-482.391	49.785	0.198	-0.187
-481.376	-200.000	0.023	-0.113
-480.362	16.266	0.131	-0.104
-479.347	585.307	-0.115	-0.282
-478.332	-30.606	0.213	0.121
-477.318	-29.108	-0.192	0.110
-476.303	-50.699	0.106	0.050
-475.289	-93.446	0.084	-0.023
-474.274	-9.243	0.208	-0.139
-473.259	-200.000	0.023	-0.560
-472.245	172.958	-0.271	-0.391
-471.230	292.743	0.093	0.170
-470.216	-200.000	-0.018	0.100
-469.201	-50.660	0.103	-0.048
-468.186	29.905	0.255	-0.218
-467.172	94.483	-0.062	0.071
-466.157	-200.000	-0.030	0.358
-465.143	-146.713	-0.414	0.036
-464.128	-200.000	0.003	-0.045
-463.113	84.152	0.021	-0.023
-462.099	-64.399	0.136	0.055
-461.084	800.000	-0.111	-0.345
-460.070	646.273	-0.138	0.352
-459.055	18.104	0.064	-0.051
-458.040	199.746	0.073	-0.112
-457.026	-127.690	-0.302	0.044
-456.011	-136.713	-0.207	0.024
-454.997	554.164	0.082	0.197
-453.982	-200.000	0.018	0.192
-452.968	19.064	0.154	-0.124
-451.953	800.000	-0.053	0.158
-450.938	449.388	-0.109	-0.240
-449.924	-200.000	0.030	-0.281
-448.909	-65.949	0.136	-0.054
-447.895	504.580	0.096	-0.222
-446.880	252.201	-0.019	0.033
-445.865	485.857	-0.065	-0.149
-444.851	-200.000	-0.006	0.122
-443.836	685.264	0.078	0.203
-442.822	-35.181	-0.160	-0.087
-441.807	1.306	0.114	-0.082
-440.792	-85.893	-0.153	0.047
-439.778	756.042	-0.177	0.479
-438.763	-200.000	-0.016	-0.229
-437.749	-200.000	-0.030	0.217
-436.734	-13.920	0.062	-0.040
-435.719	337.368	-0.178	-0.347
-434.705	-49.832	-0.226	-0.107
-433.690	261.063	-0.139	0.240
-432.676	-200.000	-0.006	0.188
-431.661	-123.002	-0.288	-0.046
-430.646	236.754	-0.182	0.302
-429.632	-200.000	0.013	0.170
-428.617	267.625	-0.103	0.181
-427.603	-79.464	0.228	0.077
-426.588	-114.628	0.181	0.035
-425.573	-104.732	0.121	-0.028
-424.559	341.556	-0.147	0.287
-423.544	-113.452	-0.082	-0.016
-422.530	51.381	-0.236	0.224
-421.515	342.632	-0.098	-0.192
-420.500	2.575	-0.112	-0.081
-419.486	-0.943	-0.013	-0.009
-418.471	-147.529	-0.263	-0.022
-417.457	-40.157	-0.213	0.111
-416.442	-9.883	0.101	-0.067
-415.428	-46.049	-0.237	0.116
-414.413	-36.542	0.190	0.102
-413.398	-84.161	0.061	0.019
-412.384	-72.489	-0.226	-0.083
-411.369	-87.288	-0.374	-0.113
-410.355	683.408	0.075	-0.196
-409.340	-200.000	-0.014	0.162
-408.325	-50.355	0.293	-0.138
-407.311	-173.617	-0.200	0.006
-406.296	-97.689	0.121	0.031
-405.282	7.028	0.287	-0.213
-404.267	-200.000	0.065	-0.346
-403.252	492.822	0.054	-0.124
-402.238	-200.000	-0.079	0.394
-401.223	-26.842	0.048	-0.028
-400.209	104.703	0.278	-0.327
-399.194	227.796	0.066	0.107
-398.179	-158.671	-0.509	0.029
-397.165	161.329	-0.173	0.241
-396.150	-200.000	0.042	-0.194
-395.136	-165.742	-0.294	0.013
-394.121	-79.023	0.440	-0.149
-393.106	170.025	-0.173	-0.246
-392.092	213.266	0.158	-0.249
-391.077	800.000	0.026	0.086
-390.063	-200.000	0.015	-0.235
-389.048	-56.745	-0.212	-0.094
-388.033	495.174	0.080	0.184
-387.019	-200.000	-0.050	0.357
-386.004	-200.000	0.015	0.102
-384.990	-200.000	-0.011	-0.178
-383.975	-31.773	-0.345	-0.193
-382.960	800.000	-0.076	-0.298
-381.946	800.000	-0.067	-0.277
-380.931	92.446	-0.263	-0.295
-379.917	-200.000	-0.027	-0.204
-378.902	200.557	-0.113	-0.174
-377.888	-200.000	-0.019	0.170
-376.873	354.114	-0.115	0.228
-375.858	-200.000	-0.002	0.245
-374.844	-71.342	-0.207	-0.077
-373.829	182.693	-0.142	-0.209
-372.815	-37.587	-0.184	0.098
-371.800	-0.967	-0.066	-0.047
-370.785	-200.000	0.014	-0.149
-369.771	-131.662	0.225	0.029
-368.756	149.975	0.113	0.153
-367.742	-61.828	-0.158	-0.066
-366.727	83.694	0.124	-0.135
-365.712	130.404	-0.149	-0.191
-364.698	-70.180	0.152	-0.058
-363.683	71.574	-0.260	-0.269
-362.669	51.355	-0.086	-0.081
-361.654	3.456	0.224	-0.162
-360.639	-14.752	0.044	0.028
-359.625	-48.595	-0.062	0.030
-358.610	-41.848	-0.331	0.169
-357.596	236.182	0.132	0.217
-356.581	800.000	-0.031	0.089
-355.566	-200.000	0.005	0.181
-354.552	-200.000	0.006	0.068
-353.537	148.655	-0.263	-0.354
-352.523	90.516	-0.127	-0.142
-351.508	272.302	0.197	0.346
-350.493	-200.000	0.005	-0.127
-349.479	121.731	-0.080	-0.099
-348.464	230.114	-0.105	0.171
-347.450	800.000	-0.112	-0.380
-346.435	318.997	-0.093	-0.176
-345.420	-68.807	-0.309	-0.119
-344.406	800.000	-0.002	0.009
-343.391	-8.137	0.191	-0.128
-342.377	41.686	-0.097	0.088
-341.362	27.244	-0.401	0.336
-340.348	-200.000	0.044	-0.274
-339.333	237.406	0.059	-0.097
-338.318	504.649	0.042	-0.098
-337.304	446.166	0.046	-0.101
-336.289	237.691	0.134	0.221
-335.275	665.127	0.060	0.154
-334.260	83.530	-0.089	-0.096
-333.245	569.053	0.057	0.138
-332.231	800.000	0.190	0.602
-331.216	-95.777	0.197	0.052
-330.202	-131.846	0.354	-0.046
-329.187	-62.985	-0.129	-0.053
-328.172	-7.615	0.082	-0.055
-327.158	-200.000	-0.011	0.202
-326.143	215.207	0.044	0.069
-325.129	-79.680	-0.414	-0.139
-324.114	-1.750	0.054	0.038
-323.099	-73.749	-0.303	-0.110
-322.085	62.719	0.315	0.313
-321.070	13.013	0.133	0.103
-320.056	-200.000	0.011	0.123
-319.041	697.195	0.063	-0.164
-318.026	-118.348	0.193	-0.034
-317.012	71.522	0.227	0.235
-315.997	-108.074	-0.176	0.038
-314.983	-140.862	-0.202	0.021
-313.968	72.041	0.113	0.117
-312.953	-200.000	0.029	0.216
-311.939	201.508	0.143	0.219
-310.924	800.000	-0.033	0.145
-309.910	-57.100	-0.208	0.091
-308.895	-146.054	0.074	0.006
-307.880	-43.819	-0.067	-0.033
-306.866	-49.421	0.151	0.071
-305.851	-4.795	-0.108	-0.074
-304.837	286.133	-0.101	-0.182
-303.822	-179.576	0.195	-0.004
-302.807	3.898	0.041	-0.030
-301.793	305.327	-0.044	-0.082
-300.778	-163.738	-0.307	0.014
-299.764	178.994	-0.214	0.311
-298.749	800.000	0.050	-0.213
-297.735	-13.506	0.072	-0.046
-296.720	577.231	0.023	-0.057
-295.705	-130.535	-0.288	-0.039
-294.691	33.530	-0.237	-0.205
-293.676	251.354	0.128	0.217
-292.662	-200.000	-0.016	-0.209
-291.647	-134.850	0.354	-0.043
-290.632	-69.394	-0.273	0.104
-289.618	340.369	0.093	0.180
-288.603	89.100	0.212	0.235
-287.589	343.815	-0.039	0.076
-286.574	-123.571	-0.278	0.044
-285.559	-3.805	0.079	0.054
-284.545	12.212	0.132	0.101
-283.530	692.882	-0.113	-0.295
-282.516	325.679	0.182	-0.346
-281.501	-115.086	0.089	0.017
-280.486	-200.000	0.034	0.166
-279.472	-152.376	-0.374	-0.027
-278.457	-136.513	-0.328	0.038
-277.443	274.601	0.083	0.146
-276.428	-35.469	0.127	0.068
-275.413	-58.196	0.319	-0.138
-274.399	65.825	0.072	-0.072
-273.384	-132.692	-0.178	0.023
-272.370	688.630	-0.095	0.247
-271.355	-123.700	0.256	-0.040
-270.340	800.000	-0.038	-0.127
-269.326	394.744	0.084	-0.173
-268.311	-78.100	0.085	0.029
-267.297	-80.600	0.258	-0.085
-266.282	167.731	-0.101	-0.143
-265.267	409.498	-0.151	0.318
-264.253	-17.225	-0.256	0.160
-263.238	548.930	-0.141	-0.335
-262.224	230.317	-0.183	-0.298
-261.209	-1.123	-0.128	0.090
-260.195	66.013	-0.055	0.055
-259.180	800.000	-0.031	0.088
-258.165	-200.000	-0.005	-0.165
-257.151	204.503	-0.111	0.170
-256.136	-186.941	0.397	0.005
-255.122	439.004	0.143	-0.309
-254.107	800.000	0.053	-0.204
-253.092	50.291	0.165	0.154
-252.078	259.458	0.068	0.116
-251.063	122.307	-0.093	-0.115
-250.049	-200.000	-0.017	0.094
-249.034	-34.469	-0.123	0.067
-248.019	-156.274	-0.281	-0.018
-247.005	70.121	0.176	-0.181
-245.990	-200.000	0.007	0.035
-244.976	113.504	-0.093	-0.113
-243.961	41.026	0.248	0.222
-242.946	5.316	0.127	0.093
-241.932	-200.000	0.011	-0.059
-240.917	66.884	-0.118	-0.119
-239.903	53.797	-0.019	-0.018
-238.888	-177.154	0.213	-0.005
-237.873	-68.688	0.198	-0.076
-236.859	-200.000	0.037	-0.170
-235.844	103.557	0.157	-0.182
-234.830	-77.811	0.227	0.078
-233.815	-38.511	0.444	0.233
-232.800	800.000	0.130	-0.383
-231.786	12.874	-0.177	-0.135
-230.771	-41.764	0.030	-0.015
-229.757	-63.371	-0.150	0.061
-228.742	-128.412	-0.094	0.013
-227.727	-200.000	-0.056	0.286
-226.713	-200.000	-0.035	-0.357
-225.698	-93.341	-0.101	-0.028
-224.684	-48.549	0.111	0.053
-223.669	-60.724	0.053	-0.022
-222.655	-200.000	0.058	-0.390
-221.640	-14.290	-0.156	-0.099
-220.625	233.106	0.102	-0.166
-219.611	39.249	0.217	0.192
-218.596	42.924	-0.032	0.029
-217.582	189.538	0.370	0.550
-216.567	800.000	0.149	0.445
-215.552	-21.463	0.066	-0.040
-214.538	-64.055	0.154	0.062
-213.523	-200.000	-0.019	0.123
-212.509	147.784	0.216	-0.288
-211.494	-131.994	0.301	0.039
-210.479	-65.471	-0.095	-0.038
-209.465	188.986	0.153	0.227
-208.450	-50.953	-0.080	0.037
-207.436	173.889	0.175	0.251
-206.421	-200.000	0.019	0.261
-205.406	-40.777	0.209	0.107
-204.392	-97.294	-0.214	-0.055
-203.377	-124.039	-0.156	0.024
-202.363	-82.481	0.205	-0.066
-201.348	-60.365	0.633	-0.267
-200.333	800.000	-0.019	-0.062
-199.319	-200.000	-0.067	0.538
-198.304	-114.917	0.258	0.049
-197.290	800.000	0.075	0.273
-196.275	-139.311	0.155	0.017
-195.260	800.000	0.130	-0.370
-194.246	-100.173	0.190	0.047
-193.231	384.505	-0.035	0.071
-192.217	560.419	-0.077	-0.185
-191.202	-31.220	-0.059	0.033
-190.187	229.795	0.124	0.200
-189.173	54.707	0.043	0.041
-188.158	180.547	0.042	0.061
-187.144	-0.576	0.054	-0.038
-186.129	6.560	0.050	-0.037
-185.114	-200.000	-0.024	0.154
-184.100	477.720	0.052	-0.117
-183.085	-47.233	-0.090	0.043
-182.071	33.642	0.222	-0.191
-181.056	241.231	0.095	0.157
-180.042	800.000	0.076	0.211
-179.027	-50.953	-0.262	0.122
-178.012	-134.986	-0.165	-0.020
-176.998	231.142	0.128	-0.208
-175.983	-82.321	0.283	0.091
-174.969	-9.687	0.048	0.032
-173.954	604.892	0.065	0.160
-172.939	-200.000	-0.020	0.363
-171.925	37.846	0.151	0.133
-170.910	-200.000	-0.014	0.216
-169.896	240.197	0.142	0.234
-168.881	800.000	-0.023	0.070
-167.866	-200.000	0.085	-0.378
-166.852	126.416	0.080	0.100
-165.837	227.039	0.124	0.199
-164.823	-200.000	0.049	0.230
-163.808	-200.000	0.095	-0.420
-162.793	-200.000	0.027	0.197
-161.779	-29.961	-0.302	0.170
-160.764	800.000	-0.060	-0.165
-159.750	800.000	0.022	-0.083
-158.735	-93.654	0.268	0.073
-157.720	63.855	-0.309	-0.307
-156.706	12.807	0.117	-0.089
-155.691	60.733	-0.165	0.161
-154.677	551.974	-0.021	0.049
-153.662	-97.237	0.163	0.042
-152.647	332.007	0.100	0.190
-151.633	56.344	0.246	-0.236
-150.618	-16.925	0.409	-0.255
-149.604	-200.000	0.050	0.291
-148.589	-200.000	0.022	0.178
-147.574	105.968	0.106	0.123
-146.560	684.664	-0.081	-0.210
-145.545	-200.000	-0.005	-0.346
-144.531	99.353	0.051	0.058
-143.516	-174.927	0.436	0.012
-142.502	-200.000	0.036	0.314
-141.487	-200.000	0.005	0.138
-140.472	187.000	0.120	-0.177
-139.458	38.623	0.275	-0.243
-138.443	-200.000	-0.010	-0.143
-137.429	-200.000	-0.032	-0.137
-136.414	223.713	0.077	-0.122
-135.399	800.000	0.126	-0.347
-134.385	178.746	-0.129	-0.187
-133.370	-200.000	0.000	-0.276
-132.356	-200.000	-0.008	-0.176
-131.341	16.376	-0.248	0.193
-130.326	596.197	0.091	0.222
-129.312	-86.398	-0.108	-0.033
-128.297	287.018	-0.110	-0.196
-127.283	-125.302	0.168	0.025
-126.268	207.818	-0.210	-0.324
-125.253	-1.000	0.086	-0.060
-124.239	-10.514	0.154	0.101
-123.224	-149.373	0.056	-0.004
-122.210	225.430	-0.140	0.223
-121.195	-72.174	-0.220	0.081
-120.180	-83.583	-0.075	-0.024
-119.166	640.961	0.049	0.124
