DTS Sentinel unit serial number:	SN413079Multiplexer serial number:	ORYXHardware model number:	OX4-SRSoftware version number:	ORYX F/W v4.00 Oryx Data Collector v3.7.2.0data status	okinstallation	princeton_trtdifferential loss correction	single-endedforward channel	channel 2reverse channel	N/Adate	2019/09/18time	19:23:35forward acquisition time	60.00reverse acquisition time	0.00gamma	496.2192k internal	0.2326k external	0.2326temperature offset calibration	1.0034default loss term (dB/km)	0.3790temperature slope calibration	1.0000multiplexer offset coefficient	1.0000multiplexer slope coefficient	1.0000fibre end	0.00T internal ref (°C)	33.56T ext. ref 1 (°C)	1.10T ext. ref 2 (°C)	22.90length (m)	temperature (°C)	Stokes	anti-Stokes-747.200	228.491	-0.185	0.304
-746.185	12.970	-0.081	-0.063
-745.171	-200.000	0.041	-0.205
-744.156	800.000	-0.044	-0.148
-743.142	308.259	0.063	-0.118
-742.127	-35.105	0.140	-0.077
-741.112	128.805	-0.209	-0.269
-740.098	-110.031	0.290	-0.061
-739.083	800.000	0.028	-0.083
-738.069	292.496	-0.213	-0.392
-737.054	171.423	-0.136	-0.197
-736.039	596.314	-0.108	-0.269
-735.025	-200.000	0.033	0.297
-734.010	-1.156	0.369	-0.263
-732.996	386.129	-0.109	-0.226
-731.981	-200.000	0.008	-0.633
-730.966	-4.891	-0.270	-0.188
-729.952	-200.000	0.006	0.187
-728.937	-68.579	-0.447	-0.175
-727.923	-118.012	0.098	0.018
-726.908	-22.789	-0.243	-0.148
-725.894	-61.777	0.284	-0.120
-724.879	-46.193	-0.223	-0.111
-723.864	-79.634	-0.135	-0.046
-722.850	-200.000	-0.193	-0.001
-721.835	377.502	-0.015	0.032
-720.821	-12.583	-0.154	0.101
-719.806	-154.525	0.377	-0.025
-718.791	800.000	-0.121	0.341
-717.777	-139.218	0.184	0.020
-716.762	251.255	0.024	0.042
-715.748	310.195	0.116	0.219
-714.733	-78.039	-0.137	0.048
-713.718	63.084	-0.176	-0.177
-712.704	256.813	0.083	0.144
-711.689	-11.494	-0.225	-0.149
-710.675	55.933	-0.170	-0.166
-709.660	800.000	-0.053	0.229
-708.645	-99.971	-0.143	-0.036
-707.631	-5.027	0.351	-0.244
-706.616	0.796	-0.260	-0.187
-705.602	-31.166	-0.288	0.164
-704.587	-74.720	0.118	0.043
-703.572	104.355	0.191	0.227
-702.558	45.661	-0.165	-0.153
-701.543	43.162	-0.092	-0.085
-700.529	-183.750	-0.570	0.010
-699.514	22.425	0.023	0.019
-698.499	-25.137	0.309	0.185
-697.485	-142.547	0.118	-0.012
-696.470	-139.544	-0.269	0.029
-695.456	-200.000	0.001	-0.209
-694.441	176.174	0.091	-0.133
-693.426	126.708	0.209	0.267
-692.412	52.023	-0.172	0.165
-691.397	-9.713	0.067	0.045
-690.383	137.324	-0.089	-0.118
-689.368	-53.271	-0.084	0.039
-688.354	-28.522	0.143	0.083
-687.339	-200.000	-0.299	0.000
-686.324	83.974	0.267	-0.294
-685.310	-25.700	-0.140	0.083
-684.295	748.260	0.090	-0.245
-683.281	164.231	0.033	0.046
-682.266	-140.330	-0.299	0.031
-681.251	-200.000	0.048	-0.266
-680.237	-200.000	-0.012	-0.096
-679.222	166.790	0.069	0.099
-678.208	-52.269	0.553	0.258
-677.193	65.283	-0.028	0.028
-676.178	-143.033	-0.247	0.024
-675.164	-24.783	0.307	0.183
-674.149	143.357	0.023	0.031
-673.135	86.362	0.208	-0.231
-672.120	86.193	0.120	-0.133
-671.105	330.746	-0.129	-0.251
-670.091	789.289	0.117	-0.324
-669.076	64.820	-0.332	0.337
-668.062	697.027	0.024	0.064
-667.047	547.204	0.145	0.350
-666.032	10.096	-0.112	0.086
-665.018	-116.523	-0.342	0.063
-664.003	-177.295	0.151	-0.004
-662.989	-163.179	0.185	0.009
-661.974	207.695	-0.134	0.210
-660.959	-13.929	0.304	0.198
-659.945	-200.000	0.079	-0.396
-658.930	12.495	-0.087	-0.068
-657.916	199.894	-0.187	-0.289
-656.901	-85.769	0.355	0.111
-655.886	58.437	-0.153	-0.151
-654.872	800.000	-0.064	-0.242
-653.857	111.770	-0.173	-0.210
-652.843	76.710	-0.151	0.161
-651.828	-80.656	-0.137	0.046
-650.814	548.815	0.147	0.355
-649.799	4.736	0.210	-0.155
-648.784	173.489	-0.071	0.104
-647.770	-8.603	-0.219	0.148
-646.755	-61.142	0.084	-0.036
-645.741	-35.519	-0.237	-0.129
-644.726	296.976	0.037	-0.068
-643.711	-75.925	-0.362	0.129
-642.697	40.205	0.133	0.120
-641.682	-37.376	0.074	0.039
-640.668	-48.374	0.135	0.066
-639.653	571.135	-0.077	0.189
-638.638	80.905	-0.102	-0.111
-637.624	33.374	0.210	-0.183
-636.609	-72.336	-0.297	-0.110
-635.595	772.329	0.050	0.136
-634.580	-60.460	0.113	0.048
-633.565	-64.708	-0.230	-0.094
-632.551	800.000	0.098	0.390
-631.536	-110.848	-0.446	-0.092
-630.522	-44.349	0.291	-0.146
-629.507	-96.394	-0.305	0.081
-628.492	111.442	0.124	0.150
-627.478	-9.066	0.035	-0.024
-626.463	-200.000	-0.030	-0.172
-625.449	-10.584	0.360	-0.239
-624.434	766.347	-0.111	-0.303
-623.419	465.722	-0.150	-0.337
-622.405	741.106	0.083	-0.224
-621.390	-200.000	-0.046	-0.304
-620.376	-101.288	0.422	-0.103
-619.361	800.000	0.094	0.325
-618.346	-165.881	-0.102	-0.004
-617.332	307.614	0.062	-0.116
-616.317	406.680	0.128	0.271
-615.303	-120.790	0.241	-0.041
-614.288	64.287	-0.095	-0.096
-613.273	21.462	-0.135	0.110
-612.259	639.940	-0.081	-0.207
-611.244	163.326	-0.225	-0.317
-610.230	800.000	0.070	0.225
-609.215	-61.248	0.241	0.102
-608.201	-150.512	0.161	0.012
-607.186	-200.000	-0.002	0.197
-606.171	62.851	0.260	0.261
-605.157	-22.682	-0.206	0.125
-604.142	-91.314	0.147	0.042
-603.128	-88.845	0.424	0.126
-602.113	-100.881	-0.311	0.077
-601.098	-129.691	-0.457	-0.063
-600.084	-101.519	0.297	0.072
-599.069	122.685	0.178	0.224
-598.055	-19.351	-0.095	0.059
-597.040	183.347	-0.062	-0.091
-596.025	730.841	0.187	0.501
-595.011	-200.000	0.045	0.232
-593.996	388.928	0.081	0.168
-592.982	14.382	0.064	-0.050
-591.967	51.545	-0.127	-0.121
-590.952	800.000	0.036	-0.139
-589.938	800.000	-0.063	-0.212
-588.923	-200.000	-0.005	0.474
-587.909	800.000	0.038	-0.162
-586.894	-200.000	-0.088	0.395
-585.879	-200.000	0.003	-0.067
-584.865	-99.876	-0.222	-0.056
-583.850	800.000	-0.053	-0.176
-582.836	-200.000	0.012	-0.278
-581.821	593.252	-0.029	-0.071
-580.806	-0.133	-0.197	-0.141
-579.792	-200.000	0.030	-0.249
-578.777	112.172	-0.105	0.127
-577.763	192.928	0.227	-0.344
-576.748	-23.503	0.131	0.079
-575.733	214.407	0.112	0.177
-574.719	25.022	0.188	0.156
-573.704	-200.000	-0.039	0.266
-572.690	512.911	0.110	0.258
-571.675	361.374	0.054	-0.108
-570.661	-200.000	-0.002	-0.202
-569.646	-151.337	-0.210	-0.016
-568.631	-200.000	0.038	0.198
-567.617	-57.984	0.045	0.020
-566.602	-113.027	0.218	0.043
-565.588	155.246	0.016	-0.022
-564.573	76.057	0.140	0.149
-563.558	419.938	-0.063	0.135
-562.544	-200.000	0.007	0.138
-561.529	-44.500	-0.110	-0.055
-560.515	-200.000	-0.037	0.253
-559.500	-24.186	-0.146	0.087
-558.485	13.514	0.265	-0.206
-557.471	553.977	-0.059	0.143
-556.456	-10.515	0.254	-0.168
-555.442	700.825	-0.106	0.279
-554.427	81.156	-0.091	-0.098
-553.412	-200.000	-0.021	-0.370
-552.398	-146.194	0.233	0.020
-551.383	-76.370	0.092	0.032
-550.369	170.510	0.047	-0.067
-549.354	-200.000	-0.011	-0.099
-548.339	-200.000	-0.027	-0.176
-547.325	14.115	-0.303	-0.236
-546.310	-200.000	-0.020	0.132
-545.296	-105.212	-0.350	-0.080
-544.281	215.077	-0.075	0.119
-543.266	148.171	-0.087	0.117
-542.252	-15.518	-0.302	0.193
-541.237	15.448	-0.029	-0.023
-540.223	-11.597	-0.062	-0.041
-539.208	-67.207	-0.355	0.140
-538.193	800.000	0.093	0.367
-537.179	435.825	-0.186	-0.405
-536.164	360.498	0.065	-0.130
-535.150	-62.718	0.113	0.047
-534.135	-200.000	-0.013	0.148
-533.121	-93.243	-0.134	-0.037
-532.106	275.695	-0.074	-0.132
-531.091	509.805	-0.131	-0.305
-530.077	115.653	-0.158	-0.193
-529.062	-124.247	0.167	-0.026
-528.048	184.614	-0.133	0.197
-527.033	-90.968	-0.168	-0.048
-526.018	191.322	-0.069	0.103
-525.004	-19.993	0.080	-0.049
-523.989	-196.798	0.500	-0.003
-522.975	180.396	-0.143	0.210
-521.960	258.048	-0.021	-0.036
-520.945	-143.202	-0.093	0.009
-519.931	312.147	-0.074	-0.139
-518.916	800.000	0.064	-0.188
-517.902	-200.000	-0.053	-0.347
-516.887	10.160	-0.125	-0.095
-515.872	-200.000	0.006	0.124
-514.858	140.388	-0.222	0.292
-513.843	5.687	-0.287	0.212
-512.829	141.523	-0.082	-0.108
-511.814	-153.605	0.105	0.007
-510.799	-53.423	-0.185	0.085
-509.785	800.000	0.071	0.199
-508.770	526.435	0.134	0.315
-507.756	800.000	0.134	0.492
-506.741	202.413	-0.038	0.058
-505.726	-132.612	0.238	0.031
-504.712	-164.047	0.312	0.014
-503.697	-200.000	-0.003	0.136
-502.683	-140.163	0.246	-0.026
-501.668	217.996	0.145	-0.231
-500.653	-14.477	0.080	0.052
-499.639	800.000	-0.094	0.289
-498.624	800.000	0.087	-0.251
-497.610	-107.112	0.235	-0.052
-496.595	800.000	-0.010	0.033
-495.581	532.821	0.059	0.141
-494.566	545.990	-0.148	-0.353
-493.551	800.000	0.021	0.087
-492.537	115.176	-0.062	0.075
-491.522	94.344	-0.083	0.095
-490.508	46.205	0.215	0.199
-489.493	-200.000	-0.038	0.298
-488.478	-22.042	-0.048	0.029
-487.464	800.000	-0.057	-0.229
-486.449	-126.608	-0.079	0.012
-485.435	45.759	-0.141	-0.130
-484.420	169.409	-0.077	-0.109
-483.405	285.068	0.065	-0.116
-482.391	-84.313	0.447	-0.141
-481.376	-200.000	0.035	-0.160
-480.362	-142.371	0.279	-0.027
-479.347	98.301	-0.106	0.122
-478.332	-131.468	0.313	0.041
-477.318	0.945	-0.130	0.093
-476.303	-200.000	0.005	0.255
-475.289	800.000	0.025	-0.087
-474.274	800.000	-0.097	0.326
-473.259	-41.457	0.224	-0.115
-472.245	-49.976	-0.268	-0.127
-471.230	290.863	-0.138	-0.250
-470.216	-40.756	-0.148	0.077
-469.201	53.307	-0.128	0.122
-468.186	-23.773	0.217	0.130
-467.172	68.402	0.216	-0.221
-466.157	-32.280	-0.160	-0.089
-465.143	326.121	-0.157	0.299
-464.128	800.000	0.089	-0.321
-463.113	800.000	0.059	0.175
-462.099	-110.728	0.193	-0.040
-461.084	-200.000	-0.036	-0.221
-460.070	173.794	-0.065	-0.094
-459.055	-67.736	-0.202	0.079
-458.040	-17.346	0.250	0.157
-457.026	-15.854	0.195	-0.124
-456.011	686.685	0.112	0.292
-454.997	-200.000	0.002	-0.339
-453.982	800.000	0.085	-0.336
-452.968	-110.889	0.327	0.067
-451.953	-159.495	-0.112	-0.006
-450.938	800.000	0.033	0.108
-449.924	-42.717	0.206	0.105
-448.909	-200.000	-0.009	0.213
-447.895	800.000	-0.076	0.306
-446.880	-79.620	-0.215	0.072
-445.865	-91.217	-0.144	0.041
-444.851	-200.000	0.023	-0.321
-443.836	800.000	-0.136	-0.434
-442.822	668.257	-0.131	-0.338
-441.807	71.251	0.140	-0.144
-440.792	-43.078	-0.399	0.202
-439.778	-45.452	-0.354	-0.175
-438.763	-6.899	-0.049	-0.033
-437.749	-93.149	-0.246	0.068
-436.734	-42.733	0.197	-0.100
-435.719	-200.000	0.013	0.233
-434.705	365.087	0.091	0.183
-433.690	-77.396	-0.190	-0.066
-432.676	36.702	0.089	0.078
-431.661	-3.389	0.272	-0.189
-430.646	-43.666	0.431	-0.216
-429.632	-200.000	0.014	0.136
-428.617	-100.978	-0.104	0.025
-427.603	247.046	-0.055	0.093
-426.588	800.000	0.030	-0.083
-425.573	-113.037	0.205	0.040
-424.559	-200.000	0.010	-0.193
-423.544	-94.276	-0.094	-0.026
-422.530	-200.000	-0.018	-0.108
-421.515	-93.866	0.153	-0.042
-420.500	510.545	-0.096	0.221
-419.486	-32.083	-0.201	0.112
-418.471	138.696	-0.090	-0.118
-417.457	800.000	-0.086	-0.309
-416.442	101.913	0.082	-0.096
-415.428	800.000	-0.080	0.239
-414.413	308.669	0.113	0.210
-413.398	182.876	-0.184	-0.270
-412.384	-200.000	0.020	-0.247
-411.369	613.944	-0.116	0.289
-410.355	-136.190	-0.342	0.040
-409.340	602.551	0.114	0.283
-408.325	16.964	0.239	-0.188
-407.311	-123.552	-0.343	-0.054
-406.296	-127.663	-0.488	-0.070
-405.282	-149.538	0.145	-0.011
-404.267	18.942	0.178	0.142
-403.252	-143.819	-0.171	0.016
-402.238	-37.583	0.159	0.084
-401.223	0.921	-0.266	0.190
-400.209	-200.000	-0.069	0.519
-399.194	-132.740	0.162	-0.021
-398.179	-36.681	-0.336	-0.180
-397.165	53.027	-0.172	-0.164
-396.150	-133.430	0.149	-0.019
-395.136	-64.230	0.126	0.051
-394.121	-61.013	-0.339	-0.142
-393.106	143.206	0.044	-0.058
-392.092	-200.000	-0.002	-0.116
-391.077	280.755	0.113	0.201
-390.063	-200.000	0.032	-0.162
-389.048	70.195	-0.045	0.046
-388.033	-200.000	0.079	-0.345
-387.019	800.000	-0.038	-0.141
-386.004	-10.048	0.071	-0.047
-384.990	800.000	-0.033	-0.099
-383.975	-200.000	0.021	-0.196
-382.960	397.362	-0.027	-0.057
-381.946	355.760	-0.099	-0.197
-380.931	21.181	0.166	0.134
-379.917	-200.000	-0.015	0.169
-378.902	128.050	0.183	-0.232
-377.888	331.565	-0.093	-0.179
-376.873	36.033	-0.124	-0.109
-375.858	88.476	0.203	0.224
-374.844	-50.804	0.045	-0.021
-373.829	-66.018	-0.160	-0.063
-372.815	354.495	0.115	-0.228
-371.800	-200.000	0.014	0.134
-370.785	-70.689	0.120	0.045
-369.771	800.000	0.075	-0.228
-368.756	-169.004	0.151	-0.006
-367.742	187.425	0.063	0.093
-366.727	800.000	-0.058	0.209
-365.712	411.848	0.113	-0.237
-364.698	-83.440	-0.182	0.058
-363.683	-118.620	0.061	-0.011
-362.669	521.589	-0.083	0.193
-361.654	-200.000	-0.025	0.174
-360.639	-100.602	0.182	0.045
-359.625	113.237	-0.212	0.255
-358.610	-48.067	-0.051	-0.025
-357.596	-200.000	0.003	-0.061
-356.581	0.256	-0.140	0.099
-355.566	310.973	-0.087	-0.161
-354.552	179.100	0.146	0.212
-353.537	-30.926	0.144	-0.081
-352.523	107.795	-0.113	-0.134
-351.508	-2.446	-0.174	-0.121
-350.493	32.272	-0.181	0.155
-349.479	-111.579	-0.281	-0.057
-348.464	-143.295	0.462	0.044
-347.450	-151.709	-0.142	0.010
-346.435	-99.941	0.138	0.034
-345.420	720.421	-0.058	0.154
-344.406	51.419	-0.082	-0.077
-343.391	-91.450	-0.165	-0.047
-342.377	-10.888	0.131	0.086
-341.362	-25.303	-0.243	-0.143
-340.348	-124.715	-0.229	-0.035
-339.333	304.791	-0.121	0.222
-338.318	9.967	-0.108	0.082
-337.304	-200.000	0.009	-0.332
-336.289	-76.518	0.233	0.081
-335.275	-58.706	-0.350	-0.150
-334.260	-41.905	-0.131	-0.067
-333.245	-69.005	0.207	-0.079
-332.231	266.217	-0.095	-0.165
-331.216	-142.290	0.072	-0.007
-330.202	145.104	0.081	-0.108
-329.187	415.199	0.037	-0.078
-328.172	-12.731	0.166	0.107
-327.158	-52.486	0.220	-0.101
-326.143	34.197	-0.131	0.113
-325.129	-107.985	0.078	0.017
-324.114	768.288	-0.020	-0.054
-323.099	353.958	0.035	0.070
-322.085	-200.000	-0.031	-0.171
-321.070	-14.316	-0.347	0.222
-320.056	-62.450	0.088	-0.036
-319.041	6.064	-0.223	0.164
-318.026	-83.591	-0.229	0.073
-317.012	-200.000	-0.007	-0.150
-315.997	-200.000	-0.024	-0.122
-314.983	-200.000	0.014	0.121
-313.968	-84.590	0.168	-0.052
-312.953	-163.701	0.162	0.008
-311.939	-2.674	0.061	-0.042
-310.924	-200.000	-0.031	0.155
-309.910	530.003	0.021	0.048
-308.895	126.881	0.194	-0.244
-307.880	33.032	0.047	-0.040
-306.866	-57.732	0.173	0.075
-305.851	-131.181	-0.195	0.026
-304.837	-134.929	-0.068	-0.008
-303.822	-200.000	0.093	0.489
-302.807	-200.000	-0.018	0.245
-301.793	41.875	-0.150	-0.135
-300.778	-161.789	0.362	0.018
-299.764	-200.000	-0.025	0.152
-298.749	-46.539	0.198	-0.096
-297.735	23.707	0.204	0.167
-296.720	-33.313	0.094	0.051
-295.705	-50.259	0.209	0.098
-294.691	13.750	0.140	-0.108
-293.676	-104.859	0.171	-0.039
-292.662	-44.319	0.063	-0.032
-291.647	-6.654	-0.132	-0.089
-290.632	-200.000	0.084	0.439
-289.618	98.165	0.185	0.211
-288.603	-200.000	0.198	-0.000
-287.589	-200.000	0.027	-0.348
-286.574	32.000	0.113	-0.096
-285.559	5.581	0.225	0.164
-284.545	17.911	0.100	0.079
-283.530	-20.428	-0.197	-0.120
-282.516	104.829	0.249	-0.290
-281.501	-25.408	0.093	-0.055
-280.486	-200.000	0.011	0.189
-279.472	7.796	-0.248	0.184
-278.457	-200.000	0.276	-0.001
-277.443	24.959	0.177	-0.146
-276.428	-172.486	0.226	0.007
-275.413	-125.825	-0.126	0.019
-274.399	800.000	0.034	0.097
-273.384	37.152	0.254	0.222
-272.370	-134.263	-0.268	0.033
-271.355	164.029	-0.088	0.123
-270.340	96.022	0.038	-0.043
-269.326	-71.261	-0.112	-0.042
-268.311	250.411	-0.162	0.273
-267.297	-200.000	0.003	0.150
-266.282	-75.946	-0.283	0.099
-265.267	-105.210	0.332	-0.075
-264.253	586.512	-0.088	0.214
-263.238	267.930	-0.087	0.151
-262.224	105.879	-0.191	-0.223
-261.209	-170.855	-0.251	0.009
-260.195	-37.271	0.167	0.088
-259.180	-57.542	0.500	0.217
-258.165	-97.705	0.264	0.068
-257.151	208.889	-0.148	-0.229
-256.136	-200.000	-0.037	-0.174
-255.122	36.350	-0.150	0.131
-254.107	-87.996	-0.270	0.080
-253.092	-152.923	-0.254	-0.018
-252.078	155.021	-0.195	-0.266
-251.063	-52.047	0.312	-0.144
-250.049	50.472	0.098	0.092
-249.034	37.920	-0.243	-0.214
-248.019	-195.291	0.438	0.003
-247.005	97.054	0.182	0.206
-245.990	-200.000	0.038	0.202
-244.976	-73.399	-0.155	-0.056
-243.961	234.266	0.158	-0.257
-242.946	80.468	-0.113	-0.121
-241.932	125.380	-0.176	-0.219
-240.917	-23.544	0.224	-0.133
-239.903	-110.126	-0.398	-0.082
-238.888	453.585	-0.117	0.257
-237.873	61.855	-0.116	0.114
-236.859	105.925	0.109	-0.128
-235.844	-200.000	0.020	-0.494
-234.830	-59.182	-0.255	0.108
-233.815	12.629	0.028	0.021
-232.800	95.691	0.080	0.091
-231.786	-88.143	0.175	0.052
-230.771	214.995	0.070	-0.110
-229.757	238.971	-0.191	0.314
-228.742	10.652	0.120	-0.091
-227.727	104.001	0.347	-0.403
-226.713	-200.000	-0.002	-0.286
-225.698	-73.858	-0.213	0.077
-224.684	-200.000	-0.020	-0.108
-223.669	-200.000	0.022	-0.267
-222.655	-82.323	0.279	0.090
-221.640	94.765	-0.114	-0.128
-220.625	249.452	0.260	-0.436
-219.611	-200.000	-0.014	0.066
-218.596	-200.000	0.041	-0.278
-217.582	-116.862	-0.102	-0.018
-216.567	-92.952	-0.448	-0.123
-215.552	-101.512	0.228	-0.055
-214.538	-200.000	0.001	0.394
-213.523	-134.376	-0.222	-0.027
-212.509	26.326	-0.208	0.172
-211.494	-200.000	0.043	0.234
-210.479	-200.000	-0.052	-0.369
-209.465	41.817	-0.162	0.145
-208.450	107.078	0.165	0.193
-207.436	21.957	0.131	0.105
-206.421	-47.039	0.006	-0.003
-205.406	369.214	0.062	-0.125
-204.392	23.092	0.307	0.249
-203.377	362.671	0.085	0.169
-202.363	800.000	-0.060	-0.182
-201.348	742.789	0.125	-0.332
-200.333	-200.000	-0.011	-0.296
-199.319	113.868	0.088	-0.106
-198.304	25.499	-0.246	0.202
-197.290	216.147	-0.237	-0.372
-196.275	84.441	-0.086	0.093
-195.260	3.966	0.050	0.036
-194.246	-82.336	-0.069	-0.022
-193.231	-14.078	-0.041	0.026
-192.217	370.605	-0.105	-0.211
-191.202	-200.000	-0.046	0.450
-190.187	-16.858	-0.231	0.144
-189.173	-86.375	0.116	-0.035
-188.158	-200.000	0.059	-0.318
-187.144	-200.000	-0.027	-0.163
-186.129	800.000	-0.072	0.270
-185.114	46.370	-0.086	-0.079
-184.100	-200.000	-0.007	0.032
-183.085	66.502	-0.261	0.261
-182.071	48.677	0.110	0.102
-181.056	-200.000	0.030	-0.203
-180.042	-98.432	-0.186	-0.047
-179.027	406.939	0.077	-0.160
-178.012	-24.677	0.306	-0.179
-176.998	-12.434	0.175	-0.113
-175.983	-119.140	0.074	0.013
-174.969	444.568	-0.102	0.220
-173.954	44.879	-0.122	0.111
-172.939	-200.000	0.011	-0.359
-171.925	-181.932	0.291	-0.005
-170.910	401.592	0.077	0.160
-169.896	423.397	-0.039	-0.083
-168.881	800.000	-0.098	-0.332
-167.866	-81.878	-0.168	-0.054
-166.852	-200.000	0.045	0.225
-165.837	197.469	-0.208	0.313
-164.823	-200.000	-0.064	0.323
-163.808	-200.000	-0.009	-0.330
-162.793	-200.000	0.010	0.107
-161.779	-112.262	-0.147	0.029
-160.764	14.641	0.258	0.198
-159.750	-160.007	-0.230	0.012
-158.735	292.187	0.124	0.223
-157.720	82.336	-0.098	-0.104
-156.706	97.537	-0.149	-0.169
-155.691	-137.365	0.499	0.056
-154.677	330.033	0.114	0.216
-153.662	14.156	0.148	0.114
-152.647	-200.000	0.001	-0.220
-151.633	-16.732	-0.299	0.187
-150.618	252.262	0.073	-0.123
-149.604	-76.483	0.383	0.133
-148.589	84.391	0.042	-0.045
-147.574	-79.135	-0.162	0.054
-146.560	800.000	-0.098	0.306
-145.545	-7.668	0.178	0.118
-144.531	-139.049	-0.148	-0.016
-143.516	-81.682	0.201	-0.065
-142.502	-100.377	0.190	-0.046
-141.487	105.175	-0.090	-0.105
-140.472	-183.181	0.275	-0.005
-139.458	60.547	-0.112	-0.109
-138.443	127.641	-0.126	-0.158
-137.429	-9.513	-0.247	-0.162
-136.414	800.000	-0.052	0.213
-135.399	-200.000	-0.038	0.247
-134.385	-170.526	-0.064	0.002
-133.370	800.000	0.046	0.145
-132.356	-1.135	-0.228	0.158
-131.341	33.801	-0.154	0.132
-130.326	-200.000	0.034	0.329
-129.312	-7.786	-0.259	0.172
-128.297	103.454	-0.104	-0.120
-127.283	-200.000	-0.009	0.077
-126.268	-105.725	-0.151	0.034
-125.253	-200.000	-0.042	-0.251
-124.239	43.832	-0.244	0.220
-123.224	-50.972	-0.113	-0.052
-122.210	387.863	-0.171	-0.348
-121.195	283.055	0.102	0.180
