DTS Sentinel unit serial number:	SN413079Multiplexer serial number:	ORYXHardware model number:	OX4-SRSoftware version number:	ORYX F/W v4.00 Oryx Data Collector v3.7.2.0data status	okinstallation	princeton_trtdifferential loss correction	single-endedforward channel	channel 2reverse channel	N/Adate	2019/09/11time	23:17:10forward acquisition time	60.00reverse acquisition time	0.00gamma	496.2192k internal	0.2325k external	0.2325temperature offset calibration	1.0075default loss term (dB/km)	0.3790temperature slope calibration	1.0000multiplexer offset coefficient	1.0000multiplexer slope coefficient	1.0000fibre end	0.00T internal ref (°C)	34.39T ext. ref 1 (°C)	1.86T ext. ref 2 (°C)	28.92length (m)	temperature (°C)	Stokes	anti-Stokes-747.200	-86.031	0.148	0.046
-746.185	-72.733	-0.094	-0.035
-745.171	114.616	0.217	0.267
-744.156	-113.071	-0.323	0.064
-743.142	800.000	0.013	0.050
-742.127	434.249	0.041	-0.091
-741.112	-31.764	-0.104	0.059
-740.098	39.117	-0.398	0.359
-739.083	496.100	0.072	0.167
-738.069	78.889	-0.028	0.030
-737.054	397.761	-0.101	0.212
-736.039	-87.335	-0.068	0.021
-735.025	-8.801	0.274	-0.186
-734.010	800.000	-0.010	-0.032
-732.996	438.602	0.118	-0.259
-731.981	-4.590	-0.430	0.300
-730.966	-99.954	-0.117	-0.029
-729.952	96.484	-0.056	0.064
-728.937	-48.895	0.176	-0.085
-727.923	142.118	-0.116	0.156
-726.908	-83.391	-0.132	0.043
-725.894	800.000	0.159	-0.603
-724.879	800.000	-0.054	0.173
-723.864	313.291	-0.185	-0.350
-722.850	800.000	-0.158	-0.494
-721.835	75.991	-0.181	0.193
-720.821	-101.892	0.262	0.064
-719.806	-200.000	0.001	-0.403
-718.791	-135.358	0.409	-0.049
-717.777	6.098	-0.241	-0.180
-716.762	-120.833	0.276	-0.047
-715.748	800.000	0.057	-0.172
-714.733	108.394	-0.190	0.228
-713.718	-200.000	-0.018	-0.172
-712.704	-86.832	0.138	-0.043
-711.689	-93.342	0.156	0.044
-710.675	-117.344	-0.136	0.025
-709.660	138.658	-0.221	-0.293
-708.645	160.866	-0.075	-0.106
-707.631	-200.000	0.006	-0.184
-706.616	-200.000	0.028	-0.139
-705.602	747.949	-0.119	-0.322
-704.587	-41.507	0.181	0.094
-703.572	37.020	0.079	0.070
-702.558	-142.248	0.357	0.036
-701.543	95.893	-0.227	0.261
-700.529	684.308	0.051	0.135
-699.514	32.842	0.046	-0.040
-698.499	294.372	-0.072	-0.132
-697.485	800.000	0.057	0.198
-696.470	1.062	0.047	-0.034
-695.456	-127.217	0.006	0.001
-694.441	-200.000	-0.004	0.118
-693.426	2.343	-0.101	0.074
-692.412	578.723	0.051	0.127
-691.397	135.394	0.084	-0.110
-690.383	-110.719	-0.164	-0.034
-689.368	136.414	0.209	-0.274
-688.354	-24.559	-0.430	0.258
-687.339	-123.158	0.314	-0.051
-686.324	-61.720	0.500	0.211
-685.310	187.605	-0.103	-0.155
-684.295	-165.392	-0.510	0.023
-683.281	-149.224	0.056	-0.005
-682.266	-158.077	0.075	0.004
-681.251	546.874	0.091	0.219
-680.237	-0.101	-0.063	0.045
-679.222	611.502	0.101	-0.255
-678.208	-124.771	0.184	0.029
-677.193	-200.000	0.051	-0.235
-676.178	154.946	-0.203	0.281
-675.164	-200.000	-0.063	-0.461
-674.149	-156.721	0.243	0.015
-673.135	185.666	-0.148	0.221
-672.120	-5.263	-0.178	0.123
-671.105	-189.834	0.151	0.002
-670.091	144.146	0.060	0.080
-669.076	124.462	0.100	0.126
-668.062	-77.154	-0.253	0.089
-667.047	118.870	-0.037	0.046
-666.032	-200.000	0.022	0.424
-665.018	-200.000	-0.054	0.286
-664.003	251.637	0.100	-0.172
-662.989	39.886	0.228	0.206
-661.974	-48.926	-0.139	-0.067
-660.959	800.000	-0.054	-0.193
-659.945	413.957	-0.052	-0.111
-658.930	79.993	0.095	-0.103
-657.916	-15.979	-0.334	-0.214
-656.901	800.000	-0.147	0.436
-655.886	-104.754	-0.090	0.021
-654.872	-200.000	0.046	-0.234
-653.857	790.591	0.106	-0.293
-652.843	199.459	0.206	0.318
-651.828	-93.194	0.510	0.142
-650.814	800.000	-0.048	0.167
-649.799	-101.607	-0.210	0.051
-648.784	800.000	-0.024	-0.076
-647.770	118.896	0.190	0.236
-646.755	-200.000	-0.014	-0.381
-645.741	-164.426	-0.125	0.006
-644.726	-163.328	-0.166	0.008
-643.711	441.066	-0.118	0.259
-642.697	-19.360	0.159	0.099
-641.682	-54.545	0.188	0.086
-640.668	-72.499	-0.198	0.074
-639.653	-31.014	0.126	0.072
-638.638	205.841	0.262	0.409
-637.624	759.676	-0.115	0.313
-636.609	-63.349	0.109	-0.045
-635.595	-200.000	-0.004	-0.105
-634.580	-158.337	-0.063	0.004
-633.565	782.361	0.025	0.070
-632.551	-29.293	0.050	-0.029
-631.536	-23.216	0.167	-0.101
-630.522	-160.360	-0.201	-0.011
-629.507	-200.000	0.006	0.142
-628.492	-127.009	-0.116	0.017
-627.478	59.332	-0.084	-0.083
-626.463	15.699	0.135	-0.106
-625.449	166.668	-0.034	0.049
-624.434	489.739	0.058	-0.133
-623.419	-136.007	-0.068	-0.008
-622.405	-114.587	0.251	-0.048
-621.390	47.203	-0.191	-0.179
-620.376	501.732	-0.056	0.130
-619.361	4.130	0.028	0.021
-618.346	-6.686	0.205	0.140
-617.332	46.195	-0.045	-0.041
-616.317	-79.292	0.135	-0.046
-615.303	800.000	0.053	0.192
-614.288	-200.000	-0.002	-0.237
-613.273	-12.319	-0.334	-0.219
-612.259	545.768	0.011	-0.026
-611.244	-133.356	0.237	-0.030
-610.230	-200.000	0.062	-0.402
-609.215	-200.000	-0.007	0.119
-608.201	-21.670	-0.177	0.108
-607.186	800.000	-0.076	0.224
-606.171	-117.603	0.426	-0.077
-605.157	41.272	0.015	0.013
-604.142	-102.805	-0.213	0.051
-603.128	475.322	-0.092	0.209
-602.113	-200.000	-0.052	0.504
-601.098	800.000	0.061	-0.182
-600.084	-134.382	0.213	0.026
-599.069	-139.664	-0.209	-0.022
-598.055	-88.150	-0.206	0.062
-597.040	12.543	0.386	-0.299
-596.025	-34.762	-0.173	0.095
-595.011	581.027	-0.010	-0.024
-593.996	398.857	0.146	0.307
-592.982	800.000	0.053	0.159
-591.967	97.995	0.166	0.191
-590.952	417.041	-0.131	-0.280
-589.938	28.866	0.075	-0.064
-588.923	-154.694	0.174	-0.012
-587.909	106.059	0.104	-0.124
-586.894	-187.246	0.379	0.005
-585.879	-200.000	0.024	-0.126
-584.865	621.506	0.042	0.107
-583.850	-154.556	0.482	0.032
-582.836	-200.000	0.012	-0.228
-581.821	11.347	0.175	0.134
-580.806	29.870	0.124	-0.106
-579.792	800.000	-0.019	-0.076
-578.777	13.585	-0.028	0.022
-577.763	532.333	-0.065	0.153
-576.748	-133.275	-0.102	0.013
-575.733	-49.431	0.184	-0.088
-574.719	-53.045	0.094	-0.043
-573.704	800.000	-0.043	-0.146
-572.690	-67.909	-0.177	-0.069
-571.675	-123.836	-0.236	-0.037
-570.661	59.183	-0.115	0.114
-569.646	800.000	-0.079	-0.231
-568.631	800.000	0.016	-0.062
-567.617	351.537	-0.085	-0.168
-566.602	-200.000	0.034	-0.173
-565.588	66.328	0.093	0.095
-564.573	511.234	-0.069	-0.160
-563.558	-200.000	0.022	0.140
-562.544	55.685	0.097	0.094
-561.529	79.660	-0.050	-0.054
-560.515	800.000	0.060	-0.203
-559.500	328.183	0.103	-0.198
-558.485	297.639	0.068	-0.125
-557.471	39.826	0.094	-0.085
-556.456	-26.236	0.166	-0.098
-555.442	-96.885	0.205	0.054
-554.427	-200.000	0.001	-0.093
-553.412	-25.712	-0.074	-0.044
-552.398	239.841	-0.098	-0.163
-551.383	800.000	0.062	0.252
-550.369	-101.311	-0.187	0.046
-549.354	-200.000	0.062	0.305
-548.339	800.000	-0.124	-0.442
-547.325	800.000	0.067	-0.250
-546.310	390.679	0.098	0.203
-545.296	800.000	0.069	0.293
-544.281	121.629	0.169	0.211
-543.266	-200.000	-0.010	-0.107
-542.252	399.786	0.115	0.241
-541.237	175.061	-0.082	0.119
-540.223	-121.611	-0.519	-0.086
-539.208	-200.000	0.010	-0.240
-538.193	637.639	-0.069	-0.175
-537.179	41.028	0.097	0.087
-536.164	-60.096	-0.216	0.092
-535.150	693.555	-0.145	-0.379
-534.135	-66.423	-0.326	0.130
-533.121	307.542	0.064	0.120
-532.106	-62.099	-0.103	0.043
-531.091	92.229	-0.157	-0.177
-530.077	97.000	0.147	0.168
-529.062	-200.000	0.005	-0.235
-528.048	-121.337	0.180	-0.030
-527.033	-20.580	0.062	-0.038
-526.018	-200.000	-0.057	-0.383
-525.004	-100.666	0.293	-0.072
-523.989	-136.502	0.106	-0.012
-522.975	125.334	-0.188	-0.237
-521.960	800.000	0.051	-0.143
-520.945	-196.879	-0.173	0.001
-519.931	-51.365	0.045	-0.021
-518.916	-70.171	0.223	-0.085
-517.902	12.039	-0.064	-0.049
-516.887	800.000	0.084	-0.265
-515.872	800.000	-0.059	-0.167
-514.858	800.000	0.124	0.492
-513.843	306.717	-0.040	-0.074
-512.829	-42.957	-0.188	-0.095
-511.814	-126.750	-0.161	-0.024
-510.799	651.544	-0.046	-0.118
-509.785	800.000	0.107	0.340
-508.770	-120.204	0.348	0.059
-507.756	-200.000	-0.000	-0.211
-506.741	122.395	-0.185	0.232
-505.726	575.191	-0.083	0.202
-504.712	336.738	0.031	-0.061
-503.697	-200.000	0.031	-0.159
-502.683	800.000	-0.059	-0.234
-501.668	423.159	-0.165	-0.354
-500.653	195.214	-0.170	-0.258
-499.639	800.000	-0.061	-0.242
-498.624	9.593	-0.286	0.216
-497.610	-200.000	-0.007	0.054
-496.595	-200.000	-0.061	0.269
-495.581	444.239	-0.171	0.374
-494.566	-13.781	-0.219	-0.142
-493.551	-87.256	0.316	-0.096
-492.537	-200.000	-0.021	-0.119
-491.522	-69.844	-0.223	0.085
-490.508	-126.659	-0.149	-0.022
-489.493	422.898	-0.088	0.188
-488.478	-54.047	-0.113	0.052
-487.464	52.328	-0.039	0.037
-486.449	-172.552	-0.152	-0.005
-485.435	-100.740	0.142	0.035
-484.420	800.000	-0.003	0.011
-483.405	590.328	-0.235	0.578
-482.391	-7.985	-0.133	-0.090
-481.376	-125.620	0.152	0.023
-480.362	112.860	-0.064	-0.077
-479.347	55.456	-0.022	-0.021
-478.332	800.000	0.081	0.242
-477.318	46.197	0.056	0.051
-476.303	-93.293	0.120	-0.033
-475.289	-198.585	0.242	-0.001
-474.274	-36.898	0.271	0.145
-473.259	-23.188	0.460	0.276
-472.245	-200.000	-0.028	0.165
-471.230	16.789	-0.127	0.101
-470.216	-200.000	0.017	0.122
-469.201	800.000	0.033	-0.111
-468.186	800.000	-0.092	-0.319
-467.172	70.644	-0.073	-0.075
-466.157	9.610	-0.185	0.140
-465.143	-51.820	-0.136	0.063
-464.128	0.036	-0.033	-0.023
-463.113	176.415	0.103	0.149
-462.099	800.000	0.058	-0.196
-461.084	800.000	0.062	0.226
-460.070	-123.295	0.245	0.039
-459.055	-56.098	-0.177	0.079
-458.040	-170.235	-0.335	0.012
-457.026	-3.666	0.246	-0.170
-456.011	65.612	-0.137	-0.138
-454.997	-43.239	0.276	0.139
-453.982	-43.918	0.163	0.082
-452.968	-6.022	-0.061	0.041
-451.953	103.173	0.063	-0.074
-450.938	-200.000	-0.055	0.279
-449.924	394.274	-0.262	-0.544
-448.909	-140.803	0.142	-0.015
-447.895	51.468	0.119	-0.113
-446.880	179.847	0.169	0.247
-445.865	-15.928	0.248	-0.158
-444.851	157.809	-0.150	0.207
-443.836	144.643	0.135	0.180
-442.822	-200.000	0.038	-0.216
-441.807	-14.911	0.252	0.161
-440.792	-200.000	0.014	0.135
-439.778	116.831	-0.106	-0.129
-438.763	800.000	0.064	0.235
-437.749	-57.100	0.079	-0.035
-436.734	-200.000	0.003	-0.140
-435.719	50.721	-0.141	-0.133
-434.705	-109.939	0.154	-0.032
-433.690	800.000	0.022	0.088
-432.676	76.465	0.177	-0.187
-431.661	98.291	-0.158	0.181
-430.646	-200.000	0.006	-0.153
-429.632	-35.727	-0.241	0.130
-428.617	203.599	-0.110	-0.170
-427.603	1.152	0.131	0.094
-426.588	-200.000	-0.013	-0.130
-425.573	-112.201	-0.199	0.040
-424.559	-126.266	-0.043	-0.006
-423.544	800.000	-0.062	0.173
-422.530	-94.599	-0.190	0.051
-421.515	-200.000	0.046	0.264
-420.500	-166.151	-0.090	0.004
-419.486	-113.073	0.104	-0.020
-418.471	-62.914	-0.265	-0.109
-417.457	-168.937	-0.407	-0.015
-416.442	-25.090	0.368	-0.217
-415.428	219.759	-0.206	0.329
-414.413	538.208	0.046	0.110
-413.398	-53.934	0.382	0.173
-412.384	-187.416	-0.142	0.002
-411.369	-200.000	0.034	0.227
-410.355	800.000	0.158	0.450
-409.340	221.698	0.185	-0.296
-408.325	-80.076	-0.038	-0.013
-407.311	-46.173	-0.493	-0.242
-406.296	800.000	-0.111	-0.428
-405.282	199.005	-0.078	-0.119
-404.267	524.971	0.063	0.148
-403.252	-26.368	-0.311	-0.182
-402.238	83.443	-0.101	-0.110
-401.223	61.701	0.033	-0.033
-400.209	3.990	0.110	0.080
-399.194	591.123	-0.070	-0.171
-398.179	-140.251	0.255	-0.027
-397.165	258.666	0.067	-0.115
-396.150	330.019	-0.050	-0.095
-395.136	545.083	-0.113	0.270
-394.121	-37.268	0.253	0.135
-393.106	166.209	-0.084	0.119
-392.092	152.082	0.116	0.157
-391.077	-173.940	0.341	-0.010
-390.063	73.055	-0.191	0.199
-389.048	500.627	0.093	0.213
-388.033	77.668	0.238	0.252
-387.019	-200.000	0.040	-0.231
-386.004	121.118	-0.113	-0.139
-384.990	291.880	-0.106	-0.193
-383.975	-200.000	-0.049	0.226
-382.960	50.860	-0.169	-0.159
-381.946	141.166	0.112	0.147
-380.931	452.357	-0.068	-0.150
-379.917	-200.000	0.004	-0.231
-378.902	95.499	0.192	-0.218
-377.888	800.000	0.094	0.263
-376.873	-18.953	0.131	-0.081
-375.858	22.945	0.132	0.108
-374.844	-164.316	-0.008	-0.000
-373.829	-200.000	0.049	-0.253
-372.815	-88.763	-0.244	0.072
-371.800	-200.000	-0.016	0.071
-370.785	166.988	0.113	0.160
-369.771	-45.008	0.078	0.039
-368.756	-62.724	-0.048	0.020
-367.742	-157.385	-0.200	0.012
-366.727	-66.303	-0.195	-0.077
-365.712	-200.000	0.033	-0.368
-364.698	82.192	-0.138	-0.149
-363.683	271.040	0.134	-0.235
-362.669	37.920	0.387	0.342
-361.654	-165.705	0.286	0.012
-360.639	-91.025	0.244	0.070
-359.625	91.606	-0.097	-0.109
-358.610	-133.887	0.281	0.035
-357.596	800.000	-0.011	0.037
-356.581	-140.083	-0.048	0.005
-355.566	-200.000	0.055	0.283
-354.552	-74.452	0.189	-0.068
-353.537	-200.000	0.039	-0.232
-352.523	-181.949	0.209	0.004
-351.508	428.867	0.110	0.236
-350.493	-92.028	-0.103	0.029
-349.479	742.703	0.030	-0.081
-348.464	-147.973	0.218	-0.018
-347.450	142.870	0.157	0.208
-346.435	-188.560	0.064	-0.001
-345.420	-41.330	0.136	0.069
-344.406	-9.065	-0.173	-0.115
-343.391	0.655	-0.209	-0.149
-342.377	-115.184	-0.204	0.038
-341.362	-117.148	0.323	-0.058
-340.348	800.000	0.010	0.033
-339.333	23.631	0.072	0.059
-338.318	359.908	0.140	0.278
-337.304	21.211	-0.215	-0.174
-336.289	-110.713	-0.146	-0.030
-335.275	30.672	-0.125	-0.107
-334.260	63.360	0.214	-0.213
-333.245	71.805	-0.073	-0.076
-332.231	312.936	0.088	0.165
-331.216	-83.409	0.136	0.043
-330.202	224.806	0.125	0.201
-329.187	-137.102	-0.226	0.026
-328.172	-77.091	-0.025	-0.009
-327.158	-103.317	-0.286	0.067
-326.143	-200.000	-0.028	-0.128
-325.129	265.485	0.110	0.191
-324.114	143.439	-0.177	0.235
-323.099	-135.735	0.080	-0.009
-322.085	800.000	-0.141	0.422
-321.070	227.981	-0.145	-0.235
-320.056	73.722	0.163	-0.169
-319.041	224.432	-0.041	0.065
-318.026	-200.000	0.024	-0.211
-317.012	577.906	0.118	0.286
-315.997	564.610	0.088	-0.211
-314.983	-20.899	-0.344	-0.209
-313.968	-200.000	0.047	0.214
-312.953	108.820	0.255	0.303
-311.939	302.756	-0.255	0.468
-310.924	-42.082	0.094	0.048
-309.910	698.366	-0.099	-0.257
-308.895	-200.000	0.027	-0.301
-307.880	285.966	0.259	-0.464
-306.866	-200.000	0.004	0.032
-305.851	800.000	0.085	0.287
-304.837	-88.111	-0.261	-0.078
-303.822	-200.000	0.025	-0.352
-302.807	13.189	0.152	0.117
-301.793	800.000	0.016	0.057
-300.778	-131.324	-0.276	0.036
-299.764	-59.715	0.253	-0.108
-298.749	-200.000	-0.090	-0.398
-297.735	-104.223	-0.032	-0.007
-296.720	186.698	0.093	0.137
-295.705	615.836	0.155	-0.387
-294.691	-200.000	0.000	0.531
-293.676	-130.796	0.471	0.063
-292.662	-98.762	-0.199	0.050
-291.647	-200.000	-0.025	-0.170
-290.632	-103.939	0.111	0.026
-289.618	800.000	0.089	-0.374
-288.603	-200.000	-0.019	0.325
-287.589	24.261	0.258	0.211
-286.574	164.778	0.150	0.210
-285.559	-200.000	0.014	-0.449
-284.545	-200.000	0.005	-0.104
-283.530	235.527	-0.234	0.383
-282.516	226.221	-0.128	0.205
-281.501	-64.453	-0.295	0.119
-280.486	209.397	-0.176	0.273
-279.472	800.000	-0.058	-0.195
-278.457	352.415	-0.043	0.085
-277.443	189.372	0.183	-0.272
-276.428	336.698	-0.124	0.239
-275.413	354.840	0.094	0.184
-274.399	94.276	0.161	-0.181
-273.384	-16.229	0.218	-0.137
-272.370	-93.796	-0.231	-0.063
-271.355	-43.320	0.100	-0.050
-270.340	-92.587	-0.251	-0.070
-269.326	-115.751	0.228	-0.042
-268.311	-200.000	-0.052	-0.406
-267.297	359.044	-0.129	0.256
-266.282	-80.849	-0.115	0.038
-265.267	70.510	-0.135	0.138
-264.253	-124.194	0.293	0.045
-263.238	-151.489	-0.179	0.013
-262.224	93.147	-0.098	-0.110
-261.209	-200.000	-0.004	0.113
-260.195	343.551	-0.043	-0.083
-259.180	29.819	-0.210	0.177
-258.165	-48.692	-0.169	-0.080
-257.151	-148.459	-0.254	0.021
-256.136	472.260	0.070	-0.155
-255.122	41.365	-0.226	-0.202
-254.107	424.765	0.120	0.255
-253.092	-200.000	-0.014	0.083
-252.078	-87.970	0.055	-0.016
-251.063	-200.000	-0.038	-0.179
-250.049	-73.502	-0.016	0.006
-249.034	-157.713	-0.293	-0.017
-248.019	-200.000	0.016	0.417
-247.005	345.629	0.105	0.203
-245.990	-118.022	0.071	-0.012
-244.976	-55.690	0.210	0.093
-243.961	-68.803	0.149	-0.057
-242.946	-107.801	-0.289	0.062
-241.932	-77.338	0.293	-0.101
-240.917	-158.405	-0.035	0.002
-239.903	32.815	-0.148	0.127
-238.888	-113.668	0.238	-0.046
-237.873	368.232	-0.054	-0.109
-236.859	-200.000	-0.039	0.181
-235.844	-111.627	-0.299	-0.060
-234.830	74.171	0.182	0.189
-233.815	545.444	0.068	0.162
-232.800	199.501	0.109	-0.165
-231.786	-200.000	-0.003	0.064
-230.771	-200.000	0.074	0.454
-229.757	65.709	0.294	0.295
-228.742	-200.000	-0.037	0.199
-227.727	169.276	-0.005	-0.007
-226.713	-200.000	-0.011	-0.113
-225.698	-156.909	-0.179	-0.011
-224.684	203.841	-0.131	-0.201
-223.669	-200.000	-0.015	-0.241
-222.655	-200.000	-0.031	0.187
-221.640	284.488	0.094	-0.167
-220.625	-48.937	-0.175	-0.083
-219.611	-151.776	0.249	0.018
-218.596	800.000	-0.040	0.154
-217.582	-200.000	-0.026	-0.189
-216.567	-47.674	-0.239	-0.115
-215.552	325.136	-0.109	-0.206
-214.538	800.000	0.021	-0.059
-213.523	-15.826	-0.103	0.065
-212.509	99.818	0.380	0.435
-211.494	-200.000	0.003	-0.275
-210.479	-98.213	-0.056	0.014
-209.465	-133.411	0.334	0.041
-208.450	-200.000	-0.017	-0.113
-207.436	-200.000	-0.026	-0.181
-206.421	-200.000	-0.011	-0.052
-205.406	-200.000	0.066	0.427
-204.392	540.726	0.083	-0.194
-203.377	263.601	-0.158	-0.271
-202.363	-6.571	-0.266	0.179
-201.348	-103.699	0.142	-0.033
-200.333	23.178	-0.111	0.090
-199.319	122.488	0.086	0.106
-198.304	57.233	-0.078	0.075
-197.290	-200.000	-0.016	-0.111
-196.275	-172.845	-0.056	0.002
-195.260	-39.171	-0.079	-0.041
-194.246	-24.902	0.046	-0.027
-193.231	-15.849	0.098	0.061
-192.217	-24.761	-0.098	-0.058
-191.202	-89.261	-0.392	0.114
-190.187	58.090	-0.145	0.141
-189.173	-74.323	0.160	0.057
-188.158	-200.000	-0.004	0.063
-187.144	-79.872	-0.566	-0.188
-186.129	155.230	0.084	0.114
-185.114	479.935	-0.130	0.292
-184.100	555.761	-0.060	0.142
-183.085	27.384	-0.077	0.064
-182.071	-119.592	-0.150	-0.026
-181.056	-200.000	-0.002	-0.324
-180.042	88.680	-0.088	0.097
-179.027	147.349	0.140	-0.187
-178.012	-39.533	-0.478	0.247
-176.998	800.000	0.115	-0.465
-175.983	-200.000	0.007	0.073
-174.969	581.290	-0.194	-0.470
-173.954	-200.000	0.007	-0.120
-172.939	-200.000	-0.085	0.425
-171.925	-77.849	-0.035	0.012
-170.910	-200.000	0.005	-0.326
-169.896	66.499	-0.047	0.047
-168.881	800.000	0.052	0.157
-167.866	800.000	-0.084	-0.349
-166.852	-200.000	0.025	-0.336
-165.837	11.390	0.185	0.140
-164.823	112.893	0.083	0.100
-163.808	331.950	-0.115	-0.220
-162.793	-148.500	-0.228	0.018
-161.779	120.940	0.203	-0.249
-160.764	152.306	0.179	0.242
-159.750	800.000	0.004	-0.015
-158.735	-44.208	-0.303	-0.150
-157.720	390.455	0.113	0.232
-156.706	-200.000	-0.015	-0.300
-155.691	-175.607	0.065	0.002
-154.677	109.516	0.300	-0.354
-153.662	-77.977	-0.258	-0.088
-152.647	-1.472	0.026	-0.018
-151.633	-200.000	-0.022	0.194
-150.618	5.623	0.136	-0.099
-149.604	280.870	0.205	-0.362
-148.589	89.984	-0.256	-0.282
-147.574	-88.810	0.118	0.035
-146.560	800.000	-0.061	0.247
-145.545	207.939	0.043	0.067
-144.531	66.546	0.221	-0.221
-143.516	-175.967	-0.117	0.003
-142.502	-200.000	0.033	-0.232
-141.487	-200.000	-0.006	0.175
-140.472	-150.225	0.293	0.022
-139.458	277.366	-0.032	0.057
-138.443	-120.587	0.031	-0.005
-137.429	487.609	0.012	0.027
-136.414	-200.000	-0.006	0.221
-135.399	800.000	0.066	-0.230
-134.385	-109.367	0.151	0.032
-133.370	760.898	-0.055	-0.148
-132.356	-200.000	0.044	0.235
-131.341	800.000	0.059	0.239
-130.326	-50.639	-0.156	0.072
-129.312	34.369	0.196	0.169
-128.297	800.000	0.036	0.122
-127.283	91.762	0.180	0.200
-126.268	364.586	0.121	-0.240
-125.253	-198.569	-0.143	-0.001
-124.239	-200.000	0.011	0.183
-123.224	-200.000	0.065	0.428
-122.210	-84.513	0.032	0.010
-121.195	485.853	0.079	-0.178
