DTS Sentinel unit serial number:	SN413079Multiplexer serial number:	ORYXHardware model number:	OX4-SRSoftware version number:	ORYX F/W v4.00 Oryx Data Collector v3.7.2.0data status	okinstallation	princeton_trtdifferential loss correction	single-endedforward channel	channel 2reverse channel	N/Adate	2019/09/15time	00:39:34forward acquisition time	60.00reverse acquisition time	0.00gamma	496.2192k internal	0.2324k external	0.2324temperature offset calibration	1.0039default loss term (dB/km)	0.3790temperature slope calibration	1.0000multiplexer offset coefficient	1.0000multiplexer slope coefficient	1.0000fibre end	0.00T internal ref (°C)	32.09T ext. ref 1 (°C)	4.56T ext. ref 2 (°C)	27.11length (m)	temperature (°C)	Stokes	anti-Stokes-747.200	204.799	-0.119	0.186
-746.185	-200.000	0.014	-0.093
-745.171	-200.000	0.031	-0.276
-744.156	-200.000	0.010	-0.083
-743.142	-20.845	0.191	-0.118
-742.127	307.774	0.156	0.293
-741.112	-94.013	0.045	-0.012
-740.098	-164.210	-0.314	0.015
-739.083	-15.909	0.059	-0.038
-738.069	-31.976	-0.128	0.072
-737.054	272.455	0.100	-0.178
-736.039	-66.125	-0.152	-0.061
-735.025	-200.000	-0.007	0.101
-734.010	-97.520	-0.289	-0.076
-732.996	-19.603	-0.040	-0.025
-731.981	633.141	0.128	-0.326
-730.966	-78.645	-0.230	-0.079
-729.952	12.816	-0.230	-0.179
-728.937	-6.046	-0.238	-0.164
-727.923	-25.424	0.295	0.176
-726.908	-148.135	-0.213	-0.018
-725.894	-68.871	0.104	-0.041
-724.879	800.000	0.070	0.206
-723.864	-200.000	-0.055	-0.259
-722.850	350.950	0.060	-0.120
-721.835	300.392	-0.182	0.338
-720.821	166.351	0.169	-0.242
-719.806	-58.231	0.068	0.030
-718.791	93.468	-0.304	-0.347
-717.777	7.676	0.231	-0.175
-716.762	-143.286	0.185	0.018
-715.748	-109.993	-0.252	-0.053
-714.733	194.932	0.101	0.154
-713.718	245.448	-0.200	-0.340
-712.704	1.803	-0.380	0.276
-711.689	34.605	0.099	0.088
-710.675	-82.612	-0.300	0.098
-709.660	624.622	-0.024	-0.061
-708.645	510.584	0.072	0.169
-707.631	-200.000	-0.025	-0.261
-706.616	54.700	-0.146	0.142
-705.602	-88.366	-0.093	-0.028
-704.587	41.932	-0.149	0.137
-703.572	-171.856	0.386	0.013
-702.558	296.792	0.130	-0.241
-701.543	115.905	0.055	0.068
-700.529	-199.781	0.085	-0.000
-699.514	800.000	-0.038	0.116
-698.499	417.746	0.118	0.255
-697.485	377.782	-0.076	-0.157
-696.470	-200.000	-0.001	-0.127
-695.456	-112.338	-0.142	0.029
-694.441	-64.786	-0.033	0.014
-693.426	189.762	-0.166	-0.251
-692.412	-165.853	-0.140	-0.006
-691.397	-132.217	-0.198	-0.026
-690.383	-36.623	-0.044	-0.024
-689.368	606.923	0.105	-0.265
-688.354	-123.907	-0.238	-0.038
-687.339	-200.000	-0.014	-0.105
-686.324	-66.699	-0.209	0.083
-685.310	800.000	-0.062	0.255
-684.295	393.571	-0.067	-0.140
-683.281	-200.000	0.043	0.237
-682.266	476.299	-0.073	-0.167
-681.251	-89.794	0.232	0.068
-680.237	800.000	-0.035	-0.112
-679.222	4.556	0.416	-0.307
-678.208	-181.858	0.154	-0.003
-677.193	514.143	0.070	-0.164
-676.178	534.916	-0.135	0.321
-675.164	-91.591	0.164	-0.047
-674.149	-200.000	0.026	-0.236
-673.135	-71.540	0.219	-0.082
-672.120	-200.000	-0.161	-0.887
-671.105	-68.346	-0.232	-0.091
-670.091	698.082	-0.071	-0.187
-669.076	-200.000	0.012	0.221
-668.062	-79.276	-0.228	0.078
-667.047	-137.948	0.200	-0.022
-666.032	249.210	-0.132	-0.226
-665.018	-88.454	0.227	-0.068
-664.003	-94.383	-0.323	-0.089
-662.989	-119.891	0.236	0.041
-661.974	666.023	0.163	-0.424
-660.959	81.717	0.073	-0.080
-659.945	-200.000	0.066	-0.335
-658.930	-127.909	0.171	-0.025
-657.916	-120.316	0.264	0.045
-656.901	-200.000	-0.034	0.418
-655.886	-154.914	0.530	0.035
-654.872	22.617	-0.221	-0.182
-653.857	-200.000	-0.011	-0.058
-652.843	269.210	-0.083	0.146
-651.828	-73.635	-0.136	0.050
-650.814	398.332	0.093	-0.195
-649.799	341.081	-0.087	-0.171
-648.784	-80.109	0.217	-0.073
-647.770	-119.027	-0.394	-0.069
-646.755	26.426	-0.121	0.102
-645.741	-121.987	0.238	0.039
-644.726	33.816	-0.197	-0.173
-643.711	-200.000	-0.040	0.215
-642.697	-88.794	-0.412	-0.123
-641.682	-200.000	-0.004	-0.233
-640.668	187.956	0.079	0.119
-639.653	-50.838	0.152	0.072
-638.638	214.247	0.107	-0.171
-637.624	195.943	-0.113	-0.173
-636.609	-200.000	0.007	-0.500
-635.595	157.573	-0.085	0.119
-634.580	-126.827	-0.050	-0.007
-633.565	-71.622	-0.186	-0.070
-632.551	-200.000	0.012	0.071
-631.536	-200.000	0.024	-0.297
-630.522	118.410	-0.166	0.206
-629.507	-154.821	-0.321	-0.021
-628.492	-121.387	0.304	0.051
-627.478	229.154	0.080	0.132
-626.463	-172.334	0.288	-0.009
-625.449	229.699	0.032	-0.052
-624.434	611.549	-0.106	-0.266
-623.419	-137.817	0.132	-0.015
-622.405	-20.399	0.119	-0.073
-621.390	-127.198	0.304	0.045
-620.376	800.000	-0.038	-0.129
-619.361	-114.377	0.114	0.022
-618.346	113.348	0.141	-0.172
-617.332	-136.255	-0.197	0.023
-616.317	10.579	0.050	0.039
-615.303	285.841	-0.097	0.176
-614.288	152.888	0.020	0.028
-613.273	-139.493	0.232	-0.025
-612.259	-90.501	-0.210	0.061
-611.244	409.142	0.036	0.076
-610.230	196.319	-0.008	0.013
-609.215	-92.624	-0.136	-0.038
-608.201	-5.095	-0.190	-0.131
-607.186	471.651	-0.116	-0.262
-606.171	321.223	0.210	0.400
-605.157	188.223	-0.123	0.185
-604.142	-200.000	-0.006	-0.288
-603.128	655.250	0.062	-0.159
-602.113	-72.019	0.174	0.065
-601.098	1.905	-0.239	0.173
-600.084	-134.829	0.149	-0.018
-599.069	-158.046	0.148	0.009
-598.055	-200.000	-0.012	-0.227
-597.040	-35.769	0.097	-0.052
-596.025	320.941	-0.039	-0.073
-595.011	-200.000	-0.011	0.135
-593.996	-200.000	-0.021	0.175
-592.982	-27.118	0.068	0.040
-591.967	-11.255	0.406	-0.269
-590.952	-117.087	-0.424	0.078
-589.938	416.222	-0.095	-0.203
-588.923	192.763	-0.177	0.268
-587.909	520.941	-0.059	0.138
-586.894	-75.442	0.045	-0.016
-585.879	-30.847	-0.224	-0.127
-584.865	-12.944	0.245	-0.160
-583.850	-200.000	-0.030	-0.200
-582.836	-163.552	-0.365	-0.017
-581.821	-40.593	0.148	0.077
-580.806	800.000	0.028	-0.110
-579.792	-200.000	-0.031	0.268
-578.777	800.000	-0.026	0.093
-577.763	-111.683	0.025	0.005
-576.748	-200.000	-0.028	0.213
-575.733	284.118	-0.211	0.380
-574.719	-40.906	-0.154	0.080
-573.704	30.415	0.109	-0.093
-572.690	-105.222	-0.154	-0.035
-571.675	69.055	-0.144	-0.148
-570.661	-200.000	-0.039	0.282
-569.646	159.621	0.113	0.158
-568.631	12.882	-0.134	-0.104
-567.617	763.485	-0.052	-0.140
-566.602	152.987	-0.095	-0.131
-565.588	-200.000	-0.048	-0.234
-564.573	5.196	0.129	0.096
-563.558	459.124	0.021	0.046
-562.544	-200.000	0.062	-0.517
-561.529	555.706	0.081	0.196
-560.515	-131.707	0.118	0.016
-559.500	43.196	0.216	-0.198
-558.485	84.877	-0.120	0.132
-557.471	580.461	-0.123	-0.302
-556.456	-81.542	-0.448	-0.148
-555.442	800.000	-0.057	0.158
-554.427	-151.504	-0.184	0.014
-553.412	-106.746	0.269	0.060
-552.398	246.767	0.085	0.144
-551.383	-21.545	0.232	-0.142
-550.369	-60.702	-0.200	-0.085
-549.354	2.515	-0.136	0.099
-548.339	-34.933	-0.430	-0.235
-547.325	-126.543	0.155	-0.023
-546.310	182.478	0.070	-0.104
-545.296	380.640	0.150	-0.309
-544.281	-121.340	-0.150	-0.025
-543.266	800.000	-0.069	0.215
-542.252	-200.000	-0.010	0.128
-541.237	10.891	0.241	-0.184
-540.223	422.608	-0.147	-0.316
-539.208	38.328	-0.213	0.190
-538.193	136.951	-0.065	0.085
-537.179	19.484	-0.042	-0.034
-536.164	-53.697	-0.214	0.098
-535.150	-113.609	0.187	-0.037
-534.135	79.069	0.242	0.260
-533.121	-31.445	0.125	-0.070
-532.106	-200.000	-0.048	-0.251
-531.091	630.217	-0.090	0.228
-530.077	-200.000	-0.056	0.313
-529.062	-200.000	0.004	-0.300
-528.048	-200.000	0.029	-0.161
-527.033	800.000	-0.069	-0.202
-526.018	-33.341	-0.125	0.069
-525.004	115.200	0.196	-0.239
-523.989	-122.311	0.239	-0.039
-522.975	-75.455	-0.240	0.086
-521.960	800.000	-0.038	-0.106
-520.945	274.863	0.081	-0.144
-519.931	30.115	-0.250	0.213
-518.916	-200.000	-0.059	0.268
-517.902	286.473	0.050	0.091
-516.887	-173.523	0.062	0.002
-515.872	98.348	0.080	0.092
-514.858	-200.000	0.024	0.212
-513.843	-128.054	-0.268	-0.038
-512.829	53.119	-0.075	-0.072
-511.814	-127.486	-0.207	0.030
-510.799	125.081	-0.201	-0.253
-509.785	-42.853	-0.222	-0.113
-508.770	800.000	0.035	-0.131
-507.756	107.010	0.051	0.061
-506.741	384.509	-0.177	-0.366
-505.726	170.902	0.073	-0.105
-504.712	101.886	-0.067	0.079
-503.697	579.426	0.045	-0.110
-502.683	800.000	0.075	0.235
-501.668	324.281	0.048	0.093
-500.653	21.248	0.079	-0.064
-499.639	-38.133	0.311	-0.165
-498.624	-101.005	-0.223	0.055
-497.610	800.000	0.112	-0.326
-496.595	-200.000	0.083	-0.440
-495.581	-85.685	-0.338	-0.105
-494.566	-89.405	0.099	-0.029
-493.551	257.972	-0.066	0.113
-492.537	358.061	-0.068	-0.136
-491.522	-80.600	0.284	0.095
-490.508	-200.000	-0.060	-0.270
-489.493	-161.698	-0.038	-0.002
-488.478	800.000	-0.033	0.102
-487.464	-138.267	0.239	-0.026
-486.449	-81.963	-0.139	-0.046
-485.435	-200.000	-0.017	0.144
-484.420	8.287	0.157	-0.118
-483.405	-12.539	-0.073	0.048
-482.391	-4.170	0.055	0.038
-481.376	68.110	-0.199	-0.203
-480.362	-174.234	0.187	0.005
-479.347	444.316	-0.083	0.182
-478.332	175.527	-0.054	-0.078
-477.318	-83.603	-0.299	-0.096
-476.303	193.786	0.119	0.180
-475.289	-200.000	-0.059	0.311
-474.274	-200.000	0.011	0.064
-473.259	800.000	-0.037	0.131
-472.245	-94.715	-0.376	0.102
-471.230	-30.934	0.176	-0.099
-470.216	-109.111	0.041	-0.009
-469.201	-200.000	0.000	0.110
-468.186	-39.778	-0.369	0.193
-467.172	800.000	0.085	-0.321
-466.157	-60.410	0.129	-0.055
-465.143	11.561	0.209	-0.160
-464.128	-8.124	-0.167	-0.112
-463.113	-200.000	-0.053	0.377
-462.099	451.815	0.128	0.283
-461.084	-200.000	-0.006	0.260
-460.070	233.697	0.038	0.063
-459.055	-101.169	0.104	-0.025
-458.040	272.864	-0.105	-0.185
-457.026	-200.000	0.015	-0.096
-456.011	-200.000	0.216	0.000
-454.997	116.209	-0.166	0.202
-453.982	-100.496	-0.113	-0.028
-452.968	-200.000	-0.000	-0.119
-451.953	-57.516	-0.225	-0.098
-450.938	-200.000	-0.073	0.362
-449.924	147.248	0.012	0.016
-448.909	119.026	-0.202	0.249
-447.895	193.388	-0.060	-0.091
-446.880	97.430	0.060	0.069
-445.865	-58.207	0.135	-0.058
-444.851	232.990	0.138	-0.226
-443.836	-200.000	-0.057	0.482
-442.822	-41.006	-0.183	-0.094
-441.807	157.353	0.142	0.195
-440.792	-95.735	-0.010	-0.003
-439.778	24.409	-0.220	-0.181
-438.763	800.000	-0.086	0.246
-437.749	800.000	0.048	-0.144
-436.734	-57.875	-0.181	-0.079
-435.719	800.000	0.011	-0.035
-434.705	-200.000	0.038	-0.219
-433.690	63.816	0.148	0.148
-432.676	95.198	-0.269	-0.305
-431.661	320.247	-0.157	0.298
-430.646	27.210	-0.393	-0.329
-429.632	597.949	-0.057	-0.141
-428.617	95.123	-0.084	-0.095
-427.603	-192.435	-0.121	0.001
-426.588	44.138	-0.106	-0.097
-425.573	-200.000	-0.017	-0.117
-424.559	-156.710	0.423	-0.026
-423.544	800.000	-0.094	-0.261
-422.530	99.627	0.342	-0.394
-421.515	144.007	-0.205	-0.273
-420.500	185.081	-0.069	0.102
-419.486	63.083	0.072	0.072
-418.471	-167.098	0.293	0.012
-417.457	705.811	-0.088	0.231
-416.442	-12.524	0.496	0.323
-415.428	184.152	-0.137	-0.203
-414.413	-51.480	-0.249	-0.116
-413.398	675.484	0.083	-0.215
-412.384	800.000	0.063	0.224
-411.369	-200.000	-0.042	0.224
-410.355	-59.211	0.434	-0.187
-409.340	-26.386	-0.176	-0.103
-408.325	-200.000	-0.041	-0.219
-407.311	-162.210	-0.102	-0.005
-406.296	59.672	0.155	0.152
-405.282	196.223	0.240	0.364
-404.267	127.530	0.193	-0.245
-403.252	-200.000	0.024	-0.200
-402.238	122.356	0.052	-0.065
-401.223	67.037	-0.069	0.070
-400.209	336.030	-0.200	-0.386
-399.194	-68.960	0.155	-0.060
-398.179	-120.310	-0.349	0.059
-397.165	-42.511	0.165	0.084
-396.150	800.000	0.018	0.061
-395.136	-167.795	-0.409	-0.016
-394.121	63.860	0.183	-0.183
-393.106	95.257	-0.105	-0.120
-392.092	800.000	0.117	0.404
-391.077	-149.472	0.070	-0.006
-390.063	-93.085	0.045	0.013
-389.048	-146.844	0.469	0.040
-388.033	-72.986	0.149	0.054
-387.019	-200.000	-0.006	-0.241
-386.004	237.696	0.176	-0.291
-384.990	-116.377	0.137	0.025
-383.975	-76.635	-0.301	-0.105
-382.960	275.199	-0.033	-0.058
-381.946	226.893	0.033	0.054
-380.931	767.945	0.114	-0.309
-379.917	-97.201	-0.203	0.053
-378.902	-200.000	0.027	-0.274
-377.888	-60.409	-0.390	0.165
-376.873	177.846	-0.146	-0.212
-375.858	-49.008	-0.112	-0.053
-374.844	503.890	0.073	0.168
-373.829	-53.828	0.035	-0.016
-372.815	-200.000	-0.047	0.257
-371.800	-200.000	-0.039	0.389
-370.785	-3.591	0.032	-0.022
-369.771	-200.000	-0.024	0.180
-368.756	800.000	-0.093	0.261
-367.742	-162.290	0.191	-0.009
-366.727	-200.000	-0.007	-0.082
-365.712	302.456	0.134	-0.246
-364.698	-66.710	-0.305	0.120
-363.683	-135.637	0.304	-0.036
-362.669	75.449	0.039	0.041
-361.654	-78.012	-0.219	-0.075
-360.639	800.000	-0.061	0.176
-359.625	65.051	0.289	0.290
-358.610	-174.988	-0.436	0.012
-357.596	-200.000	-0.055	0.292
-356.581	1.178	0.195	0.139
-355.566	800.000	0.076	0.264
-354.552	800.000	0.111	0.379
-353.537	305.797	-0.040	-0.074
-352.523	-127.631	-0.231	-0.033
-351.508	-200.000	0.039	0.231
-350.493	67.767	-0.192	0.195
-349.479	116.306	0.199	-0.243
-348.464	-93.330	0.078	0.021
-347.450	-185.335	0.146	0.002
-346.435	97.386	0.078	-0.089
-345.420	-148.327	-0.221	-0.018
-344.406	525.724	-0.161	0.376
-343.391	800.000	-0.026	-0.092
-342.377	90.921	-0.143	-0.160
-341.362	9.297	0.172	-0.130
-340.348	204.383	-0.100	-0.155
-339.333	188.519	-0.162	-0.241
-338.318	79.347	-0.149	0.159
-337.304	-35.200	0.215	-0.116
-336.289	245.797	0.185	-0.310
-335.275	310.770	-0.082	-0.152
-334.260	-200.000	-0.017	0.188
-333.245	-43.358	-0.030	0.015
-332.231	-200.000	-0.025	0.111
-331.216	-29.486	0.420	-0.238
-330.202	-200.000	-0.067	-0.683
-329.187	292.182	0.155	-0.280
-328.172	76.383	-0.074	0.077
-327.158	-46.311	-0.102	0.050
-326.143	-200.000	-0.064	0.357
-325.129	59.879	-0.302	0.297
-324.114	800.000	0.116	0.340
-323.099	-9.427	-0.102	-0.068
-322.085	-171.320	-0.291	-0.010
-321.070	-5.796	0.294	0.200
-320.056	-200.000	-0.028	-0.195
-319.041	46.955	-0.256	0.236
-318.026	3.356	-0.196	-0.142
-317.012	-59.668	-0.184	-0.078
-315.997	1.288	-0.126	0.090
-314.983	4.147	-0.013	-0.009
-313.968	-10.375	-0.066	-0.043
-312.953	-26.952	-0.232	-0.134
-311.939	-119.237	-0.214	-0.037
-310.924	-200.000	-0.005	0.216
-309.910	400.953	-0.081	0.168
-308.895	86.555	0.087	0.095
-307.880	132.847	0.050	0.064
-306.866	612.035	0.073	-0.182
-305.851	-200.000	-0.011	0.363
-304.837	324.398	-0.010	0.020
-303.822	-150.185	-0.306	0.024
-302.807	30.248	-0.081	-0.069
-301.793	800.000	0.090	-0.277
-300.778	176.028	0.231	-0.333
-299.764	-131.555	0.470	0.061
-298.749	36.081	0.152	-0.133
-297.735	-109.099	-0.132	0.028
-296.720	156.521	-0.034	0.047
-295.705	-117.709	-0.539	0.096
-294.691	434.689	0.155	0.334
-293.676	-189.620	-0.332	0.004
-292.662	-166.987	0.139	-0.006
-291.647	-75.004	-0.222	-0.079
-290.632	574.151	0.074	0.178
-289.618	-200.000	0.049	-0.232
-288.603	68.499	-0.121	0.124
-287.589	-200.000	0.069	0.448
-286.574	-38.214	-0.161	0.085
-285.559	-200.000	-0.001	-0.209
-284.545	-7.148	0.230	-0.155
-283.530	-200.000	0.044	0.407
-282.516	-23.707	-0.094	-0.056
-281.501	645.462	0.064	-0.162
-280.486	107.729	0.097	0.115
-279.472	-65.113	-0.103	0.041
-278.457	64.955	0.145	-0.145
-277.443	33.000	0.122	0.104
-276.428	-53.686	0.208	0.094
-275.413	-52.967	-0.169	-0.077
-274.399	114.307	0.253	0.305
-273.384	370.925	-0.108	0.217
-272.370	122.313	0.205	-0.254
-271.355	-162.086	0.279	0.014
-270.340	-119.092	-0.012	0.002
-269.326	599.356	0.044	0.109
-268.311	126.242	-0.128	0.160
-267.297	-38.972	0.382	0.199
-266.282	663.505	0.049	-0.124
-265.267	-86.335	-0.365	-0.111
-264.253	245.543	-0.085	0.142
-263.238	-112.717	0.158	0.031
-262.224	66.891	-0.048	0.048
-261.209	371.590	0.082	0.165
-260.195	800.000	-0.139	0.473
-259.180	-147.135	0.448	0.038
-258.165	10.622	0.107	-0.081
-257.151	150.511	0.157	0.212
-256.136	-200.000	0.006	0.106
-255.122	-60.210	0.160	-0.067
-254.107	-68.653	0.234	-0.090
-253.092	-22.988	0.270	0.161
-252.078	60.936	-0.146	0.144
-251.063	-68.240	-0.214	-0.082
-250.049	-113.615	0.070	0.014
-249.034	-26.470	0.206	0.120
-248.019	200.012	0.068	-0.103
-247.005	-142.411	0.261	0.025
-245.990	170.357	0.081	0.114
-244.976	218.961	0.170	-0.269
-243.961	-119.391	0.227	0.039
-242.946	112.966	-0.012	-0.015
-241.932	-41.389	0.252	0.128
-240.917	93.615	0.122	-0.137
-239.903	30.849	0.035	-0.030
-238.888	137.403	-0.091	0.118
-237.873	-139.165	-0.226	0.024
-236.859	-85.488	-0.082	0.025
-235.844	-200.000	-0.026	0.167
-234.830	-110.618	0.115	-0.024
-233.815	-79.195	0.294	0.099
-232.800	-94.339	-0.468	-0.127
-231.786	-121.051	0.452	0.075
-230.771	-113.698	-0.167	0.032
-229.757	800.000	0.014	-0.045
-228.742	-65.940	0.179	-0.071
-227.727	800.000	0.083	-0.242
-226.713	17.617	0.082	-0.065
-225.698	308.680	-0.078	-0.145
-224.684	114.067	0.263	-0.317
-223.669	264.979	-0.129	-0.222
-222.655	-92.628	0.249	0.069
-221.640	-169.500	0.143	-0.005
-220.625	-200.000	0.041	0.206
-219.611	92.991	-0.142	0.159
-218.596	47.000	0.262	0.241
-217.582	800.000	0.024	-0.086
-216.567	20.701	0.075	0.060
-215.552	-131.786	-0.170	0.022
-214.538	-100.621	0.120	0.029
-213.523	-40.544	0.366	0.188
-212.509	-91.715	-0.069	-0.019
-211.494	-92.516	-0.454	0.126
-210.479	-137.841	-0.454	0.050
-209.465	-22.879	0.222	0.133
-208.450	-77.240	0.283	0.097
-207.436	-200.000	0.015	0.104
-206.421	-26.475	0.211	0.122
-205.406	-200.000	-0.021	-0.136
-204.392	-152.702	0.237	0.017
-203.377	-126.662	0.413	-0.060
-202.363	181.389	0.112	0.163
-201.348	353.398	0.068	-0.134
-200.333	-121.680	0.082	-0.013
-199.319	-3.954	0.117	0.080
-198.304	-121.368	0.316	-0.052
-197.290	-58.855	0.127	0.054
-196.275	73.644	-0.129	-0.134
-195.260	-36.664	-0.043	0.023
-194.246	-200.000	-0.008	0.082
-193.231	-200.000	-0.019	-0.086
-192.217	-17.637	-0.294	-0.182
-191.202	215.986	-0.200	-0.314
-190.187	597.457	0.103	0.251
-189.173	-34.627	-0.168	0.091
-188.158	-7.133	0.212	-0.142
-187.144	800.000	-0.050	-0.208
-186.129	-154.106	0.185	0.012
-185.114	16.323	0.274	0.213
-184.100	-122.357	-0.242	-0.039
-183.085	-14.300	0.144	0.092
-182.071	27.594	-0.210	0.174
-181.056	-96.738	-0.278	-0.072
-180.042	800.000	-0.069	0.268
-179.027	411.778	-0.119	-0.249
-178.012	36.010	0.136	-0.118
-176.998	-50.482	0.120	-0.056
-175.983	203.291	-0.133	0.203
-174.969	-200.000	0.022	0.238
-173.954	-130.493	0.294	-0.039
-172.939	-21.491	0.332	0.200
-171.925	163.985	-0.025	0.035
-170.910	-159.163	0.248	-0.014
-169.896	187.738	0.232	0.342
-168.881	5.613	-0.169	-0.123
-167.866	116.294	-0.111	-0.134
-166.852	-78.942	-0.260	0.087
-165.837	-3.432	-0.123	-0.085
-164.823	-60.320	0.196	0.082
-163.808	-102.659	0.170	0.040
-162.793	224.210	-0.082	-0.130
-161.779	-200.000	-0.011	0.134
-160.764	51.051	-0.142	-0.132
-159.750	-134.959	0.313	0.037
-158.735	-50.228	0.046	0.022
-157.720	-200.000	0.013	-0.292
-156.706	400.011	0.156	-0.323
-155.691	-200.000	-0.020	0.216
-154.677	800.000	0.077	0.260
-153.662	-129.299	-0.305	-0.042
-152.647	-64.562	-0.313	-0.125
-151.633	-8.324	-0.090	0.060
-150.618	-138.764	-0.156	0.017
-149.604	-70.072	-0.094	0.035
-148.589	137.315	-0.092	0.119
-147.574	-91.092	0.222	0.063
-146.560	-48.514	-0.252	-0.120
-145.545	212.858	-0.050	0.078
-144.531	-60.415	-0.178	0.074
-143.516	-77.252	-0.123	-0.042
-142.502	-5.439	0.247	0.167
-141.487	800.000	0.057	0.221
-140.472	-100.706	0.218	0.053
-139.458	800.000	0.107	-0.345
-138.443	-200.000	0.068	-0.342
-137.429	-118.391	0.346	0.061
-136.414	-34.719	0.086	0.046
-135.399	800.000	0.029	0.105
-134.385	800.000	0.078	-0.262
-133.370	40.339	0.039	0.035
-132.356	800.000	-0.045	-0.138
-131.341	141.799	-0.133	-0.173
-130.326	-200.000	-0.005	0.250
-129.312	-7.636	-0.065	0.043
-128.297	-3.077	0.027	0.019
-127.283	-26.041	0.072	-0.042
-126.268	201.013	0.112	0.170
-125.253	-143.013	0.099	0.009
-124.239	-71.527	0.350	-0.129
-123.224	-13.171	-0.275	-0.176
-122.210	211.327	-0.070	0.109
