DTS Sentinel unit serial number:	SN413079Multiplexer serial number:	ORYXHardware model number:	OX4-SRSoftware version number:	ORYX F/W v4.00 Oryx Data Collector v3.7.2.0data status	okinstallation	princeton_trtdifferential loss correction	single-endedforward channel	channel 2reverse channel	N/Adate	2019/09/19time	06:03:35forward acquisition time	60.00reverse acquisition time	0.00gamma	496.2192k internal	0.2350k external	0.2350temperature offset calibration	1.0012default loss term (dB/km)	0.3790temperature slope calibration	1.0000multiplexer offset coefficient	1.0000multiplexer slope coefficient	1.0000fibre end	0.00T internal ref (°C)	19.12T ext. ref 1 (°C)	0.58T ext. ref 2 (°C)	12.73length (m)	temperature (°C)	Stokes	anti-Stokes-747.200	-200.000	0.015	0.283
-746.185	447.195	-0.068	0.149
-745.171	-6.342	-0.317	0.216
-744.156	-200.000	0.035	0.246
-743.142	800.000	-0.057	-0.166
-742.127	214.394	-0.129	-0.204
-741.112	-13.167	0.175	0.114
-740.098	236.645	0.029	-0.048
-739.083	-151.355	0.611	0.045
-738.069	-135.962	-0.295	-0.035
-737.054	666.706	-0.063	0.164
-736.039	-15.593	-0.221	-0.141
-735.025	-77.817	-0.193	0.067
-734.010	-200.000	-0.005	-0.203
-732.996	800.000	-0.092	-0.279
-731.981	64.894	0.102	-0.103
-730.966	800.000	0.064	-0.242
-729.952	47.196	-0.038	-0.035
-728.937	23.835	-0.117	0.096
-727.923	-200.000	0.042	0.352
-726.908	-85.437	0.127	-0.039
-725.894	-102.543	-0.405	-0.097
-724.879	552.473	-0.118	-0.283
-723.864	238.345	-0.157	-0.260
-722.850	-100.786	0.181	0.045
-721.835	-69.201	0.115	-0.044
-720.821	75.988	0.017	-0.018
-719.806	70.554	0.188	-0.194
-718.791	121.592	0.078	0.097
-717.777	-106.017	-0.064	0.014
-716.762	276.623	-0.120	-0.213
-715.748	5.640	-0.265	-0.195
-714.733	330.247	0.122	-0.234
-713.718	177.298	-0.231	-0.335
-712.704	-53.213	-0.117	-0.053
-711.689	71.767	-0.053	-0.054
-710.675	538.161	0.074	0.176
-709.660	79.736	-0.084	-0.090
-708.645	-147.689	0.079	0.007
-707.631	800.000	0.057	-0.185
-706.616	64.935	-0.172	0.173
-705.602	800.000	-0.010	-0.034
-704.587	592.423	-0.246	-0.605
-703.572	800.000	-0.040	0.167
-702.558	-125.625	-0.101	0.015
-701.543	800.000	-0.108	-0.361
-700.529	-139.820	0.263	-0.028
-699.514	-94.081	0.323	-0.088
-698.499	-57.883	0.077	0.034
-697.485	800.000	-0.047	-0.175
-696.470	-78.737	0.076	-0.026
-695.456	64.250	-0.323	-0.324
-694.441	509.365	-0.073	-0.169
-693.426	-147.732	0.233	-0.019
-692.412	-87.304	-0.321	0.097
-691.397	-200.000	-0.062	-0.307
-690.383	-115.849	-0.090	-0.017
-689.368	387.161	0.132	-0.271
-688.354	-21.303	0.138	0.084
-687.339	800.000	0.064	-0.195
-686.324	-200.000	0.031	-0.286
-685.310	-42.027	0.441	0.225
-684.295	112.620	-0.248	0.299
-683.281	-73.112	0.228	0.083
-682.266	56.002	-0.028	0.027
-681.251	21.391	0.226	0.183
-680.237	86.289	0.147	0.161
-679.222	675.366	-0.050	0.128
-678.208	-88.484	-0.115	-0.034
-677.193	-58.463	-0.291	-0.126
-676.178	13.300	-0.115	0.089
-675.164	-109.989	0.268	0.056
-674.149	53.086	0.151	-0.144
-673.135	-200.000	0.017	0.175
-672.120	-200.000	-0.016	0.153
-671.105	-61.967	0.110	0.046
-670.091	800.000	0.034	0.108
-669.076	800.000	-0.065	-0.232
-668.062	-92.889	-0.057	-0.016
-667.047	134.842	0.137	0.178
-666.032	-49.328	0.200	-0.095
-665.018	800.000	-0.037	0.128
-664.003	-70.035	0.432	-0.164
-662.989	26.974	-0.278	-0.232
-661.974	109.351	-0.176	-0.210
-660.959	-99.929	-0.153	-0.038
-659.945	-138.341	-0.225	-0.025
-658.930	-200.000	0.000	0.436
-657.916	34.138	-0.245	-0.212
-656.901	61.745	-0.113	-0.112
-655.886	-92.300	-0.087	-0.024
-654.872	-84.686	0.059	-0.018
-653.857	405.719	0.054	0.114
-652.843	800.000	-0.091	0.270
-651.828	-6.822	-0.284	0.192
-650.814	-102.840	0.345	0.082
-649.799	622.282	0.055	-0.139
-648.784	800.000	-0.065	-0.247
-647.770	-119.040	-0.258	0.045
-646.755	-200.000	-0.008	-0.244
-645.741	-142.724	-0.267	-0.026
-644.726	-123.097	0.095	0.015
-643.711	346.682	0.037	-0.073
-642.697	504.373	-0.144	-0.332
-641.682	215.843	-0.052	0.082
-640.668	-200.000	-0.018	0.307
-639.653	33.999	0.052	-0.045
-638.638	800.000	0.019	-0.069
-637.624	91.568	-0.127	0.142
-636.609	-39.101	-0.143	-0.075
-635.595	551.418	-0.063	-0.149
-634.580	86.967	-0.348	-0.382
-633.565	-43.508	0.106	0.053
-632.551	68.677	0.194	-0.198
-631.536	-171.258	0.366	-0.012
-630.522	800.000	0.062	-0.240
-629.507	505.550	0.071	0.164
-628.492	-89.448	-0.270	-0.079
-627.478	-30.932	0.057	-0.032
-626.463	800.000	-0.022	-0.083
-625.449	-80.882	-0.275	0.091
-624.434	-9.059	-0.288	0.192
-623.419	64.930	-0.208	0.208
-622.405	800.000	0.124	0.372
-621.390	146.492	0.082	-0.109
-620.376	800.000	-0.056	-0.192
-619.361	-200.000	0.112	0.539
-618.346	-68.114	-0.208	-0.081
-617.332	-200.000	-0.026	0.317
-616.317	-87.745	-0.393	-0.118
-615.303	11.393	-0.184	0.140
-614.288	-200.000	-0.035	-0.306
-613.273	-62.564	0.197	-0.081
-612.259	-2.375	-0.201	0.140
-611.244	-200.000	-0.055	0.394
-610.230	-99.776	0.163	-0.040
-609.215	169.642	0.068	-0.097
-608.201	615.245	-0.058	0.145
-607.186	800.000	-0.063	0.195
-606.171	-200.000	0.003	-0.337
-605.157	32.770	0.147	-0.126
-604.142	-200.000	0.008	0.155
-603.128	-112.355	-0.354	-0.070
-602.113	-5.956	-0.213	0.144
-601.098	559.665	-0.054	-0.130
-600.084	-33.950	0.217	-0.119
-599.069	125.129	0.088	-0.110
-598.055	-200.000	-0.007	-0.185
-597.040	235.196	-0.213	-0.348
-596.025	-87.926	-0.114	0.034
-595.011	499.428	-0.050	0.115
-593.996	-141.195	-0.290	0.029
-592.982	800.000	0.076	-0.258
-591.967	-119.281	0.373	0.065
-590.952	800.000	-0.018	0.069
-589.938	-200.000	0.020	-0.257
-588.923	431.662	-0.126	0.271
-587.909	-200.000	0.007	-0.267
-586.894	-54.853	0.274	0.123
-585.879	-17.685	-0.172	-0.107
-584.865	293.881	-0.085	-0.154
-583.850	177.631	-0.273	-0.395
-582.836	-54.726	0.366	0.164
-581.821	-200.000	-0.055	0.244
-580.806	-87.940	0.145	0.043
-579.792	432.443	-0.029	-0.063
-578.777	33.476	-0.112	0.096
-577.763	-122.865	0.270	-0.043
-576.748	-200.000	0.007	0.052
-575.733	-192.012	-0.217	-0.002
-574.719	-43.954	0.169	-0.084
-573.704	-113.512	-0.405	0.079
-572.690	12.906	-0.138	0.106
-571.675	421.122	-0.034	0.072
-570.661	-124.727	0.311	-0.048
-569.646	-114.864	-0.279	0.053
-568.631	-200.000	0.023	0.273
-567.617	149.310	0.209	-0.281
-566.602	-115.412	-0.233	0.044
-565.588	70.863	0.289	-0.297
-564.573	166.723	-0.187	-0.263
-563.558	800.000	-0.106	0.306
-562.544	-15.740	-0.354	-0.224
-561.529	-200.000	0.010	0.220
-560.515	124.938	0.121	0.151
-559.500	800.000	-0.057	0.216
-558.485	27.305	-0.197	-0.164
-557.471	124.856	-0.113	-0.141
-556.456	123.752	-0.013	0.016
-555.442	800.000	0.058	-0.213
-554.427	-30.254	-0.083	0.046
-553.412	-200.000	0.007	0.252
-552.398	514.854	-0.076	0.176
-551.383	-75.999	-0.185	-0.065
-550.369	37.536	-0.217	0.191
-549.354	-200.000	-0.045	0.281
-548.339	-131.204	-0.183	-0.024
-547.325	158.685	0.081	-0.111
-546.310	-200.000	0.020	-0.120
-545.296	-123.774	-0.183	0.029
-544.281	-200.000	-0.093	0.417
-543.266	255.605	0.095	0.162
-542.252	-200.000	-0.082	0.390
-541.237	69.260	0.111	0.113
-540.223	95.103	-0.236	0.266
-539.208	-85.981	-0.133	-0.041
-538.193	-155.380	-0.313	0.020
-537.179	-59.206	-0.283	-0.121
-536.164	386.217	0.064	0.130
-535.150	-28.727	-0.205	-0.117
-534.135	56.123	-0.143	0.138
-533.121	136.326	0.179	0.231
-532.106	-200.000	0.005	0.175
-531.091	-14.040	-0.223	0.143
-530.077	517.966	0.074	-0.172
-529.062	61.509	-0.108	0.106
-528.048	3.581	-0.489	-0.353
-527.033	-54.383	-0.218	-0.098
-526.018	-200.000	0.047	-0.396
-525.004	-89.712	0.044	0.013
-523.989	-48.161	-0.171	0.082
-522.975	-116.606	0.140	0.026
-521.960	512.958	-0.027	0.061
-520.945	88.929	0.246	-0.271
-519.931	429.697	-0.103	0.221
-518.916	-188.373	-0.274	-0.003
-517.902	-11.787	0.062	-0.041
-516.887	-23.883	0.094	-0.056
-515.872	648.087	-0.089	-0.226
-514.858	800.000	0.069	-0.231
-513.843	-159.704	0.224	-0.012
-512.829	-200.000	-0.057	-0.276
-511.814	115.294	0.126	-0.153
-510.799	156.106	0.118	0.162
-509.785	157.140	-0.052	-0.071
-508.770	-90.681	0.368	-0.105
-507.756	-200.000	-0.035	0.258
-506.741	-158.589	-0.325	0.019
-505.726	224.314	-0.137	-0.219
-504.712	716.846	-0.135	-0.354
-503.697	393.025	0.098	0.202
-502.683	-152.133	0.347	0.025
-501.668	9.142	0.135	-0.101
-500.653	-200.000	-0.039	0.254
-499.639	-91.538	-0.401	0.113
-498.624	195.592	0.102	-0.153
-497.610	302.666	-0.101	0.184
-496.595	116.994	-0.120	0.146
-495.581	606.485	0.058	-0.143
-494.566	581.926	-0.070	0.171
-493.551	-200.000	0.004	-0.120
-492.537	323.948	0.213	0.403
-491.522	-200.000	0.001	-0.127
-490.508	-200.000	0.022	0.115
-489.493	-53.855	0.130	0.058
-488.478	207.444	0.262	-0.404
-487.464	26.844	-0.246	-0.203
-486.449	-200.000	0.000	-0.146
-485.435	446.922	0.031	0.067
-484.420	-20.117	0.097	-0.059
-483.405	-47.063	0.118	-0.057
-482.391	-200.000	-0.014	-0.152
-481.376	21.684	-0.181	-0.146
-480.362	800.000	0.030	-0.083
-479.347	-131.641	-0.124	-0.016
-478.332	-176.377	0.364	-0.009
-477.318	-153.657	0.160	0.011
-476.303	800.000	0.079	0.223
-475.289	-200.000	0.027	-0.125
-474.274	200.240	-0.169	0.256
-473.259	57.444	-0.161	-0.156
-472.245	316.713	-0.226	-0.422
-471.230	-32.587	-0.209	0.115
-470.216	113.903	0.292	0.351
-469.201	-200.000	-0.011	-0.159
-468.186	-66.989	-0.361	0.141
-467.172	-200.000	-0.004	0.123
-466.157	-73.702	-0.149	0.054
-465.143	-40.860	0.294	0.150
-464.128	-152.337	0.056	0.004
-463.113	-200.000	0.011	-0.142
-462.099	19.472	-0.110	-0.087
-461.084	-99.635	0.074	0.018
-460.070	-9.607	0.121	-0.080
-459.055	-16.464	0.234	0.147
-458.040	-66.181	0.112	0.044
-457.026	-148.230	-0.139	-0.011
-456.011	-29.967	-0.142	-0.080
-454.997	-192.175	0.040	-0.000
-453.982	-200.000	0.079	0.362
-452.968	231.325	-0.125	0.202
-451.953	-110.626	0.052	-0.011
-450.938	-56.812	-0.302	-0.132
-449.924	10.235	0.063	0.047
-448.909	-200.000	0.015	-0.229
-447.895	-71.031	0.254	-0.094
-446.880	-200.000	-0.220	0.001
-445.865	-200.000	0.010	0.260
-444.851	242.177	-0.101	0.166
-443.836	231.316	-0.048	0.078
-442.822	-106.755	-0.321	-0.070
-441.807	100.125	0.097	0.111
-440.792	-200.000	-0.030	-0.298
-439.778	556.470	-0.024	-0.058
-438.763	-200.000	0.086	0.444
-437.749	316.339	0.156	0.291
-436.734	-200.000	-0.021	-0.301
-435.719	-200.000	-0.034	0.152
-434.705	119.928	0.232	-0.283
-433.690	-129.750	0.277	-0.038
-432.676	-144.353	-0.088	-0.008
-431.661	-12.628	-0.180	-0.116
-430.646	800.000	-0.119	0.394
-429.632	-200.000	-0.033	0.209
-428.617	800.000	-0.086	-0.319
-427.603	367.275	0.192	-0.382
-426.588	194.204	-0.212	0.316
-425.573	24.274	0.344	0.280
-424.559	800.000	-0.048	0.152
-423.544	-4.944	0.072	0.049
-422.530	-9.464	-0.181	-0.119
-421.515	71.111	0.196	0.200
-420.500	-41.816	0.208	-0.105
-419.486	-200.000	-0.001	0.243
-418.471	-131.267	-0.179	-0.023
-417.457	-107.488	-0.124	0.027
-416.442	-68.202	-0.119	-0.046
-415.428	800.000	0.022	0.083
-414.413	-63.513	-0.183	-0.074
-413.398	-170.683	0.405	-0.014
-412.384	785.225	-0.100	-0.270
-411.369	-102.476	-0.293	-0.069
-410.355	20.432	-0.119	0.095
-409.340	55.825	-0.180	0.172
-408.325	-22.224	-0.324	-0.194
-407.311	800.000	-0.186	-0.564
-406.296	-70.347	0.247	0.092
-405.282	-200.000	-0.003	0.096
-404.267	12.279	-0.124	0.094
-403.252	-81.826	-0.307	0.099
-402.238	-200.000	-0.011	0.082
-401.223	-167.015	-0.265	-0.011
-400.209	800.000	0.104	0.294
-399.194	800.000	-0.056	-0.186
-398.179	-200.000	-0.004	-0.051
-397.165	-117.940	-0.147	-0.026
-396.150	-200.000	-0.075	-0.356
-395.136	-200.000	0.153	0.675
-394.121	780.728	-0.080	0.215
-393.106	-166.657	0.247	-0.010
-392.092	352.053	0.069	-0.135
-391.077	800.000	0.034	0.110
-390.063	57.155	-0.043	0.041
-389.048	123.545	0.157	0.193
-388.033	800.000	0.064	-0.216
-387.019	-77.573	-0.309	-0.105
-386.004	800.000	0.130	0.460
-384.990	141.576	-0.111	-0.144
-383.975	415.244	0.038	-0.080
-382.960	25.468	-0.333	-0.273
-381.946	-200.000	0.010	0.187
-380.931	105.170	-0.093	-0.109
-379.917	59.216	0.286	0.277
-378.902	123.442	0.073	-0.090
-377.888	-200.000	-0.005	-0.041
-376.873	-200.000	-0.017	0.083
-375.858	-200.000	-0.020	0.107
-374.844	-47.346	0.200	0.096
-373.829	-200.000	0.045	0.255
-372.815	-200.000	-0.010	-0.136
-371.800	153.991	0.087	-0.117
-370.785	-200.000	-0.012	0.202
-369.771	-72.889	0.296	-0.107
-368.756	-13.661	0.320	-0.204
-367.742	-100.228	0.088	-0.021
-366.727	5.318	0.141	-0.103
-365.712	103.878	0.232	-0.268
-364.698	-101.595	-0.058	0.014
-363.683	-105.643	-0.208	-0.046
-362.669	-165.398	0.224	-0.010
-361.654	116.672	0.106	0.128
-360.639	-200.000	0.073	0.467
-359.625	-200.000	0.003	-0.098
-358.610	-200.000	0.023	0.139
-357.596	120.827	-0.199	-0.243
-356.581	37.917	-0.170	-0.148
-355.566	-200.000	0.005	-0.038
-354.552	149.883	0.143	-0.191
-353.537	232.200	0.081	0.131
-352.523	-46.948	0.158	0.076
-351.508	52.924	-0.101	0.095
-350.493	25.392	-0.033	0.027
-349.479	-160.715	-0.195	0.010
-348.464	-117.711	0.015	-0.003
-347.450	-200.000	-0.007	0.441
-346.435	-90.440	0.232	0.066
-345.420	-200.000	-0.038	0.283
-344.406	-25.758	0.219	0.127
-343.391	-200.000	-0.053	0.263
-342.377	-29.163	-0.186	-0.105
-341.362	800.000	0.138	-0.410
-340.348	40.623	0.091	-0.080
-339.333	-106.288	-0.308	0.068
-338.318	24.077	0.031	0.025
-337.304	-95.406	0.320	0.084
-336.289	298.631	-0.066	0.120
-335.275	266.665	0.059	-0.101
-334.260	-200.000	0.012	0.163
-333.245	-139.045	0.123	-0.013
-332.231	-5.564	0.222	-0.150
-331.216	218.303	0.080	0.125
-330.202	-200.000	0.013	-0.143
-329.187	-106.196	-0.187	0.041
-328.172	254.170	0.186	0.313
-327.158	212.402	0.201	-0.312
-326.143	800.000	0.106	0.309
-325.129	-1.111	-0.032	-0.022
-324.114	800.000	0.057	-0.225
-323.099	-200.000	0.001	-0.195
-322.085	-97.468	0.167	0.043
-321.070	-200.000	-0.003	-0.282
-320.056	22.382	-0.427	-0.343
-319.041	187.438	0.284	-0.416
-318.026	-85.602	-0.225	0.069
-317.012	311.607	0.066	0.122
-315.997	-200.000	-0.035	-0.163
-314.983	-109.257	0.284	-0.059
-313.968	-2.899	0.181	0.124
-312.953	71.722	0.163	-0.167
-311.939	6.534	-0.124	0.090
-310.924	9.188	0.563	0.418
-309.910	-200.000	-0.025	0.290
-308.895	278.497	0.035	0.061
-307.880	1.233	-0.073	0.052
-306.866	-200.000	-0.045	-0.301
-305.851	-98.896	-0.174	0.043
-304.837	-79.312	0.154	0.051
-303.822	-119.786	-0.187	0.032
-302.807	100.770	0.049	0.056
-301.793	102.892	0.151	-0.174
-300.778	-121.900	0.443	-0.072
-299.764	8.855	-0.251	-0.186
-298.749	682.940	-0.069	-0.176
-297.735	63.441	-0.067	0.066
-296.720	134.408	0.200	0.255
-295.705	-200.000	0.012	-0.195
-294.691	-42.312	0.147	0.074
-293.676	-52.793	-0.267	-0.121
-292.662	91.206	-0.248	0.273
-291.647	-2.179	0.208	-0.144
-290.632	-200.000	0.003	0.105
-289.618	174.447	0.081	-0.115
-288.603	330.444	0.104	-0.196
-287.589	36.506	0.230	-0.199
-286.574	-62.541	0.164	-0.067
-285.559	800.000	0.097	0.307
-284.545	126.761	-0.175	0.217
-283.530	-99.927	0.190	0.046
-282.516	-200.000	0.032	-0.199
-281.501	172.937	0.288	0.406
-280.486	-200.000	-0.001	-0.076
-279.472	1.755	-0.048	0.034
-278.457	-200.000	0.009	-0.331
-277.443	292.328	0.087	-0.156
-276.428	-104.412	0.214	0.049
-275.413	-2.482	-0.365	-0.251
-274.399	-103.637	0.076	-0.017
-273.384	455.622	-0.030	0.065
-272.370	-200.000	0.014	-0.115
-271.355	-112.394	0.329	0.065
-270.340	71.558	0.226	0.230
-269.326	-58.775	0.129	-0.055
-268.311	800.000	0.116	-0.395
-267.297	276.607	-0.048	-0.084
-266.282	-63.623	-0.176	-0.071
-265.267	-200.000	0.030	0.401
-264.253	800.000	0.031	-0.104
-263.238	112.605	-0.078	0.093
-262.224	-119.160	-0.144	0.025
-261.209	800.000	0.020	-0.066
-260.195	-87.964	0.242	0.071
-259.180	-4.284	-0.135	0.092
-258.165	-200.000	0.043	0.347
-257.151	49.647	-0.021	-0.020
-256.136	-15.488	-0.092	0.057
-255.122	-67.538	0.144	0.055
-254.107	548.399	-0.080	-0.187
-253.092	-200.000	-0.024	-0.157
-252.078	94.141	0.184	-0.205
-251.063	66.508	-0.069	-0.069
-250.049	-200.000	0.001	0.210
-249.034	463.114	0.097	0.212
-248.019	149.587	-0.137	0.181
-247.005	252.778	0.023	-0.039
-245.990	-52.570	-0.104	-0.047
-244.976	800.000	0.124	-0.397
-243.961	-29.119	0.072	-0.041
-242.946	-196.818	0.300	-0.002
-241.932	-91.683	-0.216	-0.060
-240.917	-64.109	-0.323	-0.129
-239.903	800.000	0.095	-0.326
-238.888	105.104	-0.076	0.088
-237.873	-150.173	0.173	0.013
-236.859	-200.000	0.025	0.201
-235.844	669.018	-0.164	-0.416
-234.830	-200.000	0.001	-0.264
-233.815	34.168	0.132	0.113
-232.800	-18.983	0.210	0.128
-231.786	-200.000	-0.035	0.000
-230.771	-28.352	-0.240	0.136
-229.757	-200.000	0.021	-0.283
-228.742	282.195	-0.079	0.138
-227.727	-50.403	0.139	-0.064
-226.713	-200.000	-0.021	-0.091
-225.698	800.000	-0.048	-0.194
-224.684	-40.975	0.236	-0.119
-223.669	-200.000	0.019	0.242
-222.655	800.000	0.050	-0.162
-221.640	-13.066	0.087	-0.055
-220.625	282.291	0.069	0.121
-219.611	434.805	-0.091	0.194
-218.596	-200.000	-0.096	0.450
-217.582	-87.358	-0.208	-0.062
-216.567	-29.598	-0.195	0.109
-215.552	-140.309	0.246	0.025
-214.538	-126.191	0.035	0.005
-213.523	194.770	0.167	0.248
-212.509	93.420	-0.371	0.411
-211.494	173.560	0.096	0.136
-210.479	-200.000	0.010	0.102
-209.465	-82.228	0.195	-0.062
-208.450	-70.616	-0.332	-0.123
-207.436	-200.000	-0.001	-0.054
-206.421	129.711	-0.137	0.171
-205.406	488.049	-0.033	-0.073
-204.392	305.621	0.150	-0.272
-203.377	28.805	0.166	-0.138
-202.363	-200.000	-0.034	-0.422
-201.348	217.448	-0.149	-0.232
-200.333	711.061	0.090	0.234
-199.319	-200.000	0.003	0.104
-198.304	42.001	0.267	0.237
-197.290	-200.000	-0.042	-0.199
-196.275	-200.000	-0.028	-0.195
-195.260	-66.832	0.169	0.065
-194.246	-200.000	0.025	0.370
-193.231	423.706	0.105	-0.221
-192.217	-200.000	0.036	0.412
-191.202	-142.237	0.518	-0.050
-190.187	-80.074	-0.293	-0.096
-189.173	-33.215	-0.303	0.164
-188.158	83.603	0.064	0.068
-187.144	-99.945	0.124	0.030
-186.129	107.785	-0.079	-0.092
-185.114	-171.928	-0.091	-0.003
-184.100	-139.953	0.060	0.006
-183.085	440.491	0.055	-0.118
-182.071	800.000	0.112	-0.338
-181.056	-104.797	0.204	0.046
-180.042	102.460	-0.134	-0.153
-179.027	-176.795	0.147	-0.004
-178.012	-126.589	0.078	-0.011
-176.998	-200.000	-0.018	0.088
-175.983	-146.242	0.266	0.023
-174.969	-49.431	0.326	0.152
-173.954	-200.000	0.049	-0.295
-172.939	-104.084	-0.106	0.024
-171.925	-200.000	0.030	-0.209
-170.910	113.802	0.033	0.039
-169.896	800.000	-0.036	-0.127
-168.881	-18.543	-0.370	-0.226
-167.866	59.488	0.227	0.219
-166.852	-57.351	-0.271	0.116
-165.837	-6.409	0.217	0.144
-164.823	-151.580	0.044	0.003
-163.808	113.874	0.126	0.149
-162.793	143.353	0.082	-0.107
-161.779	-90.609	0.337	0.095
-160.764	781.980	-0.100	0.268
-159.750	-106.085	0.421	-0.092
-158.735	65.841	0.065	0.064
-157.720	800.000	0.053	-0.215
-156.706	-82.096	0.243	-0.077
-155.691	103.554	-0.239	-0.274
-154.677	800.000	-0.063	-0.204
-153.662	-200.000	0.005	0.023
-152.647	-174.516	0.072	-0.002
-151.633	110.790	-0.197	0.231
-150.618	-108.177	-0.215	0.045
-149.604	52.882	-0.133	-0.124
-148.589	672.567	-0.079	0.201
-147.574	800.000	-0.068	0.255
-146.560	-20.107	-0.119	-0.071
-145.545	49.119	0.220	0.201
-144.531	126.061	0.031	0.038
-143.516	800.000	-0.038	0.125
-142.502	-200.000	0.004	-0.020
-141.487	731.099	0.058	0.151
-140.472	28.061	-0.326	0.268
-139.458	186.796	-0.086	-0.125
-138.443	-25.322	0.274	-0.158
-137.429	-158.617	0.278	-0.016
-136.414	286.175	0.054	0.095
-135.399	-10.615	0.064	0.042
-134.385	-94.037	-0.489	-0.131
-133.370	-140.816	0.181	0.018
-132.356	-200.000	0.014	0.139
-131.341	-10.079	0.454	0.294
-130.326	245.036	0.133	-0.219
-129.312	391.180	-0.145	-0.293
-128.297	-111.756	-0.300	-0.059
-127.283	66.279	-0.249	0.246
-126.268	-200.000	-0.036	0.474
-125.253	21.300	0.445	0.353
-124.239	-105.484	-0.050	-0.011
-123.224	-112.991	-0.210	-0.040
-122.210	-99.977	0.170	0.041
