DTS Sentinel unit serial number:	SN413079Multiplexer serial number:	ORYXHardware model number:	OX4-SRSoftware version number:	ORYX F/W v4.00 Oryx Data Collector v3.7.2.0data status	okinstallation	princeton_trtdifferential loss correction	single-endedforward channel	channel 2reverse channel	N/Adate	2019/09/18time	07:23:34forward acquisition time	60.00reverse acquisition time	0.00gamma	496.2192k internal	0.2349k external	0.2349temperature offset calibration	0.9982default loss term (dB/km)	0.3790temperature slope calibration	1.0000multiplexer offset coefficient	1.0000multiplexer slope coefficient	1.0000fibre end	0.00T internal ref (°C)	23.19T ext. ref 1 (°C)	0.20T ext. ref 2 (°C)	17.52length (m)	temperature (°C)	Stokes	anti-Stokes-747.200	-200.000	-0.046	0.278
-746.185	800.000	-0.096	0.289
-745.171	-111.684	0.299	0.060
-744.156	-200.000	0.001	-0.033
-743.142	-200.000	0.008	-0.179
-742.127	-200.000	-0.031	0.181
-741.112	431.122	-0.076	0.165
-740.098	13.872	-0.469	0.364
-739.083	513.237	-0.066	-0.153
-738.069	800.000	-0.082	0.306
-737.054	-136.951	-0.245	-0.028
-736.039	-5.429	-0.162	-0.111
-735.025	-200.000	-0.025	-0.311
-734.010	-99.451	-0.507	-0.127
-732.996	42.783	0.007	-0.007
-731.981	550.852	-0.097	-0.233
-730.966	30.439	0.182	0.156
-729.952	74.894	0.104	0.109
-728.937	-200.000	-0.001	-0.143
-727.923	191.431	0.200	0.301
-726.908	-200.000	0.050	-0.349
-725.894	13.344	0.127	0.098
-724.879	-200.000	0.053	-0.374
-723.864	207.911	-0.148	0.231
-722.850	-200.000	-0.004	-0.024
-721.835	-23.509	0.165	-0.099
-720.821	-58.208	-0.026	0.011
-719.806	80.015	-0.159	-0.171
-718.791	104.448	-0.087	0.102
-717.777	-200.000	-0.021	0.182
-716.762	-14.730	-0.135	-0.087
-715.748	67.440	0.175	-0.179
-714.733	-117.787	0.204	-0.036
-713.718	-45.666	-0.113	0.056
-712.704	250.879	0.059	-0.100
-711.689	-200.000	0.010	-0.093
-710.675	471.729	-0.097	-0.218
-709.660	-152.796	0.238	-0.017
-708.645	275.000	-0.067	0.118
-707.631	-200.000	0.044	-0.241
-706.616	44.373	-0.124	-0.113
-705.602	-67.024	-0.203	0.080
-704.587	-63.245	-0.414	-0.170
-703.572	14.052	0.326	0.253
-702.558	224.464	-0.018	0.028
-701.543	46.881	0.136	0.126
-700.529	-100.318	0.294	-0.073
-699.514	471.621	0.108	0.242
-698.499	800.000	0.114	-0.322
-697.485	800.000	-0.098	-0.421
-696.470	-200.000	0.013	0.158
-695.456	-130.281	0.337	0.046
-694.441	-12.856	0.084	-0.055
-693.426	-200.000	0.021	-0.210
-692.412	-19.205	0.030	0.019
-691.397	686.514	-0.085	0.223
-690.383	435.806	-0.037	-0.080
-689.368	156.629	0.148	-0.204
-688.354	-200.000	-0.068	0.387
-687.339	12.108	0.233	-0.179
-686.324	280.978	0.075	-0.134
-685.310	-132.739	-0.158	0.020
-684.295	361.748	-0.161	-0.323
-683.281	-196.584	0.186	-0.001
-682.266	284.223	-0.150	-0.269
-681.251	-93.298	-0.211	0.058
-680.237	-164.322	0.276	-0.013
-679.222	82.104	0.157	-0.170
-678.208	-86.821	-0.238	0.073
-677.193	154.493	-0.129	-0.177
-676.178	-8.808	-0.253	-0.169
-675.164	-46.765	0.101	-0.049
-674.149	440.217	-0.064	-0.139
-673.135	143.400	-0.141	-0.187
-672.120	-200.000	0.013	0.149
-671.105	-200.000	-0.012	0.093
-670.091	-114.986	-0.253	0.048
-669.076	-80.831	-0.222	0.073
-668.062	800.000	-0.052	-0.167
-667.047	-45.315	0.096	0.047
-666.032	-200.000	0.031	-0.167
-665.018	-200.000	0.003	0.149
-664.003	-129.736	-0.268	0.037
-662.989	267.620	0.154	-0.268
-661.974	410.798	-0.086	0.182
-660.959	-200.000	0.047	-0.348
-659.945	100.169	0.129	-0.149
-658.930	246.435	0.200	0.335
-657.916	800.000	0.096	0.293
-656.901	434.166	0.047	-0.103
-655.886	5.305	-0.151	-0.111
-654.872	571.727	-0.191	0.463
-653.857	800.000	0.045	-0.164
-652.843	102.025	-0.161	-0.188
-651.828	-200.000	0.010	0.141
-650.814	-85.234	0.364	-0.113
-649.799	-53.932	0.182	0.083
-648.784	-53.096	-0.416	0.190
-647.770	800.000	0.132	-0.470
-646.755	-93.549	0.348	-0.096
-645.741	-200.000	0.023	0.138
-644.726	-41.849	-0.157	-0.080
-643.711	119.702	-0.173	-0.213
-642.697	43.881	-0.166	0.152
-641.682	800.000	0.099	0.309
-640.668	-46.050	-0.182	0.089
-639.653	-200.000	0.006	0.084
-638.638	-24.687	0.238	-0.141
-637.624	-200.000	-0.006	-0.394
-636.609	-133.857	0.349	0.043
-635.595	-140.885	0.154	-0.016
-634.580	-119.314	-0.111	-0.019
-633.565	-52.191	-0.085	0.039
-632.551	18.974	0.199	0.158
-631.536	-95.697	-0.507	-0.135
-630.522	-59.099	-0.033	0.014
-629.507	-25.142	0.181	-0.107
-628.492	-165.384	-0.076	-0.003
-627.478	-180.347	-0.236	0.005
-626.463	335.651	0.107	-0.207
-625.449	-92.830	-0.042	0.012
-624.434	-200.000	-0.044	0.328
-623.419	800.000	-0.083	0.262
-622.405	800.000	0.088	-0.329
-621.390	-200.000	0.043	-0.387
-620.376	168.620	0.114	0.162
-619.361	403.568	0.079	-0.166
-618.346	-42.530	-0.173	0.088
-617.332	127.910	0.326	-0.412
-616.317	-200.000	-0.027	0.172
-615.303	-94.322	-0.347	-0.094
-614.288	-7.830	-0.054	-0.036
-613.273	-6.493	0.248	0.168
-612.259	161.714	-0.175	0.243
-611.244	-200.000	0.012	-0.117
-610.230	124.936	0.227	-0.284
-609.215	575.102	0.149	-0.362
-608.201	-200.000	-0.035	0.301
-607.186	153.488	0.067	0.091
-606.171	201.347	0.114	-0.175
-605.157	60.450	0.086	0.084
-604.142	-200.000	0.053	0.236
-603.128	-145.912	-0.226	-0.020
-602.113	-141.869	-0.135	0.013
-601.098	72.400	-0.116	0.120
-600.084	-75.860	0.242	-0.085
-599.069	-94.996	-0.250	-0.067
-598.055	-200.000	-0.015	0.125
-597.040	11.436	-0.091	-0.069
-596.025	-103.107	-0.156	-0.037
-595.011	369.269	0.060	0.121
-593.996	114.560	-0.047	0.057
-592.982	800.000	-0.154	0.512
-591.967	-134.155	-0.068	-0.008
-590.952	-113.691	-0.129	0.025
-589.938	-128.751	-0.402	-0.056
-588.923	39.660	-0.102	-0.091
-587.909	-200.000	0.310	-0.000
-586.894	576.283	-0.059	-0.142
-585.879	16.510	-0.338	-0.265
-584.865	40.048	-0.173	-0.155
-583.850	-110.044	-0.255	0.053
-582.836	800.000	-0.103	0.338
-581.821	764.125	-0.135	0.363
-580.806	-8.223	0.203	-0.135
-579.792	178.689	-0.090	0.130
-578.777	-200.000	-0.036	0.170
-577.763	-200.000	-0.029	-0.242
-576.748	181.771	0.104	-0.153
-575.733	358.941	-0.097	-0.192
-574.719	162.918	-0.158	-0.220
-573.704	-200.000	0.084	0.701
-572.690	336.960	-0.106	-0.204
-571.675	39.186	0.346	0.307
-570.661	-178.326	-0.339	-0.008
-569.646	800.000	0.037	-0.105
-568.631	649.578	-0.057	0.145
-567.617	130.084	-0.085	0.108
-566.602	19.100	0.093	-0.074
-565.588	-128.820	0.079	-0.011
-564.573	171.622	-0.098	0.140
-563.558	28.143	-0.125	-0.104
-562.544	-200.000	-0.036	-0.210
-561.529	238.952	0.065	-0.107
-560.515	81.883	0.221	0.238
-559.500	11.400	-0.076	0.057
-558.485	72.059	0.192	0.198
-557.471	-55.364	-0.173	-0.077
-556.456	-12.609	0.117	0.076
-555.442	-44.641	-0.117	-0.058
-554.427	-16.261	-0.209	0.131
-553.412	20.678	0.160	0.128
-552.398	280.317	-0.109	0.192
-551.383	-200.000	-0.005	0.134
-550.369	65.785	0.144	0.145
-549.354	-20.952	-0.092	-0.056
-548.339	-200.000	-0.029	-0.174
-547.325	37.642	0.121	-0.107
-546.310	85.509	-0.230	-0.251
-545.296	-176.864	0.049	-0.001
-544.281	-47.729	-0.264	0.127
-543.266	307.482	0.158	-0.292
-542.252	-115.169	0.163	-0.031
-541.237	-200.000	-0.068	0.360
-540.223	51.520	0.179	0.169
-539.208	81.542	-0.127	-0.136
-538.193	-37.612	0.044	-0.023
-537.179	-15.196	-0.046	-0.029
-536.164	69.799	0.226	-0.231
-535.150	800.000	0.054	-0.192
-534.135	631.558	0.088	-0.220
-533.121	401.120	-0.061	-0.128
-532.106	-200.000	-0.038	-0.384
-531.091	-200.000	-0.052	0.367
-530.077	161.514	0.031	0.043
-529.062	295.541	0.041	0.075
-528.048	-137.845	-0.185	-0.020
-527.033	71.341	-0.156	-0.161
-526.018	-77.981	0.331	-0.113
-525.004	-48.349	0.129	0.061
-523.989	329.677	-0.005	-0.009
-522.975	119.287	-0.119	-0.146
-521.960	452.825	0.094	0.205
-520.945	44.721	-0.097	0.089
-519.931	-200.000	0.076	0.458
-518.916	-200.000	0.038	0.189
-517.902	-101.132	-0.144	0.035
-516.887	117.645	-0.239	-0.291
-515.872	156.401	-0.086	0.117
-514.858	302.411	0.141	0.259
-513.843	-168.056	0.342	0.013
-512.829	-40.449	0.208	0.107
-511.814	-200.000	0.013	-0.101
-510.799	-200.000	-0.006	-0.205
-509.785	605.068	0.045	-0.111
-508.770	-7.680	-0.219	-0.146
-507.756	7.133	0.036	-0.027
-506.741	-89.574	-0.026	0.008
-505.726	800.000	-0.087	-0.240
-504.712	-23.309	-0.251	-0.149
-503.697	800.000	-0.034	0.114
-502.683	103.682	-0.249	-0.290
-501.668	-21.956	-0.056	0.034
-500.653	-200.000	-0.020	0.178
-499.639	-6.447	-0.179	0.121
-498.624	-96.243	-0.109	0.029
-497.610	-110.678	-0.200	-0.041
-496.595	120.604	0.146	0.179
-495.581	-99.359	-0.253	-0.063
-494.566	-69.948	-0.180	-0.068
-493.551	800.000	-0.079	-0.291
-492.537	-52.032	0.234	-0.107
-491.522	-66.241	-0.342	-0.135
-490.508	-112.250	0.248	-0.049
-489.493	-153.437	-0.311	-0.021
-488.478	-200.000	0.052	-0.439
-487.464	-14.277	0.344	-0.219
-486.449	668.701	0.064	-0.164
-485.435	-23.106	0.191	-0.114
-484.420	-58.460	0.110	-0.047
-483.405	300.953	0.128	-0.234
-482.391	800.000	0.045	0.173
-481.376	-19.034	0.110	0.068
-480.362	-75.883	0.231	-0.081
-479.347	358.920	0.055	0.108
-478.332	-123.089	0.458	-0.073
-477.318	23.455	0.129	0.105
-476.303	-47.965	0.334	0.160
-475.289	-156.448	-0.322	-0.020
-474.274	242.569	0.063	0.105
-473.259	-200.000	-0.033	0.169
-472.245	-177.509	-0.242	-0.006
-471.230	110.466	-0.290	-0.344
-470.216	-200.000	-0.017	-0.084
-469.201	26.133	-0.106	0.088
-468.186	74.714	-0.127	-0.132
-467.172	-164.238	-0.300	-0.014
-466.157	12.055	0.136	0.103
-465.143	-200.000	0.029	0.135
-464.128	-200.000	-0.038	-0.361
-463.113	-18.156	0.210	0.130
-462.099	182.185	-0.190	-0.277
-461.084	94.938	0.137	-0.154
-460.070	-89.100	0.250	0.073
-459.055	-200.000	0.049	-0.271
-458.040	243.316	-0.060	-0.099
-457.026	-200.000	0.042	0.222
-456.011	-140.772	0.221	0.022
-454.997	-60.982	-0.137	0.057
-453.982	-138.312	-0.074	-0.008
-452.968	-200.000	-0.023	0.252
-451.953	548.851	-0.030	0.072
-450.938	73.631	-0.101	0.105
-449.924	-88.643	-0.172	0.051
-448.909	644.786	0.085	0.214
-447.895	-91.633	-0.142	0.040
-446.880	55.908	-0.246	-0.235
-445.865	800.000	-0.034	0.106
-444.851	-54.459	-0.241	-0.108
-443.836	357.409	-0.015	-0.030
-442.822	800.000	0.046	-0.176
-441.807	-143.805	0.233	0.022
-440.792	94.730	0.107	0.120
-439.778	-113.941	-0.198	-0.038
-438.763	-168.486	-0.098	-0.004
-437.749	261.606	0.050	-0.086
-436.734	800.000	0.072	-0.233
-435.719	-139.140	-0.254	0.027
-434.705	-127.275	0.358	0.052
-433.690	-132.239	-0.265	0.034
-432.676	-200.000	0.025	0.109
-431.661	-144.543	-0.155	0.014
-430.646	231.404	-0.103	-0.167
-429.632	304.184	0.090	-0.165
-428.617	61.647	-0.142	-0.140
-427.603	-122.377	-0.314	-0.050
-426.588	-55.743	0.170	0.075
-425.573	-140.558	-0.196	0.020
-424.559	-200.000	-0.001	-0.022
-423.544	-112.639	0.267	-0.052
-422.530	297.024	0.094	-0.170
-421.515	-93.127	-0.224	-0.062
-420.500	-200.000	0.022	-0.367
-419.486	704.730	0.102	0.266
-418.471	-106.867	-0.159	-0.035
-417.457	-79.140	-0.303	-0.101
-416.442	-21.673	0.418	0.251
-415.428	-200.000	0.039	0.275
-414.413	38.500	-0.172	0.151
-413.398	800.000	-0.084	-0.275
-412.384	5.347	0.115	0.084
-411.369	556.617	-0.147	-0.350
-410.355	619.927	-0.039	0.096
-409.340	-42.123	0.230	-0.116
-408.325	-1.453	-0.389	0.271
-407.311	31.349	0.379	0.321
-406.296	-87.894	0.013	0.004
-405.282	800.000	-0.064	0.199
-404.267	176.390	0.106	-0.152
-403.252	53.800	-0.113	0.107
-402.238	800.000	-0.101	0.366
-401.223	800.000	-0.039	-0.140
-400.209	345.141	0.039	0.076
-399.194	63.384	-0.125	-0.124
-398.179	20.553	0.258	-0.205
-397.165	563.031	-0.020	0.048
-396.150	197.631	-0.104	0.157
-395.136	-115.475	0.184	0.034
-394.121	121.962	-0.062	-0.076
-393.106	-0.987	0.280	-0.195
-392.092	-171.743	0.188	-0.006
-391.077	800.000	0.066	-0.205
-390.063	-200.000	0.040	-0.194
-389.048	-157.442	-0.072	0.004
-388.033	800.000	0.091	-0.256
-387.019	-200.000	-0.011	-0.138
-386.004	-138.006	0.336	0.037
-384.990	-151.554	-0.054	0.004
-383.975	-19.496	-0.378	0.231
-382.960	-48.097	0.099	0.047
-381.946	-115.682	-0.069	0.013
-380.931	-200.000	-0.000	-0.372
-379.917	800.000	-0.027	0.074
-378.902	-70.712	0.071	-0.026
-377.888	-127.970	0.217	0.031
-376.873	-46.444	0.058	-0.028
-375.858	-200.000	-0.027	0.147
-374.844	-103.463	-0.276	-0.064
-373.829	130.358	-0.129	0.163
-372.815	652.316	-0.090	0.226
-371.800	496.739	-0.052	0.118
-370.785	-89.385	0.473	-0.137
-369.771	-78.172	0.161	-0.055
-368.756	-116.779	0.194	0.035
-367.742	77.757	-0.176	0.184
-366.727	242.765	-0.052	0.085
-365.712	-111.947	0.055	0.011
-364.698	-133.544	0.095	-0.012
-363.683	-21.926	0.231	-0.138
-362.669	366.229	-0.151	-0.299
-361.654	-127.485	0.313	0.045
-360.639	13.358	-0.124	-0.094
-359.625	-200.000	-0.034	-0.297
-358.610	515.995	0.130	0.298
-357.596	78.898	-0.172	0.182
-356.581	-75.164	0.128	-0.045
-355.566	-66.613	-0.180	-0.070
-354.552	20.690	0.200	-0.159
-353.537	800.000	0.079	-0.318
-352.523	-130.037	0.218	0.029
-351.508	48.058	-0.196	-0.180
-350.493	-0.080	-0.221	-0.154
-349.479	800.000	-0.047	0.192
-348.464	-27.769	-0.265	0.151
-347.450	-200.000	-0.016	-0.280
-346.435	-175.070	0.170	-0.005
-345.420	46.277	-0.170	0.155
-344.406	-86.535	-0.175	0.053
-343.391	59.342	0.277	0.268
-342.377	150.055	0.143	0.191
-341.362	-200.000	0.011	0.265
-340.348	-90.477	-0.066	-0.019
-339.333	-200.000	-0.056	0.286
-338.318	-200.000	0.005	-0.411
-337.304	358.967	-0.167	0.328
-336.289	-75.551	-0.434	0.152
-335.275	660.964	-0.032	0.080
-334.260	-200.000	-0.029	0.213
-333.245	-200.000	0.034	-0.165
-332.231	-74.823	-0.015	-0.005
-331.216	180.870	0.040	0.058
-330.202	224.824	0.137	0.217
-329.187	246.707	0.054	0.089
-328.172	-53.326	0.307	-0.138
-327.158	-200.000	0.040	0.192
-326.143	-142.574	-0.190	-0.018
-325.129	-16.554	0.178	-0.111
-324.114	-61.365	0.256	0.106
-323.099	62.681	-0.221	-0.217
-322.085	-60.982	0.171	-0.071
-321.070	595.123	0.029	0.069
-320.056	-62.130	0.107	0.044
-319.041	-11.543	-0.180	0.116
-318.026	-200.000	0.012	0.193
-317.012	-187.273	-0.245	-0.003
-315.997	-49.114	-0.259	-0.122
-314.983	22.739	-0.211	-0.170
-313.968	-104.435	-0.224	0.051
-312.953	-200.000	-0.023	-0.230
-311.939	70.990	0.025	0.025
-310.924	307.081	0.170	-0.310
-309.910	800.000	0.039	0.163
-308.895	200.415	0.180	0.271
-307.880	-200.000	0.073	0.474
-306.866	-163.815	-0.287	0.013
-305.851	800.000	0.119	-0.325
-304.837	-200.000	-0.050	-0.256
-303.822	-75.980	0.318	-0.110
-302.807	-200.000	0.000	0.070
-301.793	56.279	0.112	0.107
-300.778	9.646	0.199	0.148
-299.764	-123.539	0.103	-0.016
-298.749	-90.206	0.062	-0.018
-297.735	-70.595	0.287	-0.106
-296.720	721.852	0.089	0.233
-295.705	72.617	-0.276	0.283
-294.691	-64.973	-0.151	-0.060
-293.676	800.000	0.107	-0.329
-292.662	-200.000	-0.011	-0.351
-291.647	500.358	0.155	-0.351
-290.632	-132.767	0.276	-0.035
-289.618	-143.641	-0.147	-0.014
-288.603	-53.746	0.161	-0.072
-287.589	95.848	-0.162	-0.181
-286.574	422.578	0.012	0.026
-285.559	-200.000	0.019	0.153
-284.545	-48.640	0.170	0.080
-283.530	-95.445	0.160	0.042
-282.516	-64.038	-0.355	0.142
-281.501	8.129	-0.215	0.158
-280.486	82.289	0.080	0.085
-279.472	211.484	0.066	-0.101
-278.457	-49.244	0.366	0.172
-277.443	270.617	0.158	0.273
-276.428	-116.750	0.122	-0.022
-275.413	32.422	0.121	-0.102
-274.399	620.438	-0.023	0.056
-273.384	-37.024	-0.288	-0.151
-272.370	-49.287	0.397	-0.186
-271.355	-99.481	-0.200	-0.049
-270.340	-70.673	0.183	-0.068
-269.326	-10.768	0.255	-0.165
-268.311	-175.701	-0.185	0.005
-267.297	800.000	-0.086	-0.367
-266.282	355.869	-0.110	-0.214
-265.267	598.172	0.018	-0.044
-264.253	-58.238	-0.184	0.078
-263.238	800.000	0.091	-0.260
-262.224	45.366	-0.204	-0.184
-261.209	143.625	0.255	-0.332
-260.195	-189.926	-0.482	0.005
-259.180	-115.466	0.292	-0.054
-258.165	-90.843	-0.270	0.076
-257.151	166.165	-0.201	0.279
-256.136	-76.736	0.317	-0.109
-255.122	-97.293	-0.286	-0.073
-254.107	-200.000	0.045	0.289
-253.092	800.000	-0.041	0.176
-252.078	-200.000	0.128	0.608
-251.063	86.626	0.119	-0.128
-250.049	-200.000	0.021	-0.198
-249.034	-200.000	0.003	0.123
-248.019	-200.000	-0.004	0.205
-247.005	145.143	0.072	0.094
-245.990	-77.046	0.361	0.123
-244.976	-107.176	-0.177	-0.038
-243.961	-27.592	0.227	-0.129
-242.946	83.398	-0.250	-0.267
-241.932	-200.000	-0.046	-0.306
-240.917	156.326	-0.107	0.144
-239.903	-200.000	-0.015	-0.070
-238.888	-94.282	-0.220	-0.059
-237.873	-200.000	0.043	0.267
-236.859	154.856	0.124	-0.167
-235.844	800.000	0.018	0.055
-234.830	-159.823	-0.264	0.014
-233.815	115.618	0.178	-0.213
-232.800	35.598	0.119	0.102
-231.786	-66.553	0.265	-0.103
-230.771	-104.378	-0.109	-0.025
-229.757	654.742	-0.040	-0.100
-228.742	-80.552	-0.248	-0.081
-227.727	-57.363	-0.164	0.071
-226.713	448.868	0.029	0.064
-225.698	-154.990	0.196	0.013
-224.684	-60.243	0.041	0.017
-223.669	-200.000	0.022	0.161
-222.655	9.577	0.139	0.103
-221.640	289.099	-0.073	-0.129
-220.625	800.000	-0.085	0.312
-219.611	-98.489	-0.220	0.055
-218.596	397.405	-0.052	-0.106
-217.582	221.764	0.167	0.263
-216.567	209.311	0.169	-0.259
-215.552	269.558	0.103	-0.176
-214.538	64.842	0.390	0.385
-213.523	467.646	-0.093	-0.205
-212.509	-38.652	-0.108	0.056
-211.494	-200.000	0.023	0.171
-210.479	-22.621	-0.163	0.096
-209.465	-53.566	-0.276	0.124
-208.450	79.967	0.265	-0.279
-207.436	190.064	0.041	0.060
-206.421	689.641	-0.054	0.137
-205.406	-200.000	0.001	-0.049
-204.392	-128.859	0.160	0.022
-203.377	800.000	0.043	0.178
-202.363	269.365	0.175	0.300
-201.348	15.781	0.321	-0.247
-200.333	-200.000	-0.001	0.212
-199.319	-117.790	0.080	0.014
-198.304	-20.257	0.198	0.119
-197.290	25.576	0.155	-0.127
-196.275	389.128	-0.072	0.146
-195.260	180.012	0.192	-0.275
-194.246	33.330	0.040	-0.034
-193.231	315.798	0.050	0.091
-192.217	-185.123	-0.249	0.004
-191.202	800.000	0.112	-0.305
-190.187	75.656	-0.060	-0.062
-189.173	-162.527	0.181	-0.009
-188.158	132.352	0.238	0.299
-187.144	-200.000	-0.013	0.203
-186.129	-200.000	-0.047	-0.203
-185.114	-200.000	0.029	0.127
-184.100	20.196	0.253	-0.200
-183.085	100.369	-0.056	-0.063
-182.071	-117.849	-0.318	0.056
-181.056	354.185	0.071	0.137
-180.042	-200.000	-0.078	0.375
-179.027	-35.851	0.196	0.104
-178.012	-137.149	-0.175	-0.019
-176.998	151.745	-0.120	0.159
-175.983	103.121	-0.160	0.183
-174.969	-63.453	-0.237	-0.095
-173.954	192.084	0.164	0.242
-172.939	128.616	0.023	-0.029
-171.925	153.778	0.068	0.091
-170.910	-30.497	0.139	0.077
-169.896	86.713	-0.138	-0.148
-168.881	480.548	-0.115	0.255
-167.866	800.000	-0.036	0.108
-166.852	-200.000	-0.029	-0.162
-165.837	223.447	-0.061	-0.096
-164.823	-200.000	-0.021	0.323
-163.808	800.000	0.043	0.142
-162.793	585.029	-0.090	0.217
-161.779	-144.103	0.083	-0.008
-160.764	-200.000	0.016	-0.129
-159.750	-120.729	0.333	-0.055
-158.735	-200.000	0.006	0.036
-157.720	-131.025	0.135	-0.018
-156.706	-117.373	-0.217	-0.038
-155.691	-200.000	0.037	0.180
-154.677	800.000	0.100	0.274
-153.662	129.498	-0.071	0.089
-152.647	-200.000	0.016	-0.084
-151.633	800.000	-0.083	-0.236
-150.618	783.137	0.046	-0.124
-149.604	800.000	0.089	-0.275
-148.589	200.472	0.082	-0.124
-147.574	140.156	0.325	-0.419
-146.560	210.260	-0.076	0.117
-145.545	-92.633	-0.079	0.022
-144.531	46.953	0.122	0.111
-143.516	-200.000	-0.026	0.335
-142.502	-200.000	0.010	0.072
-141.487	-200.000	0.015	0.101
-140.472	-50.307	0.111	-0.051
-139.458	100.097	0.058	0.065
-138.443	253.548	-0.138	-0.231
-137.429	-72.550	-0.445	0.160
-136.414	-34.637	-0.122	0.065
-135.399	-116.790	-0.194	0.035
-134.385	800.000	-0.042	0.142
-133.370	241.398	0.141	-0.229
-132.356	-115.590	-0.142	-0.026
-131.341	-74.525	-0.167	0.059
-130.326	437.478	-0.050	0.106
-129.312	72.717	-0.271	-0.276
-128.297	253.314	-0.195	0.324
-127.283	800.000	-0.061	0.216
-126.268	-117.056	-0.093	-0.016
-125.253	-200.000	-0.031	-0.247
-124.239	-163.409	-0.211	-0.010
-123.224	-96.251	0.361	-0.093
-122.210	26.626	-0.336	-0.274
