DTS Sentinel unit serial number:	SN413079Multiplexer serial number:	ORYXHardware model number:	OX4-SRSoftware version number:	ORYX F/W v4.00 Oryx Data Collector v3.7.2.0data status	okinstallation	princeton_trtdifferential loss correction	single-endedforward channel	channel 2reverse channel	N/Adate	2019/09/16time	18:07:35forward acquisition time	60.00reverse acquisition time	0.00gamma	496.2192k internal	0.2317k external	0.2317temperature offset calibration	0.9949default loss term (dB/km)	0.3790temperature slope calibration	1.0000multiplexer offset coefficient	1.0000multiplexer slope coefficient	1.0000fibre end	0.00T internal ref (°C)	37.39T ext. ref 1 (°C)	15.70T ext. ref 2 (°C)	31.05length (m)	temperature (°C)	Stokes	anti-Stokes-747.200	-63.092	0.066	-0.028
-746.185	698.041	0.096	0.254
-745.171	15.379	0.086	-0.069
-744.156	800.000	0.118	-0.366
-743.142	203.670	0.096	-0.151
-742.127	-200.000	-0.029	0.145
-741.112	-8.543	0.155	0.105
-740.098	-176.817	-0.115	-0.003
-739.083	151.895	-0.213	-0.294
-738.069	-200.000	-0.066	0.376
-737.054	800.000	-0.128	0.457
-736.039	-99.070	-0.288	0.074
-735.025	800.000	0.106	0.333
-734.010	240.420	-0.064	0.107
-732.996	-200.000	0.045	-0.480
-731.981	370.082	-0.165	-0.338
-730.966	192.676	-0.244	-0.373
-729.952	27.844	0.177	-0.151
-728.937	-112.743	-0.186	-0.037
-727.923	132.410	-0.115	-0.150
-726.908	39.017	0.072	-0.065
-725.894	-0.384	-0.229	0.165
-724.879	-11.688	-0.174	0.115
-723.864	32.943	0.112	0.098
-722.850	459.686	-0.137	-0.309
-721.835	400.218	0.093	-0.196
-720.821	-200.000	-0.056	-0.265
-719.806	78.782	-0.040	-0.044
-718.791	8.248	-0.241	-0.183
-717.777	-60.559	-0.272	0.117
-716.762	276.470	0.146	0.263
-715.748	-200.000	0.014	-0.071
-714.733	-200.000	-0.005	-0.087
-713.718	-152.483	0.362	0.026
-712.704	-104.852	-0.144	-0.033
-711.689	81.454	0.207	0.227
-710.675	521.659	-0.026	-0.061
-709.660	69.293	-0.098	0.102
-708.645	31.548	-0.159	-0.138
-707.631	299.747	0.072	0.133
-706.616	-76.196	-0.089	0.032
-705.602	64.567	0.141	-0.144
-704.587	249.933	-0.009	-0.016
-703.572	-152.663	0.282	0.020
-702.558	355.358	0.179	-0.360
-701.543	-200.000	-0.037	-0.249
-700.529	737.296	-0.049	-0.134
-699.514	-8.348	-0.176	0.120
-698.499	-28.603	0.156	-0.091
-697.485	-58.993	0.110	0.048
-696.470	-200.000	0.075	-0.422
-695.456	800.000	0.095	-0.358
-694.441	51.614	-0.337	-0.324
-693.426	-119.819	-0.318	0.055
-692.412	-108.826	-0.276	0.060
-691.397	-130.491	-0.258	0.035
-690.383	-177.096	-0.243	-0.006
-689.368	-9.272	0.245	-0.166
-688.354	-67.795	0.060	-0.024
-687.339	-99.432	0.243	-0.062
-686.324	165.135	0.063	0.090
-685.310	-27.297	0.084	-0.049
-684.295	-200.000	-0.022	-0.162
-683.281	800.000	0.076	-0.289
-682.266	800.000	0.095	-0.285
-681.251	35.374	0.195	-0.173
-680.237	800.000	0.103	0.344
-679.222	365.558	-0.191	0.390
-678.208	23.394	0.114	-0.095
-677.193	-152.850	-0.212	0.015
-676.178	88.112	-0.178	-0.199
-675.164	-84.397	-0.165	-0.053
-674.149	238.859	-0.091	-0.153
-673.135	511.686	-0.014	0.033
-672.120	-200.000	-0.003	-0.263
-671.105	-200.000	0.083	-0.392
-670.091	-102.222	-0.140	-0.034
-669.076	116.765	-0.078	-0.096
-668.062	-51.933	0.183	-0.086
-667.047	-28.401	-0.152	0.088
-666.032	-36.851	-0.394	-0.214
-665.018	-17.789	-0.351	0.222
-664.003	-200.000	-0.062	0.282
-662.989	-82.364	-0.104	-0.034
-661.974	-200.000	-0.036	-0.286
-660.959	59.369	0.250	0.249
-659.945	161.982	0.076	0.107
-658.930	167.156	-0.057	-0.082
-657.916	648.261	-0.045	0.115
-656.901	-200.000	-0.012	0.327
-655.886	19.330	0.285	0.231
-654.872	-79.829	-0.136	0.046
-653.857	-51.214	0.361	-0.171
-652.843	-90.410	0.405	-0.119
-651.828	-81.497	0.282	0.094
-650.814	124.302	0.257	0.326
-649.799	194.446	-0.174	0.267
-648.784	-163.391	0.167	0.008
-647.770	-200.000	0.011	-0.149
-646.755	800.000	-0.085	0.275
-645.741	139.106	-0.032	-0.043
-644.726	-81.369	0.265	-0.088
-643.711	715.331	0.060	-0.162
-642.697	-108.764	-0.295	-0.064
-641.682	93.285	-0.073	0.084
-640.668	-177.152	-0.354	-0.009
-639.653	-167.792	-0.524	-0.021
-638.638	542.362	0.105	-0.252
-637.624	-91.316	0.191	0.055
-636.609	-88.119	0.023	0.007
-635.595	193.409	-0.049	0.075
-634.580	-60.378	-0.211	0.091
-633.565	22.445	0.241	-0.199
-632.551	672.823	0.065	-0.170
-631.536	-200.000	0.159	0.001
-630.522	45.577	0.122	-0.114
-629.507	-60.369	-0.132	0.057
-628.492	800.000	-0.055	0.189
-627.478	-38.638	-0.102	-0.055
-626.463	-95.794	-0.365	-0.098
-625.449	-137.895	-0.230	0.026
-624.434	-200.000	-0.004	-0.088
-623.419	-164.926	0.220	0.010
-622.405	-103.122	0.372	0.089
-621.390	487.275	0.074	-0.170
-620.376	535.322	0.087	-0.208
-619.361	-87.180	-0.160	0.049
-618.346	-167.701	0.198	0.008
-617.332	-153.813	-0.102	-0.007
-616.317	-106.870	-0.076	-0.017
-615.303	120.342	-0.152	-0.190
-614.288	-65.826	0.111	0.045
-613.273	-200.000	-0.024	-0.166
-612.259	-5.746	0.121	0.083
-611.244	-10.615	0.136	0.091
-610.230	-19.555	-0.153	-0.095
-609.215	158.313	0.102	-0.142
-608.201	-200.000	-0.009	-0.058
-607.186	297.345	0.036	-0.066
-606.171	-200.000	0.008	0.107
-605.157	173.641	-0.100	-0.145
-604.142	178.154	0.070	-0.103
-603.128	54.890	0.033	0.032
-602.113	86.174	0.257	-0.285
-601.098	800.000	-0.093	-0.295
-600.084	800.000	-0.138	-0.422
-599.069	136.791	0.114	0.150
-598.055	800.000	0.028	0.116
-597.040	800.000	0.058	0.201
-596.025	295.458	-0.098	-0.182
-595.011	-49.012	0.207	-0.100
-593.996	-10.941	0.165	-0.109
-592.982	-69.234	-0.252	-0.097
-591.967	-172.020	0.069	0.002
-590.952	35.358	-0.214	-0.189
-589.938	-200.000	-0.004	-0.161
-588.923	310.951	-0.168	-0.316
-587.909	118.201	0.177	-0.220
-586.894	-200.000	-0.016	-0.182
-585.879	-140.326	-0.196	-0.021
-584.865	-144.783	-0.174	-0.016
-583.850	23.147	-0.209	-0.172
-582.836	16.372	0.201	-0.160
-581.821	-200.000	0.027	0.155
-580.806	-97.652	-0.070	0.018
-579.792	-66.442	0.142	0.057
-578.777	141.658	0.182	-0.243
-577.763	-200.000	-0.070	-0.337
-576.748	-112.292	-0.363	-0.073
-575.733	75.417	0.061	-0.065
-574.719	106.780	-0.166	0.198
-573.704	-78.790	-0.097	-0.033
-572.690	57.636	0.188	0.185
-571.675	355.825	-0.127	-0.253
-570.661	-63.960	-0.274	-0.113
-569.646	-92.108	0.048	0.014
-568.631	317.037	-0.104	0.198
-567.617	-200.000	-0.001	0.098
-566.602	364.240	-0.060	0.122
-565.588	-124.531	-0.183	0.029
-564.573	-95.014	-0.181	-0.049
-563.558	-160.159	0.332	-0.018
-562.544	-200.000	0.024	0.267
-561.529	-8.709	-0.198	-0.134
-560.515	800.000	-0.059	0.183
-559.500	36.835	0.094	-0.084
-558.485	313.709	-0.064	-0.121
-557.471	78.719	0.181	0.195
-556.456	-13.959	0.266	-0.173
-555.442	87.913	0.173	0.193
-554.427	193.944	0.094	-0.143
-553.412	159.114	-0.129	0.180
-552.398	11.429	-0.349	0.269
-551.383	-103.065	-0.122	-0.029
-550.369	-116.014	0.179	-0.033
-549.354	-103.893	-0.133	-0.031
-548.339	218.820	0.163	-0.261
-547.325	416.712	-0.166	0.357
-546.310	186.923	-0.076	-0.113
-545.296	93.079	0.089	-0.101
-544.281	-78.860	-0.190	0.065
-543.266	-4.606	-0.140	-0.097
-542.252	110.277	-0.083	-0.101
-541.237	226.046	0.143	-0.233
-540.223	-200.000	0.000	0.076
-539.208	-119.436	-0.100	0.017
-538.193	176.372	-0.042	0.062
-537.179	-4.549	0.044	0.031
-536.164	-200.000	0.235	-0.000
-535.150	-94.911	0.274	0.075
-534.135	216.440	0.153	-0.244
-533.121	-200.000	-0.039	0.170
-532.106	229.240	-0.078	0.128
-531.091	57.089	-0.169	-0.165
-530.077	-8.325	0.396	-0.268
-529.062	800.000	-0.144	-0.465
-528.048	-81.310	-0.258	0.085
-527.033	-173.135	0.111	0.003
-526.018	321.477	0.134	-0.255
-525.004	-174.129	-0.410	-0.012
-523.989	68.057	0.069	0.071
-522.975	423.615	-0.103	0.222
-521.960	206.630	-0.123	0.193
-520.945	-26.696	0.086	0.051
-519.931	19.933	0.107	-0.086
-518.916	-200.000	-0.001	0.097
-517.902	195.773	-0.140	0.214
-516.887	-200.000	0.028	0.154
-515.872	-200.000	-0.016	0.164
-514.858	800.000	-0.055	0.210
-513.843	33.356	-0.220	-0.191
-512.829	-114.604	0.057	0.011
-511.814	163.227	-0.046	0.066
-510.799	-57.220	-0.182	0.080
-509.785	-102.656	0.075	-0.018
-508.770	207.491	0.158	-0.248
-507.756	800.000	0.021	-0.069
-506.741	-41.687	0.138	-0.071
-505.726	800.000	-0.002	-0.006
-504.712	-44.896	0.178	0.089
-503.697	64.294	0.052	-0.053
-502.683	-200.000	0.011	-0.080
-501.668	-81.816	-0.177	-0.058
-500.653	-200.000	0.023	-0.237
-499.639	676.822	-0.075	-0.196
-498.624	49.263	-0.105	0.099
-497.610	-2.082	-0.133	0.094
-496.595	-10.310	0.014	-0.010
-495.581	75.388	-0.177	-0.187
-494.566	28.793	-0.254	-0.216
-493.551	-138.490	-0.154	-0.017
-492.537	-125.668	-0.456	0.069
-491.522	-88.990	0.201	0.060
-490.508	-114.753	0.077	0.015
-489.493	95.340	0.029	0.033
-488.478	18.243	0.259	-0.207
-487.464	-89.139	0.184	0.054
-486.449	-124.570	-0.220	0.034
-485.435	612.278	0.081	-0.204
-484.420	749.974	0.067	0.182
-483.405	-97.202	-0.080	-0.021
-482.391	215.022	0.142	0.226
-481.376	72.526	0.048	-0.050
-480.362	-75.071	-0.219	0.079
-479.347	119.687	0.172	-0.213
-478.332	66.800	0.113	-0.116
-477.318	25.240	0.114	0.095
-476.303	120.752	-0.051	0.064
-475.289	-169.559	-0.364	-0.013
-474.274	-71.971	-0.301	-0.112
-473.259	-200.000	0.032	0.206
-472.245	-200.000	-0.020	-0.114
-471.230	200.174	0.066	-0.101
-470.216	-30.623	0.188	0.107
-469.201	106.808	0.155	0.185
-468.186	141.657	-0.222	0.294
-467.172	-65.558	0.237	-0.095
-466.157	-31.765	-0.134	0.075
-465.143	800.000	0.082	-0.259
-464.128	-200.000	-0.009	-0.148
-463.113	800.000	0.019	0.062
-462.099	-200.000	-0.007	0.094
-461.084	30.014	-0.109	0.093
-460.070	-200.000	0.011	0.298
-459.055	-163.294	-0.048	0.002
-458.040	356.727	-0.096	0.192
-457.026	-200.000	0.058	0.398
-456.011	800.000	0.093	0.363
-454.997	15.665	-0.288	0.226
-453.982	-83.237	-0.101	-0.032
-452.968	227.349	-0.091	0.148
-451.953	800.000	-0.073	0.273
-450.938	-200.000	-0.019	0.105
-449.924	11.768	0.090	-0.069
-448.909	-200.000	0.033	-0.177
-447.895	800.000	-0.103	0.345
-446.880	184.747	-0.040	-0.060
-445.865	-63.389	-0.160	-0.066
-444.851	145.317	-0.157	0.210
-443.836	-27.776	-0.283	-0.164
-442.822	-124.590	0.208	0.032
-441.807	-8.212	-0.060	-0.041
-440.792	-200.000	0.043	0.262
-439.778	57.493	-0.235	-0.230
-438.763	61.541	-0.090	-0.090
-437.749	26.992	-0.029	-0.024
-436.734	35.488	0.138	-0.121
-435.719	-68.131	-0.179	0.070
-434.705	-72.519	0.179	-0.066
-433.690	64.003	0.131	-0.132
-432.676	-95.140	-0.389	-0.105
-431.661	18.522	-0.025	0.020
-430.646	-82.346	-0.205	0.067
-429.632	454.847	0.166	0.369
-428.617	501.646	-0.042	-0.097
-427.603	314.847	-0.094	0.176
-426.588	115.912	-0.155	-0.189
-425.573	800.000	0.098	0.306
-424.559	-200.000	0.001	0.321
-423.544	-200.000	-0.020	-0.151
-422.530	1.746	-0.057	-0.041
-421.515	10.923	0.161	-0.123
-420.500	-89.896	0.105	-0.031
-419.486	82.268	0.169	-0.184
-418.471	-166.351	-0.259	-0.011
-417.457	-65.021	0.092	0.037
-416.442	395.906	0.058	0.122
-415.428	-200.000	-0.021	0.118
-414.413	688.981	0.091	0.238
-413.398	-111.093	0.215	-0.044
-412.384	135.081	-0.130	-0.169
-411.369	-117.430	0.344	0.062
-410.355	-200.000	-0.032	0.275
-409.340	-11.832	-0.150	-0.099
-408.325	800.000	0.082	-0.250
-407.311	205.686	0.168	-0.261
-406.296	-200.000	0.021	0.117
-405.282	-86.457	0.223	0.068
-404.267	259.055	0.069	0.118
-403.252	-189.938	0.434	-0.005
-402.238	2.169	-0.220	-0.159
-401.223	-186.176	0.164	0.002
-400.209	-43.927	0.058	-0.029
-399.194	-200.000	-0.024	0.148
-398.179	68.207	-0.311	-0.318
-397.165	800.000	-0.068	-0.243
-396.150	-93.705	0.159	0.044
-395.136	-134.896	0.169	-0.020
-394.121	318.817	-0.150	0.285
-393.106	88.760	-0.097	0.108
-392.092	-182.465	-0.070	0.001
-391.077	-200.000	-0.023	0.312
-390.063	800.000	-0.032	0.131
-389.048	-111.702	-0.335	0.068
-388.033	800.000	0.092	0.362
-387.019	-112.390	0.360	-0.072
-386.004	594.745	0.105	-0.259
-384.990	800.000	-0.043	0.174
-383.975	-200.000	0.380	0.001
-382.960	-10.361	-0.089	-0.059
-381.946	800.000	-0.088	0.323
-380.931	-63.782	-0.125	-0.051
-379.917	94.506	0.125	0.141
-378.902	800.000	-0.041	0.140
-377.888	-160.696	0.203	-0.011
-376.873	-60.282	-0.442	-0.188
-375.858	51.740	0.348	-0.331
-374.844	-89.209	-0.161	-0.047
-373.829	-6.072	0.221	0.151
-372.815	-200.000	-0.058	0.383
-371.800	-21.709	0.262	0.159
-370.785	492.230	0.073	-0.167
-369.771	-192.985	-0.669	-0.006
-368.756	-116.707	0.130	0.024
-367.742	-149.614	0.316	0.025
-366.727	32.583	-0.176	0.152
-365.712	-126.058	0.121	-0.018
-364.698	-119.234	0.184	0.032
-363.683	-96.504	-0.314	0.083
-362.669	20.505	-0.140	0.113
-361.654	7.564	0.108	0.081
-360.639	-200.000	-0.018	0.145
-359.625	800.000	0.045	-0.186
-358.610	-80.657	0.210	0.070
-357.596	-112.167	-0.322	0.065
-356.581	-104.397	-0.080	-0.018
-355.566	727.253	-0.091	-0.241
-354.552	529.667	-0.137	-0.322
-353.537	240.503	0.044	0.073
-352.523	296.961	0.068	-0.125
-351.508	500.472	-0.109	0.251
-350.493	-200.000	-0.031	-0.310
-349.479	-80.547	-0.140	-0.046
-348.464	-200.000	-0.016	-0.333
-347.450	-132.029	-0.201	0.026
-346.435	26.567	0.382	0.319
-345.420	36.710	0.243	0.214
-344.406	-45.326	-0.080	-0.040
-343.391	800.000	-0.048	0.139
-342.377	-200.000	0.046	-0.246
-341.362	210.979	-0.197	-0.309
-340.348	-200.000	0.029	0.392
-339.333	-74.018	0.080	-0.029
-338.318	462.654	0.054	0.119
-337.304	538.155	-0.134	-0.317
-336.289	-9.730	0.220	0.146
-335.275	283.088	0.097	-0.173
-334.260	-147.619	0.076	-0.006
-333.245	-165.158	-0.392	-0.017
-332.231	-30.660	-0.235	0.132
-331.216	104.896	0.170	0.200
-330.202	800.000	0.128	-0.386
-329.187	108.613	0.156	0.186
-328.172	800.000	-0.100	-0.408
-327.158	417.535	0.146	0.311
-326.143	-63.953	-0.336	0.137
-325.129	237.221	0.025	-0.042
-324.114	372.500	-0.113	0.230
-323.099	29.392	-0.303	0.257
-322.085	-31.612	-0.523	-0.293
-321.070	-23.463	-0.179	0.107
-320.056	31.285	-0.263	0.224
-319.041	105.684	0.146	-0.172
-318.026	-200.000	-0.000	0.203
-317.012	63.181	0.222	0.221
-315.997	573.609	-0.160	0.387
-314.983	-28.456	-0.036	0.021
-313.968	-78.913	0.208	-0.071
-312.953	-69.357	0.471	0.180
-311.939	1.940	0.070	-0.051
-310.924	-1.247	-0.002	-0.002
-309.910	-200.000	0.003	-0.386
-308.895	-200.000	-0.002	0.169
-307.880	-158.815	-0.363	-0.021
-306.866	16.452	-0.105	-0.082
-305.851	444.043	-0.147	0.320
-304.837	-26.481	0.426	0.248
-303.822	-39.710	0.189	-0.098
-302.807	-200.000	-0.036	-0.246
-301.793	90.961	-0.173	-0.193
-300.778	-26.778	-0.150	0.087
-299.764	800.000	0.063	-0.266
-298.749	356.139	0.131	0.259
-297.735	-62.516	-0.260	-0.108
-296.720	-28.974	0.186	-0.106
-295.705	800.000	-0.053	0.201
-294.691	240.195	0.159	0.264
-293.676	-200.000	0.007	0.324
-292.662	-5.844	-0.143	0.097
-291.647	251.304	0.086	0.146
-290.632	355.998	0.108	0.215
-289.618	151.430	0.104	-0.141
-288.603	76.591	0.273	-0.287
-287.589	502.667	0.143	-0.329
-286.574	-200.000	0.014	-0.177
-285.559	-160.788	0.127	-0.007
-284.545	775.318	-0.114	-0.310
-283.530	-30.453	0.063	-0.035
-282.516	1.971	-0.155	-0.111
-281.501	-94.194	0.258	-0.070
-280.486	-16.254	0.150	-0.094
-279.472	-200.000	-0.022	0.107
-278.457	800.000	-0.015	0.050
-277.443	224.548	-0.209	-0.336
-276.428	-200.000	0.017	0.190
-275.413	-65.939	0.127	-0.050
-274.399	-128.814	-0.136	-0.019
-273.384	-5.074	0.179	-0.123
-272.370	800.000	0.085	0.259
-271.355	800.000	0.058	-0.187
-270.340	277.455	0.117	-0.207
-269.326	-57.860	-0.188	-0.082
-268.311	22.799	-0.055	0.045
-267.297	488.860	0.114	0.259
-266.282	76.828	-0.241	-0.255
-265.267	-46.430	0.107	0.052
-264.253	71.576	-0.283	0.292
-263.238	754.804	-0.092	-0.248
-262.224	-18.548	0.310	0.192
-261.209	-200.000	-0.009	0.363
-260.195	-200.000	-0.020	0.260
-259.180	61.684	0.117	-0.116
-258.165	-83.774	0.200	-0.063
-257.151	-107.820	0.194	0.042
-256.136	-200.000	0.046	-0.323
-255.122	406.598	0.179	-0.376
-254.107	-88.410	-0.043	-0.013
-253.092	103.239	-0.144	-0.167
-252.078	165.001	0.150	-0.210
-251.063	127.981	-0.074	0.093
-250.049	-57.459	-0.323	0.141
-249.034	126.606	0.178	0.224
-248.019	115.047	-0.075	0.090
-247.005	-200.000	0.009	0.458
-245.990	13.965	0.142	-0.110
-244.976	198.262	-0.073	-0.111
-243.961	92.623	0.080	0.089
-242.946	316.555	-0.070	0.132
-241.932	-113.817	-0.198	-0.038
-240.917	-107.344	-0.207	-0.045
-239.903	13.648	-0.301	0.232
-238.888	-57.534	0.224	0.097
-237.873	800.000	-0.026	0.096
-236.859	6.629	-0.220	-0.163
-235.844	137.576	-0.242	-0.314
-234.830	269.353	-0.208	0.363
-233.815	514.812	-0.088	-0.203
-232.800	-200.000	0.003	-0.111
-231.786	106.065	-0.220	-0.258
-230.771	400.170	-0.040	-0.084
-229.757	-93.992	0.358	-0.098
-228.742	-200.000	-0.018	-0.117
-227.727	111.270	0.094	0.112
-226.713	-200.000	-0.002	-0.079
-225.698	205.413	0.090	-0.138
-224.684	519.324	-0.043	-0.099
-223.669	-62.375	0.281	0.116
-222.655	-200.000	0.042	-0.357
-221.640	778.032	-0.064	0.173
-220.625	-200.000	0.050	-0.384
-219.611	-200.000	-0.071	-0.639
-218.596	101.851	-0.098	-0.114
-217.582	247.461	0.087	0.145
-216.567	800.000	-0.066	-0.229
-215.552	12.296	0.161	0.123
-214.538	-21.154	-0.117	-0.071
-213.523	137.853	-0.177	0.230
-212.509	184.545	-0.015	0.022
-211.494	405.918	0.064	0.134
-210.479	432.895	0.082	-0.176
-209.465	130.445	0.083	0.106
-208.450	-200.000	0.053	0.518
-207.436	40.844	0.171	0.153
-206.421	800.000	0.113	0.466
-205.406	800.000	-0.060	-0.250
-204.392	78.281	0.116	0.122
-203.377	-200.000	0.011	-0.294
-202.363	-200.000	0.021	0.181
-201.348	292.985	0.105	-0.191
-200.333	-200.000	0.031	0.227
-199.319	-200.000	-0.018	-0.204
-198.304	155.469	0.182	0.249
-197.290	193.219	-0.150	-0.225
-196.275	50.846	0.086	0.081
-195.260	118.508	0.056	0.069
-194.246	321.653	-0.033	0.063
-193.231	267.966	0.068	0.118
-192.217	-36.470	0.189	-0.101
-191.202	234.035	-0.095	0.155
-190.187	-200.000	-0.036	-0.159
-189.173	-55.561	0.318	0.141
-188.158	-112.631	0.132	-0.026
-187.144	619.009	0.116	0.289
-186.129	-19.604	0.287	-0.176
-185.114	-157.964	0.581	0.034
-184.100	-86.520	0.155	0.047
-183.085	-200.000	0.014	0.099
-182.071	-170.156	0.085	0.003
-181.056	305.644	-0.131	-0.241
-180.042	800.000	-0.094	0.323
-179.027	151.733	-0.215	-0.290
-178.012	242.080	0.136	-0.226
-176.998	110.084	0.180	0.214
-175.983	-200.000	0.003	0.227
-174.969	132.156	-0.113	0.144
-173.954	773.691	-0.123	0.333
-172.939	69.614	0.166	-0.170
-171.925	-43.224	0.130	-0.065
-170.910	800.000	0.119	-0.369
-169.896	800.000	-0.051	0.216
-168.881	527.939	0.120	0.279
-167.866	800.000	0.024	-0.084
-166.852	713.525	0.140	-0.367
-165.837	-135.943	0.268	0.031
-164.823	-109.562	-0.281	0.059
-163.808	800.000	0.063	0.178
-162.793	-87.989	-0.160	0.048
-161.779	-200.000	0.380	-0.001
-160.764	94.913	0.150	0.169
-159.750	294.171	-0.203	-0.367
-158.735	259.011	0.122	-0.208
-157.720	-200.000	-0.027	0.252
-156.706	326.726	0.066	0.125
-155.691	-200.000	-0.027	-0.248
-154.677	-200.000	-0.064	0.297
-153.662	119.855	0.179	0.220
-152.647	-103.042	0.240	0.056
-151.633	6.166	-0.106	-0.078
-150.618	5.940	0.119	0.087
-149.604	-110.353	-0.183	0.038
-148.589	800.000	-0.124	-0.388
-147.574	-200.000	0.032	-0.172
-146.560	68.228	-0.252	-0.255
-145.545	-46.296	0.311	0.151
-144.531	670.389	0.127	0.325
-143.516	34.617	-0.099	-0.086
-142.502	264.414	-0.042	-0.072
-141.487	412.411	-0.226	-0.474
-140.472	800.000	-0.056	-0.212
-139.458	217.345	-0.141	0.223
-138.443	23.250	0.120	0.098
-137.429	-95.227	0.185	-0.049
-136.414	-200.000	0.005	-0.302
-135.399	395.494	-0.123	-0.254
-134.385	-200.000	0.046	-0.223
-133.370	191.746	-0.074	0.111
-132.356	-200.000	-0.008	-0.059
-131.341	800.000	-0.013	0.049
-130.326	-73.735	0.287	0.103
-129.312	246.999	0.158	0.263
-128.297	-90.788	0.246	-0.070
-127.283	-87.362	-0.190	0.057
-126.268	216.679	0.131	0.205
-125.253	41.895	-0.285	-0.255
-124.239	32.509	-0.099	-0.085
-123.224	138.375	0.071	0.093
-122.210	-200.000	0.070	-0.384
-121.195	247.920	0.154	0.258
