DTS Sentinel unit serial number:	SN413079Multiplexer serial number:	ORYXHardware model number:	OX4-SRSoftware version number:	ORYX F/W v4.00 Oryx Data Collector v3.7.2.0data status	okinstallation	princeton_trtdifferential loss correction	single-endedforward channel	channel 2reverse channel	N/Adate	2019/09/16time	01:35:35forward acquisition time	60.00reverse acquisition time	0.00gamma	496.2192k internal	0.2336k external	0.2336temperature offset calibration	0.9966default loss term (dB/km)	0.3790temperature slope calibration	1.0000multiplexer offset coefficient	1.0000multiplexer slope coefficient	1.0000fibre end	0.00T internal ref (°C)	27.31T ext. ref 1 (°C)	9.95T ext. ref 2 (°C)	22.17length (m)	temperature (°C)	Stokes	anti-Stokes-747.200	234.693	0.229	0.380
-746.185	-74.379	-0.083	0.030
-745.171	-35.406	-0.045	0.024
-744.156	227.010	-0.129	0.211
-743.142	342.014	0.095	-0.187
-742.127	465.301	-0.113	0.255
-741.112	451.795	-0.094	0.210
-740.098	270.545	0.093	0.164
-739.083	-113.986	0.127	0.025
-738.069	492.447	-0.215	0.494
-737.054	800.000	-0.057	0.190
-736.039	68.789	-0.105	0.108
-735.025	-121.047	0.230	0.039
-734.010	677.797	-0.084	-0.219
-732.996	110.393	-0.123	-0.148
-731.981	50.809	0.104	-0.099
-730.966	20.658	-0.024	-0.019
-729.952	-37.297	-0.085	-0.046
-728.937	257.257	-0.192	-0.331
-727.923	-20.970	-0.152	-0.093
-726.908	191.276	-0.167	0.253
-725.894	-200.000	0.038	-0.405
-724.879	-69.855	-0.078	-0.030
-723.864	-110.404	-0.188	0.039
-722.850	-111.785	-0.057	-0.012
-721.835	432.977	0.055	-0.119
-720.821	800.000	0.060	0.244
-719.806	737.306	0.078	-0.209
-718.791	3.648	0.256	-0.187
-717.777	18.225	-0.356	0.285
-716.762	93.365	-0.235	0.267
-715.748	-2.873	-0.168	0.118
-714.733	-200.000	-0.004	-0.358
-713.718	-200.000	-0.034	0.266
-712.704	639.406	0.028	0.072
-711.689	-108.973	-0.059	-0.013
-710.675	-122.603	-0.183	0.030
-709.660	-200.000	0.034	-0.356
-708.645	29.245	-0.259	-0.220
-707.631	303.869	-0.091	0.169
-706.616	-200.000	0.001	0.078
-705.602	-106.512	-0.455	0.102
-704.587	-7.486	0.232	0.158
-703.572	260.767	-0.157	-0.273
-702.558	800.000	0.035	0.120
-701.543	-34.439	-0.240	-0.132
-700.529	128.854	0.126	0.161
-699.514	-52.362	0.290	0.135
-698.499	-40.385	-0.246	0.128
-697.485	124.688	0.098	-0.123
-696.470	321.664	-0.074	0.142
-695.456	-200.000	0.009	0.091
-694.441	-42.891	0.245	0.125
-693.426	-200.000	0.108	0.523
-692.412	800.000	0.092	0.376
-691.397	80.601	0.062	-0.067
-690.383	-137.940	0.159	0.018
-689.368	-200.000	-0.040	0.244
-688.354	-3.288	0.159	-0.111
-687.339	85.393	0.164	-0.180
-686.324	248.243	-0.182	-0.308
-685.310	42.039	0.195	-0.178
-684.295	183.952	-0.094	-0.139
-683.281	143.764	-0.026	-0.034
-682.266	-114.079	0.218	0.042
-681.251	-110.998	0.227	-0.047
-680.237	6.807	-0.180	-0.134
-679.222	732.685	0.075	-0.200
-678.208	75.748	0.327	-0.346
-677.193	0.968	-0.357	0.256
-676.178	-141.737	-0.341	0.034
-675.164	37.529	0.199	-0.177
-674.149	-91.063	-0.067	0.019
-673.135	-126.961	-0.046	-0.007
-672.120	247.744	-0.108	0.182
-671.105	223.169	-0.076	-0.122
-670.091	-200.000	0.007	0.302
-669.076	453.379	-0.188	-0.418
-668.062	-151.554	-0.276	-0.020
-667.047	-120.298	-0.148	-0.025
-666.032	31.514	0.248	-0.213
-665.018	-200.000	-0.052	-0.316
-664.003	-200.000	0.001	-0.075
-662.989	-65.078	0.202	-0.082
-661.974	-46.110	-0.428	-0.211
-660.959	-56.098	0.237	-0.106
-659.945	-200.000	-0.007	0.111
-658.930	-200.000	-0.072	-0.493
-657.916	-189.564	-0.483	-0.006
-656.901	800.000	0.019	0.065
-655.886	148.790	-0.039	-0.053
-654.872	101.164	0.267	-0.311
-653.857	800.000	-0.032	-0.105
-652.843	-144.142	0.278	0.026
-651.828	-140.648	-0.101	0.010
-650.814	-200.000	0.043	-0.297
-649.799	-71.345	-0.191	-0.071
-648.784	37.660	0.212	0.189
-647.770	506.516	-0.050	0.116
-646.755	681.006	0.142	0.371
-645.741	-200.000	-0.032	0.240
-644.726	-4.137	-0.068	-0.047
-643.711	22.377	0.101	-0.083
-642.697	325.363	-0.167	0.320
-641.682	-10.111	0.293	-0.195
-640.668	-200.000	-0.005	0.091
-639.653	800.000	-0.082	-0.235
-638.638	64.174	0.079	-0.080
-637.624	283.260	-0.173	0.310
-636.609	-138.893	0.116	-0.013
-635.595	-148.062	-0.031	0.003
-634.580	-25.577	0.395	-0.233
-633.565	42.490	0.105	-0.096
-632.551	-39.930	-0.185	0.096
-631.536	-200.000	-0.072	-0.415
-630.522	-200.000	-0.036	-0.242
-629.507	-91.138	-0.176	-0.050
-628.492	800.000	-0.051	0.201
-627.478	800.000	0.121	0.364
-626.463	-35.382	0.143	-0.078
-625.449	800.000	-0.111	0.314
-624.434	-113.762	-0.172	0.033
-623.419	51.896	0.065	-0.062
-622.405	-9.026	-0.084	-0.056
-621.390	-101.675	0.049	0.012
-620.376	-94.583	-0.239	0.065
-619.361	800.000	0.055	-0.168
-618.346	800.000	0.037	0.120
-617.332	-148.354	-0.273	0.022
-616.317	-151.730	-0.126	0.009
-615.303	800.000	-0.091	-0.266
-614.288	37.570	0.093	0.083
-613.273	237.962	0.219	-0.364
-612.259	-200.000	-0.030	0.207
-611.244	221.473	-0.155	-0.249
-610.230	24.697	-0.113	-0.093
-609.215	-200.000	-0.002	-0.225
-608.201	-123.357	0.074	-0.012
-607.186	-1.507	0.284	-0.200
-606.171	326.650	0.141	-0.270
-605.157	185.593	-0.101	0.149
-604.142	-87.783	-0.586	-0.176
-603.128	618.667	0.092	-0.232
-602.113	-114.566	-0.161	-0.031
-601.098	-155.731	0.260	0.017
-600.084	535.102	0.121	-0.287
-599.069	225.196	-0.120	-0.194
-598.055	800.000	0.030	-0.106
-597.040	239.090	0.043	0.071
-596.025	437.292	0.139	-0.302
-595.011	-39.056	-0.240	-0.126
-593.996	185.723	0.231	-0.343
-592.982	-116.874	-0.171	0.031
-591.967	20.421	0.109	-0.088
-590.952	-57.286	-0.172	0.076
-589.938	-200.000	-0.020	0.229
-588.923	-40.289	-0.056	-0.029
-587.909	-145.048	-0.016	0.001
-586.894	-169.283	0.343	0.013
-585.879	463.800	-0.122	0.273
-584.865	-13.948	0.038	-0.024
-583.850	-159.166	-0.307	-0.017
-582.836	-200.000	0.027	-0.125
-581.821	-39.721	0.044	-0.023
-580.806	284.477	-0.088	0.158
-579.792	-83.450	0.317	0.101
-578.777	-85.458	0.257	0.080
-577.763	-37.426	-0.228	0.122
-576.748	-13.587	0.117	-0.076
-575.733	-44.929	0.352	0.175
-574.719	-118.936	-0.194	-0.034
-573.704	800.000	0.054	-0.177
-572.690	-103.746	-0.203	0.047
-571.675	158.638	0.183	0.253
-570.661	-104.411	-0.048	0.011
-569.646	-200.000	0.038	-0.352
-568.631	255.985	-0.113	-0.193
-567.617	-66.583	-0.164	0.065
-566.602	-170.069	-0.271	-0.010
-565.588	93.122	0.119	-0.135
-564.573	202.257	-0.082	-0.127
-563.558	-128.031	-0.516	0.074
-562.544	-200.000	0.042	-0.471
-561.529	-200.000	0.021	0.215
-560.515	-89.378	0.358	0.105
-559.500	-169.671	0.108	-0.004
-558.485	128.932	-0.092	0.117
-557.471	800.000	0.039	-0.158
-556.456	5.294	-0.130	-0.096
-555.442	-50.394	0.149	0.070
-554.427	123.216	0.161	0.201
-553.412	-133.299	-0.051	-0.006
-552.398	-200.000	0.046	-0.483
-551.383	8.555	0.182	0.137
-550.369	-200.000	-0.020	-0.141
-549.354	-118.913	-0.404	-0.071
-548.339	-57.922	0.120	-0.052
-547.325	-98.652	-0.093	-0.024
-546.310	148.669	-0.172	-0.232
-545.296	-200.000	0.019	-0.122
-544.281	-189.484	0.451	0.005
-543.266	-125.033	-0.180	-0.028
-542.252	-77.506	-0.210	0.073
-541.237	-81.055	0.312	0.103
-540.223	-200.000	-0.036	-0.493
-539.208	-200.000	0.000	0.012
-538.193	-13.236	0.150	0.097
-537.179	252.643	-0.060	0.102
-536.164	14.791	-0.222	0.173
-535.150	-200.000	0.029	0.180
-534.135	-75.131	-0.393	0.140
-533.121	289.562	0.073	-0.132
-532.106	-200.000	0.011	0.092
-531.091	-132.615	-0.249	-0.032
-530.077	425.601	0.111	-0.239
-529.062	-76.140	-0.161	-0.057
-528.048	62.603	-0.221	-0.220
-527.033	-200.000	0.005	-0.202
-526.018	171.563	0.144	-0.206
-525.004	-100.802	-0.426	-0.104
-523.989	94.681	-0.127	0.144
-522.975	118.167	-0.227	-0.278
-521.960	-3.587	0.220	-0.152
-520.945	-82.851	-0.343	0.110
-519.931	133.503	-0.193	0.249
-518.916	285.462	0.136	-0.243
-517.902	186.589	0.179	-0.265
-516.887	379.411	-0.059	-0.120
-515.872	-93.958	-0.218	0.060
-514.858	-63.214	0.148	-0.061
-513.843	800.000	0.077	-0.233
-512.829	-65.298	0.364	-0.146
-511.814	149.148	0.067	0.090
-510.799	-200.000	-0.020	0.234
-509.785	228.590	-0.350	-0.567
-508.770	278.867	-0.107	-0.190
-507.756	129.325	-0.102	-0.129
-506.741	218.231	0.067	0.106
-505.726	31.004	-0.162	-0.138
-504.712	-200.000	0.014	0.139
-503.697	-28.324	0.117	0.067
-502.683	800.000	-0.094	-0.266
-501.668	49.943	0.313	-0.293
-500.653	229.590	-0.125	-0.202
-499.639	-200.000	0.005	0.123
-498.624	22.743	-0.110	0.090
-497.610	800.000	-0.042	0.154
-496.595	800.000	0.059	-0.221
-495.581	142.456	0.130	0.172
-494.566	-88.509	-0.185	0.055
-493.551	179.461	0.151	0.220
-492.537	-200.000	-0.000	0.047
-491.522	-84.971	0.210	0.065
-490.508	-92.725	-0.213	-0.059
-489.493	-200.000	0.024	-0.179
-488.478	-200.000	-0.019	-0.269
-487.464	266.350	-0.161	-0.279
-486.449	103.966	0.309	-0.362
-485.435	-49.759	-0.351	0.166
-484.420	83.022	-0.079	0.086
-483.405	175.737	-0.071	0.102
-482.391	319.291	-0.192	0.362
-481.376	-138.553	-0.322	-0.035
-480.362	-200.000	-0.000	-0.055
-479.347	567.247	0.147	-0.353
-478.332	800.000	-0.108	-0.347
-477.318	-126.739	0.238	-0.035
-476.303	705.691	-0.080	0.210
-475.289	-28.465	0.205	0.117
-474.274	-141.814	0.336	0.033
-473.259	336.356	0.147	0.284
-472.245	-154.269	-0.193	-0.013
-471.230	46.656	0.163	-0.150
-470.216	-45.550	0.195	-0.096
-469.201	349.886	-0.148	-0.290
-468.186	8.032	-0.154	-0.115
-467.172	800.000	-0.044	-0.146
-466.157	-200.000	0.055	-0.249
-465.143	51.990	-0.076	0.072
-464.128	248.950	0.073	0.123
-463.113	81.276	0.100	0.107
-462.099	-120.372	0.040	0.007
-461.084	250.264	-0.074	0.124
-460.070	18.201	-0.039	0.031
-459.055	-20.983	-0.150	-0.091
-458.040	94.902	-0.081	-0.092
-457.026	497.604	0.062	-0.141
-456.011	553.012	-0.054	0.129
-454.997	-0.610	0.131	0.092
-453.982	199.887	0.326	0.497
-452.968	-200.000	0.027	-0.238
-451.953	-139.419	-0.232	0.025
-450.938	113.237	0.082	-0.099
-449.924	-122.798	-0.297	-0.048
-448.909	-161.091	-0.306	0.016
-447.895	-200.000	0.060	-0.272
-446.880	473.949	0.064	0.144
-445.865	316.073	-0.021	-0.039
-444.851	263.125	0.146	0.252
-443.836	438.231	0.090	0.195
-442.822	-8.242	-0.085	-0.056
-441.807	402.681	-0.037	0.077
-440.792	-20.352	-0.178	-0.109
-439.778	-7.565	0.389	-0.261
-438.763	800.000	-0.014	0.042
-437.749	800.000	-0.040	-0.170
-436.734	-47.718	0.186	-0.090
-435.719	104.453	0.134	-0.157
-434.705	-4.336	-0.114	-0.079
-433.690	195.436	-0.115	-0.174
-432.676	-66.280	0.108	0.042
-431.661	-200.000	0.009	-0.133
-430.646	-134.101	0.188	0.023
-429.632	-14.573	-0.181	-0.116
-428.617	-200.000	0.065	-0.409
-427.603	-115.460	0.076	0.014
-426.588	776.984	0.064	0.172
-425.573	-23.376	-0.322	0.192
-424.559	96.226	-0.296	-0.335
-423.544	112.624	0.100	0.121
-422.530	-200.000	-0.006	-0.048
-421.515	-200.000	0.001	-0.029
-420.500	145.647	0.100	-0.132
-419.486	126.490	-0.135	0.169
-418.471	-200.000	0.002	0.346
-417.457	156.816	0.098	-0.134
-416.442	-31.718	-0.148	-0.083
-415.428	-62.714	0.243	0.100
-414.413	638.188	0.016	0.041
-413.398	767.581	-0.063	-0.171
-412.384	800.000	-0.041	-0.148
-411.369	-200.000	-0.036	-0.191
-410.355	-50.926	-0.167	-0.078
-409.340	-200.000	-0.004	-0.158
-408.325	-84.183	0.238	-0.075
-407.311	217.239	0.072	0.114
-406.296	207.442	0.140	-0.217
-405.282	128.352	0.143	-0.181
-404.267	194.269	0.188	-0.283
-403.252	-161.463	-0.344	-0.018
-402.238	-83.186	-0.052	-0.017
-401.223	-152.064	-0.209	0.015
-400.209	-115.032	0.090	0.017
-399.194	-31.777	0.277	0.154
-398.179	308.536	-0.073	-0.135
-397.165	212.091	-0.206	0.321
-396.150	17.083	0.164	0.129
-395.136	-200.000	0.028	0.164
-394.121	608.581	-0.062	0.153
-393.106	387.854	-0.234	0.480
-392.092	-2.388	-0.024	-0.017
-391.077	482.256	0.155	0.350
-390.063	238.249	0.061	0.100
-389.048	113.611	0.076	-0.092
-388.033	-126.701	0.458	0.067
-387.019	369.436	-0.153	0.307
-386.004	-163.757	0.055	0.003
-384.990	42.105	0.291	-0.262
-383.975	-53.395	-0.057	0.026
-382.960	48.530	-0.390	0.362
-381.946	-94.536	0.297	-0.080
-380.931	-68.368	0.219	0.084
-379.917	37.059	-0.112	-0.098
-378.902	18.104	0.221	-0.174
-377.888	-58.295	-0.103	-0.044
-376.873	-66.173	-0.085	0.033
-375.858	1.961	0.111	0.079
-374.844	228.727	-0.057	0.092
-373.829	298.544	-0.039	0.070
-372.815	211.671	0.201	0.313
-371.800	8.507	0.167	-0.125
-370.785	-59.688	0.183	-0.078
-369.771	-200.000	0.001	-0.296
-368.756	-130.708	-0.255	0.034
-367.742	-81.842	-0.324	0.105
-366.727	375.434	0.102	0.205
-365.712	-99.755	-0.203	-0.050
-364.698	-48.935	0.029	-0.014
-363.683	-80.839	0.172	0.056
-362.669	100.722	-0.032	-0.037
-361.654	157.364	-0.161	-0.220
-360.639	-189.548	0.121	-0.001
-359.625	-119.288	-0.161	-0.028
-358.610	800.000	-0.053	-0.149
-357.596	800.000	0.073	0.254
-356.581	-119.184	0.198	0.034
-355.566	73.862	-0.141	0.147
-354.552	-36.959	-0.167	-0.088
-353.537	-141.212	0.312	-0.031
-352.523	-96.065	-0.036	0.009
-351.508	-182.919	0.303	0.005
-350.493	-200.000	-0.014	-0.163
-349.479	-200.000	0.005	-0.230
-348.464	-82.954	0.119	-0.038
-347.450	-197.894	-0.219	-0.001
-346.435	-21.545	0.247	-0.149
-345.420	-85.438	-0.151	0.046
-344.406	170.066	0.089	0.126
-343.391	58.702	0.173	0.168
-342.377	-99.799	-0.023	-0.006
-341.362	-54.823	-0.433	0.193
-340.348	142.681	-0.025	-0.033
-339.333	-15.819	0.152	-0.096
-338.318	41.187	0.185	0.165
-337.304	236.997	-0.166	-0.272
-336.289	-34.105	-0.008	-0.004
-335.275	-200.000	0.140	-0.001
-334.260	800.000	-0.038	0.135
-333.245	-147.388	-0.129	-0.011
-332.231	147.250	-0.115	-0.153
-331.216	-53.791	0.213	0.096
-330.202	750.469	-0.036	0.095
-329.187	-123.162	-0.431	0.068
-328.172	53.840	0.211	-0.201
-327.158	31.036	-0.217	0.184
-326.143	-108.689	-0.338	-0.072
-325.129	-90.309	0.078	-0.023
-324.114	18.846	0.060	-0.048
-323.099	-200.000	-0.002	0.454
-322.085	9.755	0.090	-0.068
-321.070	800.000	-0.027	0.101
-320.056	-200.000	-0.054	0.304
-319.041	-47.576	0.245	-0.117
-318.026	309.803	-0.108	-0.200
-317.012	-90.860	0.274	-0.078
-315.997	-87.310	0.221	-0.066
-314.983	75.434	0.339	0.353
-313.968	593.471	0.048	0.117
-312.953	31.552	0.402	0.341
-311.939	-175.444	-0.453	-0.012
-310.924	-2.757	0.058	0.040
-309.910	-151.487	0.135	0.010
-308.895	-200.000	0.006	0.268
-307.880	-22.427	-0.222	-0.133
-306.866	-0.435	0.182	0.128
-305.851	-103.278	-0.263	0.061
-304.837	-200.000	0.004	0.421
-303.822	151.449	0.080	0.107
-302.807	-137.218	0.110	0.012
-301.793	-50.618	-0.101	0.047
-300.778	-200.000	-0.038	0.176
-299.764	-92.709	0.385	-0.107
-298.749	55.294	-0.214	0.204
-297.735	12.128	-0.085	0.065
-296.720	-57.505	0.347	-0.150
-295.705	-177.341	-0.077	0.002
-294.691	-200.000	0.044	0.391
-293.676	-81.303	-0.526	0.171
-292.662	216.476	-0.067	0.106
-291.647	10.508	-0.170	0.128
-290.632	22.362	-0.143	-0.115
-289.618	-28.484	-0.246	-0.140
-288.603	-171.215	-0.313	0.010
-287.589	-144.070	0.230	-0.021
-286.574	-12.743	-0.042	0.027
-285.559	360.662	0.135	-0.266
-284.545	384.154	-0.130	0.264
-283.530	-121.004	0.091	-0.015
-282.516	56.327	0.211	-0.202
-281.501	0.315	0.125	0.088
-280.486	-143.221	0.022	-0.002
-279.472	800.000	-0.075	-0.217
-278.457	29.324	0.013	0.011
-277.443	-200.000	-0.006	0.037
-276.428	308.626	0.072	0.132
-275.413	156.168	0.114	0.155
-274.399	-102.741	-0.132	0.031
-273.384	-200.000	-0.034	0.278
-272.370	-200.000	0.018	0.176
-271.355	-53.117	-0.178	-0.081
-270.340	361.559	-0.135	0.267
-269.326	-80.819	0.146	0.048
-268.311	-200.000	-0.006	0.368
-267.297	-200.000	0.046	-0.208
-266.282	-200.000	0.017	0.218
-265.267	-200.000	0.010	-0.204
-264.253	-172.659	-0.063	0.002
-263.238	651.156	0.070	0.176
-262.224	714.302	-0.153	-0.399
-261.209	-171.403	0.373	0.012
-260.195	-28.359	-0.111	-0.063
-259.180	-119.240	0.212	0.036
-258.165	-126.857	-0.194	0.028
-257.151	800.000	0.080	0.251
-256.136	-30.485	-0.135	0.075
-255.122	-96.581	0.214	-0.056
-254.107	-137.261	-0.219	-0.025
-253.092	-169.196	-0.194	0.007
-252.078	-200.000	-0.020	-0.117
-251.063	43.310	-0.186	-0.167
-250.049	-115.378	-0.094	0.017
-249.034	-104.992	0.153	0.034
-248.019	124.759	0.063	0.078
-247.005	-169.024	0.112	0.004
-245.990	16.416	-0.036	0.028
-244.976	800.000	0.126	0.526
-243.961	573.029	-0.115	0.277
-242.946	800.000	0.069	-0.231
-241.932	-200.000	-0.068	0.316
-240.917	-131.151	0.334	-0.044
-239.903	70.173	0.132	-0.134
-238.888	61.586	0.263	0.258
-237.873	-4.447	0.266	-0.181
-236.859	68.357	-0.147	0.148
-235.844	-200.000	0.009	0.077
-234.830	-200.000	-0.010	-0.096
-233.815	-200.000	-0.040	0.243
-232.800	-118.053	-0.125	0.022
-231.786	-9.705	0.231	0.151
-230.771	-32.870	-0.222	0.122
-229.757	-34.763	-0.150	-0.081
-228.742	320.181	0.108	0.203
-227.727	-69.268	0.089	-0.033
-226.713	-200.000	-0.005	0.043
-225.698	19.583	-0.363	0.287
-224.684	-151.293	0.073	-0.005
-223.669	377.543	-0.202	-0.407
-222.655	-31.134	-0.165	-0.091
-221.640	-57.168	-0.349	-0.151
-220.625	800.000	-0.120	-0.491
-219.611	-118.251	-0.195	-0.034
-218.596	-31.956	-0.080	-0.044
-217.582	-30.541	0.141	0.079
-216.567	-28.096	0.237	0.135
-215.552	-157.175	0.030	0.002
-214.538	800.000	0.024	0.089
-213.523	800.000	-0.083	-0.275
-212.509	-200.000	-0.029	-0.131
-211.494	-142.312	0.161	-0.016
-210.479	-54.732	0.313	-0.139
-209.465	23.411	0.081	0.066
-208.450	-54.119	-0.408	-0.183
-207.436	-130.624	0.106	-0.014
-206.421	279.579	0.101	0.178
-205.406	378.867	0.073	0.147
-204.392	-96.652	0.221	-0.057
-203.377	-200.000	-0.042	0.408
-202.363	580.043	0.028	-0.068
-201.348	-200.000	-0.003	0.425
-200.333	-118.376	0.142	0.025
-199.319	170.411	0.131	0.184
-198.304	-200.000	-0.014	0.062
-197.290	72.041	0.251	-0.257
-196.275	62.781	0.108	0.106
-195.260	420.500	-0.031	0.066
-194.246	-200.000	-0.008	0.196
-193.231	-109.628	-0.323	0.067
-192.217	-95.413	0.243	-0.064
-191.202	800.000	0.053	0.176
-190.187	-60.466	-0.055	-0.023
-189.173	-80.875	0.267	-0.087
-188.158	-200.000	0.005	0.159
-187.144	-121.713	-0.039	0.006
-186.129	800.000	-0.146	0.489
-185.114	141.542	0.083	0.108
-184.100	211.430	-0.096	-0.149
-183.085	800.000	-0.006	-0.024
-182.071	63.691	0.215	-0.212
-181.056	407.693	-0.047	0.098
-180.042	531.613	-0.063	-0.147
-179.027	-43.658	-0.253	-0.125
-178.012	791.436	0.021	-0.058
-176.998	75.017	-0.052	0.054
-175.983	507.830	-0.163	0.371
-174.969	34.255	0.211	-0.181
-173.954	-152.902	0.116	-0.008
-172.939	-166.835	-0.115	0.005
-171.925	800.000	0.031	-0.094
-170.910	-200.000	-0.086	0.380
-169.896	60.183	0.434	0.421
-168.881	800.000	0.035	0.103
-167.866	-200.000	0.010	-0.133
-166.852	-85.320	0.366	0.112
-165.837	-77.332	0.182	-0.062
-164.823	-61.161	-0.253	0.105
-163.808	29.625	-0.259	0.216
-162.793	143.975	0.181	0.236
-161.779	695.884	0.062	-0.159
-160.764	-170.851	-0.153	-0.005
-159.750	-38.784	-0.075	-0.039
-158.735	-105.527	0.302	-0.067
-157.720	-40.361	-0.406	-0.207
-156.706	-47.540	0.094	-0.045
-155.691	1.290	-0.043	-0.030
-154.677	-200.000	-0.042	0.182
-153.662	112.243	-0.109	0.129
-152.647	-146.445	0.179	0.015
-151.633	12.210	0.330	-0.249
-150.618	-9.192	-0.165	-0.108
-149.604	-200.000	-0.012	0.067
-148.589	-62.025	0.314	-0.129
-147.574	504.969	-0.050	0.114
-146.560	800.000	0.048	-0.199
-145.545	800.000	0.103	0.420
-144.531	168.683	0.226	0.316
-143.516	-80.138	0.093	-0.030
-142.502	-35.531	0.399	0.212
-141.487	-108.130	0.102	-0.022
-140.472	-200.000	-0.009	0.041
-139.458	164.748	-0.126	-0.174
-138.443	-20.976	0.371	-0.223
-137.429	-48.024	0.173	0.082
-136.414	26.100	0.189	0.155
-135.399	183.160	-0.077	0.111
-134.385	157.473	-0.183	0.248
-133.370	-160.654	-0.336	-0.018
-132.356	67.872	0.250	0.251
-131.341	-200.000	-0.027	-0.141
-130.326	51.471	0.137	-0.127
-129.312	68.367	0.056	0.056
-128.297	308.945	0.056	-0.102
-127.283	-13.073	-0.311	0.198
-126.268	72.388	0.264	0.269
-125.253	-200.000	0.007	-0.149
-124.239	-74.943	0.254	-0.089
-123.224	-200.000	0.045	-0.526
-122.210	-72.468	-0.126	0.046
