DTS Sentinel unit serial number:	SN413079Multiplexer serial number:	ORYXHardware model number:	OX4-SRSoftware version number:	ORYX F/W v4.00 Oryx Data Collector v3.7.2.0data status	okinstallation	princeton_trtdifferential loss correction	single-endedforward channel	channel 2reverse channel	N/Adate	2019/09/16time	09:15:35forward acquisition time	60.00reverse acquisition time	0.00gamma	496.2192k internal	0.2325k external	0.2325temperature offset calibration	0.9974default loss term (dB/km)	0.3790temperature slope calibration	1.0000multiplexer offset coefficient	1.0000multiplexer slope coefficient	1.0000fibre end	0.00T internal ref (°C)	31.12T ext. ref 1 (°C)	12.13T ext. ref 2 (°C)	28.52length (m)	temperature (°C)	Stokes	anti-Stokes-747.200	400.722	0.109	-0.230
-746.185	150.962	0.078	-0.107
-745.171	25.400	-0.088	-0.074
-744.156	-200.000	0.029	0.300
-743.142	73.932	0.268	0.284
-742.127	-200.000	0.044	0.272
-741.112	777.774	-0.017	-0.048
-740.098	25.009	-0.033	-0.028
-739.083	-42.259	0.232	-0.120
-738.069	-164.710	0.227	0.010
-737.054	248.921	0.087	0.148
-736.039	-112.758	-0.416	0.083
-735.025	39.331	0.401	0.362
-734.010	-51.094	-0.222	0.105
-732.996	-109.261	-0.199	0.042
-731.981	61.647	0.061	0.061
-730.966	-26.919	-0.129	-0.076
-729.952	141.333	0.182	0.243
-728.937	91.643	0.036	0.041
-727.923	66.646	0.207	-0.212
-726.908	375.072	-0.123	0.252
-725.894	137.256	-0.154	-0.203
-724.879	-22.020	0.181	-0.111
-723.864	-150.402	-0.090	-0.007
-722.850	-117.450	-0.281	0.051
-721.835	260.023	-0.130	0.227
-720.821	-200.000	-0.007	-0.192
-719.806	-200.000	-0.014	-0.397
-718.791	20.495	-0.213	0.174
-717.777	-88.705	0.136	-0.041
-716.762	-200.000	0.014	0.102
-715.748	49.028	-0.124	-0.118
-714.733	-60.679	0.475	0.203
-713.718	656.614	0.170	0.441
-712.704	-114.124	-0.369	-0.072
-711.689	-87.836	0.071	-0.022
-710.675	89.277	0.089	-0.100
-709.660	11.300	-0.246	0.190
-708.645	-200.000	-0.007	-0.042
-707.631	-98.185	0.178	-0.046
-706.616	-47.080	0.294	0.145
-705.602	800.000	0.048	-0.207
-704.587	75.376	0.129	-0.137
-703.572	-94.046	0.083	-0.023
-702.558	-65.714	-0.162	-0.065
-701.543	-28.312	-0.148	0.086
-700.529	-107.460	-0.387	0.086
-699.514	-173.097	-0.228	0.007
-698.499	209.105	-0.100	-0.158
-697.485	-182.425	-0.465	-0.009
-696.470	1.158	-0.270	-0.195
-695.456	623.959	-0.211	0.535
-694.441	800.000	0.078	0.250
-693.426	-36.834	-0.264	0.143
-692.412	37.974	-0.155	0.138
-691.397	110.455	0.049	-0.059
-690.383	58.919	0.292	0.289
-689.368	539.442	-0.059	0.142
-688.354	23.464	-0.065	-0.053
-687.339	-113.248	-0.212	-0.042
-686.324	151.586	-0.285	-0.391
-685.310	500.874	-0.129	-0.301
-684.295	-120.092	-0.169	0.029
-683.281	40.872	0.257	-0.234
-682.266	-200.000	-0.073	-0.347
-681.251	51.594	0.124	-0.118
-680.237	800.000	0.034	0.106
-679.222	136.388	-0.056	-0.074
-678.208	-155.302	-0.391	0.026
-677.193	-200.000	-0.012	-0.168
-676.178	90.713	0.103	-0.116
-675.164	-171.193	-0.112	0.004
-674.149	-91.937	-0.154	0.044
-673.135	800.000	-0.090	0.359
-672.120	19.693	0.141	0.114
-671.105	-29.826	0.255	-0.146
-670.091	-121.088	-0.234	0.040
-669.076	385.774	0.234	0.486
-668.062	-97.004	-0.202	-0.053
-667.047	-200.000	0.013	-0.098
-666.032	800.000	0.134	-0.510
-665.018	411.133	-0.076	-0.163
-664.003	-83.492	-0.110	0.035
-662.989	-107.286	-0.392	-0.087
-661.974	36.294	0.189	0.168
-660.959	49.216	0.316	-0.298
-659.945	800.000	-0.032	0.115
-658.930	-49.153	-0.114	-0.055
-657.916	-125.009	-0.237	-0.037
-656.901	173.603	0.162	-0.236
-655.886	43.505	-0.142	-0.130
-654.872	-42.919	-0.248	0.127
-653.857	-200.000	0.000	0.188
-652.843	-57.729	-0.096	0.042
-651.828	-77.151	0.252	-0.088
-650.814	547.754	-0.062	-0.149
-649.799	-88.837	0.217	0.065
-648.784	78.030	0.060	-0.064
-647.770	800.000	0.075	0.267
-646.755	-134.383	-0.093	-0.011
-645.741	-200.000	0.027	-0.238
-644.726	27.716	-0.126	0.107
-643.711	-151.249	-0.230	-0.017
-642.697	-170.911	-0.213	-0.007
-641.682	-97.149	-0.388	-0.102
-640.668	-200.000	-0.012	0.058
-639.653	428.091	-0.083	0.179
-638.638	-70.292	-0.167	0.064
-637.624	-200.000	-0.019	0.139
-636.609	-82.461	-0.048	0.016
-635.595	-29.711	-0.260	-0.149
-634.580	188.487	0.237	-0.356
-633.565	513.556	0.133	0.311
-632.551	800.000	0.059	0.199
-631.536	-171.915	-0.206	-0.007
-630.522	132.871	0.140	-0.182
-629.507	3.624	0.269	-0.197
-628.492	-119.763	0.199	0.035
-627.478	800.000	0.047	-0.185
-626.463	37.588	-0.173	-0.154
-625.449	-109.277	-0.321	-0.068
-624.434	-200.000	-0.001	0.059
-623.419	-54.074	-0.220	0.100
-622.405	365.267	-0.119	-0.240
-621.390	-124.523	0.269	-0.042
-620.376	-131.853	0.210	0.028
-619.361	196.817	0.172	0.264
-618.346	46.473	-0.215	0.201
-617.332	266.250	-0.169	-0.297
-616.317	800.000	0.084	0.327
-615.303	13.862	-0.178	-0.139
-614.288	-67.522	-0.182	0.072
-613.273	104.427	-0.134	0.158
-612.259	-200.000	-0.005	-0.168
-611.244	800.000	0.038	0.141
-610.230	800.000	0.065	-0.276
-609.215	-200.000	-0.031	0.202
-608.201	-66.267	-0.185	-0.074
-607.186	-200.000	0.021	-0.184
-606.171	-136.442	-0.176	0.021
-605.157	-94.234	-0.106	0.029
-604.142	-200.000	0.084	0.409
-603.128	-4.739	-0.158	-0.109
-602.113	-46.103	0.286	0.141
-601.098	98.027	-0.226	-0.261
-600.084	800.000	-0.043	0.158
-599.069	800.000	0.036	-0.113
-598.055	-71.294	-0.238	0.090
-597.040	800.000	0.091	-0.342
-596.025	505.184	0.049	0.114
-595.011	462.048	-0.055	-0.122
-593.996	-108.660	0.266	-0.057
-592.982	213.691	0.222	0.353
-591.967	-200.000	0.004	0.077
-590.952	-200.000	0.002	-0.106
-589.938	156.603	0.064	-0.089
-588.923	-163.208	0.254	0.012
-587.909	-69.392	0.244	-0.094
-586.894	285.930	0.108	-0.195
-585.879	-200.000	-0.034	0.196
-584.865	-200.000	0.001	0.143
-583.850	-200.000	0.004	-0.019
-582.836	-124.150	0.056	-0.009
-581.821	414.622	0.058	-0.124
-580.806	-58.164	-0.323	-0.141
-579.792	278.462	0.111	-0.198
-578.777	-95.684	-0.152	-0.041
-577.763	223.525	0.226	-0.365
-576.748	-79.285	0.444	0.151
-575.733	-200.000	-0.013	0.066
-574.719	-149.116	0.178	-0.014
-573.704	169.885	-0.104	-0.148
-572.690	-144.876	-0.169	0.015
-571.675	-45.666	0.227	0.113
-570.661	-67.377	-0.148	0.058
-569.646	-200.000	-0.008	-0.296
-568.631	733.720	0.067	0.179
-567.617	-85.476	0.333	0.104
-566.602	-111.411	-0.218	-0.045
-565.588	800.000	-0.090	-0.386
-564.573	800.000	-0.080	-0.320
-563.558	-95.765	0.317	-0.085
-562.544	-176.789	-0.189	-0.005
-561.529	-21.796	-0.187	0.114
-560.515	3.071	0.046	-0.033
-559.500	52.581	0.146	0.140
-558.485	113.599	0.190	0.231
-557.471	54.120	0.202	0.195
-556.456	800.000	0.080	-0.321
-555.442	-59.249	0.332	-0.143
-554.427	89.778	-0.251	-0.280
-553.412	-152.818	-0.033	0.002
-552.398	55.493	0.260	0.253
-551.383	-200.000	-0.011	-0.150
-550.369	-71.021	0.268	0.101
-549.354	-50.410	-0.217	-0.103
-548.339	284.459	0.099	-0.178
-547.325	800.000	-0.077	-0.258
-546.310	635.668	0.078	-0.197
-545.296	30.006	0.104	-0.089
-544.281	337.667	0.112	-0.218
-543.266	280.308	0.065	-0.116
-542.252	87.791	-0.151	-0.167
-541.237	94.103	0.205	-0.233
-540.223	-200.000	-0.019	-0.117
-539.208	-200.000	0.024	-0.162
-538.193	-49.818	0.305	-0.145
-537.179	265.708	-0.189	-0.330
-536.164	671.586	-0.055	0.144
-535.150	-181.424	-0.176	-0.003
-534.135	-4.690	-0.183	-0.126
-533.121	-91.664	-0.115	-0.033
-532.106	25.170	-0.162	0.135
-531.091	-71.111	0.213	-0.080
-530.077	89.911	-0.135	0.151
-529.062	-200.000	-0.015	-0.146
-528.048	91.631	-0.163	0.183
-527.033	-200.000	0.003	0.120
-526.018	-109.116	0.209	0.044
-525.004	251.353	0.020	-0.035
-523.989	166.279	0.075	-0.107
-522.975	78.873	-0.255	0.273
-521.960	-200.000	-0.027	0.243
-520.945	47.023	0.048	0.044
-519.931	-90.400	-0.154	-0.045
-518.916	-85.416	-0.381	0.119
-517.902	613.715	0.101	-0.254
-516.887	326.474	0.234	-0.449
-515.872	663.456	0.062	-0.159
-514.858	181.337	-0.051	-0.076
-513.843	-200.000	-0.032	-0.256
-512.829	167.740	-0.050	-0.071
-511.814	-151.559	-0.276	-0.020
-510.799	-4.241	-0.309	-0.214
-509.785	-120.191	-0.522	0.089
-508.770	-60.502	-0.235	-0.100
-507.756	248.356	0.141	-0.239
-506.741	800.000	0.047	-0.130
-505.726	205.057	-0.055	0.086
-504.712	-88.206	-0.211	0.063
-503.697	-44.162	-0.246	0.124
-502.683	-75.098	-0.149	-0.053
-501.668	-200.000	0.011	0.281
-500.653	421.621	0.134	0.288
-499.639	-158.313	-0.159	0.009
-498.624	-47.142	-0.179	-0.087
-497.610	-153.783	0.038	0.003
-496.595	-97.746	0.016	0.004
-495.581	3.105	-0.184	-0.134
-494.566	800.000	-0.047	-0.152
-493.551	-117.718	0.056	0.010
-492.537	-200.000	-0.007	-0.126
-491.522	-129.718	0.159	-0.022
-490.508	-200.000	-0.033	0.212
-489.493	-149.941	0.242	0.019
-488.478	-46.726	-0.298	-0.146
-487.464	230.721	-0.057	0.093
-486.449	365.979	-0.125	0.251
-485.435	121.174	0.121	0.150
-484.420	184.864	0.244	0.361
-483.405	800.000	0.090	-0.261
-482.391	-47.124	-0.066	-0.032
-481.376	8.163	-0.098	-0.074
-480.362	-200.000	0.018	0.086
-479.347	-105.840	-0.140	0.032
-478.332	800.000	0.029	0.123
-477.318	-200.000	-0.004	0.059
-476.303	107.252	-0.237	0.281
-475.289	-49.014	-0.066	0.032
-474.274	-12.735	-0.131	0.085
-473.259	-148.128	0.150	-0.012
-472.245	-200.000	-0.011	0.127
-471.230	45.384	0.197	0.181
-470.216	185.201	-0.124	-0.183
-469.201	367.431	0.084	-0.169
-468.186	-200.000	-0.016	0.226
-467.172	100.594	0.359	-0.417
-466.157	-16.657	-0.198	-0.125
-465.143	800.000	-0.078	-0.268
-464.128	800.000	-0.069	-0.197
-463.113	-12.130	-0.181	0.118
-462.099	-164.044	0.084	-0.004
-461.084	-58.306	0.212	-0.092
-460.070	9.454	-0.158	-0.119
-459.055	40.765	-0.268	-0.242
-458.040	800.000	0.053	-0.226
-457.026	-140.777	-0.210	-0.022
-456.011	-8.926	0.079	0.053
-454.997	-200.000	-0.004	0.165
-453.982	312.575	0.099	0.186
-452.968	-200.000	-0.017	0.085
-451.953	32.732	0.148	0.128
-450.938	-123.512	-0.399	-0.063
-449.924	-122.803	0.284	-0.046
-448.909	-200.000	-0.027	-0.265
-447.895	-87.555	0.285	-0.086
-446.880	800.000	-0.054	-0.173
-445.865	-200.000	0.015	-0.082
-444.851	-121.332	0.276	-0.046
-443.836	800.000	-0.070	-0.234
-442.822	800.000	0.075	0.223
-441.807	-200.000	-0.013	0.484
-440.792	26.708	0.303	-0.253
-439.778	800.000	-0.057	-0.242
-438.763	61.407	0.090	-0.089
-437.749	-200.000	0.001	-0.371
-436.734	293.415	0.045	0.082
-435.719	800.000	0.090	-0.261
-434.705	-10.133	-0.171	0.113
-433.690	-72.462	-0.108	-0.040
-432.676	-200.000	-0.032	0.242
-431.661	-134.522	-0.190	0.023
-430.646	800.000	0.069	0.220
-429.632	210.644	0.115	-0.180
-428.617	-122.693	0.016	-0.003
-427.603	-139.572	-0.216	0.023
-426.588	-32.008	0.194	-0.108
-425.573	510.123	0.062	-0.144
-424.559	-29.895	0.069	0.039
-423.544	-107.923	-0.226	0.049
-422.530	-148.116	0.094	0.008
-421.515	800.000	0.065	0.183
-420.500	-29.276	0.253	-0.144
-419.486	137.802	-0.091	0.119
-418.471	33.647	0.075	0.065
-417.457	-200.000	-0.005	0.239
-416.442	-200.000	-0.017	0.289
-415.428	106.394	-0.147	-0.174
-414.413	-84.170	-0.287	-0.091
-413.398	-47.477	-0.180	-0.087
-412.384	-55.252	-0.434	-0.194
-411.369	60.580	-0.277	-0.273
-410.355	800.000	-0.108	-0.299
-409.340	345.359	-0.059	0.115
-408.325	-172.782	-0.207	0.006
-407.311	-165.163	0.171	0.008
-406.296	-77.385	-0.235	0.081
-405.282	800.000	0.035	0.120
-404.267	258.164	0.056	-0.095
-403.252	663.800	-0.012	0.032
-402.238	-200.000	0.002	0.186
-401.223	-4.759	-0.130	0.090
-400.209	322.523	-0.131	-0.248
-399.194	800.000	-0.063	0.240
-398.179	-45.779	0.210	0.103
-397.165	315.659	-0.101	0.190
-396.150	-200.000	0.007	0.143
-395.136	800.000	-0.141	-0.501
-394.121	-188.964	0.278	-0.003
-393.106	-48.837	-0.245	-0.117
-392.092	-200.000	0.051	0.488
-391.077	-200.000	-0.036	0.217
-390.063	-200.000	0.016	-0.225
-389.048	-155.616	-0.369	-0.024
-388.033	-84.650	-0.155	0.049
-387.019	108.217	-0.085	0.101
-386.004	375.845	0.050	0.102
-384.990	-167.885	0.123	-0.005
-383.975	800.000	-0.020	0.087
-382.960	-55.780	0.222	-0.099
-381.946	-65.396	-0.303	-0.121
-380.931	800.000	-0.045	0.170
-379.917	-137.322	-0.079	0.009
-378.902	-200.000	-0.003	-0.136
-377.888	-67.078	-0.349	0.137
-376.873	147.269	0.067	-0.089
-375.858	297.928	-0.140	-0.256
-374.844	-91.181	-0.150	0.043
-373.829	20.707	0.382	0.308
-372.815	78.942	-0.217	0.231
-371.800	525.274	-0.060	-0.141
-370.785	40.996	-0.063	-0.057
-369.771	-12.946	0.023	0.015
-368.756	-200.000	0.020	-0.313
-367.742	800.000	-0.027	-0.115
-366.727	238.839	-0.075	0.125
-365.712	-200.000	-0.004	-0.047
-364.698	800.000	0.086	-0.270
-363.683	-36.525	0.269	-0.144
-362.669	-200.000	-0.000	-0.293
-361.654	-47.793	-0.405	0.195
-360.639	-24.138	0.196	0.117
-359.625	-9.214	-0.179	0.119
-358.610	211.325	-0.183	-0.286
-357.596	274.042	0.026	0.045
-356.581	800.000	0.103	0.326
-355.566	567.365	0.046	-0.110
-354.552	-144.603	0.054	-0.005
-353.537	-200.000	-0.035	0.276
-352.523	800.000	0.069	0.283
-351.508	-166.670	0.009	0.000
-350.493	-56.728	0.457	0.201
-349.479	6.944	-0.136	-0.101
-348.464	-200.000	-0.010	-0.046
-347.450	800.000	-0.029	-0.121
-346.435	-57.129	-0.201	-0.088
-345.420	-128.579	-0.083	-0.012
-344.406	800.000	-0.031	0.101
-343.391	-194.082	-0.390	-0.003
-342.377	-200.000	0.039	-0.352
-341.362	93.437	0.134	0.151
-340.348	-133.941	-0.317	0.039
-339.333	800.000	0.145	-0.401
-338.318	-152.861	0.133	-0.009
-337.304	-155.250	-0.368	0.024
-336.289	-200.000	0.051	0.390
-335.275	-200.000	0.165	0.000
-334.260	467.786	-0.095	0.212
-333.245	-115.013	-0.219	0.041
-332.231	-42.493	0.207	0.105
-331.216	31.595	0.059	0.050
-330.202	3.490	0.203	-0.147
-329.187	-31.692	0.248	0.138
-328.172	-200.000	-0.002	0.067
-327.158	57.777	-0.149	-0.144
-326.143	-200.000	0.012	-0.199
-325.129	84.720	0.018	0.020
-324.114	66.955	0.259	0.262
-323.099	-200.000	0.050	0.529
-322.085	800.000	0.053	0.179
-321.070	105.112	0.158	-0.185
-320.056	47.715	-0.140	-0.130
-319.041	800.000	-0.034	0.139
-318.026	800.000	0.061	-0.187
-317.012	17.695	0.186	-0.146
-315.997	-7.604	0.153	-0.103
-314.983	47.904	0.063	-0.059
-313.968	-198.898	-0.237	0.001
-312.953	-91.053	0.270	0.077
-311.939	800.000	0.077	-0.246
-310.924	-200.000	-0.015	0.189
-309.910	-182.606	0.251	0.005
-308.895	-200.000	-0.036	0.298
-307.880	-71.043	0.211	0.079
-306.866	475.455	-0.030	-0.068
-305.851	-195.105	-0.132	0.001
-304.837	-117.729	0.191	0.034
-303.822	-159.845	-0.254	-0.014
-302.807	137.567	0.099	-0.129
-301.793	-78.626	-0.043	-0.015
-300.778	509.087	0.138	0.319
-299.764	-76.737	0.073	-0.025
-298.749	-6.905	-0.149	-0.100
-297.735	-200.000	-0.020	-0.219
-296.720	251.665	0.111	0.187
-295.705	65.938	-0.253	0.255
-294.691	-115.408	-0.277	-0.052
-293.676	-86.478	-0.210	0.064
-292.662	-95.820	-0.297	0.079
-291.647	800.000	-0.023	0.070
-290.632	-18.944	0.217	0.134
-289.618	195.422	-0.345	0.519
-288.603	22.491	-0.153	0.124
-287.589	573.135	0.028	-0.068
-286.574	-200.000	-0.054	0.309
-285.559	415.667	0.230	-0.487
-284.545	-200.000	-0.053	-0.234
-283.530	-14.933	0.188	-0.120
-282.516	155.690	0.077	0.105
-281.501	-45.358	-0.211	0.104
-280.486	-87.632	-0.077	-0.023
-279.472	119.703	0.092	0.112
-278.457	-39.545	-0.178	0.092
-277.443	-20.912	-0.036	0.022
-276.428	70.681	0.180	-0.185
-275.413	-22.285	-0.123	-0.074
-274.399	208.796	-0.114	0.177
-273.384	56.657	-0.229	0.221
-272.370	-200.000	-0.003	0.024
-271.355	-15.629	0.290	0.183
-270.340	59.492	-0.094	-0.092
-269.326	-200.000	0.024	-0.421
-268.311	146.077	0.124	-0.164
-267.297	-200.000	-0.003	-0.118
-266.282	800.000	-0.051	0.166
-265.267	26.773	-0.066	0.055
-264.253	-200.000	-0.001	-0.013
-263.238	-66.697	-0.237	0.093
-262.224	177.275	0.088	0.128
-261.209	-101.192	-0.115	0.028
-260.195	-200.000	0.003	-0.022
-259.180	-200.000	0.031	-0.144
-258.165	105.696	-0.064	-0.074
-257.151	-57.554	0.099	0.043
-256.136	365.870	0.100	0.199
-255.122	417.614	0.070	0.149
-254.107	689.250	-0.030	-0.077
-253.092	-200.000	0.032	0.186
-252.078	-100.611	0.359	-0.088
-251.063	36.943	0.069	-0.060
-250.049	-155.433	0.094	0.006
-249.034	112.700	0.174	0.209
-248.019	486.826	0.065	-0.146
-247.005	4.129	0.125	0.091
-245.990	94.315	-0.164	0.185
-244.976	585.856	0.135	0.329
-243.961	280.788	-0.150	-0.266
-242.946	-200.000	-0.033	0.298
-241.932	-200.000	0.020	0.138
-240.917	25.967	-0.187	-0.155
-239.903	-200.000	-0.008	0.220
-238.888	800.000	0.103	-0.346
-237.873	-165.506	0.342	-0.015
-236.859	-76.385	-0.127	-0.044
-235.844	-132.112	-0.158	-0.020
-234.830	-83.259	0.206	0.066
-233.815	740.448	0.075	0.198
-232.800	-200.000	0.008	0.173
-231.786	55.548	0.233	-0.223
-230.771	-116.325	0.210	-0.038
-229.757	36.715	0.160	-0.140
-228.742	31.697	-0.207	0.176
-227.727	-134.899	0.297	0.036
-226.713	419.600	0.013	-0.027
-225.698	800.000	-0.043	-0.184
-224.684	93.764	0.084	0.095
-223.669	800.000	0.084	0.249
-222.655	-80.774	-0.255	0.084
-221.640	-98.674	0.143	0.036
-220.625	-110.268	0.234	-0.048
-219.611	-28.764	-0.262	-0.149
-218.596	15.125	-0.101	-0.078
-217.582	800.000	0.039	-0.146
-216.567	800.000	0.020	0.073
-215.552	-127.888	0.336	0.048
-214.538	-100.898	-0.214	-0.052
-213.523	-15.058	-0.174	0.110
-212.509	-29.286	0.450	0.255
-211.494	344.698	0.037	0.071
-210.479	-126.666	0.181	0.027
-209.465	-200.000	0.030	0.243
-208.450	800.000	0.054	0.149
-207.436	63.211	0.142	0.141
-206.421	-30.144	-0.057	-0.032
-205.406	-57.398	-0.127	0.055
-204.392	-18.866	0.152	-0.093
-203.377	-176.657	-0.225	0.006
-202.363	-124.081	-0.238	0.037
-201.348	155.733	0.212	0.289
-200.333	19.283	0.128	-0.101
-199.319	800.000	0.091	-0.309
-198.304	-19.290	-0.102	0.063
-197.290	579.600	-0.033	-0.079
-196.275	-176.771	0.346	0.009
-195.260	-200.000	-0.027	0.269
-194.246	-78.843	0.488	-0.164
-193.231	-44.469	0.239	0.118
-192.217	473.214	0.032	0.071
-191.202	452.614	0.105	-0.229
-190.187	-200.000	0.009	0.115
-189.173	0.071	0.175	-0.123
-188.158	13.153	0.161	0.123
-187.144	508.211	0.119	0.272
-186.129	-33.825	0.159	-0.087
-185.114	-200.000	-0.020	-0.350
-184.100	-95.479	0.091	0.024
-183.085	-40.492	0.148	0.076
-182.071	-200.000	-0.003	0.203
-181.056	9.144	0.061	-0.046
-180.042	800.000	0.029	-0.123
-179.027	-159.479	-0.228	0.013
-178.012	175.653	-0.079	0.113
-176.998	-200.000	-0.038	0.288
-175.983	-63.756	0.090	0.037
-174.969	123.804	0.170	0.211
-173.954	106.905	0.018	0.021
-172.939	234.942	0.142	-0.231
-171.925	-154.033	-0.151	-0.010
-170.910	-200.000	-0.012	0.167
-169.896	43.803	0.124	0.112
-168.881	193.783	0.060	-0.090
-167.866	70.334	0.156	0.159
-166.852	-200.000	0.010	0.046
-165.837	-135.880	-0.179	0.021
-164.823	-85.223	0.180	-0.056
-163.808	22.759	-0.152	-0.123
-162.793	56.729	0.128	0.123
-161.779	26.369	0.167	0.138
-160.764	-161.835	0.096	-0.005
-159.750	674.952	0.121	-0.310
-158.735	-0.566	0.198	-0.138
-157.720	-200.000	0.178	0.000
-156.706	198.919	-0.162	-0.245
-155.691	103.551	-0.159	0.184
-154.677	170.663	0.055	0.078
-153.662	800.000	-0.035	0.105
-152.647	-37.031	-0.198	0.105
-151.633	-200.000	-0.003	0.322
-150.618	-152.755	0.306	-0.021
-149.604	800.000	0.039	0.128
-148.589	-180.581	0.281	0.006
-147.574	-60.746	0.098	-0.041
-146.560	191.896	0.064	-0.095
-145.545	166.093	0.077	0.108
-144.531	-54.437	0.122	0.055
-143.516	-200.000	0.036	0.179
-142.502	0.115	-0.209	0.147
-141.487	-135.856	0.149	0.017
-140.472	-27.746	-0.190	0.108
-139.458	-29.055	-0.365	0.206
-138.443	249.511	-0.173	0.290
-137.429	-12.654	-0.159	0.102
-136.414	-93.104	-0.309	0.085
-135.399	-47.718	0.113	0.054
-134.385	351.483	-0.061	0.119
-133.370	154.202	0.095	0.129
-132.356	-92.416	0.183	0.051
-131.341	76.581	0.034	-0.035
-130.326	24.881	-0.116	-0.094
-129.312	213.583	-0.136	0.212
-128.297	-200.000	0.007	0.371
-127.283	63.368	-0.139	0.137
-126.268	-61.630	0.048	-0.020
-125.253	259.885	0.062	0.106
-124.239	-200.000	0.018	0.084
-123.224	-43.257	-0.225	0.112
-122.210	115.547	0.101	-0.122
-121.195	-195.133	-0.046	-0.000
