DTS Sentinel unit serial number:	SN413079Multiplexer serial number:	ORYXHardware model number:	OX4-SRSoftware version number:	ORYX F/W v4.00 Oryx Data Collector v3.7.2.0data status	okinstallation	princeton_trtdifferential loss correction	single-endedforward channel	channel 2reverse channel	N/Adate	2019/09/12time	19:16:49forward acquisition time	15.00reverse acquisition time	0.00gamma	496.2192k internal	0.2325k external	0.2325temperature offset calibration	1.0139default loss term (dB/km)	0.3790temperature slope calibration	1.0000multiplexer offset coefficient	1.0000multiplexer slope coefficient	1.0000fibre end	0.00T internal ref (°C)	32.50T ext. ref 1 (°C)	3.17T ext. ref 2 (°C)	27.05length (m)	temperature (°C)	Stokes	anti-Stokes-747.200	-38.074	0.601	-0.322
-746.185	-164.764	0.434	-0.020
-745.171	40.696	0.218	-0.199
-744.156	53.928	0.381	-0.369
-743.142	-106.185	-0.683	-0.155
-742.127	-120.389	0.069	0.012
-741.112	-56.669	-0.080	0.036
-740.098	-200.000	0.029	0.343
-739.083	119.028	0.405	-0.505
-738.069	800.000	-0.158	0.592
-737.054	-61.722	-0.701	-0.296
-736.039	-26.182	-0.551	0.326
-735.025	209.054	-0.215	-0.340
-734.010	624.166	0.225	-0.573
-732.996	36.663	-0.201	-0.179
-731.981	22.998	-0.252	0.208
-730.966	-29.564	0.754	-0.434
-729.952	-95.867	-0.441	0.119
-728.937	-73.857	0.680	0.249
-727.923	-120.243	-0.687	-0.118
-726.908	800.000	-0.067	0.202
-725.894	363.005	0.172	-0.348
-724.879	-114.545	-0.581	0.112
-723.864	-200.000	-0.138	0.726
-722.850	-200.000	-0.123	-0.550
-721.835	800.000	-0.065	-0.247
-720.821	-168.100	-0.508	-0.020
-719.806	765.798	-0.364	-0.996
-718.791	-58.844	-0.523	-0.228
-717.777	-11.961	-0.264	-0.175
-716.762	490.572	0.147	-0.340
-715.748	168.754	-0.227	-0.326
-714.733	458.320	-0.357	-0.800
-713.718	133.723	-0.324	-0.423
-712.704	800.000	-0.219	0.855
-711.689	-106.122	-0.317	0.072
-710.675	-22.425	-1.251	0.763
-709.660	800.000	-0.133	-0.370
-708.645	1.205	0.325	0.235
-707.631	-147.476	-0.706	0.060
-706.616	-112.557	-0.594	0.119
-705.602	-77.965	-0.245	0.085
-704.587	8.570	0.665	-0.504
-703.572	314.743	-0.049	0.094
-702.558	92.099	-0.389	0.441
-701.543	5.090	-0.525	-0.389
-700.529	44.419	0.467	-0.432
-699.514	21.229	-0.408	0.334
-698.499	-64.689	-0.837	0.342
-697.485	28.885	-0.302	0.258
-696.470	72.700	-0.305	0.321
-695.456	426.625	0.142	0.309
-694.441	88.860	0.304	-0.341
-693.426	-200.000	-0.096	-0.515
-692.412	-101.218	-0.426	0.105
-691.397	-34.190	-0.576	0.319
-690.383	245.388	0.385	-0.652
-689.368	114.218	0.531	-0.650
-688.354	750.630	0.256	-0.695
-687.339	73.464	0.246	-0.260
-686.324	463.684	-0.524	-1.178
-685.310	800.000	0.210	-0.803
-684.295	226.947	0.496	-0.810
-683.281	-200.000	0.087	0.645
-682.266	210.032	0.281	0.444
-681.251	421.420	0.206	-0.444
-680.237	25.088	0.045	-0.037
-679.222	-23.969	0.505	-0.304
-678.208	26.560	0.344	-0.290
-677.193	277.062	-0.175	0.312
-676.178	-3.634	-0.340	0.238
-675.164	72.877	0.029	-0.030
-674.149	-28.195	-0.404	0.235
-673.135	-95.513	-0.348	0.094
-672.120	-200.000	0.064	0.889
-671.105	287.475	0.502	0.913
-670.091	-35.345	-0.310	-0.170
-669.076	-200.000	0.019	-0.637
-668.062	-200.000	0.070	0.313
-667.047	-51.347	0.433	0.204
-666.032	208.837	0.434	0.683
-665.018	35.460	-0.422	0.372
-664.003	-139.358	-0.068	0.007
-662.989	-200.000	-0.086	-0.402
-661.974	139.333	0.157	-0.207
-660.959	-58.794	-0.848	0.369
-659.945	800.000	0.220	0.711
-658.930	-169.972	-0.686	0.025
-657.916	439.060	-0.041	0.089
-656.901	-200.000	0.237	-1.078
-655.886	-200.000	-0.055	0.531
-654.872	-7.971	-0.816	-0.553
-653.857	-14.052	0.263	0.170
-652.843	36.609	-0.266	-0.236
-651.828	-200.000	-0.012	0.606
-650.814	-87.565	0.892	-0.271
-649.799	-107.887	0.908	-0.198
-648.784	800.000	-0.124	0.461
-647.770	221.728	-0.494	-0.799
-646.755	-200.000	-0.041	-0.219
-645.741	-98.679	0.200	0.051
-644.726	33.669	-0.708	0.619
-643.711	216.502	0.186	-0.298
-642.697	800.000	0.166	0.504
-641.682	800.000	-0.193	-0.747
-640.668	234.926	0.211	0.350
-639.653	-103.861	-0.765	-0.180
-638.638	-36.520	-0.556	-0.301
-637.624	-149.935	0.783	0.061
-636.609	-132.546	-0.931	0.120
-635.595	800.000	0.328	1.001
-634.580	107.733	0.608	-0.727
-633.565	47.745	0.258	-0.241
-632.551	92.018	0.394	-0.446
-631.536	-86.392	-0.380	0.117
-630.522	67.503	0.186	0.191
-629.507	800.000	-0.155	0.603
-628.492	-80.008	0.354	-0.119
-627.478	348.925	-0.300	-0.595
-626.463	130.045	0.386	0.496
-625.449	28.743	-0.261	-0.222
-624.434	153.078	0.135	-0.185
-623.419	-200.000	-0.016	0.528
-622.405	-200.000	-0.007	-0.057
-621.390	-200.000	-0.669	0.001
-620.376	-95.661	-0.336	-0.090
-619.361	-2.942	0.407	0.285
-618.346	16.669	-0.350	-0.278
-617.332	800.000	0.050	-0.138
-616.317	274.353	0.179	0.319
-615.303	136.794	-0.138	0.181
-614.288	461.097	0.208	0.466
-613.273	-71.831	-0.534	0.200
-612.259	-34.502	0.236	0.130
-611.244	800.000	-0.095	-0.370
-610.230	-119.535	0.380	-0.066
-609.215	-170.731	-0.757	0.026
-608.201	171.178	-0.146	-0.210
-607.186	-154.022	-1.371	0.094
-606.171	275.645	-0.162	0.288
-605.157	-60.583	0.833	0.355
-604.142	167.647	0.161	0.230
-603.128	212.125	-0.440	-0.696
-602.113	-94.453	0.362	0.099
-601.098	264.951	0.181	0.317
-600.084	67.845	-0.803	-0.823
-599.069	135.754	-0.686	0.896
-598.055	-0.274	-0.395	0.282
-597.040	800.000	0.087	-0.247
-596.025	626.334	-0.089	-0.225
-595.011	142.032	-0.230	0.306
-593.996	258.106	0.245	-0.422
-592.982	-127.557	-0.581	-0.085
-591.967	-11.945	-0.154	-0.101
-590.952	-200.000	-0.040	0.302
-589.938	-1.485	-0.172	0.122
-588.923	-107.969	-0.362	-0.079
-587.909	-135.848	-0.450	-0.053
-586.894	70.598	-0.565	-0.586
-585.879	-77.260	0.147	-0.051
-584.865	-80.583	-1.362	0.455
-583.850	372.163	0.086	0.175
-582.836	-59.647	0.804	-0.346
-581.821	84.200	-0.560	-0.613
-580.806	40.192	0.748	0.674
-579.792	308.772	0.424	0.793
-578.777	-200.000	-0.019	-0.515
-577.763	141.826	-0.305	0.405
-576.748	3.252	-0.713	0.520
-575.733	-187.456	0.923	0.012
-574.719	-141.567	-0.503	-0.051
-573.704	-103.632	0.289	-0.068
-572.690	800.000	-0.066	-0.205
-571.675	0.926	-0.220	-0.158
-570.661	209.778	0.295	-0.463
-569.646	278.354	0.295	-0.526
-568.631	74.306	-0.634	0.667
-567.617	-200.000	0.020	-0.184
-566.602	-173.599	0.550	0.017
-565.588	-16.744	-0.227	-0.144
-564.573	-200.000	-0.031	0.154
-563.558	-200.000	0.053	-0.269
-562.544	-200.000	-0.213	-1.140
-561.529	-67.751	1.593	-0.624
-560.515	-200.000	0.077	-0.535
-559.500	-130.782	-0.489	0.066
-558.485	-93.319	0.402	-0.112
-557.471	364.736	-0.510	1.029
-556.456	273.220	0.088	-0.156
-555.442	-4.647	0.365	-0.252
-554.427	156.143	-0.359	-0.496
-553.412	-200.000	0.036	0.665
-552.398	429.743	0.129	-0.280
-551.383	-148.679	-1.345	0.110
-550.369	-75.943	-0.631	0.224
-549.354	-200.000	0.069	0.425
-548.339	-200.000	-0.100	0.862
-547.325	106.534	0.634	-0.753
-546.310	800.000	-0.122	-0.340
-545.296	15.839	-0.597	0.470
-544.281	566.430	0.222	-0.539
-543.266	800.000	-0.069	-0.211
-542.252	-200.000	-0.014	0.447
-541.237	-20.201	0.428	0.264
-540.223	-200.000	0.002	0.516
-539.208	-200.000	0.102	-0.812
-538.193	17.656	-0.410	0.327
-537.179	-106.654	0.734	0.163
-536.164	-107.821	-0.669	-0.146
-535.150	-200.000	-0.038	-0.204
-534.135	39.277	-0.268	-0.240
-533.121	-200.000	0.056	-0.395
-532.106	800.000	-0.197	0.655
-531.091	85.187	0.182	-0.199
-530.077	-31.529	0.790	0.444
-529.062	-62.640	-0.444	0.184
-528.048	-55.051	0.359	0.162
-527.033	-131.943	0.997	0.130
-526.018	103.119	0.052	0.061
-525.004	-200.000	0.009	-0.485
-523.989	-149.269	0.412	0.033
-522.975	-79.795	-0.724	0.244
-521.960	-200.000	-0.106	-0.493
-520.945	800.000	-0.140	0.450
-519.931	-131.413	0.442	-0.058
-518.916	-200.000	-0.076	-0.489
-517.902	-114.793	-0.325	0.062
-516.887	-200.000	0.047	0.495
-515.872	7.970	0.383	0.287
-514.858	-121.957	0.669	0.110
-513.843	-70.812	0.461	0.174
-512.829	-200.000	-0.021	-0.323
-511.814	216.500	-0.099	0.158
-510.799	-166.409	0.246	-0.010
-509.785	206.428	0.262	-0.408
-508.770	-115.006	0.093	0.018
-507.756	76.503	-0.115	0.121
-506.741	800.000	0.229	0.741
-505.726	490.606	-0.303	0.692
-504.712	-50.332	-0.291	0.138
-503.697	-156.749	0.834	-0.051
-502.683	-200.000	-0.105	-0.540
-501.668	-200.000	0.028	-0.670
-500.653	-31.492	-0.182	-0.102
-499.639	-31.538	-0.604	-0.339
-498.624	-91.031	0.378	0.109
-497.610	-161.808	0.609	-0.031
-496.595	7.084	0.702	-0.523
-495.581	-158.308	-0.593	-0.035
-494.566	283.264	0.257	-0.460
-493.551	-200.000	-0.049	-0.374
-492.537	367.602	-0.217	0.439
-491.522	-119.592	0.833	0.144
-490.508	-200.000	-0.071	-0.679
-489.493	54.398	0.467	0.449
-488.478	-112.794	0.211	0.042
-487.464	800.000	-0.135	-0.456
-486.449	134.100	0.162	0.210
-485.435	-200.000	0.001	0.179
-484.420	800.000	0.103	0.322
-483.405	272.050	0.233	0.410
-482.391	-200.000	0.105	-0.827
-481.376	-200.000	0.040	0.366
-480.362	-126.290	-0.675	-0.101
-479.347	-200.000	0.045	0.795
-478.332	-200.000	-0.041	0.502
-477.318	76.007	-0.145	0.154
-476.303	54.031	0.661	0.634
-475.289	-200.000	0.039	0.211
-474.274	-157.978	-0.857	-0.050
-473.259	59.127	-0.159	-0.156
-472.245	-67.489	0.373	0.146
-471.230	692.715	0.127	0.333
-470.216	800.000	0.178	0.730
-469.201	-200.000	0.031	0.255
-468.186	36.345	0.586	-0.515
-467.172	-9.787	0.555	0.369
-466.157	79.240	0.171	0.182
-465.143	800.000	0.099	0.323
-464.128	-49.466	-0.555	0.264
-463.113	13.816	0.646	-0.501
-462.099	191.043	0.308	0.462
-461.084	-126.160	0.412	0.062
-460.070	20.630	0.673	0.543
-459.055	500.954	0.155	-0.357
-458.040	-166.505	-0.446	-0.019
-457.026	54.275	-0.353	0.339
-456.011	-100.554	-0.550	0.136
-454.997	-200.000	0.003	0.178
-453.982	-0.466	-0.825	0.584
-452.968	800.000	0.150	-0.629
-451.953	243.968	0.328	0.549
-450.938	74.689	0.586	-0.615
-449.924	-51.439	0.141	-0.066
-448.909	-149.540	-0.547	0.043
-447.895	-200.000	-0.072	0.616
-446.880	-67.719	-0.722	0.282
-445.865	-48.328	-0.140	-0.067
-444.851	-85.589	0.426	-0.132
-443.836	-200.000	-0.062	0.608
-442.822	56.950	0.677	-0.657
-441.807	709.929	-0.102	-0.268
-440.792	119.028	-0.505	-0.623
-439.778	182.381	-0.061	0.090
-438.763	-70.924	0.338	-0.127
-437.749	-132.486	0.288	0.037
-436.734	584.554	-0.046	-0.112
-435.719	15.195	0.433	0.339
-434.705	-200.000	-0.152	-0.793
-433.690	-21.499	-0.299	0.182
-432.676	800.000	-0.147	0.533
-431.661	485.228	-0.049	0.112
-430.646	-50.400	0.733	-0.345
-429.632	800.000	0.160	0.532
-428.617	14.736	-0.202	-0.157
-427.603	-119.218	-0.262	0.046
-426.588	-55.094	-0.869	-0.390
-425.573	711.124	0.209	-0.552
-424.559	17.625	-0.902	0.714
-423.544	-200.000	0.148	0.691
-422.530	223.672	0.075	0.121
-421.515	143.748	0.577	0.765
-420.500	-200.000	-0.177	1.123
-419.486	52.521	0.435	-0.414
-418.471	393.976	0.394	0.816
-417.457	800.000	0.116	0.441
-416.442	150.810	-0.092	-0.124
-415.428	172.485	0.640	-0.917
-414.413	800.000	0.190	0.783
-413.398	-110.852	0.993	0.204
-412.384	800.000	0.092	0.325
-411.369	-127.141	-0.590	0.086
-410.355	17.390	0.479	-0.379
-409.340	800.000	0.077	0.310
-408.325	43.824	-0.408	-0.372
-407.311	95.425	-0.227	0.257
-406.296	-200.000	0.021	-0.345
-405.282	-200.000	0.054	-0.750
-404.267	-200.000	-0.130	-0.878
-403.252	31.849	0.532	0.456
-402.238	81.863	0.284	0.306
-401.223	76.767	0.314	0.332
-400.209	-106.571	0.626	0.139
-399.194	-99.351	-0.592	-0.149
-398.179	85.031	-0.284	-0.310
-397.165	61.009	-0.870	-0.860
-396.150	-200.000	0.182	0.825
-395.136	750.205	-0.144	0.386
-394.121	-200.000	0.058	-0.266
-393.106	-106.825	0.411	-0.091
-392.092	-200.000	0.122	-1.089
-391.077	-200.000	-0.027	0.450
-390.063	-104.968	0.421	-0.096
-389.048	320.380	0.483	0.913
-388.033	-87.496	-0.524	0.158
-387.019	37.406	-0.387	0.341
-386.004	6.386	-0.794	0.586
-384.990	-55.809	-0.455	-0.202
-383.975	-121.478	-0.445	0.074
-382.960	55.593	0.286	-0.275
-381.946	-168.280	1.085	0.042
-380.931	-135.991	-0.768	0.090
-379.917	547.388	-0.365	-0.870
-378.902	87.873	0.606	-0.668
-377.888	-86.100	0.205	0.063
-376.873	271.867	0.070	0.123
-375.858	0.905	0.435	-0.310
-374.844	571.130	-0.131	0.316
-373.829	800.000	-0.246	0.771
-372.815	800.000	-0.123	-0.513
-371.800	-57.770	-0.817	-0.355
-370.785	800.000	-0.055	-0.155
-369.771	-2.706	-0.714	0.496
-368.756	-200.000	0.051	0.539
-367.742	-15.832	-0.537	-0.340
-366.727	-99.819	0.768	0.191
-365.712	-159.334	0.368	-0.020
-364.698	24.413	0.418	-0.344
-363.683	-57.297	0.201	0.088
-362.669	-115.525	0.260	-0.049
-361.654	-24.542	-0.253	0.150
-360.639	50.703	0.593	-0.558
-359.625	-8.758	0.618	-0.412
-358.610	-200.000	0.019	-0.269
-357.596	-200.000	-0.082	-0.377
-356.581	276.009	0.358	0.632
-355.566	601.451	0.140	0.347
-354.552	-200.000	-0.057	-0.760
-353.537	-98.384	0.497	0.126
-352.523	407.336	0.289	-0.607
-351.508	800.000	0.252	-0.821
-350.493	-200.000	-0.010	0.430
-349.479	-38.324	0.149	-0.078
-348.464	800.000	-0.295	0.902
-347.450	-181.396	0.233	-0.005
-346.435	51.405	-0.325	0.307
-345.420	145.805	0.324	-0.431
-344.406	25.955	0.088	-0.072
-343.391	-53.243	0.286	-0.130
-342.377	-6.142	0.510	0.346
-341.362	-191.433	0.702	0.007
-340.348	-59.299	-0.385	0.165
-339.333	-200.000	-0.007	0.584
-338.318	-200.000	0.027	-0.124
-337.304	-12.485	-0.499	0.324
-336.289	-102.956	-1.046	-0.247
-335.275	-158.042	-0.403	0.024
-334.260	-200.000	0.123	-0.563
-333.245	240.412	0.062	-0.102
-332.231	-93.368	-0.595	-0.164
-331.216	44.589	-0.096	-0.087
-330.202	-69.219	-0.447	0.170
-329.187	205.128	0.271	0.418
-328.172	-200.000	-0.027	0.156
-327.158	800.000	-0.037	0.110
-326.143	40.589	-0.247	-0.221
-325.129	410.101	-0.299	-0.629
-324.114	117.285	-0.313	0.382
-323.099	-200.000	0.053	0.404
-322.085	122.697	-0.300	0.373
-321.070	788.190	-0.217	0.591
-320.056	800.000	-0.212	0.650
-319.041	42.537	0.676	0.610
-318.026	-138.682	-0.434	-0.047
-317.012	-120.906	0.333	-0.056
-315.997	-2.248	0.492	-0.342
-314.983	16.606	-0.543	-0.426
-313.968	-192.533	-0.166	-0.002
-312.953	-98.036	0.695	0.178
-311.939	8.308	-0.329	0.245
-310.924	190.843	0.251	0.374
-309.910	-123.555	-0.948	0.149
-308.895	166.976	0.361	-0.508
-307.880	-171.299	0.552	-0.018
-306.866	-200.000	0.251	-1.099
-305.851	800.000	-0.012	0.043
-304.837	183.079	0.177	-0.260
-303.822	-81.876	0.179	-0.058
-302.807	-152.409	0.478	0.034
-301.793	33.397	-0.458	-0.394
-300.778	155.118	0.501	-0.683
-299.764	226.136	0.239	-0.385
-298.749	58.763	0.516	0.503
-297.735	-68.712	-0.687	0.264
-296.720	75.039	-0.362	-0.378
-295.705	107.768	0.378	0.446
-294.691	800.000	-0.049	-0.166
-293.676	61.113	0.381	-0.375
-292.662	-172.180	-1.282	-0.041
-291.647	11.696	-0.667	-0.507
-290.632	341.170	-0.166	-0.322
-289.618	800.000	-0.136	0.583
-288.603	-200.000	0.138	-0.677
-287.589	-115.257	0.534	0.100
-286.574	-200.000	-0.081	0.361
-285.559	515.878	-0.113	-0.261
-284.545	800.000	-0.108	0.342
-283.530	800.000	0.193	-0.682
-282.516	-32.701	0.208	-0.115
-281.501	371.375	0.124	-0.249
-280.486	242.517	-0.331	0.549
-279.472	-105.607	-0.333	-0.075
-278.457	-90.486	0.555	0.159
-277.443	-153.447	1.041	0.072
-276.428	-187.174	-0.496	0.007
-275.413	-67.693	0.419	0.162
-274.399	154.028	-0.046	-0.062
-273.384	800.000	-0.082	0.319
-272.370	-200.000	0.704	0.001
-271.355	-183.017	0.308	-0.005
-270.340	82.108	0.131	-0.141
-269.326	800.000	-0.142	0.482
-268.311	-200.000	0.028	-0.138
-267.297	113.769	-0.720	-0.867
-266.282	-70.742	0.625	0.234
-265.267	202.653	0.366	0.559
-264.253	18.965	0.937	-0.744
-263.238	-57.694	0.186	0.080
-262.224	-200.000	-0.030	-0.163
-261.209	800.000	-0.204	-0.839
-260.195	-53.617	0.041	0.018
-259.180	379.300	0.059	-0.119
-258.165	-90.446	-0.462	0.133
-257.151	-60.775	0.669	0.281
-256.136	23.619	-0.512	0.417
-255.122	166.242	-0.591	-0.828
-254.107	202.272	0.437	-0.668
-253.092	252.198	0.311	-0.525
-252.078	98.779	0.202	0.230
-251.063	240.797	0.435	-0.718
-250.049	-117.195	0.287	0.052
-249.034	-93.626	-0.692	-0.189
-248.019	-200.000	0.067	-0.401
-247.005	85.824	-0.613	0.667
-245.990	121.411	-0.292	-0.359
-244.976	77.628	0.608	-0.641
-243.961	-103.135	-0.575	0.135
-242.946	-106.728	0.190	-0.042
-241.932	800.000	0.036	0.147
-240.917	71.193	-0.162	-0.166
-239.903	-200.000	0.063	0.353
-238.888	-83.415	-1.007	-0.319
-237.873	-5.673	0.318	0.216
-236.859	800.000	0.181	-0.639
-235.844	-100.344	0.207	-0.051
-234.830	232.525	0.139	-0.226
-233.815	218.214	-0.400	0.632
-232.800	318.705	0.113	0.212
-231.786	95.713	-0.220	-0.248
-230.771	576.663	0.219	-0.529
-229.757	-200.000	-0.071	-1.058
-228.742	-129.703	-0.135	-0.018
-227.727	135.134	-0.051	-0.065
-226.713	-45.791	-0.630	-0.308
-225.698	111.215	-0.315	0.376
-224.684	-200.000	0.034	0.212
-223.669	-1.549	0.374	-0.261
-222.655	-200.000	-0.004	-0.521
-221.640	310.463	-0.216	0.400
-220.625	624.828	-0.244	0.607
-219.611	-93.948	-0.605	0.164
-218.596	505.432	0.155	-0.354
-217.582	-155.117	-0.401	-0.026
-216.567	-119.366	-0.764	-0.131
-215.552	402.081	0.291	0.605
-214.538	-200.000	0.074	-0.590
-213.523	129.039	-0.127	0.161
-212.509	143.689	-0.265	-0.349
-211.494	7.704	-0.659	0.488
-210.479	-70.973	-1.101	-0.410
-209.465	-200.000	-0.020	1.128
-208.450	-133.966	-0.772	0.095
-207.436	800.000	0.149	-0.471
-206.421	-68.170	-1.129	0.434
-205.406	-64.597	0.257	0.103
-204.392	-200.000	-0.044	0.772
-203.377	-177.817	0.057	0.001
-202.363	604.917	0.165	0.405
-201.348	-91.515	-0.368	-0.104
-200.333	800.000	0.169	-0.514
-199.319	-69.292	-0.437	-0.166
-198.304	221.423	0.341	0.540
-197.290	-200.000	0.045	-0.934
-196.275	-133.182	-0.117	-0.015
-195.260	-96.420	0.022	0.006
-194.246	800.000	0.085	-0.283
-193.231	-200.000	-0.118	-0.876
-192.217	1.462	-0.492	0.350
-191.202	-72.495	0.214	0.078
-190.187	-13.423	0.814	-0.521
-189.173	-130.999	0.490	0.065
-188.158	800.000	-0.174	-0.544
-187.144	21.000	0.461	0.369
-186.129	-200.000	0.192	-0.871
-185.114	64.843	0.097	-0.096
-184.100	0.585	0.229	-0.161
-183.085	-166.188	-0.590	0.025
-182.071	397.267	-0.399	-0.823
-181.056	153.015	-0.066	0.089
-180.042	493.469	0.318	-0.720
-179.027	-200.000	0.011	0.810
-178.012	-91.752	0.614	0.172
-176.998	-200.000	0.083	0.558
-175.983	292.855	0.191	0.343
-174.969	40.695	-0.164	-0.146
-173.954	800.000	0.135	0.523
-172.939	-68.613	0.706	0.270
-171.925	699.746	0.193	0.500
-170.910	-134.372	-0.096	0.012
-169.896	639.800	-0.220	-0.551
-168.881	-200.000	-0.019	-0.125
-167.866	268.879	0.165	-0.286
-166.852	304.005	-0.132	0.241
-165.837	-200.000	0.038	0.207
-164.823	-157.874	0.347	-0.020
-163.808	40.457	0.210	-0.186
-162.793	-175.166	-0.844	-0.023
-161.779	-180.152	-0.256	-0.005
-160.764	193.594	-0.297	0.443
-159.750	-1.467	0.743	0.516
-158.735	681.126	-0.114	0.292
-157.720	165.042	0.171	0.238
-156.706	124.110	0.344	-0.426
-155.691	74.824	-0.711	0.738
-154.677	627.758	0.074	0.185
-153.662	-21.383	-0.419	0.252
-152.647	51.690	0.678	-0.636
-151.633	82.127	0.098	-0.104
-150.618	225.281	-0.519	0.828
-149.604	-200.000	0.014	0.453
-148.589	275.200	-0.391	-0.683
-147.574	-200.000	-0.019	0.282
-146.560	-200.000	0.074	-1.044
-145.545	-200.000	-0.087	0.562
-144.531	-44.949	-0.511	-0.251
-143.516	189.708	0.201	-0.297
-142.502	-200.000	-0.007	0.213
-141.487	305.184	-0.280	0.513
-140.472	354.774	-0.325	-0.637
-139.458	45.487	0.414	-0.377
-138.443	-105.438	0.110	0.025
-137.429	-78.760	-0.084	0.028
-136.414	-200.000	0.075	-0.486
-135.399	6.928	-0.425	-0.312
-134.385	485.494	0.519	1.164
-133.370	94.153	-0.305	-0.341
-132.356	-135.114	-0.929	-0.110
-131.341	-30.382	0.538	-0.301
-130.326	-149.724	0.286	-0.022
-129.312	-200.000	-0.006	0.242
-128.297	-45.891	0.274	-0.133
-127.283	-97.878	0.864	0.220
-126.268	-20.099	0.438	0.266
-125.253	21.954	0.167	-0.134
-124.239	800.000	0.191	0.593
-123.224	25.264	-0.166	-0.135
-122.210	-130.505	0.385	-0.051
-121.195	54.851	0.325	-0.309
-120.180	-53.453	0.242	0.109
