DTS Sentinel unit serial number:	SN413079Multiplexer serial number:	ORYXHardware model number:	OX4-SRSoftware version number:	ORYX F/W v4.00 Oryx Data Collector v3.7.2.0data status	okinstallation	princeton_trtdifferential loss correction	single-endedforward channel	channel 2reverse channel	N/Adate	2019/09/12time	14:05:11forward acquisition time	60.00reverse acquisition time	0.00gamma	496.2192k internal	0.2300k external	0.2300temperature offset calibration	1.0083default loss term (dB/km)	0.3790temperature slope calibration	1.0000multiplexer offset coefficient	1.0000multiplexer slope coefficient	1.0000fibre end	0.00T internal ref (°C)	40.44T ext. ref 1 (°C)	2.18T ext. ref 2 (°C)	34.92length (m)	temperature (°C)	Stokes	anti-Stokes-747.200	-19.660	-0.128	0.081
-746.185	800.000	-0.118	0.476
-745.171	800.000	-0.055	-0.212
-744.156	6.071	0.205	0.155
-743.142	397.836	-0.169	0.360
-742.127	359.964	0.105	0.215
-741.112	-27.396	0.231	-0.137
-740.098	606.304	-0.177	0.451
-739.083	92.243	-0.156	-0.180
-738.069	-5.405	0.132	0.093
-737.054	800.000	-0.051	0.147
-736.039	-105.551	-0.347	0.080
-735.025	-27.655	-0.121	-0.071
-734.010	-200.000	0.018	0.125
-732.996	-111.267	-0.158	0.033
-731.981	800.000	-0.095	-0.289
-730.966	122.141	-0.180	-0.230
-729.952	-73.751	0.463	-0.172
-728.937	-63.245	-0.273	-0.115
-727.923	-200.000	0.026	-0.346
-726.908	-200.000	-0.110	-0.517
-725.894	-38.705	0.330	0.178
-724.879	800.000	-0.014	-0.041
-723.864	78.198	-0.155	0.169
-722.850	-88.886	-0.244	0.074
-721.835	525.681	-0.098	-0.235
-720.821	794.576	0.013	-0.037
-719.806	200.961	-0.075	0.118
-718.791	-13.272	0.119	0.079
-717.777	49.310	-0.181	-0.174
-716.762	-62.992	0.190	0.080
-715.748	-11.631	0.106	0.071
-714.733	-25.548	0.207	-0.125
-713.718	73.358	0.171	0.182
-712.704	295.916	-0.223	0.417
-711.689	197.685	-0.244	0.380
-710.675	-76.537	0.097	-0.035
-709.660	-70.765	-0.185	0.071
-708.645	194.892	-0.127	0.197
-707.631	800.000	0.035	0.131
-706.616	217.318	0.199	-0.322
-705.602	-200.000	-0.053	0.276
-704.587	-200.000	0.003	0.067
-703.572	-91.658	0.208	-0.060
-702.558	553.459	-0.140	-0.342
-701.543	-200.000	0.047	-0.217
-700.529	777.489	0.146	-0.405
-699.514	-110.385	-0.282	-0.060
-698.499	-29.302	0.261	0.152
-697.485	-37.294	0.127	0.069
-696.470	36.149	-0.227	-0.203
-695.456	-121.697	0.262	-0.044
-694.441	262.195	0.041	-0.072
-693.426	7.313	-0.223	0.170
-692.412	-8.074	-0.193	-0.132
-691.397	-65.145	-0.284	0.116
-690.383	314.692	-0.119	-0.228
-689.368	800.000	-0.061	-0.253
-688.354	800.000	-0.085	-0.316
-687.339	-116.254	0.187	-0.035
-686.324	459.207	-0.033	-0.074
-685.310	41.066	0.240	-0.220
-684.295	563.108	-0.058	0.144
-683.281	-113.553	0.176	0.035
-682.266	331.723	-0.081	-0.160
-681.251	-1.673	0.043	0.031
-680.237	538.814	-0.052	-0.125
-679.222	274.968	0.073	0.132
-678.208	103.740	0.231	0.276
-677.193	-128.225	-0.579	-0.084
-676.178	-62.568	-0.049	0.021
-675.164	33.769	-0.320	-0.283
-674.149	139.729	0.102	0.136
-673.135	65.067	0.066	-0.068
-672.120	-124.322	0.145	-0.023
-671.105	-200.000	0.032	0.180
-670.091	5.740	-0.376	-0.283
-669.076	683.558	-0.025	0.068
-668.062	-7.252	-0.132	-0.091
-667.047	-30.684	-0.156	0.090
-666.032	1.364	0.168	0.122
-665.018	-11.918	0.130	-0.087
-664.003	-200.000	0.000	-0.194
-662.989	-27.127	-0.264	-0.157
-661.974	44.799	-0.110	-0.103
-660.959	-8.424	0.212	-0.145
-659.945	-114.176	0.135	-0.027
-658.930	756.995	0.048	-0.132
-657.916	40.145	-0.262	-0.239
-656.901	-64.485	0.162	-0.067
-655.886	-200.000	-0.024	-0.215
-654.872	247.484	-0.062	0.106
-653.857	-44.099	-0.055	0.028
-652.843	105.308	0.197	-0.237
-651.828	-200.000	0.054	-0.402
-650.814	-40.824	0.173	-0.091
-649.799	-126.459	-0.373	-0.056
-648.784	-32.705	0.059	0.033
-647.770	162.077	0.194	0.276
-646.755	406.382	-0.061	-0.132
-645.741	-56.959	-0.256	0.115
-644.726	212.365	0.186	-0.298
-643.711	-67.712	-0.059	-0.023
-642.697	-26.454	0.323	0.193
-641.682	462.140	-0.110	0.249
-640.668	184.019	-0.043	-0.064
-639.653	153.070	0.090	0.124
-638.638	106.274	-0.114	-0.138
-637.624	403.214	-0.164	-0.351
-636.609	-200.000	0.007	0.124
-635.595	129.358	-0.112	-0.146
-634.580	800.000	-0.126	0.527
-633.565	33.765	0.173	-0.153
-632.551	-200.000	-0.040	0.385
-631.536	30.700	-0.273	-0.237
-630.522	-200.000	0.011	0.101
-629.507	-200.000	-0.031	0.153
-628.492	-200.000	0.037	0.281
-627.478	714.231	0.179	0.481
-626.463	-52.106	-0.185	0.087
-625.449	-55.445	-0.387	-0.176
-624.434	221.190	-0.060	0.097
-623.419	157.088	-0.107	-0.150
-622.405	-98.549	0.391	0.102
-621.390	231.027	-0.028	0.046
-620.376	-123.687	-0.235	0.038
-619.361	624.294	-0.089	0.227
-618.346	55.463	0.108	0.106
-617.332	147.266	0.036	-0.050
-616.317	-41.916	-0.156	0.081
-615.303	-34.264	0.235	0.131
-614.288	526.333	-0.030	-0.072
-613.273	158.083	0.164	0.231
-612.259	-50.630	0.106	-0.050
-611.244	400.741	-0.175	-0.374
-610.230	548.747	-0.097	-0.235
-609.215	800.000	0.029	-0.103
-608.201	-110.777	0.362	0.076
-607.186	161.272	-0.191	0.271
-606.171	-38.517	-0.199	-0.107
-605.157	329.031	0.135	-0.263
-604.142	-60.167	-0.303	0.131
-603.128	-200.000	-0.002	0.444
-602.113	75.296	-0.142	-0.152
-601.098	120.172	-0.174	0.219
-600.084	-143.889	0.063	0.006
-599.069	139.834	-0.255	-0.341
-598.055	-78.988	0.221	0.076
-597.040	412.150	-0.037	-0.080
-596.025	800.000	-0.025	-0.106
-595.011	800.000	-0.088	0.273
-593.996	-174.119	-0.153	-0.005
-592.982	-51.769	-0.188	0.089
-591.967	133.123	-0.091	0.119
-590.952	-111.965	-0.291	-0.060
-589.938	792.635	0.040	-0.112
-588.923	-200.000	0.027	0.147
-587.909	-93.204	0.315	0.089
-586.894	800.000	-0.069	-0.224
-585.879	36.940	0.063	0.056
-584.865	-142.941	0.207	-0.020
-583.850	-200.000	-0.013	0.304
-582.836	-45.065	0.234	-0.118
-581.821	-10.644	-0.176	-0.118
-580.806	-110.368	-0.242	-0.051
-579.792	243.631	0.136	-0.231
-578.777	15.050	0.058	0.046
-577.763	66.398	-0.109	0.112
-576.748	33.943	0.328	0.289
-575.733	101.407	0.277	0.327
-574.719	168.633	0.172	0.249
-573.704	64.322	-0.174	-0.178
-572.690	14.738	0.091	0.072
-571.675	203.066	0.146	-0.228
-570.661	175.697	-0.138	0.203
-569.646	-59.051	0.379	0.166
-568.631	-33.240	0.049	0.028
-567.617	800.000	-0.062	0.182
-566.602	-131.840	-0.179	0.024
-565.588	48.662	-0.015	-0.014
-564.573	192.640	-0.139	0.212
-563.558	195.344	-0.115	0.177
-562.544	21.352	0.077	0.063
-561.529	-200.000	0.019	0.108
-560.515	314.375	0.108	-0.205
-559.500	-114.717	-0.217	-0.042
-558.485	581.065	-0.107	-0.266
-557.471	-136.208	0.306	-0.036
-556.456	-44.202	0.071	0.036
-555.442	-125.181	0.281	0.044
-554.427	221.663	-0.163	-0.265
-553.412	-200.000	0.043	-0.217
-552.398	179.411	-0.066	0.097
-551.383	800.000	0.059	-0.208
-550.369	-100.834	0.263	-0.066
-549.354	-109.919	0.306	-0.065
-548.339	800.000	0.055	-0.161
-547.325	-200.000	0.000	-0.139
-546.310	379.802	0.205	-0.426
-545.296	-12.151	-0.233	0.154
-544.281	-91.915	0.179	-0.051
-543.266	255.326	-0.245	-0.425
-542.252	-184.907	-0.198	-0.003
-541.237	8.715	-0.134	0.102
-540.223	82.056	-0.318	-0.349
-539.208	-97.280	0.186	0.049
-538.193	800.000	0.070	0.214
-537.179	7.734	-0.160	-0.122
-536.164	-56.862	0.317	0.142
-535.150	42.093	-0.222	-0.204
-534.135	-171.418	0.055	-0.002
-533.121	-84.421	-0.095	0.030
-532.106	453.508	-0.154	-0.345
-531.091	-55.203	-0.223	0.101
-530.077	267.956	0.021	-0.036
-529.062	-200.000	-0.072	-0.480
-528.048	49.440	0.144	0.137
-527.033	251.147	-0.049	0.085
-526.018	-103.002	0.238	0.057
-525.004	-200.000	-0.013	-0.159
-523.989	-19.503	0.143	-0.090
-522.975	-134.681	-0.177	-0.022
-521.960	800.000	-0.064	-0.223
-520.945	137.974	-0.140	0.185
-519.931	49.025	0.071	-0.067
-518.916	-125.345	0.398	0.061
-517.902	39.123	0.122	-0.111
-516.887	-68.746	0.068	-0.027
-515.872	-200.000	-0.013	-0.072
-514.858	72.653	0.155	0.164
-513.843	-132.570	0.050	0.006
-512.829	53.932	-0.266	-0.258
-511.814	800.000	0.116	-0.414
-510.799	-100.929	-0.291	-0.072
-509.785	12.494	0.030	-0.024
-508.770	46.762	-0.129	0.121
-507.756	72.412	-0.053	-0.056
-506.741	140.096	-0.212	0.283
-505.726	717.567	-0.094	0.252
-504.712	-33.020	0.241	-0.135
-503.697	-99.794	-0.150	0.038
-502.683	-13.837	-0.161	-0.105
-501.668	-44.093	-0.239	-0.121
-500.653	410.198	-0.103	-0.220
-499.639	-141.889	-0.380	0.038
-498.624	-200.000	-0.021	0.214
-497.610	-59.438	-0.075	0.032
-496.595	410.985	-0.064	-0.138
-495.581	-127.184	-0.085	-0.013
-494.566	118.596	0.078	-0.097
-493.551	143.192	-0.017	-0.023
-492.537	-110.151	-0.263	0.056
-491.522	11.149	-0.222	-0.171
-490.508	79.093	-0.114	0.123
-489.493	-36.561	-0.066	-0.036
-488.478	800.000	0.100	-0.308
-487.464	-58.962	-0.151	0.066
-486.449	18.900	0.111	-0.090
-485.435	-200.000	-0.002	-0.153
-484.420	-121.137	0.118	0.020
-483.405	-77.624	0.131	0.046
-482.391	28.328	-0.116	0.099
-481.376	155.967	-0.142	-0.198
-480.362	800.000	0.041	0.167
-479.347	-73.364	-0.259	-0.096
-478.332	6.853	0.224	-0.169
-477.318	41.522	-0.185	0.169
-476.303	189.880	-0.159	0.241
-475.289	45.111	-0.008	0.008
-474.274	-16.027	-0.280	0.180
-473.259	719.561	0.119	-0.320
-472.245	-118.862	0.152	0.027
-471.230	-200.000	-0.405	0.002
-470.216	-200.000	0.012	-0.265
-469.201	-152.901	0.182	-0.013
-468.186	800.000	-0.121	0.395
-467.172	-5.225	0.111	0.077
-466.157	-200.000	0.028	-0.151
-465.143	46.979	-0.185	-0.173
-464.128	58.944	-0.097	0.096
-463.113	800.000	0.031	-0.105
-462.099	51.974	0.195	-0.188
-461.084	557.068	0.084	0.204
-460.070	-7.051	-0.121	0.083
-459.055	19.845	-0.092	0.075
-458.040	-99.269	-0.297	-0.076
-457.026	19.417	-0.166	-0.134
-456.011	-79.495	0.173	0.059
-454.997	-92.483	-0.250	-0.071
-453.982	121.484	-0.110	-0.139
-452.968	-58.981	0.108	-0.047
-451.953	-200.000	0.014	-0.088
-450.938	-200.000	-0.038	0.204
-449.924	153.525	-0.193	-0.267
-448.909	491.938	-0.136	-0.315
-447.895	761.811	0.148	0.406
-446.880	173.282	0.065	0.094
-445.865	34.103	-0.308	-0.270
-444.851	-28.700	0.194	0.112
-443.836	800.000	-0.021	0.084
-442.822	-69.342	0.229	0.088
-441.807	800.000	-0.131	0.372
-440.792	122.003	0.109	0.137
-439.778	-158.151	-0.222	-0.013
-438.763	-84.243	0.255	-0.081
-437.749	13.267	-0.230	0.180
-436.734	-143.898	-0.254	0.024
-435.719	106.969	0.262	-0.313
-434.705	106.170	-0.122	0.146
-433.690	17.380	-0.328	0.263
-432.676	800.000	-0.141	-0.501
-431.661	133.428	0.071	0.092
-430.646	-74.179	-0.131	-0.048
-429.632	-200.000	0.013	-0.222
-428.617	155.740	0.114	0.158
-427.603	-130.275	0.188	-0.026
-426.588	356.070	-0.092	0.185
-425.573	-71.194	-0.109	0.041
-424.559	-165.521	0.099	-0.004
-423.544	-200.000	-0.018	0.161
-422.530	-61.276	0.135	-0.057
-421.515	37.195	-0.251	-0.224
-420.500	94.974	0.276	-0.316
-419.486	-157.965	-0.158	0.009
-418.471	-177.033	0.320	-0.008
-417.457	-200.000	0.013	-0.220
-416.442	-66.817	-0.167	-0.066
-415.428	-43.131	-0.105	-0.053
-414.413	-32.627	0.162	0.091
-413.398	-48.851	-0.478	-0.231
-412.384	-200.000	0.013	0.095
-411.369	143.199	0.162	0.217
-410.355	-114.167	-0.134	0.026
-409.340	-200.000	0.022	-0.103
-408.325	800.000	-0.060	-0.189
-407.311	-200.000	-0.058	-0.517
-406.296	800.000	0.026	-0.112
-405.282	162.544	0.083	-0.118
-404.267	-191.297	-0.080	0.001
-403.252	800.000	-0.023	0.075
-402.238	-84.691	0.132	0.042
-401.223	-200.000	-0.007	-0.194
-400.209	-167.853	-0.111	0.004
-399.194	-26.024	0.131	0.078
-398.179	2.623	-0.279	0.203
-397.165	284.479	0.199	0.360
-396.150	-200.000	-0.044	-0.249
-395.136	29.982	-0.089	-0.076
-394.121	-174.971	-0.240	0.007
-393.106	91.352	-0.152	0.171
-392.092	59.419	0.086	0.085
-391.077	295.560	0.051	0.093
-390.063	-200.000	0.009	0.090
-389.048	-56.208	0.318	0.142
-388.033	57.196	-0.245	0.240
-387.019	-61.374	0.061	0.026
-386.004	178.014	0.096	0.141
-384.990	-114.845	-0.170	0.033
-383.975	800.000	-0.051	-0.194
-382.960	-177.294	0.289	-0.007
-381.946	384.763	0.036	0.074
-380.931	-50.669	-0.165	0.078
-379.917	-52.161	-0.087	0.041
-378.902	418.770	-0.089	-0.191
-377.888	127.706	0.060	0.076
-376.873	175.669	-0.119	0.174
-375.858	-5.673	-0.222	-0.153
-374.844	-200.000	-0.026	0.239
-373.829	-59.499	-0.205	-0.088
-372.815	-76.273	-0.269	-0.095
-371.800	-18.667	0.273	-0.171
-370.785	-200.000	0.010	-0.063
-369.771	-133.578	0.221	-0.028
-368.756	-24.090	0.347	0.208
-367.742	-147.178	-0.061	-0.005
-366.727	-156.855	-0.114	0.007
-365.712	-200.000	0.061	0.344
-364.698	532.871	-0.076	0.182
-363.683	34.632	0.200	0.175
-362.669	556.325	-0.041	-0.098
-361.654	91.227	0.073	0.082
-360.639	-200.000	0.033	0.202
-359.625	800.000	-0.060	0.252
-358.610	108.241	0.058	-0.070
-357.596	-52.738	-0.112	0.052
-356.581	-40.667	0.077	0.040
-355.566	-40.800	0.286	0.149
-354.552	-200.000	0.003	0.245
-353.537	-77.412	0.320	0.112
-352.523	-200.000	-0.001	0.446
-351.508	-200.000	-0.002	0.232
-350.493	84.742	-0.120	-0.132
-349.479	655.118	0.168	0.433
-348.464	-2.547	-0.156	0.109
-347.450	114.213	0.055	-0.067
-346.435	16.726	-0.097	0.077
-345.420	-162.725	-0.270	-0.013
-344.406	198.609	-0.202	-0.310
-343.391	-110.217	-0.191	-0.040
-342.377	-44.422	0.109	-0.055
-341.362	252.392	0.142	-0.242
-340.348	53.803	0.161	0.155
-339.333	-101.257	0.092	-0.023
-338.318	271.204	-0.169	0.299
-337.304	800.000	0.099	0.290
-336.289	198.099	-0.159	0.243
-335.275	-74.824	-0.257	-0.092
-334.260	178.399	0.146	0.214
-333.245	-11.535	0.239	-0.158
-332.231	182.867	-0.171	0.253
-331.216	197.774	-0.062	-0.095
-330.202	-200.000	-0.019	-0.151
-329.187	-18.391	0.120	-0.076
-328.172	-50.905	-0.101	-0.047
-327.158	-98.160	0.184	0.048
-326.143	81.622	0.099	0.108
-325.129	-200.000	0.032	0.294
-324.114	800.000	-0.014	-0.055
-323.099	199.437	0.133	0.204
-322.085	23.174	-0.199	-0.164
-321.070	-28.340	0.155	-0.090
-320.056	-200.000	-0.021	-0.106
-319.041	291.948	-0.070	-0.127
-318.026	-48.020	-0.146	-0.071
-317.012	800.000	-0.013	0.053
-315.997	653.774	0.129	-0.331
-314.983	800.000	-0.038	0.115
-313.968	133.599	0.103	0.133
-312.953	66.497	-0.077	0.079
-311.939	517.668	-0.149	-0.350
-310.924	-28.293	-0.190	-0.110
-309.910	-200.000	-0.047	0.234
-308.895	69.088	0.131	0.135
-307.880	-200.000	0.060	-0.264
-306.866	260.836	0.156	0.270
-305.851	46.294	0.325	0.302
-304.837	800.000	-0.003	0.009
-303.822	-200.000	-0.022	-0.255
-302.807	19.800	0.161	-0.130
-301.793	-136.783	-0.152	-0.018
-300.778	-200.000	-0.019	-0.179
-299.764	-87.612	0.265	0.080
-298.749	-11.025	0.250	0.165
-297.735	800.000	0.071	-0.294
-296.720	-127.135	-0.277	0.041
-295.705	114.192	-0.214	-0.261
-294.691	400.655	0.051	-0.107
-293.676	-84.678	-0.126	-0.040
-292.662	-76.627	0.305	0.107
-291.647	-122.166	-0.113	-0.018
-290.632	-200.000	-0.031	-0.285
-289.618	800.000	-0.016	-0.070
-288.603	6.040	-0.183	0.136
-287.589	-136.845	0.158	0.018
-286.574	-90.887	0.123	0.036
-285.559	471.463	0.092	-0.208
-284.545	-75.359	-0.108	-0.038
-283.530	220.981	0.254	-0.408
-282.516	800.000	-0.153	-0.506
-281.501	243.619	-0.056	-0.093
-280.486	-54.610	-0.344	-0.156
-279.472	130.440	0.127	0.163
-278.457	-200.000	0.033	0.171
-277.443	-61.593	0.081	0.034
-276.428	67.599	0.175	0.179
-275.413	-113.128	-0.436	-0.086
-274.399	-80.922	-0.226	-0.075
-273.384	-200.000	0.003	-0.180
-272.370	492.181	0.053	0.122
-271.355	21.406	0.260	0.211
-270.340	350.014	-0.079	-0.156
-269.326	-51.735	0.047	0.022
-268.311	336.898	0.181	0.353
-267.297	179.231	-0.070	0.102
-266.282	435.346	-0.155	0.338
-265.267	-200.000	-0.017	-0.293
-264.253	-200.000	0.048	0.399
-263.238	800.000	0.142	0.399
-262.224	541.374	-0.111	-0.264
-261.209	-95.279	0.460	-0.124
-260.195	-200.000	0.020	-0.107
-259.180	21.522	0.293	-0.239
-258.165	-200.000	0.001	-0.107
-257.151	-200.000	0.002	0.030
-256.136	-59.394	-0.374	-0.161
-255.122	-200.000	0.007	-0.086
-254.107	115.643	0.294	0.360
-253.092	-9.995	0.071	0.047
-252.078	96.436	0.199	-0.227
-251.063	-103.519	-0.434	-0.102
-250.049	-107.529	-0.178	-0.039
-249.034	-65.852	0.238	-0.095
-248.019	-200.000	0.004	-0.380
-247.005	191.337	0.178	-0.268
-245.990	-14.007	0.077	0.050
-244.976	576.493	-0.157	0.383
-243.961	-200.000	0.056	0.281
-242.946	-54.380	0.163	0.074
-241.932	-114.630	0.246	-0.047
-240.917	-200.000	0.029	0.179
-239.903	265.212	0.129	0.224
-238.888	-63.575	0.223	-0.092
-237.873	78.158	0.135	-0.144
-236.859	-99.603	-0.082	-0.021
-235.844	302.517	0.134	-0.248
-234.830	-96.315	0.419	-0.111
-233.815	258.017	0.063	0.108
-232.800	131.814	0.124	0.159
-231.786	-99.440	0.135	-0.034
-230.771	800.000	-0.075	0.233
-229.757	167.630	0.057	0.081
-228.742	125.704	0.160	-0.201
-227.727	-200.000	-0.006	-0.199
-226.713	-118.004	0.301	0.054
-225.698	-71.195	0.622	0.233
-224.684	89.941	-0.205	-0.229
-223.669	-200.000	0.008	0.103
-222.655	-127.314	0.346	-0.050
-221.640	10.535	0.097	-0.074
-220.625	80.159	0.159	0.171
-219.611	-200.000	0.002	-0.195
-218.596	43.984	-0.271	0.248
-217.582	800.000	0.039	0.162
-216.567	19.205	0.277	-0.222
-215.552	-50.257	0.028	0.013
-214.538	-48.923	-0.418	0.200
-213.523	-96.716	0.202	-0.053
-212.509	-81.522	-0.137	0.045
-211.494	-11.656	-0.218	0.143
-210.479	-200.000	0.033	-0.196
-209.465	-148.682	0.665	-0.054
-208.450	67.157	-0.161	0.164
-207.436	228.599	-0.033	-0.053
-206.421	-101.684	0.302	-0.073
-205.406	-149.650	0.204	-0.016
-204.392	-200.000	-0.035	0.287
-203.377	81.677	-0.160	-0.173
-202.363	-200.000	-0.018	-0.226
-201.348	-170.111	-0.466	-0.017
-200.333	125.801	0.204	-0.257
-199.319	-187.840	0.132	0.002
-198.304	-133.750	-0.197	0.025
-197.290	-55.639	-0.030	0.013
-196.275	-2.668	0.119	0.083
-195.260	-200.000	-0.001	0.018
-194.246	-200.000	-0.002	-0.112
-193.231	4.166	0.159	-0.116
-192.217	4.316	0.378	0.276
-191.202	-191.789	0.160	0.002
-190.187	-117.219	-0.201	-0.037
-189.173	643.842	-0.081	0.207
-188.158	187.476	-0.163	-0.242
-187.144	-38.680	-0.068	-0.036
-186.129	-73.019	-0.223	-0.082
-185.114	28.895	-0.294	0.249
-184.100	289.070	0.037	-0.067
-183.085	593.926	0.062	0.152
-182.071	800.000	0.153	0.450
-181.056	457.171	0.037	-0.083
-180.042	531.777	0.105	0.248
-179.027	800.000	-0.015	-0.062
-178.012	-112.594	0.256	-0.051
-176.998	44.259	0.251	0.229
-175.983	800.000	0.027	0.112
-174.969	-50.417	-0.118	0.056
-173.954	65.571	0.123	-0.124
-172.939	-62.564	0.120	-0.050
-171.925	-200.000	0.019	-0.110
-170.910	37.998	0.223	-0.198
-169.896	504.095	0.063	-0.145
-168.881	-150.206	0.161	0.012
-167.866	33.333	0.106	0.091
-166.852	800.000	-0.043	0.168
-165.837	-200.000	0.017	-0.167
-164.823	1.113	0.020	0.014
-163.808	187.979	0.173	-0.258
-162.793	225.954	-0.155	-0.251
-161.779	301.800	-0.121	-0.222
-160.764	-200.000	-0.038	-0.191
-159.750	-75.883	0.289	-0.102
-158.735	-153.285	-0.219	0.015
-157.720	-31.543	-0.053	0.030
-156.706	-200.000	-0.032	-0.190
-155.691	-62.043	-0.056	0.024
-154.677	125.890	-0.160	0.201
-153.662	47.394	0.058	-0.054
-152.647	429.471	-0.087	-0.187
-151.633	-200.000	-0.046	0.263
-150.618	-109.678	-0.131	0.028
-149.604	113.176	0.083	-0.100
-148.589	10.568	-0.194	-0.147
-147.574	322.939	-0.128	-0.242
-146.560	434.860	-0.084	-0.181
-145.545	-149.887	-0.119	0.009
-144.531	-185.538	-0.123	0.002
-143.516	85.437	0.134	0.147
-142.502	800.000	0.100	0.292
-141.487	-150.053	0.558	0.043
-140.472	-138.150	-0.226	-0.025
-139.458	-200.000	0.007	0.490
-138.443	68.974	0.362	-0.370
-137.429	-200.000	-0.018	0.244
-136.414	-30.579	-0.155	0.088
-135.399	-42.701	-0.137	0.069
-134.385	-38.163	-0.010	0.005
-133.370	554.141	-0.188	-0.451
-132.356	-200.000	-0.008	-0.228
-131.341	60.409	0.183	-0.181
-130.326	191.190	-0.110	0.165
-129.312	17.352	0.115	0.091
-128.297	-27.879	0.224	-0.129
-127.283	179.604	0.040	-0.059
-126.268	-80.245	-0.220	-0.073
-125.253	-200.000	-0.034	-0.201
-124.239	-11.040	-0.104	-0.068
-123.224	-165.180	-0.217	-0.010
-122.210	800.000	0.060	0.193
-121.195	-200.000	0.015	0.484
