DTS Sentinel unit serial number:	SN413079Multiplexer serial number:	ORYXHardware model number:	OX4-SRSoftware version number:	ORYX F/W v4.00 Oryx Data Collector v3.7.2.0data status	okinstallation	princeton_trtdifferential loss correction	single-endedforward channel	channel 2reverse channel	N/Adate	2019/09/13time	15:11:35forward acquisition time	60.00reverse acquisition time	0.00gamma	496.2192k internal	0.2315k external	0.2315temperature offset calibration	1.0214default loss term (dB/km)	0.3790temperature slope calibration	1.0000multiplexer offset coefficient	1.0000multiplexer slope coefficient	1.0000fibre end	0.00T internal ref (°C)	35.56T ext. ref 1 (°C)	4.73T ext. ref 2 (°C)	30.65length (m)	temperature (°C)	Stokes	anti-Stokes-747.200	158.642	-0.170	0.240
-746.185	-73.194	0.324	0.120
-745.171	90.497	0.165	0.187
-744.156	800.000	-0.087	0.272
-743.142	393.236	0.117	-0.247
-742.127	115.606	-0.178	0.220
-741.112	22.548	-0.166	0.138
-740.098	202.871	-0.193	0.301
-739.083	-75.430	0.224	-0.081
-738.069	76.424	0.103	-0.111
-737.054	219.089	-0.138	0.223
-736.039	105.093	-0.271	-0.324
-735.025	-189.693	0.326	-0.004
-734.010	-12.812	-0.084	-0.055
-732.996	22.432	0.031	-0.026
-731.981	-14.248	-0.292	0.191
-730.966	37.144	0.095	-0.085
-729.952	-200.000	-0.011	-0.289
-728.937	128.926	-0.012	-0.016
-727.923	-62.815	-0.060	-0.025
-726.908	-81.527	-0.219	-0.073
-725.894	-32.524	0.105	0.059
-724.879	-5.651	-0.264	-0.183
-723.864	-145.049	0.319	0.029
-722.850	800.000	0.009	0.037
-721.835	-200.000	0.036	-0.275
-720.821	251.885	-0.121	-0.209
-719.806	-18.448	0.329	0.208
-718.791	58.907	-0.173	-0.172
-717.777	0.015	0.259	0.187
-716.762	-9.005	0.052	-0.035
-715.748	-12.514	0.136	-0.090
-714.733	476.098	0.057	-0.130
-713.718	-200.000	0.061	-0.293
-712.704	-14.721	-0.115	0.075
-711.689	277.101	-0.056	0.100
-710.675	800.000	0.053	0.166
-709.660	389.896	-0.072	0.151
-708.645	49.806	-0.137	0.131
-707.631	-24.345	-0.161	0.097
-706.616	394.490	-0.079	-0.166
-705.602	-42.299	0.196	0.101
-704.587	-200.000	-0.041	-0.256
-703.572	800.000	-0.056	-0.157
-702.558	-145.416	0.138	-0.013
-701.543	515.758	-0.205	-0.484
-700.529	107.783	0.052	0.063
-699.514	542.135	-0.134	0.324
-698.499	582.459	-0.086	0.213
-697.485	-77.609	-0.380	-0.133
-696.470	107.553	-0.203	0.245
-695.456	257.773	0.044	0.077
-694.441	-29.068	-0.047	-0.027
-693.426	-74.142	-0.360	-0.132
-692.412	316.237	-0.022	-0.042
-691.397	84.359	0.119	-0.132
-690.383	29.201	-0.256	-0.220
-689.368	800.000	-0.059	0.226
-688.354	-41.143	-0.299	-0.156
-687.339	-86.982	0.058	-0.018
-686.324	-38.823	-0.099	0.053
-685.310	-43.824	-0.366	-0.186
-684.295	80.420	0.269	-0.293
-683.281	100.538	-0.181	0.212
-682.266	800.000	-0.136	-0.494
-681.251	535.447	-0.152	-0.364
-680.237	-23.394	0.173	-0.105
-679.222	-200.000	-0.009	0.233
-678.208	66.323	-0.063	0.065
-677.193	-200.000	-0.010	-0.424
-676.178	549.631	0.101	-0.244
-675.164	-156.021	-0.045	0.003
-674.149	800.000	-0.106	-0.466
-673.135	-200.000	0.010	0.209
-672.120	623.463	0.104	-0.265
-671.105	-15.942	0.053	0.034
-670.091	4.236	0.254	-0.188
-669.076	800.000	-0.111	-0.374
-668.062	-8.730	-0.069	-0.047
-667.047	-152.551	-0.046	0.003
-666.032	206.327	-0.055	0.087
-665.018	-186.625	-0.159	0.002
-664.003	-200.000	0.013	-0.183
-662.989	-200.000	0.046	0.260
-661.974	-105.407	0.178	0.041
-660.959	-63.767	-0.284	-0.118
-659.945	-200.000	-0.032	0.000
-658.930	-28.042	-0.035	-0.021
-657.916	-35.721	-0.427	0.234
-656.901	-59.589	-0.148	0.064
-655.886	-200.000	0.001	0.130
-654.872	77.971	-0.290	0.312
-653.857	711.282	-0.078	-0.208
-652.843	87.021	-0.074	-0.082
-651.828	126.715	0.050	-0.064
-650.814	-200.000	0.009	0.243
-649.799	-117.697	-0.226	-0.041
-648.784	73.352	0.074	-0.078
-647.770	-192.832	0.201	0.002
-646.755	121.948	0.281	0.354
-645.741	47.850	-0.092	-0.087
-644.726	-102.431	0.083	0.020
-643.711	-68.402	-0.163	0.064
-642.697	-198.106	0.492	-0.003
-641.682	-172.808	0.389	0.012
-640.668	800.000	0.037	0.115
-639.653	58.893	0.085	0.085
-638.638	264.610	0.088	-0.154
-637.624	-200.000	-0.002	-0.010
-636.609	-200.000	0.010	0.176
-635.595	358.490	-0.129	0.260
-634.580	-81.625	0.146	0.048
-633.565	800.000	-0.119	0.376
-632.551	288.245	0.189	0.345
-631.536	-200.000	-0.020	0.157
-630.522	94.743	0.051	-0.059
-629.507	581.179	-0.115	-0.283
-628.492	-48.492	-0.233	0.113
-627.478	-79.319	-0.110	-0.038
-626.463	-200.000	0.017	-0.190
-625.449	-113.032	-0.178	-0.035
-624.434	205.074	-0.066	0.103
-623.419	-99.587	-0.332	0.084
-622.405	-136.403	-0.204	-0.024
-621.390	235.680	0.073	0.122
-620.376	-121.099	-0.077	0.013
-619.361	89.995	0.235	0.264
-618.346	-199.484	-0.133	-0.001
-617.332	-200.000	-0.003	-0.142
-616.317	19.577	0.329	0.267
-615.303	-70.316	-0.113	-0.043
-614.288	-82.666	0.148	-0.048
-613.273	256.964	-0.158	-0.273
-612.259	-103.594	-0.301	0.071
-611.244	425.966	-0.098	0.212
-610.230	-200.000	-0.001	-0.224
-609.215	-90.279	-0.167	0.049
-608.201	34.510	-0.130	0.115
-607.186	210.944	0.045	0.071
-606.171	114.433	-0.161	-0.198
-605.157	68.943	0.040	0.041
-604.142	-198.495	-0.137	0.001
-603.128	-111.869	0.146	-0.030
-602.113	49.808	-0.135	-0.128
-601.098	-140.269	-0.261	-0.028
-600.084	143.904	-0.018	-0.025
-599.069	-97.951	0.429	0.111
-598.055	378.494	-0.147	-0.303
-597.040	800.000	-0.070	-0.278
-596.025	-36.809	0.291	0.157
-595.011	-200.000	-0.021	-0.145
-593.996	-136.023	-0.231	-0.027
-592.982	-8.212	-0.233	-0.158
-591.967	730.146	-0.030	-0.082
-590.952	17.845	-0.191	0.153
-589.938	252.862	0.284	-0.488
-588.923	-116.790	0.178	0.033
-587.909	-96.557	-0.282	-0.075
-586.894	-54.170	-0.188	0.086
-585.879	-200.000	-0.000	-0.106
-584.865	-200.000	-0.023	0.185
-583.850	358.296	-0.192	-0.386
-582.836	52.898	0.155	-0.149
-581.821	79.863	0.105	-0.114
-580.806	800.000	0.091	-0.269
-579.792	800.000	0.056	0.207
-578.777	338.045	0.099	0.193
-577.763	-156.500	-0.366	-0.023
-576.748	-167.806	-0.170	0.007
-575.733	-26.406	0.149	-0.088
-574.719	-136.626	0.318	0.037
-573.704	-96.817	0.201	0.053
-572.690	800.000	-0.054	0.173
-571.675	-56.302	-0.359	0.160
-570.661	451.880	0.076	0.170
-569.646	25.451	0.092	0.077
-568.631	-36.567	-0.093	-0.051
-567.617	-144.376	0.148	0.014
-566.602	-28.407	0.209	-0.121
-565.588	-133.376	-0.015	-0.002
-564.573	-111.616	-0.252	0.051
-563.558	-48.915	0.130	0.062
-562.544	-88.608	-0.265	0.079
-561.529	-27.448	0.203	-0.119
-560.515	30.631	-0.117	-0.100
-559.500	-87.142	-0.219	-0.067
-558.485	-42.424	0.204	-0.105
-557.471	-158.288	-0.138	-0.008
-556.456	-200.000	0.006	-0.113
-555.442	-122.791	-0.179	-0.029
-554.427	156.760	0.043	-0.060
-553.412	-107.063	0.161	-0.036
-552.398	-38.794	0.284	-0.150
-551.383	-85.540	0.302	0.095
-550.369	-43.320	0.145	0.074
-549.354	-119.030	0.168	0.030
-548.339	23.067	-0.090	-0.075
-547.325	-200.000	-0.042	0.474
-546.310	-200.000	-0.033	-0.166
-545.296	800.000	-0.075	-0.214
-544.281	-38.337	-0.240	0.128
-543.266	-131.087	-0.151	0.020
-542.252	-29.282	0.267	-0.154
-541.237	78.047	-0.098	0.105
-540.223	401.272	-0.147	-0.310
-539.208	-47.915	0.264	0.129
-538.193	-12.470	-0.128	-0.084
-537.179	272.196	0.160	-0.284
-536.164	-200.000	-0.007	0.033
-535.150	-78.473	-0.298	-0.103
-534.135	-200.000	-0.003	-0.072
-533.121	-200.000	0.057	-0.289
-532.106	-150.145	-0.290	0.023
-531.091	-28.601	0.196	-0.114
-530.077	1.961	-0.183	-0.133
-529.062	-121.687	-0.280	-0.047
-528.048	-56.637	-0.022	-0.010
-527.033	-72.498	0.127	0.047
-526.018	-143.059	0.206	-0.020
-525.004	-200.000	0.006	-0.053
-523.989	-75.855	0.054	-0.019
-522.975	-123.451	0.168	-0.027
-521.960	800.000	0.032	0.120
-520.945	26.860	-0.125	-0.106
-519.931	-200.000	-0.007	0.176
-518.916	800.000	0.067	-0.219
-517.902	52.956	0.116	-0.111
-516.887	384.864	-0.089	-0.184
-515.872	27.181	-0.227	-0.192
-514.858	-200.000	0.003	0.113
-513.843	89.093	0.199	0.222
-512.829	-98.406	0.195	0.050
-511.814	-33.825	0.227	-0.126
-510.799	800.000	0.038	0.155
-509.785	158.793	-0.020	-0.028
-508.770	-93.622	-0.153	0.042
-507.756	-144.039	0.251	-0.024
-506.741	140.916	-0.081	-0.107
-505.726	-135.198	-0.211	-0.025
-504.712	800.000	0.044	-0.150
-503.697	-126.196	0.127	0.019
-502.683	-151.211	-0.149	-0.011
-501.668	-47.723	0.062	0.030
-500.653	-34.540	0.103	-0.056
-499.639	-47.659	-0.109	0.053
-498.624	-165.466	0.168	-0.007
-497.610	-134.438	-0.015	-0.002
-496.595	-32.134	0.036	-0.020
-495.581	54.531	-0.070	0.068
-494.566	-200.000	-0.018	-0.107
-493.551	-0.899	-0.130	-0.093
-492.537	382.316	0.177	-0.366
-491.522	-138.665	0.255	-0.028
-490.508	-104.130	-0.106	-0.025
-489.493	97.698	-0.072	-0.083
-488.478	57.784	-0.061	-0.060
-487.464	800.000	-0.009	-0.035
-486.449	421.996	0.035	0.075
-485.435	-200.000	-0.018	-0.228
-484.420	-200.000	0.017	0.221
-483.405	800.000	-0.120	-0.390
-482.391	286.593	0.039	0.071
-481.376	52.871	0.151	0.145
-480.362	578.975	0.058	0.143
-479.347	27.807	0.350	0.295
-478.332	-115.978	-0.147	-0.028
-477.318	253.833	-0.158	0.271
-476.303	235.625	-0.064	0.106
-475.289	-200.000	-0.004	0.287
-474.274	800.000	-0.162	-0.477
-473.259	87.134	0.187	-0.207
-472.245	14.692	0.123	0.096
-471.230	-43.707	-0.296	0.150
-470.216	800.000	-0.069	0.244
-469.201	355.566	0.071	-0.141
-468.186	-200.000	-0.003	0.020
-467.172	-49.278	0.118	-0.056
-466.157	182.550	-0.135	0.199
-465.143	-200.000	-0.021	-0.199
-464.128	304.920	-0.169	-0.314
-463.113	-143.806	0.156	0.015
-462.099	-72.606	0.273	-0.101
-461.084	522.559	-0.074	-0.174
-460.070	-94.612	-0.025	-0.007
-459.055	-4.006	0.201	0.140
-458.040	42.327	0.186	-0.169
-457.026	-166.657	0.269	0.011
-456.011	-48.844	-0.102	0.049
-454.997	193.682	-0.126	-0.191
-453.982	-200.000	-0.027	0.264
-452.968	-2.503	0.101	0.071
-451.953	-97.022	-0.182	-0.048
-450.938	169.485	-0.152	0.217
-449.924	188.683	-0.104	-0.156
-448.909	-62.946	-0.439	0.182
-447.895	-139.315	-0.200	0.022
-446.880	-3.472	0.368	-0.257
-445.865	153.999	0.032	0.045
-444.851	17.977	-0.091	0.072
-443.836	800.000	-0.055	0.186
-442.822	140.410	0.174	0.229
-441.807	-11.138	-0.253	-0.167
-440.792	-75.396	-0.468	0.167
-439.778	-200.000	0.078	0.396
-438.763	800.000	-0.056	0.161
-437.749	-68.039	-0.204	-0.080
-436.734	-128.562	-0.186	-0.026
-435.719	-156.405	-0.203	-0.013
-434.705	-85.770	0.115	-0.036
-433.690	-118.807	-0.181	0.032
-432.676	-200.000	0.008	0.250
-431.661	-82.438	0.184	-0.060
-430.646	347.034	0.128	-0.251
-429.632	58.428	0.082	-0.080
-428.617	4.756	-0.439	0.323
-427.603	-133.578	0.287	0.036
-426.588	-53.627	-0.075	-0.034
-425.573	-200.000	-0.075	0.364
-424.559	-68.342	0.181	-0.070
-423.544	-11.290	-0.378	0.249
-422.530	-157.044	-0.050	0.003
-421.515	-73.307	0.141	-0.052
-420.500	296.932	-0.051	0.094
-419.486	-143.338	0.182	-0.017
-418.471	121.757	0.061	-0.077
-417.457	800.000	-0.053	0.225
-416.442	-200.000	0.003	0.169
-415.428	69.607	0.115	0.118
-414.413	-156.384	-0.139	-0.009
-413.398	-34.115	-0.143	0.079
-412.384	800.000	0.043	0.156
-411.369	-122.140	-0.262	-0.043
-410.355	100.839	-0.097	0.113
-409.340	800.000	-0.049	-0.140
-408.325	81.331	-0.129	0.140
-407.311	449.920	0.056	-0.123
-406.296	-106.639	-0.108	0.024
-405.282	13.170	-0.280	0.217
-404.267	299.053	0.084	0.155
-403.252	191.678	-0.075	0.112
-402.238	13.526	-0.091	0.071
-401.223	103.578	-0.099	-0.117
-400.209	10.341	0.126	-0.096
-399.194	-27.169	0.240	0.140
-398.179	800.000	0.098	0.292
-397.165	-200.000	0.051	-0.243
-396.150	-43.849	0.071	0.036
-395.136	-200.000	0.001	-0.120
-394.121	-136.002	-0.350	0.041
-393.106	-100.197	-0.468	-0.116
-392.092	16.752	0.194	0.153
-391.077	192.666	0.231	0.349
-390.063	-96.727	-0.117	0.031
-389.048	-200.000	0.004	0.192
-388.033	111.261	-0.094	-0.113
-387.019	-62.636	-0.185	0.077
-386.004	323.890	0.109	0.208
-384.990	22.498	0.117	-0.095
-383.975	-17.677	-0.071	-0.045
-382.960	-147.151	-0.033	-0.003
-381.946	-15.661	-0.157	0.100
-380.931	229.785	0.085	0.138
-379.917	-87.101	0.132	0.040
-378.902	-69.551	0.205	-0.079
-377.888	12.307	0.183	-0.141
-376.873	-19.069	-0.125	-0.077
-375.858	-200.000	0.001	0.044
-374.844	-117.366	-0.111	0.020
-373.829	800.000	0.019	-0.056
-372.815	-200.000	0.023	0.172
-371.800	206.185	0.059	0.092
-370.785	-73.125	0.154	0.056
-369.771	-46.051	0.443	0.218
-368.756	-45.608	-0.176	0.087
-367.742	-115.090	-0.167	-0.032
-366.727	-70.404	0.255	-0.096
-365.712	31.158	0.060	0.052
-364.698	-80.704	0.028	0.009
-363.683	-158.128	-0.151	0.009
-362.669	646.901	-0.049	0.126
-361.654	-200.000	0.012	0.149
-360.639	187.004	-0.107	-0.159
-359.625	-200.000	-0.021	-0.178
-358.610	800.000	-0.062	-0.200
-357.596	-53.383	0.250	-0.114
-356.581	-98.020	0.181	-0.047
-355.566	375.191	-0.167	0.339
-354.552	-49.939	0.224	-0.106
-353.537	631.723	0.053	-0.134
-352.523	6.373	-0.078	-0.058
-351.508	800.000	0.063	0.209
-350.493	141.923	-0.124	0.165
-349.479	180.359	-0.103	0.150
-348.464	-97.334	0.158	0.041
-347.450	77.202	-0.158	0.167
-346.435	-200.000	-0.021	-0.269
-345.420	211.135	-0.070	0.109
-344.406	-114.172	-0.061	0.012
-343.391	-22.053	-0.372	-0.225
-342.377	4.322	0.271	-0.198
-341.362	210.589	-0.071	0.111
-340.348	115.062	0.106	0.128
-339.333	340.745	-0.092	0.179
-338.318	-188.634	0.454	-0.006
-337.304	625.847	0.078	0.196
-336.289	730.130	0.008	0.022
-335.275	-68.527	0.405	-0.157
-334.260	-151.800	-0.117	-0.009
-333.245	-88.823	0.053	-0.016
-332.231	271.318	0.075	0.132
-331.216	-40.587	0.167	0.087
-330.202	-127.797	0.189	-0.027
-329.187	-200.000	0.017	0.108
-328.172	-25.683	-0.276	0.162
-327.158	108.777	-0.320	-0.382
-326.143	234.085	0.154	-0.252
-325.129	800.000	0.071	-0.197
-324.114	217.523	0.215	0.341
-323.099	-200.000	0.036	-0.301
-322.085	102.487	0.090	-0.105
-321.070	-200.000	-0.060	-0.315
-320.056	668.991	0.063	0.163
-319.041	-124.740	-0.161	0.025
-318.026	-48.491	-0.203	-0.098
-317.012	90.164	0.115	0.128
-315.997	-18.094	-0.263	0.164
-314.983	334.117	0.175	0.338
-313.968	10.435	-0.297	-0.226
-312.953	-200.000	-0.002	-0.365
-311.939	-200.000	-0.008	0.068
-310.924	3.973	0.196	0.143
-309.910	800.000	-0.024	0.087
-308.895	-200.000	0.006	-0.095
-307.880	-43.356	-0.267	0.135
-306.866	358.718	-0.115	0.228
-305.851	800.000	0.041	0.152
-304.837	800.000	-0.079	-0.255
-303.822	-200.000	-0.032	0.195
-302.807	128.027	-0.044	-0.056
-301.793	-71.078	0.254	0.095
-300.778	-200.000	0.068	-0.315
-299.764	-14.973	0.256	-0.163
-298.749	218.287	0.152	-0.241
-297.735	-50.761	0.116	-0.054
-296.720	326.213	0.067	0.128
-295.705	85.927	0.194	0.212
-294.691	-119.355	-0.270	-0.047
-293.676	315.834	0.072	-0.134
-292.662	-200.000	0.193	0.000
-291.647	283.133	-0.115	0.205
-290.632	-82.876	-0.097	-0.031
-289.618	24.648	0.129	-0.106
-288.603	-166.522	0.309	0.013
-287.589	-200.000	-0.002	0.215
-286.574	-79.675	0.054	0.018
-285.559	-64.256	-0.314	-0.127
-284.545	-70.027	-0.077	0.029
-283.530	-200.000	0.036	0.173
-282.516	-162.517	-0.240	-0.012
-281.501	63.993	0.012	-0.012
-280.486	-62.669	-0.466	-0.192
-279.472	-32.805	0.072	0.040
-278.457	-61.675	0.076	0.032
-277.443	800.000	-0.054	-0.220
-276.428	-200.000	0.009	0.164
-275.413	-94.942	0.323	0.087
-274.399	64.766	-0.289	0.290
-273.384	1.651	0.197	-0.141
-272.370	318.741	0.104	-0.195
-271.355	-200.000	0.047	-0.224
-270.340	-9.469	-0.201	0.134
-269.326	800.000	0.061	-0.208
-268.311	-135.479	0.175	-0.021
-267.297	533.672	-0.080	-0.188
-266.282	-81.517	-0.210	-0.069
-265.267	-200.000	-0.066	-0.347
-264.253	54.379	0.163	-0.156
-263.238	800.000	-0.131	0.374
-262.224	-145.420	-0.059	0.005
-261.209	800.000	-0.035	-0.144
-260.195	385.651	0.192	-0.395
-259.180	800.000	0.141	-0.470
-258.165	-110.902	0.196	0.040
-257.151	-200.000	-0.031	0.180
-256.136	73.065	0.090	-0.093
-255.122	4.812	-0.009	0.007
-254.107	800.000	-0.026	-0.110
-253.092	179.723	-0.074	-0.107
-252.078	-40.378	-0.250	-0.129
-251.063	-136.391	0.217	0.025
-250.049	-17.071	0.140	0.088
-249.034	-94.128	0.355	-0.097
-248.019	-200.000	-0.004	-0.064
-247.005	-151.202	0.368	-0.027
-245.990	-200.000	0.024	-0.155
-244.976	-33.623	0.110	-0.060
-243.961	-85.093	0.050	0.016
-242.946	-200.000	0.027	0.216
-241.932	385.499	-0.034	0.070
-240.917	-129.968	-0.057	0.008
-239.903	-151.813	0.255	0.019
-238.888	262.342	-0.094	-0.162
-237.873	781.375	-0.023	-0.063
-236.859	-141.949	-0.294	-0.029
-235.844	-200.000	-0.028	0.262
-234.830	-152.219	0.212	-0.015
-233.815	-85.519	-0.070	-0.022
-232.800	-200.000	0.000	-0.056
-231.786	133.117	-0.253	-0.324
-230.771	-33.871	-0.117	-0.064
-229.757	-200.000	0.002	-0.193
-228.742	60.975	0.112	-0.110
-227.727	-200.000	-0.056	-0.311
-226.713	-86.018	-0.444	0.136
-225.698	734.824	0.144	0.383
-224.684	-156.337	-0.030	-0.002
-223.669	46.770	0.043	-0.040
-222.655	16.089	-0.142	-0.111
-221.640	24.428	-0.219	-0.180
-220.625	-22.219	0.335	-0.201
-219.611	84.918	0.085	-0.093
-218.596	-41.934	-0.087	-0.044
-217.582	-37.864	-0.247	0.131
-216.567	-200.000	-0.002	0.046
-215.552	153.974	-0.094	-0.128
-214.538	28.264	-0.095	0.079
-213.523	-38.344	0.184	-0.096
-212.509	230.609	-0.064	-0.104
-211.494	-200.000	-0.002	-0.287
-210.479	-4.485	0.265	0.182
-209.465	21.558	-0.193	-0.156
-208.450	204.584	-0.165	0.255
-207.436	-200.000	0.077	0.348
-206.421	91.127	-0.245	-0.273
-205.406	65.126	0.249	0.250
-204.392	17.182	-0.159	0.125
-203.377	143.779	0.140	0.185
-202.363	-94.185	-0.284	0.077
-201.348	261.687	0.064	0.110
-200.333	3.866	-0.110	0.080
-199.319	-188.828	0.141	0.002
-198.304	35.543	0.082	-0.071
-197.290	34.270	-0.187	-0.162
-196.275	220.474	0.174	0.278
-195.260	-69.146	0.069	0.026
-194.246	-95.883	0.325	0.086
-193.231	-200.000	-0.046	-0.288
-192.217	800.000	0.116	0.442
-191.202	-163.961	0.323	-0.015
-190.187	554.095	-0.101	0.241
-189.173	556.907	-0.039	-0.093
-188.158	800.000	0.069	0.251
-187.144	321.440	-0.081	-0.153
-186.129	672.152	0.068	-0.175
-185.114	182.591	0.060	-0.088
-184.100	-171.370	-0.288	0.010
-183.085	122.883	-0.136	-0.169
-182.071	-109.238	-0.123	0.026
-181.056	213.988	0.016	0.026
-180.042	-108.999	-0.412	-0.087
-179.027	20.111	0.341	0.273
-178.012	-200.000	0.031	0.198
-176.998	800.000	0.068	-0.279
-175.983	31.349	0.165	0.140
-174.969	-67.785	0.195	0.075
-173.954	-94.828	0.309	0.083
-172.939	-82.851	0.336	-0.108
-171.925	17.134	0.243	0.191
-170.910	800.000	0.070	0.245
-169.896	417.798	0.076	0.161
-168.881	-200.000	0.007	-0.086
-167.866	9.753	-0.219	-0.164
-166.852	-200.000	-0.013	0.141
-165.837	302.097	0.072	-0.132
-164.823	-141.816	0.415	-0.041
-163.808	394.420	-0.114	-0.235
-162.793	-50.619	-0.370	0.173
-161.779	-200.000	0.137	-0.000
-160.764	-178.508	-0.178	-0.004
-159.750	1.333	-0.156	-0.111
-158.735	-122.402	-0.104	0.017
-157.720	-190.830	-0.387	0.004
-156.706	-25.712	0.252	0.147
-155.691	-200.000	-0.016	0.090
-154.677	-30.737	0.208	-0.117
-153.662	-89.722	0.121	-0.035
-152.647	-31.117	-0.140	0.078
-151.633	800.000	-0.065	-0.231
-150.618	101.848	0.060	0.069
-149.604	-62.407	-0.145	0.060
-148.589	16.267	-0.195	0.152
-147.574	732.892	0.083	0.221
-146.560	78.446	0.146	0.154
-145.545	-67.078	0.150	-0.058
-144.531	-2.503	-0.268	0.186
-143.516	-3.381	-0.131	-0.090
-142.502	43.033	-0.141	0.127
-141.487	-43.540	0.038	-0.019
-140.472	262.430	-0.117	-0.200
-139.458	25.292	-0.204	-0.168
-138.443	-29.542	-0.344	0.194
-137.429	-92.008	0.358	-0.100
-136.414	-77.124	-0.268	-0.092
-135.399	-111.912	-0.333	0.066
-134.385	-103.686	-0.367	-0.085
-133.370	800.000	0.097	-0.335
-132.356	-200.000	0.015	-0.088
-131.341	116.366	0.259	-0.314
-130.326	-50.210	-0.276	-0.129
-129.312	-81.207	-0.159	-0.052
-128.297	800.000	0.076	-0.232
-127.283	-108.241	0.096	-0.021
-126.268	-200.000	-0.041	-0.205
-125.253	-140.735	-0.216	-0.022
-124.239	-109.019	0.164	-0.035
-123.224	-5.296	0.090	0.061
-122.210	800.000	0.145	-0.407
