DTS Sentinel unit serial number:	SN413079Multiplexer serial number:	ORYXHardware model number:	OX4-SRSoftware version number:	ORYX F/W v4.00 Oryx Data Collector v3.7.2.0data status	okinstallation	princeton_trtdifferential loss correction	single-endedforward channel	channel 2reverse channel	N/Adate	2019/09/19time	13:39:35forward acquisition time	60.00reverse acquisition time	0.00gamma	496.2192k internal	0.2325k external	0.2325temperature offset calibration	1.0020default loss term (dB/km)	0.3790temperature slope calibration	1.0000multiplexer offset coefficient	1.0000multiplexer slope coefficient	1.0000fibre end	0.00T internal ref (°C)	30.33T ext. ref 1 (°C)	0.98T ext. ref 2 (°C)	27.52length (m)	temperature (°C)	Stokes	anti-Stokes-747.200	-92.915	-0.204	-0.057
-746.185	39.765	-0.284	0.257
-745.171	-107.575	-0.166	-0.037
-744.156	-200.000	-0.017	0.306
-743.142	-38.311	-0.105	0.056
-742.127	-87.902	-0.156	0.047
-741.112	648.720	0.057	-0.146
-740.098	-120.688	-0.191	-0.033
-739.083	11.598	0.073	0.057
-738.069	-105.811	-0.335	0.076
-737.054	-46.036	-0.115	0.057
-736.039	-172.765	-0.300	0.009
-735.025	-97.143	-0.075	-0.020
-734.010	-93.197	-0.085	-0.024
-732.996	44.627	-0.300	-0.278
-731.981	366.247	-0.157	-0.319
-730.966	203.952	-0.271	-0.423
-729.952	-108.404	-0.211	0.046
-728.937	-113.860	-0.449	-0.088
-727.923	223.287	-0.120	-0.195
-726.908	-200.000	-0.041	-0.315
-725.894	304.736	-0.162	-0.302
-724.879	-81.314	-0.205	-0.068
-723.864	-104.200	0.096	0.023
-722.850	-0.924	-0.386	0.275
-721.835	-200.000	-0.037	0.172
-720.821	-16.547	0.226	-0.145
-719.806	150.950	-0.163	0.223
-718.791	545.282	-0.030	-0.073
-717.777	-50.395	-0.178	-0.085
-716.762	800.000	-0.010	-0.040
-715.748	73.392	0.119	-0.126
-714.733	-200.000	-0.013	0.329
-713.718	-119.330	0.053	-0.009
-712.704	257.073	-0.230	0.398
-711.689	48.604	0.263	0.248
-710.675	-151.818	-0.409	-0.030
-709.660	800.000	0.081	-0.331
-708.645	-68.356	0.305	0.119
-707.631	-35.745	-0.141	-0.077
-706.616	422.144	-0.086	0.185
-705.602	113.215	-0.135	0.165
-704.587	272.815	-0.089	0.159
-703.572	800.000	-0.024	0.080
-702.558	522.767	-0.047	-0.111
-701.543	800.000	-0.074	-0.258
-700.529	404.357	0.054	0.116
-699.514	-200.000	0.001	-0.167
-698.499	6.125	-0.165	-0.123
-697.485	263.280	0.167	-0.292
-696.470	-200.000	0.017	0.140
-695.456	21.111	-0.129	-0.105
-694.441	-200.000	0.011	-0.191
-693.426	120.394	0.053	-0.067
-692.412	-159.451	-0.027	0.002
-691.397	210.342	-0.092	0.145
-690.383	236.086	0.168	0.280
-689.368	681.285	0.046	0.120
-688.354	-200.000	0.014	-0.202
-687.339	224.427	0.148	0.240
-686.324	105.054	0.159	0.189
-685.310	800.000	-0.076	0.231
-684.295	-59.664	0.267	-0.115
-683.281	754.641	-0.046	0.125
-682.266	-83.730	-0.327	-0.105
-681.251	800.000	0.116	0.432
-680.237	-20.828	0.276	-0.171
-679.222	195.351	-0.098	0.149
-678.208	482.524	0.131	0.299
-677.193	800.000	0.108	-0.355
-676.178	120.939	0.062	-0.078
-675.164	-116.153	-0.133	0.025
-674.149	-166.728	0.193	0.008
-673.135	-96.831	0.288	0.076
-672.120	-200.000	-0.013	0.077
-671.105	117.083	-0.176	-0.218
-670.091	-67.835	-0.116	-0.046
-669.076	371.260	0.061	-0.124
-668.062	-200.000	0.023	-0.305
-667.047	-87.236	-0.451	0.138
-666.032	194.062	-0.162	0.247
-665.018	-6.854	-0.118	0.081
-664.003	800.000	-0.077	0.335
-662.989	800.000	0.070	-0.289
-661.974	-102.216	0.302	-0.073
-660.959	53.632	0.113	0.109
-659.945	-84.555	-0.225	0.071
-658.930	800.000	-0.018	-0.058
-657.916	108.434	0.053	0.064
-656.901	39.124	-0.225	0.203
-655.886	-57.387	0.306	0.135
-654.872	14.443	0.156	-0.123
-653.857	362.239	-0.087	-0.175
-652.843	-98.004	0.184	-0.048
-651.828	688.309	0.052	0.136
-650.814	-48.347	0.266	0.129
-649.799	-129.234	-0.150	0.021
-648.784	-200.000	-0.007	-0.162
-647.770	-148.217	-0.215	0.018
-646.755	-44.735	-0.161	-0.081
-645.741	144.738	0.053	0.071
-644.726	800.000	-0.131	-0.418
-643.711	-43.835	0.192	0.097
-642.697	-67.740	0.177	0.070
-641.682	800.000	-0.057	0.164
-640.668	241.588	-0.121	0.203
-639.653	-26.941	0.176	-0.104
-638.638	111.537	0.053	-0.064
-637.624	-68.084	-0.132	-0.052
-636.609	-200.000	-0.009	-0.132
-635.595	316.725	0.046	0.087
-634.580	-97.536	0.216	-0.056
-633.565	313.792	-0.100	-0.188
-632.551	-200.000	-0.014	0.189
-631.536	632.358	0.055	0.141
-630.522	-200.000	0.023	-0.114
-629.507	274.005	-0.181	0.322
-628.492	653.844	-0.022	0.057
-627.478	-92.326	-0.139	-0.039
-626.463	63.535	0.179	0.180
-625.449	800.000	-0.094	-0.269
-624.434	733.726	-0.106	-0.285
-623.419	-86.408	0.177	0.055
-622.405	187.528	-0.135	0.202
-621.390	216.582	-0.057	-0.090
-620.376	-38.490	0.199	-0.106
-619.361	19.698	-0.308	-0.249
-618.346	-26.371	-0.092	0.054
-617.332	800.000	0.135	-0.424
-616.317	-200.000	0.023	-0.113
-615.303	234.684	-0.177	-0.294
-614.288	131.451	0.102	0.131
-613.273	-101.219	-0.085	-0.021
-612.259	80.804	-0.139	-0.151
-611.244	-200.000	0.026	-0.274
-610.230	-60.819	-0.241	0.102
-609.215	-28.675	0.126	-0.073
-608.201	-31.987	0.164	0.092
-607.186	-200.000	0.001	0.015
-606.171	102.832	-0.082	0.097
-605.157	151.340	-0.125	0.170
-604.142	-125.855	0.075	-0.011
-603.128	-200.000	-0.048	-0.402
-602.113	38.084	-0.218	0.195
-601.098	-6.158	-0.352	0.241
-600.084	-127.344	-0.329	-0.048
-599.069	90.197	-0.037	0.042
-598.055	-128.008	-0.315	-0.045
-597.040	-9.262	-0.090	-0.060
-596.025	-172.098	-0.134	-0.004
-595.011	-24.681	0.153	0.091
-593.996	-200.000	0.016	0.259
-592.982	279.074	0.149	0.266
-591.967	-200.000	0.015	0.090
-590.952	-26.787	0.145	0.085
-589.938	-67.236	-0.389	-0.153
-588.923	-88.191	-0.094	-0.028
-587.909	-87.814	-0.165	0.050
-586.894	-112.507	0.373	0.075
-585.879	-62.686	0.256	-0.107
-584.865	-200.000	-0.116	-0.582
-583.850	25.152	-0.110	-0.092
-582.836	437.844	0.098	0.214
-581.821	767.664	0.063	-0.171
-580.806	70.806	0.066	0.069
-579.792	800.000	0.065	0.192
-578.777	-73.696	0.146	0.053
-577.763	345.808	-0.067	-0.132
-576.748	-62.495	-0.123	-0.051
-575.733	-130.717	-0.176	0.024
-574.719	-65.657	-0.105	-0.042
-573.704	147.636	0.077	-0.104
-572.690	157.080	-0.237	0.329
-571.675	472.345	0.074	-0.166
-570.661	169.353	-0.272	-0.389
-569.646	-79.288	-0.181	-0.061
-568.631	-3.663	0.254	-0.177
-567.617	124.806	0.189	0.239
-566.602	-7.286	-0.168	0.114
-565.588	-92.714	0.228	0.064
-564.573	-200.000	-0.015	-0.606
-563.558	53.417	0.269	0.258
-562.544	9.757	-0.068	-0.052
-561.529	-200.000	0.020	0.238
-560.515	181.233	-0.059	-0.087
-559.500	-157.758	0.461	-0.027
-558.485	331.164	-0.057	-0.111
-557.471	0.415	0.211	0.151
-556.456	509.333	0.106	0.246
-555.442	410.734	-0.091	0.193
-554.427	-20.240	-0.300	-0.185
-553.412	523.578	0.091	0.215
-552.398	800.000	0.057	-0.214
-551.383	-200.000	-0.040	-0.287
-550.369	-200.000	-0.003	0.017
-549.354	77.351	-0.104	-0.110
-548.339	-200.000	-0.015	0.254
-547.325	-52.385	-0.161	0.074
-546.310	-2.833	0.036	0.025
-545.296	395.348	-0.011	-0.023
-544.281	-175.443	0.222	-0.006
-543.266	-100.425	-0.157	0.039
-542.252	-76.983	0.227	0.079
-541.237	-16.621	0.175	0.111
-540.223	-124.067	-0.165	-0.026
-539.208	-200.000	-0.038	-0.320
-538.193	-50.729	-0.493	-0.232
-537.179	-80.311	-0.270	0.090
-536.164	134.239	0.175	-0.226
-535.150	620.954	0.062	0.157
-534.135	252.371	-0.082	0.140
-533.121	-194.893	0.438	0.003
-532.106	-123.406	0.656	0.105
-531.091	31.709	0.107	0.092
-530.077	-98.416	-0.332	-0.085
-529.062	-110.443	0.184	-0.038
-528.048	233.251	0.128	-0.211
-527.033	-52.152	0.203	-0.094
-526.018	-104.852	-0.077	0.018
-525.004	10.152	0.244	-0.185
-523.989	-106.136	0.225	-0.051
-522.975	7.261	-0.284	0.212
-521.960	-99.805	-0.261	-0.065
-520.945	209.155	0.077	-0.120
-519.931	628.128	0.072	0.182
-518.916	800.000	-0.048	0.145
-517.902	-167.763	0.076	0.003
-516.887	-45.658	-0.259	-0.128
-515.872	555.134	0.095	0.228
-514.858	-79.145	0.058	0.020
-513.843	-82.037	-0.206	0.067
-512.829	-135.269	0.010	-0.001
-511.814	-48.746	-0.130	-0.063
-510.799	-18.013	-0.145	-0.091
-509.785	12.924	-0.068	0.053
-508.770	-171.864	0.140	0.005
-507.756	688.869	-0.120	-0.313
-506.741	-16.634	0.215	-0.136
-505.726	-95.034	0.241	0.065
-504.712	-56.729	-0.247	-0.109
-503.697	800.000	-0.038	-0.154
-502.683	800.000	0.068	0.242
-501.668	-200.000	-0.028	0.151
-500.653	-149.349	0.304	-0.024
-499.639	159.209	-0.085	0.118
-498.624	-51.116	-0.310	-0.145
-497.610	800.000	-0.079	-0.217
-496.595	-7.742	-0.105	0.071
-495.581	-200.000	0.014	-0.177
-494.566	8.736	0.214	-0.161
-493.551	81.089	-0.202	-0.218
-492.537	-119.656	0.073	0.013
-491.522	-39.309	-0.054	-0.028
-490.508	-200.000	0.010	-0.167
-489.493	-15.049	-0.141	0.090
-488.478	-134.131	-0.309	0.038
-487.464	-66.540	0.365	-0.145
-486.449	-118.817	-0.425	0.075
-485.435	-76.654	-0.251	0.088
-484.420	-200.000	-0.053	0.347
-483.405	-200.000	-0.042	0.439
-482.391	289.333	-0.061	-0.110
-481.376	148.272	-0.086	0.116
-480.362	-200.000	-0.023	0.354
-479.347	-77.973	0.350	0.121
-478.332	-75.881	0.108	-0.038
-477.318	-61.871	0.391	-0.163
-476.303	-14.950	-0.107	0.068
-475.289	-37.982	-0.163	-0.087
-474.274	412.100	0.109	-0.232
-473.259	-88.686	-0.117	-0.035
-472.245	235.019	0.022	0.036
-471.230	-199.710	-0.298	0.002
-470.216	-200.000	0.367	0.001
-469.201	-152.906	-0.122	0.009
-468.186	523.279	-0.065	0.151
-467.172	-6.282	0.136	-0.092
-466.157	-23.497	0.142	-0.085
-465.143	134.296	0.161	0.208
-464.128	170.555	-0.297	0.424
-463.113	147.372	-0.161	0.217
-462.099	91.444	0.259	0.291
-461.084	800.000	0.109	0.306
-460.070	-19.002	0.192	0.119
-459.055	144.746	-0.107	-0.143
-458.040	407.990	0.179	-0.378
-457.026	-84.303	0.180	0.057
-456.011	-131.256	-0.369	0.049
-454.997	-200.000	-0.024	-0.304
-453.982	23.183	0.495	-0.405
-452.968	43.340	0.131	-0.120
-451.953	-5.483	-0.201	-0.138
-450.938	-72.568	-0.021	0.008
-449.924	-96.959	0.340	0.089
-448.909	564.238	-0.238	0.575
-447.895	-42.693	-0.235	-0.119
-446.880	-200.000	-0.005	-0.150
-445.865	181.545	-0.125	-0.183
-444.851	-165.631	-0.397	-0.017
-443.836	600.969	-0.008	-0.021
-442.822	-38.015	-0.052	-0.028
-441.807	-140.843	0.209	0.021
-440.792	125.387	0.038	-0.047
-439.778	-45.937	-0.187	-0.092
-438.763	-69.027	0.138	-0.053
-437.749	-200.000	0.177	0.001
-436.734	800.000	0.019	0.079
-435.719	37.822	0.254	0.225
-434.705	-101.164	-0.046	-0.011
-433.690	-200.000	-0.037	0.176
-432.676	216.672	-0.103	-0.163
-431.661	-81.871	-0.170	0.055
-430.646	77.165	0.110	0.117
-429.632	-87.558	0.281	0.085
-428.617	-65.907	0.447	0.178
-427.603	-124.294	-0.149	-0.023
-426.588	-24.987	-0.230	0.136
-425.573	-71.302	-0.259	-0.097
-424.559	-24.797	0.245	-0.145
-423.544	10.937	-0.253	-0.193
-422.530	-35.339	0.080	-0.044
-421.515	225.902	0.085	0.137
-420.500	-137.564	0.087	0.010
-419.486	17.711	0.347	0.275
-418.471	108.952	0.116	0.139
-417.457	48.869	-0.139	0.130
-416.442	-20.236	0.191	0.117
-415.428	-88.895	-0.476	0.140
-414.413	51.158	0.147	-0.139
-413.398	800.000	-0.024	-0.100
-412.384	99.140	0.210	0.242
-411.369	426.925	-0.065	0.140
-410.355	-73.825	0.225	0.081
-409.340	19.876	0.152	0.122
-408.325	-130.472	-0.227	0.031
-407.311	-172.509	-0.117	0.004
-406.296	-49.349	0.220	-0.105
-405.282	183.780	0.148	-0.218
-404.267	-200.000	-0.056	0.315
-403.252	-49.426	-0.045	-0.022
-402.238	30.516	-0.068	0.058
-401.223	-161.809	0.115	-0.006
-400.209	-177.256	-0.356	0.009
-399.194	-200.000	-0.022	0.194
-398.179	-8.801	0.198	0.132
-397.165	33.857	-0.073	-0.063
-396.150	-93.306	-0.278	0.077
-395.136	-5.319	-0.233	0.159
-394.121	-200.000	-0.014	0.187
-393.106	800.000	0.028	-0.080
-392.092	56.718	-0.079	0.076
-391.077	444.731	-0.064	0.139
-390.063	384.640	0.048	-0.098
-389.048	-178.039	0.200	0.005
-388.033	-195.069	-0.239	0.002
-387.019	-131.944	-0.065	0.008
-386.004	800.000	0.105	0.365
-384.990	-200.000	0.027	0.167
-383.975	259.072	0.009	-0.016
-382.960	-42.231	-0.281	-0.143
-381.946	95.165	-0.188	0.213
-380.931	496.763	-0.049	0.112
-379.917	-67.831	-0.092	-0.036
-378.902	-82.362	0.338	-0.109
-377.888	-20.276	-0.185	0.113
-376.873	-200.000	0.007	0.093
-375.858	-75.206	-0.327	0.116
-374.844	-51.352	-0.147	0.069
-373.829	81.314	0.154	-0.166
-372.815	45.149	0.175	0.160
-371.800	-28.796	0.295	0.168
-370.785	-133.798	-0.083	-0.010
-369.771	-17.181	0.164	0.103
-368.756	174.377	-0.113	-0.162
-367.742	-71.508	-0.210	0.078
-366.727	65.563	0.081	0.082
-365.712	235.151	-0.163	0.267
-364.698	-66.084	0.124	0.049
-363.683	173.955	-0.119	0.170
-362.669	-28.541	-0.207	0.118
-361.654	-101.539	0.256	0.062
-360.639	-200.000	-0.021	-0.206
-359.625	776.093	0.060	-0.163
-358.610	-200.000	0.029	-0.260
-357.596	-15.745	-0.148	-0.094
-356.581	-59.115	0.257	-0.110
-355.566	-123.146	0.409	-0.065
-354.552	244.441	-0.103	0.171
-353.537	800.000	0.025	0.098
-352.523	-125.883	-0.032	-0.005
-351.508	-200.000	-0.040	0.192
-350.493	-38.908	0.330	-0.173
-349.479	270.519	0.119	0.208
-348.464	-174.809	0.245	-0.007
-347.450	800.000	-0.114	-0.476
-346.435	-109.019	-0.160	0.034
-345.420	-122.439	0.307	0.050
-344.406	-200.000	0.012	0.159
-343.391	-159.493	0.629	0.035
-342.377	800.000	-0.050	-0.162
-341.362	-33.693	-0.196	0.107
-340.348	6.875	-0.201	-0.149
-339.333	-162.809	-0.111	0.005
-338.318	86.243	-0.149	-0.163
-337.304	-107.141	-0.274	-0.060
-336.289	-17.970	-0.161	-0.100
-335.275	109.683	0.228	0.271
-334.260	75.781	0.213	-0.224
-333.245	-200.000	0.038	-0.337
-332.231	562.562	0.173	-0.416
-331.216	-81.442	0.190	-0.062
-330.202	102.056	-0.070	-0.081
-329.187	800.000	0.039	-0.151
-328.172	800.000	0.040	0.157
-327.158	-32.805	0.121	0.067
-326.143	-178.794	-0.294	0.007
-325.129	-152.607	0.147	0.010
-324.114	190.077	0.054	-0.080
-323.099	78.286	0.216	0.229
-322.085	183.100	0.111	-0.162
-321.070	158.292	0.140	-0.192
-320.056	251.877	0.107	0.182
-319.041	-140.719	-0.262	-0.027
-318.026	-104.491	0.141	-0.032
-317.012	-24.962	0.195	-0.115
-315.997	469.850	0.149	-0.331
-314.983	-127.676	0.272	0.039
-313.968	-107.346	0.180	0.039
-312.953	227.293	-0.219	0.352
-311.939	-200.000	0.027	-0.159
-310.924	13.871	-0.100	-0.077
-309.910	554.804	0.090	0.215
-308.895	-54.316	-0.229	-0.103
-307.880	800.000	-0.098	-0.374
-306.866	-200.000	0.073	-0.373
-305.851	5.955	0.227	0.167
-304.837	180.860	0.124	0.181
-303.822	800.000	-0.055	0.207
-302.807	-200.000	-0.037	-0.193
-301.793	11.226	0.111	0.084
-300.778	-93.124	0.327	0.090
-299.764	-200.000	0.018	-0.107
-298.749	800.000	-0.009	0.033
-297.735	-115.861	0.103	-0.019
-296.720	679.772	-0.056	-0.144
-295.705	212.118	0.020	0.032
-294.691	-131.343	0.281	-0.037
-293.676	208.208	-0.152	-0.235
-292.662	-171.287	0.329	-0.011
-291.647	-198.296	-0.125	0.001
-290.632	46.344	-0.157	0.144
-289.618	-200.000	-0.073	-0.325
-288.603	344.975	-0.068	-0.132
-287.589	-151.139	0.227	0.017
-286.574	3.680	-0.151	-0.109
-285.559	-83.353	0.102	0.032
-284.545	-23.558	-0.314	-0.187
-283.530	-172.344	-0.224	0.007
-282.516	26.402	-0.089	0.073
-281.501	-162.367	0.174	0.009
-280.486	-200.000	0.010	0.122
-279.472	215.799	0.145	0.229
-278.457	-107.692	-0.246	0.053
-277.443	19.104	0.017	-0.013
-276.428	322.291	0.118	0.223
-275.413	163.150	0.083	-0.116
-274.399	800.000	-0.031	-0.113
-273.384	401.486	-0.236	-0.492
-272.370	-66.662	0.255	-0.100
-271.355	-200.000	-0.028	-0.161
-270.340	-11.277	0.201	0.131
-269.326	-200.000	-0.012	-0.223
-268.311	-80.572	-0.322	-0.106
-267.297	-200.000	0.057	0.294
-266.282	404.625	-0.133	0.278
-265.267	-200.000	-0.042	0.297
-264.253	66.650	0.072	-0.073
-263.238	800.000	-0.016	0.050
-262.224	65.192	-0.073	0.073
-261.209	165.610	-0.148	-0.207
-260.195	-129.123	-0.152	0.021
-259.180	170.919	0.081	0.114
-258.165	172.424	-0.085	-0.121
-257.151	-200.000	0.030	0.187
-256.136	-200.000	0.033	-0.297
-255.122	527.302	0.047	-0.110
-254.107	-93.029	-0.115	0.032
-253.092	-103.509	-0.217	-0.050
-252.078	-95.664	-0.199	-0.053
-251.063	-58.105	0.180	0.078
-250.049	-25.891	-0.120	-0.070
-249.034	-200.000	-0.013	-0.246
-248.019	-111.720	0.400	0.080
-247.005	-57.404	-0.148	-0.064
-245.990	-144.959	0.205	-0.019
-244.976	-200.000	0.044	0.277
-243.961	216.385	-0.012	0.019
-242.946	3.767	-0.122	0.088
-241.932	800.000	-0.032	-0.105
-240.917	-122.722	-0.082	-0.013
-239.903	96.826	0.196	-0.222
-238.888	109.701	0.028	0.033
-237.873	800.000	0.131	0.417
-236.859	-113.443	-0.144	0.028
-235.844	19.578	0.161	0.128
-234.830	57.590	0.189	0.182
-233.815	58.681	0.042	0.041
-232.800	125.332	-0.212	0.265
-231.786	31.428	0.222	0.189
-230.771	-200.000	0.006	0.336
-229.757	160.922	-0.106	0.146
-228.742	800.000	0.062	0.244
-227.727	17.533	-0.080	0.063
-226.713	-155.636	-0.320	-0.020
-225.698	-170.076	0.244	-0.009
-224.684	-200.000	0.032	0.194
-223.669	800.000	0.024	0.100
-222.655	800.000	0.137	-0.411
-221.640	91.274	-0.321	-0.357
-220.625	86.976	-0.248	0.271
-219.611	-200.000	-0.013	-0.058
-218.596	283.211	0.076	0.135
-217.582	-17.046	-0.206	-0.128
-216.567	-177.206	-0.102	0.002
-215.552	800.000	0.037	-0.132
-214.538	-76.936	-0.255	0.088
-213.523	15.894	0.187	-0.145
-212.509	-34.918	-0.059	-0.032
-211.494	800.000	-0.069	0.223
-210.479	-15.511	-0.064	-0.040
-209.465	-50.288	-0.202	0.094
-208.450	265.688	-0.061	0.105
-207.436	-2.242	0.180	0.125
-206.421	-181.808	-0.046	0.001
-205.406	146.112	-0.167	-0.221
-204.392	-115.660	0.350	0.065
-203.377	169.676	-0.056	0.079
-202.363	-124.524	0.072	0.011
-201.348	-143.034	0.021	0.002
-200.333	800.000	-0.047	-0.201
-199.319	-67.605	-0.174	-0.067
-198.304	-200.000	-0.009	-0.057
-197.290	-126.374	-0.169	-0.025
-196.275	-103.479	0.123	-0.029
-195.260	155.461	0.152	-0.206
-194.246	-200.000	-0.051	0.241
-193.231	-48.827	-0.274	-0.130
-192.217	-46.663	-0.055	0.027
-191.202	406.657	0.139	0.290
-190.187	-34.151	-0.113	0.061
-189.173	84.328	-0.168	-0.181
-188.158	-58.173	0.102	-0.044
-187.144	53.540	0.209	-0.198
-186.129	174.046	0.084	-0.119
-185.114	-200.000	0.005	0.259
-184.100	-20.725	-0.123	0.075
-183.085	607.751	0.071	0.174
-182.071	-66.095	-0.046	-0.018
-181.056	-45.051	-0.218	-0.107
-180.042	47.844	0.135	0.125
-179.027	33.107	-0.082	0.070
-178.012	133.575	-0.119	0.152
-176.998	50.911	0.373	0.349
-175.983	150.551	-0.135	0.181
-174.969	-200.000	-0.016	-0.087
-173.954	-82.905	0.129	-0.041
-172.939	106.534	-0.262	-0.306
-171.925	-200.000	-0.023	-0.146
-170.910	-81.353	0.205	0.067
-169.896	-56.979	0.167	-0.073
-168.881	-200.000	-0.036	-0.329
-167.866	-133.565	-0.107	-0.013
-166.852	92.745	0.091	-0.101
-165.837	-200.000	0.031	-0.150
-164.823	15.759	0.154	-0.120
-163.808	-200.000	-0.016	-0.294
-162.793	247.517	0.072	0.119
-161.779	-197.369	0.196	-0.001
-160.764	-133.019	0.090	-0.011
-159.750	-200.000	0.090	-0.437
-158.735	112.827	-0.175	0.209
-157.720	120.375	-0.171	-0.210
-156.706	425.928	-0.110	-0.234
-155.691	-112.233	-0.272	-0.054
-154.677	800.000	0.123	0.427
-153.662	-94.439	0.229	-0.061
-152.647	185.690	-0.120	-0.175
-151.633	534.599	0.135	0.315
-150.618	381.609	-0.132	0.267
-149.604	-200.000	0.069	0.307
-148.589	87.691	-0.149	-0.162
-147.574	69.420	0.280	0.284
-146.560	-11.258	0.166	-0.108
-145.545	-49.073	0.344	0.162
-144.531	-181.445	0.348	0.007
-143.516	-113.255	-0.304	0.059
-142.502	349.892	0.088	0.171
-141.487	-200.000	0.032	-0.426
-140.472	-79.767	-0.334	-0.111
-139.458	-50.161	0.086	-0.040
-138.443	26.914	-0.098	0.081
-137.429	354.626	-0.117	0.230
-136.414	104.369	0.080	0.093
-135.399	-23.584	0.265	0.157
-134.385	-83.487	-0.319	-0.101
-133.370	800.000	-0.037	-0.118
-132.356	-95.232	0.375	0.100
-131.341	102.781	-0.081	-0.093
-130.326	-55.507	0.205	-0.090
-129.312	-77.696	-0.270	0.092
-128.297	-2.164	-0.235	-0.162
-127.283	483.649	-0.073	-0.164
-126.268	118.560	-0.281	0.341
-125.253	475.524	-0.077	-0.170
-124.239	31.516	-0.192	0.162
-123.224	190.813	0.108	0.160
-122.210	-83.177	-0.086	0.027
