DTS Sentinel unit serial number:	SN413079Multiplexer serial number:	ORYXHardware model number:	OX4-SRSoftware version number:	ORYX F/W v4.00 Oryx Data Collector v3.7.2.0data status	okinstallation	princeton_trtdifferential loss correction	single-endedforward channel	channel 2reverse channel	N/Adate	2019/09/14time	18:27:35forward acquisition time	60.00reverse acquisition time	0.00gamma	496.2192k internal	0.2317k external	0.2317temperature offset calibration	1.0102default loss term (dB/km)	0.3790temperature slope calibration	1.0000multiplexer offset coefficient	1.0000multiplexer slope coefficient	1.0000fibre end	0.00T internal ref (°C)	36.69T ext. ref 1 (°C)	4.93T ext. ref 2 (°C)	30.51length (m)	temperature (°C)	Stokes	anti-Stokes-747.200	-114.491	0.289	-0.056
-746.185	108.659	-0.096	0.117
-745.171	736.898	-0.055	-0.149
-744.156	-74.475	-0.074	-0.027
-743.142	-200.000	0.056	0.264
-742.127	-28.297	-0.038	-0.022
-741.112	800.000	-0.027	0.111
-740.098	772.225	0.124	0.342
-739.083	-200.000	0.019	0.237
-738.069	800.000	-0.019	-0.057
-737.054	-187.337	-0.148	-0.002
-736.039	270.649	0.022	-0.039
-735.025	586.170	0.212	0.528
-734.010	-73.553	0.317	0.117
-732.996	-104.314	0.246	-0.058
-731.981	22.911	-0.271	-0.224
-730.966	-18.638	0.277	-0.175
-729.952	-161.066	0.164	0.009
-728.937	-14.236	-0.253	-0.165
-727.923	12.286	0.227	-0.177
-726.908	73.877	-0.144	-0.153
-725.894	781.267	-0.037	0.103
-724.879	800.000	0.085	0.313
-723.864	-0.860	-0.031	-0.022
-722.850	-85.299	-0.381	0.120
-721.835	-200.000	0.014	0.099
-720.821	-200.000	-0.008	-0.174
-719.806	99.315	-0.031	0.036
-718.791	800.000	-0.104	0.333
-717.777	84.670	-0.228	-0.253
-716.762	38.687	-0.132	-0.119
-715.748	80.408	-0.096	-0.104
-714.733	-128.825	-0.347	0.049
-713.718	126.569	-0.108	-0.138
-712.704	-200.000	0.000	0.232
-711.689	-172.577	-0.230	-0.007
-710.675	-116.587	0.363	0.068
-709.660	280.552	-0.067	-0.121
-708.645	89.469	-0.019	0.021
-707.631	222.689	-0.134	-0.218
-706.616	65.405	-0.126	-0.129
-705.602	800.000	0.065	0.190
-704.587	-200.000	-0.031	0.279
-703.572	15.117	0.224	-0.178
-702.558	-86.063	0.103	-0.032
-701.543	-111.178	0.180	-0.037
-700.529	-127.159	-0.034	-0.005
-699.514	-200.000	0.022	-0.242
-698.499	-100.227	-0.292	0.073
-697.485	800.000	0.058	0.211
-696.470	452.040	-0.030	0.067
-695.456	-69.591	0.331	-0.128
-694.441	25.155	-0.156	0.131
-693.426	639.497	-0.108	-0.279
-692.412	-200.000	0.086	-0.485
-691.397	-67.406	-0.127	0.050
-690.383	-153.024	-0.366	-0.026
-689.368	143.107	0.114	0.154
-688.354	800.000	-0.100	0.379
-687.339	139.902	-0.089	0.118
-686.324	176.961	-0.071	-0.105
-685.310	800.000	0.022	0.067
-684.295	-200.000	-0.029	0.151
-683.281	162.553	0.085	0.120
-682.266	-200.000	-0.114	-0.522
-681.251	-118.844	-0.205	0.036
-680.237	-200.000	-0.039	0.435
-679.222	-200.000	0.010	-0.287
-678.208	71.195	-0.164	-0.172
-677.193	306.602	0.190	0.357
-676.178	-111.511	-0.049	-0.010
-675.164	640.267	-0.152	-0.390
-674.149	-1.901	-0.267	0.190
-673.135	-159.055	0.069	-0.004
-672.120	-141.703	0.242	-0.025
-671.105	-200.000	-0.035	0.170
-670.091	22.203	-0.302	0.249
-669.076	-198.733	0.543	-0.003
-668.062	-38.002	-0.103	-0.055
-667.047	-94.251	-0.100	0.028
-666.032	14.832	-0.092	-0.073
-665.018	39.526	-0.100	-0.091
-664.003	763.596	0.116	0.319
-662.989	407.191	0.038	-0.081
-661.974	156.458	-0.226	-0.316
-660.959	-200.000	-0.002	-0.029
-659.945	-200.000	-0.051	-0.247
-658.930	53.181	-0.020	-0.020
-657.916	-200.000	-0.015	0.287
-656.901	333.727	0.053	-0.104
-655.886	-200.000	0.033	0.214
-654.872	-169.136	0.124	0.005
-653.857	-83.450	0.585	0.189
-652.843	-65.996	-0.057	-0.023
-651.828	-122.557	0.285	0.047
-650.814	-61.603	-0.092	-0.039
-649.799	-20.686	-0.108	-0.067
-648.784	800.000	-0.108	0.321
-647.770	-90.000	-0.400	0.118
-646.755	101.574	-0.206	-0.243
-645.741	-12.939	0.155	-0.102
-644.726	-200.000	0.029	0.287
-643.711	-108.183	0.394	-0.086
-642.697	-200.000	0.014	0.230
-641.682	387.379	0.192	0.399
-640.668	-200.000	-0.021	0.130
-639.653	-200.000	0.008	-0.394
-638.638	-200.000	-0.004	-0.114
-637.624	-152.240	-0.129	-0.009
-636.609	-62.958	0.263	-0.110
-635.595	75.835	-0.206	0.219
-634.580	73.725	0.104	-0.110
-633.565	274.069	-0.093	-0.166
-632.551	800.000	-0.060	-0.242
-631.536	-125.043	0.095	-0.015
-630.522	-50.985	0.246	-0.116
-629.507	61.241	0.246	0.247
-628.492	93.292	0.170	0.194
-627.478	107.188	0.324	0.388
-626.463	-94.940	0.039	0.011
-625.449	-200.000	-0.014	-0.215
-624.434	-200.000	0.031	-0.240
-623.419	96.191	-0.049	-0.057
-622.405	52.017	-0.146	-0.141
-621.390	330.753	-0.063	0.122
-620.376	39.963	0.200	-0.181
-619.361	-200.000	-0.006	-0.193
-618.346	-126.770	0.266	0.040
-617.332	800.000	-0.039	0.122
-616.317	-112.281	0.166	-0.034
-615.303	58.368	-0.093	-0.092
-614.288	62.046	-0.243	0.244
-613.273	-25.683	-0.432	0.256
-612.259	800.000	0.070	0.214
-611.244	-40.345	0.290	0.152
-610.230	307.243	-0.159	0.298
-609.215	-96.309	-0.180	0.048
-608.201	-118.275	0.349	-0.063
-607.186	-29.203	-0.156	0.090
-606.171	-200.000	0.020	-0.153
-605.157	-45.931	0.065	-0.032
-604.142	-22.166	-0.191	0.117
-603.128	-41.655	0.055	0.029
-602.113	43.614	-0.186	0.171
-601.098	800.000	-0.050	0.186
-600.084	-200.000	0.060	-0.412
-599.069	-181.090	-0.336	-0.007
-598.055	-200.000	0.021	0.150
-597.040	133.759	-0.070	0.091
-596.025	-200.000	-0.035	-0.247
-595.011	67.513	0.280	0.287
-593.996	-200.000	0.043	0.229
-592.982	-36.825	0.091	-0.049
-591.967	-76.462	0.383	-0.135
-590.952	488.501	-0.084	-0.193
-589.938	-200.000	0.025	-0.149
-588.923	-77.808	-0.295	-0.103
-587.909	-200.000	0.024	0.174
-586.894	222.148	-0.101	-0.164
-585.879	7.032	0.300	0.225
-584.865	227.753	0.010	-0.016
-583.850	-46.016	-0.150	-0.075
-582.836	298.225	-0.025	-0.047
-581.821	800.000	0.054	-0.202
-580.806	-109.037	-0.178	-0.038
-579.792	800.000	-0.069	-0.194
-578.777	-73.733	-0.090	-0.033
-577.763	69.765	-0.178	0.184
-576.748	772.652	-0.035	0.096
-575.733	-111.861	-0.100	0.020
-574.719	-27.365	-0.055	-0.032
-573.704	-8.120	-0.283	0.192
-572.690	-200.000	0.022	0.111
-571.675	-71.335	0.094	-0.035
-570.661	-17.443	-0.365	-0.231
-569.646	-71.427	0.110	-0.041
-568.631	5.694	0.322	0.239
-567.617	126.942	-0.064	-0.081
-566.602	308.045	0.238	-0.447
-565.588	198.097	0.308	-0.474
-564.573	-49.232	-0.321	-0.154
-563.558	685.179	-0.028	0.074
-562.544	-176.122	-0.433	0.011
-561.529	-200.000	0.028	-0.210
-560.515	-18.083	-0.109	0.069
-559.500	442.489	0.035	-0.077
-558.485	-200.000	0.016	-0.164
-557.471	64.778	-0.046	-0.047
-556.456	170.473	0.116	-0.168
-555.442	247.795	-0.176	0.299
-554.427	-200.000	0.042	0.216
-553.412	-146.843	0.227	0.020
-552.398	-27.439	-0.132	-0.077
-551.383	-200.000	0.060	-0.348
-550.369	527.404	0.055	0.130
-549.354	69.329	-0.272	0.281
-548.339	800.000	-0.034	0.128
-547.325	-200.000	-0.068	0.404
-546.310	34.824	-0.172	-0.151
-545.296	-69.302	-0.418	-0.161
-544.281	29.228	0.174	0.149
-543.266	-4.611	-0.420	-0.292
-542.252	-200.000	-0.019	-0.355
-541.237	37.714	0.217	-0.194
-540.223	-104.275	-0.192	-0.045
-539.208	800.000	-0.054	0.223
-538.193	-81.680	0.197	0.065
-537.179	-200.000	0.009	0.321
-536.164	-200.000	-0.036	0.281
-535.150	800.000	-0.018	0.056
-534.135	-44.307	-0.109	0.055
-533.121	-200.000	-0.009	0.062
-532.106	413.109	-0.234	0.500
-531.091	93.588	0.074	0.084
-530.077	-75.653	-0.121	0.043
-529.062	36.224	0.231	-0.204
-528.048	-96.417	0.039	-0.010
-527.033	0.557	-0.092	-0.066
-526.018	50.445	0.138	-0.131
-525.004	-108.325	-0.117	-0.025
-523.989	-87.917	0.418	0.126
-522.975	-151.311	0.076	-0.006
-521.960	296.809	0.112	0.206
-520.945	-75.491	-0.325	0.116
-519.931	-124.931	-0.609	-0.094
-518.916	88.003	-0.134	-0.150
-517.902	800.000	-0.075	0.291
-516.887	-200.000	-0.034	0.310
-515.872	-109.893	0.315	0.066
-514.858	-1.516	0.195	0.138
-513.843	-200.000	-0.007	-0.216
-512.829	-58.968	0.210	0.091
-511.814	29.860	-0.244	-0.208
-510.799	-200.000	0.034	-0.229
-509.785	800.000	-0.096	-0.268
-508.770	263.980	-0.120	-0.210
-507.756	46.201	0.127	0.118
-506.741	71.806	0.085	-0.089
-505.726	-91.339	-0.086	0.025
-504.712	800.000	0.073	-0.306
-503.697	579.529	-0.070	0.172
-502.683	-0.201	-0.298	0.212
-501.668	96.080	0.145	0.167
-500.653	-200.000	-0.007	0.204
-499.639	-200.000	0.019	0.311
-498.624	-164.235	0.246	-0.011
-497.610	-48.632	-0.207	0.100
-496.595	87.740	0.207	-0.230
-495.581	15.834	0.178	-0.141
-494.566	800.000	-0.061	0.182
-493.551	-200.000	-0.011	-0.128
-492.537	34.852	-0.158	-0.138
-491.522	605.681	-0.083	0.206
-490.508	-20.616	0.425	-0.262
-489.493	566.471	0.049	-0.119
-488.478	-19.130	0.075	0.047
-487.464	37.048	0.154	0.137
-486.449	-122.275	-0.177	0.029
-485.435	-200.000	-0.025	0.290
-484.420	86.993	0.107	0.119
-483.405	-11.875	0.312	0.205
-482.391	2.725	-0.357	0.259
-481.376	-58.620	0.047	-0.021
-480.362	-104.234	0.214	0.050
-479.347	61.553	0.174	0.174
-478.332	-26.905	-0.088	-0.051
-477.318	35.798	0.190	0.167
-476.303	-80.820	-0.253	-0.084
-475.289	-180.890	0.025	0.001
-474.274	-149.740	0.199	0.016
-473.259	-200.000	0.017	-0.106
-472.245	186.768	0.131	-0.195
-471.230	307.660	-0.112	-0.209
-470.216	148.008	0.152	0.205
-469.201	-22.282	-0.110	-0.067
-468.186	346.471	0.007	0.013
-467.172	-49.709	-0.270	0.128
-466.157	-29.186	-0.147	0.084
-465.143	784.887	0.100	-0.276
-464.128	78.664	-0.137	-0.147
-463.113	-200.000	-0.022	-0.513
-462.099	-177.406	0.220	-0.005
-461.084	3.746	-0.213	0.155
-460.070	-48.952	-0.234	-0.112
-459.055	800.000	-0.067	0.203
-458.040	-200.000	0.009	-0.121
-457.026	-200.000	-0.003	-0.074
-456.011	-48.761	-0.066	0.032
-454.997	28.970	0.267	-0.227
-453.982	21.481	0.301	-0.245
-452.968	-200.000	-0.022	-0.233
-451.953	109.216	0.203	0.243
-450.938	-70.774	0.218	0.083
-449.924	-200.000	0.053	-0.360
-448.909	800.000	-0.053	-0.192
-447.895	-74.726	0.073	-0.026
-446.880	115.952	0.135	0.166
-445.865	55.940	-0.043	-0.042
-444.851	285.096	-0.102	-0.184
-443.836	-112.688	-0.184	0.037
-442.822	-53.312	0.191	0.088
-441.807	800.000	0.058	-0.203
-440.792	-200.000	0.008	0.044
-439.778	-94.135	-0.215	0.059
-438.763	713.229	-0.040	-0.105
-437.749	-72.042	-0.297	0.111
-436.734	11.032	-0.257	-0.197
-435.719	8.616	-0.227	0.171
-434.705	-200.000	-0.011	0.109
-433.690	567.032	-0.122	0.295
-432.676	41.667	0.223	-0.203
-431.661	-1.855	-0.063	-0.045
-430.646	-200.000	-0.027	-0.185
-429.632	-22.956	-0.082	-0.049
-428.617	-25.679	-0.167	0.099
-427.603	46.768	0.095	0.088
-426.588	488.964	0.118	-0.271
-425.573	82.397	-0.112	-0.122
-424.559	714.333	0.109	-0.289
-423.544	-48.951	0.220	0.105
-422.530	56.390	-0.125	0.122
-421.515	800.000	0.027	-0.085
-420.500	637.265	-0.043	0.110
-419.486	470.163	0.078	0.176
-418.471	243.788	0.106	-0.178
-417.457	-200.000	0.074	0.365
-416.442	800.000	-0.047	0.179
-415.428	159.352	0.045	-0.063
-414.413	-105.039	-0.227	-0.052
-413.398	-200.000	-0.029	-0.264
-412.384	-162.639	0.203	0.010
-411.369	-92.900	-0.162	-0.045
-410.355	374.284	-0.070	-0.143
-409.340	-189.837	0.217	-0.002
-408.325	800.000	-0.058	-0.161
-407.311	6.237	-0.200	-0.149
-406.296	-200.000	0.022	-0.470
-405.282	51.691	0.141	-0.134
-404.267	-20.390	-0.125	0.077
-403.252	-139.378	-0.183	0.020
-402.238	800.000	0.076	-0.230
-401.223	49.428	-0.199	-0.187
-400.209	-44.941	-0.070	0.035
-399.194	-85.847	0.097	0.030
-398.179	-187.551	-0.152	-0.002
-397.165	-200.000	0.069	-0.420
-396.150	13.653	0.192	-0.149
-395.136	8.571	-0.123	0.092
-394.121	19.062	0.008	0.006
-393.106	-114.586	0.213	0.041
-392.092	-95.652	0.349	0.093
-391.077	-30.126	0.239	-0.136
-390.063	-54.909	-0.534	0.240
-389.048	-200.000	0.018	-0.513
-388.033	182.573	-0.223	-0.328
-387.019	65.925	0.066	0.066
-386.004	197.457	0.113	0.173
-384.990	237.824	0.121	-0.200
-383.975	-63.793	-0.214	-0.087
-382.960	-55.699	-0.146	-0.065
-381.946	48.164	0.130	-0.122
-380.931	-109.861	-0.093	-0.020
-379.917	-94.404	-0.404	-0.110
-378.902	29.738	-0.139	0.118
-377.888	-77.037	0.242	0.084
-376.873	-61.659	0.266	-0.111
-375.858	-55.194	0.242	0.109
-374.844	131.594	0.150	-0.193
-373.829	-52.188	-0.225	-0.104
-372.815	-200.000	-0.024	-0.108
-371.800	-135.148	-0.086	-0.010
-370.785	-121.006	0.094	-0.016
-369.771	-200.000	-0.034	0.495
-368.756	-84.368	0.488	-0.154
-367.742	401.191	-0.090	-0.189
-366.727	-90.018	-0.168	0.049
-365.712	-158.845	0.572	-0.033
-364.698	59.784	-0.209	-0.206
-363.683	273.496	-0.102	-0.180
-362.669	267.918	0.108	-0.189
-361.654	-65.148	-0.183	-0.074
-360.639	-113.946	0.334	-0.065
-359.625	354.869	0.119	0.236
-358.610	-73.419	-0.331	-0.121
-357.596	-60.772	-0.207	-0.088
-356.581	151.211	-0.164	-0.223
-355.566	-12.561	0.214	0.139
-354.552	468.905	-0.108	0.241
-353.537	363.571	0.087	0.175
-352.523	247.732	0.117	0.196
-351.508	648.020	0.011	0.027
-350.493	-55.856	0.074	-0.033
-349.479	53.319	0.181	-0.173
-348.464	-116.558	-0.179	-0.033
-347.450	-70.742	-0.217	0.082
-346.435	-200.000	-0.003	0.133
-345.420	541.784	-0.108	-0.257
-344.406	669.029	0.053	-0.137
-343.391	-51.151	-0.030	0.014
-342.377	117.182	0.091	0.112
-341.362	-160.044	0.110	0.006
-340.348	-200.000	-0.040	-0.180
-339.333	800.000	0.054	0.208
-338.318	-200.000	-0.013	-0.094
-337.304	109.415	-0.134	0.160
-336.289	-200.000	0.036	-0.239
-335.275	-176.619	0.060	0.002
-334.260	-78.481	0.315	0.108
-333.245	102.266	0.111	-0.129
-332.231	-200.000	-0.010	0.093
-331.216	-110.496	-0.229	0.047
-330.202	-17.514	-0.056	-0.035
-329.187	-200.000	-0.005	-0.112
-328.172	56.288	-0.150	-0.146
-327.158	22.030	-0.117	0.095
-326.143	-25.381	-0.269	0.159
-325.129	-200.000	-0.028	-0.177
-324.114	303.441	0.043	-0.080
-323.099	-52.342	0.278	0.128
-322.085	-18.184	-0.265	0.165
-321.070	-44.804	0.310	-0.154
-320.056	-60.320	0.035	-0.015
-319.041	9.395	-0.036	0.027
-318.026	220.110	-0.133	0.212
-317.012	43.262	-0.174	0.159
-315.997	185.730	-0.052	-0.077
-314.983	284.064	-0.081	-0.145
-313.968	800.000	-0.047	0.181
-312.953	223.697	0.105	0.169
-311.939	-55.898	-0.092	-0.041
-310.924	1.505	-0.147	0.105
-309.910	-200.000	-0.003	-0.433
-308.895	800.000	0.081	-0.229
-307.880	-111.862	0.137	0.028
-306.866	-62.906	0.084	-0.034
-305.851	-40.095	-0.058	0.030
-304.837	-97.129	0.276	0.072
-303.822	-99.726	0.073	0.018
-302.807	-53.795	-0.134	0.061
-301.793	336.622	-0.109	-0.211
-300.778	-131.042	0.083	-0.011
-299.764	-200.000	0.000	0.296
-298.749	-200.000	0.011	-0.057
-297.735	800.000	0.075	0.258
-296.720	800.000	-0.035	0.137
-295.705	452.232	-0.092	0.203
-294.691	-200.000	0.402	0.002
-293.676	-83.129	-0.185	-0.059
-292.662	167.125	0.066	-0.094
-291.647	133.862	-0.114	-0.147
-290.632	552.096	0.079	0.188
-289.618	100.397	0.118	0.136
-288.603	-40.693	0.214	0.111
-287.589	-77.338	0.181	0.063
-286.574	42.810	0.102	0.092
-285.559	-168.359	-0.293	-0.011
-284.545	-158.067	-0.138	0.008
-283.530	-80.991	-0.358	-0.118
-282.516	800.000	-0.046	-0.178
-281.501	-200.000	-0.053	0.237
-280.486	-77.370	-0.263	-0.091
-279.472	-200.000	-0.058	-0.421
-278.457	-21.879	0.238	-0.144
-277.443	111.976	0.168	0.202
-276.428	345.177	0.086	0.167
-275.413	-200.000	-0.167	0.001
-274.399	171.520	-0.144	-0.206
-273.384	9.059	0.336	-0.252
-272.370	427.699	0.213	0.458
-271.355	-200.000	0.028	0.305
-270.340	557.199	0.060	-0.144
-269.326	27.458	-0.111	0.093
-268.311	-82.476	0.309	0.100
-267.297	377.868	-0.107	0.218
-266.282	122.769	-0.028	-0.034
-265.267	-200.000	-0.003	0.187
-264.253	60.191	0.082	0.080
-263.238	15.403	-0.343	-0.268
-262.224	-200.000	0.002	-0.262
-261.209	380.334	-0.140	0.284
-260.195	96.668	0.095	-0.108
-259.180	481.443	0.101	0.229
-258.165	-89.217	0.187	0.055
-257.151	582.743	0.122	0.298
-256.136	-29.932	0.055	-0.031
-255.122	-200.000	-0.017	0.340
-254.107	245.887	0.172	0.288
-253.092	-4.088	0.241	0.166
-252.078	-92.734	0.217	0.060
-251.063	-69.321	-0.122	-0.047
-250.049	-165.372	-0.386	0.017
-249.034	-200.000	-0.022	-0.135
-248.019	8.966	0.029	-0.021
-247.005	-20.508	0.175	-0.107
-245.990	-61.693	-0.120	-0.050
-244.976	-124.711	-0.481	-0.074
-243.961	800.000	0.014	0.058
-242.946	-200.000	-0.014	0.072
-241.932	93.508	-0.258	-0.290
-240.917	-79.601	-0.311	-0.104
-239.903	-169.366	0.214	-0.008
-238.888	800.000	0.056	0.193
-237.873	207.233	0.060	-0.094
-236.859	432.401	0.158	0.340
-235.844	-105.139	0.215	-0.049
-234.830	-200.000	0.042	0.233
-233.815	-43.438	0.095	0.048
-232.800	-20.072	-0.249	0.153
-231.786	-35.145	-0.214	-0.116
-230.771	800.000	0.118	0.325
-229.757	-200.000	0.040	0.231
-228.742	-138.248	0.288	0.032
-227.727	-35.228	0.127	0.069
-226.713	800.000	-0.103	-0.303
-225.698	-14.731	-0.244	-0.156
-224.684	667.444	-0.038	0.097
-223.669	30.464	-0.234	0.198
-222.655	-29.697	0.055	-0.031
-221.640	1.101	0.086	0.061
-220.625	800.000	0.045	-0.147
-219.611	-200.000	0.075	-0.461
-218.596	-200.000	0.010	-0.297
-217.582	-19.427	0.213	-0.131
-216.567	-116.397	0.189	-0.035
-215.552	368.060	-0.050	-0.100
-214.538	66.901	0.099	-0.100
-213.523	-62.830	-0.381	-0.157
-212.509	160.543	0.138	0.192
-211.494	-55.543	0.145	-0.064
-210.479	-200.000	-0.007	-0.198
-209.465	-141.792	-0.199	-0.020
-208.450	800.000	0.050	-0.162
-207.436	131.756	0.059	-0.075
-206.421	347.492	0.111	0.217
-205.406	-200.000	-0.087	0.558
-204.392	96.981	-0.169	-0.192
-203.377	-153.648	0.151	0.010
-202.363	247.269	-0.059	0.098
-201.348	800.000	0.069	0.208
-200.333	-165.951	0.089	-0.004
-199.319	800.000	-0.083	-0.259
-198.304	-199.031	-0.233	0.001
-197.290	-19.882	0.054	0.033
-196.275	470.713	0.042	0.093
-195.260	21.463	0.194	0.157
-194.246	800.000	0.131	-0.370
-193.231	800.000	-0.073	0.291
-192.217	-31.167	0.356	-0.199
-191.202	478.659	0.080	-0.180
-190.187	166.547	-0.193	0.271
-189.173	-200.000	0.051	0.230
-188.158	-123.848	0.219	0.034
-187.144	113.212	-0.113	0.135
-186.129	46.965	-0.184	0.169
-185.114	349.719	0.132	0.259
-184.100	-144.143	-0.073	0.007
-183.085	800.000	0.054	-0.178
-182.071	188.054	-0.108	-0.160
-181.056	-92.264	-0.109	-0.030
-180.042	106.264	0.146	-0.171
-179.027	446.096	-0.082	0.178
-178.012	35.799	0.046	-0.040
-176.998	-85.653	-0.213	0.066
-175.983	147.741	-0.283	0.378
-174.969	-24.118	0.119	-0.071
-173.954	265.419	0.048	0.084
-172.939	800.000	0.012	-0.039
-171.925	30.232	0.182	-0.154
-170.910	-37.774	-0.179	-0.095
-169.896	-200.000	0.022	0.127
-168.881	103.113	-0.069	0.080
-167.866	-200.000	0.007	0.295
-166.852	-140.142	-0.226	-0.024
-165.837	-142.319	0.230	-0.022
-164.823	800.000	0.081	-0.228
-163.808	-200.000	-0.059	-0.277
-162.793	-79.803	0.366	0.122
-161.779	800.000	0.071	0.282
-160.764	-200.000	-0.031	0.199
-159.750	-200.000	0.027	0.143
-158.735	89.538	0.217	-0.239
-157.720	800.000	0.006	0.026
-156.706	-33.838	0.221	0.121
-155.691	-200.000	0.013	0.324
-154.677	-70.700	-0.151	-0.057
-153.662	116.159	-0.093	0.113
-152.647	-200.000	-0.037	-0.162
-151.633	-105.699	0.163	-0.036
-150.618	-23.997	-0.202	-0.119
-149.604	0.570	0.090	-0.064
-148.589	-200.000	0.012	-0.074
-147.574	798.333	0.031	-0.083
-146.560	23.822	-0.168	-0.137
-145.545	-125.857	-0.193	0.029
-144.531	-27.522	0.026	0.015
-143.516	152.892	-0.132	-0.178
-142.502	124.236	0.153	-0.191
-141.487	26.196	-0.142	0.117
-140.472	800.000	-0.030	0.106
-139.458	-200.000	0.010	-0.208
-138.443	800.000	0.023	0.071
-137.429	67.245	0.151	0.152
-136.414	197.699	0.232	0.351
-135.399	-137.039	0.125	0.014
-134.385	-200.000	-0.039	0.176
-133.370	6.448	0.171	0.125
-132.356	-66.011	-0.197	0.078
-131.341	-38.354	0.121	0.063
-130.326	-46.583	-0.122	0.059
-129.312	-200.000	-0.076	0.356
-128.297	110.057	-0.268	0.318
-127.283	-133.791	0.110	0.014
-126.268	-164.277	-0.031	0.001
-125.253	800.000	0.050	-0.163
-124.239	61.952	0.122	-0.120
-123.224	-200.000	0.051	-0.417
-122.210	541.203	-0.084	-0.197
-121.195	22.767	-0.023	-0.019
