DTS Sentinel unit serial number:	SN413079Multiplexer serial number:	ORYXHardware model number:	OX4-SRSoftware version number:	ORYX F/W v4.00 Oryx Data Collector v3.7.2.0data status	okinstallation	princeton_trtdifferential loss correction	single-endedforward channel	channel 2reverse channel	N/Adate	2019/09/16time	10:51:35forward acquisition time	60.00reverse acquisition time	0.00gamma	496.2192k internal	0.2315k external	0.2315temperature offset calibration	0.9956default loss term (dB/km)	0.3790temperature slope calibration	1.0000multiplexer offset coefficient	1.0000multiplexer slope coefficient	1.0000fibre end	0.00T internal ref (°C)	36.41T ext. ref 1 (°C)	12.71T ext. ref 2 (°C)	34.33length (m)	temperature (°C)	Stokes	anti-Stokes-747.200	-70.888	0.172	0.066
-746.185	51.121	-0.473	-0.455
-745.171	480.302	-0.038	-0.088
-744.156	-200.000	0.062	0.366
-743.142	-80.232	0.330	-0.112
-742.127	249.658	-0.055	-0.095
-741.112	49.630	-0.122	0.116
-740.098	-200.000	0.070	0.392
-739.083	-200.000	0.002	-0.075
-738.069	-200.000	0.058	0.335
-737.054	125.891	0.030	-0.038
-736.039	-151.061	0.236	0.018
-735.025	15.817	0.176	0.140
-734.010	285.448	-0.029	0.052
-732.996	-127.782	-0.261	-0.038
-731.981	292.971	0.023	0.043
-730.966	-200.000	0.004	0.412
-729.952	800.000	0.120	0.339
-728.937	-200.000	0.053	0.355
-727.923	800.000	-0.130	-0.391
-726.908	15.340	0.268	-0.213
-725.894	395.214	0.132	0.279
-724.879	-200.000	0.005	-0.213
-723.864	-5.008	-0.186	-0.130
-722.850	-62.131	-0.182	-0.077
-721.835	117.653	-0.251	0.313
-720.821	800.000	-0.138	0.444
-719.806	16.348	-0.036	0.028
-718.791	308.328	0.049	0.092
-717.777	-20.379	-0.263	-0.164
-716.762	-130.772	0.327	0.044
-715.748	-127.579	0.091	0.013
-714.733	114.530	-0.074	0.091
-713.718	-14.960	0.254	0.165
-712.704	-147.163	0.292	0.025
-711.689	771.355	-0.103	-0.283
-710.675	-98.168	-0.045	-0.012
-709.660	800.000	-0.031	0.125
-708.645	582.599	0.062	-0.155
-707.631	-2.479	-0.241	0.171
-706.616	-128.887	0.201	-0.029
-705.602	12.179	-0.121	-0.094
-704.587	257.295	-0.072	0.125
-703.572	-144.548	0.139	0.013
-702.558	-146.360	-0.266	-0.024
-701.543	-75.560	-0.196	-0.071
-700.529	-78.325	-0.252	0.087
-699.514	-122.799	0.442	-0.072
-698.499	-200.000	0.021	-0.174
-697.485	-96.760	0.080	-0.021
-696.470	-54.220	-0.279	0.128
-695.456	571.399	-0.159	0.391
-694.441	-35.553	-0.133	0.073
-693.426	-164.654	0.340	-0.016
-692.412	-82.979	-0.216	0.071
-691.397	-200.000	-0.014	-0.228
-690.383	11.248	-0.043	-0.033
-689.368	-92.382	0.483	-0.138
-688.354	-90.729	0.460	-0.134
-687.339	800.000	-0.021	0.060
-686.324	-4.795	0.074	-0.051
-685.310	-110.825	-0.193	-0.040
-684.295	-2.245	-0.211	-0.150
-683.281	151.655	0.171	-0.236
-682.266	244.616	-0.069	-0.118
-681.251	16.030	0.108	0.086
-680.237	19.529	0.137	-0.111
-679.222	86.533	-0.079	0.088
-678.208	-200.000	-0.005	0.046
-677.193	36.324	0.100	0.089
-676.178	0.818	-0.192	-0.139
-675.164	800.000	-0.026	0.077
-674.149	-200.000	0.002	0.325
-673.135	-200.000	-0.057	0.270
-672.120	-125.353	0.148	-0.023
-671.105	-185.249	-0.535	0.008
-670.091	282.320	0.208	0.377
-669.076	318.328	0.047	0.091
-668.062	315.573	0.150	0.286
-667.047	717.906	0.174	0.467
-666.032	317.016	0.044	-0.084
-665.018	-200.000	-0.023	-0.134
-664.003	232.437	-0.064	-0.106
-662.989	-79.752	-0.158	-0.054
-661.974	-200.000	0.011	-0.143
-660.959	800.000	0.062	-0.212
-659.945	-8.078	-0.123	-0.084
-658.930	-88.133	0.110	0.033
-657.916	305.896	-0.034	0.064
-656.901	-146.776	-0.183	0.016
-655.886	213.910	-0.014	-0.022
-654.872	-145.274	0.225	0.021
-653.857	197.676	-0.086	0.132
-652.843	425.282	-0.056	-0.122
-651.828	800.000	0.052	-0.220
-650.814	-174.928	-0.277	-0.008
-649.799	34.727	-0.173	0.153
-648.784	761.800	0.041	0.113
-647.770	11.991	-0.221	0.171
-646.755	-200.000	0.001	0.217
-645.741	-83.754	-0.444	0.143
-644.726	-200.000	0.031	-0.599
-643.711	16.436	0.013	0.010
-642.697	616.506	0.058	-0.147
-641.682	-12.038	-0.269	-0.178
-640.668	-58.657	-0.163	-0.071
-639.653	160.193	-0.044	-0.062
-638.638	-83.660	-0.100	-0.032
-637.624	-200.000	0.011	-0.175
-636.609	-166.468	0.406	0.017
-635.595	-200.000	-0.020	0.153
-634.580	-81.914	0.115	0.038
-633.565	-115.895	-0.083	0.016
-632.551	78.271	-0.158	0.170
-631.536	-14.222	0.363	-0.236
-630.522	-97.885	-0.083	-0.021
-629.507	-23.369	0.227	0.137
-628.492	119.021	-0.049	0.061
-627.478	174.718	-0.146	-0.213
-626.463	342.319	-0.062	-0.123
-625.449	-113.700	-0.166	-0.033
-624.434	-47.821	-0.096	0.047
-623.419	-94.760	0.174	0.048
-622.405	0.716	0.177	-0.128
-621.390	-200.000	0.023	-0.106
-620.376	241.216	0.091	0.152
-619.361	210.755	-0.138	0.218
-618.346	55.417	0.170	-0.166
-617.332	-82.106	-0.112	-0.037
-616.317	58.693	-0.301	-0.298
-615.303	-117.861	-0.184	0.033
-614.288	130.615	0.073	-0.094
-613.273	208.197	-0.227	-0.357
-612.259	800.000	-0.050	0.158
-611.244	-42.382	0.166	0.086
-610.230	165.409	0.223	0.317
-609.215	53.083	-0.107	-0.103
-608.201	69.051	-0.283	-0.294
-607.186	-130.812	0.231	-0.031
-606.171	800.000	-0.061	-0.180
-605.157	-169.128	-0.079	0.003
-604.142	25.281	-0.310	0.260
-603.128	-200.000	0.034	-0.230
-602.113	-95.021	-0.435	-0.118
-601.098	800.000	-0.042	0.124
-600.084	496.195	0.121	0.281
-599.069	176.206	-0.155	-0.227
-598.055	-119.485	0.384	0.067
-597.040	99.943	-0.077	-0.090
-596.025	71.253	0.070	-0.073
-595.011	-139.168	0.353	-0.038
-593.996	149.964	0.165	0.225
-592.982	-36.607	-0.136	0.074
-591.967	-59.364	0.139	0.060
-590.952	-50.240	-0.116	0.055
-589.938	-85.717	-0.087	0.027
-588.923	197.101	-0.036	0.055
-587.909	800.000	-0.115	-0.320
-586.894	-19.350	0.177	0.111
-585.879	-4.479	0.032	-0.022
-584.865	-153.940	-0.173	-0.012
-583.850	-171.911	0.069	0.002
-582.836	-30.515	0.150	-0.086
-581.821	110.913	-0.055	0.066
-580.806	-200.000	0.026	0.164
-579.792	-103.195	-0.226	0.054
-578.777	800.000	0.051	-0.163
-577.763	800.000	-0.023	-0.099
-576.748	-200.000	-0.018	0.173
-575.733	-200.000	0.025	0.283
-574.719	-107.224	-0.090	-0.020
-573.704	800.000	0.013	-0.039
-572.690	310.040	0.098	0.185
-571.675	-200.000	-0.084	-0.387
-570.661	-92.541	0.263	0.074
-569.646	-47.462	0.146	-0.071
-568.631	23.981	-0.045	0.037
-567.617	56.256	-0.170	-0.166
-566.602	-129.871	0.093	0.013
-565.588	-19.912	0.167	-0.104
-564.573	-39.681	0.215	0.113
-563.558	-200.000	0.078	0.388
-562.544	78.100	-0.122	0.131
-561.529	-117.547	-0.578	0.105
-560.515	131.565	0.114	0.148
-559.500	-109.164	-0.396	-0.085
-558.485	156.574	-0.091	0.126
-557.471	-200.000	-0.020	-0.100
-556.456	151.059	-0.111	0.152
-555.442	-40.670	0.118	-0.061
-554.427	-200.000	0.015	0.195
-553.412	-128.711	0.131	-0.019
-552.398	-35.035	0.110	-0.060
-551.383	74.072	-0.425	-0.448
-550.369	114.243	-0.110	-0.135
-549.354	746.245	-0.087	0.236
-548.339	-200.000	0.011	-0.085
-547.325	-57.114	0.147	0.065
-546.310	21.959	0.268	0.220
-545.296	658.232	-0.119	0.308
-544.281	745.750	0.035	0.096
-543.266	800.000	0.135	-0.508
-542.252	800.000	0.022	0.094
-541.237	-200.000	-0.046	0.204
-540.223	615.355	0.199	-0.501
-539.208	69.088	0.117	-0.121
-538.193	-115.786	-0.470	0.088
-537.179	577.560	0.030	-0.075
-536.164	-11.410	0.100	-0.066
-535.150	299.857	0.032	-0.058
-534.135	207.635	-0.024	-0.038
-533.121	86.405	0.027	0.030
-532.106	-69.120	-0.373	0.144
-531.091	-37.955	0.169	0.090
-530.077	-49.723	0.253	0.121
-529.062	-200.000	-0.019	0.300
-528.048	329.874	-0.139	-0.270
-527.033	-95.318	0.248	-0.067
-526.018	173.814	0.044	-0.064
-525.004	-58.186	0.154	0.067
-523.989	-34.185	0.221	-0.122
-522.975	659.428	-0.115	-0.298
-521.960	-89.924	0.422	-0.124
-520.945	-43.732	-0.073	-0.037
-519.931	-57.739	0.182	0.080
-518.916	-49.475	0.125	0.060
-517.902	800.000	0.068	0.272
-516.887	-85.003	-0.223	-0.070
-515.872	775.662	-0.107	-0.295
-514.858	99.115	-0.038	-0.044
-513.843	-200.000	0.035	0.437
-512.829	163.773	0.103	0.146
-511.814	-16.926	-0.210	0.133
-510.799	79.760	-0.237	0.256
-509.785	-79.827	0.234	-0.079
-508.770	70.894	-0.068	-0.071
-507.756	-56.554	0.185	-0.082
-506.741	61.603	-0.158	0.158
-505.726	168.803	0.107	0.153
-504.712	606.824	0.108	-0.271
-503.697	800.000	0.055	0.224
-502.683	-30.205	-0.325	0.185
-501.668	-200.000	-0.009	0.111
-500.653	800.000	-0.100	-0.329
-499.639	-26.289	-0.227	0.134
-498.624	-109.972	0.246	0.052
-497.610	678.809	-0.099	0.258
-496.595	703.597	-0.050	-0.133
-495.581	-51.715	-0.098	0.046
-494.566	-68.610	-0.155	-0.060
-493.551	77.223	0.072	0.077
-492.537	132.709	0.056	0.073
-491.522	-104.590	0.123	0.028
-490.508	-200.000	-0.005	-0.121
-489.493	800.000	-0.033	-0.139
-488.478	506.140	0.096	-0.223
-487.464	800.000	-0.036	0.134
-486.449	180.097	-0.123	0.181
-485.435	-200.000	-0.001	0.145
-484.420	-84.486	0.440	0.139
-483.405	-177.245	-0.156	-0.004
-482.391	-200.000	0.016	0.309
-481.376	32.501	-0.095	0.083
-480.362	7.407	-0.135	0.101
-479.347	-125.630	0.413	-0.063
-478.332	-124.678	0.339	0.053
-477.318	420.148	0.043	0.092
-476.303	-200.000	-0.022	0.361
-475.289	800.000	0.047	0.135
-474.274	-5.267	-0.217	-0.149
-473.259	-200.000	-0.049	-0.283
-472.245	-95.728	-0.265	-0.071
-471.230	69.894	-0.152	-0.158
-470.216	-112.810	0.217	0.043
-469.201	85.221	-0.264	0.290
-468.186	58.029	0.192	-0.189
-467.172	-200.000	-0.006	0.048
-466.157	-42.343	0.411	0.210
-465.143	224.915	0.129	-0.209
-464.128	179.452	-0.078	0.115
-463.113	-29.471	0.097	0.055
-462.099	151.969	0.062	-0.085
-461.084	-131.147	-0.072	-0.010
-460.070	194.992	0.080	-0.121
-459.055	-0.006	0.135	-0.096
-458.040	800.000	0.057	0.171
-457.026	31.838	0.161	0.139
-456.011	97.902	-0.040	-0.046
-454.997	-200.000	-0.027	-0.148
-453.982	-140.345	0.024	-0.002
-452.968	-45.533	0.178	-0.088
-451.953	-132.273	0.052	0.007
-450.938	178.111	-0.206	0.300
-449.924	-48.762	-0.096	0.046
-448.909	325.635	-0.065	-0.124
-447.895	-200.000	-0.031	-0.145
-446.880	800.000	-0.028	-0.092
-445.865	-65.390	-0.302	-0.122
-444.851	219.952	0.164	0.263
-443.836	62.348	-0.085	0.085
-442.822	302.729	0.062	-0.115
-441.807	305.578	-0.204	0.380
-440.792	-200.000	-0.047	-0.307
-439.778	10.889	0.041	-0.031
-438.763	303.808	0.082	-0.152
-437.749	800.000	-0.137	-0.558
-436.734	16.600	0.163	-0.129
-435.719	355.512	0.120	-0.238
-434.705	-11.128	0.058	0.039
-433.690	12.449	0.079	-0.061
-432.676	185.010	0.080	-0.119
-431.661	-166.141	0.113	0.005
-430.646	-23.848	0.108	-0.065
-429.632	350.700	-0.091	0.180
-428.617	-58.951	0.255	0.110
-427.603	190.243	-0.028	-0.042
-426.588	66.344	-0.120	0.122
-425.573	-152.227	0.242	-0.017
-424.559	800.000	0.077	-0.324
-423.544	36.690	-0.218	-0.193
-422.530	300.637	-0.129	0.239
-421.515	-38.931	0.257	0.135
-420.500	628.591	0.087	-0.220
-419.486	-200.000	0.022	-0.366
-418.471	-5.995	-0.351	0.240
-417.457	-113.474	0.228	-0.045
-416.442	624.658	0.072	-0.182
-415.428	417.297	0.127	0.271
-414.413	174.510	0.101	-0.146
-413.398	7.814	-0.152	-0.114
-412.384	-59.825	-0.059	0.025
-411.369	245.902	0.175	-0.295
-410.355	-128.994	0.134	0.019
-409.340	-14.871	-0.233	0.150
-408.325	-63.757	-0.108	0.044
-407.311	474.327	0.174	0.392
-406.296	-49.740	-0.192	0.091
-405.282	-1.681	0.126	0.089
-404.267	-200.000	0.008	0.165
-403.252	-112.319	0.224	0.045
-402.238	11.513	0.158	-0.121
-401.223	800.000	-0.050	-0.143
-400.209	-200.000	-0.166	-0.001
-399.194	-130.903	-0.095	-0.013
-398.179	178.132	0.157	-0.229
-397.165	145.380	-0.314	0.421
-396.150	-51.575	-0.520	0.243
-395.136	74.027	-0.211	-0.221
-394.121	17.157	0.046	-0.037
-393.106	125.958	-0.239	-0.301
-392.092	78.748	0.184	-0.197
-391.077	800.000	0.119	-0.391
-390.063	-30.021	0.245	0.139
-389.048	347.095	0.094	0.185
-388.033	379.172	0.054	0.110
-387.019	-178.089	-0.146	0.003
-386.004	80.613	0.283	0.305
-384.990	-200.000	-0.014	-0.559
-383.975	-200.000	0.020	-0.475
-382.960	-122.551	0.137	-0.022
-381.946	-13.462	0.252	0.163
-380.931	-22.253	0.046	-0.028
-379.917	331.330	0.122	-0.236
-378.902	-75.334	-0.330	0.118
-377.888	800.000	-0.069	0.227
-376.873	-200.000	0.016	0.170
-375.858	-24.321	-0.221	-0.132
-374.844	-137.964	0.287	0.032
-373.829	-154.322	0.202	-0.014
-372.815	-68.769	0.190	0.073
-371.800	38.944	0.247	0.220
-370.785	-200.000	-0.003	-0.033
-369.771	252.860	-0.089	0.151
-368.756	121.593	0.093	0.115
-367.742	-142.126	0.098	-0.010
-366.727	800.000	0.043	-0.172
-365.712	122.142	-0.145	-0.181
-364.698	-166.971	-0.250	-0.010
-363.683	-200.000	0.003	0.139
-362.669	256.721	0.110	-0.189
-361.654	42.066	-0.179	-0.162
-360.639	9.663	0.126	-0.095
-359.625	33.170	-0.318	0.275
-358.610	-48.426	-0.068	0.033
-357.596	-125.064	-0.252	-0.039
-356.581	539.216	0.034	-0.082
-355.566	-200.000	-0.082	-0.395
-354.552	116.480	-0.212	0.259
-353.537	-200.000	0.039	0.218
-352.523	155.019	-0.260	0.357
-351.508	-48.563	-0.250	0.120
-350.493	274.447	0.126	-0.223
-349.479	2.348	0.242	-0.175
-348.464	800.000	0.099	-0.401
-347.450	102.920	-0.172	-0.201
-346.435	513.937	-0.048	0.111
-345.420	-56.821	-0.217	0.096
-344.406	612.331	0.073	-0.183
-343.391	-51.743	-0.533	-0.248
-342.377	-143.937	0.216	0.020
-341.362	56.567	-0.058	0.056
-340.348	211.157	-0.141	-0.221
-339.333	235.050	0.058	-0.096
-338.318	253.177	-0.086	-0.147
-337.304	42.768	-0.114	-0.103
-336.289	284.531	0.224	0.402
-335.275	-24.324	-0.181	-0.108
-334.260	387.072	0.069	0.143
-333.245	-153.447	-0.090	0.006
-332.231	800.000	0.125	0.410
-331.216	-78.449	0.366	0.125
-330.202	-200.000	-0.058	-0.298
-329.187	-96.471	0.304	-0.080
-328.172	-200.000	0.005	-0.118
-327.158	-31.392	-0.211	-0.118
-326.143	82.757	-0.157	0.170
-325.129	203.111	0.078	-0.120
-324.114	-148.681	0.372	-0.030
-323.099	146.471	0.202	0.271
-322.085	1.302	0.145	-0.104
-321.070	-13.204	0.368	-0.238
-320.056	7.071	-0.155	-0.115
-319.041	-200.000	0.010	-0.145
-318.026	27.380	0.270	0.226
-317.012	-157.549	-0.239	0.014
-315.997	800.000	0.062	-0.196
-314.983	-200.000	-0.010	0.205
-313.968	-200.000	0.053	-0.243
-312.953	299.412	-0.069	0.127
-311.939	-26.968	0.297	0.173
-310.924	-152.253	-0.275	-0.020
-309.910	84.305	0.145	0.158
-308.895	-181.077	-0.289	0.006
-307.880	487.149	-0.020	-0.044
-306.866	-163.111	-0.165	-0.008
-305.851	-86.145	0.107	-0.033
-304.837	42.787	-0.160	0.145
-303.822	-68.109	0.123	-0.048
-302.807	20.331	0.142	-0.114
-301.793	121.771	-0.128	-0.159
-300.778	9.913	-0.114	0.086
-299.764	78.554	-0.056	-0.060
-298.749	800.000	-0.094	0.306
-297.735	-200.000	0.077	-0.000
-296.720	-71.790	0.492	-0.182
-295.705	296.266	-0.033	0.060
-294.691	174.971	-0.276	-0.398
-293.676	-200.000	0.015	0.224
-292.662	-48.287	-0.242	-0.116
-291.647	22.522	-0.187	0.152
-290.632	607.382	-0.133	0.330
-289.618	-127.972	0.070	-0.010
-288.603	37.459	0.273	0.241
-287.589	-92.906	-0.221	-0.061
-286.574	-200.000	-0.001	0.026
-285.559	-10.683	0.359	0.237
-284.545	4.333	0.056	-0.041
-283.530	-31.151	-0.014	0.008
-282.516	-200.000	-0.024	0.153
-281.501	-93.819	0.444	-0.122
-280.486	800.000	-0.045	0.186
-279.472	-200.000	0.038	0.255
-278.457	-14.158	0.091	-0.058
-277.443	332.183	0.030	0.057
-276.428	-200.000	-0.007	0.031
-275.413	-139.085	0.120	-0.013
-274.399	-1.973	-0.241	0.168
-273.384	-200.000	-0.003	0.085
-272.370	74.677	0.186	0.195
-271.355	55.350	-0.133	-0.128
-270.340	267.845	0.187	-0.325
-269.326	67.433	0.057	0.057
-268.311	14.473	-0.292	0.227
-267.297	-43.370	-0.106	-0.053
-266.282	101.986	0.210	-0.244
-265.267	125.784	0.219	0.275
-264.253	-91.905	-0.017	0.005
-263.238	-149.376	-0.093	-0.007
-262.224	45.734	0.209	0.192
-261.209	-47.918	-0.315	0.152
-260.195	-75.704	0.154	0.054
-259.180	610.104	-0.109	-0.271
-258.165	-77.699	0.159	-0.055
-257.151	800.000	-0.078	0.308
-256.136	800.000	-0.104	0.442
-255.122	158.130	-0.139	-0.192
-254.107	763.767	-0.102	-0.276
-253.092	66.869	0.158	0.159
-252.078	-111.290	0.160	-0.033
-251.063	-200.000	0.044	0.480
-250.049	55.587	0.173	0.167
-249.034	192.938	-0.059	0.088
-248.019	800.000	-0.070	0.269
-247.005	-175.584	0.123	0.003
-245.990	204.149	0.135	0.208
-244.976	800.000	0.032	0.094
-243.961	800.000	0.059	0.238
-242.946	-82.085	0.315	0.102
-241.932	-200.000	0.010	-0.153
-240.917	145.311	-0.040	0.054
-239.903	-63.856	-0.424	-0.172
-238.888	800.000	-0.070	-0.191
-237.873	800.000	-0.028	-0.081
-236.859	67.906	-0.096	-0.097
-235.844	-200.000	-0.014	0.113
-234.830	-200.000	-0.014	0.202
-233.815	280.558	0.100	0.177
-232.800	81.574	-0.270	0.290
-231.786	800.000	-0.067	0.183
-230.771	32.073	-0.126	-0.108
-229.757	27.458	0.265	-0.221
-228.742	257.735	0.125	0.214
-227.727	-200.000	-0.182	0.000
-226.713	109.767	-0.123	0.147
-225.698	19.716	0.176	-0.140
-224.684	129.473	-0.040	0.051
-223.669	-146.076	0.117	-0.010
-222.655	3.625	0.149	0.108
-221.640	-102.087	0.174	-0.042
-220.625	-82.359	-0.120	0.039
-219.611	-200.000	-0.016	-0.369
-218.596	800.000	0.075	0.220
-217.582	179.632	0.159	0.231
-216.567	196.023	-0.111	0.167
-215.552	67.549	-0.086	-0.087
-214.538	553.065	0.046	-0.110
-213.523	238.250	-0.099	-0.162
-212.509	-144.295	-0.099	-0.009
-211.494	-200.000	-0.041	0.318
-210.479	800.000	0.029	-0.079
-209.465	31.152	-0.166	-0.141
-208.450	471.467	0.049	0.109
-207.436	-76.205	0.194	0.068
-206.421	85.376	0.215	-0.234
-205.406	272.324	0.008	0.014
-204.392	-172.381	0.173	-0.005
-203.377	800.000	-0.129	-0.390
-202.363	710.980	-0.024	-0.064
-201.348	166.300	0.132	0.186
-200.333	-200.000	0.021	-0.158
-199.319	-40.116	-0.320	0.165
-198.304	153.433	0.052	0.070
-197.290	800.000	0.115	-0.354
-196.275	-73.620	-0.234	-0.085
-195.260	91.662	0.065	0.072
-194.246	-200.000	0.021	-0.149
-193.231	-124.180	0.433	0.067
-192.217	-200.000	0.014	-0.076
-191.202	74.206	0.312	-0.325
-190.187	-92.003	-0.173	0.048
-189.173	-200.000	0.038	-0.185
-188.158	800.000	0.085	0.244
-187.144	-2.674	-0.336	0.233
-186.129	498.197	-0.104	-0.237
-185.114	-163.154	-0.337	-0.016
-184.100	-200.000	-0.017	0.095
-183.085	800.000	-0.066	0.211
-182.071	92.757	-0.070	0.078
-181.056	1.916	-0.159	-0.113
-180.042	59.901	-0.141	0.138
-179.027	48.980	-0.315	-0.293
-178.012	532.236	-0.136	-0.319
-176.998	-36.594	0.446	-0.238
-175.983	-73.859	-0.237	0.085
-174.969	800.000	-0.059	-0.184
-173.954	245.387	0.086	-0.144
-172.939	-19.425	-0.216	0.133
-171.925	-39.168	0.219	0.114
-170.910	188.268	-0.140	-0.207
-169.896	-200.000	-0.022	-0.151
-168.881	-191.963	0.152	0.001
-167.866	84.042	0.053	-0.057
-166.852	-24.997	0.100	0.059
-165.837	177.345	-0.128	-0.185
-164.823	-200.000	0.028	-0.397
-163.808	213.483	-0.169	-0.265
-162.793	121.024	0.174	0.215
-161.779	-200.000	0.024	-0.180
-160.764	-46.009	-0.139	-0.068
-159.750	20.175	-0.138	0.110
-158.735	800.000	0.092	-0.275
-157.720	-200.000	-0.066	0.383
-156.706	42.508	-0.083	0.075
-155.691	-74.173	-0.352	0.126
-154.677	103.896	-0.075	-0.088
-153.662	-119.109	0.113	0.020
-152.647	2.549	0.105	-0.076
-151.633	-163.168	0.146	-0.007
-150.618	257.063	0.006	-0.011
-149.604	-75.274	0.046	0.016
-148.589	91.332	0.044	0.049
-147.574	51.388	0.211	0.199
-146.560	-116.914	0.343	-0.062
-145.545	-46.683	0.519	-0.252
-144.531	-55.304	-0.167	0.074
-143.516	-200.000	0.006	0.027
-142.502	410.202	-0.138	0.290
-141.487	649.420	-0.031	0.078
-140.472	800.000	0.118	-0.337
-139.458	-69.532	0.340	0.129
-138.443	-129.738	0.351	-0.048
-137.429	181.970	-0.156	-0.227
-136.414	-13.550	0.057	0.037
-135.399	-120.363	0.087	0.015
-134.385	-66.175	0.377	0.149
-133.370	800.000	0.078	-0.220
-132.356	190.399	0.194	-0.289
-131.341	109.902	0.160	0.190
-130.326	-157.273	-0.342	0.020
-129.312	-23.471	0.114	0.068
-128.297	-25.342	0.039	0.023
-127.283	800.000	-0.122	0.360
-126.268	-50.284	0.081	-0.038
-125.253	-141.002	-0.260	-0.026
-124.239	166.994	0.034	0.048
-123.224	-145.102	-0.239	-0.021
-122.210	-19.673	-0.128	-0.078
-121.195	224.725	0.107	0.171
-120.180	-1.347	-0.176	0.123
