DTS Sentinel unit serial number:	SN413079Multiplexer serial number:	ORYXHardware model number:	OX4-SRSoftware version number:	ORYX F/W v4.00 Oryx Data Collector v3.7.2.0data status	okinstallation	princeton_trtdifferential loss correction	single-endedforward channel	channel 2reverse channel	N/Adate	2019/09/14time	21:43:35forward acquisition time	60.00reverse acquisition time	0.00gamma	496.2192k internal	0.2323k external	0.2323temperature offset calibration	1.0075default loss term (dB/km)	0.3790temperature slope calibration	1.0000multiplexer offset coefficient	1.0000multiplexer slope coefficient	1.0000fibre end	0.00T internal ref (°C)	32.75T ext. ref 1 (°C)	4.76T ext. ref 2 (°C)	27.70length (m)	temperature (°C)	Stokes	anti-Stokes-747.200	9.290	0.222	0.170
-746.185	-25.768	0.038	-0.022
-745.171	122.322	0.289	0.365
-744.156	-104.287	-0.367	0.086
-743.142	-122.668	-0.215	0.035
-742.127	349.775	-0.274	0.547
-741.112	797.302	-0.056	-0.156
-740.098	56.685	0.051	-0.050
-739.083	-200.000	-0.008	0.088
-738.069	347.339	0.256	0.510
-737.054	76.091	0.122	0.131
-736.039	-108.761	-0.570	0.123
-735.025	-198.433	0.059	-0.000
-734.010	-1.389	-0.091	0.065
-732.996	-87.404	-0.272	-0.083
-731.981	-48.727	0.019	0.009
-730.966	-70.216	0.191	0.073
-729.952	112.859	-0.079	0.097
-728.937	-166.222	-0.408	-0.017
-727.923	-137.429	-0.286	-0.033
-726.908	-174.113	-0.084	0.002
-725.894	22.069	-0.191	-0.158
-724.879	-200.000	0.004	-0.122
-723.864	-200.000	-0.014	0.319
-722.850	-74.964	-0.247	-0.089
-721.835	410.019	-0.054	-0.116
-720.821	-52.724	0.197	-0.092
-719.806	-200.000	0.000	-0.110
-718.791	551.601	0.025	-0.060
-717.777	-122.799	0.324	-0.053
-716.762	-200.000	-0.022	-0.113
-715.748	453.157	-0.075	0.168
-714.733	-200.000	-0.026	0.280
-713.718	-200.000	-0.010	0.185
-712.704	13.698	-0.066	0.052
-711.689	800.000	-0.060	0.238
-710.675	-10.404	-0.220	0.147
-709.660	80.049	-0.124	-0.134
-708.645	-155.925	-0.147	0.009
-707.631	-156.706	-0.110	-0.007
-706.616	-56.956	-0.183	-0.081
-705.602	31.232	-0.296	0.256
-704.587	-200.000	-0.004	-0.275
-703.572	112.445	-0.193	0.235
-702.558	-158.870	0.384	0.022
-701.543	-200.000	0.038	0.268
-700.529	302.079	0.163	-0.303
-699.514	65.780	-0.215	-0.219
-698.499	-200.000	-0.003	-0.049
-697.485	-200.000	-0.000	0.291
-696.470	-42.462	-0.067	0.035
-695.456	-83.609	-0.653	-0.211
-694.441	-200.000	-0.051	0.380
-693.426	800.000	-0.062	0.237
-692.412	285.801	-0.047	-0.086
-691.397	141.949	-0.011	0.015
-690.383	-200.000	0.022	-0.223
-689.368	-200.000	-0.010	-0.144
-688.354	-42.138	-0.143	0.074
-687.339	-114.316	0.242	-0.047
-686.324	-171.939	-0.048	0.002
-685.310	183.209	-0.069	-0.103
-684.295	130.601	0.179	-0.231
-683.281	-70.818	0.277	-0.105
-682.266	-56.433	-0.201	0.090
-681.251	265.660	0.176	-0.309
-680.237	-5.337	0.136	-0.094
-679.222	-200.000	-0.020	-0.261
-678.208	117.869	-0.191	-0.237
-677.193	-43.809	-0.289	-0.146
-676.178	-135.034	0.279	-0.034
-675.164	800.000	0.084	0.269
-674.149	-22.540	0.269	-0.164
-673.135	-37.407	-0.120	-0.064
-672.120	145.817	-0.236	-0.319
-671.105	-12.688	-0.432	-0.284
-670.091	95.139	0.163	-0.186
-669.076	248.297	0.196	-0.335
-668.062	-200.000	-0.033	-0.156
-667.047	-67.225	-0.106	-0.042
-666.032	-127.690	-0.439	0.064
-665.018	-40.182	-0.137	-0.072
-664.003	60.192	0.307	-0.306
-662.989	38.962	-0.159	0.143
-661.974	-105.501	0.235	-0.054
-660.959	-143.951	-0.399	0.038
-659.945	-157.411	-0.178	0.011
-658.930	305.289	0.110	-0.206
-657.916	-134.540	-0.426	0.052
-656.901	-200.000	-0.011	0.094
-655.886	414.256	-0.034	-0.073
-654.872	800.000	0.037	0.126
-653.857	-200.000	0.004	-0.026
-652.843	-200.000	0.052	-0.278
-651.828	13.494	-0.224	-0.175
-650.814	-200.000	-0.006	0.141
-649.799	340.256	0.042	-0.083
-648.784	-68.241	-0.091	0.036
-647.770	-190.637	-0.445	-0.005
-646.755	-124.868	0.043	-0.007
-645.741	-117.225	0.154	0.028
-644.726	71.052	-0.186	-0.194
-643.711	-200.000	-0.032	0.185
-642.697	276.441	0.054	-0.097
-641.682	427.388	-0.240	-0.521
-640.668	16.752	-0.168	-0.134
-639.653	-200.000	0.021	-0.119
-638.638	-56.885	-0.131	-0.058
-637.624	30.522	-0.126	0.108
-636.609	112.626	-0.087	0.105
-635.595	-200.000	-0.008	0.059
-634.580	86.906	0.089	-0.099
-633.565	800.000	-0.047	-0.159
-632.551	-200.000	-0.026	-0.167
-631.536	-56.108	0.176	-0.079
-630.522	-151.058	0.135	0.010
-629.507	6.722	-0.248	0.185
-628.492	-42.636	0.198	-0.101
-627.478	800.000	-0.046	0.170
-626.463	-37.299	-0.121	-0.065
-625.449	289.040	0.150	0.274
-624.434	58.096	0.093	0.092
-623.419	-200.000	0.075	-0.338
-622.405	800.000	0.104	0.322
-621.390	-200.000	0.039	0.195
-620.376	31.906	0.165	0.143
-619.361	-125.405	-0.140	0.021
-618.346	-200.000	0.010	-0.054
-617.332	294.150	0.037	-0.067
-616.317	138.486	-0.185	0.243
-615.303	-63.601	0.117	0.048
-614.288	-130.278	0.104	-0.014
-613.273	-118.492	0.141	-0.025
-612.259	-53.829	0.044	-0.020
-611.244	269.712	-0.020	0.035
-610.230	-200.000	0.058	0.440
-609.215	-200.000	0.038	-0.328
-608.201	-158.331	-0.042	0.002
-607.186	-58.334	-0.187	-0.082
-606.171	-96.666	-0.326	0.086
-605.157	38.804	-0.031	-0.028
-604.142	155.604	-0.125	-0.173
-603.128	212.602	-0.144	0.229
-602.113	118.949	-0.085	0.105
-601.098	42.136	0.192	0.175
-600.084	-200.000	-0.003	0.091
-599.069	151.286	0.120	-0.164
-598.055	-8.405	-0.187	-0.126
-597.040	-133.914	0.266	-0.033
-596.025	-55.018	-0.150	-0.068
-595.011	139.582	-0.105	0.138
-593.996	-141.970	0.368	-0.037
-592.982	203.519	-0.132	0.206
-591.967	596.622	0.136	0.338
-590.952	115.134	-0.168	-0.205
-589.938	-33.291	-0.093	-0.052
-588.923	-54.184	0.118	0.054
-587.909	-50.019	-0.169	-0.081
-586.894	-200.000	0.013	0.071
-585.879	-200.000	-0.020	-0.357
-584.865	175.306	0.155	-0.226
-583.850	-200.000	-0.008	0.037
-582.836	-200.000	-0.019	-0.277
-581.821	-200.000	0.033	0.461
-580.806	431.018	0.030	0.065
-579.792	727.407	-0.055	-0.148
-578.777	-16.307	-0.079	-0.050
-577.763	93.879	-0.032	0.037
-576.748	9.889	-0.308	-0.234
-575.733	-22.693	-0.244	-0.148
-574.719	-29.049	0.151	-0.087
-573.704	120.872	-0.176	-0.220
-572.690	-170.631	0.386	-0.013
-571.675	394.015	0.028	-0.059
-570.661	800.000	-0.038	-0.143
-569.646	-12.631	0.249	-0.163
-568.631	-16.301	-0.192	0.122
-567.617	-93.062	-0.166	0.046
-566.602	-200.000	0.014	0.377
-565.588	800.000	0.101	-0.315
-564.573	-92.522	-0.172	0.048
-563.558	-200.000	-0.005	0.187
-562.544	-57.396	0.110	-0.048
-561.529	800.000	-0.032	-0.094
-560.515	-200.000	-0.014	0.092
-559.500	800.000	0.042	0.140
-558.485	-15.900	-0.261	0.167
-557.471	121.597	-0.128	0.160
-556.456	-91.995	0.089	-0.025
-555.442	117.225	-0.131	0.161
-554.427	-152.788	0.135	0.010
-553.412	-4.729	-0.195	0.135
-552.398	-80.110	-0.269	0.090
-551.383	-146.315	0.310	0.027
-550.369	-81.599	0.249	0.082
-549.354	258.781	0.055	-0.095
-548.339	800.000	0.137	-0.402
-547.325	-62.102	-0.182	-0.076
-546.310	-200.000	-0.006	-0.187
-545.296	-11.101	0.229	-0.152
-544.281	470.314	-0.013	-0.030
-543.266	-73.894	-0.283	0.103
-542.252	-200.000	0.047	-0.318
-541.237	456.652	0.113	0.252
-540.223	64.522	-0.144	-0.145
-539.208	4.656	0.088	0.065
-538.193	-45.291	0.218	-0.109
-537.179	800.000	-0.060	0.183
-536.164	-200.000	-0.033	0.160
-535.150	-200.000	-0.001	0.174
-534.135	-86.617	-0.271	0.083
-533.121	-135.163	-0.097	-0.012
-532.106	-144.128	-0.397	0.037
-531.091	-200.000	0.077	0.357
-530.077	-200.000	-0.025	-0.124
-529.062	-42.539	0.087	0.045
-528.048	-200.000	0.030	-0.443
-527.033	-5.054	0.228	0.157
-526.018	-124.413	-0.170	-0.027
-525.004	-148.314	0.105	-0.009
-523.989	800.000	-0.068	0.260
-522.975	771.306	0.159	-0.434
-521.960	193.167	0.057	0.086
-520.945	-200.000	-0.050	0.230
-519.931	-157.524	-0.154	-0.009
-518.916	-200.000	-0.014	0.196
-517.902	-200.000	-0.106	0.488
-516.887	159.740	-0.208	-0.291
-515.872	-200.000	0.025	-0.250
-514.858	-81.940	0.232	-0.076
-513.843	-200.000	0.049	-0.367
-512.829	-136.174	0.180	-0.021
-511.814	-12.512	0.162	0.106
-510.799	-154.517	-0.276	-0.018
-509.785	131.160	-0.200	-0.257
-508.770	-50.759	-0.184	-0.087
-507.756	52.190	-0.168	0.160
-506.741	247.194	-0.043	-0.073
-505.726	37.901	-0.135	0.120
-504.712	-155.415	-0.043	0.003
-503.697	417.552	-0.081	0.174
-502.683	-185.613	0.212	0.003
-501.668	-12.532	0.141	-0.092
-500.653	-200.000	-0.052	-0.309
-499.639	309.142	0.038	-0.071
-498.624	50.595	-0.214	0.203
-497.610	82.096	-0.047	-0.051
-496.595	53.039	0.177	-0.169
-495.581	-200.000	0.029	-0.301
-494.566	7.877	-0.099	0.074
-493.551	-200.000	0.030	-0.189
-492.537	-200.000	0.005	-0.118
-491.522	-105.977	0.204	0.046
-490.508	-135.157	0.234	-0.028
-489.493	-105.728	0.116	0.026
-488.478	-200.000	-0.011	0.203
-487.464	-200.000	-0.005	-0.145
-486.449	-128.107	-0.194	-0.028
-485.435	28.714	0.184	-0.156
-484.420	258.899	-0.050	-0.086
-483.405	-200.000	-0.028	0.126
-482.391	-100.486	0.481	-0.119
-481.376	800.000	0.063	-0.218
-480.362	327.849	0.033	-0.063
-479.347	-128.504	-0.092	0.013
-478.332	-69.543	0.226	-0.086
-477.318	-87.022	0.090	0.027
-476.303	-200.000	-0.019	0.115
-475.289	-26.312	-0.189	0.111
-474.274	-200.000	-0.003	0.083
-473.259	-200.000	0.043	-0.267
-472.245	-156.440	0.156	-0.010
-471.230	800.000	0.065	-0.268
-470.216	-12.406	-0.231	-0.151
-469.201	-200.000	-0.031	-0.290
-468.186	-43.258	0.112	-0.057
-467.172	-200.000	0.003	0.289
-466.157	-149.513	0.101	0.008
-465.143	621.452	0.193	0.486
-464.128	-153.589	-0.359	0.025
-463.113	-60.630	0.155	0.066
-462.099	-39.378	0.115	0.060
-461.084	-200.000	0.016	-0.136
-460.070	-59.787	-0.185	-0.079
-459.055	-124.342	-0.263	0.041
-458.040	-62.522	0.155	0.064
-457.026	-122.000	0.145	-0.024
-456.011	-11.900	0.065	0.042
-454.997	233.258	-0.199	-0.327
-453.982	-200.000	-0.005	0.285
-452.968	45.941	-0.334	0.308
-451.953	-72.406	-0.263	-0.097
-450.938	20.679	0.124	0.100
-449.924	99.627	-0.323	0.373
-448.909	303.158	-0.224	-0.414
-447.895	-163.048	0.069	-0.003
-446.880	157.790	0.263	-0.364
-445.865	-52.610	0.165	-0.076
-444.851	-136.533	-0.292	0.034
-443.836	-36.968	-0.253	0.135
-442.822	-107.565	0.351	0.077
-441.807	-200.000	-0.021	-0.227
-440.792	800.000	0.015	-0.053
-439.778	-98.677	0.178	0.045
-438.763	-200.000	-0.031	-0.161
-437.749	52.769	-0.162	0.154
-436.734	96.987	0.243	-0.278
-435.719	-198.175	0.169	0.001
-434.705	-200.000	-0.016	-0.088
-433.690	-200.000	0.002	-0.112
-432.676	41.306	-0.279	0.252
-431.661	-46.980	0.307	-0.150
-430.646	269.658	-0.053	-0.094
-429.632	-140.337	0.527	-0.055
-428.617	800.000	-0.088	0.370
-427.603	800.000	0.058	0.187
-426.588	-70.708	-0.163	-0.061
-425.573	-200.000	0.020	-0.382
-424.559	-10.332	-0.176	0.116
-423.544	-113.766	-0.174	0.034
-422.530	800.000	-0.046	0.131
-421.515	-50.019	0.102	-0.048
-420.500	800.000	0.073	-0.261
-419.486	37.990	0.192	0.170
-418.471	-175.626	-0.343	-0.009
-417.457	-200.000	0.033	-0.249
-416.442	-14.726	-0.197	-0.126
-415.428	-78.456	0.233	-0.080
-414.413	-36.005	0.113	-0.061
-413.398	-200.000	0.036	0.255
-412.384	-54.304	0.037	0.017
-411.369	800.000	-0.068	0.202
-410.355	-24.220	-0.147	0.088
-409.340	-31.445	-0.206	-0.115
-408.325	623.214	0.041	-0.103
-407.311	800.000	0.097	-0.266
-406.296	-200.000	0.037	-0.215
-405.282	-9.784	-0.075	-0.050
-404.267	232.909	0.051	-0.084
-403.252	-31.896	0.328	-0.183
-402.238	-200.000	0.008	-0.130
-401.223	116.420	-0.082	-0.100
-400.209	-200.000	0.026	-0.266
-399.194	-115.794	-0.424	0.079
-398.179	-200.000	-0.018	0.102
-397.165	-175.983	0.271	-0.007
-396.150	-139.092	-0.278	0.030
-395.136	-80.334	-0.109	0.036
-394.121	800.000	-0.069	-0.251
-393.106	164.661	-0.087	0.122
-392.092	800.000	-0.021	0.079
-391.077	15.903	-0.204	0.160
-390.063	800.000	0.028	-0.110
-389.048	-200.000	-0.064	-0.362
-388.033	-93.125	-0.445	-0.123
-387.019	-17.831	-0.240	0.150
-386.004	-200.000	0.096	-0.429
-384.990	151.678	-0.271	0.368
-383.975	196.389	-0.060	0.091
-382.960	-83.860	0.034	0.011
-381.946	-66.725	-0.020	0.008
-380.931	21.599	-0.320	0.259
-379.917	-115.149	0.170	0.032
-378.902	-200.000	0.016	-0.333
-377.888	580.662	-0.050	-0.123
-376.873	800.000	-0.082	0.241
-375.858	-154.046	0.223	0.015
-374.844	84.497	0.212	-0.230
-373.829	18.156	0.190	-0.151
-372.815	-37.560	0.093	-0.049
-371.800	-32.879	-0.165	-0.091
-370.785	38.880	0.197	-0.175
-369.771	56.880	0.127	-0.123
-368.756	17.273	-0.146	0.116
-367.742	-5.044	0.074	0.051
-366.727	72.333	0.130	0.135
-365.712	-15.845	-0.342	0.217
-364.698	-108.272	-0.301	-0.065
-363.683	70.268	0.188	0.193
-362.669	193.167	0.099	0.149
-361.654	-25.741	-0.260	-0.153
-360.639	-174.734	0.123	-0.003
-359.625	-11.715	0.538	0.352
-358.610	-29.279	-0.167	-0.095
-357.596	-200.000	-0.030	0.347
-356.581	97.215	-0.050	0.057
-355.566	412.108	0.053	-0.113
-354.552	800.000	0.087	-0.311
-353.537	-85.065	-0.099	0.031
-352.523	-200.000	-0.065	0.296
-351.508	-12.861	0.215	0.139
-350.493	-100.968	-0.268	0.065
-349.479	-49.852	0.168	0.079
-348.464	-141.200	-0.125	-0.013
-347.450	-200.000	0.030	-0.227
-346.435	-63.530	0.334	0.136
-345.420	-200.000	-0.001	0.114
-344.406	-186.569	0.175	0.002
-343.391	271.649	0.113	0.197
-342.377	218.584	0.052	-0.082
-341.362	-200.000	0.001	-0.113
-340.348	588.452	0.074	-0.182
-339.333	-55.226	0.144	0.064
-338.318	800.000	-0.147	0.540
-337.304	-115.135	-0.353	-0.067
-336.289	23.687	0.258	-0.211
-335.275	233.008	0.172	-0.281
-334.260	366.312	-0.304	0.609
-333.245	800.000	0.140	0.492
-332.231	-166.581	-0.347	0.014
-331.216	255.061	-0.274	0.467
-330.202	-144.152	0.090	-0.008
-329.187	89.812	-0.178	-0.198
-328.172	-200.000	-0.007	0.126
-327.158	3.914	0.310	0.225
-326.143	-99.573	0.262	0.065
-325.129	-77.410	-0.387	0.133
-324.114	-76.845	0.198	0.069
-323.099	777.351	0.054	-0.148
-322.085	-70.430	-0.288	0.108
-321.070	-56.013	-0.215	0.095
-320.056	-200.000	-0.042	0.260
-319.041	-83.172	-0.254	0.081
-318.026	-43.645	0.096	0.048
-317.012	-105.855	-0.206	0.046
-315.997	-200.000	-0.030	-0.349
-314.983	362.264	0.104	0.208
-313.968	276.529	-0.154	0.272
-312.953	-130.431	-0.116	0.016
-311.939	4.940	0.275	-0.201
-310.924	134.761	-0.212	-0.274
-309.910	-78.439	0.177	0.060
-308.895	-200.000	0.021	-0.240
-307.880	800.000	0.044	-0.124
-306.866	286.980	0.055	-0.099
-305.851	353.652	0.116	0.229
-304.837	26.170	-0.231	0.191
-303.822	-200.000	0.010	-0.129
-302.807	31.409	0.166	-0.142
-301.793	-92.167	0.256	0.072
-300.778	-200.000	-0.001	0.112
-299.764	170.286	-0.111	0.158
-298.749	183.804	-0.102	0.149
-297.735	-67.162	-0.156	0.061
-296.720	582.811	-0.038	-0.092
-295.705	-159.686	-0.437	-0.024
-294.691	-138.600	0.064	0.007
-293.676	10.857	0.164	0.124
-292.662	-200.000	-0.006	0.030
-291.647	-22.086	0.554	-0.334
-290.632	-200.000	0.076	0.430
-289.618	-117.291	-0.140	-0.025
-288.603	-106.928	0.212	-0.046
-287.589	-141.552	0.247	0.025
-286.574	-186.163	0.064	-0.001
-285.559	-20.102	0.163	-0.100
-284.545	-130.868	-0.295	-0.039
-283.530	-86.849	0.145	0.044
-282.516	-200.000	0.012	0.116
-281.501	-153.313	-0.157	-0.011
-280.486	120.672	-0.107	0.131
-279.472	-82.734	0.163	-0.052
-278.457	278.359	0.096	0.170
-277.443	-40.935	-0.268	0.138
-276.428	-27.209	-0.168	0.097
-275.413	800.000	0.062	-0.221
-274.399	800.000	0.053	0.160
-273.384	-142.321	-0.157	-0.015
-272.370	51.883	0.285	0.269
-271.355	-113.829	-0.021	-0.004
-270.340	-100.959	0.243	-0.059
-269.326	800.000	0.081	0.295
-268.311	-200.000	0.084	0.493
-267.297	-82.176	0.069	0.022
-266.282	800.000	0.159	0.539
-265.267	103.479	-0.165	-0.192
-264.253	29.912	0.085	-0.072
-263.238	267.869	-0.047	-0.082
-262.224	-145.900	-0.268	0.024
-261.209	235.503	-0.167	-0.274
-260.195	-200.000	-0.046	0.361
-259.180	560.245	0.111	-0.267
-258.165	-91.042	-0.246	0.070
-257.151	19.255	-0.117	-0.093
-256.136	-8.418	-0.137	0.092
-255.122	20.864	-0.162	0.130
-254.107	32.569	-0.132	-0.113
-253.092	69.486	0.112	-0.114
-252.078	218.578	0.107	0.169
-251.063	-200.000	-0.078	-0.353
-250.049	97.993	0.130	-0.149
-249.034	-200.000	-0.011	-0.163
-248.019	91.549	-0.191	0.213
-247.005	-200.000	-0.009	-0.213
-245.990	-155.889	0.107	-0.007
-244.976	-96.266	0.241	-0.063
-243.961	-67.244	0.096	0.038
-242.946	282.519	0.086	-0.154
-241.932	-39.054	-0.218	0.114
-240.917	800.000	0.124	0.375
-239.903	36.715	0.177	-0.155
-238.888	-200.000	0.006	0.030
-237.873	52.618	0.250	-0.236
-236.859	210.255	0.061	0.095
-235.844	-61.665	0.150	-0.062
-234.830	246.169	0.031	-0.052
-233.815	800.000	-0.061	0.235
-232.800	-117.913	0.358	0.063
-231.786	-200.000	0.007	0.053
-230.771	526.117	-0.020	0.047
-229.757	-68.494	-0.184	-0.071
-228.742	-200.000	-0.006	0.475
-227.727	-7.526	0.041	0.028
-226.713	-10.174	-0.206	-0.136
-225.698	-89.206	0.160	0.047
-224.684	454.942	0.139	-0.304
-223.669	-49.255	0.098	0.046
-222.655	296.726	-0.066	0.120
-221.640	800.000	-0.079	0.231
-220.625	147.896	0.074	-0.099
-219.611	-126.524	0.147	0.022
-218.596	-43.989	-0.207	0.103
-217.582	15.335	0.442	-0.343
-216.567	127.637	-0.088	-0.111
-215.552	-38.514	0.233	-0.122
-214.538	170.859	-0.089	0.127
-213.523	-96.385	0.069	-0.018
-212.509	-200.000	0.011	0.182
-211.494	-67.017	0.449	-0.175
-210.479	-115.936	-0.412	0.076
-209.465	-110.506	-0.157	-0.032
-208.450	117.237	-0.030	-0.036
-207.436	800.000	0.071	-0.211
-206.421	165.833	-0.081	-0.113
-205.406	501.345	0.043	-0.098
-204.392	800.000	0.161	-0.557
-203.377	125.493	0.345	0.431
-202.363	-104.056	0.269	0.062
-201.348	-22.574	0.170	-0.102
-200.333	188.538	-0.099	0.147
-199.319	59.416	-0.326	-0.317
-198.304	623.667	0.126	-0.314
-197.290	-72.061	0.166	0.061
-196.275	14.661	-0.294	0.227
-195.260	229.227	-0.113	-0.183
-194.246	-200.000	-0.001	-0.094
-193.231	269.384	-0.154	0.267
-192.217	593.862	0.050	-0.123
-191.202	129.617	-0.184	-0.232
-190.187	-104.248	0.187	0.043
-189.173	-200.000	0.045	0.238
-188.158	-200.000	0.019	0.126
-187.144	503.525	0.072	-0.165
-186.129	358.269	0.115	0.226
-185.114	17.690	0.200	0.157
-184.100	-84.056	-0.312	-0.098
-183.085	268.954	0.058	-0.101
-182.071	800.000	0.108	-0.325
-181.056	-16.605	0.377	0.236
-180.042	-200.000	0.002	0.215
-179.027	-200.000	0.027	-0.195
-178.012	95.538	0.142	-0.160
-176.998	173.786	0.128	0.183
-175.983	0.881	-0.183	0.130
-174.969	24.782	0.167	-0.136
-173.954	-129.930	0.314	-0.042
-172.939	611.940	0.060	-0.149
-171.925	-200.000	0.001	0.193
-170.910	407.957	-0.038	0.078
-169.896	-17.115	-0.121	0.075
-168.881	-63.004	0.299	-0.122
-167.866	-97.602	-0.101	0.026
-166.852	203.714	-0.174	0.265
-165.837	251.874	-0.161	-0.271
-164.823	-10.508	0.213	0.139
-163.808	307.552	0.291	0.536
-162.793	139.053	-0.109	0.141
-161.779	195.683	0.082	-0.122
-160.764	340.760	-0.131	-0.253
-159.750	800.000	-0.115	-0.410
-158.735	800.000	-0.099	0.272
-157.720	4.233	0.041	0.030
-156.706	800.000	-0.082	0.323
-155.691	-200.000	-0.049	-0.288
-154.677	-200.000	0.052	-0.281
-153.662	-105.120	-0.098	0.022
-152.647	-14.462	0.206	0.131
-151.633	-200.000	-0.053	-0.266
-150.618	800.000	0.056	-0.229
-149.604	103.829	0.142	0.165
-148.589	800.000	0.087	0.274
-147.574	800.000	0.059	0.178
-146.560	-6.010	0.100	-0.068
-145.545	-200.000	-0.211	0.000
-144.531	800.000	-0.060	0.218
-143.516	48.128	0.197	-0.182
-142.502	99.443	-0.242	0.276
-141.487	-200.000	-0.552	-0.001
-140.472	253.162	-0.031	0.053
-139.458	83.991	-0.120	-0.130
-138.443	24.532	0.265	-0.216
-137.429	-200.000	0.030	-0.452
-136.414	73.784	0.320	-0.331
-135.399	-172.325	0.195	-0.006
-134.385	117.509	-0.119	-0.145
-133.370	1.881	-0.101	0.072
-132.356	-162.477	-0.279	0.014
-131.341	96.378	-0.130	0.146
-130.326	74.156	-0.215	0.223
-129.312	-157.310	0.422	-0.025
-128.297	-156.972	0.311	-0.019
-127.283	-97.409	-0.394	0.101
-126.268	-150.948	0.135	0.010
-125.253	-184.653	-0.352	0.006
-124.239	800.000	0.031	-0.091
-123.224	529.288	-0.120	-0.278
