DTS Sentinel unit serial number:	SN413079Multiplexer serial number:	ORYXHardware model number:	OX4-SRSoftware version number:	ORYX F/W v4.00 Oryx Data Collector v3.7.2.0data status	okinstallation	princeton_trtdifferential loss correction	single-endedforward channel	channel 2reverse channel	N/Adate	2019/09/17time	11:31:34forward acquisition time	60.00reverse acquisition time	0.00gamma	496.2192k internal	0.2323k external	0.2323temperature offset calibration	0.9987default loss term (dB/km)	0.3790temperature slope calibration	1.0000multiplexer offset coefficient	1.0000multiplexer slope coefficient	1.0000fibre end	0.00T internal ref (°C)	30.69T ext. ref 1 (°C)	0.35T ext. ref 2 (°C)	26.46length (m)	temperature (°C)	Stokes	anti-Stokes-747.200	366.908	-0.066	-0.134
-746.185	18.675	-0.159	-0.129
-745.171	42.752	-0.152	0.139
-744.156	318.103	-0.112	0.214
-743.142	-82.193	0.229	0.075
-742.127	-200.000	-0.026	0.122
-741.112	9.439	-0.230	0.176
-740.098	-200.000	-0.003	0.238
-739.083	-85.706	0.151	0.047
-738.069	76.408	-0.252	0.270
-737.054	-57.957	0.051	0.023
-736.039	-115.583	-0.372	-0.070
-735.025	-49.032	0.054	-0.026
-734.010	-136.366	-0.322	-0.038
-732.996	-4.177	-0.148	-0.103
-731.981	-22.191	-0.344	-0.211
-730.966	-130.165	0.370	-0.051
-729.952	191.849	0.144	-0.218
-728.937	11.287	-0.343	0.265
-727.923	-200.000	0.003	0.063
-726.908	-72.323	0.204	-0.076
-725.894	-104.527	0.114	-0.027
-724.879	-200.000	0.011	-0.303
-723.864	93.423	-0.162	0.184
-722.850	398.273	-0.113	0.239
-721.835	183.661	-0.055	0.082
-720.821	-154.871	0.187	-0.012
-719.806	800.000	0.013	0.043
-718.791	-49.335	-0.047	0.023
-717.777	484.231	-0.136	-0.312
-716.762	168.814	0.161	-0.231
-715.748	-38.688	0.100	-0.053
-714.733	355.097	-0.122	0.245
-713.718	-200.000	0.022	-0.180
-712.704	-40.781	0.236	-0.123
-711.689	52.366	-0.189	-0.181
-710.675	-53.376	0.211	0.097
-709.660	21.525	-0.341	0.280
-708.645	145.424	-0.111	0.150
-707.631	48.413	0.122	0.115
-706.616	-77.086	0.426	-0.150
-705.602	800.000	-0.059	-0.243
-704.587	324.877	-0.138	0.265
-703.572	-200.000	-0.027	0.216
-702.558	-79.584	0.095	0.032
-701.543	800.000	0.034	0.103
-700.529	-200.000	-0.020	-0.174
-699.514	193.258	0.123	0.187
-698.499	-87.993	0.220	0.067
-697.485	113.820	-0.185	-0.227
-696.470	-200.000	0.022	-0.245
-695.456	657.849	0.076	-0.196
-694.441	249.214	-0.180	-0.308
-693.426	66.186	0.205	0.210
-692.412	-200.000	0.028	-0.290
-691.397	111.190	0.095	0.115
-690.383	800.000	-0.023	-0.066
-689.368	-56.188	-0.096	-0.043
-688.354	391.334	0.140	-0.293
-687.339	117.083	0.095	-0.118
-686.324	-200.000	0.033	-0.301
-685.310	101.363	-0.397	0.466
-684.295	800.000	-0.050	0.218
-683.281	6.403	-0.105	0.079
-682.266	-17.897	0.137	0.086
-681.251	800.000	-0.074	0.241
-680.237	-31.484	0.373	0.211
-679.222	-200.000	-0.034	0.318
-678.208	64.978	0.094	-0.096
-677.193	-90.135	0.093	0.027
-676.178	-200.000	-0.036	0.181
-675.164	58.371	0.109	0.108
-674.149	125.328	-0.118	-0.151
-673.135	392.099	0.205	0.429
-672.120	82.533	-0.240	0.262
-671.105	147.400	0.058	-0.079
-670.091	800.000	-0.020	-0.074
-669.076	35.552	-0.253	0.223
-668.062	-71.449	0.190	0.072
-667.047	116.037	0.089	0.110
-666.032	-85.557	0.096	-0.030
-665.018	-88.799	0.059	-0.018
-664.003	202.835	0.050	-0.077
-662.989	-148.342	0.158	-0.013
-661.974	-67.225	-0.170	-0.067
-660.959	-87.654	-0.243	0.074
-659.945	-156.303	0.131	-0.008
-658.930	151.474	0.124	0.169
-657.916	-200.000	0.016	-0.153
-656.901	-39.230	0.103	-0.054
-655.886	-114.849	0.093	-0.018
-654.872	-200.000	-0.011	-0.247
-653.857	-91.643	-0.397	0.114
-652.843	-200.000	0.017	-0.289
-651.828	-174.714	0.208	0.006
-650.814	-159.462	-0.411	-0.023
-649.799	-200.000	0.010	0.262
-648.784	-117.847	0.126	0.023
-647.770	-52.515	0.231	-0.108
-646.755	-200.000	-0.037	0.192
-645.741	229.713	-0.183	-0.300
-644.726	-200.000	0.028	-0.240
-643.711	-53.413	-0.166	0.076
-642.697	231.333	-0.094	-0.155
-641.682	-200.000	0.004	0.271
-640.668	228.645	-0.091	-0.149
-639.653	91.559	0.198	0.224
-638.638	-200.000	-0.023	0.197
-637.624	409.368	0.118	-0.251
-636.609	-27.084	-0.067	-0.039
-635.595	1.509	-0.244	0.176
-634.580	48.675	0.152	-0.143
-633.565	-90.266	-0.159	0.047
-632.551	-80.499	0.073	-0.024
-631.536	-67.659	-0.236	0.093
-630.522	-200.000	-0.024	-0.178
-629.507	-200.000	-0.264	-0.001
-628.492	-139.166	0.232	0.025
-627.478	-154.833	0.192	-0.013
-626.463	20.197	0.249	0.202
-625.449	549.801	0.047	0.114
-624.434	-32.477	0.056	0.032
-623.419	800.000	0.015	-0.060
-622.405	-134.147	-0.048	-0.006
-621.390	-97.787	-0.196	-0.051
-620.376	-200.000	0.027	0.292
-619.361	-165.798	0.356	-0.015
-618.346	346.758	-0.103	0.203
-617.332	648.789	-0.124	-0.319
-616.317	800.000	0.064	0.266
-615.303	800.000	-0.042	-0.156
-614.288	-92.647	-0.083	0.023
-613.273	-99.508	-0.258	-0.065
-612.259	462.872	0.135	-0.303
-611.244	52.796	-0.187	0.180
-610.230	105.809	0.124	0.147
-609.215	-40.310	-0.108	-0.057
-608.201	215.404	-0.105	0.167
-607.186	351.415	-0.091	-0.181
-606.171	458.654	-0.066	-0.148
-605.157	5.003	-0.088	0.065
-604.142	-135.603	-0.302	-0.036
-603.128	-103.597	0.108	-0.025
-602.113	-132.984	0.159	0.020
-601.098	-200.000	0.095	0.462
-600.084	10.708	-0.087	0.067
-599.069	-124.829	-0.180	-0.028
-598.055	-25.300	-0.170	-0.101
-597.040	22.766	0.146	-0.120
-596.025	-48.314	0.206	-0.100
-595.011	-139.507	0.115	0.012
-593.996	349.080	-0.053	0.105
-592.982	-200.000	-0.002	0.019
-591.967	8.463	-0.131	-0.099
-590.952	717.464	-0.082	-0.220
-589.938	300.398	-0.038	-0.071
-588.923	10.360	-0.189	-0.145
-587.909	26.572	0.107	-0.090
-586.894	-200.000	0.005	0.068
-585.879	123.043	0.172	0.216
-584.865	-2.122	-0.152	0.107
-583.850	-156.228	-0.125	-0.008
-582.836	319.245	-0.093	0.177
-581.821	-82.211	-0.360	-0.118
-580.806	-32.968	0.293	-0.163
-579.792	13.944	0.187	-0.146
-578.777	240.305	0.290	-0.485
-577.763	-25.995	-0.192	0.114
-576.748	171.398	0.070	-0.101
-575.733	-200.000	0.011	0.229
-574.719	-148.817	-0.247	0.020
-573.704	572.822	-0.018	-0.045
-572.690	-184.438	0.344	-0.006
-571.675	135.228	-0.200	0.261
-570.661	800.000	-0.125	-0.351
-569.646	143.101	-0.252	-0.336
-568.631	305.584	0.139	0.258
-567.617	39.854	0.045	0.040
-566.602	35.476	0.078	0.069
-565.588	-73.685	0.060	0.022
-564.573	41.692	0.138	0.125
-563.558	-163.215	-0.292	0.014
-562.544	14.838	-0.105	0.082
-561.529	-126.470	0.080	0.012
-560.515	-141.614	0.247	0.025
-559.500	-177.346	0.079	-0.002
-558.485	117.302	-0.314	-0.387
-557.471	242.765	-0.104	0.174
-556.456	-101.088	0.232	0.057
-555.442	13.182	-0.281	0.218
-554.427	-138.667	-0.235	0.026
-553.412	-200.000	0.011	0.064
-552.398	-115.858	0.025	0.005
-551.383	142.462	-0.078	-0.104
-550.369	127.654	0.068	-0.087
-549.354	61.248	0.191	-0.190
-548.339	-37.357	-0.023	-0.012
-547.325	210.907	-0.211	-0.332
-546.310	800.000	0.048	0.186
-545.296	-200.000	0.038	-0.283
-544.281	-168.432	0.150	-0.006
-543.266	126.504	-0.155	-0.197
-542.252	-31.771	0.369	-0.207
-541.237	458.050	-0.080	-0.179
-540.223	-24.947	0.288	0.171
-539.208	-200.000	0.036	0.249
-538.193	-72.821	-0.179	0.066
-537.179	-71.577	0.218	0.082
-536.164	-200.000	0.005	0.095
-535.150	-91.990	0.245	-0.069
-534.135	92.829	-0.084	-0.095
-533.121	-120.421	0.220	-0.037
-532.106	-32.225	0.245	-0.137
-531.091	89.586	0.121	-0.135
-530.077	357.551	-0.143	-0.285
-529.062	-91.288	-0.103	0.030
-528.048	35.898	0.137	0.120
-527.033	800.000	-0.021	-0.091
-526.018	-83.857	-0.440	-0.140
-525.004	65.135	0.188	0.191
-523.989	88.939	-0.056	0.062
-522.975	-18.341	-0.089	0.056
-521.960	25.151	0.148	-0.123
-520.945	-86.848	0.167	0.051
-519.931	-145.427	0.170	0.015
-518.916	179.355	-0.057	-0.084
-517.902	-40.401	0.139	-0.073
-516.887	-200.000	0.024	-0.315
-515.872	-200.000	0.050	-0.290
-514.858	-85.360	-0.177	0.055
-513.843	68.545	0.282	-0.289
-512.829	226.628	-0.148	0.240
-511.814	152.281	-0.106	-0.145
-510.799	-200.000	-0.083	0.493
-509.785	12.420	-0.080	0.062
-508.770	-173.126	-0.344	-0.011
-507.756	115.742	-0.015	0.019
-506.741	-16.735	0.210	0.133
-505.726	-200.000	-0.056	-0.267
-504.712	75.287	-0.250	-0.264
-503.697	-182.409	-0.458	0.008
-502.683	-5.864	-0.179	-0.122
-501.668	158.604	-0.060	0.083
-500.653	-0.954	-0.223	0.158
-499.639	-41.792	0.069	0.035
-498.624	297.244	-0.082	-0.150
-497.610	-200.000	0.040	0.199
-496.595	120.743	0.098	0.121
-495.581	-114.423	0.148	0.028
-494.566	-66.323	0.211	0.084
-493.551	424.058	-0.020	-0.042
-492.537	800.000	0.090	0.282
-491.522	-30.960	-0.192	0.108
-490.508	-200.000	0.049	-0.231
-489.493	-200.000	0.002	0.247
-488.478	-1.596	-0.154	-0.109
-487.464	271.051	-0.090	0.158
-486.449	-64.018	0.087	-0.035
-485.435	800.000	-0.062	0.263
-484.420	64.844	-0.109	0.110
-483.405	-200.000	0.003	0.093
-482.391	-113.056	0.463	0.091
-481.376	-200.000	0.030	-0.444
-480.362	66.634	-0.023	0.024
-479.347	32.907	0.081	-0.070
-478.332	-51.597	-0.224	0.104
-477.318	81.436	-0.210	0.227
-476.303	97.728	0.199	0.229
-475.289	-75.914	-0.320	0.113
-474.274	469.622	0.063	0.140
-473.259	325.216	-0.025	0.047
-472.245	-192.844	-0.258	0.002
-471.230	148.767	-0.148	0.200
-470.216	-200.000	-0.033	0.271
-469.201	43.712	0.139	-0.127
-468.186	195.724	0.075	0.114
-467.172	-200.000	0.037	0.164
-466.157	-70.420	-0.432	-0.164
-465.143	-200.000	0.031	-0.436
-464.128	-24.336	0.091	0.054
-463.113	-155.296	-0.142	0.009
-462.099	185.930	-0.108	-0.160
-461.084	-23.955	-0.121	0.072
-460.070	123.400	0.154	0.192
-459.055	800.000	-0.058	0.162
-458.040	17.502	0.129	-0.102
-457.026	620.758	0.048	0.120
-456.011	-200.000	-0.042	0.216
-454.997	59.773	-0.204	0.201
-453.982	29.401	0.150	-0.128
-452.968	325.645	0.191	-0.365
-451.953	7.254	-0.078	-0.058
-450.938	-11.888	-0.104	-0.068
-449.924	800.000	0.067	-0.246
-448.909	22.092	-0.090	-0.074
-447.895	-42.227	0.131	0.067
-446.880	50.776	-0.138	-0.131
-445.865	-200.000	0.018	-0.125
-444.851	800.000	-0.056	-0.218
-443.836	-100.890	0.242	0.059
-442.822	-154.717	0.293	0.019
-441.807	-104.046	0.162	0.038
-440.792	132.486	-0.075	-0.097
-439.778	322.218	0.029	0.056
-438.763	316.593	0.070	-0.131
-437.749	184.813	-0.079	0.117
-436.734	-11.172	0.208	0.137
-435.719	52.792	-0.197	0.188
-434.705	-57.196	-0.382	-0.168
-433.690	800.000	-0.061	0.186
-432.676	509.059	-0.044	0.103
-431.661	264.392	0.116	0.201
-430.646	-128.031	0.147	-0.021
-429.632	-131.310	-0.279	0.037
-428.617	428.471	-0.100	0.215
-427.603	-200.000	0.008	0.263
-426.588	-16.568	-0.198	0.125
-425.573	-127.065	0.336	-0.049
-424.559	-200.000	-0.117	-0.578
-423.544	198.371	0.222	0.339
-422.530	-52.533	-0.155	0.071
-421.515	-112.023	0.348	0.070
-420.500	-14.086	0.179	-0.115
-419.486	-200.000	0.061	-0.274
-418.471	-146.005	0.168	0.015
-417.457	21.328	-0.163	-0.132
-416.442	-112.598	-0.185	0.037
-415.428	-140.505	0.114	0.012
-414.413	-108.035	-0.037	0.008
-413.398	-200.000	0.038	0.491
-412.384	381.076	0.072	0.147
-411.369	800.000	0.030	-0.085
-410.355	-53.888	0.042	-0.019
-409.340	426.482	0.108	-0.233
-408.325	42.963	0.135	-0.123
-407.311	-200.000	-0.001	-0.210
-406.296	84.667	0.181	0.197
-405.282	-41.314	0.201	-0.103
-404.267	477.124	0.073	-0.163
-403.252	-200.000	0.019	-0.193
-402.238	42.933	-0.136	-0.124
-401.223	800.000	0.016	0.048
-400.209	16.398	-0.083	0.066
-399.194	561.055	0.067	-0.162
-398.179	-2.629	-0.188	0.131
-397.165	251.505	-0.134	-0.228
-396.150	-200.000	0.019	0.157
-395.136	-35.166	-0.248	0.135
-394.121	-200.000	-0.035	-0.254
-393.106	189.438	0.094	-0.141
-392.092	-86.998	0.236	-0.072
-391.077	115.033	-0.324	-0.393
-390.063	-74.168	0.361	-0.130
-389.048	423.101	0.047	0.101
-388.033	-58.429	0.131	-0.057
-387.019	-128.863	0.258	-0.036
-386.004	-52.630	-0.103	0.047
-384.990	-23.767	0.182	-0.108
-383.975	62.914	0.045	-0.045
-382.960	353.798	0.115	0.227
-381.946	132.561	-0.174	0.223
-380.931	-200.000	-0.006	-0.061
-379.917	-3.769	0.089	0.061
-378.902	-200.000	-0.063	0.366
-377.888	-80.104	-0.257	-0.086
-376.873	-134.214	0.436	-0.053
-375.858	-200.000	0.004	0.079
-374.844	5.501	-0.217	0.159
-373.829	98.356	0.223	0.256
-372.815	-14.724	-0.124	0.079
-371.800	-200.000	0.040	0.334
-370.785	23.229	0.087	0.071
-369.771	800.000	0.161	-0.451
-368.756	-200.000	-0.020	0.111
-367.742	15.270	-0.235	0.183
-366.727	-61.162	0.144	0.060
-365.712	-128.200	0.566	0.080
-364.698	-200.000	-0.091	-0.437
-363.683	-39.612	0.153	-0.080
-362.669	-200.000	0.023	0.101
-361.654	146.611	0.075	-0.101
-360.639	40.810	0.095	0.086
-359.625	-33.053	0.188	0.104
-358.610	-100.452	-0.444	-0.109
-357.596	-85.819	0.228	0.070
-356.581	-200.000	0.038	-0.297
-355.566	365.448	0.296	0.594
-354.552	-86.217	-0.200	-0.061
-353.537	-116.564	0.271	-0.050
-352.523	-181.237	-0.224	0.004
-351.508	-200.000	-0.023	-0.280
-350.493	800.000	-0.089	-0.327
-349.479	-103.640	-0.233	-0.054
-348.464	-11.127	0.185	0.121
-347.450	-39.459	0.201	0.105
-346.435	342.726	0.131	-0.255
-345.420	-200.000	-0.001	0.353
-344.406	16.260	0.155	0.121
-343.391	187.642	-0.059	0.088
-342.377	-195.445	-0.206	-0.002
-341.362	-11.791	-0.099	0.065
-340.348	-16.738	0.191	-0.120
-339.333	643.853	0.060	0.152
-338.318	33.695	-0.102	0.088
-337.304	-187.503	0.135	0.002
-336.289	-32.165	0.196	0.109
-335.275	-80.849	-0.088	-0.029
-334.260	-200.000	0.067	-0.303
-333.245	-60.702	-0.312	0.132
-332.231	-200.000	0.036	0.336
-331.216	239.577	0.177	-0.292
-330.202	49.547	-0.165	-0.155
-329.187	362.006	0.061	0.122
-328.172	-127.767	-0.384	0.055
-327.158	-92.426	0.130	0.036
-326.143	200.795	-0.101	0.155
-325.129	-200.000	0.058	-0.331
-324.114	-200.000	0.008	-0.087
-323.099	588.152	-0.103	-0.251
-322.085	46.225	-0.103	0.095
-321.070	-96.149	-0.104	0.027
-320.056	1.703	0.349	0.250
-319.041	405.598	-0.153	-0.321
-318.026	183.490	0.164	0.240
-317.012	421.806	-0.097	-0.208
-315.997	54.952	0.082	-0.078
-314.983	32.307	-0.210	-0.180
-313.968	10.146	0.064	-0.049
-312.953	284.350	0.071	0.126
-311.939	2.805	-0.133	-0.096
-310.924	27.354	0.484	-0.404
-309.910	-196.671	-0.094	-0.001
-308.895	303.844	0.046	0.085
-307.880	-115.277	-0.325	0.061
-306.866	-200.000	0.046	0.276
-305.851	472.224	-0.122	-0.273
-304.837	-76.887	-0.228	0.079
-303.822	55.173	0.146	0.140
-302.807	-69.554	0.289	-0.110
-301.793	-2.868	-0.173	0.120
-300.778	-200.000	0.018	-0.166
-299.764	-200.000	0.044	-0.365
-298.749	-23.236	-0.065	-0.039
-297.735	-64.509	0.418	0.168
-296.720	5.582	0.224	0.164
-295.705	800.000	-0.093	0.364
-294.691	-116.537	0.438	0.080
-293.676	89.822	0.076	0.084
-292.662	-185.198	-0.039	0.001
-291.647	58.051	0.314	0.305
-290.632	53.157	-0.077	0.073
-289.618	219.279	0.077	0.122
-288.603	511.186	-0.058	0.134
-287.589	101.177	-0.191	0.220
-286.574	593.070	0.037	0.091
-285.559	800.000	0.066	0.276
-284.545	48.934	0.329	0.306
-283.530	800.000	0.095	-0.292
-282.516	245.754	0.234	-0.391
-281.501	55.118	-0.132	-0.126
-280.486	-200.000	0.014	0.207
-279.472	35.696	0.153	-0.133
-278.457	31.893	-0.196	0.167
-277.443	-48.047	-0.271	-0.130
-276.428	159.179	0.141	-0.194
-275.413	-45.242	-0.094	0.046
-274.399	77.585	-0.120	0.127
-273.384	-16.370	0.218	0.137
-272.370	-86.130	-0.240	-0.073
-271.355	-118.535	0.089	-0.016
-270.340	-13.939	-0.456	0.292
-269.326	-98.159	-0.283	0.072
-268.311	-66.805	-0.396	-0.155
-267.297	78.735	0.319	-0.339
-266.282	-200.000	0.023	0.116
-265.267	595.434	0.040	0.097
-264.253	-200.000	0.020	-0.308
-263.238	89.664	0.146	-0.162
-262.224	-200.000	-0.013	-0.108
-261.209	-135.383	0.169	-0.020
-260.195	-200.000	-0.023	0.133
-259.180	-117.336	0.187	-0.034
-258.165	171.923	0.200	0.285
-257.151	-38.758	0.127	-0.066
-256.136	-200.000	0.048	0.246
-255.122	800.000	-0.047	-0.154
-254.107	12.567	-0.117	0.089
-253.092	-200.000	0.003	-0.055
-252.078	-200.000	-0.018	0.107
-251.063	800.000	0.156	0.429
-250.049	-111.823	-0.042	0.008
-249.034	-121.459	0.212	-0.035
-248.019	109.091	0.159	0.188
-247.005	-163.109	-0.027	0.001
-245.990	89.791	0.272	-0.301
-244.976	-200.000	0.019	0.089
-243.961	194.813	0.203	0.305
-242.946	22.384	0.088	0.071
-241.932	800.000	-0.072	0.251
-240.917	-200.000	-0.006	0.081
-239.903	-91.520	-0.413	0.117
-238.888	800.000	-0.019	-0.083
-237.873	-112.714	-0.384	-0.076
-236.859	-83.840	-0.190	0.060
-235.844	-200.000	-0.064	-0.373
-234.830	-200.000	0.010	-0.050
-233.815	-168.988	0.113	0.004
-232.800	95.584	0.137	-0.155
-231.786	-200.000	-0.007	-0.098
-230.771	-200.000	-0.024	-0.261
-229.757	318.082	-0.194	0.364
-228.742	-105.302	-0.129	0.029
-227.727	800.000	-0.064	0.268
-226.713	-200.000	0.029	-0.145
-225.698	-115.390	0.276	-0.052
-224.684	-55.928	-0.315	-0.139
-223.669	294.536	-0.108	-0.195
-222.655	1.934	0.166	-0.118
-221.640	308.144	0.085	0.156
-220.625	-128.751	-0.370	-0.052
-219.611	-28.538	0.104	-0.059
-218.596	66.440	0.121	-0.122
-217.582	-61.964	-0.102	0.042
-216.567	-78.816	-0.333	-0.112
-215.552	242.841	-0.089	0.147
-214.538	321.882	-0.140	-0.264
-213.523	-77.117	-0.146	-0.050
-212.509	-73.431	-0.287	0.104
-211.494	-23.038	-0.346	0.206
-210.479	-95.856	-0.110	0.029
-209.465	297.522	-0.103	-0.188
-208.450	-67.050	0.103	0.040
-207.436	79.994	0.104	0.110
-206.421	353.666	-0.141	-0.277
-205.406	502.604	-0.111	0.253
-204.392	231.488	-0.071	0.116
-203.377	321.025	-0.117	-0.220
-202.363	-114.699	0.243	-0.046
-201.348	312.039	0.119	0.220
-200.333	59.741	-0.073	-0.071
-199.319	-147.930	0.124	-0.010
-198.304	211.147	-0.068	-0.105
-197.290	493.808	-0.113	0.256
-196.275	-48.513	0.065	-0.031
-195.260	800.000	-0.079	-0.302
-194.246	41.825	0.290	0.259
-193.231	-121.520	-0.281	-0.046
-192.217	-121.826	0.172	0.028
-191.202	24.439	0.247	-0.202
-190.187	-200.000	-0.030	0.316
-189.173	800.000	-0.053	-0.205
-188.158	7.796	-0.202	0.150
-187.144	-200.000	-0.069	-0.327
-186.129	-154.931	0.260	-0.017
-185.114	-23.744	0.205	0.121
-184.100	455.728	-0.031	0.069
-183.085	-92.253	-0.091	0.025
-182.071	-200.000	-0.006	0.285
-181.056	800.000	0.101	0.359
-180.042	779.868	0.102	-0.276
-179.027	-147.446	0.185	0.015
-178.012	-128.276	-0.155	-0.022
-176.998	202.760	-0.181	0.276
-175.983	-32.452	-0.088	-0.049
-174.969	530.328	-0.056	0.131
-173.954	-200.000	0.034	-0.332
-172.939	36.874	0.348	-0.304
-171.925	35.314	-0.168	-0.146
-170.910	568.603	-0.206	-0.494
-169.896	43.935	-0.007	0.006
-168.881	-200.000	0.031	0.149
-167.866	-38.079	-0.187	0.098
-166.852	272.899	0.203	-0.355
-165.837	30.953	0.106	-0.089
-164.823	-200.000	0.025	0.344
-163.808	-75.542	-0.118	-0.041
-162.793	60.033	-0.157	-0.154
-161.779	-91.907	0.062	-0.017
-160.764	-169.513	0.028	-0.001
-159.750	-44.335	-0.277	-0.137
-158.735	93.772	-0.058	0.065
-157.720	63.339	0.128	0.127
-156.706	-151.356	-0.276	-0.020
-155.691	292.995	-0.111	-0.199
-154.677	-200.000	0.036	0.234
-153.662	-48.351	-0.030	-0.014
-152.647	-2.676	0.252	-0.174
-151.633	-76.832	0.220	-0.076
-150.618	277.433	0.095	-0.167
-149.604	131.552	0.050	-0.063
-148.589	171.700	-0.050	0.071
-147.574	306.798	0.107	-0.196
-146.560	42.842	-0.185	0.166
-145.545	800.000	0.042	0.162
-144.531	41.377	-0.068	-0.060
-143.516	-200.000	0.001	0.404
-142.502	736.560	-0.062	0.165
-141.487	71.249	0.112	-0.115
-140.472	105.048	-0.110	-0.128
-139.458	-129.926	-0.041	-0.006
-138.443	77.957	-0.075	-0.078
-137.429	-92.212	-0.225	0.063
-136.414	800.000	0.071	-0.274
-135.399	11.735	0.152	-0.115
-134.385	86.217	-0.174	0.189
-133.370	-200.000	-0.044	0.200
-132.356	52.183	-0.106	0.100
-131.341	38.410	0.173	-0.152
-130.326	-10.943	-0.188	0.123
-129.312	-200.000	-0.014	-0.143
-128.297	5.720	0.183	0.133
-127.283	17.105	0.148	-0.115
-126.268	-115.683	-0.455	-0.084
-125.253	-90.868	0.093	-0.026
-124.239	5.419	-0.261	-0.190
-123.224	-200.000	0.006	-0.070
-122.210	-85.748	0.196	0.060
-121.195	-200.000	-0.012	0.188
-120.180	-25.495	0.131	0.076
