DTS Sentinel unit serial number:	SN413079Multiplexer serial number:	ORYXHardware model number:	OX4-SRSoftware version number:	ORYX F/W v4.00 Oryx Data Collector v3.7.2.0data status	okinstallation	princeton_trtdifferential loss correction	single-endedforward channel	channel 2reverse channel	N/Adate	2019/09/16time	18:59:35forward acquisition time	60.00reverse acquisition time	0.00gamma	496.2192k internal	0.2323k external	0.2323temperature offset calibration	0.9964default loss term (dB/km)	0.3790temperature slope calibration	1.0000multiplexer offset coefficient	1.0000multiplexer slope coefficient	1.0000fibre end	0.00T internal ref (°C)	35.62T ext. ref 1 (°C)	0.07T ext. ref 2 (°C)	28.84length (m)	temperature (°C)	Stokes	anti-Stokes-747.200	-40.361	0.246	-0.129
-746.185	-200.000	0.002	0.238
-745.171	-76.308	-0.314	0.112
-744.156	374.843	0.163	0.335
-743.142	211.695	0.021	0.033
-742.127	-200.000	0.019	0.243
-741.112	49.584	-0.132	0.125
-740.098	-142.696	-0.339	0.033
-739.083	-197.332	0.027	-0.000
-738.069	36.641	0.264	0.235
-737.054	44.670	-0.251	-0.233
-736.039	732.751	0.039	-0.107
-735.025	104.659	-0.134	-0.160
-734.010	-55.018	-0.292	-0.133
-732.996	58.776	0.062	0.061
-731.981	-158.909	0.258	-0.015
-730.966	413.025	0.104	-0.224
-729.952	158.554	-0.113	-0.158
-728.937	472.139	-0.054	0.122
-727.923	800.000	0.018	0.062
-726.908	-112.412	-0.245	0.050
-725.894	-128.205	-0.152	-0.022
-724.879	800.000	-0.065	0.193
-723.864	270.527	0.176	-0.312
-722.850	119.784	-0.089	0.111
-721.835	226.741	-0.095	0.155
-720.821	-200.000	0.004	-0.161
-719.806	226.262	-0.085	0.139
-718.791	2.769	-0.164	0.120
-717.777	-98.233	-0.121	-0.031
-716.762	502.429	0.130	0.302
-715.748	-118.946	-0.239	-0.042
-714.733	-200.000	-0.009	-0.090
-713.718	-200.000	0.001	-0.125
-712.704	-200.000	-0.021	-0.196
-711.689	-77.578	0.121	0.042
-710.675	-111.477	-0.395	-0.081
-709.660	116.823	-0.050	0.062
-708.645	800.000	-0.063	-0.263
-707.631	-200.000	0.001	-0.355
-706.616	150.476	-0.255	-0.349
-705.602	-118.930	-0.169	-0.030
-704.587	-155.509	-0.408	-0.027
-703.572	-74.969	0.111	0.040
-702.558	-75.528	0.303	-0.109
-701.543	-35.449	0.334	-0.183
-700.529	-200.000	0.004	0.223
-699.514	260.286	0.208	-0.362
-698.499	-200.000	-0.003	-0.377
-697.485	-97.206	-0.152	0.040
-696.470	-63.959	0.293	-0.121
-695.456	-200.000	0.004	-0.383
-694.441	-137.871	-0.109	-0.012
-693.426	-32.187	0.319	0.180
-692.412	-6.944	-0.274	0.187
-691.397	235.626	-0.234	-0.389
-690.383	316.280	0.060	0.115
-689.368	304.766	-0.168	-0.315
-688.354	-18.342	-0.127	0.080
-687.339	41.622	0.161	0.147
-686.324	-20.367	0.092	-0.057
-685.310	-7.656	-0.207	-0.141
-684.295	21.992	-0.083	0.068
-683.281	766.064	0.098	-0.268
-682.266	-182.403	0.097	-0.002
-681.251	-66.323	-0.133	0.053
-680.237	224.775	0.072	0.118
-679.222	-200.000	-0.013	-0.081
-678.208	49.348	0.169	-0.160
-677.193	-66.743	0.138	-0.055
-676.178	394.483	-0.023	0.049
-675.164	-83.188	-0.151	-0.049
-674.149	-200.000	-0.041	0.211
-673.135	-82.044	-0.201	-0.066
-672.120	433.689	-0.153	-0.335
-671.105	276.386	0.048	0.085
-670.091	-200.000	0.015	-0.459
-669.076	-50.805	0.480	-0.227
-668.062	247.891	-0.094	-0.159
-667.047	-102.693	0.022	-0.005
-666.032	-69.846	-0.115	-0.044
-665.018	116.665	0.122	-0.151
-664.003	152.699	0.240	-0.330
-662.989	433.250	-0.124	-0.270
-661.974	-4.632	-0.102	-0.071
-660.959	8.240	-0.110	0.084
-659.945	12.936	-0.125	0.097
-658.930	483.800	-0.113	0.258
-657.916	-37.330	-0.133	-0.071
-656.901	800.000	0.030	-0.110
-655.886	-94.909	-0.170	-0.046
-654.872	-162.027	-0.609	0.031
-653.857	-74.393	0.145	-0.053
-652.843	129.979	-0.082	-0.105
-651.828	108.121	-0.287	-0.344
-650.814	800.000	0.059	-0.226
-649.799	-200.000	-0.023	0.182
-648.784	-128.819	0.140	-0.020
-647.770	-151.193	-0.130	-0.010
-646.755	66.605	-0.116	-0.119
-645.741	-200.000	-0.010	0.183
-644.726	-44.466	-0.193	0.097
-643.711	26.949	0.083	0.070
-642.697	800.000	-0.113	0.420
-641.682	83.910	-0.163	-0.179
-640.668	98.757	0.144	-0.167
-639.653	361.279	-0.138	0.278
-638.638	22.536	-0.273	-0.225
-637.624	21.776	0.072	0.059
-636.609	172.531	-0.107	-0.156
-635.595	79.144	-0.187	-0.202
-634.580	55.686	0.254	-0.248
-633.565	-15.073	-0.216	0.139
-632.551	32.937	-0.298	0.259
-631.536	-179.045	0.235	0.005
-630.522	-45.061	0.074	0.037
-629.507	522.636	0.112	0.264
-628.492	-60.114	0.032	-0.014
-627.478	-107.143	0.322	0.071
-626.463	-28.966	-0.183	-0.106
-625.449	-3.932	-0.302	0.210
-624.434	-78.075	-0.244	0.085
-623.419	-160.906	0.173	0.009
-622.405	-75.142	-0.405	0.146
-621.390	-32.543	0.077	0.043
-620.376	800.000	0.053	0.180
-619.361	-193.919	0.179	-0.002
-618.346	-64.847	-0.267	0.109
-617.332	715.694	-0.080	0.214
-616.317	-13.541	-0.026	0.017
-615.303	49.943	0.043	-0.041
-614.288	69.361	-0.282	0.292
-613.273	475.739	-0.057	-0.128
-612.259	-132.452	-0.130	-0.017
-611.244	99.133	-0.166	-0.192
-610.230	-15.499	-0.079	-0.050
-609.215	-30.339	-0.319	0.182
-608.201	129.605	0.101	-0.129
-607.186	7.009	0.260	-0.195
-606.171	-179.250	-0.278	-0.006
-605.157	-200.000	-0.039	-0.222
-604.142	-35.854	-0.365	-0.199
-603.128	-45.277	0.363	-0.181
-602.113	172.338	-0.091	0.131
-601.098	371.397	-0.015	-0.030
-600.084	-142.278	-0.616	0.061
-599.069	-42.633	0.050	0.025
-598.055	319.936	0.128	-0.244
-597.040	800.000	0.068	0.285
-596.025	-121.458	-0.179	-0.030
-595.011	138.118	0.074	-0.097
-593.996	-76.797	0.390	-0.137
-592.982	484.684	-0.050	0.113
-591.967	-200.000	0.022	-0.222
-590.952	225.130	-0.110	0.179
-589.938	-61.224	0.287	-0.122
-588.923	-90.365	0.368	0.107
-587.909	261.958	-0.197	0.343
-586.894	-143.898	-0.450	-0.043
-585.879	-2.974	-0.038	-0.026
-584.865	800.000	0.127	0.419
-583.850	800.000	0.032	-0.090
-582.836	298.278	-0.137	-0.253
-581.821	206.426	0.153	-0.239
-580.806	-2.588	0.178	-0.125
-579.792	30.765	-0.262	0.225
-578.777	24.037	-0.134	0.111
-577.763	-40.195	0.095	-0.050
-576.748	2.469	0.091	-0.066
-575.733	-113.798	-0.350	0.068
-574.719	-200.000	0.060	0.275
-573.704	-122.687	-0.331	-0.054
-572.690	343.208	0.140	-0.276
-571.675	122.692	0.061	-0.076
-570.661	29.012	-0.113	0.096
-569.646	45.038	-0.229	0.212
-568.631	-200.000	0.021	0.548
-567.617	-32.296	0.110	-0.061
-566.602	150.282	-0.252	-0.343
-565.588	386.365	-0.058	0.120
-564.573	-200.000	-0.001	-0.198
-563.558	609.996	-0.050	0.125
-562.544	-200.000	0.048	-0.331
-561.529	-128.590	0.223	0.032
-560.515	144.389	-0.083	-0.112
-559.500	155.368	0.064	0.088
-558.485	-66.316	-0.179	0.071
-557.471	97.654	0.187	-0.215
-556.456	225.018	-0.134	0.217
-555.442	113.589	0.109	0.133
-554.427	-45.456	0.092	-0.046
-553.412	-79.854	-0.222	-0.075
-552.398	-68.524	-0.264	0.103
-551.383	800.000	-0.036	0.141
-550.369	-85.620	0.243	0.076
-549.354	2.830	0.259	-0.188
-548.339	777.951	-0.094	0.257
-547.325	-200.000	0.015	0.356
-546.310	-21.933	-0.303	0.184
-545.296	35.696	0.173	-0.152
-544.281	-42.962	-0.123	0.063
-543.266	800.000	-0.078	-0.237
-542.252	-80.886	0.131	0.043
-541.237	42.004	-0.202	0.183
-540.223	228.214	-0.199	-0.324
-539.208	61.772	0.198	-0.197
-538.193	-200.000	-0.087	0.401
-537.179	591.420	-0.068	-0.167
-536.164	800.000	-0.082	-0.243
-535.150	-200.000	-0.021	0.157
-534.135	109.565	-0.047	0.056
-533.121	614.695	-0.050	0.125
-532.106	-200.000	-0.002	-0.148
-531.091	-200.000	-0.061	0.273
-530.077	126.392	0.089	0.112
-529.062	60.420	0.134	0.133
-528.048	-200.000	0.199	-0.000
-527.033	800.000	-0.035	-0.148
-526.018	-115.464	-0.447	0.084
-525.004	-200.000	-0.021	0.096
-523.989	276.610	0.124	0.221
-522.975	408.418	-0.068	-0.144
-521.960	540.386	-0.016	0.039
-520.945	107.221	-0.142	-0.169
-519.931	31.083	0.175	0.150
-518.916	580.178	-0.148	-0.363
-517.902	-106.404	0.231	0.052
-516.887	800.000	-0.034	0.147
-515.872	-40.375	0.158	-0.082
-514.858	-200.000	-0.064	0.355
-513.843	-200.000	-0.000	-0.008
-512.829	-200.000	-0.035	0.262
-511.814	162.137	-0.172	-0.241
-510.799	-200.000	-0.028	-0.472
-509.785	800.000	0.061	0.245
-508.770	800.000	0.110	-0.304
-507.756	-200.000	-0.011	-0.106
-506.741	-116.034	-0.160	0.030
-505.726	143.220	-0.098	-0.130
-504.712	800.000	0.079	0.247
-503.697	106.497	0.177	-0.210
-502.683	-92.109	0.174	-0.049
-501.668	-113.544	0.181	-0.035
-500.653	702.478	-0.170	0.448
-499.639	134.185	-0.097	-0.126
-498.624	800.000	0.045	0.125
-497.610	95.643	-0.265	-0.303
-496.595	-9.208	0.290	-0.194
-495.581	-109.876	-0.143	-0.030
-494.566	-159.123	-0.331	0.019
-493.551	187.664	0.115	-0.172
-492.537	206.811	-0.136	-0.212
-491.522	99.509	0.138	0.159
-490.508	-33.464	0.125	-0.069
-489.493	332.097	-0.095	-0.184
-488.478	800.000	0.099	-0.283
-487.464	-200.000	0.026	-0.160
-486.449	800.000	0.014	-0.047
-485.435	-134.974	-0.312	0.038
-484.420	-125.754	0.186	-0.028
-483.405	-58.974	0.182	-0.079
-482.391	-34.617	-0.121	-0.066
-481.376	-200.000	-0.008	-0.202
-480.362	-102.421	0.202	-0.048
-479.347	44.422	0.172	-0.158
-478.332	-200.000	-0.018	-0.175
-477.318	-13.801	0.128	-0.083
-476.303	800.000	0.135	-0.429
-475.289	-32.025	0.061	0.034
-474.274	-91.973	-0.028	0.008
-473.259	-100.475	-0.127	0.031
-472.245	-5.677	-0.079	0.054
-471.230	391.926	-0.199	-0.413
-470.216	-148.123	-0.117	0.010
-469.201	25.316	-0.204	-0.169
-468.186	354.157	-0.046	-0.090
-467.172	-67.980	-0.193	-0.075
-466.157	-26.027	-0.316	-0.185
-465.143	414.416	0.196	-0.418
-464.128	399.518	0.131	0.274
-463.113	-25.293	-0.438	0.259
-462.099	-200.000	-0.024	0.161
-461.084	-78.146	0.206	0.071
-460.070	43.254	0.138	0.126
-459.055	0.959	-0.104	-0.074
-458.040	800.000	0.038	-0.121
-457.026	-103.472	0.280	0.066
-456.011	92.193	-0.064	-0.072
-454.997	726.859	-0.063	-0.169
-453.982	-168.797	-0.209	0.008
-452.968	606.508	0.132	0.328
-451.953	303.880	-0.130	0.240
-450.938	-200.000	-0.030	-0.288
-449.924	210.912	0.234	-0.367
-448.909	-64.114	-0.228	0.093
-447.895	-172.097	-0.243	-0.008
-446.880	-200.000	-0.067	-0.491
-445.865	-132.321	0.080	0.010
-444.851	-200.000	-0.013	0.087
-443.836	-200.000	-0.054	-0.429
-442.822	-200.000	-0.025	0.358
-441.807	-33.340	-0.099	-0.055
-440.792	-132.409	-0.294	0.038
-439.778	800.000	-0.066	0.253
-438.763	656.726	0.046	0.117
-437.749	-182.601	0.210	-0.004
-436.734	362.403	-0.046	-0.092
-435.719	-108.658	-0.097	0.021
-434.705	60.990	0.229	0.226
-433.690	-39.045	0.151	-0.079
-432.676	369.302	-0.027	0.054
-431.661	535.455	-0.108	0.256
-430.646	-23.299	-0.052	-0.031
-429.632	469.860	0.066	0.149
-428.617	88.614	0.225	0.249
-427.603	-97.761	0.241	0.062
-426.588	800.000	-0.066	0.213
-425.573	-10.390	0.221	-0.146
-424.559	-14.664	-0.143	-0.092
-423.544	-96.629	-0.139	0.037
-422.530	800.000	0.030	-0.113
-421.515	-200.000	0.026	0.161
-420.500	13.171	-0.198	0.153
-419.486	618.037	0.100	0.251
-418.471	-200.000	-0.014	0.321
-417.457	-41.755	0.169	-0.086
-416.442	-117.552	-0.102	-0.018
-415.428	-112.245	0.254	0.051
-414.413	-36.651	0.151	-0.081
-413.398	5.969	0.100	-0.074
-412.384	-44.731	-0.145	0.072
-411.369	-135.205	0.369	-0.044
-410.355	63.208	0.175	0.175
-409.340	-200.000	0.011	0.210
-408.325	161.469	-0.164	0.229
-407.311	-63.974	-0.172	0.070
-406.296	70.662	-0.087	0.089
-405.282	-175.601	0.243	0.007
-404.267	97.921	-0.186	0.213
-403.252	-38.775	0.214	-0.112
-402.238	-12.089	-0.361	-0.236
-401.223	-82.311	-0.142	-0.046
-400.209	800.000	-0.052	0.212
-399.194	45.289	0.126	0.116
-398.179	-102.204	0.214	-0.051
-397.165	-159.533	-0.209	0.012
-396.150	-133.959	0.326	0.040
-395.136	-161.186	-0.126	0.007
-394.121	72.557	0.190	0.197
-393.106	-174.438	0.445	-0.013
-392.092	-104.831	0.234	0.054
-391.077	246.107	0.154	-0.259
-390.063	-139.802	0.304	0.032
-389.048	668.305	-0.045	0.116
-388.033	-108.065	0.077	-0.017
-387.019	235.880	-0.044	-0.073
-386.004	115.860	-0.190	-0.231
-384.990	-200.000	-0.021	0.098
-383.975	800.000	0.089	0.387
-382.960	-36.774	0.232	0.124
-381.946	414.476	0.071	0.150
-380.931	-105.153	-0.050	0.011
-379.917	-200.000	-0.023	-0.203
-378.902	-200.000	-0.043	-0.249
-377.888	800.000	-0.058	-0.191
-376.873	-57.960	-0.381	-0.166
-375.858	172.664	0.045	0.065
-374.844	-60.796	-0.153	-0.064
-373.829	343.042	0.228	-0.445
-372.815	714.669	-0.053	0.140
-371.800	315.818	-0.043	0.081
-370.785	158.330	-0.053	-0.073
-369.771	800.000	0.033	0.123
-368.756	179.740	-0.090	-0.132
-367.742	390.279	0.108	0.223
-366.727	64.273	-0.087	-0.088
-365.712	-102.025	0.029	0.007
-364.698	-200.000	-0.016	-0.085
-363.683	43.281	0.146	-0.133
-362.669	-200.000	0.053	-0.239
-361.654	800.000	0.025	0.101
-360.639	336.796	0.182	-0.352
-359.625	52.614	0.372	-0.353
-358.610	-200.000	-0.006	-0.067
-357.596	-35.644	-0.160	0.086
-356.581	22.511	-0.199	0.162
-355.566	74.793	-0.086	0.090
-354.552	71.456	0.136	-0.140
-353.537	800.000	-0.064	-0.251
-352.523	755.001	0.120	0.322
-351.508	-139.643	-0.413	0.044
-350.493	0.331	-0.105	-0.075
-349.479	398.080	-0.057	-0.118
-348.464	-65.717	0.289	0.115
-347.450	800.000	0.168	-0.489
-346.435	-52.275	0.054	-0.025
-345.420	-9.897	-0.149	-0.099
-344.406	27.873	0.083	0.070
-343.391	-200.000	-0.044	-0.204
-342.377	800.000	0.036	0.150
-341.362	-97.669	0.138	0.035
-340.348	-121.613	-0.204	-0.034
-339.333	-200.000	-0.011	-0.065
-338.318	90.307	0.146	-0.162
-337.304	442.861	0.060	-0.130
-336.289	800.000	-0.025	-0.096
-335.275	-117.586	0.360	0.064
-334.260	493.115	-0.141	-0.321
-333.245	-200.000	0.081	-0.479
-332.231	800.000	0.058	-0.160
-331.216	-170.516	0.215	-0.007
-330.202	-125.785	-0.106	0.016
-329.187	22.977	-0.151	0.123
-328.172	0.728	-0.033	0.024
-327.158	-170.630	0.143	-0.005
-326.143	173.171	-0.037	-0.053
-325.129	-200.000	-0.005	0.139
-324.114	-23.507	0.210	-0.125
-323.099	20.365	-0.092	-0.074
-322.085	-99.230	-0.189	0.047
-321.070	276.263	-0.211	-0.372
-320.056	-200.000	-0.027	0.137
-319.041	-71.763	0.098	0.036
-318.026	134.558	-0.028	-0.036
-317.012	-53.756	-0.234	-0.106
-315.997	17.840	0.144	-0.114
-314.983	-76.033	-0.246	0.086
-313.968	-93.653	0.362	0.099
-312.953	-76.243	-0.162	-0.057
-311.939	800.000	0.049	-0.145
-310.924	-66.718	0.137	-0.054
-309.910	-8.012	0.094	0.063
-308.895	800.000	-0.046	-0.135
-307.880	-64.882	-0.339	0.136
-306.866	-200.000	0.009	0.265
-305.851	135.377	0.154	-0.199
-304.837	30.686	-0.402	0.341
-303.822	800.000	0.051	0.200
-302.807	-200.000	0.034	-0.401
-301.793	800.000	0.028	0.120
-300.778	-200.000	-0.005	-0.136
-299.764	-35.831	0.246	-0.132
-298.749	-125.943	0.181	-0.027
-297.735	-200.000	-0.055	0.267
-296.720	636.900	-0.103	0.260
-295.705	2.046	0.093	-0.066
-294.691	11.537	-0.091	0.069
-293.676	292.508	-0.200	0.362
-292.662	-200.000	0.006	-0.179
-291.647	800.000	0.062	-0.254
-290.632	-144.170	0.192	0.018
-289.618	-115.657	-0.093	-0.017
-288.603	23.758	0.139	0.114
-287.589	85.641	0.261	-0.285
-286.574	402.303	0.100	0.209
-285.559	-80.197	-0.316	0.105
-284.545	-78.223	0.320	-0.109
-283.530	104.458	0.073	-0.085
-282.516	-60.732	0.060	-0.025
-281.501	-22.392	0.191	-0.114
-280.486	800.000	-0.051	0.144
-279.472	205.513	-0.169	0.260
-278.457	447.867	0.127	0.277
-277.443	-200.000	0.039	-0.237
-276.428	36.929	-0.085	-0.074
-275.413	-60.336	0.336	0.142
-274.399	502.994	-0.057	0.130
-273.384	-200.000	0.050	-0.276
-272.370	-28.974	0.208	-0.118
-271.355	-143.140	0.322	0.031
-270.340	-135.768	-0.200	-0.023
-269.326	-200.000	-0.076	0.332
-268.311	440.021	-0.079	-0.170
-267.297	76.556	0.133	-0.140
-266.282	800.000	-0.093	-0.333
-265.267	-88.227	0.140	-0.041
-264.253	-104.043	-0.146	0.034
-263.238	75.073	-0.226	0.236
-262.224	81.773	-0.292	0.313
-261.209	123.458	0.110	-0.137
-260.195	-87.781	0.118	0.035
-259.180	-148.209	-0.298	0.024
-258.165	-200.000	0.021	-0.241
-257.151	60.099	-0.112	0.110
-256.136	-200.000	-0.018	0.161
-255.122	500.778	0.093	0.212
-254.107	-109.777	-0.078	0.016
-253.092	-200.000	0.019	0.157
-252.078	-60.219	-0.232	0.098
-251.063	-200.000	-0.039	0.247
-250.049	-32.019	0.189	0.105
-249.034	-85.433	-0.097	0.030
-248.019	-50.040	0.246	0.115
-247.005	-147.521	0.220	-0.018
-245.990	41.157	-0.197	-0.176
-244.976	-110.464	-0.209	-0.043
-243.961	319.811	-0.178	-0.334
-242.946	800.000	0.046	0.139
-241.932	178.679	0.022	0.032
-240.917	-200.000	-0.010	-0.366
-239.903	-45.942	0.272	0.133
-238.888	800.000	0.020	0.067
-237.873	-89.886	-0.242	-0.070
-236.859	-162.733	0.055	-0.003
-235.844	800.000	-0.083	-0.293
-234.830	103.573	0.164	-0.190
-233.815	260.590	0.139	-0.237
-232.800	-90.765	-0.323	-0.092
-231.786	-182.270	0.224	0.004
-230.771	301.158	-0.246	0.449
-229.757	800.000	0.093	0.331
-228.742	-109.985	0.087	-0.018
-227.727	19.548	0.351	0.279
-226.713	-52.637	-0.119	-0.054
-225.698	151.561	-0.054	0.072
-224.684	800.000	0.070	-0.214
-223.669	156.517	0.175	0.239
-222.655	-179.960	-0.085	0.002
-221.640	-53.355	-0.296	0.134
-220.625	18.720	0.478	0.378
-219.611	800.000	-0.028	0.089
-218.596	-59.543	-0.062	0.026
-217.582	96.678	-0.069	0.079
-216.567	334.224	0.146	0.280
-215.552	-102.929	-0.214	0.050
-214.538	713.114	-0.056	-0.148
-213.523	154.254	0.099	0.134
-212.509	-200.000	-0.013	-0.064
-211.494	165.278	-0.097	-0.136
-210.479	-96.079	0.128	0.034
-209.465	14.658	-0.066	-0.051
-208.450	595.969	-0.118	0.288
-207.436	-113.872	0.074	-0.014
-206.421	168.337	0.028	0.040
-205.406	559.253	0.066	-0.158
-204.392	88.549	-0.062	-0.068
-203.377	-200.000	-0.025	0.436
-202.363	-138.188	0.283	0.031
-201.348	518.639	0.014	0.033
-200.333	-200.000	-0.023	0.134
-199.319	-61.669	-0.074	-0.031
-198.304	-84.238	-0.155	-0.049
-197.290	-119.362	0.311	-0.053
-196.275	221.491	0.120	0.191
-195.260	68.348	-0.084	0.085
-194.246	-200.000	0.073	0.360
-193.231	-140.825	0.310	0.032
-192.217	-15.632	0.204	0.129
-191.202	800.000	0.037	-0.121
-190.187	86.162	-0.431	-0.469
-189.173	800.000	0.045	-0.193
-188.158	-200.000	0.028	0.153
-187.144	-200.000	0.018	0.286
-186.129	77.998	0.091	0.096
-185.114	800.000	0.063	0.197
-184.100	45.258	0.076	-0.069
-183.085	31.192	-0.157	0.133
-182.071	37.239	0.187	-0.163
-181.056	150.180	0.137	-0.183
-180.042	23.813	0.129	-0.105
-179.027	239.050	0.178	-0.292
-178.012	-200.000	-0.059	-0.264
-176.998	-44.156	0.194	0.096
-175.983	-104.050	0.115	-0.026
-174.969	155.637	0.137	-0.186
-173.954	-200.000	-0.036	-0.204
-172.939	-200.000	-0.047	-0.206
-171.925	262.520	0.276	0.472
-170.910	49.836	-0.064	0.060
-169.896	170.250	0.184	-0.260
-168.881	-102.372	0.147	-0.035
-167.866	-200.000	-0.017	0.174
-166.852	96.450	-0.085	0.096
-165.837	27.704	-0.211	0.175
-164.823	-75.762	-0.132	0.046
-163.808	800.000	-0.090	0.295
-162.793	62.679	-0.108	-0.106
-161.779	-34.702	-0.229	-0.124
-160.764	-200.000	-0.027	-0.204
-159.750	-200.000	0.013	-0.119
-158.735	-54.841	-0.242	0.108
-157.720	-21.246	0.234	0.141
-156.706	-55.266	0.193	0.086
-155.691	-200.000	-0.015	0.072
-154.677	159.093	0.106	-0.145
-153.662	-57.306	0.205	-0.089
-152.647	-50.894	0.181	-0.084
-151.633	-87.554	0.284	0.085
-150.618	-1.972	0.193	0.134
-149.604	-105.732	-0.257	0.057
-148.589	800.000	-0.004	-0.015
-147.574	53.669	0.087	0.082
-146.560	-200.000	0.022	-0.477
-145.545	73.912	0.106	-0.110
-144.531	706.380	0.088	-0.230
-143.516	-200.000	-0.031	0.245
-142.502	-200.000	0.023	0.178
-141.487	16.067	0.086	-0.067
-140.472	265.195	-0.060	0.104
-139.458	-41.079	-0.095	-0.048
-138.443	-107.643	0.409	0.088
-137.429	-200.000	-0.091	-0.478
-136.414	357.282	0.030	0.058
-135.399	-5.024	0.115	-0.078
-134.385	296.850	-0.125	-0.226
-133.370	-200.000	-0.016	0.181
-132.356	800.000	0.087	0.287
-131.341	-35.001	-0.154	0.083
-130.326	-107.587	0.249	-0.054
-129.312	84.935	0.052	0.056
-128.297	324.194	-0.153	0.287
-127.283	-184.117	0.426	0.007
-126.268	-152.758	-0.362	-0.025
-125.253	97.958	-0.155	-0.176
-124.239	25.250	-0.117	-0.096
-123.224	800.000	0.024	0.101
-122.210	-38.233	0.191	0.100
-121.195	-51.865	0.297	0.136
