DTS Sentinel unit serial number:	SN413079Multiplexer serial number:	ORYXHardware model number:	OX4-SRSoftware version number:	ORYX F/W v4.00 Oryx Data Collector v3.7.2.0data status	okinstallation	princeton_trtdifferential loss correction	single-endedforward channel	channel 2reverse channel	N/Adate	2019/09/19time	15:31:34forward acquisition time	60.00reverse acquisition time	0.00gamma	496.2192k internal	0.2319k external	0.2319temperature offset calibration	1.0026default loss term (dB/km)	0.3790temperature slope calibration	1.0000multiplexer offset coefficient	1.0000multiplexer slope coefficient	1.0000fibre end	0.00T internal ref (°C)	34.12T ext. ref 1 (°C)	1.15T ext. ref 2 (°C)	31.41length (m)	temperature (°C)	Stokes	anti-Stokes-747.200	-110.479	0.444	-0.093
-746.185	-153.238	-0.013	-0.001
-745.171	-123.147	0.227	0.037
-744.156	-144.115	-0.321	0.030
-743.142	-79.520	0.067	0.023
-742.127	-130.407	0.149	0.020
-741.112	-165.037	0.275	0.012
-740.098	-85.455	0.202	0.064
-739.083	-200.000	-0.002	-0.022
-738.069	18.912	-0.225	0.182
-737.054	50.658	0.094	-0.090
-736.039	-200.000	0.052	-0.330
-735.025	-11.809	0.439	-0.291
-734.010	355.033	-0.046	-0.093
-732.996	800.000	-0.036	-0.130
-731.981	-10.795	0.179	-0.120
-730.966	-200.000	-0.027	-0.384
-729.952	62.587	0.053	-0.054
-728.937	-98.923	0.145	-0.037
-727.923	-20.232	-0.245	-0.153
-726.908	800.000	0.020	-0.062
-725.894	-72.940	-0.323	-0.120
-724.879	467.108	0.134	0.304
-723.864	-15.346	0.144	-0.093
-722.850	155.607	-0.166	-0.232
-721.835	-173.693	-0.196	0.006
-720.821	541.906	-0.174	0.420
-719.806	67.205	-0.127	-0.131
-718.791	-126.144	0.250	-0.038
-717.777	-200.000	-0.055	-0.261
-716.762	-200.000	0.002	0.111
-715.748	800.000	0.091	-0.257
-714.733	-108.440	-0.304	0.066
-713.718	-20.873	-0.067	-0.042
-712.704	-65.033	-0.423	-0.173
-711.689	90.487	-0.079	-0.090
-710.675	-200.000	0.006	0.032
-709.660	-93.951	0.098	-0.027
-708.645	800.000	0.065	0.246
-707.631	-126.256	0.159	0.024
-706.616	216.389	-0.137	0.220
-705.602	228.430	-0.136	0.225
-704.587	101.485	-0.209	-0.246
-703.572	66.576	-0.192	-0.197
-702.558	4.168	-0.158	0.117
-701.543	-200.000	-0.062	-0.352
-700.529	-110.469	-0.466	0.098
-699.514	304.854	-0.129	-0.243
-698.499	800.000	0.021	0.084
-697.485	27.313	0.410	-0.348
-696.470	-25.271	0.227	0.136
-695.456	-76.574	-0.192	0.068
-694.441	-101.493	0.087	0.021
-693.426	-105.534	-0.137	0.031
-692.412	800.000	-0.067	-0.213
-691.397	-200.000	-0.037	0.162
-690.383	501.108	0.026	0.061
-689.368	-200.000	-0.010	0.167
-688.354	-133.919	-0.351	-0.044
-687.339	-158.925	0.132	-0.008
-686.324	502.059	0.206	-0.481
-685.310	800.000	0.056	-0.181
-684.295	-115.466	0.099	-0.019
-683.281	-104.042	-0.190	0.045
-682.266	-127.635	0.258	-0.038
-681.251	-155.812	0.129	-0.008
-680.237	282.796	0.056	-0.101
-679.222	-12.440	0.095	-0.063
-678.208	-169.769	-0.230	-0.008
-677.193	-3.375	-0.077	0.054
-676.178	56.412	0.107	0.105
-675.164	-66.725	-0.397	0.158
-674.149	-71.717	-0.121	-0.046
-673.135	-62.409	0.153	-0.064
-672.120	12.353	-0.108	0.084
-671.105	403.983	-0.042	0.090
-670.091	-83.701	0.481	0.155
-669.076	143.139	-0.204	-0.274
-668.062	-4.106	-0.220	-0.154
-667.047	-200.000	-0.025	0.234
-666.032	-200.000	0.025	0.333
-665.018	-139.616	0.137	-0.015
-664.003	-42.093	0.243	-0.125
-662.989	-120.698	0.041	0.007
-661.974	168.839	0.023	-0.033
-660.959	-200.000	0.056	-0.274
-659.945	177.226	-0.043	-0.063
-658.930	-119.790	-0.283	-0.049
-657.916	800.000	-0.164	-0.598
-656.901	-132.054	0.127	0.017
-655.886	211.038	0.207	-0.328
-654.872	800.000	0.061	-0.249
-653.857	-200.000	0.009	-0.168
-652.843	297.684	-0.090	-0.166
-651.828	800.000	-0.097	0.290
-650.814	122.661	-0.168	-0.212
-649.799	-45.993	-0.072	-0.036
-648.784	-200.000	-0.002	0.028
-647.770	-133.689	-0.391	-0.049
-646.755	-163.349	-0.234	0.011
-645.741	-116.603	-0.267	0.049
-644.726	281.231	0.098	0.177
-643.711	40.751	-0.134	-0.122
-642.697	67.725	-0.259	-0.267
-641.682	800.000	-0.104	-0.335
-640.668	-67.013	-0.126	0.050
-639.653	176.012	0.109	0.160
-638.638	-13.642	-0.178	-0.116
-637.624	-63.477	-0.229	-0.095
-636.609	-78.066	-0.455	0.158
-635.595	-54.417	0.153	0.070
-634.580	32.660	-0.266	-0.232
-633.565	64.531	-0.247	-0.250
-632.551	21.309	-0.108	-0.089
-631.536	-171.706	0.199	0.007
-630.522	-24.353	0.133	0.080
-629.507	-67.038	-0.292	0.116
-628.492	-24.964	-0.063	-0.037
-627.478	-98.744	-0.114	-0.029
-626.463	247.133	0.148	-0.252
-625.449	-110.934	-0.326	0.067
-624.434	96.882	0.272	0.314
-623.419	-152.040	-0.179	0.013
-622.405	-111.659	0.445	-0.091
-621.390	800.000	0.065	-0.269
-620.376	-200.000	-0.017	0.147
-619.361	-9.044	0.161	-0.108
-618.346	335.683	-0.077	0.151
-617.332	-128.181	0.259	0.037
-616.317	152.481	-0.208	0.286
-615.303	328.578	-0.130	-0.251
-614.288	-200.000	-0.031	-0.163
-613.273	-139.534	-0.333	-0.036
-612.259	14.969	0.154	0.122
-611.244	145.967	-0.276	-0.373
-610.230	-170.967	0.004	0.000
-609.215	-2.546	-0.073	-0.051
-608.201	-115.017	0.210	-0.040
-607.186	-44.978	-0.162	0.081
-606.171	-103.452	0.406	-0.096
-605.157	337.099	0.200	0.391
-604.142	-34.580	-0.352	-0.194
-603.128	-76.176	0.350	0.124
-602.113	103.719	-0.048	0.057
-601.098	-86.248	0.230	0.071
-600.084	-136.013	0.206	0.024
-599.069	800.000	-0.096	0.291
-598.055	3.548	-0.091	0.067
-597.040	-200.000	-0.060	-0.330
-596.025	-104.076	-0.184	-0.043
-595.011	66.984	0.325	-0.333
-593.996	-200.000	-0.014	-0.315
-592.982	-6.475	0.257	0.176
-591.967	800.000	-0.088	0.290
-590.952	-128.295	0.203	-0.029
-589.938	357.872	-0.131	0.263
-588.923	800.000	0.043	-0.170
-587.909	201.929	-0.036	0.056
-586.894	-36.487	0.328	-0.177
-585.879	-12.600	0.124	0.082
-584.865	31.176	0.046	-0.040
-583.850	55.835	0.220	-0.214
-582.836	84.258	0.158	0.173
-581.821	-165.301	-0.339	0.015
-580.806	330.675	0.192	0.372
-579.792	72.532	0.098	-0.102
-578.777	-34.035	-0.299	-0.165
-577.763	767.419	0.037	0.102
-576.748	-103.315	0.068	-0.016
-575.733	-117.210	-0.408	0.075
-574.719	-80.636	-0.108	-0.036
-573.704	-101.666	0.094	0.023
-572.690	91.795	0.151	0.171
-571.675	62.544	0.098	-0.099
-570.661	-200.000	0.029	-0.149
-569.646	800.000	-0.066	-0.193
-568.631	-44.672	0.157	0.079
-567.617	-130.274	-0.187	-0.026
-566.602	570.948	0.031	-0.076
-565.588	800.000	-0.053	-0.186
-564.573	-200.000	0.017	0.185
-563.558	-200.000	0.018	0.114
-562.544	39.074	0.239	0.215
-561.529	-119.605	-0.252	0.044
-560.515	219.262	0.128	0.206
-559.500	-200.000	0.003	-0.227
-558.485	231.926	-0.123	0.203
-557.471	-83.687	-0.555	-0.178
-556.456	667.287	0.092	-0.238
-555.442	351.813	-0.090	-0.178
-554.427	-126.163	0.201	-0.030
-553.412	4.745	0.345	-0.255
-552.398	-63.077	0.282	-0.117
-551.383	590.221	0.128	0.317
-550.369	-59.840	-0.075	-0.032
-549.354	-174.799	-0.193	0.005
-548.339	800.000	-0.044	-0.178
-547.325	500.975	-0.054	0.126
-546.310	491.559	-0.047	0.107
-545.296	27.147	-0.256	0.215
-544.281	-51.678	0.226	-0.106
-543.266	-93.238	-0.375	-0.105
-542.252	513.845	0.096	0.224
-541.237	-200.000	-0.036	0.222
-540.223	-162.144	-0.296	0.015
-539.208	-29.637	-0.117	0.067
-538.193	-101.381	-0.367	0.090
-537.179	-131.531	0.146	0.019
-536.164	-154.042	-0.319	-0.022
-535.150	-169.350	0.241	0.009
-534.135	-200.000	0.010	0.133
-533.121	-58.554	0.210	0.091
-532.106	40.271	0.148	0.133
-531.091	-89.673	-0.355	0.104
-530.077	545.195	-0.032	0.077
-529.062	800.000	-0.046	0.164
-528.048	-95.760	0.276	-0.074
-527.033	-6.514	-0.080	0.054
-526.018	638.612	0.055	-0.139
-525.004	-34.564	-0.097	-0.053
-523.989	94.334	0.234	-0.266
-522.975	800.000	-0.113	-0.335
-521.960	-110.419	-0.147	0.031
-520.945	-43.770	0.185	-0.093
-519.931	481.083	-0.108	0.245
-518.916	31.351	-0.251	-0.216
-517.902	-22.318	0.104	-0.063
-516.887	350.373	-0.176	0.350
-515.872	773.641	0.123	0.336
-514.858	162.300	0.074	-0.104
-513.843	152.562	0.120	-0.164
-512.829	-133.331	-0.025	-0.003
-511.814	-73.719	0.133	-0.049
-510.799	-155.425	-0.210	-0.014
-509.785	800.000	0.060	-0.257
-508.770	-57.864	-0.156	0.068
-507.756	-29.603	0.123	-0.071
-506.741	516.165	0.092	0.216
-505.726	800.000	-0.103	-0.367
-504.712	676.535	0.007	-0.018
-503.697	800.000	-0.039	0.160
-502.683	396.478	0.074	0.155
-501.668	-37.073	0.157	0.084
-500.653	800.000	0.048	0.209
-499.639	-200.000	-0.002	-0.090
-498.624	-200.000	-0.017	-0.168
-497.610	347.604	-0.178	-0.351
-496.595	-101.485	0.296	-0.072
-495.581	164.117	-0.134	0.189
-494.566	-107.829	-0.058	0.013
-493.551	-37.699	0.293	-0.156
-492.537	86.042	-0.135	-0.149
-491.522	-182.109	0.091	0.002
-490.508	800.000	0.081	-0.316
-489.493	29.165	-0.239	0.203
-488.478	383.720	0.083	-0.170
-487.464	86.268	-0.246	-0.272
-486.449	77.075	-0.093	0.099
-485.435	-105.338	0.080	0.018
-484.420	-200.000	-0.055	0.335
-483.405	-200.000	0.054	0.250
-482.391	349.861	-0.004	0.008
-481.376	-45.244	0.210	-0.105
-480.362	17.561	-0.290	0.231
-479.347	-200.000	-0.030	0.191
-478.332	800.000	0.044	0.134
-477.318	800.000	-0.064	0.186
-476.303	11.677	0.102	-0.078
-475.289	-21.370	-0.281	-0.172
-474.274	-164.565	0.617	-0.028
-473.259	-1.841	-0.373	0.262
-472.245	-200.000	-0.000	-0.287
-471.230	-200.000	-0.020	0.108
-470.216	-73.602	0.092	0.034
-469.201	332.512	0.120	-0.232
-468.186	32.766	-0.054	-0.047
-467.172	-73.746	0.069	-0.025
-466.157	-145.901	-0.119	0.011
-465.143	-48.874	0.262	0.126
-464.128	255.783	-0.016	-0.028
-463.113	-153.529	0.323	0.022
-462.099	72.342	-0.105	0.109
-461.084	-75.446	-0.250	-0.089
-460.070	800.000	0.073	-0.269
-459.055	-139.895	-0.246	0.026
-458.040	-200.000	0.080	0.435
-457.026	-65.612	0.050	0.020
-456.011	789.519	0.030	-0.084
-454.997	800.000	-0.117	0.356
-453.982	800.000	-0.074	-0.268
-452.968	-137.254	-0.076	-0.009
-451.953	-103.396	0.274	-0.065
-450.938	-90.087	-0.254	0.074
-449.924	-64.972	0.263	-0.106
-448.909	-114.175	-0.096	0.019
-447.895	800.000	-0.002	0.009
-446.880	-85.693	0.132	-0.041
-445.865	-83.686	0.413	-0.132
-444.851	-26.740	-0.153	-0.090
-443.836	-195.817	0.164	0.001
-442.822	-155.440	-0.426	0.028
-441.807	-67.562	-0.183	0.072
-440.792	222.451	0.152	-0.245
-439.778	-134.249	-0.211	-0.026
-438.763	-4.914	-0.198	-0.136
-437.749	74.716	-0.200	0.211
-436.734	778.313	0.187	0.510
-435.719	-176.615	0.092	0.002
-434.705	800.000	0.172	-0.475
-433.690	-168.259	0.173	0.007
-432.676	-160.336	0.426	0.023
-431.661	-8.527	-0.208	0.139
-430.646	-200.000	0.033	0.251
-429.632	313.520	-0.142	0.268
-428.617	138.391	0.100	0.131
-427.603	19.026	-0.274	0.219
-426.588	-200.000	-0.022	0.175
-425.573	-200.000	0.031	0.304
-424.559	-99.022	-0.273	0.069
-423.544	168.907	0.075	0.107
-422.530	-11.632	0.296	0.194
-421.515	-172.502	0.108	-0.003
-420.500	-59.610	0.074	0.032
-419.486	-110.802	0.211	0.043
-418.471	-120.387	0.172	-0.029
-417.457	-47.431	0.261	-0.127
-416.442	-119.736	-0.328	0.057
-415.428	2.081	-0.113	-0.081
-414.413	116.601	0.076	-0.093
-413.398	-200.000	0.010	0.237
-412.384	-200.000	0.021	0.286
-411.369	26.017	-0.024	0.020
-410.355	129.894	0.199	0.254
-409.340	195.669	-0.128	0.194
-408.325	548.934	-0.115	-0.276
-407.311	611.772	-0.104	-0.259
-406.296	800.000	-0.085	-0.274
-405.282	-90.415	0.230	0.066
-404.267	89.179	0.196	0.218
-403.252	4.832	-0.083	-0.061
-402.238	-200.000	-0.051	-0.229
-401.223	336.282	0.192	0.372
-400.209	467.858	0.139	-0.311
-399.194	-103.247	0.165	0.039
-398.179	-7.760	-0.149	-0.101
-397.165	-46.173	0.098	0.048
-396.150	800.000	0.130	0.386
-395.136	57.334	0.082	-0.080
-394.121	-130.443	0.290	-0.039
-393.106	-58.269	0.160	0.069
-392.092	-99.299	-0.120	-0.030
-391.077	-200.000	0.057	-0.296
-390.063	73.119	-0.068	0.071
-389.048	382.261	-0.189	-0.388
-388.033	-5.946	-0.077	-0.053
-387.019	-177.097	-0.172	0.004
-386.004	800.000	-0.082	-0.271
-384.990	800.000	-0.071	-0.273
-383.975	-102.692	-0.317	0.075
-382.960	-116.004	-0.162	0.030
-381.946	-200.000	0.004	-0.049
-380.931	800.000	0.096	-0.274
-379.917	-138.328	-0.297	-0.033
-378.902	-200.000	0.054	-0.486
-377.888	-145.465	0.193	-0.017
-376.873	-156.987	0.100	-0.006
-375.858	56.178	-0.255	0.247
-374.844	-21.216	-0.097	0.059
-373.829	-200.000	0.001	0.224
-372.815	-13.457	-0.281	-0.181
-371.800	-116.936	-0.142	-0.026
-370.785	50.826	-0.125	0.118
-369.771	43.308	0.084	0.077
-368.756	-200.000	-0.033	0.191
-367.742	-45.236	-0.164	0.081
-366.727	-56.192	0.130	-0.058
-365.712	364.962	-0.062	-0.125
-364.698	-28.626	-0.309	0.177
-363.683	-156.641	-0.242	0.015
-362.669	-57.125	0.241	0.106
-361.654	-200.000	-0.019	-0.145
-360.639	-163.247	0.301	0.014
-359.625	26.261	-0.169	-0.140
-358.610	-17.442	-0.065	0.041
-357.596	1.601	0.097	-0.070
-356.581	78.478	0.199	-0.212
-355.566	244.200	0.192	-0.321
-354.552	-170.204	0.207	-0.007
-353.537	-6.738	-0.098	0.066
-352.523	-200.000	0.021	0.168
-351.508	-126.233	0.196	-0.029
-350.493	-200.000	-0.053	0.331
-349.479	-200.000	0.040	0.352
-348.464	-4.191	0.205	0.142
-347.450	-48.650	-0.135	-0.065
-346.435	-64.952	-0.093	0.037
-345.420	360.913	-0.102	-0.203
-344.406	-191.890	0.350	0.003
-343.391	-155.448	-0.132	-0.009
-342.377	-101.012	0.193	0.047
-341.362	-147.844	0.135	0.011
-340.348	-92.168	-0.077	-0.022
-339.333	-55.629	-0.113	0.050
-338.318	213.550	0.105	-0.166
-337.304	-32.079	0.040	0.022
-336.289	-200.000	0.024	-0.269
-335.275	95.875	-0.121	0.138
-334.260	-88.934	0.337	-0.100
-333.245	-200.000	-0.016	-0.273
-332.231	-200.000	0.010	0.081
-331.216	6.176	-0.325	0.240
-330.202	507.478	-0.007	0.017
-329.187	-105.173	-0.136	-0.031
-328.172	800.000	0.070	0.286
-327.158	-0.323	-0.115	0.082
-326.143	-9.982	0.198	-0.131
-325.129	-98.438	-0.238	0.061
-324.114	35.621	0.192	0.167
-323.099	75.864	0.154	-0.162
-322.085	-200.000	0.010	0.158
-321.070	-66.331	-0.131	-0.052
-320.056	-109.556	-0.174	-0.037
-319.041	174.488	0.036	0.052
-318.026	-60.964	-0.114	-0.048
-317.012	623.078	-0.019	0.047
-315.997	-145.124	-0.266	-0.024
-314.983	-122.735	0.185	-0.030
-313.968	-200.000	-0.003	-0.109
-312.953	-200.000	-0.035	-0.212
-311.939	-36.450	0.244	0.131
-310.924	-34.686	0.133	0.072
-309.910	800.000	0.100	-0.302
-308.895	486.125	0.084	-0.190
-307.880	650.000	-0.044	0.111
-306.866	41.067	-0.081	0.072
-305.851	-200.000	0.005	-0.304
-304.837	4.520	-0.348	-0.254
-303.822	-200.000	0.049	-0.232
-302.807	-134.877	0.242	-0.029
-301.793	-200.000	0.005	-0.101
-300.778	-200.000	-0.028	-0.167
-299.764	-41.458	0.282	0.144
-298.749	-27.263	-0.056	0.032
-297.735	190.676	-0.140	-0.209
-296.720	1.947	0.112	0.080
-295.705	-200.000	0.059	-0.289
-294.691	-167.304	-0.146	0.006
-293.676	-161.715	-0.061	0.003
-292.662	-200.000	-0.006	0.156
-291.647	-22.219	0.123	0.074
-290.632	80.796	0.279	0.299
-289.618	-200.000	-0.008	0.094
-288.603	-125.867	-0.025	-0.004
-287.589	800.000	0.130	0.553
-286.574	-200.000	-0.011	-0.271
-285.559	83.885	-0.088	0.095
-284.545	-31.313	0.148	0.083
-283.530	0.144	-0.167	0.118
-282.516	58.796	0.213	0.208
-281.501	-85.650	-0.116	0.036
-280.486	18.087	0.237	0.188
-279.472	-200.000	-0.008	0.348
-278.457	90.528	0.053	0.059
-277.443	-76.851	-0.175	0.061
-276.428	-66.745	0.064	-0.025
-275.413	123.983	0.172	0.215
-274.399	-46.304	-0.253	0.123
-273.384	-159.728	0.130	-0.007
-272.370	800.000	0.048	0.169
-271.355	-40.726	-0.148	0.076
-270.340	-148.771	-0.377	0.030
-269.326	-200.000	-0.023	-0.440
-268.311	18.583	-0.178	-0.142
-267.297	10.182	0.123	0.093
-266.282	-200.000	-0.013	-0.135
-265.267	-27.409	-0.282	-0.163
-264.253	175.572	0.115	-0.165
-263.238	69.357	0.107	0.109
-262.224	-200.000	0.007	0.204
-261.209	487.435	-0.094	-0.212
-260.195	330.987	-0.056	-0.108
-259.180	38.362	0.193	-0.171
-258.165	211.984	-0.060	-0.094
-257.151	211.894	-0.195	0.305
-256.136	-106.511	0.337	0.075
-255.122	753.521	0.032	-0.086
-254.107	-95.900	0.194	-0.051
-253.092	-8.453	0.128	0.085
-252.078	-143.202	-0.241	-0.023
-251.063	-200.000	0.024	-0.115
-250.049	132.205	-0.145	-0.185
-249.034	-110.598	0.201	0.041
-248.019	108.737	0.024	-0.029
-247.005	6.178	-0.149	-0.110
-245.990	254.573	-0.054	-0.091
-244.976	-22.966	0.175	-0.105
-243.961	-47.229	0.382	0.185
-242.946	-200.000	0.117	-0.514
-241.932	-200.000	-0.006	0.110
-240.917	-120.454	0.117	-0.020
-239.903	-103.926	-0.322	-0.075
-238.888	-109.159	-0.262	0.055
-237.873	26.127	0.289	-0.239
-236.859	-115.849	-0.297	0.055
-235.844	10.855	0.254	0.193
-234.830	271.120	-0.082	-0.142
-233.815	-6.693	0.207	-0.140
-232.800	351.377	0.071	0.139
-231.786	800.000	-0.046	0.170
-230.771	-200.000	-0.017	0.119
-229.757	-55.566	0.442	-0.196
-228.742	-83.456	0.256	0.081
-227.727	800.000	-0.067	0.248
-226.713	-187.389	-0.155	0.002
-225.698	573.724	-0.020	0.049
-224.684	-200.000	-0.038	-0.328
-223.669	-82.402	-0.044	0.014
-222.655	71.096	-0.195	-0.200
-221.640	-70.606	-0.344	-0.129
-220.625	315.801	-0.088	0.164
-219.611	-86.007	0.183	0.056
-218.596	255.658	0.080	-0.136
-217.582	-200.000	0.004	0.291
-216.567	-200.000	0.007	-0.150
-215.552	-200.000	-0.023	-0.132
-214.538	-200.000	0.037	-0.241
-213.523	120.492	0.148	-0.182
-212.509	169.045	0.149	0.211
-211.494	-200.000	-0.006	0.140
-210.479	-100.316	0.068	0.017
-209.465	-56.165	0.199	-0.088
-208.450	771.594	0.076	-0.205
-207.436	448.712	0.049	-0.108
-206.421	-93.708	-0.119	0.033
-205.406	66.056	-0.053	0.053
-204.392	-5.737	0.342	0.232
-203.377	-33.421	-0.238	0.130
-202.363	214.269	-0.103	0.161
-201.348	-200.000	-0.016	-0.221
-200.333	-101.453	0.175	0.042
-199.319	-99.396	-0.471	0.118
-198.304	800.000	0.049	-0.135
-197.290	-43.062	0.228	-0.114
-196.275	491.823	-0.118	-0.268
-195.260	-64.475	-0.230	-0.093
-194.246	800.000	0.029	0.089
-193.231	252.711	-0.200	0.337
-192.217	-9.296	0.036	0.024
-191.202	-200.000	0.069	-0.307
-190.187	-21.074	-0.359	0.217
-189.173	2.244	0.191	0.137
-188.158	169.749	-0.169	0.238
-187.144	334.044	-0.067	0.128
-186.129	25.595	0.057	-0.047
-185.114	-136.211	0.184	0.021
-184.100	-173.460	0.055	-0.002
-183.085	-195.811	0.428	-0.003
-182.071	-121.379	0.051	0.008
-181.056	-47.578	0.226	0.109
-180.042	102.796	0.190	0.220
-179.027	-200.000	-0.008	0.081
-178.012	-67.939	-0.181	-0.070
-176.998	-57.390	0.113	-0.049
-175.983	-200.000	0.014	0.188
-174.969	800.000	0.056	-0.176
-173.954	-176.566	0.076	-0.002
-172.939	-109.284	0.217	-0.045
-171.925	-136.853	0.177	0.020
-170.910	7.993	-0.197	0.146
-169.896	-138.801	0.126	0.014
-168.881	199.357	-0.196	0.298
-167.866	800.000	0.033	0.121
-166.852	43.676	-0.110	0.099
-165.837	-17.459	-0.188	-0.117
-164.823	-128.976	0.202	0.028
-163.808	22.127	0.184	-0.149
-162.793	-104.385	-0.210	0.048
-161.779	-200.000	0.085	-0.422
-160.764	60.274	-0.105	-0.102
-159.750	519.453	0.250	0.580
-158.735	-180.495	0.250	-0.005
-157.720	40.834	-0.121	-0.108
-156.706	-200.000	0.003	-0.174
-155.691	-80.503	-0.292	-0.096
-154.677	613.737	0.060	0.147
-153.662	-139.532	-0.136	-0.014
-152.647	307.604	-0.128	-0.236
-151.633	723.104	-0.052	-0.136
-150.618	-200.000	-0.012	0.180
-149.604	85.059	-0.299	0.324
-148.589	107.971	-0.095	-0.112
-147.574	-186.123	-0.246	0.004
-146.560	166.686	-0.136	-0.190
-145.545	-200.000	-0.028	0.135
-144.531	-55.892	-0.262	0.116
-143.516	-92.636	-0.165	0.046
-142.502	-37.301	-0.140	-0.074
-141.487	-15.454	0.216	0.136
-140.472	-200.000	-0.029	0.156
-139.458	-57.422	0.167	0.072
-138.443	-200.000	-0.027	0.274
-137.429	637.792	0.066	-0.167
-136.414	-200.000	0.028	-0.369
-135.399	800.000	0.033	0.114
-134.385	-13.519	0.140	0.090
-133.370	-42.138	0.094	0.047
-132.356	192.731	-0.030	-0.045
-131.341	800.000	0.047	-0.127
-130.326	-50.464	0.095	0.044
-129.312	74.385	0.245	-0.255
-128.297	229.629	-0.074	-0.119
-127.283	-124.102	-0.075	0.012
-126.268	708.991	0.141	-0.367
-125.253	-63.239	-0.522	-0.212
-124.239	115.665	0.257	-0.311
-123.224	-27.115	-0.254	-0.146
-122.210	-182.753	-0.295	0.005
