DTS Sentinel unit serial number:	SN413079Multiplexer serial number:	ORYXHardware model number:	OX4-SRSoftware version number:	ORYX F/W v4.00 Oryx Data Collector v3.7.2.0data status	okinstallation	princeton_trtdifferential loss correction	single-endedforward channel	channel 2reverse channel	N/Adate	2019/09/16time	13:11:34forward acquisition time	60.00reverse acquisition time	0.00gamma	496.2192k internal	0.2299k external	0.2299temperature offset calibration	0.9939default loss term (dB/km)	0.3790temperature slope calibration	1.0000multiplexer offset coefficient	1.0000multiplexer slope coefficient	1.0000fibre end	0.00T internal ref (°C)	41.00T ext. ref 1 (°C)	13.66T ext. ref 2 (°C)	38.84length (m)	temperature (°C)	Stokes	anti-Stokes-747.200	-57.088	-0.064	-0.029
-746.185	-35.223	-0.253	0.140
-745.171	696.112	-0.063	-0.169
-744.156	138.762	-0.050	0.067
-743.142	800.000	-0.061	-0.263
-742.127	179.891	-0.115	0.171
-741.112	793.015	0.155	0.435
-740.098	300.196	-0.246	0.463
-739.083	407.024	-0.067	0.145
-738.069	-200.000	-0.015	0.187
-737.054	-32.654	-0.169	0.096
-736.039	557.289	0.070	-0.173
-735.025	58.836	0.111	0.111
-734.010	203.694	0.176	-0.278
-732.996	-77.804	-0.108	-0.038
-731.981	-86.413	-0.194	-0.061
-730.966	-200.000	0.009	0.409
-729.952	-23.623	-0.167	0.102
-728.937	303.829	-0.165	-0.312
-727.923	49.436	0.212	0.203
-726.908	35.573	-0.179	0.160
-725.894	-200.000	0.050	-0.338
-724.879	84.193	-0.158	-0.177
-723.864	-70.428	-0.101	0.039
-722.850	-96.465	0.119	0.032
-721.835	-200.000	-0.058	-0.543
-720.821	-89.904	-0.084	0.025
-719.806	1.941	0.210	0.154
-718.791	-121.662	-0.121	0.020
-717.777	-200.000	0.033	0.293
-716.762	179.557	0.186	-0.277
-715.748	-200.000	-0.024	-0.250
-714.733	649.689	0.095	-0.247
-713.718	230.933	0.170	-0.284
-712.704	-200.000	-0.048	-0.317
-711.689	-200.000	-0.050	-0.292
-710.675	-50.588	-0.045	0.022
-709.660	-17.701	-0.190	0.121
-708.645	-61.567	0.268	-0.115
-707.631	800.000	-0.067	-0.280
-706.616	-200.000	0.016	-0.348
-705.602	-200.000	0.030	0.268
-704.587	71.108	0.163	0.173
-703.572	800.000	-0.039	0.141
-702.558	-109.046	0.359	-0.078
-701.543	-80.572	-0.156	-0.053
-700.529	-200.000	-0.011	0.488
-699.514	-199.632	-0.073	-0.000
-698.499	29.069	0.169	-0.146
-697.485	800.000	0.060	-0.229
-696.470	-117.667	-0.388	-0.071
-695.456	-83.639	0.370	-0.120
-694.441	206.340	-0.194	-0.307
-693.426	-117.342	0.219	0.040
-692.412	93.798	-0.102	0.117
-691.397	-83.550	-0.176	-0.057
-690.383	467.322	0.064	-0.147
-689.368	19.937	-0.077	-0.063
-688.354	-54.260	-0.167	0.077
-687.339	-200.000	0.008	0.138
-686.324	39.532	-0.294	-0.269
-685.310	-126.819	0.178	0.027
-684.295	108.373	0.174	0.211
-683.281	-58.819	-0.148	-0.065
-682.266	-200.000	-0.013	-0.100
-681.251	-122.562	0.370	-0.061
-680.237	-200.000	0.013	-0.118
-679.222	92.645	0.225	-0.258
-678.208	291.942	-0.046	-0.085
-677.193	204.121	-0.219	-0.345
-676.178	-200.000	0.004	-0.085
-675.164	-115.237	0.072	0.014
-674.149	216.185	0.024	0.039
-673.135	654.298	0.070	-0.183
-672.120	-200.000	0.045	-0.467
-671.105	16.547	-0.080	-0.064
-670.091	800.000	0.097	0.347
-669.076	57.814	-0.198	-0.197
-668.062	173.531	-0.175	-0.257
-667.047	-95.961	0.306	0.083
-666.032	-194.113	0.083	-0.001
-665.018	-119.085	0.176	0.031
-664.003	-17.472	0.177	-0.114
-662.989	473.896	0.060	0.138
-661.974	531.890	-0.067	-0.160
-660.959	800.000	-0.029	0.091
-659.945	30.667	0.170	-0.148
-658.930	476.090	0.135	-0.309
-657.916	-152.048	-0.366	-0.027
-656.901	7.385	0.121	0.092
-655.886	-108.012	-0.359	0.079
-654.872	66.392	-0.155	-0.161
-653.857	-14.790	-0.210	-0.137
-652.843	78.734	-0.071	-0.077
-651.828	-200.000	0.022	-0.304
-650.814	-163.235	-0.159	0.008
-649.799	-83.705	0.171	0.055
-648.784	-200.000	-0.004	0.042
-647.770	105.793	-0.126	0.151
-646.755	65.794	-0.013	0.013
-645.741	627.499	0.105	0.271
-644.726	-80.513	-0.116	-0.039
-643.711	-95.806	0.397	-0.108
-642.697	-150.882	0.369	0.028
-641.682	800.000	-0.038	0.140
-640.668	22.192	0.191	0.158
-639.653	6.324	-0.210	-0.158
-638.638	-73.416	0.291	0.108
-637.624	731.596	-0.097	0.262
-636.609	79.930	-0.369	-0.403
-635.595	38.438	-0.245	-0.222
-634.580	291.332	0.063	0.117
-633.565	-200.000	-0.041	-0.228
-632.551	800.000	-0.049	0.150
-631.536	-2.719	-0.122	0.086
-630.522	-60.159	0.067	-0.029
-629.507	600.711	0.028	0.070
-628.492	-200.000	-0.027	0.219
-627.478	98.400	-0.077	-0.090
-626.463	25.175	-0.233	-0.197
-625.449	-9.371	0.423	-0.287
-624.434	-0.375	0.182	-0.131
-623.419	144.458	-0.073	0.099
-622.405	60.100	-0.180	0.181
-621.390	-65.029	0.265	0.109
-620.376	-45.250	-0.179	-0.090
-619.361	-200.000	0.009	-0.208
-618.346	-200.000	0.075	0.414
-617.332	800.000	-0.061	-0.229
-616.317	-107.122	0.190	0.043
-615.303	109.136	-0.073	0.089
-614.288	-200.000	-0.017	0.222
-613.273	32.507	0.368	-0.323
-612.259	13.510	0.272	0.214
-611.244	-163.338	-0.231	-0.011
-610.230	475.161	-0.041	0.093
-609.215	-110.459	0.296	-0.062
-608.201	-95.355	-0.169	-0.046
-607.186	-59.967	-0.288	0.125
-606.171	-110.929	0.155	-0.032
-605.157	-89.847	0.021	-0.006
-604.142	-134.890	0.238	0.029
-603.128	-93.027	0.068	-0.019
-602.113	58.125	-0.081	-0.081
-601.098	27.070	-0.036	-0.030
-600.084	-79.067	0.214	-0.074
-599.069	91.775	-0.280	0.320
-598.055	-145.146	0.083	0.008
-597.040	378.725	-0.099	0.206
-596.025	-66.225	0.211	0.085
-595.011	-200.000	0.025	-0.129
-593.996	-79.090	-0.293	-0.101
-592.982	28.888	-0.143	0.123
-591.967	-113.523	0.203	-0.040
-590.952	-121.255	0.272	0.046
-589.938	-200.000	-0.031	0.177
-588.923	-157.539	0.108	0.007
-587.909	116.906	0.149	0.186
-586.894	667.606	0.112	-0.295
-585.879	-75.652	-0.265	-0.095
-584.865	216.700	-0.099	-0.160
-583.850	105.906	-0.215	-0.258
-582.836	256.655	0.128	0.222
-581.821	-38.555	-0.044	0.023
-580.806	800.000	-0.037	0.155
-579.792	-79.962	0.288	-0.098
-578.777	90.948	0.157	-0.179
-577.763	-77.827	0.106	0.037
-576.748	95.334	0.098	0.113
-575.733	364.557	-0.145	0.295
-574.719	-122.577	0.226	0.037
-573.704	-200.000	0.010	0.247
-572.690	-23.661	0.069	-0.042
-571.675	441.244	0.091	-0.202
-570.661	311.178	-0.088	-0.167
-569.646	57.107	-0.068	0.067
-568.631	-105.326	-0.182	-0.042
-567.617	426.751	-0.118	-0.257
-566.602	800.000	-0.089	-0.312
-565.588	257.996	0.194	0.338
-564.573	179.355	-0.087	0.128
-563.558	-4.792	-0.087	-0.061
-562.544	-178.511	-0.204	0.005
-561.529	-82.929	-0.016	-0.005
-560.515	800.000	0.137	-0.428
-559.500	800.000	0.081	-0.295
-558.485	-123.471	-0.221	0.036
-557.471	-156.966	-0.130	0.008
-556.456	769.595	-0.095	-0.262
-555.442	-200.000	0.010	-0.488
-554.427	-200.000	-0.048	0.226
-553.412	-87.142	-0.084	-0.026
-552.398	15.519	0.112	-0.089
-551.383	577.307	0.101	-0.249
-550.369	800.000	0.028	0.122
-549.354	-180.915	0.105	0.002
-548.339	800.000	-0.016	0.060
-547.325	-80.569	-0.037	-0.012
-546.310	-200.000	0.005	-0.185
-545.296	800.000	-0.020	0.058
-544.281	301.600	0.113	-0.211
-543.266	-200.000	-0.004	0.102
-542.252	20.011	-0.233	0.191
-541.237	-122.698	0.371	0.061
-540.223	-200.000	-0.012	0.082
-539.208	4.431	-0.137	0.102
-538.193	-73.326	-0.081	0.030
-537.179	-200.000	-0.024	0.313
-536.164	230.318	-0.234	0.387
-535.150	-4.477	-0.060	0.042
-534.135	-133.459	0.088	-0.011
-533.121	-51.131	0.143	0.068
-532.106	-134.631	0.242	-0.030
-531.091	1.699	-0.221	0.161
-530.077	-200.000	0.004	0.063
-529.062	800.000	0.012	0.033
-528.048	800.000	0.040	-0.150
-527.033	-140.564	-0.118	-0.012
-526.018	752.713	-0.042	-0.115
-525.004	-38.766	-0.235	-0.125
-523.989	-200.000	0.010	0.056
-522.975	-115.177	-0.417	0.080
-521.960	-200.000	0.052	-0.247
-520.945	125.932	0.115	0.147
-519.931	-73.173	-0.183	-0.068
-518.916	-71.107	0.296	-0.113
-517.902	-78.447	-0.219	0.076
-516.887	269.107	0.042	-0.075
-515.872	287.780	0.037	-0.067
-514.858	101.003	-0.185	0.217
-513.843	-200.000	0.043	-0.203
-512.829	-200.000	-0.022	-0.218
-511.814	-172.320	0.178	-0.006
-510.799	-73.221	-0.466	0.173
-509.785	78.128	0.026	0.028
-508.770	112.164	-0.057	-0.069
-507.756	-135.300	-0.327	-0.040
-506.741	-200.000	0.041	0.253
-505.726	-111.283	-0.190	-0.039
-504.712	-116.324	0.134	-0.025
-503.697	262.990	0.103	-0.180
-502.683	143.251	0.149	0.201
-501.668	-200.000	-0.028	-0.436
-500.653	800.000	0.061	-0.268
-499.639	78.530	0.187	-0.202
-498.624	45.381	-0.189	-0.177
-497.610	22.268	-0.229	-0.189
-496.595	-138.527	0.244	0.027
-495.581	147.881	-0.348	0.474
-494.566	-200.000	0.009	-0.250
-493.551	305.508	-0.156	-0.293
-492.537	-156.792	0.366	0.023
-491.522	438.098	-0.044	-0.097
-490.508	-200.000	-0.073	0.350
-489.493	130.325	-0.077	0.100
-488.478	211.146	0.137	-0.217
-487.464	192.822	0.121	0.185
-486.449	-109.956	-0.147	0.031
-485.435	47.805	-0.268	-0.253
-484.420	800.000	0.070	-0.211
-483.405	799.532	-0.075	0.210
-482.391	800.000	0.098	0.360
-481.376	-145.720	-0.150	0.014
-480.362	-6.948	-0.173	0.118
-479.347	-103.498	-0.077	-0.018
-478.332	-200.000	0.020	0.380
-477.318	78.276	0.272	0.293
-476.303	796.610	-0.022	0.061
-475.289	60.484	0.063	0.063
-474.274	716.531	0.097	-0.259
-473.259	-149.084	0.202	-0.016
-472.245	335.633	-0.032	-0.062
-471.230	117.002	-0.233	0.289
-470.216	155.766	-0.162	-0.225
-469.201	-155.699	0.358	0.023
-468.186	113.293	0.221	0.270
-467.172	274.913	-0.071	-0.127
-466.157	-70.701	0.109	0.042
-465.143	309.045	0.108	-0.204
-464.128	-170.005	0.084	0.003
-463.113	-200.000	0.009	-0.072
-462.099	20.189	0.342	0.279
-461.084	-38.034	-0.207	0.111
-460.070	173.842	-0.133	-0.194
-459.055	-62.556	-0.211	0.089
-458.040	150.817	-0.109	-0.150
-457.026	-37.806	0.101	0.054
-456.011	-11.310	-0.329	-0.219
-454.997	-73.237	0.231	-0.085
-453.982	-23.990	-0.240	0.145
-452.968	800.000	0.112	-0.366
-451.953	10.328	0.339	0.260
-450.938	-59.111	0.226	-0.098
-449.924	50.719	-0.248	-0.236
-448.909	444.421	-0.080	-0.178
-447.895	-179.937	-0.018	-0.000
-446.880	-200.000	-0.027	-0.217
-445.865	555.399	0.161	-0.391
-444.851	-118.014	-0.322	0.058
-443.836	79.931	-0.136	0.147
-442.822	116.626	-0.129	-0.159
-441.807	800.000	-0.012	-0.036
-440.792	-116.108	-0.213	0.040
-439.778	800.000	-0.015	0.058
-438.763	5.483	-0.120	0.089
-437.749	20.960	0.147	0.120
-436.734	112.928	0.096	0.117
-435.719	381.248	0.009	-0.018
-434.705	360.327	0.061	0.123
-433.690	-92.722	-0.400	-0.113
-432.676	-115.345	-0.472	-0.090
-431.661	480.866	0.126	-0.287
-430.646	279.822	0.145	-0.261
-429.632	-142.171	-0.131	0.013
-428.617	800.000	-0.054	-0.154
-427.603	-78.907	0.100	0.034
-426.588	-60.724	0.051	-0.022
-425.573	63.662	-0.172	-0.174
-424.559	100.408	0.107	-0.125
-423.544	602.960	0.023	0.057
-422.530	-112.702	0.079	-0.016
-421.515	-108.524	0.041	0.009
-420.500	317.830	-0.058	0.111
-419.486	-3.698	0.147	0.103
-418.471	-10.874	0.216	-0.144
-417.457	800.000	-0.003	-0.012
-416.442	-200.000	0.004	-0.244
-415.428	168.791	0.054	-0.077
-414.413	-45.180	-0.230	-0.115
-413.398	19.408	0.057	-0.046
-412.384	-30.923	0.192	0.109
-411.369	-200.000	-0.012	0.089
-410.355	-200.000	0.034	-0.227
-409.340	-81.697	-0.307	-0.101
-408.325	-121.336	-0.261	0.044
-407.311	49.954	-0.232	0.220
-406.296	223.636	0.061	0.099
-405.282	-200.000	-0.012	-0.082
-404.267	800.000	-0.069	-0.255
-403.252	-200.000	-0.051	-0.270
-402.238	800.000	-0.027	0.101
-401.223	-73.353	0.078	-0.029
-400.209	310.592	-0.062	0.116
-399.194	-146.994	-0.267	0.023
-398.179	-65.835	0.226	0.091
-397.165	195.795	0.169	-0.259
-396.150	-18.677	-0.220	-0.138
-395.136	-151.975	-0.178	0.013
-394.121	-3.234	-0.162	0.113
-393.106	-171.444	-0.479	0.016
-392.092	-200.000	-0.050	0.239
-391.077	34.060	0.280	-0.245
-390.063	-53.051	-0.123	0.057
-389.048	-120.416	0.283	0.048
-388.033	34.458	-0.091	-0.080
-387.019	-159.642	-0.169	-0.009
-386.004	-9.224	-0.198	-0.133
-384.990	104.612	0.192	-0.227
-383.975	-200.000	-0.056	-0.247
-382.960	-93.853	-0.181	-0.050
-381.946	-200.000	-0.027	-0.198
-380.931	-200.000	-0.004	-0.227
-379.917	321.130	0.092	-0.175
-378.902	103.670	-0.142	0.168
-377.888	142.610	-0.085	0.114
-376.873	480.574	-0.176	-0.403
-375.858	-136.775	-0.134	0.015
-374.844	439.322	-0.162	0.357
-373.829	-53.726	-0.037	-0.017
-372.815	-30.480	-0.328	-0.187
-371.800	-106.312	-0.206	0.046
-370.785	64.822	-0.138	-0.140
-369.771	-15.235	-0.236	0.152
-368.756	103.612	0.047	0.056
-367.742	-95.876	-0.208	0.056
-366.727	800.000	0.015	-0.055
-365.712	-181.537	0.131	0.003
-364.698	-34.201	-0.013	-0.007
-363.683	186.668	0.093	0.140
-362.669	-200.000	0.016	-0.411
-361.654	17.680	0.170	0.136
-360.639	-111.613	-0.132	-0.027
-359.625	694.347	0.161	-0.424
-358.610	186.748	0.045	0.068
-357.596	373.488	-0.119	-0.243
-356.581	-149.642	0.248	-0.020
-355.566	-200.000	-0.047	0.278
-354.552	712.055	-0.078	0.208
-353.537	-81.041	0.242	-0.080
-352.523	-51.691	0.235	-0.110
-351.508	-70.204	0.180	-0.069
-350.493	52.972	-0.205	0.197
-349.479	800.000	-0.009	-0.036
-348.464	-70.801	-0.078	0.030
-347.450	-35.208	0.343	0.188
-346.435	54.170	-0.215	0.207
-345.420	55.436	0.025	-0.025
-344.406	-200.000	-0.010	-0.211
-343.391	59.483	-0.019	0.018
-342.377	407.292	-0.119	-0.252
-341.362	12.876	0.110	-0.085
-340.348	-166.911	0.398	-0.016
-339.333	551.582	0.065	0.158
-338.318	36.357	-0.225	0.199
-337.304	-99.411	0.327	-0.083
-336.289	268.575	0.017	-0.030
-335.275	-146.321	-0.132	0.012
-334.260	0.348	0.162	-0.116
-333.245	800.000	-0.065	-0.201
-332.231	-200.000	0.018	-0.171
-331.216	-200.000	0.002	0.071
-330.202	638.780	0.198	-0.505
-329.187	-88.318	0.271	-0.081
-328.172	800.000	0.035	0.115
-327.158	-110.260	0.131	0.027
-326.143	800.000	-0.041	-0.169
-325.129	-146.302	0.175	-0.015
-324.114	352.987	-0.050	-0.099
-323.099	-150.271	-0.250	-0.019
-322.085	-77.396	-0.439	0.153
-321.070	-19.432	-0.545	0.339
-320.056	-200.000	0.013	0.064
-319.041	-81.223	0.162	-0.054
-318.026	-200.000	0.008	-0.179
-317.012	11.824	0.576	0.444
-315.997	81.901	0.173	0.188
-314.983	230.819	0.153	0.252
-313.968	-9.949	-0.139	0.093
-312.953	-200.000	0.049	0.222
-311.939	-200.000	0.024	0.222
-310.924	-168.305	-0.178	0.007
-309.910	-115.708	-0.086	-0.016
-308.895	-112.366	0.235	-0.047
-307.880	-31.483	0.158	-0.089
-306.866	-200.000	0.140	-0.001
-305.851	124.142	-0.266	0.336
-304.837	-44.238	-0.282	0.142
-303.822	-25.950	0.285	-0.169
-302.807	-200.000	-0.008	0.153
-301.793	-82.525	0.328	0.107
-300.778	-125.738	0.045	0.007
-299.764	18.209	-0.459	-0.367
-298.749	800.000	-0.022	-0.064
-297.735	194.933	-0.208	-0.317
-296.720	15.660	-0.162	-0.128
-295.705	-115.190	0.129	0.025
-294.691	-16.405	0.210	0.134
-293.676	763.770	-0.035	0.094
-292.662	-200.000	0.015	-0.072
-291.647	594.586	-0.089	-0.222
-290.632	-69.770	0.269	0.103
-289.618	-138.004	-0.055	0.006
-288.603	-200.000	0.045	0.437
-287.589	156.834	0.058	0.080
-286.574	255.658	0.123	0.212
-285.559	800.000	-0.024	0.077
-284.545	-141.434	0.078	0.008
-283.530	-200.000	0.026	0.308
-282.516	-106.091	0.162	0.036
-281.501	-55.372	-0.282	0.127
-280.486	-200.000	0.018	-0.080
-279.472	-18.218	0.034	0.021
-278.457	-140.100	0.197	-0.021
-277.443	12.983	0.246	0.191
-276.428	-74.622	-0.099	-0.036
-275.413	-200.000	0.018	0.468
-274.399	159.231	0.111	-0.155
-273.384	800.000	-0.038	0.109
-272.370	328.080	-0.099	-0.190
-271.355	-43.347	0.258	0.131
-270.340	-151.848	-0.058	-0.004
-269.326	800.000	-0.082	0.249
-268.311	-124.666	0.245	0.038
-267.297	214.760	-0.042	-0.067
-266.282	217.508	-0.218	0.348
-265.267	800.000	0.086	0.275
-264.253	800.000	-0.095	-0.357
-263.238	-200.000	-0.013	-0.322
-262.224	46.605	0.092	-0.086
-261.209	-200.000	0.011	-0.114
-260.195	296.885	0.055	0.101
-259.180	-7.739	0.037	-0.025
-258.165	111.269	-0.151	0.183
-257.151	800.000	-0.108	0.371
-256.136	800.000	0.022	-0.077
-255.122	177.148	0.179	0.261
-254.107	270.932	-0.204	0.360
-253.092	342.968	-0.056	-0.109
-252.078	-200.000	0.002	0.049
-251.063	80.735	0.132	0.142
-250.049	-1.028	0.111	0.079
-249.034	-54.466	-0.296	0.134
-248.019	-165.060	0.192	-0.009
-247.005	-158.065	0.465	-0.027
-245.990	34.710	-0.228	0.199
-244.976	-34.161	-0.187	-0.103
-243.961	800.000	-0.067	0.229
-242.946	41.287	0.199	-0.180
-241.932	800.000	0.146	0.406
-240.917	220.183	-0.107	0.171
-239.903	-200.000	-0.039	0.331
-238.888	241.658	0.050	0.084
-237.873	27.745	-0.111	-0.094
-236.859	-13.489	0.119	0.077
-235.844	26.881	0.120	-0.101
-234.830	-182.954	-0.269	0.005
-233.815	-32.569	-0.286	0.159
-232.800	525.195	0.136	-0.321
-231.786	9.196	-0.261	-0.197
-230.771	-200.000	0.030	-0.376
-229.757	26.012	-0.059	0.049
-228.742	654.735	0.084	0.216
-227.727	-200.000	-0.025	-0.302
-226.713	276.777	0.026	-0.046
-225.698	-73.850	0.248	0.090
-224.684	-119.316	0.229	0.040
-223.669	-21.685	0.137	-0.083
-222.655	-119.172	-0.243	0.042
-221.640	-106.159	-0.068	-0.015
-220.625	-56.733	-0.095	0.042
-219.611	-200.000	0.015	-0.107
-218.596	107.113	-0.242	-0.288
-217.582	800.000	-0.078	0.260
-216.567	469.708	0.210	0.471
-215.552	-86.446	0.074	0.023
-214.538	55.908	-0.084	0.081
-213.523	-63.159	0.050	0.021
-212.509	84.245	-0.128	-0.140
-211.494	615.485	-0.109	-0.273
-210.479	562.276	0.077	0.187
-209.465	-81.531	0.119	-0.039
-208.450	30.493	-0.049	0.042
-207.436	59.388	0.179	-0.177
-206.421	-127.280	0.233	-0.034
-205.406	-86.069	-0.041	0.013
-204.392	800.000	0.057	0.213
-203.377	500.696	-0.026	0.061
-202.363	579.773	-0.115	0.281
-201.348	584.075	-0.069	-0.170
-200.333	800.000	-0.066	-0.198
-199.319	-7.897	0.195	-0.132
-198.304	-120.743	0.125	-0.021
-197.290	498.332	-0.118	0.271
-196.275	-8.283	-0.187	0.126
-195.260	322.294	0.162	-0.307
-194.246	-2.104	0.158	0.111
-193.231	158.929	0.114	-0.158
-192.217	-66.267	0.160	-0.064
-191.202	118.409	0.116	-0.143
-190.187	800.000	-0.085	-0.255
-189.173	205.587	0.022	-0.033
-188.158	141.981	-0.093	0.123
-187.144	-109.361	-0.301	0.064
-186.129	558.956	0.199	-0.479
-185.114	-19.256	0.138	0.086
-184.100	733.121	0.072	0.192
-183.085	709.352	-0.119	0.314
-182.071	114.145	-0.121	-0.147
-181.056	-200.000	-0.082	0.648
-180.042	413.031	0.074	0.157
-179.027	612.967	0.030	-0.076
-178.012	65.120	-0.187	-0.189
-176.998	-197.098	0.062	-0.000
-175.983	-81.853	-0.300	-0.098
-174.969	499.938	0.100	0.230
-173.954	-23.234	0.043	0.026
-172.939	243.906	-0.114	0.191
-171.925	-169.816	0.308	-0.011
-170.910	16.266	0.083	0.065
-169.896	-80.481	0.162	0.054
-168.881	311.778	0.131	0.245
-167.866	11.216	0.245	-0.187
-166.852	-90.016	0.198	-0.057
-165.837	-69.587	0.279	-0.106
-164.823	157.571	-0.190	-0.263
-163.808	800.000	0.024	0.068
-162.793	800.000	-0.014	0.045
-161.779	800.000	0.047	-0.170
-160.764	644.163	0.048	0.122
-159.750	800.000	0.085	-0.236
-158.735	-200.000	-0.020	-0.161
-157.720	-36.555	0.063	-0.034
-156.706	17.890	0.144	0.115
-155.691	-135.268	0.184	-0.022
-154.677	26.733	-0.226	-0.188
-153.662	31.278	-0.123	0.105
-152.647	107.113	0.186	0.221
-151.633	-200.000	0.034	0.159
-150.618	-36.123	0.241	-0.130
-149.604	99.774	0.254	0.294
-148.589	427.284	0.035	-0.076
-147.574	800.000	-0.026	-0.114
-146.560	7.353	0.326	0.243
-145.545	-94.826	0.361	-0.098
-144.531	157.153	-0.120	-0.166
-143.516	-200.000	0.000	0.143
-142.502	-167.142	0.367	0.015
-141.487	-200.000	-0.023	-0.224
-140.472	-139.981	0.046	0.005
-139.458	-200.000	-0.042	0.504
-138.443	-200.000	0.009	0.081
-137.429	469.438	-0.138	0.309
-136.414	194.801	-0.049	0.075
-135.399	17.382	0.222	-0.176
-134.385	-200.000	-0.032	-0.214
-133.370	374.301	0.141	0.286
-132.356	-88.029	-0.194	0.058
-131.341	492.241	0.075	0.171
-130.326	633.110	0.044	0.111
-129.312	56.896	-0.102	-0.099
-128.297	169.896	0.245	0.350
-127.283	-24.907	0.199	0.117
-126.268	-122.153	0.195	0.032
-125.253	99.676	-0.203	0.234
-124.239	500.140	0.029	0.066
-123.224	132.797	0.031	-0.040
-122.210	-83.905	-0.431	0.137
-121.195	745.863	-0.068	0.182
