DTS Sentinel unit serial number:	SN413079Multiplexer serial number:	ORYXHardware model number:	OX4-SRSoftware version number:	ORYX F/W v4.00 Oryx Data Collector v3.7.2.0data status	okinstallation	princeton_trtdifferential loss correction	single-endedforward channel	channel 2reverse channel	N/Adate	2019/09/16time	09:03:35forward acquisition time	60.00reverse acquisition time	0.00gamma	496.2192k internal	0.2325k external	0.2325temperature offset calibration	0.9970default loss term (dB/km)	0.3790temperature slope calibration	1.0000multiplexer offset coefficient	1.0000multiplexer slope coefficient	1.0000fibre end	0.00T internal ref (°C)	30.62T ext. ref 1 (°C)	12.06T ext. ref 2 (°C)	28.18length (m)	temperature (°C)	Stokes	anti-Stokes-747.200	-119.245	-0.119	0.021
-746.185	800.000	-0.117	0.354
-745.171	-164.576	-0.192	0.009
-744.156	174.514	-0.074	0.109
-743.142	117.094	-0.143	-0.177
-742.127	-200.000	0.044	0.305
-741.112	800.000	-0.032	0.137
-740.098	450.516	-0.134	0.297
-739.083	800.000	0.034	-0.109
-738.069	-57.529	-0.098	0.043
-737.054	-200.000	0.005	-0.104
-736.039	493.988	0.152	-0.351
-735.025	39.411	0.371	0.335
-734.010	-38.480	-0.202	-0.108
-732.996	-5.395	-0.115	0.079
-731.981	74.145	0.288	0.305
-730.966	-146.863	0.177	-0.015
-729.952	-5.280	0.162	-0.113
-728.937	800.000	-0.081	-0.342
-727.923	-42.217	-0.425	-0.219
-726.908	-123.479	0.271	-0.044
-725.894	-127.496	-0.322	0.047
-724.879	-13.119	0.084	0.055
-723.864	-27.787	-0.120	-0.070
-722.850	-62.976	0.266	0.111
-721.835	-140.971	-0.189	0.020
-720.821	-4.540	0.105	-0.073
-719.806	358.653	0.019	0.038
-718.791	226.254	0.082	-0.134
-717.777	-101.898	-0.228	-0.055
-716.762	-58.588	-0.218	-0.095
-715.748	34.973	0.113	-0.100
-714.733	-82.884	-0.043	0.014
-713.718	-19.971	0.365	0.227
-712.704	235.652	0.140	-0.233
-711.689	-115.554	-0.543	-0.103
-710.675	-97.292	-0.160	0.042
-709.660	-45.083	0.038	0.019
-708.645	4.072	0.166	-0.123
-707.631	-56.418	-0.046	0.021
-706.616	382.579	0.013	-0.026
-705.602	328.333	0.104	-0.201
-704.587	800.000	0.079	0.291
-703.572	-139.007	-0.298	-0.033
-702.558	-88.485	-0.266	-0.080
-701.543	-136.770	0.229	0.027
-700.529	-15.017	-0.164	0.106
-699.514	-12.585	-0.207	0.136
-698.499	-200.000	-0.023	-0.163
-697.485	-84.099	-0.401	-0.128
-696.470	-90.402	0.134	-0.039
-695.456	518.087	-0.081	0.190
-694.441	-152.906	0.148	0.011
-693.426	800.000	-0.031	-0.109
-692.412	-93.904	-0.341	0.095
-691.397	-44.502	-0.225	-0.113
-690.383	-19.551	0.250	-0.156
-689.368	-113.713	-0.285	-0.056
-688.354	-38.236	-0.262	0.140
-687.339	-16.728	-0.387	0.246
-686.324	-200.000	0.005	-0.113
-685.310	-77.377	0.276	0.096
-684.295	-70.839	0.248	-0.094
-683.281	8.952	-0.348	-0.265
-682.266	-200.000	0.043	0.324
-681.251	-131.840	-0.161	0.021
-680.237	-200.000	-0.018	-0.223
-679.222	119.765	0.059	-0.074
-678.208	466.634	0.084	-0.190
-677.193	-6.074	-0.169	-0.116
-676.178	-200.000	0.029	-0.212
-675.164	452.879	0.047	-0.104
-674.149	-2.569	0.355	-0.250
-673.135	-147.536	0.147	0.012
-672.120	-11.906	-0.109	-0.072
-671.105	9.947	-0.060	0.046
-670.091	800.000	0.077	0.218
-669.076	-104.905	0.063	-0.015
-668.062	15.878	0.054	-0.043
-667.047	-50.070	-0.245	0.117
-666.032	800.000	-0.015	-0.063
-665.018	243.039	0.099	0.167
-664.003	-200.000	-0.015	0.086
-662.989	-138.729	-0.121	-0.013
-661.974	502.052	0.088	0.205
-660.959	210.129	-0.027	-0.043
-659.945	800.000	0.030	0.118
-658.930	-200.000	0.003	0.174
-657.916	-176.901	-0.176	0.004
-656.901	-8.531	0.039	-0.027
-655.886	-80.243	0.203	-0.068
-654.872	412.877	-0.147	-0.313
-653.857	-45.328	-0.165	-0.082
-652.843	158.698	-0.085	-0.119
-651.828	-200.000	-0.012	-0.134
-650.814	-79.180	0.238	0.081
-649.799	-68.092	-0.298	-0.117
-648.784	230.862	-0.120	0.197
-647.770	-78.155	-0.251	0.087
-646.755	-61.635	-0.240	0.101
-645.741	346.381	-0.046	0.091
-644.726	100.009	-0.108	0.125
-643.711	118.396	-0.096	-0.119
-642.697	-54.659	-0.322	-0.146
-641.682	800.000	-0.065	0.203
-640.668	-136.522	0.172	0.020
-639.653	153.231	-0.111	-0.153
-638.638	-97.935	-0.418	0.108
-637.624	229.362	0.007	-0.011
-636.609	150.191	-0.304	-0.415
-635.595	-6.222	-0.546	-0.374
-634.580	800.000	-0.080	-0.301
-633.565	483.405	-0.136	0.310
-632.551	33.354	-0.011	-0.010
-631.536	-200.000	0.013	0.065
-630.522	409.933	-0.077	-0.164
-629.507	-171.744	-0.289	0.010
-628.492	7.872	-0.133	0.100
-627.478	-162.210	-0.170	-0.009
-626.463	85.414	-0.081	-0.090
-625.449	800.000	-0.104	-0.384
-624.434	-200.000	-0.004	0.203
-623.419	-105.501	0.388	-0.088
-622.405	263.915	-0.207	-0.361
-621.390	-200.000	-0.039	0.331
-620.376	795.998	0.095	0.262
-619.361	262.973	0.112	-0.196
-618.346	288.024	0.126	-0.230
-617.332	354.604	0.055	0.110
-616.317	-200.000	0.118	0.540
-615.303	100.963	0.252	0.294
-614.288	70.452	-0.303	0.315
-613.273	-5.981	-0.079	-0.054
-612.259	800.000	0.107	0.466
-611.244	309.702	-0.172	-0.322
-610.230	370.012	-0.108	0.220
-609.215	3.454	-0.228	0.167
-608.201	467.783	-0.010	-0.021
-607.186	-161.609	0.090	0.005
-606.171	227.438	-0.132	0.216
-605.157	-127.271	0.184	-0.027
-604.142	438.388	-0.070	-0.153
-603.128	139.458	-0.130	-0.172
-602.113	-18.139	0.258	0.162
-601.098	-200.000	0.010	0.113
-600.084	-49.815	0.128	0.061
-599.069	625.724	0.156	0.396
-598.055	-69.114	-0.248	0.096
-597.040	800.000	0.077	0.306
-596.025	-91.647	-0.086	0.024
-595.011	73.822	-0.143	-0.151
-593.996	800.000	-0.067	-0.291
-592.982	-200.000	0.051	0.239
-591.967	-200.000	-0.053	0.314
-590.952	-200.000	0.011	0.286
-589.938	800.000	0.065	-0.204
-588.923	-200.000	0.042	-0.233
-587.909	800.000	0.083	-0.323
-586.894	283.336	0.133	-0.240
-585.879	800.000	-0.032	-0.102
-584.865	387.687	0.206	0.426
-583.850	-39.549	-0.286	-0.150
-582.836	-6.464	-0.171	0.117
-581.821	412.259	-0.052	0.110
-580.806	86.256	-0.114	-0.125
-579.792	52.681	0.215	-0.206
-578.777	-200.000	-0.010	-0.113
-577.763	800.000	0.047	-0.138
-576.748	114.285	-0.268	-0.327
-575.733	-200.000	0.033	-0.330
-574.719	-63.410	0.054	0.022
-573.704	56.156	-0.096	0.093
-572.690	-200.000	0.005	0.207
-571.675	-90.275	-0.500	0.146
-570.661	-46.527	0.241	0.119
-569.646	800.000	0.054	0.184
-568.631	312.599	-0.054	-0.101
-567.617	-151.433	-0.239	0.018
-566.602	800.000	0.042	-0.156
-565.588	-200.000	0.538	0.002
-564.573	776.302	-0.130	0.357
-563.558	-115.366	-0.243	-0.046
-562.544	-200.000	-0.048	0.365
-561.529	-57.385	-0.204	-0.090
-560.515	-200.000	-0.014	0.115
-559.500	-130.633	-0.248	0.034
-558.485	-13.942	0.253	-0.164
-557.471	-19.968	-0.071	0.044
-556.456	338.387	0.043	0.084
-555.442	51.493	-0.115	0.109
-554.427	800.000	0.018	-0.069
-553.412	533.845	0.074	0.176
-552.398	353.445	-0.130	-0.259
-551.383	-200.000	0.015	0.217
-550.369	-88.855	0.231	-0.069
-549.354	62.669	-0.056	-0.056
-548.339	-56.266	-0.240	-0.107
-547.325	115.123	-0.275	0.336
-546.310	-200.000	-0.024	-0.287
-545.296	100.206	0.090	0.104
-544.281	20.599	0.313	-0.254
-543.266	-127.794	-0.225	-0.032
-542.252	-139.234	0.047	0.005
-541.237	350.839	-0.213	-0.422
-540.223	-20.394	0.173	0.107
-539.208	-21.170	0.090	0.055
-538.193	261.106	0.083	0.144
-537.179	239.944	0.117	0.196
-536.164	-114.009	-0.268	-0.052
-535.150	111.664	0.098	-0.118
-534.135	425.472	-0.051	-0.110
-533.121	-96.096	-0.418	-0.111
-532.106	800.000	0.070	0.253
-531.091	-137.544	-0.119	-0.013
-530.077	-7.714	-0.168	0.113
-529.062	-70.345	-0.059	-0.022
-528.048	-58.199	0.306	0.134
-527.033	237.439	-0.130	0.216
-526.018	-97.568	-0.184	0.048
-525.004	800.000	-0.091	0.268
-523.989	800.000	0.029	-0.097
-522.975	29.282	0.082	0.070
-521.960	-162.303	0.103	-0.005
-520.945	-200.000	-0.008	-0.274
-519.931	85.966	0.220	-0.242
-518.916	-42.008	-0.122	0.062
-517.902	12.914	0.112	-0.087
-516.887	-56.552	0.160	0.071
-515.872	48.443	-0.289	0.271
-514.858	427.480	-0.162	-0.350
-513.843	300.109	-0.121	-0.224
-512.829	15.797	0.082	-0.064
-511.814	-200.000	0.013	0.060
-510.799	-96.531	0.091	0.024
-509.785	800.000	0.055	0.154
-508.770	-102.883	-0.222	-0.053
-507.756	-73.142	0.037	-0.014
-506.741	-0.570	-0.153	0.109
-505.726	488.819	0.019	-0.044
-504.712	10.624	-0.260	-0.199
-503.697	800.000	-0.053	-0.184
-502.683	-136.134	0.273	-0.032
-501.668	-76.719	0.433	0.152
-500.653	-70.025	0.327	-0.124
-499.639	-200.000	-0.020	-0.089
-498.624	186.328	0.133	0.198
-497.610	45.246	0.166	-0.153
-496.595	-100.755	-0.167	-0.041
-495.581	87.799	-0.165	0.183
-494.566	-107.636	-0.149	0.033
-493.551	229.000	0.172	-0.280
-492.537	-181.266	0.066	-0.001
-491.522	378.191	-0.117	-0.238
-490.508	-109.240	0.055	-0.012
-489.493	88.303	0.266	0.295
-488.478	-200.000	-0.066	0.296
-487.464	-43.369	-0.332	0.168
-486.449	-200.000	0.003	-0.111
-485.435	-137.045	-0.034	0.004
-484.420	173.640	0.213	0.307
-483.405	34.909	0.129	-0.113
-482.391	125.217	0.068	0.085
-481.376	-100.520	0.231	0.057
-480.362	800.000	0.013	-0.043
-479.347	274.290	0.036	-0.064
-478.332	-49.485	0.165	0.078
-477.318	-147.664	-0.145	-0.012
-476.303	-22.590	0.227	0.137
-475.289	589.825	0.081	0.199
-474.274	340.815	0.076	-0.147
-473.259	-200.000	0.003	0.125
-472.245	-200.000	-0.009	0.279
-471.230	800.000	-0.049	-0.183
-470.216	573.657	-0.080	0.195
-469.201	-200.000	0.008	0.252
-468.186	82.590	-0.051	0.055
-467.172	800.000	-0.100	0.361
-466.157	-120.258	0.036	0.006
-465.143	6.795	-0.193	-0.144
-464.128	-156.070	0.188	-0.012
-463.113	-200.000	0.013	-0.280
-462.099	800.000	-0.068	-0.218
-461.084	-51.789	-0.053	-0.025
-460.070	-164.506	0.151	0.007
-459.055	341.083	0.101	0.197
-458.040	-51.214	-0.143	0.067
-457.026	277.093	0.069	0.122
-456.011	-93.775	-0.125	0.034
-454.997	-17.348	-0.223	-0.140
-453.982	86.383	-0.202	0.222
-452.968	-200.000	-0.012	-0.351
-451.953	800.000	-0.043	0.130
-450.938	-66.947	0.143	-0.056
-449.924	-15.979	0.082	-0.052
-448.909	96.900	0.197	0.226
-447.895	-14.919	-0.043	-0.027
-446.880	213.492	0.223	-0.352
-445.865	800.000	0.073	0.232
-444.851	-32.226	-0.036	-0.020
-443.836	-200.000	-0.281	0.001
-442.822	-146.546	0.227	-0.020
-441.807	-107.385	0.116	-0.025
-440.792	-90.467	0.149	-0.043
-439.778	97.831	-0.152	-0.174
-438.763	-100.247	0.106	0.026
-437.749	128.244	-0.323	-0.409
-436.734	-69.715	-0.252	-0.096
-435.719	800.000	0.129	-0.371
-434.705	89.311	0.053	-0.058
-433.690	5.966	0.167	-0.123
-432.676	138.729	-0.148	-0.193
-431.661	-72.056	-0.126	-0.047
-430.646	-72.772	0.226	0.083
-429.632	585.610	-0.072	-0.177
-428.617	251.727	-0.047	0.079
-427.603	-68.141	-0.237	-0.092
-426.588	72.447	-0.232	-0.241
-425.573	198.806	-0.078	0.119
-424.559	-86.874	-0.269	-0.082
-423.544	-75.734	0.246	-0.087
-422.530	787.896	-0.023	-0.063
-421.515	476.532	-0.108	-0.244
-420.500	-126.099	0.452	0.068
-419.486	129.721	0.121	0.154
-418.471	-200.000	0.043	-0.232
-417.457	-200.000	0.010	-0.302
-416.442	624.310	-0.178	-0.446
-415.428	184.084	0.096	0.141
-414.413	-143.105	0.225	-0.022
-413.398	107.462	0.326	-0.386
-412.384	-122.920	0.112	0.018
-411.369	2.925	-0.222	-0.161
-410.355	800.000	-0.135	0.547
-409.340	-200.000	-0.023	0.343
-408.325	-87.798	0.060	0.018
-407.311	371.808	0.067	0.135
-406.296	8.637	-0.012	0.009
-405.282	271.890	0.075	-0.132
-404.267	0.175	0.068	0.048
-403.252	66.716	-0.117	-0.119
-402.238	-3.357	-0.368	0.255
-401.223	-72.055	0.232	-0.086
-400.209	8.320	-0.092	0.069
-399.194	800.000	-0.079	0.253
-398.179	481.672	-0.053	0.120
-397.165	-86.308	-0.295	0.090
-396.150	133.607	-0.134	0.172
-395.136	-145.852	-0.404	-0.036
-394.121	240.502	-0.160	0.265
-393.106	800.000	0.060	-0.167
-392.092	-81.603	-0.174	-0.057
-391.077	203.533	0.159	-0.245
-390.063	-85.109	-0.069	-0.021
-389.048	235.555	-0.082	-0.134
-388.033	800.000	0.102	0.294
-387.019	-69.264	0.173	0.066
-386.004	114.528	0.110	0.134
-384.990	-124.665	-0.275	-0.042
-383.975	6.480	0.225	-0.166
-382.960	682.021	0.034	-0.087
-381.946	-77.132	-0.225	0.078
-380.931	-54.358	-0.380	-0.172
-379.917	576.905	-0.053	0.129
-378.902	152.161	0.070	0.094
-377.888	93.143	-0.114	-0.129
-376.873	265.201	0.040	-0.070
-375.858	143.152	0.100	-0.133
-374.844	-156.663	0.349	-0.021
-373.829	669.866	-0.053	0.135
-372.815	418.855	0.094	0.200
-371.800	-85.413	-0.268	-0.083
-370.785	-51.395	0.238	0.111
-369.771	-40.905	-0.179	-0.092
-368.756	227.583	0.189	-0.306
-367.742	-200.000	0.027	0.142
-366.727	-120.617	0.048	0.008
-365.712	-61.053	-0.096	-0.040
-364.698	203.269	0.323	-0.497
-363.683	10.294	0.170	-0.128
-362.669	-144.689	-0.105	-0.010
-361.654	-45.307	-0.184	0.091
-360.639	-5.863	0.040	-0.027
-359.625	-200.000	-0.015	0.265
-358.610	271.637	-0.152	0.266
-357.596	131.719	-0.115	0.147
-356.581	-187.494	0.203	0.003
-355.566	332.721	0.071	0.137
-354.552	-129.316	0.251	0.035
-353.537	-59.841	0.267	0.113
-352.523	-76.998	-0.591	-0.205
-351.508	-120.588	-0.084	-0.014
-350.493	67.772	-0.118	-0.119
-349.479	-64.563	-0.127	-0.051
-348.464	17.283	0.073	0.057
-347.450	95.342	0.234	0.265
-346.435	-143.362	0.157	-0.015
-345.420	-152.612	-0.387	0.027
-344.406	-71.210	-0.150	0.056
-343.391	800.000	-0.088	-0.319
-342.377	181.152	-0.230	-0.336
-341.362	-74.186	0.163	0.059
-340.348	-200.000	-0.036	0.206
-339.333	-200.000	0.041	-0.303
-338.318	-96.549	-0.150	-0.039
-337.304	-105.415	0.208	0.047
-336.289	-181.018	0.232	0.005
-335.275	13.105	-0.178	-0.137
-334.260	5.656	-0.165	0.121
-333.245	296.008	0.030	-0.054
-332.231	6.349	-0.144	-0.106
-331.216	800.000	0.053	-0.225
-330.202	-69.958	-0.246	0.093
-329.187	109.195	0.100	-0.118
-328.172	-200.000	0.018	-0.137
-327.158	249.643	-0.024	0.041
-326.143	110.758	-0.154	-0.184
-325.129	-141.192	0.466	0.047
-324.114	-41.545	0.261	-0.133
-323.099	314.610	0.223	-0.417
-322.085	268.013	0.190	0.330
-321.070	800.000	0.093	0.257
-320.056	800.000	-0.130	0.541
-319.041	-88.039	-0.112	-0.033
-318.026	-200.000	-0.077	-0.448
-317.012	800.000	0.037	-0.138
-315.997	-200.000	0.005	-0.286
-314.983	100.315	-0.186	-0.214
-313.968	150.362	0.202	0.272
-312.953	43.057	0.157	0.142
-311.939	123.079	0.075	0.093
-310.924	174.680	0.157	0.226
-309.910	-142.604	0.355	-0.035
-308.895	145.140	-0.158	0.210
-307.880	51.216	0.179	0.168
-306.866	-62.495	-0.300	0.124
-305.851	305.892	-0.103	0.190
-304.837	-32.339	-0.191	0.105
-303.822	1.471	0.123	-0.087
-302.807	-200.000	0.010	0.141
-301.793	-60.198	0.430	0.182
-300.778	715.996	0.058	-0.154
-299.764	230.129	0.125	-0.203
-298.749	-200.000	-0.019	-0.107
-297.735	-200.000	-0.023	-0.409
-296.720	-23.240	0.164	0.098
-295.705	250.797	-0.217	0.366
-294.691	-170.714	0.211	-0.007
-293.676	-102.100	-0.076	-0.018
-292.662	738.823	0.100	0.265
-291.647	12.785	0.369	-0.282
-290.632	193.650	-0.086	-0.129
-289.618	-90.355	-0.183	-0.053
-288.603	-2.303	0.108	-0.075
-287.589	40.694	0.196	0.175
-286.574	-82.161	-0.107	0.035
-285.559	3.526	0.253	-0.183
-284.545	-96.913	-0.331	-0.086
-283.530	120.799	0.078	-0.096
-282.516	61.201	-0.080	0.079
-281.501	-200.000	0.013	-0.145
-280.486	-168.669	0.121	-0.005
-279.472	81.413	0.119	-0.127
-278.457	-79.282	-0.121	0.041
-277.443	164.013	0.123	0.172
-276.428	276.800	0.128	0.225
-275.413	-38.512	-0.328	-0.172
-274.399	-5.283	0.203	-0.138
-273.384	-81.669	-0.187	-0.061
-272.370	-76.534	0.177	0.062
-271.355	147.063	-0.062	0.083
-270.340	111.546	-0.142	-0.170
-269.326	163.290	0.115	-0.161
-268.311	29.807	-0.080	-0.067
-267.297	337.807	0.107	0.207
-266.282	-136.395	0.381	0.044
-265.267	800.000	0.043	-0.133
-264.253	-189.893	-0.189	0.002
-263.238	111.264	0.284	-0.339
-262.224	458.537	-0.134	-0.296
-261.209	-181.048	0.245	-0.005
-260.195	87.292	-0.172	-0.188
-259.180	-27.651	-0.171	-0.098
-258.165	195.593	-0.064	0.097
-257.151	-105.058	0.279	0.063
-256.136	-80.252	0.282	-0.094
-255.122	-200.000	-0.050	0.233
-254.107	585.626	0.083	0.201
-253.092	24.521	0.173	0.142
-252.078	800.000	-0.057	-0.196
-251.063	-121.031	-0.114	0.019
-250.049	-157.708	0.266	-0.016
-249.034	-88.155	-0.319	-0.095
-248.019	446.268	-0.038	0.082
-247.005	12.992	0.208	0.159
-245.990	-200.000	-0.005	-0.052
-244.976	-200.000	0.031	-0.171
-243.961	-151.967	-0.152	0.011
-242.946	36.510	0.079	0.069
-241.932	-129.051	-0.099	-0.014
-240.917	47.715	-0.024	-0.022
-239.903	550.920	0.049	0.115
-238.888	45.034	0.048	-0.044
-237.873	-44.484	0.159	-0.079
-236.859	-56.327	-0.235	0.103
-235.844	-9.424	0.135	0.089
-234.830	-73.519	-0.052	0.019
-233.815	-103.239	0.169	-0.039
-232.800	148.558	-0.189	0.252
-231.786	-108.689	0.130	0.027
-230.771	-110.992	0.364	0.074
-229.757	109.999	-0.298	0.354
-228.742	259.599	-0.036	0.062
-227.727	227.924	-0.188	-0.303
-226.713	49.909	-0.172	0.161
-225.698	49.993	0.115	0.108
-224.684	800.000	0.085	0.279
-223.669	-87.063	0.063	-0.019
-222.655	-200.000	0.014	0.277
-221.640	22.060	-0.214	0.173
-220.625	-3.691	-0.087	0.060
-219.611	-15.194	-0.121	0.076
-218.596	62.407	-0.235	0.232
-217.582	800.000	-0.089	0.348
-216.567	-92.509	0.102	-0.028
-215.552	-42.323	-0.236	-0.119
-214.538	-46.645	-0.081	0.039
-213.523	98.365	-0.158	-0.180
-212.509	-61.698	0.403	0.167
-211.494	-200.000	0.025	-0.236
-210.479	800.000	-0.077	-0.306
-209.465	233.709	-0.128	-0.208
-208.450	-26.793	0.258	-0.149
-207.436	-106.370	0.298	0.066
-206.421	94.129	-0.441	0.495
-205.406	-109.179	0.240	0.050
-204.392	-200.000	-0.018	0.088
-203.377	-38.509	0.034	-0.018
-202.363	279.107	0.183	-0.322
-201.348	800.000	0.046	-0.140
-200.333	-53.999	-0.118	-0.053
-199.319	-12.539	0.128	-0.082
-198.304	-30.079	0.184	-0.103
-197.290	-153.330	-0.187	-0.013
-196.275	352.636	0.054	0.106
-195.260	81.667	-0.160	-0.171
-194.246	800.000	-0.034	0.113
-193.231	-175.766	-0.278	-0.007
-192.217	-13.124	0.209	-0.134
-191.202	-27.964	0.116	0.066
-190.187	-200.000	-0.071	-0.402
-189.173	80.619	0.187	0.199
-188.158	90.674	0.228	0.253
-187.144	-178.089	0.062	-0.001
-186.129	250.949	-0.124	-0.208
-185.114	-200.000	-0.051	-0.293
-184.100	704.841	0.104	0.271
-183.085	-82.109	-0.344	0.111
-182.071	-104.800	0.188	0.043
-181.056	38.024	0.238	0.209
-180.042	-200.000	0.070	-0.332
-179.027	-200.000	-0.047	-0.222
-178.012	447.218	0.149	-0.323
-176.998	-28.923	-0.092	-0.052
-175.983	119.798	-0.108	0.132
-174.969	-91.864	-0.162	0.045
-173.954	-132.656	0.109	0.014
-172.939	-200.000	0.005	-0.091
-171.925	-57.247	0.236	0.102
-170.910	800.000	0.097	-0.270
-169.896	-8.868	0.137	0.091
-168.881	-2.837	-0.083	0.057
-167.866	-89.720	0.088	0.026
-166.852	-24.115	0.177	0.104
-165.837	-137.149	0.197	-0.022
-164.823	-137.908	-0.159	0.018
-163.808	-157.287	0.345	-0.021
-162.793	576.665	-0.060	0.144
-161.779	-38.960	0.133	0.069
-160.764	201.190	-0.023	-0.034
-159.750	63.066	0.206	-0.204
-158.735	-51.669	0.441	-0.203
-157.720	-200.000	-0.008	0.354
-156.706	-200.000	-0.000	-0.211
-155.691	112.350	0.178	-0.212
-154.677	36.027	0.235	0.204
-153.662	-165.815	0.235	0.010
-152.647	-187.901	0.431	0.006
-151.633	-200.000	-0.018	0.375
-150.618	800.000	0.103	0.344
-149.604	-200.000	-0.004	0.032
-148.589	5.135	-0.181	-0.131
-147.574	-70.280	0.195	0.073
-146.560	800.000	0.056	0.242
-145.545	-200.000	-0.034	0.202
-144.531	-200.000	-0.014	-0.179
-143.516	-77.441	0.144	0.049
-142.502	0.822	-0.205	0.145
-141.487	-104.895	0.030	0.007
-140.472	-71.007	-0.139	-0.052
-139.458	-0.990	-0.136	0.095
-138.443	127.820	-0.105	0.131
-137.429	-200.000	-0.029	0.196
-136.414	-40.961	0.228	-0.116
-135.399	-56.151	-0.348	0.153
-134.385	195.071	0.245	0.367
-133.370	-200.000	0.035	-0.310
-132.356	800.000	-0.007	0.023
-131.341	157.963	0.125	-0.171
-130.326	88.785	-0.081	0.089
-129.312	-73.650	0.112	-0.040
-128.297	125.856	-0.099	0.123
-127.283	625.723	0.024	-0.059
-126.268	114.654	0.273	-0.328
-125.253	-200.000	-0.063	-0.339
-124.239	57.873	0.081	-0.078
-123.224	-200.000	-0.013	0.186
-122.210	287.307	0.119	-0.212
-121.195	418.656	0.154	-0.325
