DTS Sentinel unit serial number:	SN413079Multiplexer serial number:	ORYXHardware model number:	OX4-SRSoftware version number:	ORYX F/W v4.00 Oryx Data Collector v3.7.2.0data status	okinstallation	princeton_trtdifferential loss correction	single-endedforward channel	channel 2reverse channel	N/Adate	2019/09/12time	20:59:34forward acquisition time	60.00reverse acquisition time	0.00gamma	496.2192k internal	0.2328k external	0.2328temperature offset calibration	1.0167default loss term (dB/km)	0.3790temperature slope calibration	1.0000multiplexer offset coefficient	1.0000multiplexer slope coefficient	1.0000fibre end	0.00T internal ref (°C)	30.87T ext. ref 1 (°C)	3.63T ext. ref 2 (°C)	25.47length (m)	temperature (°C)	Stokes	anti-Stokes-747.200	454.125	-0.121	0.270
-746.185	-88.422	0.107	-0.032
-745.171	0.356	-0.110	-0.079
-744.156	800.000	0.035	0.134
-743.142	-200.000	-0.010	0.430
-742.127	-67.502	-0.231	0.091
-741.112	-186.843	-0.050	0.001
-740.098	-200.000	-0.057	0.336
-739.083	800.000	0.048	-0.144
-738.069	-143.939	0.184	0.017
-737.054	800.000	-0.023	-0.076
-736.039	-14.602	-0.296	-0.192
-735.025	84.500	0.093	0.102
-734.010	-200.000	-0.012	-0.451
-732.996	-101.013	-0.182	0.045
-731.981	-108.205	-0.146	0.032
-730.966	-74.955	0.224	0.081
-729.952	159.693	0.067	0.094
-728.937	-111.002	0.111	0.023
-727.923	-200.000	-0.026	-0.136
-726.908	56.480	0.123	0.121
-725.894	169.348	-0.103	-0.148
-724.879	365.974	-0.119	-0.242
-723.864	382.401	-0.119	-0.246
-722.850	-200.000	0.056	-0.269
-721.835	-81.559	-0.431	0.143
-720.821	152.509	-0.190	0.262
-719.806	271.094	-0.088	0.155
-718.791	800.000	0.046	-0.172
-717.777	-1.461	0.118	0.084
-716.762	12.260	-0.133	-0.103
-715.748	-200.000	-0.000	-0.062
-714.733	800.000	-0.099	-0.361
-713.718	800.000	0.037	-0.144
-712.704	265.900	0.081	0.142
-711.689	-58.941	0.447	0.194
-710.675	-61.979	0.202	-0.085
-709.660	155.772	-0.169	0.234
-708.645	65.420	-0.123	-0.125
-707.631	-35.340	-0.116	-0.064
-706.616	800.000	0.091	0.255
-705.602	-86.755	0.321	0.099
-704.587	-37.738	0.047	-0.025
-703.572	151.525	0.152	-0.208
-702.558	-108.362	0.267	-0.058
-701.543	-164.661	0.391	0.018
-700.529	-66.768	0.296	-0.118
-699.514	-47.387	0.162	0.079
-698.499	-50.821	-0.156	-0.074
-697.485	-175.945	0.389	-0.010
-696.470	696.091	-0.067	-0.176
-695.456	268.371	0.143	0.252
-694.441	131.733	0.101	0.130
-693.426	30.817	-0.222	-0.192
-692.412	-122.025	0.410	0.068
-691.397	-156.504	-0.244	-0.015
-690.383	-63.964	-0.079	0.032
-689.368	-43.760	0.254	-0.129
-688.354	-200.000	0.011	-0.051
-687.339	-73.088	-0.161	0.059
-686.324	-120.383	0.079	0.014
-685.310	87.936	-0.039	-0.043
-684.295	800.000	0.074	0.214
-683.281	-85.336	0.165	-0.052
-682.266	492.159	0.055	0.126
-681.251	131.578	-0.186	-0.240
-680.237	220.924	-0.070	-0.113
-679.222	-184.244	0.135	-0.002
-678.208	378.418	-0.124	-0.254
-677.193	458.952	-0.168	0.376
-676.178	-121.145	-0.335	0.056
-675.164	-1.395	0.076	0.054
-674.149	800.000	-0.055	-0.168
-673.135	248.966	0.021	0.036
-672.120	-78.863	0.137	0.047
-671.105	75.202	-0.040	-0.042
-670.091	-16.573	-0.430	-0.274
-669.076	-98.558	-0.296	0.076
-668.062	-54.557	-0.313	0.142
-667.047	102.671	0.187	-0.220
-666.032	81.966	-0.133	-0.144
-665.018	-11.429	-0.273	-0.180
-664.003	-52.981	0.119	0.055
-662.989	681.279	-0.055	-0.143
-661.974	61.014	0.257	0.257
-660.959	-140.587	0.303	0.032
-659.945	800.000	0.125	-0.381
-658.930	387.905	0.133	-0.276
-657.916	-200.000	-0.014	0.166
-656.901	44.007	0.110	0.101
-655.886	403.282	0.086	0.183
-654.872	110.119	0.123	0.149
-653.857	-9.506	0.139	0.093
-652.843	-51.065	-0.439	0.207
-651.828	-1.384	0.202	-0.143
-650.814	800.000	-0.030	-0.111
-649.799	-107.037	0.054	-0.012
-648.784	4.257	0.178	-0.131
-647.770	-200.000	0.080	-0.526
-646.755	-19.650	-0.238	-0.148
-645.741	-200.000	-0.006	0.191
-644.726	8.500	0.255	0.193
-643.711	800.000	0.034	-0.122
-642.697	-93.419	0.114	-0.032
-641.682	-200.000	-0.036	-0.219
-640.668	-200.000	-0.058	0.332
-639.653	-136.773	0.218	0.025
-638.638	800.000	0.119	0.383
-637.624	-101.978	0.100	0.024
-636.609	-200.000	-0.002	0.068
-635.595	-84.017	0.220	-0.070
-634.580	454.809	-0.062	0.138
-633.565	209.775	-0.120	0.189
-632.551	-200.000	0.054	-0.419
-631.536	116.802	-0.176	0.217
-630.522	329.032	-0.100	0.193
-629.507	-80.975	0.317	-0.105
-628.492	-114.404	-0.260	-0.050
-627.478	-155.510	-0.441	0.029
-626.463	400.680	0.108	0.227
-625.449	-200.000	-0.025	-0.148
-624.434	800.000	-0.010	-0.033
-623.419	-134.098	-0.110	0.014
-622.405	-101.419	-0.070	0.017
-621.390	-48.548	-0.192	-0.093
-620.376	-200.000	-0.013	0.249
-619.361	146.356	-0.123	-0.166
-618.346	83.375	0.087	-0.095
-617.332	457.433	-0.052	0.115
-616.317	-149.852	0.155	0.012
-615.303	-163.400	-0.263	0.013
-614.288	800.000	-0.055	0.234
-613.273	800.000	0.082	0.228
-612.259	-200.000	-0.015	0.192
-611.244	35.591	-0.172	0.151
-610.230	622.666	0.073	-0.184
-609.215	383.602	-0.157	-0.324
-608.201	130.325	-0.144	-0.184
-607.186	69.206	0.201	0.207
-606.171	646.227	0.034	0.087
-605.157	800.000	0.039	-0.147
-604.142	-200.000	0.018	-0.180
-603.128	299.236	0.072	0.133
-602.113	-174.001	0.035	0.001
-601.098	-129.753	0.250	-0.034
-600.084	-95.850	-0.317	0.085
-599.069	-156.086	0.306	0.019
-598.055	800.000	-0.030	-0.131
-597.040	-135.996	0.161	0.019
-596.025	640.690	0.132	-0.335
-595.011	-200.000	0.044	-0.246
-593.996	-122.176	-0.179	0.029
-592.982	411.157	-0.076	0.162
-591.967	428.923	-0.093	-0.202
-590.952	44.077	-0.196	-0.180
-589.938	139.840	-0.163	0.215
-588.923	54.156	-0.142	-0.137
-587.909	146.991	-0.190	0.256
-586.894	800.000	-0.100	-0.299
-585.879	155.176	-0.129	-0.177
-584.865	-200.000	0.022	-0.271
-583.850	530.654	-0.102	-0.242
-582.836	390.539	0.051	0.107
-581.821	516.501	-0.147	0.343
-580.806	-200.000	-0.003	-0.069
-579.792	275.713	0.114	0.203
-578.777	147.393	-0.152	0.205
-577.763	-200.000	0.017	-0.314
-576.748	-120.759	0.113	-0.019
-575.733	563.553	-0.072	-0.174
-574.719	-93.420	-0.117	0.033
-573.704	-101.595	0.143	-0.035
-572.690	-142.872	0.032	-0.003
-571.675	354.648	0.026	0.052
-570.661	800.000	0.115	0.368
-569.646	-200.000	0.046	-0.244
-568.631	533.707	-0.086	-0.203
-567.617	168.601	0.137	-0.195
-566.602	53.939	0.158	-0.152
-565.588	-107.126	-0.196	0.043
-564.573	7.320	0.129	0.096
-563.558	-200.000	-0.013	-0.108
-562.544	-113.776	0.152	0.030
-561.529	-200.000	0.022	-0.177
-560.515	127.394	-0.090	-0.114
-559.500	168.427	0.134	0.191
-558.485	-200.000	0.001	-0.121
-557.471	125.754	0.055	-0.070
-556.456	800.000	0.021	-0.081
-555.442	-32.712	-0.425	-0.237
-554.427	54.532	0.242	-0.233
-553.412	800.000	0.071	-0.282
-552.398	646.860	0.105	0.269
-551.383	800.000	-0.098	-0.352
-550.369	-200.000	0.014	-0.110
-549.354	-179.637	-0.259	0.006
-548.339	-200.000	0.055	0.363
-547.325	-200.000	-0.002	0.176
-546.310	-66.417	-0.201	-0.080
-545.296	800.000	-0.036	0.117
-544.281	406.106	0.094	0.198
-543.266	17.560	-0.404	0.321
-542.252	-56.470	-0.231	-0.102
-541.237	800.000	-0.186	-0.562
-540.223	-200.000	0.089	-0.547
-539.208	-129.878	0.217	-0.030
-538.193	15.305	-0.232	0.182
-537.179	-176.126	0.254	-0.007
-536.164	-110.925	0.268	0.055
-535.150	-95.237	-0.253	-0.068
-534.135	63.102	0.098	0.098
-533.121	36.088	0.073	-0.064
-532.106	-200.000	-0.042	-0.212
-531.091	179.280	-0.065	-0.096
-530.077	-114.579	0.093	0.018
-529.062	-48.993	-0.226	0.108
-528.048	43.590	-0.164	0.150
-527.033	24.633	-0.377	0.312
-526.018	29.507	-0.124	0.105
-525.004	-154.399	-0.434	-0.029
-523.989	-96.317	0.120	-0.032
-522.975	800.000	-0.084	0.271
-521.960	250.148	-0.133	0.225
-520.945	-200.000	-0.008	-0.147
-519.931	-97.535	0.204	0.053
-518.916	37.264	0.255	0.226
-517.902	291.280	-0.057	0.104
-516.887	113.354	-0.206	0.250
-515.872	508.164	0.119	-0.275
-514.858	-45.150	-0.146	-0.073
-513.843	125.449	-0.152	-0.191
-512.829	-61.355	0.206	0.086
-511.814	1.557	0.212	0.152
-510.799	800.000	0.036	-0.112
-509.785	-47.588	-0.258	0.125
-508.770	281.303	-0.095	0.169
-507.756	-66.724	0.219	0.087
-506.741	-28.567	-0.018	-0.010
-505.726	183.246	0.098	-0.144
-504.712	-95.389	0.042	0.011
-503.697	-105.994	-0.088	-0.020
-502.683	1.626	0.204	-0.147
-501.668	-131.203	-0.212	-0.028
-500.653	-141.561	-0.259	0.026
-499.639	53.520	0.194	-0.186
-498.624	118.179	0.183	0.226
-497.610	-73.932	-0.252	-0.091
-496.595	126.172	0.053	0.066
-495.581	74.329	0.140	0.147
-494.566	-200.000	-0.026	-0.140
-493.551	-145.659	-0.152	0.014
-492.537	-36.837	-0.122	0.066
-491.522	-80.709	0.129	-0.043
-490.508	-128.438	-0.132	0.019
-489.493	-112.599	0.229	0.045
-488.478	-32.181	-0.251	-0.140
-487.464	800.000	0.058	-0.195
-486.449	157.275	0.098	-0.135
-485.435	267.821	-0.113	0.198
-484.420	-148.977	0.360	-0.029
-483.405	-75.447	0.120	0.043
-482.391	483.252	0.119	0.270
-481.376	-141.249	-0.153	0.016
-480.362	-99.911	0.291	0.073
-479.347	29.315	-0.138	0.117
-478.332	-145.569	0.224	0.020
-477.318	800.000	-0.023	-0.079
-476.303	49.067	-0.038	0.036
-475.289	432.401	0.040	0.087
-474.274	198.440	-0.102	0.156
-473.259	504.265	-0.049	0.114
-472.245	568.875	0.056	0.135
-471.230	-108.961	-0.118	0.025
-470.216	-126.447	-0.133	-0.020
-469.201	-19.084	-0.061	0.038
-468.186	274.848	-0.026	0.046
-467.172	80.603	-0.047	0.051
-466.157	49.531	0.076	-0.072
-465.143	-79.591	-0.124	-0.042
-464.128	55.543	0.212	-0.204
-463.113	35.443	-0.169	-0.148
-462.099	-30.039	-0.305	0.173
-461.084	-10.880	0.108	-0.071
-460.070	-112.272	-0.244	-0.049
-459.055	-170.269	-0.256	0.009
-458.040	-73.232	0.084	-0.031
-457.026	-200.000	0.020	0.243
-456.011	33.325	0.064	0.055
-454.997	123.545	0.118	0.148
-453.982	5.792	-0.151	0.112
-452.968	-71.239	-0.033	-0.012
-451.953	-178.640	0.240	-0.006
-450.938	-104.917	-0.135	0.031
-449.924	19.290	-0.283	0.226
-448.909	235.217	0.144	0.238
-447.895	-93.938	-0.147	-0.040
-446.880	-200.000	-0.031	-0.253
-445.865	-57.090	-0.236	0.104
-444.851	-200.000	-0.012	0.108
-443.836	800.000	0.053	0.230
-442.822	-200.000	0.000	-0.174
-441.807	-106.484	0.265	-0.059
-440.792	142.059	0.250	-0.331
-439.778	-183.704	0.088	-0.001
-438.763	688.181	-0.128	-0.333
-437.749	-49.702	-0.106	-0.050
-436.734	-200.000	0.074	-0.598
-435.719	38.300	0.046	-0.040
-434.705	23.210	0.212	0.173
-433.690	64.307	0.175	0.176
-432.676	-42.937	-0.394	-0.199
-431.661	100.081	0.053	0.061
-430.646	-143.984	-0.250	0.023
-429.632	-80.632	0.111	-0.037
-428.617	102.704	0.055	0.064
-427.603	-33.406	-0.471	0.259
-426.588	-12.951	-0.405	-0.262
-425.573	-200.000	0.053	0.279
-424.559	232.928	0.102	-0.167
-423.544	-200.000	0.013	-0.260
-422.530	69.108	-0.195	-0.199
-421.515	132.760	-0.059	-0.076
-420.500	210.102	0.077	-0.120
-419.486	-200.000	0.003	-0.155
-418.471	-28.577	-0.268	-0.154
-417.457	-97.098	-0.215	0.056
-416.442	-79.030	0.110	-0.037
-415.428	-95.336	-0.252	-0.067
-414.413	-162.455	-0.282	0.014
-413.398	202.225	0.138	-0.212
-412.384	-93.103	0.084	-0.023
-411.369	149.022	0.127	0.171
-410.355	-111.822	-0.090	0.018
-409.340	-108.058	-0.153	-0.033
-408.325	-133.227	-0.122	-0.015
-407.311	95.578	-0.023	0.026
-406.296	308.329	0.043	0.081
-405.282	521.149	-0.130	-0.304
-404.267	-135.800	-0.196	-0.023
-403.252	792.392	-0.102	0.278
-402.238	-200.000	0.055	0.384
-401.223	385.427	0.141	-0.289
-400.209	99.976	-0.268	-0.309
-399.194	-114.430	0.252	-0.048
-398.179	-11.295	0.192	-0.126
-397.165	0.062	0.326	-0.231
-396.150	-200.000	-0.008	-0.114
-395.136	151.253	0.149	0.202
-394.121	344.606	0.065	-0.126
-393.106	-200.000	-0.017	0.087
-392.092	-104.832	-0.271	-0.062
-391.077	800.000	-0.037	-0.132
-390.063	-97.153	0.257	-0.067
-389.048	102.683	0.031	0.036
-388.033	91.942	0.199	-0.223
-387.019	173.461	0.054	0.078
-386.004	411.920	-0.049	0.104
-384.990	190.447	0.092	0.138
-383.975	800.000	0.097	0.339
-382.960	-36.659	-0.087	-0.047
-381.946	-53.691	-0.157	0.071
-380.931	800.000	0.121	-0.375
-379.917	-64.312	0.210	-0.085
-378.902	-119.699	0.095	-0.016
-377.888	-200.000	-0.013	0.063
-376.873	800.000	-0.033	-0.096
-375.858	-60.364	-0.162	0.068
-374.844	-193.523	0.193	-0.002
-373.829	-27.086	0.125	-0.072
-372.815	-1.302	0.236	0.166
-371.800	-110.229	0.079	0.016
-370.785	-104.333	-0.117	0.027
-369.771	135.389	0.143	0.184
-368.756	13.266	0.220	-0.170
-367.742	800.000	0.016	0.070
-366.727	24.856	-0.058	-0.048
-365.712	89.028	0.098	0.109
-364.698	-140.768	-0.101	-0.010
-363.683	-50.063	-0.245	0.115
-362.669	11.231	-0.170	-0.129
-361.654	292.187	0.146	0.263
-360.639	16.915	0.221	0.174
-359.625	-104.933	0.189	-0.043
-358.610	-200.000	0.014	-0.156
-357.596	-65.416	-0.086	-0.034
-356.581	-121.507	-0.196	0.032
-355.566	-60.575	-0.021	0.009
-354.552	-200.000	0.020	0.250
-353.537	177.319	0.073	-0.106
-352.523	800.000	0.065	0.187
-351.508	35.587	0.052	0.045
-350.493	-57.201	0.153	-0.067
-349.479	-200.000	-0.019	0.149
-348.464	-92.105	0.305	-0.085
-347.450	53.837	-0.150	0.143
-346.435	522.132	-0.043	0.101
-345.420	360.237	-0.137	-0.272
-344.406	-105.272	-0.065	0.015
-343.391	-67.572	-0.061	-0.024
-342.377	-200.000	0.010	-0.088
-341.362	209.336	0.120	-0.187
-340.348	-48.841	-0.145	0.069
-339.333	-162.439	0.129	0.006
-338.318	258.714	0.125	0.213
-337.304	-22.221	0.191	0.115
-336.289	-78.621	0.111	0.038
-335.275	413.938	0.112	-0.236
-334.260	-200.000	0.013	0.091
-333.245	800.000	0.121	0.339
-332.231	-200.000	-0.027	-0.353
-331.216	-200.000	-0.057	0.254
-330.202	-150.439	-0.372	0.028
-329.187	-187.426	0.242	0.003
-328.172	800.000	0.064	-0.228
-327.158	614.323	-0.104	0.259
-326.143	-138.830	-0.506	0.055
-325.129	-200.000	-0.019	0.249
-324.114	-36.890	0.470	-0.250
-323.099	-47.291	0.143	-0.069
-322.085	374.985	0.195	0.394
-321.070	-200.000	0.000	0.026
-320.056	-49.465	0.449	-0.212
-319.041	-200.000	0.013	-0.168
-318.026	215.039	-0.125	0.196
-317.012	168.662	0.189	0.267
-315.997	-99.196	0.188	0.047
-314.983	-22.913	-0.337	-0.202
-313.968	-63.917	0.196	0.080
-312.953	245.263	0.065	0.108
-311.939	202.927	0.255	-0.390
-310.924	800.000	-0.067	-0.221
-309.910	-200.000	0.012	-0.115
-308.895	-38.803	0.280	-0.146
-307.880	231.927	0.071	-0.116
-306.866	800.000	0.024	0.072
-305.851	-200.000	-0.002	-0.065
-304.837	-75.961	0.456	0.160
-303.822	31.401	0.155	-0.132
-302.807	-20.422	0.163	0.099
-301.793	26.743	-0.129	0.107
-300.778	-28.441	-0.254	0.145
-299.764	-59.678	-0.188	-0.080
-298.749	-200.000	0.051	0.393
-297.735	702.262	0.186	-0.484
-296.720	199.399	-0.273	-0.415
-295.705	-35.023	0.259	0.140
-294.691	800.000	-0.080	-0.288
-293.676	-102.551	0.093	-0.022
-292.662	143.375	-0.075	0.099
-291.647	-103.970	-0.480	-0.111
-290.632	-43.751	-0.156	0.078
-289.618	-112.369	0.319	-0.063
-288.603	147.999	0.033	-0.044
-287.589	-62.772	-0.103	0.042
-286.574	30.341	0.163	0.138
-285.559	190.443	-0.088	-0.130
-284.545	68.864	0.121	-0.123
-283.530	-21.515	-0.247	0.149
-282.516	-200.000	0.067	0.319
-281.501	14.133	0.359	0.276
-280.486	-147.044	0.551	0.047
-279.472	-152.159	0.335	-0.024
-278.457	800.000	-0.090	0.312
-277.443	490.843	0.083	-0.188
-276.428	-5.359	-0.155	-0.105
-275.413	310.320	0.102	0.189
-274.399	-88.157	-0.168	0.050
-273.384	-45.265	-0.131	0.064
-272.370	307.450	-0.108	-0.200
-271.355	-78.049	-0.104	0.035
-270.340	-200.000	0.000	0.149
-269.326	114.716	-0.178	0.215
-268.311	6.199	-0.084	-0.062
-267.297	137.080	-0.046	-0.059
-266.282	216.855	0.083	-0.130
-265.267	106.527	-0.144	0.169
-264.253	-95.006	-0.459	-0.123
-263.238	-200.000	-0.071	-0.338
-262.224	-200.000	0.025	0.132
-261.209	-200.000	-0.036	0.235
-260.195	168.269	-0.104	-0.147
-259.180	-139.520	-0.028	0.003
-258.165	800.000	0.092	0.255
-257.151	-58.219	-0.141	-0.061
-256.136	-123.914	0.273	0.043
-255.122	-153.955	-0.249	-0.017
-254.107	429.593	-0.019	-0.042
-253.092	-164.786	0.394	-0.018
-252.078	-200.000	0.078	0.340
-251.063	-161.452	0.230	0.012
-250.049	-63.210	-0.152	-0.062
-249.034	-200.000	-0.034	0.190
-248.019	144.843	-0.145	0.191
-247.005	-19.851	-0.090	-0.055
-245.990	-91.713	0.130	-0.037
-244.976	-200.000	0.290	0.000
-243.961	-200.000	0.043	0.286
-242.946	12.185	0.433	0.329
-241.932	-133.847	-0.242	-0.030
-240.917	-101.379	0.282	0.068
-239.903	161.019	0.208	0.287
-238.888	-48.961	0.081	0.038
-237.873	-35.184	0.312	-0.168
-236.859	-200.000	0.028	0.215
-235.844	-95.202	-0.465	-0.124
-234.830	-78.608	-0.305	-0.103
-233.815	800.000	0.079	0.217
-232.800	746.181	-0.051	-0.136
-231.786	7.243	0.379	-0.279
-230.771	-84.523	-0.011	-0.003
-229.757	16.859	-0.134	0.105
-228.742	140.416	0.053	-0.070
-227.727	222.390	0.101	0.160
-226.713	800.000	-0.139	-0.488
-225.698	-22.879	0.278	-0.165
-224.684	-20.010	0.204	-0.124
-223.669	-78.051	0.095	-0.032
-222.655	94.141	0.235	0.264
-221.640	212.974	-0.105	0.163
-220.625	-125.284	0.271	-0.041
-219.611	3.904	-0.301	-0.217
-218.596	190.467	0.199	0.295
-217.582	-11.111	0.124	-0.080
-216.567	800.000	0.068	-0.250
-215.552	800.000	0.031	0.134
-214.538	800.000	-0.016	0.064
-213.523	-123.532	0.267	0.042
-212.509	-200.000	0.034	0.210
-211.494	22.034	0.172	-0.138
-210.479	414.486	-0.158	-0.331
-209.465	152.466	-0.317	0.427
-208.450	-200.000	-0.017	0.216
-207.436	800.000	0.058	-0.242
-206.421	-104.040	-0.270	-0.062
-205.406	800.000	0.044	-0.181
-204.392	800.000	0.105	0.374
-203.377	190.382	-0.057	-0.084
-202.363	200.758	-0.175	-0.266
-201.348	11.672	-0.193	-0.146
-200.333	-200.000	-0.016	0.150
-199.319	544.538	-0.081	0.192
-198.304	-79.216	-0.286	-0.096
-197.290	189.881	-0.122	-0.180
-196.275	75.628	-0.106	-0.111
-195.260	200.066	-0.180	-0.273
-194.246	87.449	0.034	0.037
-193.231	-86.467	-0.201	0.061
-192.217	34.345	0.348	0.299
-191.202	-128.220	0.165	0.023
-190.187	-200.000	-0.019	0.504
-189.173	488.587	-0.049	-0.111
-188.158	-200.000	-0.056	-0.378
-187.144	-42.368	0.155	-0.078
-186.129	72.565	-0.213	0.219
-185.114	-200.000	-0.056	0.549
-184.100	474.286	-0.157	-0.350
-183.085	-200.000	-0.088	0.427
-182.071	578.681	0.063	-0.151
-181.056	-200.000	0.017	-0.078
-180.042	-200.000	-0.005	0.212
-179.027	304.725	-0.151	0.275
-178.012	-41.267	0.239	-0.122
-176.998	-200.000	0.045	0.216
-175.983	-200.000	0.021	-0.162
-174.969	7.692	-0.062	0.046
-173.954	358.299	-0.067	0.131
-172.939	-200.000	0.008	0.080
-171.925	264.952	0.046	0.078
-170.910	-94.507	0.211	-0.057
-169.896	-144.609	-0.083	-0.008
-168.881	129.090	-0.129	-0.162
-167.866	-154.470	0.108	0.007
-166.852	54.274	0.141	0.134
-165.837	8.517	0.039	0.029
-164.823	-36.198	-0.176	0.094
-163.808	46.851	-0.237	-0.217
-162.793	284.437	-0.145	-0.257
-161.779	16.910	-0.423	-0.330
-160.764	800.000	0.055	0.157
-159.750	-44.562	0.225	0.111
-158.735	-75.274	0.182	-0.064
-157.720	-83.560	0.234	-0.074
-156.706	-141.691	0.285	-0.028
-155.691	-81.171	-0.203	0.066
-154.677	-200.000	-0.000	-0.130
-153.662	99.305	-0.140	-0.160
-152.647	214.297	0.058	-0.090
-151.633	430.641	0.085	0.180
-150.618	67.195	-0.119	-0.120
-149.604	800.000	0.137	-0.437
-148.589	800.000	-0.053	0.160
-147.574	-67.491	-0.189	-0.073
-146.560	-95.502	-0.110	0.029
-145.545	-42.880	0.242	0.121
-144.531	-200.000	-0.006	-0.069
-143.516	-200.000	-0.028	0.204
-142.502	157.450	0.040	0.055
-141.487	64.734	-0.107	-0.106
-140.472	-80.101	-0.435	0.144
-139.458	184.820	0.082	0.119
-138.443	800.000	-0.111	0.312
-137.429	-200.000	-0.045	0.297
-136.414	563.926	0.114	0.272
-135.399	-56.339	0.333	0.146
-134.385	-146.873	0.085	0.007
-133.370	-0.351	-0.220	-0.154
-132.356	-1.151	0.124	-0.086
-131.341	20.148	-0.188	-0.149
-130.326	-200.000	-0.027	-0.123
-129.312	800.000	-0.026	-0.079
-128.297	800.000	0.063	0.177
-127.283	-71.872	0.306	0.112
-126.268	-200.000	0.007	0.047
-125.253	535.428	0.170	0.397
-124.239	287.256	-0.115	-0.204
-123.224	-200.000	0.000	0.244
-122.210	-121.207	-0.128	-0.021
-121.195	66.884	-0.198	-0.199
