DTS Sentinel unit serial number:	SN413079Multiplexer serial number:	ORYXHardware model number:	OX4-SRSoftware version number:	ORYX F/W v4.00 Oryx Data Collector v3.7.2.0data status	okinstallation	princeton_trtdifferential loss correction	single-endedforward channel	channel 2reverse channel	N/Adate	2019/09/11time	01:37:10forward acquisition time	60.00reverse acquisition time	0.00gamma	496.2192k internal	0.2332k external	0.2332temperature offset calibration	0.9941default loss term (dB/km)	0.3790temperature slope calibration	1.0000multiplexer offset coefficient	1.0000multiplexer slope coefficient	1.0000fibre end	0.00T internal ref (°C)	29.16T ext. ref 1 (°C)	-0.30T ext. ref 2 (°C)	23.47length (m)	temperature (°C)	Stokes	anti-Stokes-747.200	-200.000	0.049	0.252
-746.185	236.060	-0.011	-0.018
-745.171	-80.722	0.325	-0.109
-744.156	42.166	-0.236	0.216
-743.142	70.562	0.187	-0.195
-742.127	-40.054	-0.250	0.131
-741.112	800.000	-0.050	-0.213
-740.098	-73.353	-0.394	-0.145
-739.083	59.855	-0.111	-0.111
-738.069	-65.890	0.210	0.085
-737.054	404.105	0.109	-0.230
-736.039	-101.895	0.050	-0.012
-735.025	327.721	0.080	0.154
-734.010	284.061	-0.086	-0.155
-732.996	457.335	-0.139	-0.310
-731.981	43.630	0.256	-0.235
-730.966	129.322	-0.016	0.021
-729.952	-200.000	-0.014	0.584
-728.937	-133.417	-0.200	-0.025
-727.923	57.580	-0.052	0.051
-726.908	-200.000	-0.012	-0.229
-725.894	-182.883	0.253	0.005
-724.879	-129.358	0.294	-0.041
-723.864	-200.000	0.018	-0.279
-722.850	158.896	-0.186	-0.259
-721.835	-1.851	0.337	0.238
-720.821	15.642	-0.125	0.099
-719.806	437.162	-0.188	-0.412
-718.791	-200.000	-0.041	0.216
-717.777	30.177	0.140	0.120
-716.762	-17.314	0.136	0.086
-715.748	105.085	-0.115	0.136
-714.733	98.463	-0.235	-0.272
-713.718	-162.293	-0.288	-0.014
-712.704	113.689	-0.060	-0.074
-711.689	83.938	-0.035	0.038
-710.675	227.706	0.100	-0.164
-709.660	-110.060	-0.369	-0.078
-708.645	-200.000	-0.014	0.475
-707.631	82.324	0.052	0.057
-706.616	-31.076	0.144	0.082
-705.602	90.021	-0.158	0.178
-704.587	151.478	0.060	-0.082
-703.572	-120.344	-0.060	0.010
-702.558	497.486	0.173	-0.400
-701.543	-200.000	0.028	-0.245
-700.529	-50.680	-0.327	-0.155
-699.514	-200.000	-0.001	0.089
-698.499	800.000	0.112	-0.424
-697.485	-200.000	-0.036	0.325
-696.470	71.779	-0.165	-0.172
-695.456	-106.593	-0.321	0.072
-694.441	217.049	0.243	0.388
-693.426	-4.310	0.100	0.070
-692.412	455.138	-0.057	0.126
-691.397	-2.977	0.119	0.084
-690.383	-200.000	-0.045	-0.311
-689.368	0.733	-0.161	-0.115
-688.354	-120.724	-0.074	-0.012
-687.339	-19.465	0.425	0.264
-686.324	-182.861	-0.297	-0.005
-685.310	-200.000	-0.029	-0.203
-684.295	-167.793	0.355	0.014
-683.281	88.252	0.051	-0.057
-682.266	-55.302	-0.350	-0.158
-681.251	-16.809	-0.315	-0.200
-680.237	-135.907	0.192	0.023
-679.222	-69.607	0.260	-0.100
-678.208	684.671	-0.156	-0.409
-677.193	-84.600	0.007	-0.002
-676.178	-48.111	0.245	-0.119
-675.164	59.714	0.096	0.095
-674.149	-200.000	0.029	0.316
-673.135	-200.000	0.019	0.087
-672.120	-67.969	-0.251	-0.098
-671.105	-24.026	0.219	-0.132
-670.091	800.000	0.132	-0.476
-669.076	-26.822	0.101	-0.059
-668.062	-70.246	0.235	-0.090
-667.047	800.000	-0.064	0.179
-666.032	194.906	-0.174	0.266
-665.018	-36.806	-0.021	0.011
-664.003	-151.660	0.198	0.015
-662.989	227.675	0.139	0.227
-661.974	-200.000	-0.325	0.000
-660.959	-200.000	-0.025	0.327
-659.945	-80.614	0.151	0.051
-658.930	138.297	-0.119	-0.156
-657.916	-5.258	0.238	-0.164
-656.901	800.000	0.056	0.216
-655.886	-79.115	0.107	0.037
-654.872	345.315	-0.029	0.057
-653.857	-54.637	0.289	-0.131
-652.843	-139.575	-0.312	-0.033
-651.828	314.490	-0.163	-0.308
-650.814	800.000	-0.097	-0.342
-649.799	800.000	-0.109	-0.387
-648.784	-71.356	-0.433	0.163
-647.770	800.000	0.026	0.085
-646.755	800.000	0.070	-0.262
-645.741	-200.000	0.018	-0.264
-644.726	-127.115	-0.168	-0.025
-643.711	-200.000	0.026	0.228
-642.697	464.759	-0.077	0.173
-641.682	-200.000	0.021	-0.126
-640.668	-16.515	-0.195	0.124
-639.653	-200.000	0.023	0.219
-638.638	719.762	0.047	0.125
-637.624	157.758	0.298	0.413
-636.609	-176.596	0.036	-0.001
-635.595	-200.000	0.032	0.148
-634.580	125.656	-0.215	0.272
-633.565	214.729	-0.145	-0.230
-632.551	-200.000	-0.008	0.126
-631.536	-43.171	-0.185	0.094
-630.522	-68.517	0.376	0.146
-629.507	5.968	-0.167	-0.124
-628.492	-54.534	0.534	-0.242
-627.478	-200.000	-0.046	-0.413
-626.463	397.297	0.124	-0.259
-625.449	800.000	-0.068	-0.259
-624.434	275.408	0.030	0.054
-623.419	-200.000	0.028	0.127
-622.405	175.016	-0.143	0.207
-621.390	138.002	0.139	-0.182
-620.376	299.103	-0.132	-0.244
-619.361	48.159	0.184	0.173
-618.346	-200.000	-0.001	0.214
-617.332	75.956	-0.120	0.127
-616.317	-152.689	-0.229	-0.016
-615.303	-147.050	-0.459	-0.039
-614.288	441.257	-0.023	0.050
-613.273	43.669	-0.127	-0.116
-612.259	-200.000	0.001	0.010
-611.244	-103.697	0.380	-0.089
-610.230	83.906	-0.040	0.044
-609.215	11.473	-0.124	-0.095
-608.201	800.000	0.094	0.267
-607.186	-70.693	0.317	-0.120
-606.171	-143.237	0.182	-0.018
-605.157	128.622	0.082	-0.105
-604.142	-23.394	0.125	0.075
-603.128	155.905	-0.149	0.206
-602.113	144.084	0.166	0.222
-601.098	-200.000	-0.059	-0.406
-600.084	-200.000	0.008	-0.300
-599.069	-200.000	0.019	0.238
-598.055	-115.306	-0.241	0.045
-597.040	-200.000	-0.024	-0.322
-596.025	150.438	-0.061	0.083
-595.011	800.000	0.040	-0.146
-593.996	-19.096	0.220	0.137
-592.982	-200.000	-0.002	0.021
-591.967	-200.000	0.014	0.361
-590.952	-44.401	0.386	0.193
-589.938	238.744	0.196	0.326
-588.923	800.000	0.028	-0.093
-587.909	-200.000	0.040	0.185
-586.894	110.606	-0.165	0.199
-585.879	-33.126	0.213	-0.118
-584.865	-46.641	-0.340	-0.167
-583.850	45.046	0.010	0.009
-582.836	-13.224	0.055	0.035
-581.821	-24.514	-0.112	-0.067
-580.806	-122.827	-0.222	-0.036
-579.792	-81.351	-0.120	-0.039
-578.777	800.000	-0.035	-0.097
-577.763	20.505	-0.065	0.053
-576.748	151.840	0.137	0.187
-575.733	-42.941	-0.067	0.034
-574.719	-180.274	-0.093	-0.002
-573.704	-130.086	-0.147	-0.020
-572.690	-84.171	-0.329	0.104
-571.675	12.848	-0.108	-0.083
-570.661	371.617	-0.093	-0.189
-569.646	277.963	-0.140	-0.250
-568.631	-154.258	0.264	-0.018
-567.617	-17.381	0.172	0.109
-566.602	-130.225	-0.276	0.037
-565.588	0.346	-0.062	-0.045
-564.573	-0.305	-0.136	-0.097
-563.558	0.243	0.239	0.170
-562.544	208.307	-0.067	0.105
-561.529	178.089	0.134	0.196
-560.515	-0.908	0.249	0.176
-559.500	800.000	-0.027	-0.103
-558.485	-69.790	0.322	0.123
-557.471	212.004	-0.082	-0.129
-556.456	57.514	-0.228	-0.222
-555.442	75.046	0.212	-0.224
-554.427	-50.373	-0.222	0.105
-553.412	81.609	-0.206	0.223
-552.398	771.794	0.118	0.321
-551.383	-200.000	-0.032	0.255
-550.369	560.262	0.081	0.195
-549.354	-63.544	-0.098	-0.040
-548.339	-143.668	-0.409	-0.039
-547.325	202.690	-0.168	0.259
-546.310	-200.000	-0.039	0.169
-545.296	-178.945	-0.094	-0.002
-544.281	274.074	-0.048	-0.084
-543.266	-46.385	-0.181	-0.089
-542.252	293.081	0.055	-0.100
-541.237	653.972	0.047	-0.120
-540.223	214.862	0.159	-0.251
-539.208	-168.573	0.502	0.019
-538.193	679.340	0.101	-0.263
-537.179	-200.000	-0.044	-0.476
-536.164	-96.774	0.265	0.070
-535.150	-158.337	-0.133	-0.008
-534.135	-24.875	-0.127	-0.075
-533.121	141.916	0.066	-0.087
-532.106	-42.420	0.129	-0.065
-531.091	-59.599	-0.178	-0.076
-530.077	800.000	0.059	0.208
-529.062	108.136	-0.232	-0.276
-528.048	-41.281	-0.194	0.100
-527.033	-200.000	0.020	0.400
-526.018	525.475	0.171	-0.401
-525.004	-77.051	-0.203	0.071
-523.989	-200.000	-0.109	0.558
-522.975	-34.279	0.196	0.107
-521.960	-200.000	0.002	-0.364
-520.945	-75.966	0.346	-0.122
-519.931	33.155	-0.093	-0.081
-518.916	-168.116	-0.106	0.004
-517.902	-114.204	0.231	0.044
-516.887	-9.733	0.103	0.068
-515.872	267.544	-0.135	0.236
-514.858	165.570	0.142	0.201
-513.843	151.272	0.094	-0.128
-512.829	-100.293	-0.360	0.089
-511.814	-118.787	0.498	0.087
-510.799	-121.517	-0.248	-0.041
-509.785	-61.958	0.333	-0.139
-508.770	-57.380	0.400	-0.175
-507.756	-92.748	0.224	-0.063
-506.741	171.697	-0.159	-0.227
-505.726	-200.000	-0.033	0.317
-504.712	-41.179	0.318	0.164
-503.697	110.627	-0.070	0.084
-502.683	-42.176	0.298	-0.152
-501.668	-112.635	-0.082	-0.016
-500.653	49.561	0.192	-0.181
-499.639	241.517	-0.050	0.083
-498.624	-168.407	-0.162	0.006
-497.610	295.182	0.112	0.204
-496.595	-200.000	-0.056	0.293
-495.581	-200.000	0.034	0.153
-494.566	800.000	-0.023	0.067
-493.551	129.168	-0.124	-0.158
-492.537	407.399	0.104	-0.219
-491.522	-52.229	-0.099	-0.046
-490.508	93.543	-0.161	-0.182
-489.493	48.991	0.125	-0.117
-488.478	306.751	0.105	0.195
-487.464	800.000	0.034	-0.121
-486.449	-26.602	-0.242	0.141
-485.435	800.000	0.089	-0.246
-484.420	-140.184	-0.179	-0.019
-483.405	148.393	-0.012	-0.016
-482.391	-41.513	0.099	0.051
-481.376	800.000	0.071	0.285
-480.362	114.976	0.166	-0.202
-479.347	-200.000	0.039	0.177
-478.332	800.000	0.026	0.113
-477.318	794.451	0.083	-0.228
-476.303	222.266	0.285	-0.457
-475.289	-34.072	-0.248	0.136
-474.274	3.842	0.174	0.126
-473.259	271.533	-0.020	-0.035
-472.245	-141.963	-0.203	-0.020
-471.230	47.899	-0.370	-0.344
-470.216	94.448	0.188	-0.213
-469.201	330.289	0.098	-0.189
-468.186	373.653	-0.074	-0.150
-467.172	800.000	-0.101	-0.293
-466.157	-200.000	0.015	0.137
-465.143	-200.000	-0.049	0.239
-464.128	8.693	-0.083	0.062
-463.113	309.603	0.039	-0.072
-462.099	305.563	0.048	0.089
-461.084	444.467	-0.048	-0.105
-460.070	800.000	0.190	-0.576
-459.055	-76.175	-0.118	-0.041
-458.040	-73.173	0.280	0.102
-457.026	280.661	-0.037	0.067
-456.011	-6.585	-0.113	-0.077
-454.997	243.783	0.089	-0.148
-453.982	-188.958	-0.139	-0.002
-452.968	-56.597	-0.117	-0.052
-451.953	-88.270	-0.355	-0.106
-450.938	235.737	-0.040	0.066
-449.924	-131.253	-0.246	-0.033
-448.909	-131.821	0.189	-0.025
-447.895	-200.000	0.008	0.162
-446.880	49.012	-0.021	0.020
-445.865	800.000	-0.114	0.405
-444.851	496.317	0.148	0.338
-443.836	-129.885	-0.336	0.046
-442.822	-97.010	0.160	-0.042
-441.807	-200.000	0.025	-0.173
-440.792	210.879	-0.152	-0.237
-439.778	-90.201	0.341	0.099
-438.763	243.050	0.094	0.156
-437.749	-9.722	-0.229	0.152
-436.734	-44.742	0.117	0.058
-435.719	55.118	-0.389	0.374
-434.705	-90.216	-0.178	0.052
-433.690	15.720	-0.059	0.046
-432.676	34.405	-0.464	-0.402
-431.661	33.462	0.179	-0.154
-430.646	-200.000	-0.053	0.308
-429.632	182.349	-0.174	0.255
-428.617	-116.689	-0.289	-0.053
-427.603	159.267	-0.213	0.295
-426.588	-200.000	0.033	0.174
-425.573	-10.411	-0.105	-0.069
-424.559	-200.000	-0.005	0.094
-423.544	55.007	-0.336	0.322
-422.530	30.045	0.109	-0.093
-421.515	-90.866	-0.289	-0.083
-420.500	182.771	0.106	0.156
-419.486	11.260	0.300	-0.228
-418.471	-95.509	0.233	0.062
-417.457	30.968	0.064	-0.054
-416.442	5.753	-0.072	-0.053
-415.428	92.598	-0.262	-0.294
-414.413	524.548	-0.111	0.259
-413.398	-165.290	-0.315	0.014
-412.384	-61.411	0.026	-0.011
-411.369	-34.176	0.253	0.138
-410.355	79.076	-0.184	-0.196
-409.340	-200.000	0.060	-0.286
-408.325	59.304	-0.037	0.036
-407.311	800.000	-0.018	0.055
-406.296	108.547	0.265	-0.315
-405.282	-79.971	0.098	0.033
-404.267	-143.061	0.135	-0.013
-403.252	-28.034	-0.259	-0.149
-402.238	-200.000	-0.033	0.193
-401.223	336.108	-0.062	-0.119
-400.209	-200.000	-0.067	0.351
-399.194	86.006	-0.069	0.075
-398.179	-200.000	0.006	0.566
-397.165	-81.600	-0.288	-0.094
-396.150	-200.000	-0.016	-0.426
-395.136	-200.000	0.000	0.042
-394.121	-86.043	0.260	0.080
-393.106	222.760	0.145	-0.232
-392.092	-172.104	-0.101	0.003
-391.077	800.000	-0.051	-0.173
-390.063	800.000	0.055	0.230
-389.048	-68.096	0.339	0.131
-388.033	800.000	0.028	-0.086
-387.019	-47.087	-0.076	0.037
-386.004	-115.580	-0.147	-0.027
-384.990	9.160	-0.169	-0.126
-383.975	-200.000	0.003	-0.160
-382.960	-89.750	-0.311	-0.090
-381.946	-58.833	-0.237	-0.102
-380.931	-19.630	-0.206	0.126
-379.917	-32.155	0.102	0.056
-378.902	-108.901	-0.023	-0.005
-377.888	-35.602	0.029	0.016
-376.873	-169.760	-0.281	0.010
-375.858	297.995	0.042	0.076
-374.844	-161.336	0.250	0.013
-373.829	-35.012	0.052	-0.028
-372.815	-18.916	0.288	-0.178
-371.800	800.000	0.070	-0.305
-370.785	-83.373	0.537	0.171
-369.771	800.000	0.057	0.182
-368.756	62.404	0.194	-0.193
-367.742	-77.753	-0.232	-0.080
-366.727	-84.194	-0.052	-0.016
-365.712	-200.000	0.006	0.064
-364.698	520.218	-0.102	-0.238
-363.683	-24.498	-0.148	-0.087
-362.669	-200.000	0.045	0.251
-361.654	-15.710	0.208	-0.132
-360.639	402.133	-0.091	0.190
-359.625	-72.815	-0.151	-0.055
-358.610	-123.619	0.261	-0.041
-357.596	231.979	-0.148	0.240
-356.581	-200.000	0.022	0.108
-355.566	343.869	-0.061	0.119
-354.552	-101.740	0.199	0.048
-353.537	50.640	-0.084	-0.078
-352.523	150.407	0.056	0.075
-351.508	-77.797	0.239	0.082
-350.493	69.096	-0.039	0.040
-349.479	745.680	0.082	-0.219
-348.464	149.315	0.087	0.116
-347.450	-200.000	0.001	0.068
-346.435	-126.375	0.124	0.018
-345.420	-91.876	-0.291	0.082
-344.406	-60.858	-0.345	0.145
-343.391	-88.145	0.205	-0.061
-342.377	-58.274	0.354	0.152
-341.362	46.856	0.222	0.204
-340.348	-40.855	-0.169	-0.087
-339.333	-4.207	0.195	-0.133
-338.318	266.974	0.012	-0.021
-337.304	-93.897	-0.253	-0.069
-336.289	-82.047	-0.254	-0.082
-335.275	-97.393	0.170	0.044
-334.260	-200.000	-0.016	0.243
-333.245	12.663	0.038	0.029
-332.231	-200.000	-0.045	0.347
-331.216	-30.204	0.112	0.063
-330.202	293.651	0.018	0.033
-329.187	357.186	-0.124	0.245
-328.172	67.344	0.291	0.293
-327.158	800.000	0.052	-0.195
-326.143	-110.021	-0.127	-0.026
-325.129	228.769	0.120	-0.194
-324.114	-23.872	0.170	-0.101
-323.099	-18.762	-0.388	-0.239
-322.085	-37.240	-0.078	0.041
-321.070	386.045	-0.124	-0.254
-320.056	-66.595	-0.102	0.040
-319.041	800.000	0.015	0.046
-318.026	-62.027	0.226	0.093
-317.012	-55.900	0.092	-0.041
-315.997	-126.424	-0.255	-0.038
-314.983	-2.366	-0.295	0.204
-313.968	-200.000	-0.015	-0.230
-312.953	-133.597	-0.134	0.017
-311.939	-24.825	0.147	-0.087
-310.924	15.839	-0.192	0.150
-309.910	-200.000	-0.034	-0.170
-308.895	-62.664	-0.131	-0.054
-307.880	301.627	-0.207	-0.379
-306.866	247.714	0.115	-0.193
-305.851	-62.780	0.063	0.026
-304.837	110.906	0.074	-0.088
-303.822	-200.000	0.040	-0.212
-302.807	-91.927	0.376	0.105
-301.793	-18.911	-0.250	-0.154
-300.778	67.281	0.315	-0.318
-299.764	110.725	-0.069	0.082
-298.749	-120.154	-0.130	-0.022
-297.735	-200.000	-0.029	0.163
-296.720	-157.143	-0.033	-0.002
-295.705	-200.000	0.006	-0.365
-294.691	-154.627	0.415	-0.027
-293.676	203.345	-0.228	0.348
-292.662	-200.000	-0.023	0.248
-291.647	-142.012	-0.140	-0.014
-290.632	-87.381	-0.105	-0.031
-289.618	67.622	-0.136	0.138
-288.603	-34.376	0.169	-0.091
-287.589	-119.259	0.342	0.059
-286.574	661.658	0.028	0.071
-285.559	100.747	0.101	0.117
-284.545	-128.143	0.220	-0.031
-283.530	-52.926	0.108	-0.049
-282.516	800.000	-0.125	-0.463
-281.501	-200.000	-0.055	-0.308
-280.486	800.000	-0.012	0.043
-279.472	-29.164	0.119	-0.067
-278.457	288.741	-0.215	-0.385
-277.443	183.150	0.065	-0.095
-276.428	-162.292	0.269	-0.013
-275.413	10.006	-0.243	-0.183
-274.399	-200.000	0.034	0.188
-273.384	-18.374	-0.074	0.046
-272.370	638.227	0.154	0.386
-271.355	-58.033	-0.068	0.029
-270.340	764.124	0.051	0.137
-269.326	-200.000	0.006	0.099
-268.311	-200.000	0.379	-0.001
-267.297	-200.000	0.054	0.354
-266.282	82.232	0.059	0.063
-265.267	-114.810	-0.150	-0.028
-264.253	800.000	0.077	-0.251
-263.238	800.000	-0.037	-0.120
-262.224	-200.000	0.002	-0.050
-261.209	10.122	0.193	-0.144
-260.195	-200.000	-0.081	-0.429
-259.180	-85.411	-0.144	0.044
-258.165	-200.000	-0.014	0.251
-257.151	177.833	0.225	-0.324
-256.136	-12.875	-0.035	-0.022
-255.122	-112.343	-0.109	-0.022
-254.107	142.597	0.102	0.133
-253.092	350.919	0.019	-0.037
-252.078	800.000	-0.067	-0.231
-251.063	17.969	-0.148	0.116
-250.049	800.000	-0.041	-0.143
-249.034	-13.913	-0.150	-0.096
-248.019	-200.000	-0.012	0.070
-247.005	108.468	0.118	-0.139
-245.990	217.593	0.127	0.200
-244.976	-200.000	-0.146	-0.000
-243.961	-137.786	-0.222	0.025
-242.946	-60.497	-0.034	0.014
-241.932	41.471	-0.211	0.188
-240.917	2.070	0.209	0.149
-239.903	49.740	-0.046	-0.043
-238.888	-160.815	-0.040	-0.002
-237.873	548.566	-0.049	-0.115
-236.859	31.663	-0.069	0.058
-235.844	87.636	-0.174	0.191
-234.830	300.326	0.199	-0.363
-233.815	-39.749	0.193	-0.099
-232.800	-194.265	0.282	-0.002
-231.786	800.000	-0.085	0.317
-230.771	-13.477	0.272	-0.174
-229.757	-132.801	0.259	0.033
-228.742	-93.574	0.256	0.070
-227.727	-84.210	-0.295	0.092
-226.713	-78.908	-0.179	-0.060
-225.698	-200.000	0.004	0.160
-224.684	-200.000	-0.030	-0.270
-223.669	68.614	0.136	-0.137
-222.655	129.823	0.291	0.367
-221.640	-53.368	0.265	0.119
-220.625	123.374	0.018	-0.022
-219.611	67.614	-0.142	0.143
-218.596	-200.000	0.011	-0.090
-217.582	-60.120	-0.194	0.081
-216.567	-200.000	0.007	0.067
-215.552	578.741	0.036	0.088
-214.538	-46.662	-0.157	-0.076
-213.523	-146.816	0.376	0.032
-212.509	-85.339	-0.190	-0.058
-211.494	-197.024	0.074	-0.000
-210.479	-200.000	-0.053	-0.412
-209.465	-88.090	-0.251	0.074
-208.450	83.577	-0.140	0.150
-207.436	-84.301	-0.272	0.085
-206.421	154.916	-0.092	-0.125
-205.406	-200.000	0.016	-0.316
-204.392	-85.029	-0.380	-0.117
-203.377	-180.365	-0.215	0.004
-202.363	182.877	-0.068	-0.099
-201.348	-45.397	0.080	-0.039
-200.333	-200.000	0.062	0.334
-199.319	-114.461	0.567	0.107
-198.304	566.233	-0.062	-0.149
-197.290	394.939	-0.094	-0.193
-196.275	45.779	-0.291	-0.265
-195.260	-65.721	0.197	0.078
-194.246	800.000	-0.148	0.451
-193.231	-164.047	0.249	0.011
-192.217	82.064	0.225	-0.240
-191.202	148.664	-0.181	-0.241
-190.187	-200.000	0.009	-0.325
-189.173	-200.000	-0.068	0.304
-188.158	-200.000	-0.066	0.305
-187.144	-22.976	-0.104	-0.062
-186.129	776.387	-0.024	0.064
-185.114	-131.722	0.349	0.045
-184.100	-64.086	0.247	-0.099
-183.085	-92.168	-0.239	-0.066
-182.071	-159.458	0.394	0.022
-181.056	94.242	-0.198	0.221
-180.042	-200.000	-0.014	0.306
-179.027	180.082	-0.169	-0.244
-178.012	198.430	-0.198	0.298
-176.998	-92.539	-0.339	0.094
-175.983	590.350	0.055	-0.134
-174.969	-86.091	-0.053	0.016
-173.954	-173.222	0.201	0.006
-172.939	-59.170	-0.204	0.086
-171.925	308.479	0.050	0.091
-170.910	163.982	0.146	-0.202
-169.896	-53.645	0.176	-0.079
-168.881	-2.282	-0.160	-0.111
-167.866	-81.948	0.460	-0.148
-166.852	351.769	-0.134	0.260
-165.837	-93.003	-0.043	-0.012
-164.823	28.228	-0.065	0.054
-163.808	-200.000	0.020	0.091
-162.793	90.807	0.212	0.233
-161.779	-85.431	0.334	-0.102
-160.764	-4.676	0.163	0.111
-159.750	-1.805	0.249	0.172
-158.735	188.673	0.101	-0.149
-157.720	96.991	0.226	0.255
-156.706	129.352	0.066	0.083
-155.691	-200.000	0.077	-0.378
-154.677	112.329	-0.151	0.180
-153.662	114.112	0.114	-0.137
-152.647	-200.000	-0.048	0.218
-151.633	-58.453	-0.153	-0.065
-150.618	312.345	0.209	-0.386
-149.604	-152.123	-0.245	0.017
-148.589	-200.000	0.005	-0.139
-147.574	134.310	-0.216	-0.275
-146.560	-80.330	-0.201	0.066
-145.545	-34.696	-0.250	-0.135
-144.531	34.362	-0.177	0.151
-143.516	-200.000	-0.032	-0.214
-142.502	-200.000	0.080	-0.486
-141.487	-171.870	0.269	-0.009
-140.472	-41.612	-0.120	-0.061
-139.458	105.432	-0.113	0.132
-138.443	-12.992	-0.270	0.173
-137.429	215.537	0.167	-0.260
-136.414	-17.556	0.081	-0.050
-135.399	567.061	0.051	0.122
-134.385	92.175	-0.078	-0.086
-133.370	279.406	0.084	0.147
-132.356	-200.000	0.025	-0.169
-131.341	-87.512	0.195	-0.058
-130.326	197.567	-0.204	-0.306
-129.312	119.683	-0.145	-0.177
-128.297	-30.218	-0.226	-0.126
-127.283	138.876	0.035	0.045
-126.268	-200.000	-0.030	0.190
-125.253	175.453	-0.303	0.432
-124.239	13.132	-0.182	0.138
-123.224	-108.400	0.223	0.047
-122.210	-90.091	0.292	0.084
