DTS Sentinel unit serial number:	SN413079Multiplexer serial number:	ORYXHardware model number:	OX4-SRSoftware version number:	ORYX F/W v4.00 Oryx Data Collector v3.7.2.0data status	okinstallation	princeton_trtdifferential loss correction	single-endedforward channel	channel 2reverse channel	N/Adate	2019/09/17time	01:47:35forward acquisition time	60.00reverse acquisition time	0.00gamma	496.2192k internal	0.2328k external	0.2328temperature offset calibration	0.9975default loss term (dB/km)	0.3790temperature slope calibration	1.0000multiplexer offset coefficient	1.0000multiplexer slope coefficient	1.0000fibre end	0.00T internal ref (°C)	29.62T ext. ref 1 (°C)	0.12T ext. ref 2 (°C)	24.57length (m)	temperature (°C)	Stokes	anti-Stokes-747.200	549.265	0.057	-0.139
-746.185	-17.018	-0.201	-0.128
-745.171	-200.000	0.002	-0.028
-744.156	-69.373	-0.258	-0.100
-743.142	45.662	0.243	-0.226
-742.127	-76.018	0.084	0.030
-741.112	-27.180	-0.258	-0.151
-740.098	-75.378	-0.231	0.083
-739.083	1.995	-0.078	-0.057
-738.069	-113.599	-0.244	-0.048
-737.054	34.776	-0.258	0.227
-736.039	123.484	0.188	0.238
-735.025	38.629	0.127	0.114
-734.010	72.277	-0.249	-0.261
-732.996	-63.497	0.384	-0.159
-731.981	-200.000	0.020	-0.330
-730.966	188.361	-0.185	-0.279
-729.952	58.710	0.387	-0.382
-728.937	-94.712	-0.297	0.081
-727.923	183.715	-0.214	-0.319
-726.908	-28.653	0.307	0.178
-725.894	-200.000	-0.008	-0.222
-724.879	-79.084	-0.492	-0.168
-723.864	0.924	0.190	-0.137
-722.850	-75.905	0.092	0.033
-721.835	-200.000	-0.023	0.356
-720.821	-89.333	-0.301	-0.089
-719.806	458.842	0.203	0.454
-718.791	-128.031	-0.156	-0.023
-717.777	-24.051	0.135	-0.081
-716.762	-82.535	0.170	-0.055
-715.748	-94.201	-0.296	0.082
-714.733	-200.000	-0.007	-0.175
-713.718	657.613	0.114	-0.296
-712.704	-200.000	0.155	0.000
-711.689	-78.342	0.056	-0.019
-710.675	73.720	-0.118	-0.125
-709.660	800.000	0.006	-0.025
-708.645	12.171	0.037	-0.029
-707.631	59.075	-0.192	0.190
-706.616	22.222	0.311	0.255
-705.602	131.081	-0.075	0.097
-704.587	-84.598	0.187	0.059
-703.572	-74.622	0.167	0.060
-702.558	55.425	0.162	-0.158
-701.543	97.948	-0.246	0.285
-700.529	800.000	0.089	0.251
-699.514	-200.000	-0.038	0.175
-698.499	-200.000	-0.005	0.191
-697.485	64.709	0.336	-0.340
-696.470	800.000	0.056	0.165
-695.456	643.014	-0.062	0.159
-694.441	168.264	0.150	0.215
-693.426	-132.494	0.258	-0.033
-692.412	-4.125	0.247	0.172
-691.397	-98.360	0.228	0.059
-690.383	800.000	-0.067	0.257
-689.368	800.000	0.045	0.199
-688.354	108.370	-0.193	-0.231
-687.339	76.275	0.076	-0.080
-686.324	146.291	0.085	-0.115
-685.310	800.000	0.075	-0.254
-684.295	800.000	-0.096	0.336
-683.281	-200.000	0.006	0.339
-682.266	49.731	0.098	-0.093
-681.251	-128.357	-0.291	-0.042
-680.237	-112.656	0.151	-0.030
-679.222	-200.000	-0.022	0.183
-678.208	-200.000	-0.005	-0.483
-677.193	184.311	-0.147	-0.220
-676.178	800.000	-0.044	-0.125
-675.164	234.351	-0.062	-0.103
-674.149	-200.000	0.049	0.224
-673.135	-163.972	0.173	0.008
-672.120	-22.300	0.300	0.183
-671.105	-200.000	-0.042	0.232
-670.091	-171.567	-0.429	-0.014
-669.076	-200.000	0.041	0.204
-668.062	221.190	0.234	-0.378
-667.047	-200.000	0.027	0.151
-666.032	-95.450	-0.072	0.019
-665.018	800.000	-0.117	-0.366
-664.003	759.798	0.045	-0.123
-662.989	145.710	-0.084	-0.113
-661.974	89.181	0.169	0.189
-660.959	8.250	0.230	-0.174
-659.945	196.251	-0.049	-0.076
-658.930	-38.020	-0.444	-0.237
-657.916	68.404	-0.241	-0.248
-656.901	-75.055	0.060	-0.022
-655.886	47.429	0.177	0.165
-654.872	458.566	0.122	0.271
-653.857	-106.420	0.174	0.039
-652.843	-200.000	0.035	-0.387
-651.828	-200.000	0.072	-0.421
-650.814	378.894	-0.076	-0.155
-649.799	-118.165	-0.265	-0.047
-648.784	-55.643	0.152	0.068
-647.770	-110.581	0.294	0.061
-646.755	-171.732	-0.205	0.007
-645.741	-133.197	-0.211	-0.027
-644.726	95.410	-0.042	0.048
-643.711	49.941	-0.053	0.050
-642.697	-38.102	-0.075	-0.040
-641.682	800.000	-0.048	0.179
-640.668	-115.236	0.406	-0.077
-639.653	-200.000	-0.001	0.016
-638.638	7.169	-0.276	0.207
-637.624	-90.365	-0.256	0.075
-636.609	633.146	0.020	-0.052
-635.595	-200.000	0.019	0.194
-634.580	33.900	-0.172	0.150
-633.565	139.140	-0.063	0.083
-632.551	108.191	-0.127	-0.152
-631.536	-38.701	0.109	-0.058
-630.522	149.097	-0.167	0.227
-629.507	42.506	0.251	-0.229
-628.492	-53.478	-0.078	-0.036
-627.478	800.000	0.110	0.307
-626.463	-200.000	0.008	0.148
-625.449	-121.851	-0.320	0.053
-624.434	-200.000	0.016	-0.092
-623.419	800.000	-0.065	-0.249
-622.405	-143.461	-0.228	-0.022
-621.390	334.844	-0.037	-0.071
-620.376	-125.091	-0.156	-0.024
-619.361	-57.157	-0.214	0.094
-618.346	159.539	-0.158	0.220
-617.332	-143.806	0.181	0.017
-616.317	-21.630	0.370	-0.226
-615.303	220.711	0.095	0.153
-614.288	11.674	-0.174	-0.134
-613.273	347.490	-0.025	-0.049
-612.259	-145.170	0.444	-0.040
-611.244	-97.544	0.255	0.066
-610.230	91.217	0.179	-0.201
-609.215	-94.580	-0.256	0.070
-608.201	-196.782	0.254	-0.002
-607.186	-84.066	-0.085	-0.027
-606.171	800.000	0.027	-0.112
-605.157	-135.210	-0.132	-0.016
-604.142	800.000	-0.037	-0.107
-603.128	71.892	-0.114	-0.119
-602.113	-180.270	0.151	-0.003
-601.098	-105.761	-0.290	0.066
-600.084	-200.000	-0.053	-0.296
-599.069	-101.348	-0.250	0.061
-598.055	-8.211	0.401	-0.271
-597.040	388.615	-0.139	0.288
-596.025	-59.476	0.190	-0.082
-595.011	785.804	-0.040	-0.111
-593.996	-7.832	0.325	-0.220
-592.982	-200.000	0.050	0.387
-591.967	311.187	-0.042	-0.079
-590.952	125.824	-0.176	0.222
-589.938	209.001	-0.157	-0.246
-588.923	-101.074	0.374	-0.092
-587.909	-200.000	0.041	0.211
-586.894	11.575	0.093	-0.072
-585.879	-200.000	-0.015	-0.141
-584.865	-103.568	0.281	-0.066
-583.850	249.129	0.053	-0.090
-582.836	-200.000	0.025	0.128
-581.821	-200.000	0.030	0.258
-580.806	0.182	-0.148	-0.105
-579.792	61.845	0.223	-0.222
-578.777	20.345	-0.176	-0.143
-577.763	170.819	-0.399	-0.572
-576.748	-87.871	-0.194	-0.058
-575.733	-200.000	-0.062	0.421
-574.719	325.233	0.033	-0.063
-573.704	-200.000	-0.021	-0.161
-572.690	-151.639	-0.050	0.004
-571.675	-109.097	0.292	0.062
-570.661	-114.604	-0.350	-0.067
-569.646	800.000	0.107	-0.347
-568.631	-133.412	0.081	0.010
-567.617	-175.027	-0.331	-0.009
-566.602	88.327	0.251	-0.279
-565.588	-132.039	-0.404	0.053
-564.573	276.486	0.025	0.044
-563.558	17.379	0.195	0.155
-562.544	387.180	0.178	0.368
-561.529	-97.750	0.473	-0.123
-560.515	-121.701	0.105	0.017
-559.500	198.526	0.045	-0.068
-558.485	-33.619	-0.093	0.052
-557.471	-108.164	-0.256	-0.056
-556.456	-143.035	-0.496	-0.048
-555.442	-146.080	-0.199	0.018
-554.427	-99.597	-0.137	-0.034
-553.412	405.601	0.053	0.111
-552.398	-66.292	-0.351	0.140
-551.383	6.048	-0.307	0.228
-550.369	53.013	0.121	-0.115
-549.354	-191.720	-0.280	0.003
-548.339	689.731	-0.017	-0.045
-547.325	-200.000	0.004	-0.076
-546.310	800.000	0.030	-0.091
-545.296	291.390	0.093	-0.169
-544.281	232.886	0.043	-0.070
-543.266	-36.592	0.077	-0.042
-542.252	-92.836	0.263	0.073
-541.237	-120.279	0.588	-0.100
-540.223	590.807	-0.125	-0.309
-539.208	26.949	-0.107	-0.089
-538.193	-124.239	-0.215	0.034
-537.179	-177.931	-0.418	-0.010
-536.164	21.432	0.025	-0.020
-535.150	-200.000	0.025	0.259
-534.135	-43.278	-0.246	-0.125
-533.121	43.065	-0.049	0.044
-532.106	-145.953	-0.061	-0.005
-531.091	-63.897	-0.008	-0.003
-530.077	-200.000	-0.044	-0.409
-529.062	800.000	-0.048	-0.156
-528.048	-200.000	0.000	-0.067
-527.033	-39.578	0.303	-0.158
-526.018	106.574	0.038	-0.045
-525.004	-200.000	-0.037	0.348
-523.989	-116.389	0.110	-0.020
-522.975	715.630	-0.061	0.163
-521.960	-129.635	0.134	-0.018
-520.945	-49.923	0.043	0.020
-519.931	-101.908	-0.183	-0.044
-518.916	-200.000	-0.007	-0.222
-517.902	782.677	0.064	0.176
-516.887	-200.000	-0.087	0.396
-515.872	481.189	-0.025	0.057
-514.858	-82.827	-0.151	-0.049
-513.843	-50.526	0.263	0.124
-512.829	704.707	0.070	-0.183
-511.814	800.000	0.046	-0.173
-510.799	143.124	0.149	0.198
-509.785	429.146	0.209	0.452
-508.770	-200.000	0.007	-0.139
-507.756	-42.350	-0.394	0.201
-506.741	9.702	-0.106	-0.080
-505.726	-93.186	-0.074	-0.021
-504.712	-200.000	0.015	-0.279
-503.697	307.123	0.088	0.163
-502.683	233.637	-0.135	-0.222
-501.668	-200.000	0.007	-0.109
-500.653	-159.136	0.298	-0.017
-499.639	-200.000	0.001	0.195
-498.624	64.305	-0.111	-0.112
-497.610	-105.237	0.284	0.065
-496.595	-200.000	0.018	0.089
-495.581	-200.000	0.020	0.280
-494.566	120.406	-0.234	-0.290
-493.551	-200.000	0.012	-0.107
-492.537	-200.000	-0.001	0.296
-491.522	-49.902	0.145	0.069
-490.508	-138.214	0.124	0.014
-489.493	-11.249	-0.293	-0.193
-488.478	175.312	0.044	-0.064
-487.464	-123.802	-0.306	-0.048
-486.449	-200.000	0.001	-0.292
-485.435	-88.534	0.317	0.094
-484.420	21.005	0.117	-0.095
-483.405	-200.000	-0.009	-0.046
-482.391	437.874	-0.173	-0.377
-481.376	-200.000	-0.019	-0.134
-480.362	800.000	0.079	-0.240
-479.347	-160.695	0.250	-0.013
-478.332	256.624	0.143	-0.244
-477.318	-200.000	-0.012	0.202
-476.303	587.122	0.105	-0.258
-475.289	800.000	-0.068	-0.287
-474.274	-64.607	-0.199	-0.080
-473.259	-200.000	0.014	-0.133
-472.245	-143.041	0.158	0.015
-471.230	-71.933	-0.143	0.053
-470.216	365.288	-0.122	0.246
-469.201	-84.256	0.187	-0.059
-468.186	-189.091	-0.141	-0.002
-467.172	800.000	-0.018	-0.071
-466.157	16.878	-0.058	0.045
-465.143	-28.167	-0.263	0.151
-464.128	-15.026	-0.124	-0.079
-463.113	-10.595	-0.140	-0.092
-462.099	105.629	0.165	-0.194
-461.084	-200.000	-0.016	-0.132
-460.070	800.000	0.011	-0.042
-459.055	3.913	0.328	0.239
-458.040	467.255	0.040	0.089
-457.026	-116.306	-0.382	-0.070
-456.011	14.552	-0.295	0.230
-454.997	-9.711	-0.138	0.092
-453.982	21.461	-0.127	-0.103
-452.968	-46.998	0.135	-0.066
-451.953	-77.380	-0.425	0.147
-450.938	-48.302	-0.261	0.125
-449.924	606.594	-0.090	0.224
-448.909	-200.000	-0.004	-0.166
-447.895	46.367	-0.082	-0.076
-446.880	-193.374	-0.405	0.004
-445.865	196.042	0.185	-0.280
-444.851	-59.141	-0.022	0.010
-443.836	1.445	-0.154	0.110
-442.822	392.903	0.066	-0.137
-441.807	-149.454	0.322	0.025
-440.792	-8.611	-0.256	0.171
-439.778	-200.000	-0.045	0.309
-438.763	26.763	-0.141	-0.117
-437.749	-34.081	-0.139	-0.076
-436.734	-154.789	0.055	-0.004
-435.719	-93.142	-0.276	0.076
-434.705	800.000	-0.038	-0.166
-433.690	-118.749	-0.328	-0.058
-432.676	-80.652	-0.177	0.059
-431.661	-200.000	0.051	-0.271
-430.646	-147.408	-0.026	0.002
-429.632	-88.861	-0.280	-0.083
-428.617	-72.830	-0.239	-0.088
-427.603	70.463	-0.159	0.164
-426.588	299.805	0.205	0.376
-425.573	148.502	-0.122	0.165
-424.559	-79.370	-0.129	-0.043
-423.544	-108.253	0.345	-0.074
-422.530	800.000	-0.083	0.247
-421.515	-132.910	-0.359	0.045
-420.500	27.716	-0.359	-0.301
-419.486	630.981	-0.076	-0.193
-418.471	-136.771	0.218	0.025
-417.457	63.581	-0.099	0.099
-416.442	-5.496	0.042	0.029
-415.428	117.624	-0.068	0.083
-414.413	-200.000	0.011	0.306
-413.398	-190.254	-0.104	0.001
-412.384	-108.199	0.178	-0.038
-411.369	-97.283	-0.217	-0.056
-410.355	-200.000	0.005	-0.117
-409.340	-87.358	-0.234	0.071
-408.325	-52.354	0.283	0.130
-407.311	800.000	-0.060	0.180
-406.296	-200.000	-0.004	-0.386
-405.282	-200.000	-0.045	0.200
-404.267	800.000	0.105	-0.409
-403.252	-23.219	-0.244	0.146
-402.238	145.862	-0.132	-0.175
-401.223	-87.792	0.286	-0.086
-400.209	-12.391	-0.140	0.091
-399.194	-24.709	0.055	-0.032
-398.179	293.910	-0.153	0.277
-397.165	800.000	0.095	0.261
-396.150	-106.113	0.188	0.042
-395.136	-95.818	0.204	0.054
-394.121	-150.397	0.041	-0.003
-393.106	-134.139	-0.387	-0.048
-392.092	11.503	-0.125	-0.095
-391.077	359.246	-0.175	0.347
-390.063	-51.115	0.239	0.111
-389.048	101.012	0.103	-0.119
-388.033	800.000	0.097	0.280
-387.019	-200.000	0.007	-0.038
-386.004	308.464	-0.053	-0.099
-384.990	-54.474	0.138	-0.062
-383.975	359.524	-0.093	-0.185
-382.960	-108.722	0.051	0.011
-381.946	-138.133	0.224	-0.025
-380.931	90.860	0.049	0.054
-379.917	-200.000	0.004	0.063
-378.902	-54.443	0.054	0.024
-377.888	-65.490	0.138	0.055
-376.873	-200.000	0.032	-0.206
-375.858	285.528	0.052	-0.093
-374.844	800.000	0.021	-0.064
-373.829	139.476	0.022	0.029
-372.815	180.385	-0.099	-0.144
-371.800	-127.307	0.199	0.029
-370.785	-200.000	0.027	0.628
-369.771	114.325	0.157	0.190
-368.756	-111.811	-0.252	-0.051
-367.742	800.000	0.027	0.086
-366.727	21.658	-0.156	-0.126
-365.712	-17.184	-0.328	-0.205
-364.698	-33.645	-0.033	-0.018
-363.683	-200.000	-0.024	0.205
-362.669	800.000	0.095	0.406
-361.654	-7.514	0.172	-0.115
-360.639	138.444	0.179	0.234
-359.625	184.381	-0.086	-0.127
-358.610	-200.000	0.013	-0.135
-357.596	225.870	0.086	0.139
-356.581	540.010	-0.109	-0.257
-355.566	-98.082	-0.089	0.023
-354.552	800.000	0.076	-0.259
-353.537	-200.000	0.019	0.216
-352.523	-23.696	0.095	0.057
-351.508	-146.919	-0.125	0.011
-350.493	800.000	0.028	-0.100
-349.479	-145.591	-0.329	-0.029
-348.464	76.353	0.155	0.163
-347.450	10.220	-0.359	-0.271
-346.435	-14.315	-0.302	-0.193
-345.420	156.406	0.086	0.117
-344.406	260.606	0.158	-0.271
-343.391	125.852	0.303	-0.380
-342.377	-44.559	0.179	0.089
-341.362	237.784	0.215	0.354
-340.348	-41.289	0.244	0.125
-339.333	256.285	0.044	-0.075
-338.318	36.547	-0.071	-0.062
-337.304	-5.433	-0.198	0.135
-336.289	-200.000	0.000	0.054
-335.275	-8.110	0.189	0.126
-334.260	-7.113	-0.134	-0.090
-333.245	87.158	-0.110	-0.121
-332.231	390.372	0.075	-0.154
-331.216	-17.499	0.221	-0.138
-330.202	800.000	-0.147	0.466
-329.187	207.912	0.202	0.312
-328.172	-48.054	-0.210	-0.100
-327.158	87.291	-0.241	-0.264
-326.143	800.000	0.111	-0.377
-325.129	268.248	0.129	0.224
-324.114	405.890	-0.042	-0.089
-323.099	-144.615	-0.032	0.003
-322.085	31.532	0.315	0.269
-321.070	185.717	-0.078	-0.114
-320.056	4.327	-0.095	0.069
-319.041	-23.406	-0.119	0.071
-318.026	257.659	0.184	0.314
-317.012	207.800	-0.010	0.015
-315.997	-130.024	0.133	-0.018
-314.983	15.334	0.196	-0.152
-313.968	-151.069	0.168	-0.013
-312.953	-32.414	-0.224	-0.124
-311.939	226.525	-0.212	0.342
-310.924	-59.859	0.208	0.088
-309.910	249.955	-0.041	-0.069
-308.895	1.517	0.070	0.050
-307.880	-16.105	-0.076	0.048
-306.866	-34.082	0.328	0.179
-305.851	800.000	-0.118	0.437
-304.837	-200.000	0.070	0.373
-303.822	245.415	0.082	-0.136
-302.807	-68.561	0.186	0.071
-301.793	-164.520	-0.335	0.015
-300.778	60.203	-0.326	-0.319
-299.764	103.871	0.319	0.371
-298.749	6.237	-0.149	-0.109
-297.735	-87.335	0.155	-0.046
-296.720	-110.728	0.352	0.072
-295.705	-200.000	-0.006	0.037
-294.691	-200.000	-0.034	-0.411
-293.676	-66.471	0.067	0.026
-292.662	177.757	0.050	-0.072
-291.647	229.926	0.133	-0.215
-290.632	-182.857	-0.389	0.007
-289.618	8.486	-0.185	0.138
-288.603	176.740	-0.082	-0.117
-287.589	200.156	0.271	0.412
-286.574	-90.201	-0.026	0.007
-285.559	800.000	-0.086	-0.275
-284.545	-75.299	0.297	-0.105
-283.530	-124.632	-0.189	-0.029
-282.516	-174.943	0.320	0.009
-281.501	800.000	0.131	0.437
-280.486	-200.000	-0.008	0.147
-279.472	371.179	-0.127	-0.256
-278.457	32.735	-0.048	-0.041
-277.443	21.332	0.247	-0.198
-276.428	232.890	0.209	-0.341
-275.413	137.021	-0.071	0.092
-274.399	104.248	-0.067	-0.078
-273.384	800.000	-0.081	0.222
-272.370	582.611	-0.022	0.052
-271.355	83.290	0.088	-0.095
-270.340	-85.866	-0.121	-0.037
-269.326	-124.847	-0.058	-0.009
-268.311	-21.627	0.146	0.088
-267.297	269.381	0.129	0.224
-266.282	-200.000	0.009	0.049
-265.267	40.602	-0.128	0.114
-264.253	-27.582	0.129	-0.074
-263.238	-99.890	0.234	-0.058
-262.224	250.286	0.026	-0.044
-261.209	149.451	0.083	-0.111
-260.195	-156.666	0.419	0.026
-259.180	152.341	0.291	0.392
-258.165	-200.000	-0.004	0.130
-257.151	-151.833	-0.038	0.003
-256.136	-50.735	0.153	-0.071
-255.122	-14.719	0.252	-0.160
-254.107	-166.643	-0.219	0.009
-253.092	-177.907	-0.324	0.008
-252.078	-200.000	-0.020	0.248
-251.063	-200.000	-0.010	-0.096
-250.049	45.106	0.144	-0.132
-249.034	-36.343	0.214	-0.114
-248.019	478.109	0.117	0.261
-247.005	-200.000	0.024	-0.200
-245.990	70.932	-0.195	0.199
-244.976	-200.000	0.025	-0.212
-243.961	487.182	0.094	0.212
-242.946	509.118	0.178	-0.409
-241.932	800.000	0.018	0.067
-240.917	9.331	-0.359	-0.268
-239.903	-28.944	-0.262	0.148
-238.888	32.777	-0.234	0.200
-237.873	256.340	0.056	-0.094
-236.859	-2.632	0.255	0.177
-235.844	800.000	0.066	-0.189
-234.830	-158.428	-0.134	0.008
-233.815	-52.600	0.330	0.150
-232.800	132.978	-0.227	0.289
-231.786	800.000	0.037	-0.115
-230.771	800.000	0.066	0.240
-229.757	156.857	0.110	-0.150
-228.742	-169.879	0.158	0.006
-227.727	504.128	-0.062	-0.141
-226.713	-46.876	-0.109	0.052
-225.698	800.000	0.025	-0.071
-224.684	-200.000	0.009	-0.078
-223.669	749.950	0.095	-0.253
-222.655	800.000	0.120	0.380
-221.640	340.626	0.111	-0.213
-220.625	-200.000	0.013	-0.144
-219.611	70.189	-0.111	-0.113
-218.596	-200.000	0.005	0.105
-217.582	-84.045	-0.243	-0.076
-216.567	800.000	0.055	0.210
-215.552	105.983	-0.098	0.114
-214.538	225.322	0.128	-0.205
-213.523	278.305	0.174	-0.306
-212.509	-80.758	0.140	-0.046
-211.494	10.653	-0.127	0.096
-210.479	-16.067	-0.198	0.124
-209.465	-6.933	0.216	-0.145
-208.450	-96.746	-0.158	-0.041
-207.436	-200.000	-0.061	-0.332
-206.421	116.038	0.173	-0.208
-205.406	370.882	-0.064	0.129
-204.392	607.564	0.012	-0.029
-203.377	92.032	-0.079	0.088
-202.363	-13.301	-0.231	0.148
-201.348	800.000	-0.054	0.193
-200.333	46.495	0.089	0.081
-199.319	-129.405	0.358	-0.049
-198.304	122.304	0.053	0.065
-197.290	32.737	0.063	0.054
-196.275	68.998	-0.223	0.226
-195.260	-200.000	-0.003	0.235
-194.246	51.127	0.069	-0.065
-193.231	-73.098	-0.282	0.102
-192.217	-200.000	-0.040	-0.173
-191.202	83.355	0.088	-0.095
-190.187	304.306	0.146	-0.268
-189.173	159.742	0.199	-0.273
-188.158	176.944	0.176	-0.252
-187.144	217.546	-0.084	-0.133
-186.129	-154.491	0.143	0.009
-185.114	-200.000	-0.019	0.186
-184.100	-54.948	-0.171	-0.076
-183.085	-13.484	-0.099	0.063
-182.071	-200.000	0.014	-0.138
-181.056	-41.287	-0.136	-0.069
-180.042	-103.850	0.320	0.074
-179.027	793.250	0.095	0.257
-178.012	-200.000	-0.026	-0.176
-176.998	76.481	0.175	0.183
-175.983	24.661	0.242	0.198
-174.969	-200.000	-0.040	0.299
-173.954	800.000	-0.053	0.168
-172.939	15.146	0.203	0.157
-171.925	723.978	-0.092	0.241
-170.910	-200.000	-0.007	0.248
-169.896	161.848	0.138	0.191
-168.881	-10.122	0.389	-0.254
-167.866	-200.000	0.056	0.258
-166.852	97.122	0.154	-0.174
-165.837	138.807	-0.187	0.242
-164.823	-18.359	0.299	-0.184
-163.808	-87.591	-0.276	0.082
-162.793	-200.000	-0.023	-0.227
-161.779	-127.095	0.310	0.045
-160.764	-130.100	-0.266	-0.036
-159.750	800.000	-0.085	0.267
-158.735	-7.717	0.399	0.266
-157.720	-68.651	0.175	-0.067
-156.706	223.112	-0.046	-0.073
-155.691	-200.000	0.024	0.184
-154.677	-148.855	-0.247	0.020
-153.662	-46.073	0.327	-0.159
-152.647	209.073	0.190	-0.293
-151.633	17.745	0.224	-0.175
-150.618	-200.000	0.006	-0.179
-149.604	663.269	-0.117	-0.296
-148.589	800.000	0.029	0.107
-147.574	220.351	0.081	-0.128
-146.560	54.931	0.218	-0.207
-145.545	-200.000	0.019	0.162
-144.531	-162.080	0.125	0.006
-143.516	213.845	-0.166	-0.258
-142.502	-200.000	0.039	0.453
-141.487	-135.678	-0.190	0.022
-140.472	-200.000	-0.011	0.191
-139.458	100.161	-0.112	-0.128
-138.443	800.000	-0.076	-0.274
-137.429	-52.740	0.133	-0.060
-136.414	-200.000	0.017	0.150
-135.399	-200.000	-0.035	0.417
-134.385	800.000	0.081	0.319
-133.370	-200.000	0.001	0.053
-132.356	446.587	0.099	-0.214
-131.341	800.000	-0.087	-0.373
-130.326	-127.993	0.171	-0.024
-129.312	-62.567	0.235	0.096
-128.297	168.793	-0.137	0.192
-127.283	755.721	-0.081	0.216
-126.268	106.082	0.156	0.182
-125.253	-76.542	0.364	0.126
-124.239	14.281	-0.293	-0.224
-123.224	-200.000	-0.058	-0.316
-122.210	-106.579	0.261	-0.057
