DTS Sentinel unit serial number:	SN413079Multiplexer serial number:	ORYXHardware model number:	OX4-SRSoftware version number:	ORYX F/W v4.00 Oryx Data Collector v3.7.2.0data status	okinstallation	princeton_trtdifferential loss correction	single-endedforward channel	channel 2reverse channel	N/Adate	2019/09/15time	23:39:34forward acquisition time	60.00reverse acquisition time	0.00gamma	496.2192k internal	0.2335k external	0.2335temperature offset calibration	0.9957default loss term (dB/km)	0.3790temperature slope calibration	1.0000multiplexer offset coefficient	1.0000multiplexer slope coefficient	1.0000fibre end	0.00T internal ref (°C)	28.06T ext. ref 1 (°C)	9.23T ext. ref 2 (°C)	21.92length (m)	temperature (°C)	Stokes	anti-Stokes-747.200	-99.567	-0.200	-0.050
-746.185	-133.140	0.144	0.018
-745.171	-155.957	0.123	-0.008
-744.156	-200.000	-0.004	0.131
-743.142	538.326	0.092	-0.220
-742.127	682.846	-0.069	0.181
-741.112	-43.474	0.091	0.046
-740.098	-200.000	0.039	0.326
-739.083	193.014	0.085	-0.129
-738.069	-200.000	-0.100	0.515
-737.054	162.373	0.018	-0.026
-736.039	16.960	-0.260	-0.207
-735.025	318.228	0.312	0.594
-734.010	-200.000	0.005	-0.180
-732.996	66.834	-0.125	0.128
-731.981	515.230	0.033	-0.076
-730.966	290.625	0.077	-0.140
-729.952	-200.000	-0.014	0.072
-728.937	62.712	-0.256	0.257
-727.923	800.000	-0.086	0.259
-726.908	-200.000	-0.065	0.306
-725.894	-11.231	0.159	-0.105
-724.879	800.000	-0.154	-0.458
-723.864	100.567	0.059	0.069
-722.850	-88.826	-0.261	-0.078
-721.835	111.200	0.209	-0.253
-720.821	-178.507	-0.249	-0.006
-719.806	800.000	-0.064	0.246
-718.791	-181.973	-0.187	-0.004
-717.777	607.891	-0.068	0.171
-716.762	303.784	-0.116	-0.216
-715.748	800.000	0.028	0.082
-714.733	800.000	0.025	-0.069
-713.718	-134.180	-0.470	-0.058
-712.704	-23.216	-0.043	0.026
-711.689	780.690	0.113	0.309
-710.675	256.343	0.043	0.074
-709.660	145.288	0.119	-0.159
-708.645	42.743	0.292	-0.267
-707.631	-200.000	-0.038	0.257
-706.616	-133.780	-0.177	-0.022
-705.602	-119.904	0.118	0.020
-704.587	-29.073	-0.074	0.043
-703.572	-82.115	-0.154	0.050
-702.558	-16.333	0.142	0.091
-701.543	-83.317	0.291	0.094
-700.529	800.000	0.050	-0.162
-699.514	-19.060	-0.114	0.071
-698.499	254.638	0.155	-0.266
-697.485	-119.467	0.258	0.045
-696.470	82.269	-0.211	0.230
-695.456	111.148	-0.284	0.343
-694.441	26.286	-0.246	0.206
-693.426	800.000	0.140	-0.405
-692.412	153.856	-0.130	-0.179
-691.397	-31.985	-0.182	0.102
-690.383	20.794	0.270	0.219
-689.368	800.000	-0.026	-0.103
-688.354	-109.485	-0.082	0.017
-687.339	-42.959	-0.148	-0.075
-686.324	-82.762	-0.214	-0.069
-685.310	-200.000	0.033	0.203
-684.295	-200.000	-0.032	0.349
-683.281	-103.872	-0.276	-0.065
-682.266	-192.974	0.361	0.003
-681.251	15.488	-0.155	-0.122
-680.237	-200.000	-0.014	-0.138
-679.222	-10.025	-0.098	0.066
-678.208	495.812	-0.032	0.074
-677.193	-122.710	-0.137	0.022
-676.178	-175.978	-0.407	0.011
-675.164	88.166	-0.166	-0.185
-674.149	740.155	-0.202	-0.543
-673.135	36.345	-0.198	0.175
-672.120	-200.000	-0.062	-0.408
-671.105	800.000	-0.031	-0.108
-670.091	15.106	0.189	-0.149
-669.076	-140.943	0.382	-0.039
-668.062	-15.880	0.125	0.080
-667.047	112.266	-0.124	-0.150
-666.032	-200.000	0.004	-0.023
-665.018	2.517	0.247	0.179
-664.003	72.309	-0.270	-0.282
-662.989	24.147	0.122	0.101
-661.974	-200.000	-0.038	-0.272
-660.959	241.709	0.101	-0.168
-659.945	2.270	-0.201	-0.145
-658.930	-200.000	0.012	0.078
-657.916	800.000	0.052	-0.194
-656.901	-200.000	0.023	0.546
-655.886	359.202	0.128	0.257
-654.872	-129.101	0.072	-0.010
-653.857	800.000	-0.096	-0.330
-652.843	-200.000	-0.026	0.152
-651.828	-34.107	0.071	0.039
-650.814	-163.579	0.327	-0.015
-649.799	800.000	0.134	0.388
-648.784	91.142	-0.042	0.047
-647.770	175.532	0.042	0.061
-646.755	17.626	0.210	0.167
-645.741	-4.509	0.169	-0.117
-644.726	-66.213	-0.080	0.032
-643.711	99.425	0.031	0.036
-642.697	-180.263	0.104	0.002
-641.682	-200.000	0.013	-0.198
-640.668	217.975	-0.153	0.245
-639.653	-82.444	0.481	-0.156
-638.638	800.000	0.116	-0.387
-637.624	13.994	0.066	0.052
-636.609	-200.000	0.018	-0.082
-635.595	-121.737	-0.205	-0.034
-634.580	153.154	-0.155	0.212
-633.565	800.000	0.032	-0.092
-632.551	-47.583	0.136	0.066
-631.536	3.798	-0.196	0.143
-630.522	-156.830	0.416	0.026
-629.507	-43.784	-0.282	0.142
-628.492	88.922	0.211	-0.235
-627.478	174.890	-0.170	-0.246
-626.463	232.802	-0.036	0.059
-625.449	-99.452	-0.176	-0.044
-624.434	-0.234	-0.363	-0.258
-623.419	-152.800	-0.196	0.014
-622.405	55.501	-0.025	0.025
-621.390	67.630	0.216	0.221
-620.376	-135.704	-0.222	0.026
-619.361	275.474	-0.200	-0.354
-618.346	-74.520	-0.488	0.176
-617.332	-200.000	-0.008	0.172
-616.317	799.932	0.097	0.268
-615.303	-119.744	0.096	-0.017
-614.288	-100.867	0.139	0.034
-613.273	47.613	-0.088	0.082
-612.259	-81.373	-0.199	0.066
-611.244	-104.064	-0.126	-0.029
-610.230	771.694	-0.106	-0.288
-609.215	330.359	0.019	0.037
-608.201	-136.638	-0.192	-0.022
-607.186	71.113	-0.331	-0.343
-606.171	-13.516	-0.185	-0.120
-605.157	43.170	0.399	0.364
-604.142	255.027	-0.097	0.166
-603.128	-45.321	-0.393	0.195
-602.113	-200.000	-0.048	0.235
-601.098	-32.278	0.167	0.093
-600.084	657.297	-0.075	0.192
-599.069	-200.000	0.018	0.099
-598.055	800.000	0.043	-0.148
-597.040	120.769	-0.069	-0.085
-596.025	175.205	-0.024	-0.035
-595.011	662.996	-0.059	0.152
-593.996	379.213	-0.044	0.089
-592.982	-200.000	0.070	-0.362
-591.967	-10.815	-0.180	0.119
-590.952	-200.000	0.006	0.073
-589.938	-76.565	-0.174	-0.061
-588.923	516.125	-0.126	-0.295
-587.909	-88.653	0.105	-0.031
-586.894	119.301	0.203	0.251
-585.879	-200.000	0.019	-0.083
-584.865	51.392	-0.132	-0.125
-583.850	54.459	-0.095	0.091
-582.836	80.850	-0.207	-0.223
-581.821	54.142	0.219	-0.210
-580.806	-122.128	0.248	-0.041
-579.792	190.150	-0.165	0.247
-578.777	-67.965	0.335	-0.130
-577.763	724.032	-0.060	0.159
-576.748	-200.000	-0.022	0.292
-575.733	-101.538	0.131	0.032
-574.719	-36.075	-0.412	0.222
-573.704	34.978	0.169	0.148
-572.690	680.893	-0.065	-0.168
-571.675	429.272	-0.180	-0.388
-570.661	-22.936	-0.302	0.182
-569.646	-200.000	0.016	-0.171
-568.631	-200.000	-0.040	-0.411
-567.617	-200.000	-0.007	-0.039
-566.602	-87.176	0.281	0.085
-565.588	3.329	-0.305	0.221
-564.573	25.439	-0.214	-0.178
-563.558	-141.485	-0.170	0.017
-562.544	-161.661	0.259	0.013
-561.529	78.931	-0.054	0.057
-560.515	-3.125	0.081	-0.056
-559.500	-7.729	0.156	0.105
-558.485	113.960	-0.060	-0.073
-557.471	-10.834	0.171	0.112
-556.456	-200.000	-0.094	0.422
-555.442	65.332	0.068	0.068
-554.427	593.453	-0.061	-0.151
-553.412	112.844	0.093	0.112
-552.398	205.664	-0.098	0.151
-551.383	179.974	-0.180	-0.264
-550.369	-39.724	-0.313	-0.163
-549.354	-56.270	0.036	0.016
-548.339	800.000	0.028	0.099
-547.325	-8.632	-0.143	-0.096
-546.310	-93.317	0.253	-0.070
-545.296	95.687	0.140	-0.159
-544.281	68.862	0.133	-0.136
-543.266	-44.225	0.145	0.072
-542.252	40.237	0.202	-0.181
-541.237	375.124	0.053	0.108
-540.223	800.000	-0.018	-0.062
-539.208	125.723	-0.271	-0.341
-538.193	-63.708	-0.180	0.074
-537.179	-200.000	0.039	0.205
-536.164	-38.818	0.354	0.186
-535.150	-200.000	0.004	-0.020
-534.135	-181.831	0.226	-0.004
-533.121	-21.895	-0.101	-0.061
-532.106	-106.879	-0.119	-0.026
-531.091	17.000	0.157	0.124
-530.077	-99.357	0.297	-0.075
-529.062	-120.752	0.105	0.018
-528.048	225.158	0.137	-0.221
-527.033	800.000	0.008	0.025
-526.018	40.940	-0.051	-0.046
-525.004	-22.339	0.180	-0.108
-523.989	166.338	-0.151	0.213
-522.975	-200.000	0.036	-0.310
-521.960	111.941	-0.093	0.112
-520.945	239.912	-0.033	-0.055
-519.931	382.386	-0.047	0.096
-518.916	91.918	0.217	-0.243
-517.902	800.000	-0.044	-0.150
-516.887	133.786	-0.041	-0.053
-515.872	-94.285	-0.078	0.021
-514.858	-63.068	-0.110	-0.045
-513.843	-7.533	-0.220	0.148
-512.829	281.474	0.087	0.156
-511.814	-12.966	0.268	-0.173
-510.799	-9.317	0.230	-0.153
-509.785	8.878	-0.117	0.088
-508.770	15.990	0.171	-0.134
-507.756	526.636	0.084	-0.198
-506.741	-53.724	0.298	0.136
-505.726	-128.010	0.194	-0.028
-504.712	59.735	-0.245	0.240
-503.697	-83.815	0.134	-0.042
-502.683	163.391	0.158	0.221
-501.668	792.333	-0.106	-0.290
-500.653	704.220	-0.052	-0.137
-499.639	800.000	0.011	0.043
-498.624	-168.524	-0.175	0.007
-497.610	605.110	0.144	-0.357
-496.595	-200.000	0.028	-0.278
-495.581	81.259	-0.125	0.134
-494.566	308.911	-0.105	-0.195
-493.551	-200.000	-0.012	-0.343
-492.537	-200.000	-0.031	0.139
-491.522	-98.719	-0.240	-0.061
-490.508	800.000	-0.066	-0.184
-489.493	89.687	0.177	-0.196
-488.478	-7.340	0.046	0.031
-487.464	182.291	0.179	-0.262
-486.449	64.690	-0.024	0.024
-485.435	-87.223	0.268	0.081
-484.420	-156.840	-0.230	0.014
-483.405	-93.438	-0.164	0.045
-482.391	-200.000	0.020	-0.311
-481.376	800.000	0.051	-0.191
-480.362	461.284	0.027	0.059
-479.347	103.193	0.053	0.062
-478.332	130.131	-0.312	-0.397
-477.318	-65.764	-0.393	-0.156
-476.303	-28.504	0.449	0.258
-475.289	-97.626	0.368	-0.095
-474.274	-110.122	-0.253	0.052
-473.259	-200.000	0.007	-0.194
-472.245	78.369	0.270	0.286
-471.230	-16.858	-0.183	0.115
-470.216	-54.454	-0.116	0.052
-469.201	800.000	-0.060	0.257
-468.186	-165.414	0.110	-0.005
-467.172	800.000	-0.086	-0.340
-466.157	800.000	-0.024	0.068
-465.143	-147.450	-0.303	0.025
-464.128	-68.306	-0.054	-0.021
-463.113	-166.445	0.271	0.011
-462.099	-145.421	-0.374	0.033
-461.084	-161.003	-0.268	-0.014
-460.070	-200.000	-0.023	0.145
-459.055	80.217	0.222	-0.238
-458.040	765.494	-0.056	-0.151
-457.026	-80.003	0.194	-0.065
-456.011	-120.423	-0.199	0.034
-454.997	214.871	0.126	-0.198
-453.982	-200.000	-0.051	0.292
-452.968	800.000	0.071	0.203
-451.953	-60.124	-0.184	-0.078
-450.938	17.598	0.238	-0.188
-449.924	-156.277	-0.306	0.019
-448.909	62.450	-0.167	0.166
-447.895	-58.744	-0.378	-0.162
-446.880	198.309	0.042	-0.063
-445.865	-37.835	0.113	0.059
-444.851	67.730	-0.130	0.132
-443.836	342.844	0.058	0.112
-442.822	11.685	-0.160	0.122
-441.807	-174.163	-0.296	0.009
-440.792	-18.959	-0.189	0.116
-439.778	-200.000	0.007	0.176
-438.763	52.206	-0.122	-0.115
-437.749	-83.921	0.187	-0.059
-436.734	-200.000	0.038	-0.182
-435.719	-128.328	0.221	0.031
-434.705	-107.532	-0.127	-0.028
-433.690	-3.234	0.126	0.087
-432.676	24.725	-0.230	0.189
-431.661	417.213	0.082	0.175
-430.646	-116.513	-0.085	-0.016
-429.632	-84.591	0.113	-0.035
-428.617	257.748	-0.018	-0.030
-427.603	-19.582	-0.072	-0.044
-426.588	-142.316	0.118	-0.012
-425.573	-200.000	-0.003	-0.059
-424.559	800.000	-0.069	-0.294
-423.544	-200.000	0.005	0.071
-422.530	-22.455	-0.117	-0.070
-421.515	-1.066	-0.217	-0.152
-420.500	-163.953	0.244	0.011
-419.486	800.000	0.028	-0.110
-418.471	176.315	0.260	0.375
-417.457	348.127	0.016	0.031
-416.442	713.736	-0.058	-0.151
-415.428	-98.111	0.052	-0.013
-414.413	-200.000	-0.003	0.184
-413.398	75.771	-0.097	0.102
-412.384	58.105	-0.120	-0.116
-411.369	0.263	0.251	0.178
-410.355	96.846	-0.104	0.118
-409.340	50.384	-0.238	-0.223
-408.325	-18.322	-0.152	0.094
-407.311	84.758	0.126	0.137
-406.296	48.617	0.037	-0.035
-405.282	800.000	-0.034	-0.117
-404.267	583.689	-0.134	-0.327
-403.252	-4.659	-0.154	-0.105
-402.238	263.548	-0.069	-0.119
-401.223	800.000	0.041	0.129
-400.209	-114.324	0.133	-0.025
-399.194	-96.193	0.346	0.091
-398.179	168.430	-0.112	-0.158
-397.165	800.000	-0.042	0.171
-396.150	140.082	0.136	-0.178
-395.136	-162.624	0.189	-0.009
-394.121	-22.391	-0.075	0.045
-393.106	173.418	-0.264	0.377
-392.092	110.673	0.175	-0.209
-391.077	-133.181	-0.220	0.028
-390.063	371.656	0.193	0.389
-389.048	9.526	0.115	-0.087
-388.033	-73.283	-0.368	-0.133
-387.019	278.682	-0.086	-0.152
-386.004	-173.330	0.157	0.005
-384.990	-161.856	0.108	0.005
-383.975	10.479	-0.106	-0.080
-382.960	197.021	0.122	-0.184
-381.946	-34.734	0.290	0.157
-380.931	-58.764	-0.151	0.065
-379.917	-145.974	0.249	0.022
-378.902	-36.807	-0.247	-0.131
-377.888	251.130	0.088	-0.148
-376.873	-200.000	-0.004	0.061
-375.858	-77.338	0.111	-0.038
-374.844	-161.698	0.158	0.008
-373.829	800.000	-0.050	-0.199
-372.815	3.312	0.363	-0.262
-371.800	-125.047	0.189	0.029
-370.785	800.000	-0.076	-0.209
-369.771	-90.717	-0.284	0.081
-368.756	-163.166	0.057	-0.003
-367.742	-200.000	0.005	-0.077
-366.727	147.667	0.183	-0.244
-365.712	-200.000	0.055	0.304
-364.698	12.557	-0.109	0.084
-363.683	730.630	-0.068	-0.180
-362.669	-86.376	-0.294	-0.089
-361.654	330.901	0.196	0.374
-360.639	-105.415	-0.360	0.081
-359.625	800.000	0.133	0.385
-358.610	21.959	0.045	0.037
-357.596	-200.000	0.035	0.154
-356.581	66.754	0.148	0.149
-355.566	295.818	0.063	-0.114
-354.552	3.168	-0.424	-0.305
-353.537	-45.065	0.121	-0.060
-352.523	314.232	-0.113	-0.211
-351.508	-200.000	0.064	-0.298
-350.493	-200.000	-0.011	-0.240
-349.479	319.568	-0.147	0.275
-348.464	-200.000	-0.004	-0.025
-347.450	800.000	0.120	0.370
-346.435	-51.550	0.206	-0.095
-345.420	436.062	0.145	-0.312
-344.406	10.552	-0.082	0.062
-343.391	-200.000	-0.025	0.237
-342.377	251.010	0.062	0.104
-341.362	34.686	0.042	0.036
-340.348	-89.292	-0.240	-0.070
-339.333	200.868	-0.063	-0.096
-338.318	-31.722	0.048	-0.027
-337.304	-200.000	-0.041	-0.196
-336.289	100.774	0.068	0.078
-335.275	-106.220	-0.336	-0.074
-334.260	81.947	0.227	-0.243
-333.245	-50.485	0.178	-0.083
-332.231	-16.809	-0.224	0.140
-331.216	89.386	-0.110	-0.122
-330.202	-100.714	0.150	-0.037
-329.187	800.000	-0.178	0.489
-328.172	33.971	0.110	0.094
-327.158	800.000	-0.048	-0.171
-326.143	-200.000	-0.006	-0.101
-325.129	14.268	-0.172	0.132
-324.114	-200.000	0.033	0.200
-323.099	6.138	0.162	-0.119
-322.085	-31.620	0.178	0.099
-321.070	18.956	0.045	-0.035
-320.056	-124.529	0.180	-0.028
-319.041	-161.438	0.303	-0.015
-318.026	-200.000	-0.052	-0.260
-317.012	-200.000	-0.017	-0.205
-315.997	-200.000	0.021	-0.303
-314.983	-200.000	0.059	-0.276
-313.968	800.000	0.020	-0.074
-312.953	800.000	0.087	-0.277
-311.939	-15.803	-0.272	-0.171
-310.924	167.706	0.223	0.314
-309.910	-128.641	0.103	0.014
-308.895	-200.000	-0.011	-0.071
-307.880	-200.000	0.024	-0.230
-306.866	-200.000	-0.068	-0.366
-305.851	-66.939	-0.214	0.083
-304.837	73.031	0.182	-0.188
-303.822	800.000	0.088	0.254
-302.807	110.066	0.089	0.105
-301.793	341.212	-0.060	0.116
-300.778	-200.000	-0.043	0.257
-299.764	86.419	0.192	-0.209
-298.749	-200.000	-0.001	-0.127
-297.735	800.000	0.080	0.267
-296.720	-86.308	0.178	0.054
-295.705	-175.391	-0.114	0.003
-294.691	-119.026	-0.401	0.069
-293.676	208.224	0.214	0.330
-292.662	28.245	-0.275	0.230
-291.647	-82.299	-0.258	-0.083
-290.632	219.528	0.042	-0.066
-289.618	763.222	0.047	-0.126
-288.603	19.425	0.269	-0.214
-287.589	292.495	0.081	-0.146
-286.574	-77.566	-0.508	0.174
-285.559	-45.516	0.431	-0.210
-284.545	-13.422	-0.231	0.148
-283.530	45.712	-0.252	0.229
-282.516	-107.281	-0.180	-0.039
-281.501	-68.934	-0.243	-0.093
-280.486	297.126	-0.076	-0.138
-279.472	800.000	0.062	0.209
-278.457	-200.000	0.064	0.573
-277.443	601.031	-0.139	0.340
-276.428	-200.000	-0.010	0.066
-275.413	800.000	0.110	-0.361
-274.399	800.000	0.113	0.402
-273.384	-14.980	-0.181	0.115
-272.370	-200.000	0.036	0.544
-271.355	315.895	0.022	-0.040
-270.340	99.865	-0.062	0.071
-269.326	-26.970	0.252	0.145
-268.311	41.904	0.098	-0.088
-267.297	122.271	0.302	0.372
-266.282	-106.234	0.313	-0.069
-265.267	-67.462	-0.482	0.187
-264.253	587.924	0.085	-0.207
-263.238	800.000	-0.087	-0.318
-262.224	-50.714	-0.421	0.196
-261.209	217.595	0.136	-0.214
-260.195	-113.045	-0.458	-0.089
-259.180	-10.832	0.180	-0.117
-258.165	-76.176	-0.216	-0.075
-257.151	4.820	0.360	-0.261
-256.136	-60.439	-0.331	0.138
-255.122	-150.775	-0.320	0.024
-254.107	-21.745	-0.204	0.122
-253.092	2.507	0.263	-0.188
-252.078	-78.233	-0.096	-0.032
-251.063	-39.540	0.169	0.087
-250.049	-112.464	0.160	0.032
-249.034	-57.141	-0.373	-0.162
-248.019	67.333	-0.056	-0.056
-247.005	749.827	0.052	-0.137
-245.990	800.000	0.014	0.040
-244.976	-96.859	0.318	0.082
-243.961	200.398	0.180	0.273
-242.946	-127.669	0.155	0.022
-241.932	-143.468	-0.173	0.016
-240.917	46.531	-0.234	0.214
-239.903	-45.234	-0.119	0.058
-238.888	376.049	-0.092	-0.184
-237.873	800.000	-0.059	-0.251
-236.859	-200.000	-0.012	0.422
-235.844	556.424	0.208	0.493
-234.830	252.321	-0.025	-0.041
-233.815	59.918	0.194	0.189
-232.800	269.311	-0.056	-0.096
-231.786	457.587	-0.055	-0.121
-230.771	-77.263	-0.150	0.051
-229.757	199.113	0.161	-0.242
-228.742	-64.045	0.148	0.059
-227.727	-200.000	-0.022	-0.230
-226.713	-165.348	0.157	0.007
-225.698	-113.838	-0.311	0.059
-224.684	242.283	0.173	-0.285
-223.669	-200.000	-0.040	-0.223
-222.655	476.874	-0.127	0.283
-221.640	-200.000	0.019	-0.111
-220.625	-100.258	0.268	0.066
-219.611	-42.117	0.180	-0.090
-218.596	-200.000	0.055	0.249
-217.582	-200.000	0.033	0.213
-216.567	800.000	-0.042	0.140
-215.552	-200.000	0.027	-0.331
-214.538	800.000	0.055	-0.190
-213.523	97.439	-0.150	0.170
-212.509	-200.000	-0.014	-0.061
-211.494	800.000	0.164	0.482
-210.479	-64.223	0.196	0.078
-209.465	-81.140	-0.355	0.115
-208.450	116.842	0.225	-0.272
-207.436	-91.904	0.266	-0.074
-206.421	-44.949	-0.116	0.057
-205.406	-85.578	0.124	-0.038
-204.392	-121.460	0.250	-0.041
-203.377	-174.373	-0.486	0.014
-202.363	-132.922	0.190	0.024
-201.348	-16.505	0.108	0.067
-200.333	-200.000	0.026	-0.358
-199.319	-200.000	0.003	0.026
-198.304	-200.000	-0.001	-0.141
-197.290	118.618	-0.123	0.149
-196.275	148.782	0.196	0.261
-195.260	-165.108	0.214	-0.009
-194.246	-200.000	0.033	0.158
-193.231	-200.000	-0.002	-0.354
-192.217	30.675	-0.067	-0.057
-191.202	757.056	0.106	0.282
-190.187	115.711	0.140	-0.168
-189.173	-129.518	0.285	0.039
-188.158	21.250	-0.159	0.127
-187.144	800.000	0.087	0.287
-186.129	123.072	0.072	0.088
-185.114	-97.282	-0.375	0.096
-184.100	-19.429	-0.094	0.057
-183.085	-200.000	-0.001	0.392
-182.071	-200.000	-0.083	-0.416
-181.056	178.085	0.159	-0.229
-180.042	-200.000	0.016	0.299
-179.027	-116.278	-0.079	-0.014
-178.012	800.000	0.058	-0.185
-176.998	-105.187	0.152	0.034
-175.983	-92.867	0.357	0.098
-174.969	-63.918	0.280	-0.112
-173.954	199.891	-0.140	0.211
-172.939	299.736	0.248	0.450
-171.925	-81.057	0.418	0.136
-170.910	-61.976	-0.401	0.164
-169.896	146.715	-0.166	0.219
-168.881	800.000	0.044	-0.149
-167.866	-57.554	-0.129	0.056
-166.852	-115.990	0.247	0.045
-165.837	-128.427	0.140	-0.019
-164.823	477.877	0.143	0.317
-163.808	-133.586	-0.214	-0.026
-162.793	-6.901	0.265	-0.177
-161.779	57.544	0.088	0.084
-160.764	-144.754	-0.201	-0.018
-159.750	52.318	-0.148	0.139
-158.735	-19.027	0.164	-0.100
-157.720	273.378	0.011	-0.019
-156.706	363.085	0.168	-0.332
-155.691	46.898	0.199	-0.182
-154.677	99.757	0.181	0.206
-153.662	-200.000	-0.035	0.347
-152.647	23.448	-0.055	0.044
-151.633	800.000	-0.043	0.140
-150.618	-200.000	-0.063	0.416
-149.604	-133.004	0.288	0.036
-148.589	-101.559	0.203	-0.048
-147.574	-200.000	-0.030	0.190
-146.560	-54.146	-0.260	-0.116
-145.545	-66.667	-0.183	-0.071
-144.531	161.505	0.259	0.356
-143.516	-178.338	-0.192	0.004
-142.502	-200.000	-0.007	0.350
-141.487	-21.611	-0.117	-0.070
-140.472	-44.847	-0.083	0.041
-139.458	-136.052	0.164	0.019
-138.443	-158.186	-0.098	0.006
-137.429	366.540	-0.029	-0.058
-136.414	-158.677	0.181	0.010
-135.399	-129.878	-0.203	0.027
-134.385	-47.512	-0.108	-0.051
-133.370	-4.738	-0.037	-0.025
-132.356	87.599	-0.329	-0.358
-131.341	-24.600	0.114	-0.067
-130.326	227.982	0.037	0.059
-129.312	105.626	0.151	-0.175
-128.297	-147.796	0.253	0.021
-127.283	-133.463	-0.277	-0.034
-126.268	153.238	0.124	0.166
-125.253	2.595	-0.174	-0.124
-124.239	116.938	-0.163	0.197
-123.224	188.716	0.061	0.089
-122.210	-200.000	-0.048	0.215
-121.195	-61.225	0.110	0.046
