DTS Sentinel unit serial number:	SN413079Multiplexer serial number:	ORYXHardware model number:	OX4-SRSoftware version number:	ORYX F/W v4.00 Oryx Data Collector v3.7.2.0data status	okinstallation	princeton_trtdifferential loss correction	single-endedforward channel	channel 2reverse channel	N/Adate	2019/09/16time	23:47:35forward acquisition time	60.00reverse acquisition time	0.00gamma	496.2192k internal	0.2330k external	0.2330temperature offset calibration	0.9974default loss term (dB/km)	0.3790temperature slope calibration	1.0000multiplexer offset coefficient	1.0000multiplexer slope coefficient	1.0000fibre end	0.00T internal ref (°C)	29.69T ext. ref 1 (°C)	0.09T ext. ref 2 (°C)	23.82length (m)	temperature (°C)	Stokes	anti-Stokes-747.200	-200.000	0.060	-0.374
-746.185	61.802	-0.138	-0.138
-745.171	-200.000	0.007	-0.293
-744.156	800.000	0.098	0.408
-743.142	800.000	-0.084	0.259
-742.127	26.863	0.071	-0.060
-741.112	403.731	-0.097	0.206
-740.098	-18.940	-0.159	0.100
-739.083	119.447	0.274	0.342
-738.069	-200.000	-0.049	0.311
-737.054	39.376	0.099	0.089
-736.039	-133.453	-0.556	-0.070
-735.025	-65.655	0.180	0.073
-734.010	-200.000	0.006	-0.101
-732.996	222.804	-0.232	-0.376
-731.981	45.008	0.260	-0.241
-730.966	-69.049	-0.182	0.070
-729.952	-94.004	0.119	0.033
-728.937	800.000	0.128	-0.386
-727.923	-72.900	0.087	-0.032
-726.908	-115.772	-0.173	0.033
-725.894	19.676	-0.210	-0.170
-724.879	-108.274	-0.264	-0.057
-723.864	800.000	0.005	-0.024
-722.850	800.000	-0.066	-0.229
-721.835	-179.483	0.202	-0.004
-720.821	181.343	-0.126	-0.187
-719.806	800.000	0.031	0.132
-718.791	-148.186	0.522	-0.043
-717.777	-145.516	0.363	0.033
-716.762	800.000	-0.019	-0.058
-715.748	-92.341	-0.453	-0.128
-714.733	-123.088	-0.115	-0.019
-713.718	-200.000	-0.002	0.174
-712.704	74.802	-0.114	-0.121
-711.689	-200.000	-0.045	0.235
-710.675	26.056	-0.228	0.191
-709.660	-7.911	0.093	-0.063
-708.645	378.280	0.081	-0.167
-707.631	800.000	0.056	-0.167
-706.616	127.893	-0.252	-0.322
-705.602	-6.463	0.445	-0.305
-704.587	-111.827	-0.182	0.037
-703.572	800.000	0.051	-0.178
-702.558	-141.612	-0.317	0.032
-701.543	-72.774	-0.185	-0.069
-700.529	-200.000	-0.021	0.417
-699.514	458.295	0.094	0.210
-698.499	-142.139	0.050	0.005
-697.485	154.196	0.090	0.124
-696.470	-200.000	0.036	-0.158
-695.456	234.320	0.103	0.170
-694.441	-182.494	-0.171	-0.003
-693.426	8.109	0.325	0.245
-692.412	-200.000	0.005	-0.237
-691.397	-18.276	0.136	-0.086
-690.383	-34.767	0.141	-0.077
-689.368	359.760	-0.078	-0.157
-688.354	103.794	0.043	-0.051
-687.339	-104.100	0.050	0.012
-686.324	-79.234	-0.221	-0.075
-685.310	183.129	0.138	0.204
-684.295	-200.000	-0.003	-0.153
-683.281	-128.412	-0.189	-0.027
-682.266	-6.616	0.269	0.184
-681.251	-85.161	-0.327	0.103
-680.237	-200.000	-0.025	-0.330
-679.222	800.000	0.089	0.285
-678.208	108.546	-0.188	-0.225
-677.193	-162.077	-0.306	-0.015
-676.178	109.793	-0.118	-0.143
-675.164	75.322	0.089	-0.094
-674.149	800.000	-0.085	-0.295
-673.135	330.400	0.060	0.117
-672.120	43.209	-0.215	-0.197
-671.105	-200.000	0.005	0.181
-670.091	103.180	-0.143	-0.169
-669.076	41.337	-0.088	-0.079
-668.062	55.946	-0.283	-0.275
-667.047	32.953	0.140	-0.122
-666.032	-126.328	-0.088	-0.013
-665.018	-68.172	0.235	0.092
-664.003	-57.246	-0.261	-0.115
-662.989	26.630	-0.074	0.062
-661.974	35.114	0.141	0.124
-660.959	-194.555	0.113	-0.001
-659.945	89.927	0.410	-0.460
-658.930	-135.582	-0.147	0.017
-657.916	-200.000	0.017	-0.225
-656.901	-173.979	0.106	-0.003
-655.886	800.000	0.009	-0.041
-654.872	-200.000	-0.013	-0.230
-653.857	-150.857	-0.269	0.020
-652.843	496.286	-0.072	-0.165
-651.828	211.179	-0.117	-0.184
-650.814	80.042	-0.031	0.034
-649.799	-200.000	0.011	-0.586
-648.784	-8.878	-0.276	0.185
-647.770	-200.000	0.063	0.494
-646.755	-200.000	0.022	-0.133
-645.741	211.775	-0.076	0.120
-644.726	142.501	0.088	-0.118
-643.711	-77.278	-0.451	-0.157
-642.697	-200.000	-0.045	-0.221
-641.682	149.154	0.226	-0.307
-640.668	-121.330	-0.218	-0.036
-639.653	313.723	0.116	-0.219
-638.638	-116.409	-0.244	-0.045
-637.624	800.000	-0.051	0.201
-636.609	328.051	-0.106	0.204
-635.595	-90.058	-0.254	0.074
-634.580	-53.714	-0.301	0.138
-633.565	-122.225	-0.114	0.019
-632.551	-105.577	-0.345	-0.078
-631.536	800.000	0.096	0.386
-630.522	142.268	0.159	0.211
-629.507	-14.947	0.126	-0.081
-628.492	64.567	-0.095	-0.096
-627.478	337.557	-0.131	-0.255
-626.463	-2.669	-0.262	0.184
-625.449	220.674	0.104	0.167
-624.434	-83.415	0.204	-0.066
-623.419	800.000	0.103	-0.394
-622.405	-66.349	-0.165	0.066
-621.390	800.000	-0.064	-0.190
-620.376	13.819	-0.389	-0.303
-619.361	327.420	-0.084	-0.161
-618.346	-121.890	0.235	0.039
-617.332	2.235	0.094	-0.068
-616.317	-88.574	-0.172	0.051
-615.303	54.356	0.089	-0.086
-614.288	800.000	-0.069	-0.190
-613.273	643.638	0.107	-0.273
-612.259	-200.000	-0.002	0.176
-611.244	254.288	-0.073	0.125
-610.230	-200.000	-0.087	0.402
-609.215	78.409	-0.236	-0.252
-608.201	621.535	0.135	-0.341
-607.186	27.309	0.064	-0.054
-606.171	-200.000	-0.032	0.191
-605.157	20.490	-0.138	0.111
-604.142	800.000	0.094	0.272
-603.128	270.250	0.186	-0.328
-602.113	-191.520	-0.164	-0.002
-601.098	-137.942	0.238	-0.027
-600.084	7.815	0.308	-0.231
-599.069	-200.000	0.012	0.121
-598.055	83.288	0.223	-0.243
-597.040	-104.353	0.179	-0.042
-596.025	-57.195	-0.137	-0.060
-595.011	55.866	-0.131	-0.128
-593.996	-200.000	0.001	-0.006
-592.982	-200.000	0.003	-0.184
-591.967	800.000	0.060	-0.179
-590.952	-65.126	-0.240	0.097
-589.938	627.910	-0.153	-0.386
-588.923	-145.167	0.269	0.024
-587.909	246.415	-0.190	0.320
-586.894	-149.089	-0.547	-0.044
-585.879	33.389	0.189	0.164
-584.865	-200.000	-0.003	0.204
-583.850	-161.230	-0.234	-0.012
-582.836	-56.818	0.236	-0.104
-581.821	-58.499	-0.309	-0.134
-580.806	-104.757	0.367	-0.084
-579.792	386.958	-0.013	0.027
-578.777	7.159	-0.131	-0.098
-577.763	98.770	-0.137	-0.158
-576.748	-128.895	0.356	0.050
-575.733	-200.000	-0.005	-0.088
-574.719	-200.000	0.017	-0.231
-573.704	125.748	-0.182	0.230
-572.690	234.787	-0.142	-0.234
-571.675	-127.159	-0.216	0.032
-570.661	-152.373	0.242	-0.017
-569.646	142.690	0.066	0.088
-568.631	-63.709	0.115	0.047
-567.617	-44.255	0.249	0.125
-566.602	223.275	-0.117	-0.189
-565.588	-200.000	-0.017	0.117
-564.573	-200.000	0.009	-0.282
-563.558	-154.579	0.098	0.007
-562.544	-200.000	0.013	-0.120
-561.529	145.459	0.197	-0.264
-560.515	-200.000	0.008	0.065
-559.500	-76.699	0.132	0.046
-558.485	78.171	-0.022	-0.024
-557.471	800.000	0.069	-0.299
-556.456	-101.621	-0.170	0.041
-555.442	800.000	0.061	0.198
-554.427	-148.892	-0.058	0.005
-553.412	1.132	0.151	0.109
-552.398	297.865	-0.068	-0.125
-551.383	312.553	-0.088	0.165
-550.369	-144.971	-0.232	0.021
-549.354	-62.682	-0.233	-0.097
-548.339	146.808	0.135	0.181
-547.325	-95.996	0.381	-0.101
-546.310	-200.000	0.026	0.277
-545.296	800.000	-0.084	-0.242
-544.281	800.000	-0.034	-0.123
-543.266	6.214	0.103	-0.076
-542.252	-57.939	0.125	-0.054
-541.237	-200.000	0.044	-0.434
-540.223	-200.000	0.012	0.074
-539.208	81.627	-0.176	0.190
-538.193	-20.751	-0.025	-0.015
-537.179	800.000	-0.020	-0.068
-536.164	210.015	0.081	-0.127
-535.150	-138.694	0.041	-0.004
-534.135	-200.000	-0.025	0.168
-533.121	20.637	-0.179	0.145
-532.106	-158.836	-0.279	-0.016
-531.091	-69.510	0.152	-0.058
-530.077	522.310	0.065	-0.154
-529.062	-49.118	0.319	0.152
-528.048	625.872	0.143	0.360
-527.033	44.872	-0.090	-0.083
-526.018	262.058	0.102	-0.176
-525.004	99.739	0.040	-0.046
-523.989	-19.437	-0.324	-0.200
-522.975	-200.000	0.088	-0.438
-521.960	-46.258	0.171	-0.084
-520.945	-8.767	-0.098	-0.066
-519.931	198.547	-0.135	-0.206
-518.916	-200.000	0.279	0.001
-517.902	-10.156	-0.084	-0.056
-516.887	-200.000	-0.033	-0.206
-515.872	89.905	0.203	-0.226
-514.858	-63.413	-0.325	-0.133
-513.843	-60.293	-0.121	0.052
-512.829	329.962	-0.163	-0.313
-511.814	174.756	-0.212	-0.305
-510.799	312.429	0.014	-0.026
-509.785	454.942	-0.073	-0.162
-508.770	-98.169	-0.385	-0.099
-507.756	-200.000	-0.042	0.208
-506.741	-200.000	0.043	-0.261
-505.726	167.589	-0.045	-0.064
-504.712	75.192	0.222	0.234
-503.697	800.000	-0.023	-0.085
-502.683	19.505	-0.122	-0.097
-501.668	234.323	0.045	-0.074
-500.653	193.362	-0.147	0.221
-499.639	800.000	0.040	0.111
-498.624	229.805	-0.137	-0.223
-497.610	61.951	0.165	0.164
-496.595	-129.207	0.213	0.030
-495.581	-102.944	-0.204	-0.048
-494.566	255.915	-0.069	-0.119
-493.551	638.916	0.080	0.203
-492.537	-164.969	-0.087	-0.004
-491.522	-121.639	-0.139	-0.023
-490.508	-55.716	0.086	0.038
-489.493	333.348	0.103	0.199
-488.478	-99.767	0.215	-0.054
-487.464	-70.274	0.144	0.055
-486.449	96.783	-0.008	0.009
-485.435	800.000	0.049	0.199
-484.420	89.537	0.072	-0.081
-483.405	338.605	0.175	0.340
-482.391	-20.499	0.049	-0.030
-481.376	-112.984	0.184	0.036
-480.362	-145.298	0.087	0.008
-479.347	-200.000	0.029	0.127
-478.332	-164.380	0.188	0.009
-477.318	225.924	-0.118	-0.191
-476.303	22.996	0.230	0.188
-475.289	-200.000	0.005	-0.226
-474.274	66.870	-0.130	-0.132
-473.259	153.140	-0.135	0.184
-472.245	284.918	-0.081	0.145
-471.230	-130.816	-0.250	-0.033
-470.216	39.147	-0.112	-0.100
-469.201	-160.930	-0.358	0.019
-468.186	48.289	-0.213	-0.198
-467.172	-76.238	-0.099	0.035
-466.157	-63.603	-0.200	0.082
-465.143	212.007	0.104	-0.163
-464.128	-43.589	-0.300	-0.151
-463.113	300.009	0.084	0.155
-462.099	-200.000	-0.155	-0.000
-461.084	-14.875	-0.159	0.102
-460.070	-34.515	0.161	-0.088
-459.055	55.006	0.193	0.186
-458.040	-39.825	0.045	0.024
-457.026	261.458	0.081	-0.139
-456.011	158.800	0.088	0.122
-454.997	-20.796	-0.097	-0.060
-453.982	-116.059	0.336	0.062
-452.968	-35.600	0.053	0.029
-451.953	260.291	-0.093	0.161
-450.938	-45.080	-0.363	0.180
-449.924	-150.498	0.191	-0.015
-448.909	-15.675	0.282	-0.179
-447.895	9.341	-0.120	-0.090
-446.880	-200.000	0.028	-0.122
-445.865	-55.570	0.205	-0.092
-444.851	-178.151	0.191	-0.004
-443.836	225.017	-0.025	-0.041
-442.822	-124.121	0.502	-0.078
-441.807	208.236	-0.087	0.135
-440.792	-87.103	0.282	-0.085
-439.778	-149.131	-0.098	0.008
-438.763	-141.964	0.133	0.013
-437.749	-5.849	0.230	0.157
-436.734	584.756	-0.018	0.044
-435.719	39.832	0.284	-0.254
-434.705	-200.000	-0.042	0.249
-433.690	-200.000	0.023	-0.124
-432.676	130.843	-0.146	-0.186
-431.661	74.289	-0.134	0.140
-430.646	-113.626	0.226	-0.044
-429.632	-40.754	-0.159	0.082
-428.617	800.000	0.049	0.160
-427.603	575.225	-0.049	-0.120
-426.588	-200.000	0.051	0.416
-425.573	-63.877	0.211	0.086
-424.559	-96.130	-0.247	-0.065
-423.544	175.660	0.188	-0.272
-422.530	-142.543	-0.096	-0.009
-421.515	-91.626	0.036	-0.010
-420.500	-200.000	0.026	-0.218
-419.486	-135.654	0.242	-0.028
-418.471	-70.614	0.191	-0.072
-417.457	-74.857	-0.283	0.101
-416.442	-20.928	-0.133	0.081
-415.428	-125.630	0.054	-0.008
-414.413	-28.184	-0.337	-0.194
-413.398	-15.619	0.305	0.194
-412.384	740.409	0.069	0.185
-411.369	-64.789	0.218	0.088
-410.355	-200.000	0.004	-0.113
-409.340	-30.744	-0.099	0.056
-408.325	-9.682	-0.321	0.212
-407.311	-65.814	-0.265	0.105
-406.296	800.000	-0.136	-0.407
-405.282	800.000	-0.055	-0.158
-404.267	25.503	0.047	-0.039
-403.252	-171.111	0.084	-0.003
-402.238	78.302	-0.173	-0.184
-401.223	-51.132	0.151	0.070
-400.209	6.868	0.255	0.189
-399.194	-76.180	-0.245	-0.086
-398.179	-66.289	0.199	-0.079
-397.165	-68.346	-0.502	-0.194
-396.150	623.022	0.063	0.156
-395.136	-2.546	-0.346	-0.241
-394.121	110.195	-0.320	0.382
-393.106	-200.000	0.054	-0.311
-392.092	-15.794	-0.153	0.096
-391.077	-91.618	0.242	0.068
-390.063	-200.000	0.211	-0.001
-389.048	209.503	-0.127	-0.197
-388.033	472.766	0.163	-0.364
-387.019	800.000	0.040	-0.161
-386.004	800.000	0.098	-0.362
-384.990	-200.000	-0.049	-0.326
-383.975	-8.622	0.305	0.203
-382.960	-122.636	0.172	-0.028
-381.946	-104.713	-0.074	0.017
-380.931	-40.454	0.054	0.028
-379.917	771.389	-0.093	0.252
-378.902	800.000	-0.023	-0.085
-377.888	-64.055	-0.300	-0.122
-376.873	-181.108	0.255	-0.005
-375.858	162.772	0.195	0.272
-374.844	-172.698	-0.291	-0.009
-373.829	-30.144	-0.126	0.071
-372.815	-53.200	0.047	-0.022
-371.800	-19.046	-0.150	0.093
-370.785	800.000	0.038	0.149
-369.771	58.275	0.094	-0.091
-368.756	141.183	0.200	0.262
-367.742	170.613	-0.155	-0.220
-366.727	-200.000	-0.044	-0.505
-365.712	800.000	-0.021	0.071
-364.698	-146.836	0.099	0.008
-363.683	208.556	-0.284	0.441
-362.669	185.604	0.202	-0.298
-361.654	288.891	0.114	-0.205
-360.639	47.086	0.327	-0.302
-359.625	-200.000	0.007	-0.082
-358.610	-56.660	0.194	0.085
-357.596	-27.188	-0.053	0.031
-356.581	-200.000	0.005	-0.264
-355.566	89.586	-0.064	-0.071
-354.552	-200.000	0.032	0.182
-353.537	484.241	-0.131	0.295
-352.523	13.661	-0.311	0.239
-351.508	26.476	-0.053	0.044
-350.493	-112.682	-0.106	-0.021
-349.479	-200.000	0.016	0.192
-348.464	-103.539	-0.258	0.060
-347.450	69.075	0.142	0.145
-346.435	800.000	0.023	0.075
-345.420	800.000	-0.046	-0.148
-344.406	-200.000	-0.002	-0.146
-343.391	-200.000	-0.050	0.280
-342.377	-117.334	0.255	-0.046
-341.362	351.369	-0.152	0.298
-340.348	-200.000	-0.034	0.203
-339.333	-131.312	0.026	-0.003
-338.318	800.000	-0.071	-0.202
-337.304	312.486	0.140	0.261
-336.289	239.366	-0.170	0.281
-335.275	800.000	0.087	-0.267
-334.260	-55.906	-0.437	0.193
-333.245	-200.000	-0.036	0.276
-332.231	97.506	0.326	0.371
-331.216	800.000	0.034	-0.119
-330.202	96.727	0.115	0.130
-329.187	-19.095	0.402	0.247
-328.172	-49.709	0.172	-0.081
-327.158	-188.317	-0.162	0.002
-326.143	81.113	0.182	0.195
-325.129	-200.000	0.012	0.267
-324.114	800.000	-0.093	-0.357
-323.099	-5.035	-0.073	-0.050
-322.085	80.002	-0.155	-0.165
-321.070	-200.000	-0.072	0.448
-320.056	668.121	-0.073	0.188
-319.041	-200.000	-0.058	0.330
-318.026	-108.164	-0.132	-0.028
-317.012	-118.633	0.358	-0.063
-315.997	337.860	0.160	0.308
-314.983	-200.000	-0.069	0.328
-313.968	-172.588	0.290	-0.009
-312.953	-152.267	-0.428	0.031
-311.939	177.293	0.194	-0.280
-310.924	30.413	0.140	-0.118
-309.910	116.738	-0.050	0.061
-308.895	-200.000	0.104	0.000
-307.880	-91.070	0.048	-0.014
-306.866	-18.440	-0.286	-0.177
-305.851	-200.000	0.011	0.257
-304.837	218.726	0.108	0.171
-303.822	68.522	-0.228	-0.231
-302.807	-200.000	0.000	0.166
-301.793	293.507	0.163	0.295
-300.778	-17.990	-0.156	-0.097
-299.764	-169.172	-0.154	-0.006
-298.749	800.000	0.089	-0.322
-297.735	-148.734	-0.179	0.014
-296.720	218.807	-0.057	0.090
-295.705	-92.058	-0.120	-0.034
-294.691	-46.921	-0.108	0.052
-293.676	800.000	-0.131	0.456
-292.662	-200.000	-0.033	-0.258
-291.647	-6.372	0.277	0.187
-290.632	40.406	0.132	-0.117
-289.618	-130.067	-0.115	0.016
-288.603	-200.000	-0.005	0.061
-287.589	33.929	0.159	-0.137
-286.574	109.141	0.105	0.125
-285.559	81.352	0.165	-0.176
-284.545	-200.000	-0.066	-0.386
-283.530	-32.000	0.067	0.037
-282.516	-42.932	-0.049	-0.025
-281.501	-136.515	0.422	-0.048
-280.486	-200.000	-0.020	0.414
-279.472	-92.778	-0.251	0.069
-278.457	-133.847	-0.373	-0.046
-277.443	424.479	0.042	0.089
-276.428	167.335	0.088	0.123
-275.413	229.495	-0.057	-0.092
-274.399	800.000	-0.022	-0.076
-273.384	800.000	-0.049	0.152
-272.370	559.304	-0.163	-0.390
-271.355	-135.573	0.177	0.021
-270.340	-82.767	0.261	-0.083
-269.326	-85.151	0.062	-0.019
-268.311	76.438	-0.060	-0.062
-267.297	77.279	-0.074	0.078
-266.282	-95.605	0.227	-0.060
-265.267	-200.000	0.010	0.099
-264.253	7.212	-0.321	0.237
-263.238	-90.398	-0.095	-0.027
-262.224	-151.030	0.254	0.019
-261.209	467.035	0.057	-0.127
-260.195	-40.122	0.126	-0.065
-259.180	-86.083	-0.153	0.047
-258.165	155.568	0.171	0.233
-257.151	-200.000	-0.023	0.211
-256.136	19.852	-0.064	0.051
-255.122	-47.915	-0.119	-0.057
-254.107	-150.302	0.062	0.005
-253.092	187.163	0.240	0.353
-252.078	130.502	0.129	0.163
-251.063	-200.000	0.016	-0.135
-250.049	488.737	0.042	-0.094
-249.034	313.478	-0.072	0.133
-248.019	-78.903	0.056	-0.019
-247.005	3.871	0.231	-0.167
-245.990	-200.000	0.023	-0.192
-244.976	-2.721	0.218	-0.150
-243.961	-155.133	0.168	-0.011
-242.946	-133.893	0.157	0.019
-241.932	-65.401	0.160	-0.064
-240.917	152.836	0.212	0.285
-239.903	556.079	0.092	0.220
-238.888	-200.000	0.004	-0.098
-237.873	-117.600	0.131	-0.023
-236.859	800.000	0.038	0.161
-235.844	48.081	0.303	0.280
-234.830	124.019	-0.154	0.191
-233.815	-200.000	0.012	0.222
-232.800	-14.016	-0.114	0.073
-231.786	246.410	-0.099	0.164
-230.771	-130.927	0.199	-0.026
-229.757	348.857	0.267	0.521
-228.742	343.323	0.131	0.253
-227.727	243.312	0.117	0.194
-226.713	-200.000	0.043	0.192
-225.698	-33.806	-0.175	-0.095
-224.684	-20.176	0.287	-0.174
-223.669	-200.000	-0.034	-0.170
-222.655	-99.570	-0.066	0.016
-221.640	-44.935	-0.086	0.042
-220.625	-117.341	-0.531	0.095
-219.611	284.202	0.189	0.335
-218.596	800.000	-0.023	-0.072
-217.582	61.529	0.026	-0.025
-216.567	-42.057	-0.162	0.082
-215.552	-92.672	-0.024	-0.007
-214.538	106.408	-0.197	0.230
-213.523	-200.000	0.001	-0.157
-212.509	9.436	0.181	0.135
-211.494	-91.464	-0.270	-0.076
-210.479	259.503	0.145	0.246
-209.465	-95.525	0.145	0.038
-208.450	-167.610	0.178	-0.007
-207.436	-127.882	0.337	-0.048
-206.421	-12.822	0.073	0.047
-205.406	-53.930	-0.270	0.121
-204.392	30.188	0.167	-0.140
-203.377	27.347	-0.199	-0.165
-202.363	-109.455	-0.184	0.038
-201.348	46.933	0.161	0.148
-200.333	-17.280	-0.399	0.247
-199.319	0.089	-0.104	0.073
-198.304	35.131	-0.112	0.097
-197.290	29.716	-0.212	0.178
-196.275	-13.678	-0.208	0.133
-195.260	-200.000	-0.008	-0.115
-194.246	-89.588	0.287	0.083
-193.231	-200.000	0.022	0.118
-192.217	-87.773	-0.362	-0.107
-191.202	136.293	0.103	-0.133
-190.187	251.483	-0.083	0.139
-189.173	800.000	0.086	0.254
-188.158	-200.000	0.020	-0.207
-187.144	-200.000	0.002	-0.247
-186.129	162.533	0.204	0.282
-185.114	785.644	-0.016	-0.043
-184.100	-48.738	0.127	-0.060
-183.085	10.028	-0.367	-0.275
-182.071	419.391	0.071	0.150
-181.056	-115.767	0.234	-0.043
-180.042	-81.759	0.230	0.074
-179.027	351.873	-0.091	-0.178
-178.012	562.910	-0.113	-0.268
-176.998	-87.088	-0.070	0.021
-175.983	800.000	0.054	-0.223
-174.969	-154.073	0.067	-0.004
-173.954	-125.586	-0.373	0.056
-172.939	165.238	-0.196	0.272
-171.925	-113.077	0.430	0.083
-170.910	-200.000	-0.027	-0.117
-169.896	-126.797	-0.249	0.036
-168.881	-200.000	-0.071	-0.335
-167.866	-103.168	0.110	-0.026
-166.852	132.413	-0.092	-0.116
-165.837	0.253	0.061	0.043
-164.823	-200.000	0.002	-0.529
-163.808	-62.239	-0.128	0.052
-162.793	384.697	-0.021	0.042
-161.779	20.074	0.239	0.189
-160.764	402.039	-0.080	-0.166
-159.750	-111.162	0.139	0.028
-158.735	-200.000	0.012	0.076
-157.720	29.863	-0.170	-0.143
-156.706	800.000	0.069	-0.257
-155.691	6.016	0.234	0.171
-154.677	-38.625	-0.216	0.112
-153.662	-74.426	-0.102	0.036
-152.647	-31.984	0.286	0.158
-151.633	-200.000	0.005	-0.080
-150.618	-200.000	-0.025	0.401
-149.604	800.000	-0.112	-0.320
-148.589	-200.000	-0.025	0.217
-147.574	145.349	-0.057	0.075
-146.560	-24.035	-0.127	-0.074
-145.545	-135.150	-0.405	-0.048
-144.531	-107.093	0.196	-0.043
-143.516	258.991	0.155	-0.263
-142.502	-49.922	-0.080	0.037
-141.487	800.000	0.105	0.328
-140.472	641.179	0.023	0.058
-139.458	250.410	-0.114	0.191
-138.443	800.000	0.069	-0.238
-137.429	-106.096	0.079	-0.018
-136.414	-200.000	-0.006	0.326
-135.399	800.000	-0.057	-0.224
-134.385	-200.000	-0.077	-0.379
-133.370	317.780	0.244	-0.453
-132.356	-16.995	-0.501	0.311
-131.341	-200.000	0.006	0.275
-130.326	10.616	0.153	-0.115
-129.312	0.121	-0.285	0.199
-128.297	-42.625	0.223	-0.112
-127.283	-85.744	-0.278	0.085
-126.268	-200.000	0.009	0.155
-125.253	700.557	0.158	0.410
-124.239	800.000	-0.058	-0.189
-123.224	-30.024	-0.287	0.160
-122.210	175.760	-0.182	0.259
