DTS Sentinel unit serial number:	SN413079Multiplexer serial number:	ORYXHardware model number:	OX4-SRSoftware version number:	ORYX F/W v4.00 Oryx Data Collector v3.7.2.0data status	okinstallation	princeton_trtdifferential loss correction	single-endedforward channel	channel 2reverse channel	N/Adate	2019/09/18time	00:27:34forward acquisition time	60.00reverse acquisition time	0.00gamma	496.2192k internal	0.2349k external	0.2349temperature offset calibration	0.9986default loss term (dB/km)	0.3790temperature slope calibration	1.0000multiplexer offset coefficient	1.0000multiplexer slope coefficient	1.0000fibre end	0.00T internal ref (°C)	23.56T ext. ref 1 (°C)	0.17T ext. ref 2 (°C)	17.13length (m)	temperature (°C)	Stokes	anti-Stokes-747.200	-200.000	-0.048	0.272
-746.185	86.603	0.253	0.278
-745.171	393.419	-0.209	0.435
-744.156	135.316	-0.288	0.374
-743.142	768.760	0.083	0.225
-742.127	-74.506	0.133	-0.048
-741.112	142.486	-0.204	-0.270
-740.098	116.993	0.182	-0.223
-739.083	87.106	-0.309	-0.340
-738.069	-164.528	-0.268	-0.012
-737.054	-124.271	-0.097	0.015
-736.039	-120.162	-0.320	-0.055
-735.025	-154.968	-0.301	0.020
-734.010	800.000	-0.093	0.319
-732.996	-143.949	-0.140	-0.013
-731.981	800.000	-0.071	0.215
-730.966	800.000	-0.082	-0.255
-729.952	322.273	0.174	0.331
-728.937	-60.542	0.402	0.170
-727.923	6.186	0.166	-0.123
-726.908	800.000	0.045	0.170
-725.894	-80.949	-0.387	0.128
-724.879	-41.554	0.110	0.057
-723.864	478.370	0.099	-0.223
-722.850	-189.162	-0.280	0.003
-721.835	-35.533	0.182	0.099
-720.821	800.000	-0.122	-0.338
-719.806	259.070	0.078	-0.134
-718.791	800.000	-0.126	-0.425
-717.777	-165.921	-0.364	-0.016
-716.762	-121.379	-0.431	-0.072
-715.748	128.566	-0.044	-0.056
-714.733	229.086	0.052	0.084
-713.718	-200.000	0.057	0.277
-712.704	136.485	0.129	-0.168
-711.689	-37.837	-0.186	0.099
-710.675	-181.090	0.219	0.004
-709.660	-124.022	0.322	-0.051
-708.645	18.880	0.246	0.196
-707.631	-200.000	-0.000	0.143
-706.616	-107.422	0.167	0.037
-705.602	-34.810	-0.252	-0.137
-704.587	74.335	0.190	-0.200
-703.572	-18.232	-0.131	-0.082
-702.558	-22.011	0.344	-0.209
-701.543	-200.000	0.023	-0.205
-700.529	787.778	0.040	0.109
-699.514	109.695	-0.312	-0.373
-698.499	-80.700	0.241	0.080
-697.485	-18.651	0.054	0.034
-696.470	-200.000	-0.031	-0.265
-695.456	-200.000	-0.308	-0.000
-694.441	-86.430	-0.167	-0.051
-693.426	-106.729	-0.055	0.012
-692.412	9.852	-0.134	0.102
-691.397	800.000	-0.060	0.216
-690.383	607.465	-0.042	-0.104
-689.368	506.802	0.042	0.097
-688.354	68.852	0.173	0.177
-687.339	276.914	0.163	-0.288
-686.324	-63.341	0.237	-0.097
-685.310	-200.000	0.293	-0.001
-684.295	112.476	-0.190	-0.229
-683.281	-200.000	-0.068	-0.312
-682.266	-165.492	0.237	-0.010
-681.251	303.078	0.117	0.215
-680.237	65.150	0.109	0.110
-679.222	-200.000	-0.015	-0.341
-678.208	-128.628	0.197	-0.028
-677.193	96.748	-0.216	0.246
-676.178	-50.410	0.136	-0.064
-675.164	-6.959	0.198	0.134
-674.149	242.794	-0.057	-0.096
-673.135	736.805	0.054	-0.145
-672.120	226.610	0.240	-0.388
-671.105	-82.979	0.151	-0.048
-670.091	-96.435	-0.294	0.077
-669.076	-200.000	-0.024	0.469
-668.062	69.329	0.036	0.037
-667.047	159.310	-0.125	-0.173
-666.032	134.233	-0.132	-0.171
-665.018	-200.000	-0.070	-0.420
-664.003	92.665	-0.174	-0.196
-662.989	-140.672	0.106	-0.011
-661.974	239.481	-0.166	-0.275
-660.959	-155.839	0.142	-0.009
-659.945	-111.330	0.105	-0.021
-658.930	-163.967	-0.080	-0.004
-657.916	299.218	-0.120	0.220
-656.901	44.396	0.119	0.108
-655.886	-63.031	0.257	-0.106
-654.872	74.502	0.097	0.101
-653.857	-49.877	-0.090	0.042
-652.843	179.565	-0.083	0.122
-651.828	118.945	0.259	0.319
-650.814	256.910	0.301	-0.514
-649.799	-39.652	-0.208	-0.108
-648.784	93.691	0.032	0.036
-647.770	6.759	-0.199	0.147
-646.755	-200.000	-0.039	-0.261
-645.741	121.165	-0.124	0.154
-644.726	145.031	-0.073	0.097
-643.711	115.738	-0.044	0.053
-642.697	167.362	-0.165	0.234
-641.682	-200.000	0.022	-0.193
-640.668	204.361	-0.046	0.070
-639.653	-200.000	-0.015	0.104
-638.638	47.650	-0.215	0.200
-637.624	-200.000	-0.029	-0.142
-636.609	-200.000	0.035	0.162
-635.595	-88.142	0.168	0.050
-634.580	113.928	0.020	-0.024
-633.565	1.530	-0.044	-0.032
-632.551	-200.000	0.040	0.178
-631.536	262.176	0.081	0.139
-630.522	-200.000	-0.025	0.207
-629.507	-120.424	-0.180	0.030
-628.492	215.191	0.143	-0.225
-627.478	-82.017	-0.178	0.058
-626.463	-200.000	0.008	0.192
-625.449	800.000	0.084	-0.243
-624.434	-172.881	0.250	0.008
-623.419	-87.959	0.188	-0.056
-622.405	-200.000	0.059	0.289
-621.390	-48.407	-0.147	-0.071
-620.376	-51.668	0.369	-0.171
-619.361	625.183	0.077	0.193
-618.346	-200.000	-0.025	-0.392
-617.332	-200.000	0.056	0.256
-616.317	800.000	-0.092	-0.361
-615.303	800.000	0.050	0.205
-614.288	-119.001	0.209	0.036
-613.273	-55.057	0.052	0.023
-612.259	34.524	0.124	0.108
-611.244	-108.061	-0.055	0.012
-610.230	-39.510	0.268	-0.139
-609.215	30.244	-0.196	0.166
-608.201	-200.000	-0.011	-0.097
-607.186	229.674	-0.198	0.321
-606.171	287.170	-0.045	0.081
-605.157	43.960	-0.049	0.045
-604.142	-200.000	-0.003	0.295
-603.128	57.704	-0.205	-0.199
-602.113	132.160	0.104	-0.132
-601.098	-79.593	0.248	0.083
-600.084	-200.000	-0.012	0.067
-599.069	16.489	-0.417	-0.327
-598.055	-103.941	0.117	0.027
-597.040	800.000	-0.087	0.290
-596.025	-52.811	-0.071	0.032
-595.011	-138.141	-0.270	-0.030
-593.996	102.458	0.307	0.357
-592.982	-200.000	0.031	0.445
-591.967	79.106	-0.260	-0.277
-590.952	-131.563	-0.359	-0.047
-589.938	66.453	0.131	-0.133
-588.923	-18.865	0.203	-0.125
-587.909	-65.498	0.080	-0.032
-586.894	85.195	-0.272	-0.297
-585.879	70.752	-0.207	-0.212
-584.865	-89.283	0.178	-0.052
-583.850	57.710	-0.104	0.101
-582.836	-177.802	0.202	0.005
-581.821	77.163	-0.174	-0.183
-580.806	-200.000	-0.009	-0.072
-579.792	173.675	0.085	-0.122
-578.777	-200.000	-0.034	0.169
-577.763	-145.202	-0.102	0.009
-576.748	-74.793	-0.318	-0.113
-575.733	204.216	0.067	-0.103
-574.719	-9.691	-0.218	-0.144
-573.704	-200.000	-0.005	-0.147
-572.690	306.915	-0.181	0.335
-571.675	56.152	-0.220	0.212
-570.661	16.556	-0.074	0.058
-569.646	-200.000	0.040	0.247
-568.631	800.000	0.086	-0.267
-567.617	800.000	-0.125	-0.480
-566.602	196.256	0.049	0.073
-565.588	-141.117	-0.182	0.018
-564.573	-95.563	-0.136	-0.036
-563.558	85.147	0.164	-0.178
-562.544	-51.272	-0.107	0.049
-561.529	44.924	0.167	-0.152
-560.515	-200.000	-0.046	-0.213
-559.500	159.710	-0.274	0.378
-558.485	-67.131	0.106	-0.041
-557.471	15.120	0.148	-0.115
-556.456	-200.000	-0.018	-0.133
-555.442	-17.006	-0.344	0.215
-554.427	205.114	-0.148	-0.228
-553.412	646.440	0.090	-0.227
-552.398	10.810	-0.133	0.101
-551.383	-96.673	-0.502	-0.131
-550.369	-134.044	-0.160	0.020
-549.354	-200.000	0.014	0.108
-548.339	800.000	-0.142	0.393
-547.325	-94.636	-0.348	-0.094
-546.310	800.000	-0.052	0.190
-545.296	-11.300	0.083	0.054
-544.281	165.438	0.048	0.067
-543.266	-43.802	0.273	-0.136
-542.252	-120.075	0.310	0.053
-541.237	800.000	0.036	0.144
-540.223	1.264	0.015	-0.011
-539.208	346.185	0.106	-0.207
-538.193	-200.000	-0.048	-0.211
-537.179	-200.000	-0.012	0.123
-536.164	23.139	0.258	-0.210
-535.150	800.000	0.025	0.070
-534.135	-172.065	-0.290	-0.009
-533.121	-16.796	-0.122	0.076
-532.106	-200.000	0.036	-0.159
-531.091	-200.000	-0.054	-0.280
-530.077	218.137	0.292	-0.461
-529.062	-53.907	0.288	-0.130
-528.048	800.000	-0.095	-0.401
-527.033	20.098	0.258	0.206
-526.018	-115.355	-0.224	0.042
-525.004	-200.000	-0.042	0.193
-523.989	-200.000	0.042	-0.369
-522.975	-200.000	-0.094	-0.455
-521.960	107.560	0.090	-0.106
-520.945	9.482	0.171	-0.128
-519.931	-200.000	-0.001	-0.172
-518.916	-95.617	-0.070	-0.019
-517.902	162.386	0.130	-0.180
-516.887	187.477	-0.061	-0.090
-515.872	-14.435	0.198	0.126
-514.858	-6.670	-0.232	0.156
-513.843	-200.000	0.010	0.286
-512.829	192.322	0.183	0.273
-511.814	757.533	0.030	-0.079
-510.799	19.110	0.060	0.047
-509.785	-200.000	-0.006	-0.116
-508.770	800.000	-0.012	0.033
-507.756	-124.581	-0.196	0.030
-506.741	800.000	0.058	0.185
-505.726	-200.000	0.006	0.136
-504.712	-200.000	0.398	0.002
-503.697	-54.414	0.332	0.149
-502.683	-25.341	0.185	0.108
-501.668	13.131	0.097	0.074
-500.653	-173.849	0.394	-0.012
-499.639	257.690	-0.195	-0.332
-498.624	-21.870	0.186	-0.112
-497.610	-200.000	0.037	0.378
-496.595	54.345	0.168	0.160
-495.581	119.646	0.207	-0.254
-494.566	-200.000	-0.025	-0.143
-493.551	-56.246	0.264	-0.116
-492.537	-83.458	0.129	-0.041
-491.522	-82.626	0.380	-0.122
-490.508	26.322	-0.209	-0.173
-489.493	-200.000	-0.013	0.083
-488.478	473.246	0.142	0.317
-487.464	44.920	-0.109	0.099
-486.449	-151.990	-0.098	-0.007
-485.435	-4.278	0.154	0.106
-484.420	201.793	-0.140	0.214
-483.405	-200.000	0.018	-0.172
-482.391	577.992	0.039	0.094
-481.376	-80.639	0.304	0.100
-480.362	738.818	0.192	0.510
-479.347	-200.000	0.054	0.241
-478.332	-11.828	-0.352	-0.228
-477.318	-163.570	0.243	0.011
-476.303	197.431	0.178	0.269
-475.289	-133.823	-0.249	0.031
-474.274	120.549	0.158	-0.194
-473.259	485.703	-0.050	0.112
-472.245	800.000	0.025	-0.083
-471.230	-95.968	-0.297	-0.078
-470.216	-200.000	-0.000	-0.105
-469.201	800.000	-0.080	-0.329
-468.186	-57.264	-0.349	0.152
-467.172	800.000	0.048	-0.161
-466.157	800.000	0.093	0.282
-465.143	-114.895	-0.087	-0.016
-464.128	232.502	-0.050	0.081
-463.113	-178.931	-0.076	0.002
-462.099	25.365	-0.051	-0.042
-461.084	-52.397	0.099	0.045
-460.070	-10.557	0.234	-0.153
-459.055	800.000	0.076	-0.221
-458.040	800.000	0.029	-0.088
-457.026	107.128	0.224	-0.263
-456.011	270.622	-0.157	-0.272
-454.997	253.697	0.022	0.036
-453.982	-17.567	-0.158	-0.098
-452.968	-144.987	0.022	0.002
-451.953	-41.472	0.253	0.128
-450.938	-42.985	-0.126	0.063
-449.924	33.227	0.104	-0.089
-448.909	394.969	-0.065	0.134
-447.895	-200.000	-0.006	-0.053
-446.880	800.000	-0.061	-0.216
-445.865	95.301	0.038	0.043
-444.851	800.000	-0.044	0.129
-443.836	271.365	-0.057	-0.099
-442.822	-16.793	-0.244	-0.152
-441.807	768.831	0.104	-0.280
-440.792	-200.000	0.013	0.166
-439.778	-200.000	0.012	-0.062
-438.763	32.984	-0.104	0.089
-437.749	-121.232	0.201	0.033
-436.734	-74.891	-0.434	-0.154
-435.719	-169.326	-0.277	-0.010
-434.705	-108.488	-0.171	-0.036
-433.690	100.626	0.187	0.214
-432.676	206.795	0.127	0.195
-431.661	0.744	-0.245	-0.173
-430.646	-146.274	-0.174	-0.015
-429.632	-2.834	-0.232	0.160
-428.617	79.310	0.150	0.158
-427.603	-127.336	-0.420	-0.060
-426.588	-200.000	0.021	-0.269
-425.573	-103.203	-0.209	-0.049
-424.559	-64.403	0.205	0.082
-423.544	-200.000	-0.013	-0.482
-422.530	800.000	0.030	0.087
-421.515	208.473	-0.105	0.162
-420.500	-102.738	-0.021	0.005
-419.486	-42.780	0.381	0.191
-418.471	-200.000	-0.013	-0.110
-417.457	376.073	0.090	0.182
-416.442	-122.372	-0.149	0.024
-415.428	-200.000	0.039	-0.311
-414.413	418.376	-0.137	-0.290
-413.398	27.100	-0.158	0.131
-412.384	-41.722	0.191	-0.097
-411.369	112.613	-0.058	-0.069
-410.355	-72.420	0.198	0.072
-409.340	119.643	0.097	-0.118
-408.325	-158.084	0.078	0.005
-407.311	-117.488	-0.053	0.010
-406.296	-200.000	-0.017	-0.175
-405.282	-200.000	-0.017	0.162
-404.267	-73.509	0.175	0.063
-403.252	-200.000	-0.027	-0.224
-402.238	25.615	0.121	0.099
-401.223	-200.000	0.066	0.332
-400.209	715.821	-0.161	0.420
-399.194	-200.000	0.031	-0.146
-398.179	-4.087	-0.182	-0.124
-397.165	-200.000	0.071	0.358
-396.150	209.453	0.080	0.124
-395.136	360.037	0.088	0.172
-394.121	800.000	-0.081	0.265
-393.106	-200.000	-0.354	0.000
-392.092	463.564	-0.035	-0.077
-391.077	-200.000	0.042	0.343
-390.063	-120.403	0.188	-0.032
-389.048	-16.104	0.508	-0.318
-388.033	13.330	0.325	-0.248
-387.019	-200.000	0.055	0.349
-386.004	-141.229	0.280	-0.028
-384.990	272.270	-0.139	0.242
-383.975	37.391	0.143	0.125
-382.960	328.992	-0.050	-0.094
-381.946	550.352	-0.020	-0.047
-380.931	136.492	-0.081	0.105
-379.917	-7.798	-0.217	-0.144
-378.902	-111.585	-0.415	-0.083
-377.888	35.253	-0.121	0.105
-376.873	166.486	-0.084	-0.117
-375.858	-87.575	0.149	-0.044
-374.844	-21.855	-0.111	0.066
-373.829	800.000	0.027	0.076
-372.815	800.000	-0.094	-0.273
-371.800	800.000	-0.040	0.153
-370.785	-4.069	-0.267	-0.182
-369.771	-200.000	-0.004	-0.160
-368.756	588.417	-0.022	0.053
-367.742	-0.238	0.025	-0.017
-366.727	23.571	-0.125	-0.101
-365.712	-149.646	0.135	0.010
-364.698	-113.482	-0.181	-0.035
-363.683	383.803	0.172	0.348
-362.669	358.500	-0.076	-0.149
-361.654	-166.336	0.152	-0.006
-360.639	-36.768	0.279	0.147
-359.625	99.000	0.220	0.250
-358.610	-95.669	-0.255	-0.067
-357.596	-91.287	0.224	0.063
-356.581	21.838	0.230	-0.184
-355.566	132.756	-0.116	-0.148
-354.552	8.188	-0.043	0.032
-353.537	-144.116	-0.270	0.025
-352.523	-152.016	-0.176	0.013
-351.508	302.238	-0.178	0.324
-350.493	51.915	0.104	0.098
-349.479	-119.592	0.171	0.029
-348.464	800.000	-0.041	-0.178
-347.450	299.043	0.148	-0.267
-346.435	-109.197	0.092	-0.019
-345.420	172.694	0.098	0.138
-344.406	-79.564	-0.087	0.029
-343.391	69.306	0.287	0.290
-342.377	-165.048	0.323	0.014
-341.362	800.000	-0.085	0.240
-340.348	355.585	-0.169	-0.330
-339.333	-146.515	-0.337	0.029
-338.318	-57.402	-0.147	0.064
-337.304	23.066	-0.059	-0.048
-336.289	-200.000	0.003	0.032
-335.275	-92.229	0.342	-0.095
-334.260	-53.484	-0.178	0.080
-333.245	-200.000	0.046	0.352
-332.231	-33.751	-0.366	0.198
-331.216	779.050	-0.119	0.320
-330.202	800.000	0.113	0.358
-329.187	-200.000	-0.079	-0.395
-328.172	69.126	-0.077	0.078
-327.158	-95.819	0.195	0.051
-326.143	800.000	0.007	0.023
-325.129	-67.323	-0.467	0.180
-324.114	-115.695	-0.268	0.049
-323.099	237.533	-0.102	0.166
-322.085	-200.000	-0.039	-0.456
-321.070	292.660	-0.063	-0.113
-320.056	185.848	0.127	0.186
-319.041	104.345	0.132	0.153
-318.026	-200.000	-0.054	-0.248
-317.012	-5.064	-0.180	-0.122
-315.997	800.000	-0.048	-0.137
-314.983	-200.000	-0.041	0.303
-313.968	55.281	0.104	-0.098
-312.953	800.000	-0.091	0.305
-311.939	-118.584	0.074	0.013
-310.924	800.000	-0.056	-0.157
-309.910	497.625	0.135	0.305
-308.895	800.000	-0.113	-0.424
-307.880	800.000	-0.165	-0.518
-306.866	800.000	-0.103	-0.291
-305.851	131.587	0.114	-0.143
-304.837	800.000	0.033	0.120
-303.822	184.018	0.234	0.340
-302.807	-13.016	0.057	0.036
-301.793	-50.958	0.156	-0.072
-300.778	800.000	0.108	0.423
-299.764	227.731	0.046	-0.073
-298.749	200.021	0.207	0.312
-297.735	368.564	0.050	-0.098
-296.720	-152.024	0.188	0.013
-295.705	203.726	-0.269	-0.409
-294.691	180.276	0.060	0.087
-293.676	-156.172	-0.148	-0.009
-292.662	153.419	-0.073	0.098
-291.647	-174.944	0.253	-0.007
-290.632	24.274	-0.143	0.116
-289.618	-47.770	0.089	-0.042
-288.603	-58.349	-0.118	0.050
-287.589	706.991	0.086	-0.222
-286.574	-125.762	-0.206	0.031
-285.559	-10.187	0.311	-0.202
-284.545	734.985	-0.029	0.076
-283.530	341.508	0.111	-0.213
-282.516	-23.862	0.143	0.084
-281.501	-149.696	-0.254	0.020
-280.486	53.946	0.253	0.238
-279.472	77.631	-0.027	-0.028
-278.457	-16.529	0.032	-0.020
-277.443	-200.000	-0.001	0.148
-276.428	800.000	-0.102	0.391
-275.413	800.000	-0.118	0.388
-274.399	-99.774	0.184	-0.045
-273.384	-3.009	-0.254	0.174
-272.370	-101.930	-0.276	0.065
-271.355	-159.368	-0.284	-0.016
-270.340	105.242	-0.231	-0.267
-269.326	800.000	0.054	-0.212
-268.311	-200.000	0.018	0.146
-267.297	216.749	0.144	0.225
-266.282	-102.521	0.141	0.033
-265.267	92.119	-0.151	-0.167
-264.253	3.580	0.153	0.109
-263.238	351.694	-0.132	0.256
-262.224	-145.140	0.376	-0.033
-261.209	-58.695	-0.171	-0.073
-260.195	17.296	-0.085	-0.066
-259.180	-122.680	-0.007	0.001
-258.165	-200.000	-0.044	-0.289
-257.151	-112.855	0.089	0.017
-256.136	-200.000	-0.108	-0.498
-255.122	-200.000	-0.031	-0.225
-254.107	16.619	0.207	0.160
-253.092	-44.445	0.260	-0.127
-252.078	-11.096	-0.054	-0.035
-251.063	-200.000	-0.008	0.040
-250.049	-81.236	-0.233	0.075
-249.034	353.345	0.263	0.511
-248.019	0.228	0.345	0.241
-247.005	358.765	0.110	-0.216
-245.990	-51.143	0.367	0.168
-244.976	224.623	0.069	0.110
-243.961	-185.551	-0.214	0.003
-242.946	-200.000	-0.020	0.253
-241.932	68.637	-0.066	0.066
-240.917	-150.090	-0.499	0.038
-239.903	235.550	0.216	-0.350
-238.888	-200.000	-0.097	-0.442
-237.873	-45.570	0.162	-0.079
-236.859	-120.992	0.334	-0.055
-235.844	-19.238	0.078	-0.048
-234.830	-200.000	0.056	0.286
-233.815	-200.000	0.093	-0.483
-232.800	-48.551	0.110	-0.052
-231.786	-86.257	0.155	0.047
-230.771	-124.163	0.390	0.060
-229.757	593.115	-0.081	0.196
-228.742	-48.638	0.242	0.114
-227.727	-104.123	-0.206	-0.047
-226.713	-112.358	0.053	0.010
-225.698	140.828	0.048	0.061
-224.684	-69.015	-0.195	0.073
-223.669	-200.000	-0.038	-0.197
-222.655	-94.188	-0.416	0.111
-221.640	-152.224	0.068	-0.005
-220.625	-200.000	0.027	-0.120
-219.611	-200.000	0.015	-0.087
-218.596	739.565	-0.095	0.248
-217.582	183.819	-0.154	-0.223
-216.567	-115.473	-0.224	0.041
-215.552	-142.401	-0.218	0.021
-214.538	146.901	0.105	-0.138
-213.523	-200.000	-0.023	-0.123
-212.509	800.000	0.102	-0.344
-211.494	-64.167	-0.334	0.133
-210.479	-149.838	-0.155	0.012
-209.465	336.021	0.047	0.089
-208.450	-200.000	-0.025	-0.162
-207.436	-3.163	0.315	-0.215
-206.421	-200.000	0.013	-0.190
-205.406	-200.000	-0.010	-0.047
-204.392	-51.122	0.216	-0.099
-203.377	11.728	-0.214	-0.161
-202.363	800.000	-0.064	0.211
-201.348	634.997	0.021	-0.052
-200.333	239.349	0.097	-0.158
-199.319	-54.019	0.225	-0.100
-198.304	-160.570	-0.420	-0.022
-197.290	-200.000	0.046	-0.283
-196.275	499.311	0.039	0.089
-195.260	93.495	0.148	-0.164
-194.246	800.000	-0.067	0.260
-193.231	-200.000	0.011	0.147
-192.217	-0.881	0.073	0.050
-191.202	-160.877	-0.390	0.020
-190.187	311.024	-0.173	0.318
-189.173	184.721	-0.021	0.030
-188.158	800.000	-0.032	0.110
-187.144	95.225	0.147	-0.164
-186.129	-75.642	0.257	0.089
-185.114	347.060	0.049	-0.095
-184.100	-19.439	0.159	-0.096
-183.085	230.889	0.178	-0.285
-182.071	800.000	-0.116	-0.362
-181.056	800.000	-0.056	-0.208
-180.042	-200.000	-0.019	0.127
-179.027	-200.000	0.000	0.284
-178.012	167.838	-0.122	-0.169
-176.998	-33.027	-0.321	0.174
-175.983	508.823	0.131	-0.298
-174.969	99.321	0.042	-0.048
-173.954	-32.512	0.247	0.134
-172.939	377.466	-0.116	0.232
-171.925	711.306	0.068	-0.176
-170.910	132.441	-0.229	-0.288
-169.896	-200.000	0.065	0.312
-168.881	-200.000	0.007	0.226
-167.866	128.615	-0.247	0.308
-166.852	99.829	0.241	0.273
-165.837	261.121	-0.049	-0.083
-164.823	91.148	0.115	0.126
-163.808	800.000	-0.091	0.280
-162.793	-3.827	-0.279	0.189
-161.779	-137.076	0.070	-0.008
-160.764	800.000	0.067	-0.277
-159.750	264.580	-0.040	0.069
-158.735	-54.442	0.308	-0.136
-157.720	24.502	0.165	0.133
-156.706	165.695	0.176	-0.242
-155.691	283.592	0.125	-0.219
-154.677	-24.890	0.328	0.190
-153.662	-117.343	0.375	0.066
-152.647	542.393	-0.128	-0.299
-151.633	570.244	-0.104	0.247
-150.618	2.398	0.096	0.068
-149.604	714.617	-0.059	-0.153
-148.589	182.573	-0.119	0.172
-147.574	44.413	0.023	0.020
-146.560	63.618	0.165	0.162
-145.545	800.000	-0.018	-0.051
-144.531	-57.924	-0.233	0.099
-143.516	268.395	0.112	-0.192
-142.502	-200.000	-0.019	-0.173
-141.487	-200.000	0.063	0.521
-140.472	149.849	0.228	0.302
-139.458	-139.365	0.280	-0.029
-138.443	53.160	-0.309	-0.289
-137.429	800.000	-0.113	0.316
-136.414	446.402	0.135	-0.289
-135.399	-200.000	0.044	0.205
-134.385	-67.587	0.309	-0.118
-133.370	-110.669	-0.146	-0.029
-132.356	175.996	0.084	0.118
-131.341	62.357	-0.095	-0.092
-130.326	-6.029	-0.168	0.112
-129.312	223.276	0.171	-0.268
-128.297	-113.928	-0.116	0.022
-127.283	-200.000	0.021	0.109
-126.268	-61.944	0.420	-0.171
-125.253	209.496	0.162	0.247
-124.239	800.000	-0.048	0.201
-123.224	-200.000	0.014	0.064
-122.210	134.718	0.199	0.252
-121.195	-200.000	0.079	-0.393
