DTS Sentinel unit serial number:	SN413079Multiplexer serial number:	ORYXHardware model number:	OX4-SRSoftware version number:	ORYX F/W v4.00 Oryx Data Collector v3.7.2.0data status	okinstallation	princeton_trtdifferential loss correction	single-endedforward channel	channel 2reverse channel	N/Adate	2019/09/14time	18:15:35forward acquisition time	60.00reverse acquisition time	0.00gamma	496.2192k internal	0.2316k external	0.2316temperature offset calibration	1.0108default loss term (dB/km)	0.3790temperature slope calibration	1.0000multiplexer offset coefficient	1.0000multiplexer slope coefficient	1.0000fibre end	0.00T internal ref (°C)	37.02T ext. ref 1 (°C)	4.95T ext. ref 2 (°C)	31.17length (m)	temperature (°C)	Stokes	anti-Stokes-747.200	377.489	-0.094	-0.195
-746.185	325.284	0.048	-0.093
-745.171	-200.000	0.052	0.251
-744.156	135.494	0.160	0.211
-743.142	-122.298	-0.118	-0.019
-742.127	800.000	-0.061	0.193
-741.112	-183.190	0.090	0.002
-740.098	189.353	-0.062	-0.095
-739.083	470.645	-0.073	-0.167
-738.069	800.000	-0.024	0.101
-737.054	363.342	0.070	-0.142
-736.039	-148.605	-0.573	0.047
-735.025	-0.821	0.205	-0.147
-734.010	-200.000	-0.004	-0.209
-732.996	-38.636	0.050	0.027
-731.981	800.000	-0.086	-0.280
-730.966	-118.071	-0.046	0.008
-729.952	75.601	-0.131	0.140
-728.937	113.848	-0.135	-0.166
-727.923	-117.363	0.294	0.054
-726.908	-200.000	-0.020	-0.299
-725.894	-114.183	-0.092	-0.018
-724.879	-120.221	0.257	-0.044
-723.864	-136.340	-0.143	-0.017
-722.850	266.563	-0.136	0.241
-721.835	-0.001	-0.049	-0.036
-720.821	-168.436	-0.137	0.005
-719.806	-97.172	0.257	-0.068
-718.791	-9.148	0.192	-0.130
-717.777	-31.333	-0.329	0.187
-716.762	31.372	0.090	-0.078
-715.748	-200.000	-0.047	0.219
-714.733	800.000	-0.043	-0.185
-713.718	-200.000	-0.006	0.054
-712.704	-200.000	-0.066	0.356
-711.689	-191.517	-0.252	-0.003
-710.675	187.441	0.084	0.127
-709.660	800.000	-0.086	-0.358
-708.645	-93.425	0.304	0.085
-707.631	-162.376	0.343	-0.017
-706.616	101.206	0.066	0.077
-705.602	-200.000	-0.015	-0.349
-704.587	347.133	0.101	0.202
-703.572	-34.239	-0.067	0.037
-702.558	-42.498	0.296	-0.153
-701.543	39.272	-0.230	0.209
-700.529	-38.337	0.086	-0.046
-699.514	-35.265	0.322	-0.177
-698.499	-200.000	0.007	0.141
-697.485	-112.859	-0.266	0.053
-696.470	800.000	0.085	0.240
-695.456	40.624	-0.158	-0.144
-694.441	800.000	-0.036	-0.105
-693.426	317.828	0.057	-0.109
-692.412	-5.280	0.274	-0.190
-691.397	-200.000	0.003	-0.252
-690.383	-94.907	-0.224	-0.061
-689.368	-37.454	0.498	-0.269
-688.354	124.277	-0.130	-0.165
-687.339	-4.405	-0.143	-0.100
-686.324	-200.000	0.006	0.082
-685.310	800.000	0.038	0.152
-684.295	28.661	0.286	-0.245
-683.281	256.552	0.094	-0.163
-682.266	-200.000	-0.012	-0.111
-681.251	113.860	0.098	0.121
-680.237	800.000	-0.081	-0.334
-679.222	41.565	0.053	0.049
-678.208	-200.000	-0.019	-0.091
-677.193	262.620	-0.091	0.159
-676.178	-39.301	-0.094	-0.050
-675.164	-47.181	0.156	0.077
-674.149	67.923	0.249	-0.257
-673.135	-65.954	-0.160	-0.064
-672.120	-159.415	0.086	0.005
-671.105	257.938	0.086	-0.150
-670.091	-200.000	0.028	-0.142
-669.076	105.102	-0.162	0.194
-668.062	-112.011	-0.169	-0.034
-667.047	25.465	0.214	-0.180
-666.032	0.901	0.133	-0.097
-665.018	-167.849	-0.149	0.006
-664.003	348.916	0.136	-0.271
-662.989	305.654	0.061	-0.114
-661.974	-10.361	-0.069	0.046
-660.959	-200.000	0.033	-0.153
-659.945	346.634	-0.205	-0.408
-658.930	-69.620	0.180	-0.069
-657.916	466.739	0.108	-0.244
-656.901	153.425	0.087	-0.120
-655.886	800.000	-0.014	-0.039
-654.872	-47.532	0.394	0.193
-653.857	-110.483	-0.067	-0.014
-652.843	34.382	0.178	0.157
-651.828	-200.000	-0.009	-0.047
-650.814	120.770	0.165	0.207
-649.799	-200.000	0.009	0.142
-648.784	800.000	0.044	-0.126
-647.770	-200.000	0.029	0.174
-646.755	97.795	0.162	0.188
-645.741	-200.000	-0.023	0.127
-644.726	86.073	0.196	0.218
-643.711	-72.467	-0.345	-0.129
-642.697	-130.691	-0.453	-0.062
-641.682	125.053	0.153	-0.195
-640.668	-153.659	0.188	-0.013
-639.653	-23.467	-0.340	-0.206
-638.638	-60.127	-0.319	-0.137
-637.624	411.067	-0.042	0.089
-636.609	-200.000	0.012	-0.287
-635.595	-200.000	-0.014	0.087
-634.580	183.508	0.043	0.064
-633.565	-50.103	0.184	-0.088
-632.551	-155.360	-0.129	0.008
-631.536	800.000	-0.041	0.167
-630.522	105.264	-0.195	0.232
-629.507	-104.348	-0.078	-0.018
-628.492	179.778	0.057	-0.084
-627.478	34.179	-0.229	0.201
-626.463	-200.000	0.012	-0.169
-625.449	-58.997	-0.199	0.087
-624.434	-200.000	-0.050	0.402
-623.419	718.969	-0.070	-0.187
-622.405	-64.793	-0.312	-0.127
-621.390	38.640	-0.217	-0.195
-620.376	192.569	0.016	-0.024
-619.361	177.220	0.269	-0.395
-618.346	-147.831	0.098	0.008
-617.332	-176.813	0.040	0.001
-616.317	-0.628	-0.265	-0.190
-615.303	-200.000	-0.017	0.112
-614.288	-200.000	0.005	-0.119
-613.273	-200.000	-0.043	-0.283
-612.259	-109.959	-0.354	0.075
-611.244	658.098	0.177	-0.458
-610.230	639.242	0.012	0.031
-609.215	-73.528	-0.192	-0.070
-608.201	-200.000	0.022	-0.187
-607.186	-200.000	-0.007	-0.230
-606.171	66.179	0.252	-0.258
-605.157	800.000	0.055	-0.225
-604.142	-82.059	0.191	0.063
-603.128	-40.728	-0.147	-0.077
-602.113	74.912	0.122	-0.129
-601.098	800.000	0.085	-0.360
-600.084	555.261	-0.045	0.109
-599.069	108.593	-0.077	0.093
-598.055	217.934	0.114	-0.183
-597.040	26.849	0.083	-0.070
-596.025	-42.612	-0.028	0.014
-595.011	-180.598	0.331	-0.007
-593.996	456.422	-0.099	-0.222
-592.982	75.005	-0.264	-0.280
-591.967	-17.860	-0.295	0.187
-590.952	185.154	0.087	-0.131
-589.938	-200.000	0.058	0.439
-588.923	50.471	0.119	-0.113
-587.909	-111.394	-0.209	0.043
-586.894	367.193	0.052	-0.107
-585.879	656.530	0.096	-0.248
-584.865	606.184	-0.056	-0.140
-583.850	174.798	0.052	-0.076
-582.836	-101.778	-0.425	-0.104
-581.821	40.857	-0.070	0.063
-580.806	-100.293	-0.148	0.037
-579.792	14.054	-0.233	-0.183
-578.777	-119.094	0.287	-0.051
-577.763	141.582	-0.123	0.164
-576.748	-54.274	-0.352	-0.161
-575.733	-200.000	-0.004	0.035
-574.719	292.865	-0.100	0.183
-573.704	-107.369	-0.245	-0.054
-572.690	-200.000	0.013	-0.124
-571.675	383.948	0.111	-0.230
-570.661	-200.000	0.016	0.308
-569.646	84.631	-0.105	-0.115
-568.631	-200.000	-0.008	0.109
-567.617	-200.000	-0.024	0.221
-566.602	109.807	0.041	-0.049
-565.588	-69.133	0.313	0.121
-564.573	-200.000	-0.082	-0.366
-563.558	-200.000	-0.042	-0.392
-562.544	-84.213	0.297	0.095
-561.529	-105.220	0.159	-0.036
-560.515	-33.230	0.097	0.054
-559.500	-126.761	-0.302	-0.045
-558.485	-200.000	0.001	-0.039
-557.471	-97.793	0.021	-0.005
-556.456	-118.721	-0.073	-0.013
-555.442	-124.762	-0.145	-0.023
-554.427	116.201	-0.203	-0.250
-553.412	-82.539	-0.093	0.030
-552.398	-4.720	0.232	0.161
-551.383	-200.000	0.066	0.423
-550.369	-115.878	0.105	0.020
-549.354	48.391	0.080	0.075
-548.339	-139.108	-0.227	0.025
-547.325	-200.000	0.009	-0.041
-546.310	59.731	-0.104	-0.103
-545.296	-5.731	0.288	-0.198
-544.281	97.703	0.337	0.389
-543.266	-68.511	0.137	-0.053
-542.252	-64.913	0.091	0.037
-541.237	9.388	-0.190	0.145
-540.223	7.444	0.189	0.142
-539.208	-100.503	-0.263	0.065
-538.193	-166.933	-0.210	-0.009
-537.179	800.000	0.029	-0.123
-536.164	800.000	-0.032	0.125
-535.150	-110.621	-0.224	-0.047
-534.135	-138.314	-0.262	-0.029
-533.121	242.432	-0.152	-0.255
-532.106	800.000	-0.105	0.302
-531.091	256.865	0.055	0.095
-530.077	730.526	0.027	-0.073
-529.062	-200.000	-0.005	-0.091
-528.048	800.000	-0.043	0.156
-527.033	-27.392	0.058	-0.034
-526.018	19.904	-0.103	-0.084
-525.004	-25.833	-0.386	-0.229
-523.989	-197.072	-0.210	-0.001
-522.975	-200.000	-0.004	-0.294
-521.960	167.371	0.133	0.189
-520.945	208.296	0.198	0.312
-519.931	-56.668	0.110	-0.049
-518.916	-162.813	0.245	0.012
-517.902	145.208	-0.131	0.177
-516.887	-44.279	0.139	-0.070
-515.872	40.991	0.191	0.174
-514.858	-200.000	-0.012	-0.159
-513.843	-200.000	-0.017	-0.248
-512.829	-158.319	0.310	0.018
-511.814	-158.828	-0.344	0.020
-510.799	-200.000	0.010	-0.103
-509.785	-20.737	-0.156	-0.096
-508.770	-10.611	-0.240	-0.160
-507.756	4.999	-0.071	-0.052
-506.741	223.812	-0.082	-0.132
-505.726	69.158	-0.149	0.154
-504.712	491.624	0.068	-0.156
-503.697	-17.643	-0.214	-0.135
-502.683	105.263	-0.076	0.090
-501.668	-36.410	0.165	0.089
-500.653	310.325	-0.195	0.367
-499.639	-200.000	0.066	0.431
-498.624	-52.441	-0.177	-0.082
-497.610	28.751	-0.180	-0.153
-496.595	34.195	-0.060	-0.052
-495.581	-105.307	-0.201	-0.046
-494.566	-7.574	0.134	-0.091
-493.551	-39.620	-0.289	-0.152
-492.537	-172.377	0.171	0.005
-491.522	312.436	0.055	0.103
-490.508	-62.727	0.156	-0.065
-489.493	-200.000	-0.017	-0.138
-488.478	-200.000	0.023	0.264
-487.464	-200.000	-0.001	-0.130
-486.449	-70.965	-0.489	-0.184
-485.435	-102.580	0.395	0.095
-484.420	132.794	-0.031	0.041
-483.405	-35.101	-0.127	-0.070
-482.391	154.923	-0.043	-0.060
-481.376	-63.822	-0.101	0.042
-480.362	-200.000	0.011	0.115
-479.347	125.357	-0.035	0.044
-478.332	-131.772	-0.089	0.012
-477.318	-30.461	-0.279	0.159
-476.303	123.905	0.109	0.137
-475.289	-112.039	0.149	-0.030
-474.274	-50.607	-0.367	0.173
-473.259	-178.628	-0.282	0.007
-472.245	-151.067	0.117	-0.009
-471.230	8.520	-0.166	0.125
-470.216	323.551	0.089	0.170
-469.201	-52.439	0.054	0.025
-468.186	-200.000	-0.002	0.161
-467.172	800.000	-0.080	0.245
-466.157	5.588	0.130	-0.096
-465.143	-61.523	0.256	0.108
-464.128	-86.161	-0.225	-0.069
-463.113	800.000	0.082	0.270
-462.099	-130.837	0.131	0.018
-461.084	-90.739	-0.123	-0.036
-460.070	-160.908	0.247	0.013
-459.055	150.611	-0.023	0.031
-458.040	-7.434	-0.231	-0.157
-457.026	-33.613	0.248	-0.137
-456.011	-84.020	0.195	0.062
-454.997	51.520	-0.330	0.314
-453.982	-15.582	-0.109	0.069
-452.968	13.959	-0.255	-0.199
-451.953	-20.915	-0.377	0.231
-450.938	-114.290	0.019	-0.004
-449.924	-21.523	0.142	-0.087
-448.909	800.000	-0.085	0.238
-447.895	428.877	0.159	0.343
-446.880	-88.239	0.149	-0.045
-445.865	-21.163	-0.203	0.125
-444.851	-132.574	0.183	0.024
-443.836	-5.588	-0.022	0.015
-442.822	-200.000	0.003	-0.196
-441.807	-163.638	0.292	0.014
-440.792	-33.022	0.239	0.133
-439.778	-39.819	-0.215	0.113
-438.763	-93.493	0.190	-0.053
-437.749	-52.767	-0.151	-0.070
-436.734	-143.298	0.156	-0.015
-435.719	-149.721	-0.398	0.031
-434.705	-94.716	0.143	0.039
-433.690	-183.276	0.137	-0.002
-432.676	512.699	0.114	0.266
-431.661	-200.000	-0.032	-0.225
-430.646	-44.021	0.167	0.084
-429.632	800.000	0.102	0.318
-428.617	-121.165	0.202	0.034
-427.603	-103.568	0.041	-0.010
-426.588	89.445	-0.184	-0.205
-425.573	37.815	0.170	0.151
-424.559	271.039	0.064	-0.112
-423.544	160.207	0.238	0.332
-422.530	-96.043	-0.207	0.055
-421.515	-39.128	-0.242	-0.127
-420.500	-200.000	0.050	-0.310
-419.486	201.263	-0.162	0.249
-418.471	99.053	0.060	-0.069
-417.457	-200.000	0.008	-0.047
-416.442	161.287	-0.094	0.131
-415.428	-200.000	0.017	-0.115
-414.413	159.858	-0.189	0.264
-413.398	-62.624	-0.128	0.053
-412.384	168.422	-0.105	-0.149
-411.369	311.002	0.178	-0.333
-410.355	133.510	0.029	-0.038
-409.340	-27.526	0.094	0.054
-408.325	-200.000	0.047	0.470
-407.311	422.024	0.105	0.226
-406.296	577.855	0.107	0.261
-405.282	-44.883	-0.390	0.194
-404.267	-18.756	0.102	0.063
-403.252	800.000	0.056	-0.205
-402.238	132.788	0.233	-0.300
-401.223	-149.220	0.355	-0.028
-400.209	-130.200	0.303	0.041
-399.194	-2.076	-0.079	0.056
-398.179	800.000	-0.080	-0.262
-397.165	800.000	0.050	-0.185
-396.150	-200.000	0.025	-0.368
-395.136	-160.254	-0.318	0.017
-394.121	-69.162	-0.218	-0.084
-393.106	-158.097	0.077	-0.004
-392.092	-196.166	-0.217	-0.002
-391.077	35.825	0.167	0.147
-390.063	-51.871	0.048	0.022
-389.048	-102.064	-0.294	-0.071
-388.033	-68.068	-0.175	0.068
-387.019	-132.115	0.183	0.024
-386.004	-52.915	0.076	-0.035
-384.990	-152.168	-0.151	0.011
-383.975	-130.949	0.338	-0.045
-382.960	45.437	-0.056	-0.052
-381.946	5.587	0.373	0.275
-380.931	-54.202	-0.163	0.074
-379.917	-166.880	0.159	0.007
-378.902	-173.851	0.124	0.004
-377.888	297.937	-0.254	-0.465
-376.873	-200.000	-0.037	-0.444
-375.858	-119.234	-0.200	-0.035
-374.844	-68.797	0.306	-0.118
-373.829	-155.089	-0.095	0.006
-372.815	-200.000	0.014	-0.196
-371.800	-200.000	0.006	-0.080
-370.785	75.198	0.223	-0.234
-369.771	800.000	0.082	-0.268
-368.756	-152.279	-0.176	-0.013
-367.742	-200.000	0.079	0.405
-366.727	-158.713	0.356	-0.020
-365.712	253.203	0.148	0.252
-364.698	24.526	-0.091	-0.075
-363.683	-135.607	0.175	0.021
-362.669	800.000	-0.078	0.309
-361.654	113.756	-0.211	0.256
-360.639	-60.296	0.083	0.035
-359.625	800.000	-0.072	-0.208
-358.610	9.817	-0.207	-0.157
-357.596	800.000	0.044	-0.175
-356.581	-149.930	0.112	0.009
-355.566	800.000	-0.082	0.245
-354.552	800.000	0.086	-0.319
-353.537	55.417	-0.045	-0.044
-352.523	89.080	0.036	-0.040
-351.508	-8.779	0.247	0.166
-350.493	-101.386	0.618	-0.150
-349.479	-200.000	-0.031	0.192
-348.464	-200.000	-0.004	-0.131
-347.450	-135.608	0.304	0.036
-346.435	84.595	0.243	-0.265
-345.420	-45.808	0.224	-0.110
-344.406	-200.000	0.001	0.075
-343.391	800.000	-0.071	0.212
-342.377	-27.804	-0.198	-0.115
-341.362	-57.075	0.150	-0.066
-340.348	327.169	0.127	-0.242
-339.333	118.258	0.066	-0.081
-338.318	-161.096	-0.204	0.011
-337.304	-121.593	-0.031	0.005
-336.289	-200.000	0.022	0.152
-335.275	17.311	-0.232	-0.183
-334.260	406.631	0.083	-0.175
-333.245	800.000	-0.031	-0.132
-332.231	19.654	0.229	0.183
-331.216	-111.622	-0.430	-0.087
-330.202	-7.269	-0.291	0.196
-329.187	-16.699	-0.364	0.230
-328.172	696.444	0.064	0.169
-327.158	46.842	-0.149	0.138
-326.143	-66.076	-0.169	-0.067
-325.129	-55.743	0.371	0.165
-324.114	-200.000	0.018	-0.152
-323.099	800.000	0.115	-0.356
-322.085	-200.000	-0.004	-0.212
-321.070	327.230	0.121	0.231
-320.056	-86.303	0.059	-0.018
-319.041	-142.565	0.279	-0.027
-318.026	63.922	0.325	0.325
-317.012	-84.882	-0.201	0.063
-315.997	453.288	-0.098	-0.215
-314.983	800.000	0.072	0.297
-313.968	-75.357	-0.246	0.087
-312.953	-158.509	-0.194	-0.011
-311.939	74.104	-0.122	-0.128
-310.924	-105.338	0.032	-0.007
-309.910	189.379	0.156	-0.233
-308.895	-61.077	-0.189	0.079
-307.880	89.494	0.148	0.165
-306.866	-9.111	-0.265	-0.177
-305.851	-73.283	0.146	-0.053
-304.837	-126.131	0.449	-0.067
-303.822	-84.950	0.061	0.019
-302.807	50.578	-0.182	0.171
-301.793	-28.165	-0.278	0.160
-300.778	-148.165	-0.193	-0.016
-299.764	-200.000	-0.036	0.238
-298.749	32.651	0.105	0.091
-297.735	600.511	0.124	-0.306
-296.720	360.678	0.131	-0.260
-295.705	-127.898	0.073	0.011
-294.691	197.218	-0.244	0.370
-293.676	800.000	0.150	0.433
-292.662	158.752	-0.103	-0.143
-291.647	-35.383	-0.325	-0.176
-290.632	470.435	0.084	-0.187
-289.618	258.394	-0.125	0.214
-288.603	800.000	-0.036	0.101
-287.589	-111.266	-0.319	-0.065
-286.574	-51.352	0.160	0.075
-285.559	-39.995	0.286	0.148
-284.545	-110.132	0.090	-0.019
-283.530	84.412	0.096	-0.104
-282.516	-94.282	0.198	-0.054
-281.501	-52.056	0.232	0.107
-280.486	208.599	-0.138	-0.214
-279.472	-101.595	0.276	0.067
-278.457	-6.451	0.223	-0.152
-277.443	800.000	-0.035	-0.122
-276.428	-159.414	0.061	0.003
-275.413	-36.238	0.175	-0.094
-274.399	77.061	-0.481	-0.508
-273.384	-200.000	-0.017	-0.102
-272.370	259.534	0.114	0.195
-271.355	276.476	0.052	-0.091
-270.340	240.137	-0.115	0.191
-269.326	41.258	-0.097	0.087
-268.311	-1.994	-0.175	0.122
-267.297	159.930	-0.105	0.145
-266.282	-200.000	0.010	0.279
-265.267	-200.000	-0.003	0.080
-264.253	-200.000	-0.006	-0.129
-263.238	-200.000	-0.002	0.242
-262.224	-75.006	0.079	-0.028
-261.209	771.402	0.057	0.155
-260.195	800.000	-0.062	-0.235
-259.180	800.000	0.058	-0.162
-258.165	3.874	0.383	0.278
-257.151	-131.663	0.286	0.037
-256.136	-200.000	0.005	0.176
-255.122	-70.530	0.152	0.057
-254.107	-175.453	-0.070	0.002
-253.092	230.399	-0.069	-0.112
-252.078	69.646	-0.218	0.223
-251.063	-19.389	0.330	0.203
-250.049	-200.000	0.024	-0.158
-249.034	800.000	0.067	-0.212
-248.019	80.864	-0.164	-0.176
-247.005	7.306	0.208	0.154
-245.990	-200.000	0.018	-0.116
-244.976	153.232	0.173	-0.236
-243.961	9.374	-0.330	-0.248
-242.946	-200.000	-0.002	0.059
-241.932	-200.000	-0.008	0.461
-240.917	-97.443	0.390	0.101
-239.903	-93.068	0.274	-0.076
-238.888	109.705	-0.195	0.232
-237.873	20.938	0.206	0.166
-236.859	38.664	-0.167	0.148
-235.844	-200.000	-0.016	-0.301
-234.830	375.109	-0.082	0.166
-233.815	800.000	0.045	-0.195
-232.800	373.732	0.034	-0.070
-231.786	-113.196	0.295	0.058
-230.771	-79.458	-0.144	-0.048
-229.757	-200.000	-0.032	-0.177
-228.742	800.000	0.019	-0.065
-227.727	67.601	-0.142	-0.144
-226.713	-43.660	0.047	0.024
-225.698	-200.000	-0.002	0.091
-224.684	31.424	-0.146	-0.124
-223.669	-200.000	-0.047	-0.222
-222.655	-133.423	0.076	0.009
-221.640	398.170	0.018	0.037
-220.625	-67.942	0.439	0.170
-219.611	-5.879	0.188	-0.127
-218.596	-200.000	0.001	-0.146
-217.582	-64.117	-0.183	-0.074
-216.567	-200.000	0.064	-0.291
-215.552	800.000	0.045	0.162
-214.538	-74.511	0.332	-0.119
-213.523	11.651	0.028	0.021
-212.509	800.000	-0.020	0.076
-211.494	133.566	-0.209	0.268
-210.479	77.421	-0.266	-0.280
-209.465	-39.578	-0.023	0.012
-208.450	129.599	-0.089	-0.113
-207.436	-65.050	0.037	0.015
-206.421	32.642	0.064	0.055
-205.406	153.339	-0.088	0.120
-204.392	-200.000	-0.008	0.300
-203.377	-200.000	-0.038	0.178
-202.363	-107.350	0.132	-0.029
-201.348	-188.052	-0.095	-0.001
-200.333	800.000	-0.059	-0.164
-199.319	270.976	0.178	-0.310
-198.304	800.000	-0.041	-0.114
-197.290	-20.397	0.183	-0.112
-196.275	-94.215	-0.251	0.068
-195.260	800.000	0.043	0.135
-194.246	-42.966	-0.109	-0.055
-193.231	-66.810	0.559	-0.219
-192.217	-66.541	-0.156	0.061
-191.202	-77.358	0.289	0.099
-190.187	29.872	0.080	0.067
-189.173	-200.000	-0.000	0.115
-188.158	161.820	-0.182	0.253
-187.144	-200.000	0.038	-0.203
-186.129	-69.820	-0.211	-0.080
-185.114	-200.000	0.024	0.306
-184.100	800.000	0.066	0.189
-183.085	78.562	-0.126	-0.134
-182.071	401.473	0.062	-0.129
-181.056	-32.489	-0.162	0.089
-180.042	-21.270	0.363	0.220
-179.027	-110.903	0.189	0.039
-178.012	-105.952	-0.449	-0.100
-176.998	-107.165	0.262	-0.057
-175.983	-144.305	-0.036	-0.003
-174.969	110.647	-0.186	0.222
-173.954	32.147	0.530	0.453
-172.939	156.767	0.084	0.116
-171.925	255.550	0.054	0.092
-170.910	215.692	-0.049	-0.077
-169.896	-200.000	-0.002	0.071
-168.881	-64.732	0.302	0.121
-167.866	-200.000	-0.004	0.136
-166.852	-128.390	0.214	-0.030
-165.837	-2.729	0.320	-0.222
-164.823	-94.982	0.079	0.021
-163.808	-135.896	-0.415	-0.048
-162.793	-180.057	0.249	-0.005
-161.779	82.510	-0.064	-0.069
-160.764	65.130	0.110	0.110
-159.750	-93.079	-0.220	-0.061
-158.735	253.390	0.186	0.314
-157.720	89.388	0.165	0.182
-156.706	-72.385	-0.289	-0.106
-155.691	-200.000	-0.003	0.126
-154.677	-148.781	-0.107	0.009
-153.662	493.507	0.074	0.167
-152.647	800.000	0.021	-0.081
-151.633	720.520	-0.053	0.140
-150.618	-200.000	0.041	0.252
-149.604	-185.219	-0.153	0.002
-148.589	-79.945	-0.185	-0.061
-147.574	169.050	0.053	0.075
-146.560	800.000	-0.114	-0.385
-145.545	-200.000	0.100	-0.455
-144.531	227.598	-0.065	-0.105
-143.516	-52.003	0.164	-0.075
-142.502	774.539	0.086	0.233
-141.487	530.620	-0.118	-0.276
-140.472	-95.027	-0.172	0.046
-139.458	-142.766	-0.036	-0.003
-138.443	-56.880	-0.155	0.068
-137.429	-78.122	0.269	-0.092
-136.414	19.755	0.146	0.117
-135.399	-59.382	0.224	0.095
-134.385	572.575	0.021	0.052
-133.370	17.403	0.247	-0.194
-132.356	-6.317	0.269	0.182
-131.341	-97.130	0.116	-0.030
-130.326	-200.000	-0.000	-0.383
-129.312	-200.000	0.034	-0.329
-128.297	-200.000	-0.084	-0.425
-127.283	-120.521	0.344	-0.058
-126.268	382.378	0.098	-0.200
-125.253	-49.144	0.114	0.054
-124.239	-149.366	0.247	0.019
-123.224	-84.433	0.158	-0.049
-122.210	-134.457	0.271	-0.033
