DTS Sentinel unit serial number:	SN413079Multiplexer serial number:	ORYXHardware model number:	OX4-SRSoftware version number:	ORYX F/W v4.00 Oryx Data Collector v3.7.2.0data status	okinstallation	princeton_trtdifferential loss correction	single-endedforward channel	channel 2reverse channel	N/Adate	2019/09/10time	22:33:10forward acquisition time	60.00reverse acquisition time	0.00gamma	496.2192k internal	0.2329k external	0.2329temperature offset calibration	0.9942default loss term (dB/km)	0.3790temperature slope calibration	1.0000multiplexer offset coefficient	1.0000multiplexer slope coefficient	1.0000fibre end	0.00T internal ref (°C)	30.31T ext. ref 1 (°C)	-0.32T ext. ref 2 (°C)	23.79length (m)	temperature (°C)	Stokes	anti-Stokes-747.200	260.768	0.062	0.108
-746.185	213.192	-0.048	0.077
-745.171	-52.199	0.337	0.157
-744.156	-111.060	-0.055	-0.011
-743.142	103.871	-0.076	0.090
-742.127	650.143	0.015	0.038
-741.112	244.840	0.154	0.261
-740.098	190.516	-0.184	0.278
-739.083	650.165	0.042	-0.107
-738.069	800.000	0.033	-0.115
-737.054	-200.000	0.008	-0.134
-736.039	800.000	-0.061	-0.261
-735.025	-125.725	0.100	0.015
-734.010	262.462	-0.216	-0.378
-732.996	178.627	0.114	-0.168
-731.981	46.303	-0.272	0.254
-730.966	-200.000	-0.042	0.257
-729.952	-155.795	-0.302	-0.019
-728.937	-92.324	0.180	-0.051
-727.923	-200.000	0.042	-0.395
-726.908	66.052	-0.093	-0.095
-725.894	-88.910	-0.397	-0.118
-724.879	-171.651	-0.228	-0.008
-723.864	-200.000	0.023	-0.244
-722.850	18.868	-0.120	-0.097
-721.835	-200.000	0.022	-0.107
-720.821	-103.396	0.220	0.052
-719.806	-22.870	0.233	-0.142
-718.791	-87.438	-0.332	0.101
-717.777	13.560	0.261	0.204
-716.762	-200.000	-0.014	-0.141
-715.748	-101.022	0.092	-0.023
-714.733	800.000	0.094	-0.337
-713.718	-64.905	-0.111	-0.045
-712.704	20.210	-0.258	-0.209
-711.689	800.000	-0.014	0.048
-710.675	368.769	-0.035	0.072
-709.660	703.365	0.233	-0.618
-708.645	4.758	-0.033	-0.025
-707.631	21.244	0.283	-0.231
-706.616	187.958	0.098	-0.147
-705.602	396.069	0.032	0.068
-704.587	800.000	-0.080	-0.261
-703.572	509.322	-0.014	0.032
-702.558	-200.000	0.057	-0.270
-701.543	-200.000	0.022	-0.150
-700.529	-136.521	0.154	-0.018
-699.514	800.000	-0.092	-0.263
-698.499	298.545	-0.079	-0.146
-697.485	58.269	-0.204	0.201
-696.470	-200.000	0.036	-0.246
-695.456	-200.000	0.032	0.173
-694.441	-151.411	-0.210	0.016
-693.426	-134.213	-0.230	-0.028
-692.412	92.056	0.081	0.091
-691.397	142.866	-0.029	0.038
-690.383	-200.000	0.006	0.249
-689.368	-93.706	-0.047	-0.013
-688.354	-200.000	0.010	0.110
-687.339	204.711	0.084	-0.131
-686.324	86.135	-0.189	-0.209
-685.310	522.399	-0.087	0.205
-684.295	-47.052	0.207	-0.102
-683.281	-80.924	-0.178	-0.059
-682.266	489.986	0.140	-0.323
-681.251	-31.233	0.330	-0.187
-680.237	207.779	-0.185	0.290
-679.222	800.000	0.036	0.126
-678.208	-200.000	-0.004	-0.094
-677.193	-12.949	-0.193	-0.126
-676.178	-66.992	-0.484	0.192
-675.164	-43.890	0.223	-0.113
-674.149	-200.000	-0.038	-0.189
-673.135	-200.000	-0.035	0.173
-672.120	800.000	0.126	-0.413
-671.105	-200.000	0.062	-0.314
-670.091	-30.743	0.048	-0.027
-669.076	800.000	0.111	-0.341
-668.062	-138.320	-0.133	-0.015
-667.047	-200.000	0.071	-0.357
-666.032	171.444	0.037	-0.053
-665.018	-200.000	0.009	-0.082
-664.003	-24.336	-0.468	0.280
-662.989	18.650	-0.212	0.171
-661.974	103.421	-0.050	-0.058
-660.959	-133.884	0.320	0.040
-659.945	-200.000	-0.048	0.503
-658.930	-200.000	0.006	-0.459
-657.916	-200.000	-0.023	-0.126
-656.901	-35.434	-0.142	0.078
-655.886	104.730	-0.060	0.071
-654.872	-77.823	-0.116	0.040
-653.857	-81.913	0.125	-0.041
-652.843	25.631	-0.190	0.159
-651.828	308.684	0.141	-0.265
-650.814	236.833	0.066	-0.110
-649.799	-57.451	0.192	-0.085
-648.784	-200.000	0.050	0.241
-647.770	-24.432	0.093	-0.056
-646.755	58.417	-0.187	0.184
-645.741	420.705	-0.131	0.281
-644.726	-200.000	-0.034	-0.259
-643.711	321.146	-0.068	-0.129
-642.697	-200.000	0.057	-0.314
-641.682	-200.000	-0.008	-0.194
-640.668	291.448	-0.075	-0.137
-639.653	2.358	-0.190	-0.138
-638.638	265.473	-0.167	0.292
-637.624	800.000	0.082	0.239
-636.609	-38.897	-0.160	-0.085
-635.595	100.870	0.176	0.205
-634.580	-119.885	-0.251	0.043
-633.565	128.954	-0.155	0.198
-632.551	-16.252	-0.120	-0.076
-631.536	-200.000	0.027	0.319
-630.522	109.831	0.026	0.031
-629.507	595.898	0.096	-0.239
-628.492	222.353	0.041	0.066
-627.478	-200.000	-0.001	-0.125
-626.463	47.772	0.060	-0.057
-625.449	800.000	-0.075	-0.288
-624.434	-123.763	0.197	-0.031
-623.419	378.812	-0.096	-0.197
-622.405	800.000	-0.017	-0.052
-621.390	-66.357	-0.080	-0.032
-620.376	-81.343	0.307	-0.101
-619.361	-50.004	0.179	-0.085
-618.346	254.684	0.188	0.323
-617.332	-72.660	-0.245	-0.091
-616.317	191.747	-0.040	-0.061
-615.303	69.854	-0.073	-0.075
-614.288	-17.913	0.092	-0.058
-613.273	233.658	0.137	-0.225
-612.259	-200.000	-0.051	-0.287
-611.244	78.809	0.109	-0.117
-610.230	-143.609	-0.249	0.024
-609.215	-62.063	0.092	-0.038
-608.201	-48.135	-0.141	0.068
-607.186	800.000	-0.037	0.134
-606.171	56.545	-0.230	-0.225
-605.157	-200.000	-0.003	-0.106
-604.142	119.262	0.188	0.233
-603.128	184.418	-0.219	-0.324
-602.113	-165.869	-0.041	0.002
-601.098	800.000	0.020	0.081
-600.084	-42.918	0.034	-0.017
-599.069	800.000	0.194	0.582
-598.055	800.000	-0.033	0.131
-597.040	800.000	-0.114	-0.362
-596.025	-40.206	-0.178	-0.093
-595.011	-200.000	0.079	0.368
-593.996	112.766	0.087	0.106
-592.982	407.504	-0.068	-0.145
-591.967	-6.418	-0.100	0.068
-590.952	229.122	-0.133	0.216
-589.938	-15.843	-0.151	0.096
-588.923	-58.706	-0.366	0.159
-587.909	257.422	-0.115	-0.199
-586.894	-200.000	0.132	-0.000
-585.879	-139.957	-0.203	0.022
-584.865	34.784	0.276	0.242
-583.850	-4.225	-0.112	0.078
-582.836	-36.579	0.269	-0.145
-581.821	-108.182	-0.442	-0.096
-580.806	-66.091	0.321	0.128
-579.792	66.022	0.331	0.336
-578.777	-67.568	0.051	0.020
-577.763	-94.075	-0.467	0.128
-576.748	800.000	-0.048	0.186
-575.733	-8.522	0.124	-0.083
-574.719	800.000	-0.075	0.213
-573.704	-200.000	-0.004	0.074
-572.690	-39.007	-0.111	0.059
-571.675	530.923	0.047	-0.112
-570.661	77.837	0.126	-0.134
-569.646	800.000	0.026	-0.078
-568.631	123.592	-0.153	-0.192
-567.617	156.229	-0.122	0.168
-566.602	117.473	0.147	-0.181
-565.588	-122.660	-0.288	-0.047
-564.573	-96.443	-0.184	-0.049
-563.558	-200.000	-0.004	-0.054
-562.544	71.611	0.056	0.058
-561.529	-42.098	-0.315	-0.161
-560.515	614.893	-0.033	0.082
-559.500	408.302	0.163	-0.345
-558.485	55.507	-0.151	-0.146
-557.471	800.000	0.082	-0.319
-556.456	44.662	0.163	-0.150
-555.442	8.213	-0.229	-0.172
-554.427	137.077	-0.142	-0.186
-553.412	800.000	-0.083	-0.338
-552.398	32.744	-0.302	-0.262
-551.383	2.474	-0.274	-0.198
-550.369	-200.000	-0.041	-0.249
-549.354	-135.574	0.175	-0.021
-548.339	-79.518	-0.100	-0.034
-547.325	-120.589	0.385	0.065
-546.310	-200.000	0.050	-0.385
-545.296	120.016	0.100	0.124
-544.281	217.900	-0.055	0.088
-543.266	-200.000	-0.040	0.243
-542.252	205.082	-0.168	0.261
-541.237	5.917	0.109	-0.081
-540.223	-200.000	0.059	-0.419
-539.208	-115.554	0.242	-0.045
-538.193	-169.910	-0.448	-0.016
-537.179	800.000	-0.091	0.384
-536.164	-61.930	0.235	-0.098
-535.150	28.515	-0.092	0.077
-534.135	89.575	0.112	0.125
-533.121	15.689	-0.273	0.214
-532.106	800.000	-0.075	-0.241
-531.091	-24.483	0.008	0.005
-530.077	-57.160	-0.140	-0.062
-529.062	800.000	-0.083	0.279
-528.048	-75.676	0.347	-0.123
-527.033	39.265	-0.028	-0.025
-526.018	63.995	0.167	0.168
-525.004	-200.000	-0.008	0.110
-523.989	-46.225	0.089	0.044
-522.975	-111.227	-0.503	-0.103
-521.960	38.032	-0.041	-0.036
-520.945	-84.423	-0.205	-0.065
-519.931	-200.000	0.028	0.179
-518.916	31.642	0.251	0.215
-517.902	742.846	-0.135	0.362
-516.887	-200.000	-0.034	-0.275
-515.872	32.273	-0.063	0.054
-514.858	10.056	-0.242	0.183
-513.843	-54.551	0.573	0.259
-512.829	-4.473	-0.035	0.024
-511.814	-200.000	0.003	0.198
-510.799	800.000	0.132	0.534
-509.785	-43.849	-0.162	0.081
-508.770	-189.991	-0.304	0.003
-507.756	6.265	-0.111	-0.082
-506.741	454.984	0.068	-0.150
-505.726	800.000	0.053	0.225
-504.712	-101.786	-0.096	0.023
-503.697	-89.212	0.261	-0.077
-502.683	107.518	-0.051	-0.060
-501.668	-43.927	-0.197	-0.099
-500.653	-200.000	-0.041	-0.210
-499.639	-200.000	0.002	0.554
-498.624	-59.661	-0.336	-0.144
-497.610	26.680	-0.188	-0.157
-496.595	-68.899	-0.157	0.061
-495.581	-56.173	0.183	-0.081
-494.566	8.343	0.056	0.042
-493.551	-107.088	-0.240	-0.053
-492.537	474.431	0.085	-0.191
-491.522	-200.000	0.003	-0.077
-490.508	800.000	0.067	0.212
-489.493	-152.233	-0.157	-0.011
-488.478	-178.764	-0.280	-0.006
-487.464	384.330	-0.033	0.069
-486.449	-43.870	0.261	0.131
-485.435	-200.000	0.028	-0.138
-484.420	115.863	0.172	-0.210
-483.405	-108.593	-0.246	0.053
-482.391	-200.000	0.066	0.343
-481.376	-154.956	-0.265	-0.017
-480.362	356.129	0.032	-0.064
-479.347	98.680	0.038	0.044
-478.332	153.669	-0.110	0.150
-477.318	-118.328	-0.320	-0.057
-476.303	-37.855	0.195	-0.103
-475.289	161.348	-0.145	-0.202
-474.274	-200.000	0.031	0.187
-473.259	-30.890	-0.186	0.105
-472.245	491.706	-0.086	-0.196
-471.230	-127.426	0.139	0.020
-470.216	229.608	-0.017	-0.027
-469.201	32.308	0.176	-0.151
-468.186	-45.266	-0.305	-0.151
-467.172	-81.390	0.258	0.085
-466.157	-76.255	0.225	-0.079
-465.143	257.830	0.038	-0.065
-464.128	137.250	0.128	-0.167
-463.113	4.024	0.138	-0.100
-462.099	-200.000	0.016	0.240
-461.084	-61.405	0.193	0.081
-460.070	558.227	-0.102	-0.245
-459.055	720.406	-0.148	0.393
-458.040	800.000	-0.081	-0.346
-457.026	-200.000	-0.004	-0.124
-456.011	-42.842	-0.102	-0.052
-454.997	800.000	0.085	-0.329
-453.982	130.540	-0.233	-0.297
-452.968	293.020	0.091	-0.166
-451.953	-78.235	0.232	-0.079
-450.938	183.533	0.140	-0.205
-449.924	-200.000	0.019	-0.168
-448.909	153.838	-0.026	0.035
-447.895	366.509	0.106	0.212
-446.880	105.416	-0.120	-0.141
-445.865	-95.784	0.112	-0.030
-444.851	800.000	0.074	-0.294
-443.836	800.000	0.075	-0.257
-442.822	194.294	0.166	0.251
-441.807	24.897	0.132	0.109
-440.792	-91.238	-0.110	-0.031
-439.778	50.219	-0.140	0.132
-438.763	191.961	-0.041	0.062
-437.749	-49.563	-0.363	0.172
-436.734	-200.000	-0.008	0.076
-435.719	-200.000	-0.000	-0.398
-434.705	-61.883	0.223	-0.093
-433.690	235.036	0.172	0.282
-432.676	39.005	-0.206	0.183
-431.661	-122.806	0.195	-0.031
-430.646	-123.252	0.446	-0.071
-429.632	-200.000	-0.008	-0.231
-428.617	125.731	-0.072	0.091
-427.603	-31.666	-0.140	-0.078
-426.588	16.026	0.340	0.266
-425.573	800.000	-0.054	-0.167
-424.559	-200.000	-0.049	-0.440
-423.544	-88.470	0.182	-0.054
-422.530	297.769	0.035	-0.065
-421.515	478.832	-0.034	0.077
-420.500	216.259	0.039	0.061
-419.486	118.317	-0.151	-0.185
-418.471	-162.933	-0.120	-0.006
-417.457	-71.062	-0.402	0.150
-416.442	546.983	-0.073	-0.175
-415.428	-200.000	0.075	-0.387
-414.413	800.000	-0.029	-0.087
-413.398	-200.000	0.041	0.200
-412.384	-98.033	0.160	-0.041
-411.369	800.000	-0.066	-0.209
-410.355	75.758	0.220	-0.232
-409.340	-200.000	0.008	0.279
-408.325	-132.538	-0.282	0.036
-407.311	255.922	-0.085	0.145
-406.296	-200.000	0.007	0.221
-405.282	47.437	-0.179	-0.165
-404.267	184.966	-0.072	-0.106
-403.252	-200.000	0.034	-0.287
-402.238	-78.654	-0.268	-0.091
-401.223	-56.899	0.462	-0.203
-400.209	-200.000	-0.018	0.251
-399.194	-5.710	0.125	0.085
-398.179	-76.671	-0.174	0.060
-397.165	298.867	-0.042	-0.077
-396.150	-200.000	0.009	0.433
-395.136	-18.936	0.144	-0.089
-394.121	-190.427	0.094	0.001
-393.106	117.567	-0.113	-0.138
-392.092	-40.549	-0.117	-0.060
-391.077	-91.949	0.275	0.077
-390.063	250.236	0.055	0.092
-389.048	302.377	-0.146	-0.268
-388.033	45.586	0.169	0.155
-387.019	34.635	-0.136	0.118
-386.004	72.638	0.053	-0.055
-384.990	-93.705	0.297	-0.081
-383.975	-105.976	0.432	0.097
-382.960	-200.000	0.008	0.091
-381.946	95.458	-0.241	0.273
-380.931	-200.000	-0.018	0.185
-379.917	-104.799	0.497	-0.113
-378.902	44.776	-0.281	-0.256
-377.888	-23.447	-0.133	-0.079
-376.873	800.000	0.084	0.258
-375.858	-29.822	-0.160	-0.091
-374.844	-28.359	0.194	0.111
-373.829	-49.683	-0.330	0.156
-372.815	378.228	-0.153	0.311
-371.800	-170.819	-0.143	0.005
-370.785	-44.644	0.333	-0.165
-369.771	-33.572	0.157	0.086
-368.756	-58.887	-0.313	-0.135
-367.742	68.487	-0.249	-0.254
-366.727	-16.672	-0.206	-0.129
-365.712	208.435	0.037	-0.058
-364.698	-60.138	0.357	0.151
-363.683	-200.000	0.024	-0.117
-362.669	-27.833	-0.257	-0.148
-361.654	159.038	-0.145	0.200
-360.639	800.000	0.096	-0.393
-359.625	44.020	0.161	0.146
-358.610	-6.465	0.289	0.195
-357.596	-139.560	0.056	0.006
-356.581	-200.000	-0.006	0.312
-355.566	-170.886	0.272	-0.009
-354.552	-200.000	-0.015	0.291
-353.537	-81.184	0.076	0.025
-352.523	45.161	0.137	0.125
-351.508	-200.000	0.015	-0.149
-350.493	26.424	0.123	0.102
-349.479	-24.280	0.058	0.034
-348.464	157.729	-0.043	-0.058
-347.450	-54.101	0.217	0.098
-346.435	-35.080	-0.325	0.176
-345.420	-59.570	-0.282	0.120
-344.406	800.000	0.026	-0.097
-343.391	-200.000	-0.018	0.389
-342.377	196.512	-0.061	-0.093
-341.362	-73.175	-0.370	-0.134
-340.348	741.225	-0.111	-0.295
-339.333	800.000	-0.150	-0.499
-338.318	96.655	0.122	0.138
-337.304	-155.341	0.152	-0.010
-336.289	113.931	0.301	0.363
-335.275	800.000	0.083	-0.292
-334.260	-51.906	-0.353	0.163
-333.245	489.346	-0.181	0.409
-332.231	455.395	-0.141	-0.311
-331.216	-11.249	-0.180	-0.118
-330.202	-200.000	0.022	-0.265
-329.187	-136.746	0.145	0.017
-328.172	496.381	-0.087	0.198
-327.158	-102.768	0.118	0.028
-326.143	23.277	0.103	0.084
-325.129	800.000	0.013	0.051
-324.114	-40.499	-0.259	-0.133
-323.099	7.592	-0.168	-0.124
-322.085	51.180	-0.106	-0.099
-321.070	-113.582	0.118	-0.023
-320.056	-65.675	-0.205	-0.081
-319.041	150.033	-0.205	0.276
-318.026	-145.329	0.512	0.046
-317.012	800.000	0.045	-0.139
-315.997	-113.252	0.208	0.040
-314.983	-112.565	0.050	-0.010
-313.968	125.390	0.139	-0.173
-312.953	79.012	0.014	0.015
-311.939	540.588	0.098	0.232
-310.924	1.776	0.286	-0.204
-309.910	147.476	0.142	0.190
-308.895	-200.000	0.010	-0.094
-307.880	-200.000	-0.025	-0.131
-306.866	25.339	0.154	0.127
-305.851	-200.000	-0.013	0.160
-304.837	-200.000	0.028	0.351
-303.822	-77.219	0.118	-0.041
-302.807	-95.368	0.222	0.059
-301.793	-77.563	0.127	-0.043
-300.778	101.948	0.039	0.045
-299.764	800.000	0.054	-0.220
-298.749	800.000	0.041	-0.117
-297.735	-123.992	0.354	-0.055
-296.720	-83.814	-0.042	-0.013
-295.705	-18.655	0.189	-0.117
-294.691	-103.769	-0.114	0.026
-293.676	-177.788	0.317	-0.008
-292.662	-158.592	-0.263	-0.015
-291.647	2.206	-0.248	-0.178
-290.632	758.622	-0.044	0.118
-289.618	-21.633	0.198	0.119
-288.603	-200.000	-0.002	0.041
-287.589	-69.752	-0.192	-0.073
-286.574	800.000	0.055	-0.192
-285.559	157.121	-0.069	0.095
-284.545	-23.935	-0.275	0.163
-283.530	-93.054	0.323	-0.089
-282.516	96.275	0.190	-0.215
-281.501	-18.911	0.304	-0.187
-280.486	3.175	0.088	0.064
-279.472	800.000	0.121	0.337
-278.457	800.000	-0.087	0.374
-277.443	480.684	-0.060	-0.134
-276.428	-45.889	0.096	0.047
-275.413	39.873	-0.042	0.037
-274.399	81.474	-0.157	-0.168
-273.384	645.612	-0.081	0.205
-272.370	406.682	0.363	-0.757
-271.355	198.488	0.091	0.138
-270.340	-200.000	-0.004	0.361
-269.326	562.995	0.036	0.086
-268.311	69.620	0.210	-0.214
-267.297	72.444	-0.030	-0.031
-266.282	87.869	0.096	0.105
-265.267	-129.417	-0.104	0.014
-264.253	218.035	-0.142	-0.225
-263.238	-188.991	-0.249	0.003
-262.224	-200.000	-0.048	0.207
-261.209	132.819	-0.020	-0.026
-260.195	-60.941	0.443	-0.185
-259.180	-120.511	0.322	0.054
-258.165	-93.111	-0.113	0.031
-257.151	259.870	-0.231	-0.395
-256.136	93.889	0.062	-0.069
-255.122	-109.604	-0.219	-0.046
-254.107	18.069	0.069	0.054
-253.092	800.000	0.021	-0.073
-252.078	-59.589	0.038	-0.016
-251.063	-57.246	-0.192	0.083
-250.049	-172.527	0.061	0.002
-249.034	-86.379	-0.218	-0.066
-248.019	187.696	0.193	-0.284
-247.005	-49.586	0.145	-0.068
-245.990	119.186	-0.170	0.208
-244.976	100.461	0.203	0.233
-243.961	-117.586	-0.137	-0.024
-242.946	66.991	-0.249	0.250
-241.932	-93.005	-0.184	0.051
-240.917	-17.468	0.114	0.071
-239.903	-83.516	0.102	0.032
-238.888	-128.395	0.295	0.041
-237.873	31.127	-0.112	0.095
-236.859	-200.000	0.003	-0.185
-235.844	-67.512	-0.360	-0.140
-234.830	446.901	-0.040	-0.087
-233.815	57.244	-0.186	0.179
-232.800	106.309	-0.088	-0.103
-231.786	168.480	0.085	-0.120
-230.771	-39.972	0.207	0.107
-229.757	-131.993	0.155	-0.020
-228.742	-200.000	-0.017	0.232
-227.727	800.000	0.088	0.313
-226.713	417.190	0.091	-0.191
-225.698	-128.794	-0.383	-0.053
-224.684	-7.141	0.101	-0.068
-223.669	-200.000	-0.039	0.332
-222.655	-133.738	0.142	-0.018
-221.640	-102.302	-0.285	-0.067
-220.625	-50.457	-0.190	-0.088
-219.611	51.070	0.069	-0.065
-218.596	-61.758	0.219	0.091
-217.582	-70.888	-0.286	0.106
-216.567	-53.390	0.332	-0.150
-215.552	202.965	0.063	-0.097
-214.538	-32.646	-0.236	0.129
-213.523	164.993	-0.093	-0.129
-212.509	-107.459	0.209	0.045
-211.494	34.767	-0.051	-0.044
-210.479	80.262	0.058	-0.061
-209.465	-200.000	-0.012	0.143
-208.450	-27.408	0.167	-0.096
-207.436	26.409	0.114	-0.094
-206.421	-7.293	-0.160	0.107
-205.406	-18.520	-0.187	-0.115
-204.392	251.331	0.314	0.526
-203.377	800.000	0.066	0.275
-202.363	705.174	-0.076	-0.199
-201.348	-129.958	0.117	0.016
-200.333	127.558	0.143	0.179
-199.319	-123.693	0.479	0.075
-198.304	-193.708	-0.142	0.001
-197.290	-16.537	-0.259	0.162
-196.275	248.842	-0.215	0.359
-195.260	124.498	0.190	-0.236
-194.246	442.418	0.105	0.227
-193.231	50.269	0.368	-0.343
-192.217	566.742	0.050	-0.119
-191.202	326.915	-0.081	0.153
-190.187	102.905	0.219	-0.253
-189.173	-188.392	0.274	0.003
-188.158	-24.677	-0.099	0.058
-187.144	-200.000	-0.041	-0.316
-186.129	-200.000	-0.067	0.332
-185.114	271.937	0.036	-0.063
-184.100	61.707	0.404	-0.397
-183.085	800.000	0.035	-0.126
-182.071	-200.000	-0.033	-0.201
-181.056	800.000	-0.096	0.328
-180.042	-11.787	-0.090	0.058
-179.027	272.307	-0.041	0.072
-178.012	-200.000	-0.066	0.469
-176.998	30.998	0.162	0.137
-175.983	404.050	-0.065	-0.134
-174.969	661.003	-0.064	-0.163
-173.954	208.391	0.098	0.151
-172.939	36.351	-0.190	0.165
-171.925	-33.190	0.177	-0.097
-170.910	-75.412	0.184	-0.065
-169.896	-200.000	-0.005	0.027
-168.881	33.742	-0.156	-0.133
-167.866	-101.119	0.125	-0.030
-166.852	322.444	-0.145	0.272
-165.837	-186.051	0.195	-0.003
-164.823	-57.131	-0.117	-0.051
-163.808	-200.000	-0.016	0.364
-162.793	800.000	-0.098	0.344
-161.779	800.000	0.056	-0.229
-160.764	-200.000	-0.029	-0.165
-159.750	-52.520	-0.109	0.049
-158.735	800.000	-0.026	0.109
-157.720	26.698	-0.120	-0.099
-156.706	29.862	0.030	0.025
-155.691	-200.000	0.001	-0.012
-154.677	-106.712	0.009	-0.002
-153.662	800.000	0.179	0.578
-152.647	800.000	0.086	0.263
-151.633	611.899	0.082	0.201
-150.618	-152.766	-0.060	-0.004
-149.604	-156.289	-0.072	0.004
-148.589	-144.998	0.119	-0.011
-147.574	-73.784	0.170	0.061
-146.560	201.057	-0.234	-0.354
-145.545	-111.336	-0.117	0.024
-144.531	800.000	0.039	-0.114
-143.516	268.815	-0.065	0.112
-142.502	29.882	0.088	-0.074
-141.487	87.542	0.173	0.189
-140.472	-200.000	0.004	0.186
-139.458	800.000	-0.098	0.265
-138.443	-200.000	-0.056	0.367
-137.429	46.853	0.180	0.164
-136.414	-73.292	0.217	0.078
-135.399	-168.737	0.076	-0.003
-134.385	-47.327	0.125	-0.060
-133.370	-160.644	-0.232	-0.012
-132.356	-122.995	0.192	-0.030
-131.341	-13.312	0.298	-0.190
-130.326	-200.000	-0.009	0.071
-129.312	121.739	-0.109	-0.134
-128.297	-200.000	-0.066	-0.569
-127.283	-132.140	0.105	0.013
-126.268	332.967	0.229	-0.435
-125.253	8.617	0.130	-0.096
-124.239	-106.960	0.386	-0.084
-123.224	-2.944	0.437	-0.300
-122.210	-54.613	0.147	-0.065
