DTS Sentinel unit serial number:	SN413079Multiplexer serial number:	ORYXHardware model number:	OX4-SRSoftware version number:	ORYX F/W v4.00 Oryx Data Collector v3.7.2.0data status	okinstallation	princeton_trtdifferential loss correction	single-endedforward channel	channel 2reverse channel	N/Adate	2019/09/18time	09:15:34forward acquisition time	60.00reverse acquisition time	0.00gamma	496.2192k internal	0.2338k external	0.2338temperature offset calibration	0.9972default loss term (dB/km)	0.3790temperature slope calibration	1.0000multiplexer offset coefficient	1.0000multiplexer slope coefficient	1.0000fibre end	0.00T internal ref (°C)	25.73T ext. ref 1 (°C)	0.24T ext. ref 2 (°C)	23.11length (m)	temperature (°C)	Stokes	anti-Stokes-747.200	-72.478	-0.164	0.061
-746.185	4.914	-0.177	0.131
-745.171	439.328	-0.181	0.396
-744.156	-128.023	-0.275	-0.040
-743.142	-86.311	0.218	-0.067
-742.127	-137.296	-0.183	-0.021
-741.112	-89.027	0.132	0.039
-740.098	-34.186	-0.309	0.170
-739.083	-200.000	0.006	0.189
-738.069	-76.731	0.089	-0.031
-737.054	-200.000	-0.057	0.448
-736.039	-28.841	-0.344	-0.198
-735.025	-51.395	0.340	0.159
-734.010	-82.927	-0.439	0.142
-732.996	71.190	-0.236	-0.246
-731.981	350.184	0.071	-0.141
-730.966	71.729	-0.458	0.477
-729.952	-200.000	0.007	-0.057
-728.937	-1.301	0.058	0.041
-727.923	-136.305	0.221	0.026
-726.908	-50.884	-0.285	-0.134
-725.894	330.889	0.070	0.136
-724.879	-142.656	-0.232	0.023
-723.864	-14.169	-0.143	-0.092
-722.850	128.722	-0.080	0.103
-721.835	-144.799	-0.274	0.025
-720.821	10.719	-0.111	0.085
-719.806	746.930	-0.086	-0.233
-718.791	194.945	-0.213	-0.324
-717.777	-11.751	0.192	-0.126
-716.762	49.391	-0.126	0.119
-715.748	-144.402	-0.199	0.018
-714.733	-20.911	-0.204	-0.125
-713.718	800.000	0.039	-0.117
-712.704	-184.948	-0.229	0.004
-711.689	-200.000	-0.027	0.324
-710.675	-200.000	0.035	-0.176
-709.660	800.000	-0.067	-0.190
-708.645	800.000	-0.045	0.146
-707.631	125.037	-0.073	-0.092
-706.616	395.470	0.020	-0.043
-705.602	105.084	-0.024	-0.029
-704.587	800.000	-0.062	0.209
-703.572	-200.000	-0.051	0.453
-702.558	210.605	0.119	0.188
-701.543	-142.920	-0.216	-0.021
-700.529	-95.340	-0.179	-0.048
-699.514	-86.486	0.326	-0.100
-698.499	-105.327	-0.153	-0.035
-697.485	480.935	0.118	-0.268
-696.470	800.000	-0.083	-0.247
-695.456	56.059	-0.169	0.164
-694.441	160.807	-0.089	-0.125
-693.426	-118.172	0.396	-0.071
-692.412	598.918	0.009	0.022
-691.397	132.397	-0.097	-0.126
-690.383	-68.870	0.137	-0.053
-689.368	-200.000	0.049	0.000
-688.354	95.505	0.071	-0.081
-687.339	222.954	-0.111	0.179
-686.324	-177.110	0.263	0.007
-685.310	88.126	-0.118	-0.131
-684.295	-200.000	0.047	0.331
-683.281	800.000	0.079	-0.251
-682.266	-103.616	-0.126	-0.030
-681.251	-200.000	-0.034	0.423
-680.237	84.035	-0.129	-0.141
-679.222	62.516	0.123	-0.123
-678.208	-79.026	-0.335	-0.114
-677.193	541.546	0.126	-0.301
-676.178	741.319	0.049	-0.133
-675.164	-104.214	-0.194	-0.045
-674.149	764.809	-0.064	0.173
-673.135	265.712	0.113	0.198
-672.120	-93.573	-0.149	-0.041
-671.105	-200.000	0.001	-0.007
-670.091	514.162	-0.069	-0.162
-669.076	800.000	0.068	0.288
-668.062	-200.000	0.006	0.025
-667.047	104.472	-0.071	0.084
-666.032	-69.988	0.118	0.045
-665.018	-107.667	-0.129	0.028
-664.003	71.977	0.046	-0.047
-662.989	-91.091	-0.195	0.056
-661.974	669.443	0.096	0.247
-660.959	-193.877	-0.330	0.003
-659.945	-200.000	-0.058	-0.271
-658.930	14.555	0.207	0.162
-657.916	311.665	0.073	0.136
-656.901	-200.000	0.004	-0.026
-655.886	22.301	0.068	-0.055
-654.872	62.781	-0.140	0.140
-653.857	-34.043	-0.352	0.194
-652.843	106.933	0.158	-0.187
-651.828	800.000	-0.099	-0.323
-650.814	195.955	-0.183	0.279
-649.799	295.496	0.042	0.077
-648.784	43.697	0.056	-0.051
-647.770	261.420	0.130	-0.225
-646.755	24.512	-0.087	-0.072
-645.741	-200.000	-0.018	-0.097
-644.726	95.038	-0.253	-0.287
-643.711	364.509	-0.066	-0.134
-642.697	188.962	-0.039	-0.059
-641.682	-58.344	0.172	-0.075
-640.668	0.025	-0.093	-0.066
-639.653	4.807	-0.261	0.191
-638.638	800.000	0.027	-0.101
-637.624	-76.845	0.098	0.034
-636.609	435.649	0.067	0.146
-635.595	81.248	0.115	0.124
-634.580	-84.117	-0.163	0.052
-633.565	-8.894	0.246	-0.165
-632.551	-5.665	-0.049	0.033
-631.536	54.832	-0.142	0.137
-630.522	477.770	-0.128	-0.289
-629.507	-200.000	0.075	-0.377
-628.492	660.148	0.064	-0.164
-627.478	385.054	-0.017	0.034
-626.463	-114.732	0.229	-0.044
-625.449	-18.739	0.175	-0.109
-624.434	-26.885	-0.357	-0.208
-623.419	-130.675	0.248	-0.033
-622.405	-129.513	-0.188	0.026
-621.390	570.448	0.061	-0.147
-620.376	-200.000	0.025	-0.179
-619.361	-81.937	-0.058	-0.019
-618.346	-93.011	-0.422	0.118
-617.332	-100.281	0.524	0.130
-616.317	800.000	-0.031	-0.087
-615.303	622.922	0.029	-0.073
-614.288	-66.982	-0.205	0.081
-613.273	-200.000	0.011	-0.424
-612.259	-138.108	0.299	0.033
-611.244	278.856	-0.322	-0.574
-610.230	261.272	-0.163	-0.282
-609.215	-31.213	-0.131	0.073
-608.201	28.136	-0.190	0.160
-607.186	93.099	0.191	0.216
-606.171	-103.033	-0.325	0.077
-605.157	93.093	0.111	-0.125
-604.142	-52.724	-0.189	0.087
-603.128	-187.469	0.307	-0.004
-602.113	20.362	0.454	0.366
-601.098	-0.075	-0.282	0.201
-600.084	-129.986	0.309	0.042
-599.069	-200.000	-0.031	0.275
-598.055	-200.000	0.030	-0.165
-597.040	721.940	-0.066	-0.174
-596.025	-200.000	-0.039	-0.291
-595.011	-9.336	-0.330	0.220
-593.996	192.104	-0.070	-0.105
-592.982	3.420	-0.054	0.039
-591.967	-92.638	-0.251	-0.070
-590.952	-49.680	0.238	0.113
-589.938	-200.000	0.056	-0.310
-588.923	202.271	-0.102	0.157
-587.909	650.388	-0.082	0.208
-586.894	-70.667	-0.243	-0.092
-585.879	-87.974	0.527	-0.158
-584.865	484.284	0.138	0.314
-583.850	-66.614	0.108	-0.043
-582.836	119.761	-0.253	-0.313
-581.821	-79.191	-0.186	-0.063
-580.806	385.513	0.177	-0.364
-579.792	800.000	-0.058	0.246
-578.777	-200.000	-0.002	0.287
-577.763	800.000	0.017	-0.061
-576.748	-55.709	-0.222	-0.099
-575.733	-107.285	0.316	0.069
-574.719	-200.000	0.045	-0.625
-573.704	226.473	0.201	0.326
-572.690	248.844	0.038	0.065
-571.675	13.911	-0.229	-0.178
-570.661	6.027	-0.016	-0.012
-569.646	232.773	0.139	0.227
-568.631	44.348	-0.246	-0.225
-567.617	-2.433	-0.072	0.050
-566.602	59.989	0.188	0.185
-565.588	72.615	-0.125	0.130
-564.573	-50.639	-0.237	0.111
-563.558	34.886	-0.161	-0.140
-562.544	-200.000	-0.048	0.336
-561.529	800.000	0.093	-0.276
-560.515	49.013	0.087	0.081
-559.500	-85.714	-0.328	0.102
-558.485	-182.003	0.042	0.001
-557.471	409.162	-0.148	0.312
-556.456	307.005	0.121	0.224
-555.442	-121.197	-0.145	-0.024
-554.427	85.786	0.169	0.185
-553.412	-66.515	0.331	0.131
-552.398	-200.000	-0.036	-0.228
-551.383	349.410	0.027	0.054
-550.369	-18.199	-0.405	0.252
-549.354	-103.113	-0.314	-0.074
-548.339	70.881	0.263	0.271
-547.325	-2.514	-0.208	0.145
-546.310	7.483	0.250	-0.186
-545.296	299.955	0.114	-0.209
-544.281	800.000	-0.029	-0.125
-543.266	-16.860	0.154	0.097
-542.252	800.000	0.060	-0.238
-541.237	31.198	-0.149	-0.127
-540.223	-90.576	0.275	0.079
-539.208	800.000	0.069	-0.190
-538.193	-128.829	0.302	-0.042
-537.179	-200.000	0.040	0.206
-536.164	800.000	0.083	0.235
-535.150	748.196	0.064	0.172
-534.135	13.082	0.266	-0.205
-533.121	142.588	-0.111	-0.147
-532.106	800.000	0.081	0.262
-531.091	-57.291	0.427	0.187
-530.077	88.974	0.018	0.020
-529.062	-136.128	0.041	-0.005
-528.048	250.997	-0.161	-0.272
-527.033	-82.149	-0.120	0.039
-526.018	-100.336	-0.409	-0.101
-525.004	-200.000	0.010	-0.200
-523.989	-12.876	0.058	-0.038
-522.975	800.000	-0.032	0.091
-521.960	51.844	-0.259	-0.245
-520.945	493.431	-0.114	0.259
-519.931	-200.000	0.046	-0.334
-518.916	-119.855	-0.189	0.032
-517.902	112.174	0.308	0.371
-516.887	175.267	0.100	0.145
-515.872	473.071	-0.065	0.146
-514.858	241.896	-0.234	-0.389
-513.843	-200.000	0.050	-0.292
-512.829	159.901	0.118	0.163
-511.814	-31.889	0.119	0.066
-510.799	676.393	-0.041	0.105
-509.785	-24.364	-0.358	0.212
-508.770	262.656	-0.143	-0.248
-507.756	-200.000	0.032	0.353
-506.741	-101.580	-0.175	0.042
-505.726	-85.184	0.307	0.096
-504.712	800.000	-0.079	-0.279
-503.697	-26.517	-0.199	-0.116
-502.683	800.000	-0.100	-0.285
-501.668	139.414	-0.145	-0.190
-500.653	-111.943	-0.518	0.104
-499.639	449.319	-0.087	0.190
-498.624	-200.000	0.005	0.059
-497.610	47.104	0.112	0.103
-496.595	283.285	0.095	0.169
-495.581	334.070	0.244	0.469
-494.566	800.000	0.038	0.110
-493.551	462.726	-0.146	-0.324
-492.537	-200.000	-0.007	0.068
-491.522	-200.000	-0.061	-0.309
-490.508	123.719	0.176	-0.220
-489.493	76.525	0.169	-0.178
-488.478	-79.313	0.213	0.072
-487.464	800.000	-0.054	-0.183
-486.449	196.817	-0.235	0.356
-485.435	-63.840	-0.357	-0.145
-484.420	41.362	0.013	0.012
-483.405	-160.140	-0.304	-0.016
-482.391	-4.984	0.238	-0.163
-481.376	-200.000	-0.060	0.557
-480.362	215.667	-0.194	0.306
-479.347	-149.979	0.196	0.015
-478.332	800.000	-0.070	-0.216
-477.318	-90.166	0.250	-0.072
-476.303	-49.610	-0.200	-0.094
-475.289	-47.006	0.282	-0.137
-474.274	18.780	-0.118	-0.094
-473.259	800.000	0.035	0.145
-472.245	3.512	0.373	0.270
-471.230	3.199	-0.230	-0.166
-470.216	74.512	0.103	0.107
-469.201	800.000	0.065	0.252
-468.186	-200.000	-0.017	0.101
-467.172	-90.128	-0.252	0.073
-466.157	-178.065	0.279	-0.007
-465.143	84.092	0.208	0.226
-464.128	-200.000	-0.053	0.354
-463.113	800.000	0.092	-0.309
-462.099	740.887	0.175	0.467
-461.084	-56.736	-0.290	-0.127
-460.070	-200.000	0.010	-0.250
-459.055	139.134	-0.052	0.068
-458.040	-66.837	-0.330	-0.130
-457.026	-200.000	-0.030	-0.255
-456.011	-82.866	0.230	0.074
-454.997	-195.882	-0.176	0.001
-453.982	-7.594	-0.164	0.110
-452.968	800.000	0.113	0.369
-451.953	52.364	0.097	-0.092
-450.938	-200.000	-0.017	-0.093
-449.924	567.063	-0.023	-0.056
-448.909	-34.085	0.146	-0.080
-447.895	-200.000	-0.012	-0.138
-446.880	8.853	0.365	-0.273
-445.865	31.047	0.145	0.124
-444.851	88.794	0.042	-0.047
-443.836	8.543	0.159	0.119
-442.822	-105.710	-0.037	0.008
-441.807	-46.684	0.195	-0.095
-440.792	-121.916	-0.311	0.051
-439.778	800.000	0.003	-0.015
-438.763	194.049	0.095	0.143
-437.749	222.155	-0.073	0.117
-436.734	800.000	-0.074	-0.242
-435.719	-200.000	0.006	0.118
-434.705	-95.636	0.059	0.016
-433.690	175.063	0.197	-0.283
-432.676	282.614	-0.113	-0.201
-431.661	20.764	0.066	-0.053
-430.646	12.835	-0.307	0.235
-429.632	-46.206	0.055	0.027
-428.617	-75.492	-0.212	-0.075
-427.603	-25.000	0.286	-0.168
-426.588	-200.000	-0.006	0.108
-425.573	31.190	0.130	0.110
-424.559	-67.698	-0.205	-0.079
-423.544	-190.534	0.203	0.002
-422.530	-79.153	-0.104	0.035
-421.515	157.902	-0.207	-0.284
-420.500	425.937	0.046	-0.097
-419.486	-180.900	0.338	0.007
-418.471	-150.569	-0.234	-0.018
-417.457	167.125	-0.102	0.144
-416.442	-94.266	0.324	0.088
-415.428	-200.000	0.010	-0.062
-414.413	479.360	0.025	0.056
-413.398	103.604	-0.153	-0.178
-412.384	-111.226	-0.387	-0.078
-411.369	-0.763	0.187	-0.131
-410.355	189.821	-0.048	-0.072
-409.340	-2.795	-0.336	-0.233
-408.325	-47.260	-0.059	0.029
-407.311	731.816	-0.162	-0.430
-406.296	660.832	-0.136	-0.346
-405.282	-200.000	0.022	0.255
-404.267	435.473	0.079	0.171
-403.252	-118.714	0.301	0.052
-402.238	-146.003	-0.519	0.045
-401.223	-200.000	0.029	0.336
-400.209	-162.838	0.020	0.001
-399.194	-125.725	-0.153	-0.023
-398.179	512.071	-0.152	0.350
-397.165	10.696	-0.079	-0.060
-396.150	-200.000	-0.013	0.371
-395.136	-200.000	0.002	0.414
-394.121	-60.712	-0.196	-0.082
-393.106	363.969	0.157	-0.312
-392.092	63.886	0.272	0.270
-391.077	-115.034	-0.245	0.046
-390.063	116.508	0.049	0.059
-389.048	-70.732	-0.430	-0.161
-388.033	-37.810	0.152	-0.080
-387.019	-9.863	-0.281	-0.185
-386.004	89.245	0.212	-0.234
-384.990	73.977	-0.148	-0.154
-383.975	-176.314	-0.502	0.013
-382.960	-200.000	-0.043	-0.239
-381.946	165.077	-0.246	0.344
-380.931	800.000	-0.083	0.267
-379.917	83.512	-0.167	-0.180
-378.902	724.716	0.020	-0.053
-377.888	-54.493	-0.126	0.056
-376.873	-43.110	-0.108	0.054
-375.858	-15.959	-0.075	-0.047
-374.844	102.074	0.163	-0.188
-373.829	-140.666	-0.134	-0.014
-372.815	-56.232	0.049	0.022
-371.800	-90.813	-0.423	-0.121
-370.785	-137.102	0.317	0.036
-369.771	58.883	-0.188	0.183
-368.756	-37.112	-0.189	0.100
-367.742	-200.000	0.039	0.417
-366.727	395.262	-0.107	0.220
-365.712	393.062	-0.123	-0.252
-364.698	800.000	0.101	0.287
-363.683	-168.094	0.006	-0.000
-362.669	-200.000	-0.050	-0.307
-361.654	-200.000	0.033	-0.203
-360.639	187.793	-0.225	0.332
-359.625	47.918	-0.163	0.151
-358.610	-200.000	0.025	0.283
-357.596	103.832	-0.142	-0.164
-356.581	79.177	-0.041	0.043
-355.566	-82.879	0.073	0.023
-354.552	89.304	-0.243	-0.267
-353.537	-70.423	-0.464	0.174
-352.523	-200.000	-0.011	0.051
-351.508	-8.911	-0.334	-0.221
-350.493	-200.000	-0.036	0.352
-349.479	-37.625	0.091	0.048
-348.464	33.571	0.262	-0.225
-347.450	-77.207	0.441	-0.152
-346.435	-112.239	-0.296	0.059
-345.420	75.225	0.126	0.131
-344.406	2.119	-0.305	-0.218
-343.391	-200.000	-0.060	-0.313
-342.377	387.425	-0.104	-0.212
-341.362	146.385	-0.205	0.272
-340.348	466.224	-0.124	0.273
-339.333	-95.899	0.331	-0.087
-338.318	110.672	-0.133	0.158
-337.304	-127.827	0.107	-0.015
-336.289	223.336	0.102	-0.163
-335.275	800.000	-0.110	-0.315
-334.260	31.257	0.221	0.187
-333.245	176.080	0.202	0.290
-332.231	-65.883	0.114	-0.045
-331.216	800.000	0.119	-0.364
-330.202	-200.000	0.034	0.190
-329.187	800.000	0.093	0.384
-328.172	-40.865	-0.273	0.139
-327.158	-88.609	0.291	0.085
-326.143	-200.000	0.009	-0.040
-325.129	-16.111	-0.099	0.062
-324.114	-200.000	0.020	-0.240
-323.099	-79.406	0.089	0.030
-322.085	-92.447	0.179	0.050
-321.070	-200.000	-0.003	0.076
-320.056	3.567	0.286	0.206
-319.041	-41.196	-0.200	-0.102
-318.026	-109.363	0.256	-0.053
-317.012	-82.467	0.152	0.049
-315.997	48.523	-0.412	0.380
-314.983	292.796	0.113	0.204
-313.968	-129.919	0.097	0.013
-312.953	-200.000	-0.047	0.248
-311.939	800.000	0.066	0.248
-310.924	-18.867	0.244	0.150
-309.910	72.211	0.142	0.146
-308.895	-200.000	0.030	0.132
-307.880	8.742	0.149	-0.111
-306.866	-200.000	0.007	-0.204
-305.851	-62.682	0.247	-0.101
-304.837	-42.117	0.310	0.156
-303.822	-40.373	0.243	-0.124
-302.807	102.277	0.274	0.316
-301.793	-200.000	0.013	-0.158
-300.778	140.721	0.207	-0.270
-299.764	138.577	-0.040	0.052
-298.749	-200.000	-0.025	0.146
-297.735	-200.000	-0.052	0.341
-296.720	-28.817	-0.093	-0.052
-295.705	-75.505	-0.261	-0.092
-294.691	-200.000	-0.020	0.263
-293.676	-200.000	0.054	0.254
-292.662	-200.000	0.024	0.114
-291.647	800.000	-0.024	0.093
-290.632	527.786	-0.127	-0.295
-289.618	116.314	0.191	0.231
-288.603	-8.797	0.223	0.147
-287.589	-122.897	-0.271	0.043
-286.574	-62.600	-0.129	-0.053
-285.559	-45.385	0.120	0.059
-284.545	-200.000	0.004	0.207
-283.530	703.196	0.087	-0.227
-282.516	-86.124	0.281	-0.085
-281.501	16.070	0.158	0.122
-280.486	335.201	0.077	0.147
-279.472	-200.000	-0.006	-0.047
-278.457	800.000	0.109	0.297
-277.443	-14.803	-0.242	0.153
-276.428	-10.470	0.128	0.084
-275.413	-200.000	-0.008	-0.087
-274.399	-200.000	-0.019	-0.195
-273.384	-37.642	0.041	0.022
-272.370	17.377	0.237	-0.185
-271.355	556.717	0.067	0.158
-270.340	-70.777	0.113	-0.042
-269.326	-57.731	0.359	0.155
-268.311	-150.707	0.224	0.017
-267.297	800.000	-0.114	-0.318
-266.282	23.562	-0.290	-0.235
-265.267	750.987	-0.080	-0.212
-264.253	322.216	0.098	-0.184
-263.238	-18.418	0.161	-0.099
-262.224	-200.000	0.017	0.110
-261.209	-128.204	0.114	-0.016
-260.195	-200.000	-0.016	-0.126
-259.180	584.491	-0.032	-0.077
-258.165	-95.913	0.406	0.107
-257.151	-200.000	0.041	0.227
-256.136	192.314	-0.142	-0.211
-255.122	-94.382	-0.170	-0.046
-254.107	354.351	0.160	-0.312
-253.092	3.707	-0.327	-0.235
-252.078	-149.571	0.053	-0.004
-251.063	-41.258	0.249	0.126
-250.049	-121.789	-0.227	-0.037
-249.034	-159.607	0.263	0.014
-248.019	-100.869	0.123	-0.030
-247.005	210.958	-0.095	-0.147
-245.990	181.253	-0.125	0.180
-244.976	22.169	-0.232	-0.187
-243.961	-107.368	0.400	-0.086
-242.946	85.241	-0.046	-0.050
-241.932	-200.000	0.002	0.093
-240.917	-22.237	-0.214	-0.127
-239.903	-200.000	0.029	0.210
-238.888	57.878	0.231	-0.222
-237.873	-200.000	0.002	-0.154
-236.859	294.833	0.020	0.036
-235.844	81.329	-0.133	0.142
-234.830	800.000	0.036	-0.125
-233.815	-200.000	0.016	-0.071
-232.800	-13.952	0.121	0.077
-231.786	-63.597	0.309	0.125
-230.771	694.161	0.076	0.197
-229.757	-87.423	-0.099	-0.029
-228.742	800.000	-0.070	0.266
-227.727	250.876	0.079	0.133
-226.713	-144.403	0.063	0.006
-225.698	800.000	0.090	-0.260
-224.684	219.546	0.114	0.180
-223.669	448.729	-0.093	0.202
-222.655	144.284	-0.107	-0.141
-221.640	252.264	0.119	-0.199
-220.625	677.695	-0.074	-0.190
-219.611	29.823	0.230	0.193
-218.596	800.000	0.109	0.322
-217.582	64.395	-0.277	0.274
-216.567	-26.610	0.132	0.076
-215.552	-90.336	0.226	0.065
-214.538	146.098	0.092	-0.121
-213.523	397.809	-0.077	0.158
-212.509	497.055	-0.071	-0.160
-211.494	-128.572	-0.457	0.064
-210.479	-34.923	0.216	0.116
-209.465	18.632	-0.056	-0.044
-208.450	-154.802	-0.154	0.010
-207.436	-200.000	0.053	0.247
-206.421	-141.318	0.084	-0.008
-205.406	-141.988	-0.454	-0.044
-204.392	-93.454	0.197	0.054
-203.377	-64.759	0.170	-0.068
-202.363	-200.000	0.008	-0.320
-201.348	80.231	0.045	0.048
-200.333	700.060	0.073	-0.189
-199.319	-200.000	0.002	0.236
-198.304	-80.859	0.322	0.105
-197.290	-66.779	-0.054	-0.021
-196.275	-134.508	0.121	0.014
-195.260	-8.738	-0.303	0.199
-194.246	-134.666	-0.040	-0.005
-193.231	800.000	0.050	-0.154
-192.217	90.579	-0.020	0.021
-191.202	-121.728	-0.164	0.027
-190.187	372.695	0.130	0.259
-189.173	421.442	-0.188	-0.396
-188.158	45.171	0.116	-0.105
-187.144	-200.000	-0.001	-0.037
-186.129	440.848	0.100	-0.214
-185.114	-56.204	0.254	-0.111
-184.100	-87.844	0.261	0.077
-183.085	-130.052	-0.209	0.028
-182.071	292.595	-0.069	0.124
-181.056	-62.507	0.174	0.071
-180.042	-88.276	0.221	-0.065
-179.027	-25.106	0.244	-0.142
-178.012	541.054	-0.106	-0.247
-176.998	277.766	0.065	-0.114
-175.983	-21.678	-0.239	-0.143
-174.969	603.980	-0.218	-0.532
-173.954	-100.340	0.544	0.132
-172.939	800.000	-0.022	-0.077
-171.925	-76.439	-0.171	0.059
-170.910	-200.000	0.038	0.165
-169.896	86.559	-0.217	0.235
-168.881	126.843	0.169	-0.210
-167.866	-106.736	-0.138	-0.030
-166.852	-200.000	-0.020	0.145
-165.837	-200.000	0.043	-0.358
-164.823	287.672	0.232	-0.412
-163.808	280.485	0.153	-0.269
-162.793	800.000	-0.029	0.121
-161.779	800.000	-0.070	0.194
-160.764	-200.000	-0.007	0.063
-159.750	38.178	0.186	0.163
-158.735	143.203	-0.234	0.305
-157.720	197.948	-0.147	-0.221
-156.706	-200.000	-0.009	-0.051
-155.691	-200.000	0.020	0.113
-154.677	224.742	-0.153	-0.242
-153.662	-200.000	-0.036	-0.403
-152.647	103.236	0.125	0.144
-151.633	732.839	-0.040	0.105
-150.618	-200.000	-0.050	0.243
-149.604	-50.367	0.097	0.045
-148.589	87.178	-0.065	0.070
-147.574	75.017	0.105	0.109
-146.560	-104.537	-0.183	-0.041
-145.545	193.322	-0.029	-0.043
-144.531	-200.000	-0.003	-0.091
-143.516	655.793	0.092	0.232
-142.502	800.000	0.051	-0.219
-141.487	30.435	0.142	0.119
-140.472	251.729	0.105	-0.175
-139.458	-200.000	-0.009	-0.111
-138.443	800.000	-0.066	0.193
-137.429	-79.757	0.020	-0.007
-136.414	-81.464	0.200	0.065
-135.399	-10.340	0.332	0.216
-134.385	313.968	-0.213	0.392
-133.370	-106.482	0.173	0.038
-132.356	-6.424	-0.006	-0.004
-131.341	-133.216	-0.125	0.016
-130.326	197.787	0.115	0.173
-129.312	231.730	0.091	0.146
-128.297	-200.000	-0.024	0.116
-127.283	298.761	0.062	0.111
-126.268	-69.119	0.200	-0.075
-125.253	-120.868	0.063	-0.010
-124.239	800.000	0.027	0.114
-123.224	-176.275	0.126	0.003
-122.210	-123.103	0.291	-0.046
-121.195	-92.065	-0.026	-0.007
-120.180	70.951	-0.184	-0.186
