DTS Sentinel unit serial number:	SN413079Multiplexer serial number:	ORYXHardware model number:	OX4-SRSoftware version number:	ORYX F/W v4.00 Oryx Data Collector v3.7.2.0data status	okinstallation	princeton_trtdifferential loss correction	single-endedforward channel	channel 2reverse channel	N/Adate	2019/09/16time	07:35:34forward acquisition time	60.00reverse acquisition time	0.00gamma	496.2192k internal	0.2333k external	0.2333temperature offset calibration	0.9982default loss term (dB/km)	0.3790temperature slope calibration	1.0000multiplexer offset coefficient	1.0000multiplexer slope coefficient	1.0000fibre end	0.00T internal ref (°C)	27.75T ext. ref 1 (°C)	11.66T ext. ref 2 (°C)	24.29length (m)	temperature (°C)	Stokes	anti-Stokes-747.200	247.427	-0.157	-0.267
-746.185	589.603	-0.137	0.340
-745.171	-123.163	0.245	0.039
-744.156	-200.000	0.005	0.126
-743.142	104.209	-0.201	-0.237
-742.127	-200.000	0.017	0.219
-741.112	-200.000	-0.011	-0.147
-740.098	37.355	-0.181	0.162
-739.083	-117.721	0.058	0.010
-738.069	-200.000	0.028	0.468
-737.054	-122.414	-0.035	-0.006
-736.039	800.000	0.063	0.178
-735.025	-154.737	-0.381	0.025
-734.010	118.867	-0.076	-0.094
-732.996	-200.000	0.005	0.184
-731.981	-105.487	-0.133	0.030
-730.966	-38.336	0.041	-0.022
-729.952	-61.692	-0.282	0.119
-728.937	-79.276	0.203	-0.069
-727.923	800.000	-0.045	-0.139
-726.908	-6.297	-0.183	-0.125
-725.894	48.467	-0.119	0.112
-724.879	-73.063	0.080	0.030
-723.864	800.000	0.035	0.140
-722.850	438.425	-0.056	-0.124
-721.835	2.471	-0.090	-0.065
-720.821	-105.984	0.278	0.063
-719.806	800.000	-0.049	0.208
-718.791	-55.905	-0.265	0.119
-717.777	-200.000	0.014	-0.152
-716.762	-75.533	0.164	0.058
-715.748	-39.371	-0.065	-0.034
-714.733	-200.000	0.001	0.241
-713.718	142.922	-0.241	-0.322
-712.704	-59.433	-0.110	0.048
-711.689	-145.361	0.131	0.012
-710.675	79.337	-0.136	-0.147
-709.660	800.000	0.093	-0.354
-708.645	16.220	-0.041	0.032
-707.631	-144.568	0.246	0.023
-706.616	-84.733	-0.404	-0.128
-705.602	229.816	0.179	0.294
-704.587	800.000	-0.080	0.274
-703.572	238.050	-0.173	-0.288
-702.558	131.237	0.091	-0.118
-701.543	-151.906	0.271	0.020
-700.529	800.000	-0.036	-0.117
-699.514	-200.000	0.017	0.410
-698.499	47.927	-0.316	0.297
-697.485	120.667	-0.105	-0.131
-696.470	201.317	-0.189	-0.292
-695.456	-90.441	-0.083	-0.024
-694.441	-200.000	-0.064	0.399
-693.426	-200.000	-0.019	0.351
-692.412	-4.829	0.228	-0.158
-691.397	-129.531	-0.236	-0.033
-690.383	193.020	0.181	0.274
-689.368	-200.000	-0.041	0.191
-688.354	-78.316	0.163	0.056
-687.339	-200.000	-0.016	0.127
-686.324	-32.906	0.109	0.061
-685.310	800.000	0.114	-0.354
-684.295	-200.000	-0.009	-0.243
-683.281	32.990	0.183	-0.159
-682.266	800.000	-0.102	0.352
-681.251	-59.807	-0.080	-0.034
-680.237	528.005	0.027	0.064
-679.222	280.141	-0.157	0.282
-678.208	800.000	-0.019	-0.083
-677.193	-167.475	-0.070	-0.003
-676.178	-145.767	0.253	0.023
-675.164	-101.426	-0.149	0.036
-674.149	-64.546	-0.266	-0.108
-673.135	800.000	0.047	-0.203
-672.120	800.000	-0.153	0.427
-671.105	-200.000	0.009	0.114
-670.091	62.682	-0.306	0.307
-669.076	4.907	-0.249	-0.184
-668.062	247.917	-0.023	0.038
-667.047	144.559	-0.086	-0.115
-666.032	-44.202	0.342	-0.172
-665.018	-200.000	0.030	0.135
-664.003	222.301	-0.093	0.151
-662.989	471.092	-0.063	0.143
-661.974	-200.000	-0.006	-0.034
-660.959	-49.846	0.187	-0.089
-659.945	633.862	0.063	-0.159
-658.930	85.987	-0.115	0.127
-657.916	-200.000	-0.036	-0.410
-656.901	-128.695	-0.213	0.030
-655.886	473.727	-0.107	0.242
-654.872	-200.000	-0.075	0.654
-653.857	68.708	0.048	-0.049
-652.843	-200.000	-0.008	-0.129
-651.828	800.000	-0.120	-0.431
-650.814	62.604	-0.079	-0.079
-649.799	124.771	-0.175	0.220
-648.784	-132.480	0.113	-0.015
-647.770	-166.076	-0.165	0.007
-646.755	105.035	0.076	0.090
-645.741	93.716	-0.147	-0.166
-644.726	-200.000	0.028	-0.190
-643.711	128.835	-0.137	-0.175
-642.697	-44.964	-0.021	-0.011
-641.682	168.947	0.056	-0.080
-640.668	-86.803	-0.257	0.079
-639.653	-138.040	0.173	-0.019
-638.638	-191.999	0.123	0.001
-637.624	115.883	0.059	-0.072
-636.609	800.000	0.066	-0.245
-635.595	-200.000	0.017	0.112
-634.580	163.281	-0.009	0.013
-633.565	40.852	-0.145	-0.131
-632.551	692.103	-0.033	-0.088
-631.536	-200.000	0.003	-0.462
-630.522	-200.000	0.046	-0.359
-629.507	-200.000	0.011	-0.240
-628.492	166.800	-0.094	0.133
-627.478	-200.000	0.024	-0.145
-626.463	159.841	-0.024	0.033
-625.449	-57.628	0.081	0.035
-624.434	-112.091	-0.167	-0.034
-623.419	800.000	-0.073	-0.210
-622.405	-130.977	0.132	-0.018
-621.390	-8.995	-0.179	0.120
-620.376	-165.533	-0.337	0.015
-619.361	-1.806	0.031	0.022
-618.346	-7.675	-0.131	-0.089
-617.332	-200.000	0.024	0.388
-616.317	-27.038	-0.227	-0.133
-615.303	-39.271	0.120	0.063
-614.288	113.860	0.168	0.205
-613.273	29.905	-0.303	0.258
-612.259	-200.000	-0.002	0.133
-611.244	800.000	-0.113	-0.371
-610.230	800.000	0.040	0.126
-609.215	501.575	-0.152	0.350
-608.201	206.131	-0.111	-0.173
-607.186	20.711	-0.061	0.049
-606.171	-200.000	-0.025	-0.238
-605.157	281.938	0.171	-0.306
-604.142	5.882	-0.123	-0.091
-603.128	190.907	-0.120	-0.181
-602.113	-200.000	0.015	0.181
-601.098	-89.022	-0.279	-0.083
-600.084	-200.000	-0.008	0.273
-599.069	-1.810	-0.164	-0.115
-598.055	-145.198	0.057	-0.005
-597.040	68.373	-0.148	-0.151
-596.025	116.478	-0.223	-0.274
-595.011	25.523	0.103	0.086
-593.996	-136.705	0.158	0.018
-592.982	9.338	0.199	0.150
-591.967	596.695	0.080	0.198
-590.952	-105.402	0.332	-0.075
-589.938	125.587	-0.154	0.194
-588.923	22.115	0.226	0.185
-587.909	32.164	-0.271	0.234
-586.894	-113.875	0.421	-0.082
-585.879	-83.652	-0.327	-0.104
-584.865	2.105	0.134	0.097
-583.850	642.326	-0.015	-0.039
-582.836	-20.579	-0.207	0.127
-581.821	96.566	-0.141	0.161
-580.806	-7.188	-0.156	-0.106
-579.792	800.000	-0.015	0.046
-578.777	145.481	-0.083	-0.111
-577.763	800.000	0.098	0.284
-576.748	-200.000	-0.005	0.028
-575.733	-147.841	0.219	-0.018
-574.719	115.095	-0.137	-0.167
-573.704	-141.800	-0.203	-0.020
-572.690	-45.555	-0.065	0.032
-571.675	-55.344	-0.170	0.076
-570.661	35.632	-0.304	-0.267
-569.646	-200.000	-0.020	-0.120
-568.631	-200.000	-0.004	-0.083
-567.617	-122.924	-0.234	0.038
-566.602	-200.000	0.020	-0.221
-565.588	128.396	-0.142	0.180
-564.573	167.153	-0.163	0.231
-563.558	-200.000	0.007	0.132
-562.544	774.200	0.036	0.097
-561.529	800.000	-0.072	0.268
-560.515	-200.000	0.012	-0.250
-559.500	-95.094	-0.359	-0.097
-558.485	-200.000	0.031	0.241
-557.471	52.036	0.207	0.197
-556.456	608.442	-0.062	-0.153
-555.442	-194.633	-0.321	0.003
-554.427	1.994	-0.246	0.177
-553.412	-38.273	0.122	0.065
-552.398	716.769	-0.080	-0.212
-551.383	-37.007	0.235	-0.126
-550.369	-126.377	0.135	0.020
-549.354	-103.617	-0.295	0.069
-548.339	-8.353	0.132	-0.089
-547.325	32.528	-0.168	0.145
-546.310	334.592	0.183	0.354
-545.296	-158.543	-0.342	-0.020
-544.281	243.062	-0.082	-0.137
-543.266	-15.370	0.175	-0.111
-542.252	-43.965	-0.102	-0.051
-541.237	490.962	-0.116	-0.265
-540.223	-200.000	0.053	-0.358
-539.208	-36.259	-0.286	-0.154
-538.193	199.889	-0.035	0.053
-537.179	-200.000	-0.038	-0.168
-536.164	149.767	0.212	-0.286
-535.150	235.057	0.103	0.170
-534.135	643.878	-0.040	0.102
-533.121	-176.318	-0.205	-0.005
-532.106	-112.243	-0.067	0.013
-531.091	-67.333	0.132	-0.052
-530.077	53.146	0.196	-0.187
-529.062	-200.000	0.030	-0.198
-528.048	380.300	0.077	0.158
-527.033	226.174	-0.112	0.181
-526.018	536.458	0.041	0.098
-525.004	800.000	0.054	-0.195
-523.989	-200.000	-0.021	-0.302
-522.975	15.038	-0.310	0.242
-521.960	-200.000	0.053	0.456
-520.945	84.466	-0.100	0.109
-519.931	296.635	0.061	-0.111
-518.916	659.118	0.013	-0.033
-517.902	-112.155	0.599	-0.120
-516.887	220.882	-0.116	0.186
-515.872	-101.984	0.178	-0.043
-514.858	-183.668	-0.374	-0.006
-513.843	-0.114	-0.126	0.089
-512.829	-61.556	-0.231	-0.097
-511.814	-42.389	-0.258	-0.131
-510.799	-200.000	0.073	-0.359
-509.785	689.280	0.030	0.077
-508.770	-63.133	0.451	-0.185
-507.756	800.000	-0.016	0.059
-506.741	-26.495	0.099	0.058
-505.726	-12.105	0.065	-0.043
-504.712	383.214	-0.070	-0.144
-503.697	-200.000	-0.058	0.333
-502.683	-200.000	-0.041	0.200
-501.668	-10.160	-0.306	0.202
-500.653	-200.000	0.026	0.296
-499.639	-126.882	0.073	-0.011
-498.624	2.207	-0.187	-0.135
-497.610	-36.417	-0.271	-0.145
-496.595	-200.000	-0.036	-0.314
-495.581	275.638	-0.059	-0.104
-494.566	626.557	-0.042	-0.106
-493.551	-122.942	-0.385	0.062
-492.537	-47.733	-0.417	-0.202
-491.522	800.000	0.036	-0.099
-490.508	-25.744	0.246	0.144
-489.493	800.000	0.136	-0.565
-488.478	32.090	0.037	0.032
-487.464	-96.681	-0.506	0.133
-486.449	800.000	-0.042	0.162
-485.435	-87.975	0.112	0.034
-484.420	800.000	0.149	0.470
-483.405	-72.960	-0.082	-0.030
-482.391	800.000	0.062	-0.172
-481.376	-94.021	0.130	0.036
-480.362	-200.000	-0.004	-0.091
-479.347	-75.294	-0.243	-0.086
-478.332	170.520	-0.056	-0.080
-477.318	-200.000	0.049	0.240
-476.303	-81.681	-0.052	0.017
-475.289	800.000	0.068	0.208
-474.274	-8.072	0.364	-0.244
-473.259	-69.904	-0.238	0.090
-472.245	-8.731	0.195	0.130
-471.230	-200.000	-0.028	0.168
-470.216	800.000	0.087	0.260
-469.201	-200.000	-0.007	-0.266
-468.186	-166.791	-0.109	0.004
-467.172	-14.988	-0.319	-0.203
-466.157	271.332	-0.083	-0.145
-465.143	-137.656	0.259	0.029
-464.128	-55.407	0.197	-0.088
-463.113	-1.998	-0.177	-0.123
-462.099	-60.845	0.136	-0.057
-461.084	295.753	0.017	-0.031
-460.070	41.790	-0.110	0.099
-459.055	73.447	0.178	-0.186
-458.040	691.557	0.083	0.217
-457.026	-200.000	-0.018	-0.184
-456.011	-76.291	-0.327	0.114
-454.997	-200.000	0.304	0.000
-453.982	78.798	-0.009	0.009
-452.968	-30.642	-0.209	-0.118
-451.953	-45.791	-0.103	-0.051
-450.938	157.993	-0.054	0.074
-449.924	701.020	0.090	0.235
-448.909	241.160	-0.035	0.058
-447.895	-200.000	0.006	-0.193
-446.880	149.970	-0.182	0.246
-445.865	50.082	0.253	-0.237
-444.851	800.000	-0.006	0.024
-443.836	-200.000	0.034	0.172
-442.822	-115.399	-0.226	0.042
-441.807	-36.532	0.118	0.063
-440.792	185.921	0.101	-0.150
-439.778	113.167	0.089	0.108
-438.763	172.361	0.150	-0.214
-437.749	-79.792	0.161	0.054
-436.734	730.647	-0.111	-0.295
-435.719	-34.203	-0.208	-0.113
-434.705	-24.961	-0.251	0.148
-433.690	-78.353	-0.173	0.059
-432.676	524.210	-0.130	-0.304
-431.661	25.640	0.020	0.017
-430.646	-54.781	0.170	-0.076
-429.632	-16.917	-0.107	-0.067
-428.617	-38.989	-0.130	-0.068
-427.603	-85.813	-0.285	-0.088
-426.588	92.551	0.070	0.078
-425.573	35.572	-0.183	0.160
-424.559	0.793	-0.065	0.046
-423.544	17.135	0.049	-0.039
-422.530	-150.833	0.183	-0.014
-421.515	105.976	0.293	0.345
-420.500	43.932	0.192	-0.174
-419.486	-117.999	-0.122	0.022
-418.471	800.000	0.076	-0.260
-417.457	-58.905	0.304	-0.130
-416.442	-46.379	-0.192	-0.094
-415.428	-97.094	-0.158	0.041
-414.413	-96.205	-0.182	-0.048
-413.398	-51.112	0.078	0.036
-412.384	-200.000	-0.105	-0.674
-411.369	-12.721	-0.152	-0.098
-410.355	-200.000	-0.053	0.393
-409.340	800.000	0.060	0.170
-408.325	280.479	0.010	-0.018
-407.311	-195.709	-0.144	-0.001
-406.296	-88.274	-0.114	-0.034
-405.282	-200.000	0.038	0.569
-404.267	-131.826	0.457	0.059
-403.252	121.166	-0.181	0.223
-402.238	-9.559	0.179	0.119
-401.223	47.761	0.132	0.122
-400.209	301.998	0.246	-0.450
-399.194	34.362	0.213	0.184
-398.179	-133.049	-0.242	-0.031
-397.165	126.980	0.072	0.091
-396.150	-100.125	0.114	0.028
-395.136	296.159	0.161	-0.293
-394.121	-182.807	0.284	0.005
-393.106	508.158	-0.007	-0.015
-392.092	-93.553	0.195	0.054
-391.077	157.365	-0.051	0.070
-390.063	-142.173	0.340	0.033
-389.048	800.000	-0.047	0.156
-388.033	-200.000	0.006	0.122
-387.019	17.296	-0.109	0.086
-386.004	219.070	-0.119	-0.189
-384.990	65.170	0.160	-0.160
-383.975	-83.948	-0.194	-0.061
-382.960	-200.000	-0.043	0.273
-381.946	-200.000	0.014	0.299
-380.931	-200.000	-0.223	0.000
-379.917	800.000	-0.086	-0.303
-378.902	280.714	0.105	0.187
-377.888	-122.853	0.304	0.049
-376.873	800.000	-0.060	0.171
-375.858	108.122	-0.112	0.132
-374.844	800.000	0.029	-0.116
-373.829	-107.548	-0.370	-0.080
-372.815	160.528	-0.034	0.047
-371.800	18.945	0.190	0.151
-370.785	-200.000	-0.039	0.402
-369.771	-79.036	0.173	0.058
-368.756	-74.486	-0.107	-0.038
-367.742	166.072	-0.110	-0.155
-366.727	-40.403	0.281	-0.145
-365.712	-27.711	-0.034	-0.019
-364.698	591.348	-0.054	-0.133
-363.683	257.306	-0.173	0.295
-362.669	652.704	0.112	0.284
-361.654	562.064	-0.060	-0.143
-360.639	-200.000	-0.022	-0.222
-359.625	169.915	0.103	0.145
-358.610	414.955	-0.064	0.135
-357.596	-200.000	-0.006	-0.503
-356.581	565.596	-0.060	0.145
-355.566	-146.046	0.239	-0.021
-354.552	-74.667	-0.251	-0.089
-353.537	314.901	0.073	-0.137
-352.523	-156.020	0.246	0.015
-351.508	354.589	-0.084	-0.165
-350.493	-200.000	-0.013	-0.161
-349.479	592.937	0.132	0.324
-348.464	-200.000	0.062	-0.320
-347.450	-151.805	0.133	0.010
-346.435	-200.000	-0.102	0.442
-345.420	349.605	-0.117	0.229
-344.406	-149.642	-0.175	-0.014
-343.391	42.587	0.083	0.074
-342.377	209.292	0.138	-0.214
-341.362	-188.481	0.328	0.004
-340.348	-200.000	0.147	0.000
-339.333	315.992	-0.162	-0.302
-338.318	-30.569	0.115	0.065
-337.304	800.000	-0.116	0.379
-336.289	672.758	0.048	0.123
-335.275	599.340	-0.149	0.365
-334.260	64.961	-0.239	-0.239
-333.245	71.974	-0.045	0.046
-332.231	-174.370	-0.182	0.005
-331.216	192.964	0.106	0.158
-330.202	800.000	0.101	-0.309
-329.187	240.411	0.254	0.419
-328.172	-152.975	-0.317	0.022
-327.158	-200.000	-0.010	0.098
-326.143	-93.582	-0.055	0.015
-325.129	-129.662	0.127	0.017
-324.114	53.367	-0.147	-0.139
-323.099	-74.948	0.055	0.019
-322.085	287.947	0.107	-0.191
-321.070	42.891	-0.175	0.157
-320.056	24.791	-0.150	0.123
-319.041	-0.982	0.019	0.013
-318.026	-200.000	0.055	0.241
-317.012	-200.000	0.039	-0.224
-315.997	-102.949	0.076	0.018
-314.983	-55.506	-0.062	0.028
-313.968	-200.000	0.004	0.078
-312.953	-200.000	-0.002	-0.013
-311.939	-23.450	0.231	0.137
-310.924	-200.000	-0.002	0.208
-309.910	-77.799	0.145	-0.050
-308.895	-159.876	-0.203	0.011
-307.880	10.984	0.468	-0.353
-306.866	14.714	-0.054	0.042
-305.851	-200.000	0.071	0.349
-304.837	-155.520	0.318	-0.020
-303.822	60.792	0.079	-0.078
-302.807	-152.735	-0.178	0.012
-301.793	-200.000	0.018	-0.135
-300.778	-114.415	0.271	0.052
-299.764	69.281	0.300	0.305
-298.749	-200.000	0.017	0.144
-297.735	102.790	0.015	-0.018
-296.720	-200.000	0.040	0.221
-295.705	-200.000	-0.031	-0.303
-294.691	13.347	-0.112	0.086
-293.676	88.268	-0.182	-0.200
-292.662	-176.653	0.213	0.005
-291.647	-86.470	0.230	-0.070
-290.632	800.000	-0.021	0.082
-289.618	-200.000	-0.011	0.141
-288.603	-14.872	-0.348	-0.221
-287.589	84.453	-0.175	-0.189
-286.574	-92.901	-0.293	0.081
-285.559	800.000	0.061	-0.191
-284.545	619.290	-0.177	0.440
-283.530	-146.291	0.411	-0.036
-282.516	-126.139	0.076	-0.011
-281.501	-107.950	-0.130	0.028
-280.486	-38.782	-0.176	0.092
-279.472	-153.965	0.344	-0.023
-278.457	-99.162	0.059	0.015
-277.443	-111.924	0.412	0.082
-276.428	-59.501	-0.195	0.083
-275.413	-126.560	-0.170	-0.025
-274.399	800.000	-0.076	0.255
-273.384	6.684	-0.342	-0.251
-272.370	-113.517	0.362	0.070
-271.355	-200.000	0.024	0.302
-270.340	-81.656	-0.229	-0.074
-269.326	-200.000	0.010	-0.341
-268.311	95.184	0.196	0.220
-267.297	-126.195	0.046	0.007
-266.282	10.992	0.091	-0.069
-265.267	-42.026	0.146	-0.074
-264.253	800.000	-0.042	-0.163
-263.238	-64.628	0.285	-0.114
-262.224	-59.357	0.213	0.090
-261.209	313.785	-0.105	-0.194
-260.195	-200.000	0.058	-0.259
-259.180	800.000	-0.023	0.087
-258.165	-25.780	0.132	-0.077
-257.151	114.657	-0.221	-0.266
-256.136	800.000	-0.012	-0.046
-255.122	-200.000	0.020	0.162
-254.107	-72.684	0.308	-0.112
-253.092	-176.638	0.041	0.001
-252.078	-200.000	-0.042	0.375
-251.063	-200.000	-0.046	0.237
-250.049	175.950	0.241	0.345
-249.034	-97.055	-0.250	-0.065
-248.019	-200.000	-0.018	-0.388
-247.005	132.935	-0.063	-0.081
-245.990	-200.000	-0.014	0.326
-244.976	-118.105	-0.088	-0.016
-243.961	169.378	0.094	-0.133
-242.946	28.675	-0.166	-0.139
-241.932	31.980	0.110	-0.094
-240.917	-59.883	0.055	0.023
-239.903	800.000	-0.055	0.159
-238.888	92.513	0.138	0.154
-237.873	-107.681	-0.029	-0.006
-236.859	-119.648	-0.083	-0.014
-235.844	-200.000	-0.069	0.357
-234.830	245.109	0.157	0.260
-233.815	552.012	0.099	0.234
-232.800	-145.485	0.312	0.028
-231.786	-200.000	-0.002	0.080
-230.771	-75.229	-0.175	0.062
-229.757	-200.000	0.050	0.283
-228.742	47.841	0.098	-0.090
-227.727	-200.000	-0.042	0.327
-226.713	8.402	0.161	-0.119
-225.698	204.215	-0.151	-0.231
-224.684	-134.026	0.269	0.033
-223.669	670.723	-0.113	0.288
-222.655	-200.000	-0.025	-0.140
-221.640	617.367	0.085	-0.209
-220.625	436.698	-0.115	-0.246
-219.611	141.818	0.174	-0.227
-218.596	50.827	-0.144	0.135
-217.582	-98.936	-0.336	-0.084
-216.567	-89.859	0.354	0.102
-215.552	118.154	-0.130	0.158
-214.538	11.934	-0.107	-0.081
-213.523	26.131	0.261	0.215
-212.509	441.328	0.091	0.196
-211.494	-53.370	-0.129	0.058
-210.479	-200.000	-0.016	-0.228
-209.465	-109.406	-0.416	0.087
-208.450	-132.603	0.326	0.041
-207.436	-131.751	0.113	0.015
-206.421	800.000	0.089	0.327
-205.406	-82.763	-0.156	-0.050
-204.392	269.286	0.059	-0.102
-203.377	-61.594	0.023	0.010
-202.363	58.066	0.086	-0.083
-201.348	-200.000	-0.085	0.387
-200.333	-200.000	-0.015	-0.435
-199.319	197.808	0.074	-0.112
-198.304	36.103	-0.044	0.038
-197.290	-200.000	0.161	0.000
-196.275	-200.000	-0.023	-0.179
-195.260	133.835	0.020	0.026
-194.246	800.000	0.057	-0.193
-193.231	-200.000	0.004	0.338
-192.217	-145.214	0.102	0.009
-191.202	-194.175	0.318	0.003
-190.187	574.862	-0.102	-0.244
-189.173	15.793	0.309	0.239
-188.158	-36.534	0.048	-0.026
-187.144	-4.034	-0.179	-0.122
-186.129	-87.432	-0.368	-0.110
-185.114	156.713	0.184	-0.250
-184.100	-200.000	0.005	-0.072
-183.085	800.000	0.057	-0.175
-182.071	-200.000	0.024	0.131
-181.056	-75.387	0.196	0.069
-180.042	-200.000	0.031	0.239
-179.027	261.945	0.177	0.301
-178.012	-200.000	0.050	-0.230
-176.998	30.748	0.106	-0.089
-175.983	502.104	-0.073	0.166
-174.969	-12.254	0.185	0.119
-173.954	-94.751	0.230	0.061
-172.939	157.311	0.119	-0.161
-171.925	-13.903	0.380	0.242
-170.910	83.480	0.146	-0.156
-169.896	-69.464	0.459	-0.173
-168.881	11.779	-0.257	-0.194
-167.866	143.689	0.090	0.117
-166.852	-61.974	0.190	-0.078
-165.837	-119.120	-0.175	-0.030
-164.823	-127.279	0.185	-0.027
-163.808	-200.000	0.035	-0.213
-162.793	65.574	-0.204	-0.203
-161.779	-9.699	-0.082	-0.054
-160.764	800.000	0.014	-0.040
-159.750	-67.424	0.265	-0.102
-158.735	-121.428	-0.085	0.014
-157.720	84.975	-0.098	0.105
-156.706	28.110	-0.130	-0.108
-155.691	-107.477	0.293	-0.063
-154.677	58.641	-0.256	-0.247
-153.662	-95.033	0.206	-0.055
-152.647	800.000	-0.050	0.185
-151.633	-200.000	0.038	-0.351
-150.618	-24.461	0.280	0.164
-149.604	-72.967	0.362	0.131
-148.589	38.637	-0.261	-0.229
-147.574	631.006	0.104	-0.259
-146.560	145.999	0.304	0.400
-145.545	-200.000	0.030	0.351
-144.531	12.532	-0.063	0.048
-143.516	85.851	-0.203	0.219
-142.502	166.474	0.164	-0.228
-141.487	236.177	-0.220	-0.358
-140.472	800.000	0.067	-0.200
-139.458	-152.029	0.100	0.007
-138.443	-200.000	-0.022	0.184
-137.429	-99.328	0.460	-0.114
-136.414	-92.111	0.086	0.024
-135.399	-200.000	-0.084	-0.497
-134.385	709.338	0.080	-0.208
-133.370	144.199	-0.199	-0.261
-132.356	4.864	0.289	-0.209
-131.341	-200.000	-0.072	0.393
-130.326	-65.363	0.250	-0.099
-129.312	57.054	-0.142	-0.136
-128.297	-35.327	-0.068	0.037
-127.283	-7.075	0.122	0.081
-126.268	-31.045	-0.165	-0.092
-125.253	-200.000	0.040	0.331
-124.239	-110.417	-0.142	-0.029
-123.224	538.278	-0.130	0.304
-122.210	142.540	0.076	0.099
