DTS Sentinel unit serial number:	SN413079Multiplexer serial number:	ORYXHardware model number:	OX4-SRSoftware version number:	ORYX F/W v4.00 Oryx Data Collector v3.7.2.0data status	okinstallation	princeton_trtdifferential loss correction	single-endedforward channel	channel 2reverse channel	N/Adate	2019/09/16time	14:07:35forward acquisition time	60.00reverse acquisition time	0.00gamma	496.2192k internal	0.2295k external	0.2295temperature offset calibration	0.9942default loss term (dB/km)	0.3790temperature slope calibration	1.0000multiplexer offset coefficient	1.0000multiplexer slope coefficient	1.0000fibre end	0.00T internal ref (°C)	42.31T ext. ref 1 (°C)	14.07T ext. ref 2 (°C)	36.60length (m)	temperature (°C)	Stokes	anti-Stokes-747.200	-63.501	-0.118	0.049
-746.185	-128.886	-0.086	-0.012
-745.171	125.398	0.170	0.219
-744.156	-3.513	0.234	0.167
-743.142	-200.000	0.039	0.319
-742.127	-47.415	0.089	0.044
-741.112	-200.000	-0.013	-0.151
-740.098	800.000	-0.096	0.358
-739.083	91.997	-0.302	-0.347
-738.069	800.000	0.065	0.232
-737.054	-91.112	0.310	0.091
-736.039	-2.865	-0.150	0.107
-735.025	-99.216	-0.120	0.031
-734.010	-104.224	-0.317	-0.075
-732.996	14.313	-0.167	0.133
-731.981	-107.796	0.032	-0.007
-730.966	-112.924	-0.078	0.016
-729.952	-200.000	-0.002	-0.049
-728.937	-3.766	-0.356	-0.253
-727.923	-200.000	0.060	-0.314
-726.908	-13.367	-0.176	0.116
-725.894	800.000	-0.046	-0.193
-724.879	217.146	-0.112	0.182
-723.864	-132.178	0.080	0.011
-722.850	800.000	0.082	0.360
-721.835	800.000	-0.081	0.249
-720.821	-70.355	0.111	-0.043
-719.806	441.670	-0.081	-0.182
-718.791	-200.000	-0.008	-0.200
-717.777	-80.418	-0.188	0.064
-716.762	-69.493	-0.049	-0.019
-715.748	306.627	0.109	0.208
-714.733	2.761	-0.066	-0.049
-713.718	-149.827	-0.092	0.007
-712.704	-200.000	0.002	-0.026
-711.689	-123.819	0.116	-0.019
-710.675	14.913	0.200	-0.160
-709.660	-200.000	0.001	0.199
-708.645	-71.303	-0.080	-0.031
-707.631	59.412	0.226	0.227
-706.616	-50.036	0.220	-0.106
-705.602	-200.000	0.018	0.243
-704.587	-200.000	0.051	-0.272
-703.572	127.077	0.131	-0.170
-702.558	-200.000	0.005	0.136
-701.543	-35.654	0.069	0.038
-700.529	-62.169	-0.124	0.053
-699.514	-152.209	0.097	-0.007
-698.499	800.000	0.025	-0.088
-697.485	-3.213	0.308	-0.219
-696.470	800.000	0.109	-0.318
-695.456	-109.699	0.343	-0.074
-694.441	242.145	-0.114	0.194
-693.426	29.693	-0.058	0.051
-692.412	-37.723	-0.256	-0.139
-691.397	-27.206	0.101	-0.060
-690.383	800.000	-0.044	0.178
-689.368	-44.049	0.120	-0.061
-688.354	362.756	0.299	-0.612
-687.339	-34.223	-0.150	-0.084
-686.324	41.779	-0.297	0.275
-685.310	-121.573	0.205	0.035
-684.295	-200.000	0.021	0.205
-683.281	-184.097	-0.119	0.002
-682.266	264.981	0.172	0.306
-681.251	90.831	-0.071	0.081
-680.237	14.052	-0.083	-0.066
-679.222	800.000	-0.025	0.086
-678.208	-111.702	0.339	0.070
-677.193	-200.000	0.003	0.093
-676.178	-117.990	-0.108	-0.020
-675.164	616.486	0.019	0.048
-674.149	800.000	0.033	-0.122
-673.135	-24.761	-0.496	0.300
-672.120	52.158	0.090	0.087
-671.105	97.248	0.096	-0.112
-670.091	111.634	-0.029	-0.035
-669.076	53.499	0.140	0.136
-668.062	800.000	-0.106	-0.333
-667.047	90.226	0.043	0.050
-666.032	800.000	0.022	0.075
-665.018	652.636	0.058	-0.152
-664.003	-26.241	-0.258	-0.154
-662.989	575.097	0.102	0.253
-661.974	109.448	0.237	0.290
-660.959	-127.498	-0.303	0.045
-659.945	-58.149	0.057	0.025
-658.930	-200.000	0.062	0.524
-657.916	-139.844	-0.640	-0.069
-656.901	-68.420	0.034	0.014
-655.886	517.119	-0.030	-0.072
-654.872	197.053	0.247	-0.384
-653.857	-36.837	-0.120	0.065
-652.843	-21.906	-0.185	-0.115
-651.828	94.534	-0.175	0.203
-650.814	-159.805	0.211	0.012
-649.799	782.033	-0.144	0.403
-648.784	-76.284	-0.126	-0.045
-647.770	648.108	-0.096	0.250
-646.755	171.344	0.108	-0.157
-645.741	-200.000	0.005	-0.036
-644.726	-200.000	0.020	-0.238
-643.711	-200.000	0.020	0.152
-642.697	-136.283	-0.292	0.035
-641.682	800.000	0.106	0.321
-640.668	75.295	0.203	0.218
-639.653	-200.000	-0.007	-0.336
-638.638	-200.000	-0.017	-0.448
-637.624	100.496	-0.109	0.129
-636.609	83.507	-0.148	0.165
-635.595	194.296	0.100	-0.155
-634.580	-200.000	-0.003	0.119
-633.565	800.000	0.075	-0.281
-632.551	-113.019	0.082	-0.017
-631.536	-138.164	0.257	0.029
-630.522	-200.000	0.015	0.090
-629.507	-200.000	-0.062	-0.306
-628.492	222.029	0.027	-0.045
-627.478	-92.722	0.197	-0.056
-626.463	-90.203	-0.373	-0.110
-625.449	46.984	-0.300	-0.284
-624.434	-20.408	-0.300	-0.188
-623.419	-33.045	-0.252	-0.142
-622.405	294.318	0.153	-0.284
-621.390	-143.302	-0.267	-0.026
-620.376	384.043	-0.147	0.308
-619.361	-88.481	-0.063	-0.019
-618.346	87.065	-0.119	-0.133
-617.332	800.000	-0.041	-0.177
-616.317	800.000	-0.067	-0.188
-615.303	-110.940	0.087	0.018
-614.288	-44.544	-0.140	0.071
-613.273	38.725	-0.348	0.316
-612.259	134.884	0.256	-0.338
-611.244	218.663	0.020	0.032
-610.230	-200.000	0.056	-0.273
-609.215	192.013	0.096	0.148
-608.201	-200.000	0.008	-0.069
-607.186	-200.000	-0.020	-0.430
-606.171	45.165	0.229	0.215
-605.157	134.916	-0.057	0.076
-604.142	-94.144	-0.251	-0.070
-603.128	328.739	-0.083	-0.162
-602.113	-80.238	0.243	-0.083
-601.098	83.166	-0.057	0.063
-600.084	-1.975	-0.284	0.203
-599.069	-52.199	0.269	0.127
-598.055	-76.541	0.408	-0.145
-597.040	165.944	0.077	-0.111
-596.025	10.255	-0.167	0.129
-595.011	-127.443	0.123	0.018
-593.996	-200.000	0.023	0.222
-592.982	10.914	-0.111	-0.086
-591.967	-74.391	-0.197	0.072
-590.952	138.025	0.162	-0.216
-589.938	28.559	-0.194	-0.167
-588.923	-76.773	-0.138	0.049
-587.909	95.575	0.060	-0.070
-586.894	-26.178	0.317	-0.189
-585.879	800.000	-0.040	-0.114
-584.865	-200.000	-0.166	-0.000
-583.850	-116.155	-0.150	0.028
-582.836	78.299	-0.139	-0.151
-581.821	-129.106	0.227	-0.032
-580.806	-125.487	0.116	0.018
-579.792	-151.158	0.106	-0.008
-578.777	-161.950	0.336	0.017
-577.763	-72.736	-0.060	0.022
-576.748	-99.178	-0.286	-0.073
-575.733	-34.795	0.054	-0.030
-574.719	178.403	-0.209	-0.311
-573.704	141.658	0.169	0.227
-572.690	-200.000	-0.004	-0.070
-571.675	682.483	-0.110	-0.291
-570.661	-200.000	0.005	0.027
-569.646	532.232	-0.077	0.186
-568.631	158.059	0.063	0.089
-567.617	3.544	0.251	0.186
-566.602	-149.765	0.185	0.015
-565.588	-102.296	-0.315	-0.077
-564.573	31.029	0.144	-0.125
-563.558	-200.000	-0.032	-0.430
-562.544	800.000	0.070	-0.236
-561.529	174.881	0.030	-0.044
-560.515	-160.375	0.259	0.014
-559.500	-47.973	-0.110	-0.054
-558.485	125.221	-0.086	0.111
-557.471	12.356	0.065	0.051
-556.456	-84.445	-0.154	0.049
-555.442	-55.626	0.332	-0.151
-554.427	-148.810	0.032	-0.003
-553.412	-19.032	0.377	0.238
-552.398	-82.593	0.095	0.031
-551.383	800.000	0.049	-0.148
-550.369	-200.000	-0.007	0.092
-549.354	52.755	-0.125	0.121
-548.339	-19.759	0.363	0.228
-547.325	-200.000	0.005	-0.042
-546.310	62.508	0.180	-0.182
-545.296	-23.753	0.069	0.042
-544.281	764.732	0.061	0.169
-543.266	-90.271	-0.419	-0.123
-542.252	110.051	-0.183	-0.222
-541.237	-45.432	-0.162	0.081
-540.223	-149.208	0.083	0.007
-539.208	140.546	-0.124	-0.166
-538.193	186.801	-0.149	0.225
-537.179	278.125	-0.090	-0.163
-536.164	-39.091	0.132	-0.070
-535.150	215.879	0.148	-0.239
-534.135	541.474	0.051	0.123
-533.121	-44.716	-0.172	0.087
-532.106	689.865	0.027	0.072
-531.091	-4.845	-0.184	-0.129
-530.077	800.000	0.051	-0.163
-529.062	-119.167	0.074	0.013
-528.048	189.571	-0.038	0.058
-527.033	-10.533	-0.101	0.068
-526.018	315.468	0.067	0.127
-525.004	-117.310	0.101	-0.019
-523.989	-146.546	-0.326	-0.029
-522.975	1.305	-0.141	0.103
-521.960	-138.193	-0.296	0.033
-520.945	92.313	0.282	-0.322
-519.931	83.508	0.328	0.362
-518.916	755.811	0.023	0.062
-517.902	122.203	-0.206	-0.261
-516.887	-200.000	0.016	0.072
-515.872	-200.000	-0.009	-0.100
-514.858	472.103	0.102	0.233
-513.843	382.956	0.031	-0.065
-512.829	-50.926	-0.240	0.114
-511.814	133.044	-0.106	0.139
-510.799	-200.000	-0.066	0.297
-509.785	-87.520	-0.148	0.045
-508.770	31.968	-0.185	-0.162
-507.756	-164.938	0.163	-0.007
-506.741	800.000	-0.104	-0.382
-505.726	11.103	0.230	0.178
-504.712	-80.555	-0.105	0.035
-503.697	-129.219	-0.298	0.042
-502.683	-135.698	-0.350	-0.042
-501.668	-107.570	0.094	-0.021
-500.653	71.576	0.054	0.057
-499.639	-28.839	0.409	0.238
-498.624	-68.009	-0.234	0.093
-497.610	-48.837	-0.201	-0.097
-496.595	5.884	-0.165	0.124
-495.581	-200.000	0.016	0.078
-494.566	67.443	0.110	-0.114
-493.551	800.000	-0.043	-0.127
-492.537	-64.305	-0.219	-0.090
-491.522	-20.655	0.123	-0.077
-490.508	130.769	-0.049	0.064
-489.493	7.192	0.088	0.067
-488.478	34.699	0.241	-0.213
-487.464	23.526	-0.253	-0.211
-486.449	204.899	-0.083	-0.131
-485.435	227.226	-0.024	0.039
-484.420	-200.000	-0.027	-0.158
-483.405	-200.000	0.061	-0.437
-482.391	336.150	-0.040	0.079
-481.376	-9.658	-0.106	-0.071
-480.362	-95.209	0.165	-0.045
-479.347	-22.216	0.162	-0.099
-478.332	-16.525	0.329	-0.211
-477.318	-200.000	-0.003	0.029
-476.303	-146.501	-0.358	0.032
-475.289	-6.867	0.305	0.210
-474.274	-131.311	0.044	-0.006
-473.259	-115.036	-0.248	-0.048
-472.245	-200.000	0.016	-0.196
-471.230	139.864	0.079	-0.106
-470.216	209.162	0.042	-0.067
-469.201	800.000	0.097	-0.323
-468.186	-79.821	-0.207	-0.070
-467.172	-14.838	0.186	-0.121
-466.157	-133.698	-0.428	0.054
-465.143	89.128	0.173	-0.195
-464.128	300.080	0.129	-0.240
-463.113	422.926	-0.072	0.156
-462.099	-42.293	0.164	-0.085
-461.084	800.000	-0.049	0.145
-460.070	-31.858	-0.499	0.282
-459.055	-45.112	0.446	0.224
-458.040	305.190	-0.044	-0.083
-457.026	800.000	-0.019	0.083
-456.011	-124.615	0.306	0.048
-454.997	292.401	0.207	-0.382
-453.982	-31.105	0.292	0.166
-452.968	-72.044	-0.156	-0.058
-451.953	-20.789	0.045	0.028
-450.938	-79.387	0.021	-0.007
-449.924	405.974	-0.047	0.101
-448.909	128.169	0.138	-0.178
-447.895	-32.784	0.122	0.068
-446.880	-82.026	0.110	-0.036
-445.865	-96.692	-0.035	-0.009
-444.851	-14.730	-0.383	-0.248
-443.836	-130.804	0.044	0.006
-442.822	-200.000	-0.029	0.224
-441.807	306.970	0.100	0.188
-440.792	548.503	-0.063	0.153
-439.778	-25.618	0.057	-0.034
-438.763	800.000	-0.045	0.197
-437.749	-189.708	-0.159	-0.002
-436.734	185.398	0.178	0.267
-435.719	-200.000	0.017	-0.217
-434.705	60.216	0.097	-0.096
-433.690	-200.000	0.002	0.137
-432.676	-1.179	0.122	0.087
-431.661	3.868	-0.174	-0.128
-430.646	35.387	-0.154	0.136
-429.632	-147.740	0.201	-0.017
-428.617	151.348	-0.102	0.140
-427.603	-200.000	-0.004	-0.163
-426.588	237.704	0.096	-0.161
-425.573	-3.526	0.251	-0.176
-424.559	115.245	0.120	-0.148
-423.544	-23.986	0.290	0.175
-422.530	193.343	-0.092	0.141
-421.515	190.350	-0.039	0.059
-420.500	-46.861	0.263	0.130
-419.486	-32.262	0.092	0.052
-418.471	438.974	0.086	0.190
-417.457	-29.075	0.184	0.106
-416.442	-200.000	-0.014	0.087
-415.428	-117.584	0.131	-0.024
-414.413	594.437	-0.047	0.117
-413.398	-163.005	0.145	0.007
-412.384	-200.000	-0.001	0.153
-411.369	373.678	0.084	-0.173
-410.355	45.179	-0.142	-0.132
-409.340	-200.000	-0.014	0.118
-408.325	-72.493	-0.124	-0.046
-407.311	200.057	-0.177	0.274
-406.296	-200.000	0.012	0.058
-405.282	-167.710	-0.192	0.008
-404.267	-174.946	0.290	0.008
-403.252	-171.742	-0.078	-0.003
-402.238	800.000	0.027	0.102
-401.223	794.915	-0.048	-0.132
-400.209	-41.772	0.127	-0.066
-399.194	-139.489	0.483	-0.052
-398.179	-200.000	0.011	0.209
-397.165	800.000	0.125	-0.352
-396.150	-36.230	-0.145	-0.079
-395.136	446.974	-0.197	0.438
-394.121	-200.000	0.019	0.169
-393.106	-200.000	0.037	0.265
-392.092	303.952	0.092	0.172
-391.077	560.049	0.068	0.165
-390.063	-81.392	-0.220	-0.073
-389.048	140.336	0.127	-0.168
-388.033	16.180	0.393	-0.313
-387.019	-133.302	-0.220	0.028
-386.004	218.029	-0.185	-0.297
-384.990	-200.000	0.003	0.238
-383.975	499.930	0.092	0.213
-382.960	-153.908	-0.189	0.013
-381.946	-31.333	0.052	0.029
-380.931	239.494	0.215	0.360
-379.917	800.000	-0.067	-0.276
-378.902	-200.000	0.039	-0.176
-377.888	-200.000	0.011	-0.120
-376.873	-200.000	0.045	0.321
-375.858	126.401	0.279	0.355
-374.844	124.751	-0.079	-0.100
-373.829	113.076	-0.042	-0.052
-372.815	280.049	0.083	-0.150
-371.800	-145.604	-0.184	-0.017
-370.785	-19.726	-0.192	0.120
-369.771	-191.966	-0.232	0.002
-368.756	-200.000	0.011	-0.197
-367.742	-5.221	0.216	0.149
-366.727	-200.000	-0.002	0.161
-365.712	-171.409	0.224	-0.008
-364.698	-11.899	-0.124	0.082
-363.683	327.831	0.086	-0.167
-362.669	262.874	-0.125	-0.219
-361.654	-55.131	0.313	0.142
-360.639	-136.398	0.182	-0.021
-359.625	-200.000	-0.034	0.184
-358.610	-200.000	0.000	-0.249
-357.596	-124.064	0.117	-0.019
-356.581	316.027	-0.226	-0.430
-355.566	800.000	-0.025	-0.088
-354.552	-94.645	0.263	-0.072
-353.537	-84.884	0.151	0.048
-352.523	-200.000	0.059	-0.333
-351.508	45.188	-0.107	-0.099
-350.493	-93.232	-0.060	0.017
-349.479	260.633	0.103	-0.180
-348.464	596.975	0.043	-0.108
-347.450	800.000	0.078	-0.290
-346.435	-120.881	0.277	-0.047
-345.420	-115.317	-0.168	0.032
-344.406	191.954	-0.227	0.344
-343.391	800.000	-0.120	0.393
-342.377	-80.761	-0.276	0.092
-341.362	-200.000	0.029	-0.241
-340.348	11.613	-0.095	0.073
-339.333	181.879	-0.219	0.325
-338.318	179.007	0.063	-0.092
-337.304	310.570	-0.055	-0.104
-336.289	-200.000	-0.025	0.183
-335.275	-24.343	-0.490	0.294
-334.260	-146.149	-0.279	-0.025
-333.245	-115.374	0.323	0.061
-332.231	-21.456	0.034	-0.021
-331.216	-163.962	0.218	-0.010
-330.202	652.338	0.079	0.203
-329.187	48.615	0.309	0.291
-328.172	-200.000	0.020	0.537
-327.158	382.368	-0.136	0.281
-326.143	790.228	-0.050	0.137
-325.129	-200.000	-0.106	-0.468
-324.114	519.113	0.018	0.041
-323.099	-78.274	-0.314	-0.108
-322.085	-200.000	0.007	-0.201
-321.070	-101.337	0.278	0.068
-320.056	-30.656	0.344	-0.196
-319.041	-62.313	-0.199	0.083
-318.026	-100.458	0.243	-0.060
-317.012	-200.000	0.010	0.316
-315.997	-53.738	0.125	0.058
-314.983	-98.926	-0.010	-0.002
-313.968	800.000	-0.099	0.365
-312.953	4.113	-0.152	0.111
-311.939	109.628	0.167	-0.201
-310.924	-200.000	-0.020	0.157
-309.910	-32.418	-0.253	-0.142
-308.895	582.839	-0.050	-0.124
-307.880	-166.758	0.224	0.009
-306.866	336.229	0.071	0.138
-305.851	-166.141	0.295	0.013
-304.837	-118.845	-0.401	-0.071
-303.822	-200.000	-0.084	-0.371
-302.807	51.460	0.055	-0.052
-301.793	97.794	0.266	0.307
-300.778	248.779	-0.296	-0.503
-299.764	-96.353	-0.468	0.124
-298.749	-200.000	-0.001	-0.234
-297.735	-54.495	-0.241	0.109
-296.720	37.334	0.106	-0.095
-295.705	23.498	-0.088	0.073
-294.691	140.981	0.137	0.183
-293.676	800.000	0.070	0.304
-292.662	-200.000	0.049	-0.578
-291.647	128.534	0.129	-0.165
-290.632	-76.239	-0.253	-0.089
-289.618	480.403	-0.165	0.375
-288.603	-11.161	-0.136	-0.090
-287.589	-169.985	0.382	-0.014
-286.574	-127.831	-0.146	0.021
-285.559	800.000	0.024	-0.080
-284.545	-200.000	0.046	-0.219
-283.530	-21.421	-0.415	0.254
-282.516	-140.494	0.236	0.025
-281.501	-23.621	0.038	-0.023
-280.486	800.000	0.060	0.221
-279.472	250.838	0.109	-0.185
-278.457	-200.000	-0.001	-0.065
-277.443	25.654	-0.204	-0.170
-276.428	-195.921	-0.223	-0.002
-275.413	45.763	0.187	0.174
-274.399	136.175	-0.144	-0.188
-273.384	-139.237	-0.333	0.036
-272.370	156.551	-0.195	0.270
-271.355	103.730	0.143	-0.168
-270.340	-126.787	0.094	-0.014
-269.326	486.758	-0.078	-0.178
-268.311	-44.740	0.200	-0.100
-267.297	-148.552	0.214	-0.018
-266.282	-200.000	-0.049	-0.318
-265.267	-89.077	-0.131	0.039
-264.253	114.501	-0.332	0.406
-263.238	23.910	0.230	-0.190
-262.224	-110.183	0.122	-0.026
-261.209	-200.000	-0.005	0.093
-260.195	-149.771	0.248	-0.020
-259.180	119.429	-0.087	0.109
-258.165	-113.506	-0.097	-0.019
-257.151	-43.882	-0.284	-0.143
-256.136	-20.291	-0.301	-0.186
-255.122	45.218	-0.233	0.216
-254.107	497.250	0.091	0.210
-253.092	201.251	-0.102	-0.157
-252.078	800.000	0.100	0.389
-251.063	187.976	0.130	0.195
-250.049	-99.831	-0.121	0.030
-249.034	-116.641	0.112	-0.021
-248.019	40.594	0.015	-0.014
-247.005	-18.988	0.263	-0.164
-245.990	800.000	0.074	0.220
-244.976	258.468	0.117	-0.203
-243.961	174.892	0.037	-0.053
-242.946	-112.388	-0.210	-0.042
-241.932	44.350	0.087	-0.080
-240.917	800.000	0.064	-0.258
-239.903	800.000	-0.104	0.382
-238.888	-200.000	-0.041	0.289
-237.873	-60.368	-0.128	0.055
-236.859	-200.000	0.017	-0.083
-235.844	111.545	-0.128	-0.155
-234.830	-21.946	0.150	-0.092
-233.815	-73.657	-0.339	-0.124
-232.800	245.791	-0.069	-0.116
-231.786	800.000	0.052	-0.212
-230.771	30.390	-0.151	0.129
-229.757	718.956	0.075	-0.198
-228.742	-200.000	-0.041	-0.252
-227.727	-136.426	0.132	-0.015
-226.713	-104.055	-0.133	0.031
-225.698	800.000	-0.022	0.066
-224.684	-26.646	0.120	-0.070
-223.669	-77.752	0.086	-0.030
-222.655	97.940	-0.140	0.161
-221.640	-191.349	-0.208	0.002
-220.625	-9.627	0.248	0.165
-219.611	1.320	-0.270	-0.194
-218.596	-64.487	0.241	0.098
-217.582	-66.671	0.315	0.125
-216.567	-200.000	0.036	0.263
-215.552	-165.199	0.100	-0.004
-214.538	24.670	-0.323	0.268
-213.523	263.244	-0.115	0.201
-212.509	-14.671	0.252	-0.162
-211.494	210.977	-0.171	0.269
-210.479	-137.237	0.075	-0.009
-209.465	52.927	0.092	0.088
-208.450	800.000	0.035	0.145
-207.436	-200.000	-0.002	0.062
-206.421	-73.286	0.409	0.150
-205.406	-200.000	-0.036	-0.161
-204.392	-102.189	0.204	0.049
-203.377	-164.662	-0.248	-0.011
-202.363	800.000	-0.084	-0.297
-201.348	-200.000	-0.021	0.167
-200.333	-113.928	0.294	0.057
-199.319	-200.000	-0.037	-0.192
-198.304	-62.265	0.052	-0.022
-197.290	24.708	-0.090	-0.074
-196.275	111.804	0.089	0.108
-195.260	561.365	0.019	-0.047
-194.246	370.537	0.086	0.175
-193.231	651.265	0.013	0.033
-192.217	-200.000	-0.005	-0.158
-191.202	149.768	-0.025	-0.033
-190.187	43.899	0.048	0.044
-189.173	-200.000	0.031	0.309
-188.158	800.000	0.070	0.196
-187.144	-126.956	0.278	0.041
-186.129	428.320	0.145	0.313
-185.114	-12.445	-0.128	-0.083
-184.100	161.379	0.049	-0.068
-183.085	170.835	0.119	-0.170
-182.071	-39.722	-0.201	0.105
-181.056	110.356	-0.191	0.230
-180.042	-200.000	-0.003	-0.175
-179.027	-113.693	-0.190	-0.037
-178.012	105.759	0.090	0.107
-176.998	36.975	-0.347	-0.307
-175.983	198.175	0.094	0.143
-174.969	44.169	0.240	0.220
-173.954	8.620	-0.077	0.058
-172.939	304.090	0.067	-0.125
-171.925	195.994	-0.085	-0.130
-170.910	136.530	0.103	0.134
-169.896	-200.000	0.026	0.213
-168.881	8.792	-0.146	-0.110
-167.866	-10.495	-0.274	0.182
-166.852	-93.969	-0.283	-0.078
-165.837	-0.767	-0.076	-0.054
-164.823	-60.869	0.149	0.063
-163.808	-132.882	0.026	0.003
-162.793	-174.826	0.309	-0.009
-161.779	-133.148	0.256	-0.032
-160.764	-66.691	-0.410	0.162
-159.750	-200.000	-0.027	0.397
-158.735	-46.815	0.131	0.064
-157.720	258.237	0.054	0.092
-156.706	800.000	0.043	0.182
-155.691	-82.200	-0.142	0.046
-154.677	-121.680	0.304	-0.050
-153.662	800.000	0.072	-0.297
-152.647	800.000	-0.062	0.226
-151.633	76.320	-0.093	0.099
-150.618	-71.461	-0.342	0.128
-149.604	-200.000	0.036	0.228
-148.589	-128.580	0.236	0.033
-147.574	235.395	0.013	0.022
-146.560	-200.000	-0.041	-0.414
-145.545	-105.144	0.354	-0.081
-144.531	787.497	-0.145	0.398
-143.516	12.801	-0.350	0.270
-142.502	102.610	0.214	0.249
-141.487	-46.743	0.119	-0.058
-140.472	-200.000	0.061	0.366
-139.458	-58.951	-0.246	-0.106
-138.443	-200.000	0.031	0.267
-137.429	143.486	-0.145	-0.192
-136.414	-27.470	-0.220	-0.128
-135.399	-200.000	0.018	-0.099
-134.385	353.816	0.044	-0.087
-133.370	-128.339	0.234	0.033
-132.356	-90.751	0.125	0.036
-131.341	-200.000	-0.015	0.144
-130.326	36.114	0.160	-0.141
-129.312	-105.994	0.109	-0.024
-128.297	187.513	0.209	-0.312
-127.283	-200.000	-0.034	0.184
-126.268	28.614	-0.241	0.204
-125.253	800.000	0.055	-0.153
-124.239	800.000	-0.068	-0.259
-123.224	365.774	-0.096	-0.193
-122.210	-200.000	-0.014	0.232
-121.195	800.000	0.048	0.159
