DTS Sentinel unit serial number:	SN413079Multiplexer serial number:	ORYXHardware model number:	OX4-SRSoftware version number:	ORYX F/W v4.00 Oryx Data Collector v3.7.2.0data status	okinstallation	princeton_trtdifferential loss correction	single-endedforward channel	channel 2reverse channel	N/Adate	2019/09/17time	22:11:35forward acquisition time	60.00reverse acquisition time	0.00gamma	496.2192k internal	0.2343k external	0.2343temperature offset calibration	0.9986default loss term (dB/km)	0.3790temperature slope calibration	1.0000multiplexer offset coefficient	1.0000multiplexer slope coefficient	1.0000fibre end	0.00T internal ref (°C)	25.77T ext. ref 1 (°C)	0.17T ext. ref 2 (°C)	18.61length (m)	temperature (°C)	Stokes	anti-Stokes-747.200	-200.000	0.195	0.001
-746.185	64.612	-0.247	0.250
-745.171	112.519	0.134	0.162
-744.156	74.083	-0.120	-0.126
-743.142	575.599	0.046	-0.113
-742.127	106.500	-0.075	-0.090
-741.112	-40.883	0.093	0.048
-740.098	79.058	-0.177	0.190
-739.083	28.297	-0.172	-0.145
-738.069	162.777	-0.312	0.439
-737.054	-200.000	0.016	0.174
-736.039	124.804	-0.322	0.405
-735.025	-200.000	0.000	0.074
-734.010	78.138	-0.221	0.236
-732.996	101.123	-0.251	-0.292
-731.981	4.682	-0.088	0.065
-730.966	-200.000	-0.025	-0.252
-729.952	358.953	-0.213	-0.426
-728.937	105.306	-0.103	-0.121
-727.923	3.861	0.206	-0.150
-726.908	-191.734	-0.179	0.002
-725.894	90.431	-0.143	-0.160
-724.879	-45.790	-0.361	0.179
-723.864	-97.464	0.309	0.080
-722.850	85.662	0.126	0.139
-721.835	-113.148	-0.362	0.071
-720.821	-88.327	-0.094	0.028
-719.806	-167.625	0.091	0.004
-718.791	-139.420	-0.206	-0.022
-717.777	-7.408	-0.105	0.071
-716.762	187.539	0.234	-0.349
-715.748	609.044	-0.119	-0.298
-714.733	43.179	-0.178	-0.163
-713.718	-158.370	0.499	0.029
-712.704	-39.150	0.187	0.098
-711.689	-200.000	0.059	0.378
-710.675	-146.917	-0.300	0.026
-709.660	289.756	-0.105	-0.191
-708.645	-102.255	-0.306	0.073
-707.631	-34.187	0.123	-0.068
-706.616	21.853	0.124	0.101
-705.602	15.880	-0.078	0.061
-704.587	-200.000	-0.119	-0.526
-703.572	160.446	-0.076	0.106
-702.558	-15.670	0.225	0.144
-701.543	-200.000	-0.029	0.203
-700.529	-137.776	0.101	0.011
-699.514	-200.000	-0.004	0.365
-698.499	521.088	-0.027	0.062
-697.485	298.831	0.209	-0.384
-696.470	-97.971	-0.200	-0.052
-695.456	79.080	0.152	-0.163
-694.441	138.355	-0.181	-0.237
-693.426	142.419	-0.153	-0.203
-692.412	-105.243	-0.202	0.046
-691.397	-200.000	0.001	0.037
-690.383	66.133	-0.110	-0.111
-689.368	-136.812	-0.294	-0.034
-688.354	-200.000	0.066	-0.482
-687.339	-200.000	-0.043	-0.326
-686.324	-200.000	0.064	-0.359
-685.310	67.521	-0.128	-0.130
-684.295	-100.461	-0.414	-0.102
-683.281	-61.670	0.229	-0.096
-682.266	-73.538	-0.262	0.095
-681.251	800.000	0.107	-0.342
-680.237	29.172	0.169	-0.143
-679.222	-200.000	-0.024	0.230
-678.208	-109.429	-0.259	-0.055
-677.193	-80.586	-0.268	0.089
-676.178	612.768	0.093	-0.233
-675.164	-200.000	0.014	0.321
-674.149	221.309	-0.160	-0.257
-673.135	-32.181	-0.419	0.234
-672.120	-97.115	-0.076	-0.020
-671.105	-139.998	0.118	-0.012
-670.091	267.522	0.134	0.235
-669.076	-111.073	-0.252	-0.052
-668.062	-15.985	0.372	-0.236
-667.047	800.000	-0.044	0.146
-666.032	-133.448	0.095	0.012
-665.018	-146.965	0.252	-0.022
-664.003	-200.000	-0.029	-0.326
-662.989	-12.358	-0.164	0.107
-661.974	-200.000	-0.005	-0.314
-660.959	-1.881	0.156	0.109
-659.945	71.829	-0.273	0.284
-658.930	131.722	0.129	0.166
-657.916	-126.179	-0.326	0.049
-656.901	-151.658	0.310	-0.023
-655.886	-11.494	-0.364	-0.239
-654.872	350.644	-0.019	0.038
-653.857	87.646	-0.123	0.136
-652.843	800.000	0.103	0.428
-651.828	-109.752	-0.517	-0.109
-650.814	188.223	0.112	-0.166
-649.799	-49.233	-0.408	0.194
-648.784	-200.000	-0.053	-0.347
-647.770	-133.450	0.159	-0.020
-646.755	343.525	-0.067	0.130
-645.741	-101.483	0.158	-0.038
-644.726	-76.095	-0.063	-0.022
-643.711	11.015	-0.245	0.187
-642.697	-97.554	0.142	0.037
-641.682	134.330	-0.246	-0.318
-640.668	-92.511	0.126	0.035
-639.653	-15.861	0.212	-0.134
-638.638	800.000	0.151	-0.463
-637.624	-115.053	-0.474	-0.090
-636.609	115.454	0.217	0.264
-635.595	-73.401	-0.154	-0.056
-634.580	-200.000	-0.003	-0.081
-633.565	-77.891	-0.179	-0.061
-632.551	37.637	0.122	-0.108
-631.536	0.853	0.210	0.150
-630.522	-89.430	-0.235	0.069
-629.507	569.700	-0.018	-0.043
-628.492	-109.730	0.340	-0.071
-627.478	224.866	-0.056	-0.090
-626.463	260.315	0.126	0.217
-625.449	318.581	0.038	-0.071
-624.434	214.553	-0.114	-0.180
-623.419	-137.994	0.071	0.008
-622.405	47.315	0.105	-0.098
-621.390	-101.231	0.309	-0.075
-620.376	458.514	0.177	-0.393
-619.361	-135.065	0.400	-0.048
-618.346	171.960	0.171	-0.245
-617.332	800.000	-0.051	-0.184
-616.317	-200.000	0.007	-0.239
-615.303	-144.382	0.351	-0.033
-614.288	800.000	0.075	-0.302
-613.273	800.000	-0.045	-0.165
-612.259	709.233	-0.111	0.292
-611.244	714.036	0.052	0.136
-610.230	-96.207	-0.227	-0.060
-609.215	57.831	0.129	-0.126
-608.201	44.868	-0.046	-0.042
-607.186	-200.000	-0.004	-0.266
-606.171	-100.708	-0.060	-0.015
-605.157	74.393	0.149	0.156
-604.142	124.551	0.123	-0.154
-603.128	405.261	-0.080	0.168
-602.113	800.000	0.068	-0.200
-601.098	-80.154	0.121	0.040
-600.084	399.285	-0.126	-0.263
-599.069	30.274	0.216	-0.184
-598.055	800.000	-0.047	-0.185
-597.040	131.048	0.112	-0.143
-596.025	176.499	0.125	0.181
-595.011	418.139	-0.057	0.120
-593.996	800.000	-0.106	-0.370
-592.982	-191.950	-0.259	0.003
-591.967	251.165	0.221	-0.375
-590.952	-77.820	0.152	-0.052
-589.938	-9.186	-0.211	-0.141
-588.923	-200.000	0.000	-0.166
-587.909	-200.000	-0.019	0.136
-586.894	38.726	-0.058	-0.051
-585.879	191.353	0.095	-0.143
-584.865	385.012	-0.043	-0.088
-583.850	800.000	0.025	0.090
-582.836	11.001	-0.177	-0.135
-581.821	-200.000	0.002	0.310
-580.806	106.178	0.043	0.051
-579.792	-84.184	0.133	0.042
-578.777	-200.000	0.036	-0.322
-577.763	-18.863	-0.323	0.200
-576.748	-29.583	-0.166	-0.094
-575.733	207.623	-0.231	-0.359
-574.719	-21.535	-0.219	0.133
-573.704	517.264	0.125	0.292
-572.690	-17.680	-0.261	0.163
-571.675	800.000	0.041	0.134
-570.661	800.000	-0.079	0.224
-569.646	-97.626	0.229	-0.059
-568.631	-200.000	0.033	-0.218
-567.617	-120.857	-0.293	0.049
-566.602	-108.758	-0.142	0.030
-565.588	43.132	0.101	-0.092
-564.573	155.311	-0.038	0.053
-563.558	-167.119	-0.233	0.009
-562.544	-85.442	0.154	0.048
-561.529	-67.487	-0.174	-0.068
-560.515	-111.310	-0.028	-0.006
-559.500	-74.873	-0.205	-0.073
-558.485	87.651	0.312	0.343
-557.471	33.657	-0.269	-0.232
-556.456	-49.209	-0.298	-0.141
-555.442	291.492	-0.189	0.342
-554.427	800.000	-0.052	0.219
-553.412	-169.405	0.360	0.013
-552.398	757.251	-0.069	0.184
-551.383	-200.000	-0.031	0.356
-550.369	-83.014	0.279	-0.089
-549.354	215.870	0.072	-0.113
-548.339	208.840	-0.070	-0.110
-547.325	-57.976	0.172	-0.075
-546.310	-83.903	-0.245	-0.077
-545.296	-5.245	-0.111	0.076
-544.281	-100.129	-0.110	0.027
-543.266	60.228	0.144	-0.141
-542.252	-200.000	-0.002	-0.128
-541.237	417.657	0.043	0.091
-540.223	416.660	-0.089	0.188
-539.208	-50.614	0.238	-0.111
-538.193	199.469	-0.179	-0.272
-537.179	34.655	0.230	-0.200
-536.164	292.279	0.005	-0.009
-535.150	-8.993	-0.131	0.087
-534.135	-200.000	-0.048	0.257
-533.121	75.960	-0.056	0.059
-532.106	800.000	-0.060	0.205
-531.091	800.000	-0.099	-0.315
-530.077	-68.296	-0.067	-0.026
-529.062	-115.461	0.423	0.079
-528.048	-12.454	0.092	0.060
-527.033	-40.389	0.211	0.109
-526.018	12.525	0.277	-0.212
-525.004	74.502	0.214	0.223
-523.989	71.651	-0.247	0.255
-522.975	-200.000	-0.027	-0.415
-521.960	-200.000	-0.013	-0.250
-520.945	-110.825	0.293	0.060
-519.931	318.140	-0.081	-0.152
-518.916	-200.000	-0.050	0.241
-517.902	-119.836	-0.029	-0.005
-516.887	-17.210	-0.432	0.270
-515.872	47.813	-0.189	0.175
-514.858	199.543	-0.138	0.210
-513.843	-44.103	0.126	-0.063
-512.829	3.305	-0.082	-0.059
-511.814	573.111	0.104	0.251
-510.799	800.000	-0.011	0.039
-509.785	800.000	0.010	-0.030
-508.770	-200.000	-0.040	0.540
-507.756	-200.000	0.034	0.250
-506.741	-183.138	-0.139	0.002
-505.726	160.347	0.120	0.166
-504.712	-70.170	-0.066	0.025
-503.697	-112.252	-0.308	-0.061
-502.683	-200.000	0.035	-0.160
-501.668	-109.505	0.245	0.051
-500.653	167.025	-0.252	0.355
-499.639	-32.491	-0.156	-0.086
-498.624	623.667	-0.005	-0.012
-497.610	-184.781	0.149	0.002
-496.595	53.027	-0.215	-0.204
-495.581	34.660	-0.260	-0.225
-494.566	-177.149	-0.093	-0.002
-493.551	-200.000	-0.043	0.341
-492.537	-113.788	-0.321	-0.062
-491.522	365.513	0.083	-0.166
-490.508	800.000	-0.042	-0.176
-489.493	7.654	-0.462	0.343
-488.478	280.330	0.144	0.254
-487.464	-1.292	0.086	0.060
-486.449	-200.000	0.025	-0.175
-485.435	-32.452	-0.175	0.097
-484.420	-53.871	0.165	-0.075
-483.405	6.944	0.060	-0.044
-482.391	-86.783	-0.047	-0.014
-481.376	-200.000	-0.024	0.272
-480.362	-44.030	0.127	0.063
-479.347	48.998	-0.078	0.073
-478.332	77.962	0.147	0.155
-477.318	336.794	0.227	0.437
-476.303	-18.562	-0.168	0.104
-475.289	-200.000	0.016	0.071
-474.274	-200.000	-0.001	0.090
-473.259	-11.951	0.155	-0.101
-472.245	214.084	-0.159	0.249
-471.230	260.158	0.140	-0.240
-470.216	229.245	-0.046	-0.074
-469.201	12.225	0.095	-0.073
-468.186	-200.000	0.071	0.443
-467.172	-200.000	0.002	-0.267
-466.157	101.623	0.101	-0.116
-465.143	147.600	-0.090	-0.120
-464.128	-119.865	0.365	0.062
-463.113	-107.971	0.059	0.013
-462.099	193.254	0.158	0.237
-461.084	-120.305	0.105	0.018
-460.070	433.305	0.130	0.279
-459.055	-81.199	-0.058	-0.019
-458.040	22.085	0.173	0.140
-457.026	-39.855	0.303	0.156
-456.011	-10.731	0.150	-0.099
-454.997	-27.419	-0.215	-0.124
-453.982	-26.784	-0.200	-0.116
-452.968	-200.000	-0.060	-0.271
-451.953	-200.000	-0.021	-0.100
-450.938	-200.000	-0.032	-0.178
-449.924	-200.000	0.004	-0.125
-448.909	-72.625	-0.139	-0.051
-447.895	541.773	0.058	-0.137
-446.880	-119.981	-0.222	0.038
-445.865	-200.000	-0.035	-0.274
-444.851	800.000	-0.048	0.174
-443.836	800.000	-0.084	0.296
-442.822	-134.430	-0.259	-0.031
-441.807	-200.000	0.004	0.221
-440.792	64.808	0.118	-0.118
-439.778	-7.417	-0.105	-0.070
-438.763	-200.000	0.002	-0.124
-437.749	178.171	-0.152	-0.219
-436.734	-127.815	0.219	-0.031
-435.719	800.000	-0.095	-0.300
-434.705	781.776	-0.047	0.128
-433.690	-120.323	-0.212	0.036
-432.676	278.092	-0.028	0.050
-431.661	-146.020	-0.296	-0.026
-430.646	1.981	-0.041	0.030
-429.632	-200.000	0.000	-0.378
-428.617	122.006	0.083	0.102
-427.603	-92.775	0.130	0.036
-426.588	-54.783	0.075	-0.034
-425.573	115.900	-0.009	-0.011
-424.559	24.084	0.142	0.115
-423.544	130.263	0.150	-0.190
-422.530	-200.000	-0.036	-0.171
-421.515	371.021	0.157	0.314
-420.500	41.203	0.027	0.024
-419.486	-44.141	0.239	-0.119
-418.471	-42.976	-0.070	-0.035
-417.457	205.138	-0.081	-0.124
-416.442	28.888	-0.461	-0.387
-415.428	60.684	-0.210	-0.205
-414.413	-32.568	-0.204	0.113
-413.398	362.362	-0.094	0.186
-412.384	800.000	0.095	0.300
-411.369	-126.209	0.162	-0.024
-410.355	187.925	0.142	-0.209
-409.340	-200.000	-0.020	0.202
-408.325	-53.373	0.035	0.016
-407.311	-200.000	0.022	0.250
-406.296	-200.000	-0.025	0.312
-405.282	-200.000	0.025	-0.233
-404.267	516.589	0.031	-0.071
-403.252	-117.320	0.281	-0.050
-402.238	101.935	-0.211	0.243
-401.223	10.761	0.137	0.103
-400.209	713.272	0.033	-0.087
-399.194	-120.364	-0.313	0.053
-398.179	-33.202	0.186	0.102
-397.165	-69.095	-0.214	0.081
-396.150	800.000	-0.075	0.220
-395.136	213.423	0.215	0.336
-394.121	-71.108	-0.260	0.097
-393.106	-200.000	-0.024	0.130
-392.092	-200.000	-0.023	-0.300
-391.077	-200.000	0.033	0.374
-390.063	17.789	0.349	-0.274
-389.048	-71.599	-0.209	0.077
-388.033	-62.913	-0.196	0.080
-387.019	-166.512	0.114	-0.005
-386.004	144.661	-0.212	0.279
-384.990	316.182	-0.205	0.382
-383.975	660.144	-0.061	0.156
-382.960	-108.084	-0.215	-0.046
-381.946	-49.594	0.166	-0.078
-380.931	84.794	-0.126	0.136
-379.917	394.462	0.092	0.190
-378.902	28.135	-0.311	-0.259
-377.888	-90.165	0.292	0.084
-376.873	48.531	0.193	-0.179
-375.858	171.515	0.068	-0.097
-374.844	229.526	0.059	-0.095
-373.829	-6.122	-0.087	0.059
-372.815	-69.462	-0.187	0.071
-371.800	-96.687	0.145	-0.038
-370.785	-106.376	-0.090	-0.020
-369.771	-162.900	-0.102	-0.005
-368.756	-200.000	0.002	0.417
-367.742	191.758	-0.138	-0.206
-366.727	-69.847	0.226	-0.085
-365.712	41.036	0.221	-0.197
-364.698	-52.849	0.204	-0.093
-363.683	-121.660	0.141	0.023
-362.669	121.196	0.181	-0.222
-361.654	800.000	0.130	-0.406
-360.639	242.709	0.059	-0.097
-359.625	-83.296	0.244	0.077
-358.610	551.465	0.083	-0.196
-357.596	147.631	0.011	-0.014
-356.581	-200.000	0.015	-0.198
-355.566	-58.533	-0.410	0.175
-354.552	-200.000	0.007	0.041
-353.537	764.448	0.109	0.293
-352.523	444.008	0.031	-0.066
-351.508	-21.747	-0.444	-0.267
-350.493	-73.960	-0.084	-0.030
-349.479	10.147	0.107	-0.080
-348.464	-162.762	0.193	-0.009
-347.450	-189.268	-0.116	-0.001
-346.435	-85.057	-0.131	-0.040
-345.420	386.207	-0.083	0.169
-344.406	800.000	-0.109	0.311
-343.391	-62.924	-0.087	0.035
-342.377	-200.000	-0.007	0.048
-341.362	-88.266	0.277	-0.082
-340.348	-8.119	0.033	0.022
-339.333	-35.108	0.210	0.113
-338.318	-128.954	-0.538	-0.074
-337.304	-148.836	-0.116	-0.009
-336.289	-83.075	0.086	-0.027
-335.275	109.645	0.323	-0.382
-334.260	527.639	-0.084	-0.196
-333.245	27.927	0.318	0.264
-332.231	-200.000	0.049	0.424
-331.216	-200.000	-0.031	-0.347
-330.202	-161.610	0.137	-0.007
-329.187	-200.000	0.011	0.156
-328.172	800.000	0.060	-0.179
-327.158	-140.409	0.295	-0.030
-326.143	257.332	-0.054	0.091
-325.129	-53.615	-0.329	0.148
-324.114	-120.506	-0.152	0.025
-323.099	-15.642	0.203	-0.127
-322.085	-93.313	0.168	0.046
-321.070	-32.240	-0.254	-0.140
-320.056	-75.837	0.270	-0.094
-319.041	-200.000	-0.020	0.153
-318.026	-200.000	-0.006	-0.112
-317.012	11.996	0.144	-0.109
-315.997	-200.000	-0.021	-0.288
-314.983	241.618	0.152	0.250
-313.968	73.727	-0.051	0.053
-312.953	126.129	-0.163	-0.203
-311.939	-42.941	-0.293	-0.146
-310.924	57.574	0.267	0.257
-309.910	-170.876	-0.293	0.010
-308.895	49.782	0.185	-0.172
-307.880	792.489	0.034	0.092
-306.866	-118.226	0.306	-0.054
-305.851	776.680	0.058	0.155
-304.837	-95.136	0.383	-0.102
-303.822	800.000	-0.033	-0.101
-302.807	800.000	-0.060	0.197
-301.793	800.000	-0.095	0.327
-300.778	-200.000	-0.028	-0.250
-299.764	-200.000	-0.006	0.438
-298.749	800.000	-0.098	0.378
-297.735	-124.406	-0.324	-0.050
-296.720	8.452	0.353	-0.261
-295.705	131.847	-0.094	0.119
-294.691	800.000	-0.019	0.053
-293.676	53.622	0.244	-0.230
-292.662	-102.283	-0.237	-0.056
-291.647	-59.505	-0.356	0.151
-290.632	-63.237	0.167	0.068
-289.618	715.820	0.072	-0.188
-288.603	150.198	-0.076	0.102
-287.589	-107.171	0.300	0.065
-286.574	139.159	0.060	0.078
-285.559	-200.000	0.069	0.341
-284.545	-77.346	-0.356	-0.122
-283.530	-109.656	-0.206	-0.043
-282.516	91.422	0.066	-0.073
-281.501	449.166	0.116	0.250
-280.486	88.340	0.102	-0.111
-279.472	800.000	0.073	-0.227
-278.457	800.000	-0.069	-0.264
-277.443	-159.915	0.170	-0.009
-276.428	185.722	0.081	-0.118
-275.413	-200.000	0.062	0.477
-274.399	185.579	-0.112	0.164
-273.384	-197.554	0.280	0.002
-272.370	-20.812	0.170	-0.103
-271.355	-131.972	0.374	0.048
-270.340	-51.885	0.057	-0.026
-269.326	180.058	-0.188	-0.271
-268.311	-144.414	-0.190	0.017
-267.297	173.276	0.102	-0.145
-266.282	-200.000	-0.027	0.136
-265.267	239.025	0.217	0.355
-264.253	737.350	-0.136	0.358
-263.238	-31.420	0.096	0.053
-262.224	153.676	0.091	0.123
-261.209	-18.977	0.145	-0.089
-260.195	127.926	0.139	-0.174
-259.180	-12.624	0.083	-0.053
-258.165	5.034	-0.180	0.130
-257.151	-95.660	-0.365	0.096
-256.136	276.653	0.104	-0.181
-255.122	127.452	-0.215	-0.268
-254.107	-200.000	0.042	0.183
-253.092	-185.330	0.063	0.001
-252.078	-200.000	0.078	-0.444
-251.063	-136.805	-0.108	-0.012
-250.049	348.487	-0.111	0.216
-249.034	217.462	-0.207	0.323
-248.019	-41.865	0.472	-0.237
-247.005	-105.417	0.137	-0.031
-245.990	-128.987	-0.046	0.006
-244.976	124.103	0.079	0.098
-243.961	12.133	-0.164	-0.124
-242.946	800.000	-0.054	0.184
-241.932	-21.659	0.142	-0.085
-240.917	800.000	-0.018	0.071
-239.903	-200.000	0.040	0.553
-238.888	138.831	-0.178	0.230
-237.873	374.457	-0.058	0.115
-236.859	-109.750	-0.179	-0.037
-235.844	312.039	0.041	-0.075
-234.830	140.801	0.164	-0.212
-233.815	9.901	-0.164	0.122
-232.800	-200.000	0.005	0.130
-231.786	77.927	-0.171	0.179
-230.771	-138.952	0.125	-0.013
-229.757	352.768	0.026	-0.051
-228.742	800.000	-0.067	-0.275
-227.727	68.293	-0.128	-0.129
-226.713	241.912	0.060	-0.099
-225.698	241.555	0.062	-0.102
-224.684	800.000	0.038	-0.145
-223.669	-69.321	-0.325	0.122
-222.655	93.116	-0.071	-0.079
-221.640	195.063	-0.078	0.117
-220.625	-131.393	-0.165	0.021
-219.611	-86.966	0.189	-0.057
-218.596	-200.000	-0.002	0.137
-217.582	-46.321	0.266	-0.128
-216.567	-129.112	-0.428	0.059
-215.552	48.635	-0.102	-0.094
-214.538	81.648	0.094	0.100
-213.523	634.867	-0.112	0.279
-212.509	800.000	-0.030	0.091
-211.494	315.294	0.120	0.223
-210.479	149.184	0.171	-0.227
-209.465	800.000	0.093	-0.286
-208.450	24.631	-0.154	-0.125
-207.436	-135.300	-0.320	-0.038
-206.421	705.575	0.090	0.234
-205.406	800.000	-0.047	-0.196
-204.392	106.612	0.087	-0.101
-203.377	202.093	0.039	-0.059
-202.363	-30.891	-0.241	-0.133
-201.348	-200.000	-0.059	-0.319
-200.333	-93.156	-0.294	0.080
-199.319	-146.153	0.124	0.011
-198.304	73.791	0.119	-0.123
-197.290	134.170	-0.099	-0.125
-196.275	120.961	0.194	0.237
-195.260	-167.789	-0.100	-0.004
-194.246	-84.492	0.124	0.039
-193.231	50.995	0.243	0.226
-192.217	-107.095	-0.105	-0.023
-191.202	-160.219	0.129	-0.007
-190.187	-111.930	0.277	0.055
-189.173	95.190	-0.148	0.165
-188.158	-150.108	-0.056	-0.004
-187.144	353.164	0.138	-0.269
-186.129	-200.000	0.047	-0.455
-185.114	539.119	-0.065	-0.151
-184.100	95.169	-0.118	0.132
-183.085	339.375	0.208	-0.397
-182.071	368.789	-0.128	-0.253
-181.056	-200.000	-0.029	0.224
-180.042	-96.362	-0.224	0.058
-179.027	81.312	0.019	0.020
-178.012	-128.611	0.214	-0.030
-176.998	-57.376	-0.119	-0.051
-175.983	-85.466	0.289	-0.088
-174.969	-200.000	-0.016	0.074
-173.954	260.330	0.193	0.327
-172.939	-200.000	-0.042	0.407
-171.925	-155.939	0.268	0.017
-170.910	30.942	0.234	0.196
-169.896	140.977	-0.060	0.078
-168.881	-76.234	0.147	-0.051
-167.866	800.000	0.016	-0.043
-166.852	114.397	0.024	0.028
-165.837	-50.371	-0.196	0.091
-164.823	187.795	0.033	0.048
-163.808	-200.000	0.004	-0.080
-162.793	-79.965	-0.131	-0.043
-161.779	761.748	0.107	-0.283
-160.764	800.000	0.028	0.078
-159.750	-115.420	-0.218	0.040
-158.735	105.502	-0.110	0.128
-157.720	385.703	-0.124	-0.250
-156.706	7.221	-0.113	-0.082
-155.691	-200.000	0.005	-0.055
-154.677	800.000	-0.051	0.146
-153.662	-120.880	0.167	0.028
-152.647	800.000	-0.054	0.153
-151.633	-73.067	0.143	-0.051
-150.618	-200.000	0.048	-0.269
-149.604	97.889	-0.133	-0.150
-148.589	242.239	0.065	0.107
-147.574	800.000	0.102	0.295
-146.560	-200.000	0.033	0.340
-145.545	626.030	0.059	-0.146
-144.531	81.918	-0.076	0.080
-143.516	-200.000	0.006	0.151
-142.502	101.846	-0.094	-0.107
-141.487	35.185	-0.228	0.196
-140.472	176.476	0.067	0.095
-139.458	-58.747	0.195	-0.083
-138.443	-72.306	0.209	0.076
-137.429	-200.000	-0.058	-0.435
-136.414	252.880	0.250	-0.416
-135.399	-72.146	-0.127	0.046
-134.385	210.826	0.193	0.297
-133.370	262.294	0.069	-0.116
-132.356	-200.000	0.009	0.254
-131.341	227.798	0.051	0.081
-130.326	-56.983	-0.196	0.085
-129.312	31.263	0.274	0.230
-128.297	307.649	-0.079	-0.144
-127.283	-22.619	-0.331	0.196
-126.268	-200.000	0.038	-0.299
-125.253	-48.130	0.340	-0.161
-124.239	-200.000	-0.004	0.093
-123.224	800.000	-0.084	0.354
-122.210	-200.000	-0.001	-0.102
