DTS Sentinel unit serial number:	SN413079Multiplexer serial number:	ORYXHardware model number:	OX4-SRSoftware version number:	ORYX F/W v4.00 Oryx Data Collector v3.7.2.0data status	okinstallation	princeton_trtdifferential loss correction	single-endedforward channel	channel 2reverse channel	N/Adate	2019/09/12time	18:22:49forward acquisition time	15.00reverse acquisition time	0.00gamma	496.2192k internal	0.2323k external	0.2323temperature offset calibration	1.0139default loss term (dB/km)	0.3790temperature slope calibration	1.0000multiplexer offset coefficient	1.0000multiplexer slope coefficient	1.0000fibre end	0.00T internal ref (°C)	33.37T ext. ref 1 (°C)	3.01T ext. ref 2 (°C)	27.98length (m)	temperature (°C)	Stokes	anti-Stokes-747.200	-99.272	0.682	0.174
-746.185	79.316	-0.305	-0.331
-745.171	-54.117	0.680	-0.312
-744.156	-66.599	0.832	-0.333
-743.142	-31.931	0.600	0.339
-742.127	800.000	0.081	0.287
-741.112	236.003	0.342	-0.570
-740.098	-42.045	0.312	0.161
-739.083	462.612	-0.353	0.795
-738.069	-200.000	-0.021	-0.439
-737.054	-23.836	-0.125	0.075
-736.039	-86.379	-1.051	0.326
-735.025	67.820	0.340	-0.351
-734.010	-141.723	0.160	0.016
-732.996	85.063	-0.519	-0.574
-731.981	22.883	-0.132	0.109
-730.966	-91.997	0.258	0.074
-729.952	-176.521	0.558	0.015
-728.937	-23.725	0.692	-0.418
-727.923	800.000	0.155	-0.465
-726.908	-7.502	-0.175	-0.120
-725.894	-40.653	-0.428	0.224
-724.879	-61.790	0.482	0.204
-723.864	800.000	-0.090	-0.355
-722.850	49.971	0.232	-0.221
-721.835	-155.273	-1.130	-0.074
-720.821	-162.380	-0.389	0.020
-719.806	125.929	0.313	-0.399
-718.791	28.160	-0.533	-0.454
-717.777	16.768	0.164	-0.131
-716.762	800.000	-0.129	-0.520
-715.748	-109.366	0.630	-0.135
-714.733	-73.800	-0.167	0.061
-713.718	-50.401	0.272	0.130
-712.704	-200.000	-0.014	0.623
-711.689	-200.000	-0.155	0.909
-710.675	-94.473	-0.192	-0.053
-709.660	-131.254	0.369	0.049
-708.645	-200.000	0.113	-0.562
-707.631	-110.258	-0.575	0.121
-706.616	6.725	-0.159	0.119
-705.602	-200.000	0.074	-0.850
-704.587	-60.212	-0.749	0.322
-703.572	274.114	0.115	-0.206
-702.558	-26.975	-0.221	-0.130
-701.543	-53.765	0.969	0.446
-700.529	12.090	0.764	-0.592
-699.514	-74.569	-0.335	-0.122
-698.499	77.634	0.173	0.186
-697.485	49.924	0.306	0.291
-696.470	-75.919	0.400	0.143
-695.456	800.000	0.054	0.156
-694.441	382.759	0.179	0.370
-693.426	-71.056	-0.715	-0.271
-692.412	-200.000	-0.007	-0.080
-691.397	296.652	0.232	0.429
-690.383	-62.838	0.438	0.182
-689.368	78.227	0.353	0.380
-688.354	87.120	0.334	0.372
-687.339	302.953	-0.362	-0.676
-686.324	-13.127	-0.162	0.106
-685.310	-200.000	0.102	0.535
-684.295	800.000	-0.212	-0.868
-683.281	-21.040	0.630	0.388
-682.266	-200.000	-0.100	-0.540
-681.251	164.890	-0.535	0.761
-680.237	-1.691	-0.334	0.237
-679.222	-200.000	-0.048	-0.885
-678.208	103.209	0.333	-0.393
-677.193	-65.882	0.713	0.287
-676.178	174.063	0.414	0.602
-675.164	-59.337	0.386	0.167
-674.149	149.508	0.406	-0.554
-673.135	-101.181	-0.573	-0.141
-672.120	55.677	0.131	0.128
-671.105	35.633	-0.285	0.252
-670.091	-6.501	-0.132	0.090
-669.076	-95.375	0.419	-0.113
-668.062	-140.159	0.478	-0.051
-667.047	565.288	0.053	-0.129
-666.032	-56.127	-0.305	-0.137
-665.018	329.762	-0.124	-0.240
-664.003	-117.882	0.548	0.099
-662.989	-4.517	-0.743	-0.517
-661.974	-128.929	-0.546	-0.077
-660.959	36.086	0.256	-0.227
-659.945	-141.002	0.779	-0.080
-658.930	-200.000	0.060	0.655
-657.916	-12.991	-0.708	-0.464
-656.901	-11.357	-0.101	-0.067
-655.886	391.312	-0.214	-0.447
-654.872	-171.783	-0.714	-0.024
-653.857	-192.467	-0.707	-0.007
-652.843	-200.000	-0.107	-0.999
-651.828	112.482	-0.146	-0.178
-650.814	59.613	0.023	0.023
-649.799	-46.343	0.254	0.126
-648.784	-200.000	0.120	-0.602
-647.770	540.763	-0.195	0.467
-646.755	800.000	0.092	-0.385
-645.741	485.366	-0.187	-0.428
-644.726	581.806	0.197	0.487
-643.711	171.201	0.131	0.189
-642.697	-16.835	-0.543	-0.345
-641.682	-200.000	-0.194	0.898
-640.668	-109.233	0.702	0.150
-639.653	-200.000	0.216	0.969
-638.638	514.937	-0.285	0.669
-637.624	-7.415	-0.643	-0.438
-636.609	800.000	-0.111	-0.317
-635.595	-56.738	-0.064	0.028
-634.580	800.000	-0.167	-0.523
-633.565	-23.484	0.546	0.329
-632.551	-127.319	0.479	0.070
-631.536	-94.689	-0.537	-0.147
-630.522	800.000	-0.129	0.543
-629.507	325.996	-0.166	-0.319
-628.492	-56.074	0.339	-0.152
-627.478	-156.503	-1.242	0.078
-626.463	-200.000	-0.013	-0.234
-625.449	44.505	-0.426	-0.394
-624.434	42.446	0.181	0.165
-623.419	170.375	0.192	0.276
-622.405	-32.034	-0.754	0.424
-621.390	196.199	0.480	0.734
-620.376	-98.186	0.758	0.196
-619.361	-133.457	-0.508	0.064
-618.346	-200.000	0.132	-1.239
-617.332	645.382	0.283	-0.727
-616.317	15.728	0.350	-0.276
-615.303	55.541	0.429	0.417
-614.288	800.000	-0.171	0.474
-613.273	187.901	0.299	0.449
-612.259	-193.601	0.460	-0.004
-611.244	-200.000	0.007	0.136
-610.230	-200.000	-0.101	-0.967
-609.215	557.945	-0.144	-0.348
-608.201	183.526	0.041	0.061
-607.186	146.357	-0.398	-0.537
-606.171	-200.000	0.110	-0.670
-605.157	-52.262	-0.838	-0.390
-604.142	382.606	-0.194	0.401
-603.128	-200.000	-0.108	-1.039
-602.113	45.409	0.259	-0.240
-601.098	181.723	0.350	-0.518
-600.084	61.987	-0.462	0.462
-599.069	800.000	0.236	-0.787
-598.055	8.086	-0.152	-0.115
-597.040	-167.124	-0.324	-0.013
-596.025	-144.485	-0.617	0.057
-595.011	800.000	-0.292	0.961
-593.996	-69.822	-0.158	0.061
-592.982	-9.231	-0.448	-0.300
-591.967	418.282	0.363	0.779
-590.952	-103.462	0.475	0.112
-589.938	-200.000	-0.050	-0.360
-588.923	112.372	-0.402	0.488
-587.909	800.000	0.201	0.619
-586.894	212.222	-0.296	-0.468
-585.879	483.715	0.372	-0.850
-584.865	-105.620	-0.382	-0.087
-583.850	-200.000	-0.070	0.406
-582.836	-23.151	-0.430	0.260
-581.821	16.687	-0.327	-0.259
-580.806	-150.872	0.220	0.017
-579.792	-62.757	-0.231	-0.096
-578.777	-200.000	0.045	-0.346
-577.763	-136.621	0.891	0.103
-576.748	-171.844	-0.357	0.012
-575.733	54.839	0.191	0.185
-574.719	-27.759	0.351	0.204
-573.704	-22.064	-0.495	0.302
-572.690	166.984	0.602	-0.857
-571.675	578.541	0.031	-0.075
-570.661	-108.077	0.632	-0.137
-569.646	-8.345	-0.422	0.285
-568.631	-200.000	-0.022	0.226
-567.617	-119.115	-0.505	-0.089
-566.602	8.252	0.023	0.017
-565.588	-200.000	0.056	0.274
-564.573	424.833	0.391	0.844
-563.558	10.454	1.044	-0.797
-562.544	136.528	0.326	-0.427
-561.529	402.058	0.102	0.214
-560.515	172.127	-0.288	-0.414
-559.500	-10.056	-0.417	-0.278
-558.485	-38.263	-0.825	0.438
-557.471	800.000	0.186	0.564
-556.456	54.566	-0.353	-0.341
-555.442	-200.000	-0.016	0.410
-554.427	-200.000	-0.198	-1.076
-553.412	124.590	-0.137	-0.173
-552.398	-27.056	0.265	0.155
-551.383	-200.000	0.056	1.108
-550.369	-200.000	-0.008	0.330
-549.354	64.585	0.415	0.419
-548.339	-148.520	0.869	0.071
-547.325	-146.568	0.578	0.050
-546.310	101.427	-0.669	-0.781
-545.296	136.182	0.215	-0.281
-544.281	25.615	0.505	-0.421
-543.266	11.398	-0.635	-0.487
-542.252	800.000	-0.091	-0.271
-541.237	-82.176	0.748	0.244
-540.223	-85.590	0.606	0.189
-539.208	193.962	-0.404	-0.613
-538.193	-54.045	0.277	0.126
-537.179	286.026	-0.248	-0.448
-536.164	-24.582	1.170	-0.697
-535.150	-200.000	-0.078	0.678
-534.135	-120.942	0.443	-0.075
-533.121	-170.711	-0.945	0.033
-532.106	4.813	0.476	0.350
-531.091	-76.523	0.315	-0.111
-530.077	-200.000	-0.071	-1.119
-529.062	225.681	-0.326	-0.529
-528.048	-65.629	0.327	-0.131
-527.033	-17.053	-0.169	0.107
-526.018	-70.724	0.265	0.100
-525.004	-151.093	0.653	-0.049
-523.989	-200.000	0.076	0.384
-522.975	-114.928	-0.617	-0.118
-521.960	467.479	0.399	0.894
-520.945	103.790	-0.303	0.356
-519.931	183.924	-0.346	-0.513
-518.916	160.749	-0.377	0.527
-517.902	-200.000	0.016	0.412
-516.887	83.238	-1.129	1.230
-515.872	15.733	0.200	-0.158
-514.858	-200.000	0.139	-0.961
-513.843	-7.873	0.424	-0.287
-512.829	-200.000	-0.156	0.762
-511.814	-200.000	0.106	0.600
-510.799	-200.000	-0.056	0.480
-509.785	102.128	0.200	-0.234
-508.770	83.759	-0.550	0.601
-507.756	800.000	-0.036	-0.153
-506.741	-136.785	-0.598	-0.069
-505.726	-71.493	0.788	0.295
-504.712	-200.000	0.002	-0.238
-503.697	155.645	-0.122	0.168
-502.683	255.874	0.218	0.374
-501.668	-27.113	-0.665	-0.388
-500.653	-144.038	-0.356	-0.033
-499.639	39.761	-0.674	0.605
-498.624	-149.135	-0.546	0.044
-497.610	-200.000	0.059	-0.601
-496.595	-130.452	0.875	-0.118
-495.581	239.197	-0.118	-0.196
-494.566	21.135	-0.538	-0.436
-493.551	56.758	0.526	0.512
-492.537	-125.264	0.287	-0.044
-491.522	800.000	-0.029	0.117
-490.508	-37.783	-0.273	0.145
-489.493	-112.650	-0.467	-0.093
-488.478	-162.228	0.950	0.047
-487.464	-132.508	-0.108	-0.014
-486.449	51.036	-0.116	0.110
-485.435	-200.000	0.131	-0.874
-484.420	-8.323	-0.330	-0.222
-483.405	180.440	0.247	-0.362
-482.391	800.000	-0.348	-1.306
-481.376	-162.767	0.364	-0.018
-480.362	25.867	-0.532	0.443
-479.347	50.881	0.232	0.220
-478.332	67.949	0.152	0.156
-477.318	140.062	-0.565	-0.744
-476.303	-91.943	0.942	-0.267
-475.289	264.225	-0.257	-0.447
-474.274	-200.000	-0.046	0.473
-473.259	-200.000	-0.121	1.604
-472.245	-68.809	-0.489	0.189
-471.230	-49.662	-0.476	0.226
-470.216	705.257	0.264	-0.695
-469.201	-131.723	-0.538	0.070
-468.186	-68.432	-0.295	0.114
-467.172	-200.000	0.147	0.771
-466.157	-142.816	-0.590	-0.057
-465.143	147.307	-0.394	-0.530
-464.128	-176.696	0.094	-0.002
-463.113	-10.624	-0.415	-0.274
-462.099	-200.000	-0.081	-0.455
-461.084	257.211	0.641	-1.101
-460.070	48.629	0.628	0.587
-459.055	-103.215	-0.874	0.206
-458.040	73.096	-0.668	-0.698
-457.026	800.000	-0.420	1.500
-456.011	312.948	-0.478	0.898
-454.997	800.000	-0.192	0.616
-453.982	-200.000	-0.010	0.205
-452.968	-32.481	0.209	0.116
-451.953	-71.965	0.522	-0.194
-450.938	388.317	-0.179	-0.371
-449.924	-2.669	-0.305	0.213
-448.909	-152.928	-0.347	-0.024
-447.895	-200.000	-0.083	-0.724
-446.880	-103.545	0.688	0.161
-445.865	289.502	-0.174	0.315
-444.851	-123.285	-0.319	0.051
-443.836	-25.055	-0.334	-0.198
-442.822	365.148	0.163	0.327
-441.807	175.673	0.314	-0.454
-440.792	-200.000	-0.025	-0.347
-439.778	-200.000	0.151	-0.915
-438.763	-14.455	0.326	0.209
-437.749	800.000	0.187	-0.598
-436.734	497.851	-0.266	-0.611
-435.719	-159.275	0.236	0.013
-434.705	800.000	0.347	0.999
-433.690	529.361	0.215	0.506
-432.676	-200.000	0.067	-0.633
-431.661	-170.288	0.163	-0.006
-430.646	-56.778	-0.720	-0.318
-429.632	-158.716	-1.041	-0.060
-428.617	-117.448	-0.217	-0.039
-427.603	20.996	0.234	0.189
-426.588	-200.000	0.001	0.793
-425.573	-126.857	-0.814	0.120
-424.559	210.579	0.256	0.402
-423.544	18.441	0.227	-0.181
-422.530	75.875	0.546	0.576
-421.515	-200.000	-0.090	-0.608
-420.500	253.185	-0.544	-0.925
-419.486	8.428	-0.628	0.471
-418.471	-19.386	0.411	-0.254
-417.457	-200.000	-0.017	-0.495
-416.442	-4.408	-0.415	-0.286
-415.428	-86.237	0.294	0.090
-414.413	-118.625	0.423	0.074
-413.398	358.326	0.336	0.669
-412.384	-85.055	0.625	0.195
-411.369	-152.334	1.076	0.077
-410.355	-200.000	0.067	0.700
-409.340	49.004	0.423	0.396
-408.325	-200.000	-0.010	-0.409
-407.311	-200.000	-0.005	-1.129
-406.296	240.603	-0.860	-1.430
-405.282	355.836	0.066	0.131
-404.267	-25.956	0.233	0.136
-403.252	58.622	0.348	0.340
-402.238	-14.931	0.735	0.470
-401.223	164.700	-0.222	-0.312
-400.209	101.596	0.147	-0.170
-399.194	-93.572	0.621	-0.171
-398.179	399.175	-0.146	-0.306
-397.165	86.653	-0.356	0.391
-396.150	26.355	-0.436	0.363
-395.136	-18.229	0.552	-0.344
-394.121	224.578	0.155	0.250
-393.106	-14.534	-0.399	-0.256
-392.092	25.399	0.600	-0.496
-391.077	53.628	-0.681	-0.651
-390.063	193.768	0.433	0.653
-389.048	-13.305	0.720	0.466
-388.033	-124.787	0.213	0.033
-387.019	-58.158	-0.467	-0.203
-386.004	253.680	0.560	-0.953
-384.990	-45.689	-0.665	-0.328
-383.975	-200.000	0.005	0.582
-382.960	-149.121	-0.652	0.052
-381.946	297.558	0.187	-0.342
-380.931	150.541	0.452	0.612
-379.917	60.821	0.735	0.726
-378.902	521.441	-0.106	0.247
-377.888	-59.824	0.783	0.333
-376.873	-93.658	-0.057	0.016
-375.858	-117.674	0.472	0.085
-374.844	-138.020	-0.562	-0.062
-373.829	3.028	0.710	-0.514
-372.815	-109.407	-1.051	0.221
-371.800	-76.533	-0.427	0.149
-370.785	-93.420	0.597	-0.165
-369.771	800.000	-0.238	-0.933
-368.756	-200.000	-0.014	-0.370
-367.742	-11.283	0.237	-0.155
-366.727	150.644	0.277	0.374
-365.712	42.010	-0.224	0.202
-364.698	-148.252	0.696	-0.057
-363.683	284.300	0.125	0.225
-362.669	-200.000	0.049	-0.602
-361.654	-69.790	0.273	-0.104
-360.639	-200.000	0.005	-0.664
-359.625	10.689	0.387	0.293
-358.610	-19.741	0.548	0.337
-357.596	-78.289	-0.015	-0.005
-356.581	-16.672	0.735	0.463
-355.566	-200.000	-0.018	0.377
-354.552	90.367	0.969	-1.078
-353.537	-157.465	-1.008	0.060
-352.523	-133.584	0.824	-0.103
-351.508	-139.155	0.775	0.083
-350.493	566.680	0.335	-0.808
-349.479	-89.666	-0.642	-0.187
-348.464	46.238	0.325	0.299
-347.450	-57.262	0.102	-0.045
-346.435	-61.040	-0.456	0.192
-345.420	278.376	0.113	-0.200
-344.406	34.176	-0.372	0.322
-343.391	-125.605	-0.700	0.106
-342.377	54.587	0.209	-0.201
-341.362	219.820	0.207	0.330
-340.348	-16.505	-0.572	-0.360
-339.333	27.925	0.471	-0.394
-338.318	-68.676	0.404	-0.155
-337.304	17.684	0.693	0.548
-336.289	-71.337	-0.837	0.312
-335.275	45.745	0.336	-0.308
-334.260	-73.696	0.665	-0.241
-333.245	-77.681	-0.190	0.065
-332.231	208.020	-0.431	-0.669
-331.216	-29.999	0.117	0.066
-330.202	-113.545	-0.738	-0.143
-329.187	800.000	-0.216	-0.665
-328.172	749.709	-0.213	-0.570
-327.158	693.672	-0.075	0.194
-326.143	-162.070	-0.182	0.009
-325.129	800.000	-0.149	0.586
-324.114	108.859	0.387	-0.460
-323.099	67.053	0.442	0.447
-322.085	-200.000	-0.016	-0.582
-321.070	-28.473	-0.682	0.391
-320.056	76.168	0.533	0.560
-319.041	81.193	-0.344	0.369
-318.026	17.359	-0.445	-0.351
-317.012	-118.244	-0.703	-0.124
-315.997	106.926	-0.417	-0.491
-314.983	-200.000	-0.077	-0.546
-313.968	59.962	0.521	0.511
-312.953	-200.000	-0.009	0.657
-311.939	239.859	0.082	-0.135
-310.924	-89.024	-1.127	-0.331
-309.910	209.279	-0.250	0.388
-308.895	800.000	-0.183	0.638
-307.880	25.025	0.834	0.687
-306.866	63.328	0.340	-0.339
-305.851	55.517	-0.341	-0.327
-304.837	3.603	0.161	-0.116
-303.822	800.000	-0.140	-0.388
-302.807	109.229	0.475	0.565
-301.793	-93.438	0.945	0.260
-300.778	-111.233	-0.505	0.102
-299.764	-200.000	0.004	-0.096
-298.749	2.955	-0.674	-0.486
-297.735	700.571	-0.369	-0.965
-296.720	-99.812	0.710	-0.176
-295.705	-74.767	0.340	-0.121
-294.691	-71.253	-0.387	-0.144
-293.676	621.285	0.161	-0.402
-292.662	800.000	0.117	-0.433
-291.647	-31.069	0.243	-0.136
-290.632	-30.185	0.654	0.369
-289.618	43.002	0.401	-0.363
-288.603	161.265	-0.301	0.418
-287.589	-0.266	0.336	0.237
-286.574	114.844	0.257	0.310
-285.559	-200.000	-0.056	0.486
-284.545	249.842	0.399	0.671
-283.530	800.000	0.149	0.440
-282.516	-133.825	-0.524	-0.065
-281.501	53.447	-0.153	0.145
-280.486	170.701	-0.173	0.246
-279.472	564.570	-0.191	-0.459
-278.457	800.000	-0.062	0.228
-277.443	304.481	-0.233	0.428
-276.428	475.244	-0.183	-0.411
-275.413	-93.561	-1.095	0.300
-274.399	212.539	-0.196	0.306
-273.384	-156.258	-0.342	-0.021
-272.370	-23.822	0.257	0.153
-271.355	-200.000	0.145	0.713
-270.340	-66.635	0.832	0.327
-269.326	-2.482	-0.068	-0.047
-268.311	257.422	0.176	0.300
-267.297	74.707	0.393	-0.410
-266.282	-200.000	-0.045	-0.494
-265.267	123.945	0.579	0.720
-264.253	426.589	0.040	0.085
-263.238	36.684	-0.770	-0.674
-262.224	-200.000	0.078	-0.850
-261.209	-200.000	0.035	0.687
-260.195	62.933	-0.548	0.544
-259.180	800.000	0.216	0.721
-258.165	800.000	0.043	-0.169
-257.151	99.774	0.148	-0.170
-256.136	-99.912	-0.710	0.176
-255.122	-1.755	0.233	0.163
-254.107	0.571	-0.802	0.568
-253.092	643.571	-0.301	0.760
-252.078	-57.206	-0.906	0.395
-251.063	155.458	-0.405	-0.552
-250.049	261.114	0.422	0.723
-249.034	-14.494	-0.072	0.046
-248.019	-52.018	-0.781	0.359
-247.005	-72.934	0.821	-0.299
-245.990	800.000	-0.058	0.187
-244.976	302.345	0.255	-0.468
-243.961	-19.265	0.430	0.264
-242.946	-200.000	-0.012	0.466
-241.932	-158.381	0.613	-0.035
-240.917	245.841	-0.581	-0.969
-239.903	-200.000	-0.006	-1.072
-238.888	622.442	-0.153	-0.382
-237.873	35.602	-0.689	0.599
-236.859	-200.000	-0.092	0.525
-235.844	422.401	-0.088	-0.187
-234.830	239.270	-0.109	0.179
-233.815	-74.775	0.157	0.056
-232.800	261.041	0.404	-0.691
-231.786	-48.449	0.329	-0.157
-230.771	800.000	0.106	0.296
-229.757	-200.000	-0.033	0.410
-228.742	-54.465	0.256	0.115
-227.727	-85.769	-0.480	0.147
-226.713	-71.329	0.601	-0.223
-225.698	-71.327	-0.634	-0.235
-224.684	95.113	0.602	0.678
-223.669	-200.000	-0.054	0.555
-222.655	180.701	0.353	0.512
-221.640	-122.920	-0.598	-0.095
-220.625	108.490	-0.333	0.393
-219.611	-87.812	0.726	0.216
-218.596	-149.018	-0.150	-0.012
-217.582	19.209	0.373	-0.297
-216.567	-81.372	0.526	-0.171
-215.552	800.000	-0.101	0.392
-214.538	-57.392	-0.410	0.178
-213.523	-200.000	0.082	0.899
-212.509	-200.000	0.138	0.644
-211.494	-200.000	-0.011	-0.668
-210.479	420.543	-0.441	0.935
-209.465	-200.000	0.016	0.143
-208.450	800.000	0.263	0.785
-207.436	-118.283	-0.867	0.152
-206.421	108.376	-0.443	0.523
-205.406	711.384	-0.064	-0.168
-204.392	-113.370	0.530	0.103
-203.377	154.756	0.252	-0.343
-202.363	145.236	-0.144	-0.191
-201.348	-200.000	0.114	0.615
-200.333	800.000	0.208	-0.572
-199.319	-84.884	0.479	-0.149
-198.304	-89.099	0.749	-0.219
-197.290	-200.000	-0.084	-0.000
-196.275	-107.802	-0.699	0.150
-195.260	-200.000	0.165	-0.868
-194.246	-192.796	0.080	-0.001
-193.231	237.760	0.222	-0.365
-192.217	-75.291	-0.417	0.147
-191.202	279.812	0.250	-0.441
-190.187	800.000	0.091	-0.256
-189.173	-20.082	-0.680	-0.414
-188.158	82.558	-0.363	0.389
-187.144	-62.512	0.562	0.231
-186.129	-200.000	-0.158	0.910
-185.114	-200.000	-0.049	-0.272
-184.100	-84.253	0.507	-0.159
-183.085	107.414	-0.957	-1.124
-182.071	-15.174	-0.583	0.368
-181.056	-200.000	0.132	-0.754
-180.042	-200.000	0.104	-0.577
-179.027	187.010	-0.173	0.255
-178.012	-200.000	0.094	0.505
-176.998	-15.412	0.855	0.540
-175.983	-200.000	0.003	-0.138
-174.969	-94.864	0.510	-0.136
-173.954	-139.885	0.492	-0.051
-172.939	170.823	-0.350	-0.496
-171.925	-200.000	0.002	-0.066
-170.910	-200.000	0.068	-0.381
-169.896	800.000	0.147	0.445
-168.881	7.800	0.377	-0.279
-167.866	-116.437	0.138	0.025
-166.852	-200.000	0.060	-0.710
-165.837	-133.049	0.418	0.052
-164.823	72.859	-0.323	0.333
-163.808	800.000	0.037	-0.129
-162.793	800.000	0.177	-0.590
-161.779	20.493	-0.506	0.404
-160.764	800.000	0.086	0.237
-159.750	800.000	-0.291	0.917
-158.735	800.000	0.124	0.369
-157.720	-147.436	-0.547	-0.046
-156.706	550.859	0.204	0.482
-155.691	512.018	0.406	-0.934
-154.677	800.000	0.046	0.140
-153.662	239.984	-0.444	-0.730
-152.647	-177.893	-0.468	0.011
-151.633	800.000	-0.096	0.309
-150.618	-9.146	0.231	-0.152
-149.604	545.250	0.292	-0.688
-148.589	129.554	0.480	-0.605
-147.574	-200.000	-0.032	-0.262
-146.560	695.110	0.026	-0.068
-145.545	-200.000	-0.050	-0.408
-144.531	-70.641	-0.282	0.105
-143.516	-181.514	-0.275	0.005
-142.502	39.910	-0.176	0.156
-141.487	181.487	0.751	1.089
-140.472	-145.534	0.682	0.060
-139.458	-35.459	0.365	-0.195
-138.443	613.687	0.409	-1.009
-137.429	-130.755	0.093	0.012
-136.414	-200.000	0.036	-0.371
-135.399	-44.318	-0.279	0.138
-134.385	800.000	-0.147	0.441
-133.370	-200.000	0.116	-0.877
-132.356	-99.382	0.766	-0.190
-131.341	800.000	-0.187	-0.718
-130.326	800.000	0.143	0.506
-129.312	-200.000	0.056	0.493
-128.297	-103.129	-0.474	-0.111
-127.283	-133.641	0.643	-0.079
-126.268	-90.544	0.592	-0.169
-125.253	6.907	0.464	-0.341
-124.239	-200.000	-0.014	0.373
-123.224	-76.117	0.561	0.195
-122.210	72.147	-0.292	0.300
-121.195	24.399	-0.313	-0.255
