DTS Sentinel unit serial number:	SN413079Multiplexer serial number:	ORYXHardware model number:	OX4-SRSoftware version number:	ORYX F/W v4.00 Oryx Data Collector v3.7.2.0data status	okinstallation	princeton_trtdifferential loss correction	single-endedforward channel	channel 2reverse channel	N/Adate	2019/09/11time	22:45:11forward acquisition time	60.00reverse acquisition time	0.00gamma	496.2192k internal	0.2325k external	0.2325temperature offset calibration	1.0077default loss term (dB/km)	0.3790temperature slope calibration	1.0000multiplexer offset coefficient	1.0000multiplexer slope coefficient	1.0000fibre end	0.00T internal ref (°C)	34.81T ext. ref 1 (°C)	1.79T ext. ref 2 (°C)	28.97length (m)	temperature (°C)	Stokes	anti-Stokes-747.200	205.237	0.207	0.325
-746.185	-92.909	0.210	-0.059
-745.171	264.032	-0.127	-0.223
-744.156	393.817	-0.097	0.204
-743.142	190.414	0.233	0.353
-742.127	147.384	-0.084	0.114
-741.112	-67.833	0.122	0.048
-740.098	-200.000	-0.002	0.121
-739.083	-200.000	-0.029	0.282
-738.069	395.281	0.232	0.489
-737.054	191.358	0.224	0.341
-736.039	-200.000	-0.049	-0.344
-735.025	74.566	0.072	-0.076
-734.010	66.522	-0.128	-0.131
-732.996	800.000	-0.082	-0.260
-731.981	-27.587	-0.134	0.079
-730.966	-9.388	-0.123	0.083
-729.952	23.134	-0.026	-0.021
-728.937	-34.877	-0.287	-0.158
-727.923	73.042	0.206	0.217
-726.908	-39.479	-0.367	-0.194
-725.894	-200.000	-0.003	0.101
-724.879	241.021	-0.131	0.220
-723.864	-200.000	0.012	0.131
-722.850	131.147	0.131	0.169
-721.835	-27.579	0.239	-0.140
-720.821	168.303	-0.234	-0.336
-719.806	430.035	-0.115	-0.251
-718.791	-110.991	-0.140	-0.029
-717.777	26.283	-0.065	-0.055
-716.762	-200.000	-0.002	-0.048
-715.748	-105.633	-0.206	-0.047
-714.733	-183.551	-0.204	-0.004
-713.718	-200.000	0.020	-0.366
-712.704	800.000	0.028	0.081
-711.689	-200.000	-0.056	-0.342
-710.675	800.000	0.058	0.177
-709.660	495.404	-0.109	-0.252
-708.645	-75.708	0.295	-0.105
-707.631	298.054	0.183	0.340
-706.616	800.000	0.069	0.248
-705.602	-200.000	0.011	-0.237
-704.587	771.627	0.078	-0.215
-703.572	800.000	-0.065	0.194
-702.558	47.214	-0.274	0.257
-701.543	800.000	0.049	-0.137
-700.529	49.894	0.084	0.080
-699.514	105.346	-0.176	0.209
-698.499	80.595	-0.042	-0.046
-697.485	-88.909	0.226	-0.067
-696.470	161.771	0.196	0.276
-695.456	-28.483	-0.179	-0.104
-694.441	436.296	-0.076	-0.166
-693.426	-200.000	0.081	-0.360
-692.412	534.157	0.112	-0.267
-691.397	-200.000	-0.018	-0.098
-690.383	188.568	-0.295	-0.445
-689.368	-172.368	-0.091	-0.003
-688.354	76.173	-0.170	0.181
-687.339	161.570	0.060	0.085
-686.324	513.478	-0.098	-0.230
-685.310	543.595	-0.171	-0.410
-684.295	733.932	-0.130	-0.349
-683.281	508.234	0.075	-0.174
-682.266	16.939	-0.137	0.109
-681.251	59.750	-0.134	-0.133
-680.237	-121.263	0.294	0.049
-679.222	-52.589	0.191	-0.089
-678.208	51.783	-0.375	-0.359
-677.193	95.986	0.040	0.046
-676.178	-60.558	-0.068	-0.029
-675.164	-71.632	-0.425	-0.160
-674.149	-18.850	0.453	0.284
-673.135	-142.018	-0.266	-0.027
-672.120	-70.192	-0.072	0.028
-671.105	-200.000	0.061	0.299
-670.091	518.273	-0.060	0.140
-669.076	-68.251	-0.325	-0.127
-668.062	-13.475	-0.219	0.143
-667.047	112.067	-0.135	0.164
-666.032	713.419	0.065	0.174
-665.018	273.859	-0.068	0.120
-664.003	-200.000	0.033	-0.340
-662.989	-90.318	0.141	0.041
-661.974	363.782	-0.102	-0.207
-660.959	-131.809	-0.159	0.021
-659.945	-61.874	-0.331	-0.139
-658.930	-56.681	0.059	-0.026
-657.916	47.304	-0.140	-0.132
-656.901	216.541	0.025	0.041
-655.886	134.076	0.076	-0.099
-654.872	-200.000	-0.013	0.191
-653.857	800.000	-0.056	0.207
-652.843	-83.140	-0.138	0.045
-651.828	-52.739	-0.095	0.044
-650.814	-143.135	-0.242	0.023
-649.799	-3.198	0.208	-0.145
-648.784	-49.941	0.274	-0.131
-647.770	-16.516	0.129	-0.082
-646.755	117.058	0.173	0.214
-645.741	-117.802	0.264	-0.048
-644.726	-47.258	0.286	0.140
-643.711	93.463	0.090	-0.102
-642.697	226.535	-0.112	-0.183
-641.682	-200.000	-0.011	-0.096
-640.668	193.528	0.036	0.055
-639.653	69.943	0.191	-0.199
-638.638	800.000	-0.073	-0.280
-637.624	531.972	-0.171	-0.406
-636.609	-30.088	-0.199	0.114
-635.595	-70.943	-0.011	0.004
-634.580	-118.408	0.084	0.015
-633.565	669.381	-0.098	-0.255
-632.551	800.000	-0.115	-0.452
-631.536	82.576	0.110	0.120
-630.522	204.082	0.170	0.265
-629.507	-120.587	-0.132	0.022
-628.492	-2.522	-0.107	-0.075
-627.478	131.146	0.254	-0.328
-626.463	69.809	-0.165	0.171
-625.449	800.000	-0.085	-0.259
-624.434	92.122	-0.107	-0.122
-623.419	-44.779	0.276	0.138
-622.405	800.000	0.068	0.291
-621.390	-20.376	0.167	-0.103
-620.376	46.696	0.407	-0.380
-619.361	-69.608	-0.113	0.043
-618.346	218.974	0.035	-0.056
-617.332	37.261	0.179	0.159
-616.317	-200.000	0.006	0.043
-615.303	-200.000	-0.004	-0.185
-614.288	250.403	-0.074	-0.126
-613.273	800.000	-0.067	0.253
-612.259	-200.000	0.065	-0.317
-611.244	-5.867	-0.111	-0.077
-610.230	151.616	-0.237	0.325
-609.215	379.110	-0.055	-0.112
-608.201	800.000	-0.068	0.272
-607.186	-200.000	0.052	-0.326
-606.171	-13.609	0.122	0.079
-605.157	800.000	0.049	-0.159
-604.142	-18.475	-0.309	-0.194
-603.128	320.468	-0.143	0.272
-602.113	-61.193	-0.241	0.102
-601.098	185.011	0.241	0.358
-600.084	-62.760	0.210	0.087
-599.069	163.344	0.084	-0.118
-598.055	-52.933	-0.119	-0.055
-597.040	483.671	-0.074	-0.168
-596.025	117.254	-0.187	0.231
-595.011	298.906	-0.168	-0.310
-593.996	-0.729	0.157	-0.111
-592.982	-200.000	0.001	-0.609
-591.967	249.805	0.047	0.080
-590.952	-200.000	-0.052	0.373
-589.938	278.727	-0.137	0.244
-588.923	-200.000	0.000	-0.053
-587.909	-20.354	-0.331	-0.204
-586.894	-114.431	0.242	0.047
-585.879	-114.727	-0.338	0.065
-584.865	-200.000	0.003	0.267
-583.850	168.550	-0.041	-0.058
-582.836	-200.000	-0.013	0.183
-581.821	148.685	0.102	0.139
-580.806	-2.087	0.172	-0.121
-579.792	-51.536	-0.243	-0.114
-578.777	-130.278	-0.089	0.012
-577.763	800.000	-0.067	0.217
-576.748	800.000	-0.072	0.206
-575.733	800.000	-0.031	0.090
-574.719	56.575	-0.196	0.191
-573.704	-200.000	-0.000	0.073
-572.690	229.234	-0.099	0.163
-571.675	-200.000	-0.308	0.001
-570.661	800.000	0.094	0.373
-569.646	39.317	-0.084	0.075
-568.631	45.660	-0.150	-0.139
-567.617	-79.698	-0.185	0.062
-566.602	199.870	0.156	0.240
-565.588	726.217	-0.067	0.178
-564.573	-6.225	0.355	-0.243
-563.558	91.038	-0.178	0.200
-562.544	800.000	0.070	0.230
-561.529	429.175	-0.100	-0.216
-560.515	-200.000	0.010	0.241
-559.500	800.000	0.028	0.093
-558.485	436.707	-0.040	0.087
-557.471	-125.296	-0.081	0.012
-556.456	-31.893	-0.173	0.097
-555.442	-65.951	-0.034	-0.013
-554.427	352.815	-0.058	0.116
-553.412	-39.333	0.133	-0.070
-552.398	-31.016	-0.258	-0.146
-551.383	-200.000	0.040	0.222
-550.369	18.178	0.144	0.115
-549.354	-139.162	-0.064	-0.007
-548.339	-129.831	-0.136	0.019
-547.325	800.000	0.042	-0.161
-546.310	800.000	0.049	-0.216
-545.296	-200.000	-0.009	-0.111
-544.281	6.918	-0.238	-0.177
-543.266	-1.114	-0.117	0.083
-542.252	-50.539	0.275	0.130
-541.237	99.169	0.266	-0.307
-540.223	800.000	0.065	-0.266
-539.208	-200.000	0.034	0.174
-538.193	-80.486	-0.257	0.086
-537.179	265.757	0.141	-0.247
-536.164	12.339	0.168	-0.130
-535.150	-119.251	0.204	-0.036
-534.135	-84.435	-0.131	0.042
-533.121	-12.224	-0.179	-0.117
-532.106	-25.812	-0.257	0.152
-531.091	-171.492	0.171	0.006
-530.077	300.274	-0.103	-0.191
-529.062	325.920	-0.073	0.140
-528.048	109.984	0.098	-0.118
-527.033	98.594	0.151	0.174
-526.018	284.765	-0.238	-0.429
-525.004	800.000	0.039	-0.134
-523.989	-42.969	0.187	-0.095
-522.975	-103.515	-0.285	-0.067
-521.960	-92.790	0.188	0.053
-520.945	-79.916	0.201	0.068
-519.931	370.060	0.085	-0.173
-518.916	133.952	0.159	-0.206
-517.902	-200.000	-0.009	0.159
-516.887	406.193	-0.097	-0.205
-515.872	800.000	-0.046	0.171
-514.858	93.614	0.208	-0.236
-513.843	-90.830	0.131	0.038
-512.829	-200.000	0.021	-0.122
-511.814	-200.000	0.003	-0.142
-510.799	800.000	-0.111	-0.311
-509.785	4.265	0.200	0.146
-508.770	576.217	0.030	-0.073
-507.756	-200.000	-0.009	0.042
-506.741	79.351	-0.039	0.042
-505.726	312.437	0.115	0.217
-504.712	96.297	0.161	-0.185
-503.697	147.589	0.265	-0.357
-502.683	32.773	-0.369	-0.319
-501.668	38.217	0.200	0.178
-500.653	180.254	-0.087	0.128
-499.639	28.043	-0.230	0.194
-498.624	-200.000	-0.015	0.087
-497.610	250.589	-0.132	0.225
-496.595	32.045	-0.223	0.192
-495.581	-107.295	0.148	-0.033
-494.566	-80.054	0.460	-0.154
-493.551	-200.000	0.066	0.325
-492.537	-191.444	-0.240	0.002
-491.522	241.859	-0.165	-0.276
-490.508	-200.000	-0.004	-0.159
-489.493	-78.643	0.178	-0.061
-488.478	-103.680	-0.275	-0.064
-487.464	141.054	-0.180	-0.237
-486.449	669.401	-0.057	-0.147
-485.435	268.163	0.067	0.117
-484.420	-1.558	0.084	0.059
-483.405	-200.000	-0.016	0.196
-482.391	37.645	0.268	-0.238
-481.376	-200.000	-0.010	0.119
-480.362	13.965	-0.164	-0.127
-479.347	229.315	0.157	0.256
-478.332	32.456	0.278	0.240
-477.318	39.080	0.153	-0.137
-476.303	-200.000	0.002	0.286
-475.289	-159.433	-0.154	-0.009
-474.274	-0.721	-0.069	-0.049
-473.259	-135.233	0.179	-0.021
-472.245	-200.000	-0.035	0.248
-471.230	-200.000	0.017	-0.150
-470.216	99.513	0.115	0.133
-469.201	5.571	-0.096	0.071
-468.186	166.122	0.187	-0.265
-467.172	189.775	-0.101	-0.151
-466.157	800.000	-0.070	0.256
-465.143	170.710	-0.028	0.041
-464.128	-200.000	0.015	-0.182
-463.113	348.067	0.113	-0.222
-462.099	-105.951	0.145	0.033
-461.084	-200.000	-0.056	0.281
-460.070	31.053	0.147	0.126
-459.055	-46.428	-0.223	-0.109
-458.040	-9.730	-0.103	-0.068
-457.026	254.325	0.176	0.301
-456.011	372.268	0.173	0.352
-454.997	-72.836	-0.263	-0.097
-453.982	38.369	0.169	-0.151
-452.968	162.796	0.105	-0.148
-451.953	-126.679	0.149	0.022
-450.938	72.707	-0.109	-0.113
-449.924	-7.572	-0.360	0.243
-448.909	10.653	0.178	0.135
-447.895	-161.104	0.271	0.014
-446.880	14.629	-0.369	-0.287
-445.865	16.320	-0.189	-0.149
-444.851	-50.332	-0.237	0.112
-443.836	-147.340	0.025	0.002
-442.822	79.841	-0.119	0.128
-441.807	-156.852	-0.108	-0.007
-440.792	-134.529	0.208	-0.025
-439.778	350.906	0.062	-0.122
-438.763	-164.283	-0.217	0.010
-437.749	41.802	-0.074	0.067
-436.734	800.000	0.059	0.239
-435.719	-200.000	0.061	0.381
-434.705	172.254	0.112	0.160
-433.690	-77.673	-0.116	0.040
-432.676	341.374	0.090	0.175
-431.661	294.132	-0.126	-0.229
-430.646	-143.562	-0.215	-0.020
-429.632	168.076	0.108	-0.154
-428.617	-53.170	-0.196	-0.090
-427.603	-89.509	-0.131	-0.039
-426.588	275.693	0.126	0.224
-425.573	-200.000	0.001	-0.090
-424.559	-200.000	-0.012	-0.077
-423.544	13.304	-0.330	-0.255
-422.530	487.118	-0.094	0.213
-421.515	18.400	0.183	0.146
-420.500	-15.084	-0.219	-0.140
-419.486	-12.237	0.223	-0.145
-418.471	-28.369	0.206	0.118
-417.457	-57.211	-0.084	0.037
-416.442	10.348	-0.379	-0.287
-415.428	22.180	0.162	-0.132
-414.413	-50.482	-0.576	0.271
-413.398	688.532	-0.100	-0.261
-412.384	11.010	-0.129	0.098
-411.369	-99.386	-0.282	0.071
-410.355	-91.064	-0.379	0.108
-409.340	534.112	-0.080	-0.188
-408.325	-128.614	0.240	-0.034
-407.311	83.545	-0.241	-0.261
-406.296	-159.776	-0.333	0.018
-405.282	180.504	-0.115	0.169
-404.267	-99.198	0.090	0.023
-403.252	800.000	-0.063	-0.267
-402.238	-147.575	-0.089	0.007
-401.223	800.000	-0.029	0.108
-400.209	-200.000	-0.001	0.298
-399.194	324.493	-0.033	0.062
-398.179	-119.507	-0.413	-0.071
-397.165	-125.505	0.244	-0.037
-396.150	-2.775	-0.278	-0.194
-395.136	9.669	-0.064	0.048
-394.121	-200.000	-0.041	-0.321
-393.106	-200.000	0.059	-0.310
-392.092	-22.719	0.338	0.203
-391.077	-121.259	0.148	0.025
-390.063	-200.000	-0.003	0.167
-389.048	33.606	0.176	-0.152
-388.033	-111.870	0.094	0.019
-387.019	68.927	-0.088	-0.090
-386.004	97.448	0.175	0.200
-384.990	-200.000	-0.069	0.489
-383.975	-200.000	-0.026	-0.246
-382.960	230.326	0.151	-0.246
-381.946	-100.203	0.182	-0.045
-380.931	-7.947	0.208	-0.140
-379.917	673.819	0.110	0.284
-378.902	-166.672	0.332	0.014
-377.888	243.464	-0.097	0.161
-376.873	-200.000	0.058	0.299
-375.858	-55.601	0.087	0.039
-374.844	424.671	0.098	0.209
-373.829	452.259	-0.032	0.070
-372.815	-57.067	-0.138	0.061
-371.800	-92.725	-0.278	0.077
-370.785	122.531	-0.242	-0.301
-369.771	-136.138	0.313	-0.036
-368.756	-130.299	-0.117	-0.016
-367.742	800.000	0.036	0.127
-366.727	4.947	0.032	-0.023
-365.712	195.777	0.239	0.362
-364.698	-75.382	-0.072	0.025
-363.683	-200.000	-0.018	0.303
-362.669	443.671	-0.027	0.058
-361.654	-200.000	-0.025	0.599
-360.639	-188.779	0.151	0.002
-359.625	-58.307	0.119	0.051
-358.610	-115.392	0.149	0.028
-357.596	800.000	0.093	0.325
-356.581	-123.046	-0.108	0.017
-355.566	-200.000	0.015	-0.095
-354.552	166.345	-0.134	-0.189
-353.537	367.022	0.179	-0.359
-352.523	-200.000	-0.003	0.084
-351.508	106.036	0.123	-0.145
-350.493	686.388	-0.002	-0.006
-349.479	-200.000	-0.024	-0.113
-348.464	727.433	-0.020	0.052
-347.450	577.396	0.051	-0.124
-346.435	800.000	-0.074	0.277
-345.420	124.811	-0.096	-0.120
-344.406	-180.555	-0.017	0.000
-343.391	-200.000	0.048	-0.256
-342.377	800.000	-0.001	-0.004
-341.362	-62.835	-0.141	0.058
-340.348	21.766	0.142	0.115
-339.333	12.578	-0.107	-0.082
-338.318	212.696	0.035	-0.055
-337.304	-8.904	-0.076	-0.051
-336.289	-200.000	-0.025	-0.139
-335.275	53.399	0.259	-0.246
-334.260	181.060	-0.162	0.237
-333.245	-102.808	0.086	0.020
-332.231	279.032	-0.143	0.254
-331.216	390.155	0.101	-0.208
-330.202	-139.575	-0.126	0.013
-329.187	9.883	0.048	0.036
-328.172	77.443	-0.184	-0.195
-327.158	664.859	-0.035	0.090
-326.143	800.000	-0.067	0.228
-325.129	800.000	0.013	-0.054
-324.114	221.285	-0.095	-0.151
-323.099	-47.358	0.044	0.021
-322.085	242.652	-0.080	-0.133
-321.070	-78.844	0.299	0.101
-320.056	-117.393	-0.300	-0.054
-319.041	-200.000	0.026	-0.121
-318.026	-200.000	0.045	0.245
-317.012	96.565	0.144	-0.164
-315.997	-137.946	0.161	0.018
-314.983	-131.144	-0.296	0.039
-313.968	272.975	0.115	-0.201
-312.953	800.000	-0.011	0.035
-311.939	4.117	-0.258	-0.187
-310.924	-200.000	-0.046	-0.225
-309.910	52.637	0.073	-0.070
-308.895	392.541	-0.220	-0.455
-307.880	-200.000	0.028	-0.286
-306.866	247.038	-0.100	0.167
-305.851	-65.906	-0.372	0.147
-304.837	-85.899	-0.057	0.018
-303.822	800.000	-0.072	0.254
-302.807	800.000	0.116	0.353
-301.793	-16.063	-0.087	-0.055
-300.778	-200.000	0.008	0.105
-299.764	800.000	-0.046	0.174
-298.749	-122.429	-0.187	0.030
-297.735	23.085	0.173	0.141
-296.720	-57.445	-0.332	0.145
-295.705	-200.000	-0.025	-0.133
-294.691	-200.000	-0.025	0.326
-293.676	-61.092	0.231	-0.097
-292.662	-200.000	0.007	0.086
-291.647	-173.855	0.357	-0.010
-290.632	-194.722	-0.155	0.001
-289.618	-109.324	-0.269	-0.057
-288.603	107.516	-0.138	-0.163
-287.589	800.000	-0.018	0.050
-286.574	-7.193	-0.205	-0.138
-285.559	247.679	-0.073	0.123
-284.545	-200.000	0.032	0.219
-283.530	120.453	0.357	-0.440
-282.516	19.322	0.357	-0.284
-281.501	43.957	-0.166	-0.151
-280.486	-200.000	0.033	-0.202
-279.472	-186.786	-0.092	-0.001
-278.457	-40.274	0.186	0.096
-277.443	-200.000	0.008	0.382
-276.428	-200.000	-0.007	0.154
-275.413	-60.446	0.210	0.088
-274.399	509.217	0.204	0.469
-273.384	-58.551	-0.266	0.115
-272.370	-104.499	0.181	-0.042
-271.355	-182.633	0.235	-0.004
-270.340	434.123	0.066	-0.141
-269.326	800.000	0.108	0.420
-268.311	-200.000	-0.003	-0.030
-267.297	-63.079	0.081	-0.033
-266.282	-200.000	-0.143	-0.714
-265.267	-24.847	0.147	-0.086
-264.253	116.836	-0.134	0.163
-263.238	-115.339	-0.111	0.021
-262.224	63.608	-0.373	0.371
-261.209	-118.696	0.098	0.017
-260.195	800.000	0.087	0.308
-259.180	800.000	0.044	0.170
-258.165	26.130	0.457	-0.378
-257.151	282.712	0.085	-0.150
-256.136	34.981	0.077	-0.067
-255.122	-102.391	0.114	0.027
-254.107	-46.001	-0.115	0.056
-253.092	11.326	0.299	-0.227
-252.078	-42.366	0.235	-0.119
-251.063	800.000	-0.034	0.103
-250.049	800.000	0.050	0.144
-249.034	-200.000	-0.012	0.260
-248.019	268.636	0.147	0.254
-247.005	-76.442	-0.136	-0.047
-245.990	105.298	-0.175	-0.205
-244.976	-94.891	-0.168	0.045
-243.961	-27.378	0.145	-0.084
-242.946	70.231	-0.102	-0.104
-241.932	-138.003	-0.254	-0.028
-240.917	-159.807	0.193	-0.010
-239.903	-200.000	-0.000	-0.244
-238.888	619.812	-0.070	-0.174
-237.873	-0.631	-0.277	-0.195
-236.859	-94.496	0.132	0.036
-235.844	79.884	-0.092	-0.098
-234.830	156.496	0.163	0.223
-233.815	162.650	-0.088	0.122
-232.800	-200.000	-0.030	-0.525
-231.786	800.000	0.021	0.065
-230.771	489.347	0.158	0.358
-229.757	36.487	-0.047	0.041
-228.742	-168.670	0.105	-0.004
-227.727	-132.366	-0.224	-0.029
-226.713	-67.505	-0.484	0.188
-225.698	-165.822	0.175	0.007
-224.684	-200.000	0.024	0.231
-223.669	800.000	0.076	0.302
-222.655	233.801	-0.033	0.053
-221.640	-15.801	-0.170	0.107
-220.625	-200.000	-0.001	0.215
-219.611	-1.737	0.129	0.090
-218.596	-200.000	0.083	-0.463
-217.582	148.841	0.050	0.066
-216.567	125.510	0.139	0.174
-215.552	-200.000	0.328	0.001
-214.538	-54.312	-0.228	0.102
-213.523	-41.156	0.099	-0.050
-212.509	207.258	-0.123	0.190
-211.494	-200.000	0.025	-0.269
-210.479	800.000	0.175	-0.482
-209.465	-95.495	-0.012	-0.003
-208.450	142.681	0.082	0.108
-207.436	-50.912	0.187	0.087
-206.421	335.277	-0.085	0.163
-205.406	-170.661	-0.382	0.013
-204.392	-25.682	0.237	0.138
-203.377	120.400	-0.204	0.250
-202.363	238.183	-0.110	0.180
-201.348	-87.108	-0.102	0.031
-200.333	-200.000	-0.018	0.104
-199.319	716.539	-0.051	-0.133
-198.304	-114.305	-0.251	-0.048
-197.290	-200.000	0.061	-0.279
-196.275	-34.669	-0.185	-0.100
-195.260	-38.736	0.260	0.135
-194.246	-200.000	0.002	0.051
-193.231	85.382	0.103	-0.112
-192.217	-200.000	-0.018	0.247
-191.202	157.746	-0.118	-0.162
-190.187	-87.230	0.377	0.113
-189.173	-200.000	0.013	0.095
-188.158	-200.000	-0.013	0.095
-187.144	622.196	0.095	0.235
-186.129	-80.397	0.156	-0.051
-185.114	-81.113	-0.270	0.088
-184.100	-84.012	0.196	-0.062
-183.085	-53.082	-0.117	-0.053
-182.071	800.000	-0.072	0.209
-181.056	-119.535	0.323	0.055
-180.042	-62.202	-0.016	-0.007
-179.027	-200.000	0.094	-0.432
-178.012	-138.504	-0.263	-0.029
-176.998	800.000	0.063	0.250
-175.983	321.571	0.214	0.402
-174.969	-90.961	0.254	-0.072
-173.954	-200.000	-0.018	-0.254
-172.939	24.369	-0.182	0.149
-171.925	25.829	0.290	-0.239
-170.910	18.519	0.063	0.049
-169.896	-39.150	0.138	-0.072
-168.881	103.347	0.116	-0.134
-167.866	-146.808	0.032	0.003
-166.852	79.672	-0.151	-0.160
-165.837	-59.150	0.257	0.109
-164.823	-27.510	-0.045	0.026
-163.808	-111.235	-0.150	-0.030
-162.793	-93.407	-0.215	-0.059
-161.779	-191.807	0.158	0.002
-160.764	215.079	0.056	-0.088
-159.750	-14.324	0.060	-0.038
-158.735	219.982	-0.073	-0.115
-157.720	483.546	0.108	0.241
-156.706	1.624	0.302	-0.214
-155.691	181.896	0.197	-0.286
-154.677	800.000	0.084	-0.301
-153.662	-55.298	0.119	0.053
-152.647	-160.497	-0.141	0.007
-151.633	-200.000	0.005	-0.313
-150.618	-62.165	-0.259	0.107
-149.604	800.000	-0.102	0.385
-148.589	-125.882	0.083	0.012
-147.574	-96.368	0.283	0.074
-146.560	-119.527	-0.307	0.053
-145.545	775.140	0.151	0.405
-144.531	-163.277	-0.405	-0.019
-143.516	-200.000	-0.027	0.251
-142.502	288.607	-0.202	-0.361
-141.487	-19.801	-0.203	-0.124
-140.472	-95.628	-0.098	-0.026
-139.458	497.104	0.106	-0.241
-138.443	124.558	-0.161	-0.199
-137.429	127.700	-0.169	-0.212
-136.414	42.904	-0.225	0.202
-135.399	-70.379	-0.024	0.009
-134.385	117.061	0.144	0.174
-133.370	-47.677	0.061	-0.029
-132.356	39.134	-0.166	0.146
-131.341	482.830	0.011	0.024
-130.326	34.866	-0.068	0.059
-129.312	255.155	-0.070	0.118
-128.297	426.266	0.079	0.167
-127.283	125.760	-0.103	0.128
-126.268	364.824	0.056	0.112
-125.253	-108.145	0.333	-0.071
-124.239	800.000	0.077	0.306
-123.224	53.585	0.022	0.021
-122.210	133.773	-0.037	-0.048
-121.195	8.898	-0.058	0.043
