DTS Sentinel unit serial number:	SN413079Multiplexer serial number:	ORYXHardware model number:	OX4-SRSoftware version number:	ORYX F/W v4.00 Oryx Data Collector v3.7.2.0data status	okinstallation	princeton_trtdifferential loss correction	single-endedforward channel	channel 2reverse channel	N/Adate	2019/09/12time	15:37:10forward acquisition time	60.00reverse acquisition time	0.00gamma	496.2192k internal	0.2302k external	0.2302temperature offset calibration	1.0103default loss term (dB/km)	0.3790temperature slope calibration	1.0000multiplexer offset coefficient	1.0000multiplexer slope coefficient	1.0000fibre end	0.00T internal ref (°C)	40.31T ext. ref 1 (°C)	2.45T ext. ref 2 (°C)	33.14length (m)	temperature (°C)	Stokes	anti-Stokes-747.200	-66.909	-0.200	-0.081
-746.185	-11.560	-0.560	0.375
-745.171	-9.645	-0.138	0.094
-744.156	-200.000	0.000	0.142
-743.142	3.840	-0.200	0.149
-742.127	800.000	0.085	-0.357
-741.112	-12.482	-0.236	-0.157
-740.098	26.207	-0.165	-0.140
-739.083	369.607	0.117	0.241
-738.069	-13.388	-0.068	0.045
-737.054	-181.706	-0.165	0.003
-736.039	-154.190	-0.102	0.007
-735.025	-42.537	0.217	0.113
-734.010	-200.000	0.006	0.075
-732.996	-79.875	-0.203	0.070
-731.981	178.724	-0.050	-0.074
-730.966	-48.519	-0.369	0.181
-729.952	-85.708	-0.119	-0.038
-728.937	31.563	-0.286	-0.250
-727.923	-36.684	0.115	-0.063
-726.908	-72.057	-0.242	-0.092
-725.894	-63.291	-0.056	0.023
-724.879	-97.853	-0.248	-0.065
-723.864	163.748	-0.097	0.139
-722.850	15.896	0.125	0.101
-721.835	22.611	0.044	0.037
-720.821	114.416	-0.110	-0.136
-719.806	-194.599	-0.252	-0.002
-718.791	10.952	-0.071	0.055
-717.777	-64.246	0.218	-0.090
-716.762	-44.110	-0.218	-0.111
-715.748	362.623	-0.056	0.114
-714.733	-38.872	0.241	-0.129
-713.718	-48.408	-0.168	0.082
-712.704	-54.635	0.086	0.040
-711.689	-90.865	0.107	-0.031
-710.675	-128.531	0.114	-0.016
-709.660	800.000	0.013	-0.048
-708.645	10.671	-0.229	0.178
-707.631	56.643	0.131	0.130
-706.616	-200.000	-0.038	0.187
-705.602	-160.337	0.390	0.021
-704.587	-116.321	-0.188	0.035
-703.572	149.177	-0.084	0.116
-702.558	-91.689	0.038	0.011
-701.543	-182.287	-0.162	-0.003
-700.529	-109.969	-0.196	-0.042
-699.514	800.000	0.056	0.231
-698.499	145.819	-0.049	-0.067
-697.485	9.517	0.120	0.092
-696.470	304.893	-0.228	-0.430
-695.456	260.039	0.141	-0.247
-694.441	-32.394	-0.043	-0.024
-693.426	800.000	0.088	-0.250
-692.412	-85.817	-0.186	0.059
-691.397	-200.000	-0.031	-0.269
-690.383	-200.000	0.007	0.217
-689.368	-137.223	0.219	-0.025
-688.354	52.804	-0.115	-0.112
-687.339	-200.000	0.008	-0.208
-686.324	-200.000	0.035	-0.382
-685.310	74.678	0.074	-0.079
-684.295	157.545	-0.118	-0.166
-683.281	-164.387	-0.109	0.005
-682.266	-200.000	-0.013	-0.164
-681.251	-107.093	-0.236	-0.053
-680.237	85.505	-0.194	-0.216
-679.222	-88.121	0.431	0.131
-678.208	-93.285	-0.301	-0.085
-677.193	127.595	0.206	0.266
-676.178	-200.000	-0.013	-0.060
-675.164	411.717	-0.023	-0.051
-674.149	-200.000	-0.012	0.142
-673.135	359.920	0.115	-0.235
-672.120	800.000	-0.020	0.063
-671.105	88.636	-0.153	0.173
-670.091	213.679	-0.092	-0.148
-669.076	605.928	0.131	-0.331
-668.062	99.433	-0.148	-0.174
-667.047	229.119	-0.027	0.045
-666.032	-140.767	-0.172	0.018
-665.018	443.816	-0.148	0.331
-664.003	99.209	0.170	0.200
-662.989	341.487	-0.188	-0.374
-661.974	-200.000	0.032	-0.147
-660.959	-200.000	-0.019	0.167
-659.945	-102.297	-0.435	-0.106
-658.930	49.324	0.143	-0.137
-657.916	336.395	-0.060	0.117
-656.901	-68.982	0.039	-0.015
-655.886	800.000	-0.018	-0.053
-654.872	-147.967	0.334	0.028
-653.857	-62.699	0.235	0.099
-652.843	139.278	0.250	-0.334
-651.828	-190.667	-0.257	0.003
-650.814	129.930	-0.117	0.152
-649.799	-49.150	-0.057	-0.028
-648.784	148.223	0.121	0.166
-647.770	-200.000	-0.023	0.310
-646.755	-68.174	0.075	0.030
-645.741	430.335	-0.118	-0.259
-644.726	504.543	-0.098	-0.230
-643.711	107.161	-0.088	-0.106
-642.697	25.172	0.041	-0.034
-641.682	-200.000	-0.058	-0.495
-640.668	-107.415	0.182	0.041
-639.653	0.110	-0.291	-0.211
-638.638	-176.169	0.180	0.005
-637.624	-102.115	-0.238	-0.058
-636.609	517.368	0.025	-0.059
-635.595	63.290	0.189	0.192
-634.580	510.446	-0.064	0.151
-633.565	-200.000	0.019	-0.100
-632.551	-200.000	0.035	-0.273
-631.536	800.000	-0.007	0.021
-630.522	800.000	-0.064	0.235
-629.507	-200.000	-0.002	0.039
-628.492	46.314	-0.017	-0.016
-627.478	33.600	-0.327	-0.288
-626.463	-200.000	0.023	-0.303
-625.449	-200.000	-0.005	-0.146
-624.434	128.608	-0.070	-0.090
-623.419	-69.024	0.105	0.041
-622.405	-163.818	-0.210	0.010
-621.390	389.865	-0.101	-0.213
-620.376	-200.000	0.033	-0.264
-619.361	-200.000	0.023	-0.161
-618.346	-53.690	-0.074	-0.035
-617.332	-90.959	0.287	-0.084
-616.317	-90.748	-0.142	-0.042
-615.303	-17.332	-0.132	0.084
-614.288	-200.000	-0.207	-0.000
-613.273	676.101	-0.099	0.262
-612.259	-112.942	-0.094	-0.019
-611.244	800.000	-0.092	-0.366
-610.230	543.802	0.006	0.015
-609.215	-135.611	-0.109	0.013
-608.201	135.697	0.146	0.193
-607.186	-39.964	0.190	0.100
-606.171	-57.347	-0.236	-0.105
-605.157	800.000	0.045	-0.149
-604.142	-176.369	0.139	-0.004
-603.128	-200.000	0.028	0.348
-602.113	-18.363	-0.141	-0.089
-601.098	436.489	-0.139	0.306
-600.084	-7.695	-0.045	-0.031
-599.069	-72.758	-0.429	-0.160
-598.055	800.000	-0.040	0.171
-597.040	800.000	0.111	-0.327
-596.025	-200.000	-0.007	0.127
-595.011	301.886	0.011	-0.022
-593.996	50.533	0.044	0.042
-592.982	800.000	-0.023	0.067
-591.967	137.866	0.152	0.201
-590.952	68.353	-0.111	-0.115
-589.938	-200.000	0.018	-0.180
-588.923	-35.057	-0.244	0.135
-587.909	67.505	0.037	0.038
-586.894	800.000	0.046	0.161
-585.879	-200.000	-0.000	-0.277
-584.865	-52.215	-0.166	0.078
-583.850	46.917	-0.233	-0.219
-582.836	405.917	-0.079	0.168
-581.821	-124.922	0.130	0.020
-580.806	-104.586	0.082	0.019
-579.792	-40.649	-0.219	0.115
-578.777	-0.763	-0.124	0.089
-577.763	-89.241	-0.132	0.039
-576.748	-10.997	-0.126	0.085
-575.733	-200.000	0.018	0.174
-574.719	257.597	-0.096	-0.167
-573.704	-200.000	0.034	-0.289
-572.690	91.798	0.147	-0.167
-571.675	-100.993	0.250	0.062
-570.661	-140.682	0.155	0.016
-569.646	-41.812	0.030	0.016
-568.631	-128.629	0.122	-0.018
-567.617	-53.571	0.242	-0.112
-566.602	110.059	0.100	0.121
-565.588	457.269	-0.048	-0.107
-564.573	-200.000	0.024	0.122
-563.558	-200.000	-0.018	0.143
-562.544	-200.000	0.037	0.370
-561.529	-200.000	0.020	0.158
-560.515	97.049	-0.023	-0.026
-559.500	206.488	0.037	-0.058
-558.485	394.963	0.193	-0.408
-557.471	14.770	-0.120	-0.095
-556.456	94.874	-0.096	-0.110
-555.442	800.000	-0.035	-0.145
-554.427	12.238	-0.286	-0.222
-553.412	111.508	-0.050	0.062
-552.398	-97.065	-0.161	-0.043
-551.383	-69.119	0.272	-0.106
-550.369	-200.000	0.061	-0.318
-549.354	59.236	0.036	-0.036
-548.339	-75.313	-0.266	-0.096
-547.325	-73.135	0.136	0.050
-546.310	-200.000	-0.040	-0.202
-545.296	-63.838	-0.102	-0.042
-544.281	-123.749	0.113	0.018
-543.266	-7.967	0.290	-0.198
-542.252	-13.206	0.108	0.071
-541.237	-200.000	-0.009	-0.075
-540.223	-52.430	0.185	-0.086
-539.208	-118.035	-0.075	-0.014
-538.193	390.129	0.034	-0.071
-537.179	-70.836	-0.387	-0.147
-536.164	-200.000	0.043	-0.245
-535.150	-25.634	-0.119	-0.071
-534.135	122.752	0.205	-0.260
-533.121	-115.400	0.134	0.026
-532.106	133.708	-0.074	0.097
-531.091	800.000	-0.092	-0.355
-530.077	-137.946	-0.202	0.023
-529.062	44.837	-0.351	0.326
-528.048	-178.369	-0.257	0.006
-527.033	-200.000	0.034	0.183
-526.018	22.957	0.111	0.092
-525.004	120.992	-0.210	0.264
-523.989	20.976	0.127	0.104
-522.975	-102.176	0.244	0.059
-521.960	-200.000	-0.013	-0.091
-520.945	-156.800	0.209	-0.013
-519.931	-184.228	-0.194	0.003
-518.916	576.426	-0.151	0.374
-517.902	800.000	-0.048	0.140
-516.887	40.929	0.165	-0.150
-515.872	-106.009	-0.297	0.067
-514.858	576.067	-0.088	-0.216
-513.843	-200.000	-0.049	0.281
-512.829	262.567	0.054	-0.094
-511.814	346.366	0.065	-0.129
-510.799	800.000	-0.046	-0.138
-509.785	-169.784	-0.199	0.007
-508.770	273.390	-0.137	-0.245
-507.756	-66.041	0.194	0.078
-506.741	-140.307	0.120	-0.013
-505.726	-37.660	-0.252	0.136
-504.712	800.000	0.056	0.234
-503.697	276.670	-0.018	0.033
-502.683	-88.121	-0.214	-0.065
-501.668	-109.007	0.091	0.020
-500.653	-134.049	-0.176	0.022
-499.639	525.180	-0.030	-0.071
-498.624	-18.706	0.245	0.154
-497.610	4.035	0.235	-0.174
-496.595	34.153	-0.054	-0.047
-495.581	-200.000	0.016	0.228
-494.566	731.940	0.011	0.030
-493.551	800.000	0.041	0.131
-492.537	504.062	-0.057	0.134
-491.522	-200.000	-0.012	-0.100
-490.508	-200.000	0.052	0.323
-489.493	-111.222	0.095	0.020
-488.478	393.701	-0.043	0.091
-487.464	-107.209	-0.426	-0.095
-486.449	-152.304	0.299	-0.022
-485.435	-200.000	-0.025	-0.145
-484.420	707.803	-0.030	-0.081
-483.405	112.343	0.025	-0.030
-482.391	-54.621	0.303	-0.138
-481.376	-80.083	0.210	0.071
-480.362	6.511	-0.241	-0.181
-479.347	-88.209	-0.222	0.067
-478.332	-115.181	0.110	0.021
-477.318	-200.000	0.011	0.154
-476.303	-94.418	0.186	0.051
-475.289	-147.839	0.208	-0.018
-474.274	96.248	0.068	-0.078
-473.259	38.355	-0.169	-0.151
-472.245	376.613	-0.160	0.329
-471.230	-127.187	0.147	0.022
-470.216	271.872	-0.090	-0.160
-469.201	379.770	0.126	-0.259
-468.186	-200.000	0.010	-0.153
-467.172	-52.334	0.166	-0.078
-466.157	55.556	0.140	0.137
-465.143	125.061	0.200	-0.254
-464.128	-200.000	-0.021	0.181
-463.113	55.374	-0.237	-0.232
-462.099	-116.670	0.259	-0.048
-461.084	26.632	-0.177	0.150
-460.070	-97.376	0.090	-0.024
-459.055	-114.291	-0.190	0.037
-458.040	-149.246	-0.161	0.013
-457.026	138.616	-0.207	0.274
-456.011	286.218	-0.072	-0.131
-454.997	800.000	-0.121	0.388
-453.982	800.000	-0.029	0.118
-452.968	-120.316	-0.327	0.056
-451.953	488.707	0.113	-0.260
-450.938	617.313	0.110	-0.277
-449.924	-200.000	-0.036	0.183
-448.909	800.000	0.097	-0.290
-447.895	-200.000	-0.081	-0.391
-446.880	-92.537	-0.190	-0.054
-445.865	59.226	0.258	-0.256
-444.851	-200.000	-0.007	-0.289
-443.836	311.378	0.177	-0.334
-442.822	-200.000	-0.023	0.218
-441.807	397.651	-0.119	-0.250
-440.792	-200.000	0.015	0.294
-439.778	296.089	0.119	0.220
-438.763	-88.408	0.158	-0.047
-437.749	-59.362	0.442	0.191
-436.734	-200.000	0.036	0.279
-435.719	-181.295	0.241	0.005
-434.705	800.000	-0.050	0.152
-433.690	-120.730	-0.374	0.064
-432.676	18.715	-0.166	0.134
-431.661	151.022	-0.125	-0.172
-430.646	196.994	-0.059	0.090
-429.632	555.242	-0.142	0.343
-428.617	-54.092	0.194	0.089
-427.603	-60.864	-0.238	-0.102
-426.588	-31.874	-0.079	0.044
-425.573	-27.190	0.127	-0.075
-424.559	628.414	0.039	-0.099
-423.544	-168.700	0.192	0.007
-422.530	518.297	-0.085	-0.199
-421.515	-200.000	0.021	-0.433
-420.500	513.094	0.093	-0.218
-419.486	-7.686	0.237	-0.161
-418.471	-126.694	-0.109	0.016
-417.457	530.787	-0.094	-0.223
-416.442	193.461	-0.119	-0.181
-415.428	-200.000	-0.035	0.593
-414.413	-70.243	-0.153	0.058
-413.398	-200.000	-0.029	0.334
-412.384	-71.973	0.087	0.033
-411.369	5.844	0.452	-0.336
-410.355	-200.000	-0.027	0.265
-409.340	800.000	-0.061	0.173
-408.325	40.145	-0.176	0.160
-407.311	15.878	-0.155	0.122
-406.296	-137.306	0.079	-0.009
-405.282	20.025	-0.130	0.106
-404.267	484.726	-0.099	0.227
-403.252	-31.153	-0.302	-0.171
-402.238	-200.000	-0.016	0.159
-401.223	116.333	-0.150	0.185
-400.209	97.225	0.064	0.074
-399.194	168.985	-0.050	0.072
-398.179	-96.914	-0.153	0.040
-397.165	280.671	-0.132	-0.237
-396.150	113.604	0.140	0.171
-395.136	-70.827	-0.175	-0.067
-394.121	-105.626	0.184	0.042
-393.106	114.298	-0.143	0.175
-392.092	174.413	0.251	-0.365
-391.077	-68.004	0.086	-0.034
-390.063	214.739	-0.150	-0.238
-389.048	368.316	0.020	-0.041
-388.033	-12.796	-0.115	-0.076
-387.019	-23.583	-0.169	0.102
-386.004	-154.873	-0.033	0.002
-384.990	-83.357	-0.362	-0.117
-383.975	-80.518	0.320	0.107
-382.960	173.054	-0.097	-0.140
-381.946	-49.069	-0.128	0.061
-380.931	7.828	0.212	0.160
-379.917	370.672	0.175	0.356
-378.902	-124.342	-0.148	0.023
-377.888	215.782	-0.043	-0.069
-376.873	62.935	-0.010	-0.010
-375.858	-37.953	-0.219	0.117
-374.844	-200.000	-0.004	-0.067
-373.829	-166.909	0.076	-0.003
-372.815	-200.000	0.049	-0.239
-371.800	112.623	-0.022	0.027
-370.785	-126.047	-0.155	-0.023
-369.771	49.396	0.109	-0.103
-368.756	764.275	0.078	0.212
-367.742	-193.852	0.366	0.003
-366.727	293.945	-0.088	0.162
-365.712	15.826	-0.016	-0.012
-364.698	-20.485	0.180	-0.111
-363.683	155.619	0.062	0.086
-362.669	800.000	-0.054	0.226
-361.654	579.258	-0.095	-0.232
-360.639	196.910	0.188	-0.287
-359.625	24.476	0.108	0.090
-358.610	-10.432	-0.141	-0.094
-357.596	131.237	0.181	0.234
-356.581	110.108	0.094	-0.113
-355.566	-127.491	0.305	-0.045
-354.552	-42.304	-0.143	0.073
-353.537	115.131	-0.139	-0.170
-352.523	-104.784	0.036	-0.008
-351.508	-200.000	0.004	-0.041
-350.493	-200.000	-0.004	0.241
-349.479	2.341	-0.014	-0.010
-348.464	-200.000	0.007	0.311
-347.450	340.044	0.073	-0.143
-346.435	-12.320	-0.058	-0.038
-345.420	800.000	-0.087	0.306
-344.406	800.000	0.142	-0.423
-343.391	48.704	0.172	0.162
-342.377	236.488	-0.126	-0.209
-341.362	-3.019	0.282	0.198
-340.348	800.000	-0.064	-0.184
-339.333	-159.322	-0.182	0.010
-338.318	30.056	0.228	-0.195
-337.304	28.402	0.156	-0.133
-336.289	800.000	-0.087	0.315
-335.275	72.078	-0.026	-0.027
-334.260	-103.761	-0.113	-0.027
-333.245	-155.110	0.108	0.007
-332.231	23.320	-0.347	0.286
-331.216	575.608	-0.087	0.214
-330.202	-11.546	-0.317	0.209
-329.187	800.000	0.080	0.237
-328.172	11.162	0.108	-0.083
-327.158	-4.193	-0.061	0.043
-326.143	14.649	0.069	0.054
-325.129	225.496	0.071	-0.115
-324.114	105.246	-0.027	0.031
-323.099	-64.453	-0.169	-0.069
-322.085	35.293	-0.066	0.058
-321.070	-131.415	-0.249	-0.033
-320.056	-90.888	-0.235	0.068
-319.041	10.574	-0.161	-0.123
-318.026	-5.102	0.209	-0.144
-317.012	740.506	-0.034	-0.091
-315.997	394.259	-0.036	0.076
-314.983	800.000	0.056	-0.184
-313.968	-107.230	-0.205	0.045
-312.953	-200.000	0.021	-0.096
-311.939	21.847	0.195	-0.159
-310.924	-200.000	0.007	0.276
-309.910	-74.801	-0.240	0.086
-308.895	-73.665	0.114	0.042
-307.880	290.680	-0.101	-0.184
-306.866	-132.243	0.313	0.041
-305.851	19.840	-0.262	-0.211
-304.837	800.000	-0.060	-0.173
-303.822	-7.027	-0.220	-0.150
-302.807	-139.441	0.139	0.015
-301.793	-86.252	0.155	0.048
-300.778	-141.847	-0.216	0.022
-299.764	52.849	-0.083	-0.080
-298.749	-200.000	0.028	-0.174
-297.735	387.507	-0.216	-0.446
-296.720	-200.000	-0.036	0.299
-295.705	-200.000	0.038	0.394
-294.691	800.000	-0.067	-0.242
-293.676	-200.000	-0.001	-0.086
-292.662	425.522	0.013	-0.029
-291.647	59.807	-0.195	0.193
-290.632	-47.401	0.091	0.044
-289.618	-15.436	0.300	-0.192
-288.603	-84.236	-0.213	0.067
-287.589	-50.125	0.422	0.200
-286.574	-200.000	0.019	-0.165
-285.559	339.322	-0.164	-0.320
-284.545	800.000	0.017	0.056
-283.530	800.000	-0.029	0.084
-282.516	-51.920	-0.127	0.059
-281.501	267.529	0.088	0.154
-280.486	548.150	0.067	0.160
-279.472	-200.000	0.032	0.142
-278.457	-85.283	0.057	-0.018
-277.443	436.169	0.129	0.282
-276.428	-35.168	0.338	0.184
-275.413	-84.818	0.231	0.073
-274.399	30.906	-0.085	-0.073
-273.384	-200.000	0.031	0.292
-272.370	33.003	0.185	0.160
-271.355	87.046	0.028	-0.031
-270.340	3.340	0.275	0.200
-269.326	176.642	-0.136	0.198
-268.311	-154.332	0.214	-0.014
-267.297	663.256	-0.033	0.085
-266.282	247.238	0.053	0.089
-265.267	-1.395	0.067	0.047
-264.253	-200.000	-0.025	-0.450
-263.238	-93.173	0.227	0.063
-262.224	-200.000	-0.025	0.262
-261.209	-150.127	-0.153	0.012
-260.195	24.077	-0.120	0.099
-259.180	-200.000	0.013	0.173
-258.165	-200.000	0.037	0.240
-257.151	-200.000	-0.018	0.123
-256.136	582.647	-0.069	-0.170
-255.122	-86.959	0.097	-0.029
-254.107	-11.210	-0.255	0.168
-253.092	-103.794	0.210	-0.049
-252.078	-112.905	0.412	0.082
-251.063	-104.513	0.171	0.039
-250.049	224.781	-0.156	0.252
-249.034	-0.565	-0.165	0.117
-248.019	564.858	0.019	-0.047
-247.005	290.677	0.168	-0.305
-245.990	-5.785	-0.279	-0.191
-244.976	90.513	0.224	-0.251
-243.961	-49.679	-0.314	-0.150
-242.946	-52.219	-0.137	0.064
-241.932	-56.954	0.088	0.039
-240.917	419.455	-0.085	-0.183
-239.903	12.163	0.065	0.050
-238.888	-200.000	0.047	0.210
-237.873	-200.000	-0.003	0.562
-236.859	-23.324	0.327	0.196
-235.844	-200.000	-0.004	0.059
-234.830	626.895	0.040	0.101
-233.815	29.792	0.065	0.056
-232.800	-78.885	0.095	-0.032
-231.786	-108.838	0.149	-0.032
-230.771	47.634	-0.290	0.270
-229.757	-200.000	0.009	0.052
-228.742	61.394	0.107	-0.107
-227.727	-137.738	0.325	0.036
-226.713	-87.046	0.504	0.153
-225.698	-104.962	0.187	-0.043
-224.684	800.000	-0.072	0.255
-223.669	29.291	0.239	-0.203
-222.655	-81.307	0.272	-0.090
-221.640	127.761	0.263	-0.334
-220.625	-101.508	-0.243	0.059
-219.611	-91.201	0.278	0.079
-218.596	800.000	0.037	0.129
-217.582	20.104	0.163	-0.132
-216.567	-10.336	-0.039	-0.026
-215.552	-102.385	0.330	0.079
-214.538	259.185	0.100	0.172
-213.523	289.414	0.046	0.084
-212.509	642.283	-0.025	0.064
-211.494	-147.581	-0.226	-0.019
-210.479	234.327	0.079	0.131
-209.465	-150.139	-0.295	0.023
-208.450	-200.000	0.005	-0.144
-207.436	527.058	0.060	-0.141
-206.421	800.000	0.043	-0.182
-205.406	62.470	0.179	0.178
-204.392	123.435	0.078	0.097
-203.377	800.000	0.048	0.200
-202.363	425.776	-0.031	-0.066
-201.348	-200.000	-0.056	-0.247
-200.333	-137.524	0.339	-0.038
-199.319	-71.321	0.236	-0.088
-198.304	70.957	-0.075	0.077
-197.290	800.000	-0.080	0.246
-196.275	113.551	-0.084	-0.101
-195.260	-200.000	0.015	0.361
-194.246	-12.878	0.016	0.010
-193.231	-59.360	-0.106	-0.045
-192.217	-30.703	0.184	-0.104
-191.202	-82.415	0.064	-0.021
-190.187	800.000	-0.003	-0.009
-189.173	-15.977	0.201	-0.128
-188.158	144.258	-0.097	0.129
-187.144	-47.956	-0.085	-0.041
-186.129	-94.887	-0.247	0.067
-185.114	-200.000	0.023	-0.412
-184.100	-153.556	0.135	-0.009
-183.085	-49.333	0.201	-0.096
-182.071	-35.893	-0.115	0.062
-181.056	800.000	-0.080	0.252
-180.042	800.000	0.079	-0.219
-179.027	77.862	0.155	-0.165
-178.012	-14.617	-0.147	0.094
-176.998	576.092	0.088	-0.215
-175.983	-86.416	-0.285	0.087
-174.969	-200.000	-0.035	-0.296
-173.954	-99.069	-0.155	-0.039
-172.939	110.094	-0.119	0.142
-171.925	-67.542	0.163	-0.064
-170.910	34.059	-0.040	-0.035
-169.896	112.535	0.122	-0.147
-168.881	-124.046	-0.139	0.022
-167.866	130.894	-0.057	0.073
-166.852	800.000	-0.025	-0.101
-165.837	152.905	-0.098	-0.134
-164.823	-200.000	-0.049	-0.269
-163.808	-180.746	-0.374	0.008
-162.793	57.164	0.299	0.291
-161.779	8.120	0.021	-0.016
-160.764	19.212	0.101	-0.081
-159.750	-57.136	0.453	-0.199
-158.735	800.000	-0.027	-0.075
-157.720	5.888	0.190	0.140
-156.706	187.905	-0.267	0.397
-155.691	-200.000	-0.016	0.134
-154.677	-102.922	-0.227	0.054
-153.662	-18.666	0.074	0.046
-152.647	178.939	0.068	-0.099
-151.633	71.528	-0.164	0.170
-150.618	-24.718	0.262	-0.155
-149.604	-200.000	0.031	-0.213
-148.589	123.163	-0.109	0.136
-147.574	-200.000	0.070	0.700
-146.560	-137.763	0.201	-0.022
-145.545	-116.369	-0.208	-0.038
-144.531	90.920	-0.110	0.123
-143.516	30.004	0.134	0.114
-142.502	-200.000	-0.033	0.258
-141.487	100.180	-0.055	0.063
-140.472	800.000	0.053	-0.225
-139.458	160.373	0.286	-0.397
-138.443	20.799	0.259	0.208
-137.429	-108.116	0.121	-0.026
-136.414	-15.026	-0.299	-0.191
-135.399	-0.429	-0.115	-0.081
-134.385	-36.978	-0.293	0.156
-133.370	208.915	-0.180	-0.281
-132.356	800.000	-0.117	0.387
-131.341	-94.041	-0.139	-0.038
-130.326	-105.070	0.203	0.046
-129.312	-200.000	-0.013	0.191
-128.297	800.000	-0.033	0.094
-127.283	75.660	-0.200	0.210
-126.268	-109.366	0.315	0.066
-125.253	114.875	0.113	0.137
-124.239	800.000	0.027	0.099
-123.224	-200.000	0.025	-0.175
-122.210	800.000	0.110	-0.440
-121.195	800.000	-0.028	0.105
