DTS Sentinel unit serial number:	SN413079Multiplexer serial number:	ORYXHardware model number:	OX4-SRSoftware version number:	ORYX F/W v4.00 Oryx Data Collector v3.7.2.0data status	okinstallation	princeton_trtdifferential loss correction	single-endedforward channel	channel 2reverse channel	N/Adate	2019/09/16time	03:23:35forward acquisition time	60.00reverse acquisition time	0.00gamma	496.2192k internal	0.2333k external	0.2333temperature offset calibration	0.9973default loss term (dB/km)	0.3790temperature slope calibration	1.0000multiplexer offset coefficient	1.0000multiplexer slope coefficient	1.0000fibre end	0.00T internal ref (°C)	27.69T ext. ref 1 (°C)	10.52T ext. ref 2 (°C)	21.84length (m)	temperature (°C)	Stokes	anti-Stokes-747.200	-8.696	-0.317	0.214
-746.185	81.939	-0.158	-0.172
-745.171	-103.742	0.091	0.021
-744.156	800.000	-0.033	0.100
-743.142	-87.578	-0.130	-0.039
-742.127	800.000	0.108	0.344
-741.112	-197.760	-0.269	0.002
-740.098	-14.912	-0.321	0.207
-739.083	131.047	-0.212	0.274
-738.069	-120.445	-0.108	-0.018
-737.054	-159.113	-0.298	-0.017
-736.039	-86.103	-0.183	0.057
-735.025	286.508	-0.169	-0.306
-734.010	-34.762	-0.250	-0.138
-732.996	-24.460	0.124	0.074
-731.981	89.474	0.128	0.144
-730.966	42.170	-0.084	-0.076
-729.952	591.118	0.110	0.272
-728.937	-26.198	-0.071	0.042
-727.923	-200.000	0.004	0.162
-726.908	-200.000	0.004	0.075
-725.894	-160.832	-0.530	0.028
-724.879	800.000	0.042	-0.140
-723.864	728.060	-0.094	0.251
-722.850	22.598	0.210	-0.172
-721.835	97.456	0.057	-0.066
-720.821	-58.081	0.262	0.115
-719.806	-200.000	-0.004	-0.206
-718.791	26.733	-0.067	0.056
-717.777	-97.332	-0.182	0.048
-716.762	9.095	-0.063	0.048
-715.748	-76.851	-0.215	0.075
-714.733	-200.000	0.007	-0.042
-713.718	67.619	-0.281	-0.288
-712.704	-37.327	-0.213	-0.114
-711.689	111.516	-0.164	0.198
-710.675	173.750	-0.167	0.242
-709.660	-85.325	-0.095	-0.030
-708.645	502.390	0.067	-0.156
-707.631	-161.943	0.212	0.011
-706.616	66.218	-0.220	-0.224
-705.602	679.665	0.080	0.209
-704.587	-2.463	-0.106	-0.074
-703.572	488.707	-0.080	-0.184
-702.558	-200.000	0.002	0.123
-701.543	-200.000	-0.044	0.200
-700.529	188.794	-0.076	-0.114
-699.514	160.258	-0.075	-0.104
-698.499	46.323	-0.126	-0.118
-697.485	148.803	0.242	-0.328
-696.470	-30.749	0.177	-0.100
-695.456	779.306	-0.070	-0.192
-694.441	-14.513	-0.209	0.135
-693.426	277.139	0.101	0.181
-692.412	-200.000	-0.042	-0.333
-691.397	800.000	-0.062	0.259
-690.383	-49.186	-0.448	-0.215
-689.368	736.418	0.056	0.151
-688.354	-78.022	-0.248	-0.086
-687.339	-13.002	0.120	0.079
-686.324	-165.701	0.322	0.014
-685.310	-92.460	0.326	-0.092
-684.295	800.000	-0.016	-0.049
-683.281	-14.619	0.082	0.053
-682.266	-167.708	-0.213	-0.008
-681.251	165.030	0.215	0.304
-680.237	-87.890	-0.066	-0.020
-679.222	366.819	0.061	0.123
-678.208	176.792	0.031	-0.046
-677.193	-164.648	0.178	-0.008
-676.178	-131.406	-0.305	-0.040
-675.164	280.791	-0.117	0.210
-674.149	-74.737	0.121	-0.044
-673.135	-107.843	-0.131	-0.029
-672.120	-62.628	-0.254	0.106
-671.105	125.151	0.169	0.213
-670.091	-64.314	0.079	0.032
-669.076	-48.175	-0.147	0.071
-668.062	-200.000	-0.005	-0.299
-667.047	-200.000	0.001	-0.144
-666.032	-25.810	-0.217	-0.128
-665.018	-200.000	0.059	0.284
-664.003	-90.222	-0.186	-0.054
-662.989	57.845	0.299	0.294
-661.974	190.410	-0.083	-0.125
-660.959	-4.117	0.263	0.182
-659.945	130.954	0.116	-0.149
-658.930	11.428	0.210	0.161
-657.916	-145.605	0.199	-0.018
-656.901	-29.854	-0.305	0.174
-655.886	128.566	0.074	-0.094
-654.872	-66.692	0.222	-0.088
-653.857	132.635	-0.137	-0.176
-652.843	-185.521	0.317	-0.005
-651.828	392.042	-0.188	-0.391
-650.814	800.000	-0.086	-0.244
-649.799	-83.457	0.028	-0.009
-648.784	-200.000	0.033	-0.181
-647.770	39.023	0.159	-0.142
-646.755	-200.000	-0.027	0.594
-645.741	-200.000	0.002	0.449
-644.726	-162.649	0.379	0.019
-643.711	-123.739	-0.144	0.023
-642.697	-200.000	0.002	-0.138
-641.682	-95.094	0.302	0.082
-640.668	-47.271	-0.276	0.135
-639.653	-100.691	0.159	-0.039
-638.638	-200.000	-0.013	0.096
-637.624	-28.588	-0.130	-0.075
-636.609	-16.348	0.067	-0.042
-635.595	11.209	0.230	0.176
-634.580	800.000	-0.073	-0.297
-633.565	7.453	-0.339	-0.254
-632.551	224.886	-0.162	-0.262
-631.536	-13.764	-0.219	-0.142
-630.522	-200.000	0.028	0.153
-629.507	55.721	-0.298	-0.289
-628.492	504.691	-0.126	-0.293
-627.478	97.252	-0.095	-0.109
-626.463	83.121	0.192	0.209
-625.449	91.681	-0.091	0.102
-624.434	800.000	0.048	0.197
-623.419	800.000	0.070	0.238
-622.405	800.000	-0.064	-0.237
-621.390	-1.022	-0.245	-0.174
-620.376	104.105	0.246	-0.289
-619.361	-69.758	-0.279	0.107
-618.346	-152.350	0.073	-0.005
-617.332	-92.665	0.386	0.108
-616.317	538.448	0.111	-0.263
-615.303	193.546	-0.186	-0.281
-614.288	-78.892	-0.186	0.063
-613.273	-116.390	-0.056	-0.010
-612.259	-12.057	-0.124	-0.081
-611.244	800.000	0.067	-0.271
-610.230	-162.934	0.096	-0.005
-609.215	118.766	-0.268	0.331
-608.201	-200.000	0.018	-0.175
-607.186	-66.759	0.167	0.066
-606.171	-200.000	-0.027	-0.201
-605.157	-200.000	-0.038	0.240
-604.142	367.800	0.057	0.115
-603.128	-200.000	0.029	0.168
-602.113	800.000	-0.064	0.238
-601.098	-156.387	0.171	0.011
-600.084	-200.000	0.003	0.035
-599.069	-88.967	-0.135	-0.040
-598.055	410.427	0.109	-0.231
-597.040	800.000	-0.093	0.268
-596.025	39.359	-0.072	-0.065
-595.011	23.487	-0.064	0.052
-593.996	-155.689	0.126	-0.008
-592.982	-136.054	0.110	0.013
-591.967	-150.427	0.080	0.006
-590.952	79.950	0.138	-0.149
-589.938	-55.275	0.238	-0.107
-588.923	-69.459	0.123	-0.047
-587.909	-15.902	-0.196	0.125
-586.894	257.584	0.083	0.143
-585.879	-200.000	-0.034	0.254
-584.865	-200.000	-0.021	-0.121
-583.850	-42.104	0.324	-0.166
-582.836	213.334	-0.116	-0.184
-581.821	800.000	0.058	-0.198
-580.806	-39.765	-0.083	0.044
-579.792	136.601	-0.182	0.238
-578.777	157.653	0.206	-0.285
-577.763	44.099	0.111	-0.102
-576.748	219.537	-0.106	-0.169
-575.733	205.190	-0.085	0.131
-574.719	-12.180	0.237	0.155
-573.704	178.559	-0.067	-0.097
-572.690	282.290	-0.154	0.275
-571.675	-29.632	-0.284	-0.162
-570.661	-200.000	-0.020	-0.294
-569.646	-177.857	0.226	0.005
-568.631	-158.437	-0.401	0.023
-567.617	-111.974	0.269	-0.054
-566.602	790.145	-0.091	0.250
-565.588	127.852	-0.271	-0.344
-564.573	-21.408	0.159	-0.097
-563.558	-3.393	-0.040	0.028
-562.544	204.809	0.050	0.077
-561.529	-7.113	-0.241	-0.163
-560.515	25.488	-0.135	-0.112
-559.500	35.921	-0.240	0.211
-558.485	-66.732	-0.116	-0.046
-557.471	-102.087	0.239	0.057
-556.456	-200.000	-0.039	0.177
-555.442	-200.000	-0.024	0.239
-554.427	-140.704	-0.099	0.010
-553.412	-62.702	0.228	-0.095
-552.398	397.425	-0.061	-0.128
-551.383	92.781	-0.157	0.177
-550.369	800.000	-0.116	0.382
-549.354	29.625	-0.129	0.110
-548.339	9.775	-0.222	0.168
-547.325	-54.596	-0.308	-0.139
-546.310	-184.941	0.546	-0.009
-545.296	-200.000	0.044	0.227
-544.281	21.111	0.185	-0.150
-543.266	-99.315	-0.118	0.030
-542.252	800.000	0.057	0.233
-541.237	19.281	-0.030	-0.024
-540.223	-95.102	0.415	0.112
-539.208	-5.934	-0.089	0.061
-538.193	-139.330	-0.330	0.035
-537.179	-200.000	0.048	0.240
-536.164	-43.849	-0.452	-0.227
-535.150	-143.786	-0.190	-0.018
-534.135	-31.922	0.074	-0.041
-533.121	708.394	0.085	-0.224
-532.106	334.431	0.085	0.164
-531.091	287.617	-0.158	-0.284
-530.077	-125.092	-0.145	-0.022
-529.062	382.849	0.070	0.144
-528.048	326.471	-0.020	0.039
-527.033	608.084	-0.042	0.106
-526.018	5.187	0.112	-0.083
-525.004	-184.384	-0.159	-0.003
-523.989	-172.526	-0.052	-0.002
-522.975	800.000	-0.094	-0.294
-521.960	255.907	0.079	0.134
-520.945	66.161	0.077	-0.078
-519.931	82.363	-0.078	0.085
-518.916	-115.506	-0.184	0.035
-517.902	-200.000	0.034	0.165
-516.887	262.441	-0.087	0.150
-515.872	126.699	-0.114	-0.144
-514.858	549.589	0.082	-0.196
-513.843	-200.000	-0.067	-0.396
-512.829	-167.810	0.198	0.008
-511.814	800.000	-0.088	-0.278
-510.799	-35.043	0.161	-0.087
-509.785	-138.245	0.128	0.014
-508.770	379.190	-0.156	-0.319
-507.756	97.020	-0.139	0.158
-506.741	-79.852	0.149	-0.050
-505.726	800.000	0.037	-0.111
-504.712	-200.000	0.013	-0.063
-503.697	-39.623	-0.128	-0.067
-502.683	-200.000	-0.037	-0.302
-501.668	-57.483	-0.200	0.087
-500.653	-200.000	-0.016	-0.185
-499.639	-135.236	0.223	0.027
-498.624	-173.030	0.297	0.009
-497.610	800.000	-0.037	0.156
-496.595	-169.041	-0.042	-0.002
-495.581	354.550	0.168	-0.332
-494.566	-200.000	0.086	-0.396
-493.551	-48.172	-0.177	0.085
-492.537	7.711	-0.122	-0.091
-491.522	-154.187	0.185	-0.012
-490.508	36.076	-0.246	-0.215
-489.493	800.000	-0.040	-0.128
-488.478	-111.244	-0.260	-0.053
-487.464	107.242	-0.274	-0.324
-486.449	20.916	0.152	-0.123
-485.435	-11.337	-0.264	0.173
-484.420	139.739	0.156	-0.205
-483.405	279.530	0.115	-0.204
-482.391	-92.399	0.291	0.081
-481.376	276.178	-0.082	-0.145
-480.362	-122.118	-0.210	-0.034
-479.347	0.853	0.022	-0.015
-478.332	-149.773	0.345	0.027
-477.318	-200.000	-0.017	0.088
-476.303	23.711	0.153	-0.125
-475.289	-69.072	0.296	0.113
-474.274	73.190	0.177	0.184
-473.259	-30.153	-0.305	0.173
-472.245	-200.000	-0.044	0.471
-471.230	-143.190	0.169	-0.016
-470.216	-40.019	-0.136	-0.071
-469.201	553.745	0.023	0.056
-468.186	-200.000	0.017	-0.154
-467.172	-2.610	-0.249	-0.173
-466.157	-200.000	0.007	-0.074
-465.143	-91.852	-0.413	0.116
-464.128	800.000	-0.113	0.323
-463.113	462.183	-0.063	0.139
-462.099	-191.373	0.228	0.002
-461.084	375.691	0.039	0.080
-460.070	430.781	-0.051	0.109
-459.055	672.183	0.041	0.106
-458.040	-200.000	0.026	-0.132
-457.026	-78.337	-0.233	-0.079
-456.011	63.641	-0.178	0.178
-454.997	-37.187	0.299	0.159
-453.982	185.925	-0.188	0.277
-452.968	195.512	0.080	0.120
-451.953	-200.000	0.011	0.346
-450.938	206.465	-0.144	-0.222
-449.924	-200.000	0.063	0.306
-448.909	-53.351	0.331	-0.151
-447.895	341.941	-0.068	0.132
-446.880	800.000	0.031	-0.131
-445.865	47.932	-0.006	0.006
-444.851	584.541	0.019	0.046
-443.836	-41.429	-0.247	0.126
-442.822	-95.567	0.138	0.037
-441.807	-65.416	0.284	-0.113
-440.792	800.000	0.033	-0.138
-439.778	480.036	-0.141	-0.317
-438.763	-8.360	-0.076	-0.051
-437.749	-127.926	-0.181	-0.026
-436.734	488.708	0.167	-0.379
-435.719	17.162	-0.239	0.189
-434.705	-128.499	0.178	0.025
-433.690	-200.000	-0.010	-0.267
-432.676	313.779	0.099	-0.185
-431.661	-200.000	0.025	0.252
-430.646	-50.477	0.326	0.153
-429.632	-25.925	-0.312	-0.183
-428.617	42.507	0.098	-0.089
-427.603	649.071	0.115	0.293
-426.588	-200.000	0.037	-0.217
-425.573	-35.994	0.241	0.129
-424.559	69.169	-0.027	0.028
-423.544	-19.997	0.253	-0.155
-422.530	117.613	-0.084	0.103
-421.515	124.693	0.158	0.198
-420.500	247.278	0.104	-0.174
-419.486	383.197	-0.050	-0.102
-418.471	-75.749	0.089	-0.031
-417.457	444.641	0.006	0.014
-416.442	640.622	0.099	0.251
-415.428	-86.329	-0.280	-0.086
-414.413	80.254	-0.148	-0.158
-413.398	136.737	0.097	0.126
-412.384	85.469	-0.209	0.228
-411.369	-137.134	-0.264	-0.030
-410.355	39.883	0.200	-0.178
-409.340	-30.366	0.227	-0.128
-408.325	-200.000	0.005	0.108
-407.311	99.498	-0.184	-0.212
-406.296	-62.643	0.127	0.052
-405.282	-106.774	0.416	0.092
-404.267	4.621	0.184	-0.134
-403.252	800.000	0.132	-0.381
-402.238	243.260	0.199	0.331
-401.223	-63.607	-0.197	0.080
-400.209	-141.893	-0.066	-0.007
-399.194	129.197	0.313	-0.396
-398.179	-200.000	0.028	-0.297
-397.165	-39.544	0.078	-0.041
-396.150	-118.605	-0.275	0.048
-395.136	800.000	-0.055	0.161
-394.121	-200.000	0.042	-0.196
-393.106	-200.000	0.063	0.398
-392.092	-200.000	-0.010	0.261
-391.077	-28.227	0.557	0.319
-390.063	-51.085	0.166	-0.077
-389.048	-200.000	0.048	0.255
-388.033	-200.000	0.035	0.186
-387.019	-45.938	0.188	-0.092
-386.004	-50.038	0.174	0.082
-384.990	514.718	0.067	0.155
-383.975	216.332	-0.041	0.065
-382.960	43.760	-0.262	-0.238
-381.946	-93.180	0.361	-0.100
-380.931	-200.000	-0.002	0.129
-379.917	764.396	0.092	0.249
-378.902	-14.108	-0.060	-0.038
-377.888	-200.000	-0.015	-0.237
-376.873	-200.000	0.007	-0.213
-375.858	-110.691	0.165	0.034
-374.844	26.858	0.153	0.127
-373.829	-180.437	0.166	0.003
-372.815	-173.753	-0.325	-0.010
-371.800	98.044	-0.119	0.136
-370.785	761.793	-0.036	-0.096
-369.771	-200.000	-0.059	0.360
-368.756	561.792	-0.047	0.112
-367.742	-41.586	-0.350	-0.178
-366.727	-15.330	0.354	0.224
-365.712	-200.000	0.007	0.101
-364.698	429.105	0.140	0.299
-363.683	-64.909	0.144	0.058
-362.669	800.000	0.034	-0.105
-361.654	-127.344	-0.073	0.011
-360.639	162.485	0.134	0.186
-359.625	125.835	0.035	0.044
-358.610	-108.298	-0.132	-0.028
-357.596	-200.000	-0.011	-0.111
-356.581	-113.526	-0.350	0.068
-355.566	-19.449	0.131	-0.080
-354.552	800.000	-0.055	0.233
-353.537	-158.148	0.264	-0.015
-352.523	105.256	-0.191	0.224
-351.508	172.639	0.088	-0.125
-350.493	172.465	-0.209	0.297
-349.479	-107.221	-0.330	-0.072
-348.464	301.183	-0.079	0.144
-347.450	800.000	0.009	-0.034
-346.435	-200.000	-0.005	0.095
-345.420	-27.331	0.293	-0.169
-344.406	-12.064	-0.080	0.052
-343.391	26.180	0.238	0.196
-342.377	508.332	0.103	0.238
-341.362	186.155	0.233	0.343
-340.348	-105.393	-0.293	0.066
-339.333	-197.588	0.169	-0.001
-338.318	-87.665	0.372	0.111
-337.304	-83.091	-0.416	0.132
-336.289	98.316	0.095	0.108
-335.275	-123.092	0.215	-0.034
-334.260	-44.313	0.183	-0.091
-333.245	-44.623	-0.187	-0.092
-332.231	-87.478	0.086	-0.026
-331.216	440.032	-0.111	-0.239
-330.202	800.000	-0.088	-0.289
-329.187	414.165	-0.102	-0.215
-328.172	-30.881	-0.227	-0.127
-327.158	571.832	-0.016	0.039
-326.143	421.984	-0.165	-0.350
-325.129	-167.557	-0.252	-0.010
-324.114	-150.487	0.459	-0.035
-323.099	70.684	-0.112	-0.115
-322.085	-48.915	-0.076	0.036
-321.070	338.432	-0.090	-0.173
-320.056	-81.869	0.169	0.055
-319.041	287.595	0.148	0.266
-318.026	679.203	-0.085	-0.219
-317.012	-125.802	0.323	-0.048
-315.997	-200.000	0.018	0.106
-314.983	437.634	-0.193	0.416
-313.968	264.534	-0.228	-0.393
-312.953	76.780	0.110	0.115
-311.939	250.931	0.009	0.016
-310.924	630.600	0.147	-0.368
-309.910	352.214	0.055	-0.108
-308.895	82.252	-0.140	0.150
-307.880	-200.000	0.064	0.352
-306.866	110.040	0.116	0.137
-305.851	233.156	0.014	0.022
-304.837	-8.598	-0.304	-0.202
-303.822	189.287	-0.313	-0.464
-302.807	-200.000	0.031	0.277
-301.793	-200.000	-0.072	-0.516
-300.778	-200.000	-0.058	-0.249
-299.764	298.310	0.207	-0.376
-298.749	78.998	0.216	0.228
-297.735	72.994	0.079	0.081
-296.720	29.376	-0.138	-0.116
-295.705	-23.241	0.362	-0.215
-294.691	-75.471	-0.250	0.088
-293.676	-36.697	0.120	0.063
-292.662	-131.388	-0.205	-0.027
-291.647	-141.866	0.130	-0.013
-290.632	261.922	-0.214	-0.367
-289.618	-200.000	0.028	0.171
-288.603	-16.764	0.354	-0.221
-287.589	-200.000	0.048	-0.338
-286.574	401.365	0.102	0.211
-285.559	-105.044	-0.451	0.102
-284.545	18.120	-0.171	0.135
-283.530	-72.102	-0.013	-0.005
-282.516	130.986	-0.049	-0.062
-281.501	2.077	0.095	-0.067
-280.486	66.104	-0.127	-0.127
-279.472	105.422	0.057	0.067
-278.457	-105.998	-0.137	-0.030
-277.443	-26.764	-0.332	-0.192
-276.428	-200.000	-0.025	0.166
-275.413	-177.590	0.368	-0.009
-274.399	-97.631	-0.072	-0.018
-273.384	-93.874	0.008	-0.002
-272.370	306.581	-0.140	0.258
-271.355	-200.000	-0.029	0.271
-270.340	800.000	0.121	0.368
-269.326	-5.232	-0.118	-0.080
-268.311	-200.000	-0.026	0.390
-267.297	201.889	0.048	0.073
-266.282	169.825	-0.076	0.107
-265.267	-80.332	-0.335	0.110
-264.253	769.355	-0.070	0.189
-263.238	-87.109	0.179	-0.054
-262.224	-114.904	-0.188	-0.035
-261.209	262.026	-0.073	-0.124
-260.195	-102.856	0.298	0.070
-259.180	105.073	-0.109	0.126
-258.165	-11.940	0.289	0.187
-257.151	800.000	0.136	-0.404
-256.136	-82.854	0.173	0.055
-255.122	-105.044	-0.125	-0.028
-254.107	-58.480	-0.196	0.084
-253.092	-200.000	0.003	-0.058
-252.078	162.703	0.080	0.110
-251.063	-17.834	0.269	0.167
-250.049	-51.771	-0.327	-0.150
-249.034	800.000	0.067	0.221
-248.019	800.000	-0.053	-0.219
-247.005	-133.056	-0.074	0.009
-245.990	22.695	0.138	-0.111
-244.976	-128.246	0.166	-0.023
-243.961	-45.871	-0.220	-0.107
-242.946	34.442	-0.028	-0.024
-241.932	289.846	-0.118	0.211
-240.917	-65.584	-0.052	0.020
-239.903	800.000	-0.127	0.409
-238.888	329.716	0.085	0.161
-237.873	-46.381	-0.181	-0.087
-236.859	-200.000	-0.187	0.001
-235.844	-61.829	0.214	-0.088
-234.830	800.000	-0.122	-0.389
-233.815	-73.373	-0.165	-0.059
-232.800	352.592	0.140	0.273
-231.786	-191.823	-0.124	0.001
-230.771	-200.000	0.047	-0.259
-229.757	173.304	-0.150	-0.213
-228.742	-145.941	0.169	-0.015
-227.727	-9.254	0.046	0.030
-226.713	207.604	0.094	-0.144
-225.698	231.160	0.157	-0.253
-224.684	-200.000	0.006	0.038
-223.669	276.008	0.118	-0.206
-222.655	281.995	-0.077	0.135
-221.640	568.803	-0.062	0.148
-220.625	800.000	-0.086	0.299
-219.611	800.000	0.149	-0.436
-218.596	-75.344	-0.221	0.078
-217.582	-72.047	-0.115	0.042
-216.567	-18.522	-0.235	0.145
-215.552	-62.703	0.272	-0.111
-214.538	302.898	-0.102	0.187
-213.523	551.748	0.134	0.317
-212.509	-200.000	0.050	-0.267
-211.494	-200.000	0.091	-0.437
-210.479	-15.776	0.209	-0.131
-209.465	800.000	0.065	0.213
-208.450	509.275	0.149	0.341
-207.436	-34.005	-0.178	-0.096
-206.421	-81.256	0.058	0.019
-205.406	43.859	-0.160	0.145
-204.392	-200.000	0.037	0.357
-203.377	800.000	0.032	-0.124
-202.363	-81.153	-0.168	0.055
-201.348	293.539	-0.086	0.155
-200.333	-105.814	-0.330	-0.073
-199.319	-109.530	-0.282	0.059
-198.304	-179.955	-0.173	0.004
-197.290	-51.610	0.163	0.075
-196.275	52.432	-0.071	-0.067
-195.260	-133.738	0.528	-0.065
-194.246	74.934	0.192	-0.199
-193.231	-200.000	0.011	0.298
-192.217	-118.032	0.569	0.100
-191.202	566.381	0.148	-0.353
-190.187	74.950	0.062	0.064
-189.173	-70.129	0.065	-0.024
-188.158	-44.402	-0.405	0.199
-187.144	-15.569	-0.215	0.135
-186.129	269.818	0.215	0.372
-185.114	800.000	-0.179	-0.561
-184.100	-117.870	-0.261	-0.046
-183.085	479.562	0.122	0.272
-182.071	-26.994	-0.328	-0.188
-181.056	-200.000	0.001	-0.014
-180.042	-65.963	-0.166	-0.065
-179.027	-107.938	0.313	0.067
-178.012	87.629	0.124	0.135
-176.998	-125.923	-0.220	-0.033
-175.983	284.341	-0.152	0.268
-174.969	-122.058	-0.074	-0.012
-173.954	800.000	-0.012	0.034
-172.939	19.917	0.090	0.071
-171.925	586.250	0.097	0.235
-170.910	-168.176	-0.222	-0.008
-169.896	135.989	-0.076	0.097
-168.881	457.258	-0.081	-0.176
-167.866	-200.000	0.019	0.196
-166.852	800.000	0.039	-0.146
-165.837	-97.877	0.207	0.052
-164.823	-130.959	-0.201	0.026
-163.808	336.234	0.172	-0.329
-162.793	-116.770	0.119	-0.022
-161.779	116.680	-0.289	-0.348
-160.764	-83.529	0.357	-0.112
-159.750	632.876	0.127	-0.315
-158.735	80.324	0.134	0.142
-157.720	48.359	-0.054	0.050
-156.706	-123.918	0.222	-0.034
-155.691	334.541	0.147	0.280
-154.677	790.301	-0.050	0.136
-153.662	232.867	-0.122	0.198
-152.647	800.000	0.071	-0.254
-151.633	347.759	0.051	0.100
-150.618	-2.007	0.134	-0.092
-149.604	-55.039	-0.238	-0.105
-148.589	800.000	0.137	-0.372
-147.574	7.670	-0.227	-0.167
-146.560	73.061	-0.155	-0.159
-145.545	-200.000	-0.098	0.432
-144.531	162.428	-0.105	-0.144
-143.516	572.720	0.036	0.087
-142.502	-200.000	-0.004	0.429
-141.487	-35.339	-0.223	0.119
-140.472	-48.978	0.297	0.140
-139.458	194.807	-0.119	-0.177
-138.443	229.885	-0.148	0.238
-137.429	-8.436	0.062	-0.041
-136.414	241.112	-0.092	-0.151
-135.399	-158.909	0.243	-0.014
-134.385	149.686	0.169	0.225
-133.370	577.264	-0.017	0.041
-132.356	-200.000	-0.006	0.139
-131.341	160.784	0.097	0.132
-130.326	-60.028	0.359	0.150
-129.312	-18.474	0.428	0.262
-128.297	-56.487	0.122	-0.053
-127.283	93.295	0.063	-0.070
-126.268	-54.889	0.390	0.173
-125.253	87.975	0.111	0.121
-124.239	27.635	0.226	0.187
-123.224	-58.145	-0.130	-0.056
-122.210	447.828	0.087	0.189
-121.195	-200.000	-0.005	0.053
