DTS Sentinel unit serial number:	SN413079Multiplexer serial number:	ORYXHardware model number:	OX4-SRSoftware version number:	ORYX F/W v4.00 Oryx Data Collector v3.7.2.0data status	okinstallation	princeton_trtdifferential loss correction	single-endedforward channel	channel 2reverse channel	N/Adate	2019/09/16time	17:35:35forward acquisition time	60.00reverse acquisition time	0.00gamma	496.2192k internal	0.2311k external	0.2311temperature offset calibration	0.9948default loss term (dB/km)	0.3790temperature slope calibration	1.0000multiplexer offset coefficient	1.0000multiplexer slope coefficient	1.0000fibre end	0.00T internal ref (°C)	38.33T ext. ref 1 (°C)	15.51T ext. ref 2 (°C)	32.31length (m)	temperature (°C)	Stokes	anti-Stokes-747.200	-147.373	-0.238	-0.021
-746.185	-17.022	-0.264	0.170
-745.171	15.093	0.065	0.052
-744.156	800.000	0.105	0.378
-743.142	161.534	-0.246	0.350
-742.127	49.175	-0.171	0.163
-741.112	-48.781	0.423	0.206
-740.098	-68.047	-0.157	-0.062
-739.083	39.862	0.217	0.198
-738.069	87.903	0.170	-0.191
-737.054	70.719	-0.064	0.067
-736.039	800.000	0.028	0.096
-735.025	95.645	-0.206	-0.239
-734.010	-152.179	-0.122	0.009
-732.996	800.000	0.041	-0.150
-731.981	-68.388	-0.127	0.050
-730.966	-69.750	0.178	-0.069
-729.952	-200.000	-0.025	0.138
-728.937	-109.018	-0.067	-0.014
-727.923	-186.713	-0.379	-0.005
-726.908	-200.000	-0.021	-0.130
-725.894	-200.000	0.005	0.025
-724.879	-153.295	0.163	0.012
-723.864	-139.140	-0.365	0.040
-722.850	17.557	0.282	-0.228
-721.835	-89.368	-0.394	-0.118
-720.821	-162.988	-0.376	0.018
-719.806	56.916	0.312	-0.308
-718.791	31.589	-0.207	-0.181
-717.777	13.369	0.132	0.104
-716.762	108.962	-0.213	-0.258
-715.748	515.817	-0.020	-0.047
-714.733	-133.253	-0.300	0.038
-713.718	-164.662	-0.115	-0.005
-712.704	-200.000	-0.036	-0.221
-711.689	-140.509	-0.116	0.012
-710.675	-89.287	-0.280	0.084
-709.660	60.405	-0.168	0.169
-708.645	312.165	-0.144	0.274
-707.631	-9.384	-0.055	-0.037
-706.616	-111.666	0.003	-0.001
-705.602	-170.651	-0.294	-0.010
-704.587	153.283	-0.209	-0.290
-703.572	195.536	0.038	-0.059
-702.558	-5.863	0.245	0.170
-701.543	800.000	-0.091	0.282
-700.529	698.903	-0.072	0.192
-699.514	-87.621	-0.281	-0.086
-698.499	-86.548	0.580	-0.180
-697.485	-152.235	-0.110	-0.008
-696.470	591.655	0.050	-0.124
-695.456	-200.000	0.036	-0.251
-694.441	53.058	-0.075	0.073
-693.426	189.986	0.086	-0.131
-692.412	9.552	-0.044	0.034
-691.397	14.821	-0.274	-0.217
-690.383	-26.316	-0.079	-0.047
-689.368	207.340	0.160	-0.253
-688.354	94.639	-0.090	-0.104
-687.339	-181.956	-0.282	0.005
-686.324	800.000	0.014	-0.059
-685.310	-64.135	-0.165	-0.068
-684.295	-47.065	-0.096	-0.047
-683.281	-62.879	0.090	-0.038
-682.266	-106.048	-0.415	0.095
-681.251	-200.000	-0.037	0.236
-680.237	739.340	0.069	0.187
-679.222	136.897	-0.122	-0.161
-678.208	-200.000	-0.002	0.098
-677.193	-52.304	0.408	0.191
-676.178	-200.000	-0.006	0.069
-675.164	-200.000	0.008	-0.408
-674.149	-170.532	0.123	-0.004
-673.135	-128.712	0.254	0.036
-672.120	277.856	-0.067	-0.121
-671.105	-123.528	-0.097	0.016
-670.091	-65.313	-0.263	-0.107
-669.076	-200.000	-0.030	0.329
-668.062	-40.190	0.098	-0.052
-667.047	-200.000	-0.035	0.157
-666.032	-98.073	-0.320	-0.083
-665.018	-31.374	-0.356	-0.203
-664.003	3.256	-0.330	-0.243
-662.989	587.838	-0.107	-0.266
-661.974	194.065	0.031	-0.048
-660.959	-57.076	-0.145	-0.065
-659.945	800.000	-0.041	-0.142
-658.930	800.000	0.073	-0.246
-657.916	-173.669	0.463	-0.014
-656.901	-125.146	-0.277	-0.043
-655.886	230.759	-0.109	0.181
-654.872	160.019	0.085	0.120
-653.857	79.980	-0.057	-0.061
-652.843	-131.870	0.125	0.017
-651.828	375.249	-0.097	-0.199
-650.814	-67.191	0.057	-0.023
-649.799	175.692	-0.091	-0.133
-648.784	184.370	-0.216	0.324
-647.770	-55.082	-0.155	0.071
-646.755	180.936	0.078	-0.116
-645.741	-200.000	0.047	-0.210
-644.726	-64.853	-0.089	-0.036
-643.711	-16.087	0.172	0.111
-642.697	-200.000	-0.001	0.432
-641.682	14.899	-0.244	0.193
-640.668	-112.482	-0.298	0.060
-639.653	-31.819	-0.115	0.065
-638.638	3.700	-0.216	0.159
-637.624	411.752	-0.117	0.252
-636.609	-101.002	0.213	0.053
-635.595	51.038	0.088	-0.084
-634.580	47.039	0.258	-0.242
-633.565	76.762	0.122	0.131
-632.551	-200.000	-0.033	0.153
-631.536	800.000	0.049	-0.147
-630.522	63.998	0.110	0.112
-629.507	-200.000	0.012	0.155
-628.492	-50.247	-0.174	0.083
-627.478	-4.263	-0.145	-0.101
-626.463	-200.000	-0.018	-0.330
-625.449	-41.869	0.199	0.103
-624.434	-58.422	-0.076	0.033
-623.419	-200.000	-0.029	0.312
-622.405	-200.000	-0.020	-0.160
-621.390	800.000	-0.125	-0.356
-620.376	158.095	-0.195	-0.274
-619.361	-147.704	-0.277	-0.023
-618.346	-138.841	-0.304	0.033
-617.332	143.685	-0.106	0.143
-616.317	-96.458	0.230	-0.061
-615.303	-82.415	0.173	-0.057
-614.288	-200.000	0.034	0.249
-613.273	800.000	-0.057	-0.234
-612.259	800.000	0.088	-0.310
-611.244	-123.439	-0.182	0.029
-610.230	-75.220	0.136	0.049
-609.215	-160.530	0.266	0.014
-608.201	-83.759	-0.330	-0.106
-607.186	72.273	0.194	0.204
-606.171	-47.718	0.374	-0.183
-605.157	-139.387	0.373	-0.040
-604.142	8.812	-0.230	0.175
-603.128	-22.479	-0.330	0.201
-602.113	763.468	0.120	0.329
-601.098	240.821	-0.086	-0.145
-600.084	69.591	-0.141	-0.147
-599.069	337.997	0.185	0.363
-598.055	-138.484	-0.366	0.041
-597.040	-195.670	-0.176	0.001
-596.025	-69.453	0.046	0.018
-595.011	-33.623	0.326	-0.181
-593.996	-94.890	-0.128	0.035
-592.982	-103.704	0.066	0.016
-591.967	-23.948	0.173	0.104
-590.952	73.613	-0.022	-0.023
-589.938	-108.435	-0.114	-0.025
-588.923	43.986	0.054	0.050
-587.909	800.000	0.093	-0.269
-586.894	723.275	-0.051	-0.137
-585.879	0.512	-0.360	0.260
-584.865	-93.522	0.169	0.047
-583.850	-31.983	-0.110	-0.062
-582.836	67.945	0.232	0.239
-581.821	213.443	0.073	-0.117
-580.806	-133.167	0.075	0.010
-579.792	-200.000	0.009	0.062
-578.777	-200.000	-0.006	-0.235
-577.763	-200.000	-0.003	-0.150
-576.748	-111.637	0.054	0.011
-575.733	95.718	-0.177	-0.203
-574.719	-175.278	-0.421	0.012
-573.704	-200.000	0.003	-0.167
-572.690	-64.494	0.192	-0.079
-571.675	-105.875	-0.249	0.057
-570.661	-111.842	-0.214	-0.044
-569.646	-1.620	-0.361	0.256
-568.631	72.761	-0.197	0.208
-567.617	-200.000	-0.021	-0.127
-566.602	-105.024	0.019	-0.004
-565.588	800.000	0.090	-0.291
-564.573	-200.000	0.035	0.270
-563.558	-200.000	-0.001	0.228
-562.544	-200.000	0.002	-0.123
-561.529	-93.446	-0.241	-0.067
-560.515	-118.180	-0.091	-0.016
-559.500	800.000	-0.095	-0.361
-558.485	800.000	-0.062	-0.190
-557.471	-200.000	0.036	-0.232
-556.456	126.867	-0.264	-0.337
-555.442	-200.000	0.029	0.180
-554.427	54.386	-0.188	0.182
-553.412	-90.492	0.100	0.029
-552.398	-24.988	0.174	0.104
-551.383	-96.286	0.402	0.107
-550.369	-200.000	0.016	0.212
-549.354	149.347	-0.078	-0.106
-548.339	127.272	0.070	-0.090
-547.325	-63.039	-0.180	-0.075
-546.310	122.638	-0.030	-0.038
-545.296	-94.942	0.326	-0.089
-544.281	-14.729	0.067	-0.044
-543.266	152.996	0.206	-0.283
-542.252	-145.279	-0.452	0.041
-541.237	-48.446	0.326	-0.158
-540.223	-200.000	0.062	0.291
-539.208	-2.289	0.256	-0.181
-538.193	-75.869	-0.150	0.054
-537.179	-200.000	0.015	0.126
-536.164	-3.054	0.187	-0.131
-535.150	158.257	-0.189	0.264
-534.135	-156.521	0.355	0.022
-533.121	171.178	-0.053	0.076
-532.106	-200.000	0.005	0.060
-531.091	-75.160	0.282	0.102
-530.077	-123.403	0.271	0.043
-529.062	-200.000	0.032	-0.194
-528.048	108.101	-0.069	-0.083
-527.033	21.857	-0.180	0.148
-526.018	310.532	-0.111	0.209
-525.004	-200.000	0.090	0.415
-523.989	-133.359	-0.125	0.016
-522.975	-36.934	-0.362	-0.195
-521.960	211.522	-0.140	-0.222
-520.945	317.639	-0.070	-0.134
-519.931	30.566	-0.092	-0.079
-518.916	-56.354	0.403	0.180
-517.902	800.000	-0.066	0.251
-516.887	61.049	-0.132	0.132
-515.872	-200.000	-0.004	-0.068
-514.858	-85.661	-0.107	0.033
-513.843	-52.842	0.095	0.044
-512.829	-200.000	0.029	-0.169
-511.814	-71.341	-0.245	0.092
-510.799	140.241	0.196	-0.261
-509.785	800.000	0.023	-0.071
-508.770	342.435	0.207	-0.407
-507.756	-150.325	0.183	0.014
-506.741	800.000	-0.053	-0.155
-505.726	800.000	0.099	-0.315
-504.712	340.722	0.115	-0.226
-503.697	-152.314	0.282	0.020
-502.683	800.000	0.014	0.046
-501.668	-66.684	0.367	0.146
-500.653	69.582	0.109	0.112
-499.639	-83.832	-0.218	-0.070
-498.624	-120.838	-0.048	-0.008
-497.610	-200.000	-0.013	0.112
-496.595	173.500	-0.052	0.075
-495.581	-200.000	0.018	-0.417
-494.566	-200.000	-0.001	0.067
-493.551	-200.000	-0.001	0.244
-492.537	-95.785	0.128	0.034
-491.522	198.534	0.126	-0.194
-490.508	-200.000	0.074	0.331
-489.493	164.997	-0.105	0.149
-488.478	-200.000	0.051	-0.398
-487.464	43.715	-0.109	-0.100
-486.449	429.085	-0.027	0.059
-485.435	63.416	0.136	-0.138
-484.420	-28.165	0.074	0.043
-483.405	221.852	0.204	0.329
-482.391	-129.792	0.249	-0.034
-481.376	247.949	0.147	-0.249
-480.362	-200.000	0.038	-0.392
-479.347	278.353	-0.093	-0.167
-478.332	-200.000	0.003	-0.257
-477.318	-33.728	0.145	0.080
-476.303	-76.452	0.157	-0.056
-475.289	-59.420	-0.236	-0.102
-474.274	-158.788	0.319	-0.018
-473.259	-200.000	0.061	-0.309
-472.245	-200.000	0.022	-0.139
-471.230	-48.390	0.350	-0.169
-470.216	237.681	-0.094	0.156
-469.201	218.120	-0.234	-0.375
-468.186	-107.290	-0.095	0.021
-467.172	-53.567	0.313	-0.144
-466.157	-54.372	-0.101	0.046
-465.143	184.237	-0.161	0.240
-464.128	800.000	-0.063	-0.193
-463.113	295.734	0.117	-0.214
-462.099	800.000	0.075	0.208
-461.084	800.000	0.059	0.204
-460.070	-138.637	-0.458	0.050
-459.055	-49.291	-0.350	-0.168
-458.040	427.588	0.006	0.013
-457.026	-200.000	-0.053	0.306
-456.011	542.095	0.084	0.200
-454.997	-200.000	0.019	0.266
-453.982	218.583	-0.043	0.069
-452.968	-101.430	0.045	-0.011
-451.953	800.000	-0.043	-0.160
-450.938	-200.000	0.016	0.255
-449.924	-74.622	0.294	-0.106
-448.909	307.960	0.084	0.157
-447.895	66.131	0.146	0.148
-446.880	-18.266	-0.129	-0.081
-445.865	-200.000	-0.003	-0.166
-444.851	800.000	-0.134	0.476
-443.836	11.677	-0.278	-0.214
-442.822	-155.785	-0.040	-0.003
-441.807	800.000	-0.139	0.437
-440.792	198.618	-0.243	-0.372
-439.778	430.748	-0.192	-0.417
-438.763	536.618	0.099	-0.236
-437.749	35.026	-0.132	0.116
-436.734	-200.000	0.026	-0.299
-435.719	-72.464	-0.051	-0.019
-434.705	41.227	0.048	0.044
-433.690	94.832	-0.122	-0.139
-432.676	106.850	-0.053	0.063
-431.661	-200.000	-0.006	-0.083
-430.646	185.565	-0.158	-0.236
-429.632	-63.680	-0.041	0.017
-428.617	-160.588	0.081	-0.004
-427.603	-116.561	-0.140	0.026
-426.588	27.530	-0.255	-0.215
-425.573	110.491	0.042	0.051
-424.559	609.549	-0.068	-0.171
-423.544	-147.363	-0.069	0.006
-422.530	-163.304	0.245	-0.012
-421.515	-200.000	0.010	-0.116
-420.500	-108.163	-0.184	-0.040
-419.486	206.758	0.041	0.064
-418.471	-139.393	0.035	0.004
-417.457	-42.519	-0.252	-0.129
-416.442	203.450	0.159	-0.246
-415.428	108.342	-0.044	-0.052
-414.413	432.235	-0.089	-0.192
-413.398	128.221	-0.047	-0.060
-412.384	5.306	-0.448	-0.331
-411.369	-145.721	-0.099	-0.009
-410.355	-93.908	0.225	0.062
-409.340	-188.738	0.489	-0.006
-408.325	577.838	-0.118	0.288
-407.311	-40.632	0.067	-0.035
-406.296	-128.199	0.439	-0.063
-405.282	1.389	0.204	0.147
-404.267	111.284	0.048	0.058
-403.252	-200.000	-0.011	-0.085
-402.238	-54.797	-0.406	-0.184
-401.223	-13.434	0.262	-0.170
-400.209	75.861	-0.124	-0.131
-399.194	-39.818	-0.174	-0.091
-398.179	-200.000	-0.028	0.308
-397.165	-200.000	0.031	0.186
-396.150	31.089	0.115	0.099
-395.136	112.752	-0.116	0.140
-394.121	800.000	0.071	0.309
-393.106	800.000	-0.066	-0.267
-392.092	-164.636	0.103	-0.005
-391.077	-35.800	-0.257	0.139
-390.063	220.512	0.081	0.129
-389.048	419.072	0.028	-0.060
-388.033	224.545	-0.034	-0.055
-387.019	-200.000	0.057	0.314
-386.004	-76.793	0.400	0.140
-384.990	37.264	0.174	-0.154
-383.975	-1.988	-0.237	0.167
-382.960	356.474	0.182	0.364
-381.946	-200.000	0.095	-0.425
-380.931	-200.000	0.056	0.322
-379.917	-0.263	0.396	0.282
-378.902	548.288	0.098	-0.234
-377.888	44.012	-0.142	0.130
-376.873	-101.349	0.178	0.043
-375.858	13.247	-0.068	-0.053
-374.844	562.921	-0.040	-0.097
-373.829	-200.000	-0.027	0.153
-372.815	-23.688	-0.392	0.235
-371.800	-161.425	0.196	-0.010
-370.785	-81.211	0.301	-0.099
-369.771	1.548	-0.221	0.159
-368.756	394.206	0.065	-0.136
-367.742	-200.000	0.007	0.283
-366.727	-200.000	-0.000	-0.123
-365.712	-87.212	-0.030	-0.009
-364.698	148.495	-0.065	0.088
-363.683	546.932	0.087	0.208
-362.669	431.757	0.122	0.264
-361.654	278.641	-0.114	0.203
-360.639	105.672	0.082	0.097
-359.625	183.217	-0.225	-0.332
-358.610	88.016	-0.158	0.175
-357.596	69.403	-0.281	-0.290
-356.581	-125.255	-0.179	0.027
-355.566	545.333	-0.094	0.224
-354.552	800.000	0.035	-0.110
-353.537	465.362	0.182	0.408
-352.523	-86.631	0.104	-0.032
-351.508	-200.000	-0.022	0.376
-350.493	-128.082	0.324	-0.046
-349.479	265.188	-0.085	0.148
-348.464	-200.000	-0.008	-0.137
-347.450	486.920	0.051	0.117
-346.435	-84.838	0.169	-0.053
-345.420	-117.788	-0.275	-0.049
-344.406	-94.894	0.095	-0.026
-343.391	-24.509	-0.138	-0.082
-342.377	-200.000	0.028	0.124
-341.362	1.306	-0.217	0.156
-340.348	309.558	-0.112	0.210
-339.333	-200.000	-0.021	-0.158
-338.318	800.000	-0.038	0.164
-337.304	663.435	0.079	0.205
-336.289	109.579	0.113	0.135
-335.275	-148.498	0.271	-0.022
-334.260	252.739	-0.114	-0.194
-333.245	599.879	0.097	-0.241
-332.231	-65.632	-0.436	0.175
-331.216	-95.223	0.185	-0.050
-330.202	-89.280	0.130	0.038
-329.187	-98.091	0.180	-0.046
-328.172	482.276	0.176	0.399
-327.158	-0.631	0.299	0.212
-326.143	-101.851	-0.042	-0.010
-325.129	-173.292	-0.213	0.006
-324.114	45.024	-0.143	-0.131
-323.099	265.359	-0.135	0.235
-322.085	-84.975	0.117	-0.037
-321.070	332.779	-0.122	0.235
-320.056	-7.055	0.182	-0.123
-319.041	-140.650	-0.183	0.019
-318.026	24.696	-0.135	0.112
-317.012	-44.484	0.043	-0.021
-315.997	663.814	-0.069	-0.177
-314.983	258.271	0.114	-0.196
-313.968	-185.121	-0.138	-0.002
-312.953	70.687	-0.236	-0.243
-311.939	222.993	-0.098	0.158
-310.924	-200.000	-0.003	0.039
-309.910	-22.770	-0.175	0.106
-308.895	-65.099	-0.250	0.101
-307.880	-6.285	0.136	0.093
-306.866	54.366	-0.193	-0.185
-305.851	-118.715	-0.282	0.050
-304.837	229.848	-0.163	0.266
-303.822	-47.306	-0.390	-0.189
-302.807	8.031	0.120	-0.090
-301.793	612.406	0.077	0.193
-300.778	-146.084	-0.284	-0.025
-299.764	142.498	0.230	-0.305
-298.749	422.823	0.102	-0.219
-297.735	767.109	0.066	0.179
-296.720	76.104	0.292	-0.308
-295.705	-152.453	-0.129	0.009
-294.691	800.000	-0.059	-0.183
-293.676	-51.674	0.204	0.095
-292.662	-90.122	-0.144	-0.042
-291.647	-200.000	0.036	0.183
-290.632	745.161	0.088	0.237
-289.618	-156.725	0.165	0.010
-288.603	168.510	-0.176	-0.250
-287.589	-86.512	0.467	0.143
-286.574	-200.000	0.024	0.153
-285.559	-134.785	0.281	0.034
-284.545	-90.860	0.159	0.046
-283.530	800.000	0.071	0.204
-282.516	662.051	0.112	0.289
-281.501	486.682	0.079	0.179
-280.486	330.585	0.192	0.368
-279.472	-40.537	-0.044	0.023
-278.457	332.599	-0.140	0.269
-277.443	-73.895	0.202	-0.073
-276.428	381.557	0.020	-0.042
-275.413	154.086	-0.053	0.072
-274.399	-24.277	-0.280	-0.166
-273.384	93.482	0.169	-0.191
-272.370	-29.627	0.270	-0.154
-271.355	-15.709	-0.104	-0.066
-270.340	146.282	-0.103	-0.138
-269.326	800.000	0.072	0.219
-268.311	142.518	0.141	-0.186
-267.297	59.236	0.359	0.353
-266.282	800.000	-0.015	-0.052
-265.267	-75.495	0.161	0.057
-264.253	-67.306	0.381	-0.149
-263.238	-153.133	-0.209	-0.015
-262.224	167.778	0.140	0.198
-261.209	-60.943	-0.516	0.217
-260.195	800.000	0.019	-0.062
-259.180	800.000	-0.036	0.157
-258.165	-21.948	0.109	0.066
-257.151	39.434	-0.149	-0.133
-256.136	10.904	0.292	0.222
-255.122	8.835	0.192	-0.144
-254.107	-104.327	-0.307	-0.071
-253.092	559.292	-0.098	0.236
-252.078	104.167	-0.075	0.088
-251.063	128.065	0.183	0.232
-250.049	470.781	-0.206	0.462
-249.034	126.015	-0.174	-0.220
-248.019	-56.385	-0.134	0.059
-247.005	800.000	0.034	0.148
-245.990	-200.000	0.013	-0.071
-244.976	-135.553	-0.236	0.028
-243.961	-124.232	0.236	-0.037
-242.946	-200.000	-0.074	-0.467
-241.932	-2.992	0.275	-0.191
-240.917	267.952	0.031	-0.054
-239.903	45.972	-0.070	0.065
-238.888	-200.000	0.080	-0.399
-237.873	-125.919	-0.325	-0.049
-236.859	706.235	0.041	0.107
-235.844	-200.000	-0.022	0.176
-234.830	-10.247	-0.076	0.051
-233.815	329.577	-0.051	-0.098
-232.800	638.271	0.094	0.237
-231.786	-156.955	-0.211	0.013
-230.771	-200.000	0.033	-0.179
-229.757	-42.550	0.235	-0.119
-228.742	800.000	-0.087	-0.319
-227.727	-200.000	-0.037	-0.183
-226.713	-41.668	0.180	0.092
-225.698	-200.000	0.082	0.378
-224.684	431.275	-0.091	0.197
-223.669	800.000	-0.127	-0.386
-222.655	-22.099	0.261	0.158
-221.640	-141.203	0.234	0.024
-220.625	-99.060	-0.045	-0.011
-219.611	15.749	-0.207	0.162
-218.596	-91.117	-0.261	0.074
-217.582	86.311	-0.311	-0.340
-216.567	-75.246	-0.050	-0.018
-215.552	225.120	-0.042	-0.067
-214.538	-169.475	-0.186	0.007
-213.523	29.406	-0.222	-0.187
-212.509	-200.000	0.020	0.168
-211.494	-107.653	-0.087	-0.019
-210.479	-49.824	0.238	-0.113
-209.465	-57.359	0.246	0.108
-208.450	800.000	-0.076	-0.298
-207.436	-200.000	-0.002	-0.204
-206.421	304.889	0.069	0.127
-205.406	-12.706	0.177	0.114
-204.392	-9.110	-0.079	-0.052
-203.377	-114.342	0.333	-0.064
-202.363	-200.000	-0.001	-0.283
-201.348	474.151	-0.166	0.371
-200.333	99.448	0.166	0.191
-199.319	-78.288	-0.183	0.063
-198.304	-155.008	0.056	-0.004
-197.290	-35.915	-0.321	-0.172
-196.275	-141.890	0.140	0.014
-195.260	800.000	0.053	-0.163
-194.246	18.747	-0.062	-0.050
-193.231	800.000	0.046	-0.150
-192.217	521.637	-0.021	-0.048
-191.202	220.313	0.059	0.094
-190.187	-55.412	-0.219	-0.098
-189.173	29.746	-0.352	-0.298
-188.158	452.648	-0.177	0.390
-187.144	31.956	0.133	-0.114
-186.129	-150.297	0.496	0.038
-185.114	61.639	0.291	-0.287
-184.100	146.376	-0.078	-0.104
-183.085	-180.625	0.337	-0.007
-182.071	-80.146	0.143	0.048
-181.056	372.231	0.136	-0.274
-180.042	800.000	0.062	0.211
-179.027	392.955	-0.089	-0.184
-178.012	-90.401	-0.347	-0.100
-176.998	562.058	0.095	0.227
-175.983	-200.000	-0.047	-0.301
-174.969	580.329	-0.135	-0.328
-173.954	173.415	-0.075	-0.107
-172.939	-97.638	0.197	-0.051
-171.925	800.000	-0.029	-0.094
-170.910	800.000	0.048	0.132
-169.896	196.374	0.192	0.291
-168.881	127.039	-0.146	0.183
-167.866	-62.518	0.014	-0.006
-166.852	-200.000	0.007	-0.043
-165.837	-80.264	-0.288	-0.095
-164.823	-132.008	0.120	0.016
-163.808	-200.000	-0.009	-0.093
-162.793	-5.226	0.108	-0.074
-161.779	-75.805	-0.236	-0.083
-160.764	236.862	0.109	0.179
-159.750	73.982	-0.076	0.079
-158.735	800.000	0.056	-0.222
-157.720	-200.000	0.012	-0.401
-156.706	325.281	0.094	0.178
-155.691	-200.000	0.000	0.364
-154.677	186.833	0.122	0.181
-153.662	680.605	-0.012	0.030
-152.647	136.376	0.082	-0.107
-151.633	-93.642	0.205	-0.056
-150.618	-1.697	-0.132	-0.092
-149.604	21.378	0.128	-0.103
-148.589	491.256	0.068	-0.155
-147.574	-82.126	-0.091	0.029
-146.560	-200.000	-0.003	0.041
-145.545	491.143	-0.086	-0.196
-144.531	-122.893	-0.218	-0.035
-143.516	-49.193	-0.110	-0.052
-142.502	-67.672	-0.077	0.030
-141.487	800.000	0.134	0.425
-140.472	140.605	-0.073	-0.095
-139.458	72.435	-0.283	0.293
-138.443	-40.876	-0.283	0.145
-137.429	-200.000	0.070	-0.304
-136.414	800.000	0.077	0.294
-135.399	-167.163	0.297	-0.012
-134.385	44.866	-0.165	0.150
-133.370	76.947	0.178	0.188
-132.356	101.501	-0.439	0.507
-131.341	-45.664	0.147	-0.072
-130.326	800.000	0.074	-0.234
-129.312	239.339	-0.077	-0.127
-128.297	154.971	-0.146	0.199
-127.283	-119.363	0.204	0.035
-126.268	262.571	-0.114	-0.196
-125.253	-5.904	0.225	-0.153
-124.239	-126.779	0.167	-0.024
-123.224	365.399	0.220	-0.439
-122.210	800.000	-0.088	0.279
