DTS Sentinel unit serial number:	SN413079Multiplexer serial number:	ORYXHardware model number:	OX4-SRSoftware version number:	ORYX F/W v4.00 Oryx Data Collector v3.7.2.0data status	okinstallation	princeton_trtdifferential loss correction	single-endedforward channel	channel 2reverse channel	N/Adate	2019/09/12time	08:25:10forward acquisition time	60.00reverse acquisition time	0.00gamma	496.2192k internal	0.2318k external	0.2318temperature offset calibration	1.0063default loss term (dB/km)	0.3790temperature slope calibration	1.0000multiplexer offset coefficient	1.0000multiplexer slope coefficient	1.0000fibre end	0.00T internal ref (°C)	33.56T ext. ref 1 (°C)	1.69T ext. ref 2 (°C)	29.78length (m)	temperature (°C)	Stokes	anti-Stokes-747.200	-158.353	-0.177	0.010
-746.185	800.000	0.059	0.219
-745.171	-28.658	0.172	-0.100
-744.156	422.787	0.090	-0.196
-743.142	420.837	0.159	0.345
-742.127	-200.000	-0.000	-0.330
-741.112	406.101	-0.141	-0.301
-740.098	800.000	0.051	0.193
-739.083	173.305	0.246	0.359
-738.069	100.623	-0.141	0.166
-737.054	800.000	-0.049	0.197
-736.039	-200.000	0.008	0.099
-735.025	-112.954	0.294	0.059
-734.010	-131.898	-0.304	-0.040
-732.996	-200.000	0.003	-0.046
-731.981	-120.348	-0.271	0.047
-730.966	-44.219	-0.136	-0.069
-729.952	-189.729	-0.179	0.002
-728.937	242.593	0.066	-0.113
-727.923	132.764	-0.138	-0.180
-726.908	-113.877	0.338	0.066
-725.894	-85.523	-0.224	0.070
-724.879	38.738	0.089	-0.080
-723.864	-112.859	0.149	-0.030
-722.850	-69.239	-0.128	-0.050
-721.835	148.991	-0.120	-0.164
-720.821	-177.704	-0.275	0.007
-719.806	-85.237	-0.208	0.066
-718.791	-90.236	0.174	0.051
-717.777	-83.011	0.025	-0.008
-716.762	-44.267	0.288	-0.146
-715.748	-21.005	0.168	0.104
-714.733	258.445	0.065	0.114
-713.718	237.622	-0.019	0.033
-712.704	-200.000	-0.044	-0.247
-711.689	68.487	0.181	-0.187
-710.675	-200.000	0.084	-0.545
-709.660	800.000	-0.083	-0.303
-708.645	800.000	-0.070	0.212
-707.631	-153.105	0.171	-0.012
-706.616	800.000	0.014	-0.044
-705.602	-200.000	-0.001	0.038
-704.587	95.010	0.195	-0.224
-703.572	165.949	0.106	-0.152
-702.558	-154.109	-0.207	-0.014
-701.543	68.872	0.135	-0.140
-700.529	-49.924	0.167	0.080
-699.514	123.450	0.162	0.205
-698.499	402.758	-0.135	0.288
-697.485	451.202	-0.084	0.188
-696.470	587.324	-0.155	-0.385
-695.456	-47.434	0.242	-0.119
-694.441	366.632	0.073	-0.149
-693.426	-200.000	0.060	0.292
-692.412	193.658	0.182	-0.278
-691.397	198.765	0.107	-0.165
-690.383	-51.692	0.083	-0.039
-689.368	141.846	0.183	-0.245
-688.354	-189.257	0.290	0.003
-687.339	335.638	-0.133	0.261
-686.324	-17.645	-0.264	-0.167
-685.310	-91.061	-0.293	0.085
-684.295	-71.373	-0.269	0.102
-683.281	-45.156	-0.193	-0.097
-682.266	34.306	-0.082	0.072
-681.251	55.054	0.179	0.174
-680.237	-20.059	-0.241	-0.150
-679.222	-117.904	0.272	-0.049
-678.208	446.150	0.107	0.237
-677.193	100.825	-0.183	-0.215
-676.178	-108.529	-0.173	-0.037
-675.164	800.000	-0.021	0.063
-674.149	-109.145	-0.177	-0.038
-673.135	-29.590	0.292	-0.168
-672.120	-200.000	-0.016	-0.100
-671.105	232.620	-0.160	0.265
-670.091	-200.000	0.011	-0.188
-669.076	-200.000	0.015	0.198
-668.062	-41.037	-0.081	-0.042
-667.047	-200.000	-0.012	-0.121
-666.032	-200.000	-0.012	-0.274
-665.018	155.124	0.213	0.295
-664.003	-200.000	0.078	0.348
-662.989	-17.469	-0.265	-0.168
-661.974	-200.000	-0.011	-0.058
-660.959	-81.572	0.323	0.107
-659.945	-134.896	0.120	-0.015
-658.930	334.339	0.146	0.285
-657.916	73.116	0.121	0.127
-656.901	130.807	0.369	-0.477
-655.886	-200.000	0.003	0.299
-654.872	-200.000	-0.006	-0.109
-653.857	800.000	0.094	-0.344
-652.843	217.116	-0.052	-0.084
-651.828	189.566	-0.205	0.310
-650.814	121.357	0.063	0.079
-649.799	-200.000	0.017	0.092
-648.784	16.609	-0.316	-0.252
-647.770	800.000	0.024	0.075
-646.755	-65.636	-0.276	-0.112
-645.741	442.788	0.077	-0.170
-644.726	-74.883	0.084	-0.031
-643.711	27.894	0.227	0.193
-642.697	-155.223	0.124	0.008
-641.682	231.253	0.120	0.198
-640.668	-200.000	-0.039	-0.330
-639.653	-66.750	-0.146	0.058
-638.638	30.354	-0.081	0.070
-637.624	42.135	-0.188	0.172
-636.609	493.263	0.067	-0.156
-635.595	-103.626	-0.152	-0.036
-634.580	115.209	0.146	0.179
-633.565	-200.000	0.014	-0.093
-632.551	-200.000	-0.004	0.204
-631.536	51.818	-0.066	-0.063
-630.522	135.473	0.151	0.198
-629.507	800.000	-0.040	0.150
-628.492	800.000	-0.053	-0.176
-627.478	-200.000	-0.038	-0.431
-626.463	-102.199	0.294	-0.071
-625.449	-200.000	0.008	-0.225
-624.434	261.268	0.058	0.102
-623.419	800.000	0.028	0.099
-622.405	-49.244	-0.418	-0.201
-621.390	21.434	-0.226	0.185
-620.376	-105.849	-0.187	0.042
-619.361	-72.632	0.106	-0.039
-618.346	-1.046	-0.273	-0.195
-617.332	510.339	-0.136	-0.320
-616.317	-64.504	-0.208	0.085
-615.303	-64.269	-0.127	-0.052
-614.288	-137.394	-0.127	-0.015
-613.273	-200.000	-0.034	-0.228
-612.259	-47.660	-0.104	-0.051
-611.244	452.476	0.062	0.139
-610.230	70.766	0.173	0.180
-609.215	800.000	0.084	0.312
-608.201	23.148	-0.368	0.304
-607.186	-62.203	0.118	-0.049
-606.171	-0.286	0.158	0.113
-605.157	-200.000	-0.008	0.067
-604.142	436.583	0.056	-0.123
-603.128	-200.000	0.038	0.414
-602.113	800.000	-0.083	-0.282
-601.098	-14.965	-0.092	-0.059
-600.084	653.543	0.013	0.033
-599.069	214.470	0.076	-0.121
-598.055	-7.872	0.097	-0.066
-597.040	-200.000	0.006	-0.329
-596.025	615.910	-0.055	-0.138
-595.011	-109.278	0.327	0.070
-593.996	-71.485	-0.245	-0.092
-592.982	-200.000	0.004	-0.067
-591.967	-41.682	0.183	0.095
-590.952	338.175	0.057	-0.112
-589.938	40.575	0.061	-0.056
-588.923	43.585	-0.073	0.068
-587.909	254.857	0.098	0.169
-586.894	10.434	-0.299	-0.229
-585.879	-200.000	-0.028	-0.209
-584.865	-155.138	-0.299	-0.020
-583.850	-168.471	0.289	-0.011
-582.836	-58.074	-0.217	0.095
-581.821	-37.592	0.398	0.213
-580.806	209.535	-0.206	0.324
-579.792	-113.423	-0.305	-0.060
-578.777	29.136	-0.298	0.254
-577.763	125.148	0.064	0.081
-576.748	99.950	-0.157	-0.183
-575.733	800.000	0.039	-0.142
-574.719	49.864	0.047	-0.044
-573.704	800.000	0.046	-0.195
-572.690	-200.000	-0.015	-0.101
-571.675	-200.000	0.002	-0.135
-570.661	42.389	0.279	0.255
-569.646	-200.000	0.040	-0.191
-568.631	-113.953	0.133	0.026
-567.617	271.149	0.112	-0.199
-566.602	37.221	-0.121	-0.107
-565.588	-200.000	0.321	0.001
-564.573	-66.908	0.043	0.017
-563.558	214.258	-0.028	-0.045
-562.544	-167.669	0.371	-0.015
-561.529	-73.388	-0.249	0.091
-560.515	200.928	-0.097	0.150
-559.500	-200.000	-0.037	0.431
-558.485	-127.188	-0.333	-0.049
-557.471	-53.474	0.188	-0.086
-556.456	-200.000	0.001	-0.145
-555.442	-78.143	0.240	-0.083
-554.427	-200.000	0.001	0.123
-553.412	-129.130	-0.400	0.056
-552.398	-200.000	0.039	-0.526
-551.383	-200.000	0.014	-0.523
-550.369	-0.158	0.176	0.126
-549.354	-32.143	-0.412	-0.231
-548.339	800.000	-0.049	0.174
-547.325	800.000	-0.022	-0.069
-546.310	-5.045	0.223	-0.154
-545.296	800.000	-0.051	-0.148
-544.281	-200.000	0.038	-0.233
-543.266	-66.363	-0.179	0.071
-542.252	114.287	-0.197	-0.240
-541.237	216.959	-0.086	0.138
-540.223	33.715	-0.193	-0.169
-539.208	-186.574	-0.281	-0.004
-538.193	5.322	-0.048	0.035
-537.179	296.150	0.251	0.462
-536.164	-44.603	-0.128	0.064
-535.150	-66.419	0.091	-0.036
-534.135	-62.655	-0.155	-0.064
-533.121	13.394	-0.165	0.129
-532.106	-200.000	-0.040	-0.472
-531.091	-86.138	-0.088	0.027
-530.077	337.125	-0.126	-0.245
-529.062	-200.000	-0.040	-0.249
-528.048	-200.000	-0.008	-0.073
-527.033	-110.287	0.241	-0.050
-526.018	-37.103	-0.066	-0.036
-525.004	-62.998	0.172	-0.071
-523.989	-0.207	0.138	0.098
-522.975	-12.376	-0.181	-0.119
-521.960	-10.675	-0.219	-0.145
-520.945	-30.396	-0.104	-0.059
-519.931	-13.894	0.450	-0.291
-518.916	-140.630	-0.090	-0.009
-517.902	-200.000	0.021	-0.126
-516.887	-100.763	-0.181	0.045
-515.872	-102.561	0.232	0.056
-514.858	67.951	0.098	0.101
-513.843	-49.901	0.104	-0.050
-512.829	-200.000	-0.014	-0.071
-511.814	212.947	-0.131	-0.208
-510.799	216.780	-0.092	0.146
-509.785	500.668	-0.017	0.039
-508.770	301.403	0.063	-0.116
-507.756	150.152	0.145	-0.197
-506.741	-61.716	0.090	-0.038
-505.726	-101.751	-0.117	-0.028
-504.712	-92.580	0.062	0.017
-503.697	-50.469	0.206	-0.098
-502.683	-180.784	-0.167	-0.003
-501.668	-200.000	-0.112	0.598
-500.653	-60.225	0.122	-0.052
-499.639	61.616	0.041	0.041
-498.624	236.700	-0.220	-0.365
-497.610	-200.000	-0.056	-0.294
-496.595	183.491	0.073	-0.108
-495.581	-81.455	0.259	0.085
-494.566	146.014	0.196	0.263
-493.551	-200.000	0.009	0.199
-492.537	47.458	0.206	0.193
-491.522	369.124	0.121	-0.245
-490.508	527.436	-0.088	0.207
-489.493	642.051	-0.065	0.165
-488.478	-115.806	-0.112	0.021
-487.464	764.717	-0.051	-0.138
-486.449	553.634	-0.049	-0.118
-485.435	-200.000	-0.029	0.247
-484.420	30.023	-0.149	0.127
-483.405	26.949	0.167	0.140
-482.391	-200.000	-0.052	0.256
-481.376	-33.595	-0.111	-0.061
-480.362	262.846	-0.119	0.207
-479.347	-101.711	0.277	0.067
-478.332	449.613	-0.108	-0.238
-477.318	132.500	-0.087	-0.112
-476.303	-47.276	0.047	0.023
-475.289	800.000	0.081	0.231
-474.274	124.092	-0.091	-0.114
-473.259	15.529	-0.034	-0.027
-472.245	191.939	0.083	-0.126
-471.230	-136.794	0.324	-0.037
-470.216	-200.000	0.013	-0.061
-469.201	800.000	-0.096	0.331
-468.186	-122.645	0.567	0.092
-467.172	205.887	0.058	0.091
-466.157	464.070	-0.051	0.114
-465.143	800.000	-0.085	-0.237
-464.128	-195.648	0.143	-0.001
-463.113	344.829	-0.108	0.212
-462.099	-76.527	0.106	0.037
-461.084	-164.714	0.113	0.005
-460.070	422.914	0.097	-0.207
-459.055	-120.752	-0.129	0.022
-458.040	91.726	0.271	0.305
-457.026	22.141	-0.127	0.104
-456.011	-200.000	0.004	0.267
-454.997	-13.757	-0.023	0.015
-453.982	-25.255	-0.057	0.034
-452.968	-200.000	0.005	-0.223
-451.953	165.871	-0.167	-0.236
-450.938	800.000	0.062	0.248
-449.924	-200.000	0.056	-0.275
-448.909	-131.749	0.079	-0.010
-447.895	69.325	0.113	0.116
-446.880	800.000	0.071	0.277
-445.865	-200.000	0.023	-0.153
-444.851	-136.072	-0.387	0.045
-443.836	60.344	-0.119	-0.117
-442.822	324.425	-0.128	-0.244
-441.807	-200.000	0.161	0.000
-440.792	-200.000	-0.007	-0.090
-439.778	-82.777	-0.209	0.067
-438.763	-23.350	-0.165	0.099
-437.749	800.000	0.050	0.194
-436.734	800.000	0.090	0.307
-435.719	-34.693	-0.085	0.047
-434.705	43.451	0.171	-0.156
-433.690	574.452	0.073	0.179
-432.676	232.574	-0.054	0.088
-431.661	-200.000	0.029	0.422
-430.646	-200.000	0.006	-0.187
-429.632	800.000	0.053	0.190
-428.617	-82.077	0.196	0.064
-427.603	-13.940	0.110	0.071
-426.588	597.717	-0.069	0.170
-425.573	8.316	-0.197	-0.148
-424.559	-84.467	0.232	0.073
-423.544	138.529	0.152	-0.200
-422.530	-135.825	-0.070	0.008
-421.515	-200.000	-0.023	0.189
-420.500	800.000	0.076	0.242
-419.486	261.587	-0.112	-0.194
-418.471	705.719	0.029	-0.077
-417.457	405.977	-0.050	0.105
-416.442	-142.942	-0.219	0.021
-415.428	800.000	0.067	-0.241
-414.413	272.025	0.038	0.068
-413.398	148.571	-0.144	-0.194
-412.384	-200.000	-0.036	-0.164
-411.369	800.000	-0.029	-0.089
-410.355	-200.000	0.004	0.270
-409.340	32.514	-0.136	0.117
-408.325	432.757	0.072	0.157
-407.311	-77.335	0.369	0.128
-406.296	-61.334	0.222	0.093
-405.282	-86.775	0.252	0.077
-404.267	-200.000	0.030	0.401
-403.252	36.928	0.158	0.140
-402.238	-72.020	0.400	0.148
-401.223	108.522	0.208	-0.249
-400.209	342.702	0.034	-0.067
-399.194	-200.000	-0.032	0.170
-398.179	-200.000	-0.038	-0.258
-397.165	-2.815	0.118	-0.082
-396.150	-80.628	0.340	-0.113
-395.136	-200.000	-0.021	-0.404
-394.121	14.522	-0.116	-0.090
-393.106	-160.679	0.464	-0.025
-392.092	19.386	0.015	-0.012
-391.077	109.211	0.156	-0.186
-390.063	363.335	-0.121	0.242
-389.048	-99.838	-0.232	-0.058
-388.033	-200.000	0.018	-0.110
-387.019	46.018	0.138	-0.127
-386.004	58.680	0.115	-0.113
-384.990	80.421	-0.053	0.057
-383.975	497.490	0.153	-0.352
-382.960	-136.118	-0.298	0.035
-381.946	-173.622	0.354	0.011
-380.931	244.847	-0.134	0.225
-379.917	-200.000	-0.040	0.216
-378.902	-200.000	0.017	0.139
-377.888	-200.000	0.026	-0.153
-376.873	3.138	-0.156	-0.113
-375.858	-128.201	0.323	-0.046
-374.844	-24.092	-0.094	-0.056
-373.829	-200.000	-0.010	0.266
-372.815	-93.488	-0.269	-0.074
-371.800	-3.189	-0.291	0.203
-370.785	-105.128	0.047	0.011
-369.771	-200.000	0.051	0.263
-368.756	-150.922	-0.389	0.029
-367.742	-23.044	-0.345	0.208
-366.727	-200.000	-0.037	0.178
-365.712	-66.400	0.120	-0.048
-364.698	91.835	0.145	-0.163
-363.683	-13.288	0.140	0.091
-362.669	45.271	0.256	0.235
-361.654	-9.373	0.120	-0.080
-360.639	-28.023	-0.203	0.117
-359.625	-179.938	-0.309	0.007
-358.610	-79.729	0.125	-0.042
-357.596	391.162	-0.151	-0.313
-356.581	214.112	0.037	-0.058
-355.566	-128.674	-0.200	-0.028
-354.552	-200.000	0.015	-0.114
-353.537	-59.029	0.232	0.100
-352.523	-200.000	-0.014	-0.088
-351.508	307.238	0.083	-0.155
-350.493	-9.331	-0.224	0.149
-349.479	567.512	-0.064	0.154
-348.464	800.000	0.068	0.270
-347.450	119.608	0.293	0.361
-346.435	-17.686	-0.188	0.118
-345.420	57.048	0.018	-0.017
-344.406	-200.000	0.006	0.051
-343.391	587.054	-0.048	0.117
-342.377	-50.459	0.201	0.094
-341.362	-43.710	0.025	0.012
-340.348	-156.747	-0.164	0.010
-339.333	800.000	0.023	-0.069
-338.318	64.315	-0.232	-0.233
-337.304	228.679	0.045	-0.073
-336.289	21.704	0.159	0.129
-335.275	-47.001	-0.090	-0.044
-334.260	800.000	0.054	0.190
-333.245	-200.000	0.018	-0.110
-332.231	-200.000	-0.030	-0.279
-331.216	532.971	-0.156	0.367
-330.202	-51.814	0.313	0.145
-329.187	-200.000	0.021	-0.186
-328.172	-200.000	-0.026	-0.222
-327.158	199.965	-0.235	0.359
-326.143	-120.156	-0.219	-0.037
-325.129	-6.441	0.119	0.081
-324.114	-126.682	0.238	-0.035
-323.099	-200.000	0.035	0.247
-322.085	-64.454	-0.049	-0.020
-321.070	-57.816	-0.168	0.073
-320.056	38.386	0.126	0.111
-319.041	94.445	0.259	0.293
-318.026	-76.997	-0.240	0.083
-317.012	-75.786	0.442	-0.156
-315.997	-178.209	-0.190	0.004
-314.983	-46.272	-0.106	0.052
-313.968	44.504	-0.272	-0.249
-312.953	54.151	-0.157	-0.151
-311.939	-200.000	-0.045	0.242
-310.924	56.839	0.276	-0.267
-309.910	130.348	-0.125	0.160
-308.895	-193.631	-0.098	-0.001
-307.880	231.287	-0.130	0.211
-306.866	28.526	-0.241	-0.203
-305.851	271.544	0.141	-0.248
-304.837	-16.931	-0.351	0.221
-303.822	34.921	-0.091	0.079
-302.807	800.000	-0.047	0.169
-301.793	-200.000	-0.037	0.179
-300.778	-200.000	-0.022	-0.417
-299.764	-32.550	-0.237	0.131
-298.749	-103.401	-0.192	0.045
-297.735	-107.112	0.264	0.058
-296.720	545.857	0.015	0.037
-295.705	-20.516	0.204	-0.124
-294.691	-81.434	-0.241	0.079
-293.676	-121.679	0.402	-0.066
-292.662	-50.285	-0.095	0.045
-291.647	-200.000	0.002	-0.145
-290.632	10.023	-0.082	0.062
-289.618	800.000	-0.108	-0.362
-288.603	32.307	0.173	-0.148
-287.589	20.943	-0.212	-0.171
-286.574	-134.229	-0.235	0.029
-285.559	118.450	0.177	0.218
-284.545	150.606	-0.050	0.068
-283.530	87.094	0.297	-0.326
-282.516	-60.930	-0.187	-0.078
-281.501	114.540	-0.027	-0.032
-280.486	-200.000	-0.007	-0.068
-279.472	-133.843	-0.056	0.007
-278.457	-200.000	-0.058	-0.280
-277.443	236.283	-0.061	0.100
-276.428	13.482	0.128	0.099
-275.413	552.366	0.076	-0.183
-274.399	-200.000	0.000	0.113
-273.384	142.657	-0.176	-0.232
-272.370	-200.000	0.025	-0.115
-271.355	-200.000	0.006	0.190
-270.340	101.392	-0.101	-0.117
-269.326	487.776	-0.070	-0.159
-268.311	250.834	0.141	0.238
-267.297	219.806	0.123	0.196
-266.282	800.000	0.087	-0.283
-265.267	-3.538	0.101	0.070
-264.253	402.471	-0.109	0.227
-263.238	-200.000	-0.001	0.149
-262.224	-100.248	0.357	-0.088
-261.209	-200.000	0.010	-0.102
-260.195	-7.030	-0.165	0.111
-259.180	295.211	-0.076	-0.138
-258.165	-75.784	0.168	-0.059
-257.151	-3.156	0.216	0.149
-256.136	32.679	0.213	0.183
-255.122	-200.000	0.030	0.208
-254.107	236.853	0.082	-0.135
-253.092	-81.997	0.225	-0.073
-252.078	92.587	-0.169	-0.189
-251.063	800.000	-0.124	-0.348
-250.049	-35.842	0.248	-0.133
-249.034	-200.000	-0.022	0.460
-248.019	-24.111	-0.100	-0.059
-247.005	-117.661	0.397	0.071
-245.990	-200.000	-0.020	0.202
-244.976	298.836	-0.041	0.074
-243.961	22.917	-0.117	0.096
-242.946	-46.371	0.070	0.034
-241.932	-200.000	0.019	-0.147
-240.917	800.000	0.028	-0.093
-239.903	-48.082	0.351	0.168
-238.888	800.000	-0.110	0.361
-237.873	800.000	0.084	0.259
-236.859	101.768	0.131	0.152
-235.844	160.338	0.193	-0.267
-234.830	5.381	0.064	-0.047
-233.815	71.085	0.202	-0.208
-232.800	0.676	-0.291	-0.206
-231.786	-200.000	-0.014	-0.143
-230.771	-200.000	-0.097	0.447
-229.757	29.994	0.134	-0.113
-228.742	-99.248	-0.060	-0.015
-227.727	337.781	-0.130	0.251
-226.713	-200.000	0.031	-0.239
-225.698	-9.024	0.125	0.083
-224.684	800.000	-0.055	-0.174
-223.669	495.345	-0.219	-0.498
-222.655	-87.215	0.197	0.059
-221.640	122.308	-0.123	0.153
-220.625	11.022	0.193	0.146
-219.611	-67.005	-0.201	0.079
-218.596	21.624	-0.035	0.028
-217.582	210.623	-0.150	0.233
-216.567	800.000	-0.057	-0.176
-215.552	227.198	0.152	-0.244
-214.538	800.000	0.015	0.059
-213.523	-28.177	0.488	0.279
-212.509	107.531	0.144	0.170
-211.494	-200.000	0.007	0.037
-210.479	279.399	-0.124	0.219
-209.465	48.456	-0.184	-0.171
-208.450	81.976	0.073	-0.078
-207.436	-11.708	0.146	0.095
-206.421	-119.989	-0.072	-0.012
-205.406	-139.380	-0.090	-0.010
-204.392	800.000	-0.044	-0.129
-203.377	-121.336	-0.238	0.039
-202.363	-4.462	-0.212	-0.145
-201.348	52.467	0.173	-0.164
-200.333	-77.253	0.174	0.060
-199.319	-200.000	-0.023	-0.353
-198.304	-200.000	-0.023	0.158
-197.290	-200.000	-0.016	-0.078
-196.275	-186.826	-0.054	-0.001
-195.260	429.370	-0.128	0.275
-194.246	237.247	-0.063	-0.104
-193.231	117.170	0.075	0.092
-192.217	-103.281	-0.160	0.038
-191.202	-129.546	0.292	0.040
-190.187	-17.410	-0.351	0.219
-189.173	230.350	-0.068	-0.110
-188.158	24.070	0.156	-0.127
-187.144	800.000	0.069	0.244
-186.129	-76.750	-0.084	-0.029
-185.114	7.770	-0.196	-0.145
-184.100	69.466	-0.298	-0.304
-183.085	-21.006	-0.115	0.070
-182.071	800.000	-0.106	-0.321
-181.056	-14.949	-0.276	0.175
-180.042	-52.802	0.269	-0.123
-179.027	-70.532	-0.242	-0.091
-178.012	-48.695	-0.242	0.115
-176.998	-71.175	-0.034	0.013
-175.983	-15.419	0.135	0.085
-174.969	800.000	-0.067	-0.197
-173.954	800.000	0.083	0.250
-172.939	800.000	0.034	-0.120
-171.925	-88.234	0.140	-0.041
-170.910	9.110	-0.209	0.157
-169.896	129.154	-0.280	0.354
-168.881	227.921	-0.224	0.361
-167.866	-119.591	-0.042	0.007
-166.852	800.000	-0.094	-0.317
-165.837	-19.764	0.247	-0.151
-164.823	0.195	0.127	-0.089
-163.808	-41.119	0.230	0.117
-162.793	800.000	-0.046	0.156
-161.779	606.647	0.115	0.284
-160.764	-35.651	0.202	-0.108
-159.750	-61.596	0.058	0.024
-158.735	-200.000	0.033	-0.254
-157.720	31.031	0.124	-0.105
-156.706	-200.000	0.017	-0.180
-155.691	143.067	0.154	-0.203
-154.677	49.944	-0.071	-0.067
-153.662	86.764	0.130	0.142
-152.647	26.859	0.062	-0.051
-151.633	-200.000	-0.036	0.169
-150.618	311.600	0.115	0.213
-149.604	-13.782	-0.148	0.095
-148.589	70.619	0.173	-0.177
-147.574	-59.944	-0.144	0.061
-146.560	-3.324	0.121	-0.083
-145.545	130.763	-0.196	0.248
-144.531	-28.005	-0.299	0.171
-143.516	-200.000	0.013	0.225
-142.502	-200.000	0.031	0.368
-141.487	-115.280	-0.136	-0.025
-140.472	244.904	-0.039	-0.064
-139.458	-200.000	-0.008	0.291
-138.443	16.234	0.226	0.177
-137.429	295.788	0.308	0.558
-136.414	-41.230	-0.110	-0.056
-135.399	-72.045	0.164	-0.060
-134.385	800.000	0.080	-0.276
-133.370	800.000	-0.093	-0.400
-132.356	-144.048	0.133	0.012
-131.341	16.454	0.256	0.200
-130.326	50.974	0.216	-0.202
-129.312	22.253	-0.214	0.172
-128.297	-9.385	0.085	0.056
-127.283	-10.152	0.351	-0.230
-126.268	1.204	0.414	-0.294
-125.253	343.091	-0.083	-0.160
-124.239	646.703	0.095	-0.239
-123.224	146.107	0.145	-0.192
-122.210	800.000	0.065	0.180
-121.195	189.813	-0.059	0.088
