DTS Sentinel unit serial number:	SN413079Multiplexer serial number:	ORYXHardware model number:	OX4-SRSoftware version number:	ORYX F/W v4.00 Oryx Data Collector v3.7.2.0data status	okinstallation	princeton_trtdifferential loss correction	single-endedforward channel	channel 2reverse channel	N/Adate	2019/09/13time	01:35:35forward acquisition time	60.00reverse acquisition time	0.00gamma	496.2192k internal	0.2334k external	0.2334temperature offset calibration	1.0174default loss term (dB/km)	0.3790temperature slope calibration	1.0000multiplexer offset coefficient	1.0000multiplexer slope coefficient	1.0000fibre end	0.00T internal ref (°C)	27.77T ext. ref 1 (°C)	3.77T ext. ref 2 (°C)	22.41length (m)	temperature (°C)	Stokes	anti-Stokes-747.200	800.000	0.087	0.311
-746.185	-0.294	-0.128	0.092
-745.171	-66.314	-0.200	-0.080
-744.156	143.572	-0.178	-0.238
-743.142	72.566	0.216	0.227
-742.127	800.000	0.092	0.396
-741.112	-200.000	0.003	-0.404
-740.098	50.582	-0.210	-0.200
-739.083	53.868	0.287	0.277
-738.069	-148.761	0.194	-0.016
-737.054	-97.921	0.194	0.050
-736.039	-114.903	-0.506	-0.097
-735.025	-200.000	-0.080	0.360
-734.010	117.562	-0.200	-0.247
-732.996	-48.620	-0.109	-0.052
-731.981	-141.403	0.118	-0.012
-730.966	34.870	-0.296	0.260
-729.952	241.159	-0.048	-0.081
-728.937	-13.440	0.086	0.056
-727.923	-124.502	-0.323	0.050
-726.908	480.006	-0.051	0.115
-725.894	-128.538	-0.250	-0.036
-724.879	-115.069	-0.036	0.007
-723.864	800.000	-0.020	-0.081
-722.850	800.000	0.096	0.289
-721.835	-135.565	-0.406	0.049
-720.821	169.375	0.081	-0.116
-719.806	377.931	0.186	-0.381
-718.791	800.000	-0.071	0.234
-717.777	-129.205	0.309	0.043
-716.762	800.000	-0.034	-0.146
-715.748	152.441	-0.132	-0.182
-714.733	-200.000	-0.030	-0.165
-713.718	49.026	0.098	-0.092
-712.704	800.000	-0.067	-0.199
-711.689	-9.502	0.202	-0.135
-710.675	26.002	0.140	0.117
-709.660	147.118	0.188	-0.254
-708.645	-200.000	0.003	-0.075
-707.631	76.497	-0.221	-0.236
-706.616	-64.634	0.026	-0.011
-705.602	-120.875	0.135	-0.023
-704.587	245.416	-0.030	-0.051
-703.572	-138.638	-0.155	-0.017
-702.558	800.000	-0.039	-0.120
-701.543	480.962	-0.116	-0.263
-700.529	226.668	0.130	-0.212
-699.514	-131.771	-0.173	0.023
-698.499	-200.000	-0.069	-0.570
-697.485	224.938	-0.009	-0.014
-696.470	-139.373	0.141	0.015
-695.456	-195.646	0.100	-0.001
-694.441	-200.000	0.026	-0.118
-693.426	800.000	0.024	-0.085
-692.412	313.390	0.164	0.309
-691.397	141.573	-0.092	-0.123
-690.383	-97.587	0.148	0.038
-689.368	515.028	-0.104	-0.243
-688.354	800.000	0.063	-0.273
-687.339	-31.929	-0.199	0.112
-686.324	313.290	0.121	-0.228
-685.310	-116.316	0.216	0.040
-684.295	87.692	0.205	-0.228
-683.281	181.495	-0.076	-0.113
-682.266	121.946	0.052	0.065
-681.251	-110.129	-0.206	0.043
-680.237	-200.000	-0.015	0.122
-679.222	405.124	0.190	-0.402
-678.208	101.088	0.085	-0.099
-677.193	800.000	0.062	-0.202
-676.178	-37.947	-0.075	0.040
-675.164	-200.000	-0.030	0.249
-674.149	-200.000	0.019	-0.130
-673.135	-200.000	0.043	0.273
-672.120	-113.458	0.145	-0.029
-671.105	-8.274	-0.086	-0.058
-670.091	245.187	0.131	-0.221
-669.076	385.487	0.035	-0.072
-668.062	-104.715	-0.258	-0.060
-667.047	-129.126	-0.113	-0.016
-666.032	-79.940	-0.322	-0.108
-665.018	800.000	0.093	-0.332
-664.003	-200.000	0.007	-0.153
-662.989	-97.576	0.207	-0.054
-661.974	709.622	-0.088	0.233
-660.959	236.027	0.039	-0.064
-659.945	185.169	-0.078	-0.116
-658.930	138.156	-0.225	0.295
-657.916	4.403	0.246	-0.181
-656.901	-84.865	-0.268	0.084
-655.886	-111.702	0.357	-0.072
-654.872	-200.000	0.003	-0.251
-653.857	105.662	-0.116	-0.137
-652.843	-100.620	-0.396	-0.098
-651.828	92.679	-0.105	0.119
-650.814	12.998	-0.137	-0.106
-649.799	23.977	-0.161	0.133
-648.784	-84.340	-0.334	0.106
-647.770	-200.000	0.009	-0.202
-646.755	800.000	0.014	0.051
-645.741	189.225	-0.110	0.166
-644.726	186.172	-0.050	0.075
-643.711	121.957	0.157	0.196
-642.697	234.324	0.043	0.071
-641.682	-12.881	-0.281	0.183
-640.668	-57.242	0.232	-0.102
-639.653	800.000	-0.041	-0.127
-638.638	-98.593	-0.352	0.090
-637.624	-91.062	-0.328	0.094
-636.609	800.000	0.116	-0.343
-635.595	0.828	-0.273	-0.196
-634.580	-200.000	-0.004	-0.125
-633.565	-103.156	-0.165	-0.039
-632.551	-21.756	0.171	-0.104
-631.536	-151.453	0.129	0.010
-630.522	-162.432	-0.433	-0.021
-629.507	297.562	-0.279	0.513
-628.492	-200.000	0.009	0.118
-627.478	39.605	-0.076	-0.068
-626.463	87.425	-0.127	-0.140
-625.449	-108.850	-0.208	0.045
-624.434	479.039	-0.100	0.226
-623.419	123.359	-0.120	-0.150
-622.405	21.053	-0.130	0.106
-621.390	118.927	-0.130	0.160
-620.376	-200.000	0.004	-0.061
-619.361	205.495	-0.187	-0.291
-618.346	-200.000	-0.047	-0.231
-617.332	800.000	-0.057	-0.196
-616.317	26.055	-0.147	0.123
-615.303	100.824	0.086	0.100
-614.288	-49.912	0.121	0.057
-613.273	-200.000	0.049	-0.226
-612.259	-77.976	-0.240	-0.083
-611.244	37.765	0.104	0.092
-610.230	-68.716	0.129	-0.050
-609.215	-200.000	0.003	-0.058
-608.201	-119.130	-0.080	0.014
-607.186	-79.067	0.203	-0.069
-606.171	31.267	0.238	-0.204
-605.157	255.655	-0.113	-0.193
-604.142	339.390	-0.147	-0.286
-603.128	104.230	0.123	0.145
-602.113	119.771	-0.177	-0.220
-601.098	800.000	0.076	-0.233
-600.084	800.000	-0.019	0.070
-599.069	-78.668	0.204	0.070
-598.055	-43.492	0.042	0.021
-597.040	42.276	-0.070	0.064
-596.025	232.084	0.101	-0.166
-595.011	264.037	-0.025	0.043
-593.996	112.663	0.195	0.236
-592.982	-200.000	-0.059	0.333
-591.967	-131.286	-0.490	0.065
-590.952	123.306	0.012	-0.015
-589.938	-136.402	0.096	-0.011
-588.923	-200.000	-0.007	-0.073
-587.909	36.367	-0.041	-0.036
-586.894	-14.647	0.113	0.073
-585.879	9.932	-0.291	0.220
-584.865	-117.285	-0.123	0.022
-583.850	-100.650	0.151	0.037
-582.836	216.412	-0.039	-0.061
-581.821	204.982	0.158	-0.245
-580.806	144.896	0.108	0.144
-579.792	-2.791	0.098	0.068
-578.777	311.798	-0.125	0.234
-577.763	160.773	-0.090	0.126
-576.748	208.627	0.120	0.188
-575.733	330.965	-0.084	0.162
-574.719	800.000	0.030	-0.091
-573.704	800.000	-0.086	-0.244
-572.690	800.000	0.080	-0.231
-571.675	800.000	0.049	-0.168
-570.661	73.844	0.188	-0.197
-569.646	-78.986	-0.096	-0.033
-568.631	433.255	0.277	0.600
-567.617	800.000	-0.105	-0.363
-566.602	-42.004	0.093	0.048
-565.588	-38.841	-0.172	0.091
-564.573	-100.715	-0.197	0.048
-563.558	3.712	-0.269	0.196
-562.544	59.107	0.137	0.135
-561.529	-124.736	0.592	0.091
-560.515	213.748	-0.132	-0.208
-559.500	-3.062	-0.124	0.086
-558.485	-162.109	0.238	-0.012
-557.471	-200.000	0.000	0.105
-556.456	203.189	-0.139	-0.215
-555.442	-65.210	0.193	0.077
-554.427	-200.000	-0.023	0.166
-553.412	22.593	0.038	0.031
-552.398	800.000	0.054	0.150
-551.383	44.289	-0.096	-0.088
-550.369	51.891	-0.217	-0.206
-549.354	-67.825	0.205	0.080
-548.339	2.473	-0.144	0.104
-547.325	118.079	-0.129	-0.159
-546.310	142.511	-0.119	0.158
-545.296	-94.091	0.218	-0.060
-544.281	-47.852	0.074	-0.036
-543.266	122.382	-0.129	0.161
-542.252	301.964	0.133	-0.244
-541.237	-186.040	0.151	-0.002
-540.223	57.394	-0.183	0.178
-539.208	-200.000	-0.021	-0.112
-538.193	-32.135	-0.076	0.042
-537.179	-200.000	-0.018	-0.150
-536.164	-188.336	-0.147	-0.002
-535.150	-94.602	0.330	0.089
-534.135	7.649	-0.096	-0.072
-533.121	-200.000	-0.020	-0.164
-532.106	52.188	0.139	-0.132
-531.091	-66.602	-0.216	0.085
-530.077	-200.000	0.023	0.254
-529.062	106.160	-0.227	-0.268
-528.048	-200.000	0.002	0.158
-527.033	-200.000	-0.042	-0.205
-526.018	-158.195	-0.139	-0.008
-525.004	-200.000	-0.033	-0.183
-523.989	800.000	-0.011	0.041
-522.975	-198.597	-0.187	0.001
-521.960	-200.000	0.033	-0.192
-520.945	148.378	0.095	0.128
-519.931	-71.360	0.259	-0.097
-518.916	296.576	-0.071	0.130
-517.902	75.477	-0.349	0.367
-516.887	131.288	-0.090	-0.115
-515.872	51.060	-0.251	-0.237
-514.858	707.820	0.029	-0.077
-513.843	-113.615	-0.019	-0.004
-512.829	800.000	0.058	-0.244
-511.814	-106.814	-0.161	0.036
-510.799	172.904	0.238	0.341
-509.785	77.797	0.086	0.091
-508.770	727.910	0.115	-0.305
-507.756	-200.000	0.016	0.208
-506.741	87.784	-0.080	0.088
-505.726	-80.709	0.369	-0.122
-504.712	-97.165	0.339	0.088
-503.697	-138.777	-0.338	-0.037
-502.683	-46.278	0.203	0.099
-501.668	634.274	-0.125	-0.316
-500.653	-200.000	0.002	0.291
-499.639	-200.000	0.064	-0.433
-498.624	212.987	-0.069	-0.108
-497.610	-200.000	-0.029	0.432
-496.595	214.851	0.144	-0.227
-495.581	800.000	0.071	-0.197
-494.566	-72.959	0.161	0.059
-493.551	-45.184	0.179	0.089
-492.537	-146.595	0.153	0.013
-491.522	800.000	0.098	0.289
-490.508	521.660	0.031	0.073
-489.493	8.221	-0.178	0.133
-488.478	10.441	-0.070	0.053
-487.464	-54.050	0.054	-0.024
-486.449	0.912	-0.089	-0.064
-485.435	10.981	0.268	-0.204
-484.420	38.157	-0.056	-0.050
-483.405	-176.424	0.181	0.005
-482.391	575.323	0.060	-0.147
-481.376	-200.000	0.014	0.127
-480.362	62.143	-0.088	-0.087
-479.347	-83.259	-0.263	-0.084
-478.332	44.206	-0.199	0.182
-477.318	149.800	0.162	-0.218
-476.303	12.975	0.221	0.170
-475.289	-42.517	-0.270	-0.137
-474.274	389.151	0.091	-0.187
-473.259	117.821	0.031	-0.038
-472.245	-33.770	0.105	-0.058
-471.230	-105.666	0.297	-0.067
-470.216	80.905	-0.198	-0.213
-469.201	-109.394	-0.143	0.030
-468.186	800.000	-0.117	0.347
-467.172	-82.407	0.051	0.016
-466.157	-53.561	0.318	0.145
-465.143	320.015	0.092	-0.173
-464.128	800.000	-0.067	0.196
-463.113	-140.404	0.112	-0.012
-462.099	137.936	-0.126	-0.164
-461.084	-46.824	0.248	0.121
-460.070	-115.842	0.205	0.038
-459.055	800.000	0.053	-0.227
-458.040	21.224	-0.099	-0.080
-457.026	147.020	-0.036	-0.049
-456.011	334.299	0.059	0.113
-454.997	-200.000	0.089	0.414
-453.982	-80.836	-0.268	-0.088
-452.968	-200.000	0.005	0.038
-451.953	-64.137	-0.451	-0.183
-450.938	-43.548	0.338	-0.169
-449.924	-115.325	-0.118	-0.022
-448.909	-70.817	0.176	-0.066
-447.895	-108.188	-0.379	0.082
-446.880	707.187	-0.029	-0.077
-445.865	-105.010	0.102	-0.023
-444.851	529.297	0.090	-0.212
-443.836	-43.714	-0.087	0.044
-442.822	800.000	0.017	-0.057
-441.807	-123.314	-0.043	0.007
-440.792	-96.364	0.335	0.088
-439.778	-26.017	-0.129	-0.075
-438.763	59.122	-0.201	-0.196
-437.749	480.134	-0.074	0.167
-436.734	16.861	0.295	0.232
-435.719	449.323	-0.089	-0.195
-434.705	-71.260	0.302	0.112
-433.690	30.998	-0.044	-0.038
-432.676	-99.030	-0.347	-0.087
-431.661	-200.000	0.006	-0.071
-430.646	-8.398	-0.076	-0.051
-429.632	-149.059	0.234	0.019
-428.617	-116.139	0.158	-0.029
-427.603	84.576	-0.098	-0.107
-426.588	-29.808	-0.223	-0.126
-425.573	-82.126	0.137	0.044
-424.559	-200.000	-0.001	0.071
-423.544	-114.583	0.128	-0.024
-422.530	-200.000	-0.068	0.364
-421.515	18.950	-0.126	-0.100
-420.500	-106.607	0.180	0.040
-419.486	800.000	-0.040	0.121
-418.471	123.907	-0.241	0.300
-417.457	-200.000	0.019	0.204
-416.442	605.224	-0.057	-0.140
-415.428	800.000	0.070	-0.294
-414.413	-200.000	-0.008	0.048
-413.398	-200.000	-0.037	-0.248
-412.384	330.729	-0.043	0.081
-411.369	102.467	0.061	0.070
-410.355	98.875	-0.060	0.068
-409.340	800.000	0.034	0.145
-408.325	-75.024	-0.090	0.032
-407.311	681.578	0.063	0.164
-406.296	-12.292	0.158	0.102
-405.282	-63.066	0.253	-0.104
-404.267	60.727	0.225	-0.222
-403.252	-84.866	-0.345	0.108
-402.238	-200.000	-0.025	0.197
-401.223	-200.000	0.040	0.691
-400.209	-200.000	-0.023	-0.238
-399.194	82.550	0.047	0.051
-398.179	100.930	0.138	0.159
-397.165	800.000	-0.029	-0.098
-396.150	-35.228	0.144	-0.077
-395.136	63.551	-0.165	0.164
-394.121	800.000	0.071	0.294
-393.106	4.002	0.174	0.126
-392.092	115.635	0.165	-0.200
-391.077	-53.359	-0.345	0.157
-390.063	-94.629	-0.207	0.056
-389.048	342.563	0.092	-0.179
-388.033	-62.804	0.239	-0.098
-387.019	800.000	0.041	0.132
-386.004	-131.616	0.089	-0.012
-384.990	800.000	-0.068	0.249
-383.975	619.744	0.160	0.400
-382.960	104.535	0.132	0.154
-381.946	-200.000	-0.020	-0.144
-380.931	0.304	0.049	0.035
-379.917	60.560	-0.076	0.074
-378.902	-59.156	0.306	-0.131
-377.888	-96.003	-0.049	-0.013
-376.873	-87.877	0.222	-0.066
-375.858	-34.822	-0.169	0.092
-374.844	170.916	0.161	-0.229
-373.829	-9.780	0.286	0.189
-372.815	-182.056	-0.231	0.004
-371.800	159.768	0.116	0.160
-370.785	-54.685	-0.080	-0.036
-369.771	-70.647	0.156	-0.058
-368.756	120.548	0.201	0.247
-367.742	69.768	0.166	0.169
-366.727	-200.000	0.023	-0.180
-365.712	-59.008	-0.216	-0.092
-364.698	65.862	0.162	-0.163
-363.683	28.948	-0.211	-0.177
-362.669	-142.632	-0.177	-0.017
-361.654	-200.000	0.033	0.180
-360.639	800.000	-0.077	-0.224
-359.625	-200.000	0.048	0.211
-358.610	-9.219	-0.184	0.122
-357.596	-200.000	-0.001	-0.038
-356.581	13.956	-0.160	0.124
-355.566	170.724	-0.214	0.303
-354.552	35.465	0.239	0.208
-353.537	3.583	0.131	-0.095
-352.523	-15.853	0.207	-0.130
-351.508	-81.152	0.084	0.028
-350.493	197.507	-0.138	0.209
-349.479	5.595	0.087	0.064
-348.464	408.343	0.112	0.235
-347.450	-150.188	-0.280	-0.021
-346.435	131.106	-0.237	0.301
-345.420	-56.805	-0.094	-0.041
-344.406	800.000	0.072	-0.228
-343.391	6.054	0.267	-0.196
-342.377	79.476	0.175	0.186
-341.362	275.219	-0.076	-0.133
-340.348	-15.802	0.150	-0.095
-339.333	800.000	0.088	-0.330
-338.318	-12.271	0.333	-0.215
-337.304	-163.074	0.327	-0.016
-336.289	-100.961	-0.244	-0.059
-335.275	380.264	0.139	-0.282
-334.260	-200.000	0.046	-0.249
-333.245	-7.523	-0.202	-0.135
-332.231	-94.975	0.180	-0.048
-331.216	253.077	0.118	0.198
-330.202	137.379	0.010	0.013
-329.187	250.193	0.134	0.225
-328.172	-200.000	-0.019	0.292
-327.158	-200.000	0.015	0.246
-326.143	603.805	-0.069	-0.169
-325.129	112.661	-0.280	0.335
-324.114	-13.521	0.324	0.207
-323.099	-132.184	-0.393	0.050
-322.085	275.064	0.092	0.162
-321.070	-72.218	0.451	-0.165
-320.056	105.585	0.114	-0.133
-319.041	-22.055	0.117	-0.071
-318.026	-109.137	0.296	0.062
-317.012	34.255	0.277	-0.239
-315.997	-164.662	-0.329	0.015
-314.983	-200.000	-0.049	-0.285
-313.968	-146.495	0.176	-0.015
-312.953	-161.436	-0.336	-0.017
-311.939	236.786	-0.158	-0.259
-310.924	45.548	-0.199	-0.182
-309.910	-200.000	0.003	0.138
-308.895	-200.000	0.018	0.311
-307.880	10.769	-0.072	0.054
-306.866	-186.688	0.155	0.002
-305.851	-200.000	-0.028	0.234
-304.837	-65.520	0.095	0.038
-303.822	-200.000	-0.052	-0.276
-302.807	-128.677	0.234	-0.033
-301.793	24.915	0.120	-0.098
-300.778	-87.166	-0.130	-0.039
-299.764	-67.542	-0.201	-0.078
-298.749	57.303	-0.159	0.153
-297.735	126.396	-0.024	0.030
-296.720	-200.000	0.001	-0.110
-295.705	706.170	-0.067	-0.174
-294.691	78.627	-0.086	-0.091
-293.676	-181.792	0.320	-0.006
-292.662	512.188	-0.078	-0.180
-291.647	-77.608	-0.024	-0.008
-290.632	-200.000	0.431	-0.001
-289.618	-200.000	0.044	0.234
-288.603	-154.472	-0.445	0.029
-287.589	750.803	-0.102	-0.270
-286.574	800.000	0.057	-0.186
-285.559	-143.830	-0.089	0.008
-284.545	-200.000	-0.213	-0.001
-283.530	-200.000	0.011	0.128
-282.516	800.000	0.080	-0.273
-281.501	363.158	-0.147	0.292
-280.486	0.911	0.150	-0.106
-279.472	-200.000	0.008	0.228
-278.457	-20.879	0.098	-0.059
-277.443	-200.000	0.053	-0.238
-276.428	238.189	0.126	0.207
-275.413	27.181	-0.161	-0.134
-274.399	-150.961	-0.077	0.006
-273.384	-200.000	-0.001	-0.050
-272.370	-45.010	-0.269	-0.132
-271.355	800.000	0.205	-0.583
-270.340	-62.905	0.148	0.060
-269.326	-88.543	0.158	-0.047
-268.311	-31.045	0.057	-0.032
-267.297	143.740	0.044	-0.057
-266.282	527.183	-0.070	-0.162
-265.267	473.129	0.175	-0.390
-264.253	474.615	0.034	0.077
-263.238	-73.660	0.062	0.022
-262.224	-200.000	0.007	-0.067
-261.209	470.737	0.111	-0.247
-260.195	-66.077	-0.194	-0.076
-259.180	100.235	-0.096	-0.110
-258.165	-152.436	-0.206	-0.015
-257.151	-200.000	0.000	-0.043
-256.136	800.000	0.077	-0.246
-255.122	-114.401	-0.377	0.071
-254.107	-101.317	0.199	-0.048
-253.092	79.914	-0.247	-0.262
-252.078	-200.000	0.007	0.145
-251.063	109.249	0.145	0.171
-250.049	25.202	0.216	0.177
-249.034	35.950	-0.100	0.087
-248.019	540.611	-0.041	-0.096
-247.005	86.089	0.104	0.112
-245.990	-200.000	-0.023	-0.156
-244.976	-74.509	0.239	0.085
-243.961	-200.000	0.001	-0.251
-242.946	-108.169	0.147	-0.031
-241.932	127.851	0.187	-0.235
-240.917	286.571	0.131	-0.232
-239.903	-110.671	-0.375	-0.076
-238.888	51.659	-0.145	0.136
-237.873	62.832	-0.100	-0.099
-236.859	484.542	0.034	0.077
-235.844	800.000	-0.065	0.188
-234.830	800.000	0.055	0.201
-233.815	16.020	-0.318	-0.247
-232.800	10.291	-0.116	0.087
-231.786	151.732	0.034	0.046
-230.771	-20.129	0.242	0.147
-229.757	-134.013	-0.060	0.007
-228.742	-74.107	-0.183	0.065
-227.727	342.650	0.057	-0.110
-226.713	69.435	0.131	-0.133
-225.698	17.920	-0.117	-0.092
-224.684	800.000	-0.027	0.077
-223.669	-200.000	0.015	0.290
-222.655	800.000	0.030	-0.106
-221.640	433.731	-0.129	-0.276
-220.625	33.188	0.197	0.168
-219.611	-135.027	-0.440	0.052
-218.596	-200.000	0.022	0.334
-217.582	-200.000	0.047	0.320
-216.567	-126.730	-0.485	0.071
-215.552	-88.768	0.449	0.131
-214.538	-200.000	0.017	0.152
-213.523	722.372	0.003	0.008
-212.509	-200.000	0.016	-0.149
-211.494	163.795	0.151	0.209
-210.479	-200.000	0.022	-0.318
-209.465	117.741	-0.238	-0.289
-208.450	800.000	0.055	0.155
-207.436	-200.000	0.006	-0.167
-206.421	29.092	-0.319	0.266
-205.406	800.000	0.022	-0.069
-204.392	-151.259	0.199	-0.015
-203.377	-200.000	-0.020	0.225
-202.363	-95.444	0.175	-0.046
-201.348	-70.700	0.420	-0.156
-200.333	-112.409	-0.229	0.045
-199.319	71.138	0.180	-0.183
-198.304	13.972	0.144	0.110
-197.290	409.799	-0.192	0.400
-196.275	701.314	0.122	0.317
-195.260	-200.000	0.040	-0.295
-194.246	-119.335	0.159	0.027
-193.231	-99.507	0.215	0.053
-192.217	-157.462	-0.213	-0.013
-191.202	424.761	-0.041	0.088
-190.187	-200.000	-0.010	0.066
-189.173	173.230	0.121	0.172
-188.158	221.040	-0.044	0.069
-187.144	771.731	0.085	0.228
-186.129	263.011	-0.142	0.242
-185.114	44.347	-0.097	0.087
-184.100	103.734	-0.149	-0.172
-183.085	-98.401	-0.367	0.092
-182.071	-200.000	0.018	0.165
-181.056	92.551	0.121	-0.135
-180.042	800.000	0.065	-0.224
-179.027	-200.000	0.013	-0.073
-178.012	33.519	0.076	-0.065
-176.998	432.121	0.078	-0.167
-175.983	84.246	-0.047	-0.050
-174.969	-24.494	-0.252	-0.148
-173.954	-159.328	0.250	-0.014
-172.939	178.134	-0.081	-0.116
-171.925	-44.047	0.494	-0.244
-170.910	-101.186	-0.316	0.076
-169.896	-200.000	0.024	-0.179
-168.881	-200.000	-0.013	-0.231
-167.866	270.185	0.231	0.399
-166.852	-30.166	-0.047	0.026
-165.837	197.265	-0.076	-0.113
-164.823	-174.925	-0.024	0.001
-163.808	-74.222	0.059	-0.021
-162.793	800.000	-0.052	0.155
-161.779	-200.000	-0.011	-0.064
-160.764	280.866	0.089	0.157
-159.750	-116.130	-0.160	-0.029
-158.735	-200.000	0.009	-0.162
-157.720	-1.286	-0.084	-0.058
-156.706	-200.000	0.023	-0.100
-155.691	211.051	-0.148	0.228
-154.677	728.640	-0.156	0.410
-153.662	-200.000	-0.009	0.081
-152.647	-157.941	0.137	0.008
-151.633	-187.074	-0.320	0.004
-150.618	220.922	-0.129	-0.203
-149.604	339.692	0.028	0.053
-148.589	-200.000	-0.022	-0.151
-147.574	246.961	-0.032	0.053
-146.560	-65.385	-0.286	0.113
-145.545	12.624	-0.160	0.121
-144.531	-15.291	0.187	0.118
-143.516	-44.129	-0.120	-0.059
-142.502	567.161	-0.068	-0.162
-141.487	-66.536	0.176	0.068
-140.472	-56.442	0.183	0.080
-139.458	-55.350	-0.343	0.151
-138.443	-92.223	0.058	-0.016
-137.429	-121.315	0.264	0.043
-136.414	59.913	0.066	0.064
-135.399	264.940	-0.123	-0.211
-134.385	800.000	0.092	-0.273
-133.370	-200.000	-0.053	-0.253
-132.356	-160.655	0.266	0.014
-131.341	640.898	0.025	0.063
-130.326	-25.151	-0.308	0.179
-129.312	70.168	0.085	0.086
-128.297	590.296	-0.079	0.190
-127.283	-73.204	0.245	-0.088
-126.268	-200.000	0.017	-0.107
-125.253	-147.912	0.147	-0.012
-124.239	-149.076	0.249	0.020
-123.224	-167.893	0.274	0.011
-122.210	800.000	-0.037	-0.122
-121.195	177.258	0.152	-0.217
