DTS Sentinel unit serial number:	SN413079Multiplexer serial number:	ORYXHardware model number:	OX4-SRSoftware version number:	ORYX F/W v4.00 Oryx Data Collector v3.7.2.0data status	okinstallation	princeton_trtdifferential loss correction	single-endedforward channel	channel 2reverse channel	N/Adate	2019/09/17time	05:59:35forward acquisition time	60.00reverse acquisition time	0.00gamma	496.2192k internal	0.2331k external	0.2331temperature offset calibration	0.9976default loss term (dB/km)	0.3790temperature slope calibration	1.0000multiplexer offset coefficient	1.0000multiplexer slope coefficient	1.0000fibre end	0.00T internal ref (°C)	28.81T ext. ref 1 (°C)	0.13T ext. ref 2 (°C)	22.38length (m)	temperature (°C)	Stokes	anti-Stokes-747.200	-200.000	-0.015	0.101
-746.185	-33.135	-0.240	0.134
-745.171	163.445	0.162	-0.229
-744.156	-38.764	-0.172	0.091
-743.142	-137.954	0.563	0.063
-742.127	-142.457	-0.332	0.033
-741.112	251.310	0.079	-0.136
-740.098	33.388	-0.174	0.152
-739.083	91.734	0.084	0.095
-738.069	89.388	0.126	0.141
-737.054	2.450	0.059	-0.043
-736.039	-96.479	-0.443	-0.118
-735.025	-200.000	-0.050	0.253
-734.010	-68.020	-0.240	-0.094
-732.996	50.758	-0.036	-0.034
-731.981	-112.033	0.265	-0.054
-730.966	127.356	-0.221	-0.282
-729.952	70.792	-0.163	-0.170
-728.937	10.562	0.232	-0.178
-727.923	-168.579	-0.378	-0.014
-726.908	-107.247	-0.364	0.081
-725.894	-200.000	-0.005	-0.256
-724.879	-81.456	0.264	-0.087
-723.864	-12.767	-0.206	0.135
-722.850	27.568	0.102	-0.086
-721.835	93.892	-0.189	0.215
-720.821	-200.000	0.012	0.104
-719.806	-200.000	0.017	0.343
-718.791	-200.000	-0.057	-0.426
-717.777	-169.455	0.317	-0.012
-716.762	-52.104	-0.349	-0.163
-715.748	48.897	-0.365	0.345
-714.733	-200.000	0.127	0.000
-713.718	-200.000	-0.009	0.244
-712.704	-187.271	-0.265	0.004
-711.689	-200.000	-0.018	0.147
-710.675	-25.225	-0.237	0.141
-709.660	10.947	-0.198	-0.152
-708.645	-150.647	-0.260	-0.020
-707.631	-67.069	0.316	0.125
-706.616	103.279	-0.058	0.069
-705.602	181.758	0.103	-0.152
-704.587	-200.000	0.016	0.189
-703.572	800.000	-0.055	0.202
-702.558	-115.180	-0.327	0.062
-701.543	-30.540	0.138	0.079
-700.529	-25.048	-0.211	-0.126
-699.514	445.936	-0.037	-0.081
-698.499	22.072	-0.026	-0.021
-697.485	45.618	-0.140	0.130
-696.470	-51.336	0.320	0.150
-695.456	-112.926	-0.149	0.030
-694.441	-52.031	0.154	0.072
-693.426	89.011	0.153	-0.171
-692.412	269.531	0.055	-0.097
-691.397	25.592	-0.223	-0.186
-690.383	125.260	-0.082	-0.103
-689.368	-60.148	0.188	-0.080
-688.354	-58.016	0.251	-0.110
-687.339	310.597	-0.105	0.198
-686.324	709.520	-0.023	-0.061
-685.310	79.923	0.102	0.110
-684.295	-200.000	0.019	-0.103
-683.281	-200.000	0.004	0.073
-682.266	361.519	0.041	-0.083
-681.251	330.451	0.082	0.158
-680.237	78.075	-0.174	0.186
-679.222	-68.243	0.080	-0.031
-678.208	-76.949	-0.185	-0.065
-677.193	3.378	-0.291	0.213
-676.178	251.634	-0.052	0.088
-675.164	-68.557	0.298	0.116
-674.149	-200.000	-0.025	-0.158
-673.135	-63.021	0.161	0.067
-672.120	800.000	0.098	0.344
-671.105	-149.399	-0.165	-0.013
-670.091	74.321	0.152	-0.160
-669.076	-97.044	0.166	-0.044
-668.062	506.224	0.057	-0.132
-667.047	-175.862	0.070	-0.002
-666.032	-26.617	0.190	0.112
-665.018	-200.000	-0.044	0.333
-664.003	-121.654	0.107	-0.018
-662.989	-200.000	-0.022	0.180
-661.974	-200.000	0.009	0.138
-660.959	-94.982	0.311	-0.084
-659.945	-68.216	-0.150	-0.059
-658.930	800.000	-0.044	0.156
-657.916	1.197	0.150	0.108
-656.901	40.640	-0.042	-0.038
-655.886	34.623	0.184	-0.161
-654.872	-4.327	-0.176	0.122
-653.857	-53.540	-0.132	0.061
-652.843	188.382	-0.109	0.163
-651.828	67.327	-0.343	-0.351
-650.814	-200.000	-0.032	0.181
-649.799	-6.658	-0.158	0.108
-648.784	-200.000	-0.003	0.231
-647.770	-34.721	-0.013	0.007
-646.755	-18.907	-0.182	0.114
-645.741	300.556	-0.126	0.233
-644.726	-81.448	0.165	-0.055
-643.711	-125.048	-0.141	0.022
-642.697	-47.845	-0.178	-0.086
-641.682	612.106	0.035	0.088
-640.668	186.299	-0.129	0.192
-639.653	424.795	-0.136	0.293
-638.638	-15.603	-0.175	-0.112
-637.624	-200.000	-0.011	-0.268
-636.609	-2.073	0.252	-0.178
-635.595	-200.000	0.055	-0.267
-634.580	-47.589	-0.296	0.144
-633.565	-37.673	0.288	-0.154
-632.551	-62.816	-0.134	0.056
-631.536	800.000	-0.083	-0.246
-630.522	-200.000	-0.090	-0.585
-629.507	14.612	0.135	-0.106
-628.492	-24.337	0.162	0.097
-627.478	-57.985	-0.522	-0.228
-626.463	-66.799	-0.218	-0.086
-625.449	625.686	0.111	-0.281
-624.434	-11.546	0.203	-0.133
-623.419	-51.952	0.220	-0.103
-622.405	37.981	-0.177	-0.158
-621.390	-200.000	-0.020	0.104
-620.376	696.520	-0.060	0.158
-619.361	128.659	0.251	-0.321
-618.346	-200.000	-0.008	-0.181
-617.332	-101.490	0.098	0.024
-616.317	800.000	0.073	0.230
-615.303	142.830	-0.158	-0.211
-614.288	11.911	0.097	0.075
-613.273	-28.988	0.100	-0.058
-612.259	-100.134	0.038	0.010
-611.244	800.000	-0.066	-0.234
-610.230	-130.333	0.244	-0.033
-609.215	-118.084	0.441	0.079
-608.201	-104.434	-0.036	0.008
-607.186	-200.000	-0.020	-0.108
-606.171	124.529	0.230	0.290
-605.157	9.105	0.111	0.084
-604.142	244.627	-0.098	-0.165
-603.128	491.668	-0.086	-0.197
-602.113	311.169	-0.139	-0.261
-601.098	-30.756	0.169	0.096
-600.084	25.964	-0.088	-0.074
-599.069	-113.678	0.077	0.015
-598.055	135.867	-0.151	-0.197
-597.040	38.795	0.144	0.129
-596.025	671.273	-0.078	-0.203
-595.011	8.344	-0.109	-0.082
-593.996	-138.486	0.066	0.007
-592.982	800.000	-0.048	-0.137
-591.967	-5.477	-0.195	-0.134
-590.952	230.893	-0.152	0.249
-589.938	63.408	-0.095	0.095
-588.923	-17.148	0.115	-0.073
-587.909	-3.663	0.149	0.103
-586.894	-148.958	-0.189	-0.015
-585.879	-14.414	-0.188	0.121
-584.865	-65.473	0.148	-0.059
-583.850	-24.386	-0.140	-0.084
-582.836	-36.904	-0.105	0.056
-581.821	-150.010	-0.173	-0.013
-580.806	800.000	-0.007	-0.023
-579.792	-116.794	-0.105	0.019
-578.777	129.287	-0.057	0.073
-577.763	-139.106	-0.159	-0.017
-576.748	-200.000	-0.018	0.139
-575.733	-9.436	0.136	-0.091
-574.719	-90.727	0.398	-0.115
-573.704	-84.422	-0.160	0.051
-572.690	210.369	-0.101	-0.159
-571.675	263.115	-0.088	0.153
-570.661	-179.650	-0.100	-0.002
-569.646	-108.383	-0.089	-0.019
-568.631	-134.820	-0.200	-0.024
-567.617	-36.991	0.194	0.104
-566.602	-110.179	-0.160	0.033
-565.588	-117.005	0.191	-0.035
-564.573	-128.963	0.141	0.020
-563.558	20.131	-0.312	-0.252
-562.544	-34.151	-0.227	-0.125
-561.529	-103.734	-0.298	-0.070
-560.515	485.201	0.036	0.082
-559.500	-200.000	0.026	0.214
-558.485	-45.816	-0.177	0.087
-557.471	-35.347	-0.254	0.138
-556.456	32.310	-0.174	0.150
-555.442	275.690	-0.183	-0.324
-554.427	277.354	-0.128	0.227
-553.412	-141.754	0.176	-0.018
-552.398	-164.891	-0.098	-0.004
-551.383	49.585	0.024	0.023
-550.369	11.684	-0.191	-0.146
-549.354	-27.088	0.299	-0.174
-548.339	250.091	-0.034	-0.058
-547.325	800.000	0.042	0.163
-546.310	800.000	0.039	-0.142
-545.296	-200.000	-0.031	0.241
-544.281	-57.421	0.262	-0.115
-543.266	-197.647	-0.259	-0.002
-542.252	-171.574	0.087	0.003
-541.237	800.000	0.016	-0.045
-540.223	276.656	0.077	0.136
-539.208	-119.182	0.298	-0.052
-538.193	-12.942	0.243	-0.158
-537.179	-141.086	-0.056	0.006
-536.164	756.708	-0.106	0.287
-535.150	-124.503	0.189	0.029
-534.135	-200.000	-0.019	0.145
-533.121	-200.000	0.081	0.392
-532.106	40.003	0.085	-0.076
-531.091	-200.000	-0.053	-0.330
-530.077	-134.499	-0.190	0.023
-529.062	-29.924	0.402	-0.228
-528.048	-29.250	-0.156	-0.089
-527.033	-84.243	0.210	-0.067
-526.018	-155.677	-0.230	0.015
-525.004	-6.275	0.390	-0.266
-523.989	-111.412	0.103	0.021
-522.975	-28.881	-0.180	0.103
-521.960	-43.954	0.294	0.147
-520.945	800.000	-0.056	0.184
-519.931	-55.541	0.077	0.035
-518.916	389.615	-0.061	-0.125
-517.902	121.406	0.169	-0.210
-516.887	-47.192	-0.214	-0.104
-515.872	8.900	-0.122	0.092
-514.858	43.741	-0.128	0.116
-513.843	-200.000	-0.008	-0.212
-512.829	-94.332	0.346	0.094
-511.814	-200.000	-0.043	-0.297
-510.799	-142.151	-0.099	0.010
-509.785	800.000	0.049	0.206
-508.770	-67.488	-0.123	-0.048
-507.756	75.650	0.093	0.097
-506.741	-40.791	0.274	0.142
-505.726	-200.000	0.007	-0.063
-504.712	-106.663	-0.111	-0.025
-503.697	152.961	0.056	-0.076
-502.683	342.635	-0.136	-0.266
-501.668	-13.906	-0.170	0.109
-500.653	167.496	0.010	-0.014
-499.639	85.808	-0.178	-0.195
-498.624	-6.102	0.146	-0.100
-497.610	-97.499	0.341	0.088
-496.595	111.136	0.135	0.163
-495.581	33.951	-0.188	0.163
-494.566	-143.457	0.086	0.008
-493.551	49.921	0.088	0.083
-492.537	800.000	-0.065	0.183
-491.522	-100.075	0.191	0.048
-490.508	228.068	-0.121	-0.197
-489.493	142.006	0.137	0.181
-488.478	800.000	-0.129	-0.556
-487.464	-32.604	0.153	-0.085
-486.449	-61.001	0.262	0.110
-485.435	-142.922	0.113	-0.011
-484.420	-76.843	-0.221	-0.077
-483.405	207.447	-0.186	-0.290
-482.391	800.000	0.045	-0.152
-481.376	40.753	-0.079	-0.071
-480.362	-200.000	-0.051	-0.258
-479.347	227.554	-0.303	0.491
-478.332	177.484	-0.060	-0.088
-477.318	-200.000	0.008	0.089
-476.303	48.426	0.278	-0.260
-475.289	201.445	-0.076	0.116
-474.274	198.564	-0.100	0.152
-473.259	-200.000	0.000	-0.087
-472.245	-77.213	-0.259	-0.090
-471.230	129.898	0.058	-0.074
-470.216	-24.504	0.134	0.080
-469.201	286.912	-0.161	-0.290
-468.186	-141.784	0.089	-0.009
-467.172	-18.464	0.098	0.061
-466.157	-29.832	-0.028	0.016
-465.143	-30.083	0.158	-0.089
-464.128	766.114	-0.067	-0.182
-463.113	784.001	-0.085	0.233
-462.099	52.610	0.079	-0.075
-461.084	-200.000	0.037	-0.476
-460.070	-110.812	0.278	0.057
-459.055	-152.390	0.171	-0.012
-458.040	-165.774	-0.182	-0.008
-457.026	-200.000	0.058	0.330
-456.011	-45.880	-0.114	0.056
-454.997	124.690	0.045	0.057
-453.982	6.008	-0.127	0.093
-452.968	-200.000	-0.054	-0.452
-451.953	-200.000	0.067	-0.320
-450.938	36.367	0.062	-0.055
-449.924	12.128	-0.085	0.065
-448.909	-200.000	0.021	-0.402
-447.895	311.971	0.226	0.422
-446.880	376.366	0.050	0.102
-445.865	-27.061	0.191	0.111
-444.851	120.381	-0.172	-0.213
-443.836	-200.000	0.007	-0.103
-442.822	-200.000	0.006	0.293
-441.807	92.348	0.191	0.214
-440.792	269.805	-0.141	0.247
-439.778	-120.728	0.004	-0.001
-438.763	-52.496	-0.193	-0.089
-437.749	-37.400	0.049	-0.026
-436.734	454.000	0.080	-0.177
-435.719	14.092	-0.245	-0.190
-434.705	-41.016	-0.223	0.115
-433.690	-115.758	0.446	-0.083
-432.676	-30.922	0.156	0.088
-431.661	-15.792	-0.239	-0.151
-430.646	-48.014	-0.248	0.119
-429.632	27.505	-0.202	-0.169
-428.617	-46.351	0.151	0.074
-427.603	357.064	0.163	0.324
-426.588	-70.623	-0.172	0.065
-425.573	373.219	-0.161	0.325
-424.559	800.000	-0.063	-0.191
-423.544	-29.316	-0.405	0.230
-422.530	265.305	-0.171	0.296
-421.515	-200.000	0.016	-0.085
-420.500	488.913	-0.028	-0.063
-419.486	800.000	-0.143	-0.403
-418.471	1.643	0.103	-0.074
-417.457	96.093	-0.179	0.204
-416.442	-200.000	0.018	0.093
-415.428	71.104	0.159	0.164
-414.413	-49.865	0.136	-0.064
-413.398	-73.586	-0.233	-0.084
-412.384	800.000	-0.030	-0.103
-411.369	149.274	0.160	0.215
-410.355	800.000	0.073	0.225
-409.340	620.954	-0.112	0.279
-408.325	-141.851	-0.266	0.026
-407.311	116.846	0.038	-0.046
-406.296	-200.000	-0.004	0.482
-405.282	335.963	-0.230	0.442
-404.267	-75.261	0.293	-0.104
-403.252	-74.727	0.031	0.011
-402.238	2.593	0.129	-0.093
-401.223	-200.000	-0.038	-0.272
-400.209	-200.000	-0.014	-0.098
-399.194	-60.500	0.189	0.080
-398.179	203.795	0.254	0.391
-397.165	452.235	-0.024	0.054
-396.150	-200.000	0.006	-0.033
-395.136	-39.177	0.117	-0.061
-394.121	17.666	-0.095	-0.075
-393.106	-118.349	0.263	0.046
-392.092	13.750	0.063	0.048
-391.077	-200.000	0.071	0.321
-390.063	-53.808	-0.200	0.091
-389.048	90.268	0.090	-0.100
-388.033	-5.936	-0.215	0.146
-387.019	-27.815	-0.147	-0.084
-386.004	353.658	0.122	-0.241
-384.990	317.035	-0.097	-0.183
-383.975	-119.873	0.139	-0.024
-382.960	-127.849	0.458	-0.066
-381.946	-200.000	-0.016	0.276
-380.931	-154.014	0.157	-0.011
-379.917	90.821	-0.105	0.117
-378.902	-148.654	0.228	0.018
-377.888	238.086	0.114	-0.187
-376.873	-153.788	0.227	0.015
-375.858	-200.000	-0.010	0.241
-374.844	470.732	0.157	0.350
-373.829	-200.000	-0.029	-0.242
-372.815	800.000	0.096	-0.305
-371.800	-150.625	0.158	-0.012
-370.785	218.386	0.088	0.140
-369.771	-31.749	0.236	0.131
-368.756	-10.124	0.233	0.154
-367.742	-117.615	-0.395	-0.071
-366.727	62.688	-0.120	0.119
-365.712	-165.982	0.428	0.018
-364.698	-200.000	0.009	0.159
-363.683	-94.741	-0.223	0.060
-362.669	-79.614	0.520	0.174
-361.654	-200.000	0.012	-0.356
-360.639	229.460	0.131	-0.212
-359.625	8.524	-0.072	-0.054
-358.610	338.626	0.060	-0.116
-357.596	-92.273	-0.022	-0.006
-356.581	-200.000	-0.025	0.161
-355.566	-200.000	-0.019	-0.229
-354.552	-200.000	-0.010	-0.258
-353.537	207.377	0.053	-0.082
-352.523	49.806	0.121	0.113
-351.508	-156.483	0.400	-0.025
-350.493	-111.722	0.093	0.019
-349.479	800.000	-0.099	-0.394
-348.464	-116.873	-0.050	-0.009
-347.450	31.112	-0.118	0.101
-346.435	800.000	0.100	0.304
-345.420	-91.227	0.098	0.028
-344.406	168.490	-0.118	-0.167
-343.391	692.004	0.044	0.113
-342.377	171.860	0.142	0.202
-341.362	-48.364	0.290	0.139
-340.348	648.834	0.112	0.283
-339.333	41.222	-0.305	0.273
-338.318	-171.232	-0.299	0.010
-337.304	2.188	-0.123	-0.088
-336.289	800.000	-0.033	0.093
-335.275	-56.599	0.104	0.045
-334.260	145.803	-0.098	-0.130
-333.245	-51.943	0.177	0.082
-332.231	-200.000	-0.019	0.097
-331.216	168.999	-0.062	0.088
-330.202	201.319	0.226	0.344
-329.187	-200.000	-0.012	-0.256
-328.172	-200.000	0.050	-0.330
-327.158	-200.000	0.048	-0.287
-326.143	-145.406	-0.132	0.012
-325.129	-23.317	-0.249	0.148
-324.114	-200.000	0.004	0.522
-323.099	58.882	0.221	0.215
-322.085	-61.376	-0.071	0.029
-321.070	-200.000	-0.052	-0.280
-320.056	-200.000	0.041	-0.256
-319.041	-162.887	0.195	0.009
-318.026	-11.443	-0.083	-0.054
-317.012	101.304	-0.168	-0.193
-315.997	-73.693	-0.134	-0.048
-314.983	-3.364	-0.066	-0.045
-313.968	-18.762	-0.061	0.038
-312.953	297.172	0.061	-0.111
-311.939	-104.528	-0.137	-0.031
-310.924	134.891	0.063	0.080
-309.910	-200.000	-0.068	-0.336
-308.895	-146.188	-0.341	0.030
-307.880	-200.000	-0.010	-0.268
-306.866	1.004	0.203	0.144
-305.851	422.138	-0.175	-0.371
-304.837	-166.557	-0.218	-0.009
-303.822	441.504	0.118	-0.255
-302.807	-9.114	0.051	0.034
-301.793	-22.875	0.108	-0.065
-300.778	-200.000	0.030	0.238
-299.764	300.339	-0.161	0.294
-298.749	-61.719	0.395	0.164
-297.735	177.600	-0.077	-0.111
-296.720	70.519	0.323	-0.330
-295.705	-154.584	0.118	0.008
-294.691	-151.986	-0.116	0.008
-293.676	-83.558	-0.122	0.039
-292.662	470.843	0.038	0.084
-291.647	-200.000	0.041	0.215
-290.632	109.447	-0.136	-0.162
-289.618	800.000	0.038	0.155
-288.603	296.492	0.106	0.192
-287.589	399.433	-0.117	-0.243
-286.574	82.209	-0.099	0.107
-285.559	198.084	-0.146	-0.220
-284.545	-88.449	0.124	-0.037
-283.530	-158.948	-0.034	-0.002
-282.516	-103.816	0.231	-0.053
-281.501	-124.451	0.125	0.019
-280.486	93.048	0.181	-0.202
-279.472	-15.935	0.101	0.064
-278.457	167.204	-0.328	-0.461
-277.443	-200.000	0.013	0.110
-276.428	800.000	0.093	0.260
-275.413	-38.733	0.314	0.164
-274.399	-200.000	0.010	-0.273
-273.384	51.818	-0.119	0.112
-272.370	314.159	-0.106	-0.198
-271.355	19.199	-0.079	0.063
-270.340	45.211	0.214	0.195
-269.326	-200.000	0.002	-0.161
-268.311	-77.565	0.055	0.019
-267.297	238.409	0.061	0.101
-266.282	-200.000	-0.021	0.172
-265.267	-43.989	-0.094	0.047
-264.253	-93.629	0.032	-0.009
-263.238	468.948	-0.022	0.049
-262.224	800.000	-0.145	0.419
-261.209	800.000	0.040	-0.146
-260.195	730.668	0.079	0.208
-259.180	45.246	-0.289	0.263
-258.165	258.264	-0.232	-0.395
-257.151	38.956	0.151	-0.133
-256.136	625.504	-0.135	0.335
-255.122	-189.326	-0.272	0.003
-254.107	-200.000	-0.007	-0.290
-253.092	-25.823	-0.130	-0.076
-252.078	-130.954	-0.095	0.013
-251.063	-108.710	-0.218	0.046
-250.049	-200.000	0.017	-0.233
-249.034	800.000	-0.078	-0.224
-248.019	-200.000	0.059	0.350
-247.005	-157.869	0.196	0.011
-245.990	800.000	-0.015	-0.043
-244.976	800.000	-0.084	0.269
-243.961	105.422	0.236	0.275
-242.946	-12.077	0.114	-0.074
-241.932	-200.000	0.066	-0.310
-240.917	-151.247	-0.161	0.012
-239.903	232.141	-0.090	0.146
-238.888	-8.243	-0.399	-0.265
-237.873	83.150	0.121	-0.130
-236.859	-200.000	0.066	0.287
-235.844	-131.784	0.124	-0.016
-234.830	33.411	-0.312	0.268
-233.815	-66.931	0.342	0.133
-232.800	367.410	0.120	-0.239
-231.786	-89.127	-0.108	-0.031
-230.771	658.678	0.101	-0.256
-229.757	-84.817	0.147	0.045
-228.742	-7.521	-0.243	0.162
-227.727	403.846	-0.032	0.066
-226.713	13.033	-0.156	-0.119
-225.698	199.985	-0.059	-0.089
-224.684	121.883	0.091	0.112
-223.669	-44.127	0.215	0.106
-222.655	-200.000	-0.063	0.292
-221.640	283.644	0.094	0.166
-220.625	-29.281	-0.472	0.267
-219.611	-101.668	-0.060	-0.014
-218.596	90.644	0.302	-0.333
-217.582	148.813	-0.128	-0.170
-216.567	-200.000	-0.015	0.266
-215.552	-33.653	0.218	0.119
-214.538	573.144	-0.061	-0.147
-213.523	90.834	-0.209	0.231
-212.509	-200.000	0.055	0.278
-211.494	18.392	-0.138	0.109
-210.479	120.853	0.085	-0.104
-209.465	-200.000	-0.037	0.200
-208.450	800.000	-0.069	0.257
-207.436	-126.807	0.329	0.048
-206.421	-32.610	-0.070	-0.039
-205.406	-200.000	-0.044	0.257
-204.392	-98.888	-0.109	0.027
-203.377	800.000	-0.064	-0.272
-202.363	800.000	0.083	-0.227
-201.348	-52.327	-0.023	-0.011
-200.333	-143.787	0.070	-0.006
-199.319	-16.511	0.108	0.067
-198.304	339.370	-0.036	-0.069
-197.290	344.760	0.039	-0.075
-196.275	-143.439	0.240	0.023
-195.260	-62.216	0.253	0.104
-194.246	-2.628	0.274	-0.189
-193.231	-200.000	-0.017	-0.470
-192.217	-120.605	-0.144	-0.024
-191.202	125.615	-0.163	0.203
-190.187	-79.841	0.437	-0.145
-189.173	-51.075	-0.395	0.182
-188.158	-35.581	-0.037	-0.020
-187.144	95.228	0.020	0.022
-186.129	-16.756	0.121	-0.075
-185.114	140.738	0.222	0.289
-184.100	-200.000	0.038	-0.170
-183.085	184.658	-0.043	0.062
-182.071	203.553	-0.143	0.218
-181.056	800.000	-0.030	-0.115
-180.042	-200.000	0.023	0.105
-179.027	-29.128	-0.104	0.059
-178.012	-200.000	0.009	-0.043
-176.998	28.455	-0.100	0.083
-175.983	1.741	0.248	-0.176
-174.969	18.691	-0.264	0.208
-173.954	130.370	0.169	0.214
-172.939	419.635	-0.030	-0.063
-171.925	24.391	-0.126	0.103
-170.910	138.586	-0.136	-0.176
-169.896	7.710	0.274	0.202
-168.881	-200.000	-0.004	-0.063
-167.866	-10.430	-0.172	0.112
-166.852	250.235	0.085	0.143
-165.837	-11.241	0.075	-0.049
-164.823	-200.000	-0.067	-0.408
-163.808	800.000	-0.030	0.093
-162.793	-200.000	-0.361	0.002
-161.779	284.625	0.058	-0.103
-160.764	-178.935	-0.238	-0.005
-159.750	202.520	0.125	-0.189
-158.735	64.634	-0.161	0.160
-157.720	-111.559	-0.201	0.040
-156.706	91.038	-0.118	0.130
-155.691	27.661	0.218	-0.181
-154.677	27.808	0.186	0.154
-153.662	220.104	-0.192	0.302
-152.647	-113.668	-0.210	0.040
-151.633	-180.482	0.082	0.002
-150.618	64.218	0.196	-0.195
-149.604	-23.024	-0.328	-0.195
-148.589	187.880	0.106	-0.155
-147.574	-45.658	-0.216	0.105
-146.560	16.837	0.146	-0.114
-145.545	-140.489	0.104	-0.011
-144.531	-66.676	-0.284	0.111
-143.516	129.583	0.091	-0.115
-142.502	-79.509	0.250	0.083
-141.487	-200.000	-0.028	-0.171
-140.472	-200.000	0.013	-0.160
-139.458	51.034	-0.138	-0.129
-138.443	46.695	0.100	0.091
-137.429	-200.000	0.030	0.172
-136.414	-55.578	-0.070	-0.031
-135.399	45.412	-0.106	0.097
-134.385	-138.194	-0.122	0.013
-133.370	35.424	0.248	0.213
-132.356	800.000	-0.064	-0.197
-131.341	-200.000	0.023	-0.159
-130.326	-54.059	0.057	0.025
-129.312	506.540	0.093	0.213
-128.297	724.179	0.076	-0.198
-127.283	52.585	-0.037	-0.035
-126.268	46.971	0.097	0.089
-125.253	-115.376	-0.253	-0.047
-124.239	-200.000	0.033	0.210
-123.224	18.693	0.195	0.154
-122.210	128.556	-0.237	-0.297
-121.195	-132.006	0.186	-0.024
