DTS Sentinel unit serial number:	SN413079Multiplexer serial number:	ORYXHardware model number:	OX4-SRSoftware version number:	ORYX F/W v4.00 Oryx Data Collector v3.7.2.0data status	okinstallation	princeton_trtdifferential loss correction	single-endedforward channel	channel 2reverse channel	N/Adate	2019/09/12time	09:53:11forward acquisition time	60.00reverse acquisition time	0.00gamma	496.2192k internal	0.2315k external	0.2315temperature offset calibration	1.0069default loss term (dB/km)	0.3790temperature slope calibration	1.0000multiplexer offset coefficient	1.0000multiplexer slope coefficient	1.0000fibre end	0.00T internal ref (°C)	36.06T ext. ref 1 (°C)	1.86T ext. ref 2 (°C)	32.36length (m)	temperature (°C)	Stokes	anti-Stokes-747.200	-175.195	0.125	-0.003
-746.185	-181.134	-0.073	-0.001
-745.171	-11.346	-0.071	-0.048
-744.156	157.352	0.193	0.271
-743.142	800.000	-0.052	0.169
-742.127	-91.606	-0.190	-0.055
-741.112	576.023	-0.023	-0.057
-740.098	-200.000	0.005	0.055
-739.083	-103.506	0.473	-0.113
-738.069	-67.720	0.134	0.053
-737.054	74.990	-0.022	-0.024
-736.039	274.402	-0.188	-0.338
-735.025	753.723	0.022	-0.060
-734.010	-200.000	-0.014	0.067
-732.996	800.000	0.011	-0.039
-731.981	-12.381	-0.185	-0.123
-730.966	-200.000	0.002	-0.028
-729.952	-156.069	-0.202	-0.013
-728.937	-200.000	-0.030	-0.298
-727.923	-132.931	0.175	0.023
-726.908	-189.877	0.058	0.001
-725.894	-89.885	-0.291	0.086
-724.879	9.953	0.219	-0.169
-723.864	-164.747	-0.117	0.005
-722.850	-59.295	-0.055	0.024
-721.835	-46.850	-0.230	-0.114
-720.821	-126.520	-0.069	-0.010
-719.806	-129.492	-0.212	-0.030
-718.791	523.988	0.023	-0.055
-717.777	-191.465	0.262	0.003
-716.762	166.641	0.157	-0.226
-715.748	800.000	0.041	0.141
-714.733	24.709	-0.164	0.138
-713.718	-200.000	-0.023	-0.130
-712.704	-146.096	0.112	-0.010
-711.689	-92.432	0.398	0.113
-710.675	9.374	0.157	0.120
-709.660	-98.075	-0.183	-0.048
-708.645	42.600	-0.181	0.166
-707.631	-26.298	0.231	-0.137
-706.616	159.843	0.112	0.158
-705.602	241.989	-0.059	-0.099
-704.587	-200.000	0.005	0.042
-703.572	800.000	0.034	-0.135
-702.558	-77.007	-0.191	0.068
-701.543	-89.619	-0.099	0.029
-700.529	-3.740	0.238	0.167
-699.514	-39.777	-0.068	-0.036
-698.499	-152.509	-0.339	-0.025
-697.485	563.957	-0.044	-0.109
-696.470	664.667	0.036	0.093
-695.456	-152.823	0.265	-0.019
-694.441	-200.000	0.001	-0.102
-693.426	-200.000	0.037	0.172
-692.412	537.559	-0.122	0.294
-691.397	51.545	0.155	0.149
-690.383	-187.267	-0.416	0.006
-689.368	-200.000	0.002	0.073
-688.354	383.804	-0.133	0.278
-687.339	-66.478	0.324	-0.130
-686.324	-12.708	0.291	-0.192
-685.310	-79.883	0.305	0.104
-684.295	800.000	0.047	-0.135
-683.281	-111.404	0.277	0.057
-682.266	27.147	0.116	0.098
-681.251	164.461	-0.061	0.087
-680.237	800.000	0.064	0.184
-679.222	16.661	-0.036	0.029
-678.208	559.827	-0.064	-0.157
-677.193	-61.986	-0.282	-0.119
-676.178	-34.032	0.101	-0.056
-675.164	28.543	0.259	0.222
-674.149	-143.029	0.225	0.022
-673.135	143.929	0.269	0.363
-672.120	800.000	-0.085	0.314
-671.105	800.000	-0.022	-0.081
-670.091	211.363	-0.174	0.276
-669.076	800.000	0.019	-0.076
-668.062	284.917	0.048	0.088
-667.047	-200.000	-0.026	0.214
-666.032	201.855	-0.223	-0.347
-665.018	211.906	0.137	-0.218
-664.003	-77.493	-0.187	0.066
-662.989	-44.475	-0.125	-0.063
-661.974	28.120	-0.245	0.209
-660.959	-11.512	0.248	-0.165
-659.945	166.086	0.220	0.315
-658.930	669.299	0.015	-0.038
-657.916	-103.494	0.131	0.031
-656.901	748.512	-0.083	-0.225
-655.886	-135.523	0.091	-0.011
-654.872	-112.249	0.237	-0.048
-653.857	-122.295	-0.214	0.035
-652.843	-90.535	0.279	0.081
-651.828	25.518	0.016	0.013
-650.814	-200.000	-0.026	0.160
-649.799	-67.741	-0.030	-0.012
-648.784	126.149	0.067	-0.085
-647.770	-200.000	0.001	-0.285
-646.755	89.251	-0.190	-0.214
-645.741	-168.290	-0.185	0.007
-644.726	95.568	0.035	-0.040
-643.711	469.858	-0.068	-0.155
-642.697	10.570	0.086	-0.066
-641.682	-69.065	-0.105	0.041
-640.668	56.637	0.036	-0.036
-639.653	-65.648	0.088	0.036
-638.638	21.241	0.081	-0.066
-637.624	-98.251	-0.299	0.077
-636.609	-104.218	-0.170	0.040
-635.595	727.771	-0.005	0.013
-634.580	-83.847	-0.171	-0.055
-633.565	800.000	0.119	-0.421
-632.551	-167.880	0.243	0.010
-631.536	-145.601	-0.203	-0.018
-630.522	-200.000	0.047	-0.423
-629.507	238.915	-0.099	-0.167
-628.492	671.849	-0.069	-0.180
-627.478	-44.076	-0.064	-0.032
-626.463	-200.000	0.011	-0.096
-625.449	-107.355	0.261	-0.058
-624.434	30.257	0.154	0.133
-623.419	-14.442	0.187	-0.121
-622.405	644.735	-0.119	-0.305
-621.390	-1.011	-0.169	-0.121
-620.376	449.649	0.105	0.235
-619.361	-24.338	0.177	-0.106
-618.346	-60.671	-0.022	0.010
-617.332	-7.956	-0.184	0.125
-616.317	800.000	-0.029	0.094
-615.303	75.250	0.138	-0.146
-614.288	21.361	-0.337	-0.276
-613.273	-91.763	-0.188	-0.054
-612.259	-10.868	-0.135	0.090
-611.244	800.000	0.085	0.249
-610.230	-200.000	-0.017	-0.329
-609.215	-200.000	0.011	-0.082
-608.201	-51.439	0.232	0.109
-607.186	-138.751	0.202	0.022
-606.171	80.369	0.118	0.128
-605.157	40.159	0.295	-0.267
-604.142	564.643	0.141	-0.343
-603.128	-64.557	-0.455	-0.186
-602.113	-23.174	-0.137	-0.083
-601.098	-200.000	0.246	0.001
-600.084	328.783	0.022	-0.043
-599.069	-24.450	-0.200	0.120
-598.055	7.102	-0.260	-0.196
-597.040	531.787	0.069	0.163
-596.025	800.000	-0.044	-0.144
-595.011	-189.827	0.343	0.004
-593.996	29.470	0.082	-0.070
-592.982	-109.544	-0.407	-0.086
-591.967	800.000	0.029	-0.114
-590.952	800.000	-0.038	-0.160
-589.938	-150.106	-0.188	0.015
-588.923	-107.400	-0.300	-0.066
-587.909	510.035	-0.103	-0.242
-586.894	104.586	0.204	-0.242
-585.879	707.268	-0.055	-0.147
-584.865	87.277	0.108	-0.120
-583.850	700.008	-0.133	-0.352
-582.836	-65.166	0.309	0.125
-581.821	-200.000	0.046	0.353
-580.806	710.537	0.092	0.245
-579.792	-46.734	0.141	0.070
-578.777	-55.184	-0.375	0.170
-577.763	800.000	0.027	0.097
-576.748	-17.695	0.277	-0.175
-575.733	81.544	-0.142	-0.155
-574.719	17.951	-0.085	-0.069
-573.704	800.000	-0.097	0.308
-572.690	-46.141	-0.182	0.090
-571.675	800.000	0.083	0.248
-570.661	70.705	0.039	-0.040
-569.646	-154.742	0.038	-0.003
-568.631	800.000	0.146	-0.501
-567.617	-121.963	0.126	-0.021
-566.602	427.970	-0.141	0.307
-565.588	-119.898	-0.418	0.072
-564.573	-106.610	-0.259	-0.058
-563.558	173.463	-0.065	-0.094
-562.544	4.910	0.128	-0.095
-561.529	-200.000	-0.006	0.171
-560.515	161.188	-0.092	0.130
-559.500	800.000	-0.092	0.265
-558.485	-77.540	-0.276	-0.096
-557.471	800.000	0.032	-0.091
-556.456	91.197	-0.239	0.270
-555.442	50.500	-0.161	0.153
-554.427	800.000	-0.028	-0.115
-553.412	-41.082	0.170	-0.088
-552.398	598.508	-0.134	0.334
-551.383	499.303	-0.077	-0.179
-550.369	-105.347	0.210	-0.048
-549.354	785.041	-0.094	-0.260
-548.339	-65.406	0.362	-0.146
-547.325	-200.000	-0.062	0.308
-546.310	22.404	0.081	0.067
-545.296	252.025	0.011	-0.019
-544.281	235.215	-0.024	-0.039
-543.266	800.000	-0.024	-0.075
-542.252	-200.000	0.001	0.074
-541.237	-200.000	0.006	-0.060
-540.223	67.180	-0.166	0.170
-539.208	75.112	0.116	0.123
-538.193	246.942	-0.163	-0.276
-537.179	26.724	0.238	-0.200
-536.164	63.112	-0.170	0.171
-535.150	-200.000	0.099	0.442
-534.135	168.684	-0.084	-0.120
-533.121	441.160	0.246	-0.541
-532.106	800.000	-0.059	-0.178
-531.091	-77.455	-0.157	0.055
-530.077	-96.120	0.509	0.136
-529.062	28.008	-0.237	-0.201
-528.048	75.149	0.182	-0.193
-527.033	71.094	0.134	-0.140
-526.018	-8.380	-0.367	-0.248
-525.004	-95.193	0.193	0.052
-523.989	-169.182	0.317	-0.012
-522.975	19.837	0.110	0.089
-521.960	19.824	0.201	-0.163
-520.945	374.359	-0.067	-0.136
-519.931	-104.269	-0.258	-0.060
-518.916	-200.000	0.001	-0.043
-517.902	-100.212	-0.228	0.057
-516.887	-30.134	-0.236	-0.135
-515.872	-88.730	-0.349	0.104
-514.858	533.874	0.071	0.170
-513.843	-109.257	-0.192	0.041
-512.829	449.630	-0.156	-0.345
-511.814	-3.502	-0.072	0.050
-510.799	800.000	0.066	0.231
-509.785	-98.436	0.064	0.016
-508.770	-17.998	0.128	0.080
-507.756	117.059	-0.047	-0.057
-506.741	524.831	-0.135	-0.320
-505.726	603.732	0.112	0.281
-504.712	316.404	0.005	0.010
-503.697	162.404	-0.032	0.046
-502.683	323.528	0.066	-0.126
-501.668	458.807	-0.209	0.467
-500.653	-95.079	0.063	0.017
-499.639	-115.783	0.271	0.051
-498.624	374.142	-0.063	0.130
-497.610	8.515	-0.173	-0.131
-496.595	14.638	0.068	-0.054
-495.581	4.024	0.186	-0.136
-494.566	-120.151	-0.220	0.038
-493.551	300.002	-0.207	-0.383
-492.537	90.124	-0.233	0.261
-491.522	-84.364	0.292	-0.093
-490.508	-28.853	-0.238	0.137
-489.493	-10.102	-0.056	-0.037
-488.478	-66.776	-0.218	0.086
-487.464	-78.223	0.210	0.072
-486.449	-200.000	-0.006	0.281
-485.435	-142.323	0.097	0.010
-484.420	-160.066	-0.019	-0.001
-483.405	248.993	-0.132	0.224
-482.391	113.817	-0.115	-0.140
-481.376	513.580	-0.076	-0.178
-480.362	-200.000	-0.003	0.404
-479.347	-139.926	-0.487	-0.052
-478.332	212.344	-0.074	-0.116
-477.318	227.882	-0.103	-0.167
-476.303	322.434	-0.252	-0.482
-475.289	-200.000	-0.026	0.351
-474.274	323.491	0.018	0.034
-473.259	800.000	0.054	0.229
-472.245	-41.307	-0.319	0.165
-471.230	-62.065	0.221	-0.093
-470.216	-115.447	0.204	0.039
-469.201	-170.702	-0.409	0.014
-468.186	159.888	0.111	0.155
-467.172	214.414	-0.184	-0.292
-466.157	562.669	-0.090	-0.218
-465.143	-148.867	-0.182	-0.015
-464.128	-163.727	-0.189	-0.009
-463.113	800.000	-0.019	-0.064
-462.099	-200.000	0.003	0.204
-461.084	-61.638	0.277	-0.116
-460.070	482.549	0.183	-0.417
-459.055	-200.000	0.014	0.162
-458.040	10.336	0.238	0.182
-457.026	760.677	-0.065	0.176
-456.011	-81.463	-0.168	-0.055
-454.997	151.464	-0.236	0.323
-453.982	175.852	0.069	0.101
-452.968	146.919	-0.112	0.151
-451.953	201.035	-0.216	0.333
-450.938	52.368	-0.212	-0.203
-449.924	-51.686	0.352	-0.165
-448.909	-200.000	0.057	-0.265
-447.895	-17.667	-0.064	-0.041
-446.880	705.396	-0.031	0.082
-445.865	-127.863	0.105	0.015
-444.851	-23.809	-0.321	0.193
-443.836	-200.000	0.047	-0.233
-442.822	-200.000	0.015	-0.549
-441.807	-200.000	0.040	0.255
-440.792	-12.953	0.166	0.108
-439.778	59.988	0.230	0.228
-438.763	-103.086	-0.120	0.029
-437.749	-45.650	0.201	-0.100
-436.734	243.740	-0.085	-0.142
-435.719	347.839	-0.131	-0.258
-434.705	-94.981	0.252	-0.068
-433.690	-140.767	0.434	0.045
-432.676	271.606	0.105	-0.185
-431.661	-48.194	0.351	0.170
-430.646	628.773	0.096	0.244
-429.632	-23.737	0.261	0.157
-428.617	255.196	0.046	0.079
-427.603	637.701	-0.138	0.350
-426.588	800.000	-0.049	0.165
-425.573	-200.000	0.031	0.142
-424.559	-102.542	0.096	0.023
-423.544	-5.601	0.250	-0.171
-422.530	800.000	-0.122	-0.345
-421.515	-46.946	-0.018	0.009
-420.500	-22.892	-0.212	-0.128
-419.486	141.691	0.184	0.244
-418.471	31.314	-0.208	-0.178
-417.457	-133.728	0.293	0.037
-416.442	125.190	-0.209	0.264
-415.428	-168.273	-0.219	0.008
-414.413	-66.036	0.070	-0.028
-413.398	49.674	-0.020	0.019
-412.384	-34.570	0.327	0.179
-411.369	800.000	0.061	-0.191
-410.355	800.000	-0.037	-0.156
-409.340	225.384	-0.108	0.174
-408.325	-153.351	0.276	0.019
-407.311	-200.000	-0.005	0.194
-406.296	200.856	-0.110	-0.169
-405.282	401.744	0.076	-0.159
-404.267	-116.909	-0.320	-0.059
-403.252	79.484	0.079	0.085
-402.238	-112.354	-0.070	-0.014
-401.223	-200.000	0.055	0.322
-400.209	33.044	-0.135	0.117
-399.194	168.199	0.147	0.209
-398.179	-153.143	0.246	0.017
-397.165	-64.152	0.237	-0.097
-396.150	-105.350	-0.311	-0.071
-395.136	-164.974	-0.240	0.011
-394.121	-168.906	0.176	0.007
-393.106	-57.665	0.256	0.112
-392.092	-122.966	-0.129	-0.021
-391.077	-55.939	0.191	0.085
-390.063	561.129	-0.097	0.233
-389.048	-115.561	-0.122	0.023
-388.033	-48.561	0.230	0.110
-387.019	427.882	0.141	0.303
-386.004	-200.000	0.012	0.123
-384.990	-34.370	0.189	-0.104
-383.975	-200.000	0.008	0.228
-382.960	-42.997	0.210	0.107
-381.946	-200.000	0.009	0.065
-380.931	245.598	-0.256	-0.431
-379.917	-108.238	0.450	-0.097
-378.902	155.001	0.112	0.154
-377.888	-134.052	-0.050	0.006
-376.873	76.244	-0.152	-0.161
-375.858	221.623	-0.073	-0.117
-374.844	-134.174	-0.478	-0.059
-373.829	-200.000	0.016	0.116
-372.815	23.765	0.238	0.196
-371.800	66.625	0.184	0.186
-370.785	-82.803	-0.347	0.112
-369.771	-166.483	0.261	0.011
-368.756	800.000	0.019	0.076
-367.742	170.788	0.048	0.069
-366.727	139.734	-0.264	-0.348
-365.712	-200.000	0.029	-0.180
-364.698	28.237	-0.215	0.181
-363.683	-27.330	-0.168	-0.098
-362.669	-200.000	0.011	-0.088
-361.654	36.091	0.316	-0.278
-360.639	107.238	0.129	-0.153
-359.625	-54.831	-0.345	-0.155
-358.610	288.511	0.216	0.391
-357.596	703.340	-0.045	-0.119
-356.581	-200.000	-0.015	0.080
-355.566	481.731	-0.102	-0.232
-354.552	-108.938	-0.076	0.016
-353.537	800.000	0.071	0.250
-352.523	35.780	-0.126	-0.110
-351.508	174.879	-0.023	-0.033
-350.493	-23.149	0.241	-0.145
-349.479	-86.463	0.283	0.087
-348.464	-128.158	0.201	-0.029
-347.450	-103.001	0.093	-0.022
-346.435	784.620	0.146	0.398
-345.420	458.531	0.157	0.349
-344.406	800.000	0.065	0.183
-343.391	107.587	-0.053	-0.063
-342.377	81.672	0.150	0.162
-341.362	92.677	-0.188	-0.211
-340.348	50.820	0.195	0.184
-339.333	-200.000	-0.003	0.138
-338.318	800.000	0.016	-0.069
-337.304	-121.249	-0.079	-0.013
-336.289	-99.709	-0.297	0.074
-335.275	112.697	-0.069	0.083
-334.260	77.081	0.166	0.176
-333.245	-118.898	0.069	-0.012
-332.231	90.777	-0.047	-0.053
-331.216	357.481	0.109	-0.217
-330.202	134.409	0.188	0.243
-329.187	-183.646	0.264	0.005
-328.172	37.195	0.177	0.156
-327.158	-185.287	0.285	-0.004
-326.143	-200.000	0.003	-0.039
-325.129	-80.019	-0.052	-0.017
-324.114	64.011	-0.015	-0.015
-323.099	-200.000	-0.009	0.152
-322.085	-200.000	-0.021	0.095
-321.070	-48.395	0.112	0.054
-320.056	-129.132	-0.223	0.031
-319.041	-125.911	0.326	0.049
-318.026	129.976	0.123	-0.157
-317.012	44.450	0.215	-0.196
-315.997	43.632	0.443	-0.404
-314.983	-200.000	-0.015	0.149
-313.968	-110.222	-0.471	0.098
-312.953	71.505	-0.188	0.194
-311.939	80.071	-0.196	0.210
-310.924	-111.368	0.652	0.132
-309.910	-188.350	0.438	0.005
-308.895	-200.000	-0.014	-0.086
-307.880	166.185	-0.078	-0.110
-306.866	-78.615	-0.286	0.097
-305.851	-121.615	-0.254	0.042
-304.837	-163.068	0.220	0.011
-303.822	-200.000	-0.032	0.180
-302.807	-200.000	0.000	0.009
-301.793	-200.000	0.060	0.333
-300.778	12.085	0.233	-0.178
-299.764	368.742	-0.046	-0.093
-298.749	800.000	0.104	0.388
-297.735	-110.969	-0.452	0.092
-296.720	-122.823	0.238	-0.038
-295.705	386.299	-0.068	0.139
-294.691	212.574	0.093	0.146
-293.676	800.000	0.076	-0.220
-292.662	45.913	0.185	-0.170
-291.647	-79.883	-0.251	-0.084
-290.632	800.000	-0.112	0.322
-289.618	-200.000	0.009	-0.407
-288.603	-35.882	0.006	0.003
-287.589	-24.576	0.143	0.085
-286.574	22.573	0.227	-0.185
-285.559	800.000	-0.049	0.168
-284.545	-100.040	-0.297	0.074
-283.530	-96.327	0.248	0.065
-282.516	14.440	-0.266	-0.207
-281.501	-88.889	-0.026	-0.008
-280.486	44.388	0.250	0.229
-279.472	-200.000	-0.030	-0.146
-278.457	-22.925	-0.146	0.087
-277.443	-93.569	0.399	0.110
-276.428	-200.000	-0.031	0.140
-275.413	-55.748	0.061	-0.027
-274.399	344.253	-0.081	0.158
-273.384	45.933	0.098	-0.090
-272.370	10.004	-0.347	0.262
-271.355	103.539	-0.067	-0.079
-270.340	-51.571	0.260	0.121
-269.326	-51.349	-0.216	-0.100
-268.311	36.211	0.249	-0.218
-267.297	54.340	0.181	-0.173
-266.282	-200.000	0.019	0.128
-265.267	800.000	-0.092	0.283
-264.253	-10.425	-0.027	-0.018
-263.238	-20.698	0.238	-0.145
-262.224	29.816	-0.155	0.132
-261.209	130.702	-0.090	-0.114
-260.195	5.904	0.068	0.050
-259.180	-200.000	0.007	0.348
-258.165	18.970	0.140	-0.111
-257.151	-26.176	0.074	-0.043
-256.136	-97.457	0.221	0.057
-255.122	-200.000	-0.031	-0.378
-254.107	-200.000	0.050	0.247
-253.092	645.559	0.084	0.214
-252.078	-200.000	-0.019	-0.261
-251.063	-200.000	0.023	-0.105
-250.049	170.947	-0.223	0.318
-249.034	52.357	0.280	0.266
-248.019	800.000	0.086	-0.303
-247.005	-177.369	-0.115	-0.003
-245.990	400.279	0.162	-0.338
-244.976	89.049	0.121	0.134
-243.961	-167.926	-0.535	0.021
-242.946	78.417	0.156	-0.165
-241.932	-43.130	0.239	-0.120
-240.917	-112.296	0.049	-0.010
-239.903	9.932	0.257	0.194
-238.888	748.910	-0.051	-0.138
-237.873	232.018	0.136	-0.221
-236.859	-140.008	-0.207	0.022
-235.844	-200.000	-0.008	-0.066
-234.830	800.000	0.050	0.156
-233.815	-52.579	-0.117	0.053
-232.800	-200.000	0.023	-0.517
-231.786	800.000	0.204	0.584
-230.771	77.673	-0.185	-0.196
-229.757	800.000	0.100	0.282
-228.742	-200.000	-0.021	0.110
-227.727	159.003	0.052	0.072
-226.713	-33.729	-0.106	0.058
-225.698	-200.000	0.078	-0.363
-224.684	-15.277	-0.191	0.121
-223.669	421.704	-0.173	0.368
-222.655	14.712	0.156	0.121
-221.640	-118.655	0.279	0.049
-220.625	-49.918	-0.071	-0.034
-219.611	-129.085	-0.302	-0.042
-218.596	-200.000	-0.001	0.043
-217.582	-196.081	-0.244	0.002
-216.567	-60.728	0.045	0.019
-215.552	-74.772	0.179	-0.064
-214.538	-35.123	0.074	-0.040
-213.523	-200.000	0.018	-0.163
-212.509	790.958	0.038	0.104
-211.494	-200.000	0.006	0.047
-210.479	252.946	-0.066	0.111
-209.465	36.225	0.095	0.083
-208.450	288.221	-0.139	0.250
-207.436	-55.983	-0.343	0.152
-206.421	800.000	-0.019	0.069
-205.406	-78.945	-0.166	0.056
-204.392	112.584	-0.138	-0.166
-203.377	35.947	0.100	0.087
-202.363	-143.213	-0.316	-0.030
-201.348	-200.000	0.083	-0.379
-200.333	800.000	-0.059	-0.228
-199.319	13.434	-0.147	0.113
-198.304	371.708	0.090	-0.182
-197.290	-95.569	0.123	-0.033
-196.275	60.986	0.127	-0.125
-195.260	-119.987	0.060	-0.010
-194.246	69.271	0.136	0.139
-193.231	-56.465	0.048	0.021
-192.217	-200.000	0.085	0.435
-191.202	35.820	-0.266	0.232
-190.187	187.205	0.288	-0.426
-189.173	193.403	-0.028	-0.042
-188.158	-91.123	-0.182	0.052
-187.144	-39.536	0.090	-0.047
-186.129	28.437	0.288	-0.241
-185.114	30.013	0.252	-0.213
-184.100	800.000	-0.056	-0.187
-183.085	-127.890	-0.172	-0.025
-182.071	-39.026	-0.288	0.150
-181.056	343.952	-0.075	0.146
-180.042	113.045	0.142	-0.170
-179.027	-43.150	0.342	0.172
-178.012	-63.742	-0.098	-0.040
-176.998	-61.531	-0.226	0.094
-175.983	800.000	-0.092	0.352
-174.969	-200.000	-0.250	-0.001
-173.954	1.593	0.182	-0.130
-172.939	-200.000	0.025	0.178
-171.925	-200.000	0.036	-0.184
-170.910	-200.000	-0.013	0.395
-169.896	-19.205	-0.206	0.126
-168.881	-200.000	0.041	-0.343
-167.866	546.763	0.060	0.142
-166.852	34.151	0.234	-0.202
-165.837	334.871	-0.056	-0.108
-164.823	653.313	-0.067	-0.171
-163.808	-65.832	-0.142	0.056
-162.793	-163.624	0.208	-0.010
-161.779	-32.171	-0.115	-0.064
-160.764	-54.838	0.077	-0.034
-159.750	-112.059	0.111	0.022
-158.735	-83.904	-0.285	-0.090
-157.720	8.028	-0.353	-0.263
-156.706	-135.364	-0.358	0.042
-155.691	-58.495	-0.230	0.099
-154.677	-37.978	0.211	0.111
-153.662	283.909	-0.105	-0.187
-152.647	99.789	0.054	-0.062
-151.633	256.762	-0.057	0.097
-150.618	-200.000	-0.057	-0.380
-149.604	66.541	0.123	-0.124
-148.589	-200.000	0.009	0.144
-147.574	305.785	0.219	-0.404
-146.560	452.965	0.060	-0.132
-145.545	43.178	0.144	-0.130
-144.531	800.000	0.048	-0.183
-143.516	203.848	-0.029	-0.045
-142.502	163.202	-0.044	0.062
-141.487	-73.683	-0.192	0.069
-140.472	-171.636	-0.225	-0.007
-139.458	-34.644	-0.142	0.077
-138.443	343.664	0.029	0.057
-137.429	406.097	0.061	0.127
-136.414	-200.000	-0.005	0.370
-135.399	65.969	0.185	0.185
-134.385	56.847	-0.185	-0.178
-133.370	140.089	0.248	-0.324
-132.356	-151.246	-0.292	0.022
-131.341	12.784	-0.033	0.025
-130.326	800.000	-0.052	0.169
-129.312	-65.291	-0.223	-0.089
-128.297	-200.000	0.031	0.340
-127.283	186.542	0.085	0.125
-126.268	245.131	-0.078	-0.130
-125.253	-190.488	-0.097	0.001
-124.239	245.374	0.098	0.163
-123.224	800.000	-0.035	-0.125
-122.210	54.813	0.020	0.019
-121.195	146.311	0.091	-0.121
-120.180	800.000	0.028	-0.090
