DTS Sentinel unit serial number:	SN413079Multiplexer serial number:	ORYXHardware model number:	OX4-SRSoftware version number:	ORYX F/W v4.00 Oryx Data Collector v3.7.2.0data status	okinstallation	princeton_trtdifferential loss correction	single-endedforward channel	channel 2reverse channel	N/Adate	2019/09/16time	04:19:35forward acquisition time	60.00reverse acquisition time	0.00gamma	496.2192k internal	0.2335k external	0.2335temperature offset calibration	0.9977default loss term (dB/km)	0.3790temperature slope calibration	1.0000multiplexer offset coefficient	1.0000multiplexer slope coefficient	1.0000fibre end	0.00T internal ref (°C)	27.31T ext. ref 1 (°C)	10.81T ext. ref 2 (°C)	21.39length (m)	temperature (°C)	Stokes	anti-Stokes-747.200	77.515	0.174	0.186
-746.185	59.258	-0.101	0.100
-745.171	-185.242	-0.022	0.000
-744.156	53.760	-0.106	0.103
-743.142	-85.590	-0.157	-0.049
-742.127	800.000	-0.057	0.200
-741.112	173.633	0.097	0.140
-740.098	11.407	0.169	0.130
-739.083	285.587	0.114	-0.206
-738.069	44.940	-0.338	0.313
-737.054	770.447	-0.084	-0.230
-736.039	15.663	-0.200	-0.158
-735.025	-148.243	0.170	-0.014
-734.010	800.000	-0.123	-0.406
-732.996	-40.002	-0.168	-0.088
-731.981	82.911	0.084	-0.092
-730.966	19.099	-0.107	0.086
-729.952	-17.239	-0.043	-0.027
-728.937	19.291	-0.068	-0.055
-727.923	89.329	-0.190	0.213
-726.908	216.128	-0.053	0.085
-725.894	-79.827	-0.194	-0.066
-724.879	-30.703	0.213	-0.121
-723.864	800.000	-0.110	0.338
-722.850	729.122	0.154	-0.414
-721.835	92.570	0.101	-0.114
-720.821	4.150	-0.234	-0.172
-719.806	5.442	-0.171	-0.127
-718.791	-190.548	-0.132	-0.001
-717.777	-200.000	-0.011	-0.255
-716.762	-146.376	-0.119	0.010
-715.748	633.519	-0.086	0.219
-714.733	-143.456	-0.196	-0.019
-713.718	800.000	0.129	-0.358
-712.704	-200.000	-0.022	-0.175
-711.689	142.765	0.050	-0.067
-710.675	-63.848	-0.162	-0.067
-709.660	103.106	0.132	-0.155
-708.645	800.000	-0.140	0.410
-707.631	-200.000	-0.008	-0.290
-706.616	93.892	-0.182	0.207
-705.602	119.752	0.162	0.201
-704.587	385.347	-0.098	0.202
-703.572	-96.303	0.324	0.086
-702.558	70.189	0.083	-0.086
-701.543	-59.135	-0.254	-0.110
-700.529	-200.000	0.014	-0.111
-699.514	266.731	-0.075	0.131
-698.499	-200.000	-0.007	0.182
-697.485	800.000	-0.026	-0.091
-696.470	-11.658	0.103	0.068
-695.456	-27.502	0.223	0.130
-694.441	-179.214	0.430	-0.010
-693.426	135.749	-0.095	-0.123
-692.412	-200.000	-0.028	-0.154
-691.397	-71.176	0.165	0.062
-690.383	104.833	0.320	0.378
-689.368	-100.163	0.180	0.045
-688.354	-200.000	0.016	-0.339
-687.339	-200.000	0.010	-0.132
-686.324	-200.000	-0.006	0.300
-685.310	294.279	0.079	-0.145
-684.295	443.724	-0.142	0.312
-683.281	800.000	0.021	-0.088
-682.266	-53.307	0.110	0.051
-681.251	-110.455	-0.283	0.059
-680.237	800.000	0.097	0.384
-679.222	24.314	-0.093	-0.077
-678.208	182.225	0.131	-0.193
-677.193	-200.000	0.005	-0.095
-676.178	131.743	0.126	-0.163
-675.164	800.000	0.048	-0.144
-674.149	171.110	-0.107	-0.154
-673.135	-1.918	0.139	0.098
-672.120	800.000	0.009	0.027
-671.105	-200.000	0.013	-0.171
-670.091	82.141	0.038	-0.041
-669.076	40.364	-0.276	0.249
-668.062	-86.277	-0.070	0.022
-667.047	-118.626	0.320	0.057
-666.032	-11.239	0.092	-0.061
-665.018	800.000	0.122	0.451
-664.003	-12.073	-0.120	0.079
-662.989	-71.022	-0.079	-0.030
-661.974	-200.000	0.024	-0.202
-660.959	-200.000	0.013	-0.092
-659.945	-200.000	0.016	-0.105
-658.930	-58.598	-0.326	-0.142
-657.916	-2.449	-0.339	-0.238
-656.901	203.213	-0.120	-0.186
-655.886	304.979	-0.135	0.251
-654.872	268.122	-0.191	-0.335
-653.857	72.131	-0.080	0.084
-652.843	-200.000	-0.056	0.330
-651.828	32.084	-0.069	0.060
-650.814	-200.000	0.012	0.064
-649.799	193.864	0.125	0.189
-648.784	45.087	-0.121	0.111
-647.770	-83.817	-0.244	0.078
-646.755	-74.586	0.051	-0.018
-645.741	-137.573	0.061	0.007
-644.726	-200.000	-0.012	-0.330
-643.711	-19.030	0.194	0.121
-642.697	197.354	0.100	-0.153
-641.682	-120.978	-0.333	-0.056
-640.668	-155.466	-0.413	0.027
-639.653	-71.149	0.432	0.163
-638.638	226.923	0.081	0.131
-637.624	798.525	-0.060	-0.164
-636.609	-52.409	-0.121	-0.056
-635.595	217.984	0.105	0.168
-634.580	-119.841	0.237	0.041
-633.565	-200.000	0.002	-0.162
-632.551	800.000	0.046	0.201
-631.536	358.839	0.095	-0.190
-630.522	16.035	-0.137	-0.108
-629.507	-98.847	-0.256	0.065
-628.492	-160.036	-0.261	0.014
-627.478	-154.577	-0.088	-0.006
-626.463	-88.181	-0.287	-0.086
-625.449	-102.543	0.262	-0.063
-624.434	-120.190	0.189	0.032
-623.419	-3.508	-0.303	0.211
-622.405	120.666	0.045	-0.056
-621.390	-200.000	-0.002	0.151
-620.376	-200.000	-0.035	0.241
-619.361	-148.485	-0.300	0.025
-618.346	-200.000	0.051	-0.247
-617.332	-155.940	-0.263	-0.017
-616.317	-130.066	0.140	-0.019
-615.303	-56.265	0.266	0.118
-614.288	132.981	0.024	0.030
-613.273	-200.000	0.010	-0.157
-612.259	-81.474	0.019	0.006
-611.244	32.456	0.036	-0.031
-610.230	-133.005	-0.267	0.034
-609.215	22.822	0.049	0.040
-608.201	-200.000	0.001	-0.127
-607.186	218.751	0.072	0.115
-606.171	6.114	-0.221	-0.164
-605.157	-200.000	0.058	0.258
-604.142	-43.920	-0.199	0.100
-603.128	-71.915	-0.317	-0.118
-602.113	200.540	0.216	0.331
-601.098	111.293	0.041	0.050
-600.084	-6.064	-0.241	-0.164
-599.069	-200.000	0.087	0.481
-598.055	-200.000	0.059	-0.284
-597.040	12.079	-0.041	-0.031
-596.025	-33.590	-0.274	-0.151
-595.011	366.945	0.047	0.094
-593.996	2.981	-0.042	-0.031
-592.982	46.095	-0.101	0.093
-591.967	-195.689	-0.471	-0.003
-590.952	128.458	-0.073	-0.093
-589.938	800.000	-0.068	0.209
-588.923	140.120	-0.145	0.192
-587.909	800.000	-0.052	0.157
-586.894	-10.887	-0.176	-0.116
-585.879	21.193	-0.245	0.198
-584.865	-200.000	-0.044	0.375
-583.850	-93.608	0.421	0.116
-582.836	242.602	0.097	-0.163
-581.821	-200.000	-0.004	0.119
-580.806	249.343	0.165	0.279
-579.792	-44.671	0.314	-0.157
-578.777	-72.279	0.387	-0.143
-577.763	-21.901	-0.090	-0.055
-576.748	28.227	-0.314	-0.265
-575.733	23.688	0.085	0.070
-574.719	207.139	0.153	-0.238
-573.704	114.203	-0.098	-0.119
-572.690	463.096	-0.085	-0.189
-571.675	-14.206	-0.232	-0.149
-570.661	-191.128	0.192	0.002
-569.646	54.108	-0.097	-0.093
-568.631	-62.392	0.268	-0.111
-567.617	12.805	0.228	0.176
-566.602	-116.597	0.283	-0.052
-565.588	-200.000	-0.012	-0.139
-564.573	-92.811	0.187	0.052
-563.558	800.000	0.031	0.086
-562.544	744.152	0.093	0.250
-561.529	42.090	0.121	0.110
-560.515	-103.016	-0.091	0.022
-559.500	-118.184	0.197	-0.035
-558.485	-200.000	-0.020	0.129
-557.471	169.410	0.152	-0.216
-556.456	-106.722	0.207	0.046
-555.442	-73.484	0.370	0.135
-554.427	288.203	-0.177	0.319
-553.412	-200.000	0.025	-0.241
-552.398	463.061	-0.063	-0.141
-551.383	175.228	0.079	-0.114
-550.369	-114.553	-0.131	0.025
-549.354	48.715	-0.124	-0.116
-548.339	800.000	0.083	-0.265
-547.325	-122.375	-0.361	-0.059
-546.310	-84.265	0.168	-0.053
-545.296	126.991	-0.089	-0.113
-544.281	-92.077	-0.108	-0.031
-543.266	-200.000	-0.024	0.138
-542.252	-141.574	0.210	-0.021
-541.237	-78.205	0.191	-0.065
-540.223	83.426	0.139	0.151
-539.208	108.328	-0.130	-0.154
-538.193	165.679	-0.305	-0.430
-537.179	-46.140	0.137	-0.067
-536.164	-200.000	0.024	-0.117
-535.150	-144.527	0.147	0.014
-534.135	-200.000	-0.013	-0.335
-533.121	169.032	0.150	-0.214
-532.106	6.590	0.063	0.047
-531.091	-200.000	0.064	-0.298
-530.077	-200.000	0.027	0.278
-529.062	32.516	-0.100	-0.086
-528.048	-64.731	-0.252	-0.102
-527.033	211.537	0.067	0.105
-526.018	-56.485	-0.130	-0.058
-525.004	-76.935	0.205	0.072
-523.989	220.665	0.095	0.152
-522.975	-200.000	0.021	-0.283
-521.960	-69.787	0.080	-0.031
-520.945	361.406	-0.103	0.205
-519.931	-200.000	0.061	-0.661
-518.916	-69.524	0.414	-0.158
-517.902	-200.000	0.021	0.199
-516.887	800.000	-0.058	0.232
-515.872	-116.586	-0.196	0.036
-514.858	-85.972	-0.141	-0.043
-513.843	-121.743	-0.245	0.040
-512.829	-125.918	-0.176	0.026
-511.814	195.583	-0.158	-0.239
-510.799	-5.602	0.143	0.097
-509.785	137.343	-0.195	-0.254
-508.770	-45.061	0.304	-0.150
-507.756	-200.000	0.007	0.210
-506.741	-200.000	0.003	0.052
-505.726	-200.000	0.020	-0.357
-504.712	73.531	-0.066	0.069
-503.697	149.655	-0.161	0.217
-502.683	-56.005	-0.100	0.045
-501.668	41.132	0.109	-0.098
-500.653	-59.252	-0.036	0.016
-499.639	90.047	-0.273	0.304
-498.624	800.000	-0.037	0.128
-497.610	-200.000	-0.010	-0.055
-496.595	-2.910	-0.103	-0.072
-495.581	-104.329	0.261	-0.060
-494.566	15.629	-0.275	-0.215
-493.551	-200.000	0.007	0.188
-492.537	-10.630	-0.239	-0.158
-491.522	-52.641	0.189	-0.087
-490.508	68.052	-0.097	0.099
-489.493	663.718	0.020	-0.052
-488.478	-28.978	0.193	0.110
-487.464	-200.000	-0.043	0.365
-486.449	273.837	-0.037	0.064
-485.435	-88.496	-0.164	0.049
-484.420	125.815	0.307	0.386
-483.405	-136.069	0.394	-0.046
-482.391	-181.984	0.158	0.003
-481.376	-200.000	0.006	0.065
-480.362	308.537	-0.098	0.181
-479.347	-200.000	-0.013	-0.479
-478.332	-79.034	0.269	-0.091
-477.318	51.204	0.155	-0.146
-476.303	622.929	-0.105	-0.262
-475.289	-200.000	0.007	0.060
-474.274	-104.924	-0.202	-0.046
-473.259	-56.816	0.088	0.039
-472.245	-138.874	-0.262	0.028
-471.230	-200.000	0.051	0.256
-470.216	106.063	0.063	0.074
-469.201	-200.000	0.081	0.357
-468.186	222.950	0.101	-0.162
-467.172	290.386	-0.017	0.031
-466.157	-38.002	-0.133	0.070
-465.143	200.243	0.085	-0.129
-464.128	800.000	0.065	-0.221
-463.113	-141.245	-0.371	0.038
-462.099	-84.358	0.103	0.033
-461.084	800.000	0.136	-0.499
-460.070	185.000	0.096	0.141
-459.055	75.743	0.103	0.108
-458.040	31.907	0.100	-0.085
-457.026	84.361	0.155	0.169
-456.011	12.367	-0.315	-0.241
-454.997	-200.000	0.033	-0.168
-453.982	-41.699	-0.173	-0.088
-452.968	246.140	-0.179	-0.299
-451.953	-200.000	-0.033	0.220
-450.938	-87.560	-0.450	-0.135
-449.924	-142.918	-0.094	-0.009
-448.909	-200.000	0.012	-0.476
-447.895	-124.416	0.099	-0.015
-446.880	220.914	0.118	-0.188
-445.865	-137.940	-0.264	-0.029
-444.851	-120.161	0.291	-0.050
-443.836	-200.000	0.043	0.337
-442.822	121.547	0.152	-0.189
-441.807	-86.862	-0.139	0.042
-440.792	-108.970	-0.264	0.056
-439.778	-74.959	0.208	0.074
-438.763	623.762	-0.128	-0.321
-437.749	-51.681	-0.087	-0.040
-436.734	22.011	-0.168	-0.136
-435.719	-200.000	-0.027	0.143
-434.705	53.319	0.260	0.248
-433.690	176.860	-0.291	0.420
-432.676	-25.428	0.332	-0.195
-431.661	-200.000	-0.049	-0.306
-430.646	17.375	0.177	-0.139
-429.632	370.238	-0.048	-0.097
-428.617	-200.000	-0.008	0.102
-427.603	-18.294	0.191	-0.118
-426.588	-200.000	-0.014	0.293
-425.573	233.295	0.125	0.205
-424.559	-171.850	-0.345	0.011
-423.544	-110.888	-0.183	0.037
-422.530	136.731	0.112	0.145
-421.515	-165.433	0.386	0.017
-420.500	74.470	-0.138	0.144
-419.486	800.000	0.110	0.304
-418.471	204.695	-0.043	0.066
-417.457	-200.000	0.020	0.245
-416.442	514.115	0.137	-0.316
-415.428	386.044	0.057	-0.116
-414.413	-13.613	-0.217	0.140
-413.398	-200.000	0.006	-0.148
-412.384	-145.380	0.212	-0.019
-411.369	142.756	0.225	-0.297
-410.355	-25.616	-0.127	0.074
-409.340	-200.000	-0.025	0.180
-408.325	-98.271	-0.467	0.119
-407.311	0.564	-0.074	-0.053
-406.296	-200.000	-0.030	-0.170
-405.282	24.875	-0.118	0.097
-404.267	800.000	0.033	0.102
-403.252	-108.219	0.160	-0.034
-402.238	-73.414	-0.147	-0.053
-401.223	332.643	0.096	-0.183
-400.209	-135.525	-0.114	0.013
-399.194	-82.353	-0.445	-0.143
-398.179	318.227	-0.157	-0.294
-397.165	242.310	0.118	0.196
-396.150	8.377	-0.062	0.046
-395.136	-200.000	-0.007	-0.086
-394.121	30.695	0.241	-0.205
-393.106	43.513	0.046	0.041
-392.092	-200.000	-0.002	0.151
-391.077	-190.453	0.318	0.003
-390.063	-200.000	0.050	0.457
-389.048	-200.000	0.013	0.148
-388.033	154.054	-0.199	-0.270
-387.019	258.828	-0.072	0.123
-386.004	25.949	-0.053	-0.044
-384.990	-33.064	0.015	0.008
-383.975	94.507	-0.110	-0.124
-382.960	235.816	-0.108	0.176
-381.946	-140.976	0.285	0.029
-380.931	465.905	-0.052	0.116
-379.917	71.521	-0.280	-0.288
-378.902	278.594	0.140	-0.247
-377.888	135.714	0.050	-0.065
-376.873	-43.856	0.437	-0.218
-375.858	361.401	0.067	-0.133
-374.844	-48.394	0.213	0.102
-373.829	-103.362	-0.300	-0.070
-372.815	800.000	-0.095	0.320
-371.800	-158.734	-0.302	-0.017
-370.785	-104.522	0.238	-0.054
-369.771	-200.000	0.012	0.236
-368.756	-16.766	0.296	0.185
-367.742	800.000	0.057	-0.242
-366.727	32.002	-0.123	0.105
-365.712	256.191	0.104	0.177
-364.698	-34.176	0.145	-0.079
-363.683	800.000	0.016	0.066
-362.669	262.741	0.131	-0.224
-361.654	-200.000	0.017	-0.308
-360.639	327.224	0.149	-0.284
-359.625	-200.000	0.012	0.426
-358.610	788.017	0.032	0.086
-357.596	55.358	-0.135	-0.130
-356.581	-24.683	0.211	0.124
-355.566	800.000	0.017	0.059
-354.552	-171.938	-0.304	-0.010
-353.537	-200.000	-0.003	-0.031
-352.523	-200.000	-0.033	0.154
-351.508	157.638	0.065	-0.089
-350.493	136.247	0.145	-0.187
-349.479	-53.382	-0.030	-0.014
-348.464	33.231	0.155	-0.133
-347.450	121.199	0.056	-0.069
-346.435	-35.357	-0.250	-0.134
-345.420	-11.840	-0.069	0.045
-344.406	18.361	0.158	-0.125
-343.391	105.731	0.183	0.214
-342.377	-200.000	0.060	-0.325
-341.362	-200.000	0.001	-0.052
-340.348	-52.165	-0.238	0.109
-339.333	88.183	-0.197	-0.216
-338.318	-91.087	0.213	-0.061
-337.304	631.013	-0.018	0.045
-336.289	169.847	0.068	0.096
-335.275	-91.816	-0.160	0.045
-334.260	295.544	0.172	0.312
-333.245	94.046	0.068	-0.077
-332.231	-200.000	0.039	-0.262
-331.216	-60.266	-0.044	-0.019
-330.202	-200.000	-0.030	0.165
-329.187	-200.000	-0.050	0.442
-328.172	-149.384	0.279	-0.022
-327.158	-99.443	-0.203	0.051
-326.143	-200.000	0.006	0.181
-325.129	-50.971	0.061	-0.028
-324.114	-108.790	0.091	0.019
-323.099	-116.054	-0.563	-0.104
-322.085	161.632	0.166	-0.229
-321.070	782.720	-0.092	-0.250
-320.056	103.063	-0.398	0.461
-319.041	43.593	-0.151	-0.136
-318.026	800.000	0.024	-0.093
-317.012	-25.089	0.217	0.127
-315.997	-143.567	-0.167	-0.016
-314.983	-200.000	0.006	-0.052
-313.968	140.510	-0.238	0.310
-312.953	132.909	0.308	0.393
-311.939	-134.260	0.013	-0.002
-310.924	167.500	0.204	0.286
-309.910	-14.567	-0.256	-0.163
-308.895	190.746	-0.243	0.361
-307.880	-200.000	-0.000	-0.207
-306.866	-73.792	0.211	0.076
-305.851	227.068	-0.009	-0.014
-304.837	-200.000	-0.002	0.025
-303.822	342.114	0.043	-0.083
-302.807	-94.938	0.154	0.041
-301.793	126.888	0.086	0.107
-300.778	-182.392	-0.119	-0.002
-299.764	-64.124	0.304	0.122
-298.749	-200.000	-0.027	-0.210
-297.735	800.000	0.035	-0.106
-296.720	-121.491	-0.333	0.055
-295.705	-6.372	0.095	-0.064
-294.691	43.530	-0.027	-0.024
-293.676	35.165	0.156	-0.135
-292.662	800.000	-0.053	0.197
-291.647	3.315	-0.186	0.134
-290.632	-49.632	0.108	0.051
-289.618	-153.614	0.222	0.015
-288.603	-44.960	-0.341	0.168
-287.589	-53.459	-0.095	-0.043
-286.574	-75.230	0.236	0.083
-285.559	143.292	-0.199	0.261
-284.545	800.000	-0.072	-0.247
-283.530	28.432	-0.119	0.099
-282.516	-109.466	0.121	0.025
-281.501	191.898	0.140	0.208
-280.486	751.856	0.113	-0.301
-279.472	-200.000	0.022	-0.184
-278.457	-44.274	0.177	0.088
-277.443	28.535	-0.093	0.078
-276.428	257.315	-0.138	0.234
-275.413	208.550	0.113	0.174
-274.399	362.884	0.110	0.217
-273.384	273.327	0.144	0.251
-272.370	-36.212	0.255	0.136
-271.355	-123.552	-0.308	0.048
-270.340	1.249	0.111	-0.079
-269.326	-200.000	-0.044	-0.235
-268.311	20.676	0.124	0.099
-267.297	469.873	0.087	-0.192
-266.282	132.789	0.115	0.146
-265.267	-39.859	-0.250	-0.129
-264.253	91.308	0.246	0.272
-263.238	150.167	0.185	0.248
-262.224	-200.000	0.071	-0.348
-261.209	298.245	0.160	0.290
-260.195	-200.000	-0.013	0.114
-259.180	40.182	0.094	0.083
-258.165	3.849	0.200	0.144
-257.151	800.000	0.067	0.237
-256.136	158.172	-0.222	-0.303
-255.122	-46.900	-0.390	-0.188
-254.107	-200.000	0.005	0.175
-253.092	-200.000	0.006	-0.187
-252.078	-163.893	0.202	-0.009
-251.063	230.114	-0.142	-0.228
-250.049	-200.000	0.014	-0.280
-249.034	-200.000	-0.061	0.407
-248.019	-200.000	-0.028	0.296
-247.005	9.099	0.185	0.138
-245.990	263.168	0.077	0.131
-244.976	4.891	-0.028	0.020
-243.961	249.636	0.164	-0.274
-242.946	191.045	0.092	-0.136
-241.932	800.000	0.053	0.220
-240.917	241.910	-0.134	0.221
-239.903	-6.376	0.175	-0.117
-238.888	-12.025	0.087	0.056
-237.873	-4.436	-0.111	-0.076
-236.859	-187.492	0.281	-0.004
-235.844	-200.000	0.049	-0.227
-234.830	159.281	0.059	0.081
-233.815	115.849	0.091	0.110
-232.800	62.048	-0.118	-0.115
-231.786	-133.445	0.086	0.011
-230.771	331.505	-0.115	0.219
-229.757	-200.000	-0.001	0.148
-228.742	-200.000	0.047	-0.307
-227.727	46.071	0.097	-0.089
-226.713	800.000	-0.042	-0.129
-225.698	-200.000	0.063	0.305
-224.684	800.000	-0.131	0.362
-223.669	-130.025	-0.222	0.030
-222.655	23.153	0.172	0.139
-221.640	74.018	0.143	0.147
-220.625	79.052	-0.185	-0.195
-219.611	160.757	0.087	0.120
-218.596	322.925	-0.055	0.104
-217.582	800.000	-0.045	0.184
-216.567	32.703	-0.241	-0.205
-215.552	-200.000	-0.034	-0.312
-214.538	-200.000	0.064	-0.281
-213.523	195.090	-0.158	-0.236
-212.509	-78.864	-0.065	-0.022
-211.494	-200.000	0.026	-0.455
-210.479	-166.361	-0.108	0.004
-209.465	800.000	0.093	0.344
-208.450	131.586	0.297	0.375
-207.436	158.964	-0.213	-0.291
-206.421	-70.136	0.157	0.059
-205.406	148.210	-0.175	-0.233
-204.392	5.351	-0.228	0.165
-203.377	-90.317	0.250	-0.071
-202.363	13.999	0.120	0.092
-201.348	-66.528	-0.379	-0.148
-200.333	-200.000	0.039	-0.233
-199.319	-154.476	-0.236	-0.016
-198.304	-159.364	0.300	0.016
-197.290	-200.000	-0.021	0.110
-196.275	7.414	-0.360	0.265
-195.260	-200.000	-0.008	0.038
-194.246	-200.000	0.050	0.284
-193.231	800.000	-0.061	-0.167
-192.217	630.352	-0.184	-0.457
-191.202	-200.000	0.031	-0.176
-190.187	43.568	0.216	-0.195
-189.173	-200.000	-0.007	-0.188
-188.158	-163.753	-0.077	-0.004
-187.144	98.328	0.296	0.335
-186.129	758.146	0.091	0.243
-185.114	2.552	-0.206	0.146
-184.100	713.141	0.056	-0.145
-183.085	-78.363	0.134	-0.045
-182.071	-31.020	-0.121	-0.067
-181.056	-72.398	0.286	0.104
-180.042	-200.000	0.003	0.118
-179.027	6.070	-0.226	0.164
-178.012	-149.989	-0.118	0.009
-176.998	185.512	-0.102	0.149
-175.983	-58.232	-0.350	0.150
-174.969	3.926	-0.201	-0.144
-173.954	-23.923	-0.224	-0.132
-172.939	-200.000	-0.037	-0.399
-171.925	-200.000	0.048	-0.241
-170.910	-72.989	0.378	0.136
-169.896	472.901	-0.141	-0.311
-168.881	-174.217	0.158	0.005
-167.866	800.000	0.038	0.137
-166.852	-141.280	-0.213	0.021
-165.837	800.000	0.084	-0.272
-164.823	-40.524	-0.014	-0.007
-163.808	-122.906	0.167	0.026
-162.793	-200.000	0.022	0.217
-161.779	67.365	0.215	0.215
-160.764	-159.230	0.265	-0.015
-159.750	34.002	-0.191	-0.163
-158.735	-154.109	0.208	0.014
-157.720	-106.536	-0.347	-0.076
-156.706	341.108	-0.241	0.461
-155.691	13.797	-0.065	-0.049
-154.677	-140.450	-0.087	-0.009
-153.662	-73.210	-0.070	0.025
-152.647	-50.907	0.327	-0.151
-151.633	35.282	0.198	-0.171
-150.618	-200.000	-0.002	0.046
-149.604	137.893	0.063	0.081
-148.589	66.620	-0.372	-0.371
-147.574	-104.861	0.312	0.070
-146.560	800.000	-0.047	0.132
-145.545	-200.000	0.020	0.164
-144.531	800.000	0.078	0.249
-143.516	-110.612	-0.436	0.089
-142.502	359.910	0.138	-0.270
-141.487	-200.000	0.050	-0.312
-140.472	114.945	-0.214	0.256
-139.458	21.619	0.225	0.179
-138.443	256.588	-0.137	-0.230
-137.429	-138.707	0.065	0.007
-136.414	-200.000	0.015	-0.125
-135.399	83.749	0.129	0.138
-134.385	-167.872	0.168	-0.006
-133.370	-195.043	0.398	0.003
-132.356	-200.000	0.039	-0.419
-131.341	576.135	0.108	-0.258
-130.326	77.986	0.222	-0.232
-129.312	476.930	-0.005	0.010
-128.297	-67.207	0.187	-0.072
-127.283	-52.415	-0.224	0.101
-126.268	-172.908	0.192	0.006
-125.253	-87.932	0.283	0.083
-124.239	-128.439	-0.353	0.049
-123.224	83.163	-0.065	-0.070
-122.210	800.000	-0.100	0.278
-121.195	-200.000	0.061	0.501
