DTS Sentinel unit serial number:	SN413079Multiplexer serial number:	ORYXHardware model number:	OX4-SRSoftware version number:	ORYX F/W v4.00 Oryx Data Collector v3.7.2.0data status	okinstallation	princeton_trtdifferential loss correction	single-endedforward channel	channel 2reverse channel	N/Adate	2019/09/17time	18:07:35forward acquisition time	60.00reverse acquisition time	0.00gamma	496.2192k internal	0.2289k external	0.2289temperature offset calibration	0.9982default loss term (dB/km)	0.3790temperature slope calibration	1.0000multiplexer offset coefficient	1.0000multiplexer slope coefficient	1.0000fibre end	0.00T internal ref (°C)	43.50T ext. ref 1 (°C)	0.33T ext. ref 2 (°C)	38.32length (m)	temperature (°C)	Stokes	anti-Stokes-747.200	-156.103	0.480	0.031
-746.185	800.000	0.030	0.103
-745.171	-200.000	0.077	0.389
-744.156	-200.000	0.036	0.310
-743.142	661.490	-0.087	0.230
-742.127	88.826	-0.095	-0.108
-741.112	-200.000	0.017	0.360
-740.098	-44.100	-0.113	0.058
-739.083	-77.228	0.049	-0.018
-738.069	352.578	-0.182	0.370
-737.054	-16.666	-0.370	-0.240
-736.039	-39.857	-0.369	0.198
-735.025	109.349	0.159	0.196
-734.010	158.173	-0.172	0.244
-732.996	-200.000	-0.045	-0.333
-731.981	800.000	-0.033	0.146
-730.966	44.746	-0.084	0.079
-729.952	116.679	-0.167	0.209
-728.937	-200.000	-0.024	-0.141
-727.923	-39.933	-0.418	-0.223
-726.908	-145.766	-0.173	-0.016
-725.894	-200.000	-0.064	0.360
-724.879	63.373	-0.180	-0.185
-723.864	-140.038	0.175	-0.019
-722.850	231.734	-0.130	-0.218
-721.835	-63.212	0.133	0.056
-720.821	-200.000	-0.053	-0.319
-719.806	800.000	-0.089	-0.397
-718.791	34.296	-0.124	-0.110
-717.777	-200.000	0.039	-0.357
-716.762	-200.000	-0.031	-0.350
-715.748	-42.403	-0.094	-0.049
-714.733	-61.814	-0.281	0.120
-713.718	54.968	0.207	0.205
-712.704	-120.202	0.154	-0.027
-711.689	-52.830	-0.230	0.108
-710.675	-4.108	0.103	-0.073
-709.660	-13.041	-0.253	0.169
-708.645	19.231	0.074	0.061
-707.631	215.760	0.156	0.253
-706.616	-39.907	0.173	-0.092
-705.602	-32.656	-0.077	0.044
-704.587	-160.120	0.268	-0.015
-703.572	-109.147	-0.195	0.042
-702.558	372.677	0.071	0.148
-701.543	-87.416	-0.113	0.035
-700.529	-116.264	0.188	0.036
-699.514	144.887	0.009	0.013
-698.499	-137.252	-0.030	0.004
-697.485	436.937	0.076	-0.170
-696.470	-200.000	0.011	-0.084
-695.456	85.304	-0.161	-0.181
-694.441	-120.079	-0.341	0.060
-693.426	800.000	-0.084	-0.349
-692.412	-26.396	0.084	0.051
-691.397	198.672	0.045	0.071
-690.383	-51.769	-0.244	-0.116
-689.368	-15.290	-0.183	-0.120
-688.354	60.450	-0.142	-0.144
-687.339	25.043	-0.321	0.272
-686.324	583.307	-0.073	-0.184
-685.310	0.651	0.215	0.158
-684.295	83.933	-0.217	-0.242
-683.281	81.295	0.161	-0.178
-682.266	-92.757	-0.299	0.086
-681.251	481.446	0.050	0.116
-680.237	-141.846	-0.262	0.027
-679.222	103.053	0.104	-0.124
-678.208	-8.905	0.176	-0.121
-677.193	173.173	0.129	-0.190
-676.178	452.365	-0.150	-0.338
-675.164	-155.409	-0.209	0.014
-674.149	198.847	-0.095	-0.149
-673.135	-59.953	0.121	-0.053
-672.120	-51.895	0.064	-0.030
-671.105	-91.364	-0.179	-0.052
-670.091	-200.000	0.035	-0.194
-669.076	-165.274	-0.021	-0.001
-668.062	-157.135	-0.352	0.022
-667.047	592.863	-0.084	-0.213
-666.032	-200.000	0.006	-0.420
-665.018	15.318	0.175	0.141
-664.003	240.683	-0.008	-0.013
-662.989	-20.633	-0.129	-0.081
-661.974	788.579	-0.047	0.133
-660.959	102.236	0.057	-0.068
-659.945	512.653	0.137	-0.327
-658.930	67.138	-0.031	0.033
-657.916	-47.622	0.091	-0.045
-656.901	-200.000	-0.007	0.140
-655.886	-130.779	0.268	-0.037
-654.872	247.716	-0.088	-0.152
-653.857	-200.000	0.031	-0.403
-652.843	420.665	0.052	-0.113
-651.828	149.882	-0.182	0.253
-650.814	522.382	-0.113	0.271
-649.799	305.991	0.204	0.387
-648.784	-97.814	0.140	0.037
-647.770	129.420	-0.178	-0.232
-646.755	56.197	0.264	0.262
-645.741	800.000	0.075	0.258
-644.726	-68.331	-0.212	-0.084
-643.711	-44.513	0.195	-0.099
-642.697	170.442	-0.082	-0.120
-641.682	-63.407	-0.108	0.045
-640.668	121.369	-0.212	-0.270
-639.653	65.249	-0.098	0.102
-638.638	143.352	0.287	-0.390
-637.624	-43.811	-0.171	0.088
-636.609	-16.087	0.357	0.232
-635.595	31.530	-0.252	0.221
-634.580	-6.714	0.339	0.236
-633.565	200.618	-0.054	0.085
-632.551	-46.330	-0.146	-0.073
-631.536	-44.673	0.443	0.226
-630.522	800.000	0.067	-0.225
-629.507	-164.215	0.289	0.014
-628.492	181.006	-0.138	0.207
-627.478	-83.345	-0.324	0.106
-626.463	-145.091	-0.065	0.006
-625.449	-93.339	0.207	-0.059
-624.434	47.227	0.139	-0.132
-623.419	-172.292	0.121	0.004
-622.405	1.303	-0.123	-0.090
-621.390	-187.960	0.127	-0.002
-620.376	145.794	-0.092	0.126
-619.361	255.599	-0.088	-0.154
-618.346	-200.000	0.009	0.206
-617.332	171.247	0.148	-0.217
-616.317	424.946	-0.077	-0.168
-615.303	800.000	-0.089	-0.360
-614.288	-200.000	0.044	0.392
-613.273	256.647	-0.121	-0.212
-612.259	185.577	0.231	-0.350
-611.244	296.516	-0.093	0.174
-610.230	-94.745	-0.161	0.045
-609.215	-3.424	-0.130	-0.092
-608.201	-54.164	0.471	-0.218
-607.186	-200.000	0.048	0.273
-606.171	-71.618	0.153	-0.058
-605.157	-57.544	-0.085	-0.038
-604.142	800.000	0.039	0.134
-603.128	15.081	-0.180	0.144
-602.113	-42.480	-0.155	-0.081
-601.098	-6.299	-0.163	0.113
-600.084	-200.000	-0.028	-0.208
-599.069	-108.438	0.146	0.032
-598.055	154.059	0.111	0.155
-597.040	301.849	-0.073	0.137
-596.025	7.420	-0.253	-0.193
-595.011	-69.594	0.235	-0.092
-593.996	-122.491	0.214	0.036
-592.982	-129.550	0.193	-0.027
-591.967	69.305	-0.208	0.218
-590.952	23.936	-0.286	0.241
-589.938	-90.879	0.252	0.074
-588.923	29.521	-0.192	0.166
-587.909	339.175	0.169	0.336
-586.894	-200.000	-0.005	0.229
-585.879	48.255	-0.349	0.333
-584.865	800.000	-0.028	-0.122
-583.850	-16.485	0.184	0.119
-582.836	-2.623	-0.087	0.062
-581.821	-79.113	-0.167	-0.058
-580.806	308.414	-0.021	-0.040
-579.792	453.415	0.041	-0.093
-578.777	693.078	0.069	0.184
-577.763	39.178	-0.307	-0.280
-576.748	37.364	-0.153	0.138
-575.733	-200.000	0.007	0.365
-574.719	55.752	0.197	-0.195
-573.704	790.367	0.089	0.249
-572.690	324.171	-0.106	-0.206
-571.675	137.930	-0.150	0.201
-570.661	-92.141	0.131	-0.038
-569.646	-148.800	-0.132	-0.011
-568.631	122.500	0.114	0.145
-567.617	325.283	0.131	-0.254
-566.602	-200.000	0.012	-0.555
-565.588	-100.457	0.089	0.022
-564.573	-89.375	0.133	0.040
-563.558	-200.000	0.047	0.265
-562.544	-178.832	0.297	-0.007
-561.529	-77.721	0.135	-0.048
-560.515	100.388	-0.309	-0.365
-559.500	38.316	0.440	-0.399
-558.485	138.004	0.213	0.284
-557.471	-200.000	0.011	0.097
-556.456	-178.818	-0.215	0.005
-555.442	616.946	-0.044	0.112
-554.427	96.278	-0.184	-0.214
-553.412	37.777	0.129	-0.117
-552.398	-200.000	0.013	0.298
-551.383	-185.394	0.062	0.001
-550.369	-22.093	0.168	-0.104
-549.354	-131.309	-0.190	0.026
-548.339	-13.539	-0.232	0.153
-547.325	93.200	0.110	-0.126
-546.310	3.948	0.182	0.135
-545.296	158.102	0.028	-0.039
-544.281	-73.769	-0.148	0.055
-543.266	-100.682	-0.134	-0.034
-542.252	-200.000	0.045	0.463
-541.237	263.851	-0.167	0.296
-540.223	-77.302	0.534	-0.189
-539.208	382.215	0.069	-0.145
-538.193	57.459	-0.151	-0.150
-537.179	-21.800	-0.034	0.021
-536.164	-141.840	-0.094	-0.010
-535.150	-200.000	-0.020	-0.285
-534.135	-18.255	0.055	0.035
-533.121	-27.756	0.328	-0.193
-532.106	-115.254	-0.061	0.012
-531.091	-200.000	-0.032	-0.359
-530.077	-200.000	-0.009	0.053
-529.062	179.495	-0.307	-0.457
-528.048	-36.276	0.545	-0.299
-527.033	8.888	0.156	-0.120
-526.018	-200.000	-0.022	0.269
-525.004	-159.521	0.106	-0.006
-523.989	310.615	-0.153	0.291
-522.975	22.445	-0.144	-0.120
-521.960	-23.973	0.151	-0.092
-520.945	800.000	0.028	0.084
-519.931	0.676	0.172	0.125
-518.916	396.505	0.064	-0.137
-517.902	3.602	-0.100	0.074
-516.887	-200.000	-0.008	-0.052
-515.872	-127.522	-0.475	-0.070
-514.858	-109.064	-0.188	-0.041
-513.843	-200.000	0.085	0.440
-512.829	-79.372	-0.116	-0.040
-511.814	44.034	-0.094	-0.088
-510.799	-80.942	-0.027	0.009
-509.785	-18.926	-0.337	0.213
-508.770	121.684	0.070	0.088
-507.756	23.266	-0.117	0.098
-506.741	-38.808	0.033	-0.018
-505.726	-113.131	-0.232	0.047
-504.712	224.749	0.185	0.304
-503.697	800.000	0.100	-0.300
-502.683	-200.000	-0.014	0.077
-501.668	-8.660	0.284	0.194
-500.653	800.000	-0.146	-0.503
-499.639	800.000	0.017	0.047
-498.624	62.661	0.230	0.233
-497.610	-35.796	0.167	0.092
-496.595	16.947	-0.256	-0.206
-495.581	-125.134	0.200	0.031
-494.566	152.130	-0.105	0.146
-493.551	144.491	-0.167	-0.226
-492.537	-118.995	0.261	-0.046
-491.522	324.052	-0.057	0.110
-490.508	-200.000	0.019	-0.372
-489.493	174.211	0.182	0.267
-488.478	-200.000	-0.037	-0.199
-487.464	800.000	-0.091	-0.304
-486.449	-138.592	-0.097	0.011
-485.435	-200.000	0.027	-0.129
-484.420	-20.043	0.354	0.222
-483.405	6.641	0.244	0.184
-482.391	748.432	0.080	-0.218
-481.376	-200.000	-0.018	0.106
-480.362	191.213	-0.145	0.222
-479.347	329.274	-0.182	0.356
-478.332	-66.505	0.163	-0.065
-477.318	-200.000	-0.000	0.032
-476.303	800.000	-0.059	-0.207
-475.289	-126.085	-0.286	0.044
-474.274	-49.030	-0.251	-0.122
-473.259	-147.091	0.196	0.017
-472.245	-131.492	0.288	-0.038
-471.230	-200.000	-0.062	-0.389
-470.216	-200.000	-0.052	0.482
-469.201	228.941	0.142	0.235
-468.186	800.000	-0.042	0.185
-467.172	-14.143	0.144	0.094
-466.157	-200.000	-0.056	0.277
-465.143	-200.000	0.038	-0.248
-464.128	-121.392	-0.206	0.035
-463.113	-197.314	0.085	0.001
-462.099	92.298	0.103	0.118
-461.084	22.867	-0.106	0.088
-460.070	-133.379	0.181	0.023
-459.055	-30.152	-0.045	-0.026
-458.040	-134.019	0.307	0.038
-457.026	-34.992	-0.455	-0.252
-456.011	-140.838	-0.278	0.029
-454.997	166.477	-0.052	0.074
-453.982	-13.341	0.251	0.165
-452.968	112.823	0.144	-0.176
-451.953	-200.000	-0.073	0.387
-450.938	111.785	-0.165	-0.202
-449.924	50.628	-0.178	0.170
-448.909	800.000	0.066	-0.217
-447.895	-104.826	0.284	-0.066
-446.880	245.764	-0.075	-0.128
-445.865	-97.594	-0.105	0.028
-444.851	-72.014	0.186	0.070
-443.836	23.882	-0.143	0.120
-442.822	-53.951	0.119	-0.055
-441.807	73.591	0.100	0.106
-440.792	214.002	-0.173	-0.278
-439.778	67.155	-0.280	-0.290
-438.763	244.912	-0.076	-0.129
-437.749	256.875	-0.102	0.178
-436.734	147.091	-0.256	-0.348
-435.719	-92.034	-0.317	0.091
-434.705	-200.000	-0.025	-0.192
-433.690	-44.755	0.347	0.175
-432.676	762.439	0.051	-0.139
-431.661	-94.352	-0.277	0.077
-430.646	16.303	-0.050	0.040
-429.632	4.610	0.286	0.213
-428.617	-35.645	0.267	-0.147
-427.603	446.424	-0.115	-0.257
-426.588	49.186	-0.124	0.118
-425.573	4.982	0.226	0.168
-424.559	456.758	-0.069	0.155
-423.544	-20.287	-0.311	-0.194
-422.530	-41.204	0.231	-0.120
-421.515	570.417	-0.053	-0.132
-420.500	-51.404	-0.262	0.124
-419.486	-102.047	-0.209	-0.051
-418.471	-174.847	-0.194	-0.006
-417.457	487.357	-0.077	0.178
-416.442	-68.986	0.045	-0.017
-415.428	-92.865	0.309	0.087
-414.413	-158.878	-0.084	0.005
-413.398	-0.295	0.190	0.136
-412.384	58.292	0.058	0.058
-411.369	800.000	0.045	0.126
-410.355	176.949	0.169	-0.248
-409.340	-108.985	-0.370	-0.080
-408.325	-200.000	0.028	0.290
-407.311	800.000	0.049	-0.143
-406.296	58.293	-0.120	0.119
-405.282	-104.899	0.061	-0.014
-404.267	143.237	0.023	0.031
-403.252	-200.000	-0.081	-0.367
-402.238	89.843	-0.210	0.237
-401.223	-200.000	0.018	0.129
-400.209	-90.372	-0.066	-0.019
-399.194	800.000	-0.131	-0.491
-398.179	268.025	0.112	-0.198
-397.165	-62.622	0.449	0.189
-396.150	485.791	-0.039	0.089
-395.136	-200.000	0.001	0.022
-394.121	-200.000	-0.010	0.124
-393.106	396.819	-0.131	0.276
-392.092	-200.000	0.007	0.039
-391.077	-200.000	0.053	-0.243
-390.063	-200.000	0.000	0.027
-389.048	270.892	-0.183	-0.326
-388.033	-200.000	-0.021	-0.112
-387.019	-75.911	-0.191	-0.068
-386.004	26.502	0.382	-0.323
-384.990	-200.000	0.043	-0.346
-383.975	800.000	0.041	0.170
-382.960	-103.532	0.250	0.059
-381.946	-19.898	0.184	0.115
-380.931	74.236	-0.217	0.230
-379.917	187.950	0.152	-0.230
-378.902	543.029	0.065	-0.157
-377.888	-200.000	-0.028	0.245
-376.873	235.857	0.047	0.079
-375.858	82.776	0.030	0.033
-374.844	-105.744	0.191	0.044
-373.829	-62.925	0.232	-0.097
-372.815	-200.000	-0.036	0.222
-371.800	408.465	-0.063	0.134
-370.785	800.000	-0.042	0.144
-369.771	304.971	0.143	-0.268
-368.756	17.321	0.203	0.163
-367.742	51.680	0.227	-0.218
-366.727	95.652	-0.093	-0.107
-365.712	-10.657	-0.078	-0.052
-364.698	48.118	-0.254	-0.240
-363.683	-149.072	-0.191	0.016
-362.669	-78.704	0.285	0.098
-361.654	-96.732	-0.032	0.008
-360.639	-71.229	0.152	0.058
-359.625	800.000	-0.096	-0.277
-358.610	-200.000	-0.007	-0.346
-357.596	-139.514	-0.309	0.033
-356.581	-200.000	0.028	-0.256
-355.566	-95.826	0.316	0.085
-354.552	-80.494	-0.025	-0.008
-353.537	126.551	-0.125	-0.160
-352.523	10.086	0.144	0.110
-351.508	-63.229	0.436	0.182
-350.493	-169.265	0.308	-0.011
-349.479	-74.157	-0.191	0.070
-348.464	44.366	-0.302	0.280
-347.450	234.218	-0.259	-0.430
-346.435	-55.642	0.208	-0.094
-345.420	-127.584	-0.039	0.006
-344.406	-98.528	0.145	0.037
-343.391	-136.191	0.245	-0.029
-342.377	-200.000	-0.004	0.042
-341.362	490.525	-0.065	0.151
-340.348	-162.292	0.278	-0.014
-339.333	-200.000	-0.020	0.217
-338.318	-58.514	0.174	0.076
-337.304	-200.000	0.029	-0.252
-336.289	-72.634	0.103	-0.038
-335.275	800.000	0.117	-0.332
-334.260	-191.424	-0.211	0.002
-333.245	310.944	0.157	0.298
-332.231	-200.000	-0.013	-0.221
-331.216	-153.971	-0.029	-0.002
-330.202	-200.000	0.005	0.194
-329.187	-23.321	0.177	0.108
-328.172	-4.694	-0.336	-0.234
-327.158	327.858	0.242	0.469
-326.143	800.000	0.136	0.502
-325.129	-200.000	-0.005	0.243
-324.114	-160.452	-0.180	0.010
-323.099	-76.415	-0.164	-0.058
-322.085	-200.000	-0.016	0.140
-321.070	103.782	0.147	-0.174
-320.056	-10.741	-0.202	0.135
-319.041	4.438	-0.119	-0.088
-318.026	681.111	-0.034	-0.088
-317.012	-86.723	-0.211	-0.065
-315.997	-200.000	-0.043	0.283
-314.983	163.552	0.022	0.031
-313.968	-35.226	0.161	0.088
-312.953	-186.045	0.157	0.002
-311.939	-76.813	-0.315	-0.111
-310.924	-200.000	0.010	-0.170
-309.910	92.094	0.275	-0.312
-308.895	-200.000	0.003	-0.368
-307.880	800.000	0.094	-0.389
-306.866	-200.000	-0.011	-0.267
-305.851	-100.919	-0.165	-0.041
-304.837	-100.132	0.084	0.021
-303.822	678.731	-0.005	-0.013
-302.807	82.510	0.137	-0.150
-301.793	800.000	-0.053	0.208
-300.778	-200.000	0.029	-0.172
-299.764	-40.912	-0.395	0.206
-298.749	219.829	0.087	-0.141
-297.735	23.417	0.098	-0.081
-296.720	-99.477	-0.443	0.112
-295.705	250.505	0.177	0.303
-294.691	800.000	-0.036	-0.140
-293.676	93.354	0.157	-0.179
-292.662	91.797	-0.095	-0.108
-291.647	-25.029	0.036	-0.022
-290.632	-145.424	-0.187	-0.017
-289.618	-200.000	-0.013	0.185
-288.603	-105.057	-0.191	0.044
-287.589	-106.379	-0.075	0.017
-286.574	192.456	0.163	-0.248
-285.559	151.258	-0.114	0.157
-284.545	-117.842	-0.068	-0.012
-283.530	9.278	0.507	0.386
-282.516	800.000	-0.021	0.075
-281.501	-59.288	0.246	-0.107
-280.486	-107.076	0.277	-0.062
-279.472	84.699	-0.291	-0.321
-278.457	-38.078	0.104	-0.056
-277.443	272.443	0.152	-0.271
-276.428	-79.600	-0.148	-0.050
-275.413	800.000	0.017	0.057
-274.399	-156.479	-0.107	-0.007
-273.384	-68.823	-0.234	0.091
-272.370	-85.087	-0.269	-0.085
-271.355	138.672	0.177	-0.234
-270.340	759.441	-0.032	-0.088
-269.326	512.224	0.037	0.087
-268.311	800.000	0.095	0.317
-267.297	-8.859	0.232	-0.156
-266.282	636.113	0.103	0.264
-265.267	-128.511	-0.048	-0.007
-264.253	-116.834	-0.106	0.020
-263.238	612.953	-0.047	0.119
-262.224	572.532	-0.027	-0.065
-261.209	222.264	-0.034	0.055
-260.195	198.005	-0.113	-0.174
-259.180	-28.292	0.094	0.055
-258.165	-155.720	0.464	0.030
-257.151	-155.501	0.289	-0.019
-256.136	256.305	0.092	0.160
-255.122	510.240	0.063	0.146
-254.107	-200.000	-0.036	0.301
-253.092	800.000	0.120	0.335
-252.078	800.000	-0.107	0.372
-251.063	-150.540	-0.082	-0.006
-250.049	-108.662	-0.137	-0.030
-249.034	-200.000	0.023	0.346
-248.019	-132.707	-0.215	-0.028
-247.005	-79.828	-0.130	0.044
-245.990	119.244	0.260	0.323
-244.976	-200.000	-0.017	-0.184
-243.961	-183.171	-0.298	0.005
-242.946	183.927	0.115	-0.171
-241.932	-95.618	0.121	-0.033
-240.917	-99.916	-0.141	-0.036
-239.903	-106.808	-0.052	0.012
-238.888	800.000	-0.081	-0.243
-237.873	-42.124	0.236	0.121
-236.859	800.000	-0.095	-0.319
-235.844	137.305	-0.234	-0.308
-234.830	-200.000	0.000	-0.077
-233.815	-117.451	-0.275	0.050
-232.800	-69.989	0.113	0.043
-231.786	-48.431	0.220	-0.107
-230.771	-20.346	-0.075	-0.046
-229.757	800.000	0.061	-0.234
-228.742	707.420	-0.082	0.217
-227.727	-34.258	-0.370	-0.204
-226.713	90.658	-0.041	0.046
-225.698	-62.714	-0.313	0.130
-224.684	175.964	-0.313	0.457
-223.669	-31.908	0.394	0.221
-222.655	121.082	0.137	-0.171
-221.640	-80.172	0.267	0.090
-220.625	-200.000	-0.009	-0.118
-219.611	132.741	-0.241	-0.312
-218.596	-64.397	-0.092	0.038
-217.582	-11.008	-0.208	0.138
-216.567	-200.000	0.021	-0.100
-215.552	108.285	-0.158	0.189
-214.538	93.657	-0.048	-0.055
-213.523	-106.517	0.306	0.068
-212.509	76.879	0.125	0.133
-211.494	-198.736	-0.070	0.000
-210.479	-13.854	-0.204	-0.132
-209.465	160.926	-0.059	0.083
-208.450	22.271	-0.298	-0.244
-207.436	272.925	-0.063	-0.112
-206.421	181.735	0.055	-0.081
-205.406	-200.000	-0.010	0.144
-204.392	-133.281	-0.150	-0.019
-203.377	-200.000	-0.037	-0.177
-202.363	147.711	-0.288	0.390
-201.348	800.000	-0.053	0.171
-200.333	286.394	-0.138	0.250
-199.319	-200.000	0.024	0.147
-198.304	-28.363	0.145	-0.084
-197.290	-122.168	0.155	-0.026
-196.275	-35.951	-0.456	-0.247
-195.260	-120.548	-0.148	-0.025
-194.246	-87.540	-0.436	0.132
-193.231	-115.388	0.300	-0.057
-192.217	37.598	0.348	-0.310
-191.202	-71.528	-0.315	0.118
-190.187	41.216	-0.180	-0.163
-189.173	-200.000	0.023	0.199
-188.158	-83.932	-0.434	-0.138
-187.144	-200.000	0.043	0.236
-186.129	24.766	-0.079	-0.066
-185.114	-117.447	0.142	-0.026
-184.100	259.512	0.048	0.083
-183.085	-160.421	-0.106	-0.006
-182.071	800.000	-0.065	0.193
-181.056	-7.334	-0.443	-0.301
-180.042	-56.196	0.138	-0.062
-179.027	435.872	0.119	-0.259
-178.012	388.666	-0.094	-0.195
-176.998	32.531	0.143	0.124
-175.983	238.311	0.073	0.121
-174.969	800.000	0.039	0.123
-173.954	800.000	0.044	0.179
-172.939	-200.000	-0.034	-0.240
-171.925	800.000	-0.067	0.254
-170.910	97.353	-0.100	-0.116
-169.896	-90.179	0.137	0.040
-168.881	-105.158	0.309	-0.071
-167.866	46.689	-0.114	0.106
-166.852	-154.281	0.370	0.025
-165.837	800.000	-0.096	-0.347
-164.823	-68.831	0.166	0.064
-163.808	96.375	-0.130	0.150
-162.793	185.285	0.162	-0.241
-161.779	176.735	-0.200	0.292
-160.764	118.525	0.115	0.142
-159.750	-200.000	0.069	-0.315
-158.735	-200.000	-0.009	-0.130
-157.720	16.274	0.091	-0.072
-156.706	43.715	-0.119	-0.109
-155.691	138.385	-0.038	0.049
-154.677	26.205	-0.038	-0.032
-153.662	-25.332	-0.075	-0.045
-152.647	-45.910	-0.258	0.128
-151.633	-44.656	0.235	-0.118
-150.618	20.890	-0.177	-0.144
-149.604	-200.000	0.012	0.134
-148.589	-39.889	-0.156	0.081
-147.574	800.000	-0.035	0.125
-146.560	-105.562	-0.350	-0.080
-145.545	304.241	0.135	0.252
-144.531	257.152	0.088	0.152
-143.516	20.882	0.289	-0.235
-142.502	-42.641	0.046	-0.023
-141.487	-98.242	-0.375	0.096
-140.472	208.623	0.082	0.128
-139.458	178.325	-0.106	-0.155
-138.443	-50.724	0.199	0.094
-137.429	353.222	-0.268	0.533
-136.414	257.941	-0.045	0.078
-135.399	800.000	0.041	-0.125
-134.385	-88.128	0.181	0.054
-133.370	105.161	0.178	-0.210
-132.356	-196.662	-0.148	0.001
-131.341	23.495	0.163	0.134
-130.326	344.434	-0.086	-0.168
-129.312	-200.000	-0.017	0.187
-128.297	-90.892	0.170	-0.049
-127.283	-200.000	0.013	-0.164
-126.268	-157.302	-0.145	-0.009
-125.253	-52.006	0.110	-0.051
-124.239	-61.153	0.186	0.078
-123.224	800.000	-0.019	0.079
-122.210	-16.574	-0.277	0.175
-121.195	192.226	0.076	0.114
