DTS Sentinel unit serial number:	SN413079Multiplexer serial number:	ORYXHardware model number:	OX4-SRSoftware version number:	ORYX F/W v4.00 Oryx Data Collector v3.7.2.0data status	okinstallation	princeton_trtdifferential loss correction	single-endedforward channel	channel 2reverse channel	N/Adate	2019/09/13time	14:59:34forward acquisition time	60.00reverse acquisition time	0.00gamma	496.2192k internal	0.2314k external	0.2314temperature offset calibration	1.0206default loss term (dB/km)	0.3790temperature slope calibration	1.0000multiplexer offset coefficient	1.0000multiplexer slope coefficient	1.0000fibre end	0.00T internal ref (°C)	35.62T ext. ref 1 (°C)	4.69T ext. ref 2 (°C)	30.90length (m)	temperature (°C)	Stokes	anti-Stokes-747.200	-30.588	0.112	0.065
-746.185	-81.434	-0.247	0.082
-745.171	466.084	-0.039	-0.089
-744.156	-95.068	-0.193	-0.053
-743.142	-129.540	-0.429	0.060
-742.127	-53.955	0.261	0.120
-741.112	-21.587	0.285	0.176
-740.098	194.215	-0.260	0.400
-739.083	-78.186	0.289	0.101
-738.069	-48.007	0.127	-0.062
-737.054	-17.701	0.229	-0.146
-736.039	800.000	-0.045	-0.186
-735.025	132.056	0.188	0.246
-734.010	800.000	0.052	-0.167
-732.996	3.094	0.283	-0.208
-731.981	-200.000	0.013	0.135
-730.966	-78.248	-0.216	0.075
-729.952	118.642	-0.164	-0.206
-728.937	294.387	-0.071	0.132
-727.923	174.486	0.108	0.158
-726.908	-94.687	-0.293	-0.081
-725.894	60.174	-0.185	-0.185
-724.879	-200.000	-0.002	-0.122
-723.864	-200.000	-0.031	-0.165
-722.850	586.578	0.150	-0.374
-721.835	-193.458	-0.306	0.003
-720.821	-2.671	0.275	0.195
-719.806	-77.985	0.333	0.116
-718.791	-133.715	-0.156	-0.020
-717.777	-68.008	0.319	-0.126
-716.762	-22.946	0.199	-0.122
-715.748	-200.000	-0.055	0.296
-714.733	428.591	-0.181	-0.396
-713.718	-63.350	-0.374	-0.156
-712.704	523.707	-0.083	-0.197
-711.689	6.511	-0.116	0.088
-710.675	-200.000	0.037	0.449
-709.660	157.984	0.159	0.223
-708.645	297.455	-0.291	-0.540
-707.631	15.644	0.210	0.167
-706.616	-47.483	-0.239	0.118
-705.602	-163.918	0.088	0.004
-704.587	-23.946	-0.129	0.078
-703.572	1.488	-0.264	-0.193
-702.558	800.000	0.065	-0.193
-701.543	46.753	0.160	0.151
-700.529	53.230	-0.199	0.193
-699.514	-103.578	-0.145	0.034
-698.499	-11.071	0.229	-0.153
-697.485	188.238	-0.157	-0.238
-696.470	-120.683	-0.263	0.045
-695.456	148.398	0.214	-0.292
-694.441	-141.520	0.084	-0.009
-693.426	299.336	-0.137	0.255
-692.412	209.328	-0.072	-0.114
-691.397	-82.905	-0.168	-0.055
-690.383	184.508	0.227	-0.340
-689.368	351.184	0.112	-0.224
-688.354	149.512	0.242	-0.331
-687.339	800.000	0.059	-0.238
-686.324	5.948	-0.063	0.047
-685.310	-15.137	0.151	0.098
-684.295	-51.788	0.213	0.101
-683.281	-88.071	-0.231	-0.070
-682.266	-200.000	0.009	-0.118
-681.251	-200.000	0.030	-0.200
-680.237	52.132	-0.188	-0.182
-679.222	203.610	0.065	-0.102
-678.208	-40.044	-0.427	-0.225
-677.193	-200.000	0.018	-0.092
-676.178	265.336	-0.051	-0.090
-675.164	-200.000	0.047	-0.455
-674.149	-200.000	0.036	0.168
-673.135	800.000	-0.027	0.084
-672.120	13.270	0.047	0.037
-671.105	-21.193	0.137	-0.085
-670.091	800.000	-0.092	-0.374
-669.076	110.043	0.147	-0.178
-668.062	470.301	0.160	-0.364
-667.047	597.853	-0.061	0.153
-666.032	-170.166	0.286	-0.010
-665.018	51.855	-0.418	-0.402
-664.003	800.000	0.090	0.358
-662.989	200.282	-0.081	0.126
-661.974	115.734	-0.207	0.256
-660.959	439.953	-0.051	0.112
-659.945	406.478	-0.075	-0.160
-658.930	19.834	0.131	-0.107
-657.916	-66.255	-0.168	-0.068
-656.901	800.000	0.047	0.142
-655.886	-90.781	-0.239	-0.070
-654.872	-126.128	0.335	0.051
-653.857	-120.135	-0.461	-0.080
-652.843	-98.718	-0.040	0.010
-651.828	213.244	-0.116	0.185
-650.814	-100.930	0.183	0.045
-649.799	338.326	-0.097	0.191
-648.784	150.558	-0.159	0.218
-647.770	84.049	-0.084	0.093
-646.755	707.677	-0.041	-0.108
-645.741	62.869	0.148	0.149
-644.726	-137.823	-0.094	-0.011
-643.711	-200.000	-0.016	0.204
-642.697	-123.494	-0.133	-0.021
-641.682	-200.000	0.002	-0.156
-640.668	268.642	0.075	-0.133
-639.653	1.878	0.180	-0.131
-638.638	800.000	-0.046	0.139
-637.624	-6.953	-0.110	0.076
-636.609	-71.604	-0.256	-0.097
-635.595	-17.157	0.208	0.132
-634.580	-200.000	0.005	-0.161
-633.565	-58.616	0.157	-0.069
-632.551	-129.311	-0.218	0.031
-631.536	-66.715	0.299	-0.119
-630.522	-200.000	-0.016	-0.278
-629.507	48.505	-0.280	-0.265
-628.492	50.038	-0.243	-0.231
-627.478	-15.829	-0.499	0.321
-626.463	656.910	0.064	0.165
-625.449	-101.945	0.484	0.118
-624.434	52.744	0.115	0.111
-623.419	1.967	0.201	0.146
-622.405	-121.574	0.251	-0.042
-621.390	-200.000	0.016	-0.285
-620.376	-121.921	0.110	-0.018
-619.361	-151.469	0.370	-0.028
-618.346	-200.000	0.016	0.183
-617.332	28.411	0.375	0.320
-616.317	37.984	-0.162	0.145
-615.303	156.834	0.061	0.085
-614.288	-104.154	0.334	0.078
-613.273	98.840	0.078	0.091
-612.259	-19.202	-0.284	-0.178
-611.244	-135.242	-0.069	0.008
-610.230	-200.000	0.001	-0.373
-609.215	80.248	-0.079	0.086
-608.201	-107.888	-0.339	0.074
-607.186	800.000	0.020	0.063
-606.171	-24.860	0.384	0.230
-605.157	800.000	-0.082	0.236
-604.142	-158.586	0.079	-0.005
-603.128	235.293	0.095	-0.158
-602.113	-52.963	-0.243	-0.113
-601.098	388.150	0.088	-0.184
-600.084	66.657	0.073	0.075
-599.069	-200.000	0.039	0.224
-598.055	538.457	0.104	-0.250
-597.040	5.611	0.025	-0.019
-596.025	-7.082	-0.281	-0.192
-595.011	-154.717	0.284	0.019
-593.996	117.078	0.096	-0.119
-592.982	-140.158	0.243	0.026
-591.967	315.604	0.075	0.143
-590.952	118.672	-0.178	-0.222
-589.938	-122.598	0.085	0.014
-588.923	800.000	-0.070	-0.212
-587.909	85.833	0.189	-0.210
-586.894	800.000	-0.092	-0.341
-585.879	465.937	0.135	-0.304
-584.865	800.000	-0.032	0.116
-583.850	-141.930	0.310	0.031
-582.836	-139.358	-0.099	-0.011
-581.821	56.809	-0.296	0.290
-580.806	800.000	0.098	0.324
-579.792	-15.779	-0.073	0.047
-578.777	800.000	-0.087	-0.309
-577.763	-97.161	-0.174	-0.046
-576.748	253.417	-0.051	0.088
-575.733	159.299	0.213	0.299
-574.719	30.093	-0.268	0.230
-573.704	2.983	0.063	-0.046
-572.690	-132.047	-0.065	0.008
-571.675	-139.065	0.177	0.019
-570.661	-156.850	0.060	0.004
-569.646	207.535	0.089	0.139
-568.631	-97.062	0.214	-0.056
-567.617	-47.220	-0.141	-0.069
-566.602	-68.622	0.101	-0.039
-565.588	-182.130	-0.273	-0.005
-564.573	-80.898	-0.053	0.018
-563.558	-200.000	-0.007	0.292
-562.544	800.000	-0.035	0.154
-561.529	-200.000	0.030	-0.154
-560.515	-87.213	0.167	-0.051
-559.500	-59.149	-0.115	-0.050
-558.485	397.770	-0.008	-0.017
-557.471	-200.000	0.013	0.140
-556.456	35.222	0.085	-0.075
-555.442	-51.878	-0.153	0.071
-554.427	210.908	0.217	0.343
-553.412	-131.215	-0.327	0.044
-552.398	0.563	-0.042	0.030
-551.383	-86.902	0.151	-0.046
-550.369	-137.569	-0.108	-0.012
-549.354	47.326	0.257	0.241
-548.339	207.034	-0.075	-0.118
-547.325	800.000	-0.045	-0.151
-546.310	-200.000	0.022	-0.306
-545.296	14.982	-0.042	-0.033
-544.281	140.828	0.173	0.230
-543.266	399.394	0.037	0.079
-542.252	40.680	-0.307	-0.278
-541.237	-200.000	0.009	0.157
-540.223	-128.087	-0.203	-0.029
-539.208	10.332	0.086	0.066
-538.193	126.117	-0.114	0.145
-537.179	703.851	-0.089	-0.236
-536.164	-165.309	-0.064	0.003
-535.150	14.245	0.447	-0.351
-534.135	-166.196	-0.313	-0.013
-533.121	-9.685	0.111	-0.074
-532.106	-168.078	-0.118	0.005
-531.091	5.289	-0.078	-0.058
-530.077	-93.775	0.062	0.017
-529.062	9.480	0.238	-0.181
-528.048	-61.489	-0.145	-0.061
-527.033	225.756	-0.040	0.065
-526.018	56.305	-0.241	0.235
-525.004	-117.985	0.052	-0.009
-523.989	-12.084	0.169	0.111
-522.975	800.000	-0.041	0.167
-521.960	66.850	-0.179	-0.183
-520.945	5.608	-0.147	0.109
-519.931	-180.555	0.223	0.005
-518.916	127.822	-0.149	-0.191
-517.902	642.448	0.104	0.268
-516.887	-200.000	-0.007	0.186
-515.872	183.220	-0.101	-0.150
-514.858	800.000	-0.028	0.109
-513.843	-200.000	0.054	0.352
-512.829	-26.995	0.125	0.073
-511.814	-95.812	-0.209	-0.056
-510.799	14.317	-0.068	-0.053
-509.785	-200.000	-0.011	-0.168
-508.770	54.027	0.141	0.137
-507.756	420.901	0.097	-0.208
-506.741	10.599	0.140	0.107
-505.726	112.671	0.084	-0.102
-504.712	-94.169	0.108	-0.030
-503.697	-38.911	-0.258	-0.136
-502.683	-15.182	-0.139	0.089
-501.668	-9.617	-0.034	0.023
-500.653	127.010	-0.250	-0.318
-499.639	-126.260	-0.087	-0.013
-498.624	-200.000	0.010	0.243
-497.610	40.815	-0.141	0.128
-496.595	9.776	0.226	-0.172
-495.581	157.128	-0.115	0.160
-494.566	-180.623	0.251	-0.005
-493.551	4.452	-0.180	-0.133
-492.537	483.242	0.107	0.244
-491.522	-200.000	-0.016	0.092
-490.508	53.505	-0.115	-0.110
-489.493	53.448	-0.173	0.167
-488.478	56.025	0.106	0.103
-487.464	346.860	-0.033	-0.065
-486.449	-110.793	0.318	-0.066
-485.435	-102.756	0.102	0.024
-484.420	800.000	0.051	-0.183
-483.405	145.356	-0.108	0.146
-482.391	-2.888	0.258	0.181
-481.376	-200.000	0.007	0.363
-480.362	-59.740	-0.202	-0.087
-479.347	800.000	-0.039	-0.134
-478.332	-83.436	-0.218	0.070
-477.318	-107.788	0.132	0.029
-476.303	-200.000	0.004	-0.068
-475.289	-57.790	0.050	0.022
-474.274	-200.000	0.056	-0.266
-473.259	-10.574	0.308	-0.205
-472.245	-145.153	0.182	-0.017
-471.230	-73.586	0.133	0.049
-470.216	800.000	0.036	0.101
-469.201	86.499	0.192	-0.213
-468.186	-121.116	-0.172	-0.029
-467.172	128.617	0.067	-0.086
-466.157	79.766	0.127	-0.137
-465.143	51.195	0.170	-0.162
-464.128	-74.589	0.227	-0.082
-463.113	66.395	0.105	-0.107
-462.099	145.745	-0.126	0.170
-461.084	31.119	0.279	-0.240
-460.070	800.000	-0.076	0.321
-459.055	800.000	-0.035	0.126
-458.040	-178.208	0.144	-0.003
-457.026	513.864	-0.193	0.452
-456.011	800.000	-0.062	-0.172
-454.997	800.000	-0.107	-0.469
-453.982	-200.000	0.041	-0.417
-452.968	542.008	-0.012	-0.028
-451.953	331.597	0.154	0.297
-450.938	-200.000	0.031	-0.286
-449.924	412.151	-0.163	0.347
-448.909	-200.000	0.017	0.221
-447.895	-100.293	-0.126	-0.031
-446.880	-64.036	0.286	-0.117
-445.865	13.846	-0.082	0.064
-444.851	800.000	-0.038	0.164
-443.836	-101.370	0.401	0.098
-442.822	490.782	-0.063	-0.143
-441.807	155.816	0.096	0.133
-440.792	-200.000	-0.008	-0.086
-439.778	-175.376	0.125	0.003
-438.763	-200.000	-0.020	0.167
-437.749	800.000	-0.115	-0.319
-436.734	-71.966	0.275	0.103
-435.719	131.256	0.241	0.310
-434.705	19.874	0.058	0.047
-433.690	9.505	-0.326	0.248
-432.676	138.294	0.230	-0.302
-431.661	-182.577	-0.266	-0.005
-430.646	22.511	-0.063	-0.052
-429.632	800.000	0.082	0.238
-428.617	-111.713	-0.270	0.055
-427.603	124.266	0.095	-0.119
-426.588	-200.000	0.016	0.097
-425.573	504.740	-0.053	-0.123
-424.559	-38.609	-0.534	0.283
-423.544	-9.160	0.168	0.113
-422.530	-30.112	0.306	0.174
-421.515	3.355	-0.268	-0.195
-420.500	-77.348	-0.254	-0.088
-419.486	-149.770	-0.162	0.013
-418.471	692.185	-0.046	0.120
-417.457	-92.078	0.327	0.093
-416.442	5.660	-0.235	-0.174
-415.428	-200.000	-0.034	0.372
-414.413	800.000	-0.039	0.110
-413.398	7.823	-0.068	0.051
-412.384	194.158	0.157	0.238
-411.369	-106.331	-0.209	0.047
-410.355	800.000	0.035	0.135
-409.340	-179.067	-0.067	0.002
-408.325	16.903	-0.110	0.088
-407.311	-30.577	-0.037	-0.021
-406.296	581.998	-0.049	0.119
-405.282	-83.918	0.326	0.104
-404.267	800.000	-0.068	0.198
-403.252	-200.000	-0.010	-0.158
-402.238	-65.517	0.132	-0.053
-401.223	800.000	-0.022	0.090
-400.209	-200.000	0.005	0.116
-399.194	-200.000	-0.030	-0.175
-398.179	56.717	0.126	0.123
-397.165	69.833	0.140	0.144
-396.150	-9.446	0.079	0.053
-395.136	-200.000	-0.024	0.146
-394.121	118.066	-0.033	-0.041
-393.106	800.000	-0.065	0.229
-392.092	-200.000	-0.025	0.160
-391.077	75.042	0.114	-0.120
-390.063	800.000	0.053	-0.210
-389.048	6.190	0.057	-0.042
-388.033	-91.510	0.189	-0.054
-387.019	-200.000	0.035	-0.237
-386.004	-138.401	0.307	0.034
-384.990	-179.522	-0.345	-0.008
-383.975	-79.629	0.055	-0.019
-382.960	-200.000	0.002	0.189
-381.946	-95.375	0.044	-0.012
-380.931	127.095	-0.249	-0.316
-379.917	0.971	0.194	0.139
-378.902	800.000	0.006	-0.023
-377.888	226.142	0.085	-0.138
-376.873	-200.000	-0.054	-0.265
-375.858	13.271	-0.167	0.130
-374.844	-121.003	-0.037	-0.006
-373.829	318.171	-0.110	0.208
-372.815	800.000	0.058	-0.249
-371.800	-179.517	0.162	-0.004
-370.785	97.675	-0.155	-0.178
-369.771	-36.572	-0.313	0.168
-368.756	-132.198	0.141	0.018
-367.742	-144.502	-0.258	-0.024
-366.727	24.588	0.057	0.047
-365.712	19.077	-0.070	-0.056
-364.698	254.282	0.040	-0.069
-363.683	308.353	-0.160	-0.299
-362.669	-91.769	0.346	-0.098
-361.654	66.630	0.245	-0.249
-360.639	-46.988	0.230	-0.112
-359.625	38.520	-0.116	-0.103
-358.610	-64.597	-0.299	0.121
-357.596	91.872	-0.072	-0.081
-356.581	282.043	-0.028	-0.050
-355.566	150.524	0.148	-0.201
-354.552	-155.853	-0.174	-0.011
-353.537	-124.024	0.345	0.054
-352.523	235.084	0.154	-0.254
-351.508	-200.000	0.034	-0.197
-350.493	770.958	-0.016	0.044
-349.479	-200.000	-0.057	-0.256
-348.464	-82.344	-0.087	0.028
-347.450	3.600	0.091	0.066
-346.435	189.809	-0.247	-0.370
-345.420	800.000	-0.025	-0.104
-344.406	346.370	-0.077	0.150
-343.391	33.338	-0.139	0.121
-342.377	-200.000	-0.004	0.203
-341.362	800.000	-0.029	0.083
-340.348	140.969	-0.167	0.220
-339.333	4.719	-0.202	0.148
-338.318	81.008	-0.080	0.086
-337.304	-153.003	-0.419	-0.029
-336.289	160.335	0.076	0.106
-335.275	-13.694	-0.116	0.075
-334.260	-200.000	-0.062	0.376
-333.245	39.437	0.362	-0.324
-332.231	-200.000	-0.079	-0.347
-331.216	-16.114	0.091	-0.058
-330.202	115.017	0.230	-0.280
-329.187	35.744	0.026	-0.023
-328.172	-76.744	0.089	-0.031
-327.158	139.490	0.198	-0.260
-326.143	321.870	-0.145	-0.275
-325.129	-200.000	0.004	-0.270
-324.114	-95.839	0.092	-0.024
-323.099	76.548	0.108	0.114
-322.085	-60.156	-0.295	-0.125
-321.070	193.420	-0.200	0.301
-320.056	-69.618	-0.111	-0.042
-319.041	6.143	-0.110	0.081
-318.026	171.036	-0.087	0.124
-317.012	185.980	0.141	0.209
-315.997	437.577	-0.083	0.180
-314.983	-37.373	0.371	0.198
-313.968	800.000	-0.071	0.285
-312.953	-168.788	0.086	-0.003
-311.939	-200.000	-0.068	-0.298
-310.924	-62.359	-0.114	-0.047
-309.910	49.489	0.052	-0.049
-308.895	-159.450	0.126	0.007
-307.880	800.000	0.093	0.364
-306.866	376.049	-0.051	-0.104
-305.851	124.994	-0.057	-0.072
-304.837	57.059	-0.045	0.044
-303.822	-57.265	0.205	-0.090
-302.807	-154.759	-0.245	0.016
-301.793	-55.832	-0.165	-0.073
-300.778	-109.915	-0.106	-0.022
-299.764	80.757	-0.127	0.136
-298.749	119.395	-0.176	-0.216
-297.735	-132.391	-0.154	-0.020
-296.720	142.265	-0.110	-0.146
-295.705	266.672	-0.251	0.438
-294.691	800.000	-0.043	0.157
-293.676	-200.000	0.019	0.219
-292.662	-200.000	0.002	0.277
-291.647	-101.828	-0.439	0.106
-290.632	-16.007	0.089	0.057
-289.618	-47.176	-0.305	0.148
-288.603	63.773	-0.099	0.099
-287.589	303.708	-0.200	-0.369
-286.574	5.733	-0.125	0.092
-285.559	-68.313	0.093	0.036
-284.545	89.011	-0.164	-0.182
-283.530	-97.237	-0.109	-0.028
-282.516	35.603	0.240	-0.210
-281.501	29.871	0.204	-0.173
-280.486	-108.303	0.123	-0.026
-279.472	8.726	0.240	0.180
-278.457	133.799	0.070	0.090
-277.443	800.000	-0.031	-0.106
-276.428	-200.000	-0.006	0.270
-275.413	39.967	-0.163	-0.146
-274.399	-121.997	-0.256	0.042
-273.384	404.109	-0.048	-0.100
-272.370	800.000	-0.058	0.184
-271.355	-20.252	0.320	-0.196
-270.340	-136.946	-0.478	-0.055
-269.326	-200.000	0.000	-0.033
-268.311	-77.455	0.108	-0.037
-267.297	-200.000	0.020	-0.289
-266.282	-200.000	-0.017	0.108
-265.267	680.277	-0.097	0.252
-264.253	-60.920	0.260	0.110
-263.238	-200.000	-0.007	0.148
-262.224	-105.560	-0.087	0.020
-261.209	168.763	-0.093	-0.132
-260.195	-11.225	0.099	-0.065
-259.180	-163.517	-0.207	-0.010
-258.165	168.873	-0.064	-0.091
-257.151	800.000	-0.035	0.130
-256.136	24.283	-0.066	0.054
-255.122	-46.414	0.202	0.099
-254.107	-125.759	0.111	0.017
-253.092	255.088	-0.077	-0.130
-252.078	-104.578	0.122	0.028
-251.063	-200.000	-0.006	-0.186
-250.049	-55.877	-0.146	0.065
-249.034	-44.513	0.433	0.215
-248.019	-34.817	-0.098	-0.053
-247.005	-200.000	0.018	0.155
-245.990	5.972	-0.184	0.136
-244.976	-58.408	-0.075	-0.032
-243.961	-170.766	0.177	-0.006
-242.946	294.609	0.082	-0.150
-241.932	-136.101	-0.131	-0.015
-240.917	67.670	0.266	-0.271
-239.903	133.375	-0.047	0.060
-238.888	-127.484	-0.226	-0.033
-237.873	344.704	0.066	0.128
-236.859	37.568	0.120	0.106
-235.844	-200.000	0.019	0.312
-234.830	-158.515	0.333	0.019
-233.815	11.632	-0.289	-0.220
-232.800	3.114	-0.070	-0.051
-231.786	800.000	-0.065	0.235
-230.771	800.000	-0.029	0.084
-229.757	-200.000	-0.001	0.023
-228.742	351.442	0.013	0.026
-227.727	-50.584	0.209	0.098
-226.713	-200.000	-0.008	0.352
-225.698	224.096	-0.129	-0.206
-224.684	800.000	0.050	0.211
-223.669	234.344	0.099	-0.161
-222.655	-106.911	-0.373	-0.082
-221.640	50.746	0.044	-0.041
-220.625	40.980	0.097	0.087
-219.611	454.782	-0.115	-0.254
-218.596	-200.000	-0.051	0.243
-217.582	331.815	0.147	-0.282
-216.567	187.110	-0.188	-0.278
-215.552	800.000	-0.143	-0.401
-214.538	-22.241	0.329	-0.198
-213.523	21.439	-0.172	-0.138
-212.509	-104.352	-0.173	-0.040
-211.494	622.230	0.089	-0.222
-210.479	8.180	0.147	-0.110
-209.465	-44.153	0.244	-0.122
-208.450	91.454	0.357	0.399
-207.436	-146.414	0.207	0.018
-206.421	479.168	-0.065	-0.146
-205.406	52.035	-0.210	-0.199
-204.392	-200.000	0.008	0.059
-203.377	800.000	-0.079	-0.244
-202.363	104.235	-0.044	0.051
-201.348	-20.491	0.117	0.071
-200.333	83.062	0.053	0.057
-199.319	-200.000	0.004	0.031
-198.304	-112.313	-0.155	-0.031
-197.290	-121.203	0.107	-0.018
-196.275	-126.913	-0.076	-0.011
-195.260	-112.975	0.295	0.058
-194.246	800.000	0.103	-0.369
-193.231	308.698	0.104	0.192
-192.217	-102.312	0.306	0.073
-191.202	48.443	-0.219	0.204
-190.187	-200.000	0.008	-0.085
-189.173	-200.000	0.003	0.039
-188.158	-73.945	0.185	0.066
-187.144	449.428	0.075	0.165
-186.129	-79.066	-0.063	0.021
-185.114	254.518	0.189	0.322
-184.100	55.456	0.240	-0.231
-183.085	761.925	-0.080	-0.216
-182.071	-47.502	0.073	-0.035
-181.056	-200.000	-0.020	-0.270
-180.042	33.319	-0.284	0.244
-179.027	-82.835	0.068	-0.022
-178.012	-100.281	0.050	0.012
-176.998	26.045	0.153	-0.127
-175.983	340.519	-0.101	0.196
-174.969	-80.640	-0.342	-0.113
-173.954	-60.161	-0.271	-0.114
-172.939	-92.841	0.118	-0.033
-171.925	-200.000	0.004	-0.266
-170.910	800.000	-0.085	0.294
-169.896	28.041	0.050	0.042
-168.881	-124.247	0.068	0.011
-167.866	5.961	0.198	-0.146
-166.852	800.000	-0.059	0.166
-165.837	-200.000	0.044	0.242
-164.823	27.926	-0.108	-0.090
-163.808	239.446	-0.098	-0.162
-162.793	800.000	0.089	-0.253
-161.779	169.084	0.118	-0.167
-160.764	-138.746	-0.134	-0.015
-159.750	-13.104	-0.175	0.113
-158.735	131.003	0.062	-0.079
-157.720	-27.207	0.079	-0.046
-156.706	-116.611	-0.206	-0.038
-155.691	-55.454	0.208	-0.092
-154.677	331.414	0.212	-0.406
-153.662	191.628	0.124	0.185
-152.647	-112.371	-0.343	-0.068
-151.633	252.489	-0.151	0.254
-150.618	55.942	0.267	0.257
-149.604	-34.621	-0.309	0.168
-148.589	55.011	0.053	-0.051
-147.574	800.000	0.052	0.159
-146.560	-146.091	0.158	0.014
-145.545	-200.000	-0.004	-0.106
-144.531	-33.449	-0.330	0.181
-143.516	800.000	0.041	0.132
-142.502	-26.781	-0.345	0.200
-141.487	-200.000	0.035	-0.175
-140.472	-50.778	-0.010	-0.005
-139.458	-27.478	-0.225	-0.129
-138.443	55.455	-0.145	-0.139
-137.429	74.067	-0.183	-0.190
-136.414	-200.000	-0.026	-0.234
-135.399	-200.000	-0.027	-0.212
-134.385	-24.959	-0.115	0.067
-133.370	-16.994	-0.311	-0.195
-132.356	112.544	-0.103	-0.123
-131.341	-200.000	0.010	-0.391
-130.326	-80.092	-0.316	0.105
-129.312	-200.000	0.057	0.297
-128.297	345.949	-0.085	0.166
-127.283	-54.581	-0.246	-0.110
-126.268	-148.817	0.324	-0.026
-125.253	-168.104	-0.382	0.015
-124.239	84.717	0.166	-0.179
-123.224	-107.909	-0.253	-0.054
-122.210	253.384	-0.128	-0.216
-121.195	-195.947	-0.278	0.002
-120.180	273.747	0.096	0.169
