DTS Sentinel unit serial number:	SN413079Multiplexer serial number:	ORYXHardware model number:	OX4-SRSoftware version number:	ORYX F/W v4.00 Oryx Data Collector v3.7.2.0data status	okinstallation	princeton_trtdifferential loss correction	single-endedforward channel	channel 2reverse channel	N/Adate	2019/09/13time	15:51:35forward acquisition time	60.00reverse acquisition time	0.00gamma	496.2192k internal	0.2317k external	0.2317temperature offset calibration	1.0214default loss term (dB/km)	0.3790temperature slope calibration	1.0000multiplexer offset coefficient	1.0000multiplexer slope coefficient	1.0000fibre end	0.00T internal ref (°C)	34.62T ext. ref 1 (°C)	4.78T ext. ref 2 (°C)	30.10length (m)	temperature (°C)	Stokes	anti-Stokes-747.200	157.928	0.079	-0.111
-746.185	102.335	0.153	0.181
-745.171	15.365	0.172	-0.136
-744.156	800.000	-0.036	0.147
-743.142	341.724	-0.050	0.099
-742.127	424.197	-0.226	0.492
-741.112	-27.979	0.211	-0.124
-740.098	87.549	-0.088	0.099
-739.083	-124.673	-0.071	-0.011
-738.069	-56.196	0.164	0.074
-737.054	80.691	-0.044	0.048
-736.039	1.821	-0.214	-0.156
-735.025	-88.678	0.117	-0.035
-734.010	45.059	-0.152	-0.141
-732.996	800.000	-0.079	-0.241
-731.981	-73.258	-0.234	-0.087
-730.966	-167.412	-0.126	0.005
-729.952	-66.887	-0.336	0.134
-728.937	-200.000	0.026	0.140
-727.923	-200.000	-0.017	-0.117
-726.908	-169.146	-0.180	0.007
-725.894	-200.000	0.057	0.307
-724.879	-139.841	-0.291	0.031
-723.864	117.287	-0.186	-0.232
-722.850	-13.868	0.127	0.083
-721.835	33.238	-0.295	0.259
-720.821	-186.487	-0.488	-0.007
-719.806	51.623	-0.034	-0.033
-718.791	569.054	0.039	-0.095
-717.777	-170.019	-0.124	-0.004
-716.762	337.786	0.110	-0.217
-715.748	123.435	-0.137	-0.174
-714.733	-126.593	-0.138	-0.021
-713.718	-200.000	0.077	-0.355
-712.704	15.019	0.044	-0.035
-711.689	-197.564	0.043	0.000
-710.675	-200.000	0.086	-0.564
-709.660	509.886	-0.093	-0.218
-708.645	-200.000	0.036	0.265
-707.631	-200.000	-0.004	0.098
-706.616	-57.531	0.031	-0.014
-705.602	800.000	0.027	-0.108
-704.587	774.022	-0.095	0.261
-703.572	-200.000	-0.026	0.295
-702.558	-84.299	0.092	0.029
-701.543	56.729	0.046	-0.045
-700.529	-97.394	0.046	-0.012
-699.514	-156.301	-0.426	0.027
-698.499	-133.198	-0.283	0.036
-697.485	800.000	0.035	0.106
-696.470	-69.141	-0.222	0.086
-695.456	-200.000	0.054	0.249
-694.441	46.610	0.177	0.166
-693.426	800.000	-0.071	-0.294
-692.412	-32.706	-0.292	-0.164
-691.397	-200.000	0.023	0.302
-690.383	-71.797	-0.263	0.099
-689.368	38.808	-0.148	0.133
-688.354	119.680	-0.196	0.245
-687.339	-188.108	-0.181	0.002
-686.324	-167.929	0.148	-0.006
-685.310	-80.813	0.220	-0.074
-684.295	725.081	-0.086	-0.232
-683.281	-200.000	0.004	0.101
-682.266	-123.852	-0.152	0.024
-681.251	9.821	-0.102	0.079
-680.237	-76.944	0.363	-0.128
-679.222	-85.582	0.133	0.042
-678.208	-200.000	-0.009	-0.224
-677.193	-117.549	0.283	-0.052
-676.178	-97.341	0.303	-0.080
-675.164	563.102	-0.175	0.428
-674.149	800.000	-0.023	-0.083
-673.135	191.201	0.094	-0.143
-672.120	70.843	-0.147	0.154
-671.105	800.000	-0.065	-0.190
-670.091	800.000	0.109	-0.322
-669.076	743.501	-0.013	-0.035
-668.062	0.031	-0.255	-0.183
-667.047	28.560	0.063	-0.054
-666.032	24.085	0.239	-0.199
-665.018	-104.075	-0.218	0.051
-664.003	708.278	0.027	-0.073
-662.989	459.605	0.013	0.029
-661.974	800.000	0.093	-0.294
-660.959	313.375	0.091	-0.174
-659.945	-143.694	0.216	-0.021
-658.930	-105.384	-0.410	0.094
-657.916	-102.640	-0.170	-0.041
-656.901	-38.468	0.080	-0.043
-655.886	402.470	-0.137	0.291
-654.872	619.757	-0.077	0.194
-653.857	-74.696	0.121	-0.044
-652.843	122.176	-0.071	0.089
-651.828	-66.785	-0.184	-0.073
-650.814	-106.475	-0.390	0.088
-649.799	-112.808	0.340	0.068
-648.784	75.839	0.225	0.240
-647.770	147.501	-0.150	-0.203
-646.755	-200.000	0.007	-0.042
-645.741	-115.918	-0.250	-0.047
-644.726	-107.653	-0.510	0.113
-643.711	180.603	0.076	0.112
-642.697	383.989	-0.100	0.208
-641.682	321.017	-0.052	-0.099
-640.668	800.000	0.053	-0.178
-639.653	-70.732	-0.166	-0.063
-638.638	-200.000	-0.064	0.289
-637.624	417.378	-0.037	0.079
-636.609	-200.000	0.001	0.318
-635.595	39.257	-0.031	0.028
-634.580	-122.053	0.388	0.064
-633.565	-200.000	0.026	0.431
-632.551	65.753	-0.070	-0.071
-631.536	-200.000	-0.088	0.000
-630.522	134.194	0.116	-0.151
-629.507	267.561	0.064	-0.114
-628.492	-200.000	0.017	0.077
-627.478	-119.254	-0.147	0.026
-626.463	114.892	-0.239	0.294
-625.449	-69.389	-0.207	0.080
-624.434	132.181	0.070	-0.091
-623.419	-175.520	-0.344	0.009
-622.405	140.754	-0.069	-0.091
-621.390	-145.877	-0.421	0.038
-620.376	35.220	-0.158	0.140
-619.361	276.103	-0.072	-0.129
-618.346	236.633	-0.055	-0.092
-617.332	-95.554	-0.145	0.039
-616.317	-200.000	0.006	-0.120
-615.303	800.000	0.097	-0.308
-614.288	-50.497	-0.134	-0.064
-613.273	-60.293	-0.039	0.017
-612.259	145.726	-0.169	-0.229
-611.244	-106.319	-0.191	-0.043
-610.230	0.422	-0.153	-0.110
-609.215	-97.094	0.119	-0.031
-608.201	107.855	-0.122	-0.146
-607.186	-200.000	0.000	0.012
-606.171	163.129	0.090	0.127
-605.157	210.450	0.108	-0.170
-604.142	96.139	0.074	0.086
-603.128	-168.371	0.262	0.010
-602.113	668.382	-0.089	-0.233
-601.098	-27.963	-0.246	0.144
-600.084	197.358	-0.138	0.212
-599.069	-144.015	0.305	0.029
-598.055	-26.905	-0.050	-0.029
-597.040	-41.781	-0.338	0.175
-596.025	-64.840	0.271	-0.110
-595.011	-9.187	-0.417	-0.281
-593.996	618.697	-0.096	-0.244
-592.982	-127.053	-0.116	-0.017
-591.967	-159.440	-0.108	0.006
-590.952	769.591	0.057	-0.155
-589.938	217.406	0.074	0.119
-588.923	-108.320	-0.138	-0.030
-587.909	-153.722	0.206	0.014
-586.894	331.533	-0.156	0.303
-585.879	295.047	-0.120	0.221
-584.865	87.236	-0.053	-0.059
-583.850	-120.205	-0.225	0.039
-582.836	51.822	-0.227	0.217
-581.821	800.000	-0.057	0.191
-580.806	257.072	-0.140	-0.243
-579.792	-200.000	0.007	0.058
-578.777	-49.643	0.066	-0.031
-577.763	-120.557	-0.156	0.027
-576.748	89.771	0.225	-0.253
-575.733	447.327	-0.108	-0.239
-574.719	14.606	0.301	-0.237
-573.704	800.000	0.095	-0.348
-572.690	219.559	0.058	0.093
-571.675	-80.004	0.121	-0.041
-570.661	8.421	0.232	-0.175
-569.646	-42.946	-0.153	0.078
-568.631	-177.061	-0.132	0.003
-567.617	800.000	0.032	0.130
-566.602	25.496	0.072	0.060
-565.588	-28.020	-0.038	0.022
-564.573	185.900	-0.109	0.163
-563.558	87.542	0.034	-0.038
-562.544	-1.638	-0.192	-0.136
-561.529	392.278	-0.149	-0.311
-560.515	187.762	-0.155	0.233
-559.500	153.712	-0.134	-0.184
-558.485	535.857	0.028	-0.067
-557.471	85.622	-0.191	0.211
-556.456	-89.974	0.115	0.034
-555.442	-50.022	-0.311	0.148
-554.427	-28.137	0.446	0.259
-553.412	147.516	-0.252	0.341
-552.398	-101.571	0.091	0.022
-551.383	614.048	-0.098	0.246
-550.369	-200.000	0.162	0.001
-549.354	-1.521	0.062	0.044
-548.339	365.839	0.034	-0.069
-547.325	-49.293	0.237	0.114
-546.310	-74.740	-0.251	-0.091
-545.296	800.000	-0.025	0.074
-544.281	157.584	-0.089	-0.124
-543.266	-64.275	0.038	-0.016
-542.252	348.813	-0.151	0.299
-541.237	49.172	0.186	-0.176
-540.223	800.000	0.110	0.310
-539.208	26.881	-0.017	0.014
-538.193	800.000	-0.054	-0.227
-537.179	-93.852	0.075	-0.021
-536.164	-149.703	0.168	-0.013
-535.150	48.955	0.183	0.173
-534.135	-112.796	-0.064	-0.013
-533.121	19.924	-0.125	-0.101
-532.106	190.178	-0.100	-0.150
-531.091	526.494	-0.182	-0.430
-530.077	-200.000	0.047	0.337
-529.062	800.000	0.043	-0.185
-528.048	31.653	0.258	0.223
-527.033	212.226	-0.155	-0.246
-526.018	246.878	0.101	-0.171
-525.004	-104.657	0.205	0.047
-523.989	29.972	-0.423	0.362
-522.975	18.107	0.215	-0.172
-521.960	-65.240	0.519	-0.210
-520.945	-53.119	-0.294	-0.136
-519.931	318.195	0.081	-0.154
-518.916	312.984	0.098	0.185
-517.902	59.222	0.120	0.118
-516.887	800.000	-0.042	0.173
-515.872	-83.408	-0.249	-0.080
-514.858	800.000	0.036	-0.108
-513.843	149.001	0.111	0.150
-512.829	37.155	0.244	-0.217
-511.814	-200.000	-0.037	0.476
-510.799	-27.910	0.173	0.101
-509.785	-200.000	-0.014	-0.159
-508.770	-80.367	-0.232	-0.078
-507.756	-200.000	-0.028	-0.180
-506.741	181.017	0.126	-0.186
-505.726	-29.804	0.241	0.138
-504.712	151.798	0.027	0.036
-503.697	-200.000	0.009	-0.076
-502.683	-200.000	0.033	-0.216
-501.668	43.566	0.348	0.319
-500.653	-100.189	-0.187	0.047
-499.639	-63.070	-0.167	-0.069
-498.624	-200.000	0.012	0.233
-497.610	315.345	0.067	0.127
-496.595	800.000	0.088	-0.286
-495.581	-4.288	0.164	0.114
-494.566	-120.380	0.295	-0.050
-493.551	5.589	0.147	-0.109
-492.537	-89.744	0.188	-0.055
-491.522	800.000	-0.109	0.322
-490.508	612.188	-0.093	-0.233
-489.493	800.000	-0.079	-0.261
-488.478	-80.175	0.174	-0.058
-487.464	437.125	-0.060	0.130
-486.449	4.801	-0.267	-0.197
-485.435	-200.000	0.022	-0.591
-484.420	-200.000	0.012	-0.126
-483.405	107.152	-0.053	0.063
-482.391	-200.000	-0.028	0.428
-481.376	56.544	-0.028	0.027
-480.362	-33.807	-0.037	-0.021
-479.347	85.012	0.112	0.123
-478.332	800.000	-0.142	0.420
-477.318	-127.413	-0.454	-0.066
-476.303	-83.933	0.094	-0.030
-475.289	-200.000	-0.023	-0.377
-474.274	10.446	-0.095	-0.073
-473.259	-52.361	-0.154	-0.072
-472.245	-114.633	-0.394	0.076
-471.230	-13.189	0.101	0.066
-470.216	-112.559	0.014	-0.003
-469.201	-69.079	-0.310	-0.119
-468.186	75.203	0.161	-0.170
-467.172	-200.000	0.002	-0.104
-466.157	228.929	0.124	-0.203
-465.143	35.468	0.315	-0.277
-464.128	2.853	-0.271	0.197
-463.113	-16.051	0.195	-0.124
-462.099	800.000	-0.068	-0.267
-461.084	-200.000	0.024	0.202
-460.070	71.405	0.027	-0.028
-459.055	-39.030	-0.087	0.046
-458.040	31.953	0.088	0.076
-457.026	23.922	0.047	0.039
-456.011	341.884	0.070	-0.138
-454.997	120.966	0.176	0.219
-453.982	-118.857	-0.085	-0.015
-452.968	800.000	-0.159	0.452
-451.953	190.609	0.149	0.225
-450.938	236.601	-0.110	-0.182
-449.924	-200.000	0.009	-0.105
-448.909	49.388	-0.147	-0.138
-447.895	-200.000	0.048	0.465
-446.880	-64.660	-0.297	0.120
-445.865	107.768	0.109	0.130
-444.851	-187.724	0.321	0.004
-443.836	-49.801	0.162	0.077
-442.822	-124.556	-0.332	-0.052
-441.807	-60.174	0.088	-0.037
-440.792	495.399	0.073	0.169
-439.778	-82.401	-0.088	0.029
-438.763	6.919	-0.226	-0.168
-437.749	-200.000	-0.038	0.310
-436.734	235.933	0.103	0.170
-435.719	24.352	-0.456	0.377
-434.705	-12.364	-0.173	-0.113
-433.690	-26.481	0.426	-0.250
-432.676	122.580	0.170	0.212
-431.661	-200.000	-0.011	0.349
-430.646	800.000	0.047	-0.159
-429.632	-1.390	-0.265	0.187
-428.617	221.359	0.182	-0.293
-427.603	-65.735	-0.332	-0.133
-426.588	-169.824	0.460	0.017
-425.573	-200.000	0.007	-0.319
-424.559	-200.000	0.003	-0.022
-423.544	201.001	0.033	-0.051
-422.530	608.618	0.121	0.302
-421.515	-80.140	0.245	0.082
-420.500	494.469	-0.041	0.095
-419.486	206.668	0.175	0.272
-418.471	170.643	-0.159	0.228
-417.457	183.645	-0.169	0.250
-416.442	-135.299	-0.069	0.008
-415.428	-94.903	0.222	-0.060
-414.413	-128.979	-0.151	0.021
-413.398	264.455	-0.097	-0.168
-412.384	75.911	-0.090	-0.095
-411.369	430.420	0.113	-0.244
-410.355	-147.100	0.062	0.005
-409.340	4.862	-0.146	-0.107
-408.325	-183.695	0.343	0.006
-407.311	28.480	-0.082	-0.070
-406.296	671.185	0.106	-0.275
-405.282	-90.206	-0.474	-0.138
-404.267	343.497	-0.092	0.180
-403.252	-18.644	-0.043	0.027
-402.238	155.373	0.118	0.162
-401.223	-200.000	0.033	0.279
-400.209	-149.808	0.160	0.013
-399.194	6.698	-0.073	-0.055
-398.179	46.223	-0.203	-0.188
-397.165	-200.000	-0.028	0.136
-396.150	560.288	-0.086	0.206
-395.136	800.000	0.041	-0.131
-394.121	332.987	0.145	-0.281
-393.106	200.552	-0.062	0.096
-392.092	-35.982	0.139	-0.075
-391.077	72.777	-0.201	0.210
-390.063	800.000	-0.046	0.180
-389.048	430.088	-0.097	-0.210
-388.033	-200.000	-0.036	-0.312
-387.019	-200.000	0.007	0.036
-386.004	169.715	0.171	-0.244
-384.990	-126.327	0.463	-0.069
-383.975	800.000	0.056	0.212
-382.960	272.728	0.193	-0.341
-381.946	203.845	0.111	-0.171
-380.931	114.209	0.053	0.064
-379.917	-146.347	-0.356	0.031
-378.902	-112.273	-0.190	-0.038
-377.888	-170.413	-0.295	0.010
-376.873	-200.000	-0.241	0.001
-375.858	-80.360	0.200	0.067
-374.844	546.069	0.118	0.282
-373.829	178.045	0.096	0.140
-372.815	18.759	0.066	-0.052
-371.800	800.000	-0.051	-0.186
-370.785	-200.000	0.012	0.322
-369.771	21.079	-0.218	-0.177
-368.756	-52.105	-0.348	0.161
-367.742	308.933	0.054	0.100
-366.727	800.000	0.046	0.193
-365.712	-200.000	0.002	0.364
-364.698	-88.809	0.095	-0.028
-363.683	-27.907	-0.049	-0.029
-362.669	83.230	0.097	-0.105
-361.654	37.417	-0.379	-0.335
-360.639	800.000	0.056	0.159
-359.625	3.514	-0.319	-0.232
-358.610	-63.950	0.213	-0.087
-357.596	-106.147	-0.305	-0.068
-356.581	68.145	0.286	0.292
-355.566	-80.076	-0.275	0.092
-354.552	134.993	0.042	0.054
-353.537	-200.000	0.021	0.233
-352.523	-200.000	-0.005	-0.215
-351.508	367.212	0.064	0.129
-350.493	213.088	0.095	-0.149
-349.479	-67.048	-0.098	0.039
-348.464	800.000	0.034	0.128
-347.450	-200.000	-0.021	-0.279
-346.435	800.000	-0.126	0.449
-345.420	233.914	-0.188	-0.308
-344.406	-200.000	0.008	0.277
-343.391	220.605	0.214	-0.342
-342.377	125.087	0.170	-0.214
-341.362	56.677	0.331	-0.321
-340.348	614.178	-0.099	0.247
-339.333	-124.278	0.197	0.031
-338.318	30.088	-0.206	0.175
-337.304	181.223	-0.118	-0.173
-336.289	140.822	-0.105	0.138
-335.275	534.372	-0.075	-0.178
-334.260	-55.470	0.121	-0.054
-333.245	-49.891	-0.206	-0.098
-332.231	-200.000	0.031	-0.294
-331.216	-86.031	0.083	0.025
-330.202	372.281	0.030	0.060
-329.187	800.000	-0.095	0.402
-328.172	-169.972	0.084	-0.003
-327.158	-92.789	0.129	0.036
-326.143	-35.143	-0.274	-0.149
-325.129	50.176	-0.059	-0.056
-324.114	-64.183	0.164	0.067
-323.099	-200.000	-0.005	0.159
-322.085	-96.571	-0.258	0.068
-321.070	32.304	0.322	-0.277
-320.056	-200.000	-0.008	0.056
-319.041	-200.000	0.033	0.265
-318.026	309.387	-0.137	0.254
-317.012	-89.040	-0.175	0.052
-315.997	95.577	0.152	-0.173
-314.983	-43.573	0.216	-0.108
-313.968	-81.476	0.436	0.143
-312.953	645.708	0.024	0.060
-311.939	-83.248	0.068	-0.022
-310.924	-200.000	-0.024	0.201
-309.910	206.931	0.172	-0.267
-308.895	391.659	-0.142	-0.295
-307.880	-200.000	0.002	0.086
-306.866	800.000	-0.036	0.106
-305.851	800.000	0.053	0.163
-304.837	-200.000	0.005	-0.361
-303.822	-41.067	0.081	-0.041
-302.807	56.345	-0.244	-0.236
-301.793	15.727	-0.271	-0.212
-300.778	-98.736	0.141	-0.036
-299.764	25.465	-0.184	-0.153
-298.749	668.439	0.125	0.323
-297.735	-200.000	-0.021	0.253
-296.720	59.269	0.091	-0.090
-295.705	199.105	0.025	-0.038
-294.691	-142.325	0.111	0.011
-293.676	800.000	0.055	0.198
-292.662	-200.000	-0.015	0.151
-291.647	800.000	0.103	0.289
-290.632	173.355	-0.171	-0.245
-289.618	481.558	-0.110	0.247
-288.603	-152.224	0.162	0.012
-287.589	-128.844	0.231	-0.032
-286.574	282.297	-0.114	0.203
-285.559	-30.923	-0.085	0.048
-284.545	-200.000	-0.032	-0.150
-283.530	-200.000	0.025	0.374
-282.516	-2.436	-0.178	0.124
-281.501	-11.032	-0.231	-0.151
-280.486	94.097	0.115	-0.130
-279.472	800.000	-0.022	0.075
-278.457	178.589	0.097	0.140
-277.443	-155.197	-0.451	-0.029
-276.428	491.709	-0.044	-0.099
-275.413	-157.880	0.154	-0.009
-274.399	800.000	-0.046	0.156
-273.384	-200.000	0.033	-0.151
-272.370	415.130	0.020	0.042
-271.355	-191.334	0.384	-0.004
-270.340	0.525	0.209	-0.149
-269.326	155.730	-0.123	-0.168
-268.311	-80.230	0.298	-0.099
-267.297	74.300	0.118	-0.123
-266.282	-133.356	-0.196	0.025
-265.267	150.528	0.049	-0.066
-264.253	71.149	-0.187	0.192
-263.238	172.240	0.239	-0.341
-262.224	201.759	-0.116	0.178
-261.209	294.924	0.098	0.178
-260.195	30.668	-0.021	0.017
-259.180	52.949	-0.022	0.020
-258.165	-167.972	0.250	0.010
-257.151	161.597	0.109	0.151
-256.136	62.207	-0.234	0.232
-255.122	298.021	0.039	0.070
-254.107	-200.000	0.030	0.159
-253.092	44.423	-0.219	0.200
-252.078	-200.000	-0.040	-0.221
-251.063	-200.000	0.028	-0.202
-250.049	148.124	-0.150	0.201
-249.034	-58.618	0.302	-0.130
-248.019	-200.000	-0.030	0.163
-247.005	-50.137	-0.044	-0.021
-245.990	144.671	0.220	0.291
-244.976	-137.311	0.236	-0.027
-243.961	800.000	0.027	-0.080
-242.946	262.817	0.211	-0.364
-241.932	-200.000	-0.020	0.421
-240.917	105.338	0.172	-0.202
-239.903	30.161	0.242	-0.205
-238.888	-70.438	0.207	0.078
-237.873	-40.063	-0.054	0.028
-236.859	-200.000	-0.018	-0.168
-235.844	-1.419	0.440	-0.308
-234.830	221.557	-0.088	-0.140
-233.815	-31.048	0.168	0.094
-232.800	11.876	0.208	0.159
-231.786	76.370	-0.030	0.031
-230.771	-24.915	-0.318	0.187
-229.757	-28.104	-0.362	-0.208
-228.742	-200.000	-0.002	-0.290
-227.727	-200.000	0.038	-0.276
-226.713	-94.845	0.363	0.098
-225.698	118.562	-0.138	-0.168
-224.684	-200.000	0.010	-0.216
-223.669	106.425	-0.105	0.123
-222.655	-68.488	0.271	-0.104
-221.640	16.661	0.151	0.118
-220.625	215.632	-0.114	0.180
-219.611	-135.876	-0.228	-0.027
-218.596	-200.000	0.062	-0.293
-217.582	800.000	0.064	-0.226
-216.567	-59.632	-0.106	-0.045
-215.552	26.404	0.240	-0.199
-214.538	198.163	-0.066	0.100
-213.523	-113.598	0.344	0.067
-212.509	74.734	-0.252	-0.263
-211.494	261.638	-0.088	0.151
-210.479	87.088	-0.088	0.096
-209.465	147.269	-0.132	-0.177
-208.450	407.716	0.042	-0.087
-207.436	800.000	-0.092	0.304
-206.421	-200.000	-0.011	0.292
-205.406	679.920	-0.111	0.286
-204.392	800.000	-0.069	-0.193
-203.377	-161.726	0.175	0.009
-202.363	800.000	-0.114	-0.319
-201.348	156.355	-0.134	-0.183
-200.333	-200.000	-0.010	-0.381
-199.319	117.137	0.171	0.208
-198.304	-141.537	-0.128	-0.013
-197.290	-200.000	0.013	0.114
-196.275	204.442	0.090	-0.138
-195.260	-200.000	-0.015	0.097
-194.246	-46.693	-0.064	-0.031
-193.231	-73.569	0.351	-0.127
-192.217	-200.000	-0.031	0.186
-191.202	-146.644	0.377	0.032
-190.187	84.038	0.040	-0.043
-189.173	-200.000	-0.001	0.235
-188.158	544.765	-0.129	0.305
-187.144	517.644	0.135	-0.312
-186.129	111.228	-0.043	0.051
-185.114	400.534	0.091	-0.188
-184.100	-89.853	0.230	0.066
-183.085	-33.918	-0.299	-0.163
-182.071	-195.315	-0.405	-0.003
-181.056	-200.000	0.010	0.235
-180.042	-139.066	0.245	0.026
-179.027	-200.000	0.075	0.583
-178.012	-96.862	0.267	0.069
-176.998	-200.000	-0.002	0.056
-175.983	101.226	0.171	0.197
-174.969	121.041	0.087	-0.107
-173.954	-200.000	-0.004	-0.121
-172.939	-200.000	0.001	0.109
-171.925	-23.340	-0.099	0.059
-170.910	-200.000	0.014	-0.646
-169.896	-200.000	0.036	-0.461
-168.881	-200.000	-0.028	0.273
-167.866	-200.000	-0.009	-0.299
-166.852	-129.789	0.329	0.045
-165.837	800.000	-0.106	0.394
-164.823	175.186	0.063	0.090
-163.808	337.766	0.030	0.058
-162.793	-167.179	-0.061	-0.002
-161.779	-162.639	-0.131	0.006
-160.764	-93.659	-0.093	-0.025
-159.750	-149.373	-0.123	-0.010
-158.735	-64.175	0.237	0.096
-157.720	-198.961	0.242	0.001
-156.706	-61.028	0.223	-0.093
-155.691	800.000	0.099	-0.397
-154.677	-15.730	-0.272	-0.171
-153.662	-180.860	0.142	-0.003
-152.647	-31.215	0.144	0.081
-151.633	560.235	0.137	-0.327
-150.618	105.781	-0.170	-0.199
-149.604	41.111	0.290	0.259
-148.589	593.051	-0.017	0.042
-147.574	-81.850	-0.060	-0.019
-146.560	162.675	-0.088	0.122
-145.545	581.916	-0.063	-0.152
-144.531	213.492	0.039	-0.061
-143.516	-130.615	0.204	0.027
-142.502	-73.105	0.252	-0.091
-141.487	78.635	0.232	0.245
-140.472	-58.690	0.243	0.104
-139.458	-200.000	0.066	-0.315
-138.443	-200.000	0.008	0.044
-137.429	-200.000	-0.006	-0.204
-136.414	-133.844	-0.144	-0.018
-135.399	86.098	-0.149	0.162
-134.385	-41.775	0.233	-0.118
-133.370	800.000	0.124	0.426
-132.356	-70.719	-0.248	0.092
-131.341	-163.937	0.196	0.009
-130.326	-100.675	0.162	-0.040
-129.312	800.000	0.071	0.287
-128.297	68.092	-0.179	0.181
-127.283	800.000	0.079	-0.270
-126.268	-200.000	0.027	0.173
-125.253	172.739	-0.160	0.228
-124.239	741.387	-0.156	0.413
-123.224	-44.859	0.291	-0.143
-122.210	-136.801	0.045	0.005
-121.195	-200.000	-0.031	-0.205
