DTS Sentinel unit serial number:	SN413079Multiplexer serial number:	ORYXHardware model number:	OX4-SRSoftware version number:	ORYX F/W v4.00 Oryx Data Collector v3.7.2.0data status	okinstallation	princeton_trtdifferential loss correction	single-endedforward channel	channel 2reverse channel	N/Adate	2019/09/19time	11:23:35forward acquisition time	60.00reverse acquisition time	0.00gamma	496.2192k internal	0.2341k external	0.2341temperature offset calibration	1.0013default loss term (dB/km)	0.3790temperature slope calibration	1.0000multiplexer offset coefficient	1.0000multiplexer slope coefficient	1.0000fibre end	0.00T internal ref (°C)	25.27T ext. ref 1 (°C)	0.79T ext. ref 2 (°C)	20.95length (m)	temperature (°C)	Stokes	anti-Stokes-747.200	236.759	-0.067	0.111
-746.185	51.943	0.149	-0.142
-745.171	72.483	0.183	0.192
-744.156	247.683	-0.282	0.477
-743.142	68.384	0.157	0.161
-742.127	83.953	-0.255	0.279
-741.112	222.355	-0.047	0.076
-740.098	-200.000	0.034	0.264
-739.083	-84.221	0.244	0.077
-738.069	176.912	-0.145	0.211
-737.054	-127.669	0.457	0.066
-736.039	-55.514	-0.461	-0.207
-735.025	-200.000	0.020	0.141
-734.010	-103.423	-0.273	-0.064
-732.996	186.114	-0.325	-0.484
-731.981	-114.573	0.207	0.040
-730.966	800.000	-0.033	0.100
-729.952	8.456	0.253	-0.191
-728.937	136.097	0.151	-0.197
-727.923	-4.835	-0.293	-0.202
-726.908	62.184	-0.176	0.176
-725.894	-162.521	0.224	-0.011
-724.879	-85.372	0.404	0.126
-723.864	-132.660	-0.277	0.035
-722.850	157.163	-0.139	-0.193
-721.835	-45.128	0.304	0.151
-720.821	-200.000	-0.070	-0.421
-719.806	-69.101	0.234	0.090
-718.791	149.205	-0.147	0.199
-717.777	-156.814	-0.206	-0.013
-716.762	-62.924	-0.149	0.062
-715.748	282.442	0.045	-0.081
-714.733	-0.117	0.118	-0.084
-713.718	37.431	-0.203	-0.180
-712.704	-136.234	-0.266	-0.031
-711.689	-147.493	0.248	0.021
-710.675	-200.000	-0.025	-0.146
-709.660	-59.456	-0.131	0.056
-708.645	-200.000	0.031	-0.219
-707.631	14.101	0.268	0.209
-706.616	223.594	-0.055	-0.089
-705.602	679.434	-0.073	-0.190
-704.587	-5.019	0.116	0.080
-703.572	-68.299	0.190	-0.074
-702.558	731.460	-0.092	-0.246
-701.543	-71.889	0.055	0.021
-700.529	-150.466	0.083	-0.006
-699.514	-200.000	0.016	0.096
-698.499	406.947	-0.103	-0.217
-697.485	800.000	-0.105	-0.294
-696.470	396.969	-0.046	0.097
-695.456	413.803	0.120	0.256
-694.441	83.805	0.198	-0.216
-693.426	294.371	-0.132	0.242
-692.412	400.196	0.132	0.276
-691.397	2.788	-0.315	0.228
-690.383	-145.797	-0.207	-0.018
-689.368	-98.357	0.218	0.056
-688.354	-106.694	0.018	-0.004
-687.339	-17.857	-0.349	-0.219
-686.324	10.405	0.143	0.109
-685.310	631.180	-0.169	-0.429
-684.295	-165.320	-0.068	-0.003
-683.281	759.013	0.104	0.283
-682.266	-200.000	-0.088	-0.419
-681.251	10.402	0.218	0.166
-680.237	54.372	-0.127	0.123
-679.222	-88.635	-0.100	0.030
-678.208	215.937	-0.103	-0.163
-677.193	59.950	0.234	-0.231
-676.178	-190.669	-0.211	-0.002
-675.164	130.310	-0.149	0.190
-674.149	-151.536	0.096	0.007
-673.135	-127.586	-0.269	0.039
-672.120	800.000	0.022	0.076
-671.105	800.000	0.039	0.117
-670.091	-200.000	0.018	0.325
-669.076	75.383	-0.099	-0.104
-668.062	-83.058	0.080	-0.026
-667.047	-200.000	0.071	0.375
-666.032	-77.785	-0.024	0.008
-665.018	-33.817	0.112	-0.062
-664.003	22.943	-0.205	0.168
-662.989	-184.209	0.275	-0.005
-661.974	-104.260	0.220	-0.051
-660.959	452.756	-0.027	-0.060
-659.945	-113.368	-0.257	-0.050
-658.930	-200.000	0.012	0.240
-657.916	411.991	0.162	-0.345
-656.901	106.169	-0.111	-0.131
-655.886	18.093	0.055	0.044
-654.872	532.833	-0.080	0.188
-653.857	350.294	-0.137	0.270
-652.843	300.830	0.061	0.113
-651.828	398.787	0.060	-0.126
-650.814	-73.059	0.083	0.030
-649.799	3.907	0.158	0.115
-648.784	-50.338	-0.311	-0.147
-647.770	215.968	0.139	-0.221
-646.755	153.377	-0.196	0.267
-645.741	221.001	0.050	-0.080
-644.726	0.130	-0.167	-0.119
-643.711	-58.524	-0.079	-0.034
-642.697	239.641	-0.024	0.039
-641.682	42.875	-0.102	0.093
-640.668	-200.000	0.049	-0.274
-639.653	5.373	0.060	0.044
-638.638	156.113	-0.287	0.395
-637.624	55.647	0.163	0.157
-636.609	-138.485	0.183	-0.020
-635.595	85.131	0.186	0.204
-634.580	-137.633	0.337	0.038
-633.565	-57.521	-0.148	-0.065
-632.551	-120.609	0.460	0.078
-631.536	-36.949	0.111	-0.059
-630.522	-131.227	-0.150	-0.020
-629.507	345.474	-0.018	0.035
-628.492	-132.144	0.179	0.023
-627.478	387.721	0.173	-0.358
-626.463	-101.178	-0.261	-0.064
-625.449	-33.846	0.255	0.140
-624.434	-200.000	0.010	0.137
-623.419	-200.000	-0.055	-0.283
-622.405	-200.000	0.002	-0.288
-621.390	-200.000	-0.003	-0.194
-620.376	187.357	0.041	0.061
-619.361	-25.080	-0.245	-0.145
-618.346	-200.000	-0.066	0.331
-617.332	65.885	-0.174	0.176
-616.317	376.202	0.121	-0.247
-615.303	-65.790	0.157	-0.063
-614.288	-112.318	-0.044	-0.009
-613.273	12.338	-0.139	-0.106
-612.259	24.742	-0.125	-0.103
-611.244	7.577	-0.115	-0.086
-610.230	-64.149	0.067	0.027
-609.215	141.763	0.182	-0.240
-608.201	-134.860	-0.265	-0.032
-607.186	197.563	-0.067	-0.102
-606.171	6.807	0.245	-0.182
-605.157	-200.000	-0.024	0.181
-604.142	-102.877	-0.204	-0.048
-603.128	800.000	0.023	0.079
-602.113	-95.442	0.303	0.081
-601.098	-56.982	-0.122	-0.054
-600.084	362.679	0.061	0.121
-599.069	800.000	0.080	0.290
-598.055	-106.486	-0.190	-0.042
-597.040	-100.186	-0.059	0.015
-596.025	84.624	0.181	0.198
-595.011	88.122	-0.037	0.040
-593.996	-12.578	0.096	-0.063
-592.982	478.421	-0.119	-0.269
-591.967	-159.828	0.481	0.026
-590.952	246.468	-0.111	0.187
-589.938	795.489	-0.113	0.311
-588.923	-130.251	-0.221	0.030
-587.909	155.768	0.100	0.137
-586.894	-76.884	-0.102	0.035
-585.879	-200.000	0.033	0.188
-584.865	-111.589	0.421	-0.085
-583.850	-61.184	0.322	-0.135
-582.836	143.426	0.129	-0.171
-581.821	800.000	0.042	0.131
-580.806	-170.910	-0.288	-0.010
-579.792	-36.778	0.182	0.097
-578.777	800.000	0.016	0.052
-577.763	-157.578	-0.081	-0.005
-576.748	-200.000	-0.028	-0.298
-575.733	-119.634	-0.148	0.025
-574.719	-15.529	0.040	0.025
-573.704	-159.737	-0.515	-0.028
-572.690	-200.000	-0.025	-0.349
-571.675	-2.484	-0.299	-0.209
-570.661	-200.000	0.018	-0.169
-569.646	121.930	0.108	0.135
-568.631	31.951	-0.114	-0.098
-567.617	285.097	-0.101	-0.181
-566.602	-200.000	-0.010	0.303
-565.588	-114.605	-0.323	0.062
-564.573	-165.635	0.329	0.014
-563.558	800.000	-0.129	0.454
-562.544	-200.000	-0.032	-0.231
-561.529	-120.440	-0.167	0.028
-560.515	203.311	-0.182	0.280
-559.500	-96.736	0.164	-0.043
-558.485	41.780	0.110	-0.100
-557.471	90.670	0.098	0.109
-556.456	-55.050	-0.411	0.184
-555.442	11.372	0.315	-0.240
-554.427	-92.975	-0.125	-0.035
-553.412	231.483	-0.149	-0.244
-552.398	-105.719	-0.123	-0.028
-551.383	-200.000	-0.007	0.078
-550.369	-139.939	-0.408	-0.043
-549.354	800.000	-0.034	0.109
-548.339	-3.678	0.277	-0.192
-547.325	-4.952	-0.183	-0.125
-546.310	89.292	0.401	-0.445
-545.296	22.562	-0.078	0.064
-544.281	800.000	-0.076	0.312
-543.266	-121.261	-0.223	0.037
-542.252	-152.067	0.227	0.016
-541.237	-145.965	-0.267	-0.024
-540.223	-200.000	0.010	-0.177
-539.208	800.000	0.075	0.278
-538.193	45.092	-0.178	0.163
-537.179	-92.735	-0.286	-0.080
-536.164	-156.428	-0.435	-0.027
-535.150	-147.237	-0.229	-0.019
-534.135	404.682	0.095	0.199
-533.121	-178.266	-0.265	-0.006
-532.106	12.084	-0.154	0.118
-531.091	800.000	-0.044	0.143
-530.077	98.384	0.101	-0.116
-529.062	-137.946	-0.165	-0.018
-528.048	-20.921	-0.187	0.114
-527.033	72.294	0.118	-0.122
-526.018	8.918	0.215	-0.161
-525.004	-161.949	-0.197	-0.010
-523.989	-64.607	-0.438	0.177
-522.975	248.677	-0.158	-0.266
-521.960	800.000	-0.042	0.118
-520.945	251.420	0.149	0.252
-519.931	-54.195	-0.184	-0.083
-518.916	-200.000	0.002	-0.027
-517.902	26.135	0.133	-0.110
-516.887	-75.036	-0.298	-0.106
-515.872	-128.736	-0.031	0.004
-514.858	-172.139	0.499	-0.016
-513.843	297.024	-0.051	0.093
-512.829	23.185	-0.230	-0.187
-511.814	24.621	0.018	-0.014
-510.799	46.610	0.135	0.124
-509.785	-124.524	-0.074	-0.011
-508.770	441.129	0.104	-0.226
-507.756	800.000	0.053	-0.214
-506.741	25.632	-0.022	0.018
-505.726	-30.734	-0.171	-0.096
-504.712	103.603	-0.131	0.152
-503.697	-22.315	-0.297	0.179
-502.683	800.000	-0.039	0.115
-501.668	-48.558	0.226	-0.108
-500.653	800.000	0.048	-0.193
-499.639	-39.094	0.062	0.032
-498.624	467.816	0.053	-0.119
-497.610	676.109	-0.091	-0.234
-496.595	123.074	0.080	0.100
-495.581	-200.000	0.015	0.148
-494.566	-115.824	0.172	0.032
-493.551	121.050	-0.117	0.145
-492.537	-140.034	0.222	0.023
-491.522	-200.000	-0.001	-0.349
-490.508	-64.882	0.258	0.104
-489.493	800.000	0.056	0.162
-488.478	140.053	-0.035	0.046
-487.464	-200.000	-0.006	0.050
-486.449	800.000	0.113	-0.419
-485.435	10.205	0.056	0.042
-484.420	325.060	-0.150	0.284
-483.405	173.654	-0.102	0.146
-482.391	-200.000	0.021	-0.319
-481.376	800.000	0.031	0.118
-480.362	-200.000	0.026	-0.231
-479.347	-50.805	0.360	0.168
-478.332	27.784	0.121	0.101
-477.318	-136.949	0.122	0.014
-476.303	-200.000	-0.063	0.283
-475.289	-138.201	0.301	0.033
-474.274	127.448	0.126	0.159
-473.259	-32.904	0.188	0.103
-472.245	109.399	-0.159	0.189
-471.230	-27.320	0.274	-0.158
-470.216	-186.508	0.080	-0.001
-469.201	430.716	-0.103	-0.221
-468.186	18.430	-0.275	-0.218
-467.172	800.000	0.139	-0.409
-466.157	-143.462	0.098	-0.009
-465.143	-91.512	-0.075	-0.021
-464.128	-83.506	-0.082	-0.026
-463.113	-121.732	0.279	0.046
-462.099	14.451	0.180	0.139
-461.084	177.321	-0.187	-0.271
-460.070	157.086	-0.095	0.130
-459.055	26.507	0.328	0.272
-458.040	-67.157	-0.434	-0.169
-457.026	-114.664	-0.108	0.020
-456.011	26.649	0.055	0.046
-454.997	267.980	0.092	0.160
-453.982	-93.405	-0.289	-0.079
-452.968	224.796	-0.160	0.257
-451.953	-91.122	-0.184	-0.052
-450.938	-200.000	-0.006	-0.474
-449.924	-60.227	-0.088	0.037
-448.909	70.544	-0.097	0.099
-447.895	247.093	-0.048	-0.080
-446.880	652.418	-0.180	-0.457
-445.865	800.000	-0.079	-0.230
-444.851	-200.000	-0.021	-0.217
-443.836	-29.379	0.316	-0.179
-442.822	-107.239	-0.158	0.035
-441.807	404.274	0.087	-0.182
-440.792	-108.689	0.367	0.078
-439.778	339.821	-0.044	0.086
-438.763	-95.981	0.099	-0.026
-437.749	33.985	0.013	-0.011
-436.734	164.535	0.148	0.207
-435.719	-2.485	0.180	0.125
-434.705	735.350	-0.048	0.129
-433.690	45.702	-0.052	-0.048
-432.676	184.303	0.178	0.261
-431.661	-200.000	0.024	0.110
-430.646	-200.000	0.019	0.428
-429.632	63.657	-0.176	0.175
-428.617	42.127	0.109	0.098
-427.603	128.234	-0.140	-0.176
-426.588	493.485	-0.062	0.141
-425.573	217.430	-0.118	0.187
-424.559	-16.535	-0.349	-0.219
-423.544	638.607	0.037	0.093
-422.530	-200.000	0.039	-0.198
-421.515	-78.665	0.391	0.132
-420.500	-116.113	-0.253	0.047
-419.486	-18.465	0.072	-0.045
-418.471	27.347	-0.336	0.280
-417.457	170.253	0.186	0.263
-416.442	-108.549	0.460	0.098
-415.428	48.413	0.191	-0.177
-414.413	26.255	-0.101	-0.083
-413.398	-138.787	0.263	0.028
-412.384	800.000	0.051	-0.141
-411.369	-196.383	0.101	-0.001
-410.355	-112.354	-0.099	0.020
-409.340	-68.439	-0.098	0.037
-408.325	25.734	-0.251	-0.206
-407.311	-40.917	0.101	-0.052
-406.296	-57.824	0.442	-0.191
-405.282	-20.392	-0.346	-0.211
-404.267	-182.370	-0.066	-0.001
-403.252	530.456	-0.053	0.125
-402.238	192.846	-0.074	-0.111
-401.223	-152.158	0.338	-0.024
-400.209	-128.791	0.125	-0.017
-399.194	-122.452	-0.092	0.015
-398.179	-34.511	-0.219	-0.118
-397.165	-51.749	0.124	0.057
-396.150	-77.019	0.199	0.069
-395.136	215.526	-0.111	-0.175
-394.121	26.720	-0.283	0.234
-393.106	800.000	0.065	0.194
-392.092	508.949	0.098	0.224
-391.077	5.707	-0.054	-0.039
-390.063	-79.061	0.197	-0.066
-389.048	39.125	0.308	-0.272
-388.033	-33.609	-0.342	-0.187
-387.019	227.879	0.034	0.055
-386.004	10.254	-0.207	0.155
-384.990	-47.610	-0.171	0.082
-383.975	800.000	-0.019	0.055
-382.960	38.485	-0.112	0.099
-381.946	-79.744	-0.119	-0.040
-380.931	-200.000	-0.002	-0.243
-379.917	800.000	-0.085	-0.316
-378.902	-200.000	-0.010	-0.303
-377.888	-122.627	-0.267	-0.043
-376.873	23.511	0.379	-0.308
-375.858	800.000	0.074	0.266
-374.844	-141.283	0.291	0.029
-373.829	-77.857	0.271	-0.093
-372.815	-200.000	0.005	-0.274
-371.800	92.930	0.263	-0.293
-370.785	112.051	-0.193	0.231
-369.771	-110.328	0.451	-0.093
-368.756	93.830	0.190	0.213
-367.742	88.473	0.164	0.180
-366.727	-135.484	0.082	0.010
-365.712	97.042	0.188	-0.213
-364.698	-200.000	0.019	-0.125
-363.683	103.604	0.089	-0.104
-362.669	26.526	-0.239	-0.197
-361.654	-184.632	0.412	-0.007
-360.639	-200.000	0.050	0.373
-359.625	-200.000	-0.008	0.189
-358.610	460.882	0.075	-0.164
-357.596	205.708	0.233	-0.358
-356.581	265.123	0.131	-0.225
-355.566	10.677	0.209	-0.158
-354.552	50.307	0.158	-0.148
-353.537	-22.524	-0.211	0.126
-352.523	-85.235	0.159	0.049
-351.508	500.609	-0.132	0.301
-350.493	144.796	0.128	0.169
-349.479	40.065	-0.064	-0.057
-348.464	-200.000	-0.011	0.249
-347.450	55.734	-0.335	-0.320
-346.435	250.378	0.313	-0.525
-345.420	-200.000	-0.010	0.145
-344.406	106.694	0.047	0.055
-343.391	111.195	0.081	0.097
-342.377	45.235	-0.143	0.130
-341.362	-200.000	0.037	-0.311
-340.348	6.530	0.183	-0.134
-339.333	-39.149	0.142	0.074
-338.318	800.000	0.069	-0.280
-337.304	-200.000	-0.037	-0.215
-336.289	-200.000	-0.008	0.043
-335.275	12.138	-0.316	0.240
-334.260	43.537	-0.133	0.120
-333.245	325.573	-0.157	0.295
-332.231	77.710	0.074	-0.078
-331.216	-2.848	0.075	0.052
-330.202	487.382	-0.096	0.217
-329.187	71.229	-0.255	0.260
-328.172	598.202	-0.119	0.290
-327.158	800.000	0.154	-0.569
-326.143	-200.000	-0.055	-0.373
-325.129	800.000	-0.080	0.253
-324.114	-53.729	-0.270	0.122
-323.099	-114.796	-0.362	0.068
-322.085	-97.129	-0.193	0.050
-321.070	85.248	-0.064	0.069
-320.056	520.493	-0.021	-0.049
-319.041	-123.187	0.282	0.044
-318.026	256.253	0.081	0.136
-317.012	-200.000	0.022	0.414
-315.997	-200.000	-0.002	0.321
-314.983	-107.707	0.302	0.065
-313.968	-4.811	0.355	0.241
-312.953	44.965	0.031	0.028
-311.939	-124.919	-0.273	-0.041
-310.924	-15.848	0.153	-0.096
-309.910	-128.837	-0.036	-0.005
-308.895	-39.951	0.281	0.144
-307.880	-48.718	-0.176	0.083
-306.866	-132.199	0.165	-0.021
-305.851	59.705	0.228	-0.221
-304.837	-0.410	-0.258	0.180
-303.822	86.067	-0.192	-0.208
-302.807	-200.000	-0.070	0.453
-301.793	548.514	-0.036	0.084
-300.778	521.183	0.046	-0.106
-299.764	-85.101	0.262	-0.081
-298.749	19.623	0.249	-0.198
-297.735	-87.551	0.334	-0.100
-296.720	-2.326	-0.342	-0.236
-295.705	600.622	0.059	-0.144
-294.691	-200.000	-0.023	0.217
-293.676	56.820	-0.166	-0.159
-292.662	-94.208	0.224	0.060
-291.647	0.429	0.248	0.174
-290.632	28.853	-0.133	0.111
-289.618	-200.000	-0.088	0.429
-288.603	800.000	0.109	0.390
-287.589	800.000	0.068	-0.240
-286.574	210.293	0.054	0.083
-285.559	-150.357	0.191	-0.014
-284.545	135.168	0.226	-0.289
-283.530	417.212	-0.110	0.231
-282.516	-22.084	-0.503	0.301
-281.501	-200.000	-0.019	0.135
-280.486	432.083	0.114	0.242
-279.472	287.686	0.065	0.116
-278.457	-12.916	0.149	-0.096
-277.443	-50.889	-0.405	-0.187
-276.428	-46.102	-0.078	0.038
-275.413	-200.000	0.033	-0.225
-274.399	-116.189	0.368	0.067
-273.384	800.000	0.054	-0.219
-272.370	800.000	0.028	0.115
-271.355	122.567	0.025	-0.030
-270.340	177.687	0.119	-0.171
-269.326	418.391	-0.010	-0.020
-268.311	-127.966	0.164	-0.023
-267.297	-200.000	0.388	0.001
-266.282	-63.853	0.414	-0.167
-265.267	-200.000	0.000	0.123
-264.253	-200.000	-0.010	-0.058
-263.238	800.000	-0.021	-0.067
-262.224	116.067	-0.182	-0.219
-261.209	-39.317	-0.112	0.058
-260.195	-0.205	-0.267	0.187
-259.180	-108.770	0.122	0.026
-258.165	179.098	-0.110	-0.159
-257.151	800.000	0.019	-0.078
-256.136	-19.470	-0.175	-0.106
-255.122	580.786	-0.042	-0.101
-254.107	789.944	0.090	0.244
-253.092	-200.000	0.054	0.333
-252.078	-200.000	0.015	0.106
-251.063	-79.476	0.064	0.021
-250.049	-72.614	-0.092	-0.033
-249.034	-184.201	-0.133	-0.002
-248.019	544.324	-0.100	-0.234
-247.005	20.729	-0.113	-0.090
-245.990	-152.576	-0.270	-0.019
-244.976	103.761	-0.327	-0.377
-243.961	109.794	0.162	-0.191
-242.946	155.746	-0.046	0.062
-241.932	-200.000	-0.072	0.375
-240.917	-200.000	0.095	-0.593
-239.903	800.000	-0.071	-0.211
-238.888	800.000	-0.037	-0.105
-237.873	800.000	0.055	0.213
-236.859	228.202	-0.145	0.232
-235.844	270.051	0.112	0.193
-234.830	-200.000	-0.011	0.182
-233.815	-153.256	0.452	-0.031
-232.800	-200.000	0.010	0.052
-231.786	-69.377	0.176	-0.066
-230.771	800.000	-0.058	0.241
-229.757	-155.041	-0.483	0.031
-228.742	-22.631	0.135	-0.080
-227.727	-177.248	-0.470	-0.011
-226.713	7.744	0.161	-0.119
-225.698	-47.466	0.067	0.032
-224.684	-38.990	-0.253	-0.131
-223.669	800.000	-0.066	0.217
-222.655	-200.000	0.007	-0.072
-221.640	-200.000	0.034	0.160
-220.625	-200.000	-0.019	0.278
-219.611	-96.744	-0.071	-0.018
-218.596	-102.234	-0.229	0.054
-217.582	64.945	-0.028	-0.028
-216.567	25.421	0.202	0.165
-215.552	-42.959	0.408	-0.203
-214.538	-200.000	0.001	-0.131
-213.523	800.000	-0.086	0.370
-212.509	800.000	0.061	0.236
-211.494	-134.368	0.093	-0.011
-210.479	-107.667	-0.273	-0.059
-209.465	-20.643	0.097	0.059
-208.450	-2.346	-0.348	0.239
-207.436	-141.796	-0.068	0.007
-206.421	-113.464	0.201	-0.039
-205.406	-14.759	-0.068	0.043
-204.392	-24.631	-0.187	-0.109
-203.377	241.876	0.150	0.246
-202.363	438.092	-0.075	0.160
-201.348	268.490	-0.105	-0.180
-200.333	-167.607	0.123	0.005
-199.319	-4.811	-0.222	-0.150
-198.304	-115.741	-0.145	-0.027
-197.290	71.270	-0.126	0.129
-196.275	800.000	0.131	0.392
-195.260	-28.121	-0.118	0.067
-194.246	10.182	-0.213	-0.159
-193.231	800.000	0.015	0.052
-192.217	324.726	0.103	0.193
-191.202	-35.660	-0.216	-0.115
-190.187	-200.000	-0.024	-0.180
-189.173	-144.096	-0.522	-0.048
-188.158	800.000	0.046	-0.164
-187.144	162.261	-0.152	0.210
-186.129	-56.003	-0.255	-0.112
-185.114	-2.825	0.175	-0.120
-184.100	-100.189	0.277	-0.068
-183.085	800.000	-0.088	-0.278
-182.071	43.329	0.080	0.071
-181.056	47.953	-0.069	0.063
-180.042	-49.011	-0.277	-0.130
-179.027	-200.000	0.004	-0.276
-178.012	-75.106	-0.013	-0.004
-176.998	29.342	-0.131	-0.109
-175.983	61.303	0.148	-0.144
-174.969	202.407	-0.105	-0.158
-173.954	800.000	-0.031	-0.087
-172.939	-97.624	0.233	0.059
-171.925	248.831	-0.177	0.294
-170.910	16.333	0.312	0.241
-169.896	-200.000	0.015	-0.194
-168.881	-30.032	0.089	-0.050
-167.866	42.000	0.076	0.068
-166.852	800.000	-0.031	-0.085
-165.837	800.000	0.104	0.295
-164.823	-195.808	0.229	0.002
-163.808	-104.030	0.323	-0.074
-162.793	-61.828	-0.242	0.099
-161.779	-23.390	0.288	-0.170
-160.764	-149.048	-0.196	0.015
-159.750	169.491	-0.097	0.135
-158.735	201.154	0.177	0.266
-157.720	-200.000	-0.012	0.353
-156.706	-134.288	-0.184	-0.022
-155.691	150.016	-0.061	-0.080
-154.677	800.000	0.066	-0.212
-153.662	358.069	0.166	-0.325
-152.647	-78.697	0.289	0.097
-151.633	720.067	-0.049	0.128
-150.618	-105.398	0.034	0.008
-149.604	-64.661	-0.109	-0.043
-148.589	-73.985	-0.146	0.052
-147.574	-20.322	-0.139	0.084
-146.560	-200.000	-0.002	0.187
-145.545	-163.714	0.455	0.021
-144.531	18.938	-0.176	0.138
-143.516	71.210	-0.096	0.098
-142.502	-93.228	-0.278	-0.076
-141.487	221.321	-0.217	0.341
-140.472	-147.731	0.194	-0.016
-139.458	-76.508	-0.275	0.095
-138.443	621.806	0.082	-0.202
-137.429	-127.833	-0.136	0.019
-136.414	87.105	-0.181	-0.195
-135.399	-21.515	-0.059	-0.035
-134.385	-129.868	-0.158	-0.021
-133.370	390.854	0.172	-0.348
-132.356	-32.803	-0.175	0.095
-131.341	131.304	0.052	-0.065
-130.326	-200.000	0.004	0.462
-129.312	-137.714	0.203	0.022
-128.297	-59.408	-0.257	0.108
-127.283	-200.000	-0.022	0.442
-126.268	55.899	0.255	-0.242
-125.253	800.000	-0.066	0.209
-124.239	-200.000	0.028	-0.196
-123.224	-56.969	0.169	-0.073
-122.210	15.277	0.202	-0.155
-121.195	-36.988	0.025	0.013
