DTS Sentinel unit serial number:	SN413079Multiplexer serial number:	ORYXHardware model number:	OX4-SRSoftware version number:	ORYX F/W v4.00 Oryx Data Collector v3.7.2.0data status	okinstallation	princeton_trtdifferential loss correction	single-endedforward channel	channel 2reverse channel	N/Adate	2019/09/16time	16:15:35forward acquisition time	60.00reverse acquisition time	0.00gamma	496.2192k internal	0.2300k external	0.2300temperature offset calibration	0.9941default loss term (dB/km)	0.3790temperature slope calibration	1.0000multiplexer offset coefficient	1.0000multiplexer slope coefficient	1.0000fibre end	0.00T internal ref (°C)	40.62T ext. ref 1 (°C)	15.00T ext. ref 2 (°C)	34.75length (m)	temperature (°C)	Stokes	anti-Stokes-747.200	-141.081	-0.183	-0.019
-746.185	0.107	-0.322	0.234
-745.171	-83.871	-0.353	-0.115
-744.156	-34.662	-0.325	0.181
-743.142	-200.000	0.047	-0.282
-742.127	363.298	-0.053	0.108
-741.112	-94.685	-0.458	0.127
-740.098	91.297	0.119	0.137
-739.083	800.000	-0.112	0.362
-738.069	-26.342	-0.209	0.125
-737.054	-7.354	-0.141	0.097
-736.039	-103.509	-0.180	-0.043
-735.025	648.089	0.056	-0.147
-734.010	-200.000	-0.014	-0.339
-732.996	-200.000	-0.044	0.285
-731.981	-16.681	-0.350	-0.226
-730.966	-110.130	-0.357	-0.076
-729.952	-200.000	0.014	0.375
-728.937	77.704	-0.142	0.154
-727.923	-135.511	-0.211	-0.026
-726.908	-200.000	-0.005	-0.285
-725.894	32.727	0.155	0.137
-724.879	197.631	-0.181	-0.281
-723.864	194.798	-0.185	0.286
-722.850	53.575	0.283	0.277
-721.835	54.067	-0.226	-0.221
-720.821	-200.000	0.054	-0.409
-719.806	-25.315	0.361	-0.217
-718.791	-91.873	0.136	-0.039
-717.777	587.309	0.051	-0.127
-716.762	800.000	0.054	0.161
-715.748	-158.168	0.222	-0.013
-714.733	388.837	-0.087	-0.184
-713.718	14.241	0.161	-0.128
-712.704	6.333	0.244	0.185
-711.689	17.750	-0.026	-0.021
-710.675	66.361	0.210	-0.217
-709.660	-123.901	0.162	-0.026
-708.645	-200.000	0.007	-0.156
-707.631	-114.298	0.114	-0.022
-706.616	284.994	-0.163	-0.298
-705.602	172.978	-0.069	-0.102
-704.587	-9.454	-0.057	-0.039
-703.572	58.295	0.092	-0.092
-702.558	314.544	0.118	-0.227
-701.543	102.464	0.160	0.190
-700.529	-60.603	0.292	-0.126
-699.514	-200.000	-0.022	-0.166
-698.499	-36.978	0.106	-0.058
-697.485	84.059	-0.094	-0.104
-696.470	106.985	-0.084	0.101
-695.456	391.306	-0.131	-0.276
-694.441	46.870	0.087	0.082
-693.426	139.316	0.091	-0.122
-692.412	103.866	-0.105	-0.126
-691.397	498.764	0.095	0.222
-690.383	-200.000	0.004	-0.174
-689.368	658.689	0.052	0.137
-688.354	-145.550	0.254	0.023
-687.339	-131.394	-0.187	0.025
-686.324	371.830	-0.073	-0.151
-685.310	15.814	-0.168	0.135
-684.295	602.114	0.054	0.135
-683.281	800.000	-0.112	-0.316
-682.266	289.558	-0.035	0.064
-681.251	800.000	0.062	-0.225
-680.237	-40.669	-0.155	0.082
-679.222	130.007	-0.159	0.207
-678.208	242.730	-0.096	0.164
-677.193	800.000	0.074	0.218
-676.178	223.427	-0.225	-0.369
-675.164	800.000	-0.024	-0.073
-674.149	438.618	-0.144	-0.319
-673.135	454.228	0.052	-0.118
-672.120	-200.000	-0.012	0.097
-671.105	-55.921	-0.143	0.065
-670.091	533.250	-0.199	-0.480
-669.076	-129.952	-0.210	0.029
-668.062	800.000	0.047	0.162
-667.047	-106.380	-0.304	0.069
-666.032	-148.164	-0.345	0.029
-665.018	485.091	-0.097	-0.226
-664.003	-39.549	-0.092	-0.049
-662.989	-104.672	-0.447	-0.105
-661.974	-200.000	0.001	-0.242
-660.959	-27.010	0.051	-0.030
-659.945	24.581	-0.211	0.177
-658.930	77.344	0.200	-0.216
-657.916	-200.000	-0.027	-0.242
-656.901	-196.863	0.205	-0.001
-655.886	569.376	-0.079	-0.195
-654.872	-27.428	-0.253	0.149
-653.857	-22.281	0.410	-0.252
-652.843	242.475	0.125	-0.213
-651.828	215.018	0.056	-0.091
-650.814	-200.000	0.059	0.418
-649.799	74.013	-0.157	0.168
-648.784	-200.000	-0.003	0.508
-647.770	-56.267	-0.109	-0.049
-646.755	114.817	0.181	0.224
-645.741	800.000	-0.058	-0.194
-644.726	776.669	-0.059	0.164
-643.711	-64.636	0.315	-0.130
-642.697	-200.000	0.010	-0.111
-641.682	44.439	0.206	-0.192
-640.668	-200.000	-0.017	-0.143
-639.653	800.000	0.046	-0.158
-638.638	800.000	0.039	-0.125
-637.624	37.960	0.251	-0.226
-636.609	65.826	0.222	-0.229
-635.595	-76.739	0.079	-0.028
-634.580	-79.125	0.246	0.085
-633.565	268.183	0.139	0.248
-632.551	-15.128	-0.099	-0.064
-631.536	-200.000	0.002	-0.057
-630.522	744.220	0.146	-0.400
-629.507	456.525	-0.059	-0.134
-628.492	-76.393	-0.257	-0.092
-627.478	-200.000	0.015	0.099
-626.463	-48.244	-0.212	-0.104
-625.449	-11.530	0.207	0.138
-624.434	-92.213	-0.310	-0.089
-623.419	-54.543	-0.106	0.049
-622.405	-200.000	0.034	-0.336
-621.390	-200.000	0.002	0.134
-620.376	-33.199	0.101	0.057
-619.361	-160.703	-0.289	-0.016
-618.346	-11.080	-0.285	0.191
-617.332	59.831	-0.156	0.156
-616.317	-121.975	0.158	0.026
-615.303	-95.758	-0.266	-0.072
-614.288	198.399	0.089	0.139
-613.273	126.684	-0.145	-0.186
-612.259	312.473	0.128	0.244
-611.244	-9.159	0.072	0.049
-610.230	-126.714	-0.097	0.015
-609.215	-82.699	-0.135	0.044
-608.201	211.190	0.093	0.149
-607.186	-95.855	-0.281	0.076
-606.171	114.818	-0.096	-0.119
-605.157	117.010	-0.328	-0.409
-604.142	-74.772	-0.265	0.097
-603.128	199.041	-0.318	-0.494
-602.113	-200.000	0.011	0.269
-601.098	-116.907	-0.138	-0.026
-600.084	32.730	-0.191	0.168
-599.069	-200.000	-0.014	0.405
-598.055	31.751	-0.207	-0.181
-597.040	417.385	-0.111	-0.239
-596.025	800.000	-0.039	-0.158
-595.011	-180.524	-0.155	-0.003
-593.996	-200.000	0.041	0.331
-592.982	-32.594	0.076	0.043
-591.967	-200.000	-0.022	-0.265
-590.952	-28.214	0.146	0.086
-589.938	-200.000	0.008	-0.170
-588.923	328.580	-0.154	-0.299
-587.909	-200.000	0.002	0.296
-586.894	701.816	0.043	-0.116
-585.879	-200.000	-0.010	0.233
-584.865	-106.098	-0.059	-0.013
-583.850	-122.103	0.140	0.023
-582.836	-26.619	0.381	0.226
-581.821	-83.929	-0.128	-0.041
-580.806	-200.000	-0.038	-0.213
-579.792	800.000	0.069	-0.216
-578.777	-124.389	0.332	-0.052
-577.763	31.752	0.171	0.149
-576.748	-200.000	-0.020	0.183
-575.733	-0.662	-0.353	-0.253
-574.719	-84.393	0.031	0.010
-573.704	-175.185	-0.062	0.002
-572.690	-200.000	-0.063	-0.379
-571.675	-9.125	0.073	-0.049
-570.661	-200.000	-0.019	0.284
-569.646	-150.838	0.489	0.038
-568.631	25.079	-0.152	-0.128
-567.617	235.486	-0.188	0.315
-566.602	31.861	-0.184	0.160
-565.588	800.000	-0.066	0.264
-564.573	390.033	-0.073	0.152
-563.558	170.624	-0.068	0.099
-562.544	-177.972	-0.555	0.013
-561.529	-26.973	-0.064	0.038
-560.515	-138.917	0.445	-0.049
-559.500	-48.143	0.301	-0.147
-558.485	-160.847	0.077	-0.004
-557.471	279.236	-0.083	-0.150
-556.456	-200.000	0.008	0.143
-555.442	-33.724	-0.093	0.052
-554.427	-26.212	0.276	-0.164
-553.412	210.084	-0.092	-0.146
-552.398	-101.660	-0.035	-0.009
-551.383	-107.267	0.183	-0.041
-550.369	800.000	-0.019	0.067
-549.354	-54.966	0.159	-0.073
-548.339	-200.000	0.028	-0.145
-547.325	-33.821	0.132	-0.073
-546.310	-74.210	0.224	-0.082
-545.296	-126.709	0.128	-0.019
-544.281	465.497	-0.062	-0.141
-543.266	-136.320	-0.085	-0.010
-542.252	295.559	-0.071	0.131
-541.237	-200.000	-0.019	0.125
-540.223	421.387	-0.138	-0.300
-539.208	-99.418	0.151	-0.039
-538.193	-123.405	-0.087	0.014
-537.179	-98.570	-0.387	-0.100
-536.164	42.640	-0.037	-0.034
-535.150	-71.703	-0.193	0.073
-534.135	800.000	0.053	-0.170
-533.121	-143.178	-0.175	0.017
-532.106	800.000	-0.058	0.202
-531.091	-112.552	-0.094	-0.019
-530.077	22.795	0.173	0.143
-529.062	-49.975	-0.154	-0.074
-528.048	241.343	-0.078	-0.131
-527.033	-30.778	0.251	0.144
-526.018	-49.790	0.171	-0.082
-525.004	184.101	0.052	-0.078
-523.989	-96.365	-0.194	0.052
-522.975	187.747	0.005	-0.008
-521.960	-200.000	0.020	0.153
-520.945	536.296	0.068	0.163
-519.931	-130.816	0.495	-0.067
-518.916	-54.082	0.142	0.065
-517.902	-200.000	-0.038	0.196
-516.887	-200.000	0.056	-0.336
-515.872	-122.277	-0.140	-0.023
-514.858	44.960	0.159	-0.148
-513.843	-100.677	0.316	0.079
-512.829	0.009	0.178	-0.128
-511.814	-1.811	-0.136	0.097
-510.799	-56.658	-0.105	0.047
-509.785	800.000	-0.029	0.111
-508.770	-96.990	0.153	-0.040
-507.756	123.856	0.047	-0.060
-506.741	119.236	0.221	0.277
-505.726	-7.035	-0.300	-0.206
-504.712	-98.997	0.148	0.038
-503.697	49.443	0.095	0.090
-502.683	-79.146	0.167	-0.057
-501.668	-132.457	0.238	-0.031
-500.653	-38.358	-0.185	0.099
-499.639	450.912	-0.082	0.184
-498.624	-200.000	-0.011	-0.392
-497.610	-200.000	0.027	-0.230
-496.595	-97.843	-0.115	-0.030
-495.581	99.568	-0.086	0.101
-494.566	-169.355	0.281	-0.010
-493.551	-70.839	-0.282	0.107
-492.537	396.814	0.179	0.378
-491.522	49.696	0.166	0.158
-490.508	69.349	-0.171	0.178
-489.493	38.420	0.191	0.171
-488.478	-200.000	-0.012	0.314
-487.464	186.726	-0.094	-0.141
-486.449	43.729	-0.152	-0.140
-485.435	-60.129	0.097	0.042
-484.420	-112.081	0.149	0.030
-483.405	14.441	0.300	0.236
-482.391	800.000	0.148	0.500
-481.376	181.883	0.171	0.254
-480.362	99.271	0.134	0.156
-479.347	79.894	-0.113	-0.123
-478.332	-200.000	0.007	-0.052
-477.318	119.109	-0.099	-0.124
-476.303	-149.961	0.091	-0.007
-475.289	-169.747	0.232	-0.008
-474.274	163.063	0.246	-0.349
-473.259	-200.000	0.064	-0.304
-472.245	-200.000	0.007	0.072
-471.230	183.441	-0.071	0.105
-470.216	-56.325	0.179	0.080
-469.201	7.768	-0.296	-0.224
-468.186	-101.242	0.325	-0.080
-467.172	203.897	-0.051	-0.080
-466.157	800.000	0.055	-0.170
-465.143	113.146	0.062	-0.076
-464.128	649.480	-0.050	-0.129
-463.113	-48.553	-0.489	0.237
-462.099	-200.000	-0.022	0.162
-461.084	373.955	-0.106	0.218
-460.070	-97.316	0.110	0.029
-459.055	-200.000	-0.007	0.136
-458.040	800.000	-0.051	0.207
-457.026	36.826	0.210	-0.188
-456.011	426.318	0.043	-0.094
-454.997	353.459	-0.185	0.370
-453.982	230.142	-0.039	0.064
-452.968	800.000	-0.087	-0.291
-451.953	-137.947	-0.153	-0.017
-450.938	800.000	0.169	0.536
-449.924	-200.000	-0.007	-0.074
-448.909	-147.297	0.361	0.031
-447.895	17.820	-0.313	0.251
-446.880	-22.015	-0.401	0.245
-445.865	-64.496	0.101	0.042
-444.851	142.130	-0.034	0.046
-443.836	-108.390	0.145	0.032
-442.822	-200.000	0.022	0.370
-441.807	-24.710	-0.049	0.030
-440.792	98.328	-0.272	-0.316
-439.778	-86.828	0.118	-0.036
-438.763	60.760	-0.073	-0.073
-437.749	-156.137	0.106	-0.007
-436.734	145.282	0.176	-0.237
-435.719	292.164	-0.147	0.269
-434.705	-144.020	0.207	-0.020
-433.690	273.567	-0.127	-0.226
-432.676	-51.716	0.156	-0.073
-431.661	-19.012	0.145	0.091
-430.646	391.619	0.099	-0.206
-429.632	-200.000	0.001	-0.091
-428.617	50.163	-0.068	-0.065
-427.603	-140.062	0.145	-0.015
-426.588	-168.840	-0.226	-0.009
-425.573	-66.814	-0.305	0.121
-424.559	800.000	0.041	0.117
-423.544	97.787	-0.026	-0.030
-422.530	-77.122	0.077	-0.027
-421.515	800.000	-0.017	0.073
-420.500	-110.269	0.280	-0.059
-419.486	800.000	-0.036	0.146
-418.471	159.971	-0.061	0.085
-417.457	800.000	-0.133	0.379
-416.442	-59.912	0.137	0.059
-415.428	168.706	-0.076	-0.110
-414.413	5.770	-0.245	-0.182
-413.398	47.419	-0.129	-0.121
-412.384	489.969	0.131	-0.301
-411.369	-43.516	-0.278	-0.141
-410.355	-39.651	-0.154	-0.081
-409.340	162.494	0.192	-0.270
-408.325	800.000	-0.038	0.118
-407.311	104.897	-0.103	0.122
-406.296	800.000	0.072	-0.220
-405.282	-155.930	-0.209	0.013
-404.267	800.000	0.088	-0.328
-403.252	243.373	-0.133	-0.224
-402.238	160.956	0.061	-0.086
-401.223	556.350	-0.079	-0.193
-400.209	48.442	-0.312	0.294
-399.194	-74.685	0.227	0.082
-398.179	166.713	-0.118	-0.168
-397.165	-200.000	0.029	-0.178
-396.150	-88.101	-0.087	0.026
-395.136	116.050	0.195	0.240
-394.121	177.250	0.123	-0.180
-393.106	-12.590	0.173	0.113
-392.092	273.194	0.092	-0.163
-391.077	-130.096	0.114	-0.016
-390.063	-116.901	0.152	0.028
-389.048	-200.000	-0.015	0.088
-388.033	57.617	0.075	0.073
-387.019	151.512	-0.250	0.342
-386.004	783.521	0.096	0.264
-384.990	179.442	-0.140	-0.206
-383.975	637.565	-0.145	-0.369
-382.960	-200.000	-0.095	-0.442
-381.946	59.531	-0.094	-0.093
-380.931	800.000	0.065	-0.231
-379.917	-196.034	-0.089	0.001
-378.902	-72.627	-0.333	0.124
-377.888	384.412	-0.032	-0.066
-376.873	-62.891	-0.379	0.158
-375.858	-90.870	-0.343	-0.099
-374.844	-182.840	0.187	0.003
-373.829	-74.796	0.145	-0.052
-372.815	-9.514	0.284	-0.191
-371.800	374.549	0.017	-0.035
-370.785	-65.712	-0.287	-0.116
-369.771	128.429	-0.148	0.189
-368.756	-170.969	-0.290	0.010
-367.742	-145.989	-0.149	0.013
-366.727	594.549	-0.128	-0.318
-365.712	-139.629	0.011	0.001
-364.698	-52.919	0.154	0.071
-363.683	688.971	0.073	0.191
-362.669	192.587	-0.084	-0.128
-361.654	-27.058	-0.106	-0.062
-360.639	668.005	-0.060	0.155
-359.625	70.207	-0.093	-0.097
-358.610	294.128	0.256	-0.471
-357.596	-180.203	-0.093	0.002
-356.581	-184.826	-0.271	-0.004
-355.566	-200.000	-0.042	0.351
-354.552	-163.305	-0.245	-0.012
-353.537	24.694	-0.086	-0.072
-352.523	-125.121	0.152	0.023
-351.508	-94.277	0.204	0.056
-350.493	800.000	-0.099	0.394
-349.479	484.110	0.053	0.120
-348.464	-103.707	0.314	-0.074
-347.450	-26.001	0.146	-0.086
-346.435	-80.462	0.371	0.124
-345.420	-84.251	-0.207	0.066
-344.406	800.000	0.044	0.141
-343.391	800.000	0.098	0.338
-342.377	-6.951	-0.110	-0.075
-341.362	56.687	-0.111	0.108
-340.348	-101.379	-0.441	0.108
-339.333	787.553	0.032	-0.087
-338.318	187.696	0.155	-0.233
-337.304	66.139	0.210	0.214
-336.289	687.899	-0.085	-0.224
-335.275	-69.266	0.279	-0.108
-334.260	-115.340	0.241	-0.046
-333.245	55.208	-0.027	-0.027
-332.231	-147.118	0.227	0.019
-331.216	208.427	-0.148	0.232
-330.202	58.401	-0.151	0.149
-329.187	51.216	0.132	0.126
-328.172	800.000	0.032	-0.116
-327.158	-0.123	0.227	0.162
-326.143	4.804	0.059	-0.043
-325.129	437.868	-0.031	-0.068
-324.114	-49.350	-0.154	0.074
-323.099	55.039	-0.295	-0.286
-322.085	-200.000	0.006	-0.051
-321.070	-47.633	0.199	0.097
-320.056	-46.276	0.119	-0.059
-319.041	476.785	-0.051	0.117
-318.026	800.000	0.063	0.248
-317.012	-179.778	0.050	0.001
-315.997	-130.875	-0.292	0.039
-314.983	151.493	-0.105	0.143
-313.968	496.251	-0.081	0.188
-312.953	-200.000	0.015	-0.272
-311.939	-87.901	0.430	-0.130
-310.924	-200.000	-0.011	-0.215
-309.910	800.000	-0.043	0.124
-308.895	-45.948	0.086	0.043
-307.880	-71.488	0.321	-0.120
-306.866	800.000	-0.079	-0.326
-305.851	313.087	-0.130	-0.245
-304.837	-200.000	-0.024	0.418
-303.822	92.614	0.175	0.198
-302.807	83.064	-0.163	-0.178
-301.793	-75.981	-0.221	0.078
-300.778	-11.658	0.156	-0.103
-299.764	-157.306	0.215	0.013
-298.749	-15.600	0.244	-0.156
-297.735	-24.894	-0.101	-0.060
-296.720	800.000	-0.134	0.403
-295.705	-100.289	-0.212	-0.053
-294.691	-140.262	-0.235	-0.025
-293.676	-37.252	0.366	0.196
-292.662	-84.615	0.235	0.074
-291.647	11.571	-0.121	0.093
-290.632	-31.963	0.319	0.179
-289.618	-76.699	0.215	0.075
-288.603	726.079	0.100	-0.266
-287.589	26.751	-0.153	-0.128
-286.574	319.620	0.118	0.224
-285.559	800.000	0.053	0.158
-284.545	292.403	0.083	0.152
-283.530	101.140	0.285	0.332
-282.516	-77.345	0.388	-0.135
-281.501	98.766	0.120	0.138
-280.486	-64.788	0.171	0.069
-279.472	-200.000	0.029	-0.134
-278.457	800.000	0.046	-0.150
-277.443	671.167	-0.076	0.198
-276.428	214.753	-0.243	-0.385
-275.413	79.329	-0.082	-0.088
-274.399	-200.000	0.032	-0.149
-273.384	316.351	-0.093	-0.175
-272.370	476.822	-0.067	0.151
-271.355	-87.085	0.212	-0.065
-270.340	800.000	-0.046	0.182
-269.326	-173.586	-0.179	-0.005
-268.311	-133.688	-0.354	0.044
-267.297	522.178	-0.075	-0.176
-266.282	800.000	-0.045	0.133
-265.267	-159.582	-0.123	0.007
-264.253	406.773	0.058	0.124
-263.238	-85.356	0.110	0.034
-262.224	-200.000	0.003	-0.159
-261.209	-200.000	-0.011	-0.256
-260.195	251.829	0.037	-0.063
-259.180	800.000	0.052	-0.220
-258.165	422.602	-0.061	0.130
-257.151	-152.945	0.112	-0.008
-256.136	800.000	-0.083	-0.239
-255.122	-63.114	-0.297	-0.123
-254.107	138.509	0.156	-0.205
-253.092	800.000	-0.034	0.150
-252.078	-200.000	0.056	0.299
-251.063	714.703	-0.030	0.079
-250.049	154.998	0.173	-0.237
-249.034	-131.403	0.204	-0.027
-248.019	322.089	-0.132	0.252
-247.005	239.373	-0.210	-0.349
-245.990	-37.766	0.076	-0.040
-244.976	-66.786	0.114	-0.045
-243.961	-28.026	0.147	0.085
-242.946	-121.095	0.360	-0.060
-241.932	-200.000	0.015	-0.209
-240.917	-105.423	-0.168	0.038
-239.903	800.000	-0.121	0.384
-238.888	786.878	-0.090	-0.248
-237.873	-93.548	0.282	0.078
-236.859	605.320	0.006	-0.016
-235.844	-20.781	-0.088	-0.054
-234.830	-200.000	-0.017	-0.100
-233.815	450.031	0.089	0.196
-232.800	-200.000	0.227	-0.001
-231.786	-78.228	0.028	-0.009
-230.771	-57.197	0.334	0.147
-229.757	350.110	0.155	-0.305
-228.742	-79.621	-0.111	0.038
-227.727	-123.015	0.213	0.034
-226.713	39.990	-0.177	0.159
-225.698	-200.000	-0.025	0.232
-224.684	105.007	0.058	-0.069
-223.669	-51.610	0.066	-0.031
-222.655	9.007	-0.060	0.046
-221.640	301.588	-0.095	-0.174
-220.625	800.000	0.039	0.161
-219.611	800.000	0.065	-0.216
-218.596	-200.000	-0.030	0.274
-217.582	221.244	-0.101	0.162
-216.567	67.790	-0.113	0.115
-215.552	-126.189	-0.213	-0.032
-214.538	-200.000	0.031	-0.167
-213.523	-20.958	-0.333	0.204
-212.509	-83.425	0.160	0.051
-211.494	728.882	-0.017	-0.046
-210.479	-24.110	0.115	0.068
-209.465	-200.000	0.066	0.297
-208.450	-200.000	-0.001	0.151
-207.436	96.715	0.204	-0.234
-206.421	-132.521	0.133	-0.017
-205.406	-71.670	-0.197	0.073
-204.392	-24.351	-0.362	-0.215
-203.377	-200.000	-0.055	-0.400
-202.363	423.752	0.070	-0.150
-201.348	-91.433	0.101	0.029
-200.333	258.133	-0.088	0.151
-199.319	216.028	-0.067	0.106
-198.304	-200.000	-0.031	-0.345
-197.290	-138.404	0.407	-0.045
-196.275	800.000	-0.010	-0.041
-195.260	-200.000	0.041	0.190
-194.246	-26.617	-0.224	0.131
-193.231	-61.889	-0.130	0.054
-192.217	640.519	-0.163	-0.414
-191.202	-200.000	-0.018	0.234
-190.187	-127.931	0.254	0.037
-189.173	-24.347	0.272	-0.162
-188.158	-200.000	0.025	-0.168
-187.144	800.000	-0.033	0.119
-186.129	315.375	-0.091	-0.170
-185.114	-200.000	0.018	-0.388
-184.100	-200.000	0.036	0.245
-183.085	75.366	-0.189	0.199
-182.071	-200.000	-0.014	0.203
-181.056	-200.000	-0.067	-0.511
-180.042	-133.446	0.243	0.030
-179.027	800.000	0.066	0.198
-178.012	55.771	0.296	-0.286
-176.998	-68.999	-0.018	-0.007
-175.983	115.107	-0.045	0.055
-174.969	-115.243	-0.313	-0.059
-173.954	705.673	-0.042	-0.111
-172.939	-23.551	-0.170	0.102
-171.925	-200.000	0.026	-0.117
-170.910	332.364	-0.166	0.319
-169.896	579.566	-0.076	0.187
-168.881	173.310	-0.085	-0.122
-167.866	23.404	-0.325	0.267
-166.852	-69.318	-0.114	-0.044
-165.837	-168.910	-0.218	0.008
-164.823	218.045	0.117	0.185
-163.808	46.040	-0.159	-0.147
-162.793	-69.961	0.082	0.031
-161.779	-200.000	0.093	-0.457
-160.764	-145.667	0.111	-0.010
-159.750	-58.807	0.314	-0.136
-158.735	-200.000	0.040	0.266
-157.720	-200.000	-0.053	0.270
-156.706	-45.403	0.299	0.148
-155.691	44.624	-0.326	0.299
-154.677	-176.365	-0.159	-0.004
-153.662	-15.013	-0.047	-0.030
-152.647	0.380	0.096	-0.068
-151.633	-107.638	-0.381	0.083
-150.618	-33.849	-0.163	0.089
-149.604	-200.000	-0.036	0.239
-148.589	-43.540	0.044	0.022
-147.574	261.288	0.084	-0.146
-146.560	-119.230	0.289	0.050
-145.545	46.002	0.159	0.147
-144.531	-47.555	-0.362	0.175
-143.516	7.922	0.136	0.101
-142.502	-105.534	0.213	-0.048
-141.487	11.562	-0.227	-0.174
-140.472	239.702	0.049	-0.082
-139.458	-200.000	0.029	0.175
-138.443	303.630	0.036	0.066
-137.429	-89.324	0.228	0.067
-136.414	625.949	-0.018	0.045
-135.399	-101.442	-0.152	0.037
-134.385	-200.000	-0.001	-0.053
-133.370	-200.000	0.079	0.544
-132.356	-12.327	0.145	-0.094
-131.341	23.661	-0.188	-0.154
-130.326	34.344	-0.141	-0.122
-129.312	52.253	0.147	-0.139
-128.297	800.000	0.058	0.187
-127.283	-26.574	0.087	-0.051
-126.268	492.385	-0.165	0.377
-125.253	-187.429	-0.203	-0.003
-124.239	-38.861	-0.231	-0.121
-123.224	43.087	-0.193	-0.175
-122.210	-47.075	0.260	-0.126
