DTS Sentinel unit serial number:	SN413079Multiplexer serial number:	ORYXHardware model number:	OX4-SRSoftware version number:	ORYX F/W v4.00 Oryx Data Collector v3.7.2.0data status	okinstallation	princeton_trtdifferential loss correction	single-endedforward channel	channel 2reverse channel	N/Adate	2019/09/18time	18:07:35forward acquisition time	60.00reverse acquisition time	0.00gamma	496.2192k internal	0.2305k external	0.2305temperature offset calibration	1.0021default loss term (dB/km)	0.3790temperature slope calibration	1.0000multiplexer offset coefficient	1.0000multiplexer slope coefficient	1.0000fibre end	0.00T internal ref (°C)	39.28T ext. ref 1 (°C)	0.92T ext. ref 2 (°C)	32.11length (m)	temperature (°C)	Stokes	anti-Stokes-747.200	147.072	-0.076	-0.104
-746.185	504.596	-0.042	0.099
-745.171	-27.487	0.257	-0.152
-744.156	-74.773	-0.249	0.091
-743.142	279.884	-0.023	0.042
-742.127	149.367	0.177	0.244
-741.112	595.582	0.259	0.653
-740.098	-200.000	0.051	0.279
-739.083	-171.125	0.195	-0.007
-738.069	66.476	0.223	0.231
-737.054	28.033	-0.164	-0.140
-736.039	800.000	-0.090	-0.264
-735.025	97.933	0.176	0.206
-734.010	178.274	0.044	0.065
-732.996	-81.116	0.350	0.118
-731.981	800.000	-0.042	-0.149
-730.966	-111.270	-0.221	0.046
-729.952	-200.000	-0.040	0.243
-728.937	-165.309	-0.237	-0.011
-727.923	-171.158	0.403	-0.014
-726.908	20.597	0.242	-0.199
-725.894	-37.450	0.412	-0.224
-724.879	154.811	-0.255	-0.357
-723.864	190.255	-0.042	-0.064
-722.850	-39.842	-0.176	-0.094
-721.835	-139.750	-0.503	0.054
-720.821	-111.263	-0.222	0.046
-719.806	-168.474	-0.246	-0.010
-718.791	-200.000	0.017	0.150
-717.777	106.327	0.131	-0.158
-716.762	45.598	-0.154	-0.145
-715.748	-200.000	0.031	0.207
-714.733	-179.151	-0.285	0.006
-713.718	-19.793	0.067	-0.042
-712.704	-133.287	0.273	0.035
-711.689	-118.499	-0.346	-0.062
-710.675	-113.378	0.084	0.017
-709.660	-10.216	-0.206	0.139
-708.645	-36.044	-0.157	-0.086
-707.631	126.471	-0.155	0.199
-706.616	-200.000	-0.039	0.224
-705.602	800.000	-0.075	0.254
-704.587	-61.018	-0.427	0.183
-703.572	800.000	-0.021	-0.064
-702.558	105.847	0.128	0.153
-701.543	262.939	-0.069	0.123
-700.529	-2.256	-0.423	0.301
-699.514	67.901	-0.325	0.338
-698.499	-29.126	-0.214	-0.125
-697.485	-96.023	0.224	0.060
-696.470	-63.588	0.266	0.111
-695.456	-101.465	0.138	-0.034
-694.441	800.000	-0.062	-0.242
-693.426	-90.348	0.215	-0.063
-692.412	-89.231	-0.096	-0.029
-691.397	71.357	0.060	-0.063
-690.383	71.109	0.142	-0.149
-689.368	-70.380	-0.196	0.075
-688.354	-134.352	0.135	0.017
-687.339	202.042	0.129	0.202
-686.324	209.355	-0.316	0.503
-685.310	-149.302	-0.040	0.003
-684.295	-38.414	0.214	-0.115
-683.281	113.413	0.047	0.057
-682.266	-111.318	-0.139	-0.029
-681.251	800.000	0.087	0.289
-680.237	650.100	-0.137	-0.357
-679.222	-46.414	-0.126	0.063
-678.208	-200.000	0.047	0.512
-677.193	483.863	0.097	0.225
-676.178	800.000	-0.047	-0.200
-675.164	-200.000	-0.010	-0.171
-674.149	-56.620	-0.146	0.066
-673.135	593.617	-0.033	0.083
-672.120	800.000	-0.067	-0.279
-671.105	-70.173	-0.031	0.012
-670.091	-0.177	0.073	-0.053
-669.076	-20.725	-0.234	0.145
-668.062	800.000	0.058	0.221
-667.047	-30.593	-0.118	-0.068
-666.032	800.000	-0.021	-0.085
-665.018	-68.819	-0.175	0.069
-664.003	-50.286	0.114	-0.055
-662.989	155.628	-0.134	-0.188
-661.974	-104.157	-0.076	-0.018
-660.959	-200.000	0.026	0.136
-659.945	-137.649	-0.253	-0.029
-658.930	-58.084	-0.408	-0.181
-657.916	800.000	-0.093	-0.354
-656.901	-200.000	0.050	0.393
-655.886	-62.564	0.273	-0.115
-654.872	-143.830	-0.163	-0.016
-653.857	-20.773	-0.260	-0.162
-652.843	90.917	-0.170	-0.193
-651.828	-109.909	0.240	-0.051
-650.814	-72.332	-0.317	-0.119
-649.799	34.648	0.200	0.177
-648.784	800.000	-0.042	0.132
-647.770	394.483	-0.141	0.299
-646.755	617.595	-0.053	-0.136
-645.741	-159.909	-0.384	0.021
-644.726	391.666	0.049	0.104
-643.711	-6.414	-0.033	0.023
-642.697	-100.360	-0.151	0.038
-641.682	-65.744	0.181	0.074
-640.668	531.021	0.084	-0.202
-639.653	35.007	-0.301	-0.267
-638.638	-45.613	0.097	-0.049
-637.624	-116.141	0.338	0.064
-636.609	-58.977	-0.191	0.084
-635.595	54.247	-0.360	-0.351
-634.580	-200.000	0.010	-0.112
-633.565	263.797	-0.121	-0.213
-632.551	291.101	-0.195	-0.360
-631.536	141.726	0.096	0.128
-630.522	81.661	0.227	-0.249
-629.507	-200.000	-0.010	-0.367
-628.492	738.779	0.157	-0.426
-627.478	-99.078	0.160	-0.041
-626.463	-109.351	-0.085	-0.018
-625.449	258.540	-0.074	-0.130
-624.434	26.494	-0.271	0.230
-623.419	40.636	0.232	0.212
-622.405	-200.000	0.014	-0.072
-621.390	-127.996	-0.044	0.006
-620.376	-11.880	-0.331	0.220
-619.361	-200.000	-0.007	-0.156
-618.346	-75.792	0.284	0.102
-617.332	-200.000	0.013	-0.094
-616.317	-200.000	0.041	-0.404
-615.303	-18.109	-0.158	-0.100
-614.288	-200.000	-0.069	-0.514
-613.273	178.487	-0.098	0.145
-612.259	-59.586	0.082	0.036
-611.244	209.659	-0.149	-0.237
-610.230	800.000	0.067	0.199
-609.215	-200.000	-0.028	-0.183
-608.201	-63.624	-0.091	-0.038
-607.186	115.348	0.257	0.318
-606.171	70.543	0.211	0.221
-605.157	-70.206	-0.113	0.044
-604.142	108.444	0.154	0.187
-603.128	-83.469	-0.029	0.009
-602.113	150.206	0.047	0.064
-601.098	-96.880	0.298	0.079
-600.084	800.000	-0.076	0.323
-599.069	-200.000	0.051	0.339
-598.055	-96.337	-0.030	-0.008
-597.040	-113.081	0.129	-0.026
-596.025	43.153	-0.118	0.109
-595.011	-64.815	-0.040	-0.016
-593.996	0.955	0.101	0.073
-592.982	274.406	-0.066	0.119
-591.967	-28.267	-0.124	-0.073
-590.952	264.429	-0.032	-0.056
-589.938	-79.075	-0.216	-0.074
-588.923	-68.620	0.344	0.135
-587.909	-45.672	-0.077	-0.038
-586.894	-77.377	-0.198	0.070
-585.879	243.221	-0.097	0.164
-584.865	-156.618	0.297	-0.019
-583.850	800.000	0.093	-0.303
-582.836	546.996	-0.132	-0.320
-581.821	-200.000	-0.009	-0.217
-580.806	-200.000	-0.004	0.121
-579.792	-57.012	0.054	0.024
-578.777	-43.186	0.095	0.049
-577.763	19.203	-0.196	-0.159
-576.748	-115.848	-0.076	0.014
-575.733	-85.896	0.163	0.051
-574.719	-179.477	-0.051	0.001
-573.704	-200.000	0.049	-0.258
-572.690	-78.273	0.112	-0.039
-571.675	800.000	0.068	-0.214
-570.661	-200.000	-0.006	0.220
-569.646	638.463	-0.161	0.414
-568.631	800.000	-0.162	0.455
-567.617	-93.064	-0.415	-0.117
-566.602	-49.679	-0.436	-0.210
-565.588	556.544	-0.115	-0.281
-564.573	-6.260	0.071	0.049
-563.558	153.426	0.068	-0.095
-562.544	-200.000	-0.044	0.244
-561.529	-61.280	0.154	0.066
-560.515	-200.000	-0.034	-0.321
-559.500	-8.629	-0.161	-0.109
-558.485	-107.744	0.133	-0.029
-557.471	57.733	0.242	0.239
-556.456	800.000	-0.052	0.173
-555.442	-200.000	0.023	-0.198
-554.427	-92.143	0.168	-0.048
-553.412	-145.635	0.291	0.026
-552.398	66.236	0.366	0.375
-551.383	-200.000	-0.032	-0.207
-550.369	41.567	-0.132	0.121
-549.354	279.819	0.072	-0.130
-548.339	-32.029	0.045	0.025
-547.325	-178.382	-0.236	-0.006
-546.310	-82.274	0.183	0.060
-545.296	-200.000	-0.020	0.336
-544.281	73.129	-0.034	-0.036
-543.266	-200.000	-0.010	-0.230
-542.252	-200.000	0.035	0.214
-541.237	-68.436	-0.094	-0.037
-540.223	36.718	0.165	0.147
-539.208	-26.952	-0.237	-0.140
-538.193	62.874	0.099	0.100
-537.179	-200.000	-0.071	0.334
-536.164	201.439	0.180	-0.280
-535.150	-1.166	-0.100	0.071
-534.135	-44.693	-0.042	-0.021
-533.121	-68.105	0.103	-0.040
-532.106	-136.258	0.066	0.008
-531.091	-194.416	0.026	-0.000
-530.077	-100.111	-0.162	-0.041
-529.062	418.766	-0.093	-0.201
-528.048	-97.095	-0.180	-0.048
-527.033	-44.565	0.123	0.062
-526.018	104.052	0.140	0.166
-525.004	-68.832	-0.394	-0.153
-523.989	13.723	0.017	-0.013
-522.975	70.438	-0.185	-0.193
-521.960	-122.735	-0.307	-0.050
-520.945	150.445	0.208	0.284
-519.931	-59.786	-0.197	-0.085
-518.916	-44.351	-0.157	-0.079
-517.902	458.347	0.117	-0.263
-516.887	467.063	0.062	0.139
-515.872	-200.000	0.014	0.273
-514.858	-119.584	-0.298	0.052
-513.843	-74.879	-0.339	-0.123
-512.829	11.599	-0.379	0.293
-511.814	196.936	0.124	-0.191
-510.799	42.886	-0.357	0.328
-509.785	-120.574	-0.096	-0.016
-508.770	208.762	-0.088	0.139
-507.756	-2.010	0.074	-0.052
-506.741	538.204	-0.179	0.429
-505.726	250.319	-0.067	0.115
-504.712	-200.000	-0.013	-0.397
-503.697	-81.684	0.179	0.059
-502.683	-14.706	0.206	-0.134
-501.668	-114.327	0.201	-0.039
-500.653	-56.466	0.122	0.055
-499.639	-200.000	-0.002	-0.116
-498.624	800.000	-0.081	-0.332
-497.610	-81.756	-0.200	-0.066
-496.595	-200.000	-0.026	-0.401
-495.581	26.534	-0.077	-0.065
-494.566	800.000	-0.079	-0.240
-493.551	-191.119	-0.209	0.002
-492.537	-83.535	-0.278	0.090
-491.522	37.973	0.139	0.124
-490.508	53.592	0.091	-0.088
-489.493	180.406	-0.153	0.226
-488.478	800.000	-0.025	0.091
-487.464	-200.000	0.027	0.128
-486.449	-137.762	0.113	-0.013
-485.435	291.685	-0.065	-0.119
-484.420	-74.008	-0.216	0.079
-483.405	90.709	0.129	0.145
-482.391	5.081	0.297	0.221
-481.376	63.243	0.205	-0.207
-480.362	-23.924	-0.303	-0.183
-479.347	-50.343	-0.177	0.084
-478.332	-200.000	-0.023	0.176
-477.318	-56.727	0.375	-0.167
-476.303	-200.000	0.012	-0.082
-475.289	72.876	-0.077	-0.081
-474.274	293.988	-0.030	0.055
-473.259	264.859	-0.101	-0.178
-472.245	120.121	0.164	0.205
-471.230	-200.000	0.036	0.191
-470.216	800.000	-0.057	-0.221
-469.201	54.266	0.233	0.226
-468.186	-132.554	-0.229	0.030
-467.172	98.117	0.248	-0.288
-466.157	-104.426	-0.266	-0.062
-465.143	160.109	-0.291	0.408
-464.128	800.000	-0.027	-0.109
-463.113	108.788	-0.088	-0.105
-462.099	-131.501	0.214	0.028
-461.084	243.091	0.097	0.163
-460.070	-52.881	-0.083	-0.038
-459.055	-57.806	-0.386	-0.170
-458.040	-200.000	0.038	0.338
-457.026	-32.257	0.260	-0.146
-456.011	-73.383	0.186	-0.068
-454.997	-77.528	0.124	-0.043
-453.982	-67.878	-0.125	-0.049
-452.968	-200.000	-0.092	0.450
-451.953	-9.786	0.195	0.131
-450.938	211.402	-0.064	0.102
-449.924	-200.000	0.040	0.255
-448.909	-164.320	0.319	-0.015
-447.895	103.325	-0.027	-0.032
-446.880	-44.012	0.066	-0.034
-445.865	-122.659	0.239	-0.039
-444.851	-200.000	-0.007	-0.141
-443.836	-115.535	0.093	0.018
-442.822	-125.606	-0.087	-0.013
-441.807	800.000	0.091	-0.378
-440.792	-32.420	-0.183	0.103
-439.778	655.126	0.090	0.232
-438.763	-144.128	0.245	-0.023
-437.749	28.968	-0.105	-0.089
-436.734	-143.048	0.214	-0.021
-435.719	-200.000	-0.022	-0.140
-434.705	315.040	-0.040	0.075
-433.690	46.896	0.196	0.183
-432.676	-18.462	0.113	0.071
-431.661	94.188	0.147	0.168
-430.646	-37.013	-0.173	-0.093
-429.632	65.165	-0.191	-0.194
-428.617	156.360	0.113	0.157
-427.603	11.667	0.275	0.212
-426.588	-176.079	-0.220	-0.006
-425.573	30.809	0.047	0.040
-424.559	135.712	-0.091	-0.119
-423.544	-200.000	-0.024	-0.451
-422.530	33.678	0.037	-0.032
-421.515	-93.486	-0.141	-0.039
-420.500	29.476	-0.336	0.287
-419.486	62.471	0.293	0.294
-418.471	67.944	0.114	-0.118
-417.457	800.000	-0.045	-0.163
-416.442	170.472	0.185	0.267
-415.428	-200.000	0.014	-0.274
-414.413	-84.906	-0.330	-0.104
-413.398	162.815	0.149	-0.211
-412.384	800.000	-0.052	0.224
-411.369	-32.645	0.188	0.105
-410.355	-200.000	0.066	-0.302
-409.340	112.065	-0.143	-0.173
-408.325	340.924	-0.119	-0.233
-407.311	-200.000	0.018	-0.083
-406.296	144.091	0.193	0.258
-405.282	-72.434	-0.231	-0.086
-404.267	800.000	0.071	0.288
-403.252	-28.842	-0.239	-0.138
-402.238	800.000	0.096	-0.288
-401.223	682.928	0.109	0.286
-400.209	-200.000	0.015	0.213
-399.194	800.000	0.136	0.434
-398.179	-200.000	-0.002	0.041
-397.165	97.285	0.244	-0.281
-396.150	552.242	0.044	-0.107
-395.136	-200.000	0.045	0.311
-394.121	-182.705	-0.233	0.004
-393.106	-200.000	0.182	0.000
-392.092	-200.000	-0.006	-0.176
-391.077	-195.375	-0.190	0.001
-390.063	-3.592	-0.158	0.110
-389.048	-36.176	-0.058	0.031
-388.033	-200.000	0.011	0.071
-387.019	-155.604	0.254	-0.016
-386.004	123.186	0.074	-0.092
-384.990	46.905	0.266	0.248
-383.975	12.595	-0.090	-0.069
-382.960	86.503	0.168	0.186
-381.946	800.000	0.057	0.160
-380.931	48.740	0.210	-0.198
-379.917	-18.444	0.238	-0.149
-378.902	-174.662	-0.180	0.005
-377.888	-200.000	0.006	-0.550
-376.873	800.000	-0.029	0.087
-375.858	-45.808	-0.137	0.068
-374.844	92.688	-0.201	-0.227
-373.829	472.663	0.025	0.056
-372.815	-200.000	-0.034	0.212
-371.800	-17.516	-0.169	0.106
-370.785	47.459	0.186	-0.174
-369.771	192.681	-0.165	0.251
-368.756	98.581	0.202	-0.234
-367.742	147.553	-0.261	-0.353
-366.727	-200.000	-0.066	-0.406
-365.712	-145.275	-0.143	0.013
-364.698	151.732	0.220	0.301
-363.683	-141.671	-0.236	-0.024
-362.669	-42.010	0.089	-0.046
-361.654	103.290	-0.105	-0.124
-360.639	569.338	-0.033	0.082
-359.625	551.492	0.111	-0.267
-358.610	-121.399	-0.228	0.038
-357.596	-44.731	0.115	0.057
-356.581	-200.000	0.019	-0.318
-355.566	-34.154	0.407	-0.224
-354.552	4.778	0.048	-0.035
-353.537	-53.139	0.320	0.147
-352.523	-119.367	0.258	-0.045
-351.508	-165.897	0.156	-0.007
-350.493	-119.703	-0.317	-0.055
-349.479	44.878	0.066	-0.061
-348.464	108.867	0.160	0.192
-347.450	-200.000	-0.055	-0.426
-346.435	800.000	-0.080	-0.249
-345.420	800.000	-0.210	-0.622
-344.406	-200.000	-0.039	-0.274
-343.391	-200.000	-0.015	0.226
-342.377	-38.802	0.143	0.075
-341.362	127.538	-0.175	0.223
-340.348	-65.409	0.229	-0.092
-339.333	-200.000	-0.049	-0.285
-338.318	-97.654	0.161	-0.042
-337.304	-105.009	0.174	0.040
-336.289	206.635	0.208	0.324
-335.275	-109.660	-0.252	-0.053
-334.260	800.000	0.037	-0.117
-333.245	-131.146	-0.181	0.024
-332.231	389.989	-0.144	-0.299
-331.216	44.034	-0.076	-0.070
-330.202	179.814	-0.199	-0.292
-329.187	-65.798	-0.444	-0.178
-328.172	-200.000	-0.048	0.250
-327.158	800.000	-0.023	0.070
-326.143	-62.133	-0.182	-0.076
-325.129	-200.000	-0.008	0.157
-324.114	16.542	-0.220	0.174
-323.099	800.000	-0.024	-0.066
-322.085	-68.715	-0.151	-0.059
-321.070	768.029	0.055	0.150
-320.056	-200.000	0.067	0.305
-319.041	-38.145	0.382	0.203
-318.026	468.730	0.090	-0.201
-317.012	455.322	0.181	0.402
-315.997	-20.415	0.117	-0.072
-314.983	-6.177	-0.137	0.094
-313.968	-200.000	0.004	0.141
-312.953	-76.559	0.148	0.052
-311.939	247.872	-0.107	0.180
-310.924	-85.012	-0.286	0.090
-309.910	-200.000	-0.008	-0.176
-308.895	-77.945	0.077	0.027
-307.880	282.367	0.089	0.160
-306.866	14.170	-0.005	0.004
-305.851	-102.969	0.257	-0.061
-304.837	118.197	0.118	0.146
-303.822	-200.000	-0.023	-0.155
-302.807	68.340	0.075	-0.077
-301.793	424.828	0.106	-0.228
-300.778	168.589	0.225	0.321
-299.764	800.000	-0.054	-0.186
-298.749	63.395	-0.176	-0.176
-297.735	-128.889	-0.181	0.025
-296.720	-61.757	0.227	-0.095
-295.705	-100.468	0.277	-0.069
-294.691	-191.709	-0.549	0.005
-293.676	-46.886	-0.172	-0.084
-292.662	-34.853	0.161	-0.088
-291.647	257.473	0.072	-0.125
-290.632	365.148	-0.071	-0.143
-289.618	173.905	0.090	-0.130
-288.603	102.703	0.010	0.011
-287.589	293.179	0.164	-0.298
-286.574	103.553	0.098	-0.115
-285.559	800.000	0.099	0.337
-284.545	-200.000	-0.018	0.097
-283.530	-200.000	-0.043	0.238
-282.516	-105.703	0.152	-0.034
-281.501	-28.891	0.203	-0.116
-280.486	-9.310	-0.260	-0.173
-279.472	-79.952	0.096	-0.032
-278.457	-163.909	0.262	-0.012
-277.443	130.407	0.219	0.281
-276.428	-30.697	-0.202	0.114
-275.413	6.118	0.033	-0.024
-274.399	642.687	0.136	0.348
-273.384	-41.335	0.151	-0.078
-272.370	-200.000	0.079	-0.352
-271.355	800.000	0.040	-0.135
-270.340	-135.367	-0.260	-0.031
-269.326	-99.592	-0.319	-0.080
-268.311	-200.000	0.008	0.237
-267.297	-200.000	-0.086	0.408
-266.282	-84.262	0.166	-0.053
-265.267	84.954	-0.144	0.158
-264.253	62.627	0.144	-0.143
-263.238	-133.105	0.140	0.018
-262.224	-200.000	0.034	0.244
-261.209	297.776	0.163	0.299
-260.195	-200.000	0.020	-0.206
-259.180	800.000	0.147	0.520
-258.165	72.731	-0.028	-0.029
-257.151	38.515	0.187	0.167
-256.136	800.000	-0.071	0.205
-255.122	-121.974	-0.257	0.042
-254.107	24.680	-0.180	-0.149
-253.092	800.000	-0.098	0.410
-252.078	-25.572	-0.098	-0.058
-251.063	-115.376	0.209	0.039
-250.049	-200.000	-0.025	-0.113
-249.034	-174.031	-0.028	-0.001
-248.019	-200.000	0.001	-0.125
-247.005	210.828	0.032	-0.051
-245.990	203.059	0.074	-0.114
-244.976	-200.000	-0.021	0.218
-243.961	-90.318	-0.137	-0.040
-242.946	-30.160	0.234	-0.133
-241.932	526.951	-0.069	-0.163
-240.917	-130.497	0.082	-0.011
-239.903	256.142	-0.146	-0.250
-238.888	404.022	-0.077	0.162
-237.873	-200.000	-0.180	-0.000
-236.859	-32.175	-0.120	0.067
-235.844	-200.000	-0.040	0.189
-234.830	52.025	-0.246	-0.234
-233.815	129.527	0.094	0.120
-232.800	264.815	0.282	0.490
-231.786	-66.314	0.186	0.074
-230.771	-95.731	0.153	0.041
-229.757	108.376	-0.144	-0.171
-228.742	-152.876	-0.133	-0.009
-227.727	414.792	0.077	-0.164
-226.713	8.027	-0.186	0.139
-225.698	-3.747	-0.314	0.218
-224.684	-2.538	-0.102	0.071
-223.669	-107.886	0.277	-0.060
-222.655	70.689	0.254	0.262
-221.640	-95.366	-0.201	0.054
-220.625	-200.000	0.040	0.408
-219.611	-104.420	-0.523	0.121
-218.596	-200.000	0.048	-0.212
-217.582	-134.187	0.258	-0.032
-216.567	-200.000	-0.036	-0.291
-215.552	599.988	-0.067	0.165
-214.538	33.118	0.138	-0.119
-213.523	482.676	0.088	-0.199
-212.509	800.000	-0.076	-0.214
-211.494	800.000	-0.081	-0.228
-210.479	162.917	0.138	0.194
-209.465	421.972	0.102	0.217
-208.450	177.256	-0.136	0.198
-207.436	800.000	0.135	0.420
-206.421	-114.790	-0.200	0.038
-205.406	-15.938	-0.164	-0.104
-204.392	13.431	-0.213	-0.165
-203.377	-200.000	-0.009	-0.056
-202.363	800.000	0.044	0.181
-201.348	-44.307	0.403	0.201
-200.333	183.720	-0.116	0.171
-199.319	214.050	-0.176	0.278
-198.304	-105.138	-0.228	0.052
-197.290	-67.251	-0.053	-0.021
-196.275	-200.000	-0.023	-0.137
-195.260	233.911	0.142	-0.232
-194.246	-200.000	0.056	0.246
-193.231	635.796	-0.046	-0.117
-192.217	70.253	0.056	0.058
-191.202	507.512	-0.104	-0.240
-190.187	30.397	-0.115	-0.098
-189.173	-200.000	0.017	-0.146
-188.158	145.324	-0.146	0.195
-187.144	-158.095	0.163	-0.010
-186.129	-140.252	0.052	0.005
-185.114	17.558	0.202	0.160
-184.100	-2.126	-0.036	-0.025
-183.085	-84.852	-0.225	-0.071
-182.071	220.645	0.211	0.338
-181.056	-68.084	-0.255	0.099
-180.042	-200.000	-0.024	0.171
-179.027	59.448	0.183	0.180
-178.012	-86.585	0.014	0.004
-176.998	286.021	0.017	-0.030
-175.983	-7.019	-0.146	-0.098
-174.969	-20.302	-0.181	-0.111
-173.954	-31.215	0.207	-0.116
-172.939	-145.607	0.154	0.014
-171.925	-29.074	-0.104	0.059
-170.910	-174.196	-0.094	-0.003
-169.896	-25.879	0.157	-0.092
-168.881	793.299	0.061	-0.167
-167.866	369.281	0.096	-0.193
-166.852	182.441	0.215	0.316
-165.837	800.000	0.007	-0.026
-164.823	295.759	0.113	0.205
-163.808	505.191	-0.049	-0.114
-162.793	800.000	-0.097	-0.290
-161.779	141.838	0.125	0.164
-160.764	-52.950	0.168	0.077
-159.750	8.926	0.274	-0.206
-158.735	0.111	0.053	0.038
-157.720	-92.744	-0.247	0.069
-156.706	-200.000	0.054	-0.317
-155.691	800.000	0.081	-0.246
-154.677	-85.453	0.489	0.151
-153.662	-29.111	-0.084	0.048
-152.647	-45.035	0.267	-0.132
-151.633	-145.026	-0.302	0.027
-150.618	449.256	-0.081	-0.178
-149.604	800.000	-0.052	-0.179
-148.589	-200.000	0.004	0.271
-147.574	84.289	0.165	0.179
-146.560	-113.280	0.288	0.056
-145.545	237.697	-0.125	0.205
-144.531	2.444	0.135	-0.097
-143.516	-97.806	0.348	0.089
-142.502	-200.000	0.062	-0.284
-141.487	-58.960	0.226	-0.097
-140.472	251.838	-0.225	0.381
-139.458	800.000	0.049	-0.142
-138.443	800.000	0.091	0.311
-137.429	-200.000	0.018	-0.326
-136.414	800.000	0.068	-0.218
-135.399	800.000	-0.085	-0.364
-134.385	-141.428	0.129	0.013
-133.370	800.000	-0.017	0.062
-132.356	416.630	-0.057	-0.121
-131.341	-80.067	-0.168	-0.056
-130.326	192.257	0.072	0.107
-129.312	675.304	0.063	-0.164
-128.297	360.013	0.113	0.224
-127.283	-200.000	-0.044	0.317
-126.268	-110.444	0.231	0.048
-125.253	-46.179	-0.049	0.024
-124.239	189.982	-0.120	-0.179
-123.224	-49.346	-0.141	0.067
-122.210	800.000	0.032	0.124
