DTS Sentinel unit serial number:	SN413079Multiplexer serial number:	ORYXHardware model number:	OX4-SRSoftware version number:	ORYX F/W v4.00 Oryx Data Collector v3.7.2.0data status	okinstallation	princeton_trtdifferential loss correction	single-endedforward channel	channel 2reverse channel	N/Adate	2019/09/15time	19:19:34forward acquisition time	60.00reverse acquisition time	0.00gamma	496.2192k internal	0.2307k external	0.2307temperature offset calibration	0.9930default loss term (dB/km)	0.3790temperature slope calibration	1.0000multiplexer offset coefficient	1.0000multiplexer slope coefficient	1.0000fibre end	0.00T internal ref (°C)	39.97T ext. ref 1 (°C)	7.20T ext. ref 2 (°C)	29.25length (m)	temperature (°C)	Stokes	anti-Stokes-747.200	10.512	-0.087	-0.068
-746.185	176.290	-0.223	0.329
-745.171	334.357	0.049	0.096
-744.156	800.000	0.082	0.345
-743.142	-200.000	0.066	-0.397
-742.127	-33.480	-0.100	-0.056
-741.112	-17.181	-0.065	-0.042
-740.098	-200.000	-0.014	0.211
-739.083	-4.643	0.150	0.105
-738.069	242.837	0.169	0.288
-737.054	-179.117	-0.164	-0.004
-736.039	-200.000	-0.037	0.171
-735.025	-119.632	0.142	0.025
-734.010	253.065	0.308	-0.534
-732.996	5.809	-0.261	-0.196
-731.981	-39.422	-0.141	0.075
-730.966	-107.189	-0.059	-0.013
-729.952	161.020	-0.129	0.184
-728.937	-148.814	-0.222	-0.018
-727.923	-12.495	-0.250	-0.166
-726.908	-167.618	-0.243	-0.010
-725.894	-150.969	0.134	-0.010
-724.879	45.502	0.012	0.012
-723.864	-109.628	-0.427	-0.091
-722.850	427.824	-0.096	-0.211
-721.835	137.200	-0.155	0.206
-720.821	-72.159	-0.143	-0.054
-719.806	800.000	-0.052	-0.153
-718.791	-126.032	-0.265	0.040
-717.777	251.334	-0.094	0.162
-716.762	800.000	-0.074	-0.209
-715.748	4.323	-0.268	-0.200
-714.733	131.669	-0.247	0.323
-713.718	-200.000	-0.040	0.455
-712.704	-27.964	-0.117	-0.069
-711.689	-2.034	0.090	-0.064
-710.675	-78.284	-0.167	0.058
-709.660	141.118	-0.141	-0.190
-708.645	-30.642	-0.122	0.070
-707.631	-200.000	0.085	-0.517
-706.616	-92.956	-0.116	-0.033
-705.602	-19.158	0.038	-0.024
-704.587	-92.610	-0.095	-0.027
-703.572	-111.188	-0.029	0.006
-702.558	-108.160	-0.101	0.022
-701.543	-5.115	0.124	-0.087
-700.529	-200.000	-0.003	0.043
-699.514	524.347	-0.178	-0.424
-698.499	-39.746	-0.326	0.173
-697.485	99.789	0.107	0.125
-696.470	-78.895	-0.271	0.094
-695.456	-22.362	-0.330	-0.203
-694.441	-75.145	-0.342	0.124
-693.426	-200.000	0.065	0.334
-692.412	-59.124	-0.118	0.052
-691.397	-200.000	-0.046	-0.231
-690.383	-43.275	-0.459	-0.236
-689.368	38.232	-0.143	-0.129
-688.354	203.688	0.149	-0.235
-687.339	-28.980	-0.082	0.048
-686.324	38.001	0.062	-0.056
-685.310	-13.912	-0.102	-0.067
-684.295	-95.865	0.145	-0.039
-683.281	390.041	-0.094	-0.197
-682.266	-23.333	-0.147	-0.090
-681.251	2.302	0.045	0.033
-680.237	-89.285	0.188	-0.056
-679.222	123.137	0.190	-0.241
-678.208	148.717	-0.139	0.190
-677.193	-150.319	-0.094	0.007
-676.178	-99.718	0.057	0.015
-675.164	-39.862	-0.188	-0.100
-674.149	-139.607	0.133	-0.014
-673.135	110.504	-0.189	-0.230
-672.120	-22.995	-0.065	0.040
-671.105	-117.146	0.387	-0.071
-670.091	195.414	0.075	-0.115
-669.076	566.120	0.073	0.181
-668.062	-97.168	0.136	-0.036
-667.047	759.359	0.034	0.093
-666.032	-66.458	-0.253	-0.102
-665.018	-200.000	0.323	0.000
-664.003	-200.000	-0.005	0.050
-662.989	-200.000	0.009	0.091
-661.974	71.786	0.099	-0.105
-660.959	-79.824	0.107	-0.037
-659.945	-105.610	0.116	-0.027
-658.930	-19.695	-0.190	0.119
-657.916	63.730	0.114	0.116
-656.901	-167.588	0.370	0.015
-655.886	-58.455	-0.165	0.073
-654.872	113.093	0.269	0.331
-653.857	-200.000	0.007	-0.330
-652.843	-200.000	-0.027	0.191
-651.828	-55.187	-0.280	-0.128
-650.814	800.000	0.056	0.172
-649.799	-55.518	-0.047	0.021
-648.784	-200.000	0.047	-0.268
-647.770	316.005	-0.028	-0.054
-646.755	210.050	0.112	0.178
-645.741	800.000	0.052	-0.166
-644.726	-24.394	0.215	-0.130
-643.711	-139.086	-0.182	-0.020
-642.697	-128.358	0.163	0.024
-641.682	137.911	-0.182	0.242
-640.668	138.962	0.219	-0.292
-639.653	-168.057	0.541	-0.021
-638.638	541.454	-0.051	-0.123
-637.624	-32.297	-0.108	-0.061
-636.609	-51.655	0.106	-0.050
-635.595	-73.463	0.008	0.003
-634.580	313.865	0.085	0.162
-633.565	-9.649	-0.230	0.155
-632.551	-85.319	0.275	-0.087
-631.536	85.728	-0.251	-0.279
-630.522	-87.716	-0.202	-0.062
-629.507	-137.232	-0.194	0.022
-628.492	-200.000	-0.077	-0.387
-627.478	-39.548	-0.579	-0.307
-626.463	79.592	0.096	0.105
-625.449	-81.733	0.227	0.075
-624.434	-60.339	0.244	0.105
-623.419	78.842	-0.117	-0.126
-622.405	-98.599	0.111	-0.029
-621.390	280.213	0.060	0.108
-620.376	-50.984	0.291	-0.138
-619.361	-200.000	0.001	-0.211
-618.346	-109.933	0.130	0.028
-617.332	-75.624	-0.156	-0.056
-616.317	102.002	0.174	0.205
-615.303	102.018	0.075	-0.089
-614.288	373.250	-0.091	-0.188
-613.273	-50.462	-0.085	-0.040
-612.259	214.067	-0.242	0.387
-611.244	107.743	-0.146	0.176
-610.230	189.097	0.115	-0.174
-609.215	8.260	-0.248	0.188
-608.201	10.883	-0.099	0.076
-607.186	800.000	-0.093	0.295
-606.171	800.000	-0.088	0.286
-605.157	800.000	0.124	-0.427
-604.142	267.649	-0.173	-0.307
-603.128	11.125	0.105	0.081
-602.113	800.000	-0.029	0.129
-601.098	-109.725	-0.048	-0.010
-600.084	781.856	0.146	0.403
-599.069	73.203	-0.323	0.342
-598.055	-200.000	0.000	0.118
-597.040	-164.353	-0.243	0.011
-596.025	-52.286	-0.317	-0.148
-595.011	228.100	0.166	-0.272
-593.996	486.222	0.137	-0.316
-592.982	-48.993	-0.159	0.077
-591.967	-43.037	0.292	0.150
-590.952	70.383	0.083	-0.087
-589.938	-123.822	0.245	0.039
-588.923	213.003	0.079	-0.126
-587.909	479.047	0.099	0.226
-586.894	-200.000	-0.019	0.100
-585.879	800.000	-0.115	-0.421
-584.865	-20.811	0.183	0.113
-583.850	441.373	0.062	0.138
-582.836	4.448	-0.316	-0.234
-581.821	379.710	-0.003	-0.006
-580.806	-11.763	-0.118	0.078
-579.792	-2.089	-0.176	-0.125
-578.777	446.775	-0.026	-0.058
-577.763	-24.156	-0.355	-0.214
-576.748	800.000	0.069	0.210
-575.733	800.000	0.042	0.153
-574.719	122.799	-0.071	0.090
-573.704	800.000	0.043	-0.173
-572.690	752.561	0.088	-0.240
-571.675	800.000	0.068	-0.195
-570.661	398.257	0.045	0.096
-569.646	-129.009	0.128	0.018
-568.631	800.000	-0.080	-0.283
-567.617	47.365	-0.186	-0.175
-566.602	-57.740	-0.134	-0.059
-565.588	-200.000	-0.037	-0.190
-564.573	60.771	0.138	-0.139
-563.558	-40.054	-0.189	-0.099
-562.544	-200.000	-0.031	-0.249
-561.529	800.000	-0.016	-0.057
-560.515	-13.170	0.147	-0.096
-559.500	1.201	-0.108	-0.078
-558.485	98.076	0.182	-0.212
-557.471	267.520	-0.220	0.389
-556.456	52.215	-0.141	-0.136
-555.442	800.000	0.056	-0.176
-554.427	-137.313	-0.086	-0.010
-553.412	800.000	-0.066	0.240
-552.398	-169.543	-0.553	-0.020
-551.383	-10.800	-0.094	0.063
-550.369	-200.000	0.048	0.215
-549.354	-134.717	0.327	-0.040
-548.339	232.178	0.136	0.225
-547.325	-90.571	0.159	0.047
-546.310	219.276	-0.189	-0.305
-545.296	-200.000	-0.016	-0.095
-544.281	574.779	-0.057	0.140
-543.266	178.304	-0.189	0.278
-542.252	800.000	-0.022	0.068
-541.237	-73.921	-0.171	-0.062
-540.223	129.579	0.105	0.135
-539.208	59.131	-0.292	-0.290
-538.193	-200.000	0.006	0.158
-537.179	373.217	0.162	0.332
-536.164	-26.926	0.167	-0.098
-535.150	153.973	-0.208	0.288
-534.135	-200.000	-0.007	0.153
-533.121	-164.588	0.089	-0.004
-532.106	-114.042	0.292	0.057
-531.091	-169.428	-0.271	0.010
-530.077	165.800	-0.245	-0.350
-529.062	-137.287	-0.134	0.015
-528.048	33.638	0.089	0.078
-527.033	163.497	-0.144	-0.204
-526.018	84.191	0.457	0.503
-525.004	189.792	0.068	-0.102
-523.989	139.715	-0.188	-0.249
-522.975	-122.553	0.360	0.059
-521.960	-200.000	-0.374	0.001
-520.945	529.577	0.141	0.337
-519.931	-130.450	-0.396	-0.054
-518.916	-200.000	0.022	-0.166
-517.902	81.280	-0.147	-0.160
-516.887	664.101	0.063	-0.163
-515.872	23.087	0.122	-0.101
-514.858	-87.154	-0.085	-0.026
-513.843	127.648	-0.168	0.215
-512.829	-12.059	0.262	0.173
-511.814	249.276	0.205	-0.350
-510.799	-21.297	-0.335	0.206
-509.785	-200.000	-0.012	0.290
-508.770	565.960	-0.102	-0.248
-507.756	362.232	-0.192	0.388
-506.741	200.800	-0.091	0.141
-505.726	18.096	0.212	0.170
-504.712	-200.000	-0.023	-0.211
-503.697	-76.862	-0.197	0.070
-502.683	74.923	-0.287	-0.305
-501.668	-22.398	0.175	0.107
-500.653	-76.461	-0.390	-0.138
-499.639	-200.000	-0.004	-0.081
-498.624	35.741	-0.129	0.114
-497.610	39.517	0.169	0.153
-496.595	-200.000	0.001	0.021
-495.581	124.631	-0.172	0.219
-494.566	418.193	-0.096	-0.206
-493.551	-15.464	0.115	0.074
-492.537	-57.385	0.173	0.076
-491.522	-114.410	-0.146	-0.028
-490.508	-200.000	-0.001	0.158
-489.493	-200.000	0.002	0.074
-488.478	-200.000	-0.016	0.225
-487.464	516.665	0.071	-0.167
-486.449	151.283	0.132	-0.181
-485.435	800.000	0.034	-0.118
-484.420	-112.118	0.070	0.014
-483.405	467.475	-0.017	-0.039
-482.391	-39.251	0.268	-0.142
-481.376	-200.000	0.072	-0.322
-480.362	416.136	-0.019	0.040
-479.347	-81.400	0.121	0.040
-478.332	-107.380	-0.436	-0.096
-477.318	187.822	-0.096	-0.144
-476.303	-69.676	0.183	0.070
-475.289	38.461	0.152	-0.137
-474.274	800.000	0.032	0.128
-473.259	17.258	0.033	-0.026
-472.245	-200.000	0.022	0.104
-471.230	-200.000	0.012	0.307
-470.216	-200.000	0.024	-0.358
-469.201	32.891	0.083	0.072
-468.186	-65.819	-0.244	-0.098
-467.172	-50.495	-0.034	-0.016
-466.157	114.445	0.134	0.164
-465.143	-42.467	0.313	-0.161
-464.128	-91.281	0.220	0.063
-463.113	400.316	-0.067	-0.141
-462.099	27.370	-0.102	0.086
-461.084	-93.044	0.225	0.063
-460.070	123.329	0.259	0.327
-459.055	-46.563	0.090	0.044
-458.040	-31.804	-0.123	-0.070
-457.026	-200.000	-0.000	-0.408
-456.011	473.931	0.159	0.362
-454.997	-200.000	0.014	0.109
-453.982	-154.199	-0.274	0.019
-452.968	648.740	0.044	-0.114
-451.953	-47.437	0.304	-0.148
-450.938	134.249	0.083	0.108
-449.924	25.866	-0.233	0.195
-448.909	684.732	0.052	0.136
-447.895	66.454	-0.273	-0.279
-446.880	-145.457	0.274	0.025
-445.865	-137.432	0.314	0.036
-444.851	198.489	-0.130	0.199
-443.836	-200.000	-0.016	-0.255
-442.822	-136.262	-0.138	0.016
-441.807	63.472	-0.092	0.092
-440.792	-32.821	0.214	0.119
-439.778	800.000	0.048	-0.197
-438.763	800.000	0.031	-0.088
-437.749	22.461	-0.126	-0.103
-436.734	800.000	0.044	-0.123
-435.719	138.483	-0.078	0.103
-434.705	-200.000	-0.006	-0.208
-433.690	66.597	0.068	-0.069
-432.676	-200.000	0.001	0.184
-431.661	557.972	-0.115	0.278
-430.646	155.416	-0.214	0.296
-429.632	-13.257	-0.266	0.174
-428.617	800.000	0.107	-0.366
-427.603	-200.000	0.009	-0.213
-426.588	-200.000	0.008	-0.176
-425.573	800.000	-0.170	0.522
-424.559	-129.456	-0.141	-0.020
-423.544	-58.340	-0.228	0.099
-422.530	246.711	-0.024	0.040
-421.515	-165.296	-0.318	0.014
-420.500	-124.600	0.145	-0.023
-419.486	-169.360	0.581	0.021
-418.471	-200.000	0.013	-0.264
-417.457	-200.000	0.011	0.165
-416.442	286.873	-0.123	0.223
-415.428	-127.710	0.488	0.071
-414.413	-176.216	0.197	0.005
-413.398	-139.935	0.118	-0.013
-412.384	-179.621	0.449	-0.010
-411.369	-200.000	-0.053	-0.246
-410.355	-200.000	-0.015	-0.138
-409.340	254.726	0.182	-0.312
-408.325	12.454	0.265	-0.205
-407.311	-166.966	-0.331	0.014
-406.296	290.299	0.054	-0.098
-405.282	263.502	0.049	0.085
-404.267	-132.758	-0.250	-0.032
-403.252	-200.000	-0.017	0.155
-402.238	-62.004	0.135	-0.057
-401.223	-200.000	0.048	-0.231
-400.209	330.273	0.042	0.081
-399.194	-159.825	-0.133	-0.007
-398.179	48.948	-0.129	-0.122
-397.165	703.180	-0.051	0.135
-396.150	-50.946	0.084	-0.040
-395.136	146.358	0.096	0.130
-394.121	130.356	0.160	-0.206
-393.106	-66.574	-0.054	0.021
-392.092	185.072	-0.198	0.295
-391.077	49.819	-0.269	0.254
-390.063	9.833	0.222	0.169
-389.048	-3.292	0.108	-0.076
-388.033	141.911	0.207	0.276
-387.019	112.121	0.046	0.055
-386.004	-111.714	-0.053	-0.011
-384.990	-84.203	0.343	-0.109
-383.975	-47.632	-0.228	0.111
-382.960	-160.769	0.239	0.013
-381.946	800.000	0.089	-0.344
-380.931	-110.485	0.167	0.035
-379.917	42.091	0.058	-0.053
-378.902	152.809	0.165	-0.227
-377.888	668.613	-0.148	0.384
-376.873	-62.604	-0.307	0.128
-375.858	-200.000	0.031	0.246
-374.844	-0.653	0.185	0.131
-373.829	-109.668	-0.214	-0.045
-372.815	-145.158	-0.138	-0.013
-371.800	-90.571	0.441	0.128
-370.785	269.777	0.089	0.157
-369.771	-57.824	0.304	-0.133
-368.756	60.394	-0.071	0.070
-367.742	-200.000	-0.016	-0.110
-366.727	-32.206	-0.049	-0.027
-365.712	236.916	-0.089	0.147
-364.698	-70.987	0.305	-0.115
-363.683	66.397	0.387	-0.394
-362.669	-8.610	-0.065	0.044
-361.654	-132.398	0.188	-0.024
-360.639	-135.940	-0.207	0.024
-359.625	-200.000	-0.013	0.103
-358.610	-22.868	-0.370	0.224
-357.596	55.685	0.197	0.191
-356.581	-197.633	-0.184	0.001
-355.566	-200.000	-0.000	0.205
-354.552	28.433	-0.121	0.102
-353.537	534.165	-0.076	-0.179
-352.523	-93.045	-0.429	0.120
-351.508	-127.609	0.422	-0.061
-350.493	-27.829	0.276	0.160
-349.479	-126.686	0.493	0.073
-348.464	-144.741	0.225	-0.021
-347.450	220.616	0.095	-0.153
-346.435	-56.477	0.147	-0.065
-345.420	-200.000	0.008	0.099
-344.406	9.009	0.144	-0.109
-343.391	31.396	-0.131	-0.113
-342.377	-200.000	0.058	0.330
-341.362	800.000	0.087	0.364
-340.348	-200.000	-0.037	-0.170
-339.333	-156.586	0.249	-0.015
-338.318	-120.748	0.280	-0.047
-337.304	271.382	0.129	0.227
-336.289	-200.000	0.042	-0.568
-335.275	-200.000	-0.045	-0.203
-334.260	241.703	0.244	-0.408
-333.245	-62.159	-0.066	-0.028
-332.231	-135.678	0.185	-0.022
-331.216	-176.359	0.172	-0.004
-330.202	-200.000	-0.005	-0.220
-329.187	164.268	-0.156	0.220
-328.172	25.290	-0.153	0.127
-327.158	800.000	0.052	-0.161
-326.143	-122.052	0.161	0.026
-325.129	-175.069	0.150	-0.004
-324.114	77.503	-0.287	0.306
-323.099	93.564	0.156	0.177
-322.085	-77.939	0.381	-0.131
-321.070	-30.341	-0.176	0.100
-320.056	17.323	-0.299	0.237
-319.041	800.000	-0.038	0.110
-318.026	577.623	-0.091	-0.222
-317.012	549.270	0.111	-0.267
-315.997	-9.398	-0.102	-0.068
-314.983	-56.355	0.211	-0.094
-313.968	-200.000	-0.044	0.209
-312.953	800.000	-0.036	0.137
-311.939	-87.112	0.081	0.025
-310.924	-104.719	-0.121	-0.028
-309.910	800.000	-0.081	-0.348
-308.895	-200.000	-0.020	0.107
-307.880	-29.609	0.150	-0.085
-306.866	77.934	-0.147	-0.157
-305.851	-82.483	0.249	0.081
-304.837	417.697	0.012	0.025
-303.822	-136.244	-0.152	0.018
-302.807	111.619	-0.046	-0.055
-301.793	254.963	0.044	0.075
-300.778	378.274	-0.094	0.192
-299.764	232.815	-0.017	-0.028
-298.749	-46.859	0.123	-0.060
-297.735	-163.515	0.221	0.010
-296.720	-77.848	-0.437	-0.151
-295.705	800.000	0.090	-0.362
-294.691	800.000	-0.064	-0.244
-293.676	-40.695	-0.419	0.217
-292.662	10.986	0.194	0.148
-291.647	-93.854	0.209	-0.058
-290.632	25.025	0.082	0.068
-289.618	-143.309	-0.150	0.014
-288.603	760.161	-0.018	-0.049
-287.589	-54.253	-0.340	-0.154
-286.574	218.257	-0.152	0.242
-285.559	-200.000	-0.011	-0.054
-284.545	-200.000	-0.037	0.209
-283.530	59.468	0.160	0.158
-282.516	-96.077	0.133	0.035
-281.501	117.049	-0.069	0.084
-280.486	-109.326	-0.096	-0.020
-279.472	108.379	0.038	0.045
-278.457	-107.166	-0.412	-0.091
-277.443	800.000	-0.022	0.067
-276.428	-80.266	0.182	-0.061
-275.413	-72.109	-0.084	0.031
-274.399	704.551	0.065	0.172
-273.384	-24.756	-0.177	-0.105
-272.370	229.863	0.021	-0.034
-271.355	64.768	-0.064	0.064
-270.340	800.000	-0.027	0.087
-269.326	3.291	-0.022	-0.016
-268.311	-118.646	-0.217	-0.038
-267.297	760.120	0.063	-0.170
-266.282	648.431	-0.124	-0.317
-265.267	800.000	0.074	0.232
-264.253	53.026	-0.089	-0.085
-263.238	-200.000	0.026	0.139
-262.224	-200.000	0.032	0.270
-261.209	-67.427	-0.165	-0.065
-260.195	60.094	-0.119	0.117
-259.180	-200.000	0.007	0.108
-258.165	-104.137	-0.195	-0.045
-257.151	-152.853	-0.517	-0.037
-256.136	82.270	-0.125	0.135
-255.122	36.370	0.042	-0.037
-254.107	-155.429	-0.443	0.029
-253.092	140.288	0.089	0.117
-252.078	32.816	-0.128	0.111
-251.063	-33.703	-0.068	0.037
-250.049	-113.690	-0.204	0.040
-249.034	80.508	0.078	-0.083
-248.019	-200.000	-0.007	-0.037
-247.005	-42.808	-0.317	-0.161
-245.990	163.057	0.062	0.087
-244.976	167.943	0.081	-0.115
-243.961	-200.000	-0.001	0.007
-242.946	-48.535	-0.067	0.032
-241.932	-200.000	-0.031	-0.221
-240.917	-7.235	0.097	-0.065
-239.903	-156.248	-0.320	-0.020
-238.888	62.190	0.169	-0.168
-237.873	3.705	0.241	0.176
-236.859	174.104	-0.393	-0.567
-235.844	-200.000	0.033	0.199
-234.830	-43.527	0.111	0.056
-233.815	8.070	0.052	-0.039
-232.800	13.399	0.060	0.046
-231.786	-200.000	-0.006	-0.094
-230.771	54.389	-0.163	-0.157
-229.757	270.405	-0.015	-0.026
-228.742	-111.580	0.165	0.033
-227.727	-55.214	0.244	-0.109
-226.713	64.159	0.325	0.326
-225.698	-116.464	-0.344	-0.063
-224.684	-48.360	-0.244	0.117
-223.669	-183.705	0.217	0.004
-222.655	-134.265	0.217	-0.027
-221.640	-88.355	-0.078	0.023
-220.625	338.056	-0.112	0.216
-219.611	72.463	-0.096	0.100
-218.596	-3.840	-0.315	0.218
-217.582	53.613	0.354	0.339
-216.567	314.549	-0.053	0.100
-215.552	-55.545	0.152	0.068
-214.538	800.000	0.047	0.198
-213.523	120.080	-0.295	-0.364
-212.509	-25.504	0.037	-0.022
-211.494	-84.425	-0.204	-0.064
-210.479	-20.996	-0.195	-0.119
-209.465	-154.661	0.694	0.046
-208.450	-200.000	-0.020	0.355
-207.436	159.681	-0.109	-0.151
-206.421	-51.224	0.476	0.222
-205.406	-128.631	-0.186	-0.026
-204.392	-91.474	0.072	-0.020
-203.377	-200.000	-0.010	-0.134
-202.363	-50.203	0.084	-0.040
-201.348	525.522	-0.102	-0.240
-200.333	47.891	0.169	0.157
-199.319	357.455	-0.080	-0.158
-198.304	800.000	-0.042	0.164
-197.290	-128.807	0.360	0.050
-196.275	321.389	-0.139	0.263
-195.260	-200.000	-0.012	-0.243
-194.246	244.737	0.136	-0.227
-193.231	409.247	0.069	0.145
-192.217	800.000	0.089	-0.302
-191.202	-101.339	-0.233	0.056
-190.187	-31.694	-0.229	0.128
-189.173	-200.000	0.008	0.419
-188.158	-31.673	0.225	-0.126
-187.144	-186.275	0.246	0.004
-186.129	127.479	0.095	0.120
-185.114	800.000	0.077	-0.297
-184.100	-16.293	0.064	-0.041
-183.085	73.786	0.141	0.147
-182.071	-103.499	0.249	0.058
-181.056	-55.507	-0.219	0.098
-180.042	-59.849	-0.170	-0.072
-179.027	-200.000	-0.028	-0.127
-178.012	692.052	0.113	-0.295
-176.998	-170.893	-0.297	-0.010
-175.983	-71.923	0.069	-0.026
-174.969	800.000	0.099	0.288
-173.954	-200.000	0.012	0.299
-172.939	536.153	0.054	0.127
-171.925	-163.696	0.378	-0.018
-170.910	-26.479	-0.092	-0.053
-169.896	140.959	-0.123	-0.162
-168.881	659.299	-0.101	-0.258
-167.866	-200.000	-0.014	-0.183
-166.852	312.061	0.120	-0.225
-165.837	51.592	0.086	0.081
-164.823	258.242	0.111	0.191
-163.808	648.261	-0.064	-0.162
-162.793	218.946	0.062	-0.098
-161.779	32.308	-0.010	-0.008
-160.764	-49.376	-0.213	0.101
-159.750	27.863	-0.136	-0.114
-158.735	52.700	-0.135	-0.128
-157.720	-200.000	-0.028	0.437
-156.706	221.915	0.100	0.160
-155.691	290.257	-0.158	-0.286
-154.677	-200.000	-0.045	-0.202
-153.662	794.930	-0.098	-0.269
-152.647	-200.000	0.052	0.422
-151.633	800.000	-0.050	0.166
-150.618	-49.058	0.213	0.101
-149.604	-92.317	-0.098	0.027
-148.589	-121.748	-0.468	0.077
-147.574	800.000	0.076	0.225
-146.560	610.421	-0.027	-0.066
-145.545	194.508	0.116	0.174
-144.531	-200.000	-0.059	0.286
-143.516	800.000	-0.092	0.254
-142.502	504.382	0.120	0.277
-141.487	25.295	-0.310	0.256
-140.472	-82.785	-0.171	-0.055
-139.458	725.042	-0.083	-0.219
-138.443	-25.085	0.185	-0.109
-137.429	11.313	-0.175	-0.133
-136.414	-147.150	0.108	0.009
-135.399	80.524	-0.241	0.258
-134.385	-20.485	-0.361	0.220
-133.370	-200.000	0.047	0.206
-132.356	188.200	-0.151	0.225
-131.341	139.744	-0.169	0.221
-130.326	344.666	-0.092	0.179
-129.312	-27.024	-0.386	-0.223
-128.297	509.237	-0.234	0.539
-127.283	167.018	0.226	-0.319
-126.268	-31.792	-0.217	0.121
-125.253	-200.000	-0.028	-0.358
-124.239	13.554	-0.043	0.033
-123.224	-8.844	0.142	0.095
-122.210	-200.000	0.006	0.060
