DTS Sentinel unit serial number:	SN413079Multiplexer serial number:	ORYXHardware model number:	OX4-SRSoftware version number:	ORYX F/W v4.00 Oryx Data Collector v3.7.2.0data status	okinstallation	princeton_trtdifferential loss correction	single-endedforward channel	channel 2reverse channel	N/Adate	2019/09/19time	10:11:35forward acquisition time	60.00reverse acquisition time	0.00gamma	496.2192k internal	0.2344k external	0.2344temperature offset calibration	1.0008default loss term (dB/km)	0.3790temperature slope calibration	1.0000multiplexer offset coefficient	1.0000multiplexer slope coefficient	1.0000fibre end	0.00T internal ref (°C)	24.00T ext. ref 1 (°C)	0.69T ext. ref 2 (°C)	19.83length (m)	temperature (°C)	Stokes	anti-Stokes-747.200	-42.336	-0.324	-0.166
-746.185	191.835	-0.099	0.149
-745.171	800.000	-0.073	-0.267
-744.156	-200.000	0.039	0.196
-743.142	-200.000	0.037	0.197
-742.127	13.038	-0.305	0.236
-741.112	-73.652	0.076	-0.028
-740.098	-38.588	-0.237	0.125
-739.083	14.938	0.029	0.023
-738.069	170.957	0.263	0.377
-737.054	7.498	0.266	0.199
-736.039	-120.644	-0.058	0.010
-735.025	800.000	0.152	0.430
-734.010	-138.185	-0.184	-0.020
-732.996	-108.825	-0.218	-0.047
-731.981	283.593	0.263	0.473
-730.966	-174.449	-0.194	-0.006
-729.952	387.782	0.071	-0.148
-728.937	-59.370	-0.052	0.022
-727.923	-57.916	0.065	0.029
-726.908	99.456	-0.048	-0.056
-725.894	-200.000	-0.063	-0.346
-724.879	-149.853	-0.319	0.025
-723.864	372.012	-0.113	0.229
-722.850	156.308	0.031	0.043
-721.835	-132.846	-0.486	-0.062
-720.821	-97.177	0.167	0.044
-719.806	800.000	0.062	0.238
-718.791	-94.146	-0.179	0.049
-717.777	601.477	-0.082	-0.202
-716.762	350.922	-0.089	-0.177
-715.748	35.630	-0.192	0.169
-714.733	303.550	-0.062	-0.115
-713.718	23.841	-0.432	-0.356
-712.704	-200.000	0.012	-0.061
-711.689	-151.633	0.352	-0.026
-710.675	-200.000	0.003	0.022
-709.660	-156.764	-0.291	-0.018
-708.645	-135.906	-0.127	-0.015
-707.631	45.085	-0.147	-0.135
-706.616	258.291	-0.140	-0.241
-705.602	-76.708	-0.140	0.049
-704.587	-83.000	0.228	-0.073
-703.572	-21.167	0.327	-0.200
-702.558	-24.917	-0.106	-0.063
-701.543	47.971	0.291	-0.271
-700.529	-168.609	-0.279	-0.011
-699.514	-28.854	-0.171	-0.098
-698.499	-200.000	0.002	-0.204
-697.485	136.391	-0.220	-0.287
-696.470	212.339	0.036	-0.057
-695.456	-200.000	0.013	0.210
-694.441	-87.182	0.211	0.064
-693.426	-57.130	-0.427	0.188
-692.412	-200.000	-0.043	0.465
-691.397	286.468	-0.025	0.045
-690.383	374.536	0.059	-0.120
-689.368	-200.000	0.026	-0.114
-688.354	-15.899	0.410	-0.261
-687.339	-83.562	-0.281	0.090
-686.324	274.878	0.176	0.311
-685.310	71.352	0.098	-0.102
-684.295	-200.000	-0.016	0.102
-683.281	322.716	-0.131	-0.249
-682.266	-200.000	0.007	0.223
-681.251	287.854	-0.030	-0.054
-680.237	98.644	0.173	0.200
-679.222	-200.000	-0.002	-0.121
-678.208	800.000	0.076	-0.293
-677.193	-200.000	0.005	-0.278
-676.178	223.366	-0.008	0.013
-675.164	-151.162	-0.348	0.026
-674.149	228.491	-0.066	-0.107
-673.135	36.266	-0.107	0.094
-672.120	-62.477	-0.402	-0.167
-671.105	800.000	-0.069	-0.252
-670.091	-71.926	-0.347	-0.129
-669.076	144.489	-0.119	-0.158
-668.062	40.967	0.039	0.035
-667.047	397.907	0.030	0.062
-666.032	-66.864	-0.247	0.097
-665.018	-200.000	-0.026	-0.206
-664.003	-200.000	-0.481	0.001
-662.989	316.804	0.044	-0.083
-661.974	-141.548	-0.111	0.011
-660.959	119.016	0.208	-0.257
-659.945	-98.280	-0.177	0.045
-658.930	-128.324	0.197	0.028
-657.916	-128.336	0.247	-0.035
-656.901	0.679	-0.093	-0.066
-655.886	-200.000	-0.072	0.499
-654.872	-15.367	-0.423	0.269
-653.857	387.020	-0.119	0.245
-652.843	-149.840	0.155	-0.012
-651.828	-132.875	-0.212	-0.027
-650.814	29.229	0.185	-0.157
-649.799	-111.680	-0.208	-0.042
-648.784	485.142	0.073	0.166
-647.770	-92.218	-0.040	-0.011
-646.755	193.481	-0.236	0.356
-645.741	114.556	0.151	0.183
-644.726	-200.000	-0.179	-0.000
-643.711	472.287	0.025	-0.056
-642.697	800.000	-0.077	0.260
-641.682	-31.199	0.157	0.088
-640.668	238.512	0.041	0.068
-639.653	210.828	0.196	0.307
-638.638	508.617	0.127	0.294
-637.624	-110.437	0.130	-0.027
-636.609	78.880	-0.227	-0.242
-635.595	229.884	-0.080	0.130
-634.580	45.471	-0.281	0.259
-633.565	-153.404	0.190	-0.013
-632.551	-6.652	-0.147	0.100
-631.536	-38.663	-0.193	-0.101
-630.522	-200.000	0.007	-0.264
-629.507	-200.000	-0.086	0.407
-628.492	-200.000	-0.008	0.083
-627.478	800.000	-0.125	-0.475
-626.463	256.697	0.091	-0.156
-625.449	-97.946	-0.152	-0.039
-624.434	741.960	-0.005	0.014
-623.419	108.801	-0.238	-0.283
-622.405	1.476	-0.310	-0.222
-621.390	284.744	-0.187	0.335
-620.376	-9.135	0.322	0.215
-619.361	30.487	0.202	-0.172
-618.346	235.951	-0.151	-0.248
-617.332	18.329	-0.179	-0.142
-616.317	-52.794	-0.128	0.059
-615.303	-181.460	-0.157	-0.003
-614.288	800.000	0.034	-0.119
-613.273	-200.000	0.002	0.088
-612.259	-136.137	0.260	0.030
-611.244	-43.235	-0.160	0.081
-610.230	-90.688	0.092	-0.027
-609.215	800.000	-0.041	0.171
-608.201	-27.538	-0.113	-0.065
-607.186	59.173	-0.177	0.173
-606.171	-17.992	-0.189	0.118
-605.157	-200.000	-0.039	-0.316
-604.142	800.000	-0.081	0.260
-603.128	43.996	-0.221	0.202
-602.113	-28.099	-0.205	-0.118
-601.098	-200.000	0.020	-0.090
-600.084	-97.310	0.115	0.030
-599.069	12.239	0.184	0.141
-598.055	-200.000	0.001	-0.190
-597.040	-200.000	-0.030	-0.215
-596.025	14.276	-0.089	0.069
-595.011	-197.383	-0.108	-0.001
-593.996	-44.388	-0.260	-0.130
-592.982	-200.000	0.002	0.168
-591.967	-130.250	0.181	-0.024
-590.952	166.625	0.106	-0.150
-589.938	800.000	0.091	-0.369
-588.923	-200.000	-0.013	0.195
-587.909	800.000	0.138	0.571
-586.894	-48.010	0.337	0.162
-585.879	574.250	-0.113	-0.273
-584.865	12.940	0.164	0.126
-583.850	624.218	-0.057	0.143
-582.836	308.147	-0.203	0.377
-581.821	360.582	0.164	0.328
-580.806	50.568	-0.238	-0.224
-579.792	299.070	0.151	0.277
-578.777	-82.140	0.535	-0.173
-577.763	-81.521	0.270	-0.088
-576.748	652.863	-0.069	-0.176
-575.733	-63.487	-0.055	-0.022
-574.719	59.945	-0.123	-0.121
-573.704	-55.341	-0.245	-0.110
-572.690	18.983	-0.141	-0.112
-571.675	-69.881	0.087	-0.033
-570.661	159.311	0.048	-0.066
-569.646	201.565	0.226	-0.346
-568.631	19.387	-0.187	-0.149
-567.617	-200.000	-0.042	0.444
-566.602	56.937	0.160	-0.155
-565.588	42.968	0.204	-0.185
-564.573	-121.964	0.345	-0.056
-563.558	800.000	-0.046	0.160
-562.544	-96.154	0.209	-0.055
-561.529	-97.259	0.311	-0.081
-560.515	80.250	-0.058	-0.062
-559.500	92.029	0.079	-0.088
-558.485	81.021	-0.173	-0.185
-557.471	145.075	0.116	-0.154
-556.456	-3.059	-0.109	-0.076
-555.442	370.186	0.051	0.103
-554.427	-48.739	-0.143	0.068
-553.412	800.000	-0.069	-0.254
-552.398	-84.906	-0.290	0.090
-551.383	286.023	0.073	-0.132
-550.369	198.752	0.038	-0.058
-549.354	-200.000	-0.047	0.267
-548.339	-2.086	0.070	-0.049
-547.325	-200.000	-0.041	0.394
-546.310	239.013	-0.112	-0.184
-545.296	-113.687	-0.042	0.008
-544.281	-95.392	0.260	-0.069
-543.266	-200.000	0.007	0.356
-542.252	-94.095	0.160	-0.043
-541.237	-80.408	-0.202	-0.067
-540.223	-12.062	0.420	-0.273
-539.208	244.774	-0.080	0.133
-538.193	-200.000	-0.033	-0.219
-537.179	103.518	0.102	0.119
-536.164	1.145	-0.255	0.181
-535.150	-54.827	-0.118	0.053
-534.135	-96.363	0.104	0.027
-533.121	651.896	0.060	0.152
-532.106	-200.000	0.002	0.118
-531.091	-27.396	0.381	0.220
-530.077	-37.703	-0.398	-0.210
-529.062	258.994	-0.017	0.029
-528.048	-200.000	0.071	-0.346
-527.033	285.526	0.061	-0.109
-526.018	34.584	-0.043	-0.038
-525.004	67.504	-0.202	-0.205
-523.989	-200.000	0.009	-0.122
-522.975	-157.619	0.085	-0.005
-521.960	128.847	0.352	0.445
-520.945	-200.000	-0.064	-0.278
-519.931	-13.597	0.222	0.143
-518.916	-200.000	-0.023	0.212
-517.902	119.826	0.127	-0.157
-516.887	-200.000	0.101	-0.000
-515.872	19.540	0.170	0.136
-514.858	283.013	-0.196	0.348
-513.843	-84.920	0.182	0.057
-512.829	-140.595	-0.016	0.002
-511.814	521.360	-0.097	-0.225
-510.799	151.925	0.020	-0.027
-509.785	-103.806	0.209	0.048
-508.770	317.089	-0.184	-0.344
-507.756	597.387	0.108	-0.265
-506.741	-200.000	-0.041	0.212
-505.726	-69.104	0.101	-0.039
-504.712	-161.638	0.086	0.004
-503.697	97.108	-0.116	-0.132
-502.683	-5.211	-0.250	0.170
-501.668	19.988	0.259	0.207
-500.653	800.000	0.070	-0.217
-499.639	-139.754	-0.192	0.020
-498.624	-158.053	-0.255	0.015
-497.610	-200.000	0.012	-0.318
-496.595	-33.100	0.205	0.112
-495.581	-52.913	-0.218	0.100
-494.566	507.212	0.119	-0.273
-493.551	-111.528	0.291	0.059
-492.537	255.444	0.069	0.117
-491.522	-118.263	0.149	0.026
-490.508	-76.738	0.211	0.073
-489.493	3.558	-0.010	0.007
-488.478	-78.093	0.170	-0.058
-487.464	3.714	0.089	-0.064
-486.449	-56.792	0.120	-0.053
-485.435	-88.231	0.178	0.053
-484.420	800.000	-0.084	-0.270
-483.405	273.423	-0.130	-0.227
-482.391	153.117	0.097	-0.132
-481.376	-53.092	-0.506	-0.230
-480.362	-57.155	0.380	-0.166
-479.347	-40.390	-0.375	0.193
-478.332	-200.000	-0.001	0.383
-477.318	-61.431	-0.153	-0.064
-476.303	800.000	-0.032	0.118
-475.289	-192.959	-0.091	0.001
-474.274	111.970	0.129	-0.154
-473.259	229.209	0.167	-0.270
-472.245	-200.000	-0.004	0.034
-471.230	337.106	0.069	0.134
-470.216	-89.605	0.184	0.053
-469.201	800.000	0.051	0.154
-468.186	110.598	0.032	0.038
-467.172	-26.108	-0.407	0.237
-466.157	-200.000	0.013	-0.274
-465.143	172.169	-0.119	-0.170
-464.128	800.000	-0.128	-0.428
-463.113	-81.129	-0.454	-0.149
-462.099	-85.152	-0.058	-0.018
-461.084	-149.926	0.070	-0.005
-460.070	-86.487	-0.140	0.042
-459.055	800.000	0.092	0.388
-458.040	58.956	0.352	0.343
-457.026	433.717	-0.018	0.040
-456.011	190.465	-0.071	-0.105
-454.997	-80.203	-0.213	0.071
-453.982	149.840	-0.136	-0.182
-452.968	-200.000	0.027	0.123
-451.953	-52.146	0.218	-0.100
-450.938	-200.000	0.052	-0.381
-449.924	375.368	-0.267	0.538
-448.909	412.746	-0.046	0.096
-447.895	250.052	-0.235	-0.394
-446.880	-200.000	-0.002	-0.251
-445.865	12.533	-0.382	-0.291
-444.851	-200.000	0.037	0.163
-443.836	450.278	-0.073	-0.159
-442.822	-16.947	-0.370	0.231
-441.807	301.203	0.024	0.045
-440.792	303.514	-0.130	0.238
-439.778	-65.111	-0.195	0.078
-438.763	-125.166	-0.094	-0.014
-437.749	-200.000	-0.004	-0.063
-436.734	108.988	0.063	-0.075
-435.719	-51.646	0.167	-0.077
-434.705	-89.554	-0.144	0.042
-433.690	-92.733	-0.440	-0.122
-432.676	-11.283	0.191	0.124
-431.661	489.247	0.070	0.158
-430.646	-111.387	0.092	0.018
-429.632	90.651	-0.233	0.258
-428.617	-26.591	-0.257	0.149
-427.603	60.537	0.205	-0.201
-426.588	213.738	-0.123	-0.193
-425.573	-45.344	-0.406	0.199
-424.559	53.162	-0.175	0.165
-423.544	353.631	0.051	-0.100
-422.530	91.775	0.403	-0.448
-421.515	281.515	0.035	-0.062
-420.500	-200.000	0.029	-0.365
-419.486	1.250	0.190	0.135
-418.471	11.508	-0.117	0.089
-417.457	-150.514	0.263	0.020
-416.442	-200.000	-0.034	-0.189
-415.428	-200.000	-0.006	0.222
-414.413	800.000	0.060	0.182
-413.398	-200.000	-0.026	0.275
-412.384	800.000	-0.080	0.325
-411.369	14.752	0.055	0.043
-410.355	19.144	-0.160	0.127
-409.340	-5.892	0.031	0.021
-408.325	-200.000	0.039	-0.254
-407.311	-30.195	0.299	-0.168
-406.296	800.000	0.057	0.177
-405.282	129.556	-0.080	-0.101
-404.267	132.444	0.198	0.253
-403.252	123.038	0.214	-0.265
-402.238	320.313	0.136	-0.255
-401.223	626.507	-0.076	0.189
-400.209	36.566	-0.261	0.228
-399.194	93.265	0.126	-0.140
-398.179	-67.566	-0.238	0.092
-397.165	-66.768	-0.279	-0.109
-396.150	800.000	0.057	0.236
-395.136	332.365	0.108	0.207
-394.121	-2.232	-0.138	-0.096
-393.106	-70.502	0.210	-0.079
-392.092	800.000	0.041	-0.124
-391.077	-200.000	0.002	0.199
-390.063	-50.462	-0.161	-0.075
-389.048	195.574	-0.122	-0.183
-388.033	456.911	0.036	0.079
-387.019	-132.644	-0.199	-0.025
-386.004	0.899	-0.236	-0.167
-384.990	80.448	0.185	-0.196
-383.975	18.442	-0.243	0.191
-382.960	10.997	0.169	-0.127
-381.946	-200.000	0.021	0.175
-380.931	-160.800	-0.248	0.013
-379.917	90.541	0.112	0.124
-378.902	-60.220	0.066	-0.028
-377.888	63.605	-0.215	0.213
-376.873	-47.813	0.277	-0.132
-375.858	179.849	-0.151	0.219
-374.844	75.909	-0.066	0.069
-373.829	-56.828	0.169	0.074
-372.815	-62.990	0.322	-0.131
-371.800	-175.835	0.121	-0.003
-370.785	-200.000	-0.021	-0.113
-369.771	-71.947	0.128	-0.047
-368.756	-55.745	0.077	0.034
-367.742	157.854	-0.101	0.138
-366.727	800.000	-0.016	-0.048
-365.712	-200.000	0.019	-0.485
-364.698	-200.000	0.009	0.242
-363.683	509.836	0.117	0.268
-362.669	-120.269	-0.235	-0.039
-361.654	-200.000	-0.021	-0.150
-360.639	51.410	0.133	-0.125
-359.625	-200.000	-0.003	0.087
-358.610	-200.000	0.004	0.050
-357.596	242.756	0.112	-0.184
-356.581	46.936	0.039	-0.036
-355.566	800.000	-0.080	0.238
-354.552	103.448	0.219	0.253
-353.537	-200.000	0.001	-0.020
-352.523	-1.165	-0.206	-0.143
-351.508	180.304	0.141	0.204
-350.493	-200.000	0.262	0.001
-349.479	-72.757	-0.386	-0.140
-348.464	300.834	0.093	0.169
-347.450	-115.288	0.213	-0.040
-346.435	115.996	-0.195	-0.235
-345.420	124.520	-0.118	-0.146
-344.406	800.000	-0.105	0.350
-343.391	-200.000	0.069	0.431
-342.377	800.000	-0.086	-0.246
-341.362	800.000	0.152	-0.479
-340.348	-27.937	0.273	-0.156
-339.333	-77.621	0.229	-0.078
-338.318	-26.405	-0.253	-0.146
-337.304	33.034	-0.227	-0.194
-336.289	-85.797	0.248	-0.076
-335.275	-63.458	0.266	0.108
-334.260	361.625	-0.035	0.069
-333.245	-19.109	0.170	-0.104
-332.231	-30.261	0.088	0.049
-331.216	-56.788	0.170	0.074
-330.202	263.919	-0.069	-0.118
-329.187	-91.747	-0.373	-0.104
-328.172	800.000	-0.018	-0.050
-327.158	-37.832	0.315	0.165
-326.143	-200.000	0.046	-0.330
-325.129	81.952	0.281	-0.300
-324.114	-7.666	-0.070	-0.046
-323.099	-93.968	0.139	0.037
-322.085	800.000	-0.041	-0.117
-321.070	-200.000	0.053	0.279
-320.056	-200.000	0.016	-0.100
-319.041	-35.805	0.102	0.054
-318.026	377.655	-0.127	0.256
-317.012	-41.472	0.273	-0.138
-315.997	32.766	0.141	0.120
-314.983	-200.000	-0.044	0.388
-313.968	1.706	0.051	0.036
-312.953	136.050	-0.114	-0.146
-311.939	-200.000	0.011	0.188
-310.924	-150.217	-0.253	-0.019
-309.910	-200.000	0.004	-0.076
-308.895	-81.465	0.036	-0.012
-307.880	7.459	0.134	-0.099
-306.866	117.739	0.110	-0.134
-305.851	227.752	-0.069	-0.110
-304.837	286.362	-0.053	0.094
-303.822	47.171	0.096	0.088
-302.807	-81.719	-0.217	-0.070
-301.793	-140.425	-0.182	-0.019
-300.778	800.000	0.047	0.160
-299.764	421.785	-0.194	0.410
-298.749	12.790	-0.240	0.182
-297.735	800.000	0.147	0.545
-296.720	-85.772	0.080	-0.024
-295.705	-92.850	0.044	-0.012
-294.691	96.106	-0.102	0.115
-293.676	-114.672	0.395	-0.074
-292.662	-141.911	-0.474	0.047
-291.647	9.779	0.222	-0.166
-290.632	-79.243	-0.251	0.084
-289.618	800.000	0.010	-0.031
-288.603	-154.430	0.204	0.013
-287.589	-133.023	0.267	-0.033
-286.574	44.171	0.122	-0.110
-285.559	-200.000	0.025	0.182
-284.545	800.000	-0.038	0.144
-283.530	-82.792	0.219	0.070
-282.516	-200.000	-0.007	-0.209
-281.501	190.352	-0.005	-0.008
-280.486	-200.000	-0.009	0.100
-279.472	-1.503	-0.287	0.199
-278.457	30.410	0.088	-0.074
-277.443	130.995	0.101	-0.127
-276.428	-200.000	-0.011	0.185
-275.413	-200.000	0.012	-0.121
-274.399	-144.797	-0.100	-0.009
-273.384	-126.195	0.185	0.027
-272.370	-69.533	-0.054	-0.020
-271.355	-141.383	0.086	-0.009
-270.340	-16.541	-0.134	0.083
-269.326	-200.000	0.003	0.074
-268.311	29.144	0.222	-0.185
-267.297	-200.000	-0.005	-0.378
-266.282	800.000	0.106	-0.306
-265.267	-82.668	0.134	-0.043
-264.253	-81.039	-0.222	-0.072
-263.238	-43.661	-0.406	0.201
-262.224	-113.659	0.178	-0.034
-261.209	12.316	-0.090	-0.068
-260.195	-54.060	0.295	-0.132
-259.180	-164.432	0.178	-0.008
-258.165	-9.619	-0.189	-0.124
-257.151	800.000	0.022	-0.070
-256.136	-49.973	0.329	-0.153
-255.122	-92.768	0.165	0.045
-254.107	25.493	-0.189	0.154
-253.092	371.865	-0.062	0.123
-252.078	109.258	0.273	0.321
-251.063	136.843	-0.025	0.032
-250.049	165.514	0.024	-0.033
-249.034	218.854	0.081	0.127
-248.019	-48.071	0.068	-0.032
-247.005	-200.000	-0.012	-0.109
-245.990	1.621	-0.101	-0.071
-244.976	92.060	-0.144	-0.159
-243.961	-63.763	0.556	-0.224
-242.946	666.027	-0.038	0.097
-241.932	128.389	0.307	-0.384
-240.917	-18.396	-0.153	0.094
-239.903	251.572	-0.202	0.338
-238.888	800.000	0.046	-0.165
-237.873	-131.023	0.182	0.024
-236.859	-82.661	-0.023	0.007
-235.844	-86.257	-0.379	-0.115
-234.830	800.000	-0.125	0.396
-233.815	-146.937	0.207	0.017
-232.800	-168.811	0.402	0.015
-231.786	-70.318	0.204	0.076
-230.771	-167.800	-0.329	-0.013
-229.757	800.000	-0.049	0.183
-228.742	170.835	0.047	0.067
-227.727	-200.000	-0.015	-0.189
-226.713	800.000	-0.067	-0.231
-225.698	-54.286	-0.094	-0.042
-224.684	800.000	0.043	-0.153
-223.669	800.000	-0.044	0.182
-222.655	137.196	-0.152	0.195
-221.640	-186.324	-0.289	-0.004
-220.625	306.631	-0.159	-0.291
-219.611	800.000	0.047	-0.176
-218.596	40.766	0.140	-0.124
-217.582	143.268	-0.230	0.300
-216.567	181.458	-0.333	0.481
-215.552	157.728	-0.133	-0.181
-214.538	-59.806	-0.098	0.041
-213.523	-103.058	0.312	-0.073
-212.509	53.267	-0.254	-0.239
-211.494	-156.195	0.266	-0.016
-210.479	55.550	-0.232	0.220
-209.465	-2.295	-0.180	0.124
-208.450	139.317	-0.191	-0.247
-207.436	10.718	0.226	0.169
-206.421	800.000	-0.095	-0.401
-205.406	-200.000	0.005	0.182
-204.392	-200.000	-0.025	-0.229
-203.377	-139.207	-0.231	-0.024
-202.363	-126.719	0.163	0.024
-201.348	533.265	-0.219	0.508
-200.333	-48.668	-0.290	0.136
-199.319	274.095	-0.161	-0.279
-198.304	93.798	-0.031	0.035
-197.290	87.238	-0.220	-0.238
-196.275	326.390	-0.070	-0.131
-195.260	-181.549	0.518	0.010
-194.246	141.073	0.130	0.168
-193.231	15.641	0.275	0.211
-192.217	0.956	-0.381	-0.267
-191.202	298.167	0.245	0.441
-190.187	-63.066	-0.123	0.050
-189.173	674.491	-0.110	-0.280
-188.158	-200.000	0.030	0.173
-187.144	-200.000	0.052	-0.326
-186.129	-143.482	0.405	-0.038
-185.114	-152.982	-0.107	-0.007
-184.100	-31.471	-0.137	-0.076
-183.085	568.298	0.083	0.197
-182.071	407.132	-0.099	-0.205
-181.056	261.906	-0.089	-0.152
-180.042	-121.662	-0.224	-0.036
-179.027	10.352	-0.200	0.149
-178.012	-128.351	0.050	0.007
-176.998	-16.059	0.153	-0.095
-175.983	-9.202	0.103	-0.067
-174.969	-200.000	-0.038	-0.292
-173.954	-3.265	0.066	-0.045
-172.939	800.000	0.041	0.134
-171.925	613.505	-0.101	0.247
-170.910	-31.847	0.284	-0.156
-169.896	320.749	0.067	0.125
-168.881	522.380	0.028	0.065
-167.866	-193.280	0.142	0.001
-166.852	378.359	-0.051	0.101
-165.837	-16.850	-0.260	-0.161
-164.823	-97.068	0.188	0.048
-163.808	-66.467	0.227	-0.088
-162.793	334.628	-0.101	0.191
-161.779	-200.000	-0.023	0.325
-160.764	-79.574	0.269	0.089
-159.750	188.988	-0.085	0.125
-158.735	-66.632	-0.096	0.037
-157.720	222.346	0.248	-0.390
-156.706	800.000	0.059	0.160
-155.691	-120.869	0.123	0.020
-154.677	-200.000	0.001	0.030
-153.662	-118.290	-0.155	0.027
-152.647	800.000	0.051	-0.190
-151.633	800.000	-0.027	-0.101
-150.618	237.677	0.041	0.067
-149.604	2.324	0.084	0.059
-148.589	32.047	-0.166	0.140
-147.574	-200.000	0.019	0.119
-146.560	-200.000	0.015	0.234
-145.545	-81.822	0.427	0.137
-144.531	30.736	-0.090	0.075
-143.516	-200.000	-0.032	-0.201
-142.502	-136.842	0.332	0.037
-141.487	58.018	0.125	-0.120
-140.472	800.000	0.051	0.188
-139.458	-0.882	0.276	0.191
-138.443	-200.000	-0.012	-0.192
-137.429	-71.284	0.168	0.062
-136.414	-6.774	0.263	0.175
-135.399	-200.000	0.013	-0.302
-134.385	25.196	-0.058	0.047
-133.370	-200.000	0.016	0.179
-132.356	-200.000	0.016	-0.263
-131.341	-200.000	-0.043	-0.276
-130.326	-43.692	0.436	0.215
-129.312	-47.977	-0.086	0.040
-128.297	36.129	-0.058	-0.050
-127.283	12.251	0.198	0.149
-126.268	-200.000	-0.108	-0.623
-125.253	83.823	-0.348	-0.371
-124.239	172.448	-0.255	0.359
-123.224	-200.000	-0.007	0.277
-122.210	663.947	-0.054	-0.137
-121.195	-154.553	0.301	0.020
