DTS Sentinel unit serial number:	SN413079Multiplexer serial number:	ORYXHardware model number:	OX4-SRSoftware version number:	ORYX F/W v4.00 Oryx Data Collector v3.7.2.0data status	okinstallation	princeton_trtdifferential loss correction	single-endedforward channel	channel 2reverse channel	N/Adate	2019/09/15time	01:39:35forward acquisition time	60.00reverse acquisition time	0.00gamma	496.2192k internal	0.2324k external	0.2324temperature offset calibration	1.0035default loss term (dB/km)	0.3790temperature slope calibration	1.0000multiplexer offset coefficient	1.0000multiplexer slope coefficient	1.0000fibre end	0.00T internal ref (°C)	31.81T ext. ref 1 (°C)	4.53T ext. ref 2 (°C)	26.73length (m)	temperature (°C)	Stokes	anti-Stokes-747.200	680.240	-0.076	0.200
-746.185	-200.000	-0.017	0.097
-745.171	-37.192	0.098	-0.053
-744.156	85.674	-0.244	0.271
-743.142	211.574	0.102	-0.163
-742.127	-149.759	-0.341	-0.027
-741.112	564.140	0.157	0.385
-740.098	-200.000	-0.000	-0.008
-739.083	96.103	-0.214	-0.247
-738.069	800.000	0.036	-0.153
-737.054	141.892	0.242	-0.324
-736.039	279.064	-0.095	-0.170
-735.025	701.885	0.079	0.211
-734.010	240.480	-0.203	0.341
-732.996	-59.099	-0.159	0.069
-731.981	-23.991	0.166	-0.100
-730.966	-117.058	0.181	0.033
-729.952	293.425	0.057	0.105
-728.937	-200.000	0.001	0.307
-727.923	8.403	-0.048	-0.036
-726.908	730.232	-0.051	-0.139
-725.894	-95.831	0.192	0.052
-724.879	469.282	-0.054	-0.122
-723.864	800.000	-0.069	-0.226
-722.850	-111.628	-0.262	0.054
-721.835	343.195	-0.106	-0.209
-720.821	59.765	-0.214	0.213
-719.806	199.017	-0.136	-0.210
-718.791	20.256	-0.286	-0.233
-717.777	-177.523	-0.031	-0.001
-716.762	173.805	0.105	0.153
-715.748	175.754	0.063	-0.093
-714.733	542.128	0.044	0.106
-713.718	-200.000	0.159	0.000
-712.704	182.426	-0.138	0.205
-711.689	107.651	0.173	-0.207
-710.675	-22.653	-0.149	0.091
-709.660	-200.000	0.012	-0.224
-708.645	60.521	0.091	-0.091
-707.631	685.119	-0.054	-0.141
-706.616	-168.069	-0.057	0.002
-705.602	94.000	0.182	0.208
-704.587	-200.000	-0.050	-0.359
-703.572	-200.000	-0.001	-0.146
-702.558	-27.397	-0.235	0.138
-701.543	348.373	0.161	-0.319
-700.529	22.367	-0.128	-0.105
-699.514	323.039	-0.136	-0.260
-698.499	-1.721	0.259	0.184
-697.485	-48.107	0.188	-0.092
-696.470	271.887	-0.055	-0.097
-695.456	206.001	-0.098	-0.154
-694.441	-51.644	-0.137	0.064
-693.426	138.588	0.036	0.048
-692.412	-200.000	-0.015	0.086
-691.397	2.710	0.223	0.163
-690.383	-200.000	-0.048	0.279
-689.368	-45.098	-0.319	0.160
-688.354	-175.646	0.153	0.004
-687.339	-103.009	0.191	-0.046
-686.324	559.787	-0.073	-0.176
-685.310	-90.657	0.240	-0.070
-684.295	-21.086	0.057	0.035
-683.281	-8.145	0.137	0.093
-682.266	67.097	0.068	0.069
-681.251	36.532	-0.089	-0.079
-680.237	5.647	-0.229	-0.170
-679.222	-0.035	-0.132	-0.095
-678.208	-90.985	-0.215	0.062
-677.193	-200.000	-0.002	-0.238
-676.178	55.188	-0.325	-0.316
-675.164	-47.055	0.271	-0.133
-674.149	-59.524	0.311	0.134
-673.135	-28.663	0.097	0.056
-672.120	-200.000	0.015	-0.267
-671.105	-200.000	0.006	-0.045
-670.091	-124.648	0.101	-0.016
-669.076	65.248	-0.101	0.103
-668.062	51.551	-0.068	-0.065
-667.047	-200.000	0.007	-0.149
-666.032	800.000	-0.054	-0.237
-665.018	800.000	0.086	-0.293
-664.003	21.865	-0.175	-0.144
-662.989	-114.425	0.330	0.064
-661.974	-21.460	-0.070	0.043
-660.959	250.869	-0.086	-0.147
-659.945	394.276	-0.206	-0.432
-658.930	-124.627	-0.058	-0.009
-657.916	-64.583	-0.208	-0.085
-656.901	102.084	0.133	-0.156
-655.886	-157.217	-0.348	-0.021
-654.872	-53.502	-0.369	-0.170
-653.857	-87.912	0.215	-0.065
-652.843	-17.478	-0.194	-0.123
-651.828	-200.000	-0.016	-0.577
-650.814	-33.865	0.205	-0.114
-649.799	800.000	0.047	-0.131
-648.784	344.156	0.059	-0.116
-647.770	800.000	-0.087	-0.357
-646.755	-37.460	0.157	0.084
-645.741	14.641	0.248	0.195
-644.726	153.257	-0.166	-0.229
-643.711	503.066	0.176	-0.410
-642.697	605.839	-0.077	-0.194
-641.682	800.000	-0.086	0.322
-640.668	-200.000	0.072	-0.417
-639.653	-88.520	0.306	-0.092
-638.638	279.264	-0.137	-0.246
-637.624	69.826	-0.172	-0.178
-636.609	-200.000	0.011	0.118
-635.595	800.000	-0.091	-0.317
-634.580	-124.048	0.125	-0.020
-633.565	-200.000	-0.027	-0.336
-632.551	-144.880	-0.108	0.010
-631.536	-200.000	0.028	-0.174
-630.522	-174.023	-0.227	-0.007
-629.507	-122.590	0.307	0.050
-628.492	43.060	-0.171	0.156
-627.478	-178.815	0.234	0.005
-626.463	-200.000	-0.000	-0.069
-625.449	-69.363	0.046	-0.018
-624.434	-8.590	0.120	0.081
-623.419	-45.871	-0.181	-0.090
-622.405	-84.147	-0.062	0.020
-621.390	97.647	-0.074	-0.085
-620.376	800.000	-0.073	-0.218
-619.361	-68.363	-0.137	0.053
-618.346	-83.218	0.199	0.064
-617.332	-184.505	-0.181	-0.003
-616.317	-15.804	0.278	0.178
-615.303	1.819	0.059	0.042
-614.288	119.609	-0.137	0.171
-613.273	-200.000	-0.019	0.096
-612.259	-98.749	-0.571	-0.146
-611.244	-200.000	0.014	-0.119
-610.230	268.359	-0.086	0.152
-609.215	-76.049	-0.385	0.137
-608.201	-37.084	0.284	-0.153
-607.186	-55.413	0.026	-0.012
-606.171	-200.000	-0.007	-0.206
-605.157	100.724	0.134	-0.157
-604.142	-81.650	-0.136	-0.045
-603.128	174.395	-0.028	0.041
-602.113	800.000	-0.064	-0.221
-601.098	-127.754	-0.207	-0.030
-600.084	139.107	0.203	-0.268
-599.069	43.081	-0.239	0.219
-598.055	-128.762	0.229	0.032
-597.040	-200.000	-0.045	-0.245
-596.025	16.706	0.104	0.083
-595.011	101.688	-0.106	-0.125
-593.996	52.048	0.253	0.242
-592.982	-200.000	-0.004	0.187
-591.967	-200.000	0.036	0.238
-590.952	-129.967	-0.475	0.065
-589.938	-6.932	-0.241	-0.164
-588.923	51.566	0.067	-0.064
-587.909	-114.482	-0.219	-0.042
-586.894	-200.000	0.040	0.194
-585.879	223.560	-0.199	-0.322
-584.865	366.231	0.052	0.104
-583.850	-200.000	0.032	-0.265
-582.836	-0.039	-0.088	0.063
-581.821	746.793	-0.087	-0.236
-580.806	6.532	0.107	-0.079
-579.792	-37.610	-0.094	0.050
-578.777	69.622	-0.072	0.075
-577.763	800.000	0.058	0.206
-576.748	-127.731	0.368	0.053
-575.733	-3.819	0.212	-0.148
-574.719	800.000	-0.092	-0.353
-573.704	48.678	0.220	-0.207
-572.690	272.974	-0.046	-0.081
-571.675	172.283	-0.055	0.079
-570.661	31.058	0.053	-0.046
-569.646	-110.038	-0.232	0.049
-568.631	800.000	-0.055	-0.220
-567.617	-129.571	-0.183	0.025
-566.602	155.215	-0.121	-0.166
-565.588	747.314	-0.030	0.081
-564.573	800.000	-0.042	0.148
-563.558	134.192	-0.338	0.438
-562.544	-200.000	-0.018	0.080
-561.529	71.470	-0.315	0.328
-560.515	-38.814	-0.186	0.098
-559.500	261.931	-0.132	0.229
-558.485	-39.361	0.080	-0.042
-557.471	58.728	-0.139	-0.137
-556.456	-113.927	-0.340	0.066
-555.442	584.618	-0.082	0.203
-554.427	-123.652	0.168	-0.027
-553.412	-200.000	0.016	0.134
-552.398	-124.147	-0.197	0.031
-551.383	-44.359	0.094	-0.047
-550.369	-110.202	0.490	0.102
-549.354	800.000	0.061	0.263
-548.339	238.278	0.063	0.104
-547.325	-200.000	-0.007	-0.134
-546.310	-77.787	-0.191	0.066
-545.296	800.000	0.123	0.378
-544.281	800.000	0.103	-0.316
-543.266	800.000	-0.090	-0.283
-542.252	23.105	0.248	0.204
-541.237	-189.602	-0.011	0.000
-540.223	24.039	-0.153	-0.127
-539.208	-65.130	-0.214	0.086
-538.193	176.692	0.166	0.242
-537.179	116.947	0.094	-0.115
-536.164	177.915	0.092	-0.134
-535.150	-51.679	-0.021	-0.010
-534.135	331.089	-0.088	0.169
-533.121	-200.000	-0.029	-0.180
-532.106	-200.000	0.096	0.439
-531.091	-87.711	0.294	0.089
-530.077	-51.016	0.186	0.088
-529.062	-200.000	0.052	0.429
-528.048	105.345	0.278	-0.328
-527.033	36.617	-0.257	0.227
-526.018	106.561	0.233	0.277
-525.004	800.000	-0.103	0.292
-523.989	119.560	-0.084	0.104
-522.975	-15.096	-0.273	-0.175
-521.960	125.711	-0.190	-0.240
-520.945	467.243	0.055	0.124
-519.931	322.876	0.092	0.176
-518.916	160.891	0.161	-0.225
-517.902	3.462	-0.206	-0.150
-516.887	-87.291	0.182	-0.055
-515.872	-181.572	-0.328	0.006
-514.858	407.187	-0.098	0.207
-513.843	105.621	0.113	-0.133
-512.829	-31.023	0.458	0.259
-511.814	800.000	0.033	-0.097
-510.799	-85.153	0.193	-0.060
-509.785	-102.458	-0.454	0.109
-508.770	-20.132	-0.273	0.168
-507.756	-24.692	0.147	-0.087
-506.741	-34.390	-0.291	-0.159
-505.726	10.218	-0.023	0.017
-504.712	800.000	-0.138	0.409
-503.697	-35.667	0.204	0.111
-502.683	-130.051	-0.303	0.041
-501.668	-156.201	0.115	-0.007
-500.653	-200.000	-0.007	0.154
-499.639	55.354	-0.175	0.170
-498.624	-83.522	0.168	0.054
-497.610	800.000	-0.080	0.338
-496.595	117.021	0.227	0.279
-495.581	800.000	-0.058	-0.192
-494.566	342.797	0.072	-0.142
-493.551	-11.563	-0.143	-0.094
-492.537	234.936	-0.137	-0.226
-491.522	-32.517	0.172	-0.096
-490.508	474.234	0.197	-0.443
-489.493	114.928	0.131	-0.160
-488.478	297.283	-0.159	0.291
-487.464	96.356	-0.157	-0.179
-486.449	-157.236	-0.378	-0.023
-485.435	-24.636	-0.072	0.043
-484.420	-86.126	-0.127	0.039
-483.405	34.386	-0.208	-0.182
-482.391	362.143	0.198	-0.398
-481.376	-14.618	-0.239	0.153
-480.362	78.572	0.208	-0.222
-479.347	-165.367	0.108	0.005
-478.332	-200.000	0.005	-0.107
-477.318	800.000	-0.021	-0.060
-476.303	-200.000	-0.036	0.217
-475.289	23.485	0.146	0.120
-474.274	-11.174	0.349	-0.230
-473.259	-51.288	-0.175	0.082
-472.245	194.062	-0.134	0.203
-471.230	-105.480	-0.120	0.027
-470.216	187.394	-0.014	0.020
-469.201	-103.782	0.317	0.074
-468.186	36.486	0.207	0.183
-467.172	138.046	0.096	-0.125
-466.157	-200.000	0.067	-0.372
-465.143	-124.639	-0.091	0.014
-464.128	144.241	0.093	-0.124
-463.113	-91.743	-0.198	0.056
-462.099	-98.430	-0.287	-0.073
-461.084	25.337	0.159	0.132
-460.070	-200.000	0.025	0.321
-459.055	-188.187	0.186	-0.002
-458.040	529.305	0.094	0.221
-457.026	-6.018	-0.004	0.003
-456.011	4.572	-0.095	-0.070
-454.997	21.864	-0.173	0.141
-453.982	-112.208	-0.179	-0.036
-452.968	183.303	0.073	-0.108
-451.953	0.759	-0.210	-0.150
-450.938	-122.510	0.080	-0.013
-449.924	109.240	-0.023	-0.028
-448.909	311.116	0.203	0.379
-447.895	-200.000	-0.016	0.091
-446.880	-139.496	0.200	-0.021
-445.865	64.663	-0.097	0.097
-444.851	-200.000	0.301	0.000
-443.836	169.713	-0.125	-0.178
-442.822	276.762	0.063	0.111
-441.807	431.472	0.047	0.101
-440.792	215.159	0.121	-0.191
-439.778	-88.698	-0.242	0.072
-438.763	16.083	0.135	0.106
-437.749	-200.000	0.050	-0.310
-436.734	-65.334	0.249	-0.100
-435.719	31.596	-0.313	0.269
-434.705	-88.563	-0.128	-0.038
-433.690	146.336	0.131	-0.176
-432.676	-66.537	-0.274	-0.108
-431.661	-109.424	0.129	-0.027
-430.646	-33.193	0.361	-0.199
-429.632	242.369	-0.157	0.262
-428.617	-104.783	0.066	0.015
-427.603	463.427	0.096	0.213
-426.588	-74.220	0.069	-0.025
-425.573	76.006	-0.180	0.190
-424.559	302.656	0.077	-0.141
-423.544	800.000	-0.015	-0.050
-422.530	-200.000	0.004	0.205
-421.515	-200.000	0.029	-0.130
-420.500	165.023	0.163	-0.230
-419.486	-200.000	0.037	0.222
-418.471	-162.357	0.281	0.014
-417.457	800.000	-0.046	-0.197
-416.442	-200.000	-0.030	-0.378
-415.428	800.000	-0.023	0.084
-414.413	-32.387	-0.062	-0.035
-413.398	-36.722	0.232	-0.124
-412.384	-22.182	-0.064	0.039
-411.369	-7.430	0.172	-0.116
-410.355	403.795	-0.122	-0.257
-409.340	177.350	0.051	-0.074
-408.325	800.000	0.058	-0.217
-407.311	-174.114	0.072	-0.002
-406.296	-148.749	-0.116	-0.009
-405.282	-200.000	-0.008	0.212
-404.267	-200.000	0.006	0.147
-403.252	-200.000	-0.062	0.369
-402.238	191.111	-0.080	0.120
-401.223	-200.000	0.035	-0.226
-400.209	288.562	0.116	0.210
-399.194	-18.724	-0.321	-0.199
-398.179	-116.783	0.403	0.074
-397.165	288.440	-0.206	0.371
-396.150	-156.399	0.176	0.011
-395.136	-38.642	0.309	-0.162
-394.121	341.510	0.069	0.134
-393.106	-200.000	0.030	-0.211
-392.092	186.523	-0.061	-0.090
-391.077	111.176	0.143	0.172
-390.063	-161.856	0.358	-0.018
-389.048	24.202	0.184	0.152
-388.033	-200.000	-0.028	-0.196
-387.019	-200.000	0.023	0.119
-386.004	-105.652	-0.279	-0.063
-384.990	73.874	0.302	0.315
-383.975	-114.459	0.180	-0.034
-382.960	-12.692	0.151	0.098
-381.946	800.000	0.016	0.069
-380.931	-83.899	-0.323	0.102
-379.917	-159.919	-0.300	0.016
-378.902	17.147	-0.280	-0.221
-377.888	-146.576	0.211	-0.018
-376.873	60.506	-0.168	-0.165
-375.858	141.977	0.191	0.253
-374.844	-0.175	0.100	0.071
-373.829	67.398	0.135	-0.137
-372.815	38.164	-0.354	-0.313
-371.800	800.000	-0.114	0.383
-370.785	-151.308	-0.257	0.019
-369.771	-67.575	-0.315	-0.123
-368.756	22.303	0.295	-0.240
-367.742	-200.000	-0.006	0.310
-366.727	3.669	0.163	-0.118
-365.712	-200.000	-0.039	0.218
-364.698	-200.000	-0.001	0.072
-363.683	-98.172	-0.317	-0.081
-362.669	-10.554	-0.289	-0.191
-361.654	800.000	0.056	0.199
-360.639	-200.000	0.004	-0.320
-359.625	46.182	-0.079	-0.073
-358.610	24.237	0.172	0.141
-357.596	-200.000	0.006	-0.160
-356.581	5.446	0.125	-0.092
-355.566	-200.000	-0.000	0.082
-354.552	114.682	0.180	0.218
-353.537	498.026	0.053	-0.121
-352.523	-141.653	-0.270	-0.027
-351.508	-200.000	-0.022	0.406
-350.493	302.417	-0.025	0.046
-349.479	-129.651	-0.080	0.011
-348.464	503.583	0.072	0.165
-347.450	-105.101	-0.199	-0.045
-346.435	-134.111	0.212	-0.026
-345.420	-200.000	0.034	0.276
-344.406	-121.220	0.224	0.037
-343.391	152.029	0.305	-0.413
-342.377	-200.000	0.039	0.517
-341.362	14.009	-0.193	-0.149
-340.348	800.000	0.047	0.141
-339.333	-38.093	0.030	-0.016
-338.318	-200.000	0.013	-0.155
-337.304	-32.050	0.086	-0.048
-336.289	-18.362	-0.263	0.163
-335.275	-1.650	0.006	-0.004
-334.260	-74.666	0.061	-0.022
-333.245	71.445	0.172	0.177
-332.231	186.737	-0.252	-0.372
-331.216	800.000	-0.044	-0.125
-330.202	-200.000	-0.024	-0.208
-329.187	800.000	-0.148	0.449
-328.172	-9.200	0.268	-0.178
-327.158	-120.362	-0.137	0.023
-326.143	-200.000	-0.038	-0.322
-325.129	104.699	-0.203	-0.238
-324.114	-170.754	0.382	-0.013
-323.099	17.578	-0.076	0.060
-322.085	-200.000	-0.089	0.424
-321.070	-58.202	-0.081	0.035
-320.056	-200.000	0.001	-0.266
-319.041	259.350	0.103	0.177
-318.026	251.433	-0.054	0.091
-317.012	-200.000	0.017	-0.109
-315.997	371.552	0.069	0.139
-314.983	19.449	-0.088	-0.070
-313.968	-57.882	0.174	-0.076
-312.953	327.509	-0.040	0.075
-311.939	77.510	0.161	-0.170
-310.924	-200.000	0.046	0.280
-309.910	72.980	-0.268	-0.277
-308.895	-125.601	-0.060	-0.009
-307.880	-158.028	-0.303	-0.018
-306.866	800.000	-0.048	-0.151
-305.851	185.798	-0.142	0.210
-304.837	-58.281	-0.251	0.108
-303.822	-121.112	-0.287	-0.048
-302.807	-177.154	0.198	0.005
-301.793	800.000	0.059	0.220
-300.778	-200.000	-0.000	-0.261
-299.764	9.254	0.300	0.225
-298.749	800.000	0.062	-0.256
-297.735	-22.684	0.242	-0.145
-296.720	-79.770	0.340	0.114
-295.705	800.000	0.022	0.089
-294.691	212.104	-0.061	0.095
-293.676	669.216	0.080	-0.206
-292.662	6.362	0.175	-0.129
-291.647	4.108	-0.350	0.254
-290.632	-78.175	0.305	-0.104
-289.618	187.907	0.151	-0.224
-288.603	118.885	0.213	0.261
-287.589	-41.432	0.269	0.137
-286.574	800.000	0.062	-0.215
-285.559	-200.000	0.019	-0.087
-284.545	-102.525	-0.089	-0.021
-283.530	167.583	0.079	0.111
-282.516	-100.725	0.222	0.054
-281.501	120.918	0.065	0.081
-280.486	-88.639	0.221	-0.065
-279.472	131.954	0.073	0.093
-278.457	712.804	0.054	-0.141
-277.443	-122.938	0.148	-0.024
-276.428	94.764	0.105	-0.118
-275.413	744.315	-0.052	-0.138
-274.399	800.000	0.051	-0.215
-273.384	-66.933	-0.183	-0.072
-272.370	28.558	0.232	0.194
-271.355	-68.466	0.120	0.046
-270.340	143.676	0.106	-0.140
-269.326	-200.000	0.001	0.135
-268.311	30.673	0.249	-0.211
-267.297	800.000	-0.076	0.263
-266.282	-133.480	0.270	0.034
-265.267	-25.057	0.139	-0.082
-264.253	-200.000	-0.019	-0.165
-263.238	-71.879	0.420	-0.155
-262.224	-35.982	0.385	-0.206
-261.209	302.310	-0.077	-0.140
-260.195	36.148	0.124	-0.109
-259.180	-40.930	-0.430	-0.220
-258.165	-200.000	-0.036	-0.167
-257.151	-200.000	-0.011	0.233
-256.136	-96.493	-0.558	-0.146
-255.122	-130.740	0.241	0.032
-254.107	800.000	0.109	-0.302
-253.092	604.016	-0.049	0.120
-252.078	472.804	0.085	-0.191
-251.063	382.192	-0.110	-0.223
-250.049	800.000	-0.095	0.409
-249.034	4.856	-0.076	0.055
-248.019	-21.976	0.177	0.106
-247.005	-154.822	0.215	0.014
-245.990	325.682	-0.063	-0.118
-244.976	-7.727	-0.186	-0.124
-243.961	-54.973	-0.356	-0.159
-242.946	-96.919	0.153	-0.040
-241.932	-147.237	-0.505	0.043
-240.917	-200.000	-0.003	-0.086
-239.903	800.000	0.078	0.297
-238.888	25.965	0.155	0.128
-237.873	-100.662	-0.125	0.031
-236.859	800.000	0.018	-0.055
-235.844	70.408	-0.334	-0.341
-234.830	-17.783	-0.284	-0.176
-233.815	-8.819	0.205	0.136
-232.800	38.274	-0.067	0.059
-231.786	-200.000	-0.061	0.301
-230.771	-36.694	0.260	0.138
-229.757	58.028	0.067	0.065
-228.742	-12.642	0.139	0.090
-227.727	-134.814	-0.260	0.031
-226.713	-41.378	0.289	0.147
-225.698	-200.000	0.024	0.168
-224.684	-165.340	0.130	-0.006
-223.669	-90.216	0.176	-0.051
-222.655	-37.991	0.092	-0.048
-221.640	251.621	0.119	-0.199
-220.625	-200.000	0.025	0.215
-219.611	-127.541	-0.476	0.068
-218.596	800.000	0.041	0.142
-217.582	204.486	-0.141	0.215
-216.567	4.380	0.230	-0.167
-215.552	297.811	-0.099	0.180
-214.538	-167.234	-0.164	-0.007
-213.523	28.696	0.206	0.172
-212.509	192.670	0.225	-0.337
-211.494	231.729	-0.115	0.186
-210.479	-6.074	0.250	-0.169
-209.465	800.000	-0.198	0.584
-208.450	-133.600	-0.140	0.017
-207.436	200.821	-0.123	-0.187
-206.421	-88.624	-0.255	0.075
-205.406	-93.158	-0.140	0.039
-204.392	187.188	0.077	0.114
-203.377	-100.683	-0.117	0.028
-202.363	-200.000	-0.041	0.325
-201.348	601.445	-0.054	-0.131
-200.333	-57.859	0.117	-0.051
-199.319	114.374	-0.172	0.207
-198.304	-100.286	-0.272	0.067
-197.290	-93.742	-0.422	-0.115
-196.275	214.003	0.167	0.262
-195.260	261.521	0.104	0.178
-194.246	772.868	-0.086	0.233
-193.231	-90.482	0.436	0.125
-192.217	61.832	0.165	-0.163
-191.202	-118.267	-0.300	-0.053
-190.187	-88.743	-0.180	-0.053
-189.173	77.577	0.141	0.148
-188.158	-200.000	-0.017	0.288
-187.144	-7.916	0.149	0.100
-186.129	-3.264	0.178	-0.122
-185.114	111.295	-0.128	-0.152
-184.100	-200.000	-0.004	-0.217
-183.085	27.148	-0.153	-0.127
-182.071	-200.000	0.002	0.044
-181.056	-73.859	-0.082	0.030
-180.042	-200.000	-0.016	-0.233
-179.027	22.085	-0.317	0.256
-178.012	-49.518	0.253	0.119
-176.998	-146.990	0.305	-0.026
-175.983	800.000	-0.073	0.211
-174.969	800.000	0.093	-0.309
-173.954	199.157	-0.081	-0.123
-172.939	800.000	-0.050	-0.184
-171.925	-41.310	0.294	-0.150
-170.910	153.259	-0.024	-0.032
-169.896	74.358	-0.130	-0.134
-168.881	524.025	-0.096	-0.224
-167.866	800.000	-0.012	-0.040
-166.852	-200.000	0.000	0.071
-165.837	-200.000	0.000	-0.263
-164.823	177.562	0.119	0.171
-163.808	-21.778	-0.373	0.224
-162.793	440.427	-0.151	0.325
-161.779	-65.638	-0.081	-0.032
-160.764	-60.524	0.240	-0.101
-159.750	104.791	0.302	-0.352
-158.735	2.534	-0.186	0.133
-157.720	9.743	0.125	-0.094
-156.706	105.532	-0.176	0.206
-155.691	800.000	-0.040	-0.135
-154.677	-144.788	0.088	-0.008
-153.662	-126.072	-0.127	-0.019
-152.647	-104.747	-0.313	0.071
-151.633	-19.477	0.136	-0.083
-150.618	800.000	-0.109	0.323
-149.604	800.000	0.113	-0.403
-148.589	10.255	-0.048	-0.036
-147.574	-178.119	0.234	0.005
-146.560	-84.216	0.221	0.069
-145.545	-136.018	0.175	0.020
-144.531	-200.000	0.493	0.002
-143.516	-59.628	-0.312	-0.132
-142.502	531.780	0.084	0.197
-141.487	364.223	0.081	0.161
-140.472	122.195	0.071	0.088
-139.458	-122.513	-0.456	0.073
-138.443	234.372	0.111	-0.180
-137.429	354.334	-0.146	0.285
-136.414	-135.562	-0.237	-0.028
-135.399	96.171	-0.171	-0.193
-134.385	-58.084	-0.088	-0.038
-133.370	1.326	-0.243	0.172
-132.356	-102.199	0.156	0.037
-131.341	-200.000	-0.005	0.202
-130.326	800.000	-0.048	0.172
-129.312	-200.000	-0.162	-0.000
-128.297	-66.410	-0.202	0.079
-127.283	-200.000	-0.021	-0.151
-126.268	271.747	0.131	-0.227
-125.253	-50.805	0.159	-0.074
-124.239	-200.000	0.016	-0.107
-123.224	159.755	0.067	0.092
-122.210	-64.336	-0.098	-0.039
-121.195	-0.799	-0.174	-0.121
