DTS Sentinel unit serial number:	SN413079Multiplexer serial number:	ORYXHardware model number:	OX4-SRSoftware version number:	ORYX F/W v4.00 Oryx Data Collector v3.7.2.0data status	okinstallation	princeton_trtdifferential loss correction	single-endedforward channel	channel 2reverse channel	N/Adate	2019/09/16time	05:27:35forward acquisition time	60.00reverse acquisition time	0.00gamma	496.2192k internal	0.2335k external	0.2335temperature offset calibration	0.9978default loss term (dB/km)	0.3790temperature slope calibration	1.0000multiplexer offset coefficient	1.0000multiplexer slope coefficient	1.0000fibre end	0.00T internal ref (°C)	27.28T ext. ref 1 (°C)	11.11T ext. ref 2 (°C)	22.11length (m)	temperature (°C)	Stokes	anti-Stokes-747.200	153.402	-0.293	0.403
-746.185	-10.060	-0.346	0.231
-745.171	228.070	0.045	-0.073
-744.156	-200.000	-0.026	0.211
-743.142	320.160	-0.084	0.160
-742.127	-43.610	-0.110	0.056
-741.112	-4.890	0.149	0.103
-740.098	800.000	0.049	0.186
-739.083	-53.618	0.144	0.066
-738.069	73.545	-0.129	-0.135
-737.054	-200.000	0.468	0.000
-736.039	322.592	0.141	-0.269
-735.025	-22.638	0.292	0.177
-734.010	384.963	0.162	-0.335
-732.996	-200.000	-0.009	0.117
-731.981	800.000	-0.056	0.208
-730.966	-200.000	0.001	0.178
-729.952	17.378	0.280	0.223
-728.937	12.884	-0.177	-0.137
-727.923	-163.000	-0.310	0.015
-726.908	800.000	-0.069	0.195
-725.894	800.000	-0.046	0.177
-724.879	-200.000	-0.052	-0.420
-723.864	-71.075	0.155	-0.058
-722.850	122.721	0.067	0.084
-721.835	-200.000	-0.019	0.381
-720.821	800.000	0.028	0.094
-719.806	-2.922	-0.058	-0.041
-718.791	-114.707	0.263	0.050
-717.777	39.976	-0.206	0.186
-716.762	198.502	-0.074	-0.113
-715.748	682.512	0.111	0.290
-714.733	-41.102	-0.220	0.114
-713.718	800.000	0.045	-0.157
-712.704	-200.000	0.034	-0.220
-711.689	-26.371	0.119	-0.070
-710.675	-200.000	0.015	0.092
-709.660	-57.489	-0.114	-0.050
-708.645	-110.587	-0.192	0.040
-707.631	-130.835	0.181	-0.024
-706.616	-60.344	0.149	0.064
-705.602	61.710	-0.236	-0.236
-704.587	-152.818	-0.296	-0.021
-703.572	23.010	0.075	0.061
-702.558	-19.826	-0.230	0.143
-701.543	294.823	0.205	-0.377
-700.529	56.928	-0.102	-0.100
-699.514	-79.488	0.266	0.090
-698.499	-200.000	-0.008	-0.037
-697.485	-37.525	-0.285	0.152
-696.470	-200.000	-0.069	-0.441
-695.456	-44.519	-0.100	0.050
-694.441	523.742	-0.020	-0.048
-693.426	180.750	0.102	0.150
-692.412	116.427	0.302	-0.371
-691.397	-139.614	-0.095	0.010
-690.383	-200.000	-0.022	-0.151
-689.368	-200.000	-0.056	-0.364
-688.354	-200.000	0.029	0.154
-687.339	-143.128	-0.421	0.041
-686.324	-88.450	0.320	-0.096
-685.310	521.759	0.043	0.102
-684.295	-200.000	0.009	0.313
-683.281	8.002	-0.212	0.159
-682.266	34.736	-0.229	-0.200
-681.251	-76.839	-0.285	0.100
-680.237	-155.368	-0.209	-0.014
-679.222	64.683	-0.178	-0.180
-678.208	800.000	-0.053	-0.211
-677.193	43.874	0.262	0.240
-676.178	16.912	-0.122	0.096
-675.164	-159.307	0.019	-0.001
-674.149	97.142	0.010	0.012
-673.135	44.802	0.147	-0.135
-672.120	-87.470	-0.090	0.027
-671.105	-11.689	0.258	-0.170
-670.091	58.144	0.079	-0.078
-669.076	-200.000	-0.060	-0.266
-668.062	-49.733	-0.264	-0.126
-667.047	131.593	0.085	0.109
-666.032	-200.000	0.013	-0.305
-665.018	734.637	0.033	-0.089
-664.003	-157.286	-0.056	-0.003
-662.989	-62.145	0.145	0.060
-661.974	800.000	0.161	-0.474
-660.959	-99.254	-0.308	0.078
-659.945	-200.000	0.000	0.010
-658.930	20.423	-0.282	-0.229
-657.916	-129.367	-0.333	-0.046
-656.901	-61.335	0.411	0.173
-655.886	-200.000	0.039	0.285
-654.872	148.450	-0.070	0.095
-653.857	114.347	-0.045	-0.055
-652.843	-107.265	-0.066	0.014
-651.828	283.622	0.058	0.105
-650.814	-50.648	0.236	0.111
-649.799	46.790	0.018	0.017
-648.784	-22.783	-0.256	-0.155
-647.770	15.950	0.092	-0.072
-646.755	-107.742	-0.249	-0.054
-645.741	-126.493	0.213	0.032
-644.726	476.318	0.072	-0.164
-643.711	800.000	0.123	-0.398
-642.697	-91.060	0.102	-0.029
-641.682	800.000	-0.048	-0.158
-640.668	-74.537	-0.393	0.142
-639.653	209.947	-0.168	0.264
-638.638	-93.114	0.286	0.080
-637.624	72.519	0.267	-0.279
-636.609	-50.519	0.233	0.110
-635.595	-200.000	-0.024	0.144
-634.580	-101.479	-0.062	-0.015
-633.565	129.563	-0.029	0.037
-632.551	28.840	-0.292	0.248
-631.536	480.850	0.084	-0.190
-630.522	209.825	-0.221	-0.346
-629.507	310.133	0.218	0.407
-628.492	-134.965	-0.176	-0.021
-627.478	181.859	0.082	-0.121
-626.463	149.863	0.035	0.048
-625.449	73.596	0.136	0.142
-624.434	91.779	-0.080	0.090
-623.419	-60.516	0.146	-0.062
-622.405	-200.000	0.043	0.492
-621.390	-137.911	-0.244	-0.027
-620.376	335.504	-0.114	-0.222
-619.361	173.655	0.146	0.211
-618.346	89.034	-0.231	0.257
-617.332	96.568	-0.216	0.248
-616.317	-136.410	0.224	0.026
-615.303	-85.698	-0.185	-0.057
-614.288	-24.760	0.310	-0.184
-613.273	800.000	-0.076	0.249
-612.259	-200.000	0.002	-0.065
-611.244	-157.747	0.114	-0.007
-610.230	-53.714	-0.171	-0.078
-609.215	120.757	0.124	-0.154
-608.201	47.728	-0.125	0.117
-607.186	-98.716	0.418	0.106
-606.171	-168.786	0.300	-0.011
-605.157	99.819	0.082	0.094
-604.142	39.049	0.053	-0.048
-603.128	198.397	0.121	0.185
-602.113	800.000	0.052	-0.171
-601.098	-29.994	-0.041	0.023
-600.084	51.566	-0.171	-0.162
-599.069	-48.066	-0.301	-0.145
-598.055	-122.158	-0.060	0.010
-597.040	578.277	-0.107	-0.262
-596.025	-115.318	-0.167	-0.031
-595.011	-129.043	-0.076	-0.011
-593.996	800.000	-0.021	0.066
-592.982	135.127	0.196	-0.255
-591.967	-13.311	-0.195	0.126
-590.952	-22.013	0.435	0.264
-589.938	297.126	-0.105	-0.193
-588.923	-20.900	-0.084	0.051
-587.909	560.546	0.178	-0.429
-586.894	-200.000	0.008	-0.109
-585.879	-53.355	0.137	-0.062
-584.865	-49.206	0.202	0.096
-583.850	-123.068	-0.302	-0.048
-582.836	40.045	-0.312	-0.280
-581.821	800.000	0.066	-0.190
-580.806	22.611	0.171	-0.140
-579.792	13.871	0.311	-0.242
-578.777	166.406	0.144	0.204
-577.763	269.664	0.142	-0.249
-576.748	348.662	0.165	-0.326
-575.733	237.654	0.069	0.114
-574.719	-156.155	-0.120	-0.008
-573.704	-130.114	-0.359	-0.049
-572.690	44.123	-0.109	0.100
-571.675	18.300	0.286	-0.228
-570.661	335.544	-0.169	-0.327
-569.646	-200.000	0.005	0.029
-568.631	-14.271	0.108	0.070
-567.617	-8.718	0.170	0.114
-566.602	397.172	0.029	-0.060
-565.588	221.898	-0.135	-0.216
-564.573	-112.443	-0.111	0.022
-563.558	-19.295	-0.249	-0.154
-562.544	171.389	-0.104	0.148
-561.529	182.994	-0.289	-0.426
-560.515	-61.759	-0.133	0.055
-559.500	-83.989	-0.288	-0.091
-558.485	460.826	0.060	-0.132
-557.471	-0.247	0.115	-0.082
-556.456	52.930	0.216	-0.206
-555.442	24.287	-0.134	-0.110
-554.427	122.811	-0.139	-0.173
-553.412	8.645	-0.196	0.148
-552.398	-200.000	0.008	0.092
-551.383	-152.524	-0.269	0.019
-550.369	-200.000	-0.030	0.174
-549.354	800.000	0.036	-0.148
-548.339	223.330	0.070	-0.112
-547.325	293.761	-0.030	0.054
-546.310	800.000	0.090	-0.333
-545.296	-153.136	-0.311	0.022
-544.281	72.812	0.256	0.267
-543.266	78.406	0.324	-0.345
-542.252	135.818	-0.161	-0.210
-541.237	-93.427	0.296	0.082
-540.223	89.595	-0.316	0.351
-539.208	-9.532	-0.204	-0.136
-538.193	86.405	0.154	0.170
-537.179	800.000	-0.060	0.178
-536.164	-97.342	-0.165	-0.043
-535.150	-200.000	-0.052	-0.268
-534.135	261.242	0.048	-0.083
-533.121	10.892	-0.140	-0.106
-532.106	-200.000	0.010	0.168
-531.091	800.000	0.087	-0.302
-530.077	512.399	0.118	-0.275
-529.062	126.303	-0.139	0.175
-528.048	433.017	0.107	-0.231
-527.033	-103.651	0.152	0.036
-526.018	-39.069	0.281	-0.147
-525.004	130.296	-0.035	0.044
-523.989	1.079	0.204	-0.146
-522.975	221.062	-0.166	0.265
-521.960	800.000	-0.067	-0.224
-520.945	-19.633	-0.293	-0.181
-519.931	800.000	-0.135	-0.421
-518.916	14.863	-0.146	-0.113
-517.902	203.181	0.057	0.088
-516.887	425.014	-0.057	0.122
-515.872	-191.319	-0.333	-0.003
-514.858	1.603	0.032	-0.023
-513.843	99.875	-0.177	-0.204
-512.829	-200.000	0.008	0.082
-511.814	-141.503	0.243	-0.024
-510.799	562.770	0.086	-0.207
-509.785	576.923	-0.119	-0.290
-508.770	-200.000	-0.001	-0.050
-507.756	-179.068	-0.357	-0.008
-506.741	-49.596	-0.118	-0.056
-505.726	39.318	0.293	-0.261
-504.712	-135.626	0.087	-0.010
-503.697	800.000	0.084	-0.267
-502.683	31.779	-0.113	0.097
-501.668	25.262	0.141	-0.117
-500.653	122.761	-0.016	-0.020
-499.639	-45.142	-0.337	0.167
-498.624	-67.166	0.088	-0.034
-497.610	-102.736	-0.472	0.112
-496.595	-87.762	0.149	-0.045
-495.581	-108.921	0.029	0.006
-494.566	44.556	-0.055	-0.051
-493.551	204.913	-0.210	0.324
-492.537	-169.602	0.499	0.018
-491.522	47.464	-0.084	0.078
-490.508	-68.875	0.310	-0.119
-489.493	-77.317	0.130	0.045
-488.478	800.000	-0.034	-0.095
-487.464	599.174	0.118	-0.292
-486.449	-147.269	-0.192	0.016
-485.435	-74.143	0.274	0.098
-484.420	97.886	-0.021	0.024
-483.405	-6.097	-0.102	0.070
-482.391	800.000	-0.121	0.369
-481.376	-67.083	-0.183	-0.072
-480.362	68.238	0.040	0.041
-479.347	-200.000	0.040	-0.300
-478.332	399.763	0.243	-0.507
-477.318	44.142	-0.261	0.238
-476.303	-25.736	0.290	-0.170
-475.289	-200.000	0.023	0.126
-474.274	800.000	0.022	-0.065
-473.259	-74.082	-0.197	-0.071
-472.245	-8.763	-0.262	0.175
-471.230	485.705	-0.089	-0.202
-470.216	-200.000	-0.049	-0.304
-469.201	103.250	0.246	-0.286
-468.186	-104.389	0.194	0.045
-467.172	-51.658	-0.245	-0.114
-466.157	-200.000	0.009	0.309
-465.143	68.878	0.069	0.070
-464.128	-182.831	0.086	-0.002
-463.113	158.560	0.060	0.083
-462.099	-64.848	-0.201	-0.081
-461.084	800.000	-0.026	0.080
-460.070	11.796	0.092	-0.070
-459.055	-88.049	-0.077	0.023
-458.040	800.000	-0.069	-0.240
-457.026	-97.911	-0.146	0.037
-456.011	21.568	0.234	0.189
-454.997	238.167	-0.161	-0.265
-453.982	-44.730	-0.281	0.139
-452.968	-168.178	-0.299	-0.012
-451.953	161.776	-0.127	0.176
-450.938	-107.624	0.232	0.050
-449.924	598.776	-0.025	0.061
-448.909	-158.870	-0.149	-0.008
-447.895	-10.724	0.133	0.087
-446.880	465.498	0.156	-0.346
-445.865	-82.513	0.270	0.087
-444.851	-105.047	0.252	-0.057
-443.836	72.996	0.114	0.119
-442.822	-186.451	-0.300	-0.004
-441.807	-105.791	0.429	-0.096
-440.792	216.928	-0.132	-0.209
-439.778	488.281	-0.092	-0.209
-438.763	-85.090	0.205	-0.064
-437.749	-84.341	0.385	0.121
-436.734	-200.000	-0.014	-0.107
-435.719	-171.681	-0.283	-0.009
-434.705	-21.870	0.259	0.157
-433.690	-19.378	0.258	-0.159
-432.676	800.000	-0.067	-0.238
-431.661	16.472	-0.114	0.090
-430.646	-27.173	0.297	0.172
-429.632	1.186	-0.142	0.101
-428.617	107.396	0.201	-0.237
-427.603	-21.882	0.234	0.141
-426.588	800.000	0.050	0.211
-425.573	41.268	0.342	0.307
-424.559	23.005	-0.095	0.077
-423.544	42.630	-0.188	-0.170
-422.530	153.334	-0.186	0.253
-421.515	-131.515	0.064	-0.008
-420.500	-3.993	0.432	0.297
-419.486	-156.775	-0.081	-0.005
-418.471	41.925	0.075	-0.068
-417.457	297.151	0.259	-0.472
-416.442	-59.534	0.090	0.038
-415.428	-66.301	-0.275	0.109
-414.413	-200.000	0.001	-0.106
-413.398	-200.000	-0.020	-0.166
-412.384	-200.000	-0.027	-0.179
-411.369	-200.000	-0.021	0.223
-410.355	252.389	-0.108	-0.183
-409.340	-200.000	0.010	-0.152
-408.325	207.181	-0.044	0.068
-407.311	259.034	0.075	0.127
-406.296	37.744	0.133	0.117
-405.282	722.759	-0.035	0.094
-404.267	441.650	-0.127	-0.275
-403.252	800.000	0.023	0.069
-402.238	-200.000	-0.053	-0.298
-401.223	278.434	0.306	0.541
-400.209	7.197	-0.269	-0.199
-399.194	-148.940	-0.366	-0.029
-398.179	-31.332	-0.197	0.110
-397.165	-200.000	-0.014	-0.188
-396.150	-94.201	0.065	0.018
-395.136	-20.572	0.081	0.049
-394.121	12.336	0.071	0.054
-393.106	41.436	-0.056	0.050
-392.092	-200.000	-0.047	-0.524
-391.077	106.269	-0.140	-0.164
-390.063	26.024	0.254	-0.210
-389.048	153.835	-0.087	-0.119
-388.033	-200.000	-0.013	0.101
-387.019	20.150	0.006	-0.005
-386.004	59.138	0.112	-0.109
-384.990	-38.636	0.138	-0.072
-383.975	800.000	-0.063	-0.213
-382.960	-183.244	0.347	0.006
-381.946	-46.915	0.210	-0.102
-380.931	-3.529	-0.167	-0.115
-379.917	13.874	0.115	-0.089
-378.902	139.401	-0.232	0.303
-377.888	294.448	0.012	-0.022
-376.873	-151.387	0.317	0.023
-375.858	124.573	0.111	0.138
-374.844	-93.274	0.419	-0.115
-373.829	-73.861	0.044	-0.016
-372.815	-200.000	-0.036	0.163
-371.800	-106.828	0.309	-0.068
-370.785	39.674	-0.184	-0.163
-369.771	800.000	0.068	-0.283
-368.756	-33.620	-0.094	0.051
-367.742	-200.000	0.004	0.289
-366.727	55.490	-0.100	-0.095
-365.712	800.000	-0.065	-0.179
-364.698	-138.047	-0.111	-0.012
-363.683	800.000	0.099	0.286
-362.669	179.207	0.072	-0.104
-361.654	800.000	0.041	0.113
-360.639	156.480	0.086	-0.117
-359.625	800.000	0.054	0.150
-358.610	-63.622	0.190	0.077
-357.596	-122.044	0.118	-0.019
-356.581	-48.832	-0.126	0.060
-355.566	282.110	0.044	-0.079
-354.552	-200.000	-0.069	-0.305
-353.537	-200.000	0.043	0.337
-352.523	51.329	-0.109	0.103
-351.508	-200.000	0.009	0.380
-350.493	424.662	0.114	0.243
-349.479	-142.932	-0.330	-0.032
-348.464	-132.568	-0.063	0.008
-347.450	-117.155	-0.030	-0.005
-346.435	-20.406	-0.210	0.128
-345.420	-200.000	0.018	0.091
-344.406	-192.008	0.300	-0.003
-343.391	-176.824	0.279	0.007
-342.377	515.278	-0.202	0.466
-341.362	-21.570	-0.050	0.030
-340.348	800.000	-0.112	-0.332
-339.333	122.423	0.075	0.093
-338.318	800.000	-0.081	0.273
-337.304	-91.537	-0.041	0.012
-336.289	71.710	0.145	0.149
-335.275	-160.536	-0.332	0.018
-334.260	-14.543	-0.186	-0.118
-333.245	800.000	-0.110	0.341
-332.231	-123.878	-0.270	-0.042
-331.216	172.379	0.220	0.312
-330.202	-56.021	0.162	0.071
-329.187	20.984	-0.196	-0.157
-328.172	78.554	-0.021	-0.022
-327.158	242.211	0.170	-0.281
-326.143	-38.668	0.240	0.125
-325.129	-200.000	-0.005	0.057
-324.114	120.738	0.116	0.143
-323.099	800.000	-0.042	-0.143
-322.085	5.065	-0.087	-0.063
-321.070	-200.000	-0.022	0.380
-320.056	800.000	0.087	0.328
-319.041	-200.000	0.005	-0.078
-318.026	800.000	-0.064	0.264
-317.012	47.376	-0.198	0.183
-315.997	-62.965	0.156	-0.064
-314.983	-125.394	-0.361	0.054
-313.968	-200.000	0.000	-0.066
-312.953	-190.969	0.083	-0.001
-311.939	224.785	0.236	-0.377
-310.924	800.000	0.099	0.305
-309.910	-200.000	0.014	0.089
-308.895	108.688	-0.271	0.320
-307.880	-90.962	-0.321	-0.091
-306.866	-114.256	-0.405	-0.077
-305.851	-200.000	-0.000	-0.380
-304.837	686.008	0.102	0.263
-303.822	80.378	0.152	0.162
-302.807	65.384	0.136	-0.136
-301.793	-164.867	-0.173	0.008
-300.778	451.819	-0.093	0.203
-299.764	800.000	-0.079	-0.298
-298.749	800.000	0.126	-0.390
-297.735	576.466	0.070	-0.169
-296.720	-98.754	-0.128	-0.032
-295.705	203.171	-0.029	0.045
-294.691	-200.000	0.055	0.240
-293.676	-128.116	-0.135	-0.019
-292.662	-200.000	-0.000	0.233
-291.647	507.329	0.058	0.134
-290.632	-200.000	0.015	-0.137
-289.618	-78.555	-0.099	0.033
-288.603	-23.425	0.409	0.242
-287.589	-79.584	-0.061	-0.020
-286.574	83.622	-0.167	0.180
-285.559	-64.018	-0.125	-0.050
-284.545	-25.969	-0.073	-0.042
-283.530	-86.539	0.227	0.069
-282.516	129.126	0.118	0.149
-281.501	46.154	0.115	0.106
-280.486	405.167	0.026	0.054
-279.472	0.077	0.270	-0.190
-278.457	-101.216	-0.179	0.043
-277.443	38.103	0.227	-0.200
-276.428	-87.784	-0.207	0.061
-275.413	-200.000	0.068	0.386
-274.399	-103.957	-0.188	0.043
-273.384	800.000	0.094	0.262
-272.370	-200.000	-0.045	-0.250
-271.355	800.000	-0.069	-0.224
-270.340	-146.923	0.032	0.003
-269.326	-147.504	0.100	-0.008
-268.311	-15.525	0.237	0.149
-267.297	-75.710	-0.488	0.171
-266.282	-86.972	0.282	-0.085
-265.267	-200.000	-0.003	-0.080
-264.253	-200.000	-0.059	0.258
-263.238	-110.208	-0.379	0.078
-262.224	48.867	0.035	-0.033
-261.209	800.000	-0.131	0.380
-260.195	-200.000	-0.001	0.014
-259.180	-19.139	0.122	0.075
-258.165	292.346	-0.079	-0.141
-257.151	-200.000	0.052	0.261
-256.136	110.142	-0.054	0.064
-255.122	-115.795	0.382	0.070
-254.107	-42.923	0.147	0.074
-253.092	295.668	-0.176	0.317
-252.078	-67.382	0.243	-0.094
-251.063	-68.992	-0.046	0.018
-250.049	-4.629	0.282	-0.192
-249.034	622.690	0.077	0.191
-248.019	-132.240	-0.393	0.050
-247.005	298.447	0.131	0.237
-245.990	-200.000	0.035	0.410
-244.976	-200.000	-0.009	-0.119
-243.961	34.779	-0.134	-0.115
-242.946	57.528	0.123	0.119
-241.932	53.752	-0.144	-0.137
-240.917	139.982	0.117	0.152
-239.903	41.883	-0.201	0.179
-238.888	2.971	0.186	-0.133
-237.873	-35.411	-0.116	0.062
-236.859	-140.501	0.548	0.056
-235.844	43.782	0.139	0.126
-234.830	-146.386	0.099	0.009
-233.815	17.309	-0.171	0.134
-232.800	-200.000	-0.036	0.368
-231.786	-183.938	0.145	0.002
-230.771	50.146	-0.065	0.060
-229.757	6.770	-0.098	0.072
-228.742	-145.604	-0.209	-0.018
-227.727	377.876	-0.039	0.079
-226.713	-23.371	-0.265	-0.157
-225.698	-200.000	-0.063	0.279
-224.684	-200.000	0.021	0.384
-223.669	-40.323	-0.169	-0.086
-222.655	6.533	-0.136	0.099
-221.640	800.000	-0.087	0.324
-220.625	-132.910	-0.429	0.054
-219.611	351.876	0.084	-0.164
-218.596	468.765	-0.066	0.146
-217.582	-110.578	0.310	-0.063
-216.567	-144.715	-0.073	0.007
-215.552	21.619	-0.237	-0.189
-214.538	-200.000	-0.027	-0.181
-213.523	800.000	0.074	0.204
-212.509	800.000	-0.067	0.195
-211.494	-53.871	0.082	-0.037
-210.479	-200.000	-0.027	-0.374
-209.465	83.970	-0.038	0.040
-208.450	800.000	-0.036	0.133
-207.436	-6.567	0.044	-0.030
-206.421	334.390	-0.134	-0.256
-205.406	-200.000	-0.025	-0.368
-204.392	41.483	0.028	-0.025
-203.377	800.000	-0.051	0.140
-202.363	8.200	-0.017	0.013
-201.348	-58.136	0.098	-0.042
-200.333	126.830	-0.114	-0.143
-199.319	-156.916	-0.184	-0.011
-198.304	87.267	0.101	-0.110
-197.290	1.676	-0.054	-0.038
-196.275	-200.000	-0.002	0.391
-195.260	-17.868	-0.153	-0.094
-194.246	-200.000	-0.018	-0.158
-193.231	693.833	0.070	-0.180
-192.217	-57.347	0.200	-0.087
-191.202	91.171	-0.218	0.240
-190.187	-139.591	0.391	0.041
-189.173	303.183	-0.123	-0.225
-188.158	-200.000	0.027	0.341
-187.144	46.506	0.223	0.204
-186.129	-70.694	0.203	-0.076
-185.114	546.208	-0.095	0.223
-184.100	-115.413	0.105	-0.019
-183.085	-13.716	-0.215	0.137
-182.071	84.737	-0.102	0.109
-181.056	-200.000	-0.001	0.096
-180.042	-71.836	-0.221	-0.081
-179.027	83.490	0.141	0.151
-178.012	-143.764	-0.116	0.011
-176.998	255.737	0.131	-0.220
-175.983	352.924	0.160	-0.312
-174.969	-200.000	0.029	0.182
-173.954	-200.000	-0.016	0.133
-172.939	68.123	0.117	0.118
-171.925	-200.000	-0.009	-0.082
-170.910	-85.938	0.214	0.065
-169.896	207.150	-0.078	0.119
-168.881	351.039	0.100	0.195
-167.866	-61.851	-0.338	-0.139
-166.852	240.313	-0.171	0.280
-165.837	-26.189	0.142	0.082
-164.823	-200.000	-0.012	0.151
-163.808	417.301	0.119	0.250
-162.793	800.000	0.007	0.027
-161.779	66.506	0.313	-0.312
-160.764	-152.385	-0.177	0.012
-159.750	83.128	0.131	0.141
-158.735	89.449	0.198	0.216
-157.720	-200.000	0.006	-0.069
-156.706	800.000	-0.074	-0.285
-155.691	-9.315	-0.155	0.102
-154.677	-120.611	-0.212	0.035
-153.662	112.004	0.111	0.131
-152.647	-200.000	-0.053	-0.312
-151.633	-156.715	0.185	0.011
-150.618	37.919	-0.086	-0.075
-149.604	-200.000	-0.008	0.068
-148.589	4.315	-0.050	-0.036
-147.574	-200.000	0.045	-0.331
-146.560	-200.000	-0.060	-0.282
-145.545	800.000	0.059	0.210
-144.531	173.003	0.157	-0.222
-143.516	-14.570	0.087	-0.055
-142.502	4.227	0.166	0.119
-141.487	-200.000	0.089	0.700
-140.472	2.860	0.111	-0.079
-139.458	-200.000	0.030	-0.181
-138.443	-200.000	0.060	0.324
-137.429	800.000	-0.088	0.294
-136.414	800.000	-0.057	0.189
-135.399	59.871	-0.236	0.228
-134.385	-109.256	-0.151	0.031
-133.370	-13.437	0.135	0.086
-132.356	246.297	0.123	-0.204
-131.341	43.192	0.233	0.208
-130.326	718.712	0.067	0.175
-129.312	-162.882	0.088	-0.004
-128.297	-31.935	-0.188	-0.103
-127.283	-82.563	0.273	-0.087
-126.268	-200.000	-0.010	0.176
-125.253	-48.465	-0.246	-0.116
-124.239	73.369	0.125	-0.129
-123.224	-148.372	-0.108	0.009
-122.210	153.303	-0.080	0.108
-121.195	-56.366	-0.063	0.028
-120.180	-145.304	0.277	0.024
