DTS Sentinel unit serial number:	SN413079Multiplexer serial number:	ORYXHardware model number:	OX4-SRSoftware version number:	ORYX F/W v4.00 Oryx Data Collector v3.7.2.0data status	okinstallation	princeton_trtdifferential loss correction	single-endedforward channel	channel 2reverse channel	N/Adate	2019/09/12time	20:11:49forward acquisition time	15.00reverse acquisition time	0.00gamma	496.2192k internal	0.2326k external	0.2326temperature offset calibration	1.0148default loss term (dB/km)	0.3790temperature slope calibration	1.0000multiplexer offset coefficient	1.0000multiplexer slope coefficient	1.0000fibre end	0.00T internal ref (°C)	31.56T ext. ref 1 (°C)	3.32T ext. ref 2 (°C)	26.23length (m)	temperature (°C)	Stokes	anti-Stokes-747.200	-91.805	-0.442	0.127
-746.185	-200.000	0.048	-0.610
-745.171	-127.764	0.355	0.052
-744.156	-150.496	-0.692	-0.054
-743.142	-100.629	0.567	-0.141
-742.127	76.837	-0.711	0.761
-741.112	56.071	-0.539	0.527
-740.098	13.539	-0.588	-0.460
-739.083	-91.138	0.615	-0.178
-738.069	-121.361	-0.413	0.069
-737.054	276.839	0.183	0.327
-736.039	-200.000	-0.058	0.261
-735.025	-7.183	0.416	0.285
-734.010	-200.000	0.004	0.073
-732.996	311.382	-0.198	0.374
-731.981	-145.093	0.402	-0.037
-730.966	396.720	-0.008	-0.017
-729.952	-200.000	-0.094	0.638
-728.937	-180.240	-0.617	-0.013
-727.923	-77.569	-0.481	0.168
-726.908	-15.245	-0.175	0.113
-725.894	-79.668	-0.303	-0.103
-724.879	-57.723	-0.683	0.302
-723.864	-138.431	-0.488	0.054
-722.850	800.000	-0.223	0.831
-721.835	-200.000	0.144	-0.743
-720.821	-135.028	-0.191	-0.023
-719.806	800.000	0.126	0.485
-718.791	800.000	0.264	-0.822
-717.777	-200.000	-0.108	0.492
-716.762	-200.000	0.060	-0.294
-715.748	179.407	0.497	-0.733
-714.733	-9.444	-0.596	0.401
-713.718	667.134	0.146	0.381
-712.704	-200.000	0.000	-0.144
-711.689	208.100	0.378	0.595
-710.675	800.000	-0.168	0.486
-709.660	63.929	-0.512	-0.518
-708.645	-54.355	0.027	0.012
-707.631	154.952	-0.317	0.439
-706.616	5.364	-1.146	-0.852
-705.602	209.398	-0.096	0.152
-704.587	-80.414	0.359	-0.121
-703.572	229.158	0.139	0.228
-702.558	800.000	0.119	0.339
-701.543	94.333	0.385	0.440
-700.529	-116.011	0.688	-0.129
-699.514	-80.927	-0.780	0.260
-698.499	103.614	0.162	-0.191
-697.485	-42.369	-0.454	0.233
-696.470	800.000	0.184	0.604
-695.456	342.842	0.076	0.150
-694.441	-52.341	0.585	-0.273
-693.426	479.827	-0.270	0.615
-692.412	-80.044	0.783	-0.264
-691.397	800.000	-0.245	0.974
-690.383	196.436	0.034	0.052
-689.368	-121.649	0.403	-0.067
-688.354	-110.109	-0.728	0.153
-687.339	63.993	0.086	0.087
-686.324	-10.278	-0.737	-0.492
-685.310	-200.000	-0.087	0.423
-684.295	208.624	-0.180	0.283
-683.281	-95.248	-0.559	0.152
-682.266	-101.629	1.325	-0.324
-681.251	800.000	-0.025	0.083
-680.237	159.740	0.174	-0.244
-679.222	-1.914	-0.529	0.375
-678.208	-200.000	-0.015	-0.530
-677.193	17.158	-0.614	-0.489
-676.178	292.084	-0.439	-0.804
-675.164	626.794	0.127	0.323
-674.149	-31.116	0.281	-0.159
-673.135	-6.957	-0.767	-0.524
-672.120	-72.172	0.779	0.291
-671.105	8.504	-0.645	-0.488
-670.091	250.102	-0.136	-0.232
-669.076	53.614	-0.500	-0.482
-668.062	45.818	0.016	-0.015
-667.047	-90.889	0.906	0.262
-666.032	39.005	0.389	-0.349
-665.018	164.264	-0.703	-0.997
-664.003	133.920	-0.303	0.394
-662.989	139.237	-0.185	-0.244
-661.974	-177.113	0.533	-0.013
-660.959	0.017	-0.185	0.133
-659.945	-102.908	0.398	0.095
-658.930	94.044	0.570	-0.649
-657.916	66.292	0.965	-0.985
-656.901	-200.000	-0.054	-0.363
-655.886	-54.686	1.183	0.538
-654.872	63.377	-0.539	0.543
-653.857	-22.081	-0.479	0.292
-652.843	271.269	0.114	-0.202
-651.828	-125.821	-0.341	-0.052
-650.814	310.241	0.080	0.150
-649.799	800.000	0.083	0.354
-648.784	57.735	-0.459	-0.451
-647.770	59.634	-0.339	0.336
-646.755	-200.000	0.035	-0.161
-645.741	-70.222	0.176	0.067
-644.726	104.412	-0.356	0.421
-643.711	83.252	0.378	0.413
-642.697	-200.000	0.091	0.432
-641.682	62.262	0.285	-0.286
-640.668	800.000	-0.162	0.483
-639.653	800.000	0.085	0.254
-638.638	0.086	-0.464	0.332
-637.624	62.193	0.089	0.089
-636.609	77.142	-0.092	-0.098
-635.595	-55.096	-0.185	-0.084
-634.580	800.000	-0.074	0.208
-633.565	-123.609	-0.898	-0.143
-632.551	216.222	0.570	0.910
-631.536	678.404	-0.051	0.133
-630.522	-200.000	0.110	-0.486
-629.507	79.417	0.233	-0.251
-628.492	-200.000	0.036	-0.504
-627.478	-146.403	-0.645	0.057
-626.463	-200.000	0.035	-0.463
-625.449	61.769	0.415	0.415
-624.434	49.183	-0.260	0.245
-623.419	269.829	0.307	0.541
-622.405	105.502	-0.284	-0.336
-621.390	-200.000	0.091	-0.984
-620.376	-150.896	0.525	-0.040
-619.361	116.286	0.214	0.263
-618.346	-123.442	0.239	0.038
-617.332	-101.955	0.576	0.139
-616.317	-67.338	0.828	-0.327
-615.303	-93.775	0.569	0.157
-614.288	-163.900	-0.503	0.024
-613.273	184.503	0.279	-0.415
-612.259	-200.000	-0.003	-0.376
-611.244	41.898	-0.475	-0.433
-610.230	800.000	0.158	-0.632
-609.215	64.371	-0.209	-0.211
-608.201	203.366	-0.226	0.351
-607.186	-34.115	0.297	0.163
-606.171	800.000	-0.050	-0.155
-605.157	-200.000	-0.103	-0.787
-604.142	-200.000	-0.084	1.057
-603.128	-200.000	0.026	-0.434
-602.113	198.480	-0.417	-0.639
-601.098	-107.345	-0.574	-0.127
-600.084	-167.472	0.498	0.020
-599.069	-200.000	-0.200	0.979
-598.055	783.014	-0.383	-1.051
-597.040	50.543	0.196	-0.186
-596.025	378.016	0.364	-0.746
-595.011	-115.592	-0.209	0.039
-593.996	552.921	-0.159	0.384
-592.982	51.134	-0.406	0.386
-591.967	29.810	0.038	-0.033
-590.952	-21.720	-0.336	0.205
-589.938	800.000	-0.314	-0.906
-588.923	20.314	0.429	-0.347
-587.909	-31.505	-0.487	0.275
-586.894	90.080	-0.244	0.274
-585.879	-61.513	-0.616	0.259
-584.865	-200.000	0.111	-0.515
-583.850	-26.814	0.573	0.336
-582.836	264.083	-0.150	-0.262
-581.821	-144.746	0.673	-0.062
-580.806	102.007	-0.221	0.258
-579.792	-79.402	0.938	-0.318
-578.777	-121.247	0.529	0.089
-577.763	800.000	0.140	0.508
-576.748	325.969	0.144	0.276
-575.733	707.040	0.074	-0.195
-574.719	-200.000	-0.092	0.658
-573.704	-93.032	-0.271	-0.076
-572.690	-200.000	0.045	0.207
-571.675	-200.000	-0.198	0.881
-570.661	38.523	-0.327	-0.292
-569.646	-20.507	-0.299	0.184
-568.631	345.102	-0.206	0.405
-567.617	-13.868	0.776	-0.502
-566.602	-140.248	0.882	0.093
-565.588	-106.119	0.527	0.119
-564.573	-75.019	0.189	-0.068
-563.558	331.448	0.402	0.776
-562.544	469.168	0.079	-0.178
-561.529	38.193	0.636	0.567
-560.515	-83.587	-0.331	-0.106
-559.500	161.430	-0.283	0.397
-558.485	154.440	0.521	-0.716
-557.471	537.299	-0.221	-0.526
-556.456	-200.000	-0.132	-0.840
-555.442	73.395	-0.633	0.663
-554.427	800.000	-0.068	0.202
-553.412	-156.210	0.939	0.059
-552.398	-196.944	-0.401	-0.003
-551.383	-104.477	0.218	-0.051
-550.369	-43.278	0.370	0.187
-549.354	40.966	0.321	-0.290
-548.339	-28.572	0.598	-0.345
-547.325	97.459	0.124	0.143
-546.310	6.661	-0.740	0.551
-545.296	394.192	-0.260	0.542
-544.281	197.264	0.312	-0.477
-543.266	-24.928	0.485	-0.288
-542.252	-89.583	0.406	-0.119
-541.237	188.935	-0.066	0.099
-540.223	800.000	0.116	0.414
-539.208	41.553	-0.361	-0.327
-538.193	-200.000	-0.040	-0.429
-537.179	-200.000	0.002	0.641
-536.164	-114.307	-0.222	0.043
-535.150	-75.650	0.083	0.030
-534.135	-121.481	0.432	0.072
-533.121	800.000	0.271	-0.761
-532.106	-200.000	-0.146	-0.754
-531.091	-108.565	0.713	-0.153
-530.077	60.405	-0.217	-0.215
-529.062	-200.000	0.073	0.435
-528.048	432.744	-0.255	0.553
-527.033	-51.801	-0.524	0.244
-526.018	-200.000	-0.106	0.799
-525.004	181.816	0.207	-0.305
-523.989	360.736	0.149	0.299
-522.975	-117.111	0.719	-0.131
-521.960	-33.110	-0.551	0.306
-520.945	800.000	0.154	-0.602
-519.931	-68.071	0.668	0.260
-518.916	-119.705	-0.600	-0.104
-517.902	-200.000	0.018	-0.375
-516.887	78.309	0.255	0.273
-515.872	-200.000	-0.150	1.219
-514.858	440.359	0.192	0.420
-513.843	120.862	0.193	0.240
-512.829	-65.710	0.371	-0.148
-511.814	329.061	-0.436	-0.837
-510.799	-200.000	-0.168	-0.938
-509.785	-200.000	-0.004	-0.471
-508.770	57.895	-0.225	0.220
-507.756	8.800	-0.561	0.423
-506.741	742.362	-0.263	0.707
-505.726	155.340	0.695	0.956
-504.712	32.022	-0.314	-0.271
-503.697	166.178	-0.471	-0.666
-502.683	382.103	0.222	-0.457
-501.668	-200.000	-0.136	-0.732
-500.653	-4.117	-0.487	-0.337
-499.639	20.263	0.556	-0.448
-498.624	-44.900	-0.415	-0.206
-497.610	-151.064	-0.423	-0.032
-496.595	-77.508	-0.722	-0.250
-495.581	-28.929	0.146	0.084
-494.566	-10.216	0.829	-0.549
-493.551	-200.000	0.022	0.926
-492.537	-200.000	-0.002	-0.018
-491.522	203.117	-0.162	-0.251
-490.508	-39.665	0.432	-0.225
-489.493	567.352	0.171	-0.415
-488.478	224.364	-0.283	-0.457
-487.464	63.117	0.119	-0.119
-486.449	31.995	-0.730	0.628
-485.435	-14.286	-0.151	0.097
-484.420	230.096	0.373	-0.609
-483.405	37.174	0.381	-0.337
-482.391	-101.973	0.526	0.127
-481.376	-197.765	-0.265	-0.002
-480.362	800.000	-0.082	-0.255
-479.347	-175.961	-0.994	0.026
-478.332	-200.000	0.006	0.774
-477.318	537.832	-0.130	-0.308
-476.303	94.368	0.418	-0.474
-475.289	529.870	0.134	0.317
-474.274	278.223	0.564	-1.002
-473.259	-96.840	-0.650	-0.170
-472.245	254.362	0.272	0.464
-471.230	-200.000	-0.156	1.121
-470.216	-46.960	0.169	0.082
-469.201	800.000	0.065	-0.227
-468.186	-44.553	0.752	-0.375
-467.172	-200.000	-0.020	0.549
-466.157	241.166	-0.474	0.789
-465.143	-42.558	0.368	-0.187
-464.128	73.432	-0.364	-0.380
-463.113	149.435	0.203	-0.275
-462.099	-110.189	0.499	0.104
-461.084	73.701	0.122	-0.128
-460.070	-45.663	1.068	-0.527
-459.055	35.818	-0.780	-0.684
-458.040	-30.268	-0.901	-0.510
-457.026	-71.349	0.277	0.104
-456.011	-108.851	-0.509	0.108
-454.997	-39.735	1.208	-0.630
-453.982	-103.046	-0.429	0.101
-452.968	-4.397	-0.376	0.259
-451.953	800.000	-0.066	0.181
-450.938	47.251	-0.852	0.791
-449.924	-57.132	0.303	0.133
-448.909	-124.307	0.412	-0.064
-447.895	80.284	-0.269	0.289
-446.880	-0.801	-0.305	0.215
-445.865	260.174	0.090	0.155
-444.851	-67.457	0.500	-0.196
-443.836	-66.813	0.501	-0.197
-442.822	-91.807	-0.863	0.244
-441.807	470.586	0.147	0.329
-440.792	-74.880	0.629	-0.225
-439.778	267.134	-0.316	-0.550
-438.763	50.923	-0.441	-0.416
-437.749	-7.645	0.551	-0.371
-436.734	16.189	0.251	-0.197
-435.719	800.000	0.108	-0.466
-434.705	-36.285	0.240	-0.129
-433.690	318.022	-0.437	0.825
-432.676	52.689	-0.498	0.474
-431.661	41.661	0.723	-0.652
-430.646	-50.288	-0.231	0.109
-429.632	-200.000	-0.100	0.439
-428.617	-200.000	-0.008	0.693
-427.603	-75.686	0.499	0.177
-426.588	-37.450	-0.329	0.175
-425.573	17.418	0.313	-0.247
-424.559	206.193	0.221	-0.342
-423.544	-16.229	-0.354	-0.224
-422.530	25.535	0.148	-0.123
-421.515	798.037	0.117	-0.322
-420.500	63.964	-0.404	-0.404
-419.486	-200.000	0.048	-0.973
-418.471	-71.724	0.372	0.138
-417.457	-141.338	0.550	0.056
-416.442	-150.033	0.534	0.041
-415.428	177.143	0.113	-0.164
-414.413	800.000	0.208	-0.849
-413.398	24.667	-0.246	-0.203
-412.384	-84.910	0.332	-0.104
-411.369	-68.432	-0.858	-0.332
-410.355	-34.274	0.826	0.451
-409.340	-132.764	0.905	-0.115
-408.325	-24.577	-0.272	-0.161
-407.311	-150.792	-0.374	0.028
-406.296	66.822	-0.320	-0.324
-405.282	-47.869	-0.684	-0.330
-404.267	227.486	-0.230	0.372
-403.252	-66.271	-0.372	0.147
-402.238	-12.981	0.435	-0.282
-401.223	-200.000	-0.062	0.272
-400.209	-183.847	-0.255	-0.004
-399.194	28.061	-0.446	0.374
-398.179	-89.900	-0.896	0.260
-397.165	141.666	-0.430	-0.567
-396.150	-200.000	0.040	-0.187
-395.136	800.000	0.121	-0.459
-394.121	800.000	-0.059	0.214
-393.106	654.004	0.321	-0.818
-392.092	-127.127	0.347	0.051
-391.077	-88.962	-0.948	0.279
-390.063	800.000	0.033	-0.122
-389.048	188.607	0.159	-0.237
-388.033	-172.860	-0.050	0.002
-387.019	-139.021	-0.481	-0.052
-386.004	13.951	0.367	-0.284
-384.990	-139.475	-0.967	-0.103
-383.975	771.458	-0.189	-0.512
-382.960	-33.550	-0.259	-0.142
-381.946	-200.000	-0.044	0.281
-380.931	0.384	0.391	0.278
-379.917	37.130	0.344	0.303
-378.902	436.816	0.324	0.702
-377.888	80.409	-0.060	-0.064
-376.873	332.508	0.360	0.692
-375.858	-129.650	0.519	-0.071
-374.844	556.995	0.041	0.097
-373.829	52.160	0.266	0.252
-372.815	107.173	-0.606	-0.716
-371.800	54.950	0.225	-0.216
-370.785	269.028	-0.143	0.250
-369.771	-200.000	0.034	0.590
-368.756	-114.948	-0.225	0.043
-367.742	125.498	-0.353	-0.442
-366.727	-85.431	-0.284	-0.088
-365.712	342.531	-0.251	0.489
-364.698	130.555	-0.581	-0.740
-363.683	125.140	0.223	-0.280
-362.669	35.764	0.212	0.185
-361.654	-61.962	-0.380	-0.158
-360.639	201.131	-0.642	0.982
-359.625	-200.000	0.052	-0.295
-358.610	-200.000	-0.015	0.445
-357.596	800.000	0.239	-0.935
-356.581	-71.227	-0.794	0.296
-355.566	-102.961	0.510	0.120
-354.552	125.323	0.159	0.199
-353.537	-76.701	0.635	0.221
-352.523	1.339	0.460	-0.328
-351.508	10.158	-0.746	0.563
-350.493	-72.575	-0.565	-0.207
-349.479	-24.327	0.049	-0.029
-348.464	204.707	-0.400	-0.616
-347.450	52.466	0.391	-0.371
-346.435	157.081	0.334	0.459
-345.420	220.059	0.228	0.362
-344.406	371.274	0.200	0.402
-343.391	-159.705	-1.012	-0.055
-342.377	800.000	0.328	0.955
-341.362	1.378	-0.615	0.439
-340.348	-95.310	-0.097	-0.026
-339.333	111.071	0.446	-0.533
-338.318	109.511	-0.291	0.346
-337.304	800.000	0.446	1.305
-336.289	143.198	-0.278	0.367
-335.275	-80.848	-0.234	0.077
-334.260	-23.101	0.634	0.379
-333.245	-190.044	-0.236	-0.003
-332.231	-200.000	-0.032	0.150
-331.216	-18.161	0.167	0.104
-330.202	30.409	0.409	-0.346
-329.187	155.394	-0.255	0.348
-328.172	-11.520	0.319	-0.208
-327.158	-147.937	-1.007	0.083
-326.143	-97.394	0.081	0.021
-325.129	800.000	0.041	-0.175
-324.114	-52.052	-0.668	0.308
-323.099	-145.597	-0.417	-0.037
-322.085	36.961	-0.319	0.280
-321.070	-200.000	0.180	-0.840
-320.056	58.364	0.404	0.393
-319.041	63.029	-0.355	-0.353
-318.026	-122.846	-0.256	0.041
-317.012	-200.000	0.053	-0.325
-315.997	-200.000	-0.031	0.155
-314.983	-178.726	-1.234	-0.028
-313.968	10.298	0.170	-0.128
-312.953	-81.962	0.218	-0.071
-311.939	308.496	0.236	0.437
-310.924	31.458	0.574	0.489
-309.910	800.000	-0.130	-0.406
-308.895	-200.000	-0.081	-0.473
-307.880	800.000	-0.178	0.668
-306.866	-93.383	-0.188	-0.052
-305.851	76.666	0.465	0.488
-304.837	-46.627	-0.647	0.314
-303.822	800.000	0.127	0.430
-302.807	-200.000	-0.054	0.653
-301.793	-36.036	0.272	-0.146
-300.778	800.000	-0.210	0.727
-299.764	-200.000	0.172	-0.854
-298.749	33.518	-0.403	-0.347
-297.735	303.415	0.215	0.395
-296.720	-75.303	-0.498	0.176
-295.705	800.000	-0.068	0.212
-294.691	-200.000	-0.018	0.602
-293.676	-56.096	-1.237	0.546
-292.662	-51.440	-0.830	0.384
-291.647	-200.000	-0.030	-0.311
-290.632	800.000	-0.121	0.430
-289.618	575.768	-0.061	-0.147
-288.603	312.914	-0.119	0.222
-287.589	-110.917	-0.126	-0.026
-286.574	26.567	0.671	0.556
-285.559	-77.405	0.908	0.312
-284.545	-81.809	1.021	-0.331
-283.530	573.658	0.145	0.350
-282.516	-82.229	1.185	-0.382
-281.501	-200.000	0.016	-0.515
-280.486	-61.613	0.330	-0.137
-279.472	-116.583	0.213	0.039
-278.457	195.582	0.401	0.604
-277.443	-91.762	-1.092	-0.307
-276.428	1.740	-0.268	0.191
-275.413	-140.874	0.777	-0.079
-274.399	106.211	0.202	-0.237
-273.384	605.692	0.452	1.114
-272.370	-200.000	-0.032	-0.467
-271.355	-142.682	-0.531	0.051
-270.340	378.036	0.165	-0.335
-269.326	268.819	-0.157	0.272
-268.311	7.760	0.641	0.475
-267.297	-155.186	0.717	-0.046
-266.282	382.974	0.173	-0.351
-265.267	21.930	-0.226	-0.182
-264.253	-41.211	0.286	-0.146
-263.238	-25.572	-0.453	0.265
-262.224	800.000	-0.168	-0.497
-261.209	800.000	-0.099	0.338
-260.195	222.983	-0.135	0.216
-259.180	721.439	-0.024	-0.063
-258.165	-17.282	0.495	-0.309
-257.151	248.271	-0.063	0.106
-256.136	-45.666	-0.304	0.149
-255.122	355.882	-0.315	-0.621
-254.107	7.073	0.465	0.343
-253.092	-200.000	-0.032	0.876
-252.078	800.000	0.135	0.429
-251.063	-110.358	0.222	0.046
-250.049	50.773	0.570	0.534
-249.034	7.803	-0.188	-0.139
-248.019	129.710	-0.179	0.226
-247.005	800.000	-0.098	0.351
-245.990	800.000	-0.066	0.233
-244.976	-200.000	-0.189	-1.161
-243.961	-62.195	-0.419	0.173
-242.946	-83.605	0.547	0.173
-241.932	-100.457	-0.855	-0.209
-240.917	-139.542	-0.381	0.040
-239.903	800.000	-0.130	0.484
-238.888	38.179	0.343	0.302
-237.873	-77.450	-0.256	0.088
-236.859	-12.528	-0.329	0.212
-235.844	-200.000	-0.074	0.665
-234.830	-200.000	-0.055	0.407
-233.815	-158.521	-0.221	-0.013
-232.800	212.993	-0.201	0.314
-231.786	78.104	0.597	-0.630
-230.771	-1.064	0.388	0.271
-229.757	-95.627	-0.781	-0.207
-228.742	-59.354	0.592	-0.252
-227.727	69.833	0.498	0.507
-226.713	-200.000	0.204	1.083
-225.698	-0.515	0.333	-0.234
-224.684	-62.684	-0.414	-0.170
-223.669	-147.096	-0.441	-0.037
-222.655	-200.000	0.129	-0.599
-221.640	-46.402	-0.422	0.205
-220.625	-29.542	0.540	-0.305
-219.611	36.122	-0.188	-0.164
-218.596	-99.196	-0.211	-0.053
-217.582	91.018	-0.264	-0.293
-216.567	-200.000	0.054	-0.505
-215.552	31.438	0.388	-0.329
-214.538	4.441	0.339	-0.245
-213.523	-111.579	-0.832	0.167
-212.509	-200.000	0.040	-0.181
-211.494	242.326	-0.433	-0.716
-210.479	589.755	0.329	0.801
-209.465	324.985	0.117	-0.221
-208.450	252.197	0.247	0.416
-207.436	800.000	-0.108	-0.433
-206.421	-15.748	0.268	0.169
-205.406	142.622	0.306	0.402
-204.392	301.324	0.289	-0.527
-203.377	800.000	0.201	-0.711
-202.363	38.030	0.038	0.033
-201.348	-14.002	-1.083	-0.690
-200.333	-103.695	0.919	0.213
-199.319	534.024	0.425	-0.995
-198.304	800.000	-0.223	0.768
-197.290	-154.234	-0.420	-0.028
-196.275	-35.058	0.288	-0.155
-195.260	-125.931	0.856	0.127
-194.246	-104.940	-0.831	0.188
-193.231	-14.361	-0.105	-0.066
-192.217	-13.590	-0.627	0.401
-191.202	129.930	0.383	-0.483
-190.187	800.000	0.208	-0.857
-189.173	-25.575	-0.404	0.235
-188.158	800.000	-0.012	-0.044
-187.144	390.599	-0.186	0.380
-186.129	38.374	-0.286	0.252
-185.114	63.602	0.222	-0.220
-184.100	-18.054	0.122	-0.075
-183.085	322.958	0.259	-0.487
-182.071	-50.552	0.422	-0.196
-181.056	-200.000	-0.062	-0.345
-180.042	-49.242	-0.304	-0.143
-179.027	-200.000	-0.020	0.309
-178.012	-146.101	-0.368	-0.032
-176.998	800.000	-0.097	0.291
-175.983	214.449	-0.200	-0.312
-174.969	7.378	0.234	-0.173
-173.954	-200.000	-0.055	-0.336
-172.939	-81.999	1.340	-0.432
-171.925	-1.304	0.288	-0.200
-170.910	-200.000	0.038	-0.233
-169.896	424.004	-0.295	-0.626
-168.881	-75.438	-0.956	-0.336
-167.866	133.212	-0.256	0.326
-166.852	83.608	-0.302	0.325
-165.837	800.000	0.085	0.288
-164.823	-200.000	0.000	0.632
-163.808	-13.016	-0.928	0.595
-162.793	-44.282	0.663	0.327
-161.779	-200.000	0.021	-0.548
-160.764	4.615	-0.254	0.184
-159.750	516.286	-0.167	-0.386
-158.735	153.153	0.211	-0.285
-157.720	800.000	-0.099	-0.291
-156.706	645.082	0.134	-0.336
-155.691	12.687	0.183	-0.140
-154.677	-87.980	0.821	0.243
-153.662	20.143	-0.832	-0.662
-152.647	-89.904	0.516	0.149
-151.633	-200.000	0.009	0.338
-150.618	-125.381	0.656	0.099
-149.604	635.321	-0.127	-0.317
-148.589	188.607	-0.450	-0.663
-147.574	-70.504	0.946	0.353
-146.560	12.556	0.300	-0.228
-145.545	-9.788	0.816	-0.535
-144.531	202.740	0.419	-0.637
-143.516	800.000	-0.032	0.090
-142.502	541.273	-0.235	0.551
-141.487	-14.782	0.683	0.432
-140.472	-200.000	-0.054	-0.263
-139.458	23.729	0.622	-0.504
-138.443	279.088	-0.302	-0.531
-137.429	-179.863	-0.680	-0.014
-136.414	-65.127	0.462	-0.184
-135.399	-162.454	-0.592	-0.029
-134.385	800.000	0.353	-1.014
-133.370	800.000	-0.130	0.475
-132.356	-27.560	0.505	0.289
-131.341	-200.000	-0.091	0.575
-130.326	800.000	0.167	0.629
-129.312	-200.000	-0.053	-0.229
-128.297	14.397	-0.233	-0.179
-127.283	-135.351	-1.272	-0.150
-126.268	-200.000	0.038	-0.259
-125.253	314.414	0.326	0.603
-124.239	-200.000	-0.155	-0.682
-123.224	323.738	-0.175	0.329
-122.210	186.477	0.569	0.834
-121.195	-40.206	0.213	0.109
-120.180	19.394	-0.347	-0.274
