DTS Sentinel unit serial number:	SN413079Multiplexer serial number:	ORYXHardware model number:	OX4-SRSoftware version number:	ORYX F/W v4.00 Oryx Data Collector v3.7.2.0data status	okinstallation	princeton_trtdifferential loss correction	single-endedforward channel	channel 2reverse channel	N/Adate	2019/09/13time	11:59:35forward acquisition time	60.00reverse acquisition time	0.00gamma	496.2192k internal	0.2316k external	0.2316temperature offset calibration	1.0212default loss term (dB/km)	0.3790temperature slope calibration	1.0000multiplexer offset coefficient	1.0000multiplexer slope coefficient	1.0000fibre end	0.00T internal ref (°C)	33.56T ext. ref 1 (°C)	4.59T ext. ref 2 (°C)	30.86length (m)	temperature (°C)	Stokes	anti-Stokes-747.200	-73.748	-0.365	-0.134
-746.185	546.819	0.127	0.307
-745.171	-84.698	0.086	0.028
-744.156	181.904	-0.178	0.265
-743.142	-73.972	0.307	0.113
-742.127	-1.764	-0.146	0.104
-741.112	50.740	0.168	-0.161
-740.098	800.000	0.076	0.222
-739.083	-200.000	0.026	-0.266
-738.069	-74.344	-0.442	0.162
-737.054	-98.340	-0.344	0.089
-736.039	26.237	0.158	-0.133
-735.025	251.385	0.157	0.270
-734.010	122.826	-0.049	0.062
-732.996	183.589	-0.037	-0.056
-731.981	800.000	0.036	-0.113
-730.966	-200.000	0.014	-0.247
-729.952	-71.646	-0.060	-0.023
-728.937	-200.000	0.015	0.111
-727.923	26.353	-0.261	0.221
-726.908	32.501	-0.151	0.132
-725.894	-117.561	-0.500	-0.091
-724.879	-18.524	0.155	-0.098
-723.864	800.000	-0.026	-0.088
-722.850	800.000	0.023	-0.093
-721.835	-94.501	-0.220	-0.061
-720.821	800.000	0.037	-0.102
-719.806	-85.129	-0.109	0.034
-718.791	64.625	0.120	-0.122
-717.777	-96.344	-0.050	-0.013
-716.762	50.620	0.060	0.058
-715.748	-200.000	-0.007	0.109
-714.733	-115.823	-0.190	-0.036
-713.718	-100.285	-0.157	-0.039
-712.704	80.540	0.090	-0.098
-711.689	-200.000	-0.003	-0.135
-710.675	51.748	0.405	-0.390
-709.660	68.811	-0.181	-0.188
-708.645	-155.961	0.251	0.016
-707.631	-40.359	0.083	-0.044
-706.616	-27.007	0.213	-0.126
-705.602	-144.111	0.187	0.018
-704.587	-118.839	-0.229	0.041
-703.572	-200.000	0.075	0.332
-702.558	9.240	-0.212	0.162
-701.543	265.133	-0.079	-0.139
-700.529	-71.271	-0.032	0.012
-699.514	-200.000	0.031	-0.187
-698.499	800.000	-0.166	-0.510
-697.485	-102.798	-0.259	0.062
-696.470	-200.000	0.053	-0.339
-695.456	-85.231	0.388	-0.123
-694.441	510.494	-0.124	-0.293
-693.426	-105.235	0.159	-0.037
-692.412	-200.000	0.030	-0.307
-691.397	-200.000	0.035	-0.172
-690.383	-8.878	0.190	-0.129
-689.368	800.000	-0.029	-0.124
-688.354	-142.755	-0.133	0.013
-687.339	-200.000	0.050	-0.260
-686.324	-200.000	0.051	0.276
-685.310	-38.480	0.140	0.075
-684.295	191.980	-0.176	-0.269
-683.281	350.469	0.051	0.102
-682.266	732.437	0.099	-0.267
-681.251	-76.388	0.092	-0.033
-680.237	428.180	-0.045	0.098
-679.222	-139.152	-0.284	-0.031
-678.208	-200.000	-0.021	-0.203
-677.193	319.435	-0.139	-0.266
-676.178	316.475	0.018	0.034
-675.164	-97.201	-0.225	0.059
-674.149	76.684	-0.235	-0.251
-673.135	261.190	-0.393	-0.687
-672.120	66.824	0.039	-0.040
-671.105	-167.913	0.074	-0.003
-670.091	-200.000	-0.010	0.128
-669.076	-200.000	0.005	-0.039
-668.062	-8.681	-0.276	-0.187
-667.047	-104.756	-0.523	-0.122
-666.032	-200.000	-0.015	-0.255
-665.018	-200.000	0.045	0.205
-664.003	-50.146	-0.135	0.065
-662.989	92.389	-0.118	-0.134
-661.974	-82.649	0.021	-0.007
-660.959	-200.000	-0.039	0.209
-659.945	197.081	-0.201	-0.310
-658.930	-145.977	-0.457	-0.041
-657.916	-110.201	0.096	0.020
-656.901	-200.000	-0.032	0.168
-655.886	-34.908	0.080	-0.044
-654.872	432.423	0.082	-0.180
-653.857	-200.000	-0.019	-0.126
-652.843	98.590	0.155	0.181
-651.828	-200.000	-0.006	0.065
-650.814	-58.020	0.324	0.143
-649.799	800.000	-0.084	-0.276
-648.784	-200.000	-0.008	0.053
-647.770	-200.000	-0.010	0.188
-646.755	-161.958	-0.434	0.022
-645.741	-86.373	-0.302	-0.094
-644.726	800.000	0.022	-0.071
-643.711	25.317	0.182	0.153
-642.697	-25.833	-0.356	0.212
-641.682	-156.541	-0.186	0.012
-640.668	-200.000	0.100	0.531
-639.653	24.156	-0.122	0.102
-638.638	-200.000	0.013	0.298
-637.624	-200.000	0.085	0.495
-636.609	-160.063	0.315	-0.017
-635.595	466.269	0.146	0.331
-634.580	191.045	-0.041	-0.063
-633.565	-200.000	0.057	-0.336
-632.551	45.859	0.115	0.107
-631.536	66.293	0.071	0.073
-630.522	-200.000	-0.002	0.216
-629.507	-132.454	0.215	0.028
-628.492	-52.645	0.206	0.096
-627.478	33.943	-0.370	-0.325
-626.463	92.469	0.255	0.290
-625.449	107.717	0.076	0.091
-624.434	800.000	0.132	-0.408
-623.419	234.992	-0.183	0.305
-622.405	-23.055	-0.347	-0.211
-621.390	59.802	0.102	0.102
-620.376	-149.844	0.148	-0.012
-619.361	88.342	0.116	0.130
-618.346	-103.820	0.211	0.050
-617.332	-19.859	-0.215	0.134
-616.317	-177.938	-0.263	-0.006
-615.303	40.248	0.090	-0.081
-614.288	260.901	0.066	0.116
-613.273	-200.000	0.015	0.079
-612.259	128.571	-0.194	-0.250
-611.244	-10.028	0.038	-0.025
-610.230	69.233	-0.284	0.294
-609.215	69.035	0.140	-0.145
-608.201	-138.056	-0.102	0.011
-607.186	-108.344	-0.214	-0.047
-606.171	-67.430	0.050	0.020
-605.157	158.057	-0.043	0.060
-604.142	218.218	0.136	-0.219
-603.128	200.144	0.058	-0.090
-602.113	-86.150	-0.257	-0.080
-601.098	-200.000	-0.280	0.000
-600.084	-100.245	-0.294	-0.074
-599.069	-144.589	-0.144	0.013
-598.055	39.090	0.100	-0.090
-597.040	1.498	-0.367	0.266
-596.025	800.000	-0.037	0.145
-595.011	800.000	0.101	0.394
-593.996	-76.335	0.124	0.044
-592.982	-95.168	-0.113	-0.031
-591.967	-92.772	0.284	0.080
-590.952	-200.000	-0.022	-0.139
-589.938	475.625	-0.124	-0.282
-588.923	-23.856	-0.083	-0.050
-587.909	800.000	-0.073	-0.223
-586.894	707.408	0.048	-0.128
-585.879	-119.424	0.258	-0.045
-584.865	-101.339	-0.099	0.024
-583.850	800.000	-0.113	-0.405
-582.836	-142.831	-0.178	-0.017
-581.821	-83.581	0.252	0.081
-580.806	-126.278	0.319	0.048
-579.792	-157.387	0.147	0.009
-578.777	800.000	-0.038	0.159
-577.763	0.661	-0.287	-0.207
-576.748	-200.000	-0.009	-0.226
-575.733	-200.000	0.002	0.354
-574.719	-6.999	0.163	0.111
-573.704	-63.916	-0.210	-0.086
-572.690	114.825	-0.205	-0.252
-571.675	-200.000	0.035	-0.172
-570.661	-200.000	-0.047	-0.417
-569.646	33.293	0.120	0.105
-568.631	131.880	0.323	0.418
-567.617	-153.222	-0.098	-0.007
-566.602	-113.476	-0.383	-0.075
-565.588	35.270	0.112	-0.098
-564.573	7.241	-0.238	0.179
-563.558	72.795	-0.228	-0.240
-562.544	31.610	0.077	0.067
-561.529	800.000	-0.046	0.132
-560.515	-19.074	-0.399	-0.250
-559.500	647.562	-0.126	0.323
-558.485	469.062	0.157	0.355
-557.471	-168.776	0.173	0.007
-556.456	-14.439	0.254	0.165
-555.442	215.698	0.062	0.100
-554.427	134.722	0.110	0.144
-553.412	-86.668	-0.186	0.057
-552.398	-200.000	-0.015	-0.228
-551.383	-200.000	-0.011	-0.274
-550.369	-43.883	-0.507	-0.257
-549.354	-131.883	-0.280	0.037
-548.339	800.000	-0.109	-0.442
-547.325	118.387	0.271	-0.336
-546.310	-117.476	-0.241	0.044
-545.296	800.000	0.096	-0.268
-544.281	114.119	0.250	-0.306
-543.266	203.066	0.036	0.057
-542.252	366.414	-0.133	-0.269
-541.237	487.780	-0.032	0.074
-540.223	-200.000	0.006	-0.090
-539.208	-200.000	0.032	0.173
-538.193	40.529	0.166	0.150
-537.179	213.247	-0.098	0.155
-536.164	-49.648	0.182	0.087
-535.150	-72.281	0.248	0.092
-534.135	-138.161	-0.334	-0.037
-533.121	800.000	0.080	0.278
-532.106	-200.000	0.041	0.233
-531.091	-106.133	-0.270	-0.061
-530.077	-4.125	-0.118	-0.082
-529.062	-200.000	-0.000	0.353
-528.048	461.361	-0.090	-0.203
-527.033	246.855	0.175	0.296
-526.018	368.070	0.089	0.180
-525.004	343.218	-0.131	0.257
-523.989	-107.375	-0.236	0.052
-522.975	-137.098	0.205	0.023
-521.960	29.226	0.072	0.061
-520.945	-200.000	-0.017	-0.380
-519.931	-200.000	0.004	-0.266
-518.916	77.349	-0.113	0.121
-517.902	800.000	-0.060	0.256
-516.887	-200.000	0.006	-0.174
-515.872	-32.747	-0.238	0.133
-514.858	69.199	0.082	0.084
-513.843	349.102	0.122	0.242
-512.829	657.632	0.024	0.062
-511.814	11.501	0.231	0.178
-510.799	-200.000	-0.026	0.330
-509.785	668.556	-0.048	0.125
-508.770	800.000	-0.075	0.314
-507.756	-200.000	0.003	-0.227
-506.741	286.241	0.138	-0.251
-505.726	-17.669	0.050	-0.031
-504.712	0.106	-0.168	0.120
-503.697	216.998	-0.177	0.282
-502.683	-200.000	-0.008	0.124
-501.668	-23.125	-0.160	-0.097
-500.653	581.279	-0.161	-0.396
-499.639	800.000	-0.045	-0.154
-498.624	-200.000	-0.011	-0.059
-497.610	522.647	-0.144	-0.340
-496.595	-200.000	0.005	-0.184
-495.581	171.114	0.175	-0.252
-494.566	-55.427	-0.190	0.085
-493.551	-49.391	0.400	-0.192
-492.537	431.780	0.138	0.299
-491.522	-57.793	0.030	0.013
-490.508	-50.086	0.074	0.035
-489.493	134.527	0.168	0.219
-488.478	-78.194	0.158	0.054
-487.464	220.666	0.132	0.212
-486.449	-44.844	0.207	-0.103
-485.435	6.320	-0.211	-0.157
-484.420	-85.600	-0.372	-0.116
-483.405	716.415	0.060	-0.161
-482.391	-64.614	0.251	-0.102
-481.376	439.432	-0.131	-0.286
-480.362	-200.000	0.016	-0.267
-479.347	-200.000	0.042	-0.205
-478.332	-103.214	-0.251	-0.060
-477.318	-28.343	0.080	-0.046
-476.303	632.327	-0.100	0.254
-475.289	300.896	-0.095	0.175
-474.274	-110.271	0.228	0.048
-473.259	363.257	-0.101	0.203
-472.245	-200.000	0.006	-0.112
-471.230	800.000	-0.043	0.172
-470.216	-58.828	-0.167	0.073
-469.201	184.123	0.286	0.424
-468.186	24.162	0.052	0.043
-467.172	281.798	-0.195	0.350
-466.157	-200.000	0.004	-0.042
-465.143	800.000	0.027	-0.109
-464.128	-10.114	-0.140	0.093
-463.113	43.462	-0.165	-0.151
-462.099	-156.925	0.277	-0.017
-461.084	146.281	0.220	-0.295
-460.070	43.806	0.123	-0.113
-459.055	358.896	0.126	-0.253
-458.040	-200.000	-0.002	0.023
-457.026	800.000	0.110	-0.311
-456.011	142.672	-0.192	-0.255
-454.997	25.096	0.196	-0.163
-453.982	-42.733	-0.189	-0.096
-452.968	-174.869	-0.166	0.005
-451.953	29.703	0.073	-0.062
-450.938	-40.008	0.267	0.139
-449.924	-200.000	-0.066	-0.329
-448.909	-64.768	0.423	0.172
-447.895	40.026	0.198	-0.178
-446.880	-53.814	0.209	-0.096
-445.865	124.606	-0.211	-0.266
-444.851	-119.662	-0.378	-0.065
-443.836	176.015	0.216	0.313
-442.822	-53.484	0.136	0.062
-441.807	24.810	0.081	0.067
-440.792	-65.038	-0.041	0.017
-439.778	78.826	-0.067	-0.072
-438.763	-146.360	-0.204	0.018
-437.749	113.374	-0.075	-0.091
-436.734	-200.000	-0.054	-0.243
-435.719	223.255	-0.194	-0.314
-434.705	365.145	0.227	-0.458
-433.690	13.574	0.212	0.165
-432.676	-27.907	0.121	-0.070
-431.661	693.365	0.081	-0.212
-430.646	-17.908	0.218	0.137
-429.632	800.000	-0.003	-0.011
-428.617	-200.000	-0.008	0.156
-427.603	33.499	-0.109	-0.094
-426.588	-133.007	0.460	0.059
-425.573	15.868	-0.105	0.082
-424.559	-80.579	-0.134	0.045
-423.544	-200.000	-0.041	-0.230
-422.530	-102.025	-0.193	0.047
-421.515	17.785	0.206	0.164
-420.500	23.117	0.303	0.248
-419.486	-16.825	-0.316	0.200
-418.471	135.860	-0.055	-0.072
-417.457	-200.000	0.083	-0.413
-416.442	-200.000	0.063	-0.282
-415.428	-94.301	-0.063	0.017
-414.413	-55.395	0.151	-0.068
-413.398	-1.401	0.126	0.089
-412.384	38.139	0.234	-0.208
-411.369	611.347	0.097	-0.242
-410.355	209.402	0.151	0.236
-409.340	241.904	-0.032	0.054
-408.325	10.910	0.255	0.195
-407.311	-200.000	0.027	-0.151
-406.296	117.229	-0.147	0.180
-405.282	-95.968	-0.050	0.013
-404.267	-200.000	0.013	-0.112
-403.252	114.053	-0.062	0.076
-402.238	800.000	-0.033	-0.095
-401.223	54.993	-0.119	-0.115
-400.209	277.483	-0.100	0.178
-399.194	-40.786	-0.118	-0.061
-398.179	-200.000	0.009	0.166
-397.165	-119.825	-0.092	0.016
-396.150	-186.607	-0.184	0.003
-395.136	-131.506	0.014	0.002
-394.121	188.874	0.114	0.170
-393.106	34.046	-0.145	0.126
-392.092	-78.588	-0.146	0.050
-391.077	-9.518	0.296	0.197
-390.063	32.950	-0.184	0.160
-389.048	341.752	-0.065	-0.126
-388.033	800.000	0.049	-0.164
-387.019	800.000	0.019	0.058
-386.004	-130.943	-0.354	0.047
-384.990	144.712	-0.265	0.354
-383.975	-154.493	0.128	0.009
-382.960	-149.411	-0.261	-0.021
-381.946	225.015	0.040	0.064
-380.931	-1.301	0.081	-0.057
-379.917	108.469	0.161	-0.192
-378.902	-64.801	-0.175	-0.071
-377.888	-168.002	-0.261	0.010
-376.873	-200.000	-0.013	0.086
-375.858	800.000	-0.131	0.426
-374.844	-199.269	0.075	-0.000
-373.829	-200.000	0.011	-0.105
-372.815	-63.660	0.209	0.085
-371.800	-59.515	-0.128	0.055
-370.785	191.126	0.067	-0.100
-369.771	93.839	-0.113	0.128
-368.756	-200.000	0.030	0.225
-367.742	-200.000	-0.007	-0.157
-366.727	-172.263	0.319	-0.010
-365.712	-75.824	0.027	-0.010
-364.698	31.749	-0.384	-0.330
-363.683	44.017	0.274	-0.251
-362.669	-45.131	0.191	0.095
-361.654	-51.615	-0.067	-0.031
-360.639	463.080	0.185	-0.413
-359.625	-107.010	0.337	0.074
-358.610	-128.301	0.105	0.015
-357.596	131.806	0.251	-0.322
-356.581	-1.245	-0.050	0.035
-355.566	91.626	0.024	0.027
-354.552	719.915	0.030	-0.079
-353.537	207.854	-0.081	-0.126
-352.523	-139.460	-0.171	0.018
-351.508	-200.000	-0.020	0.137
-350.493	44.899	0.251	0.230
-349.479	549.658	0.009	-0.022
-348.464	-200.000	0.057	-0.269
-347.450	337.996	-0.037	-0.071
-346.435	-69.879	0.048	-0.018
-345.420	180.653	0.132	-0.193
-344.406	-75.688	0.061	-0.022
-343.391	-159.638	-0.385	-0.021
-342.377	-200.000	-0.015	-0.270
-341.362	-200.000	-0.010	-0.264
-340.348	-86.758	-0.224	-0.068
-339.333	331.068	0.033	0.063
-338.318	-200.000	-0.030	0.202
-337.304	-5.481	0.392	-0.268
-336.289	338.125	-0.061	0.118
-335.275	-102.810	0.347	0.082
-334.260	-200.000	0.028	-0.363
-333.245	58.975	0.079	-0.078
-332.231	113.595	-0.159	-0.193
-331.216	-128.414	-0.326	-0.046
-330.202	-20.940	-0.347	0.212
-329.187	277.961	0.172	-0.306
-328.172	-27.886	0.063	-0.036
-327.158	44.267	0.089	-0.082
-326.143	800.000	-0.101	-0.302
-325.129	-23.680	0.215	0.128
-324.114	-29.841	0.192	0.109
-323.099	800.000	-0.064	-0.216
-322.085	19.633	-0.129	0.103
-321.070	-200.000	0.041	-0.306
-320.056	50.476	0.202	-0.190
-319.041	-67.611	-0.304	-0.119
-318.026	551.400	0.086	0.205
-317.012	148.586	-0.057	0.076
-315.997	-55.884	0.331	-0.147
-314.983	339.264	-0.107	0.208
-313.968	76.436	0.205	0.217
-312.953	-200.000	-0.011	0.255
-311.939	304.935	-0.131	0.242
-310.924	-99.210	0.182	0.046
-309.910	-44.294	-0.330	0.165
-308.895	376.661	0.066	0.134
-307.880	-200.000	-0.040	0.204
-306.866	-152.763	-0.075	0.005
-305.851	-166.843	-0.207	0.008
-304.837	-53.740	-0.098	0.044
-303.822	-88.429	0.062	-0.018
-302.807	-43.722	0.144	0.072
-301.793	-47.748	-0.035	-0.017
-300.778	-46.450	-0.253	-0.123
-299.764	51.805	0.191	-0.181
-298.749	-200.000	0.003	0.128
-297.735	-21.811	0.293	-0.178
-296.720	-200.000	0.008	0.062
-295.705	300.187	0.104	-0.191
-294.691	38.060	0.139	-0.123
-293.676	285.249	0.189	0.339
-292.662	-97.052	-0.532	-0.139
-291.647	-123.757	0.166	-0.026
-290.632	-200.000	0.016	0.103
-289.618	-200.000	0.001	0.034
-288.603	-37.651	-0.236	0.125
-287.589	-63.204	0.089	0.037
-286.574	285.628	-0.131	-0.235
-285.559	191.184	0.115	-0.172
-284.545	188.334	0.098	0.146
-283.530	-147.058	0.106	-0.009
-282.516	-94.764	-0.322	0.087
-281.501	389.272	-0.016	-0.033
-280.486	-109.140	0.360	0.076
-279.472	493.043	-0.010	0.023
-278.457	-67.510	0.048	-0.019
-277.443	-80.025	-0.048	0.016
-276.428	14.341	-0.296	0.230
-275.413	-38.570	0.105	0.055
-274.399	7.875	0.236	-0.176
-273.384	131.816	-0.053	-0.067
-272.370	79.201	-0.132	0.141
-271.355	105.743	0.333	0.391
-270.340	-200.000	-0.005	-0.300
-269.326	-92.803	-0.170	0.047
-268.311	164.023	-0.149	-0.209
-267.297	479.980	0.119	-0.268
-266.282	487.916	-0.058	-0.131
-265.267	-200.000	0.020	-0.130
-264.253	-200.000	-0.019	-0.145
-263.238	-25.931	-0.147	0.086
-262.224	-200.000	-0.026	0.141
-261.209	121.963	-0.155	0.192
-260.195	-89.354	-0.111	0.033
-259.180	-125.830	-0.281	-0.042
-258.165	-126.304	0.248	-0.037
-257.151	-65.347	-0.309	0.124
-256.136	-158.753	-0.340	0.019
-255.122	58.616	0.097	-0.094
-254.107	-200.000	0.006	-0.327
-253.092	16.592	0.062	-0.049
-252.078	-55.800	0.190	0.084
-251.063	-200.000	-0.013	-0.158
-250.049	320.352	-0.044	0.083
-249.034	-27.879	-0.341	-0.196
-248.019	22.156	-0.050	-0.041
-247.005	-20.465	-0.199	0.122
-245.990	-157.161	-0.068	0.004
-244.976	-107.474	0.092	-0.020
-243.961	-159.754	-0.410	-0.022
-242.946	308.477	0.084	0.156
-241.932	-38.992	-0.166	0.087
-240.917	-126.575	0.215	0.032
-239.903	414.846	-0.107	0.226
-238.888	-128.464	-0.145	-0.020
-237.873	599.100	-0.101	0.248
-236.859	618.075	-0.093	0.231
-235.844	-46.594	0.111	0.054
-234.830	-67.907	0.550	0.213
-233.815	-19.384	-0.198	0.122
-232.800	95.088	0.083	-0.094
-231.786	-52.877	0.104	0.047
-230.771	75.691	0.237	-0.249
-229.757	129.433	0.189	-0.240
-228.742	-15.470	0.165	-0.105
-227.727	-82.121	-0.078	-0.025
-226.713	-88.033	-0.263	0.078
-225.698	-138.096	-0.231	0.025
-224.684	800.000	-0.077	0.255
-223.669	-200.000	-0.036	0.247
-222.655	-80.343	0.365	0.121
-221.640	-144.910	0.128	-0.012
-220.625	341.180	0.037	-0.072
-219.611	163.204	-0.164	0.229
-218.596	-72.479	0.540	-0.198
-217.582	-125.012	0.433	-0.066
-216.567	168.574	-0.213	0.302
-215.552	-90.001	0.228	0.066
-214.538	800.000	-0.084	0.359
-213.523	800.000	0.084	-0.258
-212.509	-200.000	-0.025	-0.242
-211.494	-66.211	0.079	0.031
-210.479	275.955	-0.098	0.172
-209.465	-3.390	0.080	0.055
-208.450	-99.656	-0.208	0.052
-207.436	-38.260	-0.258	0.136
-206.421	239.439	-0.204	-0.337
-205.406	-200.000	0.011	0.125
-204.392	800.000	0.104	-0.343
-203.377	-200.000	0.007	-0.291
-202.363	-200.000	0.007	0.103
-201.348	-47.143	0.122	-0.059
-200.333	56.733	-0.061	0.059
-199.319	-128.007	0.449	0.064
-198.304	800.000	-0.063	0.263
-197.290	40.797	-0.137	0.122
-196.275	-200.000	0.004	-0.157
-195.260	45.910	0.113	0.104
-194.246	-200.000	-0.038	0.281
-193.231	-200.000	0.013	0.135
-192.217	4.396	-0.213	0.155
-191.202	-130.608	-0.115	0.015
-190.187	-200.000	0.005	0.088
-189.173	-200.000	0.060	0.381
-188.158	-200.000	-0.031	0.318
-187.144	31.987	-0.137	0.117
-186.129	91.435	0.421	-0.469
-185.114	-189.774	-0.189	-0.002
-184.100	698.669	0.032	0.084
-183.085	26.513	0.216	0.179
-182.071	-161.571	-0.243	0.012
-181.056	68.588	0.195	-0.198
-180.042	-21.832	0.213	-0.129
-179.027	-200.000	0.011	-0.227
-178.012	0.979	0.111	-0.079
-176.998	-129.524	0.578	-0.079
-175.983	413.675	-0.164	0.346
-174.969	-104.634	0.138	-0.031
-173.954	-127.252	-0.313	-0.045
-172.939	-19.545	0.076	-0.046
-171.925	203.569	0.120	-0.184
-170.910	96.425	-0.141	0.159
-169.896	23.351	-0.208	0.169
-168.881	2.410	0.129	-0.092
-167.866	800.000	-0.032	-0.099
-166.852	65.432	0.035	-0.035
-165.837	353.140	0.154	0.303
-164.823	90.574	0.146	-0.162
-163.808	20.720	-0.172	-0.138
-162.793	800.000	-0.057	-0.180
-161.779	157.071	0.244	-0.333
-160.764	-153.510	0.100	-0.007
-159.750	-102.801	-0.109	0.026
-158.735	-200.000	0.047	0.299
-157.720	10.003	-0.078	-0.059
-156.706	-111.882	-0.103	0.021
-155.691	-172.040	0.177	0.006
-154.677	-200.000	-0.012	0.189
-153.662	-66.646	-0.183	0.072
-152.647	-200.000	0.003	-0.127
-151.633	-118.770	0.310	0.054
-150.618	156.373	0.106	-0.144
-149.604	-26.163	0.359	-0.209
-148.589	278.591	0.060	0.107
-147.574	34.131	0.165	-0.142
-146.560	169.390	0.153	-0.216
-145.545	67.472	-0.090	-0.091
-144.531	658.192	0.014	0.037
-143.516	261.690	0.052	-0.088
-142.502	-200.000	-0.008	0.054
-141.487	472.909	-0.097	0.217
-140.472	504.978	-0.185	0.423
-139.458	-37.332	0.205	-0.108
-138.443	3.944	0.361	0.261
-137.429	14.152	-0.163	0.126
-136.414	140.644	0.142	0.185
-135.399	-136.369	0.258	-0.030
-134.385	-160.164	-0.256	0.014
-133.370	-50.856	-0.087	0.040
-132.356	-35.311	0.059	0.032
-131.341	-75.098	-0.132	-0.047
-130.326	19.748	0.305	-0.243
-129.312	31.892	-0.244	0.208
-128.297	-200.000	-0.036	0.178
-127.283	-93.605	-0.282	0.077
-126.268	-200.000	-0.012	-0.070
-125.253	198.082	0.071	-0.107
-124.239	-200.000	0.002	0.212
-123.224	190.542	-0.043	-0.064
-122.210	172.797	0.135	0.192
-121.195	116.058	0.123	-0.149
