DTS Sentinel unit serial number:	SN413079Multiplexer serial number:	ORYXHardware model number:	OX4-SRSoftware version number:	ORYX F/W v4.00 Oryx Data Collector v3.7.2.0data status	okinstallation	princeton_trtdifferential loss correction	single-endedforward channel	channel 2reverse channel	N/Adate	2019/09/12time	05:41:11forward acquisition time	60.00reverse acquisition time	0.00gamma	496.2192k internal	0.2325k external	0.2325temperature offset calibration	1.0062default loss term (dB/km)	0.3790temperature slope calibration	1.0000multiplexer offset coefficient	1.0000multiplexer slope coefficient	1.0000fibre end	0.00T internal ref (°C)	32.00T ext. ref 1 (°C)	1.60T ext. ref 2 (°C)	27.55length (m)	temperature (°C)	Stokes	anti-Stokes-747.200	23.451	-0.134	-0.111
-746.185	-200.000	-0.017	0.197
-745.171	-200.000	0.017	0.269
-744.156	-54.899	-0.282	0.128
-743.142	40.040	0.238	0.216
-742.127	-200.000	0.044	0.462
-741.112	185.274	-0.038	-0.057
-740.098	222.192	-0.163	0.264
-739.083	160.053	0.261	0.367
-738.069	318.680	-0.008	0.014
-737.054	46.705	0.034	-0.032
-736.039	207.605	-0.022	-0.035
-735.025	800.000	0.110	0.413
-734.010	37.291	0.193	-0.173
-732.996	36.697	-0.190	-0.169
-731.981	177.856	0.214	-0.315
-730.966	-2.056	-0.209	0.148
-729.952	100.045	-0.146	0.171
-728.937	800.000	0.057	-0.168
-727.923	-200.000	0.002	0.172
-726.908	-36.539	-0.143	-0.077
-725.894	-0.524	-0.297	-0.213
-724.879	-99.708	0.162	-0.041
-723.864	-6.588	0.248	-0.170
-722.850	-52.126	0.132	-0.062
-721.835	-16.575	0.282	-0.180
-720.821	-121.451	0.270	-0.045
-719.806	800.000	-0.151	-0.433
-718.791	46.911	-0.037	0.035
-717.777	-175.785	-0.197	-0.005
-716.762	-112.965	-0.255	0.051
-715.748	164.624	-0.104	0.148
-714.733	152.012	0.066	0.090
-713.718	154.052	-0.188	-0.260
-712.704	800.000	-0.052	-0.193
-711.689	-200.000	-0.005	-0.105
-710.675	800.000	0.046	0.155
-709.660	-6.371	-0.129	-0.088
-708.645	800.000	0.042	0.159
-707.631	800.000	-0.021	0.084
-706.616	-62.021	-0.126	-0.053
-705.602	-28.396	-0.129	-0.075
-704.587	-200.000	-0.016	-0.148
-703.572	734.251	0.010	-0.027
-702.558	38.840	0.229	0.206
-701.543	-200.000	-0.018	0.125
-700.529	96.689	0.074	-0.085
-699.514	-166.164	0.114	-0.005
-698.499	-200.000	0.015	-0.317
-697.485	118.636	0.084	-0.105
-696.470	-141.981	-0.224	0.023
-695.456	-64.734	-0.045	-0.019
-694.441	-58.213	0.210	-0.092
-693.426	800.000	0.076	0.238
-692.412	134.887	-0.111	-0.145
-691.397	-156.272	-0.260	-0.016
-690.383	-81.275	0.051	-0.017
-689.368	299.749	0.090	-0.167
-688.354	-31.036	0.274	0.156
-687.339	-117.106	-0.240	-0.044
-686.324	-40.496	0.131	0.069
-685.310	-25.894	-0.277	0.164
-684.295	224.335	-0.231	0.375
-683.281	21.349	0.161	-0.132
-682.266	186.995	-0.090	0.135
-681.251	-63.519	-0.034	-0.014
-680.237	143.598	0.104	0.140
-679.222	-200.000	-0.000	-0.182
-678.208	-200.000	-0.041	0.210
-677.193	-200.000	-0.011	0.315
-676.178	522.853	-0.123	0.290
-675.164	166.555	-0.080	-0.114
-674.149	55.943	0.170	-0.166
-673.135	-110.961	0.047	-0.010
-672.120	800.000	0.050	0.173
-671.105	-177.874	0.161	0.004
-670.091	88.549	0.047	0.053
-669.076	-200.000	-0.029	0.277
-668.062	-200.000	-0.002	0.038
-667.047	800.000	-0.082	-0.329
-666.032	150.356	-0.125	0.170
-665.018	0.370	-0.409	-0.294
-664.003	408.190	0.039	0.084
-662.989	-40.277	-0.063	-0.033
-661.974	12.196	-0.148	-0.115
-660.959	71.659	-0.257	-0.268
-659.945	366.270	0.163	0.331
-658.930	-35.354	-0.319	0.175
-657.916	-86.990	-0.186	-0.057
-656.901	182.959	-0.211	0.313
-655.886	-0.831	0.200	-0.142
-654.872	-200.000	-0.056	-0.321
-653.857	-39.434	0.468	0.247
-652.843	218.311	-0.288	-0.462
-651.828	-99.482	-0.163	-0.041
-650.814	-72.776	-0.198	-0.073
-649.799	532.166	-0.083	0.197
-648.784	-52.204	-0.240	0.112
-647.770	214.009	-0.121	0.192
-646.755	800.000	-0.005	0.016
-645.741	51.289	-0.135	0.129
-644.726	800.000	0.032	-0.124
-643.711	-200.000	0.017	-0.094
-642.697	-110.516	-0.186	0.039
-641.682	364.826	0.051	0.103
-640.668	177.637	-0.344	-0.503
-639.653	128.848	-0.144	0.185
-638.638	-178.969	-0.169	-0.004
-637.624	-200.000	-0.029	0.220
-636.609	47.081	0.201	-0.188
-635.595	-200.000	0.004	-0.224
-634.580	-97.197	0.320	0.084
-633.565	-200.000	-0.023	-0.123
-632.551	-200.000	0.059	-0.275
-631.536	155.901	-0.074	0.102
-630.522	358.307	0.087	-0.175
-629.507	-200.000	0.037	-0.312
-628.492	127.982	0.089	-0.113
-627.478	-83.617	0.220	0.071
-626.463	-200.000	0.006	-0.090
-625.449	95.817	-0.132	-0.152
-624.434	130.694	0.072	-0.093
-623.419	-200.000	0.021	0.263
-622.405	800.000	0.057	-0.240
-621.390	8.723	0.289	-0.219
-620.376	91.018	-0.208	0.235
-619.361	-72.792	-0.225	0.083
-618.346	126.847	-0.085	0.108
-617.332	241.761	-0.086	0.144
-616.317	-140.659	-0.151	-0.016
-615.303	531.818	-0.051	-0.121
-614.288	356.772	0.087	-0.174
-613.273	-37.923	-0.304	0.162
-612.259	357.819	-0.137	-0.275
-611.244	800.000	0.119	-0.461
-610.230	800.000	0.026	0.097
-609.215	-149.860	-0.268	0.021
-608.201	-20.641	-0.189	0.116
-607.186	-30.155	0.185	-0.105
-606.171	698.430	-0.075	-0.198
-605.157	71.826	-0.206	0.215
-604.142	16.570	-0.212	-0.168
-603.128	-119.151	-0.216	-0.038
-602.113	138.361	-0.200	0.263
-601.098	-67.541	0.338	0.133
-600.084	-200.000	0.042	-0.196
-599.069	-37.717	-0.135	0.072
-598.055	-200.000	0.035	0.175
-597.040	-200.000	0.048	0.290
-596.025	191.013	-0.105	-0.159
-595.011	-200.000	-0.017	-0.121
-593.996	-164.673	-0.338	0.015
-592.982	-96.692	-0.288	-0.076
-591.967	-36.897	-0.136	-0.073
-590.952	-31.732	-0.216	-0.122
-589.938	46.245	0.202	-0.188
-588.923	157.982	0.117	0.163
-587.909	90.099	-0.075	0.084
-586.894	800.000	0.093	0.366
-585.879	-200.000	-0.015	-0.308
-584.865	22.002	-0.084	0.068
-583.850	-9.195	0.054	-0.036
-582.836	-137.837	-0.151	0.017
-581.821	64.163	-0.137	0.139
-580.806	-64.523	-0.151	-0.062
-579.792	691.468	0.123	-0.324
-578.777	-200.000	-0.069	0.308
-577.763	92.224	0.071	0.080
-576.748	23.869	-0.047	0.039
-575.733	-6.025	0.331	0.227
-574.719	-89.130	0.024	-0.007
-573.704	-16.325	-0.329	-0.209
-572.690	27.029	0.204	0.171
-571.675	800.000	0.055	-0.237
-570.661	-27.829	-0.180	-0.105
-569.646	538.197	0.077	-0.185
-568.631	-91.385	-0.196	0.056
-567.617	85.262	-0.111	0.122
-566.602	-49.704	0.386	-0.184
-565.588	14.402	-0.095	0.074
-564.573	-44.506	0.312	-0.156
-563.558	800.000	0.079	-0.262
-562.544	-194.418	0.127	0.001
-561.529	315.140	0.025	0.048
-560.515	147.043	-0.061	0.082
-559.500	-41.724	0.246	0.126
-558.485	-200.000	0.017	0.148
-557.471	800.000	0.086	0.272
-556.456	225.203	0.125	0.202
-555.442	-44.717	-0.385	-0.192
-554.427	800.000	-0.059	0.233
-553.412	-116.511	-0.138	0.025
-552.398	-196.053	0.187	0.001
-551.383	800.000	0.089	0.304
-550.369	293.638	0.194	0.355
-549.354	717.695	0.043	0.114
-548.339	-200.000	-0.061	0.294
-547.325	-136.582	-0.195	0.023
-546.310	21.882	0.180	-0.147
-545.296	-200.000	0.029	0.208
-544.281	800.000	-0.047	-0.184
-543.266	402.957	0.095	-0.200
-542.252	-123.469	-0.198	-0.032
-541.237	250.322	0.040	0.068
-540.223	-53.163	0.234	-0.108
-539.208	-131.229	0.242	-0.032
-538.193	-28.665	-0.120	-0.069
-537.179	-122.031	0.147	-0.024
-536.164	-171.046	0.319	-0.011
-535.150	-200.000	-0.030	-0.178
-534.135	-71.924	-0.161	0.060
-533.121	417.898	0.076	0.162
-532.106	3.661	0.157	-0.115
-531.091	800.000	-0.043	-0.184
-530.077	-98.834	0.158	0.040
-529.062	-122.610	0.132	-0.021
-528.048	9.159	0.143	-0.108
-527.033	800.000	0.094	0.330
-526.018	-81.764	-0.348	0.114
-525.004	-82.537	0.014	0.005
-523.989	48.542	-0.384	-0.360
-522.975	-200.000	-0.049	-0.245
-521.960	-89.443	0.060	-0.018
-520.945	800.000	0.089	-0.339
-519.931	-101.832	0.264	0.064
-518.916	800.000	0.034	0.110
-517.902	800.000	0.010	-0.040
-516.887	43.585	-0.277	-0.253
-515.872	-36.168	-0.318	-0.172
-514.858	800.000	-0.048	0.207
-513.843	-165.785	0.159	-0.007
-512.829	785.330	-0.078	0.215
-511.814	-79.751	-0.275	-0.092
-510.799	-200.000	0.014	-0.152
-509.785	-200.000	-0.014	0.485
-508.770	165.874	-0.329	-0.465
-507.756	-80.243	-0.477	0.160
-506.741	-153.578	-0.286	0.020
-505.726	-28.584	-0.192	0.111
-504.712	-200.000	-0.002	-0.204
-503.697	-105.271	0.292	0.067
-502.683	1.337	0.161	0.116
-501.668	89.473	0.140	0.156
-500.653	-200.000	-0.032	-0.172
-499.639	99.400	0.172	-0.199
-498.624	-141.831	-0.034	-0.003
-497.610	60.776	0.091	0.090
-496.595	76.777	0.202	0.214
-495.581	-200.000	-0.037	0.236
-494.566	162.493	0.057	0.079
-493.551	-60.438	0.169	0.072
-492.537	-12.883	0.238	0.155
-491.522	-34.408	-0.085	-0.047
-490.508	-38.944	0.160	-0.084
-489.493	-11.592	0.090	0.059
-488.478	437.577	-0.113	0.246
-487.464	242.052	-0.110	-0.184
-486.449	-31.849	-0.152	0.085
-485.435	-112.038	-0.099	0.020
-484.420	800.000	0.036	-0.122
-483.405	-167.808	-0.419	-0.016
-482.391	113.271	0.109	0.133
-481.376	-21.809	0.043	-0.026
-480.362	800.000	-0.151	0.530
-479.347	-132.736	-0.222	-0.028
-478.332	800.000	-0.143	0.460
-477.318	-119.234	0.061	-0.011
-476.303	22.917	0.201	0.165
-475.289	800.000	0.003	0.010
-474.274	153.443	-0.121	0.165
-473.259	189.426	-0.182	0.273
-472.245	175.417	-0.076	-0.109
-471.230	102.598	0.060	0.070
-470.216	-102.635	-0.113	-0.027
-469.201	467.194	0.081	-0.180
-468.186	-111.952	0.041	0.008
-467.172	214.413	-0.109	-0.173
-466.157	800.000	-0.009	-0.027
-465.143	-200.000	0.004	-0.079
-464.128	-53.457	-0.073	0.033
-463.113	-200.000	-0.009	-0.407
-462.099	800.000	0.083	-0.233
-461.084	-110.839	-0.330	-0.068
-460.070	392.967	0.106	0.219
-459.055	49.249	-0.039	-0.037
-458.040	-146.679	0.345	-0.030
-457.026	800.000	-0.036	0.124
-456.011	-200.000	0.032	0.304
-454.997	132.395	0.216	0.277
-453.982	779.404	0.078	0.212
-452.968	-200.000	0.002	0.008
-451.953	170.319	0.157	-0.224
-450.938	-132.219	-0.181	0.023
-449.924	442.737	-0.055	-0.121
-448.909	-200.000	0.011	0.070
-447.895	-5.637	0.266	-0.182
-446.880	450.843	0.046	-0.100
-445.865	22.251	0.276	-0.224
-444.851	-77.594	0.105	-0.036
-443.836	84.490	-0.066	0.072
-442.822	800.000	0.021	0.069
-441.807	-94.456	-0.336	-0.091
-440.792	107.455	-0.098	-0.116
-439.778	784.361	-0.132	0.360
-438.763	131.032	-0.183	0.234
-437.749	10.664	0.055	0.042
-436.734	139.285	-0.260	0.341
-435.719	-200.000	-0.028	0.160
-434.705	-78.104	0.187	-0.064
-433.690	-4.286	-0.106	-0.073
-432.676	-136.940	-0.074	0.008
-431.661	16.841	0.169	-0.133
-430.646	-106.210	-0.130	-0.029
-429.632	172.919	0.066	-0.094
-428.617	800.000	-0.057	-0.208
-427.603	127.693	-0.085	0.108
-426.588	-200.000	-0.022	0.170
-425.573	57.828	-0.178	-0.174
-424.559	-23.164	0.226	0.136
-423.544	485.163	0.177	0.402
-422.530	-3.016	-0.363	0.252
-421.515	-200.000	0.001	-0.216
-420.500	-121.973	-0.269	0.044
-419.486	81.600	-0.213	-0.230
-418.471	-200.000	-0.006	-0.263
-417.457	122.851	-0.047	-0.058
-416.442	-200.000	0.091	0.435
-415.428	60.091	-0.116	-0.114
-414.413	9.346	-0.032	0.024
-413.398	309.324	0.120	0.224
-412.384	-200.000	-0.000	-0.114
-411.369	-118.103	0.320	0.057
-410.355	-200.000	0.031	-0.168
-409.340	800.000	-0.049	-0.199
-408.325	-200.000	0.016	-0.222
-407.311	-57.024	0.289	-0.127
-406.296	-200.000	0.102	-0.516
-405.282	6.109	0.064	0.047
-404.267	727.275	0.206	0.548
-403.252	-125.411	-0.307	0.047
-402.238	-200.000	-0.024	-0.251
-401.223	225.921	0.242	-0.390
-400.209	800.000	0.111	0.441
-399.194	-20.091	0.155	0.095
-398.179	-107.428	-0.424	0.093
-397.165	129.514	-0.178	-0.226
-396.150	327.971	-0.155	-0.297
-395.136	800.000	0.100	0.346
-394.121	-200.000	0.014	-0.286
-393.106	-10.225	0.274	0.181
-392.092	-200.000	-0.019	0.188
-391.077	95.946	0.305	0.347
-390.063	-105.290	-0.110	0.025
-389.048	-70.674	0.152	-0.057
-388.033	800.000	0.097	-0.280
-387.019	115.735	-0.238	0.290
-386.004	-55.770	-0.133	-0.059
-384.990	779.584	0.104	-0.283
-383.975	-200.000	-0.012	-0.084
-382.960	-200.000	0.044	-0.430
-381.946	72.561	0.159	0.165
-380.931	-155.990	-0.141	-0.009
-379.917	118.604	-0.098	0.121
-378.902	479.227	0.045	0.101
-377.888	-200.000	0.042	-0.192
-376.873	-37.469	0.078	0.041
-375.858	-49.204	0.082	-0.039
-374.844	-7.344	0.191	0.128
-373.829	-59.980	-0.147	0.062
-372.815	-33.325	0.201	-0.111
-371.800	15.143	0.168	0.131
-370.785	-115.829	-0.097	0.018
-369.771	-77.801	-0.233	0.080
-368.756	-102.842	0.260	-0.062
-367.742	91.363	0.048	-0.053
-366.727	-200.000	0.020	0.165
-365.712	-200.000	-0.027	0.334
-364.698	-19.393	0.123	0.076
-363.683	-200.000	-0.028	-0.188
-362.669	83.881	-0.211	-0.229
-361.654	-166.125	0.492	0.021
-360.639	-200.000	0.006	-0.201
-359.625	457.402	-0.066	0.145
-358.610	31.607	-0.150	0.128
-357.596	-75.454	0.116	0.041
-356.581	-56.986	0.128	0.056
-355.566	-73.785	0.423	0.153
-354.552	546.488	0.092	0.218
-353.537	124.394	0.126	-0.158
-352.523	256.354	0.133	-0.227
-351.508	373.151	-0.176	-0.356
-350.493	-200.000	0.002	0.237
-349.479	-29.154	-0.072	-0.041
-348.464	-200.000	-0.012	-0.248
-347.450	800.000	0.119	-0.397
-346.435	-73.648	0.418	0.151
-345.420	800.000	0.033	-0.112
-344.406	800.000	0.046	0.159
-343.391	38.705	-0.196	0.173
-342.377	-24.238	-0.064	0.038
-341.362	800.000	0.087	-0.337
-340.348	-24.359	-0.356	0.211
-339.333	-200.000	0.039	-0.219
-338.318	-200.000	0.003	-0.073
-337.304	-5.492	0.342	0.233
-336.289	11.551	0.074	-0.056
-335.275	800.000	0.056	-0.192
-334.260	43.370	-0.165	-0.150
-333.245	61.850	-0.388	-0.383
-332.231	234.405	-0.238	-0.390
-331.216	31.984	-0.066	0.057
-330.202	-141.289	-0.110	-0.011
-329.187	-200.000	0.008	-0.178
-328.172	-82.143	0.199	0.064
-327.158	800.000	0.051	0.193
-326.143	124.137	0.238	0.297
-325.129	242.285	-0.109	0.180
-324.114	-48.573	-0.188	0.090
-323.099	-85.999	0.108	-0.033
-322.085	459.564	-0.005	-0.011
-321.070	-200.000	0.062	0.379
-320.056	800.000	-0.038	0.152
-319.041	-98.429	-0.230	-0.058
-318.026	221.885	-0.013	0.021
-317.012	-19.949	0.080	0.049
-315.997	115.857	-0.232	0.282
-314.983	219.428	-0.093	0.147
-313.968	-200.000	0.053	0.246
-312.953	256.160	-0.054	-0.092
-311.939	433.037	-0.079	0.170
-310.924	57.954	0.213	-0.207
-309.910	-200.000	0.053	0.260
-308.895	800.000	0.117	0.330
-307.880	-107.727	-0.330	-0.071
-306.866	-105.427	-0.205	-0.046
-305.851	-101.072	0.326	-0.079
-304.837	669.708	0.016	0.040
-303.822	216.107	0.200	-0.315
-302.807	228.767	0.045	0.072
-301.793	800.000	-0.036	0.141
-300.778	19.375	-0.030	-0.024
-299.764	132.677	-0.149	0.191
-298.749	125.807	0.116	-0.145
-297.735	3.669	0.305	0.221
-296.720	-64.900	0.175	-0.070
-295.705	657.346	-0.128	-0.327
-294.691	-200.000	0.059	0.330
-293.676	-100.201	-0.505	-0.125
-292.662	-200.000	0.003	-0.190
-291.647	-200.000	0.199	0.001
-290.632	105.895	-0.221	-0.259
-289.618	-115.137	0.150	0.028
-288.603	-130.289	-0.147	-0.020
-287.589	-200.000	0.006	0.230
-286.574	-9.080	0.165	0.109
-285.559	-42.153	-0.162	-0.082
-284.545	170.136	-0.062	-0.088
-283.530	5.560	0.112	0.082
-282.516	800.000	0.120	0.369
-281.501	72.624	0.189	0.196
-280.486	-151.654	-0.104	-0.008
-279.472	138.259	0.075	0.097
-278.457	131.946	-0.104	-0.132
-277.443	203.712	0.100	-0.153
-276.428	-200.000	-0.022	-0.193
-275.413	-160.502	-0.216	0.011
-274.399	-200.000	-0.007	0.171
-273.384	-133.725	-0.263	-0.032
-272.370	16.369	0.208	0.163
-271.355	-120.578	-0.370	0.062
-270.340	-34.364	-0.215	0.117
-269.326	-200.000	-0.057	0.465
-268.311	-200.000	0.042	-0.361
-267.297	226.998	0.095	0.153
-266.282	36.031	0.226	-0.197
-265.267	452.401	0.059	-0.129
-264.253	-200.000	0.018	0.110
-263.238	-200.000	0.019	0.351
-262.224	-2.993	-0.188	0.130
-261.209	8.138	-0.066	0.049
-260.195	-200.000	0.000	-0.027
-259.180	-77.826	-0.376	-0.128
-258.165	-43.945	0.244	-0.121
-257.151	96.453	0.078	-0.088
-256.136	-29.930	0.109	0.062
-255.122	-200.000	0.045	0.196
-254.107	730.747	-0.086	-0.229
-253.092	-200.000	-0.022	0.285
-252.078	-49.250	0.035	0.016
-251.063	-147.184	0.307	-0.026
-250.049	800.000	-0.139	0.392
-249.034	77.474	-0.195	-0.206
-248.019	175.805	-0.073	-0.105
-247.005	-77.077	0.191	0.066
-245.990	-41.368	-0.109	0.056
-244.976	-200.000	0.014	-0.200
-243.961	-75.270	0.494	-0.174
-242.946	382.846	-0.088	0.178
-241.932	-200.000	0.017	0.158
-240.917	-55.793	0.089	0.039
-239.903	25.061	0.142	0.117
-238.888	279.509	-0.063	-0.111
-237.873	-9.120	0.483	-0.320
-236.859	800.000	0.054	-0.166
-235.844	-164.219	0.179	0.008
-234.830	169.134	0.097	-0.137
-233.815	-79.213	-0.206	-0.069
-232.800	41.803	-0.043	0.038
-231.786	437.680	0.076	-0.164
-230.771	-171.899	-0.519	-0.017
-229.757	83.101	0.167	-0.180
-228.742	-19.164	-0.127	-0.078
-227.727	-200.000	-0.001	-0.040
-226.713	71.015	-0.174	-0.178
-225.698	-107.774	0.347	-0.075
-224.684	-172.088	-0.389	-0.012
-223.669	-82.401	-0.116	-0.037
-222.655	-73.129	-0.210	0.076
-221.640	-22.835	0.132	-0.079
-220.625	800.000	-0.044	-0.140
-219.611	15.298	0.237	0.184
-218.596	155.988	0.220	0.300
-217.582	425.298	-0.070	-0.148
-216.567	-118.717	0.124	0.022
-215.552	84.517	0.094	-0.102
-214.538	379.439	-0.167	0.338
-213.523	149.197	-0.238	0.318
-212.509	97.757	-0.133	-0.151
-211.494	-77.104	0.221	0.076
-210.479	800.000	0.041	-0.113
-209.465	-156.387	0.211	0.013
-208.450	113.218	-0.107	-0.128
-207.436	-155.421	-0.137	-0.009
-206.421	302.128	0.185	-0.338
-205.406	800.000	0.045	0.160
-204.392	-200.000	-0.013	0.149
-203.377	800.000	-0.115	0.340
-202.363	49.234	0.108	0.100
-201.348	-5.456	0.085	0.058
-200.333	-1.223	-0.155	-0.108
-199.319	738.763	0.035	0.092
-198.304	21.810	-0.174	0.140
-197.290	-3.594	-0.166	-0.114
-196.275	-200.000	-0.019	-0.124
-195.260	-200.000	-0.075	-0.412
-194.246	-33.168	-0.155	-0.085
-193.231	51.366	-0.158	-0.148
-192.217	-49.946	0.324	0.152
-191.202	305.283	0.048	0.088
-190.187	-107.868	0.227	0.049
-189.173	-112.577	-0.316	0.062
-188.158	123.622	0.019	0.024
-187.144	259.962	0.110	0.187
-186.129	582.834	0.011	0.026
-185.114	17.684	0.036	0.028
-184.100	-49.216	0.059	-0.028
-183.085	68.319	-0.323	-0.326
-182.071	-1.008	0.102	0.071
-181.056	-200.000	0.016	-0.404
-180.042	-200.000	-0.007	-0.125
-179.027	-81.681	0.398	0.129
-178.012	-91.395	0.078	-0.022
-176.998	101.350	0.297	-0.341
-175.983	111.056	-0.175	-0.208
-174.969	-200.000	0.072	-0.454
-173.954	274.694	0.168	0.294
-172.939	-134.702	-0.069	0.008
-171.925	-125.811	0.143	-0.021
-170.910	-128.491	-0.128	0.018
-169.896	-94.611	0.316	0.085
-168.881	350.110	0.074	-0.143
-167.866	103.359	0.233	-0.270
-166.852	-22.859	0.375	-0.223
-165.837	-39.776	-0.328	-0.169
-164.823	1.016	0.225	0.159
-163.808	-6.285	0.276	0.185
-162.793	800.000	0.007	0.030
-161.779	-62.896	0.258	-0.105
-160.764	71.706	0.216	0.221
-159.750	-77.676	0.200	-0.068
-158.735	103.385	-0.257	-0.297
-157.720	-46.246	-0.136	0.066
-156.706	-49.556	-0.096	-0.045
-155.691	23.286	-0.125	0.101
-154.677	-200.000	-0.007	0.263
-153.662	346.419	-0.073	-0.142
-152.647	-20.839	-0.128	-0.077
-151.633	-200.000	-0.002	-0.149
-150.618	-200.000	-0.053	0.397
-149.604	58.711	0.169	0.163
-148.589	-79.520	0.427	0.142
-147.574	-200.000	-0.002	-0.100
-146.560	-31.183	-0.225	0.125
-145.545	649.287	-0.156	-0.394
-144.531	19.286	0.044	0.035
-143.516	800.000	0.075	-0.215
-142.502	-169.958	0.262	-0.009
-141.487	-146.682	-0.175	-0.015
-140.472	-14.888	-0.112	0.071
-139.458	800.000	0.146	0.454
-138.443	-127.382	0.153	0.022
-137.429	-3.052	-0.134	0.092
-136.414	-200.000	-0.011	0.094
-135.399	67.009	-0.076	-0.076
-134.385	-4.732	0.200	0.136
-133.370	-100.448	-0.301	0.073
-132.356	-121.677	0.143	-0.023
-131.341	28.171	0.330	-0.274
-130.326	-200.000	0.096	-0.434
-129.312	117.895	-0.073	-0.089
-128.297	86.767	0.147	0.160
-127.283	17.529	-0.146	0.114
-126.268	43.409	-0.271	-0.244
-125.253	469.718	0.055	-0.121
-124.239	-75.510	0.353	0.124
-123.224	-61.140	0.203	0.084
-122.210	220.753	0.178	0.282
-121.195	345.520	0.157	0.304
-120.180	-60.572	0.216	-0.090
