DTS Sentinel unit serial number:	SN413079Multiplexer serial number:	ORYXHardware model number:	OX4-SRSoftware version number:	ORYX F/W v4.00 Oryx Data Collector v3.7.2.0data status	okinstallation	princeton_trtdifferential loss correction	single-endedforward channel	channel 2reverse channel	N/Adate	2019/09/18time	10:19:35forward acquisition time	60.00reverse acquisition time	0.00gamma	496.2192k internal	0.2332k external	0.2332temperature offset calibration	0.9981default loss term (dB/km)	0.3790temperature slope calibration	1.0000multiplexer offset coefficient	1.0000multiplexer slope coefficient	1.0000fibre end	0.00T internal ref (°C)	28.03T ext. ref 1 (°C)	0.33T ext. ref 2 (°C)	24.37length (m)	temperature (°C)	Stokes	anti-Stokes-747.200	-49.810	0.141	-0.067
-746.185	132.269	-0.140	-0.182
-745.171	220.692	0.132	0.212
-744.156	800.000	-0.052	0.192
-743.142	-200.000	0.067	0.578
-742.127	710.830	0.071	0.190
-741.112	-47.345	0.213	-0.104
-740.098	103.594	0.204	0.241
-739.083	-200.000	-0.054	-0.263
-738.069	76.105	-0.345	0.367
-737.054	106.370	0.200	-0.239
-736.039	-138.304	-0.255	-0.028
-735.025	-2.930	0.044	-0.031
-734.010	23.158	-0.077	-0.063
-732.996	56.491	-0.222	-0.218
-731.981	-23.890	-0.330	-0.199
-730.966	280.278	0.123	0.220
-729.952	404.736	-0.193	-0.409
-728.937	124.031	-0.259	-0.327
-727.923	21.338	-0.429	-0.350
-726.908	138.440	0.171	-0.225
-725.894	-94.375	-0.111	-0.030
-724.879	134.228	-0.146	0.190
-723.864	-6.842	-0.122	0.083
-722.850	-126.090	-0.471	0.071
-721.835	-200.000	-0.007	0.079
-720.821	30.057	-0.255	0.218
-719.806	-112.441	0.139	0.028
-718.791	106.882	-0.049	0.059
-717.777	309.346	-0.067	-0.125
-716.762	800.000	-0.092	0.309
-715.748	122.091	-0.138	0.173
-714.733	55.498	0.103	-0.100
-713.718	-98.744	0.043	-0.011
-712.704	245.007	-0.134	-0.226
-711.689	800.000	-0.035	0.141
-710.675	12.228	0.173	0.134
-709.660	-200.000	-0.018	-0.158
-708.645	122.124	0.046	-0.058
-707.631	301.965	-0.098	0.181
-706.616	-118.277	-0.144	-0.026
-705.602	168.786	-0.102	-0.146
-704.587	58.259	-0.292	-0.287
-703.572	-102.823	0.078	-0.019
-702.558	-51.703	-0.391	-0.183
-701.543	-128.431	-0.130	0.019
-700.529	-28.998	-0.211	0.121
-699.514	-107.721	-0.219	-0.048
-698.499	-57.887	0.301	-0.132
-697.485	-14.630	0.127	-0.082
-696.470	-187.358	-0.273	-0.004
-695.456	-200.000	0.041	-0.303
-694.441	154.332	-0.192	0.264
-693.426	326.584	-0.046	0.089
-692.412	40.522	-0.166	-0.150
-691.397	800.000	0.059	-0.182
-690.383	800.000	-0.063	0.191
-689.368	-0.492	0.122	-0.087
-688.354	800.000	-0.103	-0.393
-687.339	94.560	-0.167	-0.191
-686.324	-68.940	-0.021	-0.008
-685.310	84.611	-0.106	0.117
-684.295	-125.830	0.256	0.039
-683.281	450.716	-0.151	-0.335
-682.266	45.927	0.114	-0.106
-681.251	-200.000	-0.038	-0.236
-680.237	800.000	0.112	-0.391
-679.222	-132.686	-0.121	0.016
-678.208	-109.655	-0.098	-0.021
-677.193	425.140	-0.120	0.259
-676.178	167.357	0.159	0.226
-675.164	-200.000	-0.053	-0.232
-674.149	268.559	-0.045	-0.078
-673.135	74.124	-0.114	-0.120
-672.120	131.908	-0.117	0.151
-671.105	-179.680	0.158	-0.003
-670.091	800.000	-0.031	0.099
-669.076	800.000	-0.107	-0.354
-668.062	-28.605	0.101	0.058
-667.047	-178.051	-0.312	-0.007
-666.032	-84.368	0.354	0.112
-665.018	-68.873	-0.132	-0.051
-664.003	-47.309	-0.153	-0.075
-662.989	-200.000	0.030	-0.169
-661.974	-17.278	-0.137	0.087
-660.959	-33.717	0.097	-0.054
-659.945	-121.665	-0.147	-0.024
-658.930	-97.767	-0.118	-0.031
-657.916	793.701	-0.079	-0.217
-656.901	51.030	0.067	-0.064
-655.886	234.677	-0.060	0.100
-654.872	343.528	-0.078	-0.153
-653.857	-200.000	0.030	0.154
-652.843	-200.000	0.005	-0.121
-651.828	58.307	-0.183	-0.180
-650.814	135.165	0.057	-0.074
-649.799	-65.440	0.502	0.202
-648.784	527.907	-0.063	-0.150
-647.770	-200.000	-0.015	0.071
-646.755	-22.492	0.206	-0.125
-645.741	-49.471	-0.215	0.103
-644.726	800.000	0.099	0.280
-643.711	-119.109	-0.274	-0.048
-642.697	-84.339	-0.175	0.055
-641.682	168.990	0.172	-0.246
-640.668	177.673	-0.159	0.232
-639.653	-147.531	-0.342	-0.029
-638.638	-133.413	-0.408	0.051
-637.624	73.412	-0.076	-0.079
-636.609	-119.219	0.206	-0.036
-635.595	-200.000	-0.011	0.210
-634.580	-200.000	-0.014	0.089
-633.565	-200.000	0.031	-0.181
-632.551	598.578	0.110	0.273
-631.536	-200.000	-0.004	0.068
-630.522	-109.921	-0.303	-0.064
-629.507	-200.000	-0.008	0.072
-628.492	-55.128	0.211	-0.095
-627.478	131.158	0.191	0.245
-626.463	-99.197	-0.096	-0.024
-625.449	75.994	0.028	0.030
-624.434	-137.565	0.444	-0.050
-623.419	-49.925	-0.190	0.090
-622.405	-85.804	-0.116	-0.036
-621.390	-181.352	-0.112	-0.002
-620.376	616.315	0.166	-0.417
-619.361	-72.266	-0.198	-0.073
-618.346	-200.000	-0.018	0.305
-617.332	62.789	0.123	-0.124
-616.317	-172.521	-0.286	-0.009
-615.303	800.000	-0.072	0.249
-614.288	222.100	-0.160	-0.258
-613.273	355.909	0.114	-0.228
-612.259	-21.305	-0.174	0.107
-611.244	106.090	-0.093	0.110
-610.230	224.619	-0.167	-0.271
-609.215	-200.000	-0.008	-0.348
-608.201	-164.205	0.049	-0.002
-607.186	236.328	0.282	0.467
-606.171	-60.875	0.604	0.256
-605.157	-49.238	0.269	-0.129
-604.142	-123.974	-0.419	-0.066
-603.128	-63.474	0.284	-0.117
-602.113	40.160	0.039	0.035
-601.098	-32.074	-0.120	-0.067
-600.084	99.494	0.157	-0.182
-599.069	-122.052	-0.401	0.066
-598.055	5.177	0.117	0.086
-597.040	-73.616	-0.191	0.070
-596.025	-113.228	0.124	0.024
-595.011	-200.000	-0.057	0.347
-593.996	-200.000	0.022	-0.247
-592.982	152.368	0.061	0.083
-591.967	-200.000	-0.013	0.265
-590.952	-200.000	0.024	-0.178
-589.938	-200.000	-0.020	-0.103
-588.923	23.150	-0.372	-0.305
-587.909	-17.681	0.330	-0.207
-586.894	-43.522	0.101	0.051
-585.879	-200.000	-0.068	-0.344
-584.865	-152.119	-0.192	-0.014
-583.850	25.782	-0.174	0.145
-582.836	269.122	-0.315	-0.552
-581.821	-115.246	0.120	0.023
-580.806	11.613	-0.295	-0.226
-579.792	25.934	0.105	0.087
-578.777	-7.109	0.355	0.241
-577.763	-200.000	0.010	0.105
-576.748	-110.206	-0.214	-0.045
-575.733	800.000	-0.030	0.126
-574.719	-200.000	-0.029	-0.164
-573.704	800.000	0.088	0.258
-572.690	-175.312	0.363	0.010
-571.675	-170.072	0.360	-0.013
-570.661	113.664	-0.215	-0.261
-569.646	-90.757	0.286	-0.083
-568.631	-80.907	-0.068	0.022
-567.617	-200.000	0.002	-0.151
-566.602	129.314	-0.085	0.108
-565.588	276.373	0.128	-0.226
-564.573	545.671	0.071	-0.169
-563.558	800.000	-0.028	0.118
-562.544	-173.839	0.150	-0.004
-561.529	249.399	-0.173	-0.293
-560.515	479.907	0.076	-0.172
-559.500	24.711	0.393	-0.325
-558.485	-10.753	0.166	0.110
-557.471	-200.000	0.024	0.261
-556.456	9.121	-0.294	-0.222
-555.442	-35.289	-0.285	-0.155
-554.427	228.124	0.025	0.041
-553.412	419.454	0.089	-0.190
-552.398	36.761	-0.180	-0.159
-551.383	-17.968	-0.154	0.096
-550.369	-143.861	-0.148	0.014
-549.354	47.787	-0.092	-0.086
-548.339	800.000	-0.026	0.074
-547.325	-68.682	-0.214	0.083
-546.310	-46.745	-0.316	-0.154
-545.296	-200.000	-0.058	-0.296
-544.281	122.510	-0.038	-0.047
-543.266	-200.000	0.041	-0.341
-542.252	705.512	0.076	0.199
-541.237	-200.000	-0.049	-0.274
-540.223	-137.640	0.017	0.002
-539.208	-36.650	0.308	0.165
-538.193	-177.646	-0.238	-0.006
-537.179	211.729	-0.083	0.130
-536.164	-89.150	0.111	0.033
-535.150	90.083	0.149	-0.166
-534.135	-200.000	-0.016	-0.244
-533.121	67.603	0.363	-0.370
-532.106	-200.000	-0.001	0.426
-531.091	133.234	0.128	-0.164
-530.077	40.305	-0.151	0.135
-529.062	63.726	-0.196	0.196
-528.048	-200.000	-0.011	0.095
-527.033	487.670	0.093	0.211
-526.018	279.890	0.136	0.242
-525.004	-161.210	0.192	-0.010
-523.989	39.706	0.296	-0.264
-522.975	-6.280	-0.170	0.116
-521.960	217.007	-0.167	0.266
-520.945	-200.000	0.006	0.235
-519.931	-19.068	0.227	-0.141
-518.916	-176.990	-0.118	0.003
-517.902	-200.000	-0.068	0.317
-516.887	-200.000	0.011	-0.219
-515.872	341.928	0.158	0.307
-514.858	-80.406	0.090	0.030
-513.843	-59.147	0.213	0.092
-512.829	-14.000	0.151	-0.097
-511.814	101.953	-0.097	-0.113
-510.799	486.914	-0.115	-0.262
-509.785	-7.451	0.305	0.206
-508.770	263.192	0.089	0.154
-507.756	-51.608	-0.297	-0.138
-506.741	-43.612	0.198	0.100
-505.726	800.000	-0.042	0.122
-504.712	-200.000	-0.052	-0.287
-503.697	-139.097	0.153	-0.016
-502.683	130.197	-0.101	0.129
-501.668	-200.000	0.051	-0.306
-500.653	800.000	0.080	0.269
-499.639	-86.982	-0.215	0.065
-498.624	-200.000	-0.023	0.207
-497.610	51.795	-0.146	0.138
-496.595	154.772	0.076	-0.104
-495.581	-74.338	0.406	-0.146
-494.566	-166.532	-0.110	0.005
-493.551	800.000	0.067	0.289
-492.537	-126.634	-0.302	-0.045
-491.522	140.687	-0.133	0.174
-490.508	-200.000	-0.029	-0.316
-489.493	72.446	-0.158	-0.164
-488.478	-38.770	0.196	-0.103
-487.464	225.828	-0.164	-0.265
-486.449	-6.184	0.318	0.216
-485.435	268.650	-0.043	0.075
-484.420	-200.000	-0.006	0.077
-483.405	69.022	0.117	0.120
-482.391	-93.617	-0.068	0.019
-481.376	800.000	-0.064	-0.193
-480.362	-200.000	0.039	0.367
-479.347	-107.956	-0.202	0.044
-478.332	-119.973	0.185	0.032
-477.318	17.167	0.206	0.162
-476.303	168.695	0.114	0.162
-475.289	212.046	0.128	-0.201
-474.274	-75.360	0.179	-0.063
-473.259	144.367	0.075	0.100
-472.245	-200.000	-0.077	0.401
-471.230	-17.615	-0.087	-0.055
-470.216	625.693	-0.044	-0.110
-469.201	-83.791	-0.243	0.077
-468.186	33.231	0.096	0.083
-467.172	-157.400	0.119	-0.007
-466.157	-30.483	-0.351	0.198
-465.143	48.315	0.157	0.146
-464.128	-200.000	0.000	0.026
-463.113	154.413	0.081	-0.111
-462.099	-13.466	-0.395	-0.255
-461.084	800.000	-0.087	-0.343
-460.070	47.323	-0.221	0.205
-459.055	-200.000	0.057	0.313
-458.040	800.000	-0.154	0.465
-457.026	800.000	0.057	0.168
-456.011	436.948	0.079	0.171
-454.997	-200.000	-0.001	0.124
-453.982	-200.000	-0.014	0.187
-452.968	800.000	0.054	0.193
-451.953	-21.562	-0.211	-0.128
-450.938	-109.549	0.365	-0.077
-449.924	-200.000	0.014	0.137
-448.909	-142.346	-0.268	-0.026
-447.895	78.942	-0.123	0.131
-446.880	148.786	-0.130	-0.175
-445.865	-139.730	-0.364	0.038
-444.851	369.087	-0.048	0.097
-443.836	-9.347	0.066	0.044
-442.822	207.510	-0.088	-0.137
-441.807	173.806	-0.124	0.178
-440.792	-121.825	0.132	0.022
-439.778	-11.623	0.307	-0.200
-438.763	800.000	-0.010	-0.040
-437.749	-38.805	0.395	0.207
-436.734	209.181	0.130	-0.203
-435.719	63.932	0.125	0.125
-434.705	112.068	-0.150	-0.180
-433.690	-189.395	0.078	-0.001
-432.676	-24.134	0.134	0.079
-431.661	137.854	-0.386	-0.503
-430.646	-157.809	-0.126	-0.007
-429.632	-65.358	-0.218	-0.087
-428.617	89.677	-0.157	0.174
-427.603	619.498	0.115	-0.288
-426.588	109.390	-0.238	0.283
-425.573	167.970	-0.093	-0.132
-424.559	800.000	0.072	0.242
-423.544	-83.336	0.140	-0.045
-422.530	162.544	-0.145	-0.202
-421.515	-132.372	-0.120	0.015
-420.500	-4.852	0.115	0.079
-419.486	-80.015	-0.143	-0.048
-418.471	800.000	0.064	0.256
-417.457	-99.097	-0.207	0.052
-416.442	15.341	0.159	0.124
-415.428	4.815	0.243	0.178
-414.413	32.745	0.258	0.222
-413.398	-30.141	-0.339	-0.191
-412.384	420.113	-0.114	-0.243
-411.369	53.278	0.203	-0.193
-410.355	586.361	-0.247	-0.603
-409.340	103.460	-0.129	0.150
-408.325	800.000	0.153	-0.434
-407.311	-200.000	0.041	0.182
-406.296	-76.164	0.185	0.065
-405.282	800.000	-0.077	0.250
-404.267	800.000	0.065	0.202
-403.252	-79.310	-0.108	0.036
-402.238	70.338	-0.253	-0.260
-401.223	-151.378	-0.112	0.008
-400.209	-200.000	0.046	0.238
-399.194	-4.832	-0.181	0.124
-398.179	-139.818	0.164	0.017
-397.165	-7.322	0.105	-0.071
-396.150	719.476	0.042	-0.112
-395.136	-161.479	-0.247	-0.013
-394.121	-89.294	0.076	0.022
-393.106	599.952	-0.125	-0.307
-392.092	126.946	-0.186	-0.234
-391.077	210.293	0.062	-0.097
-390.063	40.515	-0.049	0.044
-389.048	-140.882	0.269	0.027
-388.033	-200.000	0.033	-0.305
-387.019	-102.466	-0.144	-0.034
-386.004	-200.000	0.042	-0.296
-384.990	-38.769	0.156	-0.081
-383.975	-157.398	0.201	0.012
-382.960	467.933	-0.070	-0.156
-381.946	-96.069	0.053	-0.014
-380.931	663.239	0.070	0.179
-379.917	-200.000	0.011	-0.083
-378.902	-200.000	-0.031	0.197
-377.888	-70.250	0.065	-0.024
-376.873	-55.083	-0.226	0.101
-375.858	229.486	-0.051	-0.082
-374.844	21.329	-0.042	0.034
-373.829	-90.405	0.433	-0.124
-372.815	142.454	-0.070	-0.092
-371.800	411.419	0.033	-0.070
-370.785	800.000	0.067	0.225
-369.771	4.349	-0.254	-0.185
-368.756	483.728	-0.063	-0.142
-367.742	183.245	0.176	-0.257
-366.727	-200.000	0.008	-0.151
-365.712	-50.855	0.155	-0.072
-364.698	800.000	-0.081	0.325
-363.683	-162.599	0.100	-0.005
-362.669	-114.427	0.217	-0.041
-361.654	289.042	0.158	0.283
-360.639	-200.000	0.008	-0.224
-359.625	-149.220	0.213	-0.017
-358.610	-82.140	-0.606	0.196
-357.596	-89.669	-0.288	0.084
-356.581	-16.969	-0.158	0.099
-355.566	-83.957	0.143	0.045
-354.552	-200.000	-0.059	-0.528
-353.537	-156.318	0.199	0.012
-352.523	62.201	0.159	-0.158
-351.508	-17.554	-0.204	0.127
-350.493	-6.228	-0.126	-0.085
-349.479	85.237	-0.164	-0.178
-348.464	-127.090	0.316	-0.046
-347.450	533.764	-0.066	0.155
-346.435	800.000	0.061	-0.245
-345.420	-200.000	-0.036	0.168
-344.406	431.146	0.041	0.087
-343.391	30.386	0.103	-0.087
-342.377	279.300	0.119	0.211
-341.362	96.295	0.098	0.111
-340.348	-200.000	0.052	0.310
-339.333	-132.396	-0.341	0.043
-338.318	-200.000	0.023	0.233
-337.304	281.021	-0.045	0.080
-336.289	-55.005	0.255	0.114
-335.275	83.948	-0.220	0.238
-334.260	-62.973	0.140	0.057
-333.245	-34.437	0.312	-0.169
-332.231	-59.511	0.222	0.094
-331.216	424.080	0.226	-0.482
-330.202	-59.171	0.255	0.109
-329.187	-146.546	0.264	-0.023
-328.172	-74.511	0.033	-0.012
-327.158	2.559	-0.148	-0.106
-326.143	195.168	-0.131	-0.196
-325.129	800.000	-0.035	0.125
-324.114	-200.000	0.012	0.089
-323.099	800.000	-0.080	-0.285
-322.085	86.678	-0.104	0.114
-321.070	17.266	0.260	-0.204
-320.056	-93.110	0.175	0.048
-319.041	180.250	-0.174	-0.252
-318.026	76.509	0.081	-0.085
-317.012	356.639	0.055	0.108
-315.997	-106.919	0.234	-0.051
-314.983	55.043	-0.214	0.204
-313.968	-200.000	0.004	-0.202
-312.953	-200.000	0.002	0.016
-311.939	288.785	0.119	-0.214
-310.924	97.076	-0.041	0.046
-309.910	377.919	0.160	-0.323
-308.895	-189.855	0.306	0.003
-307.880	-200.000	0.040	0.278
-306.866	-98.604	-0.113	-0.029
-305.851	151.811	-0.110	0.148
-304.837	-200.000	-0.039	0.215
-303.822	37.524	0.165	-0.145
-302.807	-47.796	-0.088	0.042
-301.793	-200.000	0.011	0.318
-300.778	-46.866	-0.312	0.151
-299.764	-118.271	-0.204	0.036
-298.749	167.007	0.090	0.127
-297.735	129.390	0.187	-0.237
-296.720	-200.000	-0.004	-0.072
-295.705	-49.921	0.298	-0.140
-294.691	-42.712	-0.110	0.055
-293.676	262.310	-0.162	0.278
-292.662	60.163	-0.190	-0.186
-291.647	-36.751	-0.064	0.034
-290.632	-58.342	0.275	-0.118
-289.618	-85.997	0.241	0.074
-288.603	71.018	-0.252	-0.258
-287.589	-200.000	-0.032	0.401
-286.574	-200.000	0.023	0.127
-285.559	-200.000	0.025	0.291
-284.545	-41.529	0.141	0.072
-283.530	267.055	0.248	-0.428
-282.516	-200.000	-0.018	-0.123
-281.501	102.427	0.159	0.184
-280.486	800.000	-0.138	-0.583
-279.472	800.000	0.081	-0.329
-278.457	-113.888	-0.267	-0.051
-277.443	-58.239	-0.110	-0.048
-276.428	-200.000	-0.078	0.518
-275.413	789.907	0.092	-0.248
-274.399	-142.089	0.249	-0.024
-273.384	-68.758	0.075	0.028
-272.370	7.720	0.074	0.055
-271.355	-200.000	0.050	-0.227
-270.340	395.792	0.023	-0.046
-269.326	-92.267	-0.189	-0.053
-268.311	61.165	-0.146	0.143
-267.297	-101.852	-0.298	-0.071
-266.282	100.510	-0.191	-0.219
-265.267	-200.000	-0.006	-0.136
-264.253	-79.005	-0.168	0.056
-263.238	-103.782	-0.209	-0.048
-262.224	-181.137	-0.248	-0.005
-261.209	-200.000	0.022	-0.130
-260.195	-79.988	0.281	-0.093
-259.180	-200.000	0.057	-0.326
-258.165	-165.081	-0.220	-0.010
-257.151	-163.743	0.154	-0.007
-256.136	196.096	-0.108	0.162
-255.122	-168.958	-0.369	0.014
-254.107	-84.455	0.232	-0.072
-253.092	-57.218	0.285	0.124
-252.078	-200.000	0.020	0.251
-251.063	89.027	-0.177	0.195
-250.049	-200.000	-0.009	-0.045
-249.034	186.010	-0.034	-0.049
-248.019	-111.737	-0.263	0.053
-247.005	-135.232	0.105	-0.012
-245.990	118.566	-0.126	-0.153
-244.976	-91.979	0.144	0.040
-243.961	-139.990	-0.300	0.031
-242.946	217.676	0.231	0.363
-241.932	-40.912	0.226	-0.115
-240.917	-94.022	-0.254	0.069
-239.903	69.691	0.073	-0.074
-238.888	-133.721	0.201	0.025
-237.873	-40.903	-0.198	0.101
-236.859	-200.000	0.034	-0.164
-235.844	66.510	0.135	0.136
-234.830	-118.304	-0.370	-0.065
-233.815	-167.004	0.103	-0.004
-232.800	800.000	0.074	-0.219
-231.786	266.790	-0.148	0.255
-230.771	-200.000	0.004	0.082
-229.757	-166.124	-0.302	0.013
-228.742	800.000	-0.103	0.291
-227.727	-200.000	-0.001	0.029
-226.713	-200.000	-0.029	-0.154
-225.698	-2.844	0.178	0.122
-224.684	609.131	-0.114	0.281
-223.669	-200.000	0.036	0.179
-222.655	195.155	-0.168	0.252
-221.640	34.082	0.180	0.155
-220.625	23.616	0.143	-0.116
-219.611	-200.000	-0.047	0.323
-218.596	-200.000	0.150	0.000
-217.582	-33.186	0.326	-0.178
-216.567	-72.808	-0.240	0.087
-215.552	52.770	-0.120	0.113
-214.538	94.990	0.114	0.128
-213.523	-176.892	0.120	0.003
-212.509	129.128	-0.241	0.303
-211.494	68.011	-0.166	0.168
-210.479	-76.014	-0.173	0.060
-209.465	800.000	-0.050	-0.177
-208.450	-55.572	0.083	0.037
-207.436	-200.000	0.031	0.216
-206.421	-47.658	-0.252	-0.121
-205.406	125.942	-0.238	-0.296
-204.392	-22.399	-0.181	-0.108
-203.377	800.000	-0.041	0.148
-202.363	-12.399	-0.147	0.095
-201.348	20.134	0.137	0.109
-200.333	-156.781	-0.291	0.018
-199.319	-200.000	-0.025	0.423
-198.304	-57.553	-0.381	0.164
-197.290	30.403	-0.147	-0.124
-196.275	-127.724	0.215	0.031
-195.260	313.287	0.109	0.202
-194.246	-56.072	-0.120	0.053
-193.231	-200.000	-0.012	-0.295
-192.217	83.837	0.070	0.076
-191.202	800.000	-0.032	-0.104
-190.187	8.309	0.343	0.253
-189.173	148.553	-0.137	0.182
-188.158	-200.000	-0.032	-0.146
-187.144	-200.000	-0.070	0.315
-186.129	-200.000	0.003	0.015
-185.114	-163.045	0.406	0.019
-184.100	-126.887	0.137	0.020
-183.085	379.289	-0.063	-0.128
-182.071	-200.000	0.015	-0.389
-181.056	112.072	-0.115	-0.137
-180.042	-70.399	0.240	-0.090
-179.027	-35.801	0.271	-0.144
-178.012	24.068	-0.269	0.219
-176.998	611.575	-0.049	-0.119
-175.983	-98.916	0.280	-0.070
-174.969	334.006	0.087	0.166
-173.954	-188.802	-0.075	-0.001
-172.939	-15.259	-0.140	-0.088
-171.925	-200.000	-0.043	0.241
-170.910	-125.021	0.322	0.049
-169.896	15.986	-0.050	0.039
-168.881	275.229	0.198	0.345
-167.866	591.537	0.080	-0.194
-166.852	800.000	-0.084	-0.313
-165.837	800.000	0.165	-0.480
-164.823	-111.113	0.337	-0.068
-163.808	6.531	-0.302	0.221
-162.793	-171.748	0.215	-0.007
-161.779	-134.715	0.274	0.033
-160.764	-101.125	0.105	-0.025
-159.750	-8.094	-0.180	0.120
-158.735	-41.925	0.057	-0.029
-157.720	37.450	-0.106	0.092
-156.706	-154.442	0.313	-0.021
-155.691	800.000	0.090	-0.274
-154.677	-200.000	0.019	0.202
-153.662	54.689	-0.223	-0.212
-152.647	-147.339	0.102	0.008
-151.633	342.855	-0.125	-0.240
-150.618	-72.962	0.251	-0.091
-149.604	209.810	-0.070	0.107
-148.589	-37.278	0.227	0.119
-147.574	-60.491	0.221	-0.092
-146.560	-129.497	-0.132	-0.018
-145.545	414.912	-0.055	-0.114
-144.531	130.990	-0.079	0.100
-143.516	-89.011	-0.284	0.082
-142.502	472.804	0.120	0.265
-141.487	145.031	0.124	-0.162
-140.472	-64.922	0.138	0.055
-139.458	-70.561	0.151	-0.056
-138.443	-96.113	0.124	-0.032
-137.429	800.000	0.065	-0.179
-136.414	86.147	0.067	-0.073
-135.399	295.806	-0.106	-0.191
-134.385	-111.185	0.246	-0.049
-133.370	154.773	0.142	-0.192
-132.356	197.725	-0.166	-0.249
-131.341	83.341	0.250	0.267
-130.326	552.888	0.100	0.236
-129.312	-52.236	0.271	0.124
-128.297	57.145	-0.053	0.051
-127.283	-200.000	-0.212	0.000
-126.268	-200.000	0.010	-0.138
-125.253	-4.526	0.168	0.114
-124.239	-174.640	-0.505	0.014
-123.224	255.323	0.081	-0.136
-122.210	-200.000	0.027	-0.203
