DTS Sentinel unit serial number:	SN413079Multiplexer serial number:	ORYXHardware model number:	OX4-SRSoftware version number:	ORYX F/W v4.00 Oryx Data Collector v3.7.2.0data status	okinstallation	princeton_trtdifferential loss correction	single-endedforward channel	channel 2reverse channel	N/Adate	2019/09/16time	20:59:35forward acquisition time	60.00reverse acquisition time	0.00gamma	496.2192k internal	0.2329k external	0.2329temperature offset calibration	0.9963default loss term (dB/km)	0.3790temperature slope calibration	1.0000multiplexer offset coefficient	1.0000multiplexer slope coefficient	1.0000fibre end	0.00T internal ref (°C)	32.05T ext. ref 1 (°C)	0.05T ext. ref 2 (°C)	25.37length (m)	temperature (°C)	Stokes	anti-Stokes-747.200	-55.896	-0.206	0.093
-746.185	71.206	0.038	0.040
-745.171	1.112	0.278	-0.201
-744.156	-4.812	-0.348	0.242
-743.142	454.142	0.011	-0.025
-742.127	-8.552	-0.202	0.137
-741.112	-26.122	-0.194	0.115
-740.098	-200.000	0.002	-0.313
-739.083	439.020	-0.126	-0.278
-738.069	-103.234	-0.062	-0.015
-737.054	748.509	0.138	-0.375
-736.039	-42.416	-0.129	-0.067
-735.025	275.110	0.095	0.170
-734.010	-200.000	0.006	-0.227
-732.996	-102.520	0.198	0.048
-731.981	27.884	-0.102	-0.087
-730.966	-200.000	0.008	0.286
-729.952	-69.915	-0.145	-0.056
-728.937	80.021	-0.089	-0.096
-727.923	-59.085	0.193	-0.084
-726.908	-60.320	0.117	-0.050
-725.894	538.447	-0.091	0.218
-724.879	800.000	0.074	-0.282
-723.864	36.132	0.025	0.022
-722.850	-92.049	-0.212	0.060
-721.835	26.049	0.192	-0.161
-720.821	75.053	-0.320	0.339
-719.806	1.029	0.146	-0.105
-718.791	-12.391	0.037	0.024
-717.777	-52.862	0.409	-0.189
-716.762	165.084	-0.121	0.172
-715.748	-91.495	0.146	-0.042
-714.733	134.907	-0.144	0.188
-713.718	-38.696	-0.423	-0.224
-712.704	-65.936	-0.453	0.182
-711.689	-117.850	0.051	-0.009
-710.675	-200.000	0.015	-0.248
-709.660	-200.000	0.002	0.154
-708.645	-200.000	-0.023	0.244
-707.631	-200.000	-0.049	0.305
-706.616	-93.080	0.252	0.071
-705.602	216.376	0.077	0.123
-704.587	698.641	0.064	-0.168
-703.572	-84.922	0.194	0.061
-702.558	-28.294	0.078	0.045
-701.543	800.000	0.088	0.334
-700.529	53.829	-0.124	0.120
-699.514	-175.191	0.083	0.002
-698.499	-96.473	0.072	-0.019
-697.485	349.133	-0.055	-0.109
-696.470	-48.625	0.171	0.083
-695.456	81.505	-0.081	0.088
-694.441	412.302	-0.109	-0.233
-693.426	12.103	-0.137	0.106
-692.412	66.489	0.249	0.254
-691.397	-21.526	-0.476	0.292
-690.383	-37.138	-0.127	0.068
-689.368	80.992	-0.190	0.206
-688.354	-155.774	0.379	-0.024
-687.339	38.634	-0.193	-0.173
-686.324	381.221	-0.008	0.017
-685.310	-33.752	0.149	0.083
-684.295	22.026	0.218	0.179
-683.281	-80.003	-0.231	0.078
-682.266	3.973	-0.252	-0.185
-681.251	250.433	-0.172	0.294
-680.237	215.656	0.190	0.302
-679.222	120.089	-0.268	-0.334
-678.208	-67.247	0.046	-0.018
-677.193	-200.000	0.041	-0.336
-676.178	-74.818	0.303	0.109
-675.164	210.389	0.224	-0.353
-674.149	15.407	0.080	-0.063
-673.135	-200.000	0.008	0.087
-672.120	-129.319	-0.343	-0.048
-671.105	391.381	0.129	-0.269
-670.091	-28.341	0.098	-0.057
-669.076	273.589	0.050	0.088
-668.062	-200.000	0.000	0.006
-667.047	24.414	-0.088	-0.073
-666.032	498.409	-0.050	-0.116
-665.018	47.522	0.059	0.055
-664.003	448.859	0.146	-0.323
-662.989	-200.000	0.038	-0.383
-661.974	-138.485	-0.393	0.043
-660.959	800.000	-0.038	0.129
-659.945	-200.000	-0.045	0.371
-658.930	66.787	-0.206	-0.210
-657.916	-24.254	0.312	0.187
-656.901	-200.000	-0.002	0.141
-655.886	-200.000	0.007	-0.119
-654.872	-200.000	0.039	-0.208
-653.857	-165.265	-0.250	0.011
-652.843	-79.367	-0.218	-0.074
-651.828	86.218	0.133	-0.147
-650.814	74.185	-0.023	-0.024
-649.799	194.512	0.226	-0.344
-648.784	-30.803	0.134	0.076
-647.770	49.645	0.067	-0.063
-646.755	54.430	0.073	-0.071
-645.741	34.294	0.053	0.046
-644.726	-29.248	0.074	0.043
-643.711	157.070	0.246	-0.341
-642.697	-176.557	0.170	0.004
-641.682	-200.000	0.019	0.099
-640.668	285.884	0.213	0.385
-639.653	-200.000	0.087	0.392
-638.638	231.678	-0.011	-0.018
-637.624	800.000	-0.065	-0.220
-636.609	70.191	-0.101	0.105
-635.595	-200.000	-0.001	-0.292
-634.580	-200.000	-0.040	-0.193
-633.565	735.779	-0.212	0.571
-632.551	582.334	0.022	0.054
-631.536	-57.723	-0.133	-0.058
-630.522	-200.000	-0.085	-0.385
-629.507	326.871	-0.156	0.301
-628.492	-118.320	-0.154	0.028
-627.478	800.000	-0.010	0.040
-626.463	78.889	0.139	-0.149
-625.449	73.068	-0.230	-0.241
-624.434	-116.327	0.154	-0.029
-623.419	402.358	0.132	-0.278
-622.405	-64.281	-0.215	-0.088
-621.390	39.237	-0.344	0.308
-620.376	800.000	-0.127	0.389
-619.361	-190.937	-0.400	-0.004
-618.346	445.393	0.023	0.051
-617.332	-102.762	0.155	0.037
-616.317	-41.413	-0.407	0.210
-615.303	-200.000	-0.051	-0.362
-614.288	106.272	0.114	0.135
-613.273	-135.487	-0.231	-0.028
-612.259	-114.783	-0.117	0.022
-611.244	-54.172	0.136	0.062
-610.230	-39.405	-0.209	-0.110
-609.215	228.036	-0.154	-0.252
-608.201	-78.134	-0.171	-0.059
-607.186	-153.608	-0.092	0.006
-606.171	12.207	-0.270	-0.208
-605.157	-167.345	0.115	-0.005
-604.142	-132.247	0.314	-0.041
-603.128	-200.000	0.044	0.227
-602.113	239.756	0.122	-0.203
-601.098	20.904	0.272	-0.221
-600.084	-38.239	0.437	-0.232
-599.069	-124.322	-0.297	0.047
-598.055	-8.306	0.154	0.104
-597.040	88.855	0.304	-0.339
-596.025	-200.000	-0.010	0.069
-595.011	-130.756	-0.212	0.029
-593.996	6.656	0.201	-0.150
-592.982	49.991	-0.055	0.052
-591.967	111.322	-0.169	-0.204
-590.952	-16.696	-0.137	-0.087
-589.938	32.645	-0.186	-0.161
-588.923	-129.529	-0.251	-0.035
-587.909	-200.000	0.015	-0.324
-586.894	-200.000	-0.005	-0.191
-585.879	185.567	-0.185	-0.275
-584.865	-36.846	0.125	-0.067
-583.850	301.607	0.149	-0.275
-582.836	-200.000	0.060	-0.288
-581.821	-53.431	-0.262	0.120
-580.806	189.817	-0.188	0.283
-579.792	86.600	0.225	0.248
-578.777	250.321	0.175	-0.298
-577.763	2.892	0.168	-0.122
-576.748	-118.896	-0.177	-0.031
-575.733	155.188	-0.078	-0.107
-574.719	-200.000	0.053	0.259
-573.704	-82.629	0.392	-0.127
-572.690	576.368	-0.132	0.322
-571.675	-82.101	-0.119	0.039
-570.661	54.073	-0.131	0.126
-569.646	-49.816	-0.443	0.211
-568.631	-51.955	0.154	0.072
-567.617	524.931	0.051	0.119
-566.602	-119.645	-0.157	-0.027
-565.588	-200.000	-0.024	0.364
-564.573	312.117	0.188	0.352
-563.558	323.708	0.057	-0.110
-562.544	454.367	-0.209	-0.463
-561.529	-200.000	0.013	0.266
-560.515	-30.475	-0.132	-0.075
-559.500	0.555	-0.261	-0.187
-558.485	-149.777	-0.228	0.018
-557.471	41.940	-0.103	0.094
-556.456	-103.722	-0.192	0.045
-555.442	-200.000	-0.069	0.398
-554.427	513.247	0.200	-0.467
-553.412	1.552	0.263	-0.189
-552.398	-150.221	0.233	0.018
-551.383	-36.853	0.332	0.178
-550.369	770.345	0.084	-0.228
-549.354	-195.988	0.094	-0.001
-548.339	113.327	-0.222	0.270
-547.325	188.071	0.206	-0.308
-546.310	399.785	0.090	-0.188
-545.296	800.000	0.112	0.418
-544.281	243.685	0.072	0.120
-543.266	800.000	-0.095	0.289
-542.252	28.993	0.300	0.254
-541.237	246.342	-0.253	0.426
-540.223	63.870	-0.087	0.087
-539.208	-102.470	0.329	-0.079
-538.193	282.702	0.144	-0.259
-537.179	100.037	-0.246	0.285
-536.164	-50.098	0.284	-0.134
-535.150	-14.074	-0.226	-0.146
-534.135	-200.000	-0.054	0.248
-533.121	-200.000	-0.040	-0.228
-532.106	139.543	-0.119	0.156
-531.091	-49.820	-0.363	0.172
-530.077	76.645	0.097	0.102
-529.062	97.869	0.352	-0.404
-528.048	16.927	0.355	-0.281
-527.033	262.936	0.148	0.256
-526.018	-178.110	-0.328	-0.008
-525.004	-48.021	0.190	0.092
-523.989	800.000	-0.079	-0.276
-522.975	-132.635	0.160	0.021
-521.960	156.915	-0.202	-0.279
-520.945	-154.574	0.208	-0.014
-519.931	-130.078	-0.211	0.029
-518.916	-200.000	-0.022	0.259
-517.902	8.619	0.132	-0.099
-516.887	-80.001	-0.319	0.107
-515.872	726.492	0.055	-0.147
-514.858	-146.959	0.276	-0.024
-513.843	29.330	-0.132	-0.112
-512.829	252.902	-0.135	0.230
-511.814	-147.749	-0.123	-0.010
-510.799	-200.000	-0.014	-0.098
-509.785	11.615	-0.036	0.028
-508.770	-48.966	-0.051	0.024
-507.756	-200.000	-0.009	0.317
-506.741	1.927	0.167	0.120
-505.726	94.082	0.161	-0.182
-504.712	-51.458	-0.090	-0.042
-503.697	84.641	0.129	-0.141
-502.683	331.913	0.031	0.059
-501.668	-25.251	0.228	0.134
-500.653	307.894	0.031	-0.058
-499.639	64.162	0.161	-0.162
-498.624	201.304	-0.180	0.277
-497.610	27.090	0.022	0.018
-496.595	800.000	0.038	0.134
-495.581	26.762	-0.271	-0.227
-494.566	205.972	-0.162	0.252
-493.551	411.426	0.111	0.235
-492.537	-12.707	0.146	-0.095
-491.522	-40.766	-0.405	-0.209
-490.508	224.044	-0.066	0.107
-489.493	196.460	0.115	0.175
-488.478	-59.398	0.173	0.074
-487.464	59.504	0.172	-0.169
-486.449	51.071	0.250	0.236
-485.435	800.000	-0.035	-0.103
-484.420	225.609	-0.133	-0.215
-483.405	94.720	0.287	0.325
-482.391	118.357	0.109	0.134
-481.376	-68.610	-0.430	0.166
-480.362	-27.802	-0.047	0.027
-479.347	192.697	0.075	0.113
-478.332	-48.214	-0.157	-0.076
-477.318	-117.553	-0.085	-0.015
-476.303	-25.773	-0.248	0.146
-475.289	-146.212	0.437	-0.038
-474.274	47.731	0.131	0.122
-473.259	-44.242	-0.236	0.118
-472.245	-70.233	0.035	-0.013
-471.230	183.336	-0.284	0.418
-470.216	-120.104	-0.113	0.019
-469.201	-16.406	-0.120	0.076
-468.186	-23.511	0.291	-0.174
-467.172	800.000	-0.048	0.198
-466.157	-200.000	-0.009	-0.060
-465.143	-14.941	-0.163	-0.104
-464.128	-200.000	0.028	0.518
-463.113	-56.945	0.141	0.062
-462.099	-63.467	-0.125	-0.051
-461.084	-167.417	0.058	0.002
-460.070	8.495	-0.119	-0.089
-459.055	-47.450	0.211	0.102
-458.040	-200.000	0.032	-0.239
-457.026	113.203	0.203	-0.246
-456.011	-200.000	-0.026	0.375
-454.997	800.000	0.153	0.429
-453.982	-66.446	-0.339	-0.134
-452.968	-200.000	-0.051	-0.232
-451.953	-200.000	-0.047	-0.219
-450.938	-200.000	0.009	0.059
-449.924	800.000	0.087	0.294
-448.909	58.533	-0.127	0.125
-447.895	301.405	0.034	-0.062
-446.880	-141.621	0.268	-0.027
-445.865	-111.303	0.395	-0.080
-444.851	37.928	-0.153	0.135
-443.836	-17.879	0.362	-0.226
-442.822	182.667	-0.122	-0.179
-441.807	-104.512	0.286	-0.066
-440.792	-127.765	0.282	0.041
-439.778	81.094	0.124	0.134
-438.763	-37.375	-0.188	0.100
-437.749	150.254	-0.043	0.059
-436.734	-132.843	0.083	-0.011
-435.719	176.833	0.232	0.336
-434.705	320.918	0.043	-0.081
-433.690	202.316	0.108	-0.166
-432.676	-84.835	-0.237	0.074
-431.661	-151.101	0.138	0.010
-430.646	-200.000	-0.007	-0.067
-429.632	-200.000	-0.018	-0.134
-428.617	324.828	0.017	0.032
-427.603	165.753	0.191	-0.268
-426.588	-10.705	-0.289	0.190
-425.573	-200.000	-0.031	0.211
-424.559	-200.000	0.028	0.223
-423.544	-134.801	0.315	-0.038
-422.530	-200.000	0.017	-0.123
-421.515	-7.756	-0.146	0.098
-420.500	-4.825	0.273	-0.187
-419.486	-83.911	0.240	0.076
-418.471	63.668	-0.051	0.051
-417.457	-200.000	0.029	-0.419
-416.442	-200.000	-0.003	-0.154
-415.428	-7.417	-0.299	0.202
-414.413	-34.120	-0.317	0.173
-413.398	-95.609	-0.269	0.072
-412.384	-127.175	-0.034	-0.005
-411.369	-148.098	0.084	-0.007
-410.355	-200.000	-0.007	0.181
-409.340	121.326	0.033	0.041
-408.325	-104.248	-0.123	-0.028
-407.311	-20.548	-0.216	-0.132
-406.296	-79.062	0.395	0.133
-405.282	-200.000	0.023	0.165
-404.267	19.122	0.107	0.085
-403.252	-53.232	0.233	-0.106
-402.238	713.085	-0.088	0.233
-401.223	-200.000	0.006	-0.066
-400.209	-8.852	-0.216	0.144
-399.194	-200.000	-0.009	-0.392
-398.179	328.795	-0.087	-0.165
-397.165	-95.076	0.206	0.055
-396.150	-200.000	0.021	-0.264
-395.136	-67.636	0.306	-0.119
-394.121	-110.029	0.206	0.043
-393.106	-93.176	-0.262	-0.072
-392.092	-137.121	0.384	0.044
-391.077	-116.984	-0.245	-0.044
-390.063	71.727	0.143	-0.148
-389.048	-200.000	0.007	-0.179
-388.033	426.781	0.142	-0.305
-387.019	653.801	0.111	-0.282
-386.004	448.401	-0.071	0.156
-384.990	-71.366	-0.220	0.082
-383.975	92.846	-0.311	0.349
-382.960	355.562	-0.136	0.269
-381.946	-96.444	0.044	0.012
-380.931	113.334	-0.133	-0.160
-379.917	-83.244	0.131	0.042
-378.902	105.560	0.145	-0.170
-377.888	800.000	-0.103	-0.284
-376.873	-109.454	0.322	0.068
-375.858	-200.000	0.006	-0.153
-374.844	169.524	0.090	-0.127
-373.829	790.472	0.076	0.207
-372.815	-200.000	-0.015	-0.166
-371.800	266.911	-0.112	-0.194
-370.785	139.381	-0.243	0.318
-369.771	-89.840	0.429	-0.125
-368.756	-3.829	-0.058	-0.040
-367.742	-21.645	0.245	-0.148
-366.727	-106.569	-0.201	-0.044
-365.712	-46.807	0.022	-0.011
-364.698	380.122	0.046	0.093
-363.683	81.893	-0.156	0.167
-362.669	800.000	-0.040	-0.148
-361.654	500.817	-0.056	-0.128
-360.639	-9.709	0.277	0.183
-359.625	-163.980	-0.213	-0.010
-358.610	496.608	-0.054	-0.123
-357.596	-44.917	0.295	0.146
-356.581	-141.046	-0.336	0.034
-355.566	75.046	0.080	-0.083
-354.552	-88.239	0.031	-0.009
-353.537	-71.057	-0.261	0.097
-352.523	47.740	0.123	-0.114
-351.508	96.100	0.164	0.186
-350.493	49.813	-0.216	-0.202
-349.479	631.528	-0.060	-0.152
-348.464	-200.000	-0.054	-0.411
-347.450	-165.635	0.325	-0.014
-346.435	-51.189	0.176	-0.082
-345.420	-60.323	0.044	-0.019
-344.406	-112.952	-0.019	0.004
-343.391	-200.000	-0.259	0.000
-342.377	18.816	-0.276	-0.219
-341.362	6.477	0.195	0.144
-340.348	-32.062	0.133	0.074
-339.333	403.819	-0.032	-0.068
-338.318	-32.319	-0.074	0.041
-337.304	-132.854	0.101	-0.013
-336.289	-200.000	-0.024	-0.237
-335.275	-19.673	-0.302	-0.185
-334.260	-96.912	-0.093	0.024
-333.245	-69.268	0.187	0.071
-332.231	29.692	-0.210	-0.177
-331.216	11.687	0.205	0.156
-330.202	-200.000	-0.004	0.031
-329.187	-43.249	0.339	0.170
-328.172	-82.429	0.127	0.041
-327.158	800.000	0.075	-0.222
-326.143	-177.844	-0.215	-0.005
-325.129	729.663	-0.066	-0.174
-324.114	800.000	0.074	0.263
-323.099	194.942	0.066	0.099
-322.085	720.822	0.093	0.245
-321.070	344.634	-0.089	0.174
-320.056	-147.487	0.228	0.019
-319.041	-95.167	-0.253	-0.068
-318.026	-200.000	-0.000	0.385
-317.012	-200.000	-0.015	-0.168
-315.997	-1.693	-0.254	-0.177
-314.983	756.134	0.077	-0.205
-313.968	-200.000	0.001	-0.208
-312.953	-142.387	0.192	0.019
-311.939	424.624	0.088	0.187
-310.924	-200.000	0.027	-0.275
-309.910	381.921	-0.079	-0.161
-308.895	-132.362	0.447	-0.057
-307.880	-32.424	-0.364	-0.201
-306.866	402.895	0.027	0.056
-305.851	-200.000	-0.037	0.175
-304.837	4.320	-0.066	0.048
-303.822	-81.782	-0.131	0.042
-302.807	-29.629	0.197	0.111
-301.793	12.615	0.208	0.159
-300.778	491.648	0.074	0.168
-299.764	-59.847	-0.140	-0.059
-298.749	306.430	0.094	0.174
-297.735	800.000	-0.051	0.191
-296.720	35.088	-0.235	0.204
-295.705	800.000	-0.044	-0.171
-294.691	-129.327	0.204	0.028
-293.676	-112.856	-0.108	-0.021
-292.662	115.537	0.121	0.147
-291.647	73.678	0.143	-0.148
-290.632	-200.000	-0.027	0.133
-289.618	-179.332	-0.186	-0.004
-288.603	381.183	0.046	-0.092
-287.589	-14.971	-0.252	-0.160
-286.574	800.000	0.085	0.360
-285.559	-200.000	-0.007	-0.134
-284.545	-200.000	-0.001	0.049
-283.530	64.920	0.055	0.055
-282.516	43.559	-0.155	-0.140
-281.501	-53.656	0.341	0.154
-280.486	-136.955	-0.395	-0.045
-279.472	418.930	0.120	0.253
-278.457	800.000	0.098	0.378
-277.443	-132.773	-0.477	-0.060
-276.428	-120.915	0.098	-0.016
-275.413	-68.699	0.131	-0.050
-274.399	-21.585	-0.248	-0.149
-273.384	-200.000	-0.008	-0.083
-272.370	19.929	0.023	0.018
-271.355	427.257	0.043	-0.091
-270.340	-118.048	-0.113	-0.020
-269.326	-150.750	-0.157	0.012
-268.311	-54.723	-0.124	0.055
-267.297	-79.555	-0.154	0.052
-266.282	-15.954	0.221	-0.139
-265.267	108.909	0.144	-0.170
-264.253	-200.000	0.008	-0.086
-263.238	800.000	-0.060	-0.184
-262.224	-129.361	-0.117	0.016
-261.209	59.790	0.210	0.205
-260.195	614.795	0.157	0.389
-259.180	800.000	0.011	0.045
-258.165	-90.605	-0.247	0.071
-257.151	19.202	-0.234	0.186
-256.136	-200.000	-0.057	0.450
-255.122	46.178	0.039	0.036
-254.107	-14.496	0.068	0.044
-253.092	800.000	-0.067	0.186
-252.078	-200.000	-0.006	0.263
-251.063	46.292	-0.202	-0.185
-250.049	-17.130	0.041	-0.025
-249.034	532.138	-0.011	-0.026
-248.019	174.718	0.121	0.174
-247.005	-36.100	0.011	-0.006
-245.990	42.034	-0.071	0.064
-244.976	95.096	0.027	0.030
-243.961	-101.701	-0.136	0.033
-242.946	-92.640	0.157	-0.043
-241.932	-78.146	-0.501	-0.170
-240.917	-200.000	0.057	-0.572
-239.903	-167.222	0.391	-0.016
-238.888	800.000	0.165	0.472
-237.873	-200.000	0.015	-0.151
-236.859	-103.491	-0.322	0.075
-235.844	-200.000	-0.061	0.372
-234.830	-59.048	-0.217	0.092
-233.815	218.525	0.127	-0.200
-232.800	269.755	-0.114	-0.197
-231.786	-200.000	-0.028	-0.243
-230.771	79.935	-0.081	-0.086
-229.757	-200.000	-0.028	-0.148
-228.742	-111.503	0.096	0.019
-227.727	-200.000	-0.003	0.079
-226.713	-200.000	0.003	-0.452
-225.698	251.459	-0.227	-0.382
-224.684	-59.458	0.096	0.041
-223.669	-200.000	0.007	0.105
-222.655	449.053	0.035	-0.076
-221.640	0.252	-0.046	0.032
-220.625	708.273	0.058	-0.152
-219.611	89.465	0.101	-0.111
-218.596	33.019	0.025	-0.021
-217.582	-20.484	0.007	0.004
-216.567	69.781	-0.218	-0.222
-215.552	-200.000	0.015	0.138
-214.538	374.044	-0.097	0.195
-213.523	56.763	0.112	-0.107
-212.509	-200.000	0.015	0.241
-211.494	647.562	-0.109	0.274
-210.479	133.853	-0.076	0.097
-209.465	302.207	0.087	-0.160
-208.450	208.248	0.037	-0.058
-207.436	77.297	0.162	-0.170
-206.421	-200.000	0.004	0.307
-205.406	260.407	-0.161	-0.275
-204.392	12.670	0.221	0.168
-203.377	-151.325	-0.355	-0.026
-202.363	800.000	0.111	0.329
-201.348	-102.348	0.226	0.053
-200.333	222.582	-0.245	-0.389
-199.319	432.686	0.028	0.059
-198.304	-200.000	-0.018	0.092
-197.290	-200.000	-0.032	-0.151
-196.275	250.970	0.035	-0.058
-195.260	88.464	0.030	-0.033
-194.246	-39.685	0.270	0.139
-193.231	-0.242	0.045	0.031
-192.217	-200.000	-0.053	-0.343
-191.202	12.954	-0.168	-0.128
-190.187	-71.306	-0.280	0.104
-189.173	130.729	0.160	0.203
-188.158	-122.893	-0.273	0.043
-187.144	-170.233	0.212	0.007
-186.129	-200.000	-0.024	0.242
-185.114	-200.000	0.025	-0.236
-184.100	101.230	0.104	-0.120
-183.085	800.000	-0.081	0.283
-182.071	-32.565	0.052	0.028
-181.056	-200.000	-0.028	-0.153
-180.042	-200.000	-0.039	-0.170
-179.027	220.200	-0.043	-0.067
-178.012	26.551	0.058	-0.048
-176.998	800.000	-0.057	0.207
-175.983	-200.000	-0.011	-0.135
-174.969	-180.484	0.056	0.001
-173.954	209.325	-0.127	0.195
-172.939	-67.945	-0.203	0.078
-171.925	-81.597	-0.350	-0.113
-170.910	-199.552	-0.194	0.001
-169.896	-50.665	-0.269	0.125
-168.881	800.000	0.036	0.112
-167.866	360.337	0.211	-0.417
-166.852	54.934	-0.120	-0.114
-165.837	-40.677	0.290	-0.148
-164.823	508.941	-0.100	-0.228
-163.808	-94.432	0.268	0.072
-162.793	800.000	0.081	0.262
-161.779	-13.734	-0.164	0.105
-160.764	-11.969	0.152	-0.098
-159.750	-47.891	0.257	0.122
-158.735	-200.000	0.015	-0.390
-157.720	-45.061	-0.174	0.085
-156.706	455.667	0.110	-0.239
-155.691	-53.934	0.062	0.028
-154.677	374.827	-0.067	0.135
-153.662	47.391	0.144	0.132
-152.647	259.554	-0.063	0.108
-151.633	-86.549	0.422	-0.127
-150.618	231.317	-0.105	0.169
-149.604	-30.235	-0.145	-0.081
-148.589	227.039	0.249	-0.398
-147.574	800.000	0.075	0.254
-146.560	-200.000	-0.018	0.235
-145.545	-87.490	-0.172	0.051
-144.531	-79.311	-0.208	-0.069
-143.516	293.656	0.132	-0.237
-142.502	-139.992	-0.302	-0.031
-141.487	202.022	0.108	-0.164
-140.472	74.814	0.206	-0.213
-139.458	-127.415	0.351	0.050
-138.443	448.466	0.075	-0.163
-137.429	-147.670	0.076	-0.006
-136.414	-74.827	0.141	0.050
-135.399	-62.270	-0.216	-0.089
-134.385	-30.170	0.034	0.019
-133.370	181.503	-0.118	-0.170
-132.356	148.172	0.109	0.144
-131.341	-75.530	-0.139	0.049
-130.326	694.416	-0.043	0.112
-129.312	496.141	0.069	0.155
-128.297	-3.487	0.043	0.029
-127.283	800.000	0.109	-0.307
-126.268	-44.157	0.209	0.103
-125.253	54.123	0.124	0.118
-124.239	12.087	-0.078	0.059
-123.224	207.032	0.073	0.112
-122.210	800.000	-0.072	-0.269
-121.195	-200.000	0.018	-0.157
-120.180	-200.000	0.065	-0.364
