DTS Sentinel unit serial number:	SN413079Multiplexer serial number:	ORYXHardware model number:	OX4-SRSoftware version number:	ORYX F/W v4.00 Oryx Data Collector v3.7.2.0data status	okinstallation	princeton_trtdifferential loss correction	single-endedforward channel	channel 2reverse channel	N/Adate	2019/09/16time	09:19:34forward acquisition time	60.00reverse acquisition time	0.00gamma	496.2192k internal	0.2325k external	0.2325temperature offset calibration	0.9971default loss term (dB/km)	0.3790temperature slope calibration	1.0000multiplexer offset coefficient	1.0000multiplexer slope coefficient	1.0000fibre end	0.00T internal ref (°C)	31.33T ext. ref 1 (°C)	12.16T ext. ref 2 (°C)	28.89length (m)	temperature (°C)	Stokes	anti-Stokes-747.200	72.132	0.124	0.130
-746.185	294.222	-0.099	0.182
-745.171	-7.534	0.395	0.270
-744.156	101.803	-0.268	0.316
-743.142	55.839	0.122	-0.120
-742.127	32.773	-0.074	0.065
-741.112	54.050	0.252	0.245
-740.098	630.073	0.146	0.373
-739.083	113.646	-0.114	0.140
-738.069	52.809	0.072	0.070
-737.054	106.965	0.146	0.175
-736.039	32.634	-0.196	0.171
-735.025	-94.394	0.309	-0.085
-734.010	-149.994	-0.252	0.020
-732.996	33.287	-0.047	0.041
-731.981	144.391	0.218	0.293
-730.966	-79.816	-0.462	-0.157
-729.952	-161.839	0.216	0.011
-728.937	800.000	0.004	0.018
-727.923	61.375	0.033	-0.034
-726.908	800.000	-0.105	-0.371
-725.894	321.576	-0.083	0.159
-724.879	-200.000	-0.023	0.280
-723.864	800.000	-0.030	0.118
-722.850	-200.000	0.038	-0.375
-721.835	256.816	0.180	-0.312
-720.821	800.000	-0.027	0.105
-719.806	105.224	0.121	-0.143
-718.791	223.893	0.125	-0.204
-717.777	800.000	-0.103	-0.326
-716.762	800.000	-0.098	-0.363
-715.748	-39.270	0.033	-0.017
-714.733	108.272	-0.102	0.123
-713.718	521.705	-0.067	0.159
-712.704	-3.889	0.172	-0.120
-711.689	-47.667	0.374	0.183
-710.675	-200.000	0.022	-0.246
-709.660	286.760	0.018	-0.033
-708.645	41.489	-0.141	-0.128
-707.631	-87.640	0.196	0.060
-706.616	60.443	0.036	0.036
-705.602	101.251	-0.125	-0.147
-704.587	55.889	0.135	-0.132
-703.572	85.591	0.031	-0.035
-702.558	-121.901	0.106	-0.018
-701.543	9.196	0.049	-0.038
-700.529	165.841	0.078	0.111
-699.514	-200.000	0.006	-0.163
-698.499	-200.000	-0.241	-0.001
-697.485	97.473	-0.034	0.040
-696.470	-200.000	0.043	0.198
-695.456	284.723	0.104	0.189
-694.441	-64.268	0.239	-0.098
-693.426	444.923	-0.036	-0.079
-692.412	-173.368	0.231	0.007
-691.397	-109.952	0.166	0.035
-690.383	-123.688	-0.235	0.037
-689.368	-23.836	-0.138	0.083
-688.354	38.321	-0.160	0.143
-687.339	800.000	0.085	-0.268
-686.324	-140.420	0.131	-0.014
-685.310	-28.090	0.122	0.071
-684.295	-95.893	-0.203	-0.054
-683.281	800.000	-0.126	-0.400
-682.266	112.966	0.177	-0.216
-681.251	186.059	0.155	0.231
-680.237	-147.536	-0.275	-0.023
-679.222	-128.441	-0.333	-0.048
-678.208	-200.000	-0.004	-0.383
-677.193	800.000	0.029	0.083
-676.178	-200.000	-0.061	0.268
-675.164	126.971	-0.252	0.321
-674.149	800.000	-0.087	0.343
-673.135	800.000	0.039	-0.113
-672.120	763.549	0.111	-0.303
-671.105	-18.349	0.281	0.177
-670.091	-109.543	-0.034	-0.007
-669.076	218.778	-0.283	-0.455
-668.062	67.651	0.071	0.073
-667.047	-200.000	0.040	-0.195
-666.032	-85.498	-0.335	-0.105
-665.018	119.908	-0.193	0.241
-664.003	60.506	0.330	0.329
-662.989	-61.584	-0.279	0.118
-661.974	54.994	-0.205	-0.199
-660.959	137.404	-0.190	0.250
-659.945	36.224	-0.268	-0.237
-658.930	5.623	-0.287	0.213
-657.916	-197.151	-0.262	-0.002
-656.901	-200.000	-0.034	-0.272
-655.886	-200.000	-0.009	0.192
-654.872	38.334	0.187	-0.167
-653.857	-200.000	-0.007	-0.064
-652.843	67.171	0.081	0.083
-651.828	-200.000	-0.060	0.411
-650.814	-200.000	-0.014	0.292
-649.799	800.000	-0.059	-0.214
-648.784	800.000	0.081	0.240
-647.770	53.417	0.085	0.082
-646.755	305.471	-0.079	-0.147
-645.741	-68.167	-0.314	0.123
-644.726	800.000	-0.259	-0.728
-643.711	127.709	-0.058	-0.074
-642.697	-40.192	-0.264	0.138
-641.682	137.427	-0.111	-0.146
-640.668	-146.710	0.279	0.024
-639.653	-127.429	-0.031	-0.005
-638.638	-2.564	0.132	-0.093
-637.624	-91.460	-0.452	-0.130
-636.609	-62.414	-0.176	-0.074
-635.595	165.115	-0.212	-0.301
-634.580	-200.000	0.002	0.276
-633.565	-71.594	-0.268	-0.101
-632.551	-200.000	0.005	-0.115
-631.536	28.771	0.105	0.089
-630.522	-135.638	-0.248	-0.030
-629.507	31.497	0.341	-0.294
-628.492	-174.396	-0.065	0.002
-627.478	278.320	0.035	-0.063
-626.463	-26.556	-0.241	0.142
-625.449	-200.000	-0.027	0.197
-624.434	-95.131	-0.521	0.141
-623.419	-120.225	-0.163	0.028
-622.405	750.642	0.167	0.452
-621.390	800.000	0.119	-0.432
-620.376	-159.868	-0.262	-0.014
-619.361	-116.189	-0.113	-0.021
-618.346	81.148	0.203	-0.220
-617.332	-90.432	0.128	-0.037
-616.317	35.920	-0.138	-0.122
-615.303	-107.605	0.142	0.031
-614.288	-22.010	0.277	-0.169
-613.273	-127.957	0.278	0.040
-612.259	598.107	0.075	-0.187
-611.244	526.414	0.076	-0.181
-610.230	308.838	0.039	0.074
-609.215	-104.934	-0.179	-0.041
-608.201	-141.447	0.431	0.044
-607.186	800.000	-0.038	0.117
-606.171	-200.000	0.007	-0.114
-605.157	590.898	0.123	-0.305
-604.142	-126.780	0.243	0.036
-603.128	-200.000	0.054	0.286
-602.113	-200.000	-0.010	-0.131
-601.098	-200.000	0.045	0.331
-600.084	-32.800	0.226	0.126
-599.069	92.510	-0.190	-0.215
-598.055	87.140	0.426	-0.473
-597.040	270.754	-0.084	-0.149
-596.025	350.897	-0.085	0.169
-595.011	403.747	0.074	0.157
-593.996	-31.924	-0.225	0.127
-592.982	-40.794	0.374	0.194
-591.967	-200.000	0.034	0.179
-590.952	-71.306	-0.216	0.081
-589.938	260.549	0.065	-0.113
-588.923	-2.941	0.311	0.218
-587.909	-41.647	-0.266	-0.137
-586.894	574.401	-0.041	-0.100
-585.879	-36.723	0.226	-0.122
-584.865	-57.194	-0.280	-0.124
-583.850	80.111	0.185	0.199
-582.836	602.075	0.061	-0.153
-581.821	-172.387	-0.034	-0.001
-580.806	349.759	0.101	-0.200
-579.792	-120.039	-0.323	0.056
-578.777	-200.000	0.032	-0.276
-577.763	-124.286	-0.389	0.061
-576.748	800.000	-0.029	-0.126
-575.733	-124.233	-0.143	-0.022
-574.719	800.000	0.069	-0.233
-573.704	-42.150	0.136	-0.069
-572.690	-63.837	0.409	0.168
-571.675	-17.909	-0.316	0.198
-570.661	-188.083	-0.146	0.002
-569.646	-200.000	-0.072	0.319
-568.631	140.738	0.031	-0.041
-567.617	-200.000	0.016	-0.204
-566.602	625.061	-0.121	0.306
-565.588	-98.087	-0.501	0.129
-564.573	25.490	0.184	-0.154
-563.558	800.000	0.093	0.283
-562.544	187.471	-0.038	-0.057
-561.529	-93.251	0.108	-0.030
-560.515	-200.000	0.026	0.186
-559.500	-200.000	0.016	0.134
-558.485	-83.822	-0.207	0.066
-557.471	257.956	0.166	0.286
-556.456	-16.473	0.087	0.055
-555.442	-37.599	-0.319	0.170
-554.427	96.297	0.105	0.121
-553.412	-56.216	-0.200	0.089
-552.398	731.984	0.113	-0.303
-551.383	-39.436	-0.141	-0.074
-550.369	202.679	0.073	0.112
-549.354	572.227	-0.098	0.239
-548.339	-159.098	-0.239	-0.014
-547.325	15.676	-0.036	-0.028
-546.310	-200.000	0.010	0.332
-545.296	-200.000	0.020	-0.105
-544.281	-200.000	0.026	-0.298
-543.266	-200.000	-0.021	-0.111
-542.252	-200.000	-0.049	0.258
-541.237	-39.317	0.124	0.065
-540.223	18.105	-0.111	-0.089
-539.208	-12.510	-0.121	-0.079
-538.193	-143.422	-0.260	0.025
-537.179	-152.582	0.287	0.021
-536.164	800.000	0.067	0.258
-535.150	-19.883	0.342	0.211
-534.135	134.754	0.087	0.113
-533.121	-60.953	0.232	0.098
-532.106	-77.414	0.272	-0.094
-531.091	-11.352	0.312	-0.206
-530.077	800.000	0.018	-0.056
-529.062	-200.000	0.001	-0.098
-528.048	-200.000	0.006	0.134
-527.033	228.214	-0.250	-0.408
-526.018	-78.434	-0.136	0.047
-525.004	61.206	0.126	0.125
-523.989	-75.699	-0.178	-0.063
-522.975	145.919	0.112	0.151
-521.960	-200.000	0.029	0.227
-520.945	240.043	-0.073	0.121
-519.931	-55.410	-0.214	-0.096
-518.916	-110.181	0.159	-0.033
-517.902	243.877	-0.047	-0.079
-516.887	144.687	0.269	-0.360
-515.872	-64.671	0.148	-0.060
-514.858	-94.014	0.256	-0.070
-513.843	-61.546	-0.268	-0.112
-512.829	-150.386	0.238	-0.018
-511.814	-49.861	0.100	0.047
-510.799	-200.000	0.044	0.298
-509.785	28.946	-0.164	0.139
-508.770	-116.737	0.301	-0.055
-507.756	52.756	0.130	-0.124
-506.741	152.241	0.052	0.070
-505.726	277.308	0.108	-0.193
-504.712	42.125	0.049	-0.044
-503.697	800.000	0.094	-0.290
-502.683	245.039	0.237	-0.398
-501.668	-2.209	-0.195	-0.137
-500.653	-47.270	0.158	-0.077
-499.639	503.401	-0.218	-0.505
-498.624	-131.328	-0.264	-0.035
-497.610	-114.997	-0.106	-0.020
-496.595	800.000	0.066	-0.227
-495.581	-200.000	0.018	0.317
-494.566	84.745	0.216	0.237
-493.551	15.543	0.143	0.112
-492.537	18.874	0.183	-0.147
-491.522	72.437	0.333	0.347
-490.508	-60.865	-0.275	0.116
-489.493	-125.422	-0.158	-0.024
-488.478	-200.000	-0.071	-0.559
-487.464	116.995	-0.118	0.145
-486.449	272.496	-0.067	-0.119
-485.435	775.469	-0.045	0.122
-484.420	-39.708	0.391	-0.204
-483.405	12.065	0.141	0.108
-482.391	324.976	0.165	-0.315
-481.376	-55.818	-0.220	-0.098
-480.362	-159.346	-0.195	-0.011
-479.347	-108.153	0.246	-0.053
-478.332	-128.775	-0.279	0.039
-477.318	-199.157	0.121	-0.001
-476.303	3.620	0.270	0.197
-475.289	-88.313	0.221	-0.066
-474.274	105.504	0.152	0.180
-473.259	-200.000	-0.067	-0.470
-472.245	15.070	-0.156	-0.122
-471.230	152.222	-0.107	0.145
-470.216	92.986	0.050	0.056
-469.201	-78.489	-0.246	-0.084
-468.186	-90.056	-0.155	-0.045
-467.172	113.916	-0.110	0.133
-466.157	202.180	-0.115	0.177
-465.143	34.258	0.244	0.212
-464.128	-15.974	-0.103	0.065
-463.113	800.000	0.045	-0.156
-462.099	153.395	-0.092	-0.126
-461.084	357.276	-0.033	-0.066
-460.070	82.846	0.055	-0.060
-459.055	-200.000	0.007	0.197
-458.040	-200.000	-0.014	-0.074
-457.026	800.000	0.113	-0.394
-456.011	164.228	-0.145	0.204
-454.997	-83.893	-0.198	-0.063
-453.982	-103.242	-0.226	-0.053
-452.968	800.000	-0.072	0.206
-451.953	21.597	-0.327	0.266
-450.938	-25.428	-0.163	-0.096
-449.924	67.879	-0.129	0.131
-448.909	-48.209	0.127	0.061
-447.895	-200.000	0.002	-0.111
-446.880	-1.458	-0.197	0.139
-445.865	84.796	0.110	-0.120
-444.851	-200.000	0.027	0.127
-443.836	-135.435	-0.221	0.026
-442.822	15.757	0.240	0.189
-441.807	-36.995	0.123	-0.066
-440.792	223.727	-0.131	0.210
-439.778	-200.000	-0.044	0.224
-438.763	800.000	0.054	0.211
-437.749	-28.554	-0.153	-0.088
-436.734	-200.000	0.092	-0.479
-435.719	-94.544	-0.215	-0.058
-434.705	674.010	-0.184	0.475
-433.690	149.981	-0.205	-0.278
-432.676	-55.475	0.221	-0.099
-431.661	-98.248	-0.153	-0.039
-430.646	-200.000	0.037	0.242
-429.632	-152.332	0.034	0.002
-428.617	4.291	0.281	-0.205
-427.603	590.632	0.113	0.278
-426.588	-200.000	-0.022	0.324
-425.573	-200.000	-0.001	-0.158
-424.559	-200.000	0.023	-0.461
-423.544	-110.887	0.261	0.054
-422.530	59.997	-0.337	0.332
-421.515	-156.381	0.108	-0.007
-420.500	-93.114	0.088	-0.025
-419.486	188.119	0.125	-0.185
-418.471	136.305	0.100	0.130
-417.457	-64.364	-0.242	-0.098
-416.442	-200.000	-0.040	-0.319
-415.428	481.357	0.167	-0.378
-414.413	30.245	-0.149	-0.127
-413.398	336.846	0.042	-0.081
-412.384	157.636	0.182	0.250
-411.369	-200.000	-0.047	-0.230
-410.355	59.584	-0.010	0.009
-409.340	-114.470	-0.192	-0.037
-408.325	31.101	0.148	-0.127
-407.311	49.884	0.125	0.117
-406.296	69.301	-0.102	0.104
-405.282	68.596	0.178	0.182
-404.267	-200.000	-0.048	-0.255
-403.252	-200.000	-0.033	-0.286
-402.238	464.296	-0.069	-0.153
-401.223	-75.769	0.243	-0.086
-400.209	-200.000	0.000	0.077
-399.194	427.622	-0.140	0.301
-398.179	406.528	-0.137	0.288
-397.165	-52.077	0.202	-0.093
-396.150	452.499	0.016	0.034
-395.136	-177.927	-0.097	0.002
-394.121	116.495	0.280	-0.342
-393.106	-111.261	-0.207	-0.042
-392.092	-157.247	0.294	0.018
-391.077	-137.298	0.354	0.040
-390.063	477.062	-0.097	0.219
-389.048	203.202	-0.120	0.185
-388.033	189.814	-0.152	-0.227
-387.019	438.110	0.107	0.232
-386.004	527.309	-0.156	-0.365
-384.990	-130.028	0.364	-0.050
-383.975	11.279	-0.166	0.126
-382.960	59.123	0.187	0.183
-381.946	-200.000	-0.015	0.269
-380.931	-200.000	-0.015	-0.138
-379.917	398.420	-0.121	-0.252
-378.902	117.320	0.144	-0.176
-377.888	-69.097	0.107	0.041
-376.873	-200.000	0.032	-0.210
-375.858	-11.746	-0.006	0.004
-374.844	-90.060	-0.217	0.063
-373.829	-28.238	0.447	0.257
-372.815	-42.004	-0.233	0.119
-371.800	748.362	-0.093	0.249
-370.785	35.008	-0.172	0.149
-369.771	-155.658	0.229	0.015
-368.756	168.149	-0.050	0.071
-367.742	499.618	-0.097	0.223
-366.727	194.700	0.181	0.274
-365.712	-20.357	0.144	0.088
-364.698	-133.017	0.249	0.031
-363.683	-43.324	-0.393	-0.198
-362.669	-182.076	0.258	0.005
-361.654	108.328	0.205	-0.243
-360.639	-165.537	-0.025	-0.001
-359.625	-123.714	0.082	-0.013
-358.610	-32.891	-0.156	0.086
-357.596	165.264	0.248	0.348
-356.581	-5.780	-0.179	-0.122
-355.566	54.008	0.343	-0.328
-354.552	-97.189	0.437	0.113
-353.537	-140.804	-0.261	0.027
-352.523	-142.487	0.338	0.033
-351.508	229.239	0.021	0.034
-350.493	19.248	0.149	0.119
-349.479	800.000	0.044	0.144
-348.464	-93.433	0.236	-0.065
-347.450	800.000	-0.044	-0.146
-346.435	185.752	-0.092	0.136
-345.420	-200.000	-0.016	-0.075
-344.406	228.255	0.149	0.241
-343.391	-200.000	0.010	0.256
-342.377	187.365	-0.095	0.140
-341.362	181.380	-0.362	0.528
-340.348	-3.217	0.173	0.120
-339.333	-200.000	0.000	-0.424
-338.318	37.862	0.163	0.144
-337.304	51.173	-0.237	-0.224
-336.289	-200.000	0.035	0.194
-335.275	174.416	0.161	-0.231
-334.260	138.459	-0.182	-0.237
-333.245	-66.596	0.316	0.125
-332.231	136.104	-0.112	-0.144
-331.216	-200.000	0.022	0.262
-330.202	-200.000	-0.019	0.268
-329.187	-43.865	-0.095	0.048
-328.172	-113.528	-0.358	-0.069
-327.158	134.128	0.196	-0.253
-326.143	498.532	-0.037	0.086
-325.129	-130.011	0.326	-0.044
-324.114	-135.670	-0.384	0.045
-323.099	-73.082	0.061	-0.022
-322.085	-38.971	-0.357	-0.187
-321.070	-116.580	0.175	-0.032
-320.056	98.216	0.013	-0.015
-319.041	81.787	-0.069	-0.074
-318.026	147.440	0.070	0.094
-317.012	592.039	0.142	0.347
-315.997	610.645	0.178	0.442
-314.983	-91.561	-0.279	0.079
-313.968	-126.320	-0.174	0.026
-312.953	-120.267	-0.348	0.059
-311.939	367.938	-0.040	0.079
-310.924	6.647	0.111	0.082
-309.910	49.701	0.071	0.066
-308.895	-200.000	-0.051	-0.448
-307.880	266.704	0.056	0.097
-306.866	-20.558	0.173	0.106
-305.851	97.274	-0.163	-0.186
-304.837	800.000	-0.109	0.320
-303.822	78.513	0.079	0.083
-302.807	58.676	-0.083	-0.080
-301.793	142.354	-0.124	-0.163
-300.778	-107.020	0.151	0.033
-299.764	800.000	0.109	-0.351
-298.749	-8.396	0.198	-0.132
-297.735	-178.651	-0.270	-0.006
-296.720	-200.000	-0.014	-0.173
-295.705	-200.000	0.009	-0.176
-294.691	129.706	-0.111	0.140
-293.676	49.338	-0.186	0.173
-292.662	47.223	-0.097	0.089
-291.647	404.097	-0.026	-0.053
-290.632	369.099	-0.052	0.104
-289.618	610.474	0.046	0.113
-288.603	97.730	-0.181	-0.206
-287.589	-200.000	-0.043	0.290
-286.574	-52.041	-0.166	0.076
-285.559	325.119	0.048	-0.092
-284.545	-187.475	0.105	-0.001
-283.530	-20.950	0.065	-0.040
-282.516	25.477	0.155	-0.128
-281.501	57.495	0.114	-0.110
-280.486	-8.483	-0.184	0.123
-279.472	800.000	-0.028	-0.080
-278.457	-200.000	-0.040	-0.295
-277.443	800.000	-0.051	0.220
-276.428	-200.000	0.033	0.292
-275.413	62.070	-0.068	0.068
-274.399	64.703	-0.264	0.264
-273.384	375.753	-0.183	0.369
-272.370	98.158	0.168	0.192
-271.355	-2.988	-0.174	-0.121
-270.340	-169.777	-0.321	-0.011
-269.326	-200.000	-0.097	0.424
-268.311	-188.082	-0.241	0.003
-267.297	264.738	0.184	0.317
-266.282	-33.358	0.302	0.165
-265.267	357.841	-0.107	-0.211
-264.253	183.668	0.059	0.087
-263.238	-200.000	-0.019	-0.208
-262.224	596.412	-0.067	-0.164
-261.209	124.322	-0.046	-0.057
-260.195	-2.878	0.049	-0.034
-259.180	-162.192	0.429	-0.021
-258.165	-200.000	-0.047	0.215
-257.151	-73.646	-0.217	-0.078
-256.136	800.000	-0.078	0.249
-255.122	109.467	0.120	0.142
-254.107	-152.856	-0.445	-0.031
-253.092	-200.000	0.011	-0.214
-252.078	212.731	-0.164	0.256
-251.063	347.838	0.066	0.129
-250.049	189.143	-0.123	0.183
-249.034	13.679	-0.249	-0.191
-248.019	429.231	-0.134	-0.286
-247.005	-200.000	-0.021	-0.160
-245.990	-60.926	0.557	-0.233
-244.976	-3.951	-0.107	0.073
-243.961	87.885	0.179	-0.197
-242.946	800.000	-0.164	-0.462
-241.932	-200.000	-0.019	-0.182
-240.917	-200.000	-0.025	-0.197
-239.903	-100.445	0.213	-0.052
-238.888	-86.132	0.318	-0.097
-237.873	-125.623	-0.038	-0.006
-236.859	-200.000	0.070	0.406
-235.844	262.869	-0.049	-0.084
-234.830	-147.310	0.308	-0.026
-233.815	51.084	-0.231	-0.217
-232.800	-53.003	0.043	-0.019
-231.786	128.004	0.278	-0.350
-230.771	232.112	-0.059	0.096
-229.757	-92.727	0.244	0.068
-228.742	678.146	0.133	-0.343
-227.727	422.726	-0.062	0.133
-226.713	-200.000	0.040	-0.196
-225.698	-25.399	-0.444	-0.260
-224.684	151.822	0.132	-0.178
-223.669	174.273	0.163	0.232
-222.655	-12.127	-0.329	-0.213
-221.640	-157.047	0.180	-0.011
-220.625	-8.406	0.063	-0.042
-219.611	800.000	-0.088	0.262
-218.596	433.293	-0.072	0.153
-217.582	51.068	0.035	0.032
-216.567	-111.117	0.162	0.033
-215.552	-183.285	-0.185	0.003
-214.538	-67.812	0.098	0.038
-213.523	800.000	-0.098	0.281
-212.509	800.000	-0.039	0.112
-211.494	-127.347	-0.155	0.022
-210.479	-36.820	0.246	-0.131
-209.465	222.140	-0.206	0.328
-208.450	170.782	0.053	-0.075
-207.436	60.120	0.140	-0.136
-206.421	127.116	-0.217	-0.272
-205.406	123.520	-0.053	0.065
-204.392	127.773	-0.141	0.177
-203.377	43.634	0.237	0.214
-202.363	37.785	-0.179	0.157
-201.348	218.721	-0.170	0.269
-200.333	-200.000	0.017	0.076
-199.319	358.996	-0.109	0.215
-198.304	329.110	0.191	0.362
-197.290	-200.000	-0.054	-0.373
-196.275	-10.371	-0.187	0.122
-195.260	281.474	-0.162	-0.286
-194.246	-112.781	-0.341	-0.067
-193.231	-200.000	0.033	-0.240
-192.217	-200.000	-0.010	-0.102
-191.202	-200.000	0.064	-0.369
-190.187	24.600	0.168	-0.137
-189.173	-200.000	0.032	-0.275
-188.158	-71.834	-0.116	0.042
-187.144	-99.734	-0.289	-0.072
-186.129	-200.000	0.014	0.074
-185.114	122.957	0.110	-0.136
-184.100	-194.492	0.253	-0.002
-183.085	-78.335	0.107	0.036
-182.071	-132.515	0.207	0.026
-181.056	86.759	-0.268	-0.292
-180.042	99.828	-0.109	-0.124
-179.027	800.000	0.059	0.172
-178.012	-34.635	0.056	0.030
-176.998	-200.000	0.008	-0.200
-175.983	-82.169	-0.172	0.055
-174.969	14.103	0.351	0.270
-173.954	800.000	-0.062	0.208
-172.939	-200.000	0.037	-0.201
-171.925	75.094	-0.139	0.145
-170.910	184.744	0.162	0.237
-169.896	-200.000	-0.005	-0.112
-168.881	290.463	0.151	0.271
-167.866	-55.065	0.158	0.070
-166.852	-200.000	0.009	0.133
-165.837	-57.486	-0.342	-0.148
-164.823	427.098	0.107	0.227
-163.808	-162.926	-0.150	-0.007
-162.793	-17.632	-0.284	0.176
-161.779	800.000	0.065	-0.190
-160.764	190.674	0.132	-0.196
-159.750	34.855	0.055	-0.047
-158.735	411.581	0.085	-0.179
-157.720	140.916	-0.079	-0.103
-156.706	-76.441	0.312	0.108
-155.691	146.116	0.118	0.156
-154.677	-99.806	0.262	0.065
-153.662	-200.000	0.057	0.320
-152.647	345.925	-0.086	0.167
-151.633	-200.000	-0.016	-0.250
-150.618	-98.939	0.161	-0.040
-149.604	-200.000	-0.064	-0.545
-148.589	-92.085	-0.162	0.045
-147.574	-5.713	0.275	0.186
-146.560	118.335	-0.130	-0.158
-145.545	800.000	-0.048	-0.145
-144.531	-27.914	-0.344	-0.196
-143.516	298.941	0.223	0.405
-142.502	-94.460	0.151	0.041
-141.487	-48.934	-0.077	0.037
-140.472	-1.071	0.265	0.184
-139.458	653.975	-0.076	-0.192
-138.443	-6.262	0.086	0.058
-137.429	312.015	-0.098	0.181
-136.414	271.698	0.086	-0.150
-135.399	293.468	0.087	0.156
-134.385	-111.983	0.528	-0.105
-133.370	-144.221	-0.105	-0.010
-132.356	112.668	0.051	0.061
-131.341	-51.549	-0.150	-0.069
-130.326	-43.002	0.302	0.151
-129.312	8.998	0.080	-0.060
-128.297	91.540	0.182	0.201
-127.283	-200.000	0.016	-0.070
-126.268	-200.000	-0.038	-0.205
-125.253	36.917	0.047	0.041
-124.239	-77.578	-0.207	-0.071
-123.224	-93.098	0.287	-0.079
-122.210	-200.000	-0.011	-0.052
-121.195	-62.858	0.236	0.096
