DTS Sentinel unit serial number:	SN413079Multiplexer serial number:	ORYXHardware model number:	OX4-SRSoftware version number:	ORYX F/W v4.00 Oryx Data Collector v3.7.2.0data status	okinstallation	princeton_trtdifferential loss correction	single-endedforward channel	channel 2reverse channel	N/Adate	2019/09/11time	18:41:11forward acquisition time	60.00reverse acquisition time	0.00gamma	496.2192k internal	0.2288k external	0.2288temperature offset calibration	1.0029default loss term (dB/km)	0.3790temperature slope calibration	1.0000multiplexer offset coefficient	1.0000multiplexer slope coefficient	1.0000fibre end	0.00T internal ref (°C)	43.44T ext. ref 1 (°C)	1.21T ext. ref 2 (°C)	35.74length (m)	temperature (°C)	Stokes	anti-Stokes-747.200	800.000	-0.052	-0.161
-746.185	-200.000	-0.054	0.461
-745.171	-45.581	0.192	0.097
-744.156	366.735	-0.144	0.298
-743.142	-93.365	0.169	-0.048
-742.127	800.000	-0.077	0.221
-741.112	99.925	0.226	-0.269
-740.098	-200.000	0.095	-0.000
-739.083	800.000	-0.030	0.096
-738.069	384.901	-0.180	0.379
-737.054	306.728	0.056	0.108
-736.039	398.954	0.069	0.149
-735.025	75.790	0.099	0.107
-734.010	-133.892	0.125	-0.016
-732.996	-23.475	0.133	-0.082
-731.981	29.092	0.358	-0.311
-730.966	800.000	0.028	0.113
-729.952	54.088	-0.075	0.074
-728.937	-39.380	-0.237	-0.127
-727.923	401.020	-0.154	-0.332
-726.908	60.404	0.186	-0.189
-725.894	163.994	-0.026	-0.037
-724.879	147.129	-0.231	0.319
-723.864	17.500	0.144	-0.117
-722.850	-65.461	-0.430	0.177
-721.835	410.848	0.075	0.163
-720.821	800.000	0.051	-0.156
-719.806	-153.020	0.241	-0.017
-718.791	-20.948	0.077	0.048
-717.777	-26.142	0.250	-0.150
-716.762	394.009	-0.088	-0.188
-715.748	-53.042	-0.084	-0.040
-714.733	254.688	0.094	-0.166
-713.718	56.832	0.088	-0.088
-712.704	-14.698	0.072	0.047
-711.689	-200.000	-0.023	0.164
-710.675	-108.946	-0.525	-0.115
-709.660	-200.000	-0.038	0.209
-708.645	-20.363	0.118	0.075
-707.631	-200.000	0.001	-0.102
-706.616	-55.480	0.196	0.090
-705.602	800.000	0.034	0.137
-704.587	-160.608	-0.035	0.002
-703.572	800.000	0.016	-0.054
-702.558	-3.729	0.266	-0.189
-701.543	-200.000	-0.015	-0.090
-700.529	-108.412	-0.038	-0.008
-699.514	377.433	0.096	-0.201
-698.499	800.000	-0.050	0.206
-697.485	-49.473	-0.089	0.044
-696.470	315.419	-0.122	-0.236
-695.456	14.242	0.071	-0.057
-694.441	519.296	-0.038	-0.091
-693.426	-200.000	0.043	0.315
-692.412	-47.954	-0.185	-0.092
-691.397	342.721	-0.143	0.286
-690.383	183.959	0.042	-0.064
-689.368	48.868	-0.210	-0.201
-688.354	-167.853	-0.376	-0.015
-687.339	-79.904	-0.226	0.078
-686.324	-79.953	0.080	0.027
-685.310	-60.617	-0.102	-0.044
-684.295	-52.539	-0.229	-0.108
-683.281	398.780	-0.118	-0.253
-682.266	800.000	0.058	-0.198
-681.251	-70.246	-0.102	-0.039
-680.237	554.752	0.079	-0.194
-679.222	339.599	-0.058	-0.116
-678.208	150.915	-0.071	-0.098
-677.193	96.749	0.070	-0.082
-676.178	800.000	-0.048	-0.186
-675.164	-15.667	0.126	0.082
-674.149	36.187	-0.149	-0.134
-673.135	79.311	-0.121	0.133
-672.120	38.011	0.131	-0.119
-671.105	-76.706	-0.323	0.116
-670.091	-56.971	-0.286	-0.129
-669.076	170.213	-0.168	-0.246
-668.062	425.921	0.155	-0.341
-667.047	-32.490	0.100	-0.057
-666.032	-148.685	-0.278	0.023
-665.018	-200.000	0.008	0.110
-664.003	-200.000	0.072	0.372
-662.989	21.238	-0.317	-0.263
-661.974	420.425	0.042	-0.093
-660.959	-200.000	0.025	0.331
-659.945	39.149	0.166	-0.152
-658.930	159.521	-0.061	0.086
-657.916	-200.000	0.013	-0.331
-656.901	-48.885	-0.187	0.092
-655.886	-44.622	-0.231	-0.118
-654.872	-200.000	-0.048	-0.252
-653.857	-200.000	-0.039	0.211
-652.843	-56.590	0.161	0.073
-651.828	-140.319	-0.357	0.038
-650.814	169.467	-0.068	-0.100
-649.799	-115.649	-0.439	-0.084
-648.784	472.994	-0.168	-0.386
-647.770	-24.772	-0.215	-0.131
-646.755	-159.595	-0.391	-0.022
-645.741	-44.303	-0.141	0.072
-644.726	-200.000	0.012	-0.131
-643.711	800.000	-0.086	-0.307
-642.697	-200.000	-0.065	-0.370
-641.682	-200.000	0.052	0.285
-640.668	186.709	-0.028	-0.043
-639.653	-31.040	-0.225	0.130
-638.638	-200.000	0.025	0.363
-637.624	800.000	-0.054	-0.225
-636.609	310.349	-0.019	0.036
-635.595	-154.095	-0.103	-0.007
-634.580	69.098	-0.032	0.033
-633.565	-150.685	-0.147	0.011
-632.551	156.862	0.211	-0.298
-631.536	800.000	0.050	-0.152
-630.522	-8.905	-0.393	0.269
-629.507	-132.687	0.151	0.020
-628.492	208.393	-0.047	0.076
-627.478	-200.000	-0.034	0.452
-626.463	1.320	-0.076	-0.056
-625.449	180.723	-0.164	-0.246
-624.434	-61.564	-0.145	-0.062
-623.419	-95.314	0.440	0.121
-622.405	116.974	-0.200	0.251
-621.390	199.392	0.041	-0.065
-620.376	800.000	-0.080	0.243
-619.361	-96.348	-0.056	0.015
-618.346	-200.000	-0.012	0.227
-617.332	-108.772	-0.352	-0.077
-616.317	115.493	-0.013	-0.017
-615.303	800.000	0.090	-0.319
-614.288	-172.326	-0.234	-0.008
-613.273	-130.138	-0.500	0.069
-612.259	-37.351	0.337	0.184
-611.244	-200.000	0.008	0.047
-610.230	-149.451	0.193	-0.016
-609.215	47.959	0.083	0.079
-608.201	-177.179	-0.231	0.006
-607.186	-40.173	0.343	0.182
-606.171	-30.074	-0.215	0.125
-605.157	8.280	-0.266	0.204
-604.142	-57.964	-0.296	-0.132
-603.128	-115.381	0.295	-0.057
-602.113	-38.368	0.278	-0.150
-601.098	113.283	-0.127	-0.157
-600.084	-200.000	0.076	-0.000
-599.069	185.238	0.050	0.075
-598.055	177.389	0.184	-0.274
-597.040	278.812	-0.015	-0.027
-596.025	330.293	-0.045	-0.089
-595.011	13.977	-0.210	0.166
-593.996	352.910	0.128	0.259
-592.982	-98.958	0.281	0.073
-591.967	124.281	0.070	0.090
-590.952	-200.000	-0.043	0.268
-589.938	800.000	-0.026	0.100
-588.923	-27.361	0.442	0.262
-587.909	-200.000	-0.031	-0.185
-586.894	-68.840	0.053	-0.021
-585.879	-43.439	-0.418	0.215
-584.865	-64.688	-0.136	0.056
-583.850	263.032	0.082	-0.145
-582.836	800.000	-0.097	-0.323
-581.821	-44.709	-0.277	-0.141
-580.806	207.298	0.134	-0.213
-579.792	24.972	-0.285	-0.241
-578.777	178.320	0.023	-0.035
-577.763	-120.436	-0.546	-0.095
-576.748	89.568	-0.184	0.209
-575.733	165.037	-0.059	-0.084
-574.719	-200.000	0.022	-0.156
-573.704	478.755	-0.144	-0.332
-572.690	681.392	-0.141	-0.374
-571.675	-157.581	0.213	-0.013
-570.661	-51.436	0.093	-0.044
-569.646	800.000	0.106	0.431
-568.631	84.167	0.131	0.146
-567.617	96.876	0.156	-0.182
-566.602	146.537	-0.138	0.189
-565.588	-24.650	0.080	-0.048
-564.573	-22.791	0.318	-0.196
-563.558	-133.665	-0.220	0.028
-562.544	-56.381	-0.299	-0.135
-561.529	-69.452	-0.594	-0.232
-560.515	171.061	-0.127	-0.186
-559.500	800.000	0.108	-0.406
-558.485	-200.000	0.011	0.156
-557.471	347.007	0.105	-0.210
-556.456	93.287	0.180	0.207
-555.442	-200.000	-0.017	-0.176
-554.427	-105.808	0.238	0.055
-553.412	-140.816	-0.163	0.017
-552.398	73.048	0.156	0.166
-551.383	-58.854	0.210	0.092
-550.369	14.558	0.177	0.141
-549.354	-41.978	0.063	-0.033
-548.339	-200.000	0.035	-0.229
-547.325	-200.000	-0.016	-0.121
-546.310	207.352	-0.048	0.076
-545.296	324.971	-0.071	-0.137
-544.281	-16.509	0.177	-0.114
-543.266	-123.761	-0.219	-0.035
-542.252	-200.000	-0.032	-0.148
-541.237	800.000	0.111	0.374
-540.223	-200.000	0.059	0.297
-539.208	712.551	0.054	0.146
-538.193	99.123	0.170	-0.200
-537.179	-20.645	-0.105	-0.065
-536.164	-111.810	-0.165	-0.034
-535.150	95.322	0.188	-0.218
-534.135	-128.884	0.349	-0.050
-533.121	148.777	0.183	-0.252
-532.106	-120.499	0.280	0.048
-531.091	-200.000	0.001	-0.320
-530.077	-200.000	-0.059	-0.286
-529.062	181.278	0.086	-0.129
-528.048	-25.506	-0.166	0.100
-527.033	-71.884	-0.235	0.089
-526.018	-200.000	0.005	-0.183
-525.004	-200.000	0.007	-0.427
-523.989	16.367	-0.178	-0.143
-522.975	-112.376	-0.114	0.023
-521.960	800.000	-0.079	-0.296
-520.945	513.476	0.169	-0.400
-519.931	85.990	0.127	0.142
-518.916	263.760	-0.211	0.372
-517.902	180.500	-0.083	0.124
-516.887	-20.450	0.187	-0.117
-515.872	36.937	-0.460	-0.413
-514.858	730.709	-0.104	-0.284
-513.843	800.000	0.063	0.266
-512.829	-67.198	0.041	-0.016
-511.814	-123.077	-0.110	0.018
-510.799	138.992	-0.109	-0.146
-509.785	-200.000	0.026	-0.130
-508.770	-77.318	-0.194	0.068
-507.756	-200.000	-0.020	-0.244
-506.741	-46.945	-0.016	0.008
-505.726	-200.000	-0.018	0.167
-504.712	-147.526	-0.094	0.008
-503.697	274.369	0.133	0.238
-502.683	504.919	0.149	-0.351
-501.668	-116.170	0.390	-0.074
-500.653	-147.703	-0.147	-0.013
-499.639	-126.858	0.439	0.066
-498.624	-74.700	0.129	0.047
-497.610	800.000	-0.021	-0.084
-496.595	30.059	0.101	0.088
-495.581	-200.000	0.007	-0.113
-494.566	-39.326	0.269	0.144
-493.551	-121.019	-0.073	0.012
-492.537	-200.000	-0.011	-0.271
-491.522	353.457	-0.008	0.015
-490.508	-200.000	0.003	-0.057
-489.493	76.591	0.194	-0.208
-488.478	-91.241	-0.376	-0.109
-487.464	-8.485	-0.199	-0.136
-486.449	-200.000	0.013	-0.092
-485.435	578.355	0.021	-0.053
-484.420	-141.987	0.279	0.028
-483.405	800.000	-0.058	-0.193
-482.391	114.674	-0.024	0.030
-481.376	-200.000	0.104	0.000
-480.362	75.181	0.163	0.174
-479.347	-109.798	-0.335	-0.071
-478.332	120.109	-0.074	0.093
-477.318	-200.000	-0.052	0.278
-476.303	-4.328	-0.139	0.097
-475.289	-101.857	0.042	-0.010
-474.274	-42.664	0.211	0.109
-473.259	-97.344	-0.183	-0.048
-472.245	1.962	-0.060	-0.044
-471.230	-200.000	0.014	-0.262
-470.216	-200.000	0.037	-0.192
-469.201	800.000	0.046	0.167
-468.186	-200.000	-0.004	-0.327
-467.172	-94.905	0.045	-0.012
-466.157	69.369	-0.175	-0.182
-465.143	221.894	-0.124	0.202
-464.128	800.000	-0.084	-0.341
-463.113	800.000	0.036	-0.135
-462.099	-99.242	0.143	-0.037
-461.084	-55.566	-0.180	-0.082
-460.070	-112.687	-0.237	-0.048
-459.055	199.463	0.069	-0.107
-458.040	-9.811	-0.222	0.150
-457.026	156.125	0.263	0.367
-456.011	-69.675	-0.165	-0.064
-454.997	195.651	0.168	-0.258
-453.982	-200.000	-0.008	-0.225
-452.968	-200.000	-0.005	-0.081
-451.953	-200.000	0.016	0.119
-450.938	800.000	-0.203	-0.569
-449.924	-182.104	-0.199	0.004
-448.909	-200.000	0.030	0.271
-447.895	-111.760	0.276	-0.057
-446.880	331.049	-0.035	-0.069
-445.865	-101.688	-0.494	0.121
-444.851	219.092	0.051	0.083
-443.836	-73.401	-0.144	0.053
-442.822	-200.000	0.006	-0.042
-441.807	-158.270	-0.134	0.008
-440.792	-128.622	-0.183	-0.026
-439.778	-94.869	0.036	-0.010
-438.763	21.481	0.185	-0.153
-437.749	-104.829	0.226	-0.053
-436.734	24.515	-0.022	-0.019
-435.719	-14.145	-0.201	0.131
-434.705	-200.000	-0.025	-0.239
-433.690	406.717	0.128	0.273
-432.676	-89.848	-0.025	-0.007
-431.661	-200.000	0.015	-0.217
-430.646	192.691	-0.167	0.256
-429.632	-200.000	-0.022	-0.166
-428.617	800.000	-0.110	-0.417
-427.603	193.605	0.068	-0.105
-426.588	-21.213	-0.192	-0.119
-425.573	472.101	0.114	0.260
-424.559	-200.000	0.017	0.372
-423.544	800.000	-0.053	-0.156
-422.530	800.000	-0.036	0.125
-421.515	535.750	0.031	-0.075
-420.500	363.703	-0.093	-0.189
-419.486	98.908	0.029	0.033
-418.471	-200.000	-0.006	-0.401
-417.457	143.122	0.093	0.125
-416.442	147.765	-0.059	-0.080
-415.428	57.119	0.074	0.073
-414.413	-104.855	0.336	-0.078
-413.398	-125.317	-0.091	0.014
-412.384	10.432	0.261	0.201
-411.369	-200.000	0.011	0.144
-410.355	-105.896	-0.230	-0.052
-409.340	-200.000	0.069	-0.372
-408.325	-125.514	0.597	0.092
-407.311	-112.646	0.126	0.025
-406.296	0.230	0.175	0.126
-405.282	-200.000	-0.012	0.103
-404.267	-200.000	-0.012	-0.341
-403.252	800.000	0.019	-0.064
-402.238	29.119	0.103	-0.088
-401.223	-200.000	-0.025	0.174
-400.209	538.038	-0.022	-0.054
-399.194	-102.900	0.026	0.006
-398.179	165.510	0.048	0.068
-397.165	-45.604	0.243	-0.121
-396.150	54.322	0.234	0.227
-395.136	100.877	0.104	-0.122
-394.121	-66.349	-0.063	0.025
-393.106	800.000	0.042	0.144
-392.092	213.211	0.242	-0.386
-391.077	800.000	-0.109	-0.429
-390.063	-0.001	-0.212	-0.153
-389.048	-200.000	0.002	0.059
-388.033	-200.000	-0.011	0.266
-387.019	439.611	0.028	0.062
-386.004	-200.000	0.003	-0.337
-384.990	305.272	-0.118	-0.221
-383.975	375.171	-0.034	0.070
-382.960	297.243	0.098	-0.182
-381.946	-13.056	-0.101	0.066
-380.931	-200.000	-0.063	0.290
-379.917	-200.000	0.004	0.246
-378.902	-110.512	-0.263	-0.055
-377.888	427.139	0.255	0.556
-376.873	-12.880	-0.140	-0.092
-375.858	-21.367	0.169	0.104
-374.844	317.640	-0.083	-0.159
-373.829	-78.545	0.253	0.087
-372.815	22.580	-0.213	0.176
-371.800	-200.000	-0.042	0.204
-370.785	800.000	0.037	0.147
-369.771	-200.000	0.016	-0.090
-368.756	-47.002	-0.131	0.065
-367.742	-75.340	-0.399	-0.144
-366.727	-200.000	0.022	0.366
-365.712	-200.000	0.002	-0.034
-364.698	-99.594	-0.124	0.031
-363.683	729.310	0.092	-0.249
-362.669	-9.676	0.134	-0.090
-361.654	-200.000	0.048	0.230
-360.639	800.000	0.081	-0.282
-359.625	479.231	-0.082	0.188
-358.610	67.255	-0.216	0.223
-357.596	-200.000	0.008	0.315
-356.581	192.629	0.120	-0.182
-355.566	389.024	0.091	0.191
-354.552	-163.695	-0.064	0.003
-353.537	5.081	-0.214	0.159
-352.523	-200.000	-0.030	-0.182
-351.508	-136.782	-0.092	-0.011
-350.493	27.493	0.115	-0.098
-349.479	-54.718	0.055	0.025
-348.464	-200.000	0.017	0.104
-347.450	-200.000	0.014	-0.208
-346.435	563.307	0.166	0.404
-345.420	-56.571	0.107	-0.048
-344.406	-84.479	0.114	-0.036
-343.391	-90.785	-0.348	-0.101
-342.377	596.855	-0.017	-0.043
-341.362	118.516	0.226	0.282
-340.348	-124.863	-0.411	-0.064
-339.333	321.544	-0.061	0.117
-338.318	800.000	-0.047	0.161
-337.304	326.518	0.070	0.135
-336.289	-200.000	0.001	0.373
-335.275	274.901	-0.048	-0.086
-334.260	118.181	-0.172	0.214
-333.245	91.396	-0.044	0.050
-332.231	254.870	0.089	-0.154
-331.216	-189.235	-0.136	0.002
-330.202	-75.075	-0.174	-0.063
-329.187	800.000	-0.069	-0.304
-328.172	204.068	-0.076	0.119
-327.158	-38.749	-0.080	-0.042
-326.143	-200.000	-0.011	0.159
-325.129	-117.020	0.225	0.041
-324.114	244.543	0.126	0.213
-323.099	-30.416	0.169	0.097
-322.085	-44.538	-0.316	-0.159
-321.070	-200.000	-0.038	-0.333
-320.056	189.290	0.252	-0.381
-319.041	-200.000	0.019	0.354
-318.026	-2.516	0.052	0.037
-317.012	-15.711	0.155	0.100
-315.997	-37.196	0.170	0.092
-314.983	414.764	0.046	-0.098
-313.968	-153.479	0.122	0.009
-312.953	45.409	0.196	-0.183
-311.939	-125.807	0.278	-0.042
-310.924	-179.584	-0.169	-0.004
-309.910	452.609	0.079	0.177
-308.895	439.705	0.113	-0.248
-307.880	-35.433	-0.154	0.085
-306.866	-25.021	-0.232	0.138
-305.851	205.000	-0.139	0.217
-304.837	-78.529	0.105	0.036
-303.822	-48.048	0.257	0.125
-302.807	-105.599	-0.258	-0.059
-301.793	-86.284	-0.170	-0.053
-300.778	132.944	0.186	0.243
-299.764	11.873	-0.138	-0.107
-298.749	-113.791	0.188	0.037
-297.735	-111.851	0.139	0.028
-296.720	-108.736	0.286	0.062
-295.705	-35.128	0.053	0.029
-294.691	-116.355	0.112	0.021
-293.676	2.230	-0.199	0.145
-292.662	86.872	-0.244	0.271
-291.647	-103.892	0.200	0.047
-290.632	800.000	0.029	-0.122
-289.618	-5.565	-0.122	-0.084
-288.603	-66.991	0.222	-0.088
-287.589	-200.000	-0.047	0.257
-286.574	437.797	0.102	0.225
-285.559	-33.423	-0.085	0.047
-284.545	-56.642	-0.234	-0.104
-283.530	-22.260	0.096	0.059
-282.516	-41.931	0.274	-0.141
-281.501	-162.746	-0.260	-0.013
-280.486	-200.000	-0.038	-0.180
-279.472	-59.210	0.328	-0.142
-278.457	-166.139	0.326	0.014
-277.443	-111.633	0.220	0.045
-276.428	-200.000	0.026	-0.228
-275.413	-81.696	-0.236	-0.078
-274.399	347.493	-0.035	-0.070
-273.384	61.518	-0.078	0.078
-272.370	800.000	0.051	-0.150
-271.355	800.000	0.028	0.094
-270.340	258.958	-0.164	-0.285
-269.326	-156.060	0.206	-0.013
-268.311	191.220	0.055	0.083
-267.297	-98.950	0.242	0.062
-266.282	296.063	0.092	-0.169
-265.267	-128.984	0.215	-0.030
-264.253	-200.000	0.019	0.149
-263.238	-200.000	0.020	0.176
-262.224	-200.000	-0.066	0.317
-261.209	-47.801	0.111	0.054
-260.195	800.000	0.069	0.301
-259.180	49.225	0.224	0.212
-258.165	145.190	-0.089	-0.120
-257.151	147.588	-0.143	0.194
-256.136	-47.929	-0.165	-0.080
-255.122	768.489	0.145	0.397
-254.107	5.151	-0.080	-0.059
-253.092	-87.518	0.214	0.065
-252.078	-67.898	0.560	0.220
-251.063	299.384	0.175	0.324
-250.049	-200.000	0.021	0.413
-249.034	62.661	-0.041	-0.041
-248.019	12.848	-0.161	0.125
-247.005	54.293	0.118	0.114
-245.990	-163.082	-0.098	0.005
-244.976	204.699	0.064	0.099
-243.961	800.000	0.146	0.421
-242.946	-105.400	-0.128	0.029
-241.932	800.000	-0.018	-0.062
-240.917	-78.946	0.231	-0.079
-239.903	-200.000	0.015	0.127
-238.888	-200.000	0.053	0.274
-237.873	-74.091	-0.184	0.067
-236.859	-71.449	-0.187	0.070
-235.844	-103.956	0.223	0.052
-234.830	-179.503	-0.090	-0.002
-233.815	84.834	-0.253	0.279
-232.800	694.675	0.090	0.237
-231.786	348.950	0.181	0.359
-230.771	-76.061	0.416	0.148
-229.757	-68.870	-0.254	0.098
-228.742	-200.000	-0.006	0.391
-227.727	59.875	-0.442	0.438
-226.713	-31.870	-0.020	-0.011
-225.698	-200.000	0.385	-0.002
-224.684	-200.000	-0.079	0.398
-223.669	451.081	-0.052	0.116
-222.655	-49.144	-0.226	-0.109
-221.640	-200.000	-0.031	-0.160
-220.625	550.165	-0.063	-0.151
-219.611	-112.827	0.348	-0.069
-218.596	-64.204	0.509	0.208
-217.582	-79.169	-0.134	0.046
-216.567	-200.000	0.037	0.382
-215.552	440.696	0.143	-0.315
-214.538	-185.822	0.134	0.002
-213.523	-64.952	0.084	-0.034
-212.509	-200.000	0.038	-0.185
-211.494	-76.113	-0.103	0.037
-210.479	263.965	0.219	-0.382
-209.465	800.000	-0.020	0.063
-208.450	-200.000	0.023	0.116
-207.436	293.474	-0.153	0.280
-206.421	148.903	-0.146	0.198
-205.406	-105.845	-0.271	0.061
-204.392	-165.841	0.290	0.013
-203.377	-83.979	-0.229	0.073
-202.363	-74.341	0.223	0.081
-201.348	800.000	-0.028	-0.090
-200.333	-23.035	0.107	-0.065
-199.319	-200.000	0.005	-0.079
-198.304	-28.271	0.171	0.099
-197.290	72.999	0.176	0.184
-196.275	-32.354	0.089	-0.050
-195.260	105.792	0.131	-0.156
-194.246	63.589	0.094	0.095
-193.231	25.517	-0.152	-0.127
-192.217	-51.646	0.249	0.116
-191.202	-113.070	-0.180	0.036
-190.187	561.425	-0.032	0.077
-189.173	-117.953	-0.202	0.036
-188.158	52.666	0.287	-0.275
-187.144	205.013	0.104	-0.162
-186.129	34.098	0.055	-0.048
-185.114	-98.663	-0.252	0.064
-184.100	-61.065	0.219	-0.093
-183.085	78.018	-0.250	-0.267
-182.071	-187.964	0.210	-0.003
-181.056	168.124	0.043	-0.061
-180.042	800.000	-0.033	0.118
-179.027	-200.000	-0.013	0.273
-178.012	-106.267	-0.157	-0.035
-176.998	800.000	-0.057	-0.210
-175.983	-12.423	-0.235	-0.154
-174.969	-200.000	0.026	-0.266
-173.954	19.301	0.115	0.093
-172.939	575.708	-0.127	-0.311
-171.925	355.214	-0.035	0.069
-170.910	-83.118	0.346	-0.112
-169.896	216.617	-0.269	-0.428
-168.881	19.719	-0.154	-0.124
-167.866	114.534	-0.120	-0.146
-166.852	-141.604	-0.318	-0.032
-165.837	800.000	0.025	0.105
-164.823	-3.677	-0.323	0.225
-163.808	-74.751	-0.099	0.036
-162.793	194.312	0.164	-0.249
-161.779	-61.175	0.285	-0.121
-160.764	-11.276	-0.114	0.076
-159.750	82.817	-0.119	0.130
-158.735	489.866	-0.099	0.226
-157.720	9.645	0.176	0.134
-156.706	-94.767	0.180	0.049
-155.691	-105.804	0.352	-0.080
-154.677	-132.206	-0.194	-0.025
-153.662	362.869	0.094	-0.188
-152.647	516.875	-0.077	0.181
-151.633	156.603	-0.168	0.232
-150.618	-13.671	0.369	0.239
-149.604	121.513	-0.216	0.270
-148.589	396.370	0.036	-0.075
-147.574	161.091	0.181	0.253
-146.560	-30.327	0.146	0.083
-145.545	800.000	-0.032	0.107
-144.531	-200.000	0.013	0.081
-143.516	-200.000	0.022	0.116
-142.502	-200.000	0.022	-0.233
-141.487	-3.366	0.222	0.155
-140.472	-200.000	-0.001	0.117
-139.458	-200.000	-0.039	-0.244
-138.443	92.640	0.034	-0.038
-137.429	-200.000	0.026	0.135
-136.414	304.571	-0.137	-0.255
-135.399	-84.432	-0.017	-0.005
-134.385	-12.070	0.128	-0.084
-133.370	72.066	0.179	0.187
-132.356	286.703	0.044	0.079
-131.341	375.584	-0.133	0.271
-130.326	58.643	0.072	-0.071
-129.312	-127.360	-0.243	-0.035
-128.297	399.881	-0.115	0.241
-127.283	-138.000	0.189	-0.021
-126.268	-39.004	0.179	0.094
-125.253	-40.242	0.033	0.017
-124.239	-71.432	0.199	0.075
-123.224	-158.829	-0.219	-0.013
-122.210	239.741	0.070	-0.116
