DTS Sentinel unit serial number:	SN413079Multiplexer serial number:	ORYXHardware model number:	OX4-SRSoftware version number:	ORYX F/W v4.00 Oryx Data Collector v3.7.2.0data status	okinstallation	princeton_trtdifferential loss correction	single-endedforward channel	channel 2reverse channel	N/Adate	2019/09/13time	17:11:35forward acquisition time	60.00reverse acquisition time	0.00gamma	496.2192k internal	0.2310k external	0.2310temperature offset calibration	1.0202default loss term (dB/km)	0.3790temperature slope calibration	1.0000multiplexer offset coefficient	1.0000multiplexer slope coefficient	1.0000fibre end	0.00T internal ref (°C)	35.45T ext. ref 1 (°C)	4.80T ext. ref 2 (°C)	34.28length (m)	temperature (°C)	Stokes	anti-Stokes-747.200	-200.000	-0.025	0.244
-746.185	77.011	-0.249	0.269
-745.171	800.000	-0.023	0.070
-744.156	800.000	-0.147	0.477
-743.142	-200.000	-0.015	-0.439
-742.127	51.131	0.074	0.072
-741.112	64.367	-0.015	-0.015
-740.098	-52.157	-0.146	0.069
-739.083	81.598	-0.038	-0.042
-738.069	191.305	0.194	0.297
-737.054	141.206	-0.089	-0.119
-736.039	209.979	0.095	-0.152
-735.025	-96.849	-0.375	0.100
-734.010	15.129	-0.120	0.095
-732.996	-104.944	0.240	0.056
-731.981	56.303	-0.421	0.416
-730.966	399.101	0.032	0.069
-729.952	-166.101	-0.559	0.024
-728.937	103.560	-0.101	0.120
-727.923	-200.000	0.050	-0.493
-726.908	800.000	0.140	0.440
-725.894	216.143	-0.106	0.172
-724.879	-156.242	-0.210	-0.013
-723.864	39.105	-0.103	0.094
-722.850	456.729	-0.032	0.072
-721.835	800.000	0.042	0.121
-720.821	318.008	-0.196	-0.376
-719.806	47.456	-0.135	0.128
-718.791	583.822	-0.083	-0.206
-717.777	-22.207	-0.187	-0.115
-716.762	-193.980	-0.092	-0.001
-715.748	-43.435	0.254	0.130
-714.733	12.154	0.290	-0.227
-713.718	73.780	0.115	-0.123
-712.704	84.740	-0.205	0.228
-711.689	664.381	0.132	0.345
-710.675	-171.487	-0.107	-0.004
-709.660	800.000	0.039	-0.132
-708.645	-82.760	0.376	-0.123
-707.631	268.782	0.073	0.129
-706.616	800.000	-0.064	0.222
-705.602	772.323	0.082	-0.226
-704.587	-109.686	0.173	0.037
-703.572	800.000	-0.029	-0.094
-702.558	-12.525	-0.170	-0.112
-701.543	-78.137	0.229	0.080
-700.529	-86.454	0.197	-0.061
-699.514	-200.000	0.016	0.125
-698.499	-110.509	0.098	0.021
-697.485	-200.000	0.009	-0.252
-696.470	-9.343	-0.117	-0.079
-695.456	800.000	-0.081	-0.253
-694.441	-200.000	-0.014	0.200
-693.426	332.650	-0.093	0.183
-692.412	-107.381	0.047	-0.011
-691.397	-171.182	-0.149	-0.005
-690.383	-200.000	-0.014	0.170
-689.368	-46.583	-0.130	-0.065
-688.354	-186.112	-0.127	0.002
-687.339	-85.701	-0.024	-0.007
-686.324	169.712	-0.068	-0.098
-685.310	314.179	0.109	-0.207
-684.295	-47.999	-0.205	-0.100
-683.281	-10.271	-0.217	-0.146
-682.266	434.319	0.088	-0.194
-681.251	55.105	-0.109	0.107
-680.237	-200.000	-0.021	-0.125
-679.222	-68.959	-0.220	-0.086
-678.208	-116.907	-0.350	-0.065
-677.193	10.742	-0.104	-0.080
-676.178	-8.219	0.354	-0.242
-675.164	203.797	0.131	-0.206
-674.149	-200.000	0.029	0.140
-673.135	221.808	-0.146	-0.237
-672.120	307.596	0.090	0.169
-671.105	800.000	-0.054	0.187
-670.091	-33.851	-0.391	0.218
-669.076	800.000	0.047	0.178
-668.062	230.164	-0.125	-0.206
-667.047	-10.083	-0.128	0.086
-666.032	-101.346	0.138	-0.034
-665.018	146.468	0.110	-0.149
-664.003	-200.000	-0.022	0.223
-662.989	64.145	0.167	-0.171
-661.974	37.639	-0.240	-0.215
-660.959	219.127	-0.181	-0.292
-659.945	-75.800	0.208	-0.075
-658.930	305.974	0.209	-0.393
-657.916	266.122	-0.110	0.194
-656.901	-115.195	-0.187	-0.036
-655.886	-200.000	-0.074	-0.333
-654.872	307.961	0.160	-0.302
-653.857	60.876	-0.162	-0.162
-652.843	-200.000	-0.033	-0.288
-651.828	-17.855	0.107	0.068
-650.814	-101.042	-0.312	-0.077
-649.799	-94.393	-0.159	-0.044
-648.784	-101.640	-0.275	0.068
-647.770	127.472	-0.129	0.166
-646.755	-132.310	0.187	-0.025
-645.741	354.543	0.041	-0.082
-644.726	-15.739	-0.194	-0.125
-643.711	170.960	0.046	0.067
-642.697	106.829	-0.104	-0.125
-641.682	-93.408	-0.226	-0.063
-640.668	-73.061	-0.428	-0.159
-639.653	800.000	-0.057	0.167
-638.638	501.953	0.102	0.238
-637.624	-137.863	0.158	0.018
-636.609	-200.000	0.017	0.299
-635.595	-85.641	-0.377	0.119
-634.580	-93.867	-0.399	0.111
-633.565	-200.000	-0.030	0.242
-632.551	-5.212	0.265	0.184
-631.536	800.000	-0.101	0.316
-630.522	-33.917	0.040	0.022
-629.507	-12.883	0.247	-0.163
-628.492	-3.511	0.341	-0.240
-627.478	-200.000	-0.020	-0.228
-626.463	-129.881	0.363	0.050
-625.449	9.311	-0.236	-0.181
-624.434	-14.316	-0.252	0.164
-623.419	800.000	0.083	-0.279
-622.405	-200.000	-0.002	-0.107
-621.390	-61.653	0.164	0.069
-620.376	-98.127	0.161	0.042
-619.361	38.431	-0.176	-0.159
-618.346	800.000	-0.090	-0.395
-617.332	-200.000	-0.025	0.183
-616.317	197.604	-0.110	0.170
-615.303	-20.973	-0.217	-0.134
-614.288	22.115	-0.255	-0.211
-613.273	366.769	0.074	0.151
-612.259	76.539	-0.078	0.084
-611.244	-12.516	-0.092	-0.061
-610.230	667.085	-0.042	-0.108
-609.215	800.000	-0.023	-0.073
-608.201	-5.151	0.174	-0.121
-607.186	-22.480	0.183	-0.112
-606.171	800.000	0.092	0.338
-605.157	-173.789	-0.498	0.015
-604.142	615.522	-0.101	0.256
-603.128	34.353	-0.033	-0.029
-602.113	-200.000	0.014	0.160
-601.098	800.000	-0.026	0.079
-600.084	800.000	0.028	0.099
-599.069	-129.146	-0.299	-0.042
-598.055	-140.173	-0.184	0.020
-597.040	-122.980	-0.145	0.024
-596.025	356.817	0.199	-0.401
-595.011	800.000	0.034	-0.148
-593.996	189.017	-0.075	0.114
-592.982	-89.863	-0.179	-0.053
-591.967	-200.000	0.000	0.031
-590.952	-200.000	-0.008	-0.159
-589.938	-61.892	-0.225	-0.095
-588.923	541.703	-0.209	-0.502
-587.909	178.781	0.228	-0.336
-586.894	-95.767	-0.179	0.048
-585.879	-148.409	-0.094	-0.008
-584.865	-123.716	-0.423	0.068
-583.850	-200.000	-0.030	-0.295
-582.836	-138.216	-0.110	0.012
-581.821	330.513	0.096	0.187
-580.806	800.000	-0.085	-0.279
-579.792	102.466	-0.194	-0.229
-578.777	-2.997	-0.108	-0.076
-577.763	34.586	-0.030	-0.026
-576.748	800.000	0.100	0.328
-575.733	-65.560	-0.335	0.136
-574.719	-200.000	0.054	-0.353
-573.704	-200.000	0.037	-0.247
-572.690	-200.000	0.050	-0.277
-571.675	41.239	0.067	-0.061
-570.661	248.779	0.152	-0.260
-569.646	392.516	-0.110	-0.231
-568.631	-200.000	0.048	0.258
-567.617	-70.362	-0.166	-0.063
-566.602	-200.000	0.000	-0.021
-565.588	4.146	0.233	-0.172
-564.573	-30.821	0.166	0.095
-563.558	-61.706	-0.359	0.152
-562.544	38.932	-0.081	-0.073
-561.529	-82.522	-0.283	-0.092
-560.515	262.260	-0.054	0.095
-559.500	-126.566	0.356	-0.053
-558.485	158.014	-0.283	0.396
-557.471	30.488	-0.211	0.182
-556.456	-116.804	0.202	-0.037
-555.442	34.979	-0.179	-0.158
-554.427	-11.143	-0.068	0.045
-553.412	65.538	-0.134	0.136
-552.398	169.063	0.166	-0.238
-551.383	800.000	0.081	-0.319
-550.369	-72.169	0.173	0.065
-549.354	-200.000	-0.000	0.038
-548.339	-38.922	0.274	0.146
-547.325	-200.000	-0.083	0.389
-546.310	-145.069	-0.236	0.022
-545.296	266.864	0.198	0.349
-544.281	-200.000	-0.051	0.339
-543.266	203.561	-0.055	0.086
-542.252	19.791	-0.287	0.233
-541.237	-102.756	-0.210	-0.050
-540.223	78.313	0.152	0.163
-539.208	-100.939	-0.275	-0.068
-538.193	800.000	-0.046	0.152
-537.179	-200.000	0.008	0.159
-536.164	7.715	0.258	0.195
-535.150	-31.998	0.312	0.176
-534.135	-200.000	0.004	-0.145
-533.121	-86.180	0.431	0.134
-532.106	-200.000	-0.009	0.067
-531.091	44.330	-0.238	-0.220
-530.077	800.000	0.088	-0.261
-529.062	241.931	-0.158	0.266
-528.048	-18.276	-0.182	0.115
-527.033	159.348	-0.144	0.201
-526.018	-21.286	0.135	0.083
-525.004	-151.123	0.330	-0.025
-523.989	512.952	0.070	0.164
-522.975	460.535	-0.126	-0.282
-521.960	-200.000	0.085	-0.468
-520.945	548.486	-0.054	-0.131
-519.931	52.826	-0.126	-0.121
-518.916	-200.000	0.043	-0.202
-517.902	146.122	0.061	-0.082
-516.887	-200.000	-0.029	-0.217
-515.872	143.159	0.175	-0.235
-514.858	-94.787	-0.311	0.085
-513.843	-180.618	-0.217	-0.004
-512.829	14.355	0.119	0.093
-511.814	-200.000	0.069	0.306
-510.799	709.064	-0.036	0.096
-509.785	-200.000	-0.002	-0.146
-508.770	-158.101	-0.044	0.003
-507.756	202.109	-0.273	-0.425
-506.741	233.933	-0.085	0.141
-505.726	-188.442	0.280	0.004
-504.712	608.601	0.017	-0.043
-503.697	-200.000	-0.021	0.121
-502.683	-118.049	0.148	0.027
-501.668	-73.304	0.068	-0.025
-500.653	-200.000	-0.020	-0.153
-499.639	-140.504	-0.195	-0.020
-498.624	-96.067	0.270	-0.072
-497.610	-117.603	0.240	-0.043
-496.595	800.000	0.060	0.210
-495.581	-23.311	-0.184	0.111
-494.566	107.853	-0.181	-0.216
-493.551	302.365	-0.085	-0.158
-492.537	-89.051	-0.318	0.095
-491.522	800.000	0.081	0.344
-490.508	549.356	0.083	0.199
-489.493	800.000	-0.076	-0.305
-488.478	459.449	-0.120	-0.268
-487.464	12.116	0.179	-0.138
-486.449	-32.099	0.280	-0.158
-485.435	-25.400	0.152	-0.091
-484.420	-74.706	-0.162	-0.058
-483.405	800.000	-0.039	-0.157
-482.391	16.475	-0.067	-0.054
-481.376	800.000	0.038	0.114
-480.362	-18.919	0.203	0.127
-479.347	81.837	0.094	-0.102
-478.332	-61.839	0.254	0.107
-477.318	27.164	-0.124	0.104
-476.303	-40.279	0.140	0.073
-475.289	800.000	-0.112	-0.396
-474.274	646.898	0.029	-0.075
-473.259	-200.000	0.002	0.227
-472.245	800.000	-0.033	-0.118
-471.230	-77.929	-0.293	-0.101
-470.216	-110.405	-0.246	0.051
-469.201	-200.000	0.044	0.360
-468.186	-118.842	-0.185	0.033
-467.172	-200.000	0.008	-0.222
-466.157	-105.166	-0.170	-0.039
-465.143	128.943	-0.106	0.136
-464.128	-122.970	0.443	0.072
-463.113	6.264	-0.094	-0.070
-462.099	91.048	-0.283	0.319
-461.084	800.000	-0.060	0.174
-460.070	-24.667	0.220	0.132
-459.055	-117.769	-0.367	-0.066
-458.040	-200.000	-0.048	0.258
-457.026	9.323	0.194	-0.148
-456.011	-34.674	-0.482	-0.265
-454.997	328.318	0.175	0.338
-453.982	8.126	0.185	0.140
-452.968	-166.469	0.195	-0.008
-451.953	-120.937	0.133	-0.022
-450.938	-97.832	-0.307	-0.080
-449.924	22.119	0.057	-0.047
-448.909	82.075	-0.170	-0.185
-447.895	-50.124	-0.234	-0.111
-446.880	-200.000	0.016	0.141
-445.865	-128.813	0.160	0.023
-444.851	-200.000	-0.049	0.335
-443.836	132.552	-0.037	0.048
-442.822	95.839	-0.072	-0.083
-441.807	800.000	0.054	0.223
-440.792	673.725	0.126	-0.328
-439.778	-200.000	0.007	0.065
-438.763	215.806	0.117	-0.186
-437.749	-64.007	-0.126	-0.052
-436.734	22.148	0.137	-0.112
-435.719	-200.000	-0.037	-0.231
-434.705	100.070	-0.223	-0.259
-433.690	8.407	0.194	-0.146
-432.676	-77.269	0.121	-0.042
-431.661	32.160	-0.128	0.111
-430.646	-102.257	0.289	-0.070
-429.632	-99.700	-0.080	-0.020
-428.617	21.898	0.332	0.271
-427.603	209.157	0.149	-0.234
-426.588	349.583	-0.096	0.191
-425.573	-78.215	-0.178	0.061
-424.559	-55.823	0.089	-0.040
-423.544	112.836	0.054	-0.066
-422.530	49.928	-0.055	0.052
-421.515	-200.000	-0.046	-0.394
-420.500	-91.013	0.326	-0.094
-419.486	800.000	-0.007	-0.026
-418.471	227.865	-0.042	0.068
-417.457	-98.280	0.042	-0.011
-416.442	-200.000	-0.006	0.108
-415.428	-154.677	0.086	0.006
-414.413	47.147	0.143	0.133
-413.398	-46.159	-0.155	-0.077
-412.384	-200.000	0.024	-0.328
-411.369	-200.000	-0.020	-0.184
-410.355	-133.503	-0.076	-0.010
-409.340	123.863	-0.121	-0.152
-408.325	52.250	-0.152	0.145
-407.311	317.053	0.125	-0.237
-406.296	-200.000	-0.009	-0.111
-405.282	115.010	-0.125	-0.153
-404.267	51.739	0.210	-0.200
-403.252	-187.648	0.131	0.002
-402.238	304.701	0.086	-0.160
-401.223	-24.213	0.426	0.255
-400.209	-87.123	0.092	0.028
-399.194	442.902	-0.103	-0.227
-398.179	-200.000	-0.026	0.129
-397.165	411.557	-0.014	-0.031
-396.150	-72.053	0.411	0.153
-395.136	158.530	0.140	-0.195
-394.121	-148.225	-0.320	-0.026
-393.106	-154.864	-0.133	-0.009
-392.092	291.291	0.162	-0.295
-391.077	67.114	-0.054	0.055
-390.063	42.722	0.212	0.194
-389.048	-200.000	0.043	-0.192
-388.033	243.810	0.059	0.099
-387.019	-200.000	-0.028	0.278
-386.004	-200.000	0.022	0.112
-384.990	-140.596	-0.167	0.017
-383.975	-70.210	0.170	0.065
-382.960	-200.000	0.014	0.131
-381.946	-200.000	0.009	0.196
-380.931	-135.545	0.110	0.013
-379.917	83.144	-0.096	-0.105
-378.902	-164.909	-0.200	-0.009
-377.888	-63.331	0.093	-0.038
-376.873	-28.662	0.057	-0.033
-375.858	-71.260	0.235	-0.088
-374.844	56.140	0.046	-0.045
-373.829	-169.154	0.392	-0.015
-372.815	408.331	0.108	0.228
-371.800	-128.103	0.208	-0.030
-370.785	19.995	-0.109	0.088
-369.771	-40.233	0.351	0.183
-368.756	-48.117	-0.111	0.054
-367.742	-200.000	0.001	0.089
-366.727	673.728	0.129	-0.334
-365.712	-42.178	-0.201	-0.103
-364.698	107.811	0.135	-0.161
-363.683	-200.000	0.054	-0.481
-362.669	164.514	0.124	0.175
-361.654	282.766	-0.075	0.134
-360.639	-128.755	-0.207	0.029
-359.625	-132.907	0.191	0.024
-358.610	-200.000	0.020	-0.122
-357.596	357.547	0.092	0.183
-356.581	800.000	-0.072	0.226
-355.566	-111.794	-0.410	-0.083
-354.552	-101.040	0.115	-0.028
-353.537	25.369	-0.097	-0.080
-352.523	800.000	-0.029	-0.119
-351.508	800.000	-0.028	-0.099
-350.493	-0.884	-0.169	-0.119
-349.479	-17.535	0.114	0.072
-348.464	-200.000	0.046	-0.255
-347.450	-166.919	-0.124	-0.005
-346.435	105.892	-0.136	-0.161
-345.420	78.375	-0.202	0.216
-344.406	95.245	0.112	-0.128
-343.391	34.801	0.178	-0.156
-342.377	-200.000	-0.022	0.137
-341.362	238.460	-0.041	-0.069
-340.348	93.442	-0.112	0.127
-339.333	244.483	-0.155	0.260
-338.318	145.379	0.096	-0.128
-337.304	800.000	0.084	-0.254
-336.289	-19.491	0.179	0.111
-335.275	-107.378	-0.287	0.063
-334.260	-42.430	-0.146	0.074
-333.245	53.773	-0.095	-0.091
-332.231	-200.000	0.022	-0.303
-331.216	-200.000	-0.006	0.263
-330.202	358.342	0.023	-0.047
-329.187	-200.000	0.004	0.239
-328.172	-123.921	0.161	-0.025
-327.158	800.000	0.067	0.256
-326.143	73.801	-0.058	0.061
-325.129	-158.957	0.057	0.003
-324.114	-42.819	0.255	-0.129
-323.099	266.515	0.208	-0.363
-322.085	211.152	0.137	0.216
-321.070	445.096	-0.063	0.139
-320.056	-200.000	0.078	0.415
-319.041	-81.040	-0.294	0.097
-318.026	58.345	-0.061	0.060
-317.012	171.929	0.072	0.103
-315.997	192.081	-0.159	-0.239
-314.983	-200.000	0.023	-0.321
-313.968	47.510	-0.081	0.075
-312.953	-200.000	-0.031	0.171
-311.939	66.323	0.150	0.152
-310.924	-46.705	-0.179	-0.088
-309.910	-169.849	-0.205	0.007
-308.895	-97.912	0.200	-0.052
-307.880	193.652	-0.133	0.201
-306.866	46.813	0.111	-0.103
-305.851	-101.568	-0.168	0.041
-304.837	-128.937	0.258	0.036
-303.822	-98.900	-0.106	-0.027
-302.807	-81.160	-0.178	-0.059
-301.793	2.928	-0.209	0.152
-300.778	220.517	-0.084	0.134
-299.764	98.753	0.196	0.226
-298.749	-55.961	-0.033	-0.015
-297.735	-200.000	-0.008	0.038
-296.720	-34.302	0.436	-0.239
-295.705	51.600	0.117	0.111
-294.691	-200.000	0.010	0.190
-293.676	-54.475	0.385	0.174
-292.662	-51.383	-0.099	0.046
-291.647	60.972	-0.249	0.247
-290.632	-41.700	-0.147	0.075
-289.618	-143.047	-0.344	0.033
-288.603	-107.026	-0.165	0.036
-287.589	-85.627	-0.093	-0.029
-286.574	-163.909	0.249	-0.012
-285.559	-137.508	0.452	-0.051
-284.545	219.267	0.215	-0.343
-283.530	304.218	0.081	0.150
-282.516	7.153	0.211	0.157
-281.501	129.564	0.162	-0.207
-280.486	-85.879	-0.275	-0.085
-279.472	7.112	0.083	0.062
-278.457	-140.257	-0.376	0.039
-277.443	38.640	-0.239	0.212
-276.428	-39.766	0.256	-0.133
-275.413	107.696	-0.070	0.083
-274.399	109.427	0.097	-0.116
-273.384	-42.304	-0.252	0.129
-272.370	401.626	0.137	-0.287
-271.355	493.869	0.046	0.105
-270.340	-200.000	-0.012	-0.171
-269.326	273.404	-0.035	0.062
-268.311	-28.002	-0.054	0.031
-267.297	-25.134	-0.255	-0.150
-266.282	800.000	-0.009	0.025
-265.267	-49.040	0.157	-0.075
-264.253	-20.003	0.093	0.057
-263.238	53.119	0.269	-0.257
-262.224	-4.643	0.256	0.176
-261.209	-85.561	0.397	-0.123
-260.195	-128.634	0.179	-0.025
-259.180	-14.871	0.218	-0.139
-258.165	-32.137	-0.198	-0.110
-257.151	800.000	0.067	-0.224
-256.136	285.706	-0.109	0.196
-255.122	-158.045	-0.455	0.027
-254.107	-200.000	0.014	0.163
-253.092	775.816	0.087	-0.238
-252.078	-74.041	0.418	0.151
-251.063	-64.022	-0.078	0.032
-250.049	-78.726	-0.119	0.041
-249.034	236.032	0.074	0.122
-248.019	-60.441	-0.140	0.059
-247.005	83.201	0.275	0.298
-245.990	800.000	0.084	0.259
-244.976	54.445	-0.175	-0.168
-243.961	-135.538	0.276	0.033
-242.946	-185.544	-0.062	-0.001
-241.932	199.570	0.057	0.087
-240.917	416.712	-0.133	-0.282
-239.903	149.339	0.119	0.160
-238.888	460.783	-0.040	0.090
-237.873	83.883	-0.173	-0.188
-236.859	-76.546	-0.136	0.048
-235.844	-101.761	0.237	0.057
-234.830	-156.744	-0.311	0.019
-233.815	3.689	0.145	-0.105
-232.800	-127.064	0.248	0.036
-231.786	-26.844	0.167	0.097
-230.771	26.374	0.257	0.214
-229.757	-63.480	-0.224	0.092
-228.742	-5.856	0.167	0.114
-227.727	-200.000	0.014	0.127
-226.713	72.491	0.183	0.190
-225.698	672.193	0.071	0.184
-224.684	489.041	0.060	0.137
-223.669	-181.960	-0.186	0.004
-222.655	85.292	0.332	0.363
-221.640	-60.794	0.154	0.065
-220.625	-186.663	-0.345	0.005
-219.611	-110.833	-0.102	-0.021
-218.596	25.331	-0.288	-0.238
-217.582	-106.263	0.388	0.086
-216.567	-200.000	0.014	-0.173
-215.552	-84.850	-0.047	0.015
-214.538	-102.254	-0.247	0.059
-213.523	-132.821	-0.020	0.002
-212.509	-8.342	-0.172	0.115
-211.494	214.464	-0.064	0.100
-210.479	-23.737	0.172	0.103
-209.465	206.004	-0.106	0.164
-208.450	800.000	0.052	-0.221
-207.436	-30.183	-0.138	0.078
-206.421	3.048	-0.150	-0.108
-205.406	-142.231	-0.175	-0.017
-204.392	-200.000	0.012	-0.309
-203.377	110.917	0.248	-0.297
-202.363	65.438	0.296	0.298
-201.348	800.000	0.016	0.063
-200.333	800.000	-0.044	0.177
-199.319	-59.086	0.202	0.087
-198.304	15.150	0.138	0.107
-197.290	800.000	-0.043	-0.144
-196.275	358.680	0.155	0.308
-195.260	-53.188	-0.336	0.153
-194.246	-99.044	0.408	-0.103
-193.231	-200.000	-0.003	0.044
-192.217	800.000	0.069	0.250
-191.202	103.346	-0.144	-0.168
-190.187	-114.714	0.112	0.021
-189.173	-36.591	0.112	-0.060
-188.158	509.247	0.163	-0.375
-187.144	-103.706	-0.271	0.063
-186.129	26.122	0.328	0.272
-185.114	-28.583	0.239	0.137
-184.100	684.361	0.151	-0.391
-183.085	-200.000	-0.009	-0.085
-182.071	268.230	0.068	0.118
-181.056	30.954	-0.233	-0.199
-180.042	-150.870	-0.458	-0.034
-179.027	358.284	0.129	-0.256
-178.012	-152.960	0.480	0.034
-176.998	-46.572	0.078	0.038
-175.983	53.793	-0.135	-0.129
-174.969	-31.088	0.186	0.104
-173.954	463.644	-0.049	0.109
-172.939	213.714	-0.133	0.209
-171.925	294.523	0.090	0.164
-170.910	90.278	-0.047	0.052
-169.896	94.518	0.045	-0.051
-168.881	31.502	-0.013	0.011
-167.866	97.034	-0.233	-0.266
-166.852	-92.007	-0.179	0.050
-165.837	-106.418	0.268	-0.060
-164.823	-200.000	-0.025	0.160
-163.808	30.509	0.187	0.159
-162.793	84.728	-0.111	-0.121
-161.779	113.349	0.105	0.126
-160.764	-6.395	-0.097	0.066
-159.750	-175.612	0.109	0.003
-158.735	-131.575	-0.228	0.030
-157.720	418.902	-0.010	0.022
-156.706	-200.000	-0.001	0.274
-155.691	-9.388	-0.218	-0.144
-154.677	242.575	0.185	-0.308
-153.662	-110.766	0.228	-0.047
-152.647	46.572	-0.151	0.139
-151.633	9.921	-0.068	-0.052
-150.618	51.123	-0.202	-0.190
-149.604	-200.000	0.014	0.074
-148.589	-80.824	-0.231	-0.076
-147.574	735.014	0.101	0.269
-146.560	-200.000	-0.046	-0.337
-145.545	44.741	0.135	0.123
-144.531	-114.234	-0.028	0.005
-143.516	-128.844	-0.164	0.023
-142.502	-44.612	0.131	-0.065
-141.487	12.924	0.062	0.048
-140.472	24.125	-0.185	0.152
-139.458	-0.512	-0.117	-0.083
-138.443	-200.000	-0.015	0.100
-137.429	-149.751	0.346	0.027
-136.414	800.000	0.043	-0.181
-135.399	-200.000	-0.001	-0.086
-134.385	-99.285	-0.315	0.079
-133.370	454.297	0.110	0.243
-132.356	41.544	-0.174	-0.156
-131.341	621.882	0.159	0.398
-130.326	605.080	-0.061	0.151
-129.312	800.000	-0.033	0.117
-128.297	-17.657	0.059	-0.037
-127.283	57.046	-0.100	0.096
-126.268	208.934	-0.072	-0.112
-125.253	587.845	-0.099	-0.242
-124.239	-75.327	-0.329	-0.116
-123.224	-200.000	-0.080	0.604
-122.210	-86.998	0.561	-0.170
-121.195	376.393	-0.066	-0.133
