DTS Sentinel unit serial number:	SN413079Multiplexer serial number:	ORYXHardware model number:	OX4-SRSoftware version number:	ORYX F/W v4.00 Oryx Data Collector v3.7.2.0data status	okinstallation	princeton_trtdifferential loss correction	single-endedforward channel	channel 2reverse channel	N/Adate	2019/09/11time	07:21:11forward acquisition time	60.00reverse acquisition time	0.00gamma	496.2192k internal	0.2327k external	0.2327temperature offset calibration	0.9941default loss term (dB/km)	0.3790temperature slope calibration	1.0000multiplexer offset coefficient	1.0000multiplexer slope coefficient	1.0000fibre end	0.00T internal ref (°C)	30.75T ext. ref 1 (°C)	-0.05T ext. ref 2 (°C)	27.29length (m)	temperature (°C)	Stokes	anti-Stokes-747.200	-34.197	0.184	-0.102
-746.185	-101.930	-0.283	-0.069
-745.171	91.541	-0.020	0.023
-744.156	800.000	-0.036	0.115
-743.142	-125.509	-0.189	-0.029
-742.127	-113.084	-0.088	0.018
-741.112	319.614	-0.084	0.161
-740.098	69.543	-0.132	0.137
-739.083	188.530	0.254	0.384
-738.069	162.293	0.167	0.236
-737.054	161.421	0.102	-0.144
-736.039	262.763	0.079	0.139
-735.025	114.933	-0.083	0.102
-734.010	-89.834	-0.057	-0.017
-732.996	10.213	-0.320	0.245
-731.981	-200.000	0.002	0.216
-730.966	-181.197	-0.038	-0.001
-729.952	68.266	-0.105	0.109
-728.937	-23.689	-0.270	0.163
-727.923	-200.000	-0.048	-0.338
-726.908	-125.750	0.359	-0.055
-725.894	196.912	0.070	-0.108
-724.879	-138.780	-0.325	-0.036
-723.864	164.642	-0.190	0.270
-722.850	49.926	-0.131	0.124
-721.835	-175.254	-0.160	-0.004
-720.821	-102.755	0.086	0.021
-719.806	800.000	0.062	-0.179
-718.791	-200.000	-0.035	0.203
-717.777	122.079	0.126	-0.158
-716.762	-200.000	-0.043	-0.256
-715.748	88.373	0.232	0.260
-714.733	-200.000	-0.020	0.150
-713.718	247.683	0.107	0.183
-712.704	-66.519	-0.339	-0.135
-711.689	75.512	-0.046	-0.049
-710.675	127.458	0.224	0.286
-709.660	800.000	0.130	-0.487
-708.645	-70.667	0.297	0.113
-707.631	48.434	0.092	0.087
-706.616	-24.123	0.417	0.251
-705.602	-200.000	0.000	-0.059
-704.587	311.923	0.152	-0.286
-703.572	-156.788	0.261	0.016
-702.558	-101.902	-0.298	-0.072
-701.543	-153.384	0.398	-0.028
-700.529	-45.253	0.253	-0.127
-699.514	800.000	0.045	-0.143
-698.499	242.748	0.014	-0.023
-697.485	-93.512	-0.541	-0.151
-696.470	62.685	-0.269	0.271
-695.456	800.000	-0.101	0.355
-694.441	-79.664	-0.250	0.085
-693.426	-200.000	0.031	0.311
-692.412	-179.901	0.228	-0.005
-691.397	-83.454	-0.336	-0.108
-690.383	-200.000	-0.050	-0.305
-689.368	126.849	-0.093	-0.119
-688.354	-200.000	0.007	-0.034
-687.339	34.301	-0.209	-0.183
-686.324	-161.710	-0.096	-0.005
-685.310	38.748	0.084	-0.075
-684.295	-70.976	-0.103	-0.039
-683.281	-101.935	-0.173	0.042
-682.266	274.676	0.130	-0.232
-681.251	-94.847	-0.226	-0.062
-680.237	-48.375	0.135	0.065
-679.222	800.000	0.083	0.233
-678.208	-81.165	-0.058	0.019
-677.193	-124.130	-0.328	0.052
-676.178	103.171	0.341	0.401
-675.164	348.946	0.105	0.207
-674.149	116.312	-0.101	0.124
-673.135	21.100	0.095	0.078
-672.120	-110.360	0.131	0.027
-671.105	-200.000	0.013	-0.090
-670.091	-8.359	0.117	-0.079
-669.076	-200.000	0.003	0.111
-668.062	88.489	-0.266	-0.297
-667.047	-200.000	0.041	-0.305
-666.032	549.414	0.027	-0.065
-665.018	98.376	-0.113	-0.131
-664.003	800.000	-0.054	-0.226
-662.989	-79.833	0.131	0.044
-661.974	-200.000	-0.036	0.176
-660.959	240.604	-0.121	0.203
-659.945	-166.074	0.093	0.004
-658.930	-178.637	-0.237	-0.005
-657.916	115.866	0.147	0.180
-656.901	-121.472	0.234	0.039
-655.886	158.627	-0.183	0.256
-654.872	-200.000	0.051	-0.277
-653.857	-48.382	-0.244	-0.118
-652.843	-200.000	-0.138	-0.000
-651.828	135.414	-0.050	0.065
-650.814	-1.885	-0.051	-0.036
-649.799	-86.784	0.048	-0.015
-648.784	281.977	-0.101	0.181
-647.770	31.096	-0.227	0.195
-646.755	4.693	-0.330	-0.243
-645.741	-200.000	-0.050	-0.320
-644.726	104.415	-0.393	-0.465
-643.711	-30.431	0.288	-0.164
-642.697	-93.487	0.212	0.059
-641.682	-15.278	-0.213	-0.137
-640.668	-165.496	-0.169	0.007
-639.653	-58.128	0.249	-0.109
-638.638	-200.000	-0.041	-0.229
-637.624	-66.315	0.077	-0.031
-636.609	-200.000	0.018	0.144
-635.595	-66.319	0.249	-0.099
-634.580	-200.000	-0.006	-0.096
-633.565	16.306	0.088	0.070
-632.551	800.000	0.043	0.182
-631.536	-77.128	0.190	-0.066
-630.522	272.040	0.137	-0.243
-629.507	-200.000	0.011	-0.081
-628.492	-115.383	-0.325	0.062
-627.478	-49.988	0.108	0.051
-626.463	-93.503	-0.498	0.138
-625.449	-157.592	-0.467	0.028
-624.434	800.000	-0.025	-0.070
-623.419	168.926	-0.124	-0.177
-622.405	15.071	0.085	0.067
-621.390	-200.000	0.021	0.250
-620.376	-92.340	0.227	-0.064
-619.361	-98.062	-0.434	-0.112
-618.346	362.754	0.018	0.036
-617.332	-130.370	-0.160	0.022
-616.317	20.236	-0.138	0.112
-615.303	527.308	-0.046	-0.108
-614.288	71.880	-0.126	0.132
-613.273	-200.000	0.019	-0.128
-612.259	-83.841	0.167	0.053
-611.244	-32.593	-0.482	0.269
-610.230	21.794	-0.025	-0.021
-609.215	50.403	0.145	-0.137
-608.201	507.614	0.115	-0.269
-607.186	447.029	0.186	-0.410
-606.171	-50.031	-0.184	-0.087
-605.157	-200.000	-0.009	-0.356
-604.142	-200.000	-0.059	-0.493
-603.128	-38.106	-0.226	-0.120
-602.113	-113.459	-0.535	-0.105
-601.098	-88.932	-0.151	-0.045
-600.084	17.855	0.174	0.139
-599.069	-34.227	-0.047	0.026
-598.055	-200.000	-0.008	-0.124
-597.040	800.000	0.061	-0.183
-596.025	-200.000	0.007	0.135
-595.011	-86.808	0.213	-0.065
-593.996	-39.025	0.196	0.104
-592.982	-56.101	-0.366	-0.163
-591.967	-165.544	-0.156	-0.007
-590.952	800.000	-0.056	-0.198
-589.938	-125.578	0.229	-0.035
-588.923	-200.000	-0.028	-0.242
-587.909	-200.000	-0.054	-0.285
-586.894	220.387	0.149	-0.240
-585.879	-112.338	-0.093	0.019
-584.865	800.000	0.144	-0.425
-583.850	-91.542	0.184	0.053
-582.836	122.687	-0.107	-0.134
-581.821	-99.015	-0.307	0.078
-580.806	178.951	-0.095	-0.139
-579.792	76.042	-0.076	-0.081
-578.777	-200.000	0.035	0.337
-577.763	-33.957	0.333	-0.184
-576.748	800.000	-0.092	0.280
-575.733	15.868	0.174	0.137
-574.719	-88.296	-0.181	-0.054
-573.704	-200.000	0.017	0.231
-572.690	-158.037	-0.158	0.009
-571.675	-72.114	-0.267	-0.099
-570.661	-200.000	0.032	0.375
-569.646	-40.833	-0.145	-0.075
-568.631	-200.000	0.032	-0.275
-567.617	598.079	-0.080	0.197
-566.602	-200.000	0.011	-0.370
-565.588	-86.003	0.295	0.091
-564.573	800.000	0.056	0.245
-563.558	-67.408	0.233	-0.092
-562.544	800.000	0.104	0.308
-561.529	-25.513	0.086	-0.051
-560.515	329.236	0.016	0.031
-559.500	-200.000	-0.053	0.241
-558.485	-84.646	0.163	0.051
-557.471	-37.655	0.292	-0.155
-556.456	-64.309	-0.247	0.101
-555.442	-168.210	-0.325	-0.013
-554.427	74.020	0.148	0.156
-553.412	-14.039	0.258	-0.167
-552.398	-47.910	-0.338	-0.164
-551.383	-200.000	0.289	0.001
-550.369	-146.140	0.101	-0.009
-549.354	800.000	0.066	-0.189
-548.339	-102.828	-0.199	-0.047
-547.325	-13.027	-0.327	0.213
-546.310	-200.000	0.009	0.043
-545.296	-120.934	0.251	-0.042
-544.281	-68.715	0.182	-0.070
-543.266	264.508	-0.015	-0.026
-542.252	60.350	-0.159	0.157
-541.237	-25.581	-0.106	-0.063
-540.223	94.400	0.093	-0.105
-539.208	-200.000	0.037	-0.280
-538.193	6.365	-0.274	-0.204
-537.179	800.000	-0.067	-0.187
-536.164	-119.899	0.119	0.020
-535.150	-200.000	0.043	0.191
-534.135	130.695	-0.130	0.167
-533.121	33.491	0.037	-0.032
-532.106	-137.671	0.076	0.009
-531.091	-200.000	-0.007	-0.161
-530.077	800.000	0.048	-0.158
-529.062	-25.929	0.312	0.184
-528.048	181.078	0.063	0.092
-527.033	-200.000	0.068	-0.459
-526.018	287.732	0.049	0.088
-525.004	-26.183	0.245	0.144
-523.989	61.660	0.287	0.285
-522.975	29.086	0.247	-0.210
-521.960	78.983	-0.187	-0.200
-520.945	80.182	0.218	-0.234
-519.931	37.652	0.072	0.064
-518.916	800.000	-0.037	0.111
-517.902	165.599	-0.104	-0.146
-516.887	33.885	-0.177	-0.154
-515.872	-56.685	0.136	0.060
-514.858	-175.162	-0.246	-0.007
-513.843	4.865	-0.078	-0.057
-512.829	171.347	0.207	-0.297
-511.814	403.955	-0.135	-0.284
-510.799	-112.926	0.170	-0.034
-509.785	-54.526	-0.295	-0.133
-508.770	647.644	-0.185	-0.471
-507.756	29.761	0.148	-0.126
-506.741	-137.545	0.311	0.035
-505.726	17.189	0.082	-0.065
-504.712	-200.000	0.021	0.126
-503.697	800.000	-0.035	0.137
-502.683	-200.000	0.001	0.385
-501.668	201.813	0.155	0.238
-500.653	-190.800	-0.140	-0.001
-499.639	-32.932	-0.083	0.046
-498.624	382.809	0.153	0.314
-497.610	-97.819	-0.360	0.093
-496.595	103.505	0.175	0.205
-495.581	164.652	0.077	0.108
-494.566	166.332	0.086	-0.121
-493.551	-58.013	0.109	-0.048
-492.537	90.942	0.126	0.141
-491.522	606.437	0.045	0.113
-490.508	194.779	-0.195	0.296
-489.493	-187.176	0.217	0.003
-488.478	-200.000	0.039	0.294
-487.464	-46.533	-0.083	-0.041
-486.449	-120.408	-0.547	-0.093
-485.435	-110.835	0.214	0.044
-484.420	34.330	-0.313	0.273
-483.405	322.657	0.090	-0.171
-482.391	-21.122	-0.218	0.133
-481.376	383.140	0.045	0.092
-480.362	558.097	-0.013	-0.032
-479.347	750.850	-0.055	0.149
-478.332	-81.070	-0.175	-0.058
-477.318	81.539	-0.164	-0.177
-476.303	-4.946	0.083	-0.057
-475.289	-107.418	0.178	0.039
-474.274	-67.209	0.312	-0.123
-473.259	-200.000	0.011	0.088
-472.245	436.198	0.157	0.340
-471.230	-157.608	0.480	0.029
-470.216	-200.000	0.000	-0.293
-469.201	128.980	-0.035	0.044
-468.186	800.000	0.032	0.109
-467.172	65.375	0.068	-0.069
-466.157	721.783	-0.051	-0.135
-465.143	215.653	0.071	-0.113
-464.128	-200.000	0.035	0.310
-463.113	-23.739	-0.166	0.099
-462.099	-16.367	0.067	-0.043
-461.084	-107.114	0.059	0.013
-460.070	67.754	-0.162	-0.165
-459.055	550.372	0.020	0.048
-458.040	-170.534	0.256	-0.009
-457.026	-76.519	-0.064	0.022
-456.011	800.000	0.073	-0.235
-454.997	-28.980	-0.188	0.107
-453.982	-200.000	-0.021	0.262
-452.968	-111.794	0.207	-0.042
-451.953	23.621	-0.405	0.333
-450.938	-103.767	-0.112	-0.026
-449.924	-153.624	0.224	-0.015
-448.909	4.831	-0.209	0.153
-447.895	788.328	-0.073	0.201
-446.880	-200.000	0.017	0.194
-445.865	-70.998	0.433	0.162
-444.851	-42.284	-0.116	0.059
-443.836	247.736	0.034	0.057
-442.822	90.400	0.258	0.288
-441.807	49.041	-0.102	-0.096
-440.792	756.971	-0.055	-0.147
-439.778	-200.000	-0.010	0.234
-438.763	-200.000	0.000	0.056
-437.749	-200.000	-0.016	0.077
-436.734	-124.380	-0.162	-0.025
-435.719	-52.771	0.436	-0.200
-434.705	-58.011	0.157	0.068
-433.690	-64.504	-0.062	0.025
-432.676	712.865	0.065	0.171
-431.661	-200.000	0.070	0.340
-430.646	91.344	0.040	-0.045
-429.632	280.652	-0.140	-0.249
-428.617	-200.000	0.013	-0.069
-427.603	14.726	0.119	0.093
-426.588	156.094	-0.163	-0.223
-425.573	-27.540	-0.233	-0.135
-424.559	-29.716	0.098	-0.056
-423.544	153.881	-0.228	-0.312
-422.530	96.331	-0.082	0.094
-421.515	800.000	0.092	0.307
-420.500	-200.000	-0.001	-0.089
-419.486	74.567	-0.215	0.225
-418.471	186.419	-0.080	0.118
-417.457	185.686	-0.216	0.319
-416.442	182.206	0.088	-0.130
-415.428	-195.867	-0.105	0.001
-414.413	-99.616	0.330	0.082
-413.398	-200.000	0.068	-0.509
-412.384	-80.251	-0.138	0.046
-411.369	-200.000	0.000	0.151
-410.355	800.000	-0.131	-0.436
-409.340	-200.000	0.000	0.087
-408.325	125.599	-0.105	0.132
-407.311	-111.266	-0.335	-0.068
-406.296	800.000	-0.026	0.079
-405.282	69.851	-0.079	0.081
-404.267	-139.220	-0.144	-0.015
-403.252	175.341	0.058	0.084
-402.238	-154.386	-0.273	-0.018
-401.223	54.657	-0.230	-0.221
-400.209	344.995	-0.100	-0.195
-399.194	-200.000	0.007	-0.114
-398.179	3.349	0.235	-0.170
-397.165	-154.187	0.249	-0.017
-396.150	67.057	0.365	0.370
-395.136	-81.717	0.275	-0.090
-394.121	-96.968	-0.295	-0.077
-393.106	305.517	0.047	-0.087
-392.092	-58.881	-0.189	-0.081
-391.077	-32.506	0.113	0.063
-390.063	-197.887	-0.122	0.001
-389.048	-7.202	-0.162	0.109
-388.033	143.489	0.205	0.271
-387.019	-92.911	-0.265	-0.074
-386.004	800.000	-0.107	-0.425
-384.990	28.911	0.190	-0.160
-383.975	-114.506	0.195	-0.037
-382.960	486.241	-0.162	0.366
-381.946	-73.557	0.238	-0.086
-380.931	87.240	-0.251	0.276
-379.917	332.843	-0.150	0.288
-378.902	-0.044	-0.159	-0.113
-377.888	120.893	-0.122	-0.151
-376.873	21.350	0.161	0.130
-375.858	-100.074	-0.051	0.013
-374.844	-200.000	0.041	0.253
-373.829	-140.864	0.209	-0.021
-372.815	-200.000	0.000	0.287
-371.800	172.217	0.211	-0.301
-370.785	800.000	-0.047	0.134
-369.771	-200.000	-0.014	0.163
-368.756	278.356	0.141	0.250
-367.742	-159.989	0.233	-0.013
-366.727	-171.304	-0.227	-0.008
-365.712	-156.172	-0.325	-0.020
-364.698	-176.005	-0.181	0.005
-363.683	32.466	0.273	-0.234
-362.669	106.476	0.257	0.302
-361.654	200.376	0.171	0.261
-360.639	-200.000	-0.049	0.278
-359.625	800.000	-0.026	-0.111
-358.610	800.000	-0.017	0.059
-357.596	-200.000	0.011	0.092
-356.581	-200.000	-0.000	-0.054
-355.566	271.129	-0.198	0.347
-354.552	-168.693	-0.138	-0.005
-353.537	113.973	0.193	-0.233
-352.523	-171.469	-0.287	0.009
-351.508	-200.000	-0.021	0.146
-350.493	-113.227	0.542	0.106
-349.479	61.839	-0.143	-0.142
-348.464	-170.101	0.088	-0.003
-347.450	-200.000	0.067	-0.416
-346.435	21.525	0.311	0.251
-345.420	-47.831	0.057	-0.027
-344.406	-7.232	-0.236	0.159
-343.391	800.000	-0.016	0.053
-342.377	-139.273	-0.094	-0.010
-341.362	-69.230	0.198	0.075
-340.348	83.083	-0.132	0.142
-339.333	-200.000	-0.056	0.267
-338.318	-5.697	-0.105	-0.072
-337.304	21.021	0.065	0.053
-336.289	19.984	0.101	0.081
-335.275	135.077	-0.071	-0.091
-334.260	-87.122	0.080	-0.024
-333.245	-200.000	0.055	0.247
-332.231	800.000	-0.090	0.269
-331.216	-150.533	-0.525	-0.040
-330.202	-200.000	0.056	-0.266
-329.187	-98.893	0.251	-0.063
-328.172	-200.000	0.007	-0.070
-327.158	265.081	-0.134	-0.232
-326.143	-178.875	-0.139	0.003
-325.129	-139.247	-0.188	-0.020
-324.114	567.466	0.106	-0.254
-323.099	-53.258	-0.119	0.054
-322.085	-95.600	-0.206	-0.055
-321.070	-65.338	0.464	-0.185
-320.056	1.278	-0.169	0.120
-319.041	325.357	0.054	-0.103
-318.026	224.818	-0.148	-0.237
-317.012	-90.796	0.049	0.014
-315.997	-61.685	0.133	-0.055
-314.983	-77.044	-0.116	-0.040
-313.968	93.185	0.153	-0.171
-312.953	-200.000	-0.027	0.153
-311.939	-200.000	-0.046	-0.219
-310.924	471.257	-0.057	0.127
-309.910	-139.975	-0.245	0.026
-308.895	257.870	-0.243	0.415
-307.880	322.354	-0.080	0.150
-306.866	-35.474	0.148	-0.080
-305.851	-41.807	-0.362	-0.184
-304.837	25.829	0.234	0.193
-303.822	31.065	0.069	-0.058
-302.807	15.858	0.032	0.025
-301.793	-200.000	-0.118	-0.610
-300.778	35.458	0.024	0.021
-299.764	-200.000	0.297	-0.001
-298.749	130.814	0.129	-0.164
-297.735	-200.000	0.055	0.250
-296.720	800.000	0.041	-0.164
-295.705	-35.588	0.276	-0.148
-294.691	206.546	0.146	0.225
-293.676	-17.822	0.146	-0.091
-292.662	-31.359	0.062	0.034
-291.647	209.117	0.060	0.093
-290.632	800.000	0.100	-0.346
-289.618	273.965	0.062	-0.108
-288.603	11.159	0.160	-0.121
-287.589	-80.089	0.211	-0.070
-286.574	-200.000	0.039	-0.189
-285.559	-9.162	0.292	-0.194
-284.545	106.829	0.192	-0.226
-283.530	44.399	-0.059	-0.054
-282.516	-8.608	-0.056	0.037
-281.501	800.000	0.036	0.111
-280.486	78.066	0.175	0.184
-279.472	164.644	0.055	-0.077
-278.457	293.527	0.079	-0.143
-277.443	-116.083	-0.383	0.071
-276.428	147.198	0.067	-0.089
-275.413	450.675	0.082	-0.178
-274.399	662.697	0.027	0.068
-273.384	-75.967	-0.064	-0.022
-272.370	0.559	0.157	0.111
-271.355	22.585	0.168	0.136
-270.340	26.975	-0.067	0.056
-269.326	800.000	0.099	0.417
-268.311	-128.947	-0.452	-0.063
-267.297	-35.444	-0.258	-0.139
-266.282	-200.000	-0.038	-0.219
-265.267	-90.675	0.351	-0.100
-264.253	-200.000	0.046	0.264
-263.238	56.129	-0.110	-0.106
-262.224	-111.552	-0.459	0.092
-261.209	-60.015	0.245	0.104
-260.195	107.054	0.226	-0.266
-259.180	800.000	0.064	-0.223
-258.165	-156.364	-0.144	0.009
-257.151	-91.419	0.227	-0.064
-256.136	-69.045	-0.099	0.038
-255.122	800.000	0.016	0.053
-254.107	-73.008	-0.151	0.055
-253.092	22.874	0.352	-0.285
-252.078	-17.795	-0.190	-0.118
-251.063	-79.404	0.350	0.117
-250.049	-64.136	0.431	0.174
-249.034	32.667	0.070	0.060
-248.019	-200.000	-0.013	-0.223
-247.005	-99.167	-0.435	-0.109
-245.990	672.254	0.032	-0.082
-244.976	-103.129	0.149	0.035
-243.961	-177.599	0.110	0.003
-242.946	421.329	0.125	0.264
-241.932	84.168	0.015	0.016
-240.917	558.613	-0.053	-0.127
-239.903	55.905	-0.140	0.134
-238.888	-200.000	-0.003	-0.178
-237.873	278.952	-0.119	0.210
-236.859	-33.806	0.124	0.067
-235.844	103.656	-0.205	-0.237
-234.830	-62.671	-0.152	-0.062
-233.815	-4.137	-0.140	-0.096
-232.800	251.758	-0.096	-0.162
-231.786	-166.353	0.182	-0.008
-230.771	-200.000	0.020	-0.101
-229.757	215.980	0.044	-0.069
-228.742	89.009	-0.142	0.156
-227.727	-200.000	0.000	0.121
-226.713	-200.000	-0.019	0.211
-225.698	-200.000	0.020	0.145
-224.684	769.999	0.044	-0.118
-223.669	800.000	0.044	-0.164
-222.655	-154.997	0.096	0.006
-221.640	-200.000	0.060	0.376
-220.625	800.000	0.046	-0.158
-219.611	800.000	0.023	-0.076
-218.596	-200.000	-0.046	0.205
-217.582	-11.727	0.247	0.160
-216.567	-33.460	0.124	0.067
-215.552	-49.341	-0.116	0.055
-214.538	-186.264	0.176	-0.003
-213.523	42.987	-0.220	-0.198
-212.509	215.865	0.163	0.256
-211.494	153.461	0.082	0.110
-210.479	-54.588	-0.276	0.123
-209.465	-140.891	-0.059	-0.006
-208.450	-115.393	0.139	-0.026
-207.436	-200.000	-0.020	0.097
-206.421	-157.151	-0.181	0.011
-205.406	-133.551	-0.402	-0.050
-204.392	94.118	0.131	-0.147
-203.377	-13.169	0.141	0.090
-202.363	-16.277	0.195	-0.122
-201.348	79.082	-0.023	0.025
-200.333	334.938	-0.055	-0.105
-199.319	800.000	-0.029	0.125
-198.304	-74.654	-0.342	-0.121
-197.290	17.308	0.038	-0.030
-196.275	-200.000	0.020	-0.187
-195.260	-35.593	0.253	0.136
-194.246	-122.623	-0.304	0.049
-193.231	429.505	-0.026	-0.055
-192.217	-45.981	0.103	-0.050
-191.202	-82.347	0.074	-0.024
-190.187	6.787	-0.111	-0.082
-189.173	308.117	-0.065	0.120
-188.158	-144.145	0.087	-0.008
-187.144	-95.600	0.153	0.040
-186.129	33.897	-0.101	-0.087
-185.114	-90.302	-0.143	-0.041
-184.100	-12.198	-0.185	-0.119
-183.085	108.163	-0.155	0.182
-182.071	-149.480	-0.066	0.005
-181.056	162.074	0.069	0.095
-180.042	-4.338	-0.132	-0.090
-179.027	194.624	0.224	0.335
-178.012	-59.045	-0.206	-0.087
-176.998	-200.000	0.039	0.461
-175.983	-91.310	0.345	-0.097
-174.969	123.689	-0.376	0.465
-173.954	-99.424	-0.090	0.022
-172.939	800.000	0.135	0.508
-171.925	589.410	-0.147	0.358
-170.910	800.000	-0.067	0.271
-169.896	-200.000	0.013	0.355
-168.881	-8.151	-0.165	0.110
-167.866	214.987	-0.194	0.304
-166.852	225.143	0.061	0.098
-165.837	7.324	-0.215	0.159
-164.823	102.482	0.185	-0.213
-163.808	-135.726	-0.437	-0.051
-162.793	-65.793	-0.193	-0.076
-161.779	-136.119	0.326	0.038
-160.764	-200.000	-0.014	0.123
-159.750	800.000	-0.126	-0.425
-158.735	-200.000	0.001	-0.256
-157.720	-71.330	0.203	0.075
-156.706	-133.330	0.446	-0.055
-155.691	-200.000	0.040	0.232
-154.677	58.925	0.100	0.097
-153.662	-150.389	0.464	0.035
-152.647	-45.088	0.146	-0.071
-151.633	259.227	0.151	-0.257
-150.618	-200.000	-0.008	-0.078
-149.604	-12.330	0.228	-0.147
-148.589	-129.059	-0.155	0.021
-147.574	-117.062	-0.172	0.031
-146.560	-143.425	0.326	0.031
-145.545	-73.239	-0.146	-0.053
-144.531	134.198	0.117	0.149
-143.516	-200.000	0.010	-0.114
-142.502	-200.000	0.022	0.171
-141.487	-26.334	-0.252	0.145
-140.472	74.879	-0.145	0.151
-139.458	-74.050	0.285	0.102
-138.443	88.116	-0.047	0.051
-137.429	315.029	0.150	-0.278
-136.414	-45.994	-0.249	0.121
-135.399	167.797	-0.155	-0.216
-134.385	243.995	-0.133	0.219
-133.370	231.364	-0.108	0.174
-132.356	-33.305	0.042	-0.023
-131.341	107.851	0.239	0.281
-130.326	-0.971	0.191	-0.133
-129.312	800.000	0.020	0.070
-128.297	-83.318	-0.160	-0.050
-127.283	58.861	-0.065	0.063
-126.268	-70.589	-0.072	-0.027
-125.253	-200.000	-0.003	0.021
-124.239	-200.000	-0.002	-0.106
-123.224	-66.609	0.192	0.075
-122.210	449.980	-0.060	0.130
-121.195	196.746	0.111	0.166
