DTS Sentinel unit serial number:	SN413079Multiplexer serial number:	ORYXHardware model number:	OX4-SRSoftware version number:	ORYX F/W v4.00 Oryx Data Collector v3.7.2.0data status	okinstallation	princeton_trtdifferential loss correction	single-endedforward channel	channel 2reverse channel	N/Adate	2019/09/16time	21:11:35forward acquisition time	60.00reverse acquisition time	0.00gamma	496.2192k internal	0.2329k external	0.2329temperature offset calibration	0.9968default loss term (dB/km)	0.3790temperature slope calibration	1.0000multiplexer offset coefficient	1.0000multiplexer slope coefficient	1.0000fibre end	0.00T internal ref (°C)	31.80T ext. ref 1 (°C)	0.06T ext. ref 2 (°C)	25.50length (m)	temperature (°C)	Stokes	anti-Stokes-747.200	-150.945	-0.179	0.014
-746.185	133.489	-0.171	-0.223
-745.171	-83.541	0.333	-0.107
-744.156	-44.600	-0.070	0.035
-743.142	800.000	-0.065	0.186
-742.127	-8.382	-0.290	-0.196
-741.112	71.755	0.237	0.248
-740.098	-200.000	-0.045	0.350
-739.083	335.047	0.062	0.121
-738.069	54.529	-0.261	0.253
-737.054	-82.401	-0.187	0.061
-736.039	-200.000	-0.029	-0.287
-735.025	-52.354	0.165	0.077
-734.010	-118.856	-0.065	0.012
-732.996	800.000	0.063	-0.231
-731.981	-161.654	-0.207	0.011
-730.966	-12.916	0.162	0.106
-729.952	-158.897	-0.205	-0.012
-728.937	-200.000	-0.026	-0.113
-727.923	-92.493	-0.231	0.065
-726.908	318.868	0.073	-0.139
-725.894	-200.000	-0.023	0.136
-724.879	57.667	0.253	-0.249
-723.864	-135.541	0.181	0.022
-722.850	800.000	0.044	-0.183
-721.835	-143.507	-0.427	-0.041
-720.821	-200.000	0.028	-0.385
-719.806	-200.000	0.009	-0.312
-718.791	-93.377	0.179	0.050
-717.777	-49.827	0.247	-0.118
-716.762	323.283	-0.135	-0.260
-715.748	-200.000	0.005	-0.057
-714.733	25.240	0.207	0.173
-713.718	-104.844	-0.160	-0.037
-712.704	57.650	0.109	-0.107
-711.689	800.000	0.048	-0.191
-710.675	800.000	-0.062	-0.205
-709.660	-140.342	-0.152	0.016
-708.645	-200.000	-0.006	-0.264
-707.631	-115.977	0.204	-0.038
-706.616	-199.633	-0.471	-0.002
-705.602	-12.857	-0.201	0.132
-704.587	-23.761	0.147	0.089
-703.572	-164.414	0.285	-0.013
-702.558	-8.588	-0.175	-0.118
-701.543	2.318	0.212	0.154
-700.529	135.293	-0.278	-0.363
-699.514	-200.000	0.021	-0.406
-698.499	800.000	0.068	-0.297
-697.485	545.429	-0.090	-0.217
-696.470	32.189	-0.043	-0.037
-695.456	97.427	0.237	0.274
-694.441	-104.156	-0.304	0.071
-693.426	6.144	-0.208	0.155
-692.412	81.488	-0.019	0.020
-691.397	39.948	0.173	-0.157
-690.383	275.567	-0.074	-0.132
-689.368	-86.651	0.266	-0.082
-688.354	158.871	-0.153	0.213
-687.339	-116.257	-0.525	0.098
-686.324	-143.331	0.346	0.033
-685.310	-10.148	-0.190	-0.127
-684.295	72.858	-0.251	-0.263
-683.281	-97.407	-0.198	-0.052
-682.266	-32.935	0.272	-0.152
-681.251	-168.367	0.116	-0.004
-680.237	-200.000	0.037	-0.181
-679.222	17.054	-0.298	-0.237
-678.208	19.491	-0.260	-0.210
-677.193	250.608	0.188	0.321
-676.178	-48.493	-0.227	0.110
-675.164	-150.715	-0.318	0.024
-674.149	187.002	-0.200	-0.300
-673.135	-200.000	-0.006	-0.111
-672.120	-200.000	-0.002	-0.247
-671.105	-23.719	0.265	-0.160
-670.091	-200.000	0.008	-0.227
-669.076	-200.000	-0.075	-0.336
-668.062	154.724	-0.216	0.298
-667.047	-200.000	0.065	-0.289
-666.032	-24.594	-0.284	0.170
-665.018	-200.000	0.035	-0.205
-664.003	800.000	-0.014	0.045
-662.989	29.028	0.156	0.133
-661.974	-200.000	0.037	0.334
-660.959	-174.469	-0.341	-0.010
-659.945	-102.075	0.377	0.091
-658.930	211.348	-0.107	0.168
-657.916	-76.399	-0.338	0.120
-656.901	-129.304	-0.225	-0.031
-655.886	389.409	0.053	-0.111
-654.872	-95.453	0.288	0.078
-653.857	-200.000	-0.018	0.284
-652.843	-76.430	-0.381	-0.134
-651.828	393.878	0.085	0.178
-650.814	-200.000	0.014	-0.107
-649.799	-200.000	0.007	-0.044
-648.784	-200.000	-0.056	-0.486
-647.770	-156.211	-0.154	-0.010
-646.755	-93.099	-0.055	0.015
-645.741	-62.565	0.315	0.131
-644.726	134.270	-0.088	0.115
-643.711	293.283	0.150	-0.275
-642.697	-169.312	-0.140	0.005
-641.682	486.043	-0.151	-0.344
-640.668	1.711	0.018	-0.013
-639.653	-27.130	-0.071	-0.041
-638.638	216.317	-0.022	0.034
-637.624	-16.599	-0.139	-0.088
-636.609	327.670	0.173	-0.334
-635.595	-115.759	-0.207	-0.039
-634.580	92.210	-0.095	-0.107
-633.565	23.731	0.183	0.151
-632.551	27.230	-0.101	0.085
-631.536	800.000	-0.060	0.246
-630.522	-70.283	0.424	-0.161
-629.507	-143.627	-0.261	-0.025
-628.492	1.235	0.320	0.231
-627.478	20.962	-0.228	0.185
-626.463	-184.151	0.270	-0.004
-625.449	64.572	-0.244	0.247
-624.434	8.144	0.170	0.128
-623.419	-13.446	0.169	-0.110
-622.405	-82.642	-0.245	-0.080
-621.390	800.000	-0.043	0.184
-620.376	89.770	0.137	0.153
-619.361	284.762	0.175	0.316
-618.346	-200.000	-0.066	0.320
-617.332	-200.000	0.038	0.389
-616.317	585.568	-0.160	0.395
-615.303	71.625	-0.093	0.097
-614.288	243.070	0.070	-0.118
-613.273	102.123	-0.207	-0.242
-612.259	-200.000	0.010	-0.135
-611.244	-80.169	0.276	-0.093
-610.230	276.612	-0.119	-0.211
-609.215	255.519	-0.073	0.126
-608.201	608.732	0.113	0.284
-607.186	209.345	0.166	-0.261
-606.171	142.427	0.137	0.182
-605.157	172.823	0.169	0.244
-604.142	-59.280	-0.110	0.047
-603.128	-34.604	-0.332	0.182
-602.113	170.970	-0.234	0.336
-601.098	208.506	0.274	-0.430
-600.084	-152.110	0.220	0.016
-599.069	-89.723	0.081	0.024
-598.055	522.891	-0.048	0.113
-597.040	-66.464	0.281	-0.112
-596.025	800.000	0.091	-0.311
-595.011	800.000	-0.205	-0.575
-593.996	-35.120	0.097	-0.053
-592.982	109.450	0.066	0.080
-591.967	-174.528	-0.188	-0.005
-590.952	133.856	0.136	-0.176
-589.938	-105.780	-0.208	0.047
-588.923	-109.477	-0.057	0.012
-587.909	-102.600	-0.311	-0.074
-586.894	-11.363	0.071	0.047
-585.879	-200.000	0.032	-0.200
-584.865	5.024	0.061	-0.045
-583.850	800.000	0.039	-0.120
-582.836	255.853	0.143	0.246
-581.821	-102.454	-0.256	0.061
-580.806	344.208	-0.144	0.284
-579.792	-200.000	-0.074	-0.653
-578.777	-35.115	-0.322	0.175
-577.763	24.225	0.274	-0.227
-576.748	523.216	-0.087	0.204
-575.733	-98.597	-0.261	-0.067
-574.719	506.519	-0.018	0.042
-573.704	93.748	-0.107	0.121
-572.690	197.423	0.168	0.257
-571.675	-200.000	0.009	-0.167
-570.661	-27.483	-0.214	-0.124
-569.646	443.283	-0.074	-0.163
-568.631	-101.841	0.032	-0.008
-567.617	263.075	0.036	-0.062
-566.602	25.077	-0.151	-0.126
-565.588	-200.000	-0.034	0.353
-564.573	302.858	0.152	0.281
-563.558	800.000	0.136	0.435
-562.544	-200.000	-0.000	-0.057
-561.529	-78.906	0.187	0.064
-560.515	33.967	0.117	-0.102
-559.500	325.061	0.036	0.070
-558.485	-152.532	-0.048	-0.003
-557.471	13.790	0.310	-0.241
-556.456	-36.914	-0.092	-0.049
-555.442	-42.457	0.074	0.038
-554.427	-200.000	-0.010	0.302
-553.412	-195.326	-0.323	-0.002
-552.398	-116.671	0.318	0.058
-551.383	68.647	0.173	0.177
-550.369	-38.861	0.229	0.120
-549.354	800.000	0.043	-0.190
-548.339	48.091	-0.101	-0.094
-547.325	62.155	-0.162	-0.162
-546.310	-89.914	-0.035	-0.010
-545.296	256.591	0.083	0.143
-544.281	133.132	0.144	-0.186
-543.266	98.064	0.070	-0.080
-542.252	-200.000	-0.014	0.395
-541.237	-23.289	0.422	0.254
-540.223	-200.000	0.022	0.205
-539.208	-0.547	0.105	-0.074
-538.193	-200.000	0.114	-0.001
-537.179	-200.000	0.002	0.097
-536.164	-73.762	0.256	-0.093
-535.150	18.304	-0.139	0.111
-534.135	221.155	0.172	-0.276
-533.121	800.000	0.023	-0.089
-532.106	-108.316	-0.282	0.061
-531.091	-200.000	0.011	-0.263
-530.077	124.227	-0.138	0.173
-529.062	443.992	0.123	-0.270
-528.048	134.004	-0.081	-0.104
-527.033	-164.508	0.175	0.008
-526.018	794.879	-0.081	-0.223
-525.004	23.579	-0.239	-0.197
-523.989	97.295	-0.109	-0.125
-522.975	-200.000	-0.025	0.351
-521.960	800.000	0.067	0.216
-520.945	-30.082	0.232	-0.132
-519.931	-59.454	-0.326	0.140
-518.916	72.873	-0.152	-0.159
-517.902	-200.000	-0.041	0.221
-516.887	-200.000	-0.005	-0.117
-515.872	-79.386	-0.038	-0.013
-514.858	-200.000	0.002	-0.058
-513.843	800.000	0.087	0.314
-512.829	800.000	-0.090	-0.298
-511.814	-200.000	0.031	-0.473
-510.799	-200.000	-0.022	0.116
-509.785	-41.023	-0.395	-0.204
-508.770	-77.851	-0.111	-0.038
-507.756	-200.000	0.025	0.274
-506.741	-200.000	0.016	-0.170
-505.726	800.000	0.032	0.111
-504.712	-200.000	-0.062	-0.284
-503.697	56.969	0.118	0.115
-502.683	96.771	0.185	-0.211
-501.668	-108.184	0.174	0.038
-500.653	81.426	0.068	0.073
-499.639	-10.413	-0.179	-0.119
-498.624	-69.742	-0.330	0.126
-497.610	449.170	-0.159	-0.350
-496.595	-18.788	-0.044	0.027
-495.581	-84.358	-0.294	-0.093
-494.566	-200.000	-0.022	0.239
-493.551	31.443	0.115	0.099
-492.537	-200.000	-0.012	0.349
-491.522	800.000	0.101	0.284
-490.508	-121.154	0.213	0.036
-489.493	-171.028	-0.204	0.007
-488.478	-200.000	0.021	-0.099
-487.464	686.842	0.017	0.045
-486.449	117.333	-0.204	0.250
-485.435	293.020	-0.079	-0.143
-484.420	-200.000	-0.047	0.306
-483.405	800.000	-0.070	0.287
-482.391	800.000	0.086	0.306
-481.376	-200.000	0.028	-0.239
-480.362	-200.000	-0.089	-0.429
-479.347	131.984	-0.147	-0.189
-478.332	18.005	-0.253	-0.201
-477.318	306.058	0.203	-0.377
-476.303	755.884	-0.022	-0.059
-475.289	-200.000	0.055	0.282
-474.274	339.928	-0.141	0.273
-473.259	-200.000	-0.086	-0.399
-472.245	-4.219	0.117	-0.081
-471.230	-195.424	0.249	-0.002
-470.216	-103.603	-0.340	0.080
-469.201	5.430	0.160	0.118
-468.186	-200.000	-0.033	-0.258
-467.172	-200.000	0.041	-0.313
-466.157	-200.000	-0.008	-0.244
-465.143	-200.000	-0.032	-0.301
-464.128	773.154	0.065	0.177
-463.113	-149.093	-0.218	0.017
-462.099	45.709	0.119	-0.110
-461.084	-200.000	-0.018	-0.319
-460.070	6.708	0.272	0.201
-459.055	-14.676	0.171	0.109
-458.040	44.309	0.135	0.124
-457.026	21.072	0.206	0.166
-456.011	-136.520	-0.278	0.032
-454.997	126.127	0.112	0.141
-453.982	228.110	-0.097	-0.157
-452.968	-88.287	-0.275	-0.082
-451.953	800.000	-0.042	-0.151
-450.938	800.000	-0.008	0.028
-449.924	-8.895	-0.206	0.138
-448.909	-49.219	0.074	0.035
-447.895	-84.376	-0.163	-0.051
-446.880	-76.832	-0.204	0.071
-445.865	326.663	-0.209	0.398
-444.851	-76.830	-0.130	-0.045
-443.836	25.841	-0.293	0.243
-442.822	353.899	-0.193	0.382
-441.807	137.337	-0.095	-0.123
-440.792	800.000	-0.024	-0.089
-439.778	110.655	0.230	0.275
-438.763	-155.238	0.216	-0.014
-437.749	-200.000	0.023	0.245
-436.734	1.115	-0.054	0.038
-435.719	255.289	-0.205	0.349
-434.705	-150.412	-0.100	-0.008
-433.690	127.386	0.268	-0.339
-432.676	3.405	0.168	0.122
-431.661	-200.000	0.017	-0.107
-430.646	536.617	-0.211	-0.498
-429.632	-36.706	0.199	-0.106
-428.617	-36.713	0.113	-0.060
-427.603	75.279	-0.084	-0.088
-426.588	281.728	-0.190	0.338
-425.573	57.964	-0.343	-0.334
-424.559	-146.567	0.280	-0.024
-423.544	273.991	0.144	0.254
-422.530	41.718	0.111	0.100
-421.515	-29.293	-0.247	-0.141
-420.500	800.000	-0.030	0.125
-419.486	-39.879	-0.207	-0.108
-418.471	-57.360	0.285	0.124
-417.457	532.619	-0.080	-0.188
-416.442	-65.343	-0.138	0.055
-415.428	-153.018	0.522	-0.037
-414.413	213.829	-0.051	-0.080
-413.398	263.396	-0.292	-0.504
-412.384	-180.882	0.226	0.005
-411.369	-30.865	0.202	-0.114
-410.355	-20.075	0.125	-0.077
-409.340	800.000	-0.054	0.191
-408.325	84.094	0.102	-0.110
-407.311	147.656	-0.223	-0.299
-406.296	-148.248	-0.140	0.012
-405.282	-52.815	0.158	-0.072
-404.267	-109.534	-0.411	0.086
-403.252	-80.574	0.156	-0.052
-402.238	-7.426	-0.147	-0.099
-401.223	25.172	0.201	-0.166
-400.209	-50.898	-0.220	-0.103
-399.194	-85.730	0.301	0.093
-398.179	48.712	0.093	0.087
-397.165	800.000	0.137	-0.561
-396.150	-200.000	0.016	0.090
-395.136	-143.176	0.297	-0.028
-394.121	367.239	-0.122	-0.244
-393.106	-54.448	0.091	-0.041
-392.092	-164.986	-0.431	0.019
-391.077	50.245	-0.067	0.062
-390.063	198.694	0.047	0.071
-389.048	-142.396	-0.235	-0.023
-388.033	-129.215	0.111	-0.015
-387.019	76.149	-0.320	-0.336
-386.004	-167.324	0.113	-0.005
-384.990	264.401	-0.093	-0.160
-383.975	-83.077	-0.262	-0.084
-382.960	-12.967	0.062	-0.040
-381.946	663.932	0.036	-0.091
-380.931	-141.411	-0.073	0.007
-379.917	-74.849	-0.215	0.077
-378.902	-21.545	0.216	-0.131
-377.888	409.537	0.096	0.202
-376.873	113.446	0.025	0.030
-375.858	-7.298	0.104	0.070
-374.844	197.446	0.148	0.224
-373.829	8.842	-0.250	0.187
-372.815	-72.592	-0.152	-0.056
-371.800	-0.765	0.281	0.198
-370.785	100.314	0.151	-0.174
-369.771	595.802	-0.074	-0.182
-368.756	15.393	-0.233	0.182
-367.742	-200.000	-0.012	0.055
-366.727	-174.644	0.524	0.015
-365.712	-36.692	0.348	-0.186
-364.698	-200.000	-0.009	-0.123
-363.683	-155.422	-0.186	0.012
-362.669	800.000	-0.025	0.070
-361.654	185.234	0.082	0.121
-360.639	139.060	-0.190	0.248
-359.625	-93.007	-0.093	-0.026
-358.610	-147.510	0.211	-0.018
-357.596	800.000	0.039	-0.168
-356.581	-121.968	-0.121	0.020
-355.566	67.238	0.301	-0.304
-354.552	275.547	0.159	0.280
-353.537	-95.049	-0.169	-0.045
-352.523	127.785	-0.128	0.161
-351.508	207.222	0.113	0.175
-350.493	417.762	-0.088	0.187
-349.479	-200.000	-0.003	0.041
-348.464	-200.000	0.000	0.126
-347.450	633.427	-0.081	-0.205
-346.435	-200.000	0.001	0.093
-345.420	-66.761	-0.316	-0.124
-344.406	-118.104	-0.208	0.037
-343.391	-74.229	-0.101	-0.036
-342.377	532.683	0.128	0.300
-341.362	-98.965	0.299	-0.075
-340.348	344.331	-0.093	-0.181
-339.333	-160.881	0.410	-0.021
-338.318	110.884	-0.117	0.140
-337.304	161.732	0.169	0.234
-336.289	5.826	0.185	-0.136
-335.275	32.229	-0.260	0.222
-334.260	-136.232	-0.226	-0.026
-333.245	-65.718	-0.252	-0.100
-332.231	23.678	0.067	-0.054
-331.216	-2.594	0.286	-0.198
-330.202	-200.000	-0.041	-0.198
-329.187	15.654	-0.124	-0.097
-328.172	-36.842	0.509	0.271
-327.158	95.071	0.073	0.082
-326.143	-7.742	-0.064	0.043
-325.129	142.730	0.059	0.077
-324.114	509.564	0.049	0.113
-323.099	-95.721	-0.301	0.080
-322.085	-87.277	0.254	0.077
-321.070	-22.481	-0.093	0.056
-320.056	65.822	-0.187	0.188
-319.041	-22.564	-0.040	-0.024
-318.026	-30.394	-0.127	-0.071
-317.012	-43.281	0.284	0.142
-315.997	106.308	-0.186	0.218
-314.983	105.310	0.088	0.102
-313.968	187.906	0.227	-0.335
-312.953	-0.444	0.222	-0.156
-311.939	333.789	0.101	-0.194
-310.924	-61.342	-0.409	-0.170
-309.910	524.080	-0.048	-0.112
-308.895	800.000	0.139	0.441
-307.880	641.954	0.151	0.381
-306.866	205.547	-0.162	0.250
-305.851	275.785	-0.088	0.154
-304.837	-117.179	0.164	0.029
-303.822	800.000	0.042	-0.159
-302.807	-58.284	-0.299	-0.129
-301.793	350.954	-0.121	-0.236
-300.778	800.000	-0.064	-0.212
-299.764	24.695	-0.149	0.122
-298.749	800.000	0.044	-0.119
-297.735	-200.000	0.050	-0.360
-296.720	-77.113	-0.097	0.034
-295.705	-97.382	-0.056	0.015
-294.691	-134.267	0.219	-0.027
-293.676	-200.000	0.009	0.179
-292.662	-140.373	-0.262	-0.027
-291.647	60.671	0.405	-0.398
-290.632	-109.285	-0.433	0.091
-289.618	800.000	-0.052	0.202
-288.603	380.616	-0.120	-0.243
-287.589	250.505	-0.168	-0.282
-286.574	-200.000	0.010	-0.090
-285.559	165.327	-0.145	-0.202
-284.545	-2.071	0.122	0.085
-283.530	-28.486	-0.261	-0.149
-282.516	-91.030	0.229	-0.065
-281.501	348.611	-0.104	0.202
-280.486	-200.000	-0.025	-0.177
-279.472	-121.835	-0.156	-0.025
-278.457	-154.267	-0.061	-0.004
-277.443	-200.000	-0.004	-0.181
-276.428	95.983	-0.105	-0.118
-275.413	139.668	-0.102	-0.133
-274.399	-3.302	-0.087	0.060
-273.384	93.677	0.057	-0.064
-272.370	130.543	-0.181	0.230
-271.355	800.000	0.094	0.315
-270.340	192.809	-0.098	-0.146
-269.326	-200.000	-0.011	0.161
-268.311	-34.880	0.180	0.097
-267.297	-53.968	0.112	0.051
-266.282	-61.122	-0.145	0.060
-265.267	-58.453	-0.230	-0.099
-264.253	27.578	-0.224	-0.187
-263.238	800.000	0.032	-0.088
-262.224	5.970	0.167	-0.122
-261.209	-200.000	0.028	0.134
-260.195	-52.832	0.174	0.079
-259.180	199.740	0.086	0.131
-258.165	45.483	0.149	-0.136
-257.151	-24.458	-0.179	0.105
-256.136	-19.562	0.290	0.178
-255.122	-86.930	0.233	-0.070
-254.107	-25.509	0.209	-0.122
-253.092	-40.751	-0.145	0.074
-252.078	800.000	0.053	0.206
-251.063	-200.000	-0.006	0.123
-250.049	250.813	-0.035	-0.058
-249.034	13.261	-0.098	0.075
-248.019	432.877	0.048	0.104
-247.005	800.000	-0.035	0.138
-245.990	188.825	0.097	0.144
-244.976	571.459	-0.174	0.417
-243.961	-30.803	0.194	0.108
-242.946	-64.829	-0.266	0.107
-241.932	-119.847	0.324	0.055
-240.917	800.000	-0.070	-0.198
-239.903	-62.570	-0.261	-0.107
-238.888	-162.957	0.235	0.011
-237.873	-66.503	0.298	0.117
-236.859	-9.246	-0.176	0.116
-235.844	18.319	0.074	0.058
-234.830	800.000	0.034	0.139
-233.815	-37.501	0.080	0.042
-232.800	22.685	0.226	0.183
-231.786	190.963	0.080	0.118
-230.771	-200.000	-0.010	0.253
-229.757	-16.618	0.121	-0.076
-228.742	124.352	0.028	0.035
-227.727	195.830	-0.247	0.370
-226.713	-109.365	0.285	0.060
-225.698	-37.248	0.273	-0.144
-224.684	-192.599	-0.077	0.001
-223.669	-70.338	0.251	0.094
-222.655	306.589	-0.129	0.236
-221.640	786.670	-0.101	-0.273
-220.625	-174.050	-0.171	-0.005
-219.611	-34.414	-0.160	0.087
-218.596	60.535	-0.227	0.222
-217.582	800.000	-0.096	0.277
-216.567	-46.476	-0.255	0.123
-215.552	-200.000	0.041	0.396
-214.538	800.000	-0.111	0.306
-213.523	-130.471	-0.193	0.026
-212.509	10.638	0.298	-0.224
-211.494	-73.434	-0.436	0.157
-210.479	800.000	-0.008	-0.028
-209.465	55.052	0.183	-0.175
-208.450	-146.239	0.298	0.026
-207.436	-200.000	-0.007	0.128
-206.421	800.000	0.058	0.232
-205.406	16.290	0.072	-0.056
-204.392	-99.703	0.051	-0.013
-203.377	-146.823	-0.280	-0.024
-202.363	151.883	0.113	-0.153
-201.348	800.000	0.062	-0.214
-200.333	-78.897	0.049	0.017
-199.319	-122.308	0.108	0.017
-198.304	87.575	0.321	-0.350
-197.290	-200.000	-0.016	-0.232
-196.275	-200.000	0.001	0.213
-195.260	446.768	-0.222	-0.481
-194.246	72.489	-0.225	0.231
-193.231	180.070	0.124	-0.179
-192.217	-173.998	0.211	-0.006
-191.202	-200.000	0.006	-0.133
-190.187	-73.755	-0.230	-0.082
-189.173	214.385	0.137	-0.214
-188.158	-106.289	0.085	0.019
-187.144	-151.950	-0.148	0.011
-186.129	84.797	0.113	-0.122
-185.114	-152.933	0.274	-0.019
-184.100	-111.498	-0.053	-0.011
-183.085	-39.825	-0.196	-0.101
-182.071	-150.458	0.193	-0.015
-181.056	93.581	-0.024	-0.027
-180.042	85.275	0.268	0.290
-179.027	-161.462	0.282	0.014
-178.012	-127.639	-0.094	0.013
-176.998	750.038	0.099	0.262
-175.983	-200.000	-0.009	-0.146
-174.969	328.380	-0.132	-0.249
-173.954	-4.610	0.144	-0.098
-172.939	-69.229	-0.164	0.062
-171.925	187.072	-0.074	-0.108
-170.910	-113.919	0.294	-0.056
-169.896	-1.542	0.242	0.168
-168.881	76.820	0.089	0.093
-167.866	28.011	-0.353	-0.294
-166.852	-125.444	-0.298	-0.045
-165.837	500.966	-0.140	-0.318
-164.823	-137.524	0.047	-0.005
-163.808	-65.013	0.197	-0.079
-162.793	-12.971	0.201	-0.129
-161.779	247.295	-0.227	0.377
-160.764	46.655	0.105	0.096
-159.750	-200.000	0.007	0.162
-158.735	-109.217	-0.119	0.025
-157.720	800.000	0.074	0.319
-156.706	-165.470	0.181	-0.008
-155.691	178.183	0.125	-0.179
-154.677	-200.000	0.040	-0.243
-153.662	-66.228	0.355	-0.139
-152.647	-151.942	0.374	-0.027
-151.633	130.509	-0.159	-0.201
-150.618	203.251	-0.172	-0.262
-149.604	252.868	-0.256	0.430
-148.589	188.506	-0.158	0.233
-147.574	-200.000	0.033	-0.478
-146.560	-2.987	-0.278	-0.191
-145.545	-126.333	-0.288	0.042
-144.531	-180.899	0.122	-0.002
-143.516	193.725	-0.059	-0.088
-142.502	-76.264	0.337	0.117
-141.487	-158.111	0.240	-0.014
-140.472	-200.000	-0.080	-0.404
-139.458	28.725	-0.088	0.074
-138.443	172.536	-0.132	0.187
-137.429	800.000	-0.048	0.182
-136.414	800.000	0.062	-0.212
-135.399	287.970	-0.047	-0.083
-134.385	-7.940	-0.184	0.122
-133.370	-154.845	0.053	-0.003
-132.356	-139.607	-0.077	0.008
-131.341	-146.447	-0.397	0.034
-130.326	14.730	-0.092	-0.071
-129.312	-77.421	-0.243	0.083
-128.297	30.575	0.373	0.314
-127.283	-12.577	0.115	0.074
-126.268	-52.929	0.241	0.109
-125.253	136.718	-0.122	0.157
-124.239	32.515	0.148	0.126
-123.224	-17.404	0.136	0.084
-122.210	-27.370	0.291	0.167
-121.195	78.098	-0.105	0.110
