DTS Sentinel unit serial number:	SN413079Multiplexer serial number:	ORYXHardware model number:	OX4-SRSoftware version number:	ORYX F/W v4.00 Oryx Data Collector v3.7.2.0data status	okinstallation	princeton_trtdifferential loss correction	single-endedforward channel	channel 2reverse channel	N/Adate	2019/09/19time	11:11:34forward acquisition time	60.00reverse acquisition time	0.00gamma	496.2192k internal	0.2341k external	0.2341temperature offset calibration	1.0010default loss term (dB/km)	0.3790temperature slope calibration	1.0000multiplexer offset coefficient	1.0000multiplexer slope coefficient	1.0000fibre end	0.00T internal ref (°C)	25.06T ext. ref 1 (°C)	0.77T ext. ref 2 (°C)	20.66length (m)	temperature (°C)	Stokes	anti-Stokes-747.200	553.113	0.007	0.017
-746.185	170.823	-0.215	0.308
-745.171	-79.166	0.134	-0.045
-744.156	-29.456	-0.271	0.156
-743.142	116.312	0.182	0.224
-742.127	-200.000	-0.061	0.317
-741.112	-79.511	-0.225	-0.076
-740.098	-104.753	0.104	-0.024
-739.083	-6.407	-0.285	-0.194
-738.069	80.042	-0.218	0.235
-737.054	124.931	-0.176	0.222
-736.039	-62.610	-0.407	0.169
-735.025	800.000	-0.057	-0.225
-734.010	357.375	-0.056	0.111
-732.996	-50.910	-0.062	-0.029
-731.981	800.000	0.088	0.265
-730.966	291.030	-0.136	-0.248
-729.952	-198.518	-0.155	0.001
-728.937	364.996	-0.063	0.126
-727.923	-29.961	0.093	0.053
-726.908	-200.000	-0.024	-0.303
-725.894	-175.141	-0.085	0.002
-724.879	-149.874	-0.380	0.030
-723.864	-200.000	0.009	0.093
-722.850	800.000	-0.122	-0.431
-721.835	-52.829	0.293	-0.135
-720.821	-47.834	-0.290	0.141
-719.806	79.284	-0.034	-0.036
-718.791	12.811	-0.406	-0.314
-717.777	407.257	-0.102	-0.216
-716.762	208.721	-0.131	0.206
-715.748	-131.669	-0.218	-0.029
-714.733	-102.800	0.327	0.078
-713.718	-42.733	-0.308	0.157
-712.704	-86.686	0.256	-0.078
-711.689	-200.000	0.016	0.000
-710.675	-104.393	-0.155	0.036
-709.660	-60.250	0.126	-0.054
-708.645	-115.434	-0.150	-0.028
-707.631	-44.082	-0.290	-0.146
-706.616	-200.000	0.016	0.255
-705.602	-92.902	-0.200	-0.056
-704.587	800.000	0.166	-0.557
-703.572	-166.727	-0.193	0.008
-702.558	-161.126	0.324	-0.017
-701.543	608.400	-0.192	-0.478
-700.529	125.479	-0.151	-0.190
-699.514	-38.612	0.349	-0.184
-698.499	-200.000	-0.298	0.000
-697.485	-159.681	-0.244	0.013
-696.470	-200.000	-0.019	-0.097
-695.456	-157.649	-0.209	0.012
-694.441	38.325	-0.181	-0.161
-693.426	-72.175	-0.207	0.077
-692.412	32.342	0.435	0.376
-691.397	-200.000	0.014	-0.111
-690.383	111.544	-0.263	-0.317
-689.368	783.649	-0.029	0.080
-688.354	266.554	0.031	0.055
-687.339	-18.014	-0.097	0.061
-686.324	99.293	0.031	-0.036
-685.310	50.210	0.082	0.077
-684.295	114.756	-0.247	0.301
-683.281	0.481	0.259	-0.185
-682.266	-200.000	0.020	-0.236
-681.251	483.751	-0.109	-0.248
-680.237	-200.000	-0.003	0.251
-679.222	130.785	0.079	-0.101
-678.208	89.181	-0.097	0.108
-677.193	-200.000	-0.089	-0.496
-676.178	-12.102	0.198	0.130
-675.164	-25.728	0.028	0.017
-674.149	800.000	-0.016	0.051
-673.135	-123.690	-0.017	0.003
-672.120	-42.994	0.296	0.150
-671.105	649.982	0.143	0.367
-670.091	-143.439	0.221	-0.021
-669.076	68.625	-0.105	-0.108
-668.062	-133.318	0.199	-0.025
-667.047	-57.557	0.215	-0.094
-666.032	444.590	0.053	-0.117
-665.018	183.460	-0.050	-0.074
-664.003	78.490	-0.210	0.224
-662.989	-94.724	-0.196	0.053
-661.974	780.079	-0.069	-0.189
-660.959	555.651	0.027	-0.066
-659.945	77.432	0.182	0.194
-658.930	800.000	0.053	-0.200
-657.916	-62.245	-0.253	-0.105
-656.901	273.481	0.071	0.125
-655.886	800.000	-0.077	-0.222
-654.872	2.960	0.026	0.019
-653.857	132.695	-0.239	-0.307
-652.843	18.097	0.292	0.232
-651.828	-200.000	-0.017	0.266
-650.814	-200.000	-0.022	0.536
-649.799	172.786	-0.089	-0.128
-648.784	517.160	0.059	-0.138
-647.770	-53.002	-0.307	0.141
-646.755	169.791	0.057	0.081
-645.741	-10.499	0.094	-0.062
-644.726	-69.309	0.143	-0.055
-643.711	-74.750	-0.085	0.031
-642.697	-194.919	-0.059	-0.000
-641.682	629.509	0.150	0.380
-640.668	-44.734	-0.328	0.164
-639.653	148.882	0.184	0.248
-638.638	628.639	0.083	0.208
-637.624	137.499	0.257	0.336
-636.609	-110.491	0.219	0.045
-635.595	576.144	-0.062	0.152
-634.580	-200.000	-0.012	-0.167
-633.565	-200.000	-0.011	-0.385
-632.551	-60.211	0.135	-0.058
-631.536	-11.765	0.198	-0.130
-630.522	121.600	-0.229	-0.285
-629.507	-32.012	-0.159	-0.089
-628.492	13.554	-0.441	-0.342
-627.478	-0.286	0.212	-0.151
-626.463	22.240	0.169	-0.138
-625.449	-40.159	-0.133	0.069
-624.434	-200.000	-0.041	0.361
-623.419	-200.000	0.015	-0.235
-622.405	-200.000	-0.030	-0.327
-621.390	-200.000	0.005	-0.054
-620.376	90.569	0.039	-0.043
-619.361	-118.687	0.388	0.068
-618.346	-51.047	-0.261	-0.122
-617.332	-200.000	-0.029	0.427
-616.317	1.494	0.193	0.138
-615.303	-82.854	0.252	-0.081
-614.288	333.154	-0.087	0.168
-613.273	-200.000	-0.007	-0.069
-612.259	-72.581	-0.046	0.017
-611.244	79.690	0.170	-0.182
-610.230	-200.000	-0.009	0.241
-609.215	-25.918	-0.026	0.016
-608.201	155.192	-0.121	-0.166
-607.186	-93.901	-0.157	-0.043
-606.171	-200.000	-0.006	-0.112
-605.157	-200.000	-0.010	-0.178
-604.142	49.635	-0.233	0.219
-603.128	800.000	-0.036	-0.146
-602.113	-140.671	-0.487	0.050
-601.098	800.000	0.024	0.103
-600.084	-200.000	-0.010	0.068
-599.069	78.009	0.123	0.131
-598.055	-19.193	-0.133	0.082
-597.040	-2.752	0.222	-0.154
-596.025	58.497	0.197	-0.193
-595.011	800.000	0.033	0.120
-593.996	117.959	0.212	0.260
-592.982	800.000	0.017	0.047
-591.967	-140.393	0.186	-0.019
-590.952	-54.645	0.243	0.109
-589.938	57.578	-0.197	-0.192
-588.923	800.000	-0.033	-0.124
-587.909	-148.768	-0.235	-0.019
-586.894	79.356	0.146	-0.156
-585.879	447.198	0.099	0.217
-584.865	7.734	-0.239	0.178
-583.850	-126.807	0.241	-0.035
-582.836	145.213	-0.292	-0.389
-581.821	-58.259	-0.193	-0.084
-580.806	-200.000	0.022	0.421
-579.792	78.858	0.041	0.044
-578.777	-157.030	0.138	0.008
-577.763	-101.582	0.290	-0.070
-576.748	-82.272	-0.479	-0.155
-575.733	-200.000	0.048	-0.304
-574.719	-200.000	-0.009	0.081
-573.704	-124.310	-0.124	-0.019
-572.690	0.542	-0.181	0.129
-571.675	800.000	-0.066	0.191
-570.661	-163.717	0.245	-0.011
-569.646	48.842	-0.216	-0.202
-568.631	2.830	-0.184	-0.133
-567.617	86.453	0.095	-0.105
-566.602	202.797	-0.079	-0.121
-565.588	-117.842	0.164	0.029
-564.573	800.000	0.134	-0.529
-563.558	-176.357	-0.155	-0.004
-562.544	800.000	-0.041	-0.120
-561.529	334.035	0.146	0.281
-560.515	4.527	-0.082	0.060
-559.500	66.159	-0.205	-0.207
-558.485	-70.369	0.293	0.111
-557.471	-50.446	0.104	-0.049
-556.456	392.955	-0.157	-0.326
-555.442	208.895	0.150	0.233
-554.427	-85.789	0.269	-0.083
-553.412	-51.113	-0.243	-0.113
-552.398	-120.336	0.129	0.022
-551.383	-200.000	-0.047	-0.243
-550.369	72.126	-0.176	-0.182
-549.354	-1.626	0.123	0.086
-548.339	-200.000	-0.021	-0.152
-547.325	24.991	-0.214	-0.176
-546.310	-77.115	-0.236	-0.082
-545.296	44.492	0.068	-0.062
-544.281	3.418	-0.198	0.144
-543.266	-200.000	0.007	-0.114
-542.252	800.000	-0.070	0.211
-541.237	20.471	-0.219	-0.176
-540.223	-145.783	0.147	0.013
-539.208	184.755	-0.121	-0.179
-538.193	800.000	-0.027	0.079
-537.179	-73.415	-0.399	-0.145
-536.164	800.000	0.036	-0.106
-535.150	-164.103	-0.136	-0.006
-534.135	-65.787	-0.375	0.149
-533.121	-131.651	0.211	-0.028
-532.106	9.806	-0.266	-0.201
-531.091	-12.049	0.239	-0.156
-530.077	-143.302	0.183	0.017
-529.062	800.000	0.168	0.516
-528.048	376.935	-0.136	0.276
-527.033	41.675	-0.115	-0.103
-526.018	-101.930	0.151	0.036
-525.004	-54.280	0.030	0.013
-523.989	114.843	0.165	0.200
-522.975	457.125	-0.062	-0.137
-521.960	95.503	-0.291	-0.330
-520.945	-200.000	0.010	0.289
-519.931	712.573	0.134	0.352
-518.916	707.755	0.106	-0.279
-517.902	-69.025	0.311	-0.119
-516.887	-8.907	0.141	0.094
-515.872	246.740	0.118	0.197
-514.858	76.133	0.036	0.038
-513.843	-200.000	0.035	-0.170
-512.829	-60.885	0.309	-0.130
-511.814	546.822	0.115	-0.274
-510.799	3.478	-0.094	-0.068
-509.785	227.906	-0.152	-0.246
-508.770	-135.399	-0.185	-0.022
-507.756	465.320	0.039	0.087
-506.741	25.648	0.356	-0.294
-505.726	92.594	0.213	-0.239
-504.712	-96.141	0.128	0.034
-503.697	125.212	-0.179	0.224
-502.683	800.000	-0.094	-0.348
-501.668	17.348	0.109	-0.086
-500.653	-53.715	-0.103	-0.047
-499.639	-200.000	-0.026	-0.359
-498.624	20.879	-0.074	-0.060
-497.610	677.825	-0.101	0.260
-496.595	-152.859	0.173	-0.012
-495.581	-97.535	0.221	0.057
-494.566	-200.000	-0.028	-0.464
-493.551	-200.000	0.000	-0.311
-492.537	-200.000	-0.051	-0.486
-491.522	-200.000	0.012	0.224
-490.508	-91.683	-0.087	0.024
-489.493	-105.232	0.197	-0.045
-488.478	-82.859	-0.159	0.051
-487.464	156.375	-0.085	-0.116
-486.449	-55.454	-0.082	-0.037
-485.435	17.594	0.053	0.041
-484.420	48.879	-0.194	-0.180
-483.405	206.221	-0.104	0.161
-482.391	-0.020	0.226	-0.160
-481.376	-63.575	-0.069	-0.028
-480.362	193.378	0.126	-0.188
-479.347	-8.009	0.281	-0.188
-478.332	-200.000	-0.037	0.175
-477.318	505.812	0.254	0.583
-476.303	-200.000	-0.015	0.132
-475.289	-98.960	-0.109	-0.027
-474.274	-200.000	-0.033	0.188
-473.259	-48.685	-0.247	0.118
-472.245	-55.646	0.366	0.162
-471.230	-46.838	-0.147	0.071
-470.216	-158.375	0.124	-0.007
-469.201	-108.434	0.330	-0.070
-468.186	98.728	0.284	0.325
-467.172	244.906	0.014	0.024
-466.157	-159.988	0.430	-0.023
-465.143	12.970	0.169	0.130
-464.128	-152.428	-0.135	-0.010
-463.113	-57.015	0.192	0.084
-462.099	-90.390	-0.181	0.052
-461.084	-37.805	-0.115	-0.061
-460.070	218.073	-0.143	-0.227
-459.055	-65.575	0.186	0.074
-458.040	-200.000	0.042	-0.257
-457.026	39.402	-0.150	0.133
-456.011	-200.000	0.046	0.285
-454.997	45.807	-0.062	-0.057
-453.982	266.095	-0.240	-0.414
-452.968	800.000	0.092	0.363
-451.953	-200.000	0.001	0.132
-450.938	311.116	-0.260	0.482
-449.924	611.631	0.124	-0.308
-448.909	-200.000	-0.004	-0.309
-447.895	94.144	-0.144	-0.162
-446.880	292.718	-0.083	0.150
-445.865	122.775	-0.373	0.462
-444.851	304.203	0.087	-0.159
-443.836	71.689	-0.181	0.186
-442.822	434.331	-0.164	-0.352
-441.807	-29.431	0.052	-0.029
-440.792	-52.694	0.145	0.066
-439.778	116.509	0.197	0.240
-438.763	65.538	0.187	0.188
-437.749	-200.000	0.007	0.069
-436.734	800.000	-0.092	0.271
-435.719	449.787	0.105	0.229
-434.705	447.757	-0.050	-0.109
-433.690	123.659	0.205	0.254
-432.676	18.656	0.167	0.132
-431.661	800.000	0.090	-0.256
-430.646	713.285	-0.067	0.177
-429.632	-181.453	0.628	0.012
-428.617	-155.577	-0.120	0.008
-427.603	-200.000	-0.029	0.156
-426.588	63.835	0.036	-0.036
-425.573	-38.014	-0.129	0.068
-424.559	-108.653	0.245	0.052
-423.544	-36.472	-0.072	-0.038
-422.530	-200.000	-0.010	-0.079
-421.515	195.487	-0.093	0.140
-420.500	551.772	-0.160	0.381
-419.486	-29.975	0.106	-0.060
-418.471	-105.931	-0.198	-0.044
-417.457	-78.792	-0.187	0.063
-416.442	250.615	0.077	0.129
-415.428	501.605	0.224	0.513
-414.413	180.063	0.349	0.506
-413.398	147.730	0.119	-0.159
-412.384	-200.000	0.029	0.364
-411.369	-200.000	0.016	0.163
-410.355	-145.535	-0.393	-0.035
-409.340	120.735	0.169	0.208
-408.325	-93.725	0.547	-0.149
-407.311	-115.746	0.036	0.007
-406.296	173.410	-0.120	0.172
-405.282	800.000	0.057	0.204
-404.267	133.035	0.108	-0.139
-403.252	-73.853	0.133	-0.048
-402.238	-165.192	0.294	0.013
-401.223	-151.194	-0.238	-0.018
-400.209	-115.458	-0.103	0.019
-399.194	47.623	0.226	0.209
-398.179	-91.146	0.282	-0.080
-397.165	236.243	0.167	-0.273
-396.150	284.728	0.096	-0.171
-395.136	-53.716	-0.203	-0.092
-394.121	13.184	-0.116	0.089
-393.106	-200.000	-0.062	0.415
-392.092	-200.000	0.049	0.261
-391.077	392.077	0.084	0.173
-390.063	-24.665	-0.021	0.012
-389.048	-90.740	0.033	-0.009
-388.033	291.496	-0.063	0.114
-387.019	800.000	0.020	0.074
-386.004	-12.401	-0.182	0.118
-384.990	27.661	0.219	0.182
-383.975	624.054	0.095	0.238
-382.960	-22.150	-0.214	0.128
-381.946	-91.420	0.205	-0.058
-380.931	-200.000	-0.038	0.340
-379.917	-30.600	0.058	0.033
-378.902	-56.124	-0.228	0.100
-377.888	-200.000	0.062	-0.313
-376.873	-200.000	-0.054	0.245
-375.858	-85.393	0.067	0.021
-374.844	3.150	0.135	0.097
-373.829	218.542	-0.102	-0.161
-372.815	180.888	0.186	-0.270
-371.800	541.536	-0.075	0.177
-370.785	92.724	-0.135	-0.151
-369.771	-129.450	-0.054	-0.007
-368.756	-23.972	0.035	0.021
-367.742	428.394	-0.111	-0.237
-366.727	275.376	0.077	-0.135
-365.712	83.252	0.078	-0.084
-364.698	118.495	0.150	-0.182
-363.683	51.403	0.038	0.036
-362.669	-179.201	0.142	-0.003
-361.654	23.845	0.183	0.149
-360.639	682.731	-0.164	0.422
-359.625	-101.905	0.187	0.045
-358.610	-200.000	0.026	-0.182
-357.596	282.595	0.136	0.240
-356.581	-200.000	-0.002	-0.024
-355.566	-200.000	-0.064	-0.489
-354.552	-68.732	0.255	0.097
-353.537	-200.000	-0.043	0.210
-352.523	800.000	-0.018	0.076
-351.508	484.769	-0.123	-0.276
-350.493	33.082	-0.133	0.113
-349.479	191.441	0.270	0.401
-348.464	-200.000	-0.042	0.374
-347.450	-200.000	0.005	0.050
-346.435	800.000	-0.106	0.361
-345.420	-200.000	0.012	0.414
-344.406	-102.418	0.097	0.023
-343.391	-106.086	0.079	-0.018
-342.377	224.135	0.104	-0.166
-341.362	-107.233	-0.396	-0.086
-340.348	-107.511	0.220	0.047
-339.333	299.591	0.143	-0.261
-338.318	-200.000	0.008	-0.042
-337.304	203.832	-0.048	-0.073
-336.289	59.240	0.060	0.058
-335.275	368.884	0.075	0.149
-334.260	-56.011	-0.171	0.075
-333.245	86.729	-0.116	0.127
-332.231	192.336	0.048	-0.071
-331.216	24.380	-0.283	0.231
-330.202	-38.632	0.217	-0.113
-329.187	361.119	0.207	-0.409
-328.172	-166.574	0.459	-0.019
-327.158	170.182	-0.204	0.288
-326.143	-76.820	-0.233	-0.080
-325.129	206.301	0.172	-0.264
-324.114	-104.797	0.147	-0.033
-323.099	-8.314	-0.055	-0.037
-322.085	58.351	0.114	-0.110
-321.070	-113.917	-0.227	-0.043
-320.056	800.000	-0.096	-0.296
-319.041	-92.627	-0.116	0.032
-318.026	304.651	-0.091	0.167
-317.012	-124.922	0.121	-0.018
-315.997	-70.480	0.107	-0.040
-314.983	313.582	0.099	-0.183
-313.968	111.644	0.200	0.237
-312.953	273.622	-0.150	0.261
-311.939	-94.635	-0.147	-0.039
-310.924	-6.350	0.080	0.054
-309.910	-200.000	-0.003	0.293
-308.895	57.914	0.054	0.052
-307.880	18.456	-0.248	0.195
-306.866	-200.000	0.029	-0.219
-305.851	-200.000	-0.012	-0.100
-304.837	800.000	-0.079	0.328
-303.822	-200.000	-0.027	-0.120
-302.807	543.465	0.075	0.176
-301.793	-84.078	0.031	0.010
-300.778	-200.000	-0.045	-0.266
-299.764	-31.177	-0.337	0.187
-298.749	4.979	0.018	-0.013
-297.735	-200.000	0.013	-0.164
-296.720	-2.455	-0.177	-0.122
-295.705	-51.423	0.167	-0.077
-294.691	-182.650	0.188	0.003
-293.676	-200.000	0.061	0.273
-292.662	-200.000	-0.044	-0.224
-291.647	-200.000	0.004	0.066
-290.632	21.737	-0.154	0.123
-289.618	-128.651	-0.091	-0.013
-288.603	252.227	-0.117	0.197
-287.589	-1.409	0.175	-0.122
-286.574	-96.641	-0.197	0.051
-285.559	-158.247	-0.248	0.014
-284.545	8.171	0.046	-0.034
-283.530	800.000	-0.064	0.272
-282.516	-69.498	-0.116	-0.044
-281.501	-32.744	-0.061	-0.033
-280.486	26.466	-0.050	-0.041
-279.472	46.096	-0.271	0.247
-278.457	-42.002	-0.255	-0.128
-277.443	-103.755	0.310	-0.071
-276.428	-200.000	0.010	0.238
-275.413	-47.826	-0.115	-0.055
-274.399	-77.859	0.051	0.017
-273.384	26.714	-0.124	-0.102
-272.370	800.000	0.058	-0.188
-271.355	76.623	0.053	-0.055
-270.340	-9.548	0.328	-0.215
-269.326	26.704	-0.150	-0.124
-268.311	-17.908	-0.146	-0.090
-267.297	-98.530	0.125	-0.031
-266.282	-61.775	-0.101	-0.042
-265.267	203.946	-0.144	0.220
-264.253	24.839	0.199	-0.162
-263.238	20.941	-0.291	-0.232
-262.224	70.051	0.120	0.122
-261.209	332.418	-0.108	0.205
-260.195	-128.310	-0.048	-0.007
-259.180	281.242	0.075	-0.132
-258.165	-200.000	0.094	0.442
-257.151	373.672	-0.127	0.254
-256.136	137.555	-0.107	-0.138
-255.122	423.507	0.093	-0.196
-254.107	800.000	-0.007	-0.026
-253.092	25.236	0.106	-0.086
-252.078	-131.649	-0.267	0.035
-251.063	-185.915	0.326	-0.005
-250.049	800.000	-0.145	-0.535
-249.034	4.123	-0.139	-0.100
-248.019	139.777	0.069	-0.089
-247.005	-200.000	0.008	-0.165
-245.990	-200.000	0.000	-0.090
-244.976	97.091	-0.079	-0.089
-243.961	800.000	-0.038	0.129
-242.946	800.000	0.063	-0.185
-241.932	143.307	0.078	0.102
-240.917	445.571	-0.102	0.221
-239.903	-14.573	-0.199	-0.126
-238.888	-135.337	0.366	0.043
-237.873	-13.934	0.249	-0.158
-236.859	-143.807	-0.056	0.005
-235.844	-200.000	-0.001	0.108
-234.830	10.526	0.042	-0.032
-233.815	-133.699	-0.138	0.017
-232.800	513.676	0.173	0.397
-231.786	-39.117	0.044	0.023
-230.771	19.242	-0.147	-0.116
-229.757	-200.000	0.009	-0.179
-228.742	6.948	0.174	-0.128
-227.727	-200.000	0.006	0.059
-226.713	-95.457	0.138	-0.036
-225.698	-19.951	-0.093	-0.056
-224.684	-157.296	-0.235	0.014
-223.669	-68.728	-0.292	0.111
-222.655	-200.000	-0.006	-0.071
-221.640	-13.532	0.279	-0.178
-220.625	800.000	0.048	0.179
-219.611	-76.608	-0.153	-0.053
-218.596	422.037	0.006	0.014
-217.582	-200.000	-0.062	0.405
-216.567	-79.522	0.295	-0.098
-215.552	470.785	-0.118	0.260
-214.538	-69.123	0.044	0.016
-213.523	-110.997	-0.465	-0.094
-212.509	-200.000	0.018	0.294
-211.494	-50.876	-0.053	-0.025
-210.479	800.000	-0.060	-0.164
-209.465	80.468	-0.070	-0.074
-208.450	-200.000	0.009	0.127
-207.436	-101.618	0.137	-0.033
-206.421	-200.000	-0.042	-0.207
-205.406	482.940	-0.094	-0.210
-204.392	800.000	-0.036	0.122
-203.377	800.000	0.065	0.264
-202.363	-14.217	0.357	-0.226
-201.348	-93.008	-0.305	-0.084
-200.333	-112.694	0.138	0.027
-199.319	274.157	0.167	0.290
-198.304	-200.000	-0.068	-0.299
-197.290	568.937	0.050	-0.120
-196.275	800.000	-0.074	0.275
-195.260	-200.000	0.003	-0.213
-194.246	-47.541	-0.218	-0.104
-193.231	-103.425	-0.312	0.072
-192.217	273.785	0.050	-0.087
-191.202	-21.829	0.055	-0.033
-190.187	170.111	0.239	0.335
-189.173	137.292	0.064	0.082
-188.158	-9.628	0.074	0.048
-187.144	800.000	0.011	0.043
-186.129	269.374	-0.264	-0.455
-185.114	-200.000	0.008	0.183
-184.100	24.367	0.144	0.116
-183.085	-200.000	0.028	-0.145
-182.071	119.435	-0.060	-0.072
-181.056	-172.119	0.261	0.008
-180.042	-63.913	-0.226	-0.091
-179.027	-76.791	0.325	-0.112
-178.012	217.907	-0.250	0.391
-176.998	253.789	-0.137	0.230
-175.983	238.680	-0.065	-0.105
-174.969	-162.493	0.143	0.007
-173.954	-122.612	0.103	0.016
-172.939	47.325	-0.264	-0.241
-171.925	149.054	0.112	0.149
-170.910	301.724	0.151	-0.273
-169.896	329.035	0.092	-0.173
-168.881	-77.881	-0.067	-0.023
-167.866	-11.790	-0.331	-0.213
-166.852	27.541	0.094	0.078
-165.837	-27.441	-0.098	-0.056
-164.823	97.354	-0.127	-0.143
-163.808	173.942	-0.103	-0.145
-162.793	663.460	-0.107	-0.271
-161.779	575.268	0.015	-0.036
-160.764	-200.000	0.083	-0.376
-159.750	-20.256	-0.458	-0.276
-158.735	-101.914	-0.520	0.123
-157.720	-22.468	-0.306	0.181
-156.706	353.084	-0.154	-0.299
-155.691	290.508	-0.145	-0.258
-154.677	800.000	-0.025	-0.077
-153.662	-68.368	0.180	0.069
-152.647	-200.000	0.009	-0.301
-151.633	75.333	-0.062	-0.064
-150.618	-200.000	0.022	0.137
-149.604	426.202	0.086	0.181
-148.589	800.000	0.112	-0.384
-147.574	106.247	-0.112	-0.130
-146.560	437.832	0.110	-0.236
-145.545	-200.000	0.036	0.433
-144.531	-89.893	-0.246	-0.070
-143.516	-127.262	-0.067	0.010
-142.502	-159.097	0.205	-0.011
-141.487	367.720	0.176	-0.349
-140.472	800.000	0.106	0.343
-139.458	-200.000	-0.002	-0.046
-138.443	-144.953	-0.155	0.014
-137.429	-200.000	-0.018	0.216
-136.414	203.785	-0.052	-0.079
-135.399	273.242	-0.045	0.078
-134.385	-100.151	-0.342	-0.083
-133.370	-19.955	-0.368	-0.222
-132.356	-130.111	0.340	0.045
-131.341	-80.524	0.204	0.066
-130.326	75.388	-0.103	0.106
-129.312	234.633	0.144	-0.233
-128.297	421.436	-0.053	0.111
-127.283	-200.000	0.069	0.343
-126.268	82.847	-0.026	-0.027
-125.253	631.727	0.103	0.254
-124.239	-67.192	-0.104	-0.040
-123.224	-200.000	0.094	0.000
-122.210	800.000	0.152	0.416
-121.195	-76.529	-0.119	0.041
