DTS Sentinel unit serial number:	SN413079Multiplexer serial number:	ORYXHardware model number:	OX4-SRSoftware version number:	ORYX F/W v4.00 Oryx Data Collector v3.7.2.0data status	okinstallation	princeton_trtdifferential loss correction	single-endedforward channel	channel 2reverse channel	N/Adate	2019/09/16time	12:03:34forward acquisition time	60.00reverse acquisition time	0.00gamma	496.2192k internal	0.2306k external	0.2306temperature offset calibration	0.9949default loss term (dB/km)	0.3790temperature slope calibration	1.0000multiplexer offset coefficient	1.0000multiplexer slope coefficient	1.0000fibre end	0.00T internal ref (°C)	38.75T ext. ref 1 (°C)	13.19T ext. ref 2 (°C)	35.86length (m)	temperature (°C)	Stokes	anti-Stokes-747.200	-20.016	-0.264	-0.166
-746.185	6.047	-0.243	0.183
-745.171	22.737	0.128	-0.106
-744.156	-91.322	-0.505	-0.147
-743.142	-134.996	-0.139	-0.017
-742.127	15.232	0.177	0.141
-741.112	345.416	-0.159	0.318
-740.098	142.190	-0.264	0.356
-739.083	-121.021	-0.250	0.043
-738.069	-68.585	0.202	0.080
-737.054	80.239	-0.244	-0.268
-736.039	-26.837	-0.322	-0.192
-735.025	800.000	-0.034	-0.101
-734.010	-93.962	-0.156	-0.043
-732.996	-200.000	-0.003	-0.125
-731.981	-77.387	-0.175	0.062
-730.966	-200.000	-0.011	0.109
-729.952	800.000	0.066	0.231
-728.937	-92.796	-0.235	-0.067
-727.923	116.793	-0.313	-0.390
-726.908	-200.000	-0.041	-0.317
-725.894	232.654	-0.082	-0.137
-724.879	291.721	-0.080	0.148
-723.864	-200.000	-0.015	-0.361
-722.850	34.666	0.086	0.077
-721.835	-190.419	-0.469	0.005
-720.821	-32.845	-0.229	0.130
-719.806	-71.955	0.090	0.034
-718.791	498.745	-0.116	-0.271
-717.777	-45.422	0.211	-0.107
-716.762	-91.125	-0.077	0.022
-715.748	361.909	0.087	-0.177
-714.733	-15.037	0.129	-0.084
-713.718	27.753	0.184	-0.158
-712.704	-16.926	-0.066	-0.042
-711.689	646.980	0.175	-0.454
-710.675	-112.591	0.135	-0.027
-709.660	-200.000	-0.027	0.253
-708.645	758.609	0.066	-0.181
-707.631	-200.000	-0.032	-0.202
-706.616	-109.501	-0.164	-0.035
-705.602	-32.752	-0.188	-0.106
-704.587	20.381	0.257	-0.211
-703.572	-103.865	-0.136	0.032
-702.558	-93.960	0.423	-0.118
-701.543	38.911	-0.060	-0.054
-700.529	-200.000	0.041	-0.225
-699.514	-200.000	-0.007	-0.463
-698.499	-125.910	-0.261	-0.040
-697.485	388.424	-0.130	-0.273
-696.470	-69.320	-0.307	-0.120
-695.456	-200.000	-0.036	0.388
-694.441	-145.005	0.225	0.021
-693.426	-200.000	0.004	-0.121
-692.412	-200.000	0.025	-0.281
-691.397	70.413	-0.065	0.068
-690.383	-150.591	-0.422	-0.033
-689.368	80.860	-0.077	0.085
-688.354	-54.336	0.203	0.093
-687.339	-111.685	-0.105	-0.022
-686.324	-110.447	0.076	-0.016
-685.310	-105.337	0.157	-0.036
-684.295	800.000	0.100	0.311
-683.281	-200.000	-0.027	-0.150
-682.266	167.971	0.024	-0.035
-681.251	-200.000	-0.060	-0.486
-680.237	-200.000	-0.032	0.151
-679.222	-103.709	-0.369	-0.088
-678.208	549.508	-0.147	-0.357
-677.193	673.577	-0.127	0.334
-676.178	755.047	-0.139	0.383
-675.164	57.514	0.185	-0.184
-674.149	214.456	0.052	0.084
-673.135	-200.000	-0.041	0.257
-672.120	146.186	-0.034	-0.047
-671.105	28.526	-0.038	0.033
-670.091	800.000	-0.070	0.249
-669.076	-200.000	0.029	-0.169
-668.062	77.304	0.141	0.153
-667.047	-57.291	-0.174	-0.078
-666.032	-200.000	-0.053	-0.292
-665.018	1.459	-0.193	-0.141
-664.003	35.836	0.268	0.239
-662.989	-76.121	0.422	0.151
-661.974	-141.723	0.126	0.013
-660.959	800.000	0.070	-0.260
-659.945	14.373	-0.167	0.132
-658.930	-101.331	-0.208	0.051
-657.916	-105.236	-0.198	0.046
-656.901	149.307	0.017	-0.023
-655.886	-41.951	-0.212	0.110
-654.872	410.077	-0.067	0.144
-653.857	353.543	0.075	-0.151
-652.843	46.942	0.297	0.280
-651.828	-155.322	0.119	-0.008
-650.814	-200.000	0.033	-0.598
-649.799	-200.000	0.015	0.314
-648.784	-36.011	-0.089	0.049
-647.770	179.246	-0.107	-0.158
-646.755	800.000	0.045	-0.135
-645.741	-23.000	-0.262	-0.160
-644.726	89.892	-0.116	-0.132
-643.711	-119.494	0.344	0.060
-642.697	800.000	-0.021	0.072
-641.682	-83.236	0.270	0.088
-640.668	-200.000	0.001	-0.052
-639.653	248.744	-0.222	-0.381
-638.638	-133.312	0.029	-0.004
-637.624	-145.804	0.458	0.041
-636.609	-176.589	0.057	-0.001
-635.595	-37.021	0.138	0.075
-634.580	-91.120	0.314	-0.091
-633.565	391.154	-0.134	0.283
-632.551	6.687	-0.100	-0.075
-631.536	245.095	-0.047	0.081
-630.522	-100.291	-0.263	0.066
-629.507	-122.035	0.356	-0.059
-628.492	-200.000	0.049	0.271
-627.478	665.519	0.050	0.130
-626.463	391.107	0.049	-0.103
-625.449	91.429	-0.217	0.247
-624.434	16.814	0.143	0.114
-623.419	-135.951	-0.293	-0.035
-622.405	-155.695	0.194	0.013
-621.390	94.801	0.105	-0.121
-620.376	299.899	-0.157	-0.294
-619.361	468.426	0.146	-0.331
-618.346	18.695	0.158	0.128
-617.332	800.000	-0.092	-0.290
-616.317	27.888	0.022	-0.019
-615.303	307.644	0.175	-0.331
-614.288	26.042	-0.094	-0.079
-613.273	-200.000	-0.026	-0.168
-612.259	-93.850	0.039	0.011
-611.244	28.493	-0.270	0.231
-610.230	-155.184	-0.189	0.012
-609.215	-17.605	-0.390	-0.248
-608.201	194.531	0.092	0.141
-607.186	31.206	-0.102	-0.088
-606.171	186.498	0.091	-0.137
-605.157	236.447	-0.091	-0.153
-604.142	-200.000	-0.018	-0.111
-603.128	-64.742	-0.178	0.073
-602.113	-200.000	0.044	0.344
-601.098	-35.051	0.084	0.046
-600.084	118.590	0.093	0.116
-599.069	-200.000	0.010	-0.209
-598.055	81.837	0.220	-0.240
-597.040	-200.000	-0.017	0.200
-596.025	-200.000	-0.007	-0.196
-595.011	-34.013	0.156	0.087
-593.996	75.958	-0.148	-0.158
-592.982	89.309	-0.084	0.095
-591.967	697.880	-0.136	0.361
-590.952	426.597	-0.043	0.094
-589.938	-47.226	0.389	-0.192
-588.923	27.061	-0.147	0.124
-587.909	-200.000	-0.003	0.158
-586.894	-72.998	-0.410	0.152
-585.879	52.351	0.201	-0.194
-584.865	167.941	0.081	0.116
-583.850	-10.947	0.186	0.124
-582.836	-200.000	0.058	0.316
-581.821	800.000	0.114	-0.330
-580.806	77.997	0.063	0.068
-579.792	-200.000	-0.015	0.126
-578.777	46.677	0.052	-0.049
-577.763	-139.290	0.081	0.009
-576.748	-79.746	-0.118	0.040
-575.733	494.696	-0.066	-0.154
-574.719	-131.756	-0.212	-0.028
-573.704	125.709	0.106	-0.136
-572.690	221.083	-0.119	0.192
-571.675	-102.115	-0.141	0.034
-570.661	79.839	-0.167	0.181
-569.646	166.748	0.058	0.083
-568.631	193.822	0.217	-0.332
-567.617	-24.759	-0.298	0.179
-566.602	-20.768	-0.190	-0.118
-565.588	355.840	0.138	0.277
-564.573	-189.915	-0.329	0.004
-563.558	800.000	0.109	0.417
-562.544	-60.384	0.169	-0.073
-561.529	-101.555	0.182	-0.045
-560.515	105.275	-0.119	-0.142
-559.500	277.627	-0.248	0.446
-558.485	-103.729	0.277	0.065
-557.471	520.733	0.024	0.058
-556.456	-120.439	0.054	-0.009
-555.442	513.351	-0.115	-0.272
-554.427	800.000	0.027	0.119
-553.412	-200.000	-0.013	-0.143
-552.398	800.000	0.041	0.124
-551.383	79.493	-0.193	0.209
-550.369	210.725	0.064	0.102
-549.354	163.370	0.203	0.288
-548.339	-137.057	0.471	0.054
-547.325	-200.000	0.007	-0.183
-546.310	-12.746	-0.320	0.210
-545.296	800.000	0.123	-0.453
-544.281	-200.000	-0.005	0.146
-543.266	105.378	0.173	-0.206
-542.252	159.157	0.118	0.166
-541.237	-200.000	0.060	-0.329
-540.223	-167.569	-0.143	-0.006
-539.208	-8.939	0.097	-0.066
-538.193	-173.053	-0.340	0.011
-537.179	800.000	-0.105	0.363
-536.164	-169.375	0.181	0.007
-535.150	-200.000	-0.033	-0.157
-534.135	-128.496	0.068	0.010
-533.121	-192.790	0.387	0.004
-532.106	-139.882	-0.180	0.019
-531.091	-96.848	-0.267	-0.071
-530.077	89.208	-0.154	-0.173
-529.062	-76.015	0.216	-0.077
-528.048	-30.968	-0.219	-0.125
-527.033	800.000	-0.102	0.407
-526.018	-26.531	-0.130	-0.077
-525.004	-156.809	0.368	-0.023
-523.989	800.000	-0.050	-0.215
-522.975	800.000	-0.048	-0.143
-521.960	-200.000	0.001	-0.147
-520.945	6.217	0.119	-0.089
-519.931	-96.402	0.243	-0.065
-518.916	-162.620	-0.580	0.029
-517.902	-20.180	0.102	0.064
-516.887	-70.197	-0.106	0.041
-515.872	-200.000	-0.049	0.357
-514.858	-200.000	-0.010	-0.143
-513.843	156.530	-0.209	-0.292
-512.829	162.682	0.029	0.041
-511.814	96.255	-0.042	-0.048
-510.799	607.069	-0.053	0.134
-509.785	85.993	0.156	0.173
-508.770	800.000	0.049	-0.199
-507.756	286.388	0.209	-0.380
-506.741	-200.000	0.000	-0.139
-505.726	-200.000	-0.008	-0.160
-504.712	-200.000	-0.014	-0.078
-503.697	-200.000	-0.006	-0.077
-502.683	800.000	-0.042	-0.167
-501.668	800.000	-0.081	-0.301
-500.653	339.930	-0.198	0.390
-499.639	-60.071	0.247	0.106
-498.624	-65.908	0.185	0.075
-497.610	202.051	-0.063	0.098
-496.595	-113.715	-0.146	-0.029
-495.581	-75.462	0.248	0.089
-494.566	800.000	-0.038	-0.110
-493.551	-128.286	-0.249	0.036
-492.537	-200.000	0.017	0.172
-491.522	53.553	0.126	-0.122
-490.508	318.989	0.102	-0.195
-489.493	-51.001	0.253	0.120
-488.478	-35.378	0.250	0.137
-487.464	-8.555	-0.175	0.118
-486.449	-96.298	0.215	0.057
-485.435	239.896	-0.061	-0.103
-484.420	-58.390	0.332	0.146
-483.405	-42.199	0.183	0.094
-482.391	-200.000	0.053	-0.294
-481.376	800.000	-0.059	-0.183
-480.362	-174.193	0.132	0.004
-479.347	355.434	0.096	-0.192
-478.332	-50.989	-0.121	-0.057
-477.318	-144.272	-0.125	0.012
-476.303	-185.486	0.290	-0.004
-475.289	-153.200	0.076	0.005
-474.274	-192.203	0.278	-0.003
-473.259	-108.989	-0.173	0.037
-472.245	-200.000	-0.011	0.062
-471.230	282.128	-0.041	-0.074
-470.216	-200.000	-0.038	-0.172
-469.201	71.419	-0.105	-0.110
-468.186	248.402	0.158	0.269
-467.172	-41.323	-0.234	0.121
-466.157	-46.463	0.258	0.127
-465.143	78.610	0.081	-0.087
-464.128	5.806	-0.409	-0.304
-463.113	95.572	-0.104	0.119
-462.099	180.329	0.090	-0.134
-461.084	12.517	0.081	-0.063
-460.070	-176.254	-0.248	-0.007
-459.055	800.000	-0.004	-0.015
-458.040	217.773	0.190	0.305
-457.026	-200.000	0.000	-0.330
-456.011	-169.480	0.339	0.012
-454.997	-12.185	0.139	0.092
-453.982	-97.756	-0.231	-0.060
-452.968	234.637	0.036	-0.060
-451.953	11.277	-0.087	0.067
-450.938	800.000	-0.116	-0.428
-449.924	21.402	-0.075	0.061
-448.909	108.935	0.197	-0.236
-447.895	271.693	-0.099	-0.176
-446.880	-181.381	-0.047	0.001
-445.865	-99.839	0.483	0.122
-444.851	800.000	-0.085	0.360
-443.836	559.903	-0.083	0.202
-442.822	-200.000	-0.002	-0.060
-441.807	-130.202	-0.208	0.028
-440.792	-47.132	-0.442	0.217
-439.778	-73.262	-0.067	0.024
-438.763	-200.000	-0.020	-0.106
-437.749	495.256	-0.111	-0.257
-436.734	-144.306	-0.183	-0.017
-435.719	800.000	0.122	-0.404
-434.705	-200.000	-0.011	0.158
-433.690	-200.000	0.057	0.369
-432.676	114.692	0.052	-0.064
-431.661	800.000	-0.070	0.255
-430.646	32.941	0.149	0.130
-429.632	800.000	-0.038	0.143
-428.617	-126.900	-0.140	-0.021
-427.603	-200.000	0.002	-0.152
-426.588	11.873	-0.092	0.071
-425.573	-92.771	0.170	0.048
-424.559	-95.628	0.105	-0.028
-423.544	-117.438	0.282	0.051
-422.530	-104.188	0.234	-0.055
-421.515	-76.587	-0.424	-0.150
-420.500	800.000	0.069	-0.207
-419.486	-96.152	0.302	0.081
-418.471	-200.000	-0.006	0.138
-417.457	-64.103	0.225	-0.092
-416.442	-26.514	0.034	-0.020
-415.428	-200.000	-0.005	-0.024
-414.413	146.564	-0.106	0.144
-413.398	124.761	-0.226	0.285
-412.384	-200.000	0.024	-0.268
-411.369	95.454	-0.283	0.324
-410.355	-200.000	-0.009	-0.125
-409.340	-157.805	-0.256	-0.015
-408.325	-77.332	-0.082	-0.029
-407.311	-121.571	-0.240	-0.040
-406.296	742.840	0.130	-0.351
-405.282	71.354	-0.073	0.076
-404.267	-200.000	-0.006	-0.032
-403.252	-147.458	-0.301	0.026
-402.238	-200.000	-0.033	-0.235
-401.223	330.891	0.062	0.120
-400.209	217.133	-0.131	-0.210
-399.194	-28.073	-0.233	-0.135
-398.179	49.605	-0.425	0.402
-397.165	44.632	-0.082	-0.075
-396.150	-23.142	-0.205	0.124
-395.136	-18.874	0.262	0.164
-394.121	214.036	-0.116	0.184
-393.106	800.000	0.106	-0.353
-392.092	22.138	0.306	0.251
-391.077	800.000	-0.047	-0.149
-390.063	250.065	-0.070	0.119
-389.048	-200.000	-0.274	0.001
-388.033	-112.250	0.337	-0.068
-387.019	-21.550	-0.277	-0.170
-386.004	-84.912	0.178	0.056
-384.990	-200.000	-0.031	0.215
-383.975	-159.584	-0.318	0.018
-382.960	146.912	0.168	-0.227
-381.946	-91.875	0.264	0.075
-380.931	-200.000	-0.031	0.217
-379.917	16.535	-0.161	0.127
-378.902	-35.572	-0.272	0.148
-377.888	25.038	-0.192	0.159
-376.873	331.670	0.030	-0.058
-375.858	343.715	-0.102	0.201
-374.844	800.000	-0.024	0.093
-373.829	-90.851	-0.196	0.057
-372.815	-200.000	0.003	0.312
-371.800	-200.000	-0.022	-0.179
-370.785	-82.106	-0.245	-0.080
-369.771	376.062	0.107	0.219
-368.756	800.000	0.060	0.231
-367.742	800.000	0.070	-0.205
-366.727	40.836	0.172	0.155
-365.712	285.598	0.029	-0.052
-364.698	29.074	0.044	-0.038
-363.683	800.000	-0.094	-0.326
-362.669	-57.239	-0.133	-0.059
-361.654	-190.418	-0.072	0.001
-360.639	-4.059	0.178	0.123
-359.625	-59.741	-0.115	-0.049
-358.610	24.336	-0.118	0.098
-357.596	11.868	-0.347	0.268
-356.581	-115.279	0.382	-0.072
-355.566	243.015	-0.062	0.104
-354.552	191.855	-0.141	-0.212
-353.537	-32.319	0.399	-0.223
-352.523	800.000	0.032	0.102
-351.508	174.899	-0.111	-0.161
-350.493	-22.805	-0.310	-0.187
-349.479	-135.053	-0.217	0.026
-348.464	-91.086	-0.161	0.046
-347.450	-79.826	-0.292	0.099
-346.435	7.938	-0.093	0.070
-345.420	307.356	0.122	0.227
-344.406	43.306	-0.152	-0.139
-343.391	-35.212	-0.090	0.049
-342.377	43.216	0.287	-0.263
-341.362	194.727	0.190	0.288
-340.348	-103.189	0.083	-0.020
-339.333	-148.787	0.072	0.006
-338.318	800.000	-0.078	-0.292
-337.304	117.593	0.240	-0.295
-336.289	-200.000	-0.009	-0.075
-335.275	443.277	0.184	-0.403
-334.260	-135.591	0.151	-0.018
-333.245	-52.737	-0.201	-0.093
-332.231	-54.689	-0.312	-0.141
-331.216	282.434	0.150	0.269
-330.202	360.611	0.141	0.283
-329.187	-36.071	0.149	-0.081
-328.172	32.035	-0.157	0.136
-327.158	23.021	0.170	-0.140
-326.143	-66.261	-0.292	0.116
-325.129	-2.476	0.082	0.058
-324.114	31.474	-0.053	-0.046
-323.099	562.650	-0.077	0.186
-322.085	-111.371	0.060	-0.012
-321.070	-97.562	-0.307	0.080
-320.056	800.000	-0.011	-0.041
-319.041	24.149	0.305	0.252
-318.026	-200.000	-0.028	0.352
-317.012	-25.279	0.340	-0.202
-315.997	14.540	0.217	-0.169
-314.983	283.113	-0.101	-0.182
-313.968	-118.609	-0.482	0.085
-312.953	-79.034	-0.087	0.030
-311.939	-62.990	-0.153	-0.063
-310.924	508.549	0.111	0.257
-309.910	-110.583	-0.107	0.022
-308.895	-78.906	-0.298	-0.102
-307.880	-194.635	0.225	-0.002
-306.866	-151.089	-0.270	-0.020
-305.851	11.103	0.232	-0.177
-304.837	-157.513	0.463	0.028
-303.822	-200.000	0.029	0.128
-302.807	-76.954	0.286	0.100
-301.793	-52.817	-0.086	0.040
-300.778	-29.739	0.180	0.103
-299.764	65.645	0.189	-0.191
-298.749	164.746	-0.176	0.249
-297.735	274.311	0.059	0.104
-296.720	78.177	0.328	0.350
-295.705	-116.685	0.067	-0.012
-294.691	-104.356	0.310	-0.072
-293.676	-200.000	0.029	0.127
-292.662	800.000	-0.054	0.196
-291.647	156.837	0.268	-0.370
-290.632	-86.160	-0.197	-0.061
-289.618	191.344	-0.044	-0.066
-288.603	25.823	0.327	0.272
-287.589	-200.000	-0.011	0.175
-286.574	83.562	-0.103	0.113
-285.559	-200.000	0.011	-0.155
-284.545	-200.000	0.002	-0.030
-283.530	66.653	-0.024	0.024
-282.516	32.475	0.086	0.074
-281.501	-200.000	-0.057	0.291
-280.486	492.814	0.086	0.196
-279.472	-57.332	0.087	0.038
-278.457	-168.325	0.279	0.011
-277.443	-117.800	0.221	0.040
-276.428	-80.800	0.065	-0.022
-275.413	37.591	0.147	0.131
-274.399	800.000	-0.108	-0.351
-273.384	-200.000	-0.003	-0.289
-272.370	-200.000	0.022	-0.120
-271.355	29.579	0.185	-0.157
-270.340	40.007	-0.139	-0.125
-269.326	-59.377	0.199	0.085
-268.311	345.673	0.126	-0.246
-267.297	-93.905	0.533	0.146
-266.282	-129.112	0.314	-0.044
-265.267	800.000	-0.089	-0.299
-264.253	-69.775	0.113	0.043
-263.238	-117.256	0.173	-0.031
-262.224	54.142	0.225	0.217
-261.209	-68.161	-0.271	0.105
-260.195	-55.484	-0.200	0.090
-259.180	800.000	0.062	-0.225
-258.165	-69.069	0.101	-0.039
-257.151	139.194	-0.160	-0.209
-256.136	-48.821	0.202	0.097
-255.122	-176.044	-0.287	-0.008
-254.107	136.623	-0.019	0.025
-253.092	800.000	-0.011	-0.033
-252.078	-81.700	0.380	-0.124
-251.063	-200.000	0.042	-0.403
-250.049	-47.581	-0.113	-0.055
-249.034	-21.009	0.092	0.056
-248.019	1.078	-0.096	-0.069
-247.005	-65.461	-0.501	-0.201
-245.990	-69.947	0.253	0.096
-244.976	-200.000	-0.066	0.563
-243.961	-141.685	-0.142	0.014
-242.946	-4.125	0.141	0.097
-241.932	-200.000	0.042	0.222
-240.917	-70.805	0.110	-0.041
-239.903	228.795	-0.134	-0.217
-238.888	639.080	0.093	-0.237
-237.873	-200.000	0.037	-0.359
-236.859	-200.000	-0.002	0.142
-235.844	-135.936	-0.085	0.010
-234.830	661.001	-0.039	-0.099
-233.815	-61.581	0.222	-0.093
-232.800	-200.000	0.016	-0.198
-231.786	-96.426	0.292	-0.077
-230.771	-200.000	-0.352	0.001
-229.757	83.362	0.201	0.219
-228.742	-109.043	-0.173	-0.037
-227.727	-105.733	-0.203	-0.046
-226.713	800.000	-0.079	0.265
-225.698	-61.647	0.200	0.084
-224.684	32.336	0.181	0.156
-223.669	-58.072	-0.184	0.080
-222.655	-85.778	0.322	-0.100
-221.640	115.546	0.114	0.139
-220.625	-129.910	0.175	-0.024
-219.611	65.433	-0.065	-0.066
-218.596	-88.860	0.145	-0.043
-217.582	-32.157	-0.172	-0.096
-216.567	343.691	-0.188	0.367
-215.552	258.280	-0.159	0.273
-214.538	425.528	0.124	0.267
-213.523	-176.835	0.066	0.002
-212.509	-52.960	-0.253	-0.116
-211.494	-75.107	0.051	0.018
-210.479	-68.878	-0.174	0.067
-209.465	261.507	-0.143	0.247
-208.450	-21.213	-0.153	-0.093
-207.436	212.561	-0.192	0.302
-206.421	2.346	0.189	0.136
-205.406	-17.261	-0.303	-0.190
-204.392	-200.000	-0.016	-0.201
-203.377	-200.000	-0.030	0.138
-202.363	-35.331	0.137	0.074
-201.348	-8.627	0.441	0.295
-200.333	800.000	-0.013	-0.038
-199.319	-18.314	-0.191	0.119
-198.304	587.079	0.075	-0.184
-197.290	-144.679	0.228	-0.021
-196.275	-13.117	-0.247	0.160
-195.260	-200.000	-0.031	-0.218
-194.246	767.592	0.115	0.312
-193.231	-200.000	0.029	-0.187
-192.217	120.881	-0.199	-0.246
-191.202	-200.000	-0.043	0.227
-190.187	-97.389	0.114	0.030
-189.173	167.373	-0.123	-0.174
-188.158	102.521	-0.133	0.155
-187.144	-89.320	0.088	0.026
-186.129	800.000	-0.039	0.160
-185.114	-200.000	-0.009	0.130
-184.100	14.535	-0.205	0.160
-183.085	234.880	-0.134	-0.221
-182.071	-45.494	-0.059	-0.029
-181.056	-150.886	0.073	0.006
-180.042	450.821	-0.059	0.129
-179.027	295.712	-0.070	0.127
-178.012	50.835	-0.063	0.059
-176.998	-60.117	-0.168	-0.071
-175.983	-2.734	-0.201	-0.140
-174.969	343.619	-0.034	0.067
-173.954	-56.478	-0.272	0.120
-172.939	-200.000	-0.030	-0.199
-171.925	212.683	0.115	-0.180
-170.910	518.267	0.089	0.207
-169.896	-91.415	-0.245	0.070
-168.881	51.053	-0.171	-0.161
-167.866	-129.563	0.352	-0.048
-166.852	-200.000	0.005	0.160
-165.837	-21.961	-0.313	-0.189
-164.823	18.319	0.367	-0.292
-163.808	-69.963	-0.146	-0.055
-162.793	-161.840	-0.063	0.003
-161.779	616.702	0.049	0.122
-160.764	13.915	-0.063	-0.049
-159.750	78.881	-0.089	-0.095
-158.735	800.000	-0.071	-0.266
-157.720	654.318	-0.115	-0.292
-156.706	-24.829	0.130	-0.077
-155.691	800.000	0.037	0.135
-154.677	1.935	-0.182	-0.130
-153.662	-93.737	0.371	-0.102
-152.647	775.838	0.025	-0.067
-151.633	126.687	-0.128	-0.161
-150.618	-37.897	0.058	0.031
-149.604	-200.000	0.030	-0.222
-148.589	-160.323	0.215	-0.012
-147.574	800.000	-0.066	-0.189
-146.560	-44.278	0.199	-0.099
-145.545	-200.000	-0.083	0.407
-144.531	-1.847	0.379	-0.265
-143.516	-200.000	0.048	-0.214
-142.502	125.353	0.188	0.236
-141.487	-200.000	-0.031	-0.298
-140.472	117.246	-0.043	0.053
-139.458	16.477	0.105	0.083
-138.443	585.650	-0.138	-0.338
-137.429	-62.685	-0.055	0.023
-136.414	72.653	0.045	0.047
-135.399	130.401	-0.057	0.072
-134.385	-200.000	-0.001	-0.055
-133.370	-200.000	-0.018	0.304
-132.356	-98.108	-0.226	0.058
-131.341	-200.000	0.018	-0.128
-130.326	-81.232	0.213	-0.070
-129.312	-200.000	-0.011	-0.237
-128.297	-107.464	-0.240	-0.052
-127.283	-200.000	-0.024	-0.232
-126.268	-200.000	0.004	-0.115
-125.253	-185.944	-0.232	-0.003
-124.239	-54.195	0.059	0.026
-123.224	269.509	-0.136	-0.237
