DTS Sentinel unit serial number:	SN413079Multiplexer serial number:	ORYXHardware model number:	OX4-SRSoftware version number:	ORYX F/W v4.00 Oryx Data Collector v3.7.2.0data status	okinstallation	princeton_trtdifferential loss correction	single-endedforward channel	channel 2reverse channel	N/Adate	2019/09/17time	20:51:35forward acquisition time	60.00reverse acquisition time	0.00gamma	496.2192k internal	0.2335k external	0.2335temperature offset calibration	0.9987default loss term (dB/km)	0.3790temperature slope calibration	1.0000multiplexer offset coefficient	1.0000multiplexer slope coefficient	1.0000fibre end	0.00T internal ref (°C)	29.16T ext. ref 1 (°C)	0.20T ext. ref 2 (°C)	20.57length (m)	temperature (°C)	Stokes	anti-Stokes-747.200	800.000	0.020	0.078
-746.185	800.000	-0.071	0.263
-745.171	-115.828	-0.345	0.065
-744.156	25.657	-0.056	0.046
-743.142	262.625	0.105	-0.184
-742.127	201.566	-0.180	0.279
-741.112	91.299	0.219	-0.247
-740.098	-37.007	-0.143	-0.077
-739.083	716.609	-0.126	-0.335
-738.069	793.993	0.113	0.312
-737.054	-200.000	-0.001	-0.315
-736.039	-164.606	0.279	-0.013
-735.025	-52.552	-0.149	-0.069
-734.010	800.000	-0.048	-0.201
-732.996	-54.770	0.058	-0.026
-731.981	-131.554	-0.351	0.046
-730.966	-200.000	-0.041	-0.401
-729.952	99.990	-0.193	-0.224
-728.937	-53.420	0.128	0.059
-727.923	800.000	0.052	0.220
-726.908	169.424	-0.035	0.050
-725.894	33.103	-0.289	-0.252
-724.879	-30.066	-0.187	-0.107
-723.864	234.984	-0.098	0.162
-722.850	195.983	0.192	-0.293
-721.835	800.000	-0.027	-0.093
-720.821	-200.000	0.005	-0.114
-719.806	800.000	0.032	-0.097
-718.791	271.624	0.094	-0.167
-717.777	12.609	-0.218	-0.169
-716.762	-22.089	-0.446	-0.272
-715.748	-158.441	-0.104	-0.006
-714.733	276.459	-0.099	0.176
-713.718	-6.070	0.080	0.055
-712.704	-200.000	0.008	-0.219
-711.689	30.983	-0.186	0.160
-710.675	800.000	-0.152	-0.564
-709.660	-26.948	-0.227	-0.133
-708.645	-35.099	-0.129	-0.070
-707.631	-93.576	-0.190	-0.053
-706.616	38.496	0.312	-0.279
-705.602	82.234	-0.095	-0.103
-704.587	269.814	-0.109	-0.191
-703.572	-73.877	-0.190	0.069
-702.558	-200.000	-0.009	-0.098
-701.543	-102.364	0.393	-0.095
-700.529	-163.959	-0.381	-0.018
-699.514	-186.238	0.149	-0.002
-698.499	725.553	-0.100	0.266
-697.485	99.409	-0.270	0.313
-696.470	-200.000	-0.001	0.185
-695.456	-78.219	-0.072	0.025
-694.441	800.000	0.086	-0.276
-693.426	-200.000	0.029	-0.149
-692.412	800.000	-0.088	-0.324
-691.397	237.272	0.195	-0.324
-690.383	-200.000	0.063	-0.380
-689.368	-22.416	-0.308	-0.187
-688.354	206.650	-0.072	-0.113
-687.339	800.000	0.138	-0.409
-686.324	-200.000	0.018	-0.170
-685.310	800.000	0.051	-0.153
-684.295	800.000	-0.088	0.249
-683.281	49.270	-0.141	-0.133
-682.266	237.374	-0.180	-0.300
-681.251	-200.000	0.013	-0.350
-680.237	32.667	0.287	-0.249
-679.222	247.086	-0.087	0.147
-678.208	6.679	-0.130	0.097
-677.193	297.264	-0.073	0.134
-676.178	800.000	-0.007	0.031
-675.164	-200.000	-0.027	0.145
-674.149	-182.973	-0.423	-0.008
-673.135	23.923	0.155	0.128
-672.120	13.992	0.133	-0.104
-671.105	-73.101	-0.299	0.110
-670.091	800.000	-0.078	-0.222
-669.076	30.467	0.195	-0.167
-668.062	-56.905	-0.136	0.060
-667.047	-91.918	0.087	-0.025
-666.032	-200.000	0.017	-0.131
-665.018	800.000	-0.105	0.346
-664.003	-200.000	0.021	0.293
-662.989	800.000	0.018	0.068
-661.974	-67.634	-0.236	-0.093
-660.959	-77.105	-0.117	0.041
-659.945	-101.242	0.252	-0.062
-658.930	-18.738	-0.167	0.104
-657.916	111.339	0.062	-0.075
-656.901	-200.000	-0.045	0.202
-655.886	-11.309	-0.360	-0.237
-654.872	-200.000	-0.009	-0.316
-653.857	-200.000	0.016	-0.289
-652.843	31.381	-0.233	0.201
-651.828	-101.311	0.276	0.067
-650.814	-25.496	-0.233	-0.138
-649.799	-144.505	0.130	0.012
-648.784	-30.107	0.238	0.135
-647.770	-7.292	0.232	0.158
-646.755	41.155	0.130	-0.118
-645.741	-16.325	-0.295	0.187
-644.726	383.430	-0.056	-0.116
-643.711	-85.747	-0.242	0.075
-642.697	25.079	-0.322	-0.267
-641.682	107.759	-0.218	0.260
-640.668	-175.215	0.261	-0.007
-639.653	63.383	0.040	-0.040
-638.638	-8.047	-0.157	-0.106
-637.624	-200.000	0.007	-0.264
-636.609	-72.619	0.252	0.093
-635.595	60.752	0.055	0.055
-634.580	-200.000	0.080	-0.350
-633.565	-200.000	-0.017	0.134
-632.551	17.978	-0.124	-0.099
-631.536	-136.154	0.238	-0.028
-630.522	-200.000	0.040	-0.236
-629.507	-31.163	0.462	-0.261
-628.492	-200.000	-0.002	-0.074
-627.478	-200.000	0.014	-0.142
-626.463	214.863	-0.199	-0.315
-625.449	3.553	0.182	-0.133
-624.434	11.499	0.166	-0.127
-623.419	159.540	-0.173	0.240
-622.405	37.496	-0.080	0.071
-621.390	100.542	-0.098	0.114
-620.376	-64.929	0.328	-0.133
-619.361	311.251	-0.200	-0.375
-618.346	-200.000	0.022	-0.139
-617.332	293.292	-0.058	-0.106
-616.317	-46.924	-0.105	-0.051
-615.303	-200.000	0.014	-0.366
-614.288	-151.956	0.062	0.004
-613.273	-200.000	0.028	-0.210
-612.259	800.000	-0.109	-0.342
-611.244	-153.622	-0.101	-0.007
-610.230	-135.856	0.210	0.025
-609.215	609.015	0.096	0.240
-608.201	-118.954	0.340	0.060
-607.186	57.088	-0.058	0.056
-606.171	800.000	-0.081	0.243
-605.157	54.250	0.148	-0.142
-604.142	-106.547	-0.512	0.114
-603.128	165.500	-0.129	-0.182
-602.113	-79.254	0.217	-0.074
-601.098	42.182	-0.178	-0.161
-600.084	-7.624	-0.201	0.136
-599.069	13.135	-0.207	0.160
-598.055	-200.000	-0.010	-0.137
-597.040	-80.443	-0.277	0.092
-596.025	5.497	-0.096	0.071
-595.011	182.729	-0.152	-0.224
-593.996	-200.000	-0.003	-0.286
-592.982	-48.576	0.120	-0.058
-591.967	-200.000	-0.014	-0.151
-590.952	-200.000	0.045	0.202
-589.938	-143.432	-0.315	-0.030
-588.923	-72.448	0.096	-0.036
-587.909	126.082	-0.170	0.215
-586.894	0.998	0.290	0.208
-585.879	42.011	0.050	-0.045
-584.865	-51.419	0.268	0.125
-583.850	-42.122	0.203	0.104
-582.836	575.021	-0.029	0.071
-581.821	-5.692	0.271	-0.186
-580.806	800.000	0.048	-0.183
-579.792	-200.000	-0.043	-0.197
-578.777	28.454	-0.051	0.043
-577.763	-152.212	-0.291	-0.021
-576.748	409.439	0.173	-0.365
-575.733	800.000	0.031	-0.129
-574.719	-159.926	0.266	-0.015
-573.704	73.281	-0.115	-0.120
-572.690	-72.559	0.180	0.066
-571.675	-115.715	0.069	-0.013
-570.661	800.000	0.018	-0.052
-569.646	-65.296	0.256	0.103
-568.631	226.664	-0.103	-0.166
-567.617	800.000	-0.152	-0.426
-566.602	116.957	-0.132	-0.161
-565.588	-44.311	0.104	-0.052
-564.573	-103.942	0.145	-0.034
-563.558	-200.000	0.032	0.177
-562.544	205.745	-0.080	0.124
-561.529	59.008	0.196	-0.192
-560.515	335.186	-0.051	0.099
-559.500	-200.000	-0.052	0.325
-558.485	-119.105	-0.243	-0.042
-557.471	52.567	-0.040	-0.038
-556.456	128.936	-0.123	0.156
-555.442	-168.761	0.253	0.010
-554.427	112.192	0.051	0.062
-553.412	-200.000	-0.024	-0.231
-552.398	-200.000	0.007	-0.179
-551.383	-145.207	-0.229	-0.021
-550.369	-24.473	0.084	-0.050
-549.354	119.521	0.096	-0.118
-548.339	-125.103	0.094	-0.014
-547.325	42.115	0.070	-0.063
-546.310	-111.984	-0.456	-0.092
-545.296	-200.000	0.003	0.044
-544.281	91.925	0.322	0.361
-543.266	-58.824	0.070	0.030
-542.252	800.000	-0.063	-0.212
-541.237	-36.916	0.174	0.093
-540.223	-161.873	0.282	-0.014
-539.208	-45.186	-0.255	-0.126
-538.193	-20.910	-0.267	0.163
-537.179	800.000	0.066	0.241
-536.164	-105.308	-0.018	-0.004
-535.150	288.563	-0.025	-0.046
-534.135	-200.000	0.027	0.181
-533.121	111.287	0.032	0.038
-532.106	-35.523	-0.273	0.148
-531.091	330.354	-0.157	-0.302
-530.077	-150.131	0.121	-0.009
-529.062	-200.000	-0.004	0.243
-528.048	0.733	-0.158	-0.112
-527.033	-65.792	-0.179	0.071
-526.018	-200.000	0.005	-0.268
-525.004	44.626	-0.058	-0.053
-523.989	-137.624	0.492	-0.055
-522.975	-65.729	-0.283	-0.113
-521.960	80.847	-0.014	-0.015
-520.945	-71.664	-0.060	-0.022
-519.931	-200.000	-0.011	-0.111
-518.916	-131.027	0.155	-0.021
-517.902	-200.000	-0.008	-0.143
-516.887	-75.544	-0.195	-0.069
-515.872	258.109	-0.033	0.057
-514.858	-200.000	0.035	-0.316
-513.843	-65.085	0.129	0.052
-512.829	-147.671	-0.154	-0.013
-511.814	-46.396	-0.183	0.089
-510.799	18.169	-0.175	-0.139
-509.785	-166.456	-0.320	-0.013
-508.770	20.705	-0.126	0.102
-507.756	-200.000	0.011	-0.185
-506.741	-154.075	-0.168	-0.011
-505.726	-144.710	-0.105	-0.010
-504.712	201.804	-0.115	0.176
-503.697	-106.349	-0.470	0.105
-502.683	-50.378	-0.092	0.043
-501.668	-24.650	0.146	0.086
-500.653	197.062	-0.070	0.107
-499.639	800.000	-0.048	0.173
-498.624	514.320	0.108	0.252
-497.610	800.000	-0.050	0.218
-496.595	363.936	-0.035	0.069
-495.581	-200.000	0.026	0.180
-494.566	800.000	-0.049	-0.158
-493.551	33.192	-0.149	-0.129
-492.537	-157.576	-0.086	0.005
-491.522	-63.587	-0.245	0.100
-490.508	-200.000	-0.029	-0.135
-489.493	402.883	-0.082	-0.172
-488.478	-160.906	0.216	0.011
-487.464	127.238	-0.259	0.326
-486.449	-15.253	-0.209	-0.133
-485.435	800.000	0.041	0.170
-484.420	-132.012	-0.094	-0.012
-483.405	755.895	-0.121	-0.326
-482.391	416.911	0.054	-0.115
-481.376	-76.161	-0.104	0.036
-480.362	72.365	0.205	-0.213
-479.347	-16.652	0.156	-0.098
-478.332	-25.656	0.176	-0.103
-477.318	-58.133	-0.247	-0.107
-476.303	345.732	0.076	0.148
-475.289	-155.824	0.117	0.007
-474.274	-200.000	0.026	-0.164
-473.259	-4.408	-0.141	-0.097
-472.245	-135.341	-0.330	-0.039
-471.230	189.463	0.128	0.191
-470.216	30.990	-0.175	0.149
-469.201	-130.777	0.401	-0.054
-468.186	-142.225	-0.299	0.029
-467.172	166.519	-0.198	0.279
-466.157	290.145	0.138	-0.250
-465.143	180.992	-0.071	0.103
-464.128	-200.000	0.020	0.089
-463.113	34.897	0.118	0.103
-462.099	-200.000	0.016	0.094
-461.084	39.773	0.382	-0.340
-460.070	25.158	0.124	-0.103
-459.055	161.852	0.094	0.130
-458.040	475.108	0.064	-0.144
-457.026	-133.288	-0.180	0.023
-456.011	7.361	0.414	0.307
-454.997	68.891	0.256	-0.261
-453.982	573.720	0.201	-0.487
-452.968	241.116	-0.100	0.166
-451.953	-200.000	0.035	-0.211
-450.938	-138.310	-0.059	-0.007
-449.924	-34.301	0.229	-0.125
-448.909	-108.623	-0.278	0.059
-447.895	-200.000	-0.011	-0.096
-446.880	-116.340	-0.309	-0.057
-445.865	246.213	-0.022	0.037
-444.851	-96.999	0.179	0.047
-443.836	-139.099	-0.250	0.027
-442.822	800.000	-0.031	-0.108
-441.807	-169.467	0.157	0.006
-440.792	69.048	-0.226	-0.231
-439.778	-92.272	0.303	0.085
-438.763	377.729	0.230	0.468
-437.749	-200.000	-0.024	0.183
-436.734	32.075	0.139	0.119
-435.719	-52.683	-0.163	0.074
-434.705	-57.840	-0.384	0.167
-433.690	143.249	0.050	-0.067
-432.676	243.154	0.109	0.182
-431.661	-124.599	0.107	-0.016
-430.646	74.250	0.143	-0.149
-429.632	-200.000	-0.013	0.125
-428.617	-2.233	0.035	0.024
-427.603	96.824	0.045	0.052
-426.588	-86.991	0.314	0.095
-425.573	-104.992	-0.244	-0.055
-424.559	242.566	0.054	-0.090
-423.544	13.235	-0.069	0.053
-422.530	-117.524	0.220	-0.039
-421.515	40.831	0.259	0.232
-420.500	536.640	-0.070	0.165
-419.486	800.000	-0.077	0.268
-418.471	73.672	0.086	-0.090
-417.457	-200.000	-0.017	-0.179
-416.442	195.304	0.268	-0.404
-415.428	-152.403	0.118	-0.008
-414.413	-200.000	0.010	-0.058
-413.398	-113.761	0.157	-0.030
-412.384	35.248	0.307	0.267
-411.369	800.000	0.011	0.049
-410.355	-29.642	-0.339	0.192
-409.340	242.555	-0.118	0.195
-408.325	-11.184	0.353	-0.231
-407.311	-35.059	-0.211	0.114
-406.296	-200.000	-0.058	-0.396
-405.282	163.583	0.148	0.206
-404.267	800.000	-0.023	0.063
-403.252	-55.716	0.226	0.100
-402.238	381.051	-0.095	0.193
-401.223	-90.542	-0.465	-0.133
-400.209	0.925	-0.187	0.133
-399.194	34.989	0.069	0.060
-398.179	57.398	-0.203	-0.197
-397.165	800.000	0.054	-0.165
-396.150	28.004	0.187	0.156
-395.136	-40.725	0.259	0.133
-394.121	555.368	0.074	0.177
-393.106	-200.000	0.015	0.181
-392.092	207.646	0.055	0.085
-391.077	-45.418	0.215	-0.105
-390.063	23.081	0.218	-0.178
-389.048	-37.231	-0.248	-0.131
-388.033	14.770	0.222	-0.172
-387.019	-75.175	0.314	0.111
-386.004	-200.000	-0.072	-0.599
-384.990	-9.749	-0.311	0.205
-383.975	46.218	-0.254	-0.234
-382.960	-107.630	0.441	-0.095
-381.946	4.074	0.123	0.089
-380.931	-110.179	-0.126	0.026
-379.917	-123.188	-0.123	0.020
-378.902	-58.562	0.226	-0.097
-377.888	-86.790	-0.218	-0.066
-376.873	-122.360	-0.041	-0.007
-375.858	-103.518	-0.246	0.057
-374.844	-158.849	-0.322	-0.018
-373.829	-89.165	0.213	0.062
-372.815	214.221	0.187	-0.293
-371.800	-200.000	0.016	0.199
-370.785	800.000	0.041	-0.121
-369.771	-63.652	-0.452	-0.183
-368.756	-35.494	0.284	0.153
-367.742	-69.444	-0.176	0.067
-366.727	-138.135	-0.314	-0.035
-365.712	-200.000	0.003	0.149
-364.698	-55.416	0.085	0.038
-363.683	-57.167	0.138	-0.060
-362.669	236.988	-0.055	0.090
-361.654	-200.000	0.022	0.119
-360.639	800.000	0.040	0.122
-359.625	-77.625	-0.248	-0.085
-358.610	107.134	0.050	-0.059
-357.596	-15.379	0.194	-0.123
-356.581	12.661	0.099	-0.076
-355.566	188.292	-0.132	0.195
-354.552	137.217	0.238	0.308
-353.537	104.903	0.117	-0.137
-352.523	569.800	-0.053	-0.129
-351.508	-200.000	-0.008	0.042
-350.493	51.804	0.162	-0.152
-349.479	800.000	-0.074	-0.256
-348.464	34.160	-0.453	0.391
-347.450	-200.000	0.037	-0.309
-346.435	-69.599	0.268	0.101
-345.420	9.795	0.100	-0.075
-344.406	-161.865	-0.134	0.007
-343.391	41.513	0.075	0.067
-342.377	21.953	0.087	0.070
-341.362	-34.109	-0.146	0.079
-340.348	-200.000	0.009	0.165
-339.333	-130.487	0.170	0.023
-338.318	177.689	-0.029	0.042
-337.304	11.437	-0.102	-0.077
-336.289	184.432	0.225	0.329
-335.275	-200.000	0.005	-0.060
-334.260	-200.000	-0.000	0.032
-333.245	-80.641	-0.219	0.072
-332.231	-130.232	-0.181	0.024
-331.216	4.645	-0.186	-0.135
-330.202	-200.000	-0.014	0.101
-329.187	40.979	-0.098	0.087
-328.172	24.141	0.072	0.059
-327.158	29.034	-0.133	0.112
-326.143	314.663	0.034	0.063
-325.129	34.371	0.121	-0.104
-324.114	-165.902	0.328	-0.014
-323.099	175.760	-0.121	0.173
-322.085	445.489	-0.057	0.123
-321.070	540.408	-0.079	0.186
-320.056	-200.000	-0.025	-0.138
-319.041	-200.000	0.013	-0.068
-318.026	22.206	-0.091	-0.074
-317.012	121.695	-0.103	0.127
-315.997	105.954	0.247	0.289
-314.983	266.791	0.060	-0.103
-313.968	93.118	0.019	0.021
-312.953	447.482	-0.119	0.259
-311.939	-160.226	0.290	-0.016
-310.924	-200.000	0.016	0.114
-309.910	-72.012	-0.214	-0.079
-308.895	747.153	0.048	-0.127
-307.880	800.000	-0.064	0.180
-306.866	-152.473	0.023	0.002
-305.851	-192.420	0.459	-0.004
-304.837	60.826	0.266	-0.261
-303.822	-82.013	0.237	-0.077
-302.807	800.000	0.029	-0.092
-301.793	-33.329	-0.336	-0.184
-300.778	245.814	0.137	-0.228
-299.764	130.247	0.158	-0.199
-298.749	-16.120	-0.174	-0.109
-297.735	39.352	-0.254	-0.225
-296.720	235.347	-0.058	-0.095
-295.705	-69.306	0.222	-0.084
-294.691	-162.307	0.184	0.009
-293.676	-32.251	0.123	0.068
-292.662	-141.115	0.215	0.022
-291.647	34.752	-0.035	0.030
-290.632	-134.688	0.148	0.018
-289.618	29.385	-0.211	0.177
-288.603	-106.983	0.109	-0.024
-287.589	296.783	0.109	0.198
-286.574	-200.000	-0.047	0.218
-285.559	258.832	0.087	0.147
-284.545	-200.000	-0.019	-0.276
-283.530	-186.087	-0.222	-0.003
-282.516	-65.135	0.319	-0.127
-281.501	800.000	-0.102	-0.323
-280.486	22.420	0.106	0.085
-279.472	-82.581	0.287	-0.092
-278.457	115.564	0.068	-0.082
-277.443	-101.520	0.266	0.064
-276.428	-135.953	0.017	-0.002
-275.413	-106.809	-0.334	0.073
-274.399	-200.000	0.003	-0.121
-273.384	-57.614	0.169	0.073
-272.370	-147.478	0.361	-0.030
-271.355	738.972	-0.073	-0.195
-270.340	-57.722	0.270	-0.116
-269.326	-200.000	-0.023	0.116
-268.311	2.759	0.116	-0.083
-267.297	-29.077	-0.086	0.049
-266.282	800.000	-0.045	-0.150
-265.267	-2.122	-0.145	0.101
-264.253	-200.000	0.015	0.228
-263.238	28.950	-0.146	0.122
-262.224	-82.881	-0.102	0.032
-261.209	546.306	0.022	0.052
-260.195	-200.000	0.014	-0.093
-259.180	86.313	0.074	-0.081
-258.165	75.492	-0.183	-0.190
-257.151	-200.000	-0.007	-0.041
-256.136	-164.458	-0.313	-0.014
-255.122	156.318	-0.180	-0.245
-254.107	800.000	0.031	0.121
-253.092	113.046	0.098	0.117
-252.078	-58.724	-0.086	0.037
-251.063	800.000	0.029	0.125
-250.049	-200.000	0.006	0.192
-249.034	28.183	-0.103	-0.086
-248.019	800.000	0.062	0.205
-247.005	-41.044	-0.230	0.117
-245.990	283.886	0.106	-0.189
-244.976	79.672	0.255	-0.269
-243.961	800.000	-0.103	0.351
-242.946	-134.706	-0.466	-0.056
-241.932	96.971	0.256	0.290
-240.917	-118.258	0.059	-0.010
-239.903	-67.964	-0.442	0.170
-238.888	8.817	-0.306	0.227
-237.873	418.774	0.122	0.257
-236.859	-41.584	0.096	0.049
-235.844	437.085	0.167	0.357
-234.830	-156.222	-0.386	0.024
-233.815	-37.934	0.406	-0.213
-232.800	-62.381	-0.293	-0.120
-231.786	-200.000	-0.015	-0.156
-230.771	126.462	-0.058	0.072
-229.757	-12.937	0.249	-0.160
-228.742	319.434	-0.160	0.298
-227.727	116.925	-0.116	0.140
-226.713	-36.775	-0.486	-0.257
-225.698	43.086	-0.055	-0.050
-224.684	-43.103	-0.209	0.104
-223.669	-25.756	-0.257	0.149
-222.655	130.165	0.122	0.154
-221.640	259.217	0.142	0.241
-220.625	-35.464	-0.091	-0.049
-219.611	90.072	0.154	-0.169
-218.596	-200.000	-0.027	-0.218
-217.582	-200.000	0.063	0.360
-216.567	-200.000	-0.017	0.099
-215.552	-102.714	-0.180	0.042
-214.538	800.000	-0.060	0.214
-213.523	218.568	-0.033	-0.052
-212.509	-45.493	-0.126	-0.062
-211.494	165.967	-0.108	-0.151
-210.479	441.182	-0.053	0.113
-209.465	26.270	-0.115	0.094
-208.450	800.000	0.007	-0.024
-207.436	124.520	-0.281	-0.348
-206.421	212.149	0.043	-0.066
-205.406	86.551	-0.098	-0.106
-204.392	-14.229	0.058	0.037
-203.377	-69.176	-0.420	-0.159
-202.363	71.577	0.177	0.181
-201.348	26.972	0.180	0.148
-200.333	-176.038	0.089	-0.002
-199.319	50.398	0.222	0.206
-198.304	800.000	-0.090	-0.359
-197.290	125.006	-0.160	-0.198
-196.275	-200.000	-0.029	0.364
-195.260	218.262	-0.044	0.069
-194.246	3.622	0.373	0.268
-193.231	704.781	-0.041	0.107
-192.217	209.386	0.119	0.184
-191.202	-140.539	-0.110	0.011
-190.187	800.000	0.146	-0.509
-189.173	-34.502	0.231	-0.124
-188.158	61.798	0.264	0.258
-187.144	-129.231	0.269	0.037
-186.129	208.146	0.094	-0.145
-185.114	415.154	-0.133	0.280
-184.100	-15.423	0.160	-0.100
-183.085	102.108	0.088	0.101
-182.071	-50.449	-0.061	0.029
-181.056	-95.524	0.210	0.055
-180.042	-111.856	0.129	-0.026
-179.027	-52.364	0.081	0.037
-178.012	209.282	0.114	0.175
-176.998	43.517	0.305	0.274
-175.983	800.000	0.068	0.207
-174.969	-89.215	0.084	-0.024
-173.954	153.695	-0.160	0.216
-172.939	-120.681	-0.100	0.017
-171.925	-128.973	-0.143	0.020
-170.910	-100.017	-0.320	-0.078
-169.896	-200.000	0.009	0.083
-168.881	-168.178	0.265	-0.010
-167.866	26.894	0.076	0.062
-166.852	528.905	0.074	-0.171
-165.837	-127.503	-0.172	-0.025
-164.823	-200.000	-0.017	-0.083
-163.808	594.582	0.029	0.070
-162.793	-32.214	0.123	-0.068
-161.779	-188.608	-0.126	0.002
-160.764	-38.045	-0.281	0.147
-159.750	-70.073	-0.089	0.033
-158.735	79.437	0.181	0.191
-157.720	-200.000	-0.024	0.112
-156.706	-18.369	-0.396	-0.243
-155.691	14.127	0.181	0.138
-154.677	-76.047	0.203	0.070
-153.662	-200.000	0.009	0.040
-152.647	297.594	-0.124	0.223
-151.633	513.677	-0.105	0.240
-150.618	-52.388	-0.297	0.135
-149.604	800.000	-0.074	0.209
-148.589	-9.766	-0.277	0.181
-147.574	-133.910	0.346	0.042
-146.560	66.371	-0.052	0.052
-145.545	-200.000	-0.012	-0.485
-144.531	30.354	0.264	-0.222
-143.516	394.543	-0.107	-0.219
-142.502	130.253	0.148	-0.186
-141.487	135.171	0.152	0.194
-140.472	-151.609	0.127	0.009
-139.458	285.823	0.040	0.071
-138.443	-200.000	-0.084	0.408
-137.429	-200.000	-0.036	-0.196
-136.414	-89.367	-0.041	-0.012
-135.399	509.759	0.131	0.298
-134.385	-200.000	-0.005	-0.088
-133.370	800.000	0.057	0.242
-132.356	101.508	0.318	0.364
-131.341	-200.000	0.088	0.424
-130.326	197.353	-0.070	-0.105
-129.312	780.267	0.198	0.533
-128.297	179.697	-0.242	0.347
-127.283	-174.229	-0.059	0.002
-126.268	-59.172	-0.249	0.105
-125.253	68.825	0.048	-0.048
-124.239	62.674	0.152	-0.149
-123.224	399.282	0.050	0.104
-122.210	429.291	0.124	0.262
-121.195	-12.114	-0.369	-0.237
