DTS Sentinel unit serial number:	SN413079Multiplexer serial number:	ORYXHardware model number:	OX4-SRSoftware version number:	ORYX F/W v4.00 Oryx Data Collector v3.7.2.0data status	okinstallation	princeton_trtdifferential loss correction	single-endedforward channel	channel 2reverse channel	N/Adate	2019/09/19time	08:35:35forward acquisition time	60.00reverse acquisition time	0.00gamma	496.2192k internal	0.2353k external	0.2353temperature offset calibration	1.0002default loss term (dB/km)	0.3790temperature slope calibration	1.0000multiplexer offset coefficient	1.0000multiplexer slope coefficient	1.0000fibre end	0.00T internal ref (°C)	20.80T ext. ref 1 (°C)	0.57T ext. ref 2 (°C)	16.35length (m)	temperature (°C)	Stokes	anti-Stokes-747.200	-0.078	0.062	-0.044
-746.185	80.032	0.105	-0.112
-745.171	-33.656	0.086	-0.047
-744.156	800.000	0.051	0.171
-743.142	346.108	0.112	0.219
-742.127	52.246	0.086	0.081
-741.112	-200.000	-0.015	0.252
-740.098	-57.102	-0.018	-0.008
-739.083	95.997	0.061	0.069
-738.069	356.392	-0.222	0.442
-737.054	-137.686	0.124	-0.014
-736.039	28.275	-0.215	-0.181
-735.025	-147.051	0.123	0.011
-734.010	-111.907	-0.442	0.089
-732.996	-150.810	-0.414	-0.031
-731.981	-200.000	0.023	-0.107
-730.966	106.250	-0.038	-0.044
-729.952	-129.300	0.181	0.025
-728.937	626.135	-0.145	-0.364
-727.923	-70.574	-0.123	-0.047
-726.908	426.602	-0.053	0.113
-725.894	-59.765	-0.292	0.125
-724.879	262.552	0.106	-0.183
-723.864	0.372	0.230	-0.164
-722.850	646.911	-0.066	-0.168
-721.835	800.000	-0.104	-0.306
-720.821	5.083	-0.097	0.071
-719.806	-60.039	0.132	0.056
-718.791	-41.410	-0.276	-0.142
-717.777	-34.947	0.260	0.142
-716.762	-200.000	0.026	0.174
-715.748	-127.654	-0.163	-0.024
-714.733	-26.180	-0.070	0.041
-713.718	3.135	0.298	-0.216
-712.704	45.165	0.047	-0.043
-711.689	800.000	-0.066	0.244
-710.675	57.902	-0.182	-0.177
-709.660	-4.717	-0.169	0.116
-708.645	-122.823	0.050	0.008
-707.631	800.000	-0.069	0.203
-706.616	800.000	0.058	0.243
-705.602	606.508	0.041	0.102
-704.587	-50.173	-0.217	0.102
-703.572	48.611	-0.038	0.035
-702.558	-200.000	-0.012	0.222
-701.543	-142.470	0.088	0.009
-700.529	47.396	-0.062	0.057
-699.514	73.754	0.252	0.263
-698.499	75.957	0.127	0.134
-697.485	41.216	0.148	-0.133
-696.470	93.493	0.178	0.201
-695.456	-121.481	0.192	-0.032
-694.441	800.000	-0.116	-0.465
-693.426	22.838	-0.158	-0.129
-692.412	-126.953	-0.259	-0.038
-691.397	800.000	0.080	-0.269
-690.383	112.917	-0.245	-0.295
-689.368	4.672	-0.238	-0.174
-688.354	-200.000	-0.018	0.199
-687.339	222.288	0.087	0.140
-686.324	-40.775	-0.097	-0.050
-685.310	-86.897	-0.210	0.064
-684.295	549.210	-0.048	-0.115
-683.281	-85.312	-0.501	0.155
-682.266	117.132	0.157	-0.192
-681.251	286.858	0.058	0.104
-680.237	648.598	0.097	-0.247
-679.222	8.745	-0.120	0.090
-678.208	-54.812	0.067	0.030
-677.193	-173.711	0.244	-0.007
-676.178	800.000	-0.083	-0.286
-675.164	800.000	0.019	-0.062
-674.149	-36.672	-0.140	-0.075
-673.135	359.503	-0.075	-0.148
-672.120	34.239	0.093	-0.080
-671.105	66.210	-0.164	-0.165
-670.091	-18.691	-0.153	-0.095
-669.076	257.297	0.103	0.176
-668.062	434.926	-0.299	-0.647
-667.047	-73.568	0.138	0.050
-666.032	-65.301	0.240	-0.096
-665.018	-37.155	0.060	-0.032
-664.003	-147.437	0.295	-0.025
-662.989	150.677	-0.043	0.058
-661.974	-200.000	0.003	-0.030
-660.959	210.298	0.179	0.279
-659.945	-200.000	-0.001	0.041
-658.930	423.616	-0.091	-0.194
-657.916	-200.000	-0.012	-0.281
-656.901	-155.756	0.242	-0.015
-655.886	-119.696	-0.110	-0.019
-654.872	92.314	0.195	0.218
-653.857	34.288	-0.274	0.237
-652.843	-200.000	0.056	-0.343
-651.828	489.102	0.133	0.302
-650.814	-24.479	0.075	-0.044
-649.799	257.917	0.107	-0.183
-648.784	34.115	0.144	0.125
-647.770	-16.909	-0.200	-0.126
-646.755	74.236	0.106	-0.111
-645.741	510.678	-0.236	0.546
-644.726	800.000	-0.070	-0.210
-643.711	26.776	0.145	-0.120
-642.697	-90.809	-0.286	-0.082
-641.682	-200.000	-0.010	0.448
-640.668	118.877	0.157	-0.193
-639.653	404.057	0.074	0.154
-638.638	-145.936	-0.172	0.015
-637.624	-200.000	-0.008	-0.248
-636.609	72.497	-0.103	-0.106
-635.595	-172.545	-0.600	-0.019
-634.580	-49.221	0.565	0.268
-633.565	-93.836	0.328	0.090
-632.551	-77.155	-0.097	0.034
-631.536	-129.447	0.147	-0.020
-630.522	19.590	-0.108	-0.086
-629.507	-34.750	-0.190	0.103
-628.492	-179.068	-0.291	-0.006
-627.478	158.114	-0.032	0.044
-626.463	-52.735	0.048	0.022
-625.449	264.830	-0.126	0.218
-624.434	-46.050	-0.202	0.099
-623.419	-70.604	0.225	0.085
-622.405	-200.000	0.031	-0.154
-621.390	-9.596	0.096	0.063
-620.376	47.252	-0.201	0.186
-619.361	-46.519	-0.186	-0.090
-618.346	-200.000	-0.022	0.152
-617.332	800.000	0.038	-0.140
-616.317	600.696	-0.140	-0.346
-615.303	800.000	-0.091	-0.352
-614.288	-4.234	-0.076	-0.052
-613.273	-200.000	-0.030	-0.226
-612.259	123.004	-0.173	0.215
-611.244	-156.083	-0.274	-0.017
-610.230	132.717	0.156	-0.199
-609.215	-112.173	-0.273	-0.054
-608.201	186.308	-0.010	-0.015
-607.186	800.000	0.041	0.115
-606.171	800.000	0.065	0.279
-605.157	-200.000	-0.014	0.151
-604.142	-133.139	-0.252	-0.032
-603.128	-200.000	0.014	0.078
-602.113	-81.477	0.428	0.140
-601.098	-126.483	-0.180	-0.027
-600.084	416.099	-0.144	-0.304
-599.069	778.758	0.046	0.125
-598.055	10.679	-0.033	0.025
-597.040	-29.362	0.145	0.082
-596.025	-200.000	-0.032	-0.166
-595.011	-200.000	0.024	-0.276
-593.996	295.775	0.278	-0.505
-592.982	30.832	0.078	0.067
-591.967	-200.000	-0.012	-0.246
-590.952	-115.780	-0.098	0.018
-589.938	-24.862	-0.123	0.072
-588.923	343.488	0.061	0.118
-587.909	440.222	-0.086	-0.186
-586.894	-200.000	-0.035	-0.288
-585.879	-200.000	0.040	-0.226
-584.865	-200.000	-0.011	0.141
-583.850	-200.000	0.124	0.000
-582.836	-36.527	0.163	-0.087
-581.821	800.000	0.072	0.278
-580.806	-200.000	-0.005	-0.148
-579.792	191.897	-0.150	-0.223
-578.777	800.000	0.149	-0.411
-577.763	320.794	-0.075	-0.142
-576.748	623.550	0.045	-0.112
-575.733	-170.338	-0.122	-0.004
-574.719	-60.952	0.148	-0.062
-573.704	6.803	0.320	0.236
-572.690	-69.050	0.088	0.034
-571.675	85.316	-0.186	-0.203
-570.661	800.000	-0.085	0.328
-569.646	216.343	-0.065	0.102
-568.631	-200.000	0.034	-0.297
-567.617	-57.628	-0.131	0.057
-566.602	-42.295	-0.078	0.039
-565.588	-108.135	0.161	0.035
-564.573	44.309	-0.241	0.219
-563.558	-3.314	0.336	0.232
-562.544	-200.000	-0.051	0.334
-561.529	-86.426	0.354	-0.108
-560.515	66.283	-0.052	-0.052
-559.500	3.079	0.194	0.139
-558.485	500.828	-0.124	-0.283
-557.471	-200.000	0.031	0.162
-556.456	-200.000	0.009	0.111
-555.442	22.410	-0.115	-0.093
-554.427	-33.487	0.158	0.086
-553.412	-76.706	-0.164	-0.057
-552.398	171.745	-0.186	-0.265
-551.383	42.078	-0.046	-0.041
-550.369	84.014	0.173	-0.187
-549.354	48.515	0.159	-0.147
-548.339	800.000	0.027	-0.082
-547.325	340.051	-0.255	0.492
-546.310	-38.676	0.153	0.080
-545.296	-90.827	0.120	0.034
-544.281	13.056	0.309	-0.237
-543.266	263.521	-0.114	-0.196
-542.252	-89.546	-0.232	-0.067
-541.237	199.844	-0.052	-0.079
-540.223	-52.860	-0.092	-0.042
-539.208	800.000	-0.048	0.192
-538.193	-200.000	0.087	-0.471
-537.179	-128.278	-0.361	0.051
-536.164	800.000	-0.033	-0.116
-535.150	136.717	0.114	-0.147
-534.135	800.000	-0.077	0.255
-533.121	-27.191	-0.168	0.097
-532.106	800.000	-0.132	0.371
-531.091	-49.302	-0.140	0.066
-530.077	150.220	0.118	-0.158
-529.062	22.293	0.315	-0.254
-528.048	280.444	-0.038	-0.068
-527.033	228.502	0.055	0.089
-526.018	-121.232	-0.243	0.040
-525.004	-97.155	0.037	0.010
-523.989	-3.202	0.247	-0.170
-522.975	701.709	0.023	-0.059
-521.960	-93.106	-0.234	0.064
-520.945	27.073	0.085	-0.071
-519.931	800.000	0.013	-0.043
-518.916	240.384	0.107	0.176
-517.902	-51.639	-0.467	-0.215
-516.887	-200.000	-0.034	0.164
-515.872	-40.702	0.269	-0.138
-514.858	-200.000	0.001	0.166
-513.843	-200.000	-0.007	0.214
-512.829	529.739	-0.033	0.078
-511.814	800.000	0.105	0.378
-510.799	-51.133	-0.320	-0.148
-509.785	76.069	0.137	0.144
-508.770	-200.000	0.004	-0.123
-507.756	-53.201	0.261	-0.118
-506.741	43.669	-0.185	0.167
-505.726	-100.125	-0.383	0.094
-504.712	-29.961	-0.181	0.102
-503.697	177.058	-0.183	0.263
-502.683	-200.000	-0.054	0.409
-501.668	105.992	0.128	0.150
-500.653	88.409	0.080	0.088
-499.639	135.683	-0.266	-0.342
-498.624	341.290	-0.189	-0.365
-497.610	200.687	0.130	-0.198
-496.595	-200.000	-0.033	0.262
-495.581	800.000	0.043	-0.172
-494.566	-200.000	0.036	-0.165
-493.551	-200.000	-0.045	0.259
-492.537	-122.567	0.101	0.016
-491.522	-7.232	-0.162	-0.108
-490.508	-122.579	0.216	0.035
-489.493	21.060	-0.057	0.046
-488.478	800.000	0.096	0.270
-487.464	-104.184	-0.457	0.105
-486.449	-17.744	0.373	0.231
-485.435	800.000	-0.077	-0.233
-484.420	-90.759	0.094	0.027
-483.405	34.650	-0.111	0.096
-482.391	-200.000	-0.005	0.056
-481.376	-200.000	0.000	-0.008
-480.362	-92.493	0.138	0.038
-479.347	632.773	0.108	-0.270
-478.332	-200.000	0.031	-0.193
-477.318	77.391	0.051	0.054
-476.303	-164.753	0.219	-0.010
-475.289	19.616	0.328	-0.260
-474.274	175.522	-0.176	-0.252
-473.259	-200.000	-0.134	-0.000
-472.245	800.000	0.044	-0.180
-471.230	-200.000	0.013	0.206
-470.216	60.933	0.161	-0.157
-469.201	-121.145	0.397	0.066
-468.186	-55.146	-0.207	-0.092
-467.172	-45.739	-0.239	0.116
-466.157	-141.885	0.274	0.027
-465.143	-200.000	-0.051	0.222
-464.128	85.328	0.054	-0.058
-463.113	-50.181	0.227	0.106
-462.099	-175.825	-0.052	0.001
-461.084	-89.570	-0.351	0.102
-460.070	-200.000	-0.047	0.210
-459.055	-106.903	0.081	0.018
-458.040	-112.994	-0.269	0.052
-457.026	-43.872	0.169	-0.084
-456.011	-125.787	0.480	0.072
-454.997	-105.684	-0.210	0.047
-453.982	-70.930	-0.113	0.042
-452.968	357.053	0.115	-0.226
-451.953	-137.051	-0.208	-0.023
-450.938	-111.429	0.182	-0.037
-449.924	-36.043	-0.039	0.021
-448.909	-16.005	-0.206	-0.129
-447.895	-126.572	0.220	0.032
-446.880	71.433	-0.096	0.098
-445.865	-155.074	-0.284	-0.018
-444.851	211.034	-0.071	0.111
-443.836	-200.000	0.002	-0.332
-442.822	-200.000	0.009	0.186
-441.807	-19.784	0.053	0.032
-440.792	-29.969	0.204	0.114
-439.778	164.375	0.034	-0.047
-438.763	-72.349	0.203	-0.074
-437.749	274.942	0.039	-0.068
-436.734	502.073	-0.168	-0.381
-435.719	-135.183	-0.361	-0.043
-434.705	110.268	-0.197	0.233
-433.690	800.000	0.057	-0.160
-432.676	-95.186	0.146	0.039
-431.661	99.014	-0.182	0.207
-430.646	260.966	-0.032	-0.055
-429.632	28.974	-0.156	-0.130
-428.617	-56.084	-0.145	-0.064
-427.603	-165.823	-0.253	0.011
-426.588	406.452	0.081	0.168
-425.573	-186.864	0.144	0.002
-424.559	-113.707	0.300	0.058
-423.544	-200.000	0.025	0.159
-422.530	80.624	-0.238	0.252
-421.515	800.000	-0.054	0.173
-420.500	0.543	0.176	-0.124
-419.486	-189.250	-0.136	-0.002
-418.471	-200.000	0.006	0.052
-417.457	-131.846	-0.275	-0.035
-416.442	-69.630	0.174	0.065
-415.428	-200.000	-0.004	0.145
-414.413	-140.431	0.283	-0.029
-413.398	-200.000	-0.007	-0.087
-412.384	-83.659	-0.384	0.121
-411.369	-99.338	0.186	-0.046
-410.355	800.000	-0.016	-0.056
-409.340	-200.000	-0.011	-0.204
-408.325	151.547	0.240	-0.322
-407.311	-200.000	-0.040	0.247
-406.296	-134.470	0.307	-0.037
-405.282	-200.000	-0.018	0.100
-404.267	-164.752	0.295	-0.013
-403.252	37.126	-0.190	-0.166
-402.238	-200.000	0.074	0.319
-401.223	-200.000	-0.004	0.293
-400.209	-77.665	-0.537	-0.183
-399.194	558.862	0.163	0.388
-398.179	-44.782	-0.184	0.090
-397.165	77.513	0.097	0.101
-396.150	243.347	0.183	0.302
-395.136	-10.349	-0.101	0.066
-394.121	-200.000	-0.039	-0.184
-393.106	800.000	-0.072	-0.197
-392.092	66.510	-0.071	-0.071
-391.077	387.957	-0.109	-0.222
-390.063	-200.000	0.226	-0.000
-389.048	-200.000	-0.004	0.073
-388.033	130.723	-0.183	0.231
-387.019	800.000	-0.068	-0.288
-386.004	110.080	-0.273	-0.322
-384.990	-73.701	-0.124	0.044
-383.975	-200.000	0.035	0.188
-382.960	-119.078	-0.142	0.024
-381.946	-43.997	0.198	0.098
-380.931	-29.147	-0.136	0.076
-379.917	-162.353	0.158	0.008
-378.902	-22.609	0.108	0.064
-377.888	800.000	0.165	-0.506
-376.873	-146.118	-0.410	0.035
-375.858	-5.564	0.180	-0.121
-374.844	-200.000	-0.001	-0.071
-373.829	-133.103	-0.044	-0.005
-372.815	5.655	-0.015	-0.011
-371.800	65.839	0.380	0.379
-370.785	-27.539	-0.086	0.049
-369.771	159.095	-0.045	0.061
-368.756	-78.507	-0.141	0.047
-367.742	-95.820	-0.233	0.061
-366.727	-52.612	0.074	0.034
-365.712	-115.009	-0.087	-0.016
-364.698	-148.013	-0.221	-0.018
-363.683	240.049	-0.118	-0.193
-362.669	-200.000	-0.001	0.473
-361.654	-102.220	0.178	0.042
-360.639	-69.708	0.369	0.138
-359.625	-13.262	0.309	-0.197
-358.610	800.000	-0.009	-0.030
-357.596	520.628	0.163	-0.374
-356.581	-200.000	0.001	0.092
-355.566	-139.802	0.075	0.008
-354.552	-50.245	0.251	0.116
-353.537	-119.512	0.112	0.019
-352.523	-200.000	-0.006	0.116
-351.508	-105.376	-0.157	-0.035
-350.493	-200.000	-0.007	-0.048
-349.479	226.962	0.126	-0.201
-348.464	118.289	-0.085	-0.103
-347.450	29.307	0.408	0.340
-346.435	-10.752	-0.188	0.122
-345.420	800.000	0.060	0.235
-344.406	756.709	-0.073	-0.193
-343.391	-200.000	0.003	0.139
-342.377	800.000	0.092	0.251
-341.362	-63.965	0.132	-0.053
-340.348	76.146	0.159	0.165
-339.333	800.000	0.133	-0.397
-338.318	636.842	0.064	-0.160
-337.304	-160.105	0.361	-0.019
-336.289	-33.283	0.152	-0.083
-335.275	-101.486	0.284	-0.068
-334.260	94.606	-0.172	0.192
-333.245	57.817	0.277	0.266
-332.231	321.110	0.100	-0.186
-331.216	243.728	0.085	-0.140
-330.202	204.157	-0.118	-0.179
-329.187	167.397	-0.101	-0.140
-328.172	-113.033	0.188	-0.036
-327.158	-113.086	-0.051	0.010
-326.143	-8.798	0.070	0.046
-325.129	11.155	0.264	0.198
-324.114	61.775	0.086	0.084
-323.099	-74.529	0.264	0.093
-322.085	592.527	0.086	0.209
-321.070	-97.931	-0.167	-0.042
-320.056	65.291	0.188	0.187
-319.041	384.010	-0.121	-0.245
-318.026	-103.400	0.186	0.043
-317.012	-200.000	-0.027	0.155
-315.997	-200.000	0.071	-0.318
-314.983	-173.993	-0.103	0.003
-313.968	-200.000	0.036	-0.347
-312.953	-200.000	-0.050	-0.419
-311.939	128.228	-0.195	0.244
-310.924	352.981	-0.057	-0.110
-309.910	-114.025	-0.191	0.036
-308.895	32.258	0.344	0.291
-307.880	293.995	0.095	-0.170
-306.866	-124.939	-0.350	0.053
-305.851	18.629	0.261	-0.205
-304.837	-200.000	0.037	-0.240
-303.822	112.010	0.026	0.031
-302.807	-152.935	-0.019	0.001
-301.793	164.062	0.147	-0.202
-300.778	-200.000	0.061	-0.278
-299.764	135.619	0.089	-0.114
-298.749	-146.606	-0.148	-0.013
-297.735	66.338	0.227	-0.226
-296.720	197.990	-0.096	-0.143
-295.705	-200.000	-0.040	-0.195
-294.691	121.070	-0.206	0.252
-293.676	800.000	0.036	-0.113
-292.662	563.944	-0.088	0.209
-291.647	375.020	-0.163	0.325
-290.632	-100.603	0.280	-0.068
-289.618	-8.428	0.101	0.066
-288.603	-176.798	-0.107	-0.003
-287.589	9.926	-0.210	0.156
-286.574	127.530	-0.050	-0.063
-285.559	33.413	-0.142	-0.121
-284.545	-92.020	0.246	0.068
-283.530	221.349	-0.071	0.112
-282.516	113.768	0.162	0.192
-281.501	193.054	-0.057	-0.084
-280.486	28.737	0.151	0.125
-279.472	763.866	0.086	-0.229
-278.457	-200.000	-0.002	0.054
-277.443	800.000	0.095	0.302
-276.428	207.389	0.017	-0.026
-275.413	-37.005	0.310	0.163
-274.399	53.894	0.082	-0.077
-273.384	-47.170	0.079	0.038
-272.370	171.848	0.140	0.197
-271.355	-200.000	0.046	0.236
-270.340	-129.213	-0.350	-0.048
-269.326	-74.356	0.326	-0.115
-268.311	-200.000	0.026	-0.232
-267.297	-200.000	0.013	-0.154
-266.282	236.077	0.011	-0.017
-265.267	108.542	0.053	-0.062
-264.253	10.783	-0.131	0.098
-263.238	-141.819	0.177	-0.017
-262.224	-135.469	0.095	0.011
-261.209	-170.278	-0.341	0.012
-260.195	-157.874	-0.151	0.009
-259.180	-200.000	0.034	0.263
-258.165	-183.975	0.108	0.002
-257.151	-126.902	0.215	-0.031
-256.136	374.215	-0.090	-0.180
-255.122	800.000	0.029	0.098
-254.107	31.334	0.072	0.061
-253.092	-20.595	0.267	0.160
-252.078	-87.362	0.234	-0.069
-251.063	518.261	-0.043	0.100
-250.049	45.561	-0.368	-0.332
-249.034	-63.130	0.263	-0.106
-248.019	145.354	-0.089	0.116
-247.005	5.500	-0.140	0.101
-245.990	-128.293	-0.147	-0.020
-244.976	800.000	0.058	0.226
-243.961	80.380	-0.045	-0.047
-242.946	50.963	-0.070	-0.065
-241.932	178.037	-0.163	0.233
-240.917	630.993	0.064	0.159
-239.903	360.212	0.130	-0.254
-238.888	-200.000	0.010	0.240
-237.873	-73.927	-0.112	0.040
-236.859	33.236	-0.029	-0.024
-235.844	35.545	0.029	0.025
-234.830	-101.124	-0.276	-0.066
-233.815	-200.000	0.048	-0.293
-232.800	-145.787	-0.125	0.011
-231.786	-129.413	0.190	0.026
-230.771	-59.604	0.219	0.092
-229.757	53.489	-0.095	-0.089
-228.742	800.000	0.093	-0.298
-227.727	-200.000	-0.028	-0.227
-226.713	130.817	0.058	0.072
-225.698	-99.616	0.141	-0.035
-224.684	-200.000	-0.009	-0.147
-223.669	149.001	0.185	-0.245
-222.655	-13.090	-0.232	-0.148
-221.640	-200.000	-0.019	-0.301
-220.625	60.602	0.189	-0.183
-219.611	164.498	-0.095	-0.131
-218.596	377.774	-0.086	-0.172
-217.582	-189.800	0.254	0.003
-216.567	-87.659	-0.273	0.080
-215.552	747.954	-0.071	0.188
-214.538	-200.000	-0.006	-0.242
-213.523	-106.656	0.033	-0.007
-212.509	-102.780	-0.430	0.100
-211.494	800.000	-0.130	0.424
-210.479	-103.357	0.314	-0.072
-209.465	176.550	-0.116	-0.165
-208.450	108.810	-0.046	-0.053
-207.436	-50.923	-0.427	0.196
-206.421	-110.430	0.229	-0.046
-205.406	-200.000	-0.019	0.215
-204.392	123.886	-0.054	-0.066
-203.377	-107.498	0.019	0.004
-202.363	264.472	0.082	-0.139
-201.348	120.643	0.146	0.177
-200.333	-200.000	0.034	-0.305
-199.319	800.000	-0.034	0.134
-198.304	422.475	-0.060	0.126
-197.290	219.199	-0.132	0.207
-196.275	25.634	0.173	0.140
-195.260	-200.000	0.034	0.359
-194.246	151.109	-0.053	0.070
-193.231	45.925	0.114	0.103
-192.217	-55.141	-0.110	0.048
-191.202	508.999	0.063	0.143
-190.187	92.174	-0.219	-0.241
-189.173	230.527	-0.028	0.045
-188.158	6.316	-0.272	-0.197
-187.144	18.660	-0.080	-0.062
-186.129	91.415	-0.070	-0.077
-185.114	-1.821	-0.177	0.121
-184.100	397.866	-0.089	-0.182
-183.085	-200.000	-0.017	-0.431
-182.071	-200.000	-0.005	0.414
-181.056	56.376	0.065	-0.062
-180.042	-100.478	0.054	0.013
-179.027	8.146	0.181	0.133
-178.012	-69.667	0.282	0.105
-176.998	800.000	0.012	-0.050
-175.983	169.374	0.145	-0.202
-174.969	-36.296	-0.140	-0.074
-173.954	138.158	0.261	0.334
-172.939	-200.000	0.018	0.212
-171.925	310.323	0.029	0.053
-170.910	800.000	-0.077	0.273
-169.896	146.618	0.149	-0.196
-168.881	181.518	-0.065	0.093
-167.866	-150.627	-0.169	-0.013
-166.852	78.067	-0.115	0.120
-165.837	459.058	0.062	-0.134
-164.823	-40.172	-0.243	0.123
-163.808	144.094	0.145	0.189
-162.793	106.454	-0.254	-0.294
-161.779	-200.000	0.031	-0.168
-160.764	800.000	-0.060	0.178
-159.750	-59.447	-0.199	0.083
-158.735	87.589	-0.295	0.318
-157.720	800.000	-0.067	-0.221
-156.706	741.504	-0.086	-0.226
-155.691	-5.291	-0.308	0.206
-154.677	595.357	-0.048	0.116
-153.662	-200.000	-0.023	0.122
-152.647	-55.682	0.245	0.107
-151.633	78.829	0.126	-0.131
-150.618	-53.945	-0.327	0.145
-149.604	-200.000	-0.012	0.205
-148.589	-142.444	0.231	-0.022
-147.574	800.000	0.024	0.087
-146.560	419.944	0.040	0.083
-145.545	-151.975	0.208	-0.015
-144.531	-200.000	-0.033	-0.178
-143.516	39.452	0.276	0.241
-142.502	603.431	0.193	0.468
-141.487	134.469	-0.180	-0.227
-140.472	137.603	0.065	-0.083
-139.458	-148.978	0.476	-0.037
-138.443	-106.257	0.211	0.046
-137.429	-11.276	-0.190	-0.122
-136.414	-51.275	-0.104	-0.047
-135.399	-200.000	-0.046	0.317
-134.385	41.953	0.136	-0.120
-133.370	-114.972	-0.112	0.021
-132.356	120.861	0.165	-0.200
-131.341	-200.000	-0.003	0.142
-130.326	-181.586	-0.228	0.004
-129.312	441.423	0.111	-0.236
-128.297	-61.910	-0.391	0.159
-127.283	-91.916	-0.127	-0.035
-126.268	135.386	-0.259	-0.328
-125.253	293.230	-0.072	0.127
-124.239	-19.831	0.118	0.071
-123.224	398.790	0.094	0.191
-122.210	800.000	0.086	0.266
-121.195	800.000	0.052	0.171
