DTS Sentinel unit serial number:	SN413079Multiplexer serial number:	ORYXHardware model number:	OX4-SRSoftware version number:	ORYX F/W v4.00 Oryx Data Collector v3.7.2.0data status	okinstallation	princeton_trtdifferential loss correction	single-endedforward channel	channel 2reverse channel	N/Adate	2019/09/16time	13:39:34forward acquisition time	60.00reverse acquisition time	0.00gamma	496.2192k internal	0.2294k external	0.2294temperature offset calibration	0.9942default loss term (dB/km)	0.3790temperature slope calibration	1.0000multiplexer offset coefficient	1.0000multiplexer slope coefficient	1.0000fibre end	0.00T internal ref (°C)	42.12T ext. ref 1 (°C)	13.87T ext. ref 2 (°C)	39.02length (m)	temperature (°C)	Stokes	anti-Stokes-747.200	-86.987	0.329	0.102
-746.185	-57.919	-0.197	0.088
-745.171	-54.180	-0.063	-0.029
-744.156	-138.621	-0.359	0.040
-743.142	-72.641	0.254	0.096
-742.127	322.359	-0.055	0.107
-741.112	119.265	-0.222	0.281
-740.098	108.966	-0.096	-0.117
-739.083	781.891	-0.136	0.382
-738.069	800.000	-0.029	0.089
-737.054	-125.142	0.066	0.010
-736.039	-161.705	-0.277	0.014
-735.025	69.103	0.245	0.258
-734.010	276.383	-0.131	-0.238
-732.996	-76.237	-0.118	0.043
-731.981	74.257	-0.177	0.190
-730.966	521.462	-0.165	0.395
-729.952	156.912	-0.110	-0.155
-728.937	32.329	0.097	-0.086
-727.923	138.332	-0.296	0.397
-726.908	-200.000	0.022	0.241
-725.894	582.715	-0.079	-0.197
-724.879	107.049	-0.176	-0.214
-723.864	-200.000	-0.044	-0.257
-722.850	157.528	0.118	0.167
-721.835	78.261	0.096	-0.105
-720.821	56.142	-0.125	-0.124
-719.806	-78.765	-0.453	-0.158
-718.791	-99.161	-0.180	0.046
-717.777	800.000	-0.019	0.067
-716.762	-123.592	0.386	-0.063
-715.748	-102.519	0.132	-0.032
-714.733	-200.000	0.191	0.000
-713.718	-190.686	-0.250	0.003
-712.704	75.245	0.148	0.160
-711.689	45.943	-0.160	0.151
-710.675	32.305	-0.252	-0.223
-709.660	-69.049	-0.088	-0.035
-708.645	-103.030	0.069	0.017
-707.631	81.544	0.038	-0.042
-706.616	34.254	-0.177	0.157
-705.602	-53.511	0.173	-0.081
-704.587	800.000	0.057	-0.163
-703.572	-27.556	0.062	0.037
-702.558	6.973	0.447	-0.340
-701.543	304.215	-0.071	-0.135
-700.529	21.656	0.188	-0.156
-699.514	246.715	0.050	0.086
-698.499	-200.000	-0.005	-0.082
-697.485	13.416	-0.282	-0.223
-696.470	800.000	0.041	-0.126
-695.456	-28.723	-0.205	-0.120
-694.441	-88.125	-0.324	-0.099
-693.426	-35.999	-0.216	0.119
-692.412	-100.990	0.105	0.026
-691.397	727.978	0.180	-0.491
-690.383	433.281	-0.028	0.062
-689.368	-130.772	-0.237	-0.032
-688.354	212.441	-0.296	0.476
-687.339	-200.000	0.025	-0.190
-686.324	-35.752	-0.282	0.156
-685.310	308.371	-0.138	-0.263
-684.295	-1.299	-0.205	-0.147
-683.281	800.000	0.051	0.163
-682.266	-111.037	-0.123	0.026
-681.251	-200.000	0.004	-0.373
-680.237	-58.151	0.169	-0.075
-679.222	4.893	0.225	-0.169
-678.208	-91.758	-0.187	0.054
-677.193	-200.000	0.006	-0.122
-676.178	22.381	0.047	-0.040
-675.164	-144.438	-0.152	-0.014
-674.149	-186.371	-0.242	-0.004
-673.135	-14.910	-0.580	-0.380
-672.120	-200.000	-0.014	-0.070
-671.105	-116.276	-0.283	-0.053
-670.091	800.000	-0.065	0.188
-669.076	475.562	-0.086	-0.197
-668.062	-79.749	-0.181	0.062
-667.047	513.318	-0.048	-0.115
-666.032	92.257	-0.173	0.199
-665.018	263.279	0.029	-0.051
-664.003	145.090	0.245	0.334
-662.989	225.515	0.076	0.126
-661.974	-120.976	0.157	-0.027
-660.959	33.205	0.198	0.175
-659.945	-200.000	0.002	0.243
-658.930	800.000	-0.112	-0.406
-657.916	63.878	-0.117	-0.120
-656.901	203.668	0.378	-0.597
-655.886	-200.000	-0.001	0.075
-654.872	-200.000	0.024	0.148
-653.857	-200.000	-0.009	0.062
-652.843	-4.855	-0.111	-0.078
-651.828	324.201	-0.039	0.076
-650.814	-163.584	0.365	-0.018
-649.799	91.863	0.079	-0.090
-648.784	195.583	-0.094	-0.146
-647.770	72.382	-0.080	0.085
-646.755	139.036	-0.105	-0.141
-645.741	32.952	0.057	0.050
-644.726	93.976	-0.148	0.171
-643.711	800.000	-0.057	-0.249
-642.697	-81.874	-0.076	-0.025
-641.682	694.699	0.093	0.247
-640.668	104.443	0.072	0.086
-639.653	-200.000	0.065	-0.303
-638.638	-113.431	0.185	0.037
-637.624	-200.000	-0.008	0.162
-636.609	-33.912	-0.157	-0.088
-635.595	800.000	-0.044	0.154
-634.580	23.140	0.037	-0.031
-633.565	-200.000	-0.020	0.159
-632.551	-200.000	0.016	0.186
-631.536	800.000	-0.050	0.190
-630.522	-93.313	0.406	0.115
-629.507	138.042	0.099	-0.132
-628.492	278.241	0.086	-0.156
-627.478	223.215	0.159	-0.261
-626.463	-200.000	-0.077	-0.399
-625.449	-200.000	-0.004	-0.175
-624.434	-108.299	-0.377	-0.083
-623.419	-132.369	0.101	0.013
-622.405	501.050	0.050	0.117
-621.390	-120.208	-0.099	-0.017
-620.376	-12.947	0.099	0.066
-619.361	800.000	0.064	0.185
-618.346	800.000	-0.066	-0.236
-617.332	83.393	-0.122	0.135
-616.317	-200.000	-0.007	0.117
-615.303	-200.000	-0.065	-0.299
-614.288	225.169	-0.059	-0.097
-613.273	347.636	0.096	0.193
-612.259	4.161	0.079	-0.059
-611.244	800.000	0.068	0.256
-610.230	7.126	0.306	-0.232
-609.215	-51.199	-0.153	0.073
-608.201	55.168	0.164	0.161
-607.186	81.602	-0.157	0.173
-606.171	-187.419	-0.268	-0.004
-605.157	800.000	-0.109	0.451
-604.142	-118.585	-0.273	0.049
-603.128	33.738	-0.192	-0.170
-602.113	-150.054	0.286	0.023
-601.098	-136.777	-0.195	0.023
-600.084	-52.672	0.409	-0.192
-599.069	-200.000	-0.025	-0.164
-598.055	694.067	-0.120	-0.319
-597.040	138.922	0.137	0.183
-596.025	-57.551	0.135	-0.060
-595.011	95.116	-0.412	-0.477
-593.996	-200.000	-0.015	0.182
-592.982	-128.847	-0.465	0.066
-591.967	-4.792	-0.130	0.091
-590.952	235.504	0.045	0.076
-589.938	-200.000	-0.024	0.182
-588.923	-200.000	-0.090	0.416
-587.909	120.532	-0.275	0.348
-586.894	127.349	-0.064	-0.083
-585.879	-141.155	0.212	0.022
-584.865	-59.993	-0.500	-0.217
-583.850	27.309	0.234	0.200
-582.836	-18.409	-0.133	0.085
-581.821	94.621	0.199	-0.229
-580.806	-27.621	-0.076	0.045
-579.792	170.806	0.109	-0.158
-578.777	-151.743	-0.127	0.010
-577.763	-99.995	-0.091	0.023
-576.748	-37.208	0.299	0.163
-575.733	579.132	-0.131	0.326
-574.719	-200.000	0.019	0.173
-573.704	-25.100	0.269	-0.162
-572.690	-92.134	-0.384	-0.110
-571.675	326.711	0.122	-0.237
-570.661	11.105	0.187	-0.145
-569.646	2.092	-0.150	-0.110
-568.631	161.071	0.104	-0.148
-567.617	-200.000	0.011	-0.170
-566.602	180.658	-0.200	0.299
-565.588	-115.278	0.228	-0.044
-564.573	-164.719	0.136	0.006
-563.558	51.085	0.085	-0.082
-562.544	-24.566	-0.221	-0.134
-561.529	-80.596	0.021	0.007
-560.515	-11.375	0.153	0.102
-559.500	-200.000	-0.017	0.166
-558.485	716.548	-0.053	-0.144
-557.471	-200.000	0.034	-0.329
-556.456	567.400	-0.076	0.188
-555.442	242.593	0.228	0.387
-554.427	-171.294	-0.187	-0.006
-553.412	9.720	-0.096	0.074
-552.398	146.372	0.110	-0.150
-551.383	800.000	0.019	0.056
-550.369	-88.703	0.107	-0.032
-549.354	16.688	0.220	0.177
-548.339	-120.700	0.154	0.026
-547.325	800.000	-0.121	0.340
-546.310	800.000	-0.053	-0.224
-545.296	-87.974	0.363	-0.111
-544.281	-39.809	-0.181	0.096
-543.266	-127.607	-0.240	0.035
-542.252	600.772	-0.119	-0.301
-541.237	85.026	-0.137	0.152
-540.223	-6.984	-0.272	-0.187
-539.208	-34.704	-0.301	0.167
-538.193	-114.749	-0.077	-0.015
-537.179	275.232	-0.063	-0.112
-536.164	-17.416	0.281	0.180
-535.150	-71.566	-0.264	-0.100
-534.135	-200.000	0.014	-0.195
-533.121	-60.624	0.107	0.046
-532.106	-72.250	-0.134	-0.050
-531.091	-200.000	-0.034	0.158
-530.077	223.399	-0.167	-0.273
-529.062	-200.000	-0.019	-0.164
-528.048	800.000	0.042	-0.158
-527.033	-79.621	0.335	-0.115
-526.018	-200.000	-0.031	0.221
-525.004	-89.317	0.031	0.009
-523.989	-191.537	0.337	0.003
-522.975	186.898	-0.218	-0.329
-521.960	-103.094	0.117	-0.028
-520.945	-150.732	0.089	0.007
-519.931	-170.251	-0.154	0.005
-518.916	53.931	0.145	-0.141
-517.902	131.346	0.164	0.214
-516.887	-200.000	-0.017	0.216
-515.872	-80.018	-0.190	-0.065
-514.858	695.301	-0.063	-0.167
-513.843	535.690	0.058	0.139
-512.829	-132.296	-0.273	0.036
-511.814	58.388	-0.117	-0.117
-510.799	-177.606	0.128	0.003
-509.785	127.488	0.236	-0.304
-508.770	-66.988	-0.057	0.023
-507.756	-200.000	-0.011	-0.352
-506.741	-139.403	0.279	0.030
-505.726	-68.735	0.168	-0.066
-504.712	-200.000	0.007	0.094
-503.697	-65.293	0.127	-0.052
-502.683	514.204	-0.104	-0.245
-501.668	-88.214	0.182	-0.055
-500.653	-85.866	-0.221	-0.069
-499.639	718.326	0.057	-0.153
-498.624	-54.997	-0.257	-0.117
-497.610	7.720	-0.094	0.071
-496.595	166.278	-0.172	0.246
-495.581	181.305	-0.223	-0.332
-494.566	-84.237	0.087	0.028
-493.551	-186.196	0.272	0.004
-492.537	-49.601	-0.120	0.058
-491.522	108.227	0.122	-0.147
-490.508	-56.725	0.088	-0.039
-489.493	-193.242	0.198	-0.002
-488.478	-200.000	-0.031	-0.220
-487.464	78.846	0.060	-0.065
-486.449	-96.937	-0.569	-0.151
-485.435	-200.000	0.004	0.157
-484.420	328.109	0.056	0.110
-483.405	-200.000	0.007	-0.044
-482.391	76.872	0.134	0.144
-481.376	91.102	0.058	0.066
-480.362	239.736	0.088	0.148
-479.347	-73.667	-0.091	0.033
-478.332	-80.376	0.235	-0.079
-477.318	-200.000	0.052	-0.270
-476.303	46.468	-0.173	0.162
-475.289	-121.622	-0.188	0.031
-474.274	-130.562	-0.096	0.013
-473.259	79.633	0.138	0.150
-472.245	508.764	-0.040	-0.093
-471.230	-194.564	0.297	0.002
-470.216	-171.205	-0.197	0.007
-469.201	605.159	0.113	0.284
-468.186	800.000	-0.046	-0.202
-467.172	800.000	-0.060	-0.213
-466.157	313.907	-0.106	0.203
-465.143	-92.239	-0.155	0.044
-464.128	168.681	0.063	-0.091
-463.113	-77.081	0.262	-0.092
-462.099	-200.000	-0.059	0.429
-461.084	9.902	-0.157	-0.120
-460.070	73.385	0.083	-0.088
-459.055	-59.888	0.146	-0.063
-458.040	-19.510	-0.087	0.054
-457.026	800.000	-0.051	-0.184
-456.011	86.989	0.056	0.063
-454.997	-86.493	-0.206	-0.064
-453.982	58.666	-0.130	-0.130
-452.968	273.718	0.106	0.190
-451.953	-200.000	0.035	0.463
-450.938	-200.000	-0.043	0.363
-449.924	-200.000	-0.008	0.277
-448.909	52.171	-0.080	0.077
-447.895	800.000	0.155	-0.501
-446.880	-25.889	-0.234	-0.139
-445.865	33.796	-0.142	-0.124
-444.851	315.428	0.181	0.346
-443.836	-200.000	-0.033	-0.343
-442.822	-200.000	-0.001	0.101
-441.807	-200.000	-0.023	-0.229
-440.792	-37.303	-0.100	-0.054
-439.778	-22.908	0.117	-0.071
-438.763	85.133	0.108	0.120
-437.749	800.000	-0.047	-0.192
-436.734	84.233	-0.064	0.071
-435.719	202.099	-0.115	-0.180
-434.705	-155.348	0.237	-0.016
-433.690	232.120	-0.042	0.070
-432.676	-60.433	0.148	0.064
-431.661	28.049	0.167	0.142
-430.646	13.679	0.120	0.094
-429.632	-25.762	-0.098	0.058
-428.617	-200.000	-0.014	-0.198
-427.603	19.800	-0.291	0.237
-426.588	-164.419	0.383	0.018
-425.573	375.042	0.126	0.260
-424.559	722.227	-0.056	-0.150
-423.544	41.752	-0.211	0.193
-422.530	-29.446	0.125	0.072
-421.515	-127.837	-0.296	0.043
-420.500	-77.493	-0.180	0.063
-419.486	-75.182	0.350	0.126
-418.471	69.981	-0.108	0.113
-417.457	5.678	0.211	0.157
-416.442	-40.746	-0.179	0.094
-415.428	-200.000	-0.027	0.126
-414.413	324.048	0.292	0.563
-413.398	41.934	0.166	0.152
-412.384	-200.000	-0.043	-0.237
-411.369	57.178	0.292	-0.287
-410.355	800.000	0.031	0.112
-409.340	-86.789	0.195	0.060
-408.325	-52.900	0.362	-0.168
-407.311	-70.264	0.184	-0.071
-406.296	-33.291	-0.204	-0.114
-405.282	-47.284	0.075	-0.037
-404.267	-69.302	-0.179	-0.069
-403.252	94.761	0.056	-0.064
-402.238	-200.000	-0.025	0.254
-401.223	150.934	0.086	0.118
-400.209	16.093	0.234	-0.186
-399.194	-200.000	-0.023	-0.136
-398.179	14.414	0.289	0.227
-397.165	38.347	0.062	0.056
-396.150	-68.593	0.108	-0.042
-395.136	107.780	0.170	-0.204
-394.121	421.263	0.058	0.125
-393.106	-84.146	-0.159	0.051
-392.092	800.000	0.081	0.351
-391.077	-46.878	0.146	-0.072
-390.063	-200.000	-0.040	0.375
-389.048	-12.731	-0.156	0.103
-388.033	125.653	-0.041	0.052
-387.019	-13.284	-0.407	-0.266
-386.004	3.127	0.218	0.160
-384.990	89.574	0.264	0.297
-383.975	678.363	-0.055	-0.145
-382.960	49.851	0.031	-0.030
-381.946	-200.000	-0.003	-0.255
-380.931	-5.046	-0.278	-0.193
-379.917	-200.000	-0.060	0.298
-378.902	800.000	-0.078	0.336
-377.888	528.322	-0.092	0.219
-376.873	-99.972	-0.249	0.063
-375.858	299.192	-0.124	-0.230
-374.844	-91.698	0.194	-0.056
-373.829	511.921	0.160	0.375
-372.815	-103.651	0.248	-0.059
-371.800	306.048	-0.052	-0.097
-370.785	800.000	-0.034	0.132
-369.771	217.712	-0.083	-0.134
-368.756	-200.000	-0.032	0.256
-367.742	733.481	0.025	-0.067
-366.727	-200.000	-0.002	0.367
-365.712	33.857	0.157	0.137
-364.698	-163.455	-0.228	-0.011
-363.683	-34.011	-0.152	-0.084
-362.669	-200.000	0.022	0.318
-361.654	96.257	-0.130	0.150
-360.639	38.475	0.014	0.013
-359.625	-78.608	-0.215	-0.074
-358.610	-70.368	-0.205	0.078
-357.596	-21.818	0.277	0.170
-356.581	-142.889	0.137	-0.013
-355.566	800.000	-0.154	0.510
-354.552	-31.798	0.297	-0.168
-353.537	-55.456	0.167	0.075
-352.523	-200.000	0.002	0.105
-351.508	365.631	0.090	-0.182
-350.493	-48.997	0.172	0.083
-349.479	106.604	-0.217	-0.259
-348.464	9.559	0.198	0.151
-347.450	-87.360	-0.190	-0.058
-346.435	28.641	0.449	0.382
-345.420	21.133	-0.078	-0.063
-344.406	191.592	-0.230	-0.348
-343.391	-0.328	-0.139	-0.099
-342.377	125.254	-0.112	-0.142
-341.362	-22.251	-0.249	0.152
-340.348	80.254	-0.187	0.202
-339.333	11.789	-0.111	-0.086
-338.318	-77.540	-0.283	-0.099
-337.304	-110.202	-0.359	-0.075
-336.289	182.237	-0.070	0.104
-335.275	-200.000	-0.043	-0.414
-334.260	3.240	-0.094	0.069
-333.245	73.198	-0.245	0.258
-332.231	-24.619	-0.166	-0.099
-331.216	-200.000	-0.026	-0.187
-330.202	44.030	0.014	-0.013
-329.187	-90.228	-0.216	0.063
-328.172	67.199	-0.033	-0.034
-327.158	800.000	0.159	0.612
-326.143	-162.839	-0.170	0.008
-325.129	93.126	0.273	-0.311
-324.114	237.484	-0.109	-0.181
-323.099	550.477	-0.083	-0.201
-322.085	-0.992	0.321	-0.228
-321.070	102.666	0.241	-0.284
-320.056	447.922	0.071	0.158
-319.041	-200.000	-0.009	0.163
-318.026	-200.000	-0.013	-0.081
-317.012	661.877	-0.186	-0.483
-315.997	-5.285	-0.114	0.079
-314.983	242.315	0.193	0.325
-313.968	281.535	-0.068	-0.122
-312.953	-75.550	0.208	0.074
-311.939	-200.000	0.032	-0.178
-310.924	-200.000	0.007	-0.107
-309.910	-33.252	-0.051	0.028
-308.895	178.525	0.145	0.213
-307.880	-52.838	-0.136	-0.063
-306.866	-123.721	0.169	0.027
-305.851	-14.986	-0.399	-0.257
-304.837	56.658	0.070	-0.068
-303.822	-83.846	0.263	-0.084
-302.807	248.092	-0.109	-0.186
-301.793	800.000	-0.065	0.238
-300.778	319.711	0.067	0.128
-299.764	-113.011	0.123	-0.024
-298.749	-200.000	-0.017	0.193
-297.735	-200.000	0.050	0.311
-296.720	38.913	-0.139	0.124
-295.705	335.439	0.166	-0.324
-294.691	86.908	0.201	-0.223
-293.676	-29.981	-0.179	-0.102
-292.662	98.603	0.106	0.123
-291.647	-200.000	-0.014	-0.222
-290.632	800.000	-0.033	-0.108
-289.618	-156.692	0.173	-0.011
-288.603	10.039	-0.208	-0.159
-287.589	15.488	0.090	0.071
-286.574	73.828	-0.208	0.219
-285.559	-49.707	-0.040	0.019
-284.545	290.961	-0.102	-0.186
-283.530	-38.449	-0.149	0.079
-282.516	800.000	0.072	-0.252
-281.501	-39.273	0.238	-0.125
-280.486	112.331	-0.255	0.310
-279.472	-200.000	0.007	0.157
-278.457	-83.346	0.209	-0.067
-277.443	-48.583	0.306	0.148
-276.428	-4.471	0.248	-0.172
-275.413	26.818	-0.454	0.382
-274.399	800.000	0.023	0.064
-273.384	-200.000	-0.031	-0.290
-272.370	791.423	0.067	-0.185
-271.355	7.424	-0.371	-0.278
-270.340	24.785	-0.231	-0.192
-269.326	111.145	0.123	0.149
-268.311	-115.161	-0.052	0.010
-267.297	800.000	-0.031	-0.119
-266.282	82.969	-0.110	-0.121
-265.267	89.837	-0.068	-0.077
-264.253	-109.701	0.287	0.061
-263.238	-136.901	0.093	0.011
-262.224	800.000	-0.058	-0.163
-261.209	-141.659	0.348	-0.035
-260.195	-23.129	0.208	0.126
-259.180	-26.668	0.438	0.257
-258.165	-32.369	0.316	0.177
-257.151	4.023	0.156	-0.114
-256.136	254.427	-0.138	-0.237
-255.122	2.378	0.287	-0.209
-254.107	-3.556	0.089	0.062
-253.092	-200.000	0.021	-0.105
-252.078	-77.051	-0.191	-0.067
-251.063	-91.193	-0.266	0.076
-250.049	-36.859	0.196	0.106
-249.034	-171.226	-0.315	-0.011
-248.019	-96.100	-0.040	0.011
-247.005	-159.993	-0.323	0.018
-245.990	367.230	-0.046	0.093
-244.976	445.189	-0.045	-0.098
-243.961	307.449	-0.063	-0.118
-242.946	121.645	-0.165	-0.206
-241.932	682.330	-0.173	0.453
-240.917	800.000	0.047	-0.150
-239.903	276.808	-0.071	0.126
-238.888	88.982	0.148	-0.165
-237.873	171.948	-0.033	-0.048
-236.859	751.567	-0.038	0.103
-235.844	-200.000	0.003	-0.348
-234.830	-200.000	-0.048	-0.286
-233.815	800.000	0.024	-0.092
-232.800	-180.014	0.253	0.005
-231.786	48.369	0.092	0.086
-230.771	527.835	-0.050	-0.118
-229.757	-67.818	-0.104	0.041
-228.742	695.007	-0.081	-0.214
-227.727	-200.000	-0.021	0.200
-226.713	-38.550	-0.126	-0.067
-225.698	-60.142	-0.202	-0.086
-224.684	-73.350	-0.403	0.148
-223.669	13.702	0.277	0.216
-222.655	37.894	0.162	0.144
-221.640	-74.700	0.123	-0.044
-220.625	-200.000	-0.006	0.086
-219.611	50.951	0.100	0.095
-218.596	-98.665	-0.408	-0.104
-217.582	800.000	-0.143	-0.399
-216.567	-129.336	0.316	0.044
-215.552	99.023	-0.233	-0.269
-214.538	-87.119	-0.353	0.108
-213.523	281.516	0.123	-0.221
-212.509	800.000	0.062	-0.180
-211.494	58.066	0.109	0.107
-210.479	7.381	0.113	-0.085
-209.465	-200.000	0.033	0.229
-208.450	320.441	0.150	-0.285
-207.436	84.562	-0.110	0.121
-206.421	800.000	0.065	0.235
-205.406	47.264	0.073	0.068
-204.392	800.000	-0.058	0.205
-203.377	54.663	0.287	0.277
-202.363	122.726	-0.226	-0.282
-201.348	-200.000	-0.001	-0.368
-200.333	-4.298	0.214	0.148
-199.319	800.000	-0.030	0.107
-198.304	-200.000	0.063	0.000
-197.290	57.676	0.146	0.143
-196.275	-200.000	-0.002	-0.221
-195.260	308.324	-0.106	0.198
-194.246	-42.446	-0.082	-0.042
-193.231	15.137	0.264	-0.207
-192.217	-200.000	-0.032	0.300
-191.202	-149.065	-0.341	0.027
-190.187	800.000	-0.076	-0.220
-189.173	800.000	0.080	-0.231
-188.158	360.173	0.094	-0.189
-187.144	-200.000	-0.002	-0.196
-186.129	169.855	0.308	0.440
-185.114	-38.576	-0.195	-0.103
-184.100	-147.972	0.222	-0.018
-183.085	-96.915	0.303	0.079
-182.071	-73.479	0.224	0.082
-181.056	-200.000	0.033	-0.263
-180.042	-32.847	-0.246	-0.137
-179.027	418.606	-0.068	-0.145
-178.012	-200.000	-0.032	0.546
-176.998	-200.000	-0.036	-0.300
-175.983	34.609	-0.080	-0.070
-174.969	354.560	-0.053	0.105
-173.954	87.210	0.166	0.184
-172.939	-200.000	0.032	0.496
-171.925	146.827	-0.088	-0.119
-170.910	-46.794	0.099	-0.048
-169.896	-140.534	-0.014	-0.001
-168.881	11.000	0.320	0.244
-167.866	-200.000	-0.022	-0.197
-166.852	15.529	-0.175	0.137
-165.837	519.312	0.082	0.191
-164.823	10.919	0.024	0.018
-163.808	103.640	-0.096	0.113
-162.793	-88.191	0.162	-0.049
-161.779	800.000	-0.052	0.163
-160.764	800.000	0.098	-0.291
-159.750	-200.000	0.004	0.219
-158.735	2.032	-0.259	-0.187
-157.720	448.638	0.175	-0.385
-156.706	-7.013	-0.024	0.016
-155.691	-68.018	0.149	-0.058
-154.677	-59.153	-0.188	0.081
-153.662	362.955	-0.078	0.156
-152.647	-151.726	0.367	-0.027
-151.633	168.652	-0.052	-0.074
-150.618	-65.795	-0.195	-0.078
-149.604	-0.232	-0.107	0.076
-148.589	-45.045	-0.141	0.070
-147.574	-176.026	0.245	-0.006
-146.560	-200.000	0.017	0.129
-145.545	-101.863	0.269	-0.065
-144.531	92.437	0.221	-0.248
-143.516	-200.000	0.018	0.084
-142.502	-95.407	0.090	-0.024
-141.487	800.000	0.116	-0.490
-140.472	-200.000	-0.002	0.041
-139.458	-200.000	0.018	-0.558
-138.443	-91.992	0.122	-0.034
-137.429	-47.351	0.212	0.103
-136.414	205.912	0.179	0.278
-135.399	-200.000	0.002	0.078
-134.385	-10.599	0.359	0.237
-133.370	-200.000	0.056	0.288
-132.356	317.527	0.183	0.346
-131.341	-200.000	0.032	0.187
-130.326	116.716	0.111	-0.136
-129.312	800.000	0.073	-0.214
-128.297	800.000	0.049	-0.202
-127.283	-41.283	-0.157	0.081
-126.268	50.471	-0.047	-0.044
-125.253	23.842	-0.328	0.270
-124.239	-200.000	-0.020	0.151
-123.224	-200.000	0.019	-0.103
-122.210	389.903	0.066	0.137
-121.195	-200.000	0.023	-0.118
-120.180	-37.351	0.076	0.041
