DTS Sentinel unit serial number:	SN413079Multiplexer serial number:	ORYXHardware model number:	OX4-SRSoftware version number:	ORYX F/W v4.00 Oryx Data Collector v3.7.2.0data status	okinstallation	princeton_trtdifferential loss correction	single-endedforward channel	channel 2reverse channel	N/Adate	2019/09/13time	12:43:35forward acquisition time	60.00reverse acquisition time	0.00gamma	496.2192k internal	0.2314k external	0.2314temperature offset calibration	1.0212default loss term (dB/km)	0.3790temperature slope calibration	1.0000multiplexer offset coefficient	1.0000multiplexer slope coefficient	1.0000fibre end	0.00T internal ref (°C)	34.69T ext. ref 1 (°C)	4.60T ext. ref 2 (°C)	30.77length (m)	temperature (°C)	Stokes	anti-Stokes-747.200	-49.639	-0.178	-0.086
-746.185	655.402	-0.035	-0.091
-745.171	48.270	-0.036	-0.034
-744.156	-104.012	0.094	-0.022
-743.142	178.881	0.083	-0.123
-742.127	43.653	0.104	-0.096
-741.112	-200.000	-0.003	-0.210
-740.098	800.000	-0.081	0.275
-739.083	-200.000	-0.020	-0.095
-738.069	-83.290	-0.168	-0.055
-737.054	-97.132	-0.269	-0.071
-736.039	92.603	0.012	0.014
-735.025	73.890	-0.083	0.089
-734.010	80.008	0.050	-0.055
-732.996	-200.000	0.014	-0.150
-731.981	-200.000	-0.013	0.090
-730.966	-33.103	-0.299	0.168
-729.952	-200.000	-0.001	-0.271
-728.937	29.890	-0.366	-0.316
-727.923	-149.125	-0.422	-0.034
-726.908	55.824	-0.069	-0.068
-725.894	288.791	-0.057	-0.105
-724.879	-200.000	0.010	0.181
-723.864	-68.990	-0.343	-0.134
-722.850	800.000	-0.137	0.437
-721.835	-200.000	0.044	-0.254
-720.821	-200.000	0.015	0.179
-719.806	393.439	-0.062	-0.131
-718.791	-106.329	-0.240	0.054
-717.777	800.000	0.034	-0.117
-716.762	10.504	-0.105	-0.081
-715.748	-200.000	-0.083	0.371
-714.733	-188.394	0.049	-0.001
-713.718	-78.550	0.181	-0.063
-712.704	-32.962	0.138	-0.078
-711.689	-200.000	-0.018	0.097
-710.675	223.513	0.173	0.283
-709.660	-161.263	0.115	0.006
-708.645	121.911	-0.091	-0.114
-707.631	583.607	-0.213	-0.529
-706.616	68.380	-0.082	-0.085
-705.602	-60.176	-0.299	-0.129
-704.587	800.000	-0.095	-0.398
-703.572	12.665	0.210	-0.164
-702.558	-127.713	-0.201	0.029
-701.543	-200.000	-0.015	-0.118
-700.529	-153.880	0.225	-0.016
-699.514	-9.471	0.114	-0.077
-698.499	800.000	-0.050	0.204
-697.485	-18.744	-0.212	0.134
-696.470	-200.000	0.058	0.443
-695.456	-17.604	0.110	0.070
-694.441	-200.000	0.029	-0.231
-693.426	-52.709	-0.077	0.036
-692.412	283.419	0.039	-0.071
-691.397	785.751	0.099	0.274
-690.383	-200.000	-0.026	-0.210
-689.368	95.917	-0.063	-0.073
-688.354	452.067	-0.135	-0.301
-687.339	225.168	-0.078	-0.127
-686.324	-200.000	0.012	-0.356
-685.310	-45.369	-0.200	-0.100
-684.295	267.551	0.065	0.116
-683.281	46.907	0.242	-0.228
-682.266	-200.000	-0.011	0.153
-681.251	389.845	-0.150	-0.314
-680.237	-200.000	-0.019	-0.092
-679.222	-199.444	0.487	-0.003
-678.208	-30.461	-0.057	-0.033
-677.193	-200.000	-0.005	0.159
-676.178	-138.426	0.189	-0.021
-675.164	-53.701	0.191	-0.088
-674.149	-52.388	-0.120	0.056
-673.135	-200.000	-0.053	-0.258
-672.120	43.869	-0.087	-0.080
-671.105	-143.991	0.124	-0.012
-670.091	548.000	-0.095	0.230
-669.076	245.169	0.081	-0.137
-668.062	312.507	-0.097	-0.185
-667.047	432.661	-0.108	-0.237
-666.032	800.000	0.016	-0.046
-665.018	656.957	-0.028	0.074
-664.003	800.000	0.118	-0.333
-662.989	-105.683	0.162	-0.037
-661.974	800.000	0.053	-0.200
-660.959	-200.000	-0.008	-0.117
-659.945	80.700	0.109	-0.119
-658.930	-200.000	0.015	-0.296
-657.916	-110.004	-0.159	-0.034
-656.901	86.640	0.162	-0.181
-655.886	408.774	-0.095	0.204
-654.872	708.021	0.064	0.172
-653.857	-200.000	0.001	-0.164
-652.843	-164.674	0.128	-0.006
-651.828	-200.000	0.033	-0.400
-650.814	-192.150	0.363	0.004
-649.799	-200.000	0.024	0.151
-648.784	142.293	-0.126	-0.170
-647.770	800.000	-0.044	0.149
-646.755	132.338	0.114	-0.148
-645.741	154.184	0.182	-0.252
-644.726	800.000	0.099	0.361
-643.711	98.809	-0.073	0.085
-642.697	-36.332	0.181	0.099
-641.682	800.000	0.085	-0.373
-640.668	173.732	-0.176	-0.257
-639.653	-120.413	-0.203	-0.035
-638.638	-200.000	-0.001	-0.154
-637.624	377.260	0.022	-0.045
-636.609	755.963	-0.127	-0.348
-635.595	63.957	0.052	0.053
-634.580	-200.000	-0.004	-0.178
-633.565	450.286	0.120	0.267
-632.551	-200.000	-0.018	-0.335
-631.536	55.040	-0.329	-0.321
-630.522	800.000	0.062	0.267
-629.507	-200.000	0.018	0.315
-628.492	-200.000	-0.023	-0.133
-627.478	-200.000	-0.020	-0.238
-626.463	-75.169	-0.100	-0.036
-625.449	-26.140	0.127	-0.076
-624.434	56.054	-0.397	0.389
-623.419	13.355	0.117	-0.092
-622.405	-200.000	-0.006	-0.160
-621.390	-200.000	0.010	-0.088
-620.376	7.243	-0.179	-0.135
-619.361	800.000	0.013	0.044
-618.346	30.797	-0.059	0.051
-617.332	-156.252	-0.238	0.015
-616.317	-28.796	0.292	-0.170
-615.303	-112.893	-0.264	-0.053
-614.288	114.733	0.158	0.194
-613.273	800.000	-0.047	-0.166
-612.259	-200.000	-0.020	-0.221
-611.244	0.573	0.258	-0.186
-610.230	-200.000	0.011	-0.092
-609.215	137.091	0.129	-0.171
-608.201	-87.211	-0.152	0.047
-607.186	-200.000	0.007	-0.185
-606.171	46.027	0.085	0.080
-605.157	-8.252	-0.150	-0.102
-604.142	73.937	0.009	0.010
-603.128	800.000	0.075	0.323
-602.113	-104.888	-0.097	-0.022
-601.098	-200.000	-0.015	0.259
-600.084	178.672	0.125	0.185
-599.069	13.834	-0.174	-0.136
-598.055	222.671	0.053	0.086
-597.040	-39.110	0.207	-0.110
-596.025	800.000	0.017	-0.054
-595.011	94.963	-0.186	0.213
-593.996	318.505	0.043	0.082
-592.982	36.647	-0.161	-0.143
-591.967	73.075	0.077	0.081
-590.952	-126.452	-0.192	0.029
-589.938	218.527	-0.078	-0.126
-588.923	-200.000	-0.059	-0.281
-587.909	800.000	-0.136	-0.430
-586.894	800.000	-0.102	-0.365
-585.879	485.397	-0.164	-0.376
-584.865	239.076	-0.106	0.177
-583.850	-63.705	0.078	0.032
-582.836	35.140	-0.279	0.246
-581.821	171.478	-0.046	0.067
-580.806	-90.707	-0.315	0.092
-579.792	-200.000	-0.020	0.313
-578.777	-102.237	0.069	-0.017
-577.763	-105.864	-0.161	-0.037
-576.748	-89.359	-0.225	0.067
-575.733	152.423	0.260	0.357
-574.719	-133.979	0.284	-0.035
-573.704	-8.128	0.109	-0.074
-572.690	778.264	0.121	-0.334
-571.675	91.303	-0.081	-0.092
-570.661	31.371	-0.291	-0.252
-569.646	-131.758	-0.081	0.011
-568.631	407.473	0.118	0.251
-567.617	-38.429	0.411	0.219
-566.602	-81.401	-0.497	-0.165
-565.588	-184.729	-0.080	0.001
-564.573	-200.000	0.025	-0.118
-563.558	244.388	0.140	0.237
-562.544	800.000	0.070	0.215
-561.529	-62.716	-0.304	-0.127
-560.515	215.571	-0.037	0.058
-559.500	4.155	0.152	0.112
-558.485	446.068	0.047	-0.104
-557.471	77.780	0.218	-0.234
-556.456	800.000	-0.015	0.063
-555.442	-23.498	0.157	0.095
-554.427	-158.989	0.336	-0.019
-553.412	-151.586	0.328	0.024
-552.398	384.261	0.034	0.071
-551.383	-133.223	-0.322	-0.041
-550.369	496.049	0.113	-0.262
-549.354	257.748	0.140	-0.242
-548.339	-113.552	-0.032	0.006
-547.325	3.629	0.227	-0.167
-546.310	-110.813	0.215	-0.045
-545.296	-107.496	0.156	-0.034
-544.281	-3.262	0.064	-0.045
-543.266	345.793	-0.079	0.157
-542.252	56.689	0.125	0.123
-541.237	-57.948	-0.165	-0.073
-540.223	67.904	-0.180	-0.185
-539.208	-41.374	-0.265	0.137
-538.193	93.430	-0.173	0.197
-537.179	-25.171	-0.233	0.139
-536.164	-58.373	0.143	0.062
-535.150	-172.222	-0.296	-0.010
-534.135	-9.336	-0.223	0.150
-533.121	550.288	-0.046	-0.112
-532.106	313.657	0.048	-0.090
-531.091	338.036	0.156	0.306
-530.077	232.032	-0.115	-0.190
-529.062	90.591	0.102	-0.115
-528.048	0.476	-0.137	0.099
-527.033	-200.000	0.158	-0.000
-526.018	-200.000	-0.002	0.143
-525.004	7.058	-0.178	0.134
-523.989	-200.000	-0.023	-0.171
-522.975	-163.087	0.030	0.001
-521.960	-49.205	-0.312	0.150
-520.945	800.000	0.052	0.169
-519.931	800.000	0.053	-0.180
-518.916	-145.339	0.189	0.017
-517.902	800.000	-0.074	0.222
-516.887	42.313	0.102	-0.093
-515.872	-99.922	-0.197	-0.050
-514.858	800.000	-0.058	0.223
-513.843	-46.888	-0.051	-0.025
-512.829	-69.240	-0.200	-0.077
-511.814	-97.148	0.156	0.041
-510.799	-200.000	-0.006	-0.077
-509.785	-200.000	0.013	0.189
-508.770	-200.000	-0.042	-0.200
-507.756	-10.094	-0.419	-0.280
-506.741	-51.693	-0.270	0.126
-505.726	-11.777	0.057	0.038
-504.712	67.549	-0.154	0.158
-503.697	-76.381	0.138	0.049
-502.683	-200.000	0.007	-0.096
-501.668	-200.000	-0.015	0.185
-500.653	447.721	0.053	0.118
-499.639	-200.000	0.064	-0.308
-498.624	-200.000	0.000	0.060
-497.610	-200.000	0.067	-0.361
-496.595	800.000	-0.024	-0.081
-495.581	-17.139	-0.101	-0.064
-494.566	-200.000	-0.000	-0.052
-493.551	506.736	-0.084	0.197
-492.537	-200.000	0.035	-0.233
-491.522	243.166	0.211	0.354
-490.508	46.157	-0.198	-0.184
-489.493	-35.992	-0.156	-0.085
-488.478	67.769	-0.095	0.098
-487.464	-200.000	-0.052	0.299
-486.449	402.863	0.147	0.310
-485.435	718.784	-0.061	-0.163
-484.420	50.425	0.033	0.031
-483.405	-138.064	-0.240	0.027
-482.391	-77.553	-0.276	-0.096
-481.376	-200.000	-0.014	-0.128
-480.362	194.006	0.051	-0.077
-479.347	158.245	0.045	0.063
-478.332	110.558	0.159	-0.192
-477.318	-56.306	-0.163	0.073
-476.303	34.214	-0.358	-0.314
-475.289	-27.932	0.182	0.106
-474.274	-149.222	-0.181	0.014
-473.259	246.449	-0.096	-0.163
-472.245	800.000	-0.029	0.083
-471.230	-200.000	0.032	0.299
-470.216	294.857	-0.106	-0.195
-469.201	-46.442	-0.206	-0.102
-468.186	-125.295	-0.195	0.030
-467.172	56.958	0.103	0.101
-466.157	-59.345	-0.175	0.075
-465.143	-105.903	0.166	0.038
-464.128	-7.827	-0.062	0.042
-463.113	-164.095	-0.103	-0.005
-462.099	136.708	0.223	0.292
-461.084	-139.163	0.274	-0.030
-460.070	-11.266	-0.112	0.074
-459.055	-200.000	0.026	0.124
-458.040	4.529	0.275	-0.202
-457.026	-200.000	0.004	0.093
-456.011	159.569	0.079	-0.110
-454.997	208.630	-0.082	-0.128
-453.982	-200.000	-0.268	-0.000
-452.968	167.418	-0.069	0.098
-451.953	-129.344	0.051	0.007
-450.938	-77.260	-0.099	0.035
-449.924	-148.916	0.062	0.005
-448.909	-200.000	0.069	-0.424
-447.895	4.243	0.143	-0.105
-446.880	-200.000	-0.058	0.469
-445.865	-75.658	0.245	0.087
-444.851	-147.382	0.134	0.011
-443.836	-2.863	-0.078	-0.055
-442.822	-200.000	-0.027	0.130
-441.807	800.000	-0.061	-0.173
-440.792	15.135	0.179	-0.140
-439.778	-78.024	-0.121	0.042
-438.763	265.120	-0.088	-0.154
-437.749	-88.790	-0.302	0.090
-436.734	-62.032	0.214	0.090
-435.719	-65.091	-0.162	-0.065
-434.705	182.539	0.194	0.287
-433.690	22.214	0.140	0.114
-432.676	-200.000	-0.014	-0.217
-431.661	-6.736	0.128	-0.087
-430.646	-33.782	-0.353	-0.195
-429.632	-108.602	0.255	-0.055
-428.617	216.046	-0.009	0.015
-427.603	129.123	0.043	-0.055
-426.588	-117.063	-0.153	0.028
-425.573	-49.561	0.363	0.173
-424.559	-17.144	-0.092	-0.058
-423.544	82.378	-0.262	0.285
-422.530	-17.468	0.208	0.131
-421.515	-148.701	0.271	0.022
-420.500	-147.262	0.120	-0.010
-419.486	53.383	-0.168	-0.161
-418.471	800.000	-0.113	0.323
-417.457	-66.450	-0.324	-0.129
-416.442	-200.000	0.000	-0.156
-415.428	-20.545	0.201	-0.124
-414.413	234.789	-0.022	0.036
-413.398	-13.768	0.141	-0.091
-412.384	-130.472	-0.248	0.034
-411.369	800.000	0.044	-0.139
-410.355	-200.000	0.016	0.151
-409.340	110.422	0.086	0.104
-408.325	-28.926	0.097	-0.056
-407.311	383.766	-0.100	-0.206
-406.296	800.000	-0.092	-0.365
-405.282	770.003	-0.085	0.232
-404.267	-33.671	0.117	0.065
-403.252	48.069	-0.202	0.189
-402.238	-135.290	-0.161	-0.019
-401.223	-122.701	0.053	0.009
-400.209	800.000	0.064	0.270
-399.194	-140.220	-0.063	-0.007
-398.179	453.650	-0.021	0.046
-397.165	-46.413	0.188	-0.092
-396.150	800.000	0.078	-0.215
-395.136	20.698	-0.180	0.146
-394.121	383.181	0.042	-0.086
-393.106	694.522	0.125	0.327
-392.092	-200.000	-0.004	-0.396
-391.077	-101.464	-0.075	0.018
-390.063	58.362	0.182	0.178
-389.048	90.755	0.108	0.121
-388.033	665.231	-0.077	0.200
-387.019	-82.068	0.277	-0.090
-386.004	562.894	-0.112	-0.272
-384.990	79.375	0.316	-0.339
-383.975	15.348	0.129	-0.101
-382.960	-161.099	-0.072	-0.004
-381.946	-138.380	0.380	-0.042
-380.931	-200.000	-0.019	-0.090
-379.917	-200.000	0.033	-0.224
-378.902	-200.000	-0.046	0.221
-377.888	-11.670	0.235	0.154
-376.873	-13.320	-0.153	-0.099
-375.858	-131.600	-0.166	-0.022
-374.844	-200.000	0.019	-0.279
-373.829	-180.149	-0.093	-0.002
-372.815	444.350	-0.055	-0.121
-371.800	554.553	0.137	0.330
-370.785	365.283	0.076	-0.153
-369.771	-13.238	0.048	-0.031
-368.756	-200.000	0.023	0.379
-367.742	312.985	-0.085	0.159
-366.727	245.585	-0.073	0.122
-365.712	319.556	-0.034	0.064
-364.698	128.888	-0.147	-0.187
-363.683	-98.907	0.323	-0.082
-362.669	500.926	-0.123	0.283
-361.654	-200.000	0.025	-0.146
-360.639	800.000	0.054	0.180
-359.625	200.656	0.052	0.080
-358.610	-122.984	-0.404	0.065
-357.596	-35.147	-0.069	-0.038
-356.581	-137.739	-0.186	0.021
-355.566	-200.000	-0.016	0.153
-354.552	-64.336	0.208	-0.084
-353.537	-63.541	-0.124	0.051
-352.523	-110.251	-0.243	0.051
-351.508	59.949	0.175	-0.173
-350.493	84.152	0.207	0.226
-349.479	125.358	0.229	-0.289
-348.464	732.863	-0.049	0.130
-347.450	-136.674	0.095	-0.011
-346.435	-79.870	0.065	-0.022
-345.420	52.653	0.207	0.197
-344.406	-113.758	-0.102	-0.020
-343.391	-58.907	-0.136	0.059
-342.377	-51.467	0.133	0.062
-341.362	392.310	0.031	0.065
-340.348	-200.000	0.056	0.431
-339.333	-81.426	0.137	0.045
-338.318	273.010	-0.151	0.267
-337.304	-32.742	0.066	0.037
-336.289	-92.133	-0.261	-0.073
-335.275	-200.000	0.002	0.140
-334.260	365.362	-0.180	0.362
-333.245	103.928	0.158	0.186
-332.231	138.770	-0.041	0.054
-331.216	800.000	0.129	0.387
-330.202	-98.354	0.192	-0.049
-329.187	-128.445	0.140	0.020
-328.172	-92.710	-0.195	0.055
-327.158	-200.000	-0.006	-0.059
-326.143	800.000	-0.015	0.045
-325.129	52.029	-0.131	-0.125
-324.114	-148.355	0.259	-0.021
-323.099	704.884	0.093	-0.246
-322.085	-147.806	0.246	-0.021
-321.070	-78.295	0.220	0.075
-320.056	263.050	-0.223	0.387
-319.041	-200.000	0.040	0.181
-318.026	-200.000	0.014	-0.324
-317.012	-71.853	0.328	-0.122
-315.997	24.134	0.190	0.156
-314.983	-85.060	-0.103	0.032
-313.968	133.542	-0.200	0.258
-312.953	-7.448	0.123	0.083
-311.939	-89.936	-0.137	0.040
-310.924	-36.603	-0.247	0.133
-309.910	105.866	0.178	0.209
-308.895	-139.161	-0.149	-0.016
-307.880	182.629	-0.136	0.199
-306.866	182.372	-0.031	0.045
-305.851	19.595	0.145	0.117
-304.837	-67.414	-0.062	-0.024
-303.822	56.036	0.224	-0.216
-302.807	-80.729	-0.307	0.102
-301.793	177.280	0.145	0.210
-300.778	26.266	0.323	0.269
-299.764	-120.811	0.127	-0.021
-298.749	-19.782	0.261	0.161
-297.735	800.000	-0.030	-0.092
-296.720	-171.438	0.205	0.007
-295.705	19.354	-0.106	-0.085
-294.691	-101.498	-0.120	-0.029
-293.676	800.000	0.020	-0.059
-292.662	155.691	-0.101	0.139
-291.647	-200.000	0.018	0.170
-290.632	-170.497	0.197	-0.007
-289.618	124.492	-0.163	0.205
-288.603	14.744	-0.113	-0.088
-287.589	-147.513	-0.348	-0.029
-286.574	-79.816	-0.198	0.066
-285.559	-200.000	0.027	0.239
-284.545	-30.348	0.185	0.105
-283.530	288.915	-0.099	-0.179
-282.516	-48.249	-0.226	-0.109
-281.501	-57.855	0.302	0.131
-280.486	336.580	0.159	-0.308
-279.472	462.855	0.079	-0.175
-278.457	800.000	-0.030	-0.119
-277.443	178.351	-0.134	0.195
-276.428	-80.128	-0.441	0.147
-275.413	781.025	0.053	-0.143
-274.399	28.745	0.029	0.024
-273.384	1.721	-0.096	0.069
-272.370	-109.390	0.029	-0.006
-271.355	158.493	-0.125	0.172
-270.340	13.244	-0.056	0.043
-269.326	454.363	-0.020	-0.044
-268.311	50.474	-0.205	0.193
-267.297	800.000	0.043	0.120
-266.282	-32.972	0.135	0.074
-265.267	120.304	0.106	0.131
-264.253	-200.000	-0.018	0.111
-263.238	43.749	0.183	0.167
-262.224	-200.000	0.018	-0.105
-261.209	-29.420	0.116	-0.066
-260.195	503.631	0.170	-0.392
-259.180	-200.000	0.024	0.111
-258.165	-117.900	-0.065	-0.012
-257.151	-200.000	-0.017	-0.213
-256.136	800.000	-0.063	-0.174
-255.122	-61.125	0.153	0.064
-254.107	-200.000	-0.057	-0.341
-253.092	-65.473	0.241	0.096
-252.078	-200.000	0.027	-0.225
-251.063	285.120	0.202	-0.361
-250.049	103.954	-0.160	0.187
-249.034	-70.052	-0.225	-0.085
-248.019	-139.489	0.222	-0.024
-247.005	-200.000	-0.048	0.243
-245.990	-196.476	0.114	-0.001
-244.976	51.922	-0.071	-0.067
-243.961	-132.678	0.079	0.010
-242.946	200.740	-0.184	0.282
-241.932	243.607	0.057	0.095
-240.917	-137.844	-0.130	-0.014
-239.903	-29.389	-0.090	0.051
-238.888	800.000	-0.064	0.238
-237.873	33.391	-0.119	-0.103
-236.859	21.530	0.093	-0.076
-235.844	-200.000	0.016	-0.171
-234.830	54.930	0.135	-0.129
-233.815	-200.000	0.025	-0.170
-232.800	-200.000	-0.008	0.115
-231.786	-200.000	-0.016	0.074
-230.771	63.417	0.152	0.151
-229.757	0.460	0.157	-0.112
-228.742	-166.322	0.416	-0.017
-227.727	-185.248	-0.104	0.002
-226.713	-200.000	0.005	-0.097
-225.698	-127.510	0.263	0.038
-224.684	-199.201	0.149	-0.001
-223.669	800.000	0.032	0.132
-222.655	800.000	-0.033	0.115
-221.640	-200.000	0.044	0.230
-220.625	-147.962	0.202	0.017
-219.611	-34.394	0.497	-0.271
-218.596	-147.224	-0.147	0.012
-217.582	130.995	-0.084	0.107
-216.567	26.585	-0.153	0.127
-215.552	425.332	-0.040	0.085
-214.538	68.458	-0.195	0.199
-213.523	800.000	-0.139	0.401
-212.509	-17.625	0.098	-0.061
-211.494	2.995	0.227	-0.164
-210.479	-28.035	0.267	-0.154
-209.465	-76.214	-0.180	0.063
-208.450	-146.995	0.251	-0.021
-207.436	69.515	-0.138	-0.141
-206.421	-143.892	0.281	-0.026
-205.406	800.000	-0.143	-0.410
-204.392	105.558	0.113	-0.133
-203.377	-110.488	0.140	0.029
-202.363	-31.311	-0.208	-0.116
-201.348	-68.013	-0.216	0.084
-200.333	303.038	0.020	0.036
-199.319	14.830	-0.097	0.075
-198.304	-200.000	0.026	-0.197
-197.290	-110.413	-0.178	-0.037
-196.275	-34.148	-0.178	0.097
-195.260	800.000	0.068	-0.216
-194.246	-140.426	0.481	0.050
-193.231	-89.447	-0.251	-0.073
-192.217	-49.487	0.258	0.122
-191.202	182.178	-0.095	0.139
-190.187	409.463	-0.156	-0.327
-189.173	-157.810	-0.098	0.006
-188.158	800.000	0.019	-0.068
-187.144	-161.028	-0.076	0.004
-186.129	648.525	0.023	-0.059
-185.114	-140.794	0.383	-0.039
-184.100	114.327	0.128	-0.155
-183.085	-186.904	-0.422	-0.006
-182.071	119.623	0.094	0.115
-181.056	97.964	0.140	0.160
-180.042	377.905	0.221	-0.449
-179.027	-110.174	0.378	0.078
-178.012	-9.079	0.495	-0.328
-176.998	288.193	-0.031	-0.055
-175.983	-200.000	-0.092	-0.478
-174.969	-200.000	-0.043	0.192
-173.954	112.966	-0.153	0.184
-172.939	-3.419	0.132	-0.091
-171.925	-48.832	-0.371	0.177
-170.910	-200.000	0.097	0.000
-169.896	800.000	0.053	-0.226
-168.881	292.144	0.077	-0.139
-167.866	-109.217	-0.381	-0.080
-166.852	355.112	-0.141	0.277
-165.837	-124.429	-0.268	-0.041
-164.823	-200.000	-0.022	0.249
-163.808	-200.000	0.005	-0.206
-162.793	711.919	0.060	0.157
-161.779	-18.316	-0.163	0.101
-160.764	-200.000	-0.027	-0.130
-159.750	199.774	-0.148	-0.225
-158.735	-18.508	0.283	-0.175
-157.720	-132.175	0.262	-0.034
-156.706	-200.000	0.002	0.129
-155.691	-12.187	-0.223	-0.145
-154.677	568.217	0.077	0.186
-153.662	800.000	-0.122	-0.465
-152.647	-59.350	0.099	-0.042
-151.633	-0.813	0.118	-0.083
-150.618	250.485	-0.088	-0.148
-149.604	-109.945	-0.102	-0.021
-148.589	53.738	-0.099	0.094
-147.574	800.000	0.031	0.089
-146.560	-65.440	0.135	0.054
-145.545	-77.296	-0.022	0.008
-144.531	-158.448	-0.114	-0.007
-143.516	-128.283	-0.260	-0.037
-142.502	482.716	-0.092	0.206
-141.487	84.883	0.226	-0.245
-140.472	-146.024	0.154	0.013
-139.458	188.543	0.114	-0.170
-138.443	-200.000	-0.041	-0.274
-137.429	-200.000	0.015	0.098
-136.414	-62.896	0.143	-0.058
-135.399	-35.285	0.126	-0.068
-134.385	222.863	-0.064	-0.102
-133.370	-200.000	0.054	0.348
-132.356	-134.281	-0.237	-0.029
-131.341	-147.323	0.331	0.028
-130.326	45.146	-0.233	0.212
-129.312	256.321	-0.119	-0.202
-128.297	-84.654	-0.401	0.125
-127.283	-105.722	-0.255	-0.057
-126.268	-34.970	0.135	-0.073
-125.253	-110.706	0.201	-0.041
-124.239	364.753	0.022	0.044
-123.224	572.637	0.141	-0.339
