DTS Sentinel unit serial number:	SN413079Multiplexer serial number:	ORYXHardware model number:	OX4-SRSoftware version number:	ORYX F/W v4.00 Oryx Data Collector v3.7.2.0data status	okinstallation	princeton_trtdifferential loss correction	single-endedforward channel	channel 2reverse channel	N/Adate	2019/09/13time	06:07:34forward acquisition time	60.00reverse acquisition time	0.00gamma	496.2192k internal	0.2337k external	0.2337temperature offset calibration	1.0193default loss term (dB/km)	0.3790temperature slope calibration	1.0000multiplexer offset coefficient	1.0000multiplexer slope coefficient	1.0000fibre end	0.00T internal ref (°C)	26.12T ext. ref 1 (°C)	4.09T ext. ref 2 (°C)	20.90length (m)	temperature (°C)	Stokes	anti-Stokes-747.200	-37.463	-0.205	-0.110
-746.185	177.460	0.059	0.086
-745.171	273.320	0.189	-0.334
-744.156	-75.775	-0.136	-0.048
-743.142	-127.174	-0.203	-0.030
-742.127	210.108	-0.105	0.166
-741.112	-79.121	0.069	-0.024
-740.098	780.837	-0.066	0.182
-739.083	-160.627	-0.102	0.005
-738.069	28.792	-0.245	0.209
-737.054	-22.856	0.061	-0.037
-736.039	241.537	-0.130	0.219
-735.025	96.642	0.171	-0.197
-734.010	-72.800	0.167	-0.062
-732.996	-111.898	-0.388	-0.079
-731.981	-89.157	-0.257	0.076
-730.966	-31.835	-0.138	-0.078
-729.952	-189.479	-0.494	0.006
-728.937	-200.000	-0.003	0.192
-727.923	800.000	0.068	-0.253
-726.908	-84.749	0.210	-0.066
-725.894	800.000	0.072	-0.310
-724.879	-200.000	0.013	0.163
-723.864	-31.185	0.206	-0.116
-722.850	-111.225	0.227	-0.046
-721.835	36.838	-0.221	-0.196
-720.821	5.940	-0.255	-0.189
-719.806	206.408	-0.062	-0.096
-718.791	-200.000	0.027	0.250
-717.777	-175.231	-0.194	-0.005
-716.762	-65.285	-0.260	0.105
-715.748	92.889	0.097	0.110
-714.733	-66.568	-0.203	0.081
-713.718	-129.180	0.476	-0.067
-712.704	135.774	-0.198	0.259
-711.689	-200.000	0.005	-0.081
-710.675	2.582	-0.056	0.041
-709.660	-128.444	-0.298	0.042
-708.645	-52.751	0.126	0.058
-707.631	-200.000	-0.021	0.196
-706.616	707.808	0.080	0.213
-705.602	800.000	-0.017	0.069
-704.587	-111.528	-0.109	-0.022
-703.572	31.994	-0.166	-0.144
-702.558	-200.000	-0.016	-0.175
-701.543	-200.000	0.023	-0.293
-700.529	181.237	0.123	-0.181
-699.514	-200.000	-0.016	0.251
-698.499	1.990	0.074	0.053
-697.485	371.499	-0.017	-0.035
-696.470	-58.413	0.161	0.070
-695.456	100.611	0.046	-0.053
-694.441	99.915	0.125	0.145
-693.426	-107.098	-0.238	-0.053
-692.412	78.052	-0.236	0.253
-691.397	-24.969	-0.355	-0.211
-690.383	12.131	-0.234	-0.181
-689.368	694.981	-0.140	0.367
-688.354	800.000	-0.070	-0.288
-687.339	-29.641	-0.157	-0.090
-686.324	-13.008	0.217	-0.141
-685.310	-168.207	0.226	-0.009
-684.295	-163.106	-0.207	-0.010
-683.281	-52.336	-0.046	0.021
-682.266	485.412	0.117	-0.267
-681.251	800.000	-0.063	0.225
-680.237	137.746	0.194	0.254
-679.222	-200.000	-0.006	0.041
-678.208	-200.000	0.008	-0.138
-677.193	-200.000	-0.014	-0.190
-676.178	90.271	-0.246	-0.276
-675.164	201.657	-0.203	0.314
-674.149	716.895	-0.075	0.200
-673.135	114.772	-0.179	0.219
-672.120	-37.193	-0.144	-0.077
-671.105	66.747	0.072	0.073
-670.091	104.451	0.229	0.270
-669.076	-111.936	-0.556	0.112
-668.062	-200.000	-0.012	0.056
-667.047	-200.000	0.021	-0.213
-666.032	-94.290	-0.284	-0.078
-665.018	587.288	-0.060	0.147
-664.003	-67.094	0.303	-0.120
-662.989	-200.000	-0.041	0.332
-661.974	-200.000	0.006	0.242
-660.959	-98.426	0.294	-0.075
-659.945	-200.000	-0.028	0.358
-658.930	590.378	0.090	0.222
-657.916	-200.000	0.026	-0.538
-656.901	-200.000	0.035	-0.301
-655.886	676.818	0.057	-0.148
-654.872	14.621	-0.247	-0.193
-653.857	800.000	0.157	0.496
-652.843	-1.092	-0.270	0.191
-651.828	-200.000	-0.072	0.321
-650.814	253.626	0.145	-0.247
-649.799	-138.095	-0.206	0.023
-648.784	-30.548	-0.106	-0.060
-647.770	-200.000	0.005	-0.077
-646.755	-36.495	0.077	0.042
-645.741	800.000	-0.006	-0.025
-644.726	149.040	-0.124	0.168
-643.711	754.807	-0.039	-0.106
-642.697	85.147	0.007	-0.007
-641.682	407.592	-0.089	-0.189
-640.668	-59.215	0.207	0.089
-639.653	800.000	0.034	-0.131
-638.638	331.179	-0.045	0.087
-637.624	93.532	-0.064	0.073
-636.609	-68.882	0.196	0.075
-635.595	344.219	-0.021	0.040
-634.580	230.372	-0.144	-0.235
-633.565	-59.182	0.176	-0.076
-632.551	250.152	0.218	0.370
-631.536	272.103	0.051	0.089
-630.522	-131.755	0.261	-0.034
-629.507	224.371	0.217	-0.350
-628.492	288.934	-0.126	-0.229
-627.478	317.804	-0.040	0.076
-626.463	-136.825	0.199	-0.023
-625.449	223.316	0.148	-0.239
-624.434	576.451	-0.086	-0.210
-623.419	-94.833	0.291	0.079
-622.405	-65.140	-0.458	0.184
-621.390	55.091	-0.104	-0.100
-620.376	68.209	-0.076	0.078
-619.361	164.594	0.172	-0.242
-618.346	499.251	0.201	0.464
-617.332	-200.000	-0.050	0.262
-616.317	368.018	0.221	0.445
-615.303	-200.000	-0.025	-0.235
-614.288	-17.981	0.221	-0.138
-613.273	3.705	-0.180	0.131
-612.259	-200.000	0.005	0.317
-611.244	-140.633	0.350	-0.036
-610.230	-136.885	-0.235	0.027
-609.215	38.572	-0.236	-0.210
-608.201	-173.934	-0.216	0.006
-607.186	-26.927	0.262	0.153
-606.171	-200.000	-0.005	0.080
-605.157	149.621	-0.151	0.204
-604.142	-159.808	-0.238	-0.013
-603.128	-81.315	-0.260	-0.086
-602.113	83.778	-0.118	0.128
-601.098	-166.749	0.285	-0.012
-600.084	33.775	0.238	-0.207
-599.069	-48.331	0.255	0.123
-598.055	32.152	-0.119	0.102
-597.040	4.091	-0.350	0.256
-596.025	-200.000	0.009	-0.064
-595.011	-200.000	0.005	-0.224
-593.996	5.112	0.098	0.072
-592.982	-131.010	-0.216	-0.029
-591.967	-118.056	-0.132	0.024
-590.952	-54.763	-0.231	-0.104
-589.938	-125.399	-0.167	-0.025
-588.923	467.822	-0.073	0.164
-587.909	-161.657	0.299	0.015
-586.894	-124.183	0.165	0.026
-585.879	60.307	0.168	-0.166
-584.865	-136.391	-0.341	0.040
-583.850	55.826	-0.172	0.167
-582.836	-200.000	0.030	0.222
-581.821	-46.350	0.166	0.081
-580.806	74.425	-0.141	-0.147
-579.792	-170.505	0.307	0.011
-578.777	800.000	-0.095	-0.365
-577.763	-159.035	-0.061	-0.003
-576.748	245.069	-0.038	-0.063
-575.733	350.079	-0.037	0.073
-574.719	16.332	-0.147	-0.116
-573.704	-6.200	-0.157	-0.107
-572.690	-11.425	0.222	0.146
-571.675	641.964	0.102	-0.258
-570.661	77.586	-0.161	-0.171
-569.646	28.065	0.106	-0.089
-568.631	-78.477	-0.118	-0.040
-567.617	-125.425	-0.223	-0.034
-566.602	-123.346	-0.045	-0.007
-565.588	40.886	0.136	0.122
-564.573	137.103	-0.119	-0.155
-563.558	800.000	0.028	0.120
-562.544	-58.303	0.289	-0.125
-561.529	800.000	0.018	0.073
-560.515	-43.393	0.180	0.091
-559.500	800.000	0.112	0.396
-558.485	-117.661	-0.275	-0.049
-557.471	-153.904	-0.068	-0.005
-556.456	4.753	-0.134	-0.098
-555.442	-58.987	0.214	0.092
-554.427	-121.053	-0.230	0.038
-553.412	800.000	0.113	0.375
-552.398	-200.000	-0.018	0.141
-551.383	-10.233	-0.287	-0.190
-550.369	-53.173	0.329	0.150
-549.354	-200.000	-0.033	-0.203
-548.339	-88.637	0.294	0.087
-547.325	-140.910	-0.093	-0.010
-546.310	-114.972	0.286	0.054
-545.296	-106.476	-0.195	-0.043
-544.281	-200.000	0.017	0.179
-543.266	800.000	-0.049	0.152
-542.252	49.998	-0.177	-0.167
-541.237	-93.058	0.376	-0.104
-540.223	27.067	0.166	-0.139
-539.208	800.000	-0.132	-0.395
-538.193	111.783	0.310	-0.373
-537.179	227.681	-0.376	0.609
-536.164	165.517	-0.132	-0.185
-535.150	-153.166	0.117	0.008
-534.135	-61.910	0.249	0.104
-533.121	174.921	0.082	0.118
-532.106	-39.527	0.174	-0.091
-531.091	-141.254	0.190	0.019
-530.077	-38.381	-0.191	-0.100
-529.062	464.802	0.080	-0.179
-528.048	-200.000	-0.010	0.199
-527.033	414.888	0.150	0.317
-526.018	-146.736	-0.268	-0.023
-525.004	463.357	-0.098	-0.219
-523.989	211.513	0.178	-0.279
-522.975	-69.121	0.160	-0.061
-521.960	642.556	0.106	0.269
-520.945	330.514	0.012	0.023
-519.931	-179.965	0.319	0.007
-518.916	135.440	0.396	0.513
-517.902	-200.000	-0.027	-0.128
-516.887	-121.821	-0.094	-0.015
-515.872	228.160	-0.132	0.214
-514.858	800.000	0.027	0.109
-513.843	-37.828	-0.339	-0.179
-512.829	-200.000	0.034	-0.336
-511.814	-97.644	-0.175	0.045
-510.799	-9.603	-0.374	-0.248
-509.785	-90.858	-0.104	0.030
-508.770	-48.534	0.150	-0.072
-507.756	-49.114	-0.274	-0.131
-506.741	800.000	-0.093	-0.263
-505.726	-92.201	0.134	-0.038
-504.712	46.288	-0.189	-0.174
-503.697	43.522	-0.252	-0.229
-502.683	-28.827	0.195	0.111
-501.668	-164.983	0.325	-0.014
-500.653	662.201	0.043	0.110
-499.639	173.613	-0.245	0.352
-498.624	-139.432	-0.184	0.020
-497.610	583.874	0.060	0.147
-496.595	-134.440	-0.070	-0.008
-495.581	-20.545	0.402	0.245
-494.566	-163.655	-0.307	-0.014
-493.551	5.072	-0.153	0.112
-492.537	21.513	0.241	-0.194
-491.522	-200.000	-0.019	0.221
-490.508	-200.000	-0.005	-0.299
-489.493	-78.643	-0.311	0.106
-488.478	-138.643	-0.333	-0.036
-487.464	46.934	0.057	-0.052
-486.449	68.824	-0.330	-0.336
-485.435	-72.613	-0.182	0.067
-484.420	577.891	-0.120	-0.292
-483.405	183.264	-0.148	-0.217
-482.391	64.755	-0.122	-0.123
-481.376	148.887	-0.242	0.326
-480.362	161.959	-0.263	-0.366
-479.347	-151.666	0.020	0.001
-478.332	-200.000	0.022	-0.255
-477.318	-32.234	0.302	-0.167
-476.303	-101.694	0.152	-0.037
-475.289	-83.585	-0.064	0.020
-474.274	177.235	0.099	-0.144
-473.259	-94.129	0.186	0.051
-472.245	154.155	0.194	-0.264
-471.230	-141.316	-0.088	0.009
-470.216	54.218	-0.154	-0.147
-469.201	102.430	-0.061	-0.071
-468.186	800.000	-0.115	-0.426
-467.172	-94.971	-0.125	-0.034
-466.157	800.000	0.087	-0.352
-465.143	384.716	-0.095	0.194
-464.128	-81.703	0.380	-0.124
-463.113	-117.141	0.503	0.091
-462.099	-22.602	0.100	0.060
-461.084	800.000	-0.066	-0.185
-460.070	240.221	0.116	0.192
-459.055	-200.000	-0.030	0.460
-458.040	-114.762	-0.261	-0.049
-457.026	-32.174	-0.311	0.173
-456.011	-169.381	0.321	0.012
-454.997	-156.376	0.133	0.008
-453.982	561.081	0.102	0.244
-452.968	-61.031	0.288	0.121
-451.953	266.090	0.119	0.206
-450.938	-71.054	-0.166	0.062
-449.924	253.535	0.142	0.240
-448.909	-200.000	0.031	0.194
-447.895	-7.490	0.175	0.117
-446.880	-93.857	0.189	0.052
-445.865	246.039	0.275	-0.460
-444.851	694.688	0.048	0.126
-443.836	-200.000	0.035	0.303
-442.822	-200.000	0.009	-0.305
-441.807	800.000	-0.065	-0.236
-440.792	-43.470	0.166	-0.083
-439.778	-124.256	0.245	-0.038
-438.763	-43.900	-0.204	-0.102
-437.749	17.733	-0.225	-0.178
-436.734	-28.176	0.309	0.177
-435.719	-9.911	-0.288	0.190
-434.705	29.656	-0.224	-0.189
-433.690	53.276	0.068	0.065
-432.676	-71.033	-0.050	-0.019
-431.661	-200.000	0.016	0.434
-430.646	146.883	0.155	-0.207
-429.632	279.168	0.075	0.133
-428.617	-83.563	-0.178	0.056
-427.603	-200.000	0.008	0.186
-426.588	-200.000	0.032	0.151
-425.573	-112.079	0.245	-0.049
-424.559	-69.220	0.167	-0.064
-423.544	600.223	-0.106	-0.262
-422.530	66.247	0.157	-0.158
-421.515	-35.691	0.185	0.099
-420.500	800.000	0.095	0.299
-419.486	-200.000	0.025	-0.138
-418.471	88.326	0.099	-0.109
-417.457	-200.000	-0.004	0.227
-416.442	-200.000	-0.034	-0.189
-415.428	21.180	-0.101	-0.081
-414.413	-58.400	-0.133	0.057
-413.398	-200.000	-0.006	0.122
-412.384	673.812	0.123	0.317
-411.369	-200.000	0.023	0.403
-410.355	491.746	0.095	-0.214
-409.340	-200.000	0.079	0.639
-408.325	800.000	-0.028	-0.117
-407.311	-132.781	-0.368	-0.047
-406.296	-14.020	-0.155	0.099
-405.282	62.546	0.229	-0.226
-404.267	-54.174	-0.333	0.150
-403.252	-200.000	0.024	-0.153
-402.238	-67.780	0.326	0.126
-401.223	800.000	0.034	-0.127
-400.209	234.046	0.031	0.050
-399.194	376.198	-0.170	-0.344
-398.179	-108.217	0.308	0.066
-397.165	-166.923	-0.186	0.008
-396.150	153.182	-0.031	-0.042
-395.136	32.970	0.058	-0.050
-394.121	-47.958	-0.056	-0.027
-393.106	-134.569	0.302	0.036
-392.092	-148.607	0.132	0.011
-391.077	281.463	-0.153	0.271
-390.063	-101.637	0.522	0.125
-389.048	-86.435	-0.363	0.110
-388.033	-104.620	-0.237	0.054
-387.019	800.000	-0.129	-0.359
-386.004	205.204	-0.210	-0.323
-384.990	-73.812	0.173	-0.062
-383.975	99.495	-0.281	0.322
-382.960	62.514	-0.198	-0.196
-381.946	-163.851	0.222	-0.010
-380.931	340.613	0.101	-0.196
-379.917	800.000	0.030	-0.115
-378.902	216.602	-0.043	-0.067
-377.888	-161.885	0.193	-0.010
-376.873	-92.844	-0.317	0.088
-375.858	-114.499	0.380	-0.072
-374.844	238.617	0.124	-0.204
-373.829	-119.514	0.122	0.021
-372.815	-30.040	0.095	-0.053
-371.800	45.979	-0.143	-0.131
-370.785	-103.260	0.297	-0.069
-369.771	-98.362	-0.055	0.014
-368.756	50.935	0.062	0.058
-367.742	182.127	0.096	-0.140
-366.727	-148.575	-0.059	0.005
-365.712	132.904	-0.111	-0.142
-364.698	-103.356	-0.208	-0.049
-363.683	90.868	-0.280	0.310
-362.669	800.000	-0.042	-0.153
-361.654	-85.541	-0.148	-0.045
-360.639	-55.378	0.301	0.133
-359.625	93.830	-0.145	0.163
-358.610	11.400	-0.304	-0.230
-357.596	-200.000	-0.007	0.227
-356.581	-200.000	-0.010	-0.101
-355.566	-200.000	0.012	-0.077
-354.552	738.476	-0.077	0.203
-353.537	-138.305	0.469	-0.051
-352.523	-200.000	0.022	0.183
-351.508	170.861	0.229	0.324
-350.493	-26.277	0.292	0.169
-349.479	30.069	-0.251	0.212
-348.464	-200.000	-0.005	-0.224
-347.450	238.462	-0.149	-0.244
-346.435	47.067	0.263	0.242
-345.420	-112.304	-0.268	0.053
-344.406	7.461	0.145	-0.107
-343.391	103.377	0.033	-0.038
-342.377	213.255	-0.127	0.198
-341.362	-200.000	-0.074	-0.388
-340.348	-200.000	0.026	-0.157
-339.333	-164.658	0.187	-0.008
-338.318	185.884	-0.261	0.383
-337.304	-24.804	-0.311	-0.183
-336.289	467.154	-0.104	-0.231
-335.275	159.022	0.125	0.172
-334.260	-68.354	-0.114	0.044
-333.245	528.658	0.076	-0.178
-332.231	96.280	-0.178	0.201
-331.216	8.871	0.352	0.262
-330.202	-180.920	0.246	-0.005
-329.187	582.077	-0.074	-0.179
-328.172	-56.461	-0.093	-0.041
-327.158	306.341	0.108	-0.199
-326.143	-113.509	-0.157	-0.030
-325.129	-127.840	-0.193	-0.027
-324.114	-64.708	-0.053	-0.021
-323.099	-138.705	-0.264	-0.029
-322.085	101.014	0.035	0.040
-321.070	-16.037	0.157	0.098
-320.056	231.249	0.259	0.419
-319.041	494.991	0.055	-0.125
-318.026	487.577	-0.123	0.277
-317.012	-135.552	-0.045	-0.005
-315.997	-200.000	-0.062	0.389
-314.983	87.108	0.152	-0.165
-313.968	-136.212	0.469	-0.054
-312.953	800.000	-0.070	0.196
-311.939	-32.398	-0.061	0.034
-310.924	-143.475	0.078	-0.007
-309.910	-200.000	-0.002	0.149
-308.895	-172.622	0.404	0.013
-307.880	61.682	0.056	-0.055
-306.866	46.225	0.117	0.107
-305.851	-114.306	0.257	0.049
-304.837	372.574	-0.035	-0.070
-303.822	180.721	0.160	0.232
-302.807	-113.129	-0.185	-0.036
-301.793	800.000	0.057	-0.213
-300.778	-90.918	0.276	0.078
-299.764	23.047	-0.257	0.208
-298.749	264.084	0.046	0.079
-297.735	-53.148	-0.207	-0.094
-296.720	800.000	0.039	-0.125
-295.705	-19.693	0.115	-0.070
-294.691	800.000	0.042	0.129
-293.676	410.987	-0.072	0.150
-292.662	-60.643	-0.148	0.062
-291.647	-118.310	-0.242	-0.042
-290.632	-77.228	-0.282	0.097
-289.618	424.195	0.088	-0.186
-288.603	268.052	0.084	0.146
-287.589	-72.828	0.196	0.071
-286.574	-72.089	-0.107	-0.039
-285.559	-200.000	0.004	-0.179
-284.545	-109.782	0.199	-0.041
-283.530	800.000	0.044	-0.128
-282.516	45.373	0.018	0.016
-281.501	21.313	-0.177	0.142
-280.486	22.267	0.217	0.175
-279.472	-200.000	0.008	0.063
-278.457	301.765	0.188	-0.342
-277.443	800.000	-0.067	-0.244
-276.428	-58.244	0.158	0.068
-275.413	27.944	0.302	-0.251
-274.399	800.000	-0.076	0.242
-273.384	-200.000	-0.009	0.288
-272.370	184.643	-0.036	-0.053
-271.355	14.973	-0.226	0.174
-270.340	-99.439	-0.093	0.023
-269.326	169.016	-0.157	-0.221
-268.311	-108.386	-0.234	0.050
-267.297	-200.000	0.053	-0.255
-266.282	-200.000	-0.016	0.138
-265.267	526.244	0.043	0.100
-264.253	249.782	0.190	-0.317
-263.238	15.799	-0.127	0.098
-262.224	-93.661	0.227	-0.062
-261.209	258.458	-0.152	0.258
-260.195	800.000	-0.046	0.164
-259.180	-151.268	0.159	-0.012
-258.165	144.588	-0.146	-0.192
-257.151	60.497	-0.085	0.083
-256.136	212.694	-0.128	-0.199
-255.122	320.314	-0.156	-0.292
-254.107	182.155	0.112	-0.163
-253.092	126.201	0.197	-0.245
-252.078	68.070	-0.149	-0.150
-251.063	198.191	-0.074	0.111
-250.049	-48.224	-0.108	0.051
-249.034	389.089	0.047	-0.096
-248.019	-53.786	-0.310	0.139
-247.005	553.199	-0.042	0.099
-245.990	-117.489	0.180	-0.032
-244.976	142.039	0.166	0.216
-243.961	-96.454	-0.111	0.029
-242.946	-26.278	0.233	-0.135
-241.932	113.749	-0.169	-0.202
-240.917	3.843	-0.215	-0.154
-239.903	38.484	-0.172	0.150
-238.888	-102.775	0.171	0.040
-237.873	218.977	0.057	0.090
-236.859	82.297	-0.131	0.140
-235.844	-200.000	-0.004	0.214
-234.830	-200.000	-0.003	0.201
-233.815	-200.000	-0.009	0.117
-232.800	50.720	0.309	0.288
-231.786	42.344	-0.165	-0.147
-230.771	800.000	-0.055	0.216
-229.757	-193.456	0.204	0.002
-228.742	-67.044	-0.019	-0.007
-227.727	-115.093	-0.324	-0.061
-226.713	-62.673	-0.177	-0.072
-225.698	24.024	-0.094	0.076
-224.684	601.033	0.034	-0.083
-223.669	-200.000	-0.026	-0.183
-222.655	-11.286	0.055	0.036
-221.640	-200.000	-0.021	-0.361
-220.625	557.810	-0.129	-0.306
-219.611	-13.599	-0.113	-0.072
-218.596	800.000	0.055	0.167
-217.582	-58.347	-0.277	-0.118
-216.567	-106.741	-0.247	0.054
-215.552	313.291	-0.208	0.384
-214.538	487.828	0.137	-0.307
-213.523	60.610	-0.059	-0.057
-212.509	-200.000	0.023	0.160
-211.494	-107.717	0.102	0.022
-210.479	-122.238	-0.108	0.017
-209.465	-152.911	-0.309	0.021
-208.450	-200.000	0.007	-0.030
-207.436	-133.917	0.054	0.007
-206.421	-200.000	0.014	0.083
-205.406	-109.965	0.072	0.015
-204.392	166.948	-0.163	0.228
-203.377	-37.579	-0.062	-0.033
-202.363	-37.132	0.154	0.081
-201.348	-12.931	-0.268	-0.172
-200.333	110.828	0.177	-0.209
-199.319	37.010	-0.130	-0.113
-198.304	130.794	-0.248	0.312
-197.290	800.000	0.027	-0.109
-196.275	119.392	-0.225	-0.274
-195.260	800.000	0.089	-0.365
-194.246	-56.197	-0.181	0.079
-193.231	227.720	0.112	0.179
-192.217	197.382	-0.017	-0.025
-191.202	-118.154	-0.060	0.010
-190.187	102.168	0.280	-0.322
-189.173	243.422	0.331	0.545
-188.158	129.027	0.209	-0.262
-187.144	92.229	-0.100	0.111
-186.129	301.387	-0.038	-0.070
-185.114	430.672	0.119	-0.254
-184.100	-53.587	-0.238	-0.107
-183.085	-200.000	0.019	-0.094
-182.071	-65.870	0.074	0.029
-181.056	-200.000	-0.018	0.085
-180.042	-124.611	-0.150	0.023
-179.027	-2.679	-0.227	0.156
-178.012	136.408	-0.200	-0.256
-176.998	56.292	0.169	0.161
-175.983	-78.807	-0.252	-0.084
-174.969	-200.000	-0.002	-0.017
-173.954	171.985	-0.296	-0.417
-172.939	-200.000	-0.022	0.219
-171.925	423.358	-0.092	-0.194
-170.910	1.489	-0.152	0.107
-169.896	-55.216	-0.369	-0.163
-168.881	324.534	0.075	0.140
-167.866	800.000	0.048	0.143
-166.852	800.000	0.011	-0.031
-165.837	-186.480	0.200	0.003
-164.823	-60.142	0.356	-0.149
-163.808	-200.000	-0.092	0.600
-162.793	-125.250	0.090	0.013
-161.779	800.000	0.033	-0.105
-160.764	-79.231	-0.052	-0.017
-159.750	-200.000	-0.006	0.238
-158.735	-95.149	0.357	-0.095
-157.720	-14.340	0.478	-0.302
-156.706	1.687	-0.225	0.159
-155.691	-104.855	0.163	-0.037
-154.677	-200.000	0.038	-0.179
-153.662	800.000	0.079	-0.326
-152.647	-200.000	-0.011	0.227
-151.633	-200.000	-0.049	0.327
-150.618	-200.000	0.019	0.091
-149.604	-200.000	-0.044	-0.295
-148.589	-200.000	0.034	0.290
-147.574	-116.529	0.325	0.059
-146.560	800.000	0.056	0.238
-145.545	-200.000	0.035	-0.316
-144.531	-26.301	0.169	-0.097
-143.516	46.518	0.202	0.184
-142.502	68.735	0.198	0.199
-141.487	800.000	-0.090	0.322
-140.472	-132.417	-0.172	-0.022
-139.458	-37.577	-0.187	-0.098
-138.443	49.836	0.185	0.171
-137.429	97.465	0.120	0.135
-136.414	-115.374	0.088	-0.016
-135.399	-56.865	-0.515	-0.223
-134.385	800.000	-0.049	0.212
-133.370	-200.000	0.012	-0.340
-132.356	-200.000	-0.027	-0.164
-131.341	-200.000	-0.032	0.152
-130.326	-74.209	-0.238	0.084
-129.312	-121.692	0.239	0.039
-128.297	94.873	0.155	0.173
-127.283	120.017	-0.039	-0.047
-126.268	-16.303	0.110	0.068
-125.253	80.824	-0.188	0.199
-124.239	135.884	0.229	0.292
-123.224	-22.898	0.164	-0.097
-122.210	24.147	0.342	0.277
