DTS Sentinel unit serial number:	SN413079Multiplexer serial number:	ORYXHardware model number:	OX4-SRSoftware version number:	ORYX F/W v4.00 Oryx Data Collector v3.7.2.0data status	okinstallation	princeton_trtdifferential loss correction	single-endedforward channel	channel 2reverse channel	N/Adate	2019/09/13time	05:55:35forward acquisition time	60.00reverse acquisition time	0.00gamma	496.2192k internal	0.2338k external	0.2338temperature offset calibration	1.0195default loss term (dB/km)	0.3790temperature slope calibration	1.0000multiplexer offset coefficient	1.0000multiplexer slope coefficient	1.0000fibre end	0.00T internal ref (°C)	26.17T ext. ref 1 (°C)	4.06T ext. ref 2 (°C)	20.95length (m)	temperature (°C)	Stokes	anti-Stokes-747.200	-200.000	-0.053	-0.262
-746.185	-45.507	0.118	0.059
-745.171	-133.694	-0.260	-0.033
-744.156	68.176	-0.221	0.227
-743.142	-119.897	0.332	0.057
-742.127	423.703	-0.202	0.435
-741.112	507.111	0.069	0.161
-740.098	-165.766	0.235	0.010
-739.083	-49.352	-0.343	-0.164
-738.069	135.539	0.189	0.247
-737.054	-200.000	0.046	0.275
-736.039	-113.839	-0.201	-0.039
-735.025	-140.195	0.319	0.034
-734.010	800.000	-0.010	0.032
-732.996	54.842	0.219	0.212
-731.981	-110.818	-0.185	-0.038
-730.966	-56.462	-0.173	0.077
-729.952	147.400	0.211	-0.285
-728.937	199.047	0.118	0.181
-727.923	114.053	-0.094	0.114
-726.908	37.235	0.134	0.119
-725.894	-92.236	-0.206	0.058
-724.879	537.743	-0.074	-0.176
-723.864	-69.084	-0.132	-0.051
-722.850	-200.000	0.044	0.385
-721.835	375.818	-0.091	0.186
-720.821	35.280	-0.201	-0.177
-719.806	-148.727	0.214	0.017
-718.791	96.379	0.330	-0.378
-717.777	800.000	-0.080	-0.224
-716.762	132.621	-0.293	-0.379
-715.748	-97.663	0.146	0.038
-714.733	-19.264	0.179	-0.111
-713.718	-16.926	0.026	0.016
-712.704	-200.000	0.038	-0.202
-711.689	225.647	-0.157	-0.255
-710.675	164.849	0.133	-0.189
-709.660	433.753	-0.159	-0.345
-708.645	-132.910	0.546	-0.070
-707.631	-65.832	0.115	0.046
-706.616	75.379	-0.191	-0.202
-705.602	97.481	-0.118	0.136
-704.587	-200.000	0.002	-0.035
-703.572	142.125	0.077	-0.103
-702.558	800.000	-0.078	-0.278
-701.543	19.955	-0.076	-0.062
-700.529	-98.701	0.195	-0.050
-699.514	-13.635	0.100	-0.065
-698.499	104.840	0.089	-0.105
-697.485	-21.597	-0.427	-0.261
-696.470	234.176	0.215	0.354
-695.456	83.658	-0.276	0.302
-694.441	-200.000	0.051	-0.391
-693.426	217.292	-0.151	0.241
-692.412	800.000	-0.064	-0.217
-691.397	80.965	0.171	0.185
-690.383	-200.000	0.012	0.156
-689.368	639.270	0.054	0.138
-688.354	-200.000	-0.001	0.510
-687.339	76.812	-0.187	0.199
-686.324	800.000	-0.159	-0.486
-685.310	170.504	-0.101	-0.145
-684.295	-152.850	0.159	0.011
-683.281	-200.000	-0.041	-0.320
-682.266	241.983	-0.107	-0.179
-681.251	-82.507	0.281	-0.091
-680.237	-116.576	-0.505	-0.093
-679.222	-125.781	0.158	-0.024
-678.208	-125.670	-0.256	0.039
-677.193	-62.695	0.125	-0.052
-676.178	-54.129	0.059	0.027
-675.164	175.223	0.066	-0.096
-674.149	-200.000	-0.020	0.230
-673.135	-91.166	-0.165	-0.047
-672.120	127.689	0.213	0.270
-671.105	704.633	-0.111	-0.294
-670.091	7.599	-0.228	-0.171
-669.076	65.786	0.126	-0.128
-668.062	-74.287	0.256	-0.092
-667.047	-136.989	0.160	-0.018
-666.032	120.494	0.305	0.380
-665.018	-200.000	-0.026	0.420
-664.003	-102.127	-0.053	-0.013
-662.989	-134.004	-0.220	0.027
-661.974	721.838	0.062	-0.166
-660.959	185.581	0.087	-0.130
-659.945	-21.107	-0.248	-0.152
-658.930	-115.168	0.268	0.051
-657.916	-101.079	-0.324	-0.079
-656.901	800.000	-0.034	0.148
-655.886	800.000	0.062	-0.198
-654.872	-88.145	-0.298	-0.089
-653.857	-200.000	-0.008	0.075
-652.843	-35.280	0.186	0.101
-651.828	-200.000	-0.004	-0.036
-650.814	23.559	-0.169	-0.139
-649.799	-39.136	0.104	0.055
-648.784	-172.116	0.122	0.004
-647.770	52.839	-0.135	-0.129
-646.755	-200.000	0.042	-0.282
-645.741	341.893	-0.069	-0.135
-644.726	-64.804	-0.402	-0.163
-643.711	800.000	-0.035	0.141
-642.697	-192.332	0.165	0.002
-641.682	-200.000	-0.027	-0.177
-640.668	309.364	0.058	0.108
-639.653	-151.264	0.073	-0.005
-638.638	88.917	0.186	-0.207
-637.624	350.929	-0.097	-0.193
-636.609	-5.011	0.089	0.061
-635.595	98.396	-0.138	-0.159
-634.580	-162.797	-0.074	-0.004
-633.565	-46.539	-0.240	-0.118
-632.551	-200.000	-0.024	-0.379
-631.536	-44.168	-0.116	0.058
-630.522	173.582	-0.101	-0.145
-629.507	191.683	0.043	0.065
-628.492	677.843	-0.081	0.211
-627.478	298.193	0.055	0.102
-626.463	643.787	0.080	-0.203
-625.449	-95.186	-0.283	-0.076
-624.434	-114.784	-0.108	0.021
-623.419	83.662	-0.060	-0.065
-622.405	149.769	0.061	-0.083
-621.390	-187.006	-0.193	-0.003
-620.376	54.332	-0.208	0.200
-619.361	-200.000	0.051	-0.505
-618.346	-111.546	0.107	-0.022
-617.332	162.940	0.118	0.166
-616.317	-7.652	-0.282	-0.191
-615.303	-41.482	0.033	0.017
-614.288	15.745	-0.139	-0.110
-613.273	212.392	-0.060	0.094
-612.259	-92.396	-0.037	0.010
-611.244	-119.387	-0.091	0.016
-610.230	-200.000	-0.040	-0.297
-609.215	-89.754	-0.311	0.091
-608.201	309.270	0.054	0.100
-607.186	-160.575	-0.128	-0.007
-606.171	138.845	0.112	0.147
-605.157	124.793	0.198	0.248
-604.142	313.609	-0.106	0.198
-603.128	227.165	0.092	-0.149
-602.113	127.061	0.220	-0.278
-601.098	167.938	0.056	0.080
-600.084	-43.074	-0.435	-0.220
-599.069	457.507	0.138	-0.306
-598.055	326.831	0.058	-0.112
-597.040	800.000	0.074	-0.213
-596.025	337.010	-0.268	-0.520
-595.011	-108.327	0.317	-0.068
-593.996	-23.873	-0.018	0.011
-592.982	244.611	-0.230	0.385
-591.967	57.450	0.098	0.096
-590.952	95.094	0.052	-0.059
-589.938	-39.282	0.202	0.106
-588.923	-200.000	0.012	-0.089
-587.909	-76.160	0.066	-0.023
-586.894	-38.910	0.096	-0.051
-585.879	800.000	0.079	-0.232
-584.865	22.667	0.106	-0.086
-583.850	93.410	0.048	0.055
-582.836	-143.678	0.409	0.039
-581.821	-94.729	-0.126	0.034
-580.806	-184.218	-0.171	-0.003
-579.792	800.000	-0.040	-0.169
-578.777	33.393	0.284	-0.246
-577.763	-82.697	-0.084	-0.027
-576.748	-96.054	-0.253	0.067
-575.733	-45.639	0.093	0.046
-574.719	101.342	0.130	0.151
-573.704	-137.629	-0.331	0.037
-572.690	106.024	-0.104	0.122
-571.675	14.366	0.201	-0.157
-570.661	276.712	0.196	-0.348
-569.646	-33.683	0.091	-0.050
-568.631	-69.186	-0.084	-0.032
-567.617	62.605	-0.114	-0.114
-566.602	800.000	-0.092	0.374
-565.588	-43.423	-0.389	0.196
-564.573	121.179	0.290	-0.359
-563.558	-126.053	0.209	-0.031
-562.544	-200.000	-0.041	-0.398
-561.529	-200.000	-0.053	-0.389
-560.515	133.681	0.126	-0.162
-559.500	-109.269	-0.087	0.018
-558.485	230.983	-0.177	0.289
-557.471	-98.059	0.053	-0.014
-556.456	17.557	-0.099	-0.078
-555.442	-24.227	-0.120	-0.072
-554.427	262.735	0.115	-0.199
-553.412	-44.985	-0.118	-0.059
-552.398	-200.000	0.057	-0.328
-551.383	24.548	0.308	-0.254
-550.369	170.093	-0.210	-0.300
-549.354	800.000	-0.065	-0.254
-548.339	-200.000	-0.011	-0.126
-547.325	-5.212	-0.264	-0.181
-546.310	-30.857	0.221	0.124
-545.296	7.231	-0.090	0.067
-544.281	-200.000	-0.035	0.198
-543.266	198.021	0.069	0.106
-542.252	681.798	0.043	0.112
-541.237	800.000	-0.029	-0.089
-540.223	22.408	-0.235	-0.191
-539.208	-81.076	0.437	0.144
-538.193	-62.749	0.114	0.047
-537.179	-38.186	-0.388	0.205
-536.164	800.000	-0.165	0.473
-535.150	-7.065	0.218	0.147
-534.135	115.151	-0.262	0.318
-533.121	-146.071	0.359	-0.032
-532.106	7.075	-0.043	-0.032
-531.091	-50.858	-0.049	0.023
-530.077	-154.405	0.222	-0.015
-529.062	480.528	-0.097	-0.218
-528.048	-2.026	0.065	-0.046
-527.033	344.741	0.125	0.244
-526.018	-70.268	0.181	0.069
-525.004	3.013	0.041	-0.029
-523.989	-200.000	-0.030	-0.284
-522.975	123.558	0.120	-0.149
-521.960	-161.308	0.213	0.011
-520.945	-128.603	0.261	0.037
-519.931	552.905	-0.081	-0.192
-518.916	-67.752	-0.340	0.132
-517.902	163.302	-0.078	0.109
-516.887	28.412	0.271	0.228
-515.872	87.020	-0.159	-0.175
-514.858	-2.917	0.159	-0.111
-513.843	-136.278	0.241	-0.028
-512.829	-163.541	-0.351	0.017
-511.814	-123.296	-0.105	-0.017
-510.799	191.721	0.117	0.176
-509.785	-94.677	0.231	-0.062
-508.770	72.621	-0.227	-0.235
-507.756	68.995	0.219	-0.224
-506.741	-10.351	0.179	-0.118
-505.726	-71.332	-0.226	0.084
-504.712	22.206	0.154	-0.125
-503.697	77.799	0.305	0.323
-502.683	110.570	0.259	-0.310
-501.668	59.967	-0.222	0.218
-500.653	-126.314	0.037	-0.006
-499.639	77.625	0.208	0.221
-498.624	-124.748	-0.244	0.037
-497.610	72.573	-0.328	-0.340
-496.595	-51.941	-0.228	-0.105
-495.581	98.137	-0.183	-0.209
-494.566	-16.008	-0.213	-0.135
-493.551	-88.152	-0.340	-0.101
-492.537	138.149	0.107	0.139
-491.522	-200.000	0.020	-0.128
-490.508	785.526	-0.136	-0.369
-489.493	-93.722	-0.071	-0.019
-488.478	-52.413	0.333	-0.153
-487.464	-136.039	-0.250	-0.029
-486.449	294.368	0.191	-0.347
-485.435	480.007	0.112	0.253
-484.420	163.326	0.119	-0.167
-483.405	178.091	0.139	-0.201
-482.391	800.000	0.049	-0.161
-481.376	200.954	0.090	0.137
-480.362	-131.290	-0.311	-0.041
-479.347	117.726	-0.143	0.174
-478.332	-200.000	0.038	-0.182
-477.318	-95.698	-0.166	-0.044
-476.303	315.721	0.060	0.113
-475.289	231.945	-0.161	0.263
-474.274	-72.548	0.402	0.147
-473.259	-15.007	-0.098	0.062
-472.245	62.976	0.249	0.247
-471.230	-200.000	-0.027	0.176
-470.216	278.063	-0.016	-0.028
-469.201	24.593	0.167	0.137
-468.186	-147.296	0.082	0.007
-467.172	53.102	-0.302	0.287
-466.157	-200.000	0.007	-0.182
-465.143	-174.333	0.150	0.004
-464.128	-200.000	-0.021	-0.108
-463.113	-200.000	-0.324	-0.001
-462.099	30.846	0.026	0.022
-461.084	-32.293	0.252	0.140
-460.070	-147.603	0.116	0.010
-459.055	-200.000	0.034	-0.221
-458.040	158.462	-0.061	0.083
-457.026	22.451	0.151	0.122
-456.011	-100.025	-0.193	0.048
-454.997	-170.710	0.364	0.012
-453.982	-200.000	-0.043	0.189
-452.968	800.000	0.014	0.050
-451.953	1.861	-0.202	-0.145
-450.938	418.789	-0.101	0.214
-449.924	363.602	-0.132	0.264
-448.909	-155.335	-0.147	0.009
-447.895	-1.589	0.069	-0.048
-446.880	-85.442	-0.036	0.011
-445.865	-200.000	0.014	-0.219
-444.851	-29.020	0.226	0.129
-443.836	-200.000	0.019	-0.147
-442.822	-89.313	-0.130	0.038
-441.807	-46.018	0.111	-0.054
-440.792	-200.000	-0.019	-0.136
-439.778	27.364	-0.228	0.190
-438.763	706.819	-0.064	-0.167
-437.749	-152.862	-0.085	-0.006
-436.734	-34.975	0.296	0.160
-435.719	800.000	0.098	0.306
-434.705	-61.860	0.273	0.113
-433.690	-152.936	0.264	0.018
-432.676	-57.136	0.054	-0.024
-431.661	-90.047	0.156	-0.045
-430.646	360.098	-0.166	-0.329
-429.632	753.136	0.095	-0.254
-428.617	155.549	-0.250	-0.342
-427.603	212.453	-0.118	0.185
-426.588	-87.987	0.042	-0.012
-425.573	-113.980	0.325	-0.063
-424.559	-39.823	0.175	-0.091
-423.544	-77.517	0.220	0.076
-422.530	-141.936	-0.300	0.030
-421.515	-167.633	-0.314	-0.012
-420.500	49.810	-0.099	0.092
-419.486	24.448	0.253	0.207
-418.471	-121.676	-0.207	-0.034
-417.457	-200.000	-0.047	-0.318
-416.442	359.967	0.127	0.251
-415.428	-19.663	0.142	0.087
-414.413	-166.020	0.225	0.009
-413.398	371.219	0.069	0.138
-412.384	71.202	0.087	-0.089
-411.369	-173.186	-0.354	-0.011
-410.355	23.976	0.199	-0.163
-409.340	-180.654	0.274	-0.006
-408.325	-200.000	-0.014	-0.078
-407.311	-200.000	-0.030	-0.430
-406.296	-110.721	0.277	-0.057
-405.282	800.000	-0.086	-0.266
-404.267	800.000	0.084	-0.267
-403.252	211.227	-0.047	-0.073
-402.238	-151.775	0.043	0.003
-401.223	-108.135	0.160	0.034
-400.209	2.722	-0.248	-0.178
-399.194	800.000	0.011	0.048
-398.179	-98.469	0.112	-0.028
-397.165	56.931	-0.197	0.190
-396.150	-49.151	-0.456	-0.216
-395.136	118.840	-0.211	-0.259
-394.121	-123.932	0.199	-0.031
-393.106	-107.900	-0.144	0.031
-392.092	-17.027	0.213	0.133
-391.077	372.632	-0.048	0.096
-390.063	-89.076	0.039	-0.011
-389.048	402.071	-0.243	-0.506
-388.033	-98.422	0.363	-0.092
-387.019	713.047	-0.049	-0.127
-386.004	552.476	0.066	-0.158
-384.990	649.802	-0.045	0.114
-383.975	-200.000	-0.039	-0.216
-382.960	-98.913	-0.299	-0.075
-381.946	-130.232	-0.494	0.066
-380.931	-129.364	0.208	0.029
-379.917	53.771	0.027	-0.026
-378.902	22.695	0.143	0.116
-377.888	138.609	-0.100	0.130
-376.873	265.386	-0.061	0.104
-375.858	-147.933	0.427	0.035
-374.844	-41.391	0.336	-0.171
-373.829	-200.000	-0.037	-0.376
-372.815	-200.000	0.030	0.165
-371.800	-200.000	-0.010	-0.136
-370.785	800.000	-0.087	-0.244
-369.771	64.001	0.109	-0.108
-368.756	-91.644	0.079	-0.022
-367.742	246.968	0.065	-0.108
-366.727	800.000	0.030	0.090
-365.712	62.755	0.094	-0.093
-364.698	174.857	0.076	0.109
-363.683	358.343	0.145	0.286
-362.669	-200.000	0.013	-0.085
-361.654	94.883	0.183	-0.206
-360.639	463.244	0.184	0.407
-359.625	-57.134	-0.174	-0.076
-358.610	-107.918	0.315	-0.068
-357.596	-4.669	-0.382	-0.260
-356.581	-19.306	0.143	-0.088
-355.566	-115.449	0.142	0.026
-354.552	-172.352	0.252	-0.008
-353.537	54.238	0.182	-0.174
-352.523	-200.000	0.029	0.148
-351.508	-85.595	0.341	0.105
-350.493	-200.000	-0.071	0.310
-349.479	-169.225	-0.625	0.023
-348.464	-13.029	-0.169	0.109
-347.450	800.000	0.140	0.513
-346.435	319.970	-0.166	0.311
-345.420	26.655	-0.035	0.029
-344.406	-200.000	0.006	0.049
-343.391	453.415	0.061	0.134
-342.377	-86.855	0.351	0.106
-341.362	-103.140	0.494	0.116
-340.348	-118.233	-0.313	0.055
-339.333	800.000	-0.046	0.159
-338.318	-54.568	0.486	0.217
-337.304	11.342	0.366	0.277
-336.289	-200.000	-0.013	-0.219
-335.275	-32.363	0.141	-0.078
-334.260	97.967	-0.149	0.169
-333.245	253.013	-0.113	0.191
-332.231	140.849	-0.119	0.155
-331.216	-22.099	-0.212	-0.127
-330.202	171.570	0.221	0.313
-329.187	-200.000	0.039	0.200
-328.172	800.000	0.112	0.389
-327.158	-11.845	0.135	0.087
-326.143	312.582	-0.009	0.016
-325.129	800.000	-0.017	-0.069
-324.114	-200.000	-0.029	0.177
-323.099	-38.707	-0.262	-0.136
-322.085	-200.000	0.021	-0.183
-321.070	254.834	0.141	-0.239
-320.056	-24.340	0.161	0.095
-319.041	-67.975	0.289	-0.111
-318.026	-200.000	-0.004	-0.031
-317.012	800.000	-0.058	0.227
-315.997	-66.588	-0.250	-0.098
-314.983	-32.056	0.094	0.052
-313.968	227.260	-0.120	0.192
-312.953	-45.164	0.100	0.049
-311.939	292.584	0.253	-0.455
-310.924	65.054	-0.183	0.182
-309.910	-200.000	-0.030	0.149
-308.895	-200.000	-0.087	0.601
-307.880	-200.000	-0.028	-0.142
-306.866	-47.970	-0.088	-0.042
-305.851	-19.387	0.188	-0.115
-304.837	62.664	-0.139	0.137
-303.822	68.160	0.030	0.030
-302.807	67.741	0.110	-0.111
-301.793	-114.902	0.073	0.014
-300.778	-35.678	-0.323	0.172
-299.764	385.720	-0.143	-0.291
-298.749	767.667	0.081	0.218
-297.735	-200.000	-0.009	0.123
-296.720	113.483	-0.118	-0.141
-295.705	326.567	0.229	0.432
-294.691	76.628	0.153	0.160
-293.676	-200.000	0.016	0.199
-292.662	-200.000	0.084	0.374
-291.647	27.397	-0.363	0.301
-290.632	-200.000	0.034	0.416
-289.618	461.668	0.059	-0.130
-288.603	-121.367	0.455	0.075
-287.589	115.498	0.182	0.220
-286.574	-200.000	-0.007	0.267
-285.559	118.212	0.262	-0.319
-284.545	192.316	-0.209	-0.310
-283.530	317.965	-0.065	-0.122
-282.516	-4.275	0.132	-0.090
-281.501	-76.243	-0.186	-0.065
-280.486	-55.619	-0.222	-0.098
-279.472	800.000	0.109	0.321
-278.457	-46.782	-0.192	-0.093
-277.443	47.528	-0.128	-0.117
-276.428	3.397	-0.136	-0.097
-275.413	-151.096	-0.291	-0.022
-274.399	692.688	0.039	-0.102
-273.384	684.422	0.116	0.299
-272.370	-88.095	0.220	-0.065
-271.355	-60.781	-0.099	-0.041
-270.340	-110.095	-0.267	0.055
-269.326	-139.159	0.280	0.030
-268.311	-2.906	0.397	0.273
-267.297	573.602	-0.046	-0.110
-266.282	-77.011	0.108	-0.037
-265.267	-91.599	0.282	-0.079
-264.253	-62.963	-0.168	0.068
-263.238	135.992	-0.117	0.151
-262.224	32.386	0.076	-0.065
-261.209	-200.000	0.056	-0.271
-260.195	-200.000	-0.030	-0.193
-259.180	536.799	-0.087	-0.203
-258.165	47.503	0.117	0.108
-257.151	181.114	0.109	-0.157
-256.136	-33.044	-0.307	0.168
-255.122	-200.000	0.036	-0.275
-254.107	172.369	0.299	0.423
-253.092	363.869	-0.103	0.204
-252.078	-113.307	-0.348	0.067
-251.063	-200.000	-0.007	0.406
-250.049	-8.018	0.196	0.130
-249.034	161.917	-0.128	0.176
-248.019	-0.742	-0.132	-0.092
-247.005	-200.000	0.001	0.303
-245.990	124.698	-0.043	0.053
-244.976	-133.129	0.233	-0.029
-243.961	199.844	0.152	-0.229
-242.946	183.388	0.127	0.185
-241.932	-131.249	0.183	0.024
-240.917	-134.516	-0.214	-0.026
-239.903	80.885	0.082	0.087
-238.888	-45.928	-0.196	0.095
-237.873	-29.521	0.196	-0.110
-236.859	517.159	0.069	-0.158
-235.844	260.671	0.230	-0.391
-234.830	-99.050	-0.234	-0.058
-233.815	800.000	-0.020	-0.055
-232.800	-68.320	-0.180	-0.069
-231.786	37.646	-0.186	-0.162
-230.771	200.273	-0.107	0.161
-229.757	85.434	0.130	0.140
-228.742	-200.000	0.015	0.092
-227.727	-25.184	-0.069	0.040
-226.713	180.408	-0.002	0.002
-225.698	108.793	-0.037	-0.044
-224.684	90.989	-0.025	-0.027
-223.669	-86.884	-0.216	0.065
-222.655	-14.857	-0.233	0.147
-221.640	3.060	0.215	0.153
-220.625	-128.566	0.063	0.009
-219.611	-168.063	-0.367	-0.014
-218.596	91.774	0.247	-0.273
-217.582	-45.396	0.131	0.064
-216.567	35.417	-0.176	0.152
-215.552	-200.000	-0.040	0.175
-214.538	5.401	0.380	0.276
-213.523	229.480	-0.128	0.205
-212.509	-33.736	0.220	0.119
-211.494	-200.000	-0.048	0.309
-210.479	-104.167	-0.243	0.056
-209.465	200.784	-0.079	0.119
-208.450	-67.946	-0.422	-0.162
-207.436	-116.633	0.140	0.025
-206.421	-200.000	0.032	0.143
-205.406	-67.711	-0.241	-0.093
-204.392	-100.579	-0.311	-0.075
-203.377	353.408	-0.047	0.092
-202.363	235.298	-0.118	0.191
-201.348	-155.461	0.318	0.020
-200.333	88.556	0.069	0.076
-199.319	-112.182	-0.119	0.023
-198.304	800.000	0.056	-0.237
-197.290	-106.116	0.179	-0.040
-196.275	-200.000	-0.011	0.218
-195.260	-97.594	-0.238	0.061
-194.246	-200.000	-0.057	0.355
-193.231	-200.000	-0.052	-0.280
-192.217	37.187	-0.115	0.100
-191.202	698.126	-0.061	0.157
-190.187	11.833	-0.291	0.219
-189.173	28.431	0.318	-0.264
-188.158	-10.031	-0.241	0.157
-187.144	88.260	-0.122	0.133
-186.129	59.567	-0.186	-0.181
-185.114	28.995	-0.258	-0.215
-184.100	32.104	-0.108	0.092
-183.085	-200.000	-0.036	0.251
-182.071	-109.873	0.325	0.067
-181.056	210.158	0.170	0.262
-180.042	43.025	0.119	0.107
-179.027	42.486	-0.086	-0.077
-178.012	-200.000	0.030	0.145
-176.998	-6.025	0.123	-0.082
-175.983	320.730	-0.105	0.195
-174.969	-95.756	-0.359	0.094
-173.954	524.084	0.022	-0.050
-172.939	12.913	0.165	0.125
-171.925	469.782	-0.147	0.324
-170.910	800.000	-0.122	-0.332
-169.896	-200.000	-0.000	0.019
-168.881	-160.257	-0.171	-0.009
-167.866	83.771	-0.170	-0.182
-166.852	-66.128	-0.078	-0.030
-165.837	-135.911	0.194	0.022
-164.823	-185.220	-0.020	0.000
-163.808	599.392	-0.106	0.258
-162.793	48.186	-0.263	-0.241
-161.779	315.963	0.181	-0.335
-160.764	299.168	-0.101	0.182
-159.750	-94.292	-0.036	-0.010
-158.735	116.349	0.041	-0.049
-157.720	-55.798	-0.107	-0.047
-156.706	573.932	-0.135	-0.322
-155.691	-61.894	0.160	-0.066
-154.677	-200.000	-0.011	-0.178
-153.662	-200.000	-0.026	0.117
-152.647	-200.000	-0.036	0.188
-151.633	800.000	-0.101	0.319
-150.618	271.079	0.030	-0.051
-149.604	52.647	0.253	-0.237
-148.589	-88.565	0.205	-0.060
-147.574	800.000	-0.072	-0.242
-146.560	-59.238	-0.181	-0.077
-145.545	-200.000	0.019	0.160
-144.531	800.000	-0.075	-0.243
-143.516	800.000	-0.076	-0.249
-142.502	-200.000	-0.029	0.176
-141.487	20.086	0.161	0.127
-140.472	-7.662	0.023	0.015
-139.458	-140.537	0.116	-0.012
-138.443	-200.000	-0.005	-0.222
-137.429	82.435	0.133	-0.141
-136.414	-200.000	-0.014	0.112
-135.399	-13.209	-0.256	0.163
-134.385	-128.481	-0.388	0.054
-133.370	-72.903	-0.193	-0.069
-132.356	-200.000	0.029	-0.154
-131.341	800.000	-0.045	0.129
-130.326	671.793	0.122	0.309
-129.312	-124.848	0.060	-0.009
-128.297	800.000	0.083	-0.312
-127.283	800.000	-0.076	-0.250
-126.268	19.267	0.233	-0.183
-125.253	68.458	0.215	0.216
-124.239	-200.000	0.008	0.203
-123.224	44.398	0.190	0.171
-122.210	116.721	0.084	0.101
-121.195	107.238	0.212	-0.247
