DTS Sentinel unit serial number:	SN413079Multiplexer serial number:	ORYXHardware model number:	OX4-SRSoftware version number:	ORYX F/W v4.00 Oryx Data Collector v3.7.2.0data status	okinstallation	princeton_trtdifferential loss correction	single-endedforward channel	channel 2reverse channel	N/Adate	2019/09/16time	12:11:35forward acquisition time	60.00reverse acquisition time	0.00gamma	496.2192k internal	0.2305k external	0.2305temperature offset calibration	0.9952default loss term (dB/km)	0.3790temperature slope calibration	1.0000multiplexer offset coefficient	1.0000multiplexer slope coefficient	1.0000fibre end	0.00T internal ref (°C)	39.00T ext. ref 1 (°C)	13.23T ext. ref 2 (°C)	36.42length (m)	temperature (°C)	Stokes	anti-Stokes-747.200	-51.530	0.184	0.087
-746.185	-200.000	-0.005	0.035
-745.171	-200.000	-0.001	0.169
-744.156	734.567	0.184	0.501
-743.142	127.234	-0.191	0.247
-742.127	397.940	-0.071	0.151
-741.112	24.756	-0.164	0.138
-740.098	-57.204	-0.323	0.145
-739.083	264.720	0.035	0.061
-738.069	112.016	-0.189	-0.232
-737.054	-200.000	0.025	0.320
-736.039	130.594	0.135	0.177
-735.025	-59.658	0.203	-0.089
-734.010	253.671	-0.294	-0.510
-732.996	-93.720	-0.359	0.101
-731.981	-35.537	-0.086	0.047
-730.966	-62.911	0.047	0.020
-729.952	-200.000	-0.012	0.054
-728.937	-26.230	-0.158	-0.094
-727.923	506.222	-0.098	0.231
-726.908	-49.222	-0.163	-0.079
-725.894	112.321	0.068	0.083
-724.879	800.000	0.064	-0.254
-723.864	47.042	-0.170	-0.161
-722.850	-200.000	0.006	-0.029
-721.835	-200.000	-0.002	0.108
-720.821	43.798	-0.138	-0.129
-719.806	595.564	-0.071	-0.178
-718.791	-200.000	0.047	-0.229
-717.777	-200.000	-0.019	0.242
-716.762	37.765	-0.176	-0.159
-715.748	-200.000	0.007	-0.035
-714.733	800.000	0.046	0.201
-713.718	191.088	-0.279	0.426
-712.704	288.040	-0.062	-0.114
-711.689	233.830	0.055	0.092
-710.675	-200.000	-0.039	-0.278
-709.660	-200.000	0.018	0.146
-708.645	800.000	0.024	-0.074
-707.631	800.000	0.105	-0.351
-706.616	-85.507	-0.202	-0.064
-705.602	-27.546	0.343	0.202
-704.587	-200.000	-0.036	0.191
-703.572	72.102	-0.208	-0.220
-702.558	-159.488	-0.195	-0.011
-701.543	77.084	0.201	0.217
-700.529	152.568	0.134	-0.186
-699.514	-35.858	-0.279	-0.154
-698.499	113.302	-0.068	-0.084
-697.485	135.656	-0.072	0.095
-696.470	-111.739	-0.241	-0.049
-695.456	-98.586	0.228	-0.059
-694.441	530.383	0.064	-0.155
-693.426	-34.285	-0.331	-0.184
-692.412	361.631	0.084	0.172
-691.397	350.105	0.087	-0.174
-690.383	-103.654	0.168	-0.040
-689.368	-11.277	-0.256	0.171
-688.354	-146.840	-0.142	-0.012
-687.339	-64.015	0.262	-0.109
-686.324	782.551	0.126	-0.351
-685.310	-63.286	-0.143	0.060
-684.295	-200.000	0.005	0.092
-683.281	29.680	0.199	-0.172
-682.266	17.160	-0.100	0.081
-681.251	800.000	-0.022	-0.091
-680.237	-122.805	0.372	0.061
-679.222	-96.032	0.161	0.044
-678.208	359.090	0.076	0.153
-677.193	-114.150	0.229	-0.045
-676.178	110.599	-0.032	0.039
-675.164	-200.000	-0.029	-0.268
-674.149	-200.000	-0.065	-0.317
-673.135	-168.203	-0.382	-0.015
-672.120	-178.171	0.276	-0.007
-671.105	36.209	-0.245	-0.220
-670.091	-48.221	0.364	-0.178
-669.076	-80.828	-0.282	0.095
-668.062	526.504	0.026	-0.063
-667.047	281.576	-0.135	0.245
-666.032	34.197	0.036	-0.032
-665.018	-63.140	-0.196	-0.082
-664.003	-140.315	-0.341	0.036
-662.989	-200.000	-0.009	-0.187
-661.974	-5.900	-0.167	-0.116
-660.959	-96.579	0.286	0.077
-659.945	169.121	-0.110	0.160
-658.930	201.952	-0.174	-0.272
-657.916	-72.846	0.279	0.104
-656.901	-36.284	-0.225	0.123
-655.886	157.326	0.107	0.150
-654.872	-200.000	-0.004	0.207
-653.857	-24.480	0.268	0.162
-652.843	-85.768	0.119	-0.038
-651.828	-200.000	-0.089	-0.426
-650.814	-8.168	-0.058	-0.040
-649.799	-45.206	0.169	0.085
-648.784	-108.670	-0.257	-0.056
-647.770	-18.934	0.125	0.079
-646.755	-87.265	0.138	-0.043
-645.741	18.078	0.106	-0.086
-644.726	159.857	0.126	-0.179
-643.711	128.502	-0.135	0.174
-642.697	162.376	-0.043	0.061
-641.682	-200.000	0.058	0.319
-640.668	-200.000	0.008	-0.046
-639.653	-200.000	0.026	-0.237
-638.638	-200.000	-0.007	0.206
-637.624	163.533	-0.140	0.199
-636.609	49.042	0.275	0.262
-635.595	340.678	-0.097	0.192
-634.580	-132.616	0.091	0.012
-633.565	-126.366	-0.136	0.021
-632.551	-88.889	-0.055	0.017
-631.536	-91.760	0.113	0.033
-630.522	-42.446	0.095	-0.049
-629.507	-199.528	0.099	-0.001
-628.492	-102.354	0.379	0.092
-627.478	-200.000	-0.011	-0.077
-626.463	22.333	-0.085	0.070
-625.449	281.651	-0.145	-0.263
-624.434	-51.923	-0.244	-0.115
-623.419	-140.646	-0.278	-0.029
-622.405	45.535	0.098	-0.092
-621.390	189.020	0.247	0.375
-620.376	-200.000	-0.018	-0.386
-619.361	-22.947	-0.472	0.289
-618.346	390.759	-0.121	0.253
-617.332	147.586	0.136	0.185
-616.317	445.816	0.063	0.141
-615.303	-200.000	0.005	0.033
-614.288	61.485	0.081	0.081
-613.273	661.575	-0.061	0.160
-612.259	103.205	0.209	0.249
-611.244	138.805	0.028	-0.037
-610.230	429.819	-0.048	0.105
-609.215	-118.355	-0.162	-0.029
-608.201	394.877	0.090	-0.191
-607.186	45.529	-0.055	-0.052
-606.171	800.000	-0.043	0.181
-605.157	-200.000	-0.029	-0.209
-604.142	-200.000	-0.016	-0.365
-603.128	614.529	-0.036	-0.091
-602.113	-200.000	-0.075	-0.354
-601.098	-124.697	0.305	-0.048
-600.084	-86.877	0.297	-0.092
-599.069	82.046	0.216	-0.237
-598.055	-164.867	-0.416	-0.019
-597.040	4.893	-0.345	0.257
-596.025	-103.010	-0.288	0.069
-595.011	84.141	0.078	-0.086
-593.996	-200.000	-0.020	0.245
-592.982	-1.556	0.472	-0.337
-591.967	-94.695	0.236	-0.065
-590.952	90.392	-0.133	0.151
-589.938	-4.034	-0.357	0.251
-588.923	8.508	-0.190	0.145
-587.909	-52.470	-0.258	-0.121
-586.894	-38.809	-0.214	-0.114
-585.879	45.952	-0.052	0.048
-584.865	376.970	-0.108	-0.223
-583.850	184.667	-0.162	0.242
-582.836	740.115	-0.213	-0.579
-581.821	-90.202	0.086	-0.025
-580.806	-200.000	-0.035	0.171
-579.792	486.341	-0.039	-0.091
-578.777	-68.762	0.315	-0.123
-577.763	-200.000	-0.009	-0.171
-576.748	-10.862	-0.108	0.072
-575.733	-13.328	-0.272	-0.178
-574.719	-40.900	0.176	-0.092
-573.704	59.388	0.305	-0.304
-572.690	399.695	0.105	-0.222
-571.675	-26.174	0.153	-0.091
-570.661	471.755	0.108	-0.246
-569.646	-93.401	0.140	-0.039
-568.631	-200.000	-0.029	-0.327
-567.617	-5.807	-0.107	0.074
-566.602	43.647	0.201	0.186
-565.588	-41.172	0.378	0.197
-564.573	-200.000	0.020	0.097
-563.558	-37.667	0.104	0.056
-562.544	-44.942	0.256	-0.129
-561.529	-200.000	0.007	-0.254
-560.515	-76.424	-0.465	-0.165
-559.500	-200.000	0.010	0.066
-558.485	324.554	0.004	-0.009
-557.471	-98.281	-0.385	0.100
-556.456	-15.852	0.263	0.169
-555.442	531.795	0.009	-0.021
-554.427	164.110	-0.205	-0.291
-553.412	-200.000	-0.080	-0.377
-552.398	350.064	0.089	-0.178
-551.383	-35.434	0.018	0.010
-550.369	800.000	-0.059	0.222
-549.354	-200.000	0.000	-0.132
-548.339	-24.838	-0.306	0.184
-547.325	-121.549	-0.247	-0.041
-546.310	-200.000	0.009	-0.094
-545.296	-200.000	-0.005	0.035
-544.281	-102.904	0.296	-0.071
-543.266	-200.000	0.009	0.294
-542.252	-113.112	0.256	-0.051
-541.237	-200.000	0.014	-0.229
-540.223	492.054	-0.060	-0.139
-539.208	-200.000	-0.009	-0.088
-538.193	150.829	0.145	0.200
-537.179	406.100	-0.068	0.144
-536.164	23.492	0.080	0.067
-535.150	275.367	0.139	-0.249
-534.135	-75.076	-0.246	-0.089
-533.121	-9.186	0.372	-0.251
-532.106	23.284	-0.206	0.171
-531.091	-23.829	-0.248	0.150
-530.077	-47.360	0.389	-0.191
-529.062	-200.000	-0.008	0.095
-528.048	-65.798	0.120	0.048
-527.033	-161.599	-0.187	-0.010
-526.018	152.101	-0.100	-0.138
-525.004	-200.000	0.066	-0.315
-523.989	-140.909	0.181	-0.019
-522.975	800.000	-0.064	-0.210
-521.960	-13.680	-0.237	0.155
-520.945	-46.555	0.249	0.123
-519.931	-109.917	0.311	-0.066
-518.916	16.092	0.173	0.138
-517.902	-200.000	-0.053	0.458
-516.887	238.892	-0.268	0.449
-515.872	76.777	0.072	0.077
-514.858	32.565	0.085	0.074
-513.843	800.000	-0.198	0.596
-512.829	56.197	-0.268	-0.263
-511.814	-200.000	0.014	0.190
-510.799	800.000	-0.030	-0.108
-509.785	-200.000	-0.014	-0.062
-508.770	-28.949	0.138	-0.080
-507.756	-140.043	-0.184	-0.020
-506.741	17.472	0.252	0.202
-505.726	98.604	0.188	0.218
-504.712	289.350	-0.096	0.175
-503.697	316.229	-0.055	-0.105
-502.683	172.531	-0.101	-0.147
-501.668	-200.000	0.009	0.364
-500.653	-122.036	0.042	-0.007
-499.639	266.427	0.060	0.106
-498.624	215.473	0.093	0.148
-497.610	219.160	-0.118	0.190
-496.595	23.691	-0.065	0.054
-495.581	800.000	-0.016	-0.065
-494.566	800.000	-0.112	0.322
-493.551	-108.516	-0.085	0.018
-492.537	-106.788	-0.118	-0.026
-491.522	-200.000	-0.019	0.386
-490.508	-84.056	0.271	-0.087
-489.493	-200.000	-0.006	0.097
-488.478	-200.000	0.026	0.146
-487.464	125.883	-0.115	0.146
-486.449	496.304	0.083	0.192
-485.435	-20.200	-0.413	0.256
-484.420	53.137	-0.328	-0.317
-483.405	800.000	0.099	-0.305
-482.391	282.224	0.076	-0.138
-481.376	272.654	0.199	0.354
-480.362	-107.450	0.322	-0.071
-479.347	521.843	0.074	0.174
-478.332	-16.732	-0.133	-0.084
-477.318	55.156	0.167	0.163
-476.303	-200.000	0.018	0.141
-475.289	-45.709	0.272	-0.135
-474.274	-83.449	-0.322	0.104
-473.259	29.734	0.183	-0.157
-472.245	514.197	0.043	0.101
-471.230	-157.646	-0.325	-0.020
-470.216	223.233	0.137	-0.223
-469.201	-135.457	0.141	-0.017
-468.186	-200.000	-0.062	0.398
-467.172	551.060	-0.128	0.309
-466.157	-27.962	-0.382	0.223
-465.143	800.000	0.025	-0.077
-464.128	-88.127	0.271	-0.082
-463.113	-57.624	-0.160	-0.071
-462.099	-200.000	0.045	-0.199
-461.084	189.642	-0.170	-0.257
-460.070	-200.000	0.025	0.247
-459.055	-82.550	-0.153	-0.050
-458.040	-200.000	-0.072	0.324
-457.026	-0.369	0.121	0.087
-456.011	800.000	0.027	0.096
-454.997	39.146	0.086	-0.077
-453.982	255.317	0.041	-0.071
-452.968	232.053	-0.118	0.195
-451.953	48.736	0.275	0.259
-450.938	74.156	-0.063	-0.066
-449.924	186.053	-0.133	0.199
-448.909	-135.375	-0.117	-0.014
-447.895	800.000	-0.034	-0.110
-446.880	177.270	-0.089	0.130
-445.865	-63.050	-0.415	0.172
-444.851	91.748	-0.134	0.152
-443.836	376.492	0.178	0.365
-442.822	-79.359	-0.061	0.021
-441.807	106.773	-0.071	-0.084
-440.792	-97.164	-0.375	0.099
-439.778	-200.000	-0.032	0.356
-438.763	35.714	-0.201	0.178
-437.749	-29.121	0.070	-0.040
-436.734	136.305	-0.241	0.316
-435.719	-200.000	-0.041	0.348
-434.705	29.059	-0.174	-0.148
-433.690	800.000	0.029	-0.109
-432.676	114.735	-0.036	0.044
-431.661	-200.000	-0.000	0.036
-430.646	-200.000	-0.010	-0.140
-429.632	-57.870	-0.105	-0.046
-428.617	215.987	-0.207	-0.331
-427.603	-136.478	-0.310	-0.036
-426.588	48.555	0.158	-0.149
-425.573	-147.324	0.577	0.049
-424.559	208.073	0.198	-0.311
-423.544	-150.272	-0.105	0.008
-422.530	-139.198	-0.043	0.005
-421.515	-200.000	-0.074	-0.330
-420.500	-200.000	-0.020	-0.215
-419.486	-200.000	0.009	0.296
-418.471	800.000	0.047	0.152
-417.457	-200.000	-0.016	-0.211
-416.442	800.000	-0.039	0.154
-415.428	-200.000	0.038	-0.386
-414.413	-200.000	0.004	0.033
-413.398	82.772	0.215	-0.235
-412.384	128.825	-0.053	0.068
-411.369	-82.511	0.050	-0.016
-410.355	-97.529	0.311	-0.081
-409.340	-200.000	0.048	-0.522
-408.325	777.212	-0.070	0.192
-407.311	713.047	0.080	0.212
-406.296	82.096	-0.195	0.213
-405.282	135.929	-0.165	-0.215
-404.267	85.302	0.148	0.163
-403.252	432.977	-0.101	0.219
-402.238	134.130	0.356	0.464
-401.223	126.365	0.061	-0.077
-400.209	539.000	-0.018	0.042
-399.194	-89.119	-0.129	0.038
-398.179	116.237	-0.106	-0.131
-397.165	397.782	0.111	0.234
-396.150	51.961	-0.285	-0.273
-395.136	108.159	0.116	0.139
-394.121	-68.852	-0.184	-0.071
-393.106	532.644	-0.093	-0.221
-392.092	-200.000	-0.043	0.196
-391.077	583.439	-0.063	-0.155
-390.063	-200.000	-0.028	0.254
-389.048	76.727	-0.171	0.182
-388.033	448.333	0.104	0.230
-387.019	-185.516	-0.173	0.003
-386.004	-191.036	-0.405	0.004
-384.990	-200.000	0.012	0.170
-383.975	-200.000	0.012	0.075
-382.960	800.000	-0.059	-0.248
-381.946	41.026	0.012	-0.011
-380.931	-200.000	0.034	-0.214
-379.917	102.319	0.107	-0.125
-378.902	54.031	-0.258	0.249
-377.888	-18.554	0.249	0.156
-376.873	69.546	-0.183	-0.189
-375.858	-120.102	0.496	-0.085
-374.844	-55.629	0.211	-0.095
-373.829	-75.660	0.104	0.037
-372.815	294.091	0.200	0.366
-371.800	46.156	0.190	-0.177
-370.785	64.694	0.217	-0.220
-369.771	-200.000	0.005	0.076
-368.756	121.686	-0.048	0.060
-367.742	109.476	-0.151	-0.181
-366.727	96.172	0.282	-0.323
-365.712	-147.797	-0.137	-0.011
-364.698	66.843	-0.149	-0.152
-363.683	678.732	-0.095	0.248
-362.669	269.006	-0.106	0.187
-361.654	-200.000	0.016	-0.469
-360.639	-200.000	0.023	-0.105
-359.625	25.492	-0.053	-0.044
-358.610	449.402	0.025	0.056
-357.596	711.692	0.087	-0.231
-356.581	158.347	0.047	-0.066
-355.566	-30.519	0.294	0.167
-354.552	10.033	0.159	0.121
-353.537	709.284	-0.144	0.381
-352.523	104.256	0.054	-0.064
-351.508	-200.000	-0.028	-0.198
-350.493	21.894	0.182	-0.149
-349.479	-200.000	0.033	-0.391
-348.464	-137.901	-0.396	0.044
-347.450	141.056	0.071	0.094
-346.435	-200.000	-0.039	0.177
-345.420	-90.284	-0.102	-0.030
-344.406	-160.954	0.479	-0.025
-343.391	-200.000	-0.035	-0.177
-342.377	385.175	0.070	-0.146
-341.362	357.956	0.135	-0.269
-340.348	-34.941	0.187	-0.102
-339.333	132.580	0.076	0.099
-338.318	800.000	0.021	0.075
-337.304	-200.000	-0.000	-0.041
-336.289	91.137	0.201	0.226
-335.275	559.425	0.181	0.437
-334.260	-50.108	0.189	0.090
-333.245	-70.449	-0.082	-0.031
-332.231	-46.695	-0.106	0.052
-331.216	-65.408	0.134	0.054
-330.202	-41.058	0.195	-0.101
-329.187	-86.789	0.149	0.045
-328.172	800.000	-0.040	0.149
-327.158	433.351	-0.087	-0.190
-326.143	-51.921	-0.155	0.072
-325.129	36.627	0.385	-0.341
-324.114	-200.000	0.004	0.230
-323.099	-16.093	0.136	0.087
-322.085	-25.685	0.217	-0.128
-321.070	-11.915	0.029	0.019
-320.056	-82.540	0.295	-0.096
-319.041	7.663	0.320	-0.239
-318.026	5.833	-0.159	0.118
-317.012	-173.952	-0.103	0.003
-315.997	-68.314	-0.190	-0.074
-314.983	111.532	-0.071	0.085
-313.968	-54.076	0.187	-0.085
-312.953	-19.628	0.209	-0.130
-311.939	-6.790	0.233	0.158
-310.924	339.013	0.135	0.264
-309.910	129.129	-0.091	0.117
-308.895	800.000	-0.080	0.239
-307.880	315.401	0.140	0.265
-306.866	225.299	-0.099	-0.160
-305.851	486.557	-0.129	-0.294
-304.837	441.418	0.060	-0.130
-303.822	-122.482	0.170	0.028
-302.807	-200.000	0.022	0.170
-301.793	34.145	0.165	0.144
-300.778	800.000	0.078	-0.281
-299.764	94.121	-0.168	-0.191
-298.749	800.000	0.072	-0.216
-297.735	800.000	-0.019	-0.067
-296.720	-12.765	0.189	0.123
-295.705	-200.000	0.046	-0.264
-294.691	-31.157	-0.271	-0.153
-293.676	-200.000	-0.000	0.120
-292.662	97.936	0.336	-0.387
-291.647	-130.115	-0.448	0.061
-290.632	180.576	-0.115	0.169
-289.618	-79.622	-0.205	-0.069
-288.603	-200.000	-0.015	-0.225
-287.589	51.596	-0.135	-0.128
-286.574	-45.347	-0.126	0.062
-285.559	-92.860	-0.174	-0.049
-284.545	-15.407	0.231	-0.148
-283.530	-200.000	-0.007	0.196
-282.516	-200.000	-0.053	0.359
-281.501	-200.000	-0.040	0.459
-280.486	153.626	-0.263	0.360
-279.472	143.225	-0.086	-0.114
-278.457	800.000	0.020	0.065
-277.443	800.000	-0.059	0.175
-276.428	-121.121	-0.077	0.013
-275.413	-59.924	-0.278	0.119
-274.399	-89.361	-0.114	0.034
-273.384	-12.013	0.134	0.088
-272.370	-200.000	-0.028	-0.261
-271.355	87.377	0.290	0.320
-270.340	198.013	0.263	-0.401
-269.326	-0.939	-0.193	-0.137
-268.311	-92.874	0.277	0.077
-267.297	-200.000	-0.018	-0.121
-266.282	636.085	0.056	0.143
-265.267	46.839	-0.337	-0.313
-264.253	-129.554	0.483	-0.067
-263.238	-115.823	-0.344	-0.064
-262.224	-99.229	0.230	-0.058
-261.209	-40.026	0.120	0.063
-260.195	-200.000	0.049	0.242
-259.180	-101.995	-0.270	0.065
-258.165	255.222	0.061	0.104
-257.151	-126.893	-0.121	-0.018
-256.136	9.260	-0.334	-0.253
-255.122	44.123	-0.090	-0.082
-254.107	-40.246	0.146	0.076
-253.092	-26.032	-0.325	-0.191
-252.078	-56.732	0.328	0.145
-251.063	-200.000	-0.036	0.208
-250.049	-98.301	0.193	-0.049
-249.034	-151.915	-0.165	-0.012
-248.019	-115.041	-0.180	0.034
-247.005	-153.810	-0.089	-0.006
-245.990	526.669	0.062	-0.147
-244.976	-97.137	0.086	0.023
-243.961	-58.086	-0.184	-0.080
-242.946	-60.721	-0.104	0.044
-241.932	-51.975	0.274	-0.127
-240.917	83.114	0.145	-0.158
-239.903	124.788	-0.036	-0.046
-238.888	32.754	0.254	-0.219
-237.873	800.000	-0.079	-0.248
-236.859	34.841	-0.110	-0.096
-235.844	-128.648	-0.466	0.066
-234.830	800.000	0.056	0.242
-233.815	800.000	0.042	0.141
-232.800	-102.042	-0.397	-0.095
-231.786	77.512	-0.242	-0.257
-230.771	-114.218	0.104	-0.020
-229.757	-200.000	0.014	-0.291
-228.742	-200.000	-0.015	-0.173
-227.727	-12.968	0.073	0.047
-226.713	-137.414	0.133	-0.015
-225.698	133.893	0.066	-0.085
-224.684	-52.470	0.083	-0.038
-223.669	-109.821	0.187	0.039
-222.655	800.000	-0.057	0.235
-221.640	800.000	0.095	0.268
-220.625	-166.506	0.603	-0.025
-219.611	521.302	0.066	-0.154
-218.596	75.963	-0.109	-0.115
-217.582	-200.000	0.016	0.080
-216.567	-191.602	0.376	-0.004
-215.552	-15.357	-0.079	0.050
-214.538	800.000	0.085	-0.307
-213.523	-200.000	0.041	-0.261
-212.509	168.640	0.211	-0.299
-211.494	83.709	0.148	0.161
-210.479	69.187	-0.236	0.241
-209.465	-174.734	-0.187	-0.005
-208.450	-200.000	-0.034	0.238
-207.436	800.000	0.029	0.108
-206.421	572.225	-0.092	-0.223
-205.406	302.928	-0.172	-0.317
-204.392	-75.612	-0.141	-0.050
-203.377	470.392	-0.153	-0.343
-202.363	-135.119	0.143	0.017
-201.348	-0.669	-0.097	0.068
-200.333	549.792	-0.132	0.314
-199.319	543.031	0.080	0.190
-198.304	28.134	0.119	-0.100
-197.290	185.176	0.231	-0.342
-196.275	265.675	-0.057	0.099
-195.260	37.609	-0.169	0.150
-194.246	-133.550	0.326	0.041
-193.231	800.000	0.061	-0.253
-192.217	778.127	0.100	-0.271
-191.202	-187.613	-0.467	-0.006
-190.187	19.570	-0.154	0.123
-189.173	620.803	-0.066	0.166
-188.158	-72.870	0.133	0.049
-187.144	154.200	0.167	-0.228
-186.129	-42.014	0.299	0.152
-185.114	229.580	0.188	0.305
-184.100	158.615	0.196	0.271
-183.085	-74.511	-0.357	-0.128
-182.071	-17.837	-0.331	-0.207
-181.056	98.039	0.144	-0.165
-180.042	-35.736	-0.129	0.069
-179.027	-34.870	-0.048	0.026
-178.012	191.919	-0.132	0.197
-176.998	-6.143	-0.288	-0.196
-175.983	177.255	0.065	0.094
-174.969	-115.099	-0.179	0.034
-173.954	-107.811	0.130	-0.028
-172.939	-124.770	-0.216	-0.033
-171.925	535.548	-0.023	0.054
-170.910	151.130	0.037	0.049
-169.896	31.486	-0.145	-0.124
-168.881	-75.213	0.229	0.081
-167.866	670.394	0.109	-0.280
-166.852	-14.112	-0.379	0.244
-165.837	57.858	0.159	0.154
-164.823	-200.000	-0.018	0.344
-163.808	191.292	-0.197	-0.295
-162.793	800.000	-0.130	-0.486
-161.779	-200.000	-0.023	-0.245
-160.764	-129.363	0.133	-0.018
-159.750	413.316	-0.006	0.013
-158.735	-200.000	-0.015	-0.206
-157.720	-19.137	0.148	-0.091
-156.706	-62.805	0.249	-0.102
-155.691	-100.216	0.306	0.076
-154.677	65.201	-0.157	0.158
-153.662	-82.180	-0.150	0.049
-152.647	-121.580	-0.261	-0.043
-151.633	-200.000	-0.062	-0.271
-150.618	256.225	-0.047	-0.080
-149.604	-200.000	-0.004	0.087
-148.589	-200.000	0.010	0.055
-147.574	91.027	0.117	0.130
-146.560	-151.041	0.239	-0.018
-145.545	37.917	0.165	0.146
-144.531	-80.400	0.492	0.163
-143.516	-17.645	-0.292	0.182
-142.502	800.000	0.063	-0.173
-141.487	-1.484	0.136	-0.095
-140.472	112.916	-0.149	-0.180
-139.458	-100.952	-0.306	0.075
-138.443	-31.765	-0.376	0.210
-137.429	153.716	-0.026	-0.036
-136.414	-29.413	-0.116	-0.066
-135.399	-81.315	-0.362	0.119
-134.385	190.713	-0.101	0.151
-133.370	-200.000	0.007	0.045
-132.356	789.747	-0.211	-0.577
-131.341	-25.425	-0.296	-0.174
-130.326	-159.521	0.498	-0.028
-129.312	-151.173	-0.182	-0.014
-128.297	-200.000	-0.001	-0.281
-127.283	-96.829	-0.193	0.050
-126.268	10.805	0.187	-0.142
-125.253	-91.749	-0.214	-0.060
-124.239	-200.000	0.030	0.186
-123.224	217.352	0.177	0.281
-122.210	-200.000	-0.024	-0.357
