DTS Sentinel unit serial number:	SN413079Multiplexer serial number:	ORYXHardware model number:	OX4-SRSoftware version number:	ORYX F/W v4.00 Oryx Data Collector v3.7.2.0data status	okinstallation	princeton_trtdifferential loss correction	single-endedforward channel	channel 2reverse channel	N/Adate	2019/09/17time	21:31:35forward acquisition time	60.00reverse acquisition time	0.00gamma	496.2192k internal	0.2342k external	0.2342temperature offset calibration	0.9983default loss term (dB/km)	0.3790temperature slope calibration	1.0000multiplexer offset coefficient	1.0000multiplexer slope coefficient	1.0000fibre end	0.00T internal ref (°C)	27.12T ext. ref 1 (°C)	0.19T ext. ref 2 (°C)	19.31length (m)	temperature (°C)	Stokes	anti-Stokes-747.200	-143.918	0.310	0.029
-746.185	800.000	-0.027	-0.106
-745.171	442.894	-0.073	-0.160
-744.156	332.816	0.205	0.397
-743.142	-200.000	0.018	-0.086
-742.127	23.599	0.091	0.075
-741.112	86.091	0.297	0.328
-740.098	632.820	-0.140	0.356
-739.083	-76.079	0.393	0.139
-738.069	-179.209	-0.204	0.005
-737.054	-31.132	-0.123	0.069
-736.039	621.078	0.052	0.131
-735.025	-62.125	0.072	-0.030
-734.010	228.322	-0.199	-0.324
-732.996	-113.095	0.046	0.009
-731.981	163.617	0.118	0.166
-730.966	800.000	-0.062	-0.254
-729.952	66.720	0.035	-0.035
-728.937	-105.508	-0.307	0.070
-727.923	-77.038	-0.083	0.029
-726.908	-50.061	-0.327	-0.155
-725.894	-64.381	0.157	0.064
-724.879	-3.977	0.154	0.107
-723.864	-72.905	-0.422	-0.155
-722.850	69.509	0.014	0.015
-721.835	319.919	-0.073	0.139
-720.821	691.482	-0.169	-0.444
-719.806	563.770	-0.187	-0.453
-718.791	-143.208	-0.159	-0.015
-717.777	-75.457	-0.197	-0.070
-716.762	-158.806	0.148	-0.008
-715.748	-200.000	0.013	-0.327
-714.733	-200.000	-0.037	-0.201
-713.718	-200.000	0.028	-0.288
-712.704	556.685	-0.044	0.106
-711.689	-103.827	-0.330	-0.077
-710.675	-140.103	-0.083	-0.009
-709.660	78.607	-0.313	0.334
-708.645	-71.346	0.295	-0.111
-707.631	-88.729	-0.300	0.089
-706.616	-200.000	0.011	-0.274
-705.602	120.173	-0.169	0.209
-704.587	-110.740	-0.063	0.013
-703.572	71.651	-0.074	0.077
-702.558	-200.000	0.001	0.051
-701.543	800.000	0.013	-0.038
-700.529	800.000	-0.063	0.210
-699.514	33.221	0.200	-0.173
-698.499	-146.128	-0.086	0.008
-697.485	-200.000	0.036	0.224
-696.470	-200.000	0.008	0.158
-695.456	-124.072	-0.108	-0.017
-694.441	-153.225	-0.352	-0.025
-693.426	-62.488	0.200	-0.083
-692.412	84.194	0.216	0.236
-691.397	13.408	0.316	0.245
-690.383	-27.097	0.126	-0.073
-689.368	800.000	0.037	-0.147
-688.354	-117.914	-0.237	0.042
-687.339	-21.228	0.213	-0.130
-686.324	174.438	0.085	0.122
-685.310	24.103	0.254	-0.209
-684.295	800.000	0.029	0.104
-683.281	36.843	-0.075	-0.066
-682.266	-200.000	-0.045	-0.299
-681.251	-21.649	-0.071	0.043
-680.237	6.048	-0.298	-0.220
-679.222	-155.476	-0.145	-0.009
-678.208	800.000	0.069	-0.211
-677.193	-200.000	0.030	-0.266
-676.178	13.483	0.041	0.032
-675.164	570.519	0.179	0.436
-674.149	34.886	0.110	0.096
-673.135	-129.416	0.564	0.078
-672.120	-91.005	0.246	0.071
-671.105	-106.926	-0.299	0.066
-670.091	151.672	0.104	0.142
-669.076	-118.619	-0.104	-0.018
-668.062	39.076	0.077	-0.068
-667.047	138.339	-0.048	-0.063
-666.032	139.232	0.130	0.171
-665.018	-25.115	-0.101	-0.060
-664.003	-0.123	-0.162	0.115
-662.989	-200.000	0.048	-0.348
-661.974	110.995	-0.119	-0.143
-660.959	-88.804	-0.138	-0.041
-659.945	-200.000	0.009	0.212
-658.930	-42.421	-0.050	0.025
-657.916	-30.438	-0.291	-0.165
-656.901	-120.996	-0.255	0.043
-655.886	-78.719	0.350	0.119
-654.872	103.667	0.268	0.315
-653.857	-200.000	-0.012	-0.148
-652.843	-82.501	0.169	0.055
-651.828	633.816	-0.129	-0.327
-650.814	475.875	-0.148	-0.335
-649.799	-55.886	-0.301	-0.134
-648.784	90.547	0.022	-0.025
-647.770	-38.659	0.039	0.020
-646.755	174.160	-0.013	0.018
-645.741	-58.767	0.044	0.019
-644.726	-122.615	-0.186	0.030
-643.711	-1.362	0.050	-0.035
-642.697	568.002	0.066	-0.161
-641.682	103.413	0.115	-0.135
-640.668	-200.000	0.042	-0.251
-639.653	-200.000	0.092	0.458
-638.638	62.620	-0.258	-0.257
-637.624	46.003	-0.319	-0.295
-636.609	27.783	0.323	0.271
-635.595	-25.979	0.269	-0.158
-634.580	-14.654	-0.106	0.068
-633.565	800.000	0.090	0.268
-632.551	2.961	-0.322	0.233
-631.536	-149.436	-0.522	-0.041
-630.522	701.836	0.067	0.176
-629.507	34.076	0.102	-0.089
-628.492	185.933	-0.145	0.215
-627.478	-32.574	0.143	-0.079
-626.463	800.000	0.055	0.209
-625.449	80.257	0.296	0.318
-624.434	155.739	0.095	0.131
-623.419	-200.000	-0.039	-0.197
-622.405	-176.401	0.095	0.002
-621.390	-200.000	0.049	-0.273
-620.376	800.000	0.022	0.096
-619.361	435.832	-0.112	0.244
-618.346	166.040	0.016	-0.023
-617.332	-72.188	0.162	0.060
-616.317	735.083	-0.125	-0.333
-615.303	-61.309	0.431	-0.181
-614.288	-200.000	-0.016	-0.175
-613.273	-90.005	0.118	-0.034
-612.259	409.885	0.080	-0.169
-611.244	86.008	0.202	-0.221
-610.230	-200.000	-0.032	0.203
-609.215	24.775	-0.144	-0.119
-608.201	800.000	0.074	-0.292
-607.186	-90.291	0.255	-0.074
-606.171	-200.000	-0.005	-0.279
-605.157	-97.195	-0.450	-0.117
-604.142	202.571	0.022	0.034
-603.128	800.000	-0.041	-0.149
-602.113	-33.198	0.278	-0.153
-601.098	97.452	-0.214	-0.245
-600.084	-200.000	0.009	-0.060
-599.069	-200.000	0.015	0.316
-598.055	67.566	0.132	-0.134
-597.040	-200.000	-0.041	0.263
-596.025	-41.318	0.337	0.173
-595.011	3.156	-0.137	-0.099
-593.996	-139.860	-0.256	-0.027
-592.982	53.899	0.239	-0.229
-591.967	-12.572	-0.112	-0.073
-590.952	-113.460	-0.489	0.095
-589.938	13.845	0.079	0.061
-588.923	-174.516	-0.406	0.012
-587.909	-59.074	0.328	-0.141
-586.894	-174.524	0.459	0.013
-585.879	-60.157	0.283	-0.120
-584.865	518.337	0.025	-0.059
-583.850	50.415	0.279	-0.263
-582.836	-54.548	-0.084	-0.038
-581.821	-200.000	-0.024	-0.194
-580.806	800.000	-0.041	0.151
-579.792	-140.473	0.232	-0.024
-578.777	-200.000	-0.004	-0.160
-577.763	-76.352	0.316	0.111
-576.748	-38.521	0.322	-0.170
-575.733	-200.000	0.009	0.101
-574.719	-58.613	0.084	-0.036
-573.704	-200.000	-0.005	-0.074
-572.690	790.545	-0.057	-0.157
-571.675	-143.396	0.323	-0.031
-570.661	-126.193	0.266	0.040
-569.646	-200.000	0.057	-0.382
-568.631	-167.816	0.220	0.009
-567.617	-50.313	0.141	0.066
-566.602	800.000	0.021	0.079
-565.588	85.664	-0.112	-0.122
-564.573	-146.159	0.186	0.016
-563.558	105.649	-0.234	-0.276
-562.544	-120.481	0.188	0.032
-561.529	-200.000	-0.007	-0.299
-560.515	800.000	-0.020	-0.085
-559.500	-50.995	-0.229	-0.107
-558.485	259.211	-0.050	0.086
-557.471	-149.892	-0.085	-0.007
-556.456	-134.804	0.172	0.021
-555.442	-0.284	-0.177	0.125
-554.427	-75.865	-0.428	-0.151
-553.412	139.097	0.149	-0.194
-552.398	-200.000	-0.016	0.107
-551.383	-200.000	-0.006	0.330
-550.369	420.346	-0.116	0.246
-549.354	-78.509	0.310	0.106
-548.339	-26.291	-0.103	0.060
-547.325	-73.269	0.248	-0.090
-546.310	-65.898	0.113	0.045
-545.296	800.000	-0.085	0.262
-544.281	-88.528	-0.397	0.118
-543.266	-143.329	-0.133	0.013
-542.252	342.967	-0.079	0.154
-541.237	32.432	-0.277	0.238
-540.223	-44.103	-0.370	-0.185
-539.208	29.346	0.171	0.144
-538.193	-200.000	0.004	-0.033
-537.179	-12.721	-0.063	-0.041
-536.164	425.347	-0.103	0.221
-535.150	-47.648	-0.149	0.072
-534.135	-81.201	0.323	-0.106
-533.121	-200.000	-0.025	0.252
-532.106	-69.669	-0.212	-0.081
-531.091	209.927	0.060	0.094
-530.077	-76.162	0.176	-0.062
-529.062	-200.000	0.013	-0.222
-528.048	800.000	0.098	-0.274
-527.033	395.854	-0.096	-0.199
-526.018	800.000	0.037	-0.126
-525.004	-5.337	0.110	-0.075
-523.989	-200.000	-0.011	0.103
-522.975	-200.000	-0.018	0.095
-521.960	54.493	-0.152	-0.145
-520.945	-165.984	0.492	0.021
-519.931	361.975	0.008	-0.016
-518.916	773.277	-0.071	-0.192
-517.902	-5.521	-0.226	-0.154
-516.887	-200.000	-0.060	-0.328
-515.872	-69.832	-0.085	0.032
-514.858	-121.814	-0.133	-0.022
-513.843	-22.272	-0.095	-0.057
-512.829	-113.661	0.041	0.008
-511.814	232.581	-0.234	-0.382
-510.799	-200.000	-0.004	0.124
-509.785	-200.000	-0.110	0.493
-508.770	-200.000	-0.019	0.316
-507.756	14.552	0.173	-0.134
-506.741	-67.084	-0.112	-0.044
-505.726	-19.851	-0.176	-0.108
-504.712	800.000	0.069	0.290
-503.697	-200.000	-0.029	0.188
-502.683	-117.499	-0.390	-0.070
-501.668	315.193	-0.118	0.220
-500.653	37.713	0.086	0.076
-499.639	-34.375	0.253	-0.138
-498.624	-117.067	0.204	-0.037
-497.610	-129.496	0.061	0.008
-496.595	-149.465	-0.160	0.013
-495.581	459.307	0.092	0.203
-494.566	-200.000	-0.002	-0.030
-493.551	64.559	-0.118	-0.118
-492.537	-65.408	-0.418	-0.167
-491.522	-200.000	0.056	-0.258
-490.508	125.101	-0.156	-0.195
-489.493	-200.000	-0.526	-0.002
-488.478	31.371	0.415	0.353
-487.464	351.516	-0.081	-0.159
-486.449	146.317	-0.031	-0.041
-485.435	7.235	-0.184	-0.136
-484.420	-24.126	-0.152	0.090
-483.405	-73.549	-0.119	0.043
-482.391	-80.837	0.259	0.085
-481.376	-200.000	-0.017	-0.469
-480.362	-97.399	0.254	-0.066
-479.347	400.974	0.108	0.224
-478.332	-15.096	0.030	-0.019
-477.318	800.000	-0.120	-0.428
-476.303	562.411	-0.066	-0.159
-475.289	-200.000	0.015	0.076
-474.274	192.645	-0.083	-0.125
-473.259	-15.678	-0.330	0.209
-472.245	-200.000	0.013	0.373
-471.230	-200.000	-0.018	0.353
-470.216	-52.605	-0.286	0.131
-469.201	-32.299	-0.174	0.096
-468.186	-82.851	-0.180	0.057
-467.172	269.904	0.102	0.178
-466.157	-200.000	-0.063	0.334
-465.143	248.796	0.160	-0.269
-464.128	-69.071	-0.252	-0.096
-463.113	-19.773	-0.320	-0.196
-462.099	800.000	0.043	0.143
-461.084	-84.357	-0.143	0.045
-460.070	-51.619	0.391	0.181
-459.055	800.000	-0.025	0.078
-458.040	205.383	0.085	0.130
-457.026	-200.000	-0.018	-0.175
-456.011	-112.058	0.166	-0.033
-454.997	-200.000	0.005	0.115
-453.982	601.542	-0.138	-0.341
-452.968	-11.122	-0.161	-0.105
-451.953	612.903	-0.151	0.374
-450.938	-35.856	-0.302	0.162
-449.924	314.588	-0.074	0.139
-448.909	-136.779	-0.404	-0.046
-447.895	800.000	0.086	0.248
-446.880	-115.104	0.390	-0.073
-445.865	-33.830	0.147	0.080
-444.851	475.396	0.044	-0.099
-443.836	16.968	0.141	0.111
-442.822	388.805	0.017	0.035
-441.807	193.081	-0.060	0.090
-440.792	-95.376	0.416	-0.111
-439.778	-121.888	-0.141	0.023
-438.763	99.659	0.040	-0.046
-437.749	217.935	-0.055	-0.087
-436.734	-73.527	-0.216	0.078
-435.719	-200.000	-0.027	0.215
-434.705	800.000	-0.091	-0.306
-433.690	-65.830	-0.284	-0.112
-432.676	72.491	-0.271	0.279
-431.661	-200.000	0.002	0.012
-430.646	-200.000	0.034	-0.258
-429.632	-28.194	0.084	0.048
-428.617	-200.000	0.024	-0.231
-427.603	-200.000	0.016	-0.180
-426.588	270.481	0.114	0.198
-425.573	252.354	-0.130	-0.220
-424.559	-122.253	0.239	0.039
-423.544	-175.565	-0.153	0.004
-422.530	800.000	-0.017	-0.065
-421.515	-87.572	-0.313	-0.093
-420.500	800.000	0.057	0.230
-419.486	-134.034	-0.289	-0.035
-418.471	534.251	0.115	0.268
-417.457	623.615	0.179	-0.447
-416.442	358.177	-0.087	-0.171
-415.428	18.324	-0.247	-0.195
-414.413	123.708	0.077	0.095
-413.398	-55.481	-0.231	-0.102
-412.384	-200.000	0.173	-0.001
-411.369	800.000	0.064	-0.275
-410.355	-89.870	0.283	0.082
-409.340	-165.631	-0.241	0.010
-408.325	88.242	0.261	-0.287
-407.311	119.196	0.215	0.262
-406.296	-200.000	-0.006	-0.086
-405.282	-200.000	0.019	0.117
-404.267	-106.126	0.123	0.027
-403.252	-39.894	0.187	-0.097
-402.238	-39.448	0.163	0.085
-401.223	-200.000	0.007	-0.117
-400.209	46.886	-0.296	-0.272
-399.194	34.292	-0.210	0.181
-398.179	-10.160	0.244	0.160
-397.165	6.677	-0.219	0.161
-396.150	-45.720	0.143	0.070
-395.136	-39.947	-0.082	0.042
-394.121	800.000	-0.107	-0.343
-393.106	728.738	0.075	-0.198
-392.092	692.834	0.030	0.077
-391.077	654.078	-0.082	0.208
-390.063	12.356	-0.260	0.198
-389.048	13.004	0.147	0.112
-388.033	-76.351	-0.381	0.132
-387.019	389.644	0.034	0.069
-386.004	340.064	0.180	0.346
-384.990	196.531	-0.200	0.301
-383.975	-110.784	-0.149	0.030
-382.960	-200.000	-0.052	-0.338
-381.946	-21.665	0.303	0.183
-380.931	74.383	0.140	0.145
-379.917	288.092	0.076	-0.137
-378.902	-200.000	0.002	-0.196
-377.888	-70.591	0.127	-0.048
-376.873	70.660	-0.029	-0.030
-375.858	-200.000	0.013	0.156
-374.844	-11.351	-0.132	-0.086
-373.829	291.199	0.094	0.169
-372.815	-53.149	-0.076	0.035
-371.800	39.536	0.143	0.127
-370.785	-200.000	-0.016	0.170
-369.771	-200.000	-0.014	0.093
-368.756	68.827	0.037	-0.037
-367.742	-200.000	0.020	-0.148
-366.727	-188.905	-0.240	-0.003
-365.712	-31.471	0.183	0.102
-364.698	762.690	0.067	0.180
-363.683	-129.717	0.168	0.023
-362.669	-167.200	-0.236	0.009
-361.654	800.000	0.018	0.053
-360.639	195.446	-0.156	-0.234
-359.625	-22.047	0.268	0.161
-358.610	96.303	-0.106	-0.120
-357.596	-200.000	-0.022	-0.103
-356.581	37.268	-0.025	0.022
-355.566	-118.322	-0.260	-0.046
-354.552	59.707	0.192	0.187
-353.537	43.800	-0.293	0.264
-352.523	29.036	0.116	-0.097
-351.508	-96.262	0.166	-0.043
-350.493	-14.255	-0.144	-0.092
-349.479	31.416	-0.260	0.221
-348.464	-200.000	0.003	-0.118
-347.450	-144.484	-0.360	-0.033
-346.435	41.436	0.105	0.094
-345.420	227.998	-0.137	0.219
-344.406	214.165	-0.088	0.137
-343.391	-33.998	-0.176	0.096
-342.377	-200.000	-0.005	0.070
-341.362	-17.652	0.073	0.045
-340.348	800.000	0.021	-0.059
-339.333	-64.186	0.148	0.060
-338.318	183.738	0.105	-0.154
-337.304	53.603	0.254	-0.241
-336.289	-200.000	-0.017	-0.110
-335.275	347.927	-0.041	0.079
-334.260	177.596	-0.159	-0.228
-333.245	-119.270	0.369	-0.063
-332.231	-9.029	0.190	0.126
-331.216	-45.383	-0.467	0.228
-330.202	348.958	-0.150	0.293
-329.187	-171.949	0.120	-0.004
-328.172	-200.000	-0.057	0.294
-327.158	-140.196	0.171	-0.018
-326.143	302.352	0.162	-0.295
-325.129	205.530	-0.110	0.168
-324.114	2.547	-0.138	0.099
-323.099	578.269	0.059	0.142
-322.085	-94.125	0.206	0.056
-321.070	-200.000	0.057	-0.335
-320.056	-200.000	0.016	-0.324
-319.041	251.793	0.070	0.117
-318.026	165.855	0.062	0.086
-317.012	-136.965	0.281	0.032
-315.997	117.716	-0.219	0.266
-314.983	488.492	0.074	-0.166
-313.968	-200.000	-0.002	-0.249
-312.953	800.000	0.023	0.066
-311.939	557.918	0.052	-0.123
-310.924	92.926	0.180	-0.200
-309.910	-157.238	-0.393	-0.023
-308.895	-74.566	0.199	0.071
-307.880	71.065	-0.118	0.121
-306.866	-184.714	0.234	-0.004
-305.851	125.057	0.222	-0.275
-304.837	107.040	-0.128	-0.150
-303.822	-200.000	0.023	-0.177
-302.807	15.923	0.194	-0.151
-301.793	-200.000	0.038	0.363
-300.778	-200.000	-0.023	0.239
-299.764	-200.000	0.008	0.333
-298.749	317.292	-0.218	-0.406
-297.735	-82.901	-0.187	0.060
-296.720	5.624	0.153	0.111
-295.705	82.757	0.101	-0.108
-294.691	319.863	-0.093	0.173
-293.676	170.092	-0.042	-0.060
-292.662	258.915	-0.027	-0.046
-291.647	-139.794	-0.187	0.020
-290.632	176.863	-0.014	-0.020
-289.618	200.002	0.053	-0.080
-288.603	59.985	0.189	-0.183
-287.589	800.000	-0.070	0.202
-286.574	-64.907	0.352	-0.140
-285.559	-200.000	-0.020	-0.538
-284.545	30.289	0.063	0.053
-283.530	266.422	0.173	0.297
-282.516	-107.361	-0.145	-0.031
-281.501	2.288	-0.186	0.133
-280.486	-106.161	0.216	0.048
-279.472	-150.921	0.262	-0.019
-278.457	250.469	0.045	-0.076
-277.443	-38.179	0.207	0.108
-276.428	253.524	-0.162	-0.272
-275.413	800.000	-0.079	-0.226
-274.399	-99.448	-0.273	0.067
-273.384	47.099	-0.038	-0.035
-272.370	340.403	-0.115	0.221
-271.355	800.000	0.026	0.091
-270.340	-200.000	-0.039	-0.268
-269.326	-35.884	0.057	-0.030
-268.311	401.718	0.131	0.270
-267.297	800.000	-0.028	0.112
-266.282	254.029	0.179	0.302
-265.267	-200.000	0.012	0.163
-264.253	201.261	-0.025	0.039
-263.238	-173.938	-0.329	-0.010
-262.224	113.358	-0.084	0.100
-261.209	686.912	0.048	-0.124
-260.195	-80.589	0.045	-0.015
-259.180	35.598	0.292	-0.252
-258.165	-118.462	0.198	0.035
-257.151	-200.000	0.002	-0.093
-256.136	779.837	0.105	0.282
-255.122	-189.473	-0.134	-0.002
-254.107	-184.925	-0.266	-0.004
-253.092	-115.976	-0.093	-0.017
-252.078	357.660	-0.082	0.160
-251.063	551.521	-0.042	0.098
-250.049	800.000	-0.041	0.155
-249.034	-175.225	-0.018	-0.000
-248.019	347.952	-0.093	0.179
-247.005	-55.742	-0.141	-0.062
-245.990	-200.000	0.039	0.194
-244.976	431.366	0.079	-0.168
-243.961	-178.009	0.386	-0.009
-242.946	155.168	0.061	-0.082
-241.932	85.442	-0.057	-0.061
-240.917	-21.410	0.074	-0.045
-239.903	87.201	-0.126	-0.137
-238.888	-80.630	0.169	0.055
-237.873	-159.460	-0.122	0.007
-236.859	-173.536	-0.082	-0.002
-235.844	-78.653	-0.329	-0.110
-234.830	-200.000	0.053	-0.325
-233.815	-54.718	-0.177	-0.078
-232.800	-200.000	0.026	-0.327
-231.786	31.440	-0.105	-0.089
-230.771	-95.876	0.281	0.074
-229.757	-85.981	-0.109	0.033
-228.742	92.425	-0.105	0.116
-227.727	74.044	0.136	-0.140
-226.713	-64.873	0.223	0.089
-225.698	-25.254	-0.351	-0.204
-224.684	-94.765	0.202	-0.054
-223.669	124.587	-0.032	-0.039
-222.655	-83.438	-0.433	0.136
-221.640	94.974	-0.233	0.260
-220.625	-37.265	-0.187	0.098
-219.611	-49.472	0.144	-0.067
-218.596	-36.399	0.133	0.070
-217.582	-87.873	-0.117	0.034
-216.567	-72.538	0.095	0.035
-215.552	-72.003	0.291	0.106
-214.538	65.463	0.092	0.092
-213.523	-158.690	0.179	0.010
-212.509	-63.937	0.290	0.116
-211.494	800.000	-0.075	0.235
-210.479	135.348	0.077	0.099
-209.465	-3.082	-0.179	0.123
-208.450	800.000	0.076	0.232
-207.436	82.704	0.196	0.209
-206.421	-59.143	-0.233	-0.099
-205.406	20.089	0.193	0.152
-204.392	125.655	-0.140	0.174
-203.377	106.845	0.164	-0.191
-202.363	-154.232	0.175	-0.012
-201.348	15.814	0.132	-0.102
-200.333	-200.000	0.017	-0.161
-199.319	-87.825	0.189	-0.056
-198.304	-111.330	-0.391	0.078
-197.290	69.575	-0.222	-0.225
-196.275	-56.556	0.301	-0.131
-195.260	-50.742	0.203	-0.094
-194.246	16.527	0.165	0.128
-193.231	-176.642	0.430	-0.011
-192.217	171.592	-0.201	0.283
-191.202	52.190	-0.219	0.205
-190.187	-51.309	0.231	-0.106
-189.173	2.342	-0.227	-0.161
-188.158	94.239	-0.064	0.071
-187.144	-200.000	-0.025	-0.216
-186.129	-115.934	0.194	0.035
-185.114	-49.835	-0.180	0.084
-184.100	800.000	0.075	0.231
-183.085	-186.984	0.295	-0.004
-182.071	593.348	-0.082	0.198
-181.056	85.846	-0.151	0.163
-180.042	800.000	-0.103	-0.305
-179.027	177.241	-0.197	-0.281
-178.012	800.000	-0.054	0.227
-176.998	-200.000	-0.055	0.275
-175.983	713.575	0.013	-0.034
-174.969	800.000	-0.042	-0.140
-173.954	800.000	-0.175	0.524
-172.939	108.177	-0.198	0.232
-171.925	800.000	0.106	-0.391
-170.910	-200.000	0.032	0.273
-169.896	-44.932	-0.362	0.176
-168.881	-80.642	0.194	0.063
-167.866	-181.386	0.198	0.004
-166.852	-85.316	0.103	-0.031
-165.837	800.000	-0.056	-0.225
-164.823	617.601	0.078	-0.193
-163.808	-148.414	0.119	0.010
-162.793	800.000	0.090	0.316
-161.779	-200.000	0.011	-0.188
-160.764	25.939	0.367	-0.300
-159.750	12.910	0.062	0.047
-158.735	-74.504	-0.073	-0.026
-157.720	-112.350	0.339	0.066
-156.706	108.555	0.143	-0.167
-155.691	-22.760	0.214	-0.126
-154.677	-98.415	-0.156	-0.039
-153.662	94.514	0.125	-0.139
-152.647	-126.631	-0.149	-0.022
-151.633	800.000	0.015	0.045
-150.618	-200.000	-0.027	0.204
-149.604	205.167	-0.072	0.109
-148.589	800.000	-0.046	-0.147
-147.574	254.907	0.359	0.601
-146.560	800.000	-0.032	-0.097
-145.545	49.330	0.222	0.205
-144.531	-200.000	0.013	0.229
-143.516	127.483	-0.094	-0.117
-142.502	-200.000	0.051	0.231
-141.487	-34.196	-0.067	-0.036
-140.472	800.000	-0.084	0.242
-139.458	800.000	0.164	0.532
-138.443	-200.000	-0.035	-0.212
-137.429	-200.000	0.034	0.196
-136.414	76.770	0.358	0.371
-135.399	-200.000	0.020	0.131
-134.385	-90.350	0.183	0.052
-133.370	-149.925	-0.397	-0.030
-132.356	-82.290	-0.048	0.015
-131.341	-22.130	0.193	0.114
-130.326	621.018	0.039	0.095
-129.312	800.000	0.054	-0.147
-128.297	-75.977	-0.364	-0.126
-127.283	106.811	-0.125	-0.145
-126.268	590.423	-0.078	0.187
-125.253	-164.065	0.080	-0.004
-124.239	-200.000	0.005	0.061
-123.224	-200.000	-0.059	0.370
-122.210	-121.937	0.210	0.034
-121.195	-31.798	0.118	-0.065
