DTS Sentinel unit serial number:	SN413079Multiplexer serial number:	ORYXHardware model number:	OX4-SRSoftware version number:	ORYX F/W v4.00 Oryx Data Collector v3.7.2.0data status	okinstallation	princeton_trtdifferential loss correction	single-endedforward channel	channel 2reverse channel	N/Adate	2019/09/14time	17:27:35forward acquisition time	60.00reverse acquisition time	0.00gamma	496.2192k internal	0.2310k external	0.2310temperature offset calibration	1.0118default loss term (dB/km)	0.3790temperature slope calibration	1.0000multiplexer offset coefficient	1.0000multiplexer slope coefficient	1.0000fibre end	0.00T internal ref (°C)	37.75T ext. ref 1 (°C)	5.04T ext. ref 2 (°C)	32.26length (m)	temperature (°C)	Stokes	anti-Stokes-747.200	-112.359	0.385	0.078
-746.185	-117.792	-0.250	-0.046
-745.171	-200.000	-0.013	-0.098
-744.156	-200.000	0.062	-0.317
-743.142	4.034	-0.253	-0.188
-742.127	800.000	-0.115	0.465
-741.112	-78.874	-0.215	0.074
-740.098	34.702	0.087	0.078
-739.083	-95.712	0.590	-0.160
-738.069	30.103	-0.126	0.110
-737.054	-200.000	0.058	-0.491
-736.039	127.456	0.227	-0.293
-735.025	290.873	0.175	0.324
-734.010	-37.605	-0.256	0.138
-732.996	-24.448	-0.270	-0.163
-731.981	26.999	-0.206	-0.175
-730.966	-100.263	0.144	-0.036
-729.952	-200.000	-0.008	0.245
-728.937	549.761	0.019	0.046
-727.923	-107.597	-0.189	-0.042
-726.908	91.211	-0.260	-0.297
-725.894	363.175	-0.088	-0.179
-724.879	800.000	-0.064	-0.269
-723.864	-142.939	-0.249	0.024
-722.850	-200.000	0.014	0.140
-721.835	146.214	-0.175	0.238
-720.821	-46.791	-0.155	0.077
-719.806	-27.015	-0.289	0.171
-718.791	800.000	0.077	-0.301
-717.777	306.110	-0.054	-0.102
-716.762	-200.000	-0.031	-0.247
-715.748	8.127	0.136	0.103
-714.733	228.077	-0.163	0.268
-713.718	-200.000	0.022	-0.288
-712.704	800.000	0.070	0.226
-711.689	-200.000	0.006	0.076
-710.675	-16.088	-0.131	0.085
-709.660	-142.680	0.358	0.035
-708.645	-200.000	0.031	0.208
-707.631	655.913	0.066	0.172
-706.616	461.044	-0.022	0.049
-705.602	-98.175	-0.074	-0.019
-704.587	-200.000	0.015	0.069
-703.572	-177.621	0.276	0.007
-702.558	307.509	-0.065	0.122
-701.543	416.719	0.098	-0.211
-700.529	242.806	0.151	-0.256
-699.514	64.243	-0.258	-0.264
-698.499	28.734	-0.058	-0.050
-697.485	182.565	0.066	0.098
-696.470	54.202	0.075	-0.073
-695.456	448.273	-0.102	0.227
-694.441	-138.271	-0.154	0.017
-693.426	37.852	-0.027	0.024
-692.412	800.000	-0.114	-0.376
-691.397	-156.138	-0.105	-0.007
-690.383	-200.000	0.035	-0.281
-689.368	33.284	-0.082	-0.072
-688.354	-102.292	-0.159	-0.039
-687.339	-153.640	-0.329	-0.023
-686.324	800.000	0.006	0.024
-685.310	-200.000	0.014	0.224
-684.295	62.042	0.124	-0.125
-683.281	125.506	-0.166	0.212
-682.266	-200.000	0.005	-0.246
-681.251	65.839	0.077	-0.079
-680.237	221.966	0.116	-0.189
-679.222	-200.000	-0.035	0.200
-678.208	-107.563	-0.094	-0.021
-677.193	367.927	-0.092	-0.188
-676.178	-162.328	-0.099	-0.005
-675.164	-83.392	-0.114	-0.037
-674.149	-105.597	0.252	-0.058
-673.135	-154.396	-0.210	-0.014
-672.120	-143.023	0.037	-0.004
-671.105	16.614	-0.216	0.173
-670.091	106.607	-0.214	-0.257
-669.076	295.316	-0.032	0.060
-668.062	-68.751	-0.386	0.151
-667.047	-200.000	0.011	0.247
-666.032	-98.262	-0.080	-0.021
-665.018	53.990	0.179	0.174
-664.003	203.546	-0.037	-0.058
-662.989	183.967	-0.034	-0.050
-661.974	197.117	0.058	0.090
-660.959	-130.026	0.401	-0.055
-659.945	-110.239	-0.347	-0.073
-658.930	-94.292	-0.350	0.097
-657.916	195.561	-0.081	-0.124
-656.901	-38.950	-0.289	0.154
-655.886	-129.995	0.288	-0.040
-654.872	-122.928	-0.051	0.008
-653.857	165.214	0.063	-0.090
-652.843	-75.682	-0.227	-0.081
-651.828	552.657	0.020	-0.049
-650.814	49.217	-0.183	0.174
-649.799	-133.257	-0.097	0.012
-648.784	800.000	0.066	-0.275
-647.770	-68.048	-0.162	0.064
-646.755	347.113	-0.110	-0.220
-645.741	-35.203	-0.130	-0.072
-644.726	-72.765	-0.416	0.155
-643.711	399.066	-0.053	0.112
-642.697	321.245	-0.050	-0.097
-641.682	51.719	0.123	-0.119
-640.668	35.177	0.076	0.067
-639.653	-64.230	0.124	-0.051
-638.638	-31.861	-0.025	0.014
-637.624	-99.834	-0.057	0.014
-636.609	97.543	0.051	0.059
-635.595	41.850	-0.101	-0.093
-634.580	22.525	-0.241	-0.200
-633.565	135.501	0.132	-0.174
-632.551	67.554	-0.145	-0.150
-631.536	-153.652	0.137	-0.010
-630.522	-70.436	0.305	0.117
-629.507	800.000	-0.011	-0.040
-628.492	315.292	-0.084	-0.160
-627.478	-46.865	0.261	-0.129
-626.463	-63.455	0.179	-0.074
-625.449	-200.000	-0.023	0.233
-624.434	36.044	-0.268	-0.239
-623.419	-166.580	-0.072	0.003
-622.405	130.857	-0.056	0.072
-621.390	-47.239	0.362	-0.178
-620.376	-118.686	0.358	0.064
-619.361	-200.000	-0.029	0.282
-618.346	-200.000	-0.001	-0.021
-617.332	800.000	-0.077	0.221
-616.317	792.188	0.138	-0.383
-615.303	269.301	0.047	-0.084
-614.288	-62.670	0.127	0.053
-613.273	-81.367	-0.297	0.099
-612.259	327.630	0.032	0.061
-611.244	-82.527	-0.083	-0.027
-610.230	639.810	0.066	-0.170
-609.215	-173.914	-0.192	-0.006
-608.201	800.000	-0.054	-0.198
-607.186	-200.000	0.264	-0.001
-606.171	39.188	0.136	0.123
-605.157	-58.858	-0.289	0.126
-604.142	85.029	-0.072	0.079
-603.128	66.120	-0.280	-0.287
-602.113	-46.278	0.244	-0.121
-601.098	800.000	-0.066	0.194
-600.084	50.780	0.164	0.157
-599.069	290.216	0.033	0.060
-598.055	-24.566	-0.164	-0.099
-597.040	-45.992	-0.105	-0.052
-596.025	800.000	-0.064	0.270
-595.011	-135.395	-0.494	-0.060
-593.996	-24.442	-0.208	0.125
-592.982	-200.000	0.133	0.001
-591.967	132.513	-0.047	-0.061
-590.952	-108.127	0.154	-0.034
-589.938	800.000	0.035	0.137
-588.923	8.835	0.125	0.095
-587.909	160.340	0.065	0.091
-586.894	-102.024	0.122	-0.030
-585.879	165.533	0.127	0.182
-584.865	-77.046	-0.175	-0.062
-583.850	491.240	-0.043	-0.099
-582.836	-200.000	0.038	-0.272
-581.821	-44.763	-0.164	0.082
-580.806	-160.029	0.316	0.017
-579.792	345.471	-0.043	0.086
-578.777	800.000	0.085	0.259
-577.763	155.470	-0.101	-0.140
-576.748	-70.123	0.186	0.072
-575.733	27.510	0.203	-0.172
-574.719	420.399	0.145	-0.313
-573.704	139.641	-0.245	-0.325
-572.690	372.555	0.120	0.247
-571.675	-95.515	0.208	-0.056
-570.661	800.000	-0.110	0.430
-569.646	294.320	0.102	0.187
-568.631	148.952	0.179	0.244
-567.617	189.062	-0.099	-0.150
-566.602	220.207	-0.190	0.307
-565.588	50.855	0.140	-0.134
-564.573	-158.438	0.293	-0.017
-563.558	81.722	-0.243	0.265
-562.544	13.325	0.071	0.056
-561.529	-200.000	0.032	0.181
-560.515	148.145	-0.114	0.155
-559.500	116.966	0.152	-0.189
-558.485	51.306	0.162	0.155
-557.471	-55.649	-0.172	-0.077
-556.456	-145.638	0.175	0.016
-555.442	-37.377	-0.189	-0.102
-554.427	68.585	0.102	0.105
-553.412	-29.397	0.147	0.085
-552.398	-124.224	0.132	-0.021
-551.383	223.883	-0.106	-0.172
-550.369	-97.518	-0.196	0.051
-549.354	800.000	-0.143	-0.463
-548.339	-200.000	-0.037	-0.313
-547.325	9.912	-0.097	-0.074
-546.310	218.145	-0.179	0.288
-545.296	-23.676	-0.202	0.122
-544.281	-200.000	0.038	0.182
-543.266	-200.000	-0.012	-0.166
-542.252	-51.932	-0.041	0.019
-541.237	-200.000	0.008	-0.126
-540.223	42.195	-0.083	0.076
-539.208	-200.000	-0.064	0.380
-538.193	58.165	-0.356	-0.351
-537.179	-132.244	0.240	-0.031
-536.164	415.178	0.063	-0.136
-535.150	-119.118	-0.360	0.063
-534.135	-200.000	-0.032	-0.219
-533.121	-154.091	0.106	-0.007
-532.106	563.880	-0.105	0.256
-531.091	-69.969	-0.300	-0.115
-530.077	-128.745	-0.205	-0.029
-529.062	-200.000	-0.024	0.244
-528.048	-106.268	0.174	0.039
-527.033	-30.440	0.163	0.093
-526.018	183.349	-0.068	-0.101
-525.004	-88.516	-0.168	-0.051
-523.989	151.809	0.208	-0.285
-522.975	13.657	-0.256	-0.200
-521.960	-200.000	-0.086	-0.000
-520.945	610.092	-0.111	-0.280
-519.931	-73.588	-0.176	0.065
-518.916	598.203	0.080	0.199
-517.902	-200.000	0.016	0.169
-516.887	124.711	-0.079	0.100
-515.872	800.000	-0.125	0.458
-514.858	800.000	-0.043	0.146
-513.843	-23.617	-0.283	-0.171
-512.829	228.897	-0.057	0.094
-511.814	-200.000	-0.028	-0.263
-510.799	-136.475	0.097	-0.011
-509.785	-120.307	0.472	-0.081
-508.770	-200.000	0.005	0.146
-507.756	-200.000	-0.038	-0.359
-506.741	-159.568	0.122	-0.007
-505.726	800.000	0.088	0.303
-504.712	-46.035	-0.205	0.102
-503.697	800.000	0.060	-0.196
-502.683	-200.000	0.007	0.057
-501.668	800.000	-0.050	-0.141
-500.653	-200.000	0.170	-0.000
-499.639	-200.000	0.027	0.273
-498.624	-44.724	0.110	-0.055
-497.610	111.459	-0.070	0.085
-496.595	32.926	0.071	0.062
-495.581	-9.505	0.116	0.078
-494.566	343.575	-0.011	0.021
-493.551	-200.000	-0.047	-0.218
-492.537	227.946	0.154	0.252
-491.522	-94.936	0.157	0.043
-490.508	-40.134	-0.149	-0.078
-489.493	128.243	0.082	-0.106
-488.478	402.715	-0.088	-0.187
-487.464	23.583	0.189	0.156
-486.449	-59.739	0.377	-0.162
-485.435	65.051	0.109	-0.111
-484.420	17.913	0.238	-0.191
-483.405	-38.038	0.395	-0.211
-482.391	575.197	0.032	-0.079
-481.376	-99.763	-0.152	-0.038
-480.362	-200.000	-0.051	-0.276
-479.347	610.822	0.085	-0.213
-478.332	-79.891	0.089	-0.030
-477.318	121.082	-0.182	0.227
-476.303	99.890	-0.144	-0.168
-475.289	412.381	-0.019	0.041
-474.274	-200.000	-0.005	0.186
-473.259	-91.298	-0.135	0.039
-472.245	14.540	-0.121	-0.095
-471.230	-200.000	-0.021	-0.254
-470.216	-40.150	0.101	0.053
-469.201	-200.000	0.004	0.458
-468.186	-200.000	-0.017	-0.167
-467.172	-3.546	0.135	-0.094
-466.157	-126.322	0.217	-0.032
-465.143	361.250	0.115	0.231
-464.128	-200.000	0.028	0.298
-463.113	-200.000	-0.001	0.391
-462.099	-200.000	0.018	0.210
-461.084	-21.210	0.416	0.255
-460.070	11.393	0.168	-0.129
-459.055	-200.000	-0.001	0.045
-458.040	72.417	-0.104	0.109
-457.026	-113.134	-0.183	-0.036
-456.011	240.095	0.194	0.324
-454.997	63.718	-0.040	0.041
-453.982	-22.961	-0.127	-0.077
-452.968	800.000	0.095	0.307
-451.953	130.875	0.320	0.413
-450.938	-97.783	-0.078	0.020
-449.924	175.172	0.112	-0.163
-448.909	282.537	0.151	-0.272
-447.895	-136.947	-0.126	-0.015
-446.880	-121.656	-0.098	0.016
-445.865	-39.037	-0.273	0.144
-444.851	-34.159	0.315	-0.174
-443.836	115.045	0.152	0.186
-442.822	-45.333	-0.191	-0.095
-441.807	-37.018	-0.067	-0.036
-440.792	49.366	-0.097	0.092
-439.778	51.782	0.224	0.214
-438.763	55.016	0.192	0.186
-437.749	-200.000	-0.013	0.133
-436.734	-77.814	-0.342	0.118
-435.719	-16.820	-0.130	-0.083
-434.705	10.081	0.324	0.247
-433.690	-187.988	-0.274	0.004
-432.676	-73.287	-0.132	0.048
-431.661	-151.610	0.220	-0.016
-430.646	-137.435	-0.208	0.024
-429.632	-116.017	-0.252	-0.047
-428.617	413.807	-0.040	-0.086
-427.603	-101.965	-0.025	0.006
-426.588	-77.120	0.213	0.074
-425.573	-89.758	-0.073	-0.022
-424.559	-200.000	0.027	-0.271
-423.544	-68.368	0.269	0.105
-422.530	-65.086	-0.219	0.089
-421.515	800.000	0.049	-0.201
-420.500	-98.425	0.163	0.042
-419.486	35.286	0.052	0.046
-418.471	-200.000	0.013	0.062
-417.457	-200.000	-0.032	-0.492
-416.442	118.610	0.044	0.054
-415.428	55.610	-0.350	-0.340
-414.413	-129.812	-0.395	-0.055
-413.398	800.000	-0.091	0.370
-412.384	-114.297	0.207	-0.040
-411.369	11.269	0.161	0.123
-410.355	148.055	0.136	0.184
-409.340	34.303	0.100	-0.088
-408.325	-121.568	-0.190	-0.032
-407.311	30.360	0.068	0.058
-406.296	13.514	-0.240	-0.187
-405.282	-88.144	-0.041	0.012
-404.267	-132.178	0.339	0.044
-403.252	-168.327	-0.116	-0.004
-402.238	-117.027	0.389	-0.071
-401.223	244.298	-0.061	-0.103
-400.209	450.042	0.186	-0.411
-399.194	-117.935	-0.251	0.045
-398.179	334.822	-0.152	-0.296
-397.165	-154.540	0.313	-0.021
-396.150	125.017	0.114	-0.144
-395.136	-200.000	0.018	0.136
-394.121	108.801	-0.185	-0.222
-393.106	-54.449	-0.142	0.064
-392.092	97.541	0.071	0.082
-391.077	-35.925	-0.196	-0.106
-390.063	98.589	0.184	-0.213
-389.048	-139.302	-0.008	0.001
-388.033	29.465	-0.129	-0.110
-387.019	44.422	-0.242	-0.223
-386.004	-200.000	-0.030	-0.166
-384.990	38.889	-0.162	-0.145
-383.975	252.875	0.106	-0.182
-382.960	-110.845	0.186	-0.038
-381.946	-200.000	0.046	0.266
-380.931	800.000	0.077	-0.232
-379.917	800.000	-0.136	-0.385
-378.902	-3.100	0.204	-0.142
-377.888	-137.071	0.308	0.035
-376.873	203.382	0.046	-0.071
-375.858	800.000	0.085	0.251
-374.844	-200.000	-0.077	0.431
-373.829	-83.876	-0.137	-0.044
-372.815	-117.810	-0.087	-0.016
-371.800	800.000	-0.090	0.266
-370.785	9.980	0.023	-0.017
-369.771	672.432	-0.127	0.329
-368.756	106.601	0.122	0.145
-367.742	615.978	0.137	0.344
-366.727	-50.146	-0.094	0.044
-365.712	800.000	0.046	-0.129
-364.698	-13.424	-0.059	0.038
-363.683	45.370	-0.224	0.206
-362.669	-200.000	-0.021	0.173
-361.654	-200.000	0.050	-0.237
-360.639	229.304	0.205	-0.335
-359.625	34.092	0.186	0.162
-358.610	-200.000	0.010	-0.084
-357.596	15.987	-0.350	-0.276
-356.581	-40.937	0.200	0.104
-355.566	29.565	-0.236	0.201
-354.552	-50.975	0.066	-0.031
-353.537	800.000	-0.105	-0.312
-352.523	571.853	-0.141	0.343
-351.508	-95.581	-0.311	0.083
-350.493	418.817	-0.019	-0.041
-349.479	-110.069	-0.164	-0.034
-348.464	-93.704	0.234	-0.065
-347.450	-200.000	0.010	-0.089
-346.435	-29.650	-0.204	-0.116
-345.420	-122.473	0.246	-0.040
-344.406	-200.000	-0.027	-0.197
-343.391	-200.000	-0.086	0.405
-342.377	104.806	-0.302	0.356
-341.362	103.489	-0.099	-0.116
-340.348	376.617	-0.065	-0.133
-339.333	-41.015	0.117	-0.060
-338.318	-14.465	0.457	-0.294
-337.304	613.743	0.092	0.231
-336.289	-111.931	-0.110	-0.022
-335.275	95.596	-0.027	-0.031
-334.260	-200.000	0.035	-0.473
-333.245	188.294	0.090	0.134
-332.231	800.000	-0.048	0.167
-331.216	8.747	-0.122	0.092
-330.202	-7.691	-0.265	0.179
-329.187	-89.335	-0.175	0.052
-328.172	98.199	-0.063	-0.073
-327.158	8.127	-0.130	0.098
-326.143	-2.247	-0.078	-0.055
-325.129	147.697	-0.190	-0.256
-324.114	25.988	0.182	-0.152
-323.099	-10.136	-0.212	-0.141
-322.085	-100.958	-0.026	0.006
-321.070	-74.437	0.083	0.030
-320.056	800.000	0.062	0.230
-319.041	326.837	-0.122	0.234
-318.026	-200.000	0.016	0.275
-317.012	452.772	0.024	0.052
-315.997	-17.026	0.256	-0.161
-314.983	-200.000	-0.026	-0.189
-313.968	20.054	-0.185	0.149
-312.953	-10.936	-0.178	0.117
-311.939	-33.701	0.129	0.071
-310.924	-200.000	-0.039	-0.228
-309.910	-52.710	-0.052	-0.024
-308.895	800.000	-0.149	0.473
-307.880	457.262	-0.173	0.385
-306.866	-160.270	-0.119	0.006
-305.851	494.843	-0.066	0.151
-304.837	577.612	-0.163	-0.398
-303.822	638.914	-0.073	-0.185
-302.807	-24.851	-0.130	-0.077
-301.793	-200.000	-0.001	-0.027
-300.778	50.166	0.226	-0.213
-299.764	-56.881	-0.177	0.078
-298.749	-200.000	-0.070	0.376
-297.735	440.781	0.033	0.072
-296.720	-37.721	0.028	0.015
-295.705	-200.000	-0.021	-0.191
-294.691	-200.000	0.015	-0.267
-293.676	-125.162	0.352	0.054
-292.662	108.605	-0.198	-0.235
-291.647	-200.000	0.001	0.017
-290.632	800.000	0.088	-0.354
-289.618	315.937	-0.146	-0.274
-288.603	-57.534	-0.144	-0.063
-287.589	-19.800	0.137	0.084
-286.574	-3.947	0.072	-0.050
-285.559	-106.233	0.078	-0.018
-284.545	-126.590	-0.195	-0.029
-283.530	-114.976	-0.324	0.062
-282.516	-200.000	-0.014	0.214
-281.501	800.000	-0.034	0.107
-280.486	-82.622	-0.077	0.025
-279.472	378.233	0.081	0.165
-278.457	140.963	0.162	0.214
-277.443	218.911	-0.161	0.257
-276.428	117.260	-0.059	0.073
-275.413	-200.000	0.045	0.294
-274.399	-54.305	0.064	-0.029
-273.384	10.283	-0.084	0.064
-272.370	-66.729	0.147	0.058
-271.355	31.001	0.189	0.161
-270.340	-200.000	0.044	0.227
-269.326	-9.478	-0.098	-0.065
-268.311	109.717	-0.120	-0.143
-267.297	-113.280	-0.368	0.072
-266.282	-200.000	0.034	0.212
-265.267	59.239	0.313	-0.307
-264.253	404.565	0.147	0.309
-263.238	-123.773	-0.037	0.006
-262.224	-184.190	-0.300	0.005
-261.209	-200.000	-0.004	-0.286
-260.195	-200.000	0.010	0.301
-259.180	-51.737	0.227	0.105
-258.165	295.648	0.107	0.196
-257.151	800.000	-0.067	0.191
-256.136	-200.000	-0.010	-0.378
-255.122	-200.000	0.012	-0.194
-254.107	-86.134	0.397	-0.122
-253.092	277.110	-0.064	-0.113
-252.078	-200.000	0.015	0.404
-251.063	53.954	0.028	0.027
-250.049	-92.538	0.271	-0.076
-249.034	800.000	-0.103	0.397
-248.019	61.694	0.277	0.275
-247.005	-158.796	0.140	0.008
-245.990	5.339	-0.273	-0.201
-244.976	46.698	0.176	-0.163
-243.961	118.611	-0.134	0.165
-242.946	800.000	0.059	0.200
-241.932	-85.842	0.156	-0.048
-240.917	696.941	-0.108	0.283
-239.903	199.243	0.187	-0.285
-238.888	-5.085	-0.182	0.125
-237.873	-200.000	-0.016	0.352
-236.859	800.000	0.090	-0.328
-235.844	210.902	-0.092	-0.144
-234.830	33.272	0.121	-0.104
-233.815	100.041	-0.284	0.328
-232.800	-32.976	0.094	0.052
-231.786	800.000	-0.039	0.112
-230.771	151.946	0.027	-0.037
-229.757	98.730	0.179	-0.206
-228.742	487.127	-0.010	0.024
-227.727	-200.000	0.006	-0.327
-226.713	-200.000	-0.002	-0.026
-225.698	389.793	-0.062	-0.128
-224.684	800.000	0.124	0.406
-223.669	89.363	-0.106	-0.118
-222.655	-87.926	-0.156	0.047
-221.640	-115.351	0.254	0.048
-220.625	-200.000	-0.135	-0.000
-219.611	29.185	0.292	-0.246
-218.596	-200.000	0.003	0.284
-217.582	60.026	-0.154	-0.151
-216.567	-131.957	-0.162	-0.021
-215.552	107.878	-0.065	-0.077
-214.538	-200.000	-0.025	-0.110
-213.523	-60.420	0.057	0.024
-212.509	72.145	-0.133	-0.138
-211.494	-157.873	0.205	0.012
-210.479	-147.726	0.012	0.001
-209.465	-200.000	0.008	0.126
-208.450	-120.738	0.045	-0.008
-207.436	-115.899	0.401	-0.074
-206.421	-200.000	0.133	-0.000
-205.406	32.256	-0.208	-0.178
-204.392	-157.623	-0.110	-0.007
-203.377	-200.000	0.002	-0.259
-202.363	-90.462	0.287	-0.083
-201.348	-102.145	-0.213	0.051
-200.333	800.000	-0.036	-0.098
-199.319	2.254	0.191	0.137
-198.304	-200.000	0.037	0.279
-197.290	-62.189	0.208	0.086
-196.275	-140.090	0.156	0.016
-195.260	37.806	-0.069	-0.061
-194.246	108.619	-0.099	0.117
-193.231	228.672	0.094	-0.152
-192.217	-63.347	-0.126	0.051
-191.202	800.000	-0.033	-0.128
-190.187	170.360	-0.040	0.057
-189.173	800.000	-0.055	-0.165
-188.158	101.978	-0.069	-0.080
-187.144	-93.250	-0.312	-0.086
-186.129	65.199	0.255	0.257
-185.114	-31.789	-0.119	-0.067
-184.100	-38.106	0.187	0.099
-183.085	100.689	0.289	-0.334
-182.071	-31.007	0.073	-0.041
-181.056	14.329	-0.170	0.131
-180.042	-149.627	0.244	0.019
-179.027	165.638	0.109	-0.153
-178.012	303.153	-0.046	-0.085
-176.998	-30.737	-0.334	0.188
-175.983	236.590	-0.100	0.164
-174.969	373.738	0.124	-0.251
-173.954	4.175	0.152	-0.111
-172.939	800.000	0.035	0.115
-171.925	250.536	0.197	0.332
-170.910	-200.000	0.048	0.209
-169.896	-83.982	-0.298	-0.094
-168.881	-104.663	0.146	0.033
-167.866	16.507	-0.160	0.125
-166.852	-53.751	-0.246	0.112
-165.837	23.735	0.044	0.036
-164.823	426.044	0.212	-0.454
-163.808	222.395	-0.060	-0.097
-162.793	-109.130	-0.130	0.027
-161.779	800.000	-0.094	-0.383
-160.764	-200.000	0.011	-0.215
-159.750	-167.929	-0.144	0.006
-158.735	-78.627	0.214	-0.072
-157.720	777.001	0.093	-0.251
-156.706	-62.230	-0.134	-0.055
-155.691	11.553	0.162	0.123
-154.677	46.464	-0.207	0.190
-153.662	0.005	0.289	-0.205
-152.647	800.000	0.072	-0.235
-151.633	44.595	0.287	-0.262
-150.618	129.778	-0.168	-0.213
-149.604	-137.852	0.165	0.018
-148.589	-140.391	0.312	-0.032
-147.574	-75.671	-0.188	-0.066
-146.560	-10.118	-0.240	0.158
-145.545	92.842	-0.068	0.076
-144.531	-60.083	0.279	-0.118
-143.516	266.637	-0.087	-0.151
-142.502	-200.000	-0.014	-0.214
-141.487	-181.608	0.024	-0.000
-140.472	-200.000	0.038	-0.240
-139.458	99.006	-0.050	0.057
-138.443	425.969	0.118	-0.253
-137.429	83.353	-0.089	-0.096
-136.414	-200.000	0.409	0.001
-135.399	320.262	0.039	-0.074
-134.385	61.147	-0.232	0.228
-133.370	64.596	-0.088	0.088
-132.356	-85.866	0.146	-0.045
-131.341	800.000	0.026	-0.084
-130.326	51.170	-0.191	-0.180
-129.312	-87.433	0.282	-0.085
-128.297	73.754	-0.145	0.151
-127.283	764.950	-0.106	0.287
-126.268	192.310	0.128	0.192
-125.253	-52.376	0.171	-0.079
-124.239	160.432	0.330	-0.457
-123.224	-128.427	-0.227	0.032
-122.210	83.979	-0.427	0.462
