DTS Sentinel unit serial number:	SN413079Multiplexer serial number:	ORYXHardware model number:	OX4-SRSoftware version number:	ORYX F/W v4.00 Oryx Data Collector v3.7.2.0data status	okinstallation	princeton_trtdifferential loss correction	single-endedforward channel	channel 2reverse channel	N/Adate	2019/09/15time	23:43:34forward acquisition time	60.00reverse acquisition time	0.00gamma	496.2192k internal	0.2336k external	0.2336temperature offset calibration	0.9959default loss term (dB/km)	0.3790temperature slope calibration	1.0000multiplexer offset coefficient	1.0000multiplexer slope coefficient	1.0000fibre end	0.00T internal ref (°C)	28.03T ext. ref 1 (°C)	9.27T ext. ref 2 (°C)	21.90length (m)	temperature (°C)	Stokes	anti-Stokes-747.200	171.673	0.066	-0.095
-746.185	70.430	-0.264	0.275
-745.171	800.000	-0.042	-0.122
-744.156	-108.517	-0.136	-0.029
-743.142	800.000	-0.013	-0.050
-742.127	20.301	-0.137	-0.111
-741.112	646.078	0.052	-0.133
-740.098	352.512	-0.164	-0.327
-739.083	-134.193	0.208	-0.026
-738.069	86.890	-0.010	0.011
-737.054	-112.610	0.320	-0.064
-736.039	38.991	-0.183	-0.164
-735.025	-13.222	0.103	-0.067
-734.010	73.981	-0.144	-0.152
-732.996	800.000	-0.096	0.301
-731.981	628.136	0.116	-0.295
-730.966	-55.602	-0.467	-0.210
-729.952	-138.110	-0.159	0.018
-728.937	-67.773	0.231	0.091
-727.923	800.000	0.083	0.365
-726.908	-200.000	-0.018	0.109
-725.894	254.874	0.091	-0.156
-724.879	112.386	0.209	0.254
-723.864	-172.325	-0.239	-0.008
-722.850	88.564	0.070	0.078
-721.835	44.237	-0.173	-0.159
-720.821	257.542	0.109	-0.188
-719.806	50.409	0.233	-0.221
-718.791	-200.000	-0.010	0.072
-717.777	-200.000	-0.031	-0.282
-716.762	-85.870	-0.375	0.116
-715.748	123.044	0.263	-0.330
-714.733	8.265	-0.338	-0.255
-713.718	242.810	-0.137	-0.231
-712.704	-90.510	0.306	0.089
-711.689	-44.727	-0.264	-0.132
-710.675	-200.000	-0.037	-0.208
-709.660	-92.400	-0.162	-0.046
-708.645	559.679	-0.050	-0.121
-707.631	274.925	0.108	0.192
-706.616	800.000	-0.064	-0.188
-705.602	-200.000	0.004	-0.107
-704.587	-135.954	0.237	-0.028
-703.572	-71.820	-0.287	0.107
-702.558	800.000	0.018	0.059
-701.543	27.391	-0.123	0.104
-700.529	598.467	-0.107	0.265
-699.514	-113.683	0.101	-0.020
-698.499	-43.090	-0.213	-0.108
-697.485	214.642	0.139	-0.221
-696.470	-200.000	0.028	-0.321
-695.456	99.518	-0.029	0.034
-694.441	13.944	0.059	-0.046
-693.426	343.731	0.130	-0.255
-692.412	223.455	-0.204	-0.330
-691.397	-87.111	0.190	-0.058
-690.383	65.043	-0.232	-0.235
-689.368	162.488	-0.062	-0.088
-688.354	-15.998	0.118	0.075
-687.339	74.297	0.181	-0.191
-686.324	-131.165	0.245	0.033
-685.310	-115.453	0.179	0.034
-684.295	-200.000	0.005	0.173
-683.281	-23.297	-0.193	-0.117
-682.266	-200.000	0.008	0.221
-681.251	-64.163	-0.284	-0.116
-680.237	-4.082	-0.183	-0.127
-679.222	-200.000	0.006	0.108
-678.208	-200.000	0.040	0.296
-677.193	-95.996	-0.215	0.057
-676.178	730.191	-0.061	-0.163
-675.164	-167.261	-0.182	-0.007
-674.149	42.256	0.285	-0.260
-673.135	-200.000	0.030	-0.212
-672.120	-19.738	-0.186	-0.115
-671.105	-112.360	-0.119	0.024
-670.091	800.000	0.035	0.111
-669.076	-20.126	0.147	0.091
-668.062	-200.000	0.009	-0.326
-667.047	-89.646	0.139	0.041
-666.032	-151.194	0.047	-0.004
-665.018	-65.780	0.171	-0.069
-664.003	-32.721	-0.117	-0.065
-662.989	67.267	0.304	-0.310
-661.974	800.000	0.102	0.384
-660.959	101.285	-0.105	0.123
-659.945	277.408	0.147	-0.262
-658.930	-200.000	-0.035	-0.157
-657.916	5.272	0.044	-0.032
-656.901	800.000	-0.067	-0.261
-655.886	-200.000	0.017	-0.089
-654.872	-46.095	0.277	-0.137
-653.857	739.894	-0.105	-0.281
-652.843	-200.000	-0.000	-0.022
-651.828	-148.248	0.075	-0.006
-650.814	-150.654	0.089	-0.007
-649.799	-200.000	-0.009	0.052
-648.784	-149.484	-0.386	0.031
-647.770	309.747	-0.047	-0.088
-646.755	-30.674	-0.181	-0.103
-645.741	800.000	0.100	-0.284
-644.726	-54.587	0.428	-0.194
-643.711	-200.000	-0.026	-0.174
-642.697	21.432	0.058	0.047
-641.682	84.809	-0.177	-0.194
-640.668	800.000	-0.075	-0.292
-639.653	54.499	-0.413	0.398
-638.638	-120.420	-0.201	-0.034
-637.624	-194.178	0.308	-0.003
-636.609	-83.681	-0.198	-0.063
-635.595	361.026	-0.124	-0.249
-634.580	-42.097	0.249	-0.127
-633.565	183.660	-0.049	-0.072
-632.551	126.996	0.205	0.260
-631.536	16.987	0.277	-0.219
-630.522	800.000	-0.009	0.035
-629.507	800.000	0.027	-0.117
-628.492	-56.651	-0.313	-0.139
-627.478	215.418	0.073	0.115
-626.463	-17.054	0.156	0.098
-625.449	617.472	-0.137	-0.344
-624.434	207.555	0.150	-0.234
-623.419	-60.874	0.019	0.008
-622.405	-113.269	-0.101	-0.020
-621.390	284.094	0.059	0.106
-620.376	140.229	-0.214	-0.282
-619.361	-26.970	0.189	-0.110
-618.346	-200.000	0.043	0.242
-617.332	386.574	-0.070	-0.145
-616.317	-200.000	-0.025	-0.315
-615.303	-200.000	0.018	-0.085
-614.288	197.347	-0.168	0.256
-613.273	-200.000	0.002	-0.054
-612.259	-127.505	0.221	-0.032
-611.244	-67.566	-0.436	-0.171
-610.230	-200.000	-0.051	0.299
-609.215	-200.000	0.008	0.045
-608.201	-57.957	-0.224	-0.098
-607.186	286.303	-0.238	0.429
-606.171	-75.848	-0.120	-0.043
-605.157	247.376	0.018	-0.030
-604.142	-200.000	0.084	0.390
-603.128	40.623	0.217	-0.195
-602.113	-11.127	0.188	-0.124
-601.098	35.429	-0.083	-0.073
-600.084	-128.859	-0.128	0.018
-599.069	-26.319	-0.057	0.034
-598.055	536.769	0.053	0.126
-597.040	617.642	0.026	-0.065
-596.025	-90.120	-0.191	-0.055
-595.011	222.847	-0.134	-0.216
-593.996	-104.465	0.227	0.052
-592.982	-17.890	0.243	-0.152
-591.967	-73.883	0.295	-0.107
-590.952	614.425	-0.032	0.081
-589.938	-93.875	0.278	-0.076
-588.923	266.775	-0.142	-0.247
-587.909	-17.313	0.119	0.075
-586.894	402.303	0.039	0.081
-585.879	800.000	0.126	0.358
-584.865	-54.741	-0.081	0.036
-583.850	-95.240	0.078	-0.021
-582.836	-10.576	-0.301	0.199
-581.821	-112.027	0.157	0.032
-580.806	55.349	-0.135	-0.130
-579.792	-153.562	-0.176	-0.012
-578.777	-200.000	-0.002	-0.054
-577.763	162.937	-0.029	-0.041
-576.748	197.262	-0.056	0.085
-575.733	-21.299	-0.098	-0.060
-574.719	258.456	-0.129	-0.221
-573.704	-200.000	0.027	-0.434
-572.690	-13.620	-0.107	0.069
-571.675	-16.137	-0.295	0.187
-570.661	-200.000	-0.022	-0.144
-569.646	47.931	-0.133	-0.124
-568.631	-200.000	-0.028	-0.260
-567.617	-200.000	-0.009	0.126
-566.602	-86.452	-0.182	0.056
-565.588	-200.000	-0.004	-0.106
-564.573	-172.819	0.320	-0.010
-563.558	-200.000	-0.027	0.292
-562.544	-200.000	0.004	-0.054
-561.529	255.757	-0.109	0.187
-560.515	74.518	0.126	0.132
-559.500	107.520	-0.280	0.332
-558.485	89.707	0.104	0.116
-557.471	-23.634	0.107	-0.064
-556.456	83.466	0.158	0.172
-555.442	-200.000	0.077	-0.546
-554.427	-200.000	-0.009	-0.066
-553.412	110.785	-0.160	0.192
-552.398	104.584	0.145	-0.170
-551.383	-94.836	0.195	-0.053
-550.369	22.491	-0.201	0.164
-549.354	-129.809	-0.303	0.042
-548.339	256.555	-0.114	0.195
-547.325	159.506	0.052	0.072
-546.310	276.623	0.055	-0.097
-545.296	-99.710	0.179	0.045
-544.281	-200.000	-0.003	0.082
-543.266	-34.733	-0.317	-0.173
-542.252	20.010	0.259	0.208
-541.237	61.753	-0.317	0.315
-540.223	-200.000	0.013	0.109
-539.208	-184.311	0.220	0.004
-538.193	-103.143	-0.406	0.096
-537.179	800.000	0.073	-0.213
-536.164	17.636	-0.257	-0.204
-535.150	-152.614	-0.261	0.019
-534.135	1.260	0.074	0.053
-533.121	-41.050	0.155	0.080
-532.106	-70.768	-0.078	-0.030
-531.091	31.535	0.088	-0.076
-530.077	238.125	0.108	-0.179
-529.062	28.171	-0.105	0.088
-528.048	800.000	-0.073	-0.283
-527.033	-105.320	-0.206	-0.047
-526.018	-200.000	0.022	0.107
-525.004	-200.000	-0.000	0.022
-523.989	-200.000	0.009	-0.115
-522.975	-105.573	0.063	0.014
-521.960	315.993	0.191	0.359
-520.945	64.746	0.167	0.168
-519.931	168.115	0.026	-0.037
-518.916	800.000	-0.077	0.316
-517.902	33.934	0.211	0.183
-516.887	-200.000	-0.021	0.106
-515.872	800.000	-0.066	-0.236
-514.858	44.558	-0.258	-0.236
-513.843	-200.000	0.021	0.175
-512.829	-19.465	-0.103	0.063
-511.814	97.626	-0.115	0.132
-510.799	10.370	0.115	0.087
-509.785	-124.948	0.044	0.007
-508.770	-200.000	0.002	0.048
-507.756	-200.000	-0.158	0.000
-506.741	126.768	0.143	-0.180
-505.726	-200.000	0.043	-0.389
-504.712	10.616	-0.235	-0.179
-503.697	61.164	-0.218	0.215
-502.683	-200.000	0.002	0.202
-501.668	800.000	-0.036	-0.114
-500.653	60.910	0.124	0.122
-499.639	114.410	-0.157	0.190
-498.624	-200.000	0.065	0.365
-497.610	-143.136	-0.139	-0.013
-496.595	-9.450	-0.049	-0.033
-495.581	118.104	-0.234	-0.287
-494.566	-64.493	0.093	-0.038
-493.551	-33.182	0.111	-0.061
-492.537	17.994	0.069	0.054
-491.522	-122.357	-0.097	-0.016
-490.508	63.277	-0.107	-0.107
-489.493	297.556	-0.154	0.280
-488.478	-63.479	0.392	-0.160
-487.464	800.000	-0.093	0.283
-486.449	-124.078	-0.192	-0.030
-485.435	249.133	0.039	-0.066
-484.420	-200.000	0.028	-0.341
-483.405	-68.541	0.250	0.096
-482.391	16.186	0.391	-0.306
-481.376	116.932	-0.109	-0.133
-480.362	138.144	0.099	-0.129
-479.347	133.591	-0.175	-0.225
-478.332	12.762	0.060	-0.046
-477.318	800.000	0.024	0.094
-476.303	-67.165	0.341	-0.134
-475.289	358.763	0.036	0.071
-474.274	-189.980	-0.261	-0.003
-473.259	-57.628	-0.297	-0.129
-472.245	-28.191	-0.404	0.232
-471.230	-200.000	0.021	-0.246
-470.216	687.880	0.072	0.186
-469.201	-161.637	0.499	0.025
-468.186	452.034	0.082	0.181
-467.172	800.000	-0.081	0.255
-466.157	-53.261	0.218	-0.099
-465.143	-200.000	0.007	0.310
-464.128	43.477	-0.094	-0.085
-463.113	532.845	0.154	-0.363
-462.099	-200.000	0.062	-0.313
-461.084	-200.000	0.007	-0.202
-460.070	-200.000	0.018	0.095
-459.055	223.074	-0.070	0.112
-458.040	800.000	0.036	0.099
-457.026	-200.000	0.004	0.044
-456.011	-113.522	0.242	-0.047
-454.997	258.229	-0.046	0.078
-453.982	800.000	-0.015	0.040
-452.968	-200.000	0.004	0.371
-451.953	486.535	0.089	-0.201
-450.938	-81.670	-0.329	0.107
-449.924	-73.766	0.112	-0.040
-448.909	-115.386	-0.055	-0.010
-447.895	-59.494	-0.150	-0.064
-446.880	164.146	0.110	-0.154
-445.865	145.857	-0.093	-0.124
-444.851	-200.000	0.014	-0.101
-443.836	210.314	-0.179	0.279
-442.822	167.724	-0.049	-0.070
-441.807	-175.664	-0.186	-0.005
-440.792	-171.286	0.173	-0.006
-439.778	-68.024	-0.122	0.047
-438.763	-70.679	0.208	-0.078
-437.749	800.000	0.023	-0.064
-436.734	361.952	-0.154	-0.307
-435.719	572.694	0.082	-0.199
-434.705	51.448	0.238	0.224
-433.690	87.276	0.059	-0.064
-432.676	307.373	-0.066	0.121
-431.661	-17.513	0.358	-0.223
-430.646	424.148	-0.101	-0.216
-429.632	800.000	-0.041	0.177
-428.617	126.198	-0.090	0.113
-427.603	-56.262	-0.394	0.174
-426.588	106.297	-0.243	0.286
-425.573	484.121	-0.071	0.160
-424.559	800.000	-0.078	0.224
-423.544	-200.000	-0.001	0.009
-422.530	630.112	0.037	0.092
-421.515	492.102	0.097	-0.219
-420.500	-118.396	0.126	0.022
-419.486	52.895	-0.254	-0.241
-418.471	-200.000	-0.002	0.170
-417.457	-53.437	0.271	-0.123
-416.442	-58.411	0.087	-0.037
-415.428	-48.613	-0.086	0.041
-414.413	-200.000	0.023	-0.149
-413.398	74.893	0.098	0.102
-412.384	429.188	-0.107	-0.229
-411.369	-112.889	-0.150	0.030
-410.355	-83.432	0.201	-0.064
-409.340	9.182	-0.484	-0.362
-408.325	176.969	0.003	-0.004
-407.311	-200.000	0.003	-0.051
-406.296	800.000	-0.028	-0.083
-405.282	77.590	-0.063	0.066
-404.267	130.739	0.158	0.201
-403.252	-200.000	-0.051	-0.287
-402.238	587.116	-0.026	0.064
-401.223	70.049	0.079	0.081
-400.209	158.601	0.049	0.067
-399.194	358.870	-0.018	0.035
-398.179	99.853	0.142	-0.163
-397.165	-64.601	0.170	-0.068
-396.150	800.000	0.056	0.219
-395.136	-200.000	-0.036	-0.332
-394.121	628.827	-0.146	0.365
-393.106	-200.000	0.002	0.120
-392.092	-200.000	0.002	0.015
-391.077	-3.789	-0.129	0.089
-390.063	10.575	0.269	0.203
-389.048	800.000	0.033	-0.104
-388.033	214.582	-0.227	-0.357
-387.019	-200.000	0.047	-0.268
-386.004	-200.000	0.027	0.347
-384.990	421.282	0.101	0.214
-383.975	136.025	0.143	-0.185
-382.960	800.000	0.089	-0.245
-381.946	800.000	-0.062	0.215
-380.931	-200.000	-0.074	-0.354
-379.917	130.850	-0.193	0.246
-378.902	741.095	0.106	-0.283
-377.888	18.374	0.061	-0.049
-376.873	499.742	-0.039	0.089
-375.858	-135.824	0.216	0.025
-374.844	-200.000	-0.027	0.135
-373.829	-110.967	0.275	-0.056
-372.815	44.200	-0.208	0.189
-371.800	-200.000	0.028	0.220
-370.785	-200.000	0.027	-0.120
-369.771	143.763	-0.088	0.116
-368.756	-195.432	-0.216	-0.002
-367.742	293.443	-0.196	0.354
-366.727	72.735	0.137	-0.142
-365.712	-111.793	-0.197	-0.039
-364.698	5.049	0.268	-0.195
-363.683	43.851	-0.205	-0.186
-362.669	800.000	-0.071	0.252
-361.654	-177.718	0.515	0.012
-360.639	31.316	0.032	-0.027
-359.625	-200.000	-0.054	0.290
-358.610	127.103	-0.095	-0.119
-357.596	185.256	-0.110	0.162
-356.581	-64.836	-0.162	0.065
-355.566	-106.967	0.306	0.067
-354.552	-71.139	-0.163	-0.060
-353.537	330.658	0.071	0.136
-352.523	-83.865	-0.284	-0.089
-351.508	-19.070	-0.104	-0.064
-350.493	73.235	0.207	0.214
-349.479	-200.000	0.045	-0.300
-348.464	-200.000	-0.059	-0.353
-347.450	800.000	0.040	-0.157
-346.435	548.756	-0.035	-0.082
-345.420	-19.937	0.317	-0.194
-344.406	-39.689	0.345	-0.178
-343.391	-114.394	0.242	-0.046
-342.377	-200.000	-0.099	0.431
-341.362	132.067	0.194	-0.247
-340.348	-76.636	0.132	-0.046
-339.333	-200.000	0.031	-0.207
-338.318	-191.629	-0.311	-0.003
-337.304	-170.585	-0.303	0.010
-336.289	241.691	0.129	0.213
-335.275	31.012	0.111	0.094
-334.260	-23.814	0.235	0.139
-333.245	49.153	0.154	0.143
-332.231	15.659	0.141	-0.109
-331.216	-200.000	0.024	-0.257
-330.202	476.070	0.065	-0.145
-329.187	-200.000	0.003	-0.210
-328.172	463.064	0.155	0.342
-327.158	33.755	0.292	0.251
-326.143	-178.041	0.135	0.003
-325.129	142.750	0.031	-0.041
-324.114	209.597	0.087	0.134
-323.099	65.159	0.075	0.075
-322.085	193.898	-0.113	0.169
-321.070	-181.894	-0.032	0.001
-320.056	-49.197	0.148	0.070
-319.041	-7.977	-0.190	0.126
-318.026	-108.611	0.529	-0.112
-317.012	75.546	0.008	0.008
-315.997	-120.339	-0.065	0.011
-314.983	10.105	-0.117	0.088
-313.968	-63.989	0.149	-0.060
-312.953	234.862	0.189	0.308
-311.939	16.911	0.366	0.286
-310.924	-10.879	-0.137	0.089
-309.910	-200.000	0.034	-0.261
-308.895	-200.000	0.041	0.187
-307.880	-171.609	0.139	-0.005
-306.866	478.585	0.078	-0.174
-305.851	188.318	0.183	0.270
-304.837	135.073	0.228	0.293
-303.822	-114.352	0.128	-0.024
-302.807	-60.615	0.302	-0.127
-301.793	-114.706	-0.256	0.048
-300.778	-113.644	-0.536	-0.103
-299.764	-86.953	-0.228	0.069
-298.749	84.439	-0.128	0.138
-297.735	-200.000	0.018	-0.105
-296.720	-174.531	0.126	0.004
-295.705	-168.713	-0.275	0.010
-294.691	147.073	-0.132	0.176
-293.676	376.996	0.066	0.133
-292.662	94.332	0.159	-0.178
-291.647	232.814	0.183	0.297
-290.632	-200.000	0.005	-0.169
-289.618	329.046	-0.046	0.088
-288.603	800.000	-0.042	-0.144
-287.589	599.361	-0.081	0.197
-286.574	-129.972	0.190	0.026
-285.559	-122.494	0.358	0.057
-284.545	-200.000	0.014	-0.283
-283.530	-200.000	0.000	0.094
-282.516	-148.395	0.191	0.015
-281.501	-98.817	-0.182	0.046
-280.486	-110.547	0.097	-0.020
-279.472	68.993	-0.119	-0.121
-278.457	-18.365	0.286	-0.176
-277.443	-95.003	0.239	0.064
-276.428	-184.429	-0.341	-0.005
-275.413	-9.782	-0.107	-0.070
-274.399	-124.274	0.094	0.015
-273.384	-40.057	0.156	0.080
-272.370	800.000	0.054	-0.162
-271.355	183.916	-0.156	-0.227
-270.340	630.842	-0.103	-0.257
-269.326	774.129	0.074	0.200
-268.311	-179.597	0.152	-0.003
-267.297	460.544	-0.082	0.180
-266.282	-200.000	-0.008	0.234
-265.267	-200.000	-0.029	0.399
-264.253	71.025	0.009	0.009
-263.238	-122.020	-0.142	-0.023
-262.224	84.797	-0.081	0.088
-261.209	-200.000	0.069	0.349
-260.195	175.907	-0.038	0.055
-259.180	-19.707	-0.038	0.023
-258.165	-31.536	-0.053	-0.030
-257.151	-105.352	-0.309	0.069
-256.136	61.658	0.122	-0.120
-255.122	-138.987	0.063	0.007
-254.107	170.020	0.234	0.329
-253.092	280.855	-0.209	-0.368
-252.078	-121.239	-0.263	-0.043
-251.063	-47.183	-0.531	0.255
-250.049	369.229	-0.038	0.075
-249.034	-96.217	0.166	-0.043
-248.019	-130.076	0.035	-0.005
-247.005	285.347	-0.152	-0.271
-245.990	-137.622	-0.181	0.020
-244.976	800.000	-0.033	-0.137
-243.961	10.232	-0.089	-0.067
-242.946	162.167	0.141	0.195
-241.932	272.134	0.166	0.288
-240.917	-14.447	-0.114	0.072
-239.903	-95.462	-0.291	-0.077
-238.888	-200.000	0.017	-0.350
-237.873	154.869	0.167	-0.226
-236.859	-151.040	0.139	0.010
-235.844	-200.000	0.068	0.362
-234.830	619.968	-0.050	0.123
-233.815	113.421	-0.225	-0.269
-232.800	422.752	-0.152	-0.320
-231.786	-15.917	0.079	-0.049
-230.771	800.000	-0.153	-0.492
-229.757	-158.563	0.282	0.016
-228.742	800.000	0.020	-0.070
-227.727	-128.010	0.169	-0.024
-226.713	118.712	-0.157	-0.191
-225.698	-200.000	0.044	0.299
-224.684	800.000	-0.067	-0.230
-223.669	1.949	0.392	0.278
-222.655	-85.546	0.350	0.107
-221.640	-200.000	-0.091	0.488
-220.625	-70.760	0.022	-0.008
-219.611	24.194	-0.110	0.090
-218.596	-172.229	0.157	0.005
-217.582	800.000	-0.051	-0.144
-216.567	55.400	-0.072	-0.068
-215.552	800.000	-0.029	-0.114
-214.538	-87.113	0.227	0.068
-213.523	58.711	-0.143	-0.138
-212.509	-22.261	0.265	0.158
-211.494	-134.519	-0.390	-0.047
-210.479	-109.717	-0.068	0.014
-209.465	-79.518	-0.206	-0.069
-208.450	105.022	0.315	0.366
-207.436	-26.995	-0.295	-0.169
-206.421	-200.000	-0.023	0.140
-205.406	800.000	0.031	-0.132
-204.392	10.654	0.242	0.182
-203.377	-46.521	-0.323	-0.156
-202.363	-200.000	-0.022	0.107
-201.348	-132.492	0.258	0.033
-200.333	800.000	-0.026	0.099
-199.319	-200.000	-0.022	0.241
-198.304	288.813	-0.137	0.244
-197.290	-7.931	0.079	0.052
-196.275	61.795	0.034	0.034
-195.260	1.999	-0.056	0.040
-194.246	-102.114	0.259	0.061
-193.231	-200.000	-0.040	0.180
-192.217	365.619	-0.125	0.248
-191.202	800.000	0.046	0.147
-190.187	-200.000	-0.028	-0.451
-189.173	-200.000	-0.063	-0.290
-188.158	-103.122	0.332	0.077
-187.144	-141.207	0.420	-0.042
-186.129	79.005	0.057	0.060
-185.114	-193.182	0.290	-0.003
-184.100	-9.336	0.175	0.115
-183.085	-200.000	-0.001	-0.007
-182.071	133.465	-0.209	-0.266
-181.056	-106.665	-0.083	0.018
-180.042	-68.268	-0.258	0.099
-179.027	-12.439	-0.374	0.240
-178.012	-24.408	-0.300	-0.176
-176.998	-200.000	-0.006	-0.603
-175.983	184.114	0.068	0.098
-174.969	-98.471	0.154	0.039
-173.954	2.989	-0.150	0.107
-172.939	-58.437	0.279	0.119
-171.925	-43.402	-0.238	-0.118
-170.910	-51.706	0.286	-0.131
-169.896	65.752	-0.099	-0.098
-168.881	7.276	0.176	-0.129
-167.866	-200.000	0.004	0.138
-166.852	262.836	-0.125	-0.213
-165.837	-16.068	0.252	0.157
-164.823	76.829	-0.273	-0.284
-163.808	-200.000	-0.016	0.076
-162.793	-200.000	0.009	0.133
-161.779	-169.021	0.127	0.005
-160.764	-104.293	-0.391	0.089
-159.750	-200.000	-0.002	0.118
-158.735	-200.000	0.056	0.366
-157.720	35.438	0.027	0.023
-156.706	-16.846	0.140	-0.087
-155.691	800.000	-0.033	-0.095
-154.677	170.569	-0.073	-0.103
-153.662	800.000	0.026	-0.075
-152.647	800.000	-0.025	0.087
-151.633	-30.621	-0.177	-0.099
-150.618	-73.819	0.085	0.030
-149.604	800.000	0.011	-0.033
-148.589	-32.921	0.139	0.076
-147.574	9.942	0.120	0.090
-146.560	149.518	-0.302	0.402
-145.545	-105.576	0.210	0.047
-144.531	-19.375	0.389	0.237
-143.516	-200.000	0.009	-0.286
-142.502	-137.875	0.124	0.014
-141.487	800.000	-0.050	-0.158
-140.472	-200.000	0.026	-0.206
-139.458	-200.000	0.036	0.165
-138.443	-200.000	0.033	0.160
-137.429	-200.000	-0.040	0.271
-136.414	195.729	-0.165	-0.246
-135.399	-60.006	-0.314	-0.132
-134.385	123.816	0.147	-0.181
-133.370	-29.687	-0.202	0.113
-132.356	800.000	-0.043	-0.154
-131.341	22.872	0.102	0.082
-130.326	-200.000	0.011	0.052
-129.312	-128.479	0.060	-0.008
-128.297	54.892	-0.309	0.292
-127.283	48.492	0.016	0.015
-126.268	800.000	-0.113	0.323
-125.253	44.473	0.253	-0.228
-124.239	-200.000	-0.048	-0.272
-123.224	-200.000	0.059	-0.429
-122.210	-176.554	0.294	-0.007
