DTS Sentinel unit serial number:	SN413079Multiplexer serial number:	ORYXHardware model number:	OX4-SRSoftware version number:	ORYX F/W v4.00 Oryx Data Collector v3.7.2.0data status	okinstallation	princeton_trtdifferential loss correction	single-endedforward channel	channel 2reverse channel	N/Adate	2019/09/15time	07:59:35forward acquisition time	60.00reverse acquisition time	0.00gamma	496.2192k internal	0.2325k external	0.2325temperature offset calibration	1.0031default loss term (dB/km)	0.3790temperature slope calibration	1.0000multiplexer offset coefficient	1.0000multiplexer slope coefficient	1.0000fibre end	0.00T internal ref (°C)	30.75T ext. ref 1 (°C)	4.97T ext. ref 2 (°C)	26.42length (m)	temperature (°C)	Stokes	anti-Stokes-747.200	22.924	-0.115	-0.095
-746.185	-38.834	-0.464	0.247
-745.171	-45.465	0.125	0.063
-744.156	800.000	0.107	0.309
-743.142	-200.000	-0.001	-0.016
-742.127	800.000	0.065	0.213
-741.112	800.000	0.070	-0.207
-740.098	9.023	0.115	0.088
-739.083	-100.671	0.227	0.056
-738.069	261.248	-0.171	0.299
-737.054	-148.469	0.232	-0.019
-736.039	-25.878	-0.208	-0.123
-735.025	-200.000	0.035	-0.407
-734.010	600.249	-0.049	-0.123
-732.996	167.169	-0.130	0.186
-731.981	348.906	-0.099	-0.198
-730.966	186.549	-0.129	0.194
-729.952	-67.984	-0.312	0.123
-728.937	-85.452	0.162	0.051
-727.923	-200.000	0.029	-0.183
-726.908	-200.000	-0.017	0.085
-725.894	39.767	0.054	0.049
-724.879	284.250	-0.144	0.260
-723.864	-57.171	0.409	-0.182
-722.850	-56.947	0.127	0.056
-721.835	-200.000	-0.044	-0.265
-720.821	363.241	-0.063	-0.127
-719.806	-63.923	-0.445	-0.183
-718.791	-41.654	-0.174	0.090
-717.777	-18.407	0.131	0.083
-716.762	58.628	-0.190	0.188
-715.748	50.425	0.248	-0.237
-714.733	-62.135	0.109	0.046
-713.718	-5.946	-0.206	0.142
-712.704	-34.652	0.184	-0.101
-711.689	118.114	0.030	0.038
-710.675	-101.870	-0.293	0.071
-709.660	-106.630	0.181	0.041
-708.645	-130.542	0.262	-0.036
-707.631	-150.269	-0.143	-0.011
-706.616	-71.324	-0.309	0.117
-705.602	800.000	0.046	-0.163
-704.587	338.402	-0.066	-0.129
-703.572	199.925	0.274	-0.424
-702.558	62.685	-0.079	0.079
-701.543	800.000	-0.030	0.095
-700.529	800.000	0.154	0.599
-699.514	-29.426	0.142	0.082
-698.499	430.848	-0.177	0.386
-697.485	-77.156	0.269	0.094
-696.470	-31.457	0.218	0.124
-695.456	-200.000	-0.020	-0.296
-694.441	243.183	-0.139	-0.234
-693.426	-200.000	0.003	0.033
-692.412	800.000	-0.082	0.314
-691.397	43.746	-0.144	0.133
-690.383	47.375	-0.111	0.104
-689.368	320.703	0.187	-0.357
-688.354	-200.000	0.040	0.295
-687.339	765.970	0.024	0.066
-686.324	330.585	0.063	-0.121
-685.310	187.858	0.099	-0.148
-684.295	-7.604	-0.256	-0.174
-683.281	-200.000	0.001	-0.158
-682.266	-97.937	-0.232	0.060
-681.251	739.552	0.242	-0.655
-680.237	-86.070	-0.060	0.019
-679.222	-83.088	0.170	-0.055
-678.208	-200.000	0.019	0.109
-677.193	800.000	-0.150	0.561
-676.178	-3.093	-0.150	-0.106
-675.164	-200.000	-0.008	0.123
-674.149	-200.000	0.011	-0.075
-673.135	47.938	0.188	-0.176
-672.120	50.098	-0.065	0.062
-671.105	-60.207	0.044	0.019
-670.091	-200.000	-0.029	-0.282
-669.076	281.230	-0.096	0.172
-668.062	-8.527	-0.386	-0.261
-667.047	-106.971	0.236	-0.053
-666.032	508.373	0.097	-0.227
-665.018	800.000	0.107	0.305
-664.003	339.275	0.062	0.122
-662.989	290.981	-0.085	0.156
-661.974	-167.599	0.367	0.015
-660.959	43.716	-0.054	0.050
-659.945	-24.653	-0.343	0.205
-658.930	-194.596	0.188	0.001
-657.916	-200.000	0.043	0.337
-656.901	-66.784	-0.183	-0.073
-655.886	-130.187	-0.119	-0.016
-654.872	40.699	0.201	-0.182
-653.857	41.908	0.054	0.049
-652.843	-65.271	0.366	-0.148
-651.828	186.604	-0.085	-0.128
-650.814	103.728	0.214	-0.252
-649.799	800.000	-0.020	-0.064
-648.784	261.693	0.062	0.108
-647.770	-200.000	-0.030	0.347
-646.755	-200.000	0.009	0.303
-645.741	214.252	0.123	-0.196
-644.726	28.215	-0.202	0.171
-643.711	27.090	0.291	0.245
-642.697	-141.126	0.041	0.004
-641.682	96.634	0.123	-0.142
-640.668	1.097	0.366	0.264
-639.653	96.007	-0.068	-0.078
-638.638	-171.468	0.333	0.011
-637.624	-39.327	-0.146	-0.077
-636.609	-33.788	0.065	-0.036
-635.595	463.889	0.038	0.085
-634.580	-200.000	-0.021	0.154
-633.565	800.000	0.150	-0.440
-632.551	123.622	-0.216	-0.273
-631.536	-73.945	-0.392	-0.143
-630.522	59.037	0.096	0.095
-629.507	-89.688	-0.199	-0.059
-628.492	-73.712	-0.273	-0.100
-627.478	800.000	-0.007	0.027
-626.463	-179.811	0.220	0.005
-625.449	-200.000	-0.013	0.295
-624.434	45.682	-0.074	0.069
-623.419	-200.000	0.035	0.249
-622.405	20.648	-0.239	-0.194
-621.390	-156.211	-0.298	0.019
-620.376	199.786	-0.268	0.413
-619.361	-15.095	0.211	-0.136
-618.346	-200.000	0.003	-0.071
-617.332	-19.496	0.149	0.093
-616.317	-155.392	0.105	0.007
-615.303	-149.104	0.230	0.019
-614.288	800.000	0.048	0.186
-613.273	-200.000	0.019	0.186
-612.259	-157.484	-0.312	-0.019
-611.244	303.254	-0.100	-0.185
-610.230	-200.000	0.013	-0.266
-609.215	-200.000	-0.008	0.137
-608.201	506.403	0.023	0.053
-607.186	-26.506	-0.039	0.023
-606.171	800.000	-0.076	-0.222
-605.157	-183.092	0.225	-0.004
-604.142	-121.890	-0.130	-0.021
-603.128	-200.000	-0.001	0.460
-602.113	43.519	-0.159	-0.146
-601.098	162.920	0.142	0.200
-600.084	800.000	-0.012	-0.034
-599.069	-104.958	-0.143	-0.033
-598.055	355.584	0.071	-0.142
-597.040	338.169	0.021	-0.040
-596.025	-162.351	-0.202	0.010
-595.011	366.984	-0.125	-0.253
-593.996	-30.780	-0.047	0.027
-592.982	-99.686	-0.214	-0.054
-591.967	83.358	-0.120	-0.131
-590.952	798.550	-0.057	-0.157
-589.938	-144.394	0.290	-0.027
-588.923	194.329	-0.131	-0.198
-587.909	315.328	0.074	-0.140
-586.894	-200.000	-0.023	-0.118
-585.879	48.488	-0.079	-0.074
-584.865	-13.613	-0.161	0.104
-583.850	800.000	-0.008	-0.030
-582.836	-200.000	-0.006	0.186
-581.821	594.116	-0.064	0.158
-580.806	216.385	-0.103	0.164
-579.792	-14.040	-0.246	-0.159
-578.777	189.575	-0.179	0.270
-577.763	-79.524	-0.098	-0.033
-576.748	217.736	-0.131	0.209
-575.733	739.857	0.135	-0.362
-574.719	-51.663	-0.168	-0.079
-573.704	510.699	0.090	-0.209
-572.690	278.528	0.146	0.260
-571.675	18.620	-0.279	0.224
-570.661	95.617	0.170	0.194
-569.646	-200.000	-0.030	-0.211
-568.631	108.638	-0.068	-0.081
-567.617	800.000	-0.049	0.190
-566.602	-123.087	-0.345	0.055
-565.588	-200.000	-0.006	-0.297
-564.573	-129.375	-0.104	-0.015
-563.558	-150.564	0.211	-0.016
-562.544	17.950	-0.044	0.035
-561.529	123.060	-0.051	-0.064
-560.515	-38.098	-0.187	-0.100
-559.500	55.997	-0.139	-0.136
-558.485	800.000	-0.075	0.245
-557.471	-51.545	0.265	0.124
-556.456	153.433	-0.141	-0.193
-555.442	26.865	-0.299	0.251
-554.427	-200.000	0.043	-0.334
-553.412	705.204	0.081	0.215
-552.398	420.057	0.088	0.190
-551.383	-200.000	0.012	-0.157
-550.369	-37.753	-0.072	0.038
-549.354	-200.000	0.028	0.190
-548.339	-200.000	-0.026	0.163
-547.325	-130.254	-0.179	0.024
-546.310	-200.000	-0.008	0.157
-545.296	-57.427	-0.292	-0.128
-544.281	-11.687	-0.120	-0.079
-543.266	-200.000	-0.007	0.070
-542.252	199.036	-0.063	0.097
-541.237	-28.059	-0.273	0.158
-540.223	-131.026	-0.268	-0.036
-539.208	20.706	0.230	0.187
-538.193	-82.260	0.185	0.060
-537.179	800.000	0.053	-0.219
-536.164	800.000	-0.035	-0.115
-535.150	800.000	0.070	-0.251
-534.135	-67.097	0.096	0.038
-533.121	800.000	-0.116	-0.335
-532.106	800.000	0.114	-0.357
-531.091	-28.912	0.292	-0.168
-530.077	-107.044	-0.441	-0.097
-529.062	444.320	-0.097	-0.214
-528.048	649.962	0.096	-0.245
-527.033	266.637	0.079	-0.139
-526.018	-179.332	-0.255	-0.006
-525.004	-132.157	0.331	0.043
-523.989	800.000	-0.008	-0.029
-522.975	800.000	0.068	-0.295
-521.960	71.365	-0.229	-0.238
-520.945	-47.706	0.189	-0.092
-519.931	-200.000	0.005	0.235
-518.916	717.050	-0.086	-0.228
-517.902	511.567	-0.011	0.025
-516.887	148.431	0.129	-0.174
-515.872	86.842	0.013	0.014
-514.858	237.485	-0.091	0.151
-513.843	-121.729	0.073	0.012
-512.829	-15.373	0.234	0.149
-511.814	800.000	-0.050	-0.187
-510.799	39.186	-0.076	-0.068
-509.785	327.806	-0.102	-0.196
-508.770	204.726	0.020	-0.031
-507.756	197.675	0.123	-0.187
-506.741	43.354	0.203	-0.186
-505.726	-126.813	0.142	0.021
-504.712	67.068	0.192	-0.195
-503.697	-123.168	-0.483	-0.077
-502.683	-52.938	-0.299	0.137
-501.668	-101.899	-0.119	0.029
-500.653	28.820	0.334	0.283
-499.639	-200.000	0.026	-0.182
-498.624	-131.633	-0.101	0.013
-497.610	37.442	-0.197	-0.174
-496.595	-107.316	-0.360	-0.079
-495.581	103.584	0.099	0.116
-494.566	92.558	0.211	-0.238
-493.551	-75.902	0.148	-0.052
-492.537	323.139	0.088	-0.168
-491.522	3.605	0.358	0.261
-490.508	452.220	-0.079	0.174
-489.493	800.000	-0.062	-0.195
-488.478	-160.326	-0.121	-0.007
-487.464	38.794	0.192	-0.171
-486.449	0.349	0.298	-0.212
-485.435	-98.693	-0.185	-0.047
-484.420	14.966	0.160	-0.125
-483.405	-79.039	-0.174	-0.059
-482.391	747.412	0.011	0.029
-481.376	-58.854	0.355	-0.153
-480.362	-158.762	-0.112	0.006
-479.347	-111.097	0.170	-0.035
-478.332	180.479	-0.113	-0.166
-477.318	800.000	-0.107	0.360
-476.303	-8.188	0.173	-0.117
-475.289	466.673	0.085	-0.189
-474.274	-57.204	0.178	-0.078
-473.259	114.914	-0.138	-0.168
-472.245	-132.422	0.328	-0.042
-471.230	-87.817	-0.519	-0.156
-470.216	-158.813	-0.268	0.015
-469.201	-45.252	0.240	0.119
-468.186	-200.000	-0.021	0.094
-467.172	-93.940	-0.304	0.083
-466.157	701.202	-0.062	-0.162
-465.143	800.000	-0.019	0.058
-464.128	-200.000	0.043	0.296
-463.113	259.762	-0.071	-0.122
-462.099	-60.905	-0.363	-0.153
-461.084	-56.917	0.253	0.112
-460.070	-47.547	-0.063	0.031
-459.055	-128.100	0.142	0.020
-458.040	-196.550	0.262	-0.002
-457.026	-66.839	0.384	-0.151
-456.011	74.941	-0.154	0.162
-454.997	-106.014	-0.143	-0.032
-453.982	10.908	0.063	-0.048
-452.968	-59.200	0.156	0.067
-451.953	145.610	-0.076	-0.101
-450.938	-109.189	0.451	-0.096
-449.924	161.525	0.119	0.166
-448.909	216.938	-0.190	0.301
-447.895	-200.000	0.030	-0.295
-446.880	345.609	0.058	0.113
-445.865	-91.487	0.142	0.041
-444.851	146.827	-0.118	-0.158
-443.836	-48.713	-0.030	-0.014
-442.822	-125.899	-0.148	0.022
-441.807	-160.322	0.218	-0.012
-440.792	-15.196	-0.141	0.090
-439.778	-65.102	-0.222	-0.089
-438.763	157.885	-0.134	0.185
-437.749	91.817	-0.115	-0.129
-436.734	-114.071	-0.379	-0.073
-435.719	83.044	0.086	-0.093
-434.705	45.551	0.140	0.129
-433.690	-19.553	0.124	0.077
-432.676	175.698	-0.110	-0.159
-431.661	328.243	-0.104	-0.199
-430.646	-200.000	-0.008	-0.325
-429.632	190.675	0.061	-0.091
-428.617	321.456	-0.110	0.208
-427.603	-93.519	0.170	-0.047
-426.588	72.830	-0.139	-0.144
-425.573	254.674	-0.126	-0.214
-424.559	-200.000	-0.002	-0.030
-423.544	-146.472	0.153	-0.013
-422.530	-200.000	-0.039	0.398
-421.515	475.063	0.063	0.141
-420.500	27.555	-0.198	-0.166
-419.486	-200.000	-0.012	0.144
-418.471	-39.361	0.105	0.055
-417.457	-200.000	-0.005	-0.038
-416.442	800.000	0.172	-0.675
-415.428	-200.000	0.005	0.062
-414.413	36.147	0.292	0.257
-413.398	-108.739	-0.327	0.070
-412.384	-69.748	0.216	0.082
-411.369	800.000	0.114	-0.371
-410.355	-136.669	-0.125	0.014
-409.340	800.000	0.051	-0.168
-408.325	-200.000	-0.008	-0.331
-407.311	76.475	0.182	-0.192
-406.296	46.841	-0.245	-0.226
-405.282	100.660	0.300	0.347
-404.267	-111.013	-0.172	0.035
-403.252	-182.097	0.268	-0.005
-402.238	-102.455	-0.147	0.035
-401.223	-100.486	0.125	-0.031
-400.209	-157.421	-0.334	0.020
-399.194	-7.390	0.236	0.159
-398.179	194.210	0.170	-0.257
-397.165	541.243	-0.044	-0.105
-396.150	-200.000	-0.022	0.201
-395.136	322.636	-0.049	-0.094
-394.121	-5.046	-0.112	-0.077
-393.106	-200.000	0.025	-0.113
-392.092	-200.000	0.035	-0.471
-391.077	-124.875	0.065	-0.010
-390.063	-200.000	-0.031	0.342
-389.048	-200.000	0.042	-0.197
-388.033	-77.048	-0.285	0.099
-387.019	38.773	0.119	0.106
-386.004	-200.000	-0.053	-0.327
-384.990	264.992	-0.041	0.072
-383.975	-200.000	-0.006	-0.158
-382.960	518.797	-0.083	0.194
-381.946	-91.217	-0.127	-0.036
-380.931	306.375	-0.091	-0.169
-379.917	92.191	0.113	-0.127
-378.902	-33.299	-0.279	-0.154
-377.888	800.000	-0.036	0.133
-376.873	-200.000	-0.086	0.457
-375.858	-0.302	-0.154	-0.109
-374.844	-178.185	-0.208	-0.005
-373.829	-121.112	-0.142	-0.024
-372.815	800.000	0.081	0.227
-371.800	-33.275	0.156	0.086
-370.785	-38.330	0.411	-0.216
-369.771	186.253	-0.070	0.103
-368.756	-46.173	-0.112	0.055
-367.742	-44.245	0.092	-0.046
-366.727	-11.304	-0.096	0.063
-365.712	-200.000	-0.009	0.211
-364.698	-107.929	-0.210	0.045
-363.683	-94.289	-0.174	-0.047
-362.669	-151.660	-0.120	0.009
-361.654	787.027	0.111	-0.302
-360.639	800.000	-0.108	-0.304
-359.625	-200.000	0.001	-0.191
-358.610	-37.160	0.255	0.136
-357.596	-12.923	0.114	0.074
-356.581	-113.818	0.189	-0.037
-355.566	-61.875	0.383	0.159
-354.552	-200.000	0.316	-0.000
-353.537	41.673	-0.152	0.137
-352.523	184.056	-0.169	-0.249
-351.508	-55.726	-0.068	-0.030
-350.493	-86.707	-0.187	-0.057
-349.479	43.244	-0.138	-0.125
-348.464	-81.712	0.253	-0.083
-347.450	-17.301	0.167	0.104
-346.435	-58.723	-0.349	0.150
-345.420	-38.960	-0.135	-0.070
-344.406	-48.710	-0.137	-0.065
-343.391	62.042	-0.171	0.170
-342.377	425.047	-0.101	-0.217
-341.362	-170.341	0.238	-0.008
-340.348	106.131	-0.241	0.284
-339.333	115.243	0.146	0.177
-338.318	800.000	-0.066	0.259
-337.304	-41.890	0.067	-0.034
-336.289	324.793	0.057	-0.109
-335.275	-127.167	-0.231	-0.034
-334.260	693.465	0.128	0.334
-333.245	-200.000	-0.005	0.169
-332.231	173.663	-0.012	0.017
-331.216	-169.762	0.426	-0.015
-330.202	115.759	0.125	0.152
-329.187	46.914	0.298	0.275
-328.172	-200.000	0.005	0.115
-327.158	285.276	0.114	-0.204
-326.143	-200.000	0.013	0.057
-325.129	69.990	-0.300	-0.307
-324.114	-65.931	-0.160	-0.063
-323.099	-148.702	0.754	-0.061
-322.085	38.609	-0.148	0.131
-321.070	-29.192	0.157	0.090
-320.056	-105.141	0.254	-0.058
-319.041	188.233	0.016	-0.023
-318.026	10.211	-0.522	0.394
-317.012	254.995	0.094	-0.160
-315.997	-116.632	-0.448	-0.082
-314.983	-61.831	-0.349	0.145
-313.968	59.767	-0.153	-0.149
-312.953	-200.000	0.005	-0.165
-311.939	-0.257	0.048	0.034
-310.924	-39.221	-0.091	0.047
-309.910	-4.698	-0.257	0.176
-308.895	211.564	-0.106	0.165
-307.880	11.601	0.264	-0.201
-306.866	176.077	0.210	-0.302
-305.851	-79.824	0.482	0.161
-304.837	231.127	-0.171	-0.277
-303.822	47.299	-0.174	-0.160
-302.807	86.549	0.119	0.130
-301.793	136.778	0.084	-0.109
-300.778	5.244	-0.120	0.087
-299.764	-64.220	-0.288	-0.116
-298.749	-166.681	-0.090	0.004
-297.735	-108.599	0.325	0.069
-296.720	161.740	0.131	-0.182
-295.705	800.000	0.061	0.197
-294.691	-95.981	0.205	0.054
-293.676	477.696	-0.090	-0.202
-292.662	36.445	0.077	0.067
-291.647	-82.375	-0.239	-0.077
-290.632	253.956	-0.156	0.265
-289.618	175.880	-0.098	0.141
-288.603	-118.933	0.177	0.031
-287.589	-85.514	-0.050	0.015
-286.574	-182.157	0.303	-0.006
-285.559	14.118	0.090	-0.070
-284.545	120.729	-0.283	-0.348
-283.530	-87.803	0.295	0.088
-282.516	473.413	-0.014	-0.032
-281.501	15.056	-0.174	0.135
-280.486	55.716	0.435	0.418
-279.472	-27.522	-0.120	0.069
-278.457	165.253	-0.234	-0.328
-277.443	249.848	0.107	-0.180
-276.428	293.037	-0.032	-0.059
-275.413	254.657	0.093	-0.157
-274.399	-200.000	0.013	0.209
-273.384	90.399	-0.124	0.138
-272.370	-52.846	0.148	0.067
-271.355	800.000	0.121	0.361
-270.340	480.327	-0.143	-0.322
-269.326	800.000	0.117	-0.353
-268.311	237.208	0.098	0.161
-267.297	75.119	-0.135	0.141
-266.282	122.633	0.111	0.137
-265.267	24.584	0.142	0.116
-264.253	-108.955	0.260	0.055
-263.238	684.574	-0.063	0.164
-262.224	-107.479	-0.052	0.011
-261.209	35.385	-0.157	0.136
-260.195	-27.758	0.230	0.132
-259.180	-200.000	0.041	0.180
-258.165	800.000	-0.021	-0.070
-257.151	606.581	0.110	-0.272
-256.136	-104.172	0.342	-0.079
-255.122	-95.056	-0.077	0.021
-254.107	76.208	0.300	0.315
-253.092	343.599	0.130	-0.252
-252.078	143.122	0.182	0.239
-251.063	-69.222	0.160	0.061
-250.049	800.000	-0.051	0.215
-249.034	-200.000	0.035	0.169
-248.019	-200.000	-0.014	-0.147
-247.005	800.000	0.081	0.228
-245.990	800.000	0.077	0.215
-244.976	-200.000	-0.059	-0.294
-243.961	-22.996	-0.144	-0.086
-242.946	-200.000	-0.053	0.404
-241.932	-39.305	-0.214	0.111
-240.917	228.291	0.188	0.303
-239.903	-46.370	-0.096	-0.047
-238.888	130.373	-0.093	0.117
-237.873	-200.000	0.031	-0.221
-236.859	6.253	-0.228	-0.167
-235.844	-200.000	0.021	0.180
-234.830	113.429	-0.048	-0.057
-233.815	-200.000	-0.036	-0.160
-232.800	-200.000	0.002	0.035
-231.786	560.249	0.090	-0.216
-230.771	-118.907	-0.011	-0.002
-229.757	624.524	0.129	0.323
-228.742	-44.360	-0.148	-0.073
-227.727	-200.000	0.038	0.255
-226.713	-200.000	0.032	0.283
-225.698	112.760	0.217	-0.260
-224.684	208.411	-0.061	0.094
-223.669	-141.980	-0.260	-0.026
-222.655	-129.597	-0.311	-0.043
-221.640	-60.976	0.197	-0.082
-220.625	479.086	0.015	-0.034
-219.611	-34.778	0.192	-0.104
-218.596	168.128	0.044	-0.062
-217.582	-101.806	0.041	0.010
-216.567	-134.513	0.131	-0.016
-215.552	-30.914	0.171	-0.095
-214.538	-13.484	0.059	-0.038
-213.523	194.738	0.071	0.106
-212.509	-11.418	0.330	0.214
-211.494	-200.000	0.066	0.409
-210.479	721.777	-0.075	0.197
-209.465	-105.629	-0.196	0.044
-208.450	-200.000	-0.015	-0.085
-207.436	206.634	-0.128	-0.198
-206.421	-174.474	-0.334	-0.009
-205.406	-82.244	0.204	-0.066
-204.392	-186.093	-0.185	0.003
-203.377	81.612	-0.211	0.226
-202.363	-99.222	-0.258	-0.064
-201.348	38.680	-0.031	-0.028
-200.333	800.000	0.036	0.153
-199.319	-200.000	-0.015	-0.208
-198.304	-200.000	0.011	-0.193
-197.290	-117.649	-0.159	0.028
-196.275	505.643	0.042	-0.097
-195.260	-52.323	0.268	-0.122
-194.246	5.025	0.249	0.181
-193.231	800.000	-0.078	0.309
-192.217	-39.887	-0.205	0.106
-191.202	154.319	0.194	0.263
-190.187	81.370	0.202	0.215
-189.173	-66.184	0.075	-0.030
-188.158	177.930	0.032	0.046
-187.144	108.642	-0.116	0.136
-186.129	-96.979	-0.159	-0.041
-185.114	-27.673	0.063	0.036
-184.100	-12.896	0.150	0.097
-183.085	20.555	-0.146	0.116
-182.071	-42.342	0.222	0.112
-181.056	-35.174	0.024	0.013
-180.042	800.000	-0.116	0.334
-179.027	26.583	0.084	0.070
-178.012	318.740	0.037	-0.070
-176.998	-200.000	-0.009	-0.298
-175.983	21.929	-0.173	-0.139
-174.969	-200.000	0.004	-0.343
-173.954	-136.447	0.345	-0.040
-172.939	-155.626	0.175	0.011
-171.925	800.000	0.058	0.177
-170.910	214.961	0.071	0.111
-169.896	-200.000	-0.016	-0.100
-168.881	692.996	-0.046	-0.118
-167.866	-200.000	-0.096	-0.000
-166.852	-200.000	0.014	0.099
-165.837	102.441	-0.159	0.183
-164.823	800.000	0.066	0.215
-163.808	-28.168	-0.178	-0.102
-162.793	-68.162	-0.127	-0.049
-161.779	166.350	0.064	0.089
-160.764	291.265	0.076	0.136
-159.750	252.884	0.090	0.151
-158.735	-70.219	-0.234	0.088
-157.720	800.000	0.057	0.208
-156.706	-100.793	0.600	0.146
-155.691	-150.462	-0.043	-0.003
-154.677	187.576	-0.022	-0.032
-153.662	-20.628	0.251	0.152
-152.647	800.000	-0.053	0.178
-151.633	-126.883	0.240	0.035
-150.618	-126.508	0.204	-0.030
-149.604	246.297	0.114	0.190
-148.589	64.274	-0.082	-0.081
-147.574	-122.050	0.330	0.053
-146.560	-24.854	-0.121	-0.071
-145.545	214.527	0.098	-0.152
-144.531	66.868	0.216	0.216
-143.516	-59.447	-0.164	0.069
-142.502	-128.579	0.107	0.015
-141.487	546.653	-0.043	0.100
-140.472	391.758	0.076	0.156
-139.458	208.042	0.128	-0.198
-138.443	143.332	-0.051	-0.067
-137.429	-42.087	0.072	-0.036
-136.414	152.511	0.228	0.307
-135.399	-200.000	0.016	-0.132
-134.385	-200.000	0.067	0.328
-133.370	-165.399	-0.364	-0.016
-132.356	191.571	0.159	0.236
-131.341	-75.843	0.113	-0.039
-130.326	-164.161	0.382	-0.017
-129.312	-200.000	-0.016	0.218
-128.297	211.959	0.104	0.161
-127.283	-116.784	0.223	0.040
-126.268	549.948	-0.152	-0.359
-125.253	67.742	0.139	-0.140
-124.239	-80.638	0.256	0.084
-123.224	10.307	-0.256	0.192
-122.210	-79.456	-0.262	-0.087
