DTS Sentinel unit serial number:	SN413079Multiplexer serial number:	ORYXHardware model number:	OX4-SRSoftware version number:	ORYX F/W v4.00 Oryx Data Collector v3.7.2.0data status	okinstallation	princeton_trtdifferential loss correction	single-endedforward channel	channel 2reverse channel	N/Adate	2019/09/19time	04:39:34forward acquisition time	60.00reverse acquisition time	0.00gamma	496.2192k internal	0.2351k external	0.2351temperature offset calibration	1.0014default loss term (dB/km)	0.3790temperature slope calibration	1.0000multiplexer offset coefficient	1.0000multiplexer slope coefficient	1.0000fibre end	0.00T internal ref (°C)	20.00T ext. ref 1 (°C)	0.61T ext. ref 2 (°C)	12.94length (m)	temperature (°C)	Stokes	anti-Stokes-747.200	-64.370	-0.240	0.097
-746.185	-113.631	-0.285	0.056
-745.171	-107.307	-0.461	0.101
-744.156	362.077	-0.140	0.280
-743.142	393.431	-0.158	0.328
-742.127	24.013	-0.266	0.219
-741.112	91.014	0.049	-0.054
-740.098	-30.607	-0.488	0.275
-739.083	-29.784	-0.176	-0.100
-738.069	-167.006	-0.300	-0.012
-737.054	116.294	0.076	-0.093
-736.039	-200.000	-0.002	-0.331
-735.025	-87.410	0.153	-0.046
-734.010	-181.440	-0.180	0.004
-732.996	-3.524	-0.415	-0.288
-731.981	156.040	0.056	-0.078
-730.966	-109.324	0.413	-0.087
-729.952	800.000	0.051	-0.190
-728.937	-43.514	0.360	-0.181
-727.923	-153.381	-0.232	-0.016
-726.908	-200.000	-0.009	-0.124
-725.894	-96.611	0.225	0.059
-724.879	-170.693	-0.354	0.012
-723.864	302.361	-0.104	-0.193
-722.850	-26.828	0.192	0.112
-721.835	-78.724	-0.287	-0.098
-720.821	3.800	-0.317	0.231
-719.806	-54.028	-0.149	0.068
-718.791	-30.094	-0.103	-0.059
-717.777	100.693	0.211	0.244
-716.762	82.902	-0.206	-0.223
-715.748	124.781	-0.261	-0.328
-714.733	-41.950	0.146	-0.074
-713.718	-200.000	-0.018	0.100
-712.704	800.000	0.066	0.279
-711.689	-102.549	0.267	-0.064
-710.675	51.058	-0.154	0.145
-709.660	202.599	0.224	0.344
-708.645	800.000	0.002	0.007
-707.631	233.799	0.094	-0.154
-706.616	339.390	0.130	-0.252
-705.602	-200.000	0.022	-0.168
-704.587	344.633	0.123	0.241
-703.572	-28.278	0.131	0.075
-702.558	-10.476	-0.170	0.112
-701.543	-18.637	0.161	-0.100
-700.529	-200.000	0.000	0.060
-699.514	800.000	0.033	0.091
-698.499	771.640	0.131	0.357
-697.485	71.445	-0.087	-0.090
-696.470	-29.557	0.252	0.143
-695.456	23.423	0.056	-0.046
-694.441	800.000	0.046	0.189
-693.426	354.754	-0.068	0.134
-692.412	-200.000	0.014	-0.126
-691.397	800.000	-0.070	-0.291
-690.383	-77.237	-0.445	-0.154
-689.368	-123.406	-0.187	-0.030
-688.354	144.845	0.120	-0.160
-687.339	-23.066	-0.295	0.177
-686.324	-200.000	0.024	0.336
-685.310	-140.254	-0.199	0.021
-684.295	605.079	0.107	-0.266
-683.281	-11.299	0.350	0.230
-682.266	-200.000	-0.014	0.320
-681.251	416.669	0.096	0.204
-680.237	-139.487	-0.251	0.027
-679.222	484.453	-0.031	0.069
-678.208	121.510	0.067	-0.083
-677.193	161.385	-0.073	0.101
-676.178	-38.543	-0.215	0.113
-675.164	-50.609	0.041	0.019
-674.149	487.304	0.026	-0.059
-673.135	-100.599	0.158	0.039
-672.120	-200.000	0.009	0.178
-671.105	-200.000	-0.018	-0.106
-670.091	-8.732	0.068	0.045
-669.076	-200.000	0.003	0.024
-668.062	-24.540	-0.130	-0.077
-667.047	-200.000	0.047	-0.260
-666.032	-24.525	-0.259	-0.153
-665.018	-52.772	-0.095	0.044
-664.003	-91.802	0.176	-0.050
-662.989	-62.911	0.020	-0.008
-661.974	-85.607	-0.296	-0.092
-660.959	-200.000	0.000	0.034
-659.945	186.929	0.202	0.299
-658.930	81.180	0.352	-0.378
-657.916	-119.900	0.202	0.035
-656.901	603.622	-0.030	-0.074
-655.886	61.360	-0.103	0.102
-654.872	56.889	0.151	0.147
-653.857	-199.465	0.023	-0.000
-652.843	-67.769	-0.200	0.078
-651.828	-200.000	0.074	0.000
-650.814	-70.283	0.102	-0.038
-649.799	-200.000	0.006	0.087
-648.784	800.000	-0.097	-0.300
-647.770	-128.263	0.103	-0.015
-646.755	-45.081	-0.384	-0.190
-645.741	266.816	0.173	0.301
-644.726	-126.225	0.120	-0.018
-643.711	800.000	-0.052	-0.207
-642.697	-62.213	0.220	0.091
-641.682	0.950	-0.187	-0.133
-640.668	14.646	-0.167	0.130
-639.653	85.685	-0.090	0.098
-638.638	305.839	-0.097	-0.179
-637.624	511.677	-0.106	-0.245
-636.609	-121.189	0.211	0.035
-635.595	-200.000	-0.068	-0.313
-634.580	800.000	0.040	-0.137
-633.565	-143.886	0.250	0.023
-632.551	-200.000	0.040	0.200
-631.536	-52.872	-0.275	-0.126
-630.522	-2.002	0.235	0.164
-629.507	263.346	0.092	0.159
-628.492	800.000	-0.038	-0.152
-627.478	-27.117	0.094	0.055
-626.463	390.882	-0.082	0.168
-625.449	307.837	-0.043	-0.079
-624.434	-70.717	0.075	-0.028
-623.419	-200.000	-0.004	0.032
-622.405	37.073	-0.085	-0.074
-621.390	-17.449	-0.099	0.062
-620.376	-57.752	-0.313	0.136
-619.361	23.768	0.143	0.117
-618.346	-143.470	-0.287	0.027
-617.332	-42.734	0.462	-0.233
-616.317	-0.175	0.100	0.071
-615.303	-116.272	0.250	-0.046
-614.288	18.141	-0.244	-0.194
-613.273	46.304	0.262	-0.241
-612.259	501.441	0.154	0.352
-611.244	768.589	-0.031	-0.083
-610.230	244.655	0.205	0.343
-609.215	-135.654	-0.074	-0.009
-608.201	511.293	0.038	-0.089
-607.186	-200.000	0.056	-0.261
-606.171	117.128	-0.089	0.109
-605.157	-63.042	-0.368	-0.151
-604.142	-56.859	0.340	-0.149
-603.128	-155.364	-0.070	0.004
-602.113	-200.000	-0.024	-0.187
-601.098	-47.258	-0.354	-0.171
-600.084	510.841	-0.124	-0.287
-599.069	-75.078	-0.469	0.166
-598.055	-119.655	-0.158	-0.027
-597.040	107.853	-0.190	-0.225
-596.025	-130.331	-0.183	-0.025
-595.011	14.769	0.063	-0.049
-593.996	-200.000	0.003	-0.136
-592.982	61.212	-0.096	-0.094
-591.967	640.644	0.057	0.145
-590.952	128.235	0.181	-0.228
-589.938	-156.254	-0.172	-0.011
-588.923	-200.000	0.101	-0.674
-587.909	125.932	0.292	-0.366
-586.894	375.293	-0.115	0.233
-585.879	-59.327	0.345	0.147
-584.865	800.000	0.148	0.471
-583.850	-79.636	-0.250	-0.084
-582.836	-200.000	-0.009	0.186
-581.821	79.054	-0.058	0.062
-580.806	-200.000	0.010	-0.326
-579.792	-161.001	0.150	0.008
-578.777	-101.066	-0.364	-0.089
-577.763	-200.000	-0.009	-0.350
-576.748	-83.902	-0.205	0.065
-575.733	-110.205	-0.246	-0.051
-574.719	800.000	0.088	-0.267
-573.704	211.066	0.163	-0.254
-572.690	-141.611	0.322	-0.032
-571.675	-191.178	0.169	0.002
-570.661	-186.901	-0.174	0.002
-569.646	-179.116	0.330	-0.007
-568.631	42.471	-0.190	-0.171
-567.617	99.115	0.060	-0.069
-566.602	-104.795	-0.161	-0.037
-565.588	-116.060	0.108	-0.020
-564.573	198.058	-0.186	0.282
-563.558	-52.045	0.203	-0.093
-562.544	800.000	0.061	-0.253
-561.529	-125.536	0.096	0.014
-560.515	800.000	-0.042	0.137
-559.500	24.623	-0.103	0.084
-558.485	-200.000	-0.059	-0.350
-557.471	33.068	-0.105	0.090
-556.456	156.871	0.244	-0.334
-555.442	-125.923	-0.278	0.041
-554.427	800.000	-0.046	-0.167
-553.412	-200.000	-0.072	-0.395
-552.398	-127.223	0.132	-0.019
-551.383	309.014	0.096	0.177
-550.369	72.090	-0.046	-0.047
-549.354	65.329	0.165	-0.166
-548.339	-97.815	0.179	0.046
-547.325	313.806	-0.183	-0.342
-546.310	-200.000	-0.047	-0.301
-545.296	124.691	0.105	-0.130
-544.281	307.278	-0.115	0.212
-543.266	-5.220	0.384	0.261
-542.252	-165.045	0.286	-0.013
-541.237	319.345	-0.063	0.118
-540.223	-76.301	-0.146	0.051
-539.208	-11.165	-0.129	-0.084
-538.193	28.976	0.064	0.054
-537.179	-200.000	0.154	0.000
-536.164	6.909	0.281	-0.207
-535.150	70.019	-0.134	0.137
-534.135	254.632	0.132	-0.223
-533.121	569.986	-0.127	-0.305
-532.106	800.000	-0.101	-0.327
-531.091	-24.802	-0.087	-0.051
-530.077	-100.318	-0.342	-0.084
-529.062	-200.000	0.030	-0.211
-528.048	618.246	-0.061	-0.151
-527.033	500.392	-0.108	0.247
-526.018	133.925	-0.109	0.140
-525.004	192.953	0.152	0.227
-523.989	-200.000	-0.012	-0.208
-522.975	189.348	-0.273	-0.404
-521.960	200.051	-0.177	-0.269
-520.945	278.646	-0.065	-0.114
-519.931	800.000	-0.089	0.255
-518.916	-30.934	-0.243	0.135
-517.902	-200.000	-0.032	-0.324
-516.887	-58.967	-0.265	0.113
-515.872	800.000	-0.051	-0.209
-514.858	-47.743	-0.179	-0.086
-513.843	293.071	0.135	-0.244
-512.829	-142.570	0.241	0.023
-511.814	800.000	-0.097	0.404
-510.799	-14.953	0.215	-0.136
-509.785	181.411	-0.217	-0.316
-508.770	377.777	-0.110	0.223
-507.756	-200.000	0.023	0.510
-506.741	-4.831	0.229	0.156
-505.726	-169.703	0.221	0.008
-504.712	-200.000	0.015	0.270
-503.697	-120.216	-0.171	0.029
-502.683	-93.743	0.104	0.028
-501.668	-23.311	0.266	0.158
-500.653	285.371	-0.130	0.232
-499.639	-200.000	-0.055	-0.301
-498.624	-105.644	0.430	0.096
-497.610	60.193	0.306	-0.299
-496.595	12.015	-0.150	-0.114
-495.581	800.000	0.052	0.190
-494.566	103.895	0.126	0.146
-493.551	120.169	0.131	-0.161
-492.537	-200.000	0.049	-0.365
-491.522	-179.599	-0.057	0.001
-490.508	-200.000	-0.049	0.293
-489.493	-46.740	-0.275	-0.133
-488.478	-101.732	0.270	0.065
-487.464	-19.983	0.143	-0.087
-486.449	23.529	0.121	-0.098
-485.435	-200.000	-0.006	0.042
-484.420	-5.374	0.151	0.102
-483.405	-200.000	0.009	-0.075
-482.391	-200.000	-0.669	0.003
-481.376	86.784	0.053	0.058
-480.362	-109.054	-0.361	0.076
-479.347	-192.406	0.227	0.002
-478.332	-81.933	-0.155	0.050
-477.318	619.638	0.034	0.085
-476.303	-200.000	-0.021	-0.302
-475.289	-118.833	0.195	-0.034
-474.274	800.000	-0.014	-0.040
-473.259	-200.000	-0.010	0.225
-472.245	-200.000	0.001	0.069
-471.230	800.000	-0.051	0.151
-470.216	246.317	-0.082	0.136
-469.201	-200.000	-0.015	-0.287
-468.186	-149.813	-0.273	-0.021
-467.172	-91.701	0.391	-0.110
-466.157	108.911	-0.097	0.115
-465.143	-85.028	0.469	0.145
-464.128	-200.000	0.061	0.413
-463.113	-200.000	0.027	-0.185
-462.099	-3.839	-0.111	-0.076
-461.084	800.000	-0.078	-0.251
-460.070	-200.000	0.019	0.138
-459.055	349.769	0.054	0.105
-458.040	532.389	-0.082	0.191
-457.026	449.378	-0.044	-0.096
-456.011	4.822	0.121	-0.087
-454.997	-56.681	0.143	-0.063
-453.982	299.828	-0.114	0.208
-452.968	-200.000	0.031	0.155
-451.953	-106.949	-0.310	-0.068
-450.938	-200.000	0.023	0.118
-449.924	208.084	0.173	-0.266
-448.909	-71.799	0.240	-0.088
-447.895	-200.000	-0.025	0.176
-446.880	-200.000	0.014	0.073
-445.865	-32.453	0.317	-0.174
-444.851	340.187	-0.099	-0.191
-443.836	800.000	0.032	-0.130
-442.822	-200.000	-0.006	0.327
-441.807	-17.286	0.114	0.071
-440.792	-200.000	0.028	0.147
-439.778	-61.816	0.120	0.050
-438.763	-143.047	-0.149	-0.014
-437.749	344.158	-0.057	-0.110
-436.734	-83.400	0.040	0.013
-435.719	37.920	0.198	0.173
-434.705	76.717	0.082	0.086
-433.690	-200.000	0.016	0.198
-432.676	249.001	-0.034	-0.058
-431.661	-59.654	-0.189	-0.080
-430.646	336.663	0.088	-0.168
-429.632	-200.000	0.010	-0.045
-428.617	398.757	-0.053	0.110
-427.603	-64.981	-0.141	0.056
-426.588	-200.000	-0.039	-0.266
-425.573	-27.734	0.344	0.197
-424.559	66.472	-0.087	0.087
-423.544	-95.624	-0.247	0.065
-422.530	130.586	0.175	0.221
-421.515	-138.787	-0.533	0.057
-420.500	-200.000	0.011	0.190
-419.486	800.000	-0.042	-0.157
-418.471	-123.308	0.258	-0.041
-417.457	-49.043	-0.185	0.087
-416.442	-200.000	0.020	-0.202
-415.428	242.295	0.037	0.061
-414.413	43.088	0.033	0.030
-413.398	71.460	0.138	0.141
-412.384	100.487	-0.071	0.081
-411.369	-121.192	0.139	0.023
-410.355	15.429	-0.150	-0.116
-409.340	15.645	0.057	-0.044
-408.325	281.731	0.047	0.084
-407.311	-91.683	-0.314	-0.088
-406.296	-200.000	-0.000	0.037
-405.282	-39.621	0.071	0.037
-404.267	800.000	-0.134	-0.389
-403.252	-200.000	0.024	-0.307
-402.238	800.000	-0.056	0.159
-401.223	91.481	0.131	0.145
-400.209	650.129	-0.031	-0.078
-399.194	647.781	-0.069	-0.174
-398.179	-200.000	0.071	0.411
-397.165	134.090	-0.131	0.167
-396.150	800.000	0.083	0.268
-395.136	3.665	-0.013	0.009
-394.121	303.493	-0.253	-0.462
-393.106	216.582	0.115	-0.181
-392.092	441.268	-0.033	-0.072
-391.077	800.000	-0.044	0.180
-390.063	-99.421	-0.320	0.079
-389.048	227.159	-0.049	0.079
-388.033	630.515	0.119	0.297
-387.019	-127.898	-0.097	-0.014
-386.004	-68.198	0.138	-0.053
-384.990	-200.000	0.068	0.295
-383.975	-12.288	0.049	-0.032
-382.960	-200.000	-0.320	-0.001
-381.946	-200.000	-0.050	0.348
-380.931	800.000	0.080	0.314
-379.917	-200.000	-0.055	0.482
-378.902	68.205	-0.166	0.168
-377.888	-137.957	0.133	0.015
-376.873	-101.169	-0.317	-0.076
-375.858	-58.642	0.201	0.086
-374.844	180.425	-0.138	-0.198
-373.829	-3.001	0.094	-0.065
-372.815	-95.944	0.374	-0.098
-371.800	-91.092	-0.080	0.023
-370.785	-200.000	-0.034	-0.268
-369.771	-70.830	0.257	-0.095
-368.756	95.614	0.152	-0.170
-367.742	-200.000	0.033	0.151
-366.727	360.530	0.169	0.332
-365.712	81.193	-0.126	-0.134
-364.698	198.647	0.016	-0.024
-363.683	482.209	0.081	-0.181
-362.669	10.293	-0.274	-0.205
-361.654	-22.710	-0.323	-0.192
-360.639	126.078	0.134	-0.167
-359.625	-42.893	0.376	0.188
-358.610	800.000	-0.031	-0.126
-357.596	-46.596	-0.101	0.049
-356.581	-65.978	0.252	-0.099
-355.566	544.355	-0.114	0.267
-354.552	606.992	0.033	-0.081
-353.537	263.208	0.109	0.185
-352.523	-70.509	0.370	0.138
-351.508	69.460	-0.140	0.142
-350.493	199.055	-0.118	-0.178
-349.479	728.490	0.056	0.148
-348.464	-3.446	0.005	0.004
-347.450	-200.000	0.067	0.649
-346.435	-130.661	0.289	-0.038
-345.420	800.000	-0.106	-0.309
-344.406	-144.161	0.062	0.006
-343.391	-200.000	-0.041	0.371
-342.377	83.438	0.242	-0.259
-341.362	127.427	-0.123	-0.153
-340.348	201.998	-0.314	-0.475
-339.333	676.559	-0.103	0.262
-338.318	-36.554	0.176	-0.093
-337.304	232.913	-0.309	-0.499
-336.289	-56.867	0.143	-0.062
-335.275	58.309	-0.112	0.108
-334.260	15.866	-0.198	-0.153
-333.245	116.617	0.208	0.250
-332.231	-88.088	-0.193	-0.057
-331.216	-137.766	-0.206	0.023
-330.202	-22.525	0.088	-0.053
-329.187	22.097	0.353	0.283
-328.172	-138.645	-0.398	-0.043
-327.158	-200.000	0.019	0.098
-326.143	-200.000	-0.005	-0.119
-325.129	-140.929	-0.327	0.033
-324.114	-26.974	0.043	0.025
-323.099	196.259	0.012	0.017
-322.085	-95.673	-0.150	-0.040
-321.070	-135.171	0.276	-0.033
-320.056	36.310	-0.336	-0.290
-319.041	61.210	0.263	0.256
-318.026	56.167	0.267	0.255
-317.012	-61.894	-0.445	-0.183
-315.997	-47.898	0.195	-0.093
-314.983	227.933	0.303	0.485
-313.968	-183.433	-0.351	-0.006
-312.953	-171.483	0.160	0.005
-311.939	-85.251	0.038	0.012
-310.924	-81.719	-0.295	-0.095
-309.910	-90.660	-0.260	0.074
-308.895	800.000	-0.093	0.325
-307.880	-125.449	0.166	-0.025
-306.866	-77.737	-0.052	-0.018
-305.851	44.836	0.209	-0.189
-304.837	800.000	-0.144	0.396
-303.822	-200.000	-0.001	0.036
-302.807	-200.000	-0.042	0.342
-301.793	-200.000	-0.005	-0.159
-300.778	8.994	0.259	0.192
-299.764	-19.447	-0.161	0.098
-298.749	-200.000	-0.015	-0.203
-297.735	-57.934	0.103	0.044
-296.720	-82.520	0.099	-0.031
-295.705	-38.617	0.211	0.109
-294.691	-200.000	-0.015	0.434
-293.676	33.149	0.195	0.166
-292.662	338.151	0.155	-0.296
-291.647	5.237	-0.231	-0.167
-290.632	-71.912	0.359	-0.131
-289.618	49.486	-0.046	0.042
-288.603	115.418	0.084	-0.101
-287.589	-200.000	0.037	-0.267
-286.574	-109.996	-0.333	0.068
-285.559	-200.000	0.001	0.306
-284.545	-171.998	0.032	-0.001
-283.530	198.030	0.051	0.077
-282.516	-6.853	-0.282	0.188
-281.501	177.187	0.107	0.153
-280.486	29.851	-0.146	-0.122
-279.472	578.620	0.097	0.232
-278.457	332.481	-0.138	0.261
-277.443	193.062	0.062	-0.092
-276.428	-190.645	-0.243	0.003
-275.413	450.430	0.125	0.270
-274.399	622.888	-0.006	0.015
-273.384	-27.007	-0.064	-0.037
-272.370	65.221	0.122	-0.121
-271.355	166.493	-0.151	0.210
-270.340	-179.561	0.332	-0.007
-269.326	800.000	0.060	0.223
-268.311	75.518	-0.240	0.248
-267.297	536.832	-0.082	-0.191
-266.282	-39.082	0.176	-0.091
-265.267	-72.411	0.379	0.137
-264.253	-102.671	0.114	-0.027
-263.238	-200.000	-0.045	0.523
-262.224	38.616	0.145	0.127
-261.209	50.305	-0.073	-0.068
-260.195	244.305	0.016	0.026
-259.180	162.439	-0.105	0.144
-258.165	35.434	0.041	0.035
-257.151	9.811	-0.243	-0.180
-256.136	-84.193	0.162	-0.050
-255.122	-92.086	-0.174	-0.048
-254.107	277.800	0.119	0.207
-253.092	-82.494	-0.055	0.018
-252.078	39.512	-0.179	-0.157
-251.063	800.000	-0.101	-0.296
-250.049	79.597	-0.160	-0.169
-249.034	505.476	0.117	-0.264
-248.019	8.036	-0.133	-0.098
-247.005	241.491	-0.109	0.179
-245.990	77.851	0.136	0.142
-244.976	82.979	0.041	-0.044
-243.961	-142.155	0.256	-0.025
-242.946	800.000	-0.080	-0.342
-241.932	238.459	-0.105	0.170
-240.917	43.151	0.144	0.129
-239.903	-118.386	-0.124	0.022
-238.888	-120.374	-0.306	0.051
-237.873	-50.408	0.088	0.041
-236.859	99.421	0.214	-0.242
-235.844	609.836	0.102	-0.250
-234.830	-40.095	-0.071	-0.036
-233.815	-76.869	-0.285	-0.097
-232.800	48.573	0.170	0.156
-231.786	542.709	-0.018	-0.041
-230.771	-109.956	0.371	0.076
-229.757	-200.000	-0.017	-0.121
-228.742	800.000	0.107	0.337
-227.727	-155.431	0.329	0.021
-226.713	158.731	-0.179	-0.243
-225.698	-152.206	-0.040	0.003
-224.684	202.048	-0.160	0.242
-223.669	663.603	0.072	-0.183
-222.655	-3.562	0.205	-0.140
-221.640	693.227	0.058	-0.149
-220.625	71.901	0.245	-0.249
-219.611	-200.000	-0.063	0.341
-218.596	800.000	-0.134	0.395
-217.582	155.394	-0.097	0.130
-216.567	800.000	-0.039	0.137
-215.552	-78.459	0.054	-0.018
-214.538	-159.899	-0.156	-0.008
-213.523	229.983	0.273	0.435
-212.509	800.000	-0.099	0.301
-211.494	-64.918	-0.372	0.147
-210.479	572.423	-0.114	0.271
-209.465	675.056	0.064	-0.161
-208.450	190.495	-0.098	0.144
-207.436	259.823	-0.222	-0.374
-206.421	-126.212	-0.267	0.039
-205.406	-19.307	0.265	-0.160
-204.392	800.000	-0.021	0.059
-203.377	800.000	0.069	0.268
-202.363	72.213	0.058	-0.059
-201.348	-200.000	0.011	0.196
-200.333	77.516	0.153	-0.159
-199.319	389.887	-0.082	0.166
-198.304	-86.164	-0.170	0.051
-197.290	223.591	-0.147	0.232
-196.275	71.760	0.429	0.435
-195.260	-140.044	0.120	0.012
-194.246	314.385	-0.210	0.386
-193.231	79.586	0.083	-0.087
-192.217	-200.000	-0.032	-0.138
-191.202	-98.453	0.259	0.065
-190.187	-72.870	0.118	0.042
-189.173	22.034	-0.153	-0.122
-188.158	15.019	-0.146	0.112
-187.144	-86.700	-0.146	0.043
-186.129	800.000	-0.114	-0.450
-185.114	-100.578	0.202	0.049
-184.100	190.790	0.131	-0.193
-183.085	23.681	-0.369	-0.297
-182.071	10.072	0.104	-0.077
-181.056	-100.588	-0.228	0.055
-180.042	-122.565	0.138	0.022
-179.027	-102.357	-0.275	0.064
-178.012	-62.928	0.270	-0.109
-176.998	-106.180	-0.259	-0.057
-175.983	76.418	0.153	0.158
-174.969	92.676	0.116	-0.127
-173.954	545.215	-0.116	-0.272
-172.939	184.923	-0.145	-0.210
-171.925	21.143	0.068	-0.054
-170.910	59.618	-0.096	-0.093
-169.896	336.567	-0.124	-0.236
-168.881	115.546	0.174	-0.208
-167.866	-36.807	0.148	-0.077
-166.852	-176.590	0.064	-0.002
-165.837	644.867	-0.056	0.139
-164.823	271.085	0.070	0.120
-163.808	-153.920	0.233	0.016
-162.793	163.203	-0.159	-0.219
-161.779	800.000	-0.030	0.095
-160.764	-200.000	-0.042	0.327
-159.750	50.964	-0.166	0.154
-158.735	63.356	-0.043	-0.042
-157.720	372.438	0.090	0.179
-156.706	410.776	0.119	0.246
-155.691	-57.710	0.253	-0.108
-154.677	93.046	-0.040	-0.044
-153.662	-86.288	0.332	-0.100
-152.647	788.082	0.038	0.101
-151.633	-66.630	0.206	0.080
-150.618	-200.000	-0.015	0.099
-149.604	-200.000	0.019	0.151
-148.589	135.206	0.048	-0.061
-147.574	800.000	0.119	0.390
-146.560	115.835	-0.167	-0.200
-145.545	22.913	-0.099	-0.079
-144.531	288.636	0.054	-0.096
-143.516	-168.085	0.376	-0.014
-142.502	-36.080	-0.190	0.100
-141.487	-131.273	0.223	-0.029
-140.472	800.000	0.043	0.168
-139.458	-152.221	0.264	-0.019
-138.443	-87.667	-0.282	-0.083
-137.429	-200.000	0.002	0.175
-136.414	60.893	0.162	0.157
-135.399	-77.870	0.450	0.151
-134.385	-200.000	-0.003	-0.153
-133.370	-108.242	-0.099	-0.021
-132.356	800.000	-0.055	-0.193
-131.341	-62.704	0.484	0.195
-130.326	15.561	-0.112	0.086
-129.312	97.271	0.139	-0.156
-128.297	-200.000	0.102	-0.455
-127.283	28.041	-0.394	-0.324
-126.268	-1.894	0.065	0.044
-125.253	21.110	0.094	-0.074
-124.239	48.205	0.183	0.166
-123.224	800.000	-0.080	0.303
-122.210	-61.090	0.106	0.044
-121.195	163.591	0.079	0.109
