DTS Sentinel unit serial number:	SN413079Multiplexer serial number:	ORYXHardware model number:	OX4-SRSoftware version number:	ORYX F/W v4.00 Oryx Data Collector v3.7.2.0data status	okinstallation	princeton_trtdifferential loss correction	single-endedforward channel	channel 2reverse channel	N/Adate	2019/09/13time	01:55:34forward acquisition time	60.00reverse acquisition time	0.00gamma	496.2192k internal	0.2334k external	0.2334temperature offset calibration	1.0176default loss term (dB/km)	0.3790temperature slope calibration	1.0000multiplexer offset coefficient	1.0000multiplexer slope coefficient	1.0000fibre end	0.00T internal ref (°C)	27.67T ext. ref 1 (°C)	3.84T ext. ref 2 (°C)	22.30length (m)	temperature (°C)	Stokes	anti-Stokes-747.200	-68.620	0.211	0.082
-746.185	800.000	0.102	-0.320
-745.171	-106.667	0.399	-0.089
-744.156	134.537	0.124	-0.161
-743.142	17.260	0.182	0.145
-742.127	-2.199	0.046	-0.032
-741.112	-39.878	-0.112	0.059
-740.098	85.455	0.062	0.069
-739.083	-69.895	-0.410	0.157
-738.069	698.321	0.126	0.332
-737.054	62.039	0.107	-0.107
-736.039	48.216	-0.304	-0.286
-735.025	-102.694	-0.195	0.047
-734.010	645.977	-0.033	0.084
-732.996	241.627	0.053	-0.088
-731.981	38.826	-0.120	0.108
-730.966	173.448	-0.117	0.170
-729.952	800.000	-0.070	-0.201
-728.937	-200.000	0.013	-0.184
-727.923	62.191	0.185	-0.185
-726.908	31.617	0.116	0.101
-725.894	-28.473	-0.030	0.018
-724.879	800.000	0.036	0.105
-723.864	-46.152	0.076	0.038
-722.850	-200.000	0.074	0.405
-721.835	146.154	0.024	-0.032
-720.821	-132.361	-0.394	-0.051
-719.806	-185.541	0.174	0.003
-718.791	-200.000	-0.027	-0.460
-717.777	-142.220	0.231	0.023
-716.762	8.934	0.146	0.111
-715.748	-76.092	0.241	-0.086
-714.733	639.402	-0.137	-0.349
-713.718	-154.718	-0.263	-0.018
-712.704	426.442	-0.152	0.330
-711.689	92.819	-0.327	-0.370
-710.675	483.707	-0.087	-0.199
-709.660	-96.884	-0.272	0.072
-708.645	352.221	-0.125	-0.249
-707.631	800.000	0.065	-0.194
-706.616	-86.473	-0.207	0.064
-705.602	14.196	0.187	-0.146
-704.587	496.761	-0.082	-0.188
-703.572	800.000	-0.067	-0.193
-702.558	-36.610	-0.075	0.041
-701.543	-31.284	0.207	-0.117
-700.529	33.047	0.136	-0.118
-699.514	-44.979	-0.181	-0.090
-698.499	-200.000	0.003	0.349
-697.485	-173.600	-0.331	-0.010
-696.470	170.105	-0.269	-0.386
-695.456	-156.410	-0.023	0.001
-694.441	-184.841	0.190	0.003
-693.426	86.053	-0.253	0.280
-692.412	-158.005	0.150	-0.009
-691.397	63.151	-0.332	-0.333
-690.383	-178.558	0.233	0.005
-689.368	-5.599	-0.229	-0.158
-688.354	-84.551	0.164	0.052
-687.339	-20.921	0.076	-0.046
-686.324	-200.000	0.002	0.387
-685.310	-131.138	-0.303	0.040
-684.295	72.002	-0.109	0.114
-683.281	-156.609	-0.045	0.003
-682.266	-200.000	-0.031	0.328
-681.251	-200.000	-0.015	0.167
-680.237	-200.000	0.020	-0.204
-679.222	-168.523	-0.073	0.003
-678.208	200.926	-0.209	-0.323
-677.193	1.308	0.372	-0.268
-676.178	0.298	-0.048	-0.035
-675.164	-115.073	-0.343	0.065
-674.149	11.614	-0.248	0.191
-673.135	17.510	0.180	0.144
-672.120	-124.715	-0.362	-0.056
-671.105	-98.513	0.173	-0.044
-670.091	-65.489	-0.344	0.138
-669.076	79.135	-0.092	-0.099
-668.062	-176.077	-0.228	-0.006
-667.047	80.913	-0.228	-0.247
-666.032	267.969	-0.179	-0.313
-665.018	53.401	0.337	0.323
-664.003	-37.061	0.077	-0.041
-662.989	268.707	-0.042	-0.075
-661.974	-111.701	0.122	0.025
-660.959	-89.342	0.316	-0.093
-659.945	21.022	-0.372	0.303
-658.930	13.707	0.325	-0.253
-657.916	800.000	0.027	-0.083
-656.901	-113.934	0.113	-0.022
-655.886	216.577	0.100	0.159
-654.872	-200.000	0.064	0.369
-653.857	225.607	-0.232	-0.377
-652.843	-200.000	0.037	0.198
-651.828	-103.997	-0.338	-0.079
-650.814	319.739	0.067	-0.127
-649.799	-122.947	0.194	-0.031
-648.784	800.000	-0.065	0.264
-647.770	718.247	0.117	-0.312
-646.755	144.276	0.190	-0.254
-645.741	117.706	-0.192	-0.237
-644.726	268.863	-0.067	-0.118
-643.711	-34.094	-0.139	0.076
-642.697	-155.380	-0.292	0.019
-641.682	90.939	-0.254	0.285
-640.668	86.159	-0.117	0.129
-639.653	800.000	-0.105	-0.382
-638.638	472.191	-0.099	0.223
-637.624	-146.639	-0.488	-0.042
-636.609	-41.880	-0.113	-0.058
-635.595	-151.178	0.015	0.001
-634.580	308.750	0.023	-0.043
-633.565	20.961	-0.086	0.070
-632.551	-48.823	-0.104	-0.050
-631.536	-63.031	-0.561	-0.232
-630.522	-200.000	0.013	0.143
-629.507	153.452	-0.245	-0.335
-628.492	-140.467	-0.383	0.040
-627.478	-111.924	-0.305	-0.062
-626.463	800.000	-0.019	0.077
-625.449	116.693	0.261	-0.320
-624.434	-108.212	-0.441	-0.095
-623.419	-75.713	-0.026	-0.009
-622.405	-37.727	0.067	-0.036
-621.390	800.000	0.025	0.091
-620.376	-33.907	0.251	-0.138
-619.361	-11.847	0.362	-0.238
-618.346	-200.000	-0.049	-0.252
-617.332	800.000	-0.083	0.324
-616.317	201.949	-0.068	-0.104
-615.303	-154.424	0.123	-0.008
-614.288	-69.083	0.103	-0.040
-613.273	561.121	-0.071	-0.172
-612.259	6.818	-0.122	0.090
-611.244	-200.000	-0.049	0.000
-610.230	11.596	-0.037	0.028
-609.215	78.408	-0.390	-0.416
-608.201	-27.411	-0.343	-0.199
-607.186	-41.673	0.436	-0.224
-606.171	-25.920	-0.089	0.052
-605.157	47.336	-0.178	-0.166
-604.142	96.774	-0.109	0.125
-603.128	16.030	-0.204	0.161
-602.113	0.269	0.121	-0.086
-601.098	-200.000	0.045	0.249
-600.084	-138.172	0.248	-0.027
-599.069	-96.317	-0.154	-0.041
-598.055	786.994	-0.044	-0.121
-597.040	-115.130	0.218	0.041
-596.025	-176.181	0.214	0.006
-595.011	146.079	-0.049	0.065
-593.996	150.611	0.030	-0.041
-592.982	68.457	-0.128	0.131
-591.967	-25.803	0.141	-0.083
-590.952	800.000	0.080	-0.255
-589.938	-145.356	0.115	-0.010
-588.923	133.000	-0.121	0.156
-587.909	-200.000	0.009	-0.101
-586.894	118.268	-0.088	0.109
-585.879	-200.000	0.002	0.074
-584.865	-43.347	0.124	0.062
-583.850	-5.995	-0.263	-0.179
-582.836	-99.748	0.234	-0.059
-581.821	58.365	-0.219	0.215
-580.806	3.622	0.199	-0.145
-579.792	-0.834	-0.092	0.065
-578.777	9.082	0.029	-0.022
-577.763	2.677	-0.110	0.079
-576.748	-200.000	0.025	0.445
-575.733	-12.371	0.173	-0.113
-574.719	22.294	-0.140	0.114
-573.704	99.006	0.104	0.120
-572.690	-19.890	-0.268	-0.165
-571.675	-200.000	0.024	-0.428
-570.661	-155.378	0.228	-0.015
-569.646	800.000	-0.045	-0.177
-568.631	800.000	0.049	-0.146
-567.617	-188.756	-0.387	0.005
-566.602	284.884	0.140	-0.252
-565.588	85.937	0.169	-0.185
-564.573	-28.775	-0.127	-0.073
-563.558	-164.566	0.180	0.008
-562.544	800.000	-0.067	-0.201
-561.529	-200.000	-0.029	-0.205
-560.515	98.050	0.200	0.229
-559.500	85.841	0.130	0.143
-558.485	-53.950	0.173	-0.079
-557.471	-57.698	0.333	0.146
-556.456	-59.088	-0.254	-0.109
-555.442	175.430	-0.117	-0.169
-554.427	197.787	-0.084	0.128
-553.412	440.538	0.095	0.207
-552.398	542.328	-0.087	0.207
-551.383	306.738	-0.110	-0.204
-550.369	705.602	0.055	-0.145
-549.354	-123.872	0.156	0.025
-548.339	-18.124	-0.276	-0.172
-547.325	40.924	-0.180	0.162
-546.310	800.000	-0.055	-0.158
-545.296	-200.000	0.045	0.199
-544.281	-8.037	-0.268	0.180
-543.266	-4.491	-0.084	0.058
-542.252	29.219	0.145	0.123
-541.237	-152.368	-0.306	0.022
-540.223	122.869	-0.189	-0.236
-539.208	-181.813	-0.171	-0.003
-538.193	-106.300	-0.297	-0.066
-537.179	-18.866	0.202	0.125
-536.164	800.000	0.072	0.229
-535.150	-166.030	-0.255	-0.011
-534.135	-83.518	0.064	-0.020
-533.121	800.000	0.210	0.629
-532.106	-25.290	0.129	0.076
-531.091	50.235	-0.155	-0.146
-530.077	-45.224	-0.415	0.205
-529.062	39.230	0.250	0.223
-528.048	337.906	-0.045	-0.086
-527.033	800.000	-0.064	0.254
-526.018	140.855	0.095	0.124
-525.004	-200.000	-0.012	-0.207
-523.989	122.456	0.132	-0.165
-522.975	239.990	-0.162	-0.270
-521.960	220.028	-0.101	0.162
-520.945	-94.362	-0.445	0.121
-519.931	-200.000	-0.021	0.247
-518.916	-76.172	0.238	0.083
-517.902	-3.097	0.128	0.089
-516.887	800.000	0.053	-0.165
-515.872	-200.000	0.037	0.169
-514.858	800.000	0.028	-0.105
-513.843	97.316	0.169	0.193
-512.829	-200.000	-0.021	0.101
-511.814	800.000	0.050	-0.145
-510.799	-156.239	0.067	-0.004
-509.785	-108.998	0.266	0.057
-508.770	46.783	0.100	-0.093
-507.756	0.490	-0.072	0.051
-506.741	-51.025	0.095	0.044
-505.726	-126.251	-0.059	-0.009
-504.712	-72.946	-0.145	0.053
-503.697	232.003	-0.095	0.154
-502.683	-61.727	-0.111	-0.046
-501.668	323.852	-0.079	-0.150
-500.653	-155.009	0.089	-0.006
-499.639	800.000	0.043	0.118
-498.624	-56.930	-0.283	-0.124
-497.610	7.248	-0.124	-0.092
-496.595	-81.601	0.166	-0.054
-495.581	-163.306	-0.273	-0.013
-494.566	-200.000	0.041	-0.203
-493.551	-174.015	0.235	0.007
-492.537	-142.618	-0.336	0.033
-491.522	119.953	-0.132	-0.163
-490.508	-200.000	-0.033	-0.148
-489.493	-156.830	0.188	0.011
-488.478	-56.236	-0.070	0.031
-487.464	800.000	-0.032	-0.120
-486.449	1.138	0.197	-0.141
-485.435	94.859	0.188	0.213
-484.420	43.188	-0.301	-0.273
-483.405	-84.750	0.241	-0.076
-482.391	24.534	0.147	-0.121
-481.376	66.714	-0.123	-0.125
-480.362	253.655	0.124	-0.210
-479.347	572.541	0.116	0.280
-478.332	-142.576	0.291	-0.028
-477.318	97.905	-0.047	-0.054
-476.303	-200.000	-0.041	0.408
-475.289	-142.425	-0.270	0.026
-474.274	-16.302	0.055	0.035
-473.259	-66.812	-0.223	0.088
-472.245	-92.725	0.270	0.075
-471.230	104.881	-0.090	-0.105
-470.216	-182.265	0.231	0.004
-469.201	21.866	0.224	0.181
-468.186	-0.593	-0.181	0.128
-467.172	162.060	0.161	-0.224
-466.157	-200.000	-0.031	-0.208
-465.143	-200.000	-0.009	0.160
-464.128	129.561	0.067	0.085
-463.113	5.590	0.179	0.131
-462.099	310.185	0.123	0.229
-461.084	-144.198	0.295	-0.027
-460.070	-121.299	-0.397	0.066
-459.055	-77.816	0.151	-0.052
-458.040	-145.558	-0.091	0.008
-457.026	-68.056	-0.141	-0.055
-456.011	349.000	-0.045	-0.087
-454.997	800.000	0.077	-0.235
-453.982	-200.000	-0.058	-0.438
-452.968	-200.000	0.007	-0.119
-451.953	-1.025	0.051	0.036
-450.938	-95.496	-0.312	0.083
-449.924	34.665	-0.202	-0.175
-448.909	800.000	0.076	0.310
-447.895	719.426	0.158	-0.416
-446.880	57.291	0.258	0.250
-445.865	-200.000	0.027	0.146
-444.851	171.829	-0.189	0.269
-443.836	-53.478	0.223	0.102
-442.822	-115.223	0.238	0.045
-441.807	-117.779	-0.067	0.012
-440.792	-95.337	0.204	-0.055
-439.778	13.935	0.177	0.137
-438.763	-80.567	0.064	0.021
-437.749	137.470	-0.068	0.089
-436.734	-78.723	-0.266	-0.090
-435.719	-200.000	-0.025	0.223
-434.705	-200.000	0.037	0.178
-433.690	-22.591	0.322	0.193
-432.676	3.572	0.365	0.264
-431.661	-101.554	-0.071	0.017
-430.646	-125.365	0.132	0.020
-429.632	-112.470	0.072	-0.014
-428.617	800.000	0.025	0.078
-427.603	800.000	-0.060	-0.175
-426.588	-55.987	0.082	-0.036
-425.573	-86.210	-0.174	0.053
-424.559	-39.713	0.183	-0.095
-423.544	-37.892	0.114	0.060
-422.530	526.337	-0.033	-0.078
-421.515	-200.000	-0.034	0.199
-420.500	-200.000	-0.037	0.212
-419.486	-152.977	0.144	0.010
-418.471	6.769	0.161	0.119
-417.457	-71.075	-0.169	0.063
-416.442	800.000	-0.060	0.226
-415.428	61.205	0.220	-0.217
-414.413	-200.000	0.046	0.303
-413.398	-127.563	-0.237	0.034
-412.384	-186.396	0.202	0.003
-411.369	542.488	-0.106	-0.250
-410.355	-200.000	-0.010	0.146
-409.340	-75.015	0.101	-0.036
-408.325	-200.000	-0.079	0.386
-407.311	22.799	0.309	0.251
-406.296	42.431	-0.157	-0.142
-405.282	-200.000	0.042	-0.287
-404.267	18.343	0.256	-0.203
-403.252	800.000	0.086	0.291
-402.238	-147.224	-0.276	0.023
-401.223	12.264	0.157	0.120
-400.209	-200.000	-0.041	-0.513
-399.194	403.221	-0.146	-0.304
-398.179	800.000	0.047	0.168
-397.165	-10.725	-0.197	0.129
-396.150	-193.426	0.248	0.002
-395.136	-32.604	0.124	0.069
-394.121	-128.029	-0.153	0.022
-393.106	3.602	0.375	0.271
-392.092	-200.000	-0.011	0.061
-391.077	195.428	0.113	-0.170
-390.063	33.961	-0.112	0.096
-389.048	-1.678	-0.165	0.115
-388.033	-164.486	0.291	-0.013
-387.019	167.732	-0.072	-0.101
-386.004	-109.166	0.289	0.061
-384.990	48.129	0.244	0.226
-383.975	-88.294	0.059	0.018
-382.960	545.778	-0.187	0.442
-381.946	26.548	-0.183	-0.152
-380.931	73.928	-0.195	0.203
-379.917	-40.705	0.082	-0.042
-378.902	-97.141	-0.191	-0.049
-377.888	146.246	0.033	0.044
-376.873	-119.750	0.193	0.033
-375.858	-41.286	-0.057	0.029
-374.844	63.882	0.023	0.023
-373.829	-21.188	-0.112	0.068
-372.815	-28.168	0.117	0.067
-371.800	-88.007	0.224	-0.067
-370.785	67.003	-0.092	0.092
-369.771	297.951	0.139	-0.252
-368.756	-55.295	0.037	0.017
-367.742	30.074	0.020	0.017
-366.727	-18.788	-0.049	0.030
-365.712	-200.000	0.053	-0.255
-364.698	22.878	0.171	-0.139
-363.683	-200.000	0.002	0.113
-362.669	-200.000	-0.021	-0.152
-361.654	59.539	-0.043	-0.042
-360.639	239.292	0.068	-0.112
-359.625	-200.000	0.043	-0.191
-358.610	-108.247	-0.077	0.016
-357.596	-102.760	-0.473	-0.112
-356.581	-200.000	-0.057	-0.324
-355.566	539.487	-0.093	-0.220
-354.552	137.316	-0.072	-0.093
-353.537	-83.542	0.280	-0.089
-352.523	-28.584	-0.382	-0.218
-351.508	-115.403	0.151	-0.028
-350.493	170.157	0.091	-0.129
-349.479	-200.000	0.005	-0.406
-348.464	270.667	0.167	-0.290
-347.450	79.107	-0.126	-0.134
-346.435	736.263	-0.018	0.047
-345.420	-125.427	0.032	-0.005
-344.406	-8.779	0.270	0.179
-343.391	800.000	0.088	0.308
-342.377	-199.425	0.055	0.000
-341.362	133.868	0.121	-0.155
-340.348	42.426	0.073	0.066
-339.333	68.827	-0.245	0.249
-338.318	363.476	0.089	0.176
-337.304	227.179	-0.137	0.220
-336.289	-71.271	-0.274	-0.102
-335.275	-200.000	-0.005	-0.422
-334.260	-56.283	0.267	0.118
-333.245	-164.219	-0.216	0.010
-332.231	-168.175	0.201	0.008
-331.216	63.837	-0.381	0.378
-330.202	-9.716	-0.081	0.053
-329.187	29.876	-0.023	0.019
-328.172	-156.040	-0.244	0.015
-327.158	-132.348	-0.570	0.073
-326.143	800.000	0.129	0.456
-325.129	-95.530	0.194	-0.052
-324.114	800.000	0.064	-0.188
-323.099	-3.511	0.169	-0.117
-322.085	-116.544	-0.446	-0.081
-321.070	133.637	0.111	0.142
-320.056	-38.187	-0.123	-0.064
-319.041	-200.000	0.029	0.330
-318.026	123.335	0.171	-0.212
-317.012	-23.539	0.239	0.142
-315.997	-41.638	0.091	-0.046
-314.983	190.972	-0.093	0.138
-313.968	800.000	0.076	-0.215
-312.953	-1.872	0.354	0.246
-311.939	69.532	-0.048	-0.049
-310.924	-117.488	0.339	-0.061
-309.910	10.679	0.224	-0.168
-308.895	-123.726	0.127	0.020
-307.880	393.879	0.088	-0.180
-306.866	-8.501	-0.293	0.195
-305.851	-78.157	0.028	-0.010
-304.837	0.769	-0.101	-0.071
-303.822	-200.000	0.002	0.149
-302.807	-7.609	-0.311	-0.208
-301.793	-200.000	0.068	-0.299
-300.778	-200.000	0.013	0.108
-299.764	664.947	-0.094	-0.240
-298.749	343.353	-0.118	0.228
-297.735	-46.853	0.190	0.092
-296.720	77.464	0.041	-0.044
-295.705	162.745	0.158	0.219
-294.691	-31.704	0.467	0.259
-293.676	-112.453	-0.356	0.070
-292.662	-122.308	0.407	-0.066
-291.647	38.666	0.022	0.019
-290.632	-173.881	-0.317	0.009
-289.618	9.954	-0.354	-0.266
-288.603	-200.000	0.017	-0.306
-287.589	-200.000	-0.048	-0.233
-286.574	-200.000	0.134	0.582
-285.559	-192.852	-0.150	-0.001
-284.545	533.749	0.073	0.170
-283.530	-165.521	0.076	0.003
-282.516	-200.000	-0.025	-0.200
-281.501	117.686	0.048	0.058
-280.486	96.494	-0.341	0.385
-279.472	-63.872	0.366	0.148
-278.457	786.924	0.027	-0.074
-277.443	22.818	-0.398	-0.322
-276.428	-99.634	-0.143	0.035
-275.413	2.446	0.343	0.245
-274.399	-78.433	0.278	0.094
-273.384	535.870	0.165	0.386
-272.370	800.000	0.080	-0.251
-271.355	-62.320	-0.386	-0.158
-270.340	307.418	-0.193	-0.354
-269.326	800.000	0.072	0.262
-268.311	-200.000	-0.020	0.137
-267.297	-72.244	0.340	-0.124
-266.282	133.118	-0.135	-0.172
-265.267	-101.529	0.341	-0.082
-264.253	-200.000	-0.006	0.077
-263.238	-115.204	0.208	-0.039
-262.224	1.671	0.323	0.230
-261.209	-28.539	-0.101	-0.057
-260.195	648.159	0.068	0.172
-259.180	9.734	-0.312	0.233
-258.165	4.661	-0.196	0.142
-257.151	22.730	0.392	0.316
-256.136	-57.217	-0.100	-0.044
-255.122	747.742	-0.118	0.313
-254.107	800.000	-0.037	0.152
-253.092	29.915	-0.424	0.356
-252.078	3.544	0.065	0.047
-251.063	582.821	-0.102	0.246
-250.049	-157.800	-0.055	-0.003
-249.034	-32.415	-0.199	-0.110
-248.019	230.174	-0.177	-0.285
-247.005	-200.000	0.020	-0.143
-245.990	128.597	-0.218	-0.274
-244.976	-64.544	-0.124	-0.050
-243.961	800.000	-0.044	0.132
-242.946	44.254	-0.312	0.282
-241.932	83.596	0.094	0.101
-240.917	-105.818	-0.173	-0.038
-239.903	69.897	-0.345	0.351
-238.888	-67.379	-0.144	-0.056
-237.873	-39.401	-0.234	-0.121
-236.859	-200.000	0.092	0.416
-235.844	19.798	-0.316	-0.251
-234.830	126.511	0.018	0.022
-233.815	-200.000	-0.006	-0.223
-232.800	85.741	0.099	-0.107
-231.786	65.924	0.232	-0.232
-230.771	19.373	0.164	-0.130
-229.757	195.450	-0.079	-0.118
-228.742	-147.557	0.139	-0.012
-227.727	108.720	-0.209	-0.246
-226.713	16.666	0.317	-0.247
-225.698	800.000	0.070	-0.274
-224.684	-200.000	0.049	0.235
-223.669	-122.467	-0.314	-0.050
-222.655	423.301	-0.166	-0.350
-221.640	156.062	-0.129	-0.175
-220.625	-52.181	0.203	0.093
-219.611	-140.224	0.260	-0.027
-218.596	-200.000	-0.002	-0.216
-217.582	-200.000	-0.007	0.092
-216.567	-200.000	0.009	0.381
-215.552	-20.943	0.107	-0.065
-214.538	266.450	0.152	-0.261
-213.523	-200.000	0.034	-0.401
-212.509	-200.000	0.065	-0.565
-211.494	-96.372	-0.107	0.028
-210.479	-109.377	-0.372	-0.078
-209.465	-143.076	0.422	-0.040
-208.450	-174.313	0.266	-0.008
-207.436	105.658	0.121	0.140
-206.421	-130.671	0.278	0.037
-205.406	800.000	-0.070	-0.298
-204.392	-200.000	0.074	0.569
-203.377	14.692	0.128	0.098
-202.363	134.416	0.037	0.047
-201.348	-137.923	0.253	0.028
-200.333	541.905	0.057	0.135
-199.319	90.299	0.148	-0.163
-198.304	-147.346	0.327	-0.027
-197.290	108.501	0.156	-0.183
-196.275	-48.673	-0.149	-0.070
-195.260	101.742	-0.155	0.178
-194.246	-200.000	-0.012	-0.054
-193.231	51.718	0.099	0.093
-192.217	-15.542	-0.220	0.138
-191.202	-200.000	-0.033	0.277
-190.187	-24.115	0.005	0.003
-189.173	-17.064	0.144	-0.089
-188.158	45.955	0.063	-0.058
-187.144	-70.029	-0.211	-0.079
-186.129	404.693	-0.091	-0.189
-185.114	-158.978	0.408	-0.023
-184.100	-112.242	0.107	0.021
-183.085	-200.000	-0.022	-0.149
-182.071	590.128	-0.040	0.098
-181.056	186.242	0.118	0.172
-180.042	-51.208	0.155	0.071
-179.027	448.058	-0.106	0.229
-178.012	129.406	0.103	-0.129
-176.998	-136.060	0.302	-0.035
-175.983	-200.000	-0.005	0.136
-174.969	255.823	0.108	-0.181
-173.954	800.000	-0.018	-0.055
-172.939	55.635	-0.105	-0.100
-171.925	-94.626	-0.011	-0.003
-170.910	5.830	0.184	0.134
-169.896	-82.440	0.197	-0.063
-168.881	537.883	-0.115	-0.268
-167.866	331.444	-0.057	-0.109
-166.852	182.353	-0.133	0.193
-165.837	-29.255	0.086	-0.048
-164.823	-124.307	0.119	-0.018
-163.808	277.729	-0.197	0.344
-162.793	-200.000	-0.061	0.546
-161.779	42.277	-0.096	-0.085
-160.764	73.901	0.173	-0.178
-159.750	-33.726	0.063	0.034
-158.735	-105.611	-0.148	-0.033
-157.720	157.264	-0.095	-0.129
-156.706	-30.488	-0.099	0.055
-155.691	60.004	-0.132	0.128
-154.677	-137.004	0.228	-0.026
-153.662	599.035	0.038	-0.093
-152.647	108.196	-0.015	-0.017
-151.633	-200.000	0.012	0.226
-150.618	92.758	-0.102	0.113
-149.604	800.000	-0.049	-0.162
-148.589	142.251	-0.208	-0.271
-147.574	58.334	0.074	-0.071
-146.560	800.000	-0.128	0.400
-145.545	254.560	-0.149	-0.251
-144.531	52.177	0.071	-0.067
-143.516	-200.000	-0.044	0.206
-142.502	-148.445	-0.278	-0.022
-141.487	-200.000	0.033	0.324
-140.472	800.000	-0.076	0.298
-139.458	800.000	-0.095	-0.281
-138.443	-78.178	-0.270	-0.091
-137.429	-85.669	-0.037	0.011
-136.414	-200.000	-0.071	-0.355
-135.399	285.054	-0.178	0.314
-134.385	800.000	-0.114	0.308
-133.370	-58.666	0.193	0.082
-132.356	-200.000	-0.005	-0.130
-131.341	800.000	0.018	0.076
-130.326	-95.798	-0.056	0.015
-129.312	1.690	0.383	0.270
-128.297	-200.000	0.043	-0.214
-127.283	-87.806	0.111	0.033
-126.268	-110.554	-0.135	-0.028
-125.253	736.445	-0.024	0.063
-124.239	-12.235	-0.220	-0.141
-123.224	310.012	-0.137	-0.252
-122.210	63.691	0.217	0.214
-121.195	-119.669	0.140	-0.024
-120.180	343.528	-0.048	-0.093
