DTS Sentinel unit serial number:	SN413079Multiplexer serial number:	ORYXHardware model number:	OX4-SRSoftware version number:	ORYX F/W v4.00 Oryx Data Collector v3.7.2.0data status	okinstallation	princeton_trtdifferential loss correction	single-endedforward channel	channel 2reverse channel	N/Adate	2019/09/16time	09:31:35forward acquisition time	60.00reverse acquisition time	0.00gamma	496.2192k internal	0.2324k external	0.2324temperature offset calibration	0.9966default loss term (dB/km)	0.3790temperature slope calibration	1.0000multiplexer offset coefficient	1.0000multiplexer slope coefficient	1.0000fibre end	0.00T internal ref (°C)	31.92T ext. ref 1 (°C)	12.22T ext. ref 2 (°C)	29.63length (m)	temperature (°C)	Stokes	anti-Stokes-747.200	-22.072	-0.199	-0.122
-746.185	-200.000	-0.051	0.459
-745.171	465.501	0.067	0.151
-744.156	800.000	0.057	0.223
-743.142	800.000	0.081	0.262
-742.127	800.000	-0.106	0.359
-741.112	-71.114	0.202	-0.077
-740.098	800.000	-0.060	-0.215
-739.083	-39.475	-0.231	-0.122
-738.069	148.504	-0.157	0.214
-737.054	567.724	-0.101	0.247
-736.039	-16.712	-0.070	0.045
-735.025	141.103	-0.102	-0.136
-734.010	280.627	-0.146	0.263
-732.996	-200.000	-0.023	0.188
-731.981	223.373	-0.138	-0.225
-730.966	-154.185	0.058	-0.004
-729.952	82.900	-0.133	-0.146
-728.937	-89.578	-0.216	0.064
-727.923	-32.496	-0.109	0.061
-726.908	-48.794	0.322	0.156
-725.894	-200.000	-0.046	0.333
-724.879	-188.710	0.081	-0.001
-723.864	-36.856	0.301	-0.163
-722.850	-72.850	-0.284	-0.105
-721.835	217.355	0.155	0.249
-720.821	88.894	-0.101	-0.113
-719.806	800.000	0.080	0.228
-718.791	255.834	-0.111	-0.192
-717.777	-62.512	-0.088	-0.037
-716.762	-58.274	-0.083	-0.036
-715.748	800.000	-0.050	0.175
-714.733	800.000	-0.138	-0.413
-713.718	345.850	0.028	-0.055
-712.704	-200.000	0.025	0.420
-711.689	-51.650	-0.152	-0.072
-710.675	17.638	0.191	0.153
-709.660	-63.881	0.223	-0.092
-708.645	-51.142	0.238	-0.113
-707.631	63.384	-0.145	0.147
-706.616	-200.000	0.050	-0.235
-705.602	101.187	0.132	-0.154
-704.587	291.645	0.044	0.081
-703.572	-15.197	-0.413	-0.266
-702.558	181.814	0.081	0.120
-701.543	-200.000	0.011	0.159
-700.529	-74.570	0.186	-0.068
-699.514	-200.000	0.050	-0.301
-698.499	-48.633	0.284	-0.138
-697.485	-64.391	0.267	0.109
-696.470	-78.611	-0.310	-0.107
-695.456	-101.077	-0.097	0.024
-694.441	-59.254	0.203	0.088
-693.426	-200.000	0.016	0.121
-692.412	31.257	-0.224	0.194
-691.397	45.151	-0.032	0.030
-690.383	18.709	-0.106	-0.086
-689.368	800.000	-0.041	-0.123
-688.354	-20.323	-0.305	-0.189
-687.339	-1.801	0.097	0.069
-686.324	-47.664	0.128	-0.062
-685.310	800.000	-0.092	0.280
-684.295	1.938	-0.336	0.244
-683.281	-30.013	0.192	-0.110
-682.266	800.000	-0.145	-0.465
-681.251	48.017	0.073	0.069
-680.237	-200.000	0.004	-0.229
-679.222	800.000	-0.110	0.468
-678.208	222.549	0.031	0.050
-677.193	240.679	0.053	-0.090
-676.178	-50.661	-0.221	-0.105
-675.164	-48.172	0.229	0.111
-674.149	1.219	0.225	-0.163
-673.135	122.604	0.273	0.343
-672.120	110.209	0.132	0.159
-671.105	-108.623	-0.333	0.072
-670.091	277.444	-0.111	-0.199
-669.076	-4.843	-0.108	0.075
-668.062	-15.611	0.084	0.054
-667.047	418.667	0.124	-0.266
-666.032	-139.111	0.186	-0.020
-665.018	800.000	-0.011	-0.047
-664.003	150.077	0.063	0.085
-662.989	-37.347	-0.121	0.065
-661.974	-200.000	-0.001	-0.183
-660.959	-33.139	-0.030	0.017
-659.945	-200.000	0.049	0.223
-658.930	-177.648	-0.251	-0.006
-657.916	-200.000	-0.020	-0.196
-656.901	-200.000	0.019	0.202
-655.886	408.724	0.100	0.213
-654.872	-73.955	-0.139	-0.051
-653.857	-47.542	0.373	-0.182
-652.843	606.068	-0.096	0.240
-651.828	133.940	0.248	0.323
-650.814	63.208	-0.088	0.088
-649.799	85.112	-0.082	-0.091
-648.784	-164.920	-0.253	0.011
-647.770	-150.048	0.296	0.023
-646.755	88.486	-0.259	-0.289
-645.741	-50.438	0.066	0.031
-644.726	186.213	0.136	-0.203
-643.711	800.000	-0.118	-0.348
-642.697	1.411	-0.195	-0.141
-641.682	-52.736	-0.327	-0.152
-640.668	11.540	0.076	-0.059
-639.653	147.192	-0.122	0.165
-638.638	-22.603	-0.284	0.173
-637.624	-141.094	-0.163	0.017
-636.609	-132.085	0.199	0.026
-635.595	446.925	-0.062	0.138
-634.580	-70.076	-0.212	0.081
-633.565	-34.930	0.365	0.200
-632.551	-137.681	-0.047	0.005
-631.536	90.423	-0.273	-0.306
-630.522	-137.074	0.242	0.028
-629.507	-121.956	0.419	0.069
-628.492	399.379	-0.042	-0.089
-627.478	-200.000	-0.009	-0.179
-626.463	800.000	-0.122	-0.367
-625.449	-76.802	-0.196	-0.069
-624.434	-89.951	0.046	-0.013
-623.419	-101.443	0.361	-0.088
-622.405	-60.993	-0.196	-0.083
-621.390	-94.987	0.442	-0.120
-620.376	0.780	-0.132	0.095
-619.361	-14.753	-0.272	-0.175
-618.346	-134.516	0.199	0.024
-617.332	-19.358	0.185	-0.115
-616.317	40.279	-0.050	-0.046
-615.303	-105.112	-0.247	0.057
-614.288	-101.823	-0.076	0.018
-613.273	-200.000	-0.019	-0.190
-612.259	40.853	-0.120	-0.108
-611.244	-17.041	0.211	0.134
-610.230	-200.000	0.012	-0.160
-609.215	800.000	0.084	-0.285
-608.201	800.000	-0.027	-0.112
-607.186	-87.197	-0.135	0.041
-606.171	-159.357	-0.230	-0.013
-605.157	-141.518	0.077	-0.008
-604.142	-155.447	0.052	0.003
-603.128	800.000	-0.068	-0.194
-602.113	63.862	0.150	0.152
-601.098	165.605	0.126	-0.179
-600.084	430.212	-0.071	0.155
-599.069	437.965	-0.143	-0.314
-598.055	378.113	0.175	0.360
-597.040	-200.000	0.062	-0.386
-596.025	-85.605	-0.164	0.051
-595.011	19.953	-0.119	-0.097
-593.996	-200.000	-0.007	-0.047
-592.982	348.239	0.151	0.298
-591.967	-123.250	-0.191	0.031
-590.952	-159.534	-0.372	-0.021
-589.938	42.588	-0.027	-0.025
-588.923	-168.439	-0.255	0.010
-587.909	-200.000	-0.019	0.237
-586.894	-26.707	-0.061	0.036
-585.879	-54.748	0.486	-0.220
-584.865	-12.061	-0.213	0.140
-583.850	800.000	0.010	0.031
-582.836	-127.378	0.067	-0.010
-581.821	-200.000	0.021	-0.356
-580.806	-156.742	0.080	0.005
-579.792	-88.815	-0.194	0.058
-578.777	236.947	-0.080	0.133
-577.763	65.801	0.195	-0.198
-576.748	-135.798	-0.403	0.048
-575.733	800.000	0.069	-0.240
-574.719	353.967	-0.065	-0.130
-573.704	304.555	-0.167	-0.311
-572.690	-133.987	-0.276	-0.034
-571.675	4.787	-0.327	0.241
-570.661	-75.578	0.275	-0.098
-569.646	5.430	0.046	0.034
-568.631	480.186	-0.069	-0.157
-567.617	673.105	0.051	0.134
-566.602	-107.854	-0.192	-0.042
-565.588	-64.651	0.160	-0.065
-564.573	-127.576	0.144	0.021
-563.558	82.876	0.203	0.222
-562.544	63.456	0.098	-0.099
-561.529	223.484	0.142	-0.229
-560.515	800.000	0.024	0.069
-559.500	92.250	-0.359	-0.405
-558.485	579.618	0.058	0.143
-557.471	396.018	0.225	-0.470
-556.456	73.591	0.149	-0.156
-555.442	-88.091	-0.337	-0.101
-554.427	-84.659	-0.189	0.060
-553.412	289.673	-0.083	-0.151
-552.398	-200.000	-0.014	-0.341
-551.383	71.315	-0.167	-0.173
-550.369	154.473	0.049	0.068
-549.354	-166.014	0.231	0.010
-548.339	-59.038	0.235	-0.102
-547.325	214.478	0.125	0.199
-546.310	-159.120	-0.015	-0.001
-545.296	26.439	0.097	0.081
-544.281	-98.990	-0.140	0.036
-543.266	-80.287	0.569	0.190
-542.252	-135.965	0.378	-0.045
-541.237	-93.155	-0.323	-0.090
-540.223	457.846	-0.198	-0.440
-539.208	394.123	-0.054	-0.112
-538.193	26.485	-0.138	-0.115
-537.179	64.793	0.272	0.275
-536.164	-78.881	-0.154	0.052
-535.150	89.598	-0.072	0.080
-534.135	-61.651	0.169	-0.071
-533.121	57.452	0.127	0.125
-532.106	800.000	0.042	0.154
-531.091	-41.464	0.181	-0.093
-530.077	431.847	0.110	0.239
-529.062	-11.271	0.178	0.117
-528.048	-200.000	0.016	0.148
-527.033	-131.751	-0.211	-0.028
-526.018	-147.120	0.163	0.014
-525.004	800.000	0.056	0.160
-523.989	-36.366	0.231	-0.125
-522.975	-200.000	-0.016	0.097
-521.960	-85.883	-0.216	0.067
-520.945	-200.000	0.033	-0.220
-519.931	800.000	-0.035	-0.148
-518.916	57.477	-0.081	0.079
-517.902	109.291	0.244	0.292
-516.887	-76.620	0.045	-0.016
-515.872	-200.000	-0.074	-0.446
-514.858	-93.662	-0.197	0.054
-513.843	-25.768	-0.148	-0.087
-512.829	800.000	0.042	0.157
-511.814	-200.000	0.025	-0.242
-510.799	1.628	-0.300	-0.216
-509.785	317.778	-0.106	0.201
-508.770	-200.000	0.034	-0.181
-507.756	800.000	0.074	0.296
-506.741	-200.000	0.006	-0.093
-505.726	339.620	0.024	0.047
-504.712	-200.000	-0.041	0.305
-503.697	-114.200	-0.107	-0.021
-502.683	499.701	-0.012	0.027
-501.668	-154.918	-0.069	-0.005
-500.653	-2.244	-0.234	0.164
-499.639	28.102	0.124	0.105
-498.624	-86.777	0.319	0.097
-497.610	140.611	-0.035	0.047
-496.595	-107.062	0.261	0.058
-495.581	170.704	-0.122	0.174
-494.566	800.000	0.023	0.073
-493.551	663.255	-0.064	0.166
-492.537	-41.534	-0.071	0.036
-491.522	-200.000	-0.043	0.243
-490.508	-200.000	-0.002	-0.122
-489.493	525.156	-0.130	0.306
-488.478	-149.771	-0.027	-0.002
-487.464	-184.800	0.235	0.004
-486.449	44.840	0.082	-0.076
-485.435	37.395	-0.293	-0.260
-484.420	-200.000	0.011	-0.091
-483.405	228.151	-0.101	0.164
-482.391	11.057	-0.121	-0.092
-481.376	16.041	-0.128	0.101
-480.362	800.000	0.074	-0.266
-479.347	-78.862	0.327	0.111
-478.332	-177.693	0.315	-0.008
-477.318	800.000	-0.128	-0.525
-476.303	183.497	-0.087	0.129
-475.289	-7.246	0.159	0.108
-474.274	800.000	-0.004	-0.013
-473.259	-132.172	-0.286	0.037
-472.245	-200.000	0.021	0.114
-471.230	727.102	0.095	0.253
-470.216	219.759	-0.085	-0.136
-469.201	205.948	-0.146	0.226
-468.186	-155.187	-0.151	-0.010
-467.172	-49.496	-0.160	-0.076
-466.157	-200.000	0.002	0.073
-465.143	93.484	-0.229	-0.259
-464.128	150.628	0.169	0.230
-463.113	-191.927	0.278	0.003
-462.099	-36.340	0.064	-0.034
-461.084	-138.955	0.153	-0.017
-460.070	-20.447	0.380	-0.233
-459.055	37.271	-0.163	0.144
-458.040	125.192	-0.153	0.193
-457.026	156.696	0.083	0.115
-456.011	-200.000	0.023	0.100
-454.997	-200.000	0.011	0.232
-453.982	60.828	-0.083	-0.082
-452.968	345.201	-0.196	0.384
-451.953	457.552	-0.128	0.284
-450.938	330.721	0.122	0.235
-449.924	-200.000	0.033	0.149
-448.909	-200.000	0.001	-0.033
-447.895	800.000	0.033	-0.139
-446.880	355.507	-0.038	-0.076
-445.865	-138.629	0.246	-0.027
-444.851	264.096	0.096	-0.166
-443.836	20.630	-0.177	-0.143
-442.822	800.000	0.085	0.317
-441.807	-21.132	-0.218	-0.133
-440.792	17.510	0.088	-0.070
-439.778	168.018	-0.218	-0.309
-438.763	100.275	-0.195	-0.226
-437.749	-136.963	-0.323	-0.037
-436.734	15.344	-0.115	-0.090
-435.719	106.794	-0.282	0.334
-434.705	304.754	-0.075	0.139
-433.690	114.157	0.019	0.023
-432.676	-200.000	0.095	-0.460
-431.661	15.869	-0.128	0.100
-430.646	103.708	-0.060	-0.070
-429.632	-200.000	0.126	-0.671
-428.617	-66.571	0.251	-0.099
-427.603	-200.000	-0.039	0.176
-426.588	-80.277	0.155	-0.052
-425.573	-141.601	-0.159	0.016
-424.559	124.334	0.091	0.114
-423.544	-108.366	-0.223	0.048
-422.530	-17.719	-0.233	0.146
-421.515	25.867	0.152	0.126
-420.500	-182.169	-0.117	-0.002
-419.486	-23.001	-0.145	0.087
-418.471	66.697	-0.229	0.232
-417.457	548.579	-0.140	0.335
-416.442	-96.894	0.148	0.039
-415.428	-64.290	0.113	0.046
-414.413	-26.198	-0.184	0.108
-413.398	-74.404	0.120	0.043
-412.384	-110.690	-0.247	0.051
-411.369	-102.525	0.292	0.070
-410.355	156.259	0.034	-0.047
-409.340	15.440	-0.081	-0.063
-408.325	21.628	-0.151	-0.123
-407.311	-200.000	-0.021	0.093
-406.296	384.036	0.197	0.404
-405.282	-107.611	0.053	-0.011
-404.267	-124.656	-0.302	-0.047
-403.252	-200.000	-0.026	-0.247
-402.238	-153.970	0.159	-0.011
-401.223	19.498	0.199	0.159
-400.209	-99.013	0.117	-0.029
-399.194	800.000	0.035	-0.148
-398.179	319.625	-0.117	-0.222
-397.165	-33.357	0.167	-0.092
-396.150	-63.791	0.126	0.051
-395.136	-102.178	-0.095	-0.023
-394.121	-40.052	0.348	0.181
-393.106	-57.708	-0.204	-0.089
-392.092	-93.820	-0.080	0.022
-391.077	-94.723	0.243	0.066
-390.063	26.041	0.370	0.307
-389.048	-84.478	0.143	-0.045
-388.033	-125.663	-0.007	-0.001
-387.019	-178.907	-0.314	0.007
-386.004	-154.530	-0.142	-0.009
-384.990	-22.527	-0.201	0.121
-383.975	800.000	-0.094	0.260
-382.960	800.000	0.104	-0.377
-381.946	-132.953	-0.415	0.053
-380.931	49.534	0.155	0.145
-379.917	-111.832	0.219	-0.044
-378.902	-85.299	0.261	0.081
-377.888	-72.298	-0.058	-0.021
-376.873	-101.777	-0.118	-0.029
-375.858	-147.208	0.265	0.022
-374.844	-200.000	-0.008	-0.094
-373.829	-200.000	-0.012	0.420
-372.815	456.322	0.165	-0.364
-371.800	-107.321	0.150	-0.033
-370.785	-100.232	0.220	-0.054
-369.771	-114.189	-0.346	-0.067
-368.756	-110.452	0.300	0.062
-367.742	-195.153	0.212	-0.002
-366.727	800.000	-0.061	-0.248
-365.712	800.000	-0.038	0.145
-364.698	-200.000	-0.039	0.215
-363.683	-84.078	-0.481	0.152
-362.669	252.449	0.157	-0.266
-361.654	-6.489	0.232	0.157
-360.639	472.233	-0.041	0.091
-359.625	14.548	0.195	0.151
-358.610	321.992	-0.156	0.296
-357.596	58.962	-0.133	-0.130
-356.581	-175.447	-0.091	0.002
-355.566	12.834	0.088	0.068
-354.552	-10.287	0.198	-0.131
-353.537	-200.000	0.026	-0.231
-352.523	-200.000	0.020	0.251
-351.508	800.000	-0.049	-0.198
-350.493	-200.000	0.024	0.215
-349.479	2.446	0.317	0.228
-348.464	115.532	0.134	-0.162
-347.450	162.365	0.109	0.151
-346.435	-200.000	0.012	-0.258
-345.420	-54.721	0.267	-0.120
-344.406	800.000	-0.026	0.080
-343.391	-200.000	0.002	-0.084
-342.377	-200.000	-0.018	0.083
-341.362	-120.593	0.019	0.003
-340.348	45.830	-0.207	0.190
-339.333	800.000	0.093	-0.311
-338.318	58.129	-0.097	0.094
-337.304	-173.478	0.293	0.009
-336.289	296.075	-0.055	0.100
-335.275	140.830	-0.031	-0.040
-334.260	52.907	0.064	-0.061
-333.245	34.019	-0.179	-0.155
-332.231	-35.036	-0.167	0.090
-331.216	-200.000	-0.041	-0.200
-330.202	-147.365	0.122	-0.010
-329.187	-30.111	0.257	-0.145
-328.172	127.107	0.141	-0.178
-327.158	-127.262	-0.118	0.017
-326.143	-146.618	0.364	-0.031
-325.129	-18.838	-0.142	0.088
-324.114	-200.000	0.027	0.158
-323.099	-35.388	-0.080	-0.043
-322.085	318.384	0.103	0.193
-321.070	-0.727	0.213	0.150
-320.056	800.000	0.053	-0.158
-319.041	-11.743	-0.240	0.156
-318.026	-186.374	-0.107	-0.002
-317.012	-200.000	0.009	-0.258
-315.997	688.927	-0.092	-0.240
-314.983	-200.000	0.018	-0.123
-313.968	-162.489	0.150	0.007
-312.953	-33.439	0.112	0.061
-311.939	728.872	-0.124	0.327
-310.924	709.920	-0.042	0.110
-309.910	-29.927	0.026	0.014
-308.895	-200.000	0.014	0.143
-307.880	775.954	0.059	0.159
-306.866	-95.124	-0.151	-0.040
-305.851	152.912	-0.164	-0.222
-304.837	283.429	-0.160	-0.285
-303.822	-200.000	0.007	-0.155
-302.807	-200.000	0.033	-0.153
-301.793	19.315	0.061	0.049
-300.778	193.113	0.131	-0.196
-299.764	-82.747	-0.510	-0.164
-298.749	-129.436	0.184	-0.025
-297.735	-145.635	-0.458	0.041
-296.720	-200.000	-0.074	-0.482
-295.705	85.311	0.249	0.271
-294.691	253.529	0.140	0.238
-293.676	-200.000	0.035	-0.213
-292.662	800.000	-0.057	0.193
-291.647	800.000	0.024	-0.074
-290.632	-200.000	0.037	0.329
-289.618	-200.000	0.059	0.435
-288.603	36.322	-0.406	0.355
-287.589	25.818	0.203	0.168
-286.574	48.857	0.205	-0.191
-285.559	145.642	0.170	-0.225
-284.545	-98.271	-0.600	-0.153
-283.530	-200.000	-0.008	-0.038
-282.516	-200.000	-0.039	0.271
-281.501	639.208	0.117	0.294
-280.486	800.000	0.011	-0.038
-279.472	-40.349	0.134	-0.069
-278.457	-200.000	0.025	0.316
-277.443	-5.214	0.384	0.262
-276.428	33.771	0.290	0.250
-275.413	27.163	0.150	-0.124
-274.399	-93.695	-0.294	0.080
-273.384	800.000	-0.076	-0.230
-272.370	118.748	0.061	0.075
-271.355	164.908	0.185	0.259
-270.340	-200.000	-0.009	0.085
-269.326	-91.304	-0.086	-0.025
-268.311	800.000	0.062	-0.194
-267.297	800.000	-0.043	-0.155
-266.282	-158.762	0.349	0.020
-265.267	764.554	-0.105	-0.284
-264.253	474.447	0.131	0.292
-263.238	-200.000	0.040	0.187
-262.224	-200.000	0.020	-0.118
-261.209	-200.000	0.012	-0.349
-260.195	18.142	-0.258	-0.204
-259.180	-200.000	-0.023	0.168
-258.165	-78.733	-0.063	0.021
-257.151	-64.435	0.345	0.139
-256.136	25.324	-0.320	-0.263
-255.122	423.370	-0.076	0.162
-254.107	-19.590	-0.181	0.111
-253.092	73.891	-0.171	-0.178
-252.078	99.265	-0.199	0.227
-251.063	-200.000	0.022	0.254
-250.049	-200.000	0.011	0.093
-249.034	-140.067	-0.383	-0.040
-248.019	-16.608	-0.140	-0.087
-247.005	385.832	0.010	0.021
-245.990	-200.000	0.039	-0.236
-244.976	-115.561	-0.180	0.033
-243.961	160.580	-0.042	0.058
-242.946	-77.111	0.076	-0.026
-241.932	252.150	0.113	-0.191
-240.917	-119.849	0.083	0.014
-239.903	47.338	-0.080	-0.074
-238.888	294.223	0.061	0.110
-237.873	78.158	-0.122	-0.129
-236.859	69.527	0.046	0.047
-235.844	-86.102	0.142	0.043
-234.830	-138.284	0.470	0.051
-233.815	-12.674	-0.040	-0.026
-232.800	-112.245	0.217	-0.043
-231.786	-120.848	0.168	0.028
-230.771	651.728	0.018	-0.045
-229.757	-127.092	0.266	-0.039
-228.742	-57.285	-0.230	0.100
-227.727	-35.012	-0.361	0.195
-226.713	-4.807	-0.122	-0.083
-225.698	-200.000	-0.051	0.433
-224.684	-59.600	-0.165	-0.070
-223.669	104.152	0.152	-0.177
-222.655	-71.309	0.165	0.061
-221.640	53.460	0.168	-0.159
-220.625	-39.505	-0.165	0.086
-219.611	-4.925	0.159	-0.109
-218.596	-94.234	-0.126	0.034
-217.582	-48.004	0.266	-0.127
-216.567	-103.914	-0.414	0.096
-215.552	136.957	0.137	0.177
-214.538	-122.072	0.183	0.030
-213.523	-73.825	-0.264	-0.095
-212.509	-62.209	0.172	0.071
-211.494	52.081	-0.176	-0.166
-210.479	800.000	0.136	-0.383
-209.465	-32.868	0.382	-0.210
-208.450	-40.221	0.316	0.162
-207.436	338.422	-0.073	0.140
-206.421	211.988	-0.031	-0.049
-205.406	-39.537	0.085	0.044
-204.392	30.740	-0.052	0.044
-203.377	711.795	0.038	0.099
-202.363	-189.758	-0.088	0.001
-201.348	-40.090	0.126	-0.065
-200.333	25.131	0.191	-0.157
-199.319	42.980	-0.116	0.105
-198.304	472.584	0.108	0.240
-197.290	-77.024	0.296	0.102
-196.275	800.000	0.060	-0.247
-195.260	-72.089	0.158	-0.058
-194.246	62.747	0.137	0.135
-193.231	800.000	0.043	0.144
-192.217	-139.129	-0.423	-0.045
-191.202	-57.185	0.161	0.070
-190.187	-200.000	0.070	0.363
-189.173	-124.847	-0.103	-0.016
-188.158	800.000	-0.026	-0.101
-187.144	338.484	0.124	0.239
-186.129	154.379	0.231	0.314
-185.114	-84.185	-0.124	-0.039
-184.100	800.000	0.003	0.014
-183.085	-15.071	-0.131	-0.083
-182.071	-98.737	-0.152	-0.038
-181.056	-200.000	-0.042	0.303
-180.042	800.000	-0.112	-0.375
-179.027	-200.000	0.016	-0.134
-178.012	-27.928	-0.096	0.055
-176.998	251.486	0.092	-0.154
-175.983	453.172	-0.103	0.224
-174.969	265.650	0.036	-0.062
-173.954	-200.000	0.007	0.240
-172.939	-138.676	0.218	-0.024
-171.925	745.500	0.086	-0.228
-170.910	322.582	0.082	0.154
-169.896	292.516	-0.091	0.164
-168.881	57.730	-0.132	-0.127
-167.866	13.786	-0.085	-0.065
-166.852	800.000	-0.127	-0.357
-165.837	22.482	0.107	0.086
-164.823	170.066	0.202	0.285
-163.808	-200.000	0.015	-0.345
-162.793	800.000	-0.003	-0.009
-161.779	190.892	-0.095	0.141
-160.764	48.289	0.343	-0.316
-159.750	-49.584	-0.212	0.099
-158.735	-5.128	-0.164	-0.111
-157.720	-200.000	0.025	0.115
-156.706	626.983	0.088	0.218
-155.691	250.639	-0.128	0.214
-154.677	-60.451	-0.296	0.124
-153.662	-60.254	-0.194	-0.081
-152.647	-200.000	0.004	-0.056
-151.633	136.096	-0.053	0.068
-150.618	-115.447	0.340	0.063
-149.604	-200.000	0.083	0.000
-148.589	-200.000	0.003	0.120
-147.574	-39.309	0.122	-0.063
-146.560	112.393	-0.122	-0.145
-145.545	350.818	0.122	0.239
-144.531	294.962	-0.093	0.168
-143.516	-97.945	-0.194	0.049
-142.502	12.454	0.167	0.127
-141.487	325.995	0.109	-0.206
-140.472	-136.080	-0.190	0.022
-139.458	-62.249	0.257	0.106
-138.443	-200.000	0.017	-0.116
-137.429	-200.000	-0.043	-0.322
-136.414	195.500	0.073	0.110
-135.399	-200.000	0.110	0.495
-134.385	-49.447	-0.082	0.038
-133.370	53.096	-0.027	0.026
-132.356	121.918	-0.122	0.150
-131.341	-173.095	0.199	0.006
-130.326	-200.000	-0.005	-0.245
-129.312	-174.372	-0.453	0.013
-128.297	44.464	-0.154	0.139
-127.283	154.392	0.175	0.237
-126.268	147.468	0.166	0.220
-125.253	800.000	0.035	0.130
-124.239	-73.863	0.198	-0.071
-123.224	305.789	0.109	0.200
-122.210	-21.069	0.219	0.132
-121.195	-160.614	0.184	-0.010
