DTS Sentinel unit serial number:	SN413079Multiplexer serial number:	ORYXHardware model number:	OX4-SRSoftware version number:	ORYX F/W v4.00 Oryx Data Collector v3.7.2.0data status	okinstallation	princeton_trtdifferential loss correction	single-endedforward channel	channel 2reverse channel	N/Adate	2019/09/16time	18:35:35forward acquisition time	60.00reverse acquisition time	0.00gamma	496.2192k internal	0.2322k external	0.2322temperature offset calibration	0.9957default loss term (dB/km)	0.3790temperature slope calibration	1.0000multiplexer offset coefficient	1.0000multiplexer slope coefficient	1.0000fibre end	0.00T internal ref (°C)	36.44T ext. ref 1 (°C)	-0.01T ext. ref 2 (°C)	29.85length (m)	temperature (°C)	Stokes	anti-Stokes-747.200	16.662	0.189	-0.151
-746.185	-23.623	0.119	-0.072
-745.171	-200.000	-0.065	-0.341
-744.156	-200.000	0.030	-0.241
-743.142	279.411	-0.110	-0.198
-742.127	800.000	-0.073	0.282
-741.112	71.496	-0.087	0.092
-740.098	-60.457	0.248	-0.106
-739.083	233.085	-0.195	-0.323
-738.069	-99.035	-0.126	0.032
-737.054	13.912	0.116	-0.091
-736.039	27.657	-0.055	-0.046
-735.025	76.472	-0.139	0.148
-734.010	-65.827	-0.366	-0.148
-732.996	316.137	0.033	-0.064
-731.981	-174.890	0.265	-0.008
-730.966	800.000	0.103	-0.344
-729.952	-52.078	0.100	-0.047
-728.937	627.613	0.022	-0.056
-727.923	-155.688	0.186	0.012
-726.908	103.181	-0.232	-0.275
-725.894	-19.096	0.089	-0.056
-724.879	44.018	0.175	-0.162
-723.864	4.179	-0.378	-0.279
-722.850	287.414	0.242	-0.442
-721.835	-200.000	-0.024	-0.211
-720.821	-200.000	-0.023	-0.282
-719.806	-135.578	0.151	0.018
-718.791	-63.832	-0.203	0.084
-717.777	28.509	-0.243	-0.208
-716.762	-37.364	0.084	-0.045
-715.748	360.408	0.055	0.111
-714.733	-29.931	0.292	0.168
-713.718	95.221	-0.123	-0.141
-712.704	26.073	0.225	-0.189
-711.689	-31.877	-0.101	0.057
-710.675	152.269	-0.138	0.191
-709.660	-172.982	0.135	0.004
-708.645	-200.000	0.037	-0.270
-707.631	-200.000	0.004	-0.067
-706.616	-88.989	0.144	-0.043
-705.602	-200.000	0.004	-0.045
-704.587	55.051	-0.034	-0.033
-703.572	114.199	0.163	-0.200
-702.558	-200.000	0.026	-0.332
-701.543	467.379	-0.052	0.117
-700.529	800.000	0.028	0.106
-699.514	800.000	0.008	0.034
-698.499	0.069	-0.152	0.110
-697.485	-200.000	0.010	-0.130
-696.470	-28.696	-0.331	-0.192
-695.456	491.222	0.135	-0.313
-694.441	-93.950	0.267	0.074
-693.426	800.000	-0.080	-0.348
-692.412	-115.724	-0.278	0.052
-691.397	135.912	-0.092	0.120
-690.383	3.841	0.143	-0.105
-689.368	54.210	0.278	-0.270
-688.354	-20.700	-0.224	-0.138
-687.339	-200.000	0.035	-0.201
-686.324	-65.986	-0.357	-0.144
-685.310	95.688	-0.142	0.163
-684.295	800.000	-0.072	-0.232
-683.281	-92.057	-0.155	0.044
-682.266	-68.528	0.323	-0.126
-681.251	-200.000	-0.014	0.573
-680.237	-191.694	0.120	-0.001
-679.222	-53.276	0.113	0.052
-678.208	433.866	0.043	-0.094
-677.193	47.392	0.294	-0.276
-676.178	-142.303	0.225	-0.022
-675.164	72.528	-0.145	0.152
-674.149	626.188	0.016	0.042
-673.135	-137.814	-0.134	0.015
-672.120	66.659	-0.137	-0.141
-671.105	800.000	-0.047	-0.199
-670.091	-147.855	-0.121	0.010
-669.076	-12.315	-0.200	0.132
-668.062	-42.160	0.288	0.148
-667.047	174.824	-0.100	-0.146
-666.032	132.285	-0.061	-0.079
-665.018	185.667	0.027	0.041
-664.003	182.023	-0.168	0.249
-662.989	-62.739	0.124	0.052
-661.974	800.000	-0.046	-0.191
-660.959	-178.651	0.248	-0.006
-659.945	-200.000	-0.065	-0.291
-658.930	-102.871	-0.172	0.041
-657.916	299.242	-0.151	0.279
-656.901	-71.899	-0.273	0.102
-655.886	106.410	-0.183	0.218
-654.872	-53.316	0.409	0.189
-653.857	-24.486	0.205	0.123
-652.843	-24.516	-0.193	-0.116
-651.828	-188.068	0.159	0.002
-650.814	112.831	0.188	0.230
-649.799	113.675	0.188	-0.230
-648.784	-82.496	0.145	-0.047
-647.770	-8.321	-0.207	-0.140
-646.755	-77.964	-0.437	-0.152
-645.741	19.549	0.088	0.071
-644.726	800.000	-0.031	0.100
-643.711	800.000	0.060	-0.168
-642.697	-152.420	-0.058	0.004
-641.682	-75.989	0.130	-0.046
-640.668	-200.000	0.009	0.094
-639.653	800.000	0.069	0.224
-638.638	108.754	0.167	0.201
-637.624	381.902	0.008	0.017
-636.609	-200.000	-0.015	0.122
-635.595	-122.486	0.047	0.008
-634.580	529.289	-0.060	-0.143
-633.565	800.000	0.013	-0.037
-632.551	-200.000	-0.002	-0.012
-631.536	307.836	0.026	-0.050
-630.522	800.000	-0.106	0.379
-629.507	-26.858	0.346	0.203
-628.492	-24.887	-0.072	-0.043
-627.478	46.560	0.245	-0.229
-626.463	-124.720	0.494	0.077
-625.449	-58.623	-0.272	0.118
-624.434	-116.989	-0.326	0.060
-623.419	-45.789	-0.360	0.179
-622.405	12.080	-0.043	-0.033
-621.390	-160.846	-0.168	-0.009
-620.376	-200.000	-0.054	-0.310
-619.361	236.032	-0.078	-0.129
-618.346	-125.139	0.456	-0.070
-617.332	273.388	0.129	0.230
-616.317	-153.214	-0.216	-0.015
-615.303	-111.536	-0.091	-0.019
-614.288	800.000	-0.203	-0.614
-613.273	108.441	-0.101	-0.121
-612.259	-94.916	-0.110	-0.030
-611.244	-200.000	0.004	0.135
-610.230	56.951	0.135	-0.133
-609.215	-200.000	-0.044	0.207
-608.201	538.134	-0.024	-0.058
-607.186	440.984	0.068	0.149
-606.171	-200.000	0.019	0.092
-605.157	-50.584	-0.185	-0.088
-604.142	-34.465	0.416	0.229
-603.128	457.502	0.004	0.010
-602.113	257.111	-0.282	-0.488
-601.098	-14.811	-0.117	0.075
-600.084	225.332	-0.100	0.163
-599.069	337.993	0.073	0.142
-598.055	-19.504	0.241	-0.150
-597.040	-134.302	-0.107	0.013
-596.025	136.234	-0.119	0.157
-595.011	-200.000	0.094	0.424
-593.996	287.579	-0.102	-0.185
-592.982	-105.902	0.266	-0.060
-591.967	284.604	0.103	-0.186
-590.952	136.120	0.097	0.127
-589.938	291.849	-0.096	0.176
-588.923	72.590	-0.197	-0.206
-587.909	-6.310	0.139	0.095
-586.894	26.879	-0.268	0.226
-585.879	-23.064	0.142	0.086
-584.865	98.330	0.104	-0.120
-583.850	-14.922	0.108	-0.070
-582.836	5.497	-0.142	0.105
-581.821	-78.154	-0.146	0.050
-580.806	-59.201	-0.301	0.130
-579.792	231.137	0.119	0.196
-578.777	459.781	-0.122	-0.274
-577.763	-176.761	-0.410	-0.010
-576.748	109.483	0.296	-0.356
-575.733	89.858	0.073	-0.082
-574.719	259.529	-0.051	-0.089
-573.704	800.000	-0.036	-0.117
-572.690	800.000	-0.028	-0.100
-571.675	-126.046	-0.107	0.016
-570.661	188.199	-0.106	0.159
-569.646	-145.348	-0.194	0.018
-568.631	-109.140	-0.123	-0.026
-567.617	217.846	0.082	0.131
-566.602	53.674	-0.069	0.066
-565.588	-34.750	-0.208	0.114
-564.573	102.752	-0.134	0.158
-563.558	-42.228	-0.162	-0.083
-562.544	40.271	0.269	-0.243
-561.529	-200.000	0.014	-0.252
-560.515	425.662	-0.142	0.307
-559.500	-108.696	-0.291	0.063
-558.485	12.066	0.103	-0.080
-557.471	800.000	-0.107	-0.376
-556.456	474.314	-0.029	0.066
-555.442	-125.189	-0.240	-0.037
-554.427	165.673	0.131	0.186
-553.412	432.756	-0.173	0.376
-552.398	-200.000	-0.050	0.235
-551.383	235.168	0.104	0.172
-550.369	-82.614	0.091	0.029
-549.354	266.700	-0.042	-0.074
-548.339	118.827	0.023	-0.028
-547.325	-92.746	0.072	-0.020
-546.310	111.261	0.164	0.199
-545.296	81.390	0.176	-0.191
-544.281	-200.000	-0.039	-0.292
-543.266	363.044	-0.118	0.239
-542.252	258.312	0.128	-0.220
-541.237	182.146	-0.218	-0.322
-540.223	7.795	-0.301	0.226
-539.208	-61.417	-0.307	0.130
-538.193	-200.000	0.007	-0.170
-537.179	-47.887	-0.141	0.068
-536.164	-54.896	0.181	-0.082
-535.150	-200.000	0.006	0.226
-534.135	-117.804	0.284	-0.051
-533.121	-170.029	-0.151	0.005
-532.106	8.559	-0.229	0.173
-531.091	65.998	0.237	-0.241
-530.077	5.214	-0.091	-0.067
-529.062	-87.827	-0.303	-0.091
-528.048	346.504	0.041	-0.081
-527.033	800.000	0.063	-0.198
-526.018	34.153	0.357	-0.312
-525.004	56.347	-0.129	-0.126
-523.989	-14.870	-0.150	-0.096
-522.975	182.505	-0.047	0.069
-521.960	318.245	-0.139	0.264
-520.945	189.297	0.062	0.093
-519.931	-167.385	-0.328	-0.013
-518.916	-60.328	0.117	0.050
-517.902	71.087	-0.308	-0.319
-516.887	-145.040	0.473	-0.043
-515.872	-115.104	-0.229	0.044
-514.858	-113.089	0.234	0.046
-513.843	-47.575	0.191	0.093
-512.829	-58.577	-0.183	0.080
-511.814	-58.087	-0.209	-0.091
-510.799	-28.323	-0.128	-0.074
-509.785	459.855	-0.029	-0.064
-508.770	-200.000	-0.013	0.137
-507.756	680.938	0.121	0.317
-506.741	446.356	-0.056	-0.124
-505.726	-58.259	0.065	0.028
-504.712	104.603	-0.247	-0.291
-503.697	-184.547	0.237	0.004
-502.683	-200.000	-0.014	0.209
-501.668	-183.902	-0.089	-0.001
-500.653	-99.131	-0.244	0.062
-499.639	-86.762	0.096	-0.029
-498.624	-200.000	0.036	-0.231
-497.610	58.560	-0.285	-0.280
-496.595	64.098	-0.167	0.168
-495.581	-200.000	0.056	-0.298
-494.566	-38.002	0.179	-0.095
-493.551	-200.000	0.036	0.239
-492.537	47.769	0.258	0.241
-491.522	119.878	-0.127	0.158
-490.508	-168.322	0.183	-0.007
-489.493	-200.000	-0.031	-0.437
-488.478	-97.556	0.317	0.082
-487.464	-17.028	0.384	0.243
-486.449	-34.306	0.135	-0.074
-485.435	-33.390	0.117	0.064
-484.420	-118.258	-0.321	-0.057
-483.405	237.907	-0.143	0.237
-482.391	-49.116	-0.197	-0.094
-481.376	-191.139	0.145	-0.001
-480.362	-200.000	-0.042	0.189
-479.347	37.108	0.088	-0.078
-478.332	20.250	0.417	-0.337
-477.318	-39.948	-0.246	-0.128
-476.303	800.000	0.078	0.240
-475.289	256.968	0.101	0.174
-474.274	-200.000	0.023	-0.253
-473.259	329.595	0.184	0.353
-472.245	-145.925	-0.208	0.018
-471.230	-200.000	-0.032	-0.288
-470.216	-200.000	0.006	-0.111
-469.201	-133.097	0.349	-0.044
-468.186	77.133	0.226	0.240
-467.172	-128.822	-0.374	-0.053
-466.157	422.330	0.051	0.109
-465.143	72.375	0.031	0.033
-464.128	-84.732	0.263	-0.083
-463.113	163.779	0.091	-0.128
-462.099	-49.544	0.238	-0.113
-461.084	-39.435	-0.209	-0.109
-460.070	-96.479	-0.199	-0.053
-459.055	-37.182	-0.218	0.117
-458.040	-200.000	-0.004	0.027
-457.026	380.394	-0.077	-0.157
-456.011	-87.806	-0.279	0.084
-454.997	-84.749	-0.184	-0.058
-453.982	-3.246	-0.220	0.153
-452.968	603.583	-0.060	0.150
-451.953	800.000	-0.043	0.186
-450.938	-100.740	-0.092	-0.023
-449.924	158.832	-0.174	-0.242
-448.909	-200.000	-0.012	-0.086
-447.895	123.083	-0.195	0.244
-446.880	-32.313	-0.193	0.108
-445.865	-139.150	-0.429	-0.046
-444.851	-107.326	-0.072	0.016
-443.836	-200.000	0.005	-0.154
-442.822	135.124	-0.172	0.224
-441.807	27.279	-0.235	0.197
-440.792	613.776	0.148	-0.369
-439.778	-49.832	0.207	-0.098
-438.763	-200.000	-0.028	-0.246
-437.749	-103.371	0.145	-0.034
-436.734	-128.040	-0.272	-0.039
-435.719	-161.140	0.103	0.005
-434.705	-37.135	0.143	-0.076
-433.690	-167.608	0.226	-0.009
-432.676	-115.294	0.085	-0.016
-431.661	176.036	-0.108	0.157
-430.646	-104.934	0.228	-0.052
-429.632	231.935	-0.206	-0.338
-428.617	-22.366	-0.340	-0.206
-427.603	49.196	-0.141	-0.133
-426.588	372.841	-0.005	0.011
-425.573	-91.896	0.358	-0.101
-424.559	-65.435	0.372	-0.149
-423.544	-117.586	0.147	-0.026
-422.530	-200.000	-0.033	0.290
-421.515	-74.892	0.080	0.029
-420.500	-200.000	0.014	-0.156
-419.486	130.202	-0.263	-0.337
-418.471	221.644	0.051	-0.082
-417.457	228.362	-0.176	-0.285
-416.442	92.588	0.336	-0.378
-415.428	-123.026	-0.257	-0.041
-414.413	538.085	-0.124	-0.293
-413.398	-92.765	-0.009	-0.002
-412.384	-73.822	-0.031	-0.011
-411.369	116.679	0.051	-0.062
-410.355	-99.725	0.322	0.080
-409.340	176.956	0.085	0.124
-408.325	-110.215	0.269	0.056
-407.311	65.966	-0.359	0.363
-406.296	-6.490	0.056	0.038
-405.282	14.103	-0.065	-0.051
-404.267	-10.363	0.151	-0.100
-403.252	97.945	-0.201	-0.231
-402.238	-96.472	0.381	-0.100
-401.223	445.611	0.203	0.445
-400.209	29.271	-0.211	0.179
-399.194	-119.571	-0.035	0.006
-398.179	-77.373	0.100	-0.035
-397.165	-200.000	-0.019	-0.104
-396.150	618.242	-0.027	0.066
-395.136	428.083	0.060	0.129
-394.121	18.695	-0.409	-0.326
-393.106	-200.000	-0.039	-0.225
-392.092	-50.027	0.345	0.163
-391.077	-49.747	-0.170	-0.081
-390.063	-160.291	-0.306	0.016
-389.048	41.085	-0.122	0.110
-388.033	-178.095	0.246	-0.006
-387.019	-79.629	-0.540	0.181
-386.004	-143.208	-0.443	-0.042
-384.990	327.364	0.088	0.169
-383.975	800.000	-0.059	0.243
-382.960	127.614	-0.133	0.169
-381.946	153.490	-0.126	-0.172
-380.931	71.407	-0.086	0.089
-379.917	-200.000	-0.018	0.113
-378.902	-7.053	0.308	0.208
-377.888	-67.072	-0.142	-0.056
-376.873	448.321	0.039	-0.086
-375.858	-119.636	-0.324	-0.056
-374.844	-56.405	-0.223	0.099
-373.829	800.000	0.069	-0.200
-372.815	-73.958	0.181	0.065
-371.800	12.404	-0.153	-0.117
-370.785	-157.297	0.334	-0.020
-369.771	104.962	-0.085	0.100
-368.756	800.000	-0.059	0.173
-367.742	55.902	-0.068	-0.066
-366.727	-200.000	-0.028	-0.192
-365.712	203.181	-0.076	0.116
-364.698	279.671	-0.053	0.094
-363.683	-200.000	0.003	-0.156
-362.669	800.000	-0.028	0.087
-361.654	800.000	0.054	-0.219
-360.639	-42.464	-0.095	-0.048
-359.625	-24.859	0.163	0.096
-358.610	-26.179	0.091	-0.053
-357.596	265.703	-0.085	-0.147
-356.581	204.554	0.212	0.327
-355.566	800.000	0.019	-0.082
-354.552	619.355	-0.120	0.301
-353.537	96.776	-0.343	0.391
-352.523	800.000	-0.087	-0.242
-351.508	-96.186	-0.065	-0.017
-350.493	167.448	-0.130	0.184
-349.479	-200.000	0.033	-0.253
-348.464	-144.513	0.260	0.024
-347.450	92.907	0.054	0.060
-346.435	-27.000	0.183	-0.106
-345.420	53.068	0.227	0.216
-344.406	-19.176	0.178	-0.110
-343.391	61.151	-0.096	-0.094
-342.377	61.723	0.271	-0.268
-341.362	95.707	-0.140	-0.158
-340.348	-115.262	-0.209	0.039
-339.333	78.595	-0.026	-0.028
-338.318	263.847	0.087	0.150
-337.304	-1.495	0.238	-0.167
-336.289	-91.613	0.281	0.080
-335.275	-62.167	0.230	-0.096
-334.260	16.615	0.145	-0.114
-333.245	-200.000	-0.019	0.135
-332.231	-200.000	-0.035	0.212
-331.216	-102.476	-0.444	0.106
-330.202	-89.747	0.206	0.060
-329.187	95.333	-0.133	0.150
-328.172	-72.719	0.316	-0.116
-327.158	220.855	-0.087	-0.138
-326.143	-75.095	-0.141	0.050
-325.129	-95.429	-0.126	0.034
-324.114	-200.000	-0.009	0.079
-323.099	176.979	-0.045	-0.065
-322.085	7.099	0.143	0.106
-321.070	505.912	0.070	0.162
-320.056	191.315	0.087	-0.131
-319.041	11.415	-0.074	0.056
-318.026	-75.341	0.140	0.050
-317.012	-79.774	0.174	-0.058
-315.997	9.000	-0.319	0.239
-314.983	-200.000	0.047	-0.482
-313.968	597.027	-0.141	-0.346
-312.953	-200.000	0.044	0.199
-311.939	173.658	-0.189	0.270
-310.924	800.000	-0.033	-0.115
-309.910	-43.260	0.226	0.114
-308.895	-200.000	-0.014	0.196
-307.880	-27.520	-0.047	-0.027
-306.866	-132.594	-0.104	-0.013
-305.851	-42.879	0.056	0.028
-304.837	-146.783	-0.121	0.010
-303.822	800.000	0.017	0.065
-302.807	795.666	0.084	0.230
-301.793	5.120	0.244	-0.179
-300.778	-141.234	0.179	0.018
-299.764	6.668	-0.168	-0.124
-298.749	623.091	-0.075	0.189
-297.735	-83.434	0.147	0.047
-296.720	276.587	0.137	0.241
-295.705	800.000	-0.026	-0.077
-294.691	761.043	0.058	0.156
-293.676	-66.912	-0.192	-0.075
-292.662	-1.180	0.430	-0.302
-291.647	-87.649	-0.142	0.043
-290.632	-135.959	-0.236	0.028
-289.618	800.000	-0.012	0.039
-288.603	-200.000	-0.006	-0.371
-287.589	-80.235	-0.312	0.104
-286.574	-200.000	0.038	0.239
-285.559	-130.629	0.322	-0.043
-284.545	-76.096	-0.154	-0.054
-283.530	-29.210	-0.102	-0.058
-282.516	-141.128	-0.163	-0.016
-281.501	-45.966	0.386	-0.189
-280.486	16.095	0.201	0.157
-279.472	291.998	0.224	0.404
-278.457	298.800	0.046	-0.084
-277.443	9.965	-0.159	-0.120
-276.428	2.011	0.266	-0.190
-275.413	-200.000	0.107	-0.491
-274.399	-20.571	0.189	0.115
-273.384	638.412	-0.033	-0.084
-272.370	-200.000	-0.013	-0.059
-271.355	11.172	-0.204	-0.154
-270.340	800.000	0.007	-0.023
-269.326	-31.333	0.092	0.051
-268.311	199.332	-0.143	-0.218
-267.297	219.023	0.111	-0.176
-266.282	594.897	0.147	-0.359
-265.267	168.923	0.170	0.240
-264.253	52.345	-0.258	-0.244
-263.238	96.835	0.045	-0.051
-262.224	67.153	-0.153	-0.154
-261.209	-106.937	-0.200	-0.044
-260.195	142.030	-0.235	0.309
-259.180	-67.640	0.368	0.143
-258.165	628.558	-0.075	-0.187
-257.151	-124.166	0.508	-0.079
-256.136	278.548	0.210	0.370
-255.122	-26.685	0.072	0.042
-254.107	686.576	0.039	0.101
-253.092	-148.048	0.302	0.025
-252.078	-52.801	-0.231	-0.106
-251.063	800.000	-0.062	-0.198
-250.049	-61.519	0.062	0.026
-249.034	-188.218	0.275	0.003
-248.019	-98.858	0.261	0.066
-247.005	163.121	0.167	0.233
-245.990	-130.946	-0.351	0.047
-244.976	168.326	0.153	0.215
-243.961	206.248	-0.106	0.163
-242.946	398.565	0.088	-0.183
-241.932	-113.014	0.182	0.036
-240.917	-111.131	0.149	-0.030
-239.903	77.514	-0.174	0.184
-238.888	-83.600	-0.160	-0.051
-237.873	-44.611	0.387	0.192
-236.859	-148.182	-0.132	-0.011
-235.844	-68.713	0.163	-0.062
-234.830	-58.155	0.033	-0.014
-233.815	-13.182	-0.056	-0.036
-232.800	-200.000	-0.008	-0.082
-231.786	-141.064	-0.078	-0.008
-230.771	-200.000	-0.001	-0.151
-229.757	800.000	0.018	-0.054
-228.742	43.051	0.084	-0.076
-227.727	-86.807	0.215	0.065
-226.713	-139.049	-0.211	-0.023
-225.698	-200.000	-0.043	-0.313
-224.684	-200.000	0.041	0.272
-223.669	170.891	0.306	0.434
-222.655	591.288	0.012	0.028
-221.640	119.866	0.073	0.090
-220.625	108.719	0.092	0.108
-219.611	-81.548	-0.035	-0.011
-218.596	141.233	0.153	-0.200
-217.582	314.296	0.042	-0.079
-216.567	-95.766	0.342	0.091
-215.552	-86.959	0.269	0.081
-214.538	96.264	-0.392	0.444
-213.523	800.000	-0.048	0.148
-212.509	-108.093	0.168	0.036
-211.494	-200.000	0.022	0.119
-210.479	8.350	0.144	0.107
-209.465	-126.022	-0.132	0.020
-208.450	293.381	0.212	0.382
-207.436	-79.158	0.104	-0.035
-206.421	314.516	-0.100	0.186
-205.406	32.337	0.315	0.269
-204.392	-43.401	0.209	-0.104
-203.377	800.000	0.053	0.190
-202.363	-200.000	0.050	-0.381
-201.348	5.441	0.126	0.092
-200.333	-200.000	-0.018	0.085
-199.319	2.219	-0.313	-0.223
-198.304	184.199	-0.147	0.215
-197.290	304.742	-0.053	-0.098
-196.275	-86.754	-0.064	-0.019
-195.260	-79.936	0.380	0.126
-194.246	23.890	-0.233	0.190
-193.231	128.415	0.132	-0.166
-192.217	-33.206	0.014	-0.008
-191.202	-140.839	0.240	-0.024
-190.187	-155.562	-0.148	-0.009
-189.173	-82.220	0.166	-0.054
-188.158	-76.520	-0.263	-0.091
-187.144	-106.851	0.141	0.031
-186.129	-27.016	0.179	-0.103
-185.114	-157.153	0.240	-0.014
-184.100	34.849	0.293	0.253
-183.085	-2.464	-0.215	0.149
-182.071	800.000	-0.023	-0.066
-181.056	375.439	0.117	-0.236
-180.042	-59.744	-0.325	0.138
-179.027	-66.818	-0.115	-0.045
-178.012	311.290	-0.045	0.084
-176.998	-200.000	0.001	0.217
-175.983	-107.338	0.155	-0.034
-174.969	-200.000	0.016	0.084
-173.954	-200.000	-0.006	-0.282
-172.939	-200.000	0.007	0.274
-171.925	-200.000	-0.005	0.217
-170.910	118.913	0.096	-0.117
-169.896	60.902	-0.189	0.185
-168.881	-200.000	0.024	0.284
-167.866	15.165	-0.239	0.185
-166.852	30.291	0.068	-0.058
-165.837	-123.528	-0.176	-0.028
-164.823	214.315	-0.075	-0.117
-163.808	-9.284	0.161	-0.106
-162.793	482.199	-0.141	0.315
-161.779	-200.000	-0.043	-0.451
-160.764	-200.000	-0.024	0.193
-159.750	-125.579	-0.032	0.005
-158.735	-200.000	-0.041	-0.471
-157.720	800.000	0.073	-0.216
-156.706	-115.908	-0.351	0.065
-155.691	-54.634	0.280	0.125
-154.677	-62.014	0.288	0.119
-153.662	194.377	0.084	-0.126
-152.647	65.632	-0.160	0.160
-151.633	-200.000	-0.047	-0.322
-150.618	102.524	0.249	-0.287
-149.604	-104.051	0.131	0.030
-148.589	68.981	-0.260	0.264
-147.574	169.758	0.111	-0.157
-146.560	800.000	0.084	-0.231
-145.545	183.979	-0.199	-0.291
-144.531	800.000	0.074	-0.310
-143.516	-200.000	-0.010	-0.169
-142.502	646.669	0.161	0.406
-141.487	-123.687	0.206	-0.032
-140.472	-182.736	-0.107	0.002
-139.458	93.542	0.303	-0.338
-138.443	-200.000	0.062	-0.338
-137.429	800.000	-0.031	0.105
-136.414	800.000	0.082	0.228
-135.399	-200.000	0.009	-0.332
-134.385	-99.794	-0.129	-0.032
-133.370	-120.993	0.089	-0.015
-132.356	57.599	0.233	0.225
-131.341	260.802	0.028	-0.047
-130.326	800.000	-0.099	0.368
-129.312	-200.000	0.067	0.306
-128.297	-200.000	0.028	-0.217
-127.283	-135.456	-0.278	-0.033
-126.268	-143.324	0.088	0.008
-125.253	-80.315	0.314	0.103
-124.239	28.032	-0.211	-0.175
-123.224	60.675	-0.033	-0.032
-122.210	40.947	0.226	0.201
-121.195	776.116	0.089	0.239
