DTS Sentinel unit serial number:	SN413079Multiplexer serial number:	ORYXHardware model number:	OX4-SRSoftware version number:	ORYX F/W v4.00 Oryx Data Collector v3.7.2.0data status	okinstallation	princeton_trtdifferential loss correction	single-endedforward channel	channel 2reverse channel	N/Adate	2019/09/11time	05:41:11forward acquisition time	60.00reverse acquisition time	0.00gamma	496.2192k internal	0.2330k external	0.2330temperature offset calibration	0.9936default loss term (dB/km)	0.3790temperature slope calibration	1.0000multiplexer offset coefficient	1.0000multiplexer slope coefficient	1.0000fibre end	0.00T internal ref (°C)	29.42T ext. ref 1 (°C)	-0.25T ext. ref 2 (°C)	23.38length (m)	temperature (°C)	Stokes	anti-Stokes-747.200	-149.450	0.383	-0.031
-746.185	27.314	-0.190	-0.161
-745.171	800.000	0.075	0.211
-744.156	340.000	0.203	0.398
-743.142	800.000	0.062	0.226
-742.127	108.283	0.151	0.181
-741.112	-55.876	-0.098	-0.044
-740.098	52.895	-0.224	0.216
-739.083	800.000	-0.029	-0.112
-738.069	800.000	0.158	0.466
-737.054	-61.016	-0.295	-0.126
-736.039	-192.827	-0.381	-0.003
-735.025	152.838	0.123	0.170
-734.010	-200.000	0.011	0.118
-732.996	29.646	-0.092	0.079
-731.981	800.000	0.030	0.116
-730.966	72.238	-0.319	0.335
-729.952	-87.917	-0.103	-0.031
-728.937	-152.708	-0.426	0.030
-727.923	153.756	0.422	-0.582
-726.908	-169.031	-0.405	0.015
-725.894	-59.822	0.146	-0.063
-724.879	79.973	0.063	-0.068
-723.864	-8.779	-0.053	-0.036
-722.850	71.506	-0.119	-0.124
-721.835	800.000	0.044	-0.160
-720.821	123.077	0.058	0.073
-719.806	-119.173	0.155	0.027
-718.791	19.119	-0.274	0.221
-717.777	800.000	-0.077	-0.232
-716.762	-200.000	0.014	-0.121
-715.748	-200.000	0.017	0.141
-714.733	-16.343	0.155	0.099
-713.718	-19.049	0.204	0.127
-712.704	-0.652	0.165	0.118
-711.689	-79.775	0.205	0.069
-710.675	228.503	0.062	0.101
-709.660	218.983	0.168	-0.270
-708.645	800.000	0.083	-0.276
-707.631	-200.000	0.048	0.261
-706.616	-175.238	-0.141	-0.004
-705.602	-129.011	0.315	-0.044
-704.587	-88.504	-0.476	0.143
-703.572	-76.655	0.292	0.103
-702.558	543.485	-0.149	0.357
-701.543	-91.941	0.440	-0.125
-700.529	-177.557	0.209	0.005
-699.514	57.827	-0.225	0.221
-698.499	-88.193	0.223	-0.067
-697.485	29.757	-0.033	0.028
-696.470	-139.912	-0.277	-0.029
-695.456	85.639	-0.146	0.161
-694.441	-200.000	-0.003	-0.183
-693.426	-200.000	0.010	-0.140
-692.412	146.986	-0.245	0.332
-691.397	-200.000	-0.001	0.176
-690.383	800.000	0.073	-0.227
-689.368	800.000	0.019	-0.071
-688.354	277.057	-0.108	-0.193
-687.339	800.000	-0.025	-0.105
-686.324	309.361	0.062	-0.116
-685.310	-144.456	0.150	-0.014
-684.295	-162.630	-0.455	0.022
-683.281	800.000	0.032	-0.108
-682.266	710.226	-0.086	0.229
-681.251	17.945	0.239	0.191
-680.237	423.552	-0.118	-0.254
-679.222	0.775	-0.320	-0.230
-678.208	-81.110	0.149	-0.049
-677.193	83.302	-0.294	0.322
-676.178	-37.578	-0.256	-0.137
-675.164	-140.165	-0.122	-0.013
-674.149	-123.573	-0.208	-0.033
-673.135	-161.399	-0.281	-0.015
-672.120	-200.000	0.002	0.118
-671.105	-36.821	0.208	-0.112
-670.091	-54.087	-0.139	0.064
-669.076	115.693	-0.069	-0.085
-668.062	37.177	-0.156	0.139
-667.047	-200.000	-0.050	-0.268
-666.032	446.354	-0.144	0.319
-665.018	-53.268	0.294	-0.135
-664.003	800.000	-0.038	-0.125
-662.989	578.955	0.072	0.178
-661.974	-81.287	0.245	0.081
-660.959	14.549	0.238	-0.187
-659.945	800.000	-0.055	-0.156
-658.930	160.100	0.053	0.075
-657.916	-100.982	-0.120	0.030
-656.901	97.640	-0.190	0.220
-655.886	256.310	0.160	-0.275
-654.872	-200.000	0.010	0.308
-653.857	-158.620	0.173	-0.010
-652.843	-3.128	-0.117	0.082
-651.828	-200.000	-0.042	0.473
-650.814	-200.000	-0.015	-0.213
-649.799	-144.563	0.295	-0.027
-648.784	800.000	0.127	-0.397
-647.770	-200.000	0.032	-0.228
-646.755	-98.540	-0.085	-0.022
-645.741	-12.334	-0.171	-0.112
-644.726	686.106	0.089	0.233
-643.711	321.345	0.012	0.023
-642.697	217.865	-0.106	0.170
-641.682	-37.261	0.170	-0.091
-640.668	-200.000	0.005	-0.256
-639.653	-200.000	0.025	-0.205
-638.638	-200.000	0.027	-0.162
-637.624	-133.815	-0.328	-0.041
-636.609	61.324	-0.218	0.218
-635.595	-123.767	0.075	0.012
-634.580	-70.256	0.055	0.021
-633.565	271.706	-0.193	0.340
-632.551	83.717	0.111	-0.121
-631.536	-69.034	0.030	0.012
-630.522	54.381	-0.107	0.104
-629.507	-12.973	-0.151	0.099
-628.492	352.682	-0.113	-0.225
-627.478	-11.983	0.174	0.114
-626.463	55.265	-0.072	-0.070
-625.449	412.599	0.074	-0.158
-624.434	-92.477	-0.263	0.074
-623.419	-69.754	-0.273	-0.104
-622.405	122.789	0.081	-0.102
-621.390	217.689	0.087	0.139
-620.376	-38.204	0.288	-0.153
-619.361	4.417	-0.200	-0.147
-618.346	456.058	-0.077	-0.172
-617.332	-200.000	-0.013	-0.143
-616.317	165.727	-0.129	-0.183
-615.303	20.626	0.389	0.315
-614.288	-126.271	-0.158	-0.024
-613.273	64.264	0.189	0.190
-612.259	138.791	-0.210	0.277
-611.244	203.651	-0.052	-0.081
-610.230	-200.000	-0.097	-0.628
-609.215	800.000	0.036	0.123
-608.201	-200.000	0.038	0.532
-607.186	197.860	0.149	-0.227
-606.171	-88.961	0.332	-0.099
-605.157	-23.039	0.114	0.069
-604.142	12.370	0.163	-0.126
-603.128	18.991	0.232	0.186
-602.113	59.281	-0.248	-0.244
-601.098	800.000	-0.056	-0.210
-600.084	296.966	-0.033	0.061
-599.069	-53.445	-0.156	0.071
-598.055	800.000	-0.022	-0.084
-597.040	509.948	-0.180	-0.418
-596.025	-56.416	0.044	-0.019
-595.011	145.749	-0.158	-0.212
-593.996	-200.000	-0.007	-0.244
-592.982	-89.328	0.212	-0.062
-591.967	-95.089	0.167	0.045
-590.952	800.000	-0.068	0.281
-589.938	-167.103	-0.115	-0.005
-588.923	135.731	-0.244	-0.317
-587.909	-113.325	-0.466	-0.092
-586.894	-200.000	0.013	0.105
-585.879	-87.069	0.278	0.085
-584.865	-74.073	-0.239	-0.087
-583.850	-61.992	-0.275	0.115
-582.836	-200.000	-0.053	0.305
-581.821	676.007	-0.090	0.234
-580.806	5.684	-0.115	-0.085
-579.792	-187.667	0.129	0.002
-578.777	-37.571	-0.079	0.042
-577.763	100.999	0.131	-0.153
-576.748	-200.000	0.021	0.106
-575.733	-38.698	0.311	-0.164
-574.719	486.779	0.051	-0.117
-573.704	-176.205	-0.297	-0.008
-572.690	-12.625	-0.345	-0.225
-571.675	-26.353	0.062	-0.036
-570.661	-200.000	0.011	0.081
-569.646	49.077	-0.351	-0.329
-568.631	-91.358	-0.060	-0.017
-567.617	-200.000	-0.022	-0.156
-566.602	9.163	0.143	-0.108
-565.588	-200.000	0.007	0.210
-564.573	-200.000	-0.018	0.272
-563.558	123.816	0.112	-0.141
-562.544	800.000	-0.041	-0.155
-561.529	12.542	-0.078	0.060
-560.515	88.202	-0.184	-0.204
-559.500	51.266	0.204	-0.193
-558.485	557.928	-0.187	-0.450
-557.471	9.251	-0.197	-0.149
-556.456	-60.159	-0.054	-0.023
-555.442	-64.063	-0.295	-0.120
-554.427	-36.330	-0.332	-0.179
-553.412	292.500	0.052	-0.095
-552.398	800.000	-0.054	0.161
-551.383	-26.221	0.312	0.183
-550.369	152.131	-0.220	0.299
-549.354	-200.000	0.008	-0.087
-548.339	-134.414	-0.288	0.035
-547.325	397.332	0.030	-0.064
-546.310	-22.707	0.400	-0.242
-545.296	4.394	0.142	-0.104
-544.281	800.000	-0.062	0.253
-543.266	83.432	-0.259	0.282
-542.252	82.738	0.064	-0.069
-541.237	43.031	0.107	-0.098
-540.223	-186.187	-0.116	-0.002
-539.208	-25.431	0.198	0.117
-538.193	-200.000	-0.014	0.115
-537.179	29.435	-0.105	-0.089
-536.164	-138.419	0.460	-0.051
-535.150	-200.000	0.014	-0.071
-534.135	800.000	0.101	-0.344
-533.121	90.699	0.093	-0.104
-532.106	-87.559	-0.463	-0.140
-531.091	375.283	-0.094	-0.192
-530.077	305.243	0.110	0.205
-529.062	-157.163	-0.109	-0.007
-528.048	131.772	0.177	0.228
-527.033	-200.000	-0.005	0.033
-526.018	-119.117	-0.070	0.012
-525.004	-137.398	0.247	0.028
-523.989	70.968	-0.173	0.179
-522.975	-200.000	-0.007	-0.044
-521.960	-109.406	0.212	-0.045
-520.945	-137.816	-0.096	0.011
-519.931	76.774	-0.158	0.167
-518.916	-200.000	0.021	0.216
-517.902	800.000	-0.043	0.118
-516.887	-200.000	0.026	-0.291
-515.872	369.429	0.062	0.126
-514.858	-45.786	0.147	0.072
-513.843	-200.000	0.033	-0.218
-512.829	-200.000	-0.001	-0.055
-511.814	-200.000	-0.000	0.106
-510.799	-3.195	-0.144	-0.100
-509.785	-200.000	-0.026	-0.238
-508.770	-200.000	-0.006	-0.038
-507.756	-145.001	0.235	-0.021
-506.741	42.516	0.114	-0.104
-505.726	157.165	-0.229	-0.316
-504.712	-200.000	-0.036	-0.337
-503.697	-42.365	0.128	0.065
-502.683	13.846	0.093	0.072
-501.668	32.227	0.226	-0.194
-500.653	800.000	-0.027	0.101
-499.639	-200.000	0.008	-0.090
-498.624	127.272	0.040	0.051
-497.610	19.517	0.085	-0.069
-496.595	-200.000	0.058	0.256
-495.581	-25.686	-0.166	-0.098
-494.566	-28.787	0.234	0.134
-493.551	50.663	-0.174	0.164
-492.537	-200.000	0.008	0.256
-491.522	424.527	-0.055	0.118
-490.508	-109.382	0.321	-0.068
-489.493	500.546	0.152	-0.349
-488.478	-61.000	0.194	-0.082
-487.464	800.000	-0.026	0.098
-486.449	-131.586	0.022	0.003
-485.435	-75.394	-0.272	0.096
-484.420	125.894	0.174	0.219
-483.405	-92.158	0.248	0.070
-482.391	-85.111	-0.171	-0.053
-481.376	10.087	0.099	-0.075
-480.362	-200.000	-0.006	-0.047
-479.347	-153.725	-0.222	0.015
-478.332	638.212	0.153	0.387
-477.318	-97.880	0.161	0.041
-476.303	-55.239	0.153	0.069
-475.289	-134.901	0.246	-0.030
-474.274	-200.000	0.025	0.401
-473.259	-87.021	-0.071	0.021
-472.245	155.528	-0.088	-0.121
-471.230	-64.313	-0.210	-0.085
-470.216	39.054	0.137	-0.122
-469.201	-188.081	-0.367	0.005
-468.186	800.000	-0.060	0.194
-467.172	-15.667	-0.136	0.086
-466.157	2.789	-0.515	-0.373
-465.143	-200.000	0.032	0.190
-464.128	16.300	0.188	-0.148
-463.113	333.119	0.142	-0.273
-462.099	219.494	0.084	-0.134
-461.084	410.515	0.068	-0.144
-460.070	612.626	-0.028	-0.070
-459.055	-132.627	0.200	-0.026
-458.040	17.940	-0.131	0.104
-457.026	-141.517	0.215	0.022
-456.011	85.979	-0.260	0.285
-454.997	-118.384	0.281	-0.050
-453.982	-94.808	0.116	-0.031
-452.968	107.016	0.046	0.055
-451.953	145.781	0.047	0.063
-450.938	-105.603	-0.035	-0.008
-449.924	554.411	0.120	-0.287
-448.909	-200.000	0.025	0.295
-447.895	83.906	-0.074	-0.080
-446.880	707.682	-0.070	-0.185
-445.865	-200.000	-0.008	0.039
-444.851	124.243	0.190	0.237
-443.836	-85.920	0.252	-0.078
-442.822	-135.653	0.151	0.018
-441.807	-200.000	-0.006	0.050
-440.792	-52.278	-0.289	-0.133
-439.778	-200.000	0.040	0.423
-438.763	-27.383	0.066	-0.038
-437.749	-109.239	0.161	0.034
-436.734	-45.768	0.097	-0.047
-435.719	49.668	-0.307	0.288
-434.705	-92.151	-0.365	-0.103
-433.690	800.000	-0.056	-0.180
-432.676	-200.000	0.030	-0.148
-431.661	246.927	0.051	0.085
-430.646	-33.012	-0.167	-0.092
-429.632	716.381	0.056	0.147
-428.617	-112.377	-0.099	0.020
-427.603	-103.410	0.176	-0.041
-426.588	800.000	-0.046	0.136
-425.573	108.317	-0.167	-0.198
-424.559	-36.960	0.242	-0.129
-423.544	800.000	0.046	-0.171
-422.530	-88.154	0.040	0.012
-421.515	400.588	-0.137	0.286
-420.500	-112.199	0.110	0.022
-419.486	-200.000	-0.201	0.001
-418.471	-150.574	0.157	0.012
-417.457	241.756	-0.150	0.249
-416.442	-200.000	0.051	0.304
-415.428	474.237	0.098	0.220
-414.413	-163.356	-0.123	-0.006
-413.398	-111.001	-0.355	-0.073
-412.384	-170.428	0.310	0.011
-411.369	429.023	0.176	0.378
-410.355	-36.060	-0.175	0.094
-409.340	98.438	0.303	0.347
-408.325	64.228	-0.053	0.053
-407.311	-125.832	0.216	-0.032
-406.296	41.900	0.272	0.245
-405.282	-118.400	0.269	0.048
-404.267	-200.000	-0.005	0.044
-403.252	-13.703	0.268	-0.172
-402.238	-60.315	0.228	0.097
-401.223	-200.000	0.005	-0.120
-400.209	120.693	-0.105	0.130
-399.194	466.049	-0.055	-0.123
-398.179	-18.228	0.247	-0.154
-397.165	-109.912	-0.079	0.017
-396.150	49.379	0.161	-0.151
-395.136	-200.000	-0.038	0.349
-394.121	800.000	0.129	0.459
-393.106	-200.000	-0.088	-0.398
-392.092	-118.408	0.226	0.040
-391.077	103.651	-0.133	-0.155
-390.063	-59.986	-0.268	-0.114
-389.048	-74.768	0.283	0.101
-388.033	-106.478	-0.132	-0.029
-387.019	-200.000	-0.016	-0.130
-386.004	-200.000	0.019	0.281
-384.990	-40.184	-0.011	0.006
-383.975	-32.516	-0.142	-0.079
-382.960	255.674	-0.170	0.289
-381.946	122.264	-0.117	0.146
-380.931	153.908	-0.156	-0.213
-379.917	-200.000	-0.004	-0.101
-378.902	70.468	0.241	-0.247
-377.888	136.067	-0.107	-0.138
-376.873	190.178	0.255	0.381
-375.858	110.715	0.255	0.304
-374.844	559.961	-0.253	0.606
-373.829	97.984	-0.220	-0.251
-372.815	800.000	-0.096	-0.401
-371.800	800.000	0.079	-0.254
-370.785	-200.000	-0.022	-0.213
-369.771	-200.000	0.015	-0.244
-368.756	62.065	0.086	-0.085
-367.742	19.116	-0.120	-0.096
-366.727	-200.000	-0.037	-0.210
-365.712	-70.881	0.435	0.163
-364.698	53.471	-0.177	0.169
-363.683	-66.316	-0.085	-0.034
-362.669	66.464	0.156	-0.158
-361.654	-200.000	0.554	0.002
-360.639	208.708	0.039	-0.060
-359.625	800.000	0.015	-0.057
-358.610	-200.000	-0.009	-0.124
-357.596	-200.000	-0.017	0.132
-356.581	-159.285	-0.313	0.017
-355.566	793.966	0.152	-0.414
-354.552	-81.612	0.165	0.054
-353.537	29.382	-0.099	-0.084
-352.523	-160.800	0.335	0.018
-351.508	11.893	0.110	-0.084
-350.493	-70.430	0.194	-0.073
-349.479	97.404	-0.209	-0.238
-348.464	86.238	0.173	-0.189
-347.450	-200.000	0.040	0.184
-346.435	17.721	-0.246	-0.194
-345.420	-200.000	-0.001	0.015
-344.406	800.000	-0.070	-0.275
-343.391	-100.393	0.147	0.036
-342.377	-67.051	0.244	0.095
-341.362	-164.222	-0.333	0.015
-340.348	180.811	-0.098	0.142
-339.333	-132.124	-0.375	-0.048
-338.318	-200.000	0.029	0.259
-337.304	-118.332	0.236	0.042
-336.289	800.000	0.074	0.210
-335.275	-200.000	0.005	-0.232
-334.260	104.403	0.128	-0.149
-333.245	-127.768	-0.138	0.020
-332.231	29.010	-0.225	0.189
-331.216	-186.260	0.254	0.004
-330.202	30.702	0.242	0.205
-329.187	122.844	0.160	0.198
-328.172	-83.363	0.248	0.079
-327.158	-200.000	0.015	0.309
-326.143	-71.635	-0.277	-0.102
-325.129	-200.000	-0.020	0.261
-324.114	49.498	0.235	0.219
-323.099	-8.156	0.155	0.103
-322.085	223.574	-0.029	0.047
-321.070	654.176	0.025	-0.064
-320.056	-123.658	-0.050	-0.008
-319.041	-200.000	-0.071	0.392
-318.026	-143.326	0.113	0.011
-317.012	25.187	-0.224	-0.184
-315.997	86.292	0.171	0.186
-314.983	45.618	-0.036	0.033
-313.968	-102.399	0.206	0.049
-312.953	140.005	-0.283	-0.369
-311.939	-200.000	0.009	0.090
-310.924	117.167	-0.190	0.232
-309.910	-200.000	0.021	0.160
-308.895	-200.000	0.001	-0.120
-307.880	-173.576	0.177	0.005
-306.866	800.000	-0.031	0.093
-305.851	546.708	0.015	0.035
-304.837	800.000	-0.113	0.366
-303.822	427.825	-0.093	0.198
-302.807	-81.409	0.139	0.045
-301.793	112.892	0.134	0.160
-300.778	367.685	0.088	0.175
-299.764	-53.053	-0.108	-0.049
-298.749	-200.000	-0.073	0.330
-297.735	800.000	-0.010	-0.034
-296.720	527.242	-0.074	-0.173
-295.705	-132.637	0.241	-0.031
-294.691	-56.571	-0.041	-0.018
-293.676	800.000	-0.027	-0.104
-292.662	-200.000	-0.013	-0.227
-291.647	-200.000	-0.040	0.188
-290.632	268.677	0.166	-0.289
-289.618	-168.722	0.081	0.003
-288.603	83.649	0.246	-0.265
-287.589	-29.676	0.282	0.159
-286.574	-200.000	-0.002	0.065
-285.559	242.452	-0.104	0.172
-284.545	249.672	0.169	0.283
-283.530	176.631	0.165	0.237
-282.516	-177.144	0.369	-0.009
-281.501	303.775	-0.086	-0.157
-280.486	97.247	0.314	0.357
-279.472	182.464	0.063	-0.092
-278.457	554.311	-0.057	0.137
-277.443	37.963	-0.206	0.181
-276.428	399.806	0.117	-0.243
-275.413	-42.688	-0.136	-0.068
-274.399	-92.038	-0.244	0.068
-273.384	-141.916	0.185	0.018
-272.370	270.375	-0.028	0.049
-271.355	-114.569	-0.413	0.078
-270.340	355.617	-0.192	0.378
-269.326	696.203	-0.071	-0.185
-268.311	-74.134	-0.138	-0.049
-267.297	-200.000	-0.028	-0.308
-266.282	159.614	-0.157	-0.216
-265.267	-200.000	0.014	-0.334
-264.253	-11.657	0.273	0.177
-263.238	28.783	0.138	0.116
-262.224	336.093	0.089	0.171
-261.209	33.745	-0.151	-0.130
-260.195	-49.901	-0.236	-0.111
-259.180	18.910	-0.065	0.051
-258.165	163.565	-0.149	0.207
-257.151	-57.630	0.319	0.138
-256.136	-154.905	0.181	0.012
-255.122	114.718	-0.305	-0.368
-254.107	-53.407	-0.142	0.064
-253.092	-117.742	0.113	-0.020
-252.078	800.000	0.018	0.064
-251.063	85.832	0.122	0.132
-250.049	442.710	-0.044	-0.095
-249.034	800.000	-0.116	0.342
-248.019	-131.362	-0.044	-0.006
-247.005	84.649	0.179	-0.193
-245.990	113.488	0.140	-0.168
-244.976	-16.274	-0.364	-0.228
-243.961	100.249	0.047	0.054
-242.946	-63.360	-0.068	0.028
-241.932	-73.935	-0.423	-0.152
-240.917	43.871	-0.170	-0.154
-239.903	-200.000	-0.023	0.143
-238.888	800.000	0.048	0.138
-237.873	800.000	0.049	-0.201
-236.859	74.454	-0.248	-0.257
-235.844	155.103	-0.318	-0.432
-234.830	800.000	0.030	0.120
-233.815	-145.939	-0.163	-0.014
-232.800	195.695	-0.068	0.102
-231.786	800.000	0.074	0.284
-230.771	287.080	-0.168	0.300
-229.757	289.352	0.082	-0.147
-228.742	-200.000	0.006	0.073
-227.727	131.793	-0.253	-0.322
-226.713	119.201	-0.133	0.162
-225.698	-34.925	-0.388	0.209
-224.684	288.436	0.184	0.329
-223.669	800.000	-0.067	0.251
-222.655	-174.340	-0.398	0.011
-221.640	-200.000	-0.003	0.089
-220.625	133.222	0.112	-0.142
-219.611	494.815	-0.025	0.057
-218.596	8.302	-0.286	-0.212
-217.582	-100.353	0.473	0.116
-216.567	265.455	-0.087	-0.150
-215.552	-86.251	0.180	0.055
-214.538	-200.000	-0.010	0.072
-213.523	-168.984	0.488	-0.018
-212.509	800.000	0.037	0.131
-211.494	-129.450	0.142	-0.019
-210.479	553.870	0.084	-0.200
-209.465	-34.447	-0.138	-0.074
-208.450	800.000	-0.070	0.251
-207.436	297.867	0.144	0.261
-206.421	800.000	0.092	0.254
-205.406	-136.977	-0.127	0.014
-204.392	-200.000	0.018	-0.163
-203.377	-200.000	0.013	-0.178
-202.363	-75.048	-0.132	0.046
-201.348	115.861	0.142	-0.171
-200.333	800.000	0.045	0.128
-199.319	-131.246	-0.272	0.036
-198.304	-8.628	0.291	-0.192
-197.290	-143.267	0.106	0.010
-196.275	-87.757	-0.394	-0.117
-195.260	800.000	-0.087	0.347
-194.246	41.370	-0.107	0.095
-193.231	-200.000	0.055	-0.286
-192.217	800.000	0.021	0.088
-191.202	139.458	0.066	0.085
-190.187	-14.471	-0.146	-0.093
-189.173	-159.863	-0.105	-0.006
-188.158	293.732	-0.189	-0.340
-187.144	-200.000	0.032	-0.255
-186.129	-200.000	-0.078	0.423
-185.114	458.209	-0.158	-0.347
-184.100	800.000	0.016	0.062
-183.085	-200.000	-0.023	0.183
-182.071	800.000	-0.058	-0.219
-181.056	-143.743	0.338	0.032
-180.042	50.032	-0.084	0.078
-179.027	642.062	-0.046	0.115
-178.012	495.205	0.141	-0.319
-176.998	800.000	-0.017	-0.066
-175.983	800.000	-0.061	0.190
-174.969	112.587	0.117	0.140
-173.954	-200.000	0.026	0.144
-172.939	6.112	0.272	0.198
-171.925	6.960	0.112	-0.082
-170.910	-120.367	-0.043	-0.007
-169.896	-200.000	-0.050	0.436
-168.881	-200.000	0.008	-0.155
-167.866	800.000	-0.065	0.236
-166.852	145.255	0.203	0.268
-165.837	77.769	0.163	-0.171
-164.823	198.592	0.063	0.095
-163.808	84.912	0.272	-0.294
-162.793	-200.000	-0.038	-0.166
-161.779	-10.780	0.120	-0.078
-160.764	-43.116	-0.233	-0.116
-159.750	798.464	0.026	-0.069
-158.735	243.397	-0.022	0.037
-157.720	-140.310	-0.391	-0.040
-156.706	-104.058	-0.187	-0.043
-155.691	12.829	-0.189	0.144
-154.677	-26.579	-0.163	0.094
-153.662	161.454	0.016	0.022
-152.647	109.493	-0.147	-0.173
-151.633	800.000	0.072	-0.263
-150.618	-106.340	-0.092	-0.020
-149.604	-200.000	0.040	-0.183
-148.589	143.941	0.044	0.058
-147.574	184.467	-0.131	-0.191
-146.560	-135.933	-0.305	0.035
-145.545	-200.000	0.057	0.259
-144.531	102.489	0.278	-0.320
-143.516	-10.622	0.110	0.071
-142.502	430.337	0.077	-0.165
-141.487	540.862	0.076	0.178
-140.472	35.732	-0.069	-0.060
-139.458	800.000	0.072	-0.276
-138.443	109.758	-0.292	-0.344
-137.429	800.000	-0.072	0.253
-136.414	210.605	0.214	0.331
-135.399	-200.000	-0.050	0.233
-134.385	35.331	-0.267	0.230
-133.370	61.134	-0.238	0.233
-132.356	-143.111	-0.244	-0.023
-131.341	-135.796	-0.223	0.026
-130.326	-116.555	0.310	-0.056
-129.312	-122.202	0.093	-0.015
-128.297	-95.069	0.251	0.067
-127.283	694.919	-0.107	0.276
-126.268	-146.777	0.196	-0.017
-125.253	-109.793	0.081	0.017
-124.239	-45.571	-0.461	0.225
-123.224	-200.000	0.041	-0.478
-122.210	284.795	0.060	0.106
