DTS Sentinel unit serial number:	SN413079Multiplexer serial number:	ORYXHardware model number:	OX4-SRSoftware version number:	ORYX F/W v4.00 Oryx Data Collector v3.7.2.0data status	okinstallation	princeton_trtdifferential loss correction	single-endedforward channel	channel 2reverse channel	N/Adate	2019/09/13time	09:39:35forward acquisition time	60.00reverse acquisition time	0.00gamma	496.2192k internal	0.2326k external	0.2326temperature offset calibration	1.0195default loss term (dB/km)	0.3790temperature slope calibration	1.0000multiplexer offset coefficient	1.0000multiplexer slope coefficient	1.0000fibre end	0.00T internal ref (°C)	29.67T ext. ref 1 (°C)	4.44T ext. ref 2 (°C)	26.15length (m)	temperature (°C)	Stokes	anti-Stokes-747.200	-71.385	0.246	-0.093
-746.185	-185.643	0.191	0.003
-745.171	800.000	0.056	-0.207
-744.156	-54.781	0.173	0.079
-743.142	-200.000	-0.029	-0.138
-742.127	-42.158	0.089	-0.046
-741.112	14.846	0.135	-0.106
-740.098	708.788	0.170	0.453
-739.083	-94.184	-0.316	0.087
-738.069	-131.470	0.089	0.012
-737.054	73.566	0.259	0.274
-736.039	55.985	-0.224	-0.219
-735.025	800.000	-0.020	0.072
-734.010	-112.297	-0.101	0.020
-732.996	-23.797	-0.222	-0.134
-731.981	-200.000	0.008	-0.227
-730.966	737.614	-0.086	-0.232
-729.952	-200.000	0.023	0.219
-728.937	-200.000	0.025	0.178
-727.923	-176.169	0.390	0.010
-726.908	-135.386	-0.142	-0.017
-725.894	668.956	0.094	0.245
-724.879	-118.292	-0.255	0.046
-723.864	800.000	0.092	-0.390
-722.850	-47.564	-0.129	0.063
-721.835	72.625	-0.319	0.335
-720.821	752.006	-0.055	-0.149
-719.806	346.810	0.076	-0.151
-718.791	800.000	-0.088	-0.332
-717.777	-200.000	0.022	0.245
-716.762	800.000	0.067	0.275
-715.748	800.000	-0.148	0.441
-714.733	-71.571	0.340	-0.128
-713.718	4.507	0.097	-0.072
-712.704	-83.314	-0.364	-0.118
-711.689	60.045	-0.388	-0.387
-710.675	-200.000	0.034	-0.154
-709.660	-169.660	-0.238	0.009
-708.645	174.237	0.035	-0.051
-707.631	59.230	-0.119	-0.118
-706.616	216.167	0.035	0.055
-705.602	-100.186	-0.270	-0.068
-704.587	800.000	-0.043	-0.161
-703.572	-52.135	-0.043	0.020
-702.558	-67.606	-0.380	0.150
-701.543	-200.000	0.008	0.167
-700.529	-64.646	0.240	0.098
-699.514	-200.000	-0.077	0.402
-698.499	-77.743	-0.315	-0.110
-697.485	65.344	0.364	-0.371
-696.470	-92.496	0.042	0.012
-695.456	169.316	-0.092	-0.133
-694.441	23.597	-0.233	-0.193
-693.426	-95.534	0.238	-0.064
-692.412	-55.302	0.038	-0.017
-691.397	-47.389	0.109	-0.054
-690.383	93.814	-0.124	0.141
-689.368	62.531	-0.243	-0.244
-688.354	-52.417	-0.327	0.152
-687.339	119.887	0.205	-0.256
-686.324	10.634	-0.342	-0.262
-685.310	-143.710	-0.215	0.021
-684.295	-97.588	0.316	0.082
-683.281	-200.000	-0.027	-0.191
-682.266	-104.790	-0.037	0.009
-681.251	800.000	-0.057	0.194
-680.237	1.414	-0.254	-0.184
-679.222	87.769	-0.118	-0.132
-678.208	-200.000	-0.048	-0.446
-677.193	-10.851	0.124	-0.083
-676.178	-87.569	-0.218	0.066
-675.164	800.000	-0.028	-0.099
-674.149	-10.022	0.344	-0.230
-673.135	-39.787	-0.337	-0.177
-672.120	-48.383	-0.113	-0.055
-671.105	50.200	-0.105	0.100
-670.091	195.392	0.045	0.068
-669.076	25.518	0.158	0.133
-668.062	227.836	-0.109	-0.178
-667.047	-133.498	0.353	-0.045
-666.032	24.174	-0.213	-0.177
-665.018	-94.041	-0.019	0.005
-664.003	539.973	0.115	0.275
-662.989	-122.480	0.035	0.006
-661.974	12.217	0.143	-0.111
-660.959	-70.053	-0.290	-0.111
-659.945	-101.417	0.142	-0.035
-658.930	-200.000	-0.020	-0.103
-657.916	-113.534	-0.028	-0.006
-656.901	-200.000	0.026	0.121
-655.886	-125.958	-0.059	-0.009
-654.872	-24.091	0.330	0.198
-653.857	-37.235	-0.207	-0.111
-652.843	-7.308	0.236	0.161
-651.828	208.141	-0.131	-0.206
-650.814	-103.965	0.366	0.086
-649.799	-200.000	0.014	0.369
-648.784	800.000	-0.067	-0.234
-647.770	800.000	-0.023	-0.092
-646.755	-200.000	-0.018	0.177
-645.741	211.304	0.122	-0.193
-644.726	116.564	0.173	0.214
-643.711	800.000	0.005	-0.023
-642.697	-91.122	-0.357	-0.103
-641.682	-72.167	0.366	-0.137
-640.668	-123.399	-0.109	-0.017
-639.653	-49.543	0.099	0.047
-638.638	800.000	0.105	-0.457
-637.624	-10.679	0.144	-0.096
-636.609	163.398	0.186	-0.263
-635.595	-200.000	0.052	-0.285
-634.580	449.204	0.013	-0.028
-633.565	-200.000	0.019	0.088
-632.551	-40.198	0.171	-0.089
-631.536	-15.414	-0.081	0.052
-630.522	683.177	0.067	0.177
-629.507	152.252	-0.037	0.050
-628.492	35.513	0.100	-0.088
-627.478	-6.376	-0.351	0.240
-626.463	-9.295	-0.138	0.093
-625.449	-139.633	-0.201	0.022
-624.434	20.998	-0.079	0.065
-623.419	22.095	-0.226	0.185
-622.405	24.357	0.311	-0.258
-621.390	619.906	0.090	-0.228
-620.376	-143.666	0.357	0.034
-619.361	800.000	0.095	-0.327
-618.346	550.898	-0.202	-0.486
-617.332	800.000	-0.060	-0.226
-616.317	-58.207	-0.188	0.082
-615.303	483.246	0.168	0.383
-614.288	-200.000	0.029	0.164
-613.273	-14.578	0.060	-0.039
-612.259	-200.000	-0.010	-0.293
-611.244	-148.201	0.319	0.026
-610.230	112.215	0.185	-0.225
-609.215	-172.321	-0.214	0.007
-608.201	-200.000	0.012	-0.237
-607.186	-200.000	0.038	-0.342
-606.171	543.343	-0.178	-0.426
-605.157	78.202	0.227	0.243
-604.142	800.000	0.042	-0.153
-603.128	-200.000	0.020	-0.214
-602.113	-143.753	0.394	-0.037
-601.098	-174.720	-0.223	-0.006
-600.084	-41.458	-0.333	-0.172
-599.069	-150.469	-0.172	0.013
-598.055	82.828	0.257	0.281
-597.040	-75.602	-0.098	0.035
-596.025	51.515	-0.188	0.179
-595.011	-145.512	0.175	0.016
-593.996	367.833	-0.049	0.099
-592.982	135.232	-0.137	0.179
-591.967	800.000	0.057	0.175
-590.952	-5.277	-0.315	0.217
-589.938	-72.846	-0.207	0.076
-588.923	127.147	-0.119	-0.151
-587.909	351.384	-0.122	-0.242
-586.894	-200.000	0.050	-0.244
-585.879	-104.820	0.054	-0.012
-584.865	-32.147	-0.233	-0.130
-583.850	318.973	-0.151	-0.286
-582.836	-131.644	-0.097	0.013
-581.821	-98.867	0.183	0.047
-580.806	63.401	-0.165	-0.166
-579.792	-147.595	-0.104	-0.009
-578.777	-107.451	-0.137	0.030
-577.763	66.069	-0.109	-0.111
-576.748	49.068	-0.182	-0.172
-575.733	-200.000	-0.024	0.327
-574.719	-104.822	-0.116	-0.027
-573.704	548.500	0.041	0.099
-572.690	40.432	-0.178	0.161
-571.675	355.118	-0.033	-0.066
-570.661	-173.875	-0.026	0.001
-569.646	-86.511	0.430	0.132
-568.631	325.334	0.216	-0.413
-567.617	-35.808	0.084	0.046
-566.602	-85.403	-0.117	0.037
-565.588	177.360	0.105	-0.153
-564.573	-90.840	0.035	-0.010
-563.558	-58.671	-0.394	0.171
-562.544	-10.493	0.361	-0.239
-561.529	-200.000	0.025	0.214
-560.515	-200.000	0.006	0.085
-559.500	-97.218	-0.186	0.049
-558.485	-119.947	-0.096	0.017
-557.471	-133.964	-0.069	0.009
-556.456	449.112	-0.030	0.066
-555.442	-47.305	0.343	0.167
-554.427	337.160	-0.058	0.114
-553.412	-200.000	-0.051	0.323
-552.398	73.075	-0.168	0.175
-551.383	-69.178	-0.096	-0.037
-550.369	61.831	-0.082	0.082
-549.354	203.765	0.089	-0.139
-548.339	-174.338	0.176	0.005
-547.325	-113.068	-0.175	-0.035
-546.310	-118.255	0.378	-0.067
-545.296	437.112	-0.148	0.323
-544.281	-19.639	0.052	-0.032
-543.266	-200.000	-0.079	0.349
-542.252	-1.787	0.179	-0.126
-541.237	40.091	-0.160	0.144
-540.223	-15.159	0.248	0.159
-539.208	-72.163	-0.105	0.039
-538.193	-137.884	0.136	0.015
-537.179	515.584	-0.105	0.244
-536.164	-27.645	0.120	0.069
-535.150	-200.000	-0.014	-0.272
-534.135	-200.000	0.016	0.236
-533.121	-200.000	0.018	-0.104
-532.106	155.276	0.097	-0.133
-531.091	437.816	-0.082	0.178
-530.077	-80.207	-0.144	-0.048
-529.062	-89.499	-0.047	0.014
-528.048	-23.608	-0.141	0.084
-527.033	-125.170	-0.023	0.004
-526.018	137.317	0.082	-0.107
-525.004	-131.718	0.320	-0.042
-523.989	333.078	-0.069	0.134
-522.975	462.261	-0.068	0.151
-521.960	-51.145	-0.107	0.050
-520.945	-200.000	-0.003	0.106
-519.931	-200.000	0.034	-0.178
-518.916	584.146	0.124	0.304
-517.902	-8.384	-0.131	0.088
-516.887	507.591	-0.059	-0.138
-515.872	-107.716	-0.037	-0.008
-514.858	-200.000	0.002	0.216
-513.843	-58.111	-0.407	-0.177
-512.829	75.433	0.122	-0.129
-511.814	-116.902	0.208	0.038
-510.799	115.603	0.125	-0.153
-509.785	-200.000	0.054	0.321
-508.770	375.468	-0.041	-0.083
-507.756	-83.014	-0.171	0.055
-506.741	-200.000	-0.041	0.202
-505.726	56.593	0.195	-0.190
-504.712	124.584	0.127	-0.160
-503.697	-152.231	0.154	0.011
-502.683	159.792	0.174	-0.242
-501.668	189.381	0.177	-0.265
-500.653	96.309	-0.087	-0.099
-499.639	129.154	0.042	0.053
-498.624	268.506	0.041	0.071
-497.610	329.965	-0.208	0.399
-496.595	98.500	0.106	0.122
-495.581	-200.000	-0.014	-0.376
-494.566	189.881	0.072	-0.108
-493.551	-65.288	0.125	0.050
-492.537	143.521	0.113	0.151
-491.522	-74.623	0.063	-0.023
-490.508	-200.000	0.021	-0.163
-489.493	128.708	-0.155	0.197
-488.478	-16.809	0.195	-0.123
-487.464	-59.365	-0.500	-0.215
-486.449	-60.735	-0.332	-0.140
-485.435	800.000	0.027	0.102
-484.420	260.693	-0.046	-0.079
-483.405	-200.000	0.010	0.120
-482.391	188.813	-0.156	0.232
-481.376	-130.573	-0.331	0.045
-480.362	30.353	0.394	-0.336
-479.347	63.356	0.075	-0.075
-478.332	-52.742	0.248	-0.114
-477.318	-40.756	0.219	0.113
-476.303	-20.864	-0.135	-0.083
-475.289	729.055	-0.138	0.369
-474.274	411.512	0.181	0.383
-473.259	469.403	-0.177	-0.396
-472.245	800.000	-0.018	-0.059
-471.230	267.022	-0.172	-0.299
-470.216	53.430	0.225	0.215
-469.201	-200.000	0.006	-0.042
-468.186	-152.183	-0.187	-0.014
-467.172	-200.000	0.002	0.107
-466.157	401.043	0.043	0.091
-465.143	-11.649	0.400	0.262
-464.128	-200.000	-0.002	-0.138
-463.113	306.906	0.070	0.130
-462.099	652.545	-0.080	0.205
-461.084	800.000	0.077	-0.215
-460.070	-148.072	-0.177	0.015
-459.055	477.141	0.071	-0.160
-458.040	288.127	-0.048	-0.088
-457.026	-104.295	0.159	0.037
-456.011	-200.000	-0.035	-0.243
-454.997	-135.559	-0.255	0.030
-453.982	800.000	0.059	0.251
-452.968	101.149	-0.107	0.125
-451.953	318.395	-0.175	-0.331
-450.938	-13.029	0.274	0.178
-449.924	-85.131	0.174	-0.054
-448.909	-97.830	0.171	-0.044
-447.895	64.288	0.090	-0.090
-446.880	-25.014	0.161	-0.095
-445.865	-200.000	-0.003	0.251
-444.851	-200.000	-0.137	-0.000
-443.836	800.000	0.068	0.255
-442.822	-200.000	0.013	0.234
-441.807	48.296	-0.096	0.090
-440.792	-195.863	-0.298	0.002
-439.778	-22.824	-0.381	0.229
-438.763	-88.841	-0.182	0.054
-437.749	800.000	-0.038	-0.112
-436.734	-200.000	-0.021	-0.290
-435.719	-9.670	0.372	0.247
-434.705	391.374	-0.012	0.025
-433.690	-200.000	-0.052	-0.306
-432.676	-78.884	-0.019	-0.006
-431.661	-58.741	-0.071	-0.030
-430.646	102.876	0.110	-0.128
-429.632	126.344	-0.213	0.268
-428.617	-200.000	-0.032	-0.278
-427.603	-200.000	0.035	-0.168
-426.588	-200.000	0.006	-0.157
-425.573	97.681	-0.204	-0.233
-424.559	-18.739	-0.139	0.086
-423.544	-200.000	0.069	-0.305
-422.530	-200.000	0.008	0.037
-421.515	-200.000	-0.035	0.314
-420.500	-163.910	0.452	-0.021
-419.486	800.000	-0.017	-0.052
-418.471	-106.278	0.064	-0.014
-417.457	-47.199	-0.217	0.105
-416.442	-128.856	0.343	0.048
-415.428	-200.000	0.070	0.320
-414.413	-39.223	0.033	-0.017
-413.398	-200.000	0.101	0.476
-412.384	-150.321	-0.106	-0.008
-411.369	-200.000	-0.013	0.230
-410.355	137.252	-0.157	-0.204
-409.340	56.264	-0.220	-0.212
-408.325	800.000	0.084	0.283
-407.311	518.298	0.183	-0.427
-406.296	107.134	-0.110	-0.130
-405.282	274.182	0.031	-0.054
-404.267	66.854	0.078	0.079
-403.252	-8.044	0.220	-0.148
-402.238	-84.070	-0.052	0.016
-401.223	-195.568	-0.114	0.001
-400.209	54.306	-0.059	0.056
-399.194	800.000	-0.075	0.219
-398.179	-66.289	-0.122	0.048
-397.165	-200.000	-0.014	0.107
-396.150	-36.988	-0.137	-0.073
-395.136	-200.000	0.019	0.125
-394.121	115.344	-0.143	0.174
-393.106	-162.992	-0.248	0.012
-392.092	-90.112	0.139	0.040
-391.077	-200.000	-0.026	-0.216
-390.063	800.000	0.048	-0.183
-389.048	-14.993	0.318	-0.203
-388.033	-60.723	-0.053	0.022
-387.019	-200.000	-0.016	-0.304
-386.004	232.893	0.068	0.112
-384.990	-186.532	-0.308	-0.004
-383.975	-200.000	-0.024	0.215
-382.960	-200.000	0.014	0.331
-381.946	-109.416	-0.144	0.030
-380.931	16.199	0.321	-0.252
-379.917	-94.972	-0.110	0.030
-378.902	57.135	-0.120	0.117
-377.888	169.706	-0.231	-0.329
-376.873	176.245	-0.031	-0.045
-375.858	100.281	-0.127	-0.147
-374.844	14.381	-0.056	-0.043
-373.829	544.098	-0.080	-0.190
-372.815	8.129	0.145	-0.108
-371.800	-121.120	0.175	-0.029
-370.785	742.252	-0.007	0.019
-369.771	76.982	-0.164	0.173
-368.756	232.510	0.098	-0.160
-367.742	344.604	-0.129	-0.251
-366.727	113.815	-0.037	0.044
-365.712	800.000	0.031	0.105
-364.698	110.059	0.091	-0.109
-363.683	4.880	-0.104	-0.076
-362.669	-200.000	0.043	0.231
-361.654	178.915	0.080	-0.116
-360.639	-16.673	-0.167	0.105
-359.625	-144.547	0.140	-0.013
-358.610	113.667	0.089	0.107
-357.596	286.712	0.159	0.285
-356.581	17.477	0.157	0.124
-355.566	-127.905	0.289	0.041
-354.552	800.000	0.065	0.192
-353.537	800.000	0.055	0.234
-352.523	408.048	0.058	-0.122
-351.508	105.440	-0.179	0.210
-350.493	-200.000	-0.006	-0.225
-349.479	800.000	-0.110	-0.344
-348.464	800.000	0.039	-0.121
-347.450	-200.000	-0.014	-0.117
-346.435	114.926	0.291	-0.353
-345.420	-86.322	-0.205	0.063
-344.406	323.756	0.054	0.103
-343.391	-13.616	0.129	0.083
-342.377	-35.313	0.313	0.169
-341.362	-200.000	0.077	0.401
-340.348	177.300	-0.170	0.245
-339.333	-88.559	0.150	-0.044
-338.318	176.958	-0.075	0.108
-337.304	-129.012	-0.411	-0.057
-336.289	77.067	0.105	0.110
-335.275	184.111	-0.204	-0.300
-334.260	25.138	0.079	-0.065
-333.245	-67.215	-0.181	0.071
-332.231	325.054	0.094	0.179
-331.216	-123.622	0.187	-0.029
-330.202	-84.191	0.408	-0.128
-329.187	673.671	0.087	0.224
-328.172	-200.000	0.020	-0.095
-327.158	-99.258	0.225	-0.056
-326.143	-200.000	0.047	-0.434
-325.129	68.294	0.180	0.183
-324.114	-24.083	0.248	-0.147
-323.099	500.410	-0.100	-0.229
-322.085	-170.742	0.249	-0.009
-321.070	-200.000	0.006	0.081
-320.056	800.000	0.058	-0.186
-319.041	800.000	-0.025	-0.108
-318.026	-200.000	-0.044	0.263
-317.012	800.000	0.102	0.283
-315.997	214.417	0.024	0.038
-314.983	-5.704	0.234	-0.159
-313.968	34.495	-0.136	-0.118
-312.953	-200.000	0.029	0.440
-311.939	-200.000	-0.016	0.218
-310.924	8.063	0.318	-0.237
-309.910	208.189	0.202	-0.313
-308.895	184.833	-0.080	0.118
-307.880	-200.000	-0.034	0.325
-306.866	164.328	-0.066	0.092
-305.851	56.316	0.071	-0.069
-304.837	-90.424	-0.113	0.033
-303.822	232.525	0.124	-0.201
-302.807	-44.073	0.093	0.046
-301.793	159.708	-0.190	0.262
-300.778	-200.000	0.006	0.222
-299.764	269.932	0.278	0.485
-298.749	-200.000	-0.083	0.394
-297.735	800.000	-0.060	0.255
-296.720	299.738	-0.107	0.196
-295.705	83.973	-0.172	0.186
-294.691	689.819	0.127	-0.329
-293.676	29.008	0.213	-0.179
-292.662	120.505	-0.122	-0.150
-291.647	328.296	-0.146	0.277
-290.632	-200.000	0.020	-0.159
-289.618	-47.782	-0.187	0.090
-288.603	-78.840	-0.363	-0.123
-287.589	231.749	0.011	0.018
-286.574	-135.754	0.264	-0.031
-285.559	196.511	0.159	-0.240
-284.545	13.006	0.235	-0.180
-283.530	-200.000	0.082	0.393
-282.516	28.486	0.089	0.074
-281.501	-65.614	0.111	-0.044
-280.486	-79.379	-0.207	0.069
-279.472	-64.272	-0.172	-0.069
-278.457	230.128	0.060	0.098
-277.443	102.682	-0.233	-0.270
-276.428	-146.235	-0.305	-0.027
-275.413	-125.099	0.487	0.074
-274.399	-68.109	-0.098	-0.038
-273.384	-200.000	0.039	-0.194
-272.370	118.198	0.220	0.268
-271.355	-74.303	-0.143	0.051
-270.340	-178.400	0.172	-0.004
-269.326	226.736	-0.225	-0.361
-268.311	-200.000	-0.023	0.114
-267.297	464.186	0.043	0.095
-266.282	-70.493	0.240	-0.090
-265.267	397.978	-0.091	-0.188
-264.253	-48.971	0.148	-0.070
-263.238	-200.000	0.032	-0.163
-262.224	-8.199	0.238	0.159
-261.209	-109.813	-0.211	0.044
-260.195	-162.949	0.158	0.008
-259.180	149.768	-0.240	0.322
-258.165	-200.000	0.017	0.122
-257.151	-200.000	0.028	-0.136
-256.136	139.088	0.131	0.170
-255.122	-200.000	0.005	0.024
-254.107	-200.000	0.090	-0.437
-253.092	268.157	-0.123	-0.213
-252.078	205.599	-0.053	0.082
-251.063	66.221	-0.211	0.212
-250.049	14.846	-0.242	-0.187
-249.034	66.933	-0.206	0.207
-248.019	-24.462	-0.146	0.086
-247.005	-55.481	0.271	0.120
-245.990	-200.000	0.040	-0.291
-244.976	-200.000	0.018	0.212
-243.961	44.464	0.108	-0.098
-242.946	207.923	-0.075	-0.117
-241.932	385.449	-0.150	0.306
-240.917	26.762	0.100	-0.083
-239.903	-200.000	-0.022	-0.118
-238.888	-118.083	0.398	0.070
-237.873	-200.000	-0.036	-0.186
-236.859	130.141	0.081	-0.102
-235.844	-145.747	0.191	-0.017
-234.830	43.531	-0.233	0.210
-233.815	-200.000	-0.007	-0.165
-232.800	-85.153	-0.402	0.124
-231.786	-3.930	0.278	-0.191
-230.771	214.628	-0.157	-0.247
-229.757	800.000	0.058	-0.238
-228.742	88.110	0.013	0.014
-227.727	-85.609	0.166	0.051
-226.713	179.815	-0.187	0.271
-225.698	-200.000	0.006	0.127
-224.684	800.000	0.051	-0.161
-223.669	-93.620	0.166	0.045
-222.655	-87.950	-0.389	0.116
-221.640	24.154	0.076	0.062
-220.625	-26.759	-0.267	-0.154
-219.611	-118.702	0.125	0.022
-218.596	-101.058	0.126	-0.030
-217.582	48.312	-0.166	-0.153
-216.567	800.000	-0.046	0.197
-215.552	161.885	-0.106	-0.146
-214.538	35.351	-0.124	-0.108
-213.523	242.408	0.017	-0.029
-212.509	27.938	0.285	-0.237
-211.494	-15.273	0.043	-0.027
-210.479	-61.707	-0.229	-0.095
-209.465	136.633	0.166	-0.214
-208.450	127.930	-0.245	-0.307
-207.436	-200.000	-0.043	0.242
-206.421	23.839	0.138	-0.112
-205.406	67.335	-0.105	0.106
-204.392	-69.433	-0.154	-0.058
-203.377	-137.378	-0.196	-0.022
-202.363	207.793	0.041	0.063
-201.348	800.000	0.156	0.472
-200.333	-104.709	0.209	0.048
-199.319	247.034	-0.076	-0.127
-198.304	-68.780	-0.257	0.098
-197.290	800.000	-0.039	0.108
-196.275	-42.635	-0.281	-0.141
-195.260	-200.000	-0.023	-0.210
-194.246	464.651	-0.109	-0.242
-193.231	55.379	0.084	-0.080
-192.217	206.420	0.067	0.103
-191.202	-23.979	0.151	0.089
-190.187	-28.964	-0.093	-0.053
-189.173	-49.288	0.234	0.110
-188.158	-200.000	-0.009	0.261
-187.144	244.725	-0.154	0.255
-186.129	-200.000	-0.026	0.173
-185.114	0.760	-0.197	0.139
-184.100	155.600	0.064	-0.087
-183.085	-200.000	-0.005	-0.032
-182.071	-63.656	-0.289	-0.117
-181.056	617.429	0.071	0.175
-180.042	35.697	0.108	0.093
-179.027	126.522	0.119	-0.149
-178.012	-5.886	0.039	0.027
-176.998	800.000	0.044	0.168
-175.983	28.256	0.103	-0.086
-174.969	14.256	-0.117	0.090
-173.954	-23.303	0.078	-0.046
-172.939	-106.834	-0.176	0.039
-171.925	-123.920	0.313	0.049
-170.910	-22.397	-0.225	0.135
-169.896	-44.942	-0.137	-0.068
-168.881	125.446	0.199	-0.247
-167.866	107.400	0.014	0.017
-166.852	101.606	-0.077	-0.089
-165.837	-200.000	0.039	-0.249
-164.823	80.240	-0.120	0.127
-163.808	-51.652	0.168	0.077
-162.793	513.435	0.102	-0.235
-161.779	28.528	-0.052	-0.044
-160.764	115.331	-0.153	0.184
-159.750	-200.000	-0.008	0.338
-158.735	800.000	-0.037	-0.146
-157.720	800.000	0.062	-0.178
-156.706	-61.690	-0.127	-0.052
-155.691	800.000	0.038	0.126
-154.677	32.992	0.034	0.029
-153.662	-46.212	-0.222	0.107
-152.647	-79.182	-0.088	0.030
-151.633	-4.321	-0.144	-0.098
-150.618	138.982	-0.269	0.349
-149.604	800.000	-0.024	0.080
-148.589	91.018	0.187	0.207
-147.574	199.152	0.206	-0.311
-146.560	800.000	0.065	-0.226
-145.545	-114.872	0.311	0.058
-144.531	390.025	-0.161	0.329
-143.516	800.000	-0.048	-0.163
-142.502	60.373	-0.093	0.090
-141.487	-44.018	0.107	-0.053
-140.472	-200.000	0.019	0.153
-139.458	120.957	0.079	-0.097
-138.443	399.734	0.121	0.251
-137.429	116.533	-0.104	-0.125
-136.414	146.534	-0.262	0.347
-135.399	547.797	-0.086	0.202
-134.385	-200.000	0.011	0.050
-133.370	322.472	-0.077	0.144
-132.356	-8.961	0.270	0.178
-131.341	-200.000	0.079	0.420
-130.326	-99.095	-0.168	-0.042
-129.312	800.000	-0.093	0.303
-128.297	800.000	0.082	-0.266
-127.283	68.824	-0.140	-0.142
-126.268	-200.000	-0.020	-0.295
-125.253	-200.000	-0.006	-0.086
-124.239	-73.725	-0.084	-0.030
-123.224	69.655	0.089	0.090
-122.210	596.467	-0.077	-0.188
-121.195	64.778	0.102	-0.101
