DTS Sentinel unit serial number:	SN413079Multiplexer serial number:	ORYXHardware model number:	OX4-SRSoftware version number:	ORYX F/W v4.00 Oryx Data Collector v3.7.2.0data status	okinstallation	princeton_trtdifferential loss correction	single-endedforward channel	channel 2reverse channel	N/Adate	2019/09/13time	20:23:35forward acquisition time	60.00reverse acquisition time	0.00gamma	496.2192k internal	0.2334k external	0.2334temperature offset calibration	1.0137default loss term (dB/km)	0.3790temperature slope calibration	1.0000multiplexer offset coefficient	1.0000multiplexer slope coefficient	1.0000fibre end	0.00T internal ref (°C)	29.25T ext. ref 1 (°C)	3.33T ext. ref 2 (°C)	23.70length (m)	temperature (°C)	Stokes	anti-Stokes-747.200	333.528	0.080	0.156
-746.185	-174.735	0.068	0.002
-745.171	63.677	0.087	0.088
-744.156	-45.762	-0.152	0.076
-743.142	115.574	-0.104	0.127
-742.127	61.598	-0.180	0.180
-741.112	-200.000	0.033	0.178
-740.098	-200.000	0.015	0.225
-739.083	800.000	0.116	-0.353
-738.069	28.498	-0.343	0.291
-737.054	-135.303	0.250	-0.030
-736.039	43.193	-0.115	-0.105
-735.025	800.000	0.086	-0.335
-734.010	-200.000	-0.049	-0.290
-732.996	-3.475	0.125	0.088
-731.981	-26.715	0.127	0.074
-730.966	800.000	-0.071	0.247
-729.952	-29.342	-0.243	0.140
-728.937	107.805	-0.255	-0.305
-727.923	157.075	-0.084	0.117
-726.908	-155.920	-0.289	-0.018
-725.894	86.915	-0.227	0.252
-724.879	-200.000	-0.008	0.047
-723.864	39.192	-0.249	-0.224
-722.850	331.168	-0.016	-0.031
-721.835	-47.898	0.064	0.031
-720.821	-48.382	0.221	0.107
-719.806	-200.000	0.015	-0.244
-718.791	4.634	0.081	-0.060
-717.777	-165.091	-0.217	0.010
-716.762	-200.000	-0.029	0.403
-715.748	-107.035	0.113	0.025
-714.733	95.107	0.022	0.026
-713.718	71.029	-0.290	0.302
-712.704	-14.565	0.342	0.221
-711.689	-130.559	-0.110	0.015
-710.675	-200.000	0.008	-0.081
-709.660	199.283	-0.181	0.279
-708.645	-130.746	-0.247	-0.033
-707.631	800.000	-0.027	-0.091
-706.616	513.491	0.086	-0.201
-705.602	-44.902	-0.210	0.105
-704.587	-200.000	-0.003	0.304
-703.572	-140.144	0.053	-0.006
-702.558	-200.000	0.016	0.196
-701.543	331.576	-0.149	0.288
-700.529	-200.000	0.015	0.357
-699.514	-17.681	0.106	-0.067
-698.499	-200.000	-0.040	-0.188
-697.485	-73.047	-0.169	0.062
-696.470	-131.122	0.263	0.035
-695.456	-107.368	0.137	0.030
-694.441	98.284	0.119	0.137
-693.426	-200.000	-0.001	0.359
-692.412	800.000	0.044	-0.187
-691.397	-200.000	-0.000	-0.023
-690.383	52.462	0.112	-0.107
-689.368	246.715	0.121	-0.204
-688.354	-200.000	0.045	-0.356
-687.339	-83.619	-0.133	0.043
-686.324	1.770	-0.210	-0.152
-685.310	279.549	0.158	-0.284
-684.295	219.863	0.119	0.191
-683.281	29.824	-0.123	-0.105
-682.266	179.379	-0.199	-0.292
-681.251	-200.000	-0.035	-0.213
-680.237	-33.214	-0.150	-0.083
-679.222	384.196	0.067	0.139
-678.208	-82.380	0.058	0.019
-677.193	296.184	-0.085	0.157
-676.178	-81.158	-0.160	-0.053
-675.164	-136.460	0.274	0.032
-674.149	249.491	-0.095	0.161
-673.135	218.541	-0.129	-0.207
-672.120	-63.389	-0.121	-0.050
-671.105	-44.442	-0.307	-0.154
-670.091	-102.092	-0.360	0.087
-669.076	32.698	-0.094	0.082
-668.062	800.000	0.030	-0.116
-667.047	42.061	0.084	-0.077
-666.032	-200.000	0.006	-0.302
-665.018	405.201	0.077	0.163
-664.003	242.479	-0.206	0.346
-662.989	62.673	-0.161	-0.161
-661.974	800.000	0.099	-0.419
-660.959	-200.000	0.011	0.071
-659.945	-123.610	-0.107	0.017
-658.930	-184.627	0.302	-0.005
-657.916	800.000	0.062	0.177
-656.901	-200.000	0.014	0.340
-655.886	-200.000	-0.052	-0.394
-654.872	-200.000	-0.040	-0.352
-653.857	-4.410	0.077	0.054
-652.843	34.388	0.191	0.167
-651.828	10.014	0.212	0.162
-650.814	163.041	-0.149	0.210
-649.799	338.069	0.216	-0.422
-648.784	-156.413	0.140	0.009
-647.770	-200.000	-0.047	0.242
-646.755	800.000	-0.028	-0.112
-645.741	800.000	0.007	-0.022
-644.726	35.749	-0.254	-0.223
-643.711	-75.738	0.221	-0.079
-642.697	-9.174	-0.214	0.143
-641.682	349.170	-0.107	-0.211
-640.668	-140.855	0.240	0.025
-639.653	-88.545	-0.241	0.072
-638.638	603.622	-0.095	0.236
-637.624	-68.240	0.375	0.146
-636.609	-44.904	-0.313	-0.156
-635.595	800.000	0.022	-0.090
-634.580	-200.000	0.018	0.356
-633.565	84.903	0.133	0.145
-632.551	-152.529	0.273	0.020
-631.536	800.000	-0.075	-0.259
-630.522	-25.121	-0.253	0.150
-629.507	-200.000	0.026	0.264
-628.492	-200.000	0.024	-0.180
-627.478	-156.860	-0.293	-0.018
-626.463	-200.000	0.013	0.233
-625.449	-47.228	-0.077	-0.038
-624.434	-134.899	-0.222	0.027
-623.419	-123.908	0.226	-0.036
-622.405	-161.044	-0.354	0.019
-621.390	70.733	-0.117	0.121
-620.376	-23.182	-0.032	0.019
-619.361	-141.279	-0.095	0.010
-618.346	540.629	0.164	-0.390
-617.332	513.930	-0.081	-0.188
-616.317	-34.212	0.133	-0.073
-615.303	800.000	0.077	-0.235
-614.288	789.821	0.172	-0.472
-613.273	-137.968	0.164	0.018
-612.259	84.178	-0.213	0.233
-611.244	-90.202	-0.049	0.014
-610.230	92.633	0.016	0.018
-609.215	-52.712	-0.192	-0.088
-608.201	484.659	-0.076	0.174
-607.186	-200.000	0.035	0.193
-606.171	82.761	-0.243	-0.264
-605.157	-129.562	-0.174	0.024
-604.142	42.450	0.188	0.171
-603.128	213.425	-0.054	0.085
-602.113	-4.164	-0.228	0.158
-601.098	-200.000	-0.000	0.106
-600.084	-141.894	0.251	-0.025
-599.069	7.482	0.307	-0.230
-598.055	142.167	-0.100	0.133
-597.040	-60.212	-0.354	-0.151
-596.025	344.137	-0.096	-0.188
-595.011	-200.000	-0.005	-0.025
-593.996	-20.880	-0.214	0.131
-592.982	17.354	0.196	0.156
-591.967	41.279	0.171	0.154
-590.952	-200.000	-0.050	0.411
-589.938	800.000	-0.075	0.260
-588.923	-200.000	0.048	0.321
-587.909	292.876	-0.098	0.178
-586.894	259.941	-0.117	0.203
-585.879	246.981	0.133	-0.224
-584.865	98.058	0.187	-0.215
-583.850	-200.000	-0.003	0.034
-582.836	289.407	-0.096	0.174
-581.821	-200.000	0.040	0.206
-580.806	-61.604	0.362	-0.152
-579.792	75.574	0.127	0.134
-578.777	783.687	0.040	0.111
-577.763	150.459	0.128	0.173
-576.748	768.976	-0.096	-0.262
-575.733	-114.902	0.069	-0.013
-574.719	-44.999	-0.092	0.046
-573.704	-77.394	-0.163	0.057
-572.690	800.000	0.025	-0.096
-571.675	-84.390	-0.170	0.054
-570.661	51.087	-0.192	-0.182
-569.646	-120.162	0.194	-0.033
-568.631	73.405	-0.044	-0.046
-567.617	57.903	-0.233	-0.228
-566.602	800.000	0.046	-0.143
-565.588	-135.778	0.279	-0.033
-564.573	-59.925	0.149	0.064
-563.558	-44.293	0.141	-0.071
-562.544	144.951	0.135	-0.180
-561.529	-3.095	-0.160	0.111
-560.515	231.227	-0.236	-0.385
-559.500	-56.967	0.216	0.095
-558.485	429.564	-0.123	-0.265
-557.471	147.658	-0.080	-0.108
-556.456	26.899	0.072	0.060
-555.442	111.063	0.100	-0.120
-554.427	59.886	0.401	0.395
-553.412	161.065	-0.100	0.139
-552.398	-200.000	0.053	-0.240
-551.383	-200.000	-0.054	-0.339
-550.369	130.241	0.087	-0.111
-549.354	-200.000	-0.046	-0.426
-548.339	-200.000	-0.072	-0.319
-547.325	-105.300	0.067	0.015
-546.310	-26.126	-0.219	-0.128
-545.296	143.409	-0.042	-0.056
-544.281	-146.031	0.209	0.018
-543.266	-200.000	0.041	0.182
-542.252	-200.000	-0.011	0.061
-541.237	365.324	-0.088	-0.178
-540.223	800.000	0.021	-0.068
-539.208	222.144	-0.040	-0.064
-538.193	-200.000	0.053	-0.321
-537.179	25.390	0.051	-0.042
-536.164	-200.000	0.062	0.330
-535.150	224.427	0.028	0.045
-534.135	-11.093	-0.234	-0.154
-533.121	362.350	0.105	0.209
-532.106	800.000	-0.079	-0.322
-531.091	-65.348	-0.211	-0.085
-530.077	-67.883	-0.194	-0.076
-529.062	-14.950	-0.309	-0.198
-528.048	60.005	0.122	0.120
-527.033	-182.274	-0.438	-0.008
-526.018	-60.165	0.028	-0.012
-525.004	481.509	-0.022	-0.049
-523.989	-200.000	0.013	0.136
-522.975	402.072	-0.121	0.252
-521.960	213.979	-0.054	0.085
-520.945	-43.364	0.194	0.098
-519.931	800.000	0.043	0.152
-518.916	-200.000	-0.017	-0.389
-517.902	-200.000	-0.025	0.202
-516.887	800.000	-0.038	0.131
-515.872	50.941	0.158	0.149
-514.858	36.528	-0.114	-0.100
-513.843	-69.563	-0.163	0.062
-512.829	-81.394	0.192	0.063
-511.814	21.209	0.190	0.154
-510.799	173.914	0.192	0.277
-509.785	-50.169	0.220	-0.104
-508.770	-44.036	-0.083	0.041
-507.756	341.887	0.045	-0.087
-506.741	188.162	-0.075	-0.111
-505.726	-200.000	0.023	0.201
-504.712	-140.818	-0.089	-0.009
-503.697	800.000	-0.038	-0.152
-502.683	800.000	0.046	0.193
-501.668	-42.460	-0.129	0.065
-500.653	-200.000	0.071	-0.364
-499.639	32.755	-0.023	0.020
-498.624	-200.000	0.015	0.340
-497.610	323.724	-0.040	-0.076
-496.595	800.000	0.102	0.345
-495.581	213.690	0.034	-0.054
-494.566	800.000	-0.055	-0.155
-493.551	-152.448	-0.138	0.010
-492.537	-200.000	0.067	-0.299
-491.522	-200.000	0.038	-0.256
-490.508	108.527	-0.168	0.199
-489.493	110.012	0.126	0.151
-488.478	-200.000	-0.024	-0.135
-487.464	99.476	0.083	-0.096
-486.449	36.110	-0.201	0.176
-485.435	-200.000	0.255	-0.001
-484.420	-65.619	0.162	0.065
-483.405	-200.000	-0.045	-0.208
-482.391	129.503	0.138	0.175
-481.376	-200.000	-0.010	0.109
-480.362	27.441	-0.207	-0.173
-479.347	-34.908	-0.135	0.073
-478.332	320.016	-0.054	-0.102
-477.318	168.113	0.125	0.177
-476.303	768.146	-0.050	0.134
-475.289	-4.432	0.131	0.090
-474.274	800.000	0.067	-0.257
-473.259	-126.292	-0.298	-0.044
-472.245	-144.725	0.180	-0.016
-471.230	368.027	0.073	0.146
-470.216	-87.841	-0.111	0.033
-469.201	72.824	-0.082	-0.086
-468.186	800.000	-0.041	0.154
-467.172	436.064	0.097	0.210
-466.157	274.420	0.221	0.390
-465.143	-128.651	0.203	0.029
-464.128	28.542	-0.396	0.333
-463.113	150.549	0.154	-0.208
-462.099	-16.918	-0.506	0.318
-461.084	129.522	0.123	0.157
-460.070	-39.744	0.126	-0.065
-459.055	-115.318	-0.473	0.089
-458.040	-49.765	0.218	0.103
-457.026	66.633	0.208	0.210
-456.011	-118.045	0.269	-0.048
-454.997	-81.651	0.225	-0.073
-453.982	-89.533	-0.113	0.033
-452.968	-200.000	-0.024	-0.201
-451.953	-73.225	-0.106	-0.039
-450.938	-200.000	0.012	-0.085
-449.924	698.726	0.079	-0.206
-448.909	378.197	0.046	-0.094
-447.895	82.586	0.232	-0.250
-446.880	-64.742	0.212	0.085
-445.865	377.850	-0.133	-0.270
-444.851	370.730	0.112	0.225
-443.836	-52.891	0.164	0.075
-442.822	230.639	-0.111	0.181
-441.807	-77.086	-0.146	-0.051
-440.792	-120.270	-0.101	-0.017
-439.778	-200.000	0.017	-0.317
-438.763	800.000	0.031	-0.086
-437.749	-200.000	0.039	-0.389
-436.734	97.274	-0.180	-0.206
-435.719	-10.022	0.238	0.157
-434.705	-47.043	0.373	-0.181
-433.690	-73.323	-0.053	-0.019
-432.676	-69.159	0.015	-0.006
-431.661	-31.420	0.139	-0.077
-430.646	-179.991	-0.206	0.004
-429.632	288.589	0.165	0.297
-428.617	-172.134	-0.216	-0.007
-427.603	465.884	0.047	-0.106
-426.588	167.060	0.130	0.184
-425.573	80.821	0.042	0.045
-424.559	-76.914	-0.411	-0.143
-423.544	362.212	0.099	0.198
-422.530	800.000	-0.065	0.210
-421.515	-200.000	-0.004	0.306
-420.500	-108.512	0.342	0.073
-419.486	-122.697	-0.056	-0.009
-418.471	-200.000	0.031	-0.357
-417.457	-200.000	-0.257	0.001
-416.442	317.019	0.105	-0.197
-415.428	504.913	-0.033	-0.077
-414.413	-200.000	-0.017	-0.110
-413.398	-116.349	0.291	0.053
-412.384	-37.138	0.175	-0.093
-411.369	-128.229	0.059	0.008
-410.355	-104.567	-0.249	-0.057
-409.340	-147.472	-0.136	-0.011
-408.325	178.686	0.035	-0.051
-407.311	-20.601	0.092	0.056
-406.296	-53.836	0.248	0.112
-405.282	618.082	0.114	0.284
-404.267	263.060	-0.348	0.599
-403.252	-200.000	-0.041	0.217
-402.238	479.793	0.135	0.304
-401.223	-200.000	-0.031	0.208
-400.209	-141.643	-0.390	-0.039
-399.194	36.136	-0.160	0.140
-398.179	-138.346	0.204	-0.022
-397.165	90.025	0.157	0.174
-396.150	-81.361	-0.461	-0.151
-395.136	800.000	-0.054	-0.157
-394.121	-110.001	0.300	0.062
-393.106	-74.755	0.374	0.133
-392.092	-77.060	-0.109	0.038
-391.077	85.828	-0.112	-0.122
-390.063	-33.430	0.239	-0.131
-389.048	-49.306	-0.249	0.118
-388.033	-200.000	0.004	-0.031
-387.019	303.696	-0.055	-0.100
-386.004	-123.363	0.164	0.026
-384.990	28.730	0.160	-0.134
-383.975	31.059	-0.231	-0.196
-382.960	-200.000	-0.333	0.000
-381.946	-107.127	0.206	-0.045
-380.931	-127.365	0.234	-0.034
-379.917	-130.420	-0.174	0.023
-378.902	-49.502	0.115	0.054
-377.888	274.191	0.120	0.210
-376.873	-131.205	0.097	-0.013
-375.858	-73.565	0.210	-0.076
-374.844	82.030	-0.059	0.063
-373.829	45.810	0.181	0.166
-372.815	9.091	0.113	0.084
-371.800	-60.291	-0.219	-0.092
-370.785	-80.588	0.129	0.043
-369.771	253.253	-0.165	-0.278
-368.756	56.765	0.303	-0.292
-367.742	401.284	0.132	-0.275
-366.727	-200.000	-0.006	-0.163
-365.712	-48.766	-0.101	0.048
-364.698	-116.662	-0.082	0.015
-363.683	800.000	0.106	-0.352
-362.669	556.220	-0.226	-0.539
-361.654	246.902	-0.049	-0.082
-360.639	-156.654	-0.349	0.021
-359.625	464.760	0.109	0.241
-358.610	45.051	0.163	-0.149
-357.596	-3.833	-0.195	0.134
-356.581	24.895	0.296	-0.243
-355.566	67.389	-0.158	0.160
-354.552	172.036	0.113	-0.160
-353.537	-200.000	0.009	0.084
-352.523	-134.860	-0.186	0.022
-351.508	-81.324	-0.354	0.115
-350.493	-71.406	-0.045	-0.017
-349.479	123.724	0.135	-0.168
-348.464	66.137	0.272	-0.274
-347.450	217.848	-0.075	-0.118
-346.435	20.103	0.235	-0.188
-345.420	-200.000	-0.014	-0.400
-344.406	-200.000	0.029	-0.356
-343.391	-156.834	-0.374	-0.023
-342.377	-3.128	-0.368	0.254
-341.362	-139.049	-0.240	-0.026
-340.348	154.910	-0.153	-0.208
-339.333	-200.000	-0.009	0.205
-338.318	211.394	-0.118	0.184
-337.304	-159.348	-0.176	-0.010
-336.289	-3.983	0.276	-0.189
-335.275	73.533	0.115	-0.119
-334.260	4.230	-0.116	0.084
-333.245	-163.204	0.230	-0.011
-332.231	114.391	0.117	0.141
-331.216	115.693	0.193	0.233
-330.202	62.381	0.073	0.073
-329.187	124.381	-0.254	0.315
-328.172	-112.103	0.387	-0.077
-327.158	122.950	-0.122	-0.151
-326.143	124.063	-0.160	0.199
-325.129	-71.778	0.065	-0.024
-324.114	190.270	-0.060	0.090
-323.099	-16.006	-0.170	0.107
-322.085	-101.712	-0.077	0.018
-321.070	-148.446	-0.153	-0.012
-320.056	-40.058	-0.060	0.031
-319.041	522.073	-0.085	-0.198
-318.026	-48.524	0.155	0.074
-317.012	-101.342	0.094	0.023
-315.997	-113.839	0.264	-0.051
-314.983	-147.709	0.131	0.011
-313.968	118.567	-0.185	0.226
-312.953	-43.377	0.111	-0.055
-311.939	-185.811	0.403	0.006
-310.924	-93.189	-0.251	-0.069
-309.910	-200.000	-0.002	-0.116
-308.895	217.149	-0.112	-0.176
-307.880	-99.938	-0.189	0.047
-306.866	-107.102	0.191	-0.042
-305.851	-146.734	0.188	0.016
-304.837	800.000	0.070	-0.232
-303.822	-62.517	-0.296	-0.121
-302.807	-200.000	-0.011	0.196
-301.793	-171.461	0.028	0.001
-300.778	15.763	0.059	-0.046
-299.764	171.463	-0.084	0.119
-298.749	-200.000	-0.008	0.353
-297.735	666.356	-0.070	0.178
-296.720	-100.626	0.062	-0.015
-295.705	250.341	0.111	0.187
-294.691	202.164	0.075	-0.115
-293.676	800.000	0.128	-0.353
-292.662	98.709	-0.126	-0.143
-291.647	-51.835	-0.153	-0.070
-290.632	-173.935	0.059	-0.002
-289.618	-200.000	0.014	0.132
-288.603	-200.000	-0.010	-0.119
-287.589	800.000	0.037	-0.105
-286.574	-18.933	0.326	-0.200
-285.559	171.035	0.119	0.169
-284.545	-200.000	-0.008	0.289
-283.530	31.151	-0.317	0.268
-282.516	186.302	-0.113	0.166
-281.501	73.577	0.170	0.175
-280.486	29.886	-0.115	-0.096
-279.472	-200.000	0.043	0.196
-278.457	167.187	0.051	0.071
-277.443	128.352	0.177	0.223
-276.428	419.170	-0.054	0.114
-275.413	563.211	-0.087	-0.209
-274.399	55.000	-0.149	0.142
-273.384	800.000	-0.039	0.130
-272.370	-200.000	0.015	0.097
-271.355	629.817	-0.132	-0.329
-270.340	800.000	-0.082	0.258
-269.326	800.000	0.105	0.310
-268.311	482.734	-0.094	-0.211
-267.297	195.191	-0.111	0.167
-266.282	-162.534	0.309	-0.015
-265.267	-68.135	-0.041	0.016
-264.253	148.889	0.087	0.116
-263.238	760.757	0.098	0.263
-262.224	-88.457	-0.059	0.017
-261.209	-97.986	-0.373	-0.095
-260.195	51.494	0.097	-0.091
-259.180	84.458	-0.066	0.071
-258.165	-200.000	-0.010	0.132
-257.151	22.760	-0.076	-0.061
-256.136	-86.451	-0.170	-0.051
-255.122	-38.639	-0.141	0.073
-254.107	-40.231	-0.259	0.133
-253.092	-180.435	0.166	-0.003
-252.078	10.330	-0.188	0.141
-251.063	378.642	-0.118	-0.238
-250.049	207.382	0.238	-0.366
-249.034	800.000	0.054	-0.191
-248.019	62.973	-0.019	-0.018
-247.005	15.594	-0.077	0.059
-245.990	2.224	-0.103	-0.073
-244.976	2.437	-0.216	-0.154
-243.961	75.970	0.141	0.147
-242.946	-62.207	-0.090	0.037
-241.932	-17.609	-0.470	0.291
-240.917	-117.755	0.692	-0.123
-239.903	-200.000	0.030	0.172
-238.888	800.000	0.110	-0.390
-237.873	34.673	0.211	-0.182
-236.859	-90.253	-0.162	-0.047
-235.844	-17.116	-0.178	0.110
-234.830	-200.000	0.022	-0.243
-233.815	-91.298	-0.136	0.038
-232.800	-1.045	0.054	-0.038
-231.786	-159.900	0.669	-0.036
-230.771	0.510	-0.304	0.214
-229.757	625.745	0.140	0.348
-228.742	467.225	-0.021	0.046
-227.727	800.000	-0.099	0.280
-226.713	-45.877	0.298	0.145
-225.698	-146.724	-0.055	-0.005
-224.684	-200.000	-0.036	0.192
-223.669	2.840	0.164	-0.118
-222.655	244.651	0.063	-0.104
-221.640	-200.000	-0.015	-0.215
-220.625	-158.976	-0.149	0.008
-219.611	322.078	-0.121	-0.226
-218.596	-200.000	0.009	0.121
-217.582	55.258	0.218	-0.208
-216.567	199.491	-0.021	0.032
-215.552	800.000	-0.064	0.242
-214.538	535.285	0.049	-0.115
-213.523	-116.067	0.358	-0.066
-212.509	800.000	0.022	0.065
-211.494	245.194	-0.130	-0.216
-210.479	1.821	0.221	-0.157
-209.465	-138.155	-0.263	-0.029
-208.450	-200.000	-0.015	-0.086
-207.436	5.082	0.174	0.126
-206.421	-95.181	-0.288	0.077
-205.406	-83.072	-0.188	0.060
-204.392	-200.000	-0.049	-0.246
-203.377	153.286	-0.108	0.146
-202.363	157.176	-0.199	0.271
-201.348	800.000	-0.110	-0.305
-200.333	-120.823	0.101	-0.017
-199.319	-114.921	0.137	-0.026
-198.304	797.079	-0.187	-0.506
-197.290	-14.592	0.163	0.103
-196.275	-122.734	-0.261	0.042
-195.260	35.284	0.094	0.081
-194.246	-142.812	0.154	0.015
-193.231	579.064	0.155	0.373
-192.217	603.089	-0.052	-0.127
-191.202	-200.000	0.025	0.274
-190.187	-200.000	-0.020	-0.207
-189.173	561.162	-0.049	0.116
-188.158	800.000	0.093	0.293
-187.144	-184.094	-0.148	0.002
-186.129	-130.999	0.072	0.010
-185.114	-56.245	0.137	0.060
-184.100	-63.440	0.128	-0.052
-183.085	-97.441	-0.200	-0.051
-182.071	-135.121	0.292	0.035
-181.056	212.721	0.093	-0.145
-180.042	-200.000	-0.048	-0.220
-179.027	4.293	0.173	0.124
-178.012	-84.803	0.230	0.071
-176.998	108.877	-0.054	-0.063
-175.983	-86.479	-0.162	-0.049
-174.969	-6.789	-0.139	0.093
-173.954	-69.312	0.355	-0.134
-172.939	420.061	-0.078	0.165
-171.925	314.894	0.085	0.157
-170.910	-111.646	-0.133	0.026
-169.896	326.619	-0.097	-0.183
-168.881	800.000	0.096	0.391
-167.866	-160.255	-0.235	0.012
-166.852	-103.025	-0.257	-0.060
-165.837	183.181	0.028	0.041
-164.823	-158.163	0.078	0.005
-163.808	96.903	-0.089	-0.101
-162.793	-42.746	-0.140	0.070
-161.779	-108.337	-0.184	0.039
-160.764	800.000	0.048	-0.172
-159.750	56.388	0.436	0.417
-158.735	-16.829	-0.109	0.068
-157.720	129.974	0.090	-0.114
-156.706	-200.000	-0.037	-0.231
-155.691	156.435	-0.020	0.027
-154.677	800.000	-0.080	-0.245
-153.662	458.944	0.088	-0.191
-152.647	-130.454	0.295	-0.039
-151.633	-200.000	0.023	-0.113
-150.618	638.410	0.112	-0.280
-149.604	800.000	0.093	0.275
-148.589	50.270	-0.156	0.145
-147.574	184.562	-0.183	0.266
-146.560	528.914	-0.063	0.147
-145.545	-32.266	0.245	0.134
-144.531	800.000	-0.017	0.063
-143.516	-83.824	0.190	-0.060
-142.502	-38.927	-0.101	0.052
-141.487	-87.106	-0.327	0.098
-140.472	273.512	-0.024	-0.042
-139.458	161.778	0.103	-0.141
-138.443	207.000	0.121	0.185
-137.429	-121.553	0.189	0.031
-136.414	-119.476	0.305	-0.052
-135.399	-83.180	0.130	-0.041
-134.385	11.207	-0.225	-0.169
-133.370	191.654	0.208	0.307
-132.356	129.550	0.120	0.150
-131.341	-175.209	0.209	0.006
-130.326	-33.828	0.111	0.060
-129.312	86.167	-0.127	0.138
-128.297	-2.335	-0.160	0.110
-127.283	-139.690	-0.200	0.021
-126.268	-32.421	-0.172	0.094
-125.253	-90.809	0.172	-0.049
-124.239	476.906	-0.094	-0.209
-123.224	800.000	0.069	0.260
-122.210	-104.072	-0.189	-0.043
-121.195	-129.632	0.223	-0.030
