DTS Sentinel unit serial number:	SN413079Multiplexer serial number:	ORYXHardware model number:	OX4-SRSoftware version number:	ORYX F/W v4.00 Oryx Data Collector v3.7.2.0data status	okinstallation	princeton_trtdifferential loss correction	single-endedforward channel	channel 2reverse channel	N/Adate	2019/09/16time	07:39:34forward acquisition time	60.00reverse acquisition time	0.00gamma	496.2192k internal	0.2333k external	0.2333temperature offset calibration	0.9978default loss term (dB/km)	0.3790temperature slope calibration	1.0000multiplexer offset coefficient	1.0000multiplexer slope coefficient	1.0000fibre end	0.00T internal ref (°C)	27.84T ext. ref 1 (°C)	11.68T ext. ref 2 (°C)	24.55length (m)	temperature (°C)	Stokes	anti-Stokes-747.200	800.000	0.018	-0.059
-746.185	-39.000	-0.329	0.174
-745.171	686.699	0.078	-0.206
-744.156	-200.000	0.014	0.153
-743.142	0.585	-0.091	0.066
-742.127	-128.117	-0.473	0.068
-741.112	403.495	-0.087	0.184
-740.098	-13.354	-0.272	0.178
-739.083	543.893	0.051	-0.123
-738.069	352.533	-0.040	0.080
-737.054	-51.212	0.339	0.160
-736.039	-109.649	-0.110	0.023
-735.025	-110.174	0.309	-0.065
-734.010	-200.000	0.208	0.001
-732.996	454.888	0.203	-0.452
-731.981	800.000	-0.086	-0.344
-730.966	196.969	0.092	-0.142
-729.952	-15.040	-0.152	-0.098
-728.937	2.899	0.258	-0.188
-727.923	-200.000	-0.010	0.051
-726.908	78.773	0.266	0.286
-725.894	17.329	-0.238	-0.190
-724.879	-200.000	0.001	0.280
-723.864	428.803	-0.094	0.203
-722.850	317.828	-0.075	0.143
-721.835	-5.747	-0.287	-0.197
-720.821	-109.431	0.261	0.056
-719.806	-50.099	0.199	0.095
-718.791	-200.000	-0.043	0.252
-717.777	-42.989	0.188	-0.096
-716.762	800.000	-0.035	-0.112
-715.748	-200.000	-0.003	-0.342
-714.733	-0.851	-0.198	0.141
-713.718	-200.000	-0.055	0.292
-712.704	-103.447	-0.266	0.063
-711.689	-82.340	0.234	-0.076
-710.675	-24.430	0.206	0.123
-709.660	137.730	-0.136	0.178
-708.645	800.000	-0.065	0.251
-707.631	-62.581	-0.403	0.168
-706.616	729.240	-0.052	-0.139
-705.602	-20.253	0.246	-0.152
-704.587	-93.662	-0.157	-0.044
-703.572	683.804	-0.033	-0.086
-702.558	98.125	0.056	0.064
-701.543	-113.306	0.273	-0.054
-700.529	89.764	-0.036	-0.040
-699.514	709.478	0.103	0.272
-698.499	-3.853	-0.244	-0.170
-697.485	-200.000	0.030	-0.286
-696.470	-200.000	0.070	0.420
-695.456	-8.264	-0.450	0.304
-694.441	-200.000	0.014	0.092
-693.426	800.000	-0.095	-0.328
-692.412	105.802	-0.214	0.254
-691.397	36.770	0.321	0.285
-690.383	674.476	-0.052	0.136
-689.368	-79.411	-0.044	0.015
-688.354	191.041	-0.134	-0.203
-687.339	-181.531	-0.206	0.004
-686.324	65.036	0.226	-0.229
-685.310	-200.000	-0.012	-0.131
-684.295	-200.000	-0.013	0.417
-683.281	-147.941	-0.374	-0.031
-682.266	-28.839	0.253	-0.146
-681.251	-68.436	-0.181	0.071
-680.237	-86.103	-0.226	-0.070
-679.222	800.000	-0.047	0.149
-678.208	-79.539	0.127	-0.043
-677.193	-164.309	0.168	0.008
-676.178	88.683	-0.110	-0.123
-675.164	181.605	0.029	-0.042
-674.149	25.046	0.181	0.151
-673.135	80.498	-0.153	-0.165
-672.120	-64.731	0.091	-0.037
-671.105	202.007	0.108	0.166
-670.091	-141.293	0.084	-0.009
-669.076	800.000	-0.048	-0.153
-668.062	-100.346	0.091	0.023
-667.047	464.787	0.063	0.141
-666.032	-25.035	-0.047	0.028
-665.018	694.639	0.070	-0.183
-664.003	-200.000	0.010	0.146
-662.989	34.868	-0.158	0.139
-661.974	-200.000	0.074	-0.420
-660.959	-145.873	-0.139	0.012
-659.945	-94.660	-0.250	-0.068
-658.930	-156.286	-0.078	0.005
-657.916	-118.540	-0.198	-0.035
-656.901	-63.140	-0.237	0.098
-655.886	-200.000	0.033	0.259
-654.872	-84.949	0.059	0.019
-653.857	-95.698	0.139	-0.037
-652.843	32.570	0.216	-0.187
-651.828	800.000	0.031	0.117
-650.814	800.000	0.069	-0.197
-649.799	-146.420	-0.098	-0.009
-648.784	-60.245	0.209	0.089
-647.770	99.554	-0.109	0.126
-646.755	-200.000	-0.052	-0.233
-645.741	-200.000	0.025	-0.399
-644.726	-56.649	-0.113	0.050
-643.711	-124.984	-0.128	-0.020
-642.697	-120.327	0.173	-0.029
-641.682	800.000	0.097	0.289
-640.668	-76.314	-0.339	0.120
-639.653	315.161	0.044	-0.083
-638.638	311.788	-0.064	-0.120
-637.624	18.216	-0.178	-0.143
-636.609	-200.000	0.010	0.086
-635.595	-200.000	-0.003	0.328
-634.580	146.251	-0.175	-0.235
-633.565	-200.000	0.047	-0.299
-632.551	-30.052	-0.179	-0.102
-631.536	4.477	-0.036	0.026
-630.522	108.462	-0.078	-0.093
-629.507	-154.414	0.297	-0.020
-628.492	20.744	0.239	-0.194
-627.478	438.878	-0.028	0.061
-626.463	-143.869	-0.335	0.032
-625.449	-3.738	-0.327	-0.227
-624.434	-65.239	-0.095	-0.038
-623.419	800.000	-0.020	-0.072
-622.405	220.565	-0.215	0.345
-621.390	376.099	0.091	0.186
-620.376	223.519	-0.263	-0.425
-619.361	-9.206	-0.199	0.133
-618.346	800.000	-0.080	0.276
-617.332	57.162	-0.260	0.254
-616.317	-60.477	0.145	0.062
-615.303	-87.934	0.115	0.035
-614.288	187.508	0.083	0.124
-613.273	279.802	-0.025	-0.045
-612.259	-200.000	0.059	-0.463
-611.244	-21.919	-0.161	0.098
-610.230	32.984	0.235	-0.204
-609.215	800.000	0.039	0.126
-608.201	-196.994	-0.385	-0.002
-607.186	144.591	0.136	0.182
-606.171	47.921	-0.100	-0.093
-605.157	-12.715	-0.059	-0.039
-604.142	-200.000	-0.036	-0.191
-603.128	-0.823	0.170	0.120
-602.113	-200.000	0.050	0.234
-601.098	-95.488	0.254	-0.068
-600.084	-200.000	-0.020	-0.196
-599.069	-200.000	-0.038	-0.226
-598.055	1.439	-0.172	0.124
-597.040	-193.434	-0.369	-0.003
-596.025	206.681	0.057	0.089
-595.011	800.000	-0.028	-0.101
-593.996	-84.305	-0.207	0.066
-592.982	-200.000	0.009	-0.078
-591.967	-68.707	-0.173	0.067
-590.952	-200.000	-0.029	-0.149
-589.938	386.392	0.097	0.201
-588.923	-29.743	-0.091	0.052
-587.909	-200.000	0.013	-0.060
-586.894	-155.159	-0.117	0.008
-585.879	-103.203	-0.174	-0.041
-584.865	-7.398	-0.094	-0.064
-583.850	-39.492	-0.256	-0.134
-582.836	503.602	0.104	-0.241
-581.821	-188.557	0.070	-0.001
-580.806	252.006	0.160	0.272
-579.792	800.000	0.077	-0.255
-578.777	98.669	-0.239	-0.276
-577.763	-46.990	0.254	-0.124
-576.748	-200.000	0.001	0.330
-575.733	-83.463	-0.139	-0.044
-574.719	235.396	0.067	0.111
-573.704	-42.764	-0.171	0.087
-572.690	-98.113	-0.171	0.044
-571.675	43.647	0.281	0.256
-570.661	19.860	0.192	0.155
-569.646	18.624	-0.105	-0.084
-568.631	-137.510	-0.323	-0.036
-567.617	191.619	0.124	-0.187
-566.602	-67.175	0.240	-0.095
-565.588	573.075	-0.062	-0.152
-564.573	409.347	0.059	0.125
-563.558	-200.000	-0.020	-0.151
-562.544	219.122	0.031	-0.050
-561.529	153.951	0.160	-0.219
-560.515	246.444	0.100	0.169
-559.500	-200.000	0.015	0.407
-558.485	-70.123	-0.239	-0.091
-557.471	37.910	0.087	0.077
-556.456	210.295	0.095	-0.148
-555.442	-200.000	-0.028	0.168
-554.427	126.420	0.132	0.167
-553.412	759.922	0.126	-0.342
-552.398	-52.426	0.099	0.046
-551.383	-200.000	0.032	0.352
-550.369	380.740	-0.032	-0.065
-549.354	800.000	0.049	-0.177
-548.339	-200.000	-0.035	-0.176
-547.325	-117.767	-0.198	-0.036
-546.310	-130.114	-0.194	0.026
-545.296	208.419	0.071	-0.111
-544.281	119.153	-0.186	0.229
-543.266	-151.423	-0.482	-0.036
-542.252	721.001	0.162	-0.430
-541.237	135.063	-0.112	0.145
-540.223	455.263	0.020	-0.045
-539.208	-62.171	-0.251	0.104
-538.193	-76.315	0.367	-0.129
-537.179	-200.000	-0.008	0.137
-536.164	-12.865	-0.361	0.235
-535.150	-200.000	0.015	0.128
-534.135	-175.827	0.520	-0.014
-533.121	-131.162	0.312	-0.041
-532.106	640.735	-0.086	-0.217
-531.091	255.717	-0.142	0.243
-530.077	800.000	-0.119	0.339
-529.062	-170.683	-0.173	0.006
-528.048	34.325	-0.388	-0.337
-527.033	-146.107	-0.219	-0.019
-526.018	-10.794	0.169	-0.112
-525.004	-84.494	0.127	-0.040
-523.989	-200.000	0.021	0.186
-522.975	-48.323	-0.387	-0.186
-521.960	89.096	-0.098	0.109
-520.945	18.212	0.334	0.266
-519.931	167.161	0.113	-0.160
-518.916	800.000	0.048	-0.200
-517.902	53.684	-0.064	-0.061
-516.887	-200.000	0.019	-0.129
-515.872	119.364	-0.194	-0.239
-514.858	-200.000	0.050	0.278
-513.843	176.217	0.143	0.208
-512.829	213.035	-0.125	0.197
-511.814	-200.000	0.001	0.177
-510.799	-28.878	0.325	0.186
-509.785	50.444	-0.169	0.159
-508.770	800.000	0.060	0.238
-507.756	79.413	-0.312	0.333
-506.741	101.509	0.160	0.186
-505.726	-124.541	-0.185	-0.029
-504.712	141.243	-0.174	-0.230
-503.697	9.307	0.280	-0.211
-502.683	163.778	-0.055	0.077
-501.668	-6.433	0.212	0.144
-500.653	-17.615	-0.092	0.058
-499.639	710.244	0.093	0.244
-498.624	2.008	-0.113	-0.081
-497.610	-200.000	-0.042	0.196
-496.595	-168.910	0.118	-0.004
-495.581	66.557	-0.096	0.097
-494.566	126.818	-0.092	0.116
-493.551	-152.628	-0.270	-0.019
-492.537	-80.985	0.109	0.036
-491.522	113.736	-0.065	-0.078
-490.508	5.171	-0.130	-0.096
-489.493	-91.894	0.111	-0.031
-488.478	-6.386	0.118	-0.080
-487.464	55.347	0.218	-0.210
-486.449	225.096	0.137	0.221
-485.435	34.222	-0.105	0.092
-484.420	487.425	-0.025	0.057
-483.405	320.424	0.040	0.075
-482.391	-136.692	-0.027	0.003
-481.376	-200.000	-0.017	-0.097
-480.362	-128.255	-0.148	-0.021
-479.347	20.765	0.365	-0.294
-478.332	800.000	-0.091	0.296
-477.318	39.055	-0.343	0.305
-476.303	-106.634	0.285	0.063
-475.289	-86.875	-0.254	-0.077
-474.274	184.192	-0.041	0.060
-473.259	800.000	-0.044	0.136
-472.245	270.508	0.071	-0.124
-471.230	800.000	0.070	0.290
-470.216	330.275	-0.221	0.424
-469.201	44.042	-0.094	-0.086
-468.186	516.624	-0.040	-0.094
-467.172	-128.311	0.240	-0.034
-466.157	27.437	-0.071	0.060
-465.143	112.051	-0.296	-0.356
-464.128	800.000	0.139	-0.407
-463.113	158.911	-0.196	0.271
-462.099	-194.683	-0.268	0.002
-461.084	352.423	0.042	-0.082
-460.070	-101.918	0.181	0.043
-459.055	-14.077	-0.042	0.027
-458.040	155.751	-0.123	-0.168
-457.026	204.920	-0.036	0.056
-456.011	-170.768	0.528	-0.018
-454.997	-170.338	-0.291	-0.010
-453.982	91.923	-0.329	-0.368
-452.968	-85.766	-0.415	-0.128
-451.953	800.000	0.110	0.417
-450.938	550.604	-0.100	0.239
-449.924	180.847	0.096	-0.140
-448.909	-200.000	-0.026	0.164
-447.895	-135.170	0.398	-0.048
-446.880	-31.977	0.040	-0.022
-445.865	-108.170	0.143	-0.031
-444.851	183.433	0.233	0.343
-443.836	48.305	-0.244	0.227
-442.822	-200.000	0.067	-0.365
-441.807	-99.421	-0.287	-0.072
-440.792	17.298	-0.103	-0.081
-439.778	-9.565	-0.243	-0.161
-438.763	-200.000	0.001	-0.080
-437.749	-200.000	0.030	-0.201
-436.734	-74.151	-0.155	-0.056
-435.719	-200.000	-0.031	-0.153
-434.705	-73.572	-0.181	0.066
-433.690	235.941	0.165	-0.271
-432.676	800.000	-0.062	0.242
-431.661	100.596	0.218	0.251
-430.646	-33.479	0.153	-0.084
-429.632	78.739	-0.066	-0.070
-428.617	88.579	0.068	0.075
-427.603	102.391	0.316	0.367
-426.588	-200.000	-0.384	-0.001
-425.573	-200.000	-0.065	-0.338
-424.559	-183.268	-0.201	-0.003
-423.544	-200.000	-0.030	-0.216
-422.530	63.967	-0.269	-0.269
-421.515	800.000	-0.075	-0.210
-420.500	-74.974	-0.262	0.093
-419.486	-200.000	0.067	0.372
-418.471	800.000	0.040	-0.158
-417.457	-172.276	-0.066	0.002
-416.442	59.036	0.154	-0.151
-415.428	74.785	0.214	-0.223
-414.413	132.723	-0.151	0.193
-413.398	-93.114	-0.229	-0.063
-412.384	94.920	-0.215	0.243
-411.369	-136.819	0.278	0.032
-410.355	50.526	0.248	-0.233
-409.340	226.049	0.095	0.153
-408.325	-41.500	0.142	-0.073
-407.311	-200.000	-0.051	0.288
-406.296	-46.098	-0.047	-0.023
-405.282	-127.300	0.153	0.022
-404.267	-3.847	0.214	0.147
-403.252	-200.000	-0.134	-0.000
-402.238	-134.298	0.330	-0.040
-401.223	800.000	-0.048	0.201
-400.209	27.465	0.128	0.106
-399.194	-200.000	0.091	-0.398
-398.179	-54.391	0.258	-0.116
-397.165	399.586	-0.132	0.274
-396.150	-153.144	-0.193	-0.013
-395.136	-87.689	0.214	-0.064
-394.121	-67.481	-0.165	0.064
-393.106	800.000	-0.066	0.254
-392.092	-100.205	-0.064	-0.016
-391.077	800.000	-0.047	0.135
-390.063	-16.686	0.238	0.149
-389.048	-200.000	0.005	0.216
-388.033	-100.287	-0.312	0.077
-387.019	-200.000	-0.053	0.254
-386.004	-200.000	0.015	0.220
-384.990	-86.946	-0.095	-0.029
-383.975	-136.154	0.186	-0.022
-382.960	-109.018	0.161	0.034
-381.946	46.472	0.076	-0.070
-380.931	-108.735	0.362	0.077
-379.917	262.212	0.061	-0.104
-378.902	-161.161	0.335	-0.017
-377.888	800.000	-0.104	-0.288
-376.873	-200.000	-0.004	-0.033
-375.858	554.323	0.045	0.107
-374.844	-99.601	-0.157	-0.039
-373.829	17.074	0.013	0.010
-372.815	305.289	0.079	0.145
-371.800	-42.787	-0.233	-0.117
-370.785	-57.308	-0.219	0.096
-369.771	108.570	0.025	-0.029
-368.756	75.182	0.182	0.191
-367.742	-139.240	0.066	-0.007
-366.727	800.000	0.089	0.355
-365.712	-200.000	0.003	0.198
-364.698	-93.306	-0.109	-0.030
-363.683	483.829	0.143	-0.322
-362.669	501.842	-0.095	-0.218
-361.654	-200.000	0.009	0.186
-360.639	-24.363	0.194	-0.114
-359.625	29.836	0.102	-0.086
-358.610	-56.989	0.286	-0.125
-357.596	-162.468	0.249	0.012
-356.581	800.000	-0.100	0.294
-355.566	-94.346	0.196	0.053
-354.552	-200.000	0.058	-0.354
-353.537	101.234	-0.183	-0.211
-352.523	-109.651	-0.419	0.087
-351.508	-200.000	0.055	-0.313
-350.493	-129.393	0.095	0.013
-349.479	-4.896	-0.130	-0.089
-348.464	-63.486	0.262	-0.107
-347.450	54.892	-0.123	-0.118
-346.435	146.767	-0.209	0.279
-345.420	-55.661	-0.189	0.084
-344.406	-49.794	-0.149	0.070
-343.391	-199.951	-0.138	-0.001
-342.377	9.565	-0.135	0.101
-341.362	-125.012	0.274	-0.042
-340.348	1.307	0.239	0.170
-339.333	-200.000	-0.040	-0.176
-338.318	-96.574	-0.324	0.085
-337.304	392.953	0.115	0.237
-336.289	-200.000	-0.001	0.170
-335.275	-147.751	0.166	-0.014
-334.260	32.923	0.062	0.053
-333.245	215.814	0.151	0.238
-332.231	-200.000	-0.023	0.111
-331.216	265.770	-0.111	-0.192
-330.202	800.000	-0.025	0.098
-329.187	-81.694	0.308	-0.100
-328.172	16.448	-0.179	0.140
-327.158	-31.803	-0.295	-0.164
-326.143	635.597	-0.052	-0.132
-325.129	-81.216	0.314	-0.103
-324.114	-97.211	-0.272	0.070
-323.099	-105.754	0.206	-0.046
-322.085	-200.000	-0.010	-0.082
-321.070	57.858	0.080	-0.077
-320.056	322.792	-0.014	0.026
-319.041	-200.000	0.006	-0.122
-318.026	-24.148	0.047	-0.028
-317.012	665.936	0.022	-0.056
-315.997	57.194	0.101	0.097
-314.983	-167.214	-0.150	0.006
-313.968	49.147	0.059	-0.055
-312.953	60.357	0.252	0.246
-311.939	58.331	0.216	-0.209
-310.924	39.864	-0.194	-0.172
-309.910	-61.217	-0.311	0.130
-308.895	-32.139	0.280	-0.155
-307.880	415.010	0.082	0.174
-306.866	-200.000	0.051	0.427
-305.851	62.083	-0.082	0.081
-304.837	800.000	-0.096	0.265
-303.822	-19.975	0.087	0.053
-302.807	358.575	0.041	-0.080
-301.793	-54.387	0.137	0.061
-300.778	-3.289	-0.274	0.189
-299.764	-46.479	0.364	-0.177
-298.749	-123.057	0.226	-0.036
-297.735	283.622	-0.038	-0.067
-296.720	800.000	0.065	0.238
-295.705	161.801	0.157	-0.217
-294.691	-132.764	-0.280	-0.035
-293.676	325.649	0.172	-0.325
-292.662	658.402	-0.102	-0.260
-291.647	339.564	-0.054	-0.105
-290.632	284.326	0.231	-0.411
-289.618	316.704	-0.069	0.128
-288.603	627.862	0.165	-0.412
-287.589	268.978	0.186	-0.322
-286.574	58.686	0.112	0.108
-285.559	665.060	-0.057	-0.146
-284.545	-15.379	0.134	-0.085
-283.530	-200.000	0.005	-0.077
-282.516	-44.323	-0.561	-0.278
-281.501	12.070	0.173	-0.131
-280.486	285.018	0.123	-0.219
-279.472	270.199	-0.172	-0.299
-278.457	-64.597	0.465	-0.186
-277.443	-178.393	-0.321	-0.007
-276.428	-128.296	0.229	0.032
-275.413	-5.043	-0.048	-0.032
-274.399	-40.574	0.314	0.161
-273.384	382.847	0.074	0.150
-272.370	683.042	0.071	0.184
-271.355	-179.018	-0.193	-0.004
-270.340	-111.267	-0.200	-0.040
-269.326	547.881	0.073	-0.172
-268.311	-118.627	0.286	-0.050
-267.297	207.127	0.128	-0.197
-266.282	-178.316	0.074	-0.002
-265.267	-123.719	-0.133	0.021
-264.253	15.029	-0.058	-0.045
-263.238	205.083	0.045	-0.070
-262.224	-200.000	-0.025	-0.174
-261.209	20.447	0.111	0.088
-260.195	-102.991	0.038	0.009
-259.180	5.940	0.143	-0.104
-258.165	800.000	0.058	0.187
-257.151	-200.000	0.042	-0.217
-256.136	319.594	-0.164	-0.307
-255.122	-40.874	0.111	-0.057
-254.107	-71.347	-0.035	-0.013
-253.092	15.174	0.154	-0.119
-252.078	119.071	-0.085	0.104
-251.063	115.133	-0.105	0.126
-250.049	-72.233	-0.144	0.053
-249.034	106.481	0.086	-0.101
-248.019	232.723	-0.055	0.090
-247.005	-200.000	-0.079	-0.484
-245.990	144.619	0.118	-0.155
-244.976	-200.000	-0.032	0.196
-243.961	-108.380	-0.269	-0.057
-242.946	174.660	-0.169	-0.241
-241.932	8.287	0.058	-0.043
-240.917	50.074	-0.270	-0.251
-239.903	20.204	0.223	-0.178
-238.888	-14.757	-0.189	-0.120
-237.873	-10.586	0.246	0.160
-236.859	-27.105	0.249	-0.143
-235.844	-30.232	-0.210	0.118
-234.830	152.882	-0.194	0.262
-233.815	15.348	-0.172	-0.133
-232.800	23.057	-0.068	-0.055
-231.786	237.333	-0.028	0.046
-230.771	-16.273	-0.210	-0.131
-229.757	39.384	0.152	-0.134
-228.742	-200.000	0.016	-0.093
-227.727	-63.771	-0.261	0.105
-226.713	-141.258	-0.068	0.007
-225.698	302.825	0.204	0.372
-224.684	756.651	0.075	0.199
-223.669	800.000	-0.085	-0.351
-222.655	800.000	0.031	0.102
-221.640	376.829	0.156	0.315
-220.625	737.508	0.092	0.244
-219.611	800.000	0.037	-0.151
-218.596	632.731	-0.042	-0.106
-217.582	534.925	0.070	0.163
-216.567	-200.000	-0.043	0.194
-215.552	-141.160	0.063	0.006
-214.538	27.683	0.156	0.130
-213.523	-200.000	0.054	-0.243
-212.509	-147.474	0.333	-0.028
-211.494	54.507	-0.293	-0.278
-210.479	-200.000	-0.031	-0.152
-209.465	-200.000	0.037	0.209
-208.450	800.000	0.041	0.159
-207.436	800.000	0.034	0.102
-206.421	194.188	0.188	0.280
-205.406	-1.476	0.186	0.129
-204.392	129.582	0.157	0.197
-203.377	800.000	0.034	0.132
-202.363	-200.000	-0.036	-0.252
-201.348	-48.435	-0.163	-0.077
-200.333	776.609	-0.031	-0.082
-199.319	-23.718	-0.049	0.029
-198.304	-132.690	0.126	0.016
-197.290	800.000	-0.045	0.178
-196.275	-200.000	0.047	-0.221
-195.260	800.000	0.081	-0.255
-194.246	34.795	-0.188	0.162
-193.231	-95.263	0.155	0.041
-192.217	-200.000	0.174	-0.000
-191.202	-200.000	0.039	0.268
-190.187	-157.423	0.165	-0.010
-189.173	800.000	-0.009	-0.035
-188.158	760.205	0.027	-0.073
-187.144	-69.587	0.099	0.037
-186.129	-161.056	0.236	0.012
-185.114	-200.000	0.013	0.101
-184.100	800.000	-0.054	0.151
-183.085	255.953	-0.166	0.280
-182.071	-88.542	-0.243	-0.071
-181.056	48.441	0.240	0.221
-180.042	488.286	0.037	0.083
-179.027	335.278	0.070	0.134
-178.012	47.023	0.063	-0.058
-176.998	152.465	-0.042	0.057
-175.983	-12.345	0.332	0.213
-174.969	261.906	-0.149	-0.254
-173.954	-127.193	-0.193	-0.028
-172.939	-200.000	0.038	0.373
-171.925	13.163	0.243	-0.185
-170.910	468.529	0.099	0.220
-169.896	800.000	-0.058	-0.164
-168.881	114.199	-0.107	0.128
-167.866	-14.168	-0.177	0.112
-166.852	144.724	0.161	-0.212
-165.837	79.302	-0.212	0.224
-164.823	-144.752	0.565	0.051
-163.808	37.594	-0.063	0.055
-162.793	690.862	0.055	0.141
-161.779	-80.850	0.206	0.067
-160.764	186.482	-0.065	-0.096
-159.750	196.997	-0.118	0.176
-158.735	24.607	0.203	-0.165
-157.720	800.000	-0.034	0.137
-156.706	-149.831	-0.267	0.021
-155.691	-87.816	0.247	-0.073
-154.677	-145.916	0.127	-0.011
-153.662	800.000	0.036	-0.125
-152.647	88.247	-0.189	-0.206
-151.633	95.522	0.139	-0.155
-150.618	-84.510	-0.113	0.035
-149.604	-111.216	0.141	0.028
-148.589	326.444	-0.049	-0.092
-147.574	-200.000	0.023	0.360
-146.560	800.000	0.092	0.347
-145.545	-102.947	0.182	-0.043
-144.531	-200.000	0.008	0.159
-143.516	-153.319	0.132	0.009
-142.502	121.044	-0.017	-0.021
-141.487	-130.267	-0.093	-0.012
-140.472	276.022	0.119	0.208
-139.458	-87.865	-0.120	0.035
-138.443	64.053	0.149	-0.148
-137.429	-42.142	0.076	0.038
-136.414	800.000	-0.058	0.210
-135.399	-68.467	-0.158	-0.060
-134.385	-89.291	-0.393	-0.114
-133.370	800.000	-0.040	-0.113
-132.356	-153.291	0.426	-0.029
-131.341	-200.000	-0.029	-0.129
-130.326	577.785	0.041	0.097
-129.312	10.537	-0.168	0.126
-128.297	-200.000	-0.023	0.138
-127.283	-56.615	-0.232	0.101
-126.268	-200.000	-0.454	0.002
-125.253	-47.733	-0.332	0.158
-124.239	193.519	0.163	0.241
-123.224	800.000	-0.118	0.415
-122.210	-200.000	0.029	-0.412
-121.195	800.000	-0.014	-0.040
