DTS Sentinel unit serial number:	SN413079Multiplexer serial number:	ORYXHardware model number:	OX4-SRSoftware version number:	ORYX F/W v4.00 Oryx Data Collector v3.7.2.0data status	okinstallation	princeton_trtdifferential loss correction	single-endedforward channel	channel 2reverse channel	N/Adate	2019/09/17time	23:59:35forward acquisition time	60.00reverse acquisition time	0.00gamma	496.2192k internal	0.2349k external	0.2349temperature offset calibration	0.9985default loss term (dB/km)	0.3790temperature slope calibration	1.0000multiplexer offset coefficient	1.0000multiplexer slope coefficient	1.0000fibre end	0.00T internal ref (°C)	23.87T ext. ref 1 (°C)	0.16T ext. ref 2 (°C)	17.30length (m)	temperature (°C)	Stokes	anti-Stokes-747.200	-200.000	-0.022	0.203
-746.185	23.227	-0.173	0.142
-745.171	-161.702	-0.168	-0.009
-744.156	-5.956	-0.239	0.163
-743.142	-200.000	-0.036	-0.244
-742.127	-158.397	-0.306	0.018
-741.112	800.000	0.058	0.224
-740.098	120.855	-0.230	0.286
-739.083	1.444	0.189	0.136
-738.069	296.594	-0.130	0.238
-737.054	-200.000	0.021	-0.339
-736.039	-105.519	-0.429	-0.097
-735.025	18.203	0.297	-0.236
-734.010	-3.847	-0.173	0.120
-732.996	714.579	-0.007	0.019
-731.981	365.208	-0.023	-0.045
-730.966	253.451	0.099	-0.170
-729.952	108.594	-0.247	-0.295
-728.937	-200.000	0.060	0.294
-727.923	-68.882	-0.123	-0.047
-726.908	119.780	0.156	0.193
-725.894	60.587	0.195	-0.193
-724.879	-147.610	0.248	-0.021
-723.864	800.000	0.095	-0.401
-722.850	-85.273	0.389	-0.121
-721.835	800.000	-0.095	0.344
-720.821	177.015	0.129	-0.188
-719.806	66.479	-0.074	-0.075
-718.791	32.441	-0.142	0.123
-717.777	62.769	-0.160	0.160
-716.762	-200.000	0.046	0.209
-715.748	-24.729	0.261	0.155
-714.733	111.881	0.127	0.153
-713.718	800.000	0.050	-0.139
-712.704	-200.000	0.123	-0.000
-711.689	63.683	0.179	-0.180
-710.675	-25.791	-0.325	-0.191
-709.660	139.887	0.158	-0.208
-708.645	-63.263	0.287	0.118
-707.631	-174.147	0.187	-0.005
-706.616	-161.558	0.097	-0.005
-705.602	-200.000	0.045	-0.199
-704.587	-104.711	-0.084	-0.019
-703.572	177.834	0.129	0.187
-702.558	477.199	0.106	-0.239
-701.543	605.021	0.124	-0.307
-700.529	-110.267	-0.269	0.056
-699.514	108.343	-0.104	-0.124
-698.499	-176.011	-0.176	0.005
-697.485	40.526	-0.100	-0.090
-696.470	99.556	-0.114	-0.131
-695.456	-200.000	-0.045	-0.318
-694.441	-10.350	0.214	0.142
-693.426	-80.007	-0.177	-0.059
-692.412	106.248	0.343	-0.405
-691.397	-200.000	-0.066	-0.372
-690.383	299.976	-0.218	-0.400
-689.368	229.713	-0.117	-0.190
-688.354	182.233	-0.197	-0.289
-687.339	-33.735	0.226	0.124
-686.324	21.741	-0.156	-0.127
-685.310	285.027	-0.141	-0.254
-684.295	-27.164	-0.306	-0.178
-683.281	120.563	0.158	0.195
-682.266	-67.168	-0.109	-0.043
-681.251	-102.571	0.180	-0.043
-680.237	249.147	0.105	-0.177
-679.222	248.151	0.023	-0.038
-678.208	-200.000	-0.040	0.192
-677.193	-79.484	0.258	-0.087
-676.178	800.000	-0.043	-0.147
-675.164	80.080	-0.105	-0.112
-674.149	-5.630	0.167	0.114
-673.135	-86.565	0.112	0.034
-672.120	-200.000	-0.065	-0.365
-671.105	-93.573	-0.133	-0.037
-670.091	800.000	-0.113	-0.472
-669.076	143.783	0.072	0.096
-668.062	69.786	-0.193	0.198
-667.047	-200.000	-0.024	-0.656
-666.032	-76.748	0.213	-0.074
-665.018	-160.226	-0.142	-0.008
-664.003	-200.000	0.003	-0.082
-662.989	-200.000	-0.023	-0.328
-661.974	-30.940	-0.106	-0.060
-660.959	147.907	-0.026	-0.036
-659.945	596.161	-0.139	0.343
-658.930	12.244	0.315	0.242
-657.916	-200.000	0.035	0.249
-656.901	-29.889	-0.254	-0.144
-655.886	396.283	-0.167	-0.347
-654.872	-119.587	-0.389	-0.067
-653.857	356.568	-0.070	-0.138
-652.843	-200.000	-0.002	-0.175
-651.828	56.606	-0.155	-0.150
-650.814	256.575	-0.152	-0.259
-649.799	-161.745	-0.306	-0.016
-648.784	55.677	0.298	0.287
-647.770	-169.688	-0.019	-0.001
-646.755	-190.952	-0.266	-0.003
-645.741	-160.947	-0.087	-0.005
-644.726	-200.000	0.085	0.451
-643.711	32.852	0.065	-0.056
-642.697	-105.805	0.284	-0.064
-641.682	-162.041	-0.100	-0.005
-640.668	738.679	-0.056	-0.148
-639.653	152.349	0.191	-0.259
-638.638	80.227	0.342	0.366
-637.624	-200.000	-0.029	0.256
-636.609	-200.000	-0.001	0.232
-635.595	-135.218	0.129	0.015
-634.580	-200.000	0.061	-0.268
-633.565	413.432	-0.152	-0.322
-632.551	-200.000	-0.029	-0.137
-631.536	-52.573	-0.398	0.183
-630.522	307.773	-0.041	-0.076
-629.507	-69.607	0.144	-0.055
-628.492	72.058	-0.043	-0.045
-627.478	-147.415	-0.397	0.033
-626.463	800.000	-0.130	-0.474
-625.449	363.981	0.170	-0.340
-624.434	-65.588	-0.161	0.064
-623.419	117.429	0.177	0.217
-622.405	-70.221	0.061	-0.023
-621.390	-200.000	0.027	-0.247
-620.376	44.706	0.141	-0.129
-619.361	-7.435	-0.177	-0.119
-618.346	800.000	0.051	-0.161
-617.332	6.067	0.403	-0.297
-616.317	783.877	0.041	-0.112
-615.303	45.709	0.178	0.164
-614.288	-107.031	0.252	-0.055
-613.273	42.139	0.024	-0.021
-612.259	-25.603	0.146	-0.086
-611.244	800.000	-0.019	0.072
-610.230	386.931	-0.134	-0.274
-609.215	-192.062	0.381	-0.004
-608.201	17.002	0.199	-0.156
-607.186	139.332	0.244	0.318
-606.171	-200.000	0.020	-0.419
-605.157	338.959	0.080	0.155
-604.142	-7.560	0.235	-0.158
-603.128	65.657	-0.045	-0.045
-602.113	117.901	0.036	0.045
-601.098	114.881	-0.185	-0.224
-600.084	-111.469	0.180	0.036
-599.069	-40.916	-0.559	0.287
-598.055	28.740	-0.335	0.282
-597.040	-200.000	0.015	0.278
-596.025	80.236	-0.191	-0.204
-595.011	-46.342	0.105	-0.051
-593.996	-80.260	-0.142	0.047
-592.982	-137.414	0.217	0.024
-591.967	373.236	0.136	0.274
-590.952	-200.000	0.002	-0.219
-589.938	130.765	-0.162	-0.206
-588.923	-65.589	-0.323	0.129
-587.909	-200.000	-0.021	-0.262
-586.894	123.556	-0.170	-0.212
-585.879	-200.000	-0.018	-0.208
-584.865	-2.720	0.146	0.102
-583.850	800.000	-0.044	-0.135
-582.836	-20.341	0.146	0.089
-581.821	-99.162	-0.247	0.062
-580.806	57.195	-0.272	-0.263
-579.792	-51.805	-0.047	-0.022
-578.777	5.465	-0.114	0.083
-577.763	5.429	-0.248	0.182
-576.748	-200.000	0.061	0.331
-575.733	800.000	0.033	0.114
-574.719	736.042	-0.056	0.149
-573.704	57.269	-0.164	0.159
-572.690	69.886	0.161	0.164
-571.675	528.535	-0.299	0.700
-570.661	286.628	-0.061	0.110
-569.646	-83.664	0.158	-0.050
-568.631	-170.771	-0.398	-0.014
-567.617	-200.000	-0.027	0.171
-566.602	153.438	-0.140	-0.190
-565.588	-161.309	-0.160	0.008
-564.573	-73.708	-0.048	-0.017
-563.558	-116.255	-0.304	-0.056
-562.544	0.135	-0.344	0.243
-561.529	-200.000	-0.011	0.250
-560.515	-152.221	-0.084	-0.006
-559.500	336.037	0.182	-0.351
-558.485	-13.531	-0.252	0.162
-557.471	103.240	-0.117	-0.136
-556.456	-118.394	-0.301	-0.053
-555.442	-15.588	0.370	-0.234
-554.427	-157.804	-0.125	0.007
-553.412	614.143	-0.050	-0.123
-552.398	30.068	-0.338	0.285
-551.383	-170.928	-0.139	-0.005
-550.369	-200.000	0.013	-0.107
-549.354	55.950	-0.166	-0.159
-548.339	1.792	-0.262	0.187
-547.325	-88.025	0.175	-0.052
-546.310	-31.218	-0.202	-0.113
-545.296	101.488	-0.260	-0.300
-544.281	-200.000	0.026	-0.336
-543.266	198.812	0.042	-0.064
-542.252	550.923	0.142	0.337
-541.237	456.582	0.127	0.280
-540.223	-150.375	-0.139	-0.011
-539.208	-30.894	-0.082	-0.046
-538.193	-200.000	0.016	-0.210
-537.179	43.594	0.186	-0.169
-536.164	800.000	0.150	-0.535
-535.150	-5.711	-0.297	-0.201
-534.135	516.125	-0.112	0.260
-533.121	-140.400	-0.331	-0.034
-532.106	165.207	-0.090	-0.126
-531.091	-170.214	0.274	-0.010
-530.077	-180.454	-0.062	-0.001
-529.062	-33.601	0.319	0.174
-528.048	8.180	-0.188	0.140
-527.033	-53.870	-0.223	0.101
-526.018	-30.479	0.261	0.147
-525.004	-200.000	-0.046	0.269
-523.989	61.960	-0.220	0.217
-522.975	40.768	0.097	0.087
-521.960	420.301	0.041	-0.086
-520.945	-75.570	-0.205	0.072
-519.931	495.594	0.079	0.180
-518.916	-200.000	-0.005	0.117
-517.902	-62.350	0.287	-0.118
-516.887	-84.219	-0.189	-0.059
-515.872	18.808	-0.304	0.241
-514.858	-19.588	0.089	0.055
-513.843	203.922	-0.024	0.037
-512.829	-200.000	-0.055	-0.270
-511.814	8.435	0.136	-0.101
-510.799	-157.387	-0.345	-0.021
-509.785	107.174	0.089	0.105
-508.770	-200.000	0.008	-0.267
-507.756	524.491	0.066	0.154
-506.741	28.574	0.333	-0.279
-505.726	-200.000	-0.002	-0.097
-504.712	565.778	-0.044	0.105
-503.697	-182.004	-0.201	0.004
-502.683	577.887	-0.022	-0.054
-501.668	-133.186	-0.186	-0.023
-500.653	800.000	-0.120	-0.412
-499.639	3.991	0.133	-0.096
-498.624	133.691	0.026	0.033
-497.610	179.733	-0.175	-0.253
-496.595	270.064	-0.036	0.063
-495.581	689.257	0.080	-0.207
-494.566	800.000	0.026	-0.090
-493.551	-200.000	0.006	0.026
-492.537	-131.750	0.154	-0.020
-491.522	-32.412	-0.173	0.095
-490.508	142.480	0.088	-0.116
-489.493	19.329	-0.088	-0.070
-488.478	-165.705	-0.197	-0.008
-487.464	-200.000	-0.014	-0.152
-486.449	388.690	0.128	-0.263
-485.435	578.525	0.083	0.201
-484.420	-200.000	0.018	-0.177
-483.405	214.553	-0.293	-0.459
-482.391	-143.207	0.342	0.033
-481.376	-91.005	0.163	-0.046
-480.362	-35.771	0.071	-0.038
-479.347	103.098	-0.134	0.155
-478.332	-200.000	0.002	-0.032
-477.318	50.796	-0.370	-0.346
-476.303	-194.554	0.390	-0.003
-475.289	-130.488	-0.112	-0.015
-474.274	339.570	0.165	0.318
-473.259	274.858	-0.087	-0.152
-472.245	-85.683	0.440	0.135
-471.230	49.897	-0.088	0.082
-470.216	-200.000	-0.102	0.488
-469.201	126.984	-0.009	-0.011
-468.186	-200.000	0.011	0.059
-467.172	-113.394	0.160	0.031
-466.157	445.710	-0.082	0.178
-465.143	36.926	-0.035	-0.031
-464.128	800.000	0.067	0.221
-463.113	-67.058	0.110	-0.043
-462.099	-132.090	-0.356	0.046
-461.084	223.818	-0.078	0.124
-460.070	-22.715	0.151	0.090
-459.055	55.486	0.121	0.116
-458.040	181.751	0.035	0.051
-457.026	-125.930	0.162	-0.024
-456.011	117.825	-0.174	-0.211
-454.997	60.132	0.156	0.152
-453.982	419.225	-0.084	0.178
-452.968	17.218	0.254	0.199
-451.953	800.000	0.073	0.314
-450.938	800.000	0.008	0.021
-449.924	-172.463	0.136	-0.004
-448.909	-150.395	0.282	0.021
-447.895	-173.544	0.352	0.010
-446.880	-135.371	0.388	0.046
-445.865	-138.221	0.111	-0.012
-444.851	637.138	0.095	-0.238
-443.836	-200.000	-0.014	0.487
-442.822	556.300	0.086	-0.204
-441.807	642.764	0.046	-0.116
-440.792	306.642	-0.229	-0.421
-439.778	-200.000	-0.006	0.113
-438.763	-200.000	-0.053	0.301
-437.749	-70.792	-0.115	-0.043
-436.734	-200.000	0.010	-0.252
-435.719	-151.789	-0.249	-0.018
-434.705	-78.068	0.212	-0.072
-433.690	800.000	-0.116	-0.337
-432.676	163.012	0.216	-0.300
-431.661	61.844	0.114	0.112
-430.646	123.167	0.220	-0.271
-429.632	177.000	-0.242	-0.348
-428.617	47.997	0.113	-0.105
-427.603	-104.257	-0.578	0.132
-426.588	-171.908	-0.469	-0.015
-425.573	192.893	-0.099	0.147
-424.559	390.262	0.146	0.298
-423.544	-200.000	-0.042	0.463
-422.530	-81.980	0.118	0.038
-421.515	50.151	-0.371	0.346
-420.500	95.824	-0.233	-0.262
-419.486	-200.000	0.021	-0.368
-418.471	71.056	-0.093	-0.095
-417.457	222.656	0.211	-0.335
-416.442	367.916	0.174	-0.347
-415.428	14.544	-0.084	-0.064
-414.413	271.050	0.077	-0.133
-413.398	-200.000	0.007	0.161
-412.384	-121.329	-0.269	-0.044
-411.369	-93.505	0.272	0.074
-410.355	-200.000	-0.049	0.272
-409.340	-123.616	-0.150	0.023
-408.325	-113.639	0.423	-0.081
-407.311	4.588	-0.348	-0.252
-406.296	-200.000	0.015	0.079
-405.282	-200.000	-0.024	-0.336
-404.267	20.239	-0.184	-0.146
-403.252	800.000	-0.058	0.203
-402.238	-31.504	0.040	-0.022
-401.223	397.783	-0.223	-0.459
-400.209	-55.178	-0.245	-0.109
-399.194	800.000	-0.033	0.093
-398.179	-200.000	-0.010	-0.157
-397.165	-102.343	0.258	-0.061
-396.150	-58.233	0.196	0.084
-395.136	-67.657	0.110	0.042
-394.121	800.000	0.080	-0.316
-393.106	-140.689	-0.273	0.028
-392.092	-44.139	0.313	0.155
-391.077	-200.000	0.000	-0.224
-390.063	107.920	0.073	-0.086
-389.048	240.487	0.142	0.234
-388.033	-0.455	-0.276	-0.193
-387.019	54.789	0.192	0.182
-386.004	-113.098	-0.077	0.015
-384.990	800.000	-0.076	0.266
-383.975	-132.327	0.499	-0.063
-382.960	179.445	-0.207	0.298
-381.946	39.406	-0.063	0.056
-380.931	-200.000	-0.033	-0.527
-379.917	-200.000	-0.027	-0.436
-378.902	-200.000	-0.005	0.141
-377.888	203.316	0.076	0.115
-376.873	-138.223	-0.191	-0.021
-375.858	-52.451	0.207	0.094
-374.844	-113.616	0.287	-0.055
-373.829	-200.000	0.022	0.146
-372.815	800.000	0.084	0.331
-371.800	366.400	0.070	-0.138
-370.785	-200.000	0.064	0.477
-369.771	-146.802	-0.204	-0.017
-368.756	-200.000	0.030	0.180
-367.742	40.154	-0.240	-0.212
-366.727	-200.000	0.014	-0.111
-365.712	-200.000	-0.005	0.163
-364.698	800.000	0.117	0.327
-363.683	-104.198	-0.093	-0.021
-362.669	-200.000	0.002	0.234
-361.654	-147.055	0.129	0.011
-360.639	800.000	0.064	0.218
-359.625	135.583	0.327	0.418
-358.610	-24.079	0.119	-0.070
-357.596	32.431	0.201	0.171
-356.581	-200.000	-0.023	-0.132
-355.566	-118.824	0.071	0.012
-354.552	181.735	0.237	0.344
-353.537	15.822	-0.228	-0.176
-352.523	98.125	0.276	-0.312
-351.508	-26.575	0.119	0.068
-350.493	800.000	0.035	0.103
-349.479	-200.000	-0.078	-0.476
-348.464	-96.063	0.339	0.089
-347.450	-77.966	0.135	-0.046
-346.435	-98.039	0.055	0.014
-345.420	-21.260	-0.193	0.116
-344.406	800.000	0.041	0.161
-343.391	60.818	-0.163	0.159
-342.377	800.000	-0.065	0.208
-341.362	-1.964	0.082	0.057
-340.348	18.691	-0.087	-0.068
-339.333	-5.898	-0.006	0.004
-338.318	133.156	0.261	-0.332
-337.304	-56.233	0.351	-0.154
-336.289	309.967	0.106	0.194
-335.275	112.052	-0.059	-0.070
-334.260	-129.354	-0.180	0.025
-333.245	116.038	0.118	0.142
-332.231	364.874	0.046	0.091
-331.216	-51.194	0.282	0.130
-330.202	-143.020	0.184	-0.017
-329.187	76.010	-0.176	-0.183
-328.172	269.934	-0.152	0.262
-327.158	-200.000	-0.013	0.066
-326.143	-200.000	0.044	0.257
-325.129	-150.156	0.155	0.012
-324.114	60.110	0.113	-0.109
-323.099	121.074	-0.228	-0.279
-322.085	-94.697	-0.156	0.042
-321.070	-65.582	0.094	0.037
-320.056	-200.000	0.024	-0.113
-319.041	371.475	0.091	0.182
-318.026	-79.997	-0.104	-0.034
-317.012	721.995	0.038	-0.099
-315.997	20.990	-0.219	-0.174
-314.983	800.000	-0.081	-0.225
-313.968	-152.278	0.312	0.022
-312.953	402.202	-0.109	0.225
-311.939	39.439	0.132	-0.116
-310.924	-51.331	-0.289	0.133
-309.910	800.000	-0.034	0.113
-308.895	-105.675	0.439	-0.098
-307.880	-6.770	-0.167	0.112
-306.866	37.383	0.138	0.120
-305.851	800.000	-0.031	0.119
-304.837	183.094	-0.067	0.097
-303.822	53.099	0.025	0.023
-302.807	-200.000	0.021	0.203
-301.793	57.483	-0.296	-0.284
-300.778	-93.722	-0.227	0.061
-299.764	-116.452	0.142	0.026
-298.749	800.000	0.041	-0.140
-297.735	-187.439	0.064	-0.001
-296.720	-39.496	0.351	0.181
-295.705	-200.000	0.006	0.201
-294.691	-200.000	-0.088	0.566
-293.676	-20.628	0.166	-0.100
-292.662	120.323	0.264	0.321
-291.647	173.248	0.105	-0.148
-290.632	-105.100	0.076	0.017
-289.618	-200.000	0.018	-0.209
-288.603	-48.858	-0.338	-0.159
-287.589	-82.275	0.165	0.053
-286.574	751.617	0.013	0.035
-285.559	800.000	-0.022	0.088
-284.545	294.124	-0.030	-0.054
-283.530	-17.944	-0.104	-0.064
-282.516	-12.103	0.109	-0.070
-281.501	-200.000	-0.027	0.232
-280.486	-109.582	-0.243	0.050
-279.472	657.055	-0.068	0.172
-278.457	-58.511	0.208	-0.089
-277.443	-82.490	-0.157	-0.050
-276.428	-71.214	0.231	-0.085
-275.413	-151.957	0.565	-0.040
-274.399	800.000	0.065	-0.265
-273.384	-50.100	0.277	0.129
-272.370	-0.362	-0.217	-0.151
-271.355	-200.000	-0.021	-0.362
-270.340	253.995	-0.190	0.318
-269.326	-200.000	0.015	-0.313
-268.311	-116.688	0.213	0.038
-267.297	738.502	-0.175	-0.461
-266.282	-200.000	0.018	-0.078
-265.267	800.000	0.049	-0.138
-264.253	148.843	0.053	0.071
-263.238	43.501	0.123	-0.110
-262.224	98.048	0.139	-0.157
-261.209	-100.721	-0.185	-0.045
-260.195	-10.288	-0.116	-0.076
-259.180	800.000	-0.043	0.145
-258.165	-200.000	-0.002	-0.104
-257.151	-79.014	-0.253	0.084
-256.136	288.578	0.031	0.055
-255.122	-75.202	-0.129	0.045
-254.107	84.492	0.116	0.124
-253.092	-134.664	-0.308	0.037
-252.078	9.747	0.197	-0.147
-251.063	-0.681	0.166	-0.115
-250.049	800.000	0.064	-0.247
-249.034	29.198	-0.079	0.065
-248.019	-23.368	0.218	0.128
-247.005	-161.577	-0.392	-0.020
-245.990	14.680	0.086	0.066
-244.976	-200.000	0.020	0.204
-243.961	183.112	-0.192	0.277
-242.946	43.184	-0.084	0.075
-241.932	260.345	-0.119	-0.201
-240.917	505.921	-0.081	0.184
-239.903	351.242	-0.128	0.247
-238.888	-200.000	-0.002	-0.208
-237.873	60.303	0.109	0.105
-236.859	800.000	0.079	-0.229
-235.844	-43.625	0.132	-0.065
-234.830	800.000	-0.129	-0.532
-233.815	-80.528	0.342	-0.112
-232.800	-39.324	0.136	0.070
-231.786	412.009	0.053	-0.110
-230.771	567.937	0.057	0.137
-229.757	95.366	-0.035	0.040
-228.742	21.431	0.142	0.113
-227.727	-200.000	-0.008	-0.126
-226.713	1.693	-0.246	-0.173
-225.698	-200.000	0.002	-0.230
-224.684	800.000	-0.071	0.241
-223.669	-200.000	0.022	0.144
-222.655	-26.056	-0.115	0.066
-221.640	-200.000	0.011	0.061
-220.625	70.462	0.113	0.114
-219.611	-69.440	0.194	0.073
-218.596	183.421	0.066	-0.096
-217.582	43.255	-0.085	0.076
-216.567	682.560	-0.022	0.057
-215.552	-142.819	-0.305	-0.029
-214.538	123.918	0.103	-0.127
-213.523	800.000	-0.029	0.121
-212.509	-200.000	0.048	-0.346
-211.494	800.000	-0.082	0.310
-210.479	7.901	0.126	-0.093
-209.465	-89.114	0.108	0.031
-208.450	-33.010	0.144	0.078
-207.436	-48.288	0.148	0.070
-206.421	60.837	0.242	0.235
-205.406	-200.000	0.006	0.059
-204.392	-89.759	0.305	0.087
-203.377	-200.000	-0.016	-0.485
-202.363	82.133	-0.222	0.235
-201.348	-200.000	0.043	0.444
-200.333	-152.216	0.055	0.004
-199.319	164.215	0.160	0.220
-198.304	-56.976	-0.117	-0.051
-197.290	-194.119	-0.340	0.003
-196.275	800.000	0.080	0.225
-195.260	-200.000	-0.008	0.106
-194.246	-200.000	0.002	0.092
-193.231	-194.227	-0.305	0.002
-192.217	-200.000	-0.018	-0.117
-191.202	4.984	0.168	0.121
-190.187	375.951	-0.106	-0.212
-189.173	95.754	0.143	-0.159
-188.158	-155.366	0.196	-0.012
-187.144	-200.000	-0.005	-0.136
-186.129	667.158	-0.016	-0.041
-185.114	135.867	0.169	0.215
-184.100	-150.454	-0.175	-0.013
-183.085	-200.000	0.040	-0.172
-182.071	-53.017	-0.170	-0.077
-181.056	-51.951	-0.140	-0.064
-180.042	58.125	-0.087	0.083
-179.027	-200.000	0.081	0.447
-178.012	285.246	0.167	0.295
-176.998	16.432	-0.064	-0.050
-175.983	-147.292	0.124	0.010
-174.969	-57.069	0.118	-0.051
-173.954	-200.000	0.075	-0.397
-172.939	331.576	-0.098	0.186
-171.925	-16.874	0.131	0.081
-170.910	800.000	0.063	-0.211
-169.896	-74.570	-0.163	0.057
-168.881	-199.524	0.252	-0.001
-167.866	800.000	-0.101	-0.309
-166.852	-93.522	0.380	-0.103
-165.837	352.480	-0.109	-0.212
-164.823	-39.058	-0.198	-0.102
-163.808	-200.000	-0.044	0.337
-162.793	275.706	-0.212	0.367
-161.779	-102.079	-0.229	0.054
-160.764	-174.649	-0.456	0.013
-159.750	-200.000	-0.041	0.204
-158.735	-129.931	0.267	-0.036
-157.720	179.518	-0.090	0.128
-156.706	73.116	-0.021	-0.021
-155.691	-200.000	-0.020	-0.324
-154.677	157.737	-0.240	0.324
-153.662	-200.000	-0.006	-0.033
-152.647	800.000	-0.060	0.248
-151.633	67.967	0.077	-0.077
-150.618	153.596	0.173	-0.232
-149.604	26.094	0.195	0.159
-148.589	-200.000	-0.016	-0.305
-147.574	428.890	-0.054	-0.114
-146.560	397.925	0.072	0.147
-145.545	-143.077	0.100	0.009
-144.531	14.400	0.022	-0.017
-143.516	-200.000	-0.048	0.292
-142.502	-200.000	-0.000	-0.116
-141.487	-102.717	-0.038	-0.009
-140.472	-105.065	-0.097	-0.022
-139.458	-75.031	0.133	0.046
-138.443	118.997	0.126	0.151
-137.429	-143.506	0.087	0.008
-136.414	-168.542	-0.253	0.009
-135.399	542.964	0.039	0.090
-134.385	-57.789	-0.172	0.073
-133.370	60.976	-0.125	0.121
-132.356	-15.294	-0.267	-0.166
-131.341	800.000	0.051	-0.209
-130.326	188.186	0.226	0.329
-129.312	800.000	0.048	0.133
-128.297	-194.448	0.217	0.002
-127.283	-145.779	0.227	-0.020
-126.268	703.129	0.051	-0.131
-125.253	-190.900	0.454	0.005
-124.239	-200.000	-0.029	0.184
-123.224	-200.000	-0.004	0.062
-122.210	800.000	-0.043	0.152
