DTS Sentinel unit serial number:	SN413079Multiplexer serial number:	ORYXHardware model number:	OX4-SRSoftware version number:	ORYX F/W v4.00 Oryx Data Collector v3.7.2.0data status	okinstallation	princeton_trtdifferential loss correction	single-endedforward channel	channel 2reverse channel	N/Adate	2019/09/16time	19:31:34forward acquisition time	60.00reverse acquisition time	0.00gamma	496.2192k internal	0.2323k external	0.2323temperature offset calibration	0.9971default loss term (dB/km)	0.3790temperature slope calibration	1.0000multiplexer offset coefficient	1.0000multiplexer slope coefficient	1.0000fibre end	0.00T internal ref (°C)	34.44T ext. ref 1 (°C)	0.11T ext. ref 2 (°C)	27.30length (m)	temperature (°C)	Stokes	anti-Stokes-747.200	383.274	-0.095	-0.198
-746.185	3.230	-0.382	-0.281
-745.171	135.829	0.129	0.169
-744.156	-200.000	0.039	0.250
-743.142	-39.281	0.233	0.124
-742.127	166.878	0.156	0.224
-741.112	9.972	0.315	0.242
-740.098	3.015	-0.166	-0.122
-739.083	-14.148	0.259	-0.168
-738.069	-110.141	-0.159	-0.033
-737.054	-160.142	-0.328	0.018
-736.039	-200.000	-0.001	0.124
-735.025	-165.339	0.691	-0.031
-734.010	-18.514	-0.251	0.158
-732.996	-41.759	-0.106	0.055
-731.981	381.721	-0.047	-0.098
-730.966	3.125	0.409	-0.300
-729.952	-66.294	-0.079	-0.032
-728.937	800.000	-0.062	-0.214
-727.923	47.511	0.063	-0.059
-726.908	39.405	-0.205	0.185
-725.894	-200.000	-0.008	-0.069
-724.879	175.144	-0.192	0.280
-723.864	800.000	-0.119	-0.413
-722.850	106.416	-0.161	-0.192
-721.835	800.000	0.121	-0.350
-720.821	-200.000	-0.007	-0.100
-719.806	-92.478	-0.235	-0.067
-718.791	800.000	0.053	-0.154
-717.777	-50.518	-0.190	0.091
-716.762	-88.251	0.196	-0.059
-715.748	-56.523	0.353	0.158
-714.733	-200.000	0.025	0.571
-713.718	-200.000	0.058	0.547
-712.704	-80.091	-0.176	0.059
-711.689	-200.000	0.001	-0.337
-710.675	-17.620	-0.306	-0.194
-709.660	-200.000	0.013	0.227
-708.645	-136.313	-0.226	0.027
-707.631	0.280	0.108	0.078
-706.616	-110.589	0.326	0.068
-705.602	-125.264	-0.281	-0.043
-704.587	-132.052	-0.324	-0.043
-703.572	-23.280	-0.098	-0.059
-702.558	-98.567	-0.278	0.072
-701.543	242.925	0.125	-0.211
-700.529	54.141	-0.164	-0.159
-699.514	-108.318	-0.295	-0.064
-698.499	42.190	-0.335	-0.307
-697.485	66.561	0.078	0.080
-696.470	-64.971	-0.219	0.089
-695.456	156.636	-0.167	0.233
-694.441	231.195	-0.124	-0.205
-693.426	19.315	-0.303	0.245
-692.412	-113.412	0.048	0.009
-691.397	-68.725	-0.349	-0.136
-690.383	800.000	-0.007	-0.031
-689.368	800.000	0.042	0.132
-688.354	315.228	0.039	0.074
-687.339	94.769	-0.087	0.100
-686.324	-167.648	0.227	0.009
-685.310	65.080	0.187	-0.190
-684.295	-200.000	-0.003	-0.249
-683.281	-200.000	-0.030	-0.234
-682.266	-200.000	-0.042	-0.359
-681.251	66.546	-0.115	0.118
-680.237	190.891	0.151	-0.229
-679.222	418.484	0.105	-0.226
-678.208	800.000	0.078	0.235
-677.193	-200.000	-0.002	-0.117
-676.178	-173.821	0.192	-0.006
-675.164	-91.272	-0.313	-0.090
-674.149	800.000	-0.049	0.201
-673.135	481.786	-0.190	0.434
-672.120	-42.495	0.177	-0.091
-671.105	-104.576	-0.176	0.041
-670.091	1.066	-0.235	-0.170
-669.076	100.931	-0.126	0.147
-668.062	-200.000	-0.002	0.076
-667.047	-200.000	-0.025	-0.144
-666.032	-200.000	0.028	-0.158
-665.018	-200.000	-0.010	0.055
-664.003	-24.551	0.268	-0.160
-662.989	-46.482	-0.096	-0.048
-661.974	800.000	0.049	0.169
-660.959	800.000	-0.034	-0.125
-659.945	800.000	-0.066	0.261
-658.930	1.114	-0.010	-0.007
-657.916	-200.000	-0.028	-0.135
-656.901	-88.412	-0.090	0.027
-655.886	210.647	0.159	0.251
-654.872	101.517	-0.127	-0.149
-653.857	61.576	-0.102	-0.102
-652.843	4.112	-0.130	-0.096
-651.828	-36.321	-0.444	0.241
-650.814	800.000	-0.084	-0.271
-649.799	-200.000	0.069	0.313
-648.784	-35.939	-0.213	-0.116
-647.770	292.815	-0.265	-0.485
-646.755	479.154	0.054	0.123
-645.741	22.146	-0.219	0.180
-644.726	-24.118	0.121	0.073
-643.711	-129.841	-0.324	0.045
-642.697	-200.000	-0.045	-0.282
-641.682	-135.884	-0.134	0.016
-640.668	-75.881	0.191	0.068
-639.653	-106.253	-0.282	-0.064
-638.638	154.537	-0.253	-0.349
-637.624	-22.676	0.170	-0.104
-636.609	-128.027	-0.125	-0.018
-635.595	-59.169	0.296	-0.128
-634.580	-114.535	0.151	-0.029
-633.565	-19.553	-0.363	0.226
-632.551	191.838	0.080	-0.121
-631.536	410.249	-0.094	-0.200
-630.522	-43.390	0.239	-0.121
-629.507	-89.423	-0.127	0.038
-628.492	-117.770	0.094	0.017
-627.478	293.839	0.109	-0.200
-626.463	521.644	0.037	0.087
-625.449	-200.000	-0.003	-0.136
-624.434	-14.080	-0.221	0.143
-623.419	-68.074	-0.152	-0.060
-622.405	-48.306	0.161	-0.078
-621.390	-200.000	-0.021	-0.199
-620.376	-200.000	-0.027	-0.357
-619.361	800.000	0.067	-0.293
-618.346	-166.046	-0.243	0.010
-617.332	-91.707	-0.229	-0.065
-616.317	-46.754	0.159	-0.078
-615.303	-186.351	-0.167	0.002
-614.288	-127.134	0.213	-0.031
-613.273	142.792	-0.143	0.190
-612.259	-171.306	0.025	-0.001
-611.244	253.739	0.117	-0.201
-610.230	-36.761	0.263	-0.142
-609.215	96.029	0.206	-0.236
-608.201	-75.222	0.187	-0.067
-607.186	-200.000	-0.010	-0.138
-606.171	142.819	0.106	0.141
-605.157	238.996	-0.126	0.210
-604.142	-200.000	-0.015	0.220
-603.128	53.813	-0.207	-0.200
-602.113	-200.000	0.002	0.431
-601.098	100.385	-0.073	0.085
-600.084	322.245	-0.069	-0.131
-599.069	-121.202	-0.157	-0.026
-598.055	-51.085	-0.291	-0.137
-597.040	-189.597	-0.136	-0.002
-596.025	-16.499	-0.147	-0.094
-595.011	800.000	-0.039	-0.167
-593.996	1.709	-0.118	-0.085
-592.982	-93.116	0.260	-0.073
-591.967	208.247	-0.155	0.243
-590.952	14.317	-0.101	0.079
-589.938	-126.783	-0.135	-0.020
-588.923	-184.890	-0.040	0.001
-587.909	19.029	0.351	-0.282
-586.894	407.501	-0.133	-0.282
-585.879	208.255	0.063	0.099
-584.865	-160.011	-0.069	0.004
-583.850	190.320	-0.156	-0.235
-582.836	294.530	-0.118	0.216
-581.821	131.545	0.026	0.034
-580.806	800.000	-0.009	-0.025
-579.792	67.499	-0.118	-0.121
-578.777	3.707	-0.022	0.016
-577.763	328.080	-0.131	0.253
-576.748	-87.633	0.046	-0.014
-575.733	-200.000	-0.010	0.104
-574.719	193.917	-0.082	0.125
-573.704	-200.000	0.013	-0.095
-572.690	208.516	0.025	0.040
-571.675	1.231	-0.396	0.285
-570.661	-200.000	-0.014	-0.072
-569.646	800.000	0.124	-0.434
-568.631	-21.166	-0.098	-0.060
-567.617	-200.000	-0.083	-0.370
-566.602	-45.058	0.165	-0.082
-565.588	-55.631	0.130	-0.058
-564.573	-166.653	-0.116	-0.005
-563.558	-59.794	-0.384	-0.165
-562.544	-115.412	0.331	0.063
-561.529	97.644	-0.223	-0.257
-560.515	-200.000	-0.007	-0.404
-559.500	-200.000	-0.038	0.201
-558.485	64.802	0.099	0.100
-557.471	-55.416	-0.233	-0.105
-556.456	-68.358	-0.171	0.067
-555.442	-84.766	0.155	0.049
-554.427	428.873	0.097	0.211
-553.412	-27.155	-0.143	0.084
-552.398	31.151	0.354	-0.304
-551.383	424.535	0.091	0.197
-550.369	-102.418	-0.276	0.066
-549.354	-30.606	0.133	0.076
-548.339	79.628	-0.158	-0.170
-547.325	-147.867	-0.354	-0.030
-546.310	85.287	-0.136	0.150
-545.296	15.987	0.152	0.120
-544.281	800.000	-0.075	-0.307
-543.266	800.000	-0.040	-0.131
-542.252	75.629	0.294	0.311
-541.237	276.452	-0.075	-0.134
-540.223	-60.901	-0.279	-0.118
-539.208	-200.000	0.006	-0.173
-538.193	-64.365	-0.120	-0.049
-537.179	800.000	-0.055	0.198
-536.164	-29.024	0.198	0.114
-535.150	-200.000	0.009	-0.299
-534.135	104.535	-0.298	0.352
-533.121	473.228	0.106	0.238
-532.106	146.577	-0.269	0.362
-531.091	-67.477	-0.019	0.007
-530.077	-97.369	0.106	0.028
-529.062	6.999	0.205	0.153
-528.048	-200.000	0.026	0.275
-527.033	16.664	-0.213	0.169
-526.018	-172.854	0.113	-0.004
-525.004	-64.023	-0.153	0.063
-523.989	46.108	0.091	-0.085
-522.975	61.917	-0.136	0.136
-521.960	83.121	-0.118	0.129
-520.945	-8.127	0.079	-0.053
-519.931	447.524	-0.066	-0.145
-518.916	194.698	0.218	0.332
-517.902	5.090	-0.138	-0.102
-516.887	12.967	0.100	-0.077
-515.872	241.778	0.074	0.124
-514.858	-130.336	-0.299	-0.041
-513.843	-200.000	0.079	0.405
-512.829	554.192	-0.074	0.179
-511.814	55.375	0.151	0.146
-510.799	-112.426	0.071	0.014
-509.785	-7.383	-0.303	-0.206
-508.770	49.020	0.180	-0.169
-507.756	-16.591	0.282	0.178
-506.741	-156.660	0.424	0.026
-505.726	-41.931	-0.169	0.087
-504.712	-0.030	-0.240	0.171
-503.697	-135.892	-0.101	-0.012
-502.683	314.709	-0.091	-0.171
-501.668	-200.000	0.028	-0.220
-500.653	-33.198	0.203	0.112
-499.639	499.915	-0.107	0.246
-498.624	162.041	0.055	-0.077
-497.610	368.585	0.064	-0.129
-496.595	-125.838	0.028	0.004
-495.581	800.000	0.049	-0.149
-494.566	774.138	-0.079	0.215
-493.551	-200.000	-0.038	-0.178
-492.537	-200.000	-0.007	0.146
-491.522	170.810	-0.065	0.093
-490.508	30.798	0.043	-0.037
-489.493	-31.041	0.159	0.090
-488.478	87.340	0.073	0.081
-487.464	208.522	-0.084	0.132
-486.449	-120.534	0.028	0.005
-485.435	349.320	-0.121	0.238
-484.420	-66.811	0.230	0.091
-483.405	-113.492	-0.256	-0.050
-482.391	615.331	-0.143	-0.358
-481.376	800.000	0.103	-0.316
-480.362	-4.293	-0.087	-0.060
-479.347	-83.821	-0.146	-0.047
-478.332	6.795	0.055	0.041
-477.318	-28.964	0.155	0.089
-476.303	-151.942	0.174	-0.013
-475.289	-154.496	-0.365	-0.024
-474.274	-200.000	0.025	-0.299
-473.259	125.154	-0.210	0.264
-472.245	800.000	0.041	-0.164
-471.230	53.978	0.150	-0.144
-470.216	-18.779	-0.164	0.102
-469.201	-200.000	0.264	0.000
-468.186	-156.324	-0.127	-0.008
-467.172	-39.180	-0.212	-0.111
-466.157	-200.000	-0.256	0.001
-465.143	-144.048	-0.254	-0.024
-464.128	359.293	0.090	0.179
-463.113	311.108	-0.070	-0.132
-462.099	-131.538	-0.353	0.046
-461.084	-78.582	0.152	-0.052
-460.070	-200.000	-0.003	-0.270
-459.055	-8.862	0.075	0.050
-458.040	63.894	0.197	0.198
-457.026	-200.000	0.013	0.276
-456.011	800.000	0.139	0.396
-454.997	800.000	-0.041	0.116
-453.982	800.000	0.034	0.147
-452.968	516.440	0.090	0.210
-451.953	10.039	-0.080	-0.061
-450.938	-77.353	-0.157	0.054
-449.924	800.000	0.029	-0.105
-448.909	-148.751	-0.170	-0.014
-447.895	-200.000	0.030	0.310
-446.880	800.000	-0.049	0.181
-445.865	76.850	0.031	0.033
-444.851	-17.945	0.310	-0.194
-443.836	-200.000	-0.005	0.037
-442.822	115.239	-0.072	-0.088
-441.807	-106.380	0.199	-0.044
-440.792	48.249	0.091	-0.085
-439.778	440.979	0.077	0.169
-438.763	199.444	-0.192	0.294
-437.749	294.268	0.030	-0.055
-436.734	75.925	-0.177	-0.187
-435.719	155.002	-0.176	-0.242
-434.705	-200.000	0.012	0.207
-433.690	169.745	-0.137	0.196
-432.676	-200.000	-0.038	0.375
-431.661	91.306	-0.248	-0.278
-430.646	739.875	0.086	-0.229
-429.632	800.000	0.063	0.268
-428.617	554.832	0.114	0.273
-427.603	-85.018	0.192	0.060
-426.588	-200.000	-0.013	0.080
-425.573	-200.000	0.046	-0.291
-424.559	92.695	0.079	-0.089
-423.544	279.166	-0.127	-0.226
-422.530	-37.394	-0.204	-0.109
-421.515	800.000	-0.028	-0.090
-420.500	-32.746	-0.024	-0.013
-419.486	-130.530	-0.296	-0.040
-418.471	145.104	0.257	-0.342
-417.457	13.914	-0.164	-0.127
-416.442	-154.466	-0.201	-0.013
-415.428	-82.354	0.356	0.115
-414.413	800.000	0.024	0.089
-413.398	-200.000	0.033	-0.146
-412.384	68.969	0.032	-0.033
-411.369	51.449	-0.126	0.120
-410.355	-104.931	0.261	0.060
-409.340	144.614	-0.270	0.360
-408.325	440.582	0.012	0.026
-407.311	298.330	-0.143	0.262
-406.296	-14.622	0.135	-0.086
-405.282	13.327	0.189	-0.146
-404.267	-106.427	0.583	0.130
-403.252	298.411	0.043	-0.078
-402.238	633.168	-0.056	0.141
-401.223	800.000	0.034	0.140
-400.209	-82.605	0.216	0.070
-399.194	-101.283	0.262	0.064
-398.179	97.895	0.198	-0.227
-397.165	-41.677	-0.223	-0.114
-396.150	800.000	0.056	0.161
-395.136	36.075	-0.251	-0.220
-394.121	-90.321	-0.131	0.038
-393.106	98.191	-0.162	-0.185
-392.092	-67.973	-0.100	-0.039
-391.077	-35.551	-0.128	0.069
-390.063	89.426	-0.108	-0.121
-389.048	-16.944	0.240	-0.151
-388.033	5.018	0.300	0.220
-387.019	-112.828	-0.295	0.058
-386.004	-36.796	0.235	-0.126
-384.990	-143.734	0.340	0.032
-383.975	-200.000	0.027	0.163
-382.960	-200.000	-0.019	0.341
-381.946	-200.000	-0.009	-0.184
-380.931	-23.817	-0.085	0.051
-379.917	38.953	0.068	-0.061
-378.902	-115.096	0.370	-0.070
-377.888	300.039	0.165	-0.303
-376.873	-58.214	-0.071	0.031
-375.858	-63.981	-0.246	-0.100
-374.844	-138.531	-0.163	0.018
-373.829	-118.343	0.276	-0.049
-372.815	390.386	-0.092	-0.191
-371.800	-184.006	-0.024	-0.000
-370.785	61.104	-0.234	-0.232
-369.771	394.150	0.014	-0.029
-368.756	103.093	-0.076	0.088
-367.742	-200.000	0.008	0.055
-366.727	541.514	0.150	-0.356
-365.712	67.877	0.103	-0.104
-364.698	-200.000	-0.018	0.108
-363.683	460.550	-0.029	0.064
-362.669	696.959	0.053	-0.140
-361.654	70.026	0.154	0.158
-360.639	119.825	-0.062	0.077
-359.625	-200.000	0.038	0.217
-358.610	-66.010	-0.252	0.100
-357.596	222.190	-0.135	-0.217
-356.581	63.521	-0.222	-0.221
-355.566	800.000	0.100	0.420
-354.552	-200.000	0.007	-0.118
-353.537	237.152	0.165	-0.271
-352.523	-200.000	-0.003	0.199
-351.508	137.778	-0.090	-0.117
-350.493	629.327	0.120	0.302
-349.479	-95.607	-0.115	0.031
-348.464	650.660	0.097	-0.247
-347.450	-200.000	-0.003	0.246
-346.435	-118.784	-0.142	0.025
-345.420	-50.654	-0.143	0.067
-344.406	-74.939	0.122	0.043
-343.391	341.001	-0.159	0.309
-342.377	-90.977	0.089	0.025
-341.362	-39.559	0.227	0.118
-340.348	507.309	-0.066	0.153
-339.333	51.890	0.293	-0.277
-338.318	-131.399	0.309	0.041
-337.304	7.821	-0.164	0.122
-336.289	32.014	-0.404	0.346
-335.275	116.251	-0.104	0.127
-334.260	-200.000	0.024	-0.258
-333.245	-135.030	0.183	0.022
-332.231	302.223	0.096	0.176
-331.216	5.098	0.136	-0.100
-330.202	121.709	-0.115	0.142
-329.187	475.563	-0.102	-0.228
-328.172	-200.000	-0.004	-0.058
-327.158	75.140	-0.071	0.074
-326.143	293.386	0.065	0.117
-325.129	-29.158	0.473	-0.270
-324.114	-200.000	0.009	0.086
-323.099	800.000	-0.050	-0.192
-322.085	130.963	-0.054	-0.068
-321.070	-200.000	0.001	-0.131
-320.056	-164.493	0.134	-0.006
-319.041	-16.836	0.203	-0.128
-318.026	709.927	-0.061	0.161
-317.012	800.000	0.065	0.238
-315.997	-42.203	0.306	-0.156
-314.983	11.017	0.124	-0.094
-313.968	-122.124	-0.222	-0.036
-312.953	-73.357	0.096	0.035
-311.939	-131.704	0.051	0.007
-310.924	405.273	-0.112	0.235
-309.910	103.415	-0.223	0.260
-308.895	-157.057	-0.160	0.010
-307.880	-188.006	0.171	-0.002
-306.866	4.477	0.301	0.219
-305.851	-141.653	0.167	0.017
-304.837	-200.000	-0.020	0.108
-303.822	-200.000	0.085	0.442
-302.807	-108.699	-0.360	0.077
-301.793	779.537	0.131	0.355
-300.778	-18.801	0.286	-0.177
-299.764	141.910	-0.154	-0.203
-298.749	-200.000	-0.019	-0.182
-297.735	-85.482	0.035	0.011
-296.720	-200.000	0.006	-0.151
-295.705	800.000	-0.063	0.232
-294.691	226.594	-0.143	0.230
-293.676	-80.647	0.233	-0.077
-292.662	-62.881	-0.331	0.136
-291.647	-140.723	-0.249	0.026
-290.632	-16.838	0.051	-0.032
-289.618	56.853	-0.104	-0.100
-288.603	-10.419	0.125	-0.082
-287.589	-200.000	0.030	0.163
-286.574	145.621	-0.080	0.106
-285.559	-200.000	0.010	0.070
-284.545	330.491	0.133	-0.254
-283.530	-200.000	-0.041	0.221
-282.516	172.342	-0.277	0.396
-281.501	-31.115	0.134	0.075
-280.486	299.655	0.083	0.152
-279.472	68.417	0.053	-0.054
-278.457	111.747	-0.055	0.066
-277.443	584.402	0.070	-0.170
-276.428	6.253	0.278	-0.204
-275.413	-102.332	0.316	0.075
-274.399	-155.393	-0.220	0.014
-273.384	255.829	-0.083	0.141
-272.370	-9.724	-0.236	-0.156
-271.355	73.849	-0.111	-0.115
-270.340	800.000	0.074	-0.213
-269.326	-133.261	0.244	0.031
-268.311	422.065	0.082	0.174
-267.297	-94.337	0.215	0.058
-266.282	1.853	-0.299	-0.214
-265.267	47.834	0.256	-0.237
-264.253	255.651	-0.096	0.163
-263.238	-109.582	0.223	0.047
-262.224	-200.000	0.021	-0.224
-261.209	-124.783	0.276	-0.042
-260.195	125.278	0.129	-0.161
-259.180	-148.898	0.062	0.005
-258.165	79.298	0.067	-0.071
-257.151	181.107	-0.322	-0.469
-256.136	4.705	0.035	0.025
-255.122	800.000	-0.058	-0.239
-254.107	-200.000	-0.039	-0.247
-253.092	62.124	0.292	-0.289
-252.078	13.235	-0.132	-0.101
-251.063	-40.923	0.105	0.054
-250.049	-200.000	0.055	-0.275
-249.034	40.544	0.188	0.168
-248.019	-200.000	0.042	-0.247
-247.005	206.802	0.116	-0.179
-245.990	-200.000	0.043	0.386
-244.976	-48.326	0.081	0.038
-243.961	-170.929	-0.085	0.003
-242.946	-75.310	0.377	-0.133
-241.932	148.204	0.173	0.231
-240.917	-71.753	-0.198	0.073
-239.903	332.099	-0.080	0.154
-238.888	75.569	-0.339	-0.355
-237.873	-55.088	-0.239	0.107
-236.859	730.328	0.068	0.180
-235.844	-66.809	0.268	0.105
-234.830	114.057	0.099	-0.120
-233.815	-2.496	-0.071	-0.049
-232.800	-137.338	-0.305	0.034
-231.786	800.000	0.079	0.228
-230.771	469.302	-0.052	0.116
-229.757	-104.423	0.147	-0.034
-228.742	-59.012	-0.165	-0.071
-227.727	-101.924	0.317	0.076
-226.713	-158.917	-0.163	-0.009
-225.698	758.208	-0.162	-0.435
-224.684	-15.591	0.350	-0.221
-223.669	-131.712	-0.126	0.016
-222.655	583.026	-0.081	0.196
-221.640	-40.610	-0.251	0.129
-220.625	-169.442	0.290	-0.010
-219.611	37.410	-0.268	-0.235
-218.596	665.731	0.021	0.055
-217.582	-49.915	0.077	0.036
-216.567	-97.809	-0.152	-0.039
-215.552	-29.884	0.226	0.127
-214.538	149.337	0.140	0.187
-213.523	0.074	0.056	-0.039
-212.509	-133.620	-0.124	0.015
-211.494	86.357	0.108	0.118
-210.479	104.020	0.081	-0.094
-209.465	456.296	0.120	0.264
-208.450	132.327	-0.048	0.061
-207.436	-200.000	0.031	-0.205
-206.421	-200.000	-0.009	-0.278
-205.406	385.987	0.074	0.151
-204.392	-200.000	-0.002	-0.026
-203.377	-149.235	-0.059	0.005
-202.363	-200.000	0.018	-0.279
-201.348	-194.512	0.289	0.002
-200.333	-5.538	-0.225	0.153
-199.319	514.538	-0.037	-0.086
-198.304	800.000	-0.065	0.229
-197.290	-95.512	0.323	-0.086
-196.275	-137.865	0.031	0.003
-195.260	26.822	0.186	0.154
-194.246	31.310	0.262	-0.222
-193.231	-113.277	0.196	-0.038
-192.217	-35.218	0.143	0.077
-191.202	-56.770	0.173	0.076
-190.187	-34.362	-0.179	-0.097
-189.173	800.000	-0.058	0.162
-188.158	191.011	-0.102	0.151
-187.144	95.187	0.046	-0.052
-186.129	3.577	0.156	-0.113
-185.114	-200.000	0.023	-0.144
-184.100	-51.352	-0.203	-0.094
-183.085	464.522	0.025	-0.056
-182.071	144.260	0.060	0.079
-181.056	800.000	0.041	-0.161
-180.042	-160.776	-0.152	-0.008
-179.027	121.962	-0.123	-0.152
-178.012	-56.775	-0.284	0.124
-176.998	292.844	-0.042	0.075
-175.983	-102.455	-0.259	0.061
-174.969	-58.902	-0.114	-0.049
-173.954	3.121	0.339	0.244
-172.939	33.380	0.118	0.101
-171.925	164.415	0.082	-0.114
-170.910	-200.000	0.013	-0.131
-169.896	-109.264	0.448	-0.094
-168.881	98.586	0.160	0.182
-167.866	-46.148	0.126	0.061
-166.852	91.826	-0.088	-0.098
-165.837	-200.000	-0.016	-0.188
-164.823	-200.000	-0.048	0.220
-163.808	267.720	0.046	-0.080
-162.793	92.837	-0.179	0.199
-161.779	-200.000	-0.048	0.255
-160.764	-200.000	-0.012	0.220
-159.750	-200.000	-0.035	0.166
-158.735	-37.319	0.308	0.162
-157.720	-143.243	-0.261	-0.025
-156.706	-15.668	0.034	-0.022
-155.691	-186.584	0.104	-0.001
-154.677	417.362	0.110	-0.231
-153.662	800.000	0.073	0.290
-152.647	800.000	-0.092	-0.273
-151.633	327.070	-0.102	-0.193
-150.618	-200.000	-0.005	0.033
-149.604	-200.000	-0.035	-0.162
-148.589	215.954	-0.067	0.104
-147.574	-104.279	0.232	-0.053
-146.560	30.353	-0.250	0.210
-145.545	-108.508	0.619	-0.131
-144.531	364.681	0.067	0.133
-143.516	240.656	0.035	-0.058
-142.502	207.446	0.198	-0.304
-141.487	-200.000	-0.027	0.218
-140.472	-200.000	0.016	-0.196
-139.458	-200.000	0.024	-0.411
-138.443	3.104	-0.225	-0.161
-137.429	-68.677	0.405	-0.155
-136.414	35.962	-0.052	0.045
-135.399	13.008	0.194	0.148
-134.385	-200.000	0.000	0.059
-133.370	-141.599	-0.053	0.005
-132.356	-67.092	0.207	0.081
-131.341	107.946	-0.179	-0.211
-130.326	-200.000	-0.022	0.139
-129.312	101.210	0.172	0.197
-128.297	261.542	0.058	0.098
-127.283	-114.925	0.135	-0.025
-126.268	-200.000	0.022	0.245
-125.253	-70.590	0.245	0.091
-124.239	800.000	-0.079	-0.297
-123.224	56.230	0.268	0.257
-122.210	800.000	-0.013	-0.048
-121.195	236.341	-0.057	-0.093
