DTS Sentinel unit serial number:	SN413079Multiplexer serial number:	ORYXHardware model number:	OX4-SRSoftware version number:	ORYX F/W v4.00 Oryx Data Collector v3.7.2.0data status	okinstallation	princeton_trtdifferential loss correction	single-endedforward channel	channel 2reverse channel	N/Adate	2019/09/13time	12:59:35forward acquisition time	60.00reverse acquisition time	0.00gamma	496.2192k internal	0.2315k external	0.2315temperature offset calibration	1.0211default loss term (dB/km)	0.3790temperature slope calibration	1.0000multiplexer offset coefficient	1.0000multiplexer slope coefficient	1.0000fibre end	0.00T internal ref (°C)	34.80T ext. ref 1 (°C)	4.58T ext. ref 2 (°C)	30.91length (m)	temperature (°C)	Stokes	anti-Stokes-747.200	-63.296	-0.140	-0.058
-746.185	46.440	-0.178	0.167
-745.171	800.000	0.045	-0.140
-744.156	800.000	0.074	0.288
-743.142	-102.207	-0.135	0.033
-742.127	800.000	-0.052	0.151
-741.112	-155.056	-0.337	-0.022
-740.098	193.677	0.216	0.331
-739.083	-93.544	-0.249	-0.070
-738.069	151.976	0.075	-0.104
-737.054	3.011	0.127	-0.094
-736.039	161.527	0.136	-0.192
-735.025	800.000	0.141	0.408
-734.010	26.559	-0.075	0.063
-732.996	-110.772	-0.285	0.060
-731.981	-33.849	0.372	-0.208
-730.966	751.955	0.050	-0.135
-729.952	198.090	-0.080	-0.124
-728.937	119.545	-0.124	0.155
-727.923	39.668	-0.256	-0.232
-726.908	536.697	-0.035	0.085
-725.894	177.112	-0.186	-0.274
-724.879	-27.925	-0.135	0.079
-723.864	-72.234	0.055	0.021
-722.850	-200.000	-0.005	0.172
-721.835	-102.396	0.167	-0.041
-720.821	-12.268	-0.270	0.179
-719.806	451.958	-0.054	0.120
-718.791	-53.392	-0.279	0.129
-717.777	-200.000	-0.021	-0.357
-716.762	-55.521	0.128	-0.058
-715.748	-200.000	-0.047	-0.336
-714.733	-28.073	0.180	0.105
-713.718	476.763	-0.106	-0.242
-712.704	74.332	0.203	-0.216
-711.689	-200.000	-0.004	-0.222
-710.675	511.552	-0.094	-0.222
-709.660	-92.608	0.314	0.089
-708.645	-137.541	0.285	0.032
-707.631	-200.000	0.014	-0.244
-706.616	800.000	0.040	-0.172
-705.602	323.022	-0.059	0.113
-704.587	-143.866	0.269	-0.026
-703.572	132.352	-0.104	-0.136
-702.558	31.526	0.090	-0.078
-701.543	135.595	-0.290	0.382
-700.529	-85.715	-0.090	-0.028
-699.514	29.554	0.041	-0.036
-698.499	175.397	-0.153	0.224
-697.485	-200.000	-0.034	-0.210
-696.470	-120.303	-0.178	-0.031
-695.456	330.716	0.177	-0.345
-694.441	140.550	-0.059	-0.079
-693.426	225.405	0.151	0.247
-692.412	-200.000	0.040	-0.195
-691.397	800.000	-0.071	-0.212
-690.383	535.869	-0.142	0.342
-689.368	-5.014	0.023	-0.016
-688.354	-79.735	-0.245	-0.083
-687.339	-200.000	-0.012	0.132
-686.324	-160.067	-0.151	0.008
-685.310	43.711	-0.182	0.169
-684.295	-45.386	-0.160	-0.080
-683.281	-134.267	0.142	-0.018
-682.266	-34.434	-0.110	-0.061
-681.251	-65.230	0.407	-0.166
-680.237	-127.579	-0.310	-0.045
-679.222	-200.000	-0.014	0.130
-678.208	-200.000	0.030	0.159
-677.193	-122.895	-0.277	-0.045
-676.178	34.518	-0.194	-0.172
-675.164	14.426	-0.166	-0.131
-674.149	-95.257	-0.125	-0.034
-673.135	438.170	0.195	0.431
-672.120	238.471	0.163	-0.273
-671.105	-62.234	-0.233	0.098
-670.091	-14.611	-0.199	0.129
-669.076	-94.730	-0.083	-0.023
-668.062	47.162	0.037	0.035
-667.047	28.194	-0.140	0.120
-666.032	147.784	-0.097	-0.132
-665.018	144.426	-0.086	-0.116
-664.003	484.457	-0.120	0.275
-662.989	344.883	-0.005	-0.010
-661.974	589.891	-0.159	0.395
-660.959	26.992	-0.255	0.216
-659.945	786.556	0.033	-0.093
-658.930	-200.000	-0.192	0.001
-657.916	5.261	-0.173	-0.129
-656.901	102.320	-0.173	-0.204
-655.886	89.625	-0.272	0.306
-654.872	800.000	0.034	-0.137
-653.857	-187.547	-0.145	0.002
-652.843	-52.286	0.086	0.040
-651.828	124.157	0.249	-0.315
-650.814	-79.175	-0.386	0.132
-649.799	-200.000	0.018	-0.088
-648.784	133.847	-0.062	0.081
-647.770	53.027	0.167	-0.162
-646.755	-131.416	-0.240	0.032
-645.741	236.489	0.182	-0.304
-644.726	-22.896	-0.380	-0.232
-643.711	-200.000	-0.007	-0.219
-642.697	-44.687	-0.085	-0.043
-641.682	-159.087	0.320	0.018
-640.668	-200.000	0.005	-0.232
-639.653	-32.129	0.148	-0.084
-638.638	-10.424	0.115	-0.077
-637.624	-171.540	-0.364	0.012
-636.609	348.446	-0.033	0.066
-635.595	296.028	0.127	-0.235
-634.580	-200.000	-0.030	-0.559
-633.565	167.841	0.066	-0.094
-632.551	-116.235	-0.254	0.047
-631.536	18.140	-0.186	-0.150
-630.522	-67.326	-0.146	0.058
-629.507	-72.778	0.242	0.090
-628.492	-31.467	0.194	-0.110
-627.478	-59.333	-0.178	0.077
-626.463	-200.000	-0.024	0.139
-625.449	-30.831	-0.052	-0.029
-624.434	378.576	0.036	-0.073
-623.419	-47.181	-0.194	-0.096
-622.405	594.329	0.050	-0.125
-621.390	-200.000	-0.002	-0.018
-620.376	48.169	0.135	-0.128
-619.361	-57.901	-0.373	0.164
-618.346	-19.328	0.150	0.094
-617.332	-200.000	-0.019	-0.369
-616.317	-14.354	-0.211	0.137
-615.303	800.000	-0.074	0.292
-614.288	319.835	0.149	0.285
-613.273	-200.000	-0.062	0.346
-612.259	800.000	0.063	0.181
-611.244	25.511	0.254	-0.213
-610.230	33.639	0.200	-0.175
-609.215	196.829	-0.093	0.143
-608.201	154.998	-0.070	0.097
-607.186	-109.035	0.256	-0.055
-606.171	-200.000	-0.220	-0.001
-605.157	-132.039	-0.311	-0.041
-604.142	-200.000	0.045	-0.220
-603.128	-49.762	0.316	0.151
-602.113	-144.819	-0.368	0.034
-601.098	208.923	-0.022	0.035
-600.084	-58.280	-0.467	-0.205
-599.069	-198.706	-0.260	-0.001
-598.055	-200.000	0.028	0.326
-597.040	-200.000	-0.020	-0.141
-596.025	259.352	0.171	0.297
-595.011	-52.441	0.170	0.079
-593.996	10.780	0.281	0.216
-592.982	800.000	0.138	0.391
-591.967	92.223	0.054	-0.061
-590.952	-13.856	-0.174	-0.113
-589.938	258.226	-0.175	-0.303
-588.923	-200.000	-0.108	-0.477
-587.909	476.305	0.119	-0.272
-586.894	696.465	0.093	-0.246
-585.879	-38.525	-0.304	-0.162
-584.865	-140.530	0.628	0.066
-583.850	3.558	0.244	-0.179
-582.836	-200.000	-0.004	0.343
-581.821	-68.569	0.197	0.077
-580.806	-152.583	0.149	0.011
-579.792	-147.603	-0.228	0.019
-578.777	-94.128	-0.174	0.048
-577.763	194.835	0.142	0.217
-576.748	-58.367	0.040	0.018
-575.733	26.496	-0.270	-0.227
-574.719	75.920	0.112	-0.119
-573.704	80.714	0.021	-0.023
-572.690	-79.653	0.322	-0.109
-571.675	220.072	-0.273	-0.440
-570.661	-175.459	-0.053	-0.001
-569.646	-119.590	0.333	0.058
-568.631	-200.000	0.044	0.239
-567.617	84.004	-0.010	0.011
-566.602	705.031	-0.070	-0.185
-565.588	-91.754	-0.136	-0.039
-564.573	-27.539	-0.191	-0.112
-563.558	108.441	-0.173	0.207
-562.544	66.466	0.182	-0.186
-561.529	-200.000	0.033	0.227
-560.515	12.328	0.275	-0.213
-559.500	-200.000	-0.003	-0.166
-558.485	-106.598	-0.391	0.088
-557.471	-182.177	-0.119	0.002
-556.456	-165.955	0.330	-0.014
-555.442	-35.548	0.100	-0.055
-554.427	151.312	0.062	-0.085
-553.412	-86.055	0.027	0.008
-552.398	232.069	-0.196	-0.324
-551.383	-33.379	0.200	0.111
-550.369	-11.278	-0.199	0.132
-549.354	-126.239	-0.149	-0.022
-548.339	800.000	-0.082	-0.303
-547.325	-69.714	0.141	0.054
-546.310	32.689	0.230	-0.200
-545.296	-23.222	-0.160	-0.097
-544.281	305.487	0.112	-0.210
-543.266	181.335	-0.083	0.123
-542.252	128.993	-0.265	0.340
-541.237	784.279	0.044	-0.121
-540.223	-137.622	0.077	-0.009
-539.208	319.305	-0.163	0.310
-538.193	163.424	0.057	0.080
-537.179	-13.033	0.251	0.164
-536.164	-200.000	-0.014	0.177
-535.150	190.723	-0.162	0.245
-534.135	27.614	0.229	-0.194
-533.121	192.693	0.080	0.121
-532.106	405.239	-0.147	0.311
-531.091	237.797	-0.177	0.296
-530.077	800.000	0.136	0.427
-529.062	-200.000	0.002	0.210
-528.048	-61.791	-0.169	-0.071
-527.033	164.919	0.040	-0.057
-526.018	40.516	0.250	-0.226
-525.004	-60.204	0.178	-0.076
-523.989	38.362	-0.200	0.179
-522.975	226.950	-0.123	-0.200
-521.960	364.306	-0.152	-0.308
-520.945	324.455	0.136	-0.260
-519.931	181.027	-0.119	-0.175
-518.916	159.359	0.087	-0.122
-517.902	-22.272	0.533	-0.325
-516.887	-10.819	0.101	-0.067
-515.872	749.504	0.024	-0.064
-514.858	-90.085	0.208	-0.061
-513.843	-200.000	-0.009	0.044
-512.829	-84.690	-0.267	0.084
-511.814	657.796	-0.112	-0.290
-510.799	37.404	0.071	-0.064
-509.785	231.590	0.063	-0.103
-508.770	630.523	-0.038	-0.096
-507.756	-89.154	0.299	-0.089
-506.741	-200.000	0.020	-0.141
-505.726	-198.757	-0.296	0.002
-504.712	487.001	-0.062	0.143
-503.697	335.487	-0.090	0.174
-502.683	-55.448	0.305	0.137
-501.668	277.989	0.069	-0.123
-500.653	-94.468	-0.300	-0.082
-499.639	15.413	0.157	0.124
-498.624	3.366	0.296	-0.216
-497.610	800.000	0.048	0.159
-496.595	99.144	-0.292	-0.339
-495.581	76.338	-0.144	-0.153
-494.566	-200.000	0.074	-0.328
-493.551	-101.820	-0.233	0.057
-492.537	-91.135	0.351	-0.101
-491.522	-40.794	-0.306	0.159
-490.508	84.167	-0.154	0.169
-489.493	-12.795	-0.377	-0.246
-488.478	46.992	0.112	0.104
-487.464	6.421	0.133	0.099
-486.449	58.617	-0.286	0.281
-485.435	-11.558	0.073	-0.048
-484.420	-158.478	0.158	-0.009
-483.405	82.555	0.138	-0.150
-482.391	-200.000	-0.025	-0.320
-481.376	-87.369	-0.166	0.050
-480.362	-144.877	0.129	-0.012
-479.347	-87.679	-0.258	0.078
-478.332	150.040	-0.211	0.287
-477.318	223.967	-0.120	-0.195
-476.303	-11.087	0.281	-0.186
-475.289	800.000	0.049	0.205
-474.274	232.254	0.041	0.068
-473.259	800.000	-0.064	-0.180
-472.245	624.642	0.164	-0.414
-471.230	-141.355	0.271	0.028
-470.216	136.981	-0.214	-0.280
-469.201	-200.000	-0.009	-0.155
-468.186	-124.453	-0.365	0.057
-467.172	-123.868	0.391	-0.062
-466.157	-134.540	0.435	0.053
-465.143	4.240	-0.090	-0.066
-464.128	-200.000	0.044	-0.423
-463.113	-41.948	0.241	-0.124
-462.099	794.741	0.083	0.228
-461.084	-160.899	0.054	0.003
-460.070	325.420	-0.048	0.093
-459.055	-44.250	-0.076	0.038
-458.040	83.697	0.177	-0.194
-457.026	-94.603	0.161	-0.044
-456.011	90.506	-0.132	-0.149
-454.997	-200.000	-0.016	0.140
-453.982	-200.000	-0.024	0.109
-452.968	-9.554	-0.199	0.133
-451.953	89.161	0.017	-0.019
-450.938	-200.000	0.040	-0.340
-449.924	-96.702	0.399	0.105
-448.909	-107.416	0.070	0.015
-447.895	-124.817	0.196	0.030
-446.880	-50.936	-0.430	0.202
-445.865	-200.000	0.093	0.451
-444.851	-124.600	0.362	0.056
-443.836	-141.997	-0.397	0.040
-442.822	68.993	-0.165	-0.169
-441.807	-200.000	0.040	-0.290
-440.792	50.709	-0.275	0.261
-439.778	-200.000	-0.001	-0.291
-438.763	-200.000	0.020	-0.102
-437.749	67.140	0.195	-0.199
-436.734	-181.082	-0.082	0.002
-435.719	-86.163	-0.241	-0.074
-434.705	282.297	-0.212	0.381
-433.690	142.845	-0.112	-0.148
-432.676	22.851	-0.182	-0.150
-431.661	-61.857	0.117	0.049
-430.646	2.897	0.332	-0.241
-429.632	-135.804	0.146	-0.017
-428.617	579.174	-0.119	-0.291
-427.603	379.053	0.216	-0.442
-426.588	328.989	-0.146	-0.282
-425.573	800.000	-0.018	-0.069
-424.559	130.350	-0.153	-0.196
-423.544	-200.000	0.028	-0.147
-422.530	-110.447	-0.266	-0.055
-421.515	-89.730	-0.267	-0.078
-420.500	-76.104	-0.185	-0.065
-419.486	468.780	0.100	0.224
-418.471	-86.306	-0.345	0.106
-417.457	118.677	-0.232	-0.287
-416.442	33.280	0.204	-0.177
-415.428	-200.000	0.051	-0.255
-414.413	-131.516	-0.399	0.053
-413.398	216.777	0.044	0.071
-412.384	-200.000	-0.028	0.143
-411.369	-200.000	-0.019	0.183
-410.355	93.538	-0.116	0.131
-409.340	-47.005	-0.479	-0.234
-408.325	36.207	0.148	0.131
-407.311	91.029	0.046	-0.052
-406.296	-82.445	0.281	0.091
-405.282	-200.000	0.003	-0.071
-404.267	147.512	0.107	-0.144
-403.252	-200.000	0.012	-0.191
-402.238	16.754	0.087	-0.069
-401.223	-142.642	-0.179	-0.017
-400.209	800.000	0.108	-0.361
-399.194	38.228	0.260	-0.231
-398.179	-40.136	0.159	-0.083
-397.165	97.841	0.318	0.366
-396.150	-200.000	0.006	0.405
-395.136	98.057	0.150	-0.172
-394.121	734.459	0.129	0.345
-393.106	3.553	0.052	0.038
-392.092	-139.688	0.414	-0.044
-391.077	800.000	0.053	-0.208
-390.063	-104.823	-0.214	-0.049
-389.048	800.000	0.032	0.100
-388.033	-156.633	0.143	-0.009
-387.019	-111.974	0.142	0.029
-386.004	-200.000	-0.035	0.160
-384.990	-200.000	0.010	0.539
-383.975	-34.039	-0.133	-0.073
-382.960	175.304	0.074	0.107
-381.946	432.831	0.098	-0.212
-380.931	800.000	-0.028	-0.111
-379.917	-200.000	-0.008	0.176
-378.902	193.728	0.039	-0.059
-377.888	800.000	0.057	0.248
-376.873	45.695	-0.134	-0.123
-375.858	800.000	0.054	0.184
-374.844	9.334	0.160	0.121
-373.829	-137.986	0.353	0.039
-372.815	-200.000	-0.004	0.117
-371.800	81.803	0.157	0.170
-370.785	-97.273	0.088	0.023
-369.771	-35.146	0.240	0.130
-368.756	87.028	-0.057	0.063
-367.742	132.340	0.111	0.142
-366.727	-135.098	-0.193	0.023
-365.712	351.642	0.047	0.092
-364.698	-38.200	-0.170	0.090
-363.683	-182.042	-0.323	0.006
-362.669	12.820	-0.216	-0.167
-361.654	-63.684	0.078	0.032
-360.639	486.670	0.046	-0.104
-359.625	305.907	-0.091	0.169
-358.610	-200.000	-0.004	-0.052
-357.596	161.511	0.293	0.410
-356.581	-68.416	-0.333	0.129
-355.566	-200.000	-0.014	-0.397
-354.552	800.000	0.115	0.422
-353.537	9.310	0.318	0.240
-352.523	-107.891	0.392	0.085
-351.508	-200.000	-0.031	-0.156
-350.493	-121.780	0.288	-0.047
-349.479	-144.005	-0.212	0.020
-348.464	-103.384	-0.255	-0.060
-347.450	18.983	0.099	0.079
-346.435	136.969	0.170	0.222
-345.420	-200.000	-0.052	0.237
-344.406	8.636	0.190	0.143
-343.391	18.457	-0.006	0.005
-342.377	-83.778	-0.119	0.038
-341.362	180.736	-0.088	0.129
-340.348	-150.623	0.084	0.006
-339.333	-200.000	0.041	-0.324
-338.318	-116.703	-0.100	0.018
-337.304	-134.283	0.398	0.049
-336.289	-200.000	-0.009	0.245
-335.275	-200.000	0.038	-0.235
-334.260	309.188	-0.106	0.197
-333.245	-103.214	0.084	-0.020
-332.231	698.299	-0.095	0.249
-331.216	-47.018	-0.124	-0.060
-330.202	-58.635	-0.223	-0.096
-329.187	-139.999	-0.265	-0.028
-328.172	146.495	-0.175	0.235
-327.158	-133.772	0.163	-0.020
-326.143	-200.000	0.004	0.144
-325.129	-56.709	0.276	-0.122
-324.114	135.744	0.067	0.088
-323.099	800.000	-0.046	-0.141
-322.085	12.353	0.144	-0.111
-321.070	-115.021	-0.191	-0.036
-320.056	-36.086	0.185	-0.100
-319.041	85.919	-0.282	0.309
-318.026	-32.066	-0.274	-0.153
-317.012	-200.000	-0.032	0.161
-315.997	-142.180	-0.248	0.024
-314.983	321.724	-0.041	-0.078
-313.968	-56.359	-0.194	-0.086
-312.953	-101.020	0.366	0.089
-311.939	120.587	-0.027	-0.033
-310.924	-200.000	0.012	0.122
-309.910	-200.000	-0.043	0.302
-308.895	-200.000	-0.001	-0.084
-307.880	-152.555	0.242	0.017
-306.866	-95.084	0.388	-0.104
-305.851	-200.000	0.011	-0.076
-304.837	-14.761	0.155	0.099
-303.822	202.141	-0.046	0.071
-302.807	44.574	-0.213	-0.195
-301.793	19.768	0.262	0.210
-300.778	-200.000	0.012	0.295
-299.764	27.476	-0.187	0.157
-298.749	249.117	0.071	0.120
-297.735	-66.585	-0.117	-0.046
-296.720	-200.000	0.036	-0.328
-295.705	-200.000	-0.022	-0.139
-294.691	-137.006	-0.331	0.038
-293.676	548.661	0.084	-0.201
-292.662	476.281	-0.191	0.430
-291.647	-73.076	0.238	0.087
-290.632	-18.180	-0.133	-0.083
-289.618	734.269	-0.098	0.262
-288.603	800.000	0.044	0.191
-287.589	-29.775	0.137	-0.078
-286.574	-28.380	0.210	-0.121
-285.559	-26.851	-0.140	-0.082
-284.545	-21.465	-0.196	0.119
-283.530	-200.000	-0.058	0.377
-282.516	405.779	-0.107	0.224
-281.501	98.864	0.010	0.012
-280.486	-71.131	0.139	0.052
-279.472	3.750	0.199	-0.145
-278.457	-200.000	-0.028	-0.230
-277.443	-200.000	0.041	0.208
-276.428	82.686	0.084	0.091
-275.413	800.000	-0.034	0.099
-274.399	-200.000	0.001	0.096
-273.384	-86.722	-0.307	0.093
-272.370	615.490	-0.032	0.081
-271.355	72.364	-0.142	0.147
-270.340	117.651	-0.050	-0.061
-269.326	0.325	-0.144	-0.102
-268.311	-200.000	-0.013	-0.131
-267.297	745.605	-0.050	-0.134
-266.282	-43.948	0.314	0.157
-265.267	197.503	-0.121	0.184
-264.253	519.728	-0.052	0.121
-263.238	24.340	0.283	0.232
-262.224	-20.490	-0.154	0.094
-261.209	53.995	0.180	0.172
-260.195	97.304	-0.168	0.192
-259.180	-200.000	0.020	-0.286
-258.165	-80.467	-0.034	-0.011
-257.151	-114.303	-0.224	0.043
-256.136	116.705	0.232	0.283
-255.122	83.022	0.172	0.186
-254.107	77.720	0.098	0.104
-253.092	31.676	-0.356	0.305
-252.078	-109.942	-0.125	0.026
-251.063	-85.650	-0.347	-0.107
-250.049	-156.672	0.166	-0.010
-249.034	800.000	-0.105	-0.319
-248.019	-6.198	-0.276	0.187
-247.005	-163.802	-0.086	0.004
-245.990	13.844	-0.149	0.115
-244.976	523.916	-0.107	0.250
-243.961	-136.856	0.213	0.024
-242.946	-39.118	-0.197	-0.103
-241.932	-152.607	-0.081	-0.006
-240.917	800.000	-0.011	-0.029
-239.903	152.932	-0.234	0.318
-238.888	-21.427	-0.158	0.096
-237.873	194.741	0.023	-0.034
-236.859	461.357	0.150	-0.332
-235.844	519.475	-0.074	0.172
-234.830	-166.900	-0.603	-0.025
-233.815	-62.900	0.175	-0.072
-232.800	1.169	0.139	0.099
-231.786	300.619	-0.109	-0.199
-230.771	44.046	0.164	-0.149
-229.757	800.000	0.063	-0.197
-228.742	-200.000	-0.021	-0.339
-227.727	-200.000	-0.023	0.107
-226.713	-29.954	0.185	0.105
-225.698	202.197	0.061	-0.094
-224.684	-200.000	0.055	0.282
-223.669	-36.042	-0.193	-0.103
-222.655	-200.000	-0.001	-0.158
-221.640	-126.400	-0.271	-0.040
-220.625	141.356	0.258	0.339
-219.611	-112.425	0.180	0.036
-218.596	202.852	0.118	-0.181
-217.582	-93.298	-0.284	0.078
-216.567	-131.109	0.395	-0.052
-215.552	45.320	-0.059	0.054
-214.538	-139.173	0.141	0.015
-213.523	384.232	0.134	0.273
-212.509	97.501	-0.282	0.321
-211.494	746.750	-0.064	-0.170
-210.479	151.220	0.201	0.272
-209.465	-161.384	0.214	-0.011
-208.450	-74.169	0.266	-0.096
-207.436	153.430	0.148	-0.200
-206.421	172.224	0.135	-0.193
-205.406	800.000	-0.056	0.177
-204.392	-42.848	0.184	-0.093
-203.377	331.085	0.144	0.275
-202.363	-105.233	-0.246	-0.056
-201.348	-7.544	0.217	-0.146
-200.333	-172.450	0.448	0.014
-199.319	-200.000	0.009	-0.110
-198.304	11.178	0.157	0.119
-197.290	181.178	0.238	0.347
-196.275	-70.957	0.329	0.123
-195.260	239.525	-0.051	-0.084
-194.246	800.000	-0.054	0.186
-193.231	800.000	-0.076	0.239
-192.217	-129.591	-0.120	0.016
-191.202	731.076	0.077	-0.203
-190.187	-1.193	-0.111	-0.078
-189.173	-99.628	-0.141	-0.035
-188.158	213.148	0.111	0.175
-187.144	-200.000	-0.006	-0.079
-186.129	-116.395	0.492	-0.090
-185.114	-58.835	-0.277	0.119
-184.100	-5.967	-0.074	0.050
-183.085	-24.177	0.242	-0.143
-182.071	-200.000	0.004	-0.110
-181.056	800.000	-0.085	-0.316
-180.042	-34.392	0.254	0.138
-179.027	-200.000	-0.005	-0.067
-178.012	800.000	0.048	-0.194
-176.998	98.736	-0.240	-0.274
-175.983	0.780	-0.129	0.092
-174.969	-119.661	-0.129	0.022
-173.954	-103.361	0.125	-0.029
-172.939	14.338	-0.070	0.054
-171.925	239.490	-0.094	0.156
-170.910	-145.675	-0.159	-0.014
-169.896	293.526	-0.067	0.121
-168.881	441.142	-0.046	-0.101
-167.866	-72.440	0.039	0.014
-166.852	-109.179	-0.182	-0.038
-165.837	76.810	-0.019	-0.020
-164.823	-72.008	-0.304	0.112
-163.808	-200.000	-0.039	-0.189
-162.793	-127.515	0.273	-0.039
-161.779	-99.362	-0.101	-0.025
-160.764	-29.744	-0.076	-0.043
-159.750	204.632	-0.130	-0.200
-158.735	82.122	-0.166	0.178
-157.720	-200.000	0.032	0.239
-156.706	-101.898	0.113	-0.027
-155.691	-124.523	-0.070	0.011
-154.677	149.454	0.090	0.120
-153.662	-114.390	-0.179	0.034
-152.647	-21.975	-0.394	0.237
-151.633	-124.771	-0.109	-0.017
-150.618	-200.000	-0.047	-0.276
-149.604	137.317	0.114	0.147
-148.589	-128.581	0.203	-0.028
-147.574	800.000	-0.034	0.097
-146.560	-49.436	0.197	-0.093
-145.545	-52.941	-0.332	0.151
-144.531	-117.172	0.116	-0.021
-143.516	25.359	0.118	0.097
-142.502	160.354	-0.169	0.234
-141.487	254.236	0.113	0.191
-140.472	336.184	0.110	0.212
-139.458	539.135	0.068	0.159
-138.443	-13.030	-0.109	-0.070
-137.429	-200.000	0.023	-0.159
-136.414	-134.352	-0.150	-0.018
-135.399	800.000	0.107	-0.405
-134.385	184.019	-0.086	-0.126
-133.370	377.551	-0.099	0.201
-132.356	-27.751	0.340	0.195
-131.341	-200.000	0.019	0.158
-130.326	73.547	0.143	-0.148
-129.312	-200.000	0.026	-0.386
-128.297	86.519	0.353	-0.385
-127.283	-134.795	-0.123	0.015
-126.268	-8.533	-0.022	-0.015
-125.253	-21.831	-0.130	0.078
-124.239	84.373	-0.137	0.148
-123.224	-58.629	0.089	0.038
-122.210	252.480	-0.144	-0.243
