DTS Sentinel unit serial number:	SN413079Multiplexer serial number:	ORYXHardware model number:	OX4-SRSoftware version number:	ORYX F/W v4.00 Oryx Data Collector v3.7.2.0data status	okinstallation	princeton_trtdifferential loss correction	single-endedforward channel	channel 2reverse channel	N/Adate	2019/09/16time	13:27:35forward acquisition time	60.00reverse acquisition time	0.00gamma	496.2192k internal	0.2297k external	0.2297temperature offset calibration	0.9938default loss term (dB/km)	0.3790temperature slope calibration	1.0000multiplexer offset coefficient	1.0000multiplexer slope coefficient	1.0000fibre end	0.00T internal ref (°C)	41.62T ext. ref 1 (°C)	13.79T ext. ref 2 (°C)	39.51length (m)	temperature (°C)	Stokes	anti-Stokes-747.200	800.000	0.019	0.056
-746.185	57.800	-0.154	-0.154
-745.171	800.000	-0.058	-0.208
-744.156	681.359	0.082	0.219
-743.142	800.000	0.014	-0.054
-742.127	-94.393	-0.020	-0.006
-741.112	416.046	-0.043	0.093
-740.098	29.890	0.012	-0.011
-739.083	33.560	0.274	-0.243
-738.069	-200.000	-0.005	-0.031
-737.054	77.897	0.133	-0.144
-736.039	-200.000	-0.000	-0.086
-735.025	-16.834	0.077	-0.050
-734.010	375.245	-0.161	-0.334
-732.996	-200.000	0.000	-0.015
-731.981	-73.295	0.125	-0.047
-730.966	-95.939	0.467	-0.127
-729.952	-200.000	0.039	0.200
-728.937	-200.000	-0.022	-0.121
-727.923	112.141	-0.154	-0.190
-726.908	-158.032	0.112	0.007
-725.894	-96.332	-0.201	-0.054
-724.879	-78.025	-0.087	-0.031
-723.864	-200.000	0.059	-0.355
-722.850	162.291	0.167	0.239
-721.835	-137.512	-0.206	0.024
-720.821	-200.000	0.011	0.162
-719.806	30.380	-0.259	0.226
-718.791	165.868	-0.031	-0.044
-717.777	-159.429	0.716	-0.041
-716.762	-137.990	-0.356	0.041
-715.748	204.147	0.165	-0.261
-714.733	-45.360	-0.301	0.152
-713.718	-200.000	0.059	0.439
-712.704	133.714	0.141	-0.186
-711.689	218.391	-0.090	-0.147
-710.675	-200.000	-0.001	-0.231
-709.660	26.854	0.152	0.130
-708.645	800.000	0.093	0.270
-707.631	42.902	-0.188	0.175
-706.616	-130.256	0.274	0.038
-705.602	-50.589	-0.092	0.044
-704.587	-59.435	0.063	-0.027
-703.572	353.910	-0.111	-0.225
-702.558	48.278	-0.231	0.220
-701.543	-162.712	0.176	0.009
-700.529	-94.331	-0.287	0.080
-699.514	112.796	0.110	-0.136
-698.499	171.424	0.052	0.077
-697.485	-72.627	-0.062	0.023
-696.470	-13.992	-0.186	0.123
-695.456	413.648	0.051	-0.112
-694.441	163.569	-0.122	-0.174
-693.426	-31.102	-0.135	-0.077
-692.412	-25.563	-0.211	0.127
-691.397	15.438	0.257	0.206
-690.383	-63.771	0.144	0.060
-689.368	-145.485	0.228	-0.021
-688.354	-112.087	0.574	0.118
-687.339	-176.497	0.159	0.004
-686.324	-200.000	0.002	-0.339
-685.310	148.261	-0.191	0.263
-684.295	800.000	0.063	0.185
-683.281	55.153	-0.061	0.060
-682.266	-136.893	-0.436	0.051
-681.251	-99.536	0.298	0.076
-680.237	-65.708	0.255	-0.104
-679.222	-200.000	-0.015	-0.085
-678.208	-57.410	0.239	-0.107
-677.193	654.315	0.149	-0.389
-676.178	-163.930	0.253	0.012
-675.164	9.210	-0.345	-0.266
-674.149	7.116	-0.228	-0.173
-673.135	307.899	0.074	0.141
-672.120	-32.465	-0.341	0.194
-671.105	800.000	-0.082	-0.329
-670.091	-200.000	-0.025	-0.201
-669.076	-21.768	0.119	-0.074
-668.062	-75.605	-0.125	0.045
-667.047	765.863	0.078	-0.216
-666.032	-200.000	0.039	0.298
-665.018	-200.000	0.015	0.205
-664.003	-31.157	-0.217	-0.124
-662.989	-154.609	0.195	0.013
-661.974	379.188	0.087	0.181
-660.959	111.285	-0.018	-0.022
-659.945	241.776	-0.145	-0.247
-658.930	-60.620	0.113	0.049
-657.916	800.000	0.117	0.422
-656.901	-200.000	-0.013	0.275
-655.886	-89.104	0.383	-0.115
-654.872	-148.552	-0.143	0.012
-653.857	-158.961	-0.154	-0.009
-652.843	-17.111	-0.017	-0.011
-651.828	493.613	-0.129	-0.301
-650.814	-35.943	-0.373	-0.205
-649.799	800.000	-0.044	-0.185
-648.784	-128.781	0.329	0.047
-647.770	-49.632	-0.445	-0.216
-646.755	123.782	-0.204	-0.261
-645.741	-37.640	0.164	-0.089
-644.726	-34.955	0.140	-0.078
-643.711	703.275	0.109	0.293
-642.697	-43.119	-0.124	0.064
-641.682	-5.150	0.131	-0.092
-640.668	165.058	-0.224	-0.322
-639.653	117.646	0.249	0.311
-638.638	234.225	-0.087	0.146
-637.624	25.298	0.315	0.266
-636.609	-128.795	-0.225	0.032
-635.595	143.137	0.107	-0.144
-634.580	287.076	-0.060	-0.109
-633.565	-140.917	-0.364	-0.038
-632.551	0.032	-0.098	0.071
-631.536	800.000	-0.032	0.139
-630.522	-172.034	-0.111	-0.004
-629.507	-77.332	-0.158	-0.056
-628.492	-131.326	-0.383	0.052
-627.478	-2.530	0.286	-0.204
-626.463	198.184	-0.407	-0.633
-625.449	612.029	0.035	-0.088
-624.434	-15.788	0.245	0.159
-623.419	800.000	-0.077	0.284
-622.405	82.974	-0.104	0.115
-621.390	102.516	-0.081	-0.096
-620.376	27.711	0.061	-0.052
-619.361	800.000	0.069	0.224
-618.346	-33.667	0.125	0.070
-617.332	26.632	0.282	-0.240
-616.317	-158.261	0.013	0.001
-615.303	800.000	-0.029	0.111
-614.288	580.105	0.073	-0.182
-613.273	537.552	0.056	0.135
-612.259	-175.920	-0.160	0.004
-611.244	-141.343	-0.243	0.025
-610.230	224.195	0.113	0.185
-609.215	800.000	0.035	0.138
-608.201	119.393	-0.355	0.446
-607.186	585.855	0.014	0.035
-606.171	516.273	-0.043	-0.102
-605.157	270.508	0.196	0.351
-604.142	78.221	0.193	0.209
-603.128	800.000	-0.053	0.178
-602.113	694.743	-0.046	-0.124
-601.098	-5.899	0.080	-0.056
-600.084	-200.000	-0.038	0.185
-599.069	163.692	-0.123	-0.175
-598.055	-51.020	-0.178	-0.085
-597.040	-79.622	-0.279	-0.096
-596.025	-174.959	0.067	-0.002
-595.011	37.447	0.087	0.079
-593.996	-48.987	0.266	0.130
-592.982	-66.952	0.096	0.039
-591.967	-159.461	-0.129	0.007
-590.952	-10.065	-0.172	0.116
-589.938	-15.707	-0.424	-0.274
-588.923	-200.000	0.011	0.057
-587.909	-200.000	0.020	-0.100
-586.894	265.027	0.151	0.266
-585.879	728.823	-0.114	0.309
-584.865	800.000	-0.071	0.255
-583.850	-90.124	0.061	0.018
-582.836	-200.000	-0.067	0.389
-581.821	489.020	-0.160	-0.372
-580.806	43.203	0.117	-0.108
-579.792	-130.327	-0.174	0.024
-578.777	630.661	0.038	0.097
-577.763	-200.000	-0.045	0.216
-576.748	98.221	-0.181	-0.211
-575.733	-200.000	-0.027	-0.223
-574.719	-200.000	-0.008	-0.183
-573.704	477.808	0.073	-0.167
-572.690	-25.846	0.258	0.154
-571.675	-200.000	-0.009	0.194
-570.661	-119.317	0.334	0.059
-569.646	349.773	0.038	0.076
-568.631	-200.000	-0.064	0.306
-567.617	-83.094	0.239	0.078
-566.602	-30.865	-0.033	-0.019
-565.588	-52.628	-0.190	-0.089
-564.573	-36.534	0.050	0.027
-563.558	212.918	0.066	0.105
-562.544	800.000	-0.012	0.036
-561.529	800.000	-0.041	0.174
-560.515	800.000	-0.098	-0.358
-559.500	-200.000	0.035	-0.298
-558.485	-105.312	-0.371	0.086
-557.471	-200.000	0.000	-0.016
-556.456	800.000	0.078	0.265
-555.442	613.251	0.063	0.160
-554.427	800.000	0.090	-0.398
-553.412	251.047	0.095	-0.164
-552.398	180.483	-0.034	0.050
-551.383	537.026	0.059	0.142
-550.369	-158.103	0.224	-0.013
-549.354	140.097	0.121	0.161
-548.339	747.765	-0.180	-0.492
-547.325	-10.443	-0.131	-0.088
-546.310	-94.298	0.366	-0.101
-545.296	-105.249	0.165	-0.038
-544.281	28.279	0.187	-0.160
-543.266	800.000	0.039	0.147
-542.252	-200.000	0.016	-0.151
-541.237	-75.460	0.140	-0.050
-540.223	233.787	0.054	0.091
-539.208	-62.758	0.246	-0.103
-538.193	756.218	0.138	0.379
-537.179	-19.531	-0.236	-0.148
-536.164	-199.170	-0.324	-0.002
-535.150	259.912	0.197	0.345
-534.135	-104.731	0.287	-0.067
-533.121	800.000	-0.040	-0.172
-532.106	-131.498	-0.189	0.025
-531.091	-200.000	-0.001	0.149
-530.077	19.060	-0.165	0.134
-529.062	566.212	-0.053	0.130
-528.048	28.691	0.369	-0.317
-527.033	-120.051	-0.161	0.028
-526.018	-95.184	-0.333	-0.091
-525.004	-115.057	0.329	0.063
-523.989	589.617	-0.066	0.166
-522.975	-54.264	-0.186	-0.086
-521.960	-190.299	-0.265	-0.003
-520.945	268.361	-0.071	-0.126
-519.931	-200.000	0.038	-0.215
-518.916	399.132	0.168	-0.356
-517.902	-189.784	-0.230	-0.003
-516.887	800.000	-0.077	-0.310
-515.872	161.548	-0.124	-0.176
-514.858	23.339	0.045	-0.037
-513.843	-109.027	0.147	0.032
-512.829	-73.956	0.106	-0.039
-511.814	471.416	0.040	0.092
-510.799	211.093	-0.157	0.250
-509.785	-200.000	-0.052	0.233
-508.770	712.544	-0.084	0.224
-507.756	-110.878	-0.476	-0.099
-506.741	-60.172	-0.426	0.184
-505.726	-62.929	0.162	-0.068
-504.712	64.354	0.094	-0.096
-503.697	-200.000	0.002	-0.203
-502.683	119.623	-0.033	0.041
-501.668	663.294	-0.011	-0.029
-500.653	800.000	0.074	0.258
-499.639	-112.966	0.319	-0.064
-498.624	-129.952	-0.085	-0.012
-497.610	31.246	-0.156	0.135
-496.595	273.279	-0.070	0.126
-495.581	513.479	-0.092	0.218
-494.566	800.000	-0.088	0.267
-493.551	-155.656	0.140	0.009
-492.537	-200.000	-0.061	-0.335
-491.522	-162.318	0.029	-0.001
-490.508	332.223	0.031	0.060
-489.493	800.000	0.145	-0.477
-488.478	-149.185	-0.166	-0.013
-487.464	-97.328	-0.398	-0.105
-486.449	19.414	-0.170	-0.138
-485.435	0.141	0.109	0.079
-484.420	-200.000	-0.031	0.141
-483.405	138.515	-0.054	0.072
-482.391	203.568	-0.280	0.438
-481.376	216.217	0.176	-0.282
-480.362	482.620	0.102	0.235
-479.347	-65.737	-0.370	0.150
-478.332	-200.000	0.032	0.150
-477.318	-45.955	0.054	-0.027
-476.303	30.281	0.266	0.230
-475.289	-168.204	-0.140	-0.005
-474.274	-70.531	0.207	0.079
-473.259	-94.596	-0.195	-0.054
-472.245	31.557	-0.116	0.100
-471.230	-0.164	0.389	0.280
-470.216	85.528	-0.089	-0.099
-469.201	-49.838	0.066	-0.032
-468.186	93.584	0.052	-0.059
-467.172	84.973	0.153	-0.170
-466.157	-153.343	-0.149	-0.010
-465.143	-158.849	0.383	-0.022
-464.128	-61.615	0.391	0.166
-463.113	-108.702	-0.269	0.058
-462.099	-82.068	0.201	-0.066
-461.084	169.438	-0.043	-0.062
-460.070	-36.743	0.216	-0.117
-459.055	9.792	-0.143	-0.110
-458.040	143.662	-0.124	0.167
-457.026	-141.904	-0.101	-0.010
-456.011	-181.458	-0.374	-0.007
-454.997	-138.599	-0.131	0.015
-453.982	-146.432	0.180	0.016
-452.968	-59.760	0.214	-0.093
-451.953	-106.132	-0.061	-0.014
-450.938	-164.284	0.147	-0.007
-449.924	-200.000	0.047	0.326
-448.909	-126.007	-0.324	-0.049
-447.895	-200.000	-0.016	0.366
-446.880	270.652	-0.153	-0.272
-445.865	67.231	-0.034	0.035
-444.851	5.636	0.043	0.032
-443.836	-200.000	-0.021	-0.128
-442.822	-200.000	0.029	-0.484
-441.807	-142.005	-0.316	0.032
-440.792	-8.136	0.071	-0.048
-439.778	800.000	0.106	-0.329
-438.763	281.883	-0.147	-0.266
-437.749	69.104	-0.152	-0.157
-436.734	-116.001	-0.065	-0.012
-435.719	305.463	0.028	-0.052
-434.705	744.710	0.097	0.262
-433.690	151.602	0.174	-0.240
-432.676	-109.505	-0.285	-0.061
-431.661	80.530	0.237	-0.258
-430.646	-189.768	0.243	-0.003
-429.632	-188.403	-0.143	0.002
-428.617	-54.303	0.205	0.094
-427.603	-95.199	0.194	-0.053
-426.588	57.707	0.050	0.050
-425.573	-164.960	-0.222	0.010
-424.559	182.075	0.063	0.094
-423.544	800.000	0.054	0.197
-422.530	-200.000	-0.019	-0.186
-421.515	-180.396	-0.433	0.009
-420.500	-147.867	-0.196	0.016
-419.486	-86.126	0.100	0.031
-418.471	-200.000	-0.008	0.200
-417.457	-90.266	-0.243	0.071
-416.442	-102.598	0.130	0.031
-415.428	762.726	-0.135	-0.371
-414.413	-131.201	-0.170	-0.023
-413.398	-14.962	-0.359	-0.232
-412.384	-45.211	-0.356	-0.178
-411.369	-10.695	0.100	0.067
-410.355	-200.000	0.057	-0.268
-409.340	-76.249	-0.015	-0.005
-408.325	715.063	-0.068	-0.181
-407.311	-200.000	-0.003	-0.162
-406.296	54.997	-0.203	0.198
-405.282	89.808	0.164	-0.185
-404.267	-34.683	0.215	-0.119
-403.252	-200.000	-0.000	-0.356
-402.238	387.121	0.033	0.070
-401.223	-122.425	0.207	0.034
-400.209	258.091	0.064	-0.111
-399.194	-51.463	-0.168	0.079
-398.179	800.000	-0.078	0.239
-397.165	539.811	0.038	-0.092
-396.150	-148.696	0.099	-0.008
-395.136	-40.197	-0.163	-0.086
-394.121	188.261	0.087	0.130
-393.106	18.935	0.108	0.087
-392.092	165.585	-0.136	0.194
-391.077	-89.008	-0.164	0.049
-390.063	260.221	0.114	-0.198
-389.048	-61.979	-0.111	0.047
-388.033	-200.000	-0.009	0.270
-387.019	-110.128	0.254	-0.053
-386.004	74.250	0.180	0.191
-384.990	-102.751	0.186	-0.045
-383.975	-99.658	0.286	-0.072
-382.960	800.000	0.079	-0.309
-381.946	-200.000	-0.084	-0.458
-380.931	41.249	0.434	-0.395
-379.917	-175.543	0.064	-0.002
-378.902	8.015	-0.321	0.242
-377.888	-85.917	-0.362	0.113
-376.873	-137.780	-0.175	0.020
-375.858	800.000	0.015	0.058
-374.844	800.000	-0.007	-0.023
-373.829	800.000	-0.066	-0.260
-372.815	322.983	-0.161	-0.309
-371.800	0.062	-0.155	0.111
-370.785	-182.171	-0.250	-0.005
-369.771	74.211	0.182	-0.193
-368.756	-25.613	0.119	0.071
-367.742	130.471	-0.162	-0.209
-366.727	-88.718	-0.051	-0.015
-365.712	-147.842	0.186	0.016
-364.698	64.906	-0.197	-0.200
-363.683	448.475	-0.073	0.162
-362.669	-66.648	-0.254	-0.101
-361.654	686.563	0.118	0.309
-360.639	-39.837	-0.070	0.037
-359.625	270.299	-0.160	0.282
-358.610	129.372	0.131	-0.169
-357.596	207.397	-0.178	-0.280
-356.581	-200.000	-0.041	0.190
-355.566	-30.392	0.068	-0.039
-354.552	-8.840	-0.160	0.108
-353.537	-96.890	0.169	-0.045
-352.523	800.000	-0.069	0.212
-351.508	-200.000	0.023	0.278
-350.493	-176.732	-0.403	-0.010
-349.479	33.564	0.386	-0.337
-348.464	800.000	0.094	-0.271
-347.450	-200.000	-0.020	0.214
-346.435	72.626	0.411	-0.431
-345.420	231.313	0.084	-0.138
-344.406	56.397	0.147	0.144
-343.391	-200.000	0.002	-0.114
-342.377	157.348	0.163	-0.226
-341.362	-78.437	0.105	0.036
-340.348	-200.000	0.015	0.207
-339.333	-200.000	-0.006	-0.093
-338.318	-110.782	-0.082	-0.017
-337.304	800.000	-0.122	-0.460
-336.289	-66.826	0.146	0.058
-335.275	163.153	0.190	0.268
-334.260	-23.266	0.209	0.126
-333.245	40.965	0.134	0.122
-332.231	21.542	0.143	0.117
-331.216	49.024	-0.175	0.165
-330.202	-200.000	0.379	0.001
-329.187	-28.309	-0.182	0.106
-328.172	800.000	-0.085	0.272
-327.158	28.381	-0.302	0.257
-326.143	-112.824	0.462	0.092
-325.129	-89.711	-0.221	0.065
-324.114	704.479	-0.075	-0.199
-323.099	328.007	0.067	0.129
-322.085	-102.508	0.052	0.012
-321.070	267.222	-0.179	0.315
-320.056	-99.968	-0.078	0.019
-319.041	-200.000	-0.028	-0.183
-318.026	212.039	0.174	0.276
-317.012	-200.000	-0.019	-0.095
-315.997	-131.251	-0.233	-0.031
-314.983	-200.000	-0.006	-0.185
-313.968	32.854	0.024	0.021
-312.953	-14.570	0.052	-0.034
-311.939	800.000	0.061	-0.194
-310.924	-200.000	-0.023	0.274
-309.910	-38.046	0.130	-0.069
-308.895	-200.000	0.009	0.112
-307.880	800.000	-0.018	-0.066
-306.866	-95.117	0.355	-0.096
-305.851	113.405	0.025	0.030
-304.837	-200.000	-0.019	0.111
-303.822	-200.000	-0.024	0.177
-302.807	-120.071	0.209	0.036
-301.793	-200.000	0.028	-0.221
-300.778	344.882	-0.069	-0.137
-299.764	800.000	0.053	0.166
-298.749	800.000	0.045	0.170
-297.735	549.683	-0.122	0.295
-296.720	-31.668	-0.103	-0.058
-295.705	134.696	-0.068	0.088
-294.691	-53.581	0.389	0.178
-293.676	107.024	0.045	-0.054
-292.662	108.144	-0.139	-0.167
-291.647	-200.000	0.015	0.108
-290.632	-28.426	0.453	0.262
-289.618	88.434	-0.184	0.205
-288.603	733.399	0.055	-0.147
-287.589	-183.991	0.297	-0.005
-286.574	800.000	0.065	0.184
-285.559	-200.000	-0.040	-0.209
-284.545	393.831	-0.129	-0.269
-283.530	19.954	-0.280	-0.227
-282.516	-200.000	-0.020	-0.109
-281.501	-27.865	-0.243	0.141
-280.486	-7.270	0.213	0.145
-279.472	-31.781	0.345	0.194
-278.457	70.391	-0.149	0.155
-277.443	41.600	0.073	0.067
-276.428	335.916	-0.127	0.247
-275.413	-87.627	0.117	0.035
-274.399	-88.710	0.101	-0.030
-273.384	-66.186	-0.312	0.124
-272.370	-80.306	-0.086	-0.029
-271.355	-200.000	0.025	-0.256
-270.340	-100.307	0.174	-0.043
-269.326	-109.533	-0.311	-0.066
-268.311	800.000	-0.091	-0.287
-267.297	-89.918	-0.440	0.129
-266.282	-52.325	-0.156	0.072
-265.267	-144.972	-0.064	-0.006
-264.253	207.487	-0.123	0.192
-263.238	94.804	-0.073	-0.084
-262.224	-200.000	-0.008	-0.036
-261.209	-113.086	-0.200	-0.040
-260.195	187.997	-0.086	-0.129
-259.180	-53.917	0.266	-0.121
-258.165	106.845	0.261	0.310
-257.151	227.596	-0.155	-0.253
-256.136	-12.053	-0.155	0.102
-255.122	103.682	0.097	0.114
-254.107	-10.663	-0.149	-0.098
-253.092	800.000	-0.074	0.239
-252.078	800.000	0.050	0.211
-251.063	-138.256	-0.085	0.009
-250.049	438.668	-0.135	0.295
-249.034	-55.291	0.122	-0.055
-248.019	26.739	0.273	-0.229
-247.005	-173.542	-0.068	-0.002
-245.990	-38.374	-0.093	0.049
-244.976	-127.909	0.150	-0.022
-243.961	64.981	0.168	-0.170
-242.946	176.061	-0.181	0.263
-241.932	-200.000	0.020	0.133
-240.917	259.707	0.224	-0.388
-239.903	252.107	0.149	-0.255
-238.888	-200.000	-0.070	0.441
-237.873	-162.831	-0.438	0.021
-236.859	256.130	0.212	-0.365
-235.844	-52.172	-0.228	0.106
-234.830	-153.901	0.273	-0.019
-233.815	-130.221	0.446	0.061
-232.800	742.363	-0.115	-0.308
-231.786	-68.236	-0.225	0.088
-230.771	800.000	0.109	-0.338
-229.757	36.894	-0.259	0.229
-228.742	-188.292	0.179	0.002
-227.727	-126.248	0.306	0.046
-226.713	-33.912	0.055	0.030
-225.698	214.556	0.009	-0.015
-224.684	800.000	0.065	-0.247
-223.669	76.491	0.140	0.148
-222.655	73.668	-0.196	-0.206
-221.640	383.296	0.059	0.122
-220.625	112.731	-0.043	-0.052
-219.611	273.862	0.092	0.162
-218.596	-172.920	0.142	-0.004
-217.582	-170.735	0.413	0.014
-216.567	63.551	-0.047	-0.047
-215.552	67.343	0.364	-0.372
-214.538	-142.788	0.464	-0.045
-213.523	441.864	0.203	-0.445
-212.509	-127.504	-0.223	0.032
-211.494	-143.346	0.065	-0.006
-210.479	-174.147	0.205	0.006
-209.465	800.000	-0.080	-0.274
-208.450	46.715	0.168	0.156
-207.436	-12.987	0.202	0.131
-206.421	-104.897	0.295	0.068
-205.406	-107.617	-0.176	-0.039
-204.392	489.156	0.028	-0.064
-203.377	-50.174	-0.416	-0.197
-202.363	30.753	-0.361	0.309
-201.348	16.545	-0.187	-0.148
-200.333	111.807	0.111	-0.134
-199.319	630.511	-0.068	-0.171
-198.304	-185.202	-0.112	-0.002
-197.290	419.524	-0.056	-0.121
-196.275	-200.000	-0.090	-0.456
-195.260	473.993	-0.133	-0.300
-194.246	147.766	0.180	0.242
-193.231	708.748	0.083	0.218
-192.217	286.227	-0.156	0.281
-191.202	8.835	0.103	0.078
-190.187	800.000	0.068	0.200
-189.173	99.187	-0.306	-0.354
-188.158	-200.000	0.015	0.225
-187.144	8.037	-0.110	-0.082
-186.129	56.700	0.318	0.310
-185.114	-200.000	0.025	-0.147
-184.100	34.899	0.005	0.004
-183.085	99.392	0.106	-0.122
-182.071	348.298	-0.025	-0.050
-181.056	-169.563	0.384	0.014
-180.042	292.860	0.139	-0.253
-179.027	146.975	-0.040	0.053
-178.012	147.723	-0.080	0.107
-176.998	197.603	-0.040	-0.061
-175.983	-31.723	0.274	0.154
-174.969	-2.581	-0.262	-0.183
-173.954	-200.000	0.009	-0.176
-172.939	692.453	-0.077	-0.201
-171.925	21.808	0.075	0.061
-170.910	-48.435	-0.132	0.064
-169.896	268.496	0.234	0.410
-168.881	-152.443	-0.095	-0.007
-167.866	-60.285	0.154	0.065
-166.852	182.045	0.220	0.323
-165.837	-78.474	0.086	0.030
-164.823	153.756	-0.280	0.383
-163.808	-200.000	0.011	-0.377
-162.793	-200.000	0.030	0.259
-161.779	774.212	-0.083	0.227
-160.764	-200.000	-0.026	0.169
-159.750	-200.000	-0.009	0.043
-158.735	98.247	0.025	-0.029
-157.720	147.042	0.137	0.185
-156.706	-55.776	-0.186	0.083
-155.691	-143.665	0.254	0.024
-154.677	-106.176	0.168	0.038
-153.662	-48.142	0.136	0.066
-152.647	-68.289	-0.194	-0.075
-151.633	-8.730	0.207	-0.139
-150.618	106.967	0.090	0.107
-149.604	143.737	0.217	-0.289
-148.589	63.772	0.124	-0.124
-147.574	-32.028	-0.088	0.049
-146.560	79.032	0.219	-0.234
-145.545	118.196	0.115	-0.141
-144.531	-46.236	-0.340	0.167
-143.516	-29.085	-0.254	0.146
-142.502	605.102	0.115	-0.286
-141.487	-8.049	0.250	0.168
-140.472	78.101	0.157	-0.167
-139.458	800.000	-0.097	-0.358
-138.443	75.556	-0.043	-0.046
-137.429	-12.881	-0.069	0.045
-136.414	-200.000	0.042	-0.274
-135.399	377.626	0.165	0.336
-134.385	54.240	0.181	-0.174
-133.370	-31.454	0.091	0.051
-132.356	800.000	-0.023	0.097
-131.341	91.006	0.147	0.165
-130.326	-167.679	-0.382	-0.015
-129.312	-28.610	-0.226	-0.130
-128.297	48.837	-0.017	-0.016
-127.283	-21.952	-0.280	-0.170
-126.268	-200.000	0.028	0.286
-125.253	189.391	-0.125	0.187
-124.239	501.882	-0.048	-0.110
-123.224	402.576	0.080	0.169
-122.210	-200.000	0.009	-0.117
-121.195	-200.000	-0.009	-0.102
