DTS Sentinel unit serial number:	SN413079Multiplexer serial number:	ORYXHardware model number:	OX4-SRSoftware version number:	ORYX F/W v4.00 Oryx Data Collector v3.7.2.0data status	okinstallation	princeton_trtdifferential loss correction	single-endedforward channel	channel 2reverse channel	N/Adate	2019/09/19time	04:51:35forward acquisition time	60.00reverse acquisition time	0.00gamma	496.2192k internal	0.2352k external	0.2352temperature offset calibration	1.0016default loss term (dB/km)	0.3790temperature slope calibration	1.0000multiplexer offset coefficient	1.0000multiplexer slope coefficient	1.0000fibre end	0.00T internal ref (°C)	19.83T ext. ref 1 (°C)	0.62T ext. ref 2 (°C)	12.87length (m)	temperature (°C)	Stokes	anti-Stokes-747.200	60.558	-0.225	-0.223
-746.185	-188.032	-0.136	0.002
-745.171	-47.141	-0.174	0.085
-744.156	95.839	-0.048	-0.054
-743.142	42.724	-0.065	0.059
-742.127	149.475	-0.199	0.269
-741.112	-33.958	-0.123	0.068
-740.098	294.356	-0.199	0.363
-739.083	267.429	0.329	0.573
-738.069	410.800	-0.071	0.149
-737.054	-160.713	-0.173	-0.009
-736.039	381.535	-0.166	-0.340
-735.025	800.000	0.038	0.142
-734.010	231.986	-0.025	0.041
-732.996	-200.000	-0.005	-0.125
-731.981	187.594	-0.154	0.229
-730.966	-76.577	0.091	0.032
-729.952	179.993	-0.260	0.381
-728.937	-118.275	0.083	0.015
-727.923	-200.000	0.005	0.056
-726.908	306.382	-0.213	-0.395
-725.894	800.000	-0.065	-0.197
-724.879	800.000	0.052	-0.214
-723.864	110.309	-0.120	0.143
-722.850	-118.467	-0.392	0.069
-721.835	-200.000	0.026	-0.355
-720.821	-141.684	-0.101	0.010
-719.806	800.000	-0.069	0.196
-718.791	66.975	0.087	0.089
-717.777	-112.231	-0.149	-0.030
-716.762	-200.000	-0.022	0.115
-715.748	95.154	-0.085	0.097
-714.733	335.163	-0.012	-0.023
-713.718	26.613	-0.209	-0.174
-712.704	-70.839	0.076	0.028
-711.689	100.210	0.082	0.095
-710.675	674.371	0.120	-0.311
-709.660	-135.526	0.353	-0.042
-708.645	229.428	0.033	0.054
-707.631	181.927	-0.071	0.104
-706.616	126.012	0.200	-0.252
-705.602	-200.000	0.020	0.150
-704.587	-86.379	0.146	0.045
-703.572	442.019	0.062	-0.134
-702.558	91.966	0.125	-0.140
-701.543	177.498	-0.142	0.205
-700.529	-200.000	-0.002	-0.093
-699.514	309.726	0.034	0.063
-698.499	606.832	-0.115	0.285
-697.485	395.810	-0.153	-0.318
-696.470	800.000	0.052	0.219
-695.456	67.729	-0.117	-0.119
-694.441	-146.432	0.161	-0.014
-693.426	-200.000	-0.002	0.197
-692.412	-51.425	0.200	0.093
-691.397	689.286	0.075	0.195
-690.383	393.483	-0.102	-0.211
-689.368	6.108	-0.174	-0.129
-688.354	30.641	-0.109	0.093
-687.339	-200.000	-0.123	0.603
-686.324	55.492	-0.179	0.173
-685.310	-92.023	0.362	-0.102
-684.295	-82.931	0.159	0.051
-683.281	-85.439	-0.216	-0.067
-682.266	-133.267	-0.213	0.027
-681.251	555.471	0.070	-0.168
-680.237	217.569	0.098	0.155
-679.222	25.850	0.220	-0.183
-678.208	-96.725	0.280	-0.073
-677.193	-200.000	0.038	0.337
-676.178	-87.686	-0.221	-0.066
-675.164	333.555	-0.185	-0.355
-674.149	125.757	0.201	-0.252
-673.135	84.438	-0.186	-0.203
-672.120	-200.000	0.060	-0.268
-671.105	-136.802	0.114	0.013
-670.091	110.347	-0.031	0.037
-669.076	-76.252	0.065	0.023
-668.062	-2.755	-0.249	0.173
-667.047	125.503	0.014	-0.017
-666.032	236.569	0.142	0.234
-665.018	-200.000	0.017	0.080
-664.003	800.000	0.080	-0.292
-662.989	-200.000	-0.046	0.274
-661.974	176.808	0.015	0.021
-660.959	-56.194	-0.145	0.064
-659.945	184.225	-0.066	0.097
-658.930	-200.000	0.024	0.114
-657.916	-136.999	-0.387	0.044
-656.901	39.057	-0.178	0.158
-655.886	-200.000	0.040	0.199
-654.872	-200.000	0.059	0.262
-653.857	-34.009	0.368	0.201
-652.843	351.981	-0.186	-0.366
-651.828	25.674	-0.326	0.270
-650.814	102.975	0.069	-0.081
-649.799	-106.867	0.267	-0.059
-648.784	-101.642	-0.281	-0.068
-647.770	-159.098	0.352	0.020
-646.755	183.204	-0.166	-0.243
-645.741	-40.614	0.290	0.150
-644.726	29.011	0.112	-0.094
-643.711	-200.000	-0.011	-0.380
-642.697	-200.000	-0.006	-0.042
-641.682	-200.000	-0.014	0.192
-640.668	-200.000	0.053	0.355
-639.653	-113.875	-0.303	0.058
-638.638	-200.000	0.038	-0.276
-637.624	-200.000	0.042	0.192
-636.609	-200.000	0.029	0.148
-635.595	485.459	-0.128	-0.290
-634.580	321.705	-0.086	-0.162
-633.565	387.518	0.062	0.128
-632.551	-200.000	0.013	-0.127
-631.536	0.107	-0.265	0.187
-630.522	-99.061	0.235	-0.059
-629.507	-5.627	0.100	-0.068
-628.492	-200.000	-0.061	-0.305
-627.478	800.000	-0.076	0.321
-626.463	-200.000	-0.024	-0.257
-625.449	177.625	0.140	-0.203
-624.434	100.141	0.127	0.147
-623.419	-9.298	0.116	0.077
-622.405	283.574	-0.067	0.119
-621.390	-133.593	-0.255	0.032
-620.376	129.246	-0.245	0.310
-619.361	-58.249	0.394	-0.170
-618.346	404.057	0.105	-0.220
-617.332	41.203	0.153	0.137
-616.317	-123.296	0.230	0.036
-615.303	-200.000	0.012	-0.151
-614.288	-54.349	-0.246	0.111
-613.273	-17.496	-0.148	0.092
-612.259	669.381	0.056	0.143
-611.244	-66.884	-0.485	-0.190
-610.230	-158.215	-0.420	-0.024
-609.215	-200.000	-0.030	-0.173
-608.201	-156.491	-0.343	0.021
-607.186	-147.693	0.058	-0.005
-606.171	103.336	-0.199	0.231
-605.157	451.287	-0.136	0.298
-604.142	283.732	-0.134	-0.239
-603.128	-51.022	-0.154	-0.072
-602.113	162.443	0.260	-0.362
-601.098	-188.964	-0.466	-0.006
-600.084	-142.313	-0.316	0.031
-599.069	-152.684	-0.095	0.007
-598.055	81.487	-0.245	-0.263
-597.040	800.000	0.060	-0.166
-596.025	800.000	0.044	-0.143
-595.011	23.111	0.083	-0.067
-593.996	-145.406	0.224	0.020
-592.982	-130.647	0.124	-0.017
-591.967	-58.893	0.381	0.163
-590.952	-41.467	-0.315	-0.161
-589.938	-44.308	-0.375	0.187
-588.923	-200.000	0.107	-0.560
-587.909	-49.631	-0.089	-0.042
-586.894	506.892	0.021	-0.049
-585.879	-75.771	0.260	-0.091
-584.865	-80.981	-0.199	-0.065
-583.850	111.762	-0.112	0.134
-582.836	800.000	-0.045	0.179
-581.821	-85.067	-0.428	-0.133
-580.806	-200.000	0.046	0.227
-579.792	170.118	-0.212	0.300
-578.777	102.648	0.114	-0.133
-577.763	-149.723	-0.142	0.011
-576.748	800.000	0.100	0.394
-575.733	50.504	-0.057	-0.054
-574.719	-103.775	0.408	-0.095
-573.704	-200.000	-0.027	0.177
-572.690	51.321	-0.193	-0.181
-571.675	146.828	0.181	-0.241
-570.661	-7.750	-0.330	-0.221
-569.646	72.076	0.157	0.162
-568.631	800.000	0.080	-0.266
-567.617	146.122	-0.190	-0.252
-566.602	55.526	0.058	-0.055
-565.588	58.508	0.178	-0.173
-564.573	105.114	0.153	-0.179
-563.558	-62.155	0.098	0.041
-562.544	800.000	-0.099	0.313
-561.529	-39.276	0.266	-0.138
-560.515	209.247	-0.119	0.184
-559.500	-195.582	-0.066	-0.000
-558.485	-27.356	-0.265	-0.153
-557.471	3.360	0.140	0.101
-556.456	-4.588	0.050	0.034
-555.442	-146.776	0.438	0.037
-554.427	-75.880	-0.260	-0.091
-553.412	-200.000	-0.096	-0.520
-552.398	800.000	-0.066	-0.209
-551.383	-200.000	0.012	-0.059
-550.369	-73.219	-0.033	-0.012
-549.354	608.376	-0.047	-0.116
-548.339	-23.646	-0.129	-0.076
-547.325	-156.027	-0.294	-0.018
-546.310	-91.893	0.351	-0.099
-545.296	-115.894	-0.173	-0.032
-544.281	-174.852	0.232	-0.006
-543.266	241.536	-0.121	0.200
-542.252	418.616	-0.040	-0.085
-541.237	-85.484	0.087	0.027
-540.223	-86.350	0.113	0.034
-539.208	272.210	0.060	0.104
-538.193	-110.356	-0.427	0.088
-537.179	9.748	-0.273	0.205
-536.164	-45.287	0.124	0.061
-535.150	-113.589	0.074	-0.014
-534.135	800.000	0.063	0.255
-533.121	104.054	0.098	0.114
-532.106	-37.691	-0.381	0.201
-531.091	800.000	0.061	0.241
-530.077	800.000	-0.148	0.424
-529.062	-200.000	0.009	0.158
-528.048	-114.507	0.432	0.082
-527.033	433.612	0.121	-0.259
-526.018	-90.668	0.158	0.045
-525.004	-200.000	0.044	-0.237
-523.989	-140.097	-0.307	-0.032
-522.975	-200.000	0.041	-0.200
-521.960	276.963	0.033	0.059
-520.945	364.538	0.139	0.277
-519.931	-166.168	0.197	-0.008
-518.916	60.826	-0.249	0.244
-517.902	800.000	0.118	-0.419
-516.887	89.014	-0.070	0.077
-515.872	263.966	0.087	-0.150
-514.858	-200.000	0.005	-0.446
-513.843	-19.570	-0.406	0.248
-512.829	-86.955	0.096	-0.029
-511.814	-200.000	0.008	0.204
-510.799	-61.457	0.270	0.112
-509.785	800.000	0.029	-0.112
-508.770	739.198	0.147	-0.389
-507.756	-119.866	0.175	-0.030
-506.741	242.937	0.129	0.214
-505.726	-60.590	-0.396	0.166
-504.712	-79.129	0.104	0.035
-503.697	-200.000	0.036	-0.218
-502.683	314.649	-0.115	0.213
-501.668	-5.306	-0.155	-0.105
-500.653	-200.000	-0.014	0.120
-499.639	-107.193	-0.319	0.069
-498.624	-184.137	0.332	0.005
-497.610	284.522	0.113	0.200
-496.595	485.321	0.077	0.174
-495.581	-200.000	-0.037	-0.359
-494.566	15.349	0.222	-0.172
-493.551	176.778	-0.084	-0.120
-492.537	-28.024	-0.176	-0.101
-491.522	88.900	-0.189	-0.207
-490.508	58.731	-0.116	-0.112
-489.493	328.124	0.141	0.266
-488.478	130.031	-0.167	-0.212
-487.464	103.444	-0.150	-0.173
-486.449	-200.000	-0.004	-0.309
-485.435	204.996	0.239	0.366
-484.420	-186.194	-0.229	-0.003
-483.405	-200.000	-0.024	0.219
-482.391	589.132	-0.074	-0.180
-481.376	0.062	-0.124	-0.087
-480.362	247.967	-0.122	-0.203
-479.347	-49.604	-0.275	-0.129
-478.332	7.253	-0.230	-0.170
-477.318	10.335	-0.103	-0.077
-476.303	-117.651	-0.443	-0.079
-475.289	353.189	0.184	-0.360
-474.274	-200.000	-0.007	0.170
-473.259	800.000	-0.058	-0.245
-472.245	21.350	-0.066	-0.053
-471.230	23.105	-0.298	0.241
-470.216	-179.572	0.198	0.004
-469.201	266.656	0.106	-0.183
-468.186	204.550	0.242	-0.370
-467.172	14.758	0.147	0.113
-466.157	-200.000	-0.025	0.230
-465.143	233.392	-0.073	0.119
-464.128	508.978	0.047	0.108
-463.113	800.000	0.094	-0.262
-462.099	-80.001	0.120	0.040
-461.084	-26.934	0.282	-0.163
-460.070	109.052	0.201	-0.238
-459.055	800.000	-0.044	-0.122
-458.040	-200.000	0.023	-0.105
-457.026	-15.046	0.237	0.150
-456.011	202.766	-0.240	-0.365
-454.997	-15.277	0.301	0.190
-453.982	-66.329	-0.235	-0.092
-452.968	-200.000	-0.009	-0.188
-451.953	-129.310	-0.435	0.060
-450.938	-43.928	0.085	0.042
-449.924	-200.000	0.042	-0.340
-448.909	-36.214	-0.068	0.036
-447.895	-200.000	-0.009	0.241
-446.880	13.231	0.054	0.041
-445.865	-200.000	0.014	0.147
-444.851	118.048	0.179	0.218
-443.836	154.545	-0.069	0.093
-442.822	-4.077	0.264	0.180
-441.807	-200.000	-0.002	0.426
-440.792	424.916	0.112	-0.237
-439.778	-33.129	0.215	0.118
-438.763	5.122	-0.063	0.046
-437.749	1.560	-0.137	0.097
-436.734	-162.242	-0.083	-0.004
-435.719	148.555	-0.151	-0.201
-434.705	306.745	-0.148	0.272
-433.690	-130.943	0.362	0.048
-432.676	-200.000	-0.018	0.209
-431.661	-200.000	-0.021	0.134
-430.646	-121.330	-0.204	0.034
-429.632	800.000	-0.041	-0.112
-428.617	46.435	-0.107	0.098
-427.603	-110.337	-0.041	-0.008
-426.588	-75.722	-0.389	-0.136
-425.573	-30.713	-0.134	0.075
-424.559	-95.867	-0.026	-0.007
-423.544	-60.790	0.222	0.093
-422.530	12.250	-0.056	0.042
-421.515	-2.503	-0.288	-0.199
-420.500	-96.989	-0.180	0.046
-419.486	271.128	0.198	0.344
-418.471	62.907	0.207	-0.204
-417.457	273.417	0.101	0.176
-416.442	71.333	0.162	0.165
-415.428	-200.000	0.062	0.382
-414.413	202.527	0.204	-0.310
-413.398	412.282	0.123	0.258
-412.384	-105.335	0.238	-0.053
-411.369	91.874	0.122	-0.135
-410.355	51.202	0.208	0.194
-409.340	-200.000	-0.012	-0.515
-408.325	800.000	0.063	-0.194
-407.311	800.000	0.135	-0.478
-406.296	-132.829	0.191	-0.024
-405.282	129.326	0.209	0.263
-404.267	-200.000	0.022	0.502
-403.252	-94.779	0.203	-0.054
-402.238	-119.914	0.350	0.059
-401.223	-2.633	-0.035	0.024
-400.209	-123.467	-0.136	-0.021
-399.194	-94.067	0.247	-0.067
-398.179	-44.686	0.195	0.096
-397.165	209.467	0.133	0.205
-396.150	114.678	0.104	-0.125
-395.136	-39.531	0.350	-0.180
-394.121	-41.657	0.064	-0.032
-393.106	-142.683	-0.243	0.023
-392.092	-21.758	0.171	0.103
-391.077	-105.602	-0.067	-0.015
-390.063	-93.077	-0.321	-0.088
-389.048	800.000	-0.042	0.137
-388.033	146.567	0.084	-0.111
-387.019	-174.837	-0.274	-0.008
-386.004	800.000	0.029	-0.089
-384.990	-50.883	0.317	0.146
-383.975	417.903	-0.053	0.111
-382.960	-52.702	-0.136	0.062
-381.946	-102.663	-0.143	-0.033
-380.931	-11.950	-0.009	-0.006
-379.917	-200.000	0.029	0.333
-378.902	-146.709	-0.100	-0.008
-377.888	-58.279	-0.203	0.087
-376.873	-200.000	0.054	-0.302
-375.858	334.124	0.079	0.150
-374.844	424.033	-0.115	0.244
-373.829	109.494	-0.172	0.202
-372.815	-200.000	0.018	-0.141
-371.800	108.650	-0.128	-0.150
-370.785	-54.654	0.248	-0.110
-369.771	-75.370	0.083	0.029
-368.756	800.000	-0.079	-0.242
-367.742	104.027	-0.202	-0.234
-366.727	41.664	-0.394	-0.351
-365.712	17.655	0.063	0.049
-364.698	-10.620	-0.340	-0.221
-363.683	71.780	0.163	0.167
-362.669	54.195	0.226	0.214
-361.654	-200.000	-0.029	0.469
-360.639	-200.000	-0.003	-0.097
-359.625	-200.000	0.041	-0.223
-358.610	300.225	0.105	-0.190
-357.596	-109.194	-0.260	0.054
-356.581	-108.121	0.321	-0.068
-355.566	60.090	0.201	0.195
-354.552	-55.425	0.064	0.028
-353.537	68.413	-0.168	0.169
-352.523	-42.506	0.310	-0.155
-351.508	-200.000	-0.008	-0.076
-350.493	87.881	-0.134	0.146
-349.479	-60.969	0.206	-0.085
-348.464	57.726	0.231	-0.222
-347.450	-143.430	0.173	0.016
-346.435	3.041	-0.221	0.158
-345.420	-81.059	-0.302	-0.098
-344.406	-200.000	-0.080	-0.350
-343.391	-123.483	0.183	-0.029
-342.377	-32.992	-0.211	-0.115
-341.362	-200.000	-0.042	-0.369
-340.348	27.631	-0.269	-0.223
-339.333	-200.000	0.042	0.252
-338.318	-200.000	0.053	0.269
-337.304	-200.000	0.007	-0.073
-336.289	-200.000	0.022	-0.354
-335.275	800.000	-0.081	0.266
-334.260	361.617	-0.085	0.167
-333.245	800.000	-0.041	-0.156
-332.231	-1.983	0.259	0.179
-331.216	392.402	-0.100	0.204
-330.202	422.433	0.093	-0.195
-329.187	48.364	0.108	-0.099
-328.172	-97.086	-0.059	0.015
-327.158	-154.158	0.452	-0.030
-326.143	800.000	0.104	-0.330
-325.129	-195.764	-0.160	-0.001
-324.114	-118.516	0.126	-0.022
-323.099	-166.233	0.220	0.009
-322.085	-200.000	-0.028	0.149
-321.070	222.430	-0.221	0.349
-320.056	-94.945	0.372	0.099
-319.041	800.000	0.068	-0.286
-318.026	-97.982	0.066	-0.017
-317.012	-93.070	0.392	0.107
-315.997	-5.316	0.209	0.141
-314.983	229.498	-0.088	0.142
-313.968	-141.369	-0.318	-0.032
-312.953	-200.000	-0.098	-0.752
-311.939	-65.779	0.159	0.062
-310.924	-189.740	0.098	0.001
-309.910	98.093	-0.154	0.174
-308.895	11.270	0.163	0.122
-307.880	-17.658	-0.119	0.073
-306.866	231.123	0.107	0.172
-305.851	65.734	0.089	0.088
-304.837	2.877	-0.206	0.147
-303.822	-0.767	-0.064	0.044
-302.807	-92.654	0.033	-0.009
-301.793	247.475	-0.068	-0.113
-300.778	-89.603	0.331	0.095
-299.764	800.000	-0.030	0.109
-298.749	-200.000	-0.010	0.185
-297.735	-18.300	0.095	-0.058
-296.720	-26.174	-0.064	0.037
-295.705	-62.426	-0.091	-0.037
-294.691	-200.000	0.066	0.357
-293.676	213.717	0.010	0.016
-292.662	-138.190	-0.372	-0.040
-291.647	-156.185	0.276	0.017
-290.632	36.372	-0.181	0.157
-289.618	-89.142	-0.076	0.022
-288.603	-200.000	0.001	0.068
-287.589	620.082	-0.013	0.032
-286.574	-65.352	-0.179	0.071
-285.559	-95.859	-0.580	0.152
-284.545	-200.000	0.009	-0.326
-283.530	-135.197	-0.443	-0.052
-282.516	-151.057	0.240	0.018
-281.501	409.732	0.188	0.389
-280.486	16.587	0.113	-0.087
-279.472	-159.142	-0.182	0.010
-278.457	101.925	0.226	0.258
-277.443	-200.000	0.004	0.294
-276.428	-72.934	-0.201	-0.072
-275.413	274.084	-0.098	-0.170
-274.399	233.658	0.323	0.521
-273.384	749.470	0.061	-0.161
-272.370	213.813	-0.037	-0.058
-271.355	-23.222	0.123	-0.072
-270.340	186.531	-0.105	0.153
-269.326	-152.979	-0.150	0.010
-268.311	-200.000	0.026	0.299
-267.297	-200.000	0.042	0.334
-266.282	800.000	-0.034	0.117
-265.267	-119.807	0.231	-0.039
-264.253	38.841	-0.283	-0.248
-263.238	-156.022	0.215	0.013
-262.224	-45.353	0.120	-0.059
-261.209	22.574	0.198	-0.158
-260.195	146.419	0.279	-0.367
-259.180	-81.036	-0.139	0.045
-258.165	14.848	0.102	-0.078
-257.151	-79.989	0.321	-0.105
-256.136	-9.916	-0.143	-0.093
-255.122	137.871	0.234	-0.300
-254.107	73.578	0.148	0.152
-253.092	50.833	0.132	0.122
-252.078	-73.066	0.069	0.025
-251.063	-31.464	0.278	0.153
-250.049	-80.006	0.287	-0.094
-249.034	63.565	0.189	0.185
-248.019	114.220	0.153	-0.182
-247.005	800.000	-0.157	0.505
-245.990	-100.299	0.166	-0.040
-244.976	185.740	-0.126	-0.183
-243.961	-107.174	0.138	0.030
-242.946	107.469	0.101	-0.118
-241.932	-200.000	-0.572	0.001
-240.917	-2.606	-0.074	-0.051
-239.903	62.366	-0.367	-0.358
-238.888	196.791	0.107	-0.160
-237.873	173.200	0.138	-0.195
-236.859	-77.344	-0.258	-0.088
-235.844	-58.759	0.275	-0.117
-234.830	800.000	0.044	0.173
-233.815	-200.000	-0.068	0.329
-232.800	40.482	-0.196	-0.173
-231.786	15.966	0.388	0.299
-230.771	-200.000	-0.028	-0.162
-229.757	-86.498	0.264	0.079
-228.742	287.208	0.107	0.188
-227.727	324.779	-0.158	-0.295
-226.713	107.940	0.219	0.255
-225.698	-200.000	0.374	0.002
-224.684	800.000	0.064	-0.261
-223.669	170.444	0.187	0.261
-222.655	444.230	-0.073	0.156
-221.640	40.774	-0.109	-0.096
-220.625	-97.791	-0.196	0.049
-219.611	233.647	0.209	-0.336
-218.596	-13.291	0.206	0.131
-217.582	800.000	0.067	0.286
-216.567	132.874	-0.166	0.210
-215.552	233.671	0.213	-0.343
-214.538	89.616	-0.166	-0.181
-213.523	8.299	0.228	0.168
-212.509	29.867	0.174	0.145
-211.494	353.763	0.095	-0.183
-210.479	800.000	-0.180	0.493
-209.465	-200.000	0.010	-0.065
-208.450	107.941	0.123	-0.143
-207.436	-61.107	-0.077	0.032
-206.421	24.388	-0.172	-0.139
-205.406	-200.000	-0.001	-0.269
-204.392	237.643	0.091	0.147
-203.377	-131.786	-0.144	0.018
-202.363	800.000	-0.046	0.145
-201.348	263.709	0.051	-0.087
-200.333	-17.820	-0.071	0.044
-199.319	75.638	-0.118	-0.122
-198.304	78.796	0.094	0.098
-197.290	-200.000	-0.055	0.314
-196.275	-200.000	-0.024	0.345
-195.260	-119.675	-0.172	-0.029
-194.246	-88.794	0.158	-0.046
-193.231	800.000	-0.078	-0.259
-192.217	-51.162	0.325	0.149
-191.202	55.584	0.016	-0.015
-190.187	-19.283	-0.128	0.077
-189.173	-96.827	-0.126	-0.032
-188.158	8.012	0.127	0.093
-187.144	478.038	-0.088	-0.193
-186.129	198.036	-0.070	0.104
-185.114	-54.684	0.138	0.061
-184.100	-144.305	0.046	-0.004
-183.085	-114.279	-0.205	-0.038
-182.071	800.000	-0.032	0.108
-181.056	-200.000	-0.002	0.095
-180.042	-148.511	-0.372	-0.030
-179.027	-93.165	-0.369	-0.100
-178.012	-93.633	-0.135	0.036
-176.998	-127.912	-0.131	0.018
-175.983	800.000	-0.052	-0.147
-174.969	393.405	0.071	-0.145
-173.954	-169.803	0.453	-0.016
-172.939	-84.050	-0.355	0.110
-171.925	-200.000	0.003	0.186
-170.910	199.522	-0.142	0.212
-169.896	230.852	0.179	-0.286
-168.881	361.824	-0.138	0.269
-167.866	513.242	0.110	0.251
-166.852	-200.000	-0.009	0.160
-165.837	-60.004	-0.335	0.140
-164.823	-107.459	-0.125	-0.027
-163.808	-49.443	-0.103	0.048
-162.793	-113.450	-0.038	-0.007
-161.779	-98.118	0.013	-0.003
-160.764	-139.852	-0.147	-0.015
-159.750	-161.128	0.202	-0.010
-158.735	-200.000	-0.007	-0.373
-157.720	94.106	-0.070	-0.077
-156.706	75.891	-0.072	0.074
-155.691	285.985	-0.140	0.246
-154.677	274.685	0.063	-0.109
-153.662	-76.955	-0.075	0.026
-152.647	27.392	-0.227	-0.186
-151.633	-200.000	0.047	0.388
-150.618	-124.015	0.221	-0.034
-149.604	127.646	0.047	0.058
-148.589	137.509	-0.145	0.185
-147.574	-58.281	-0.389	0.165
-146.560	-142.507	0.167	-0.016
-145.545	9.580	0.217	-0.160
-144.531	-200.000	-0.031	0.153
-143.516	449.480	-0.013	-0.029
-142.502	409.507	0.008	0.017
-141.487	-119.803	0.286	0.048
-140.472	-74.166	-0.473	-0.167
-139.458	-200.000	-0.054	-0.347
-138.443	800.000	0.054	0.167
-137.429	-140.077	-0.131	0.013
-136.414	76.503	-0.087	-0.090
-135.399	-115.615	-0.193	-0.035
-134.385	-157.722	0.139	0.008
-133.370	-200.000	-0.006	0.132
-132.356	800.000	0.124	0.375
-131.341	-44.727	0.155	0.075
-130.326	-47.988	0.172	-0.081
-129.312	50.123	-0.327	0.300
-128.297	157.614	0.116	0.156
-127.283	-200.000	0.033	0.183
-126.268	238.115	0.121	0.196
-125.253	206.614	0.017	0.025
-124.239	215.912	-0.048	0.074
-123.224	-200.000	0.020	-0.121
-122.210	-117.240	0.301	0.053
-121.195	-90.446	-0.210	0.059
