DTS Sentinel unit serial number:	SN413079Multiplexer serial number:	ORYXHardware model number:	OX4-SRSoftware version number:	ORYX F/W v4.00 Oryx Data Collector v3.7.2.0data status	okinstallation	princeton_trtdifferential loss correction	single-endedforward channel	channel 2reverse channel	N/Adate	2019/09/15time	03:55:34forward acquisition time	60.00reverse acquisition time	0.00gamma	496.2192k internal	0.2325k external	0.2325temperature offset calibration	1.0028default loss term (dB/km)	0.3790temperature slope calibration	1.0000multiplexer offset coefficient	1.0000multiplexer slope coefficient	1.0000fibre end	0.00T internal ref (°C)	30.94T ext. ref 1 (°C)	4.59T ext. ref 2 (°C)	25.92length (m)	temperature (°C)	Stokes	anti-Stokes-747.200	-118.878	0.272	0.048
-746.185	-10.878	0.078	0.052
-745.171	-4.488	-0.165	-0.115
-744.156	514.560	-0.084	-0.198
-743.142	-70.294	-0.057	0.022
-742.127	-100.198	0.019	0.005
-741.112	-64.552	-0.156	0.064
-740.098	-47.733	0.173	-0.085
-739.083	-96.489	-0.102	0.027
-738.069	8.051	-0.076	-0.058
-737.054	306.761	0.078	-0.147
-736.039	76.654	-0.174	-0.186
-735.025	-200.000	-0.017	-0.226
-734.010	-200.000	0.012	-0.096
-732.996	-0.069	0.181	-0.130
-731.981	-65.455	-0.361	-0.146
-730.966	-200.000	-0.006	-0.092
-729.952	-200.000	0.018	-0.132
-728.937	-44.619	-0.126	-0.064
-727.923	31.674	-0.154	-0.134
-726.908	800.000	-0.023	0.065
-725.894	-122.004	0.226	-0.037
-724.879	-101.039	-0.064	0.016
-723.864	318.879	0.064	-0.121
-722.850	-189.841	-0.113	-0.001
-721.835	222.806	0.071	-0.116
-720.821	-165.106	-0.241	-0.011
-719.806	12.990	-0.177	0.138
-718.791	74.851	-0.070	-0.074
-717.777	-102.816	-0.429	0.103
-716.762	-200.000	0.007	-0.077
-715.748	-142.849	0.298	0.029
-714.733	-13.451	-0.353	-0.231
-713.718	535.597	0.036	0.086
-712.704	-141.308	0.183	0.019
-711.689	62.751	-0.057	-0.057
-710.675	-4.675	0.157	-0.109
-709.660	800.000	0.041	0.163
-708.645	-0.485	-0.156	0.112
-707.631	129.068	0.172	0.222
-706.616	800.000	0.098	-0.300
-705.602	-32.652	-0.047	-0.026
-704.587	449.474	-0.047	-0.104
-703.572	800.000	-0.017	0.063
-702.558	143.371	0.027	-0.037
-701.543	105.764	-0.223	-0.266
-700.529	-200.000	0.011	-0.120
-699.514	-29.115	0.042	-0.024
-698.499	-102.994	0.204	-0.049
-697.485	-183.003	-0.266	-0.005
-696.470	-115.512	0.086	-0.016
-695.456	85.145	0.192	-0.212
-694.441	430.369	0.159	-0.345
-693.426	-200.000	0.028	-0.428
-692.412	54.438	-0.115	-0.112
-691.397	-132.978	-0.132	-0.017
-690.383	800.000	0.063	0.196
-689.368	-56.904	-0.040	0.018
-688.354	13.818	0.285	-0.223
-687.339	800.000	-0.070	-0.205
-686.324	377.805	-0.035	-0.072
-685.310	-165.777	-0.198	0.009
-684.295	-200.000	-0.025	-0.158
-683.281	6.319	0.264	0.197
-682.266	800.000	-0.108	0.389
-681.251	199.380	-0.205	-0.316
-680.237	-90.407	0.083	-0.024
-679.222	-32.770	0.195	-0.109
-678.208	-89.684	-0.177	0.052
-677.193	-200.000	0.041	-0.185
-676.178	32.422	-0.192	0.167
-675.164	-21.878	0.169	-0.103
-674.149	292.460	0.153	-0.280
-673.135	-200.000	-0.031	0.423
-672.120	800.000	0.038	-0.126
-671.105	414.189	0.087	-0.185
-670.091	-69.779	0.076	-0.029
-669.076	-164.364	0.170	0.008
-668.062	192.606	-0.092	-0.140
-667.047	-9.228	0.110	0.074
-666.032	116.187	-0.137	-0.169
-665.018	-177.137	-0.277	0.007
-664.003	-58.423	0.145	0.064
-662.989	800.000	-0.071	-0.306
-661.974	-153.077	0.171	0.012
-660.959	-200.000	0.008	-0.226
-659.945	51.399	0.101	0.097
-658.930	-146.066	-0.121	-0.011
-657.916	-6.145	0.235	-0.161
-656.901	-195.516	0.245	-0.002
-655.886	-95.293	0.203	-0.055
-654.872	18.550	0.198	0.159
-653.857	7.120	0.131	-0.098
-652.843	59.287	0.114	-0.113
-651.828	-200.000	0.014	-0.093
-650.814	-104.273	0.204	-0.047
-649.799	-79.166	-0.266	-0.091
-648.784	89.052	0.062	0.070
-647.770	125.731	0.256	-0.325
-646.755	273.068	0.181	-0.322
-645.741	-83.891	-0.366	-0.117
-644.726	-200.000	-0.014	0.206
-643.711	-31.451	-0.243	0.137
-642.697	-188.894	-0.375	0.005
-641.682	139.567	-0.151	0.199
-640.668	800.000	-0.020	0.084
-639.653	768.917	-0.129	-0.354
-638.638	123.186	-0.127	0.160
-637.624	174.043	-0.146	-0.212
-636.609	-8.824	-0.302	0.203
-635.595	46.886	0.113	-0.105
-634.580	-53.350	0.190	0.087
-633.565	-69.384	-0.336	0.130
-632.551	743.038	0.023	-0.063
-631.536	-121.645	0.158	-0.026
-630.522	-112.274	0.220	-0.044
-629.507	800.000	0.030	0.113
-628.492	-200.000	-0.018	-0.134
-627.478	-82.330	-0.068	0.022
-626.463	-51.738	0.303	0.142
-625.449	127.079	-0.206	0.263
-624.434	-200.000	-0.018	0.167
-623.419	-77.039	-0.328	-0.115
-622.405	-44.713	-0.252	-0.126
-621.390	-200.000	0.008	0.057
-620.376	-29.190	0.158	-0.091
-619.361	638.391	-0.110	0.280
-618.346	70.033	0.215	-0.223
-617.332	-139.089	0.233	0.025
-616.317	19.200	0.082	-0.066
-615.303	46.422	0.244	0.228
-614.288	192.082	-0.140	0.211
-613.273	616.754	0.043	0.108
-612.259	94.153	-0.068	-0.078
-611.244	800.000	-0.065	-0.189
-610.230	-200.000	0.030	0.183
-609.215	-200.000	0.076	-0.373
-608.201	-135.987	0.406	0.048
-607.186	-47.630	-0.038	-0.018
-606.171	800.000	0.037	-0.124
-605.157	-200.000	0.013	-0.187
-604.142	180.944	-0.043	0.063
-603.128	1.827	0.181	-0.131
-602.113	301.216	0.116	0.215
-601.098	800.000	0.050	0.198
-600.084	800.000	-0.046	0.161
-599.069	800.000	-0.126	0.423
-598.055	48.028	0.237	-0.222
-597.040	-72.037	-0.139	0.052
-596.025	800.000	0.080	0.330
-595.011	-151.947	-0.012	-0.001
-593.996	578.932	-0.057	-0.140
-592.982	294.715	-0.019	0.036
-591.967	35.637	0.168	0.148
-590.952	-43.583	0.180	0.091
-589.938	-200.000	-0.067	-0.328
-588.923	-48.788	0.113	-0.054
-587.909	-200.000	0.019	-0.145
-586.894	15.269	-0.304	-0.239
-585.879	-139.813	-0.127	0.013
-584.865	800.000	0.052	-0.189
-583.850	94.161	-0.092	0.105
-582.836	-109.225	0.156	-0.033
-581.821	-12.789	0.220	0.144
-580.806	-20.741	0.206	-0.127
-579.792	-97.200	-0.219	-0.057
-578.777	-124.937	-0.259	0.040
-577.763	19.169	-0.076	-0.061
-576.748	175.606	-0.266	0.386
-575.733	-109.537	-0.189	0.040
-574.719	-110.829	0.161	0.033
-573.704	313.319	-0.053	-0.100
-572.690	-148.144	0.076	0.006
-571.675	39.825	-0.087	-0.078
-570.661	-13.812	0.256	-0.166
-569.646	-154.208	-0.094	0.006
-568.631	800.000	-0.067	0.236
-567.617	-135.408	0.244	0.029
-566.602	319.320	0.162	-0.308
-565.588	-8.010	0.195	-0.131
-564.573	-60.404	0.245	0.104
-563.558	-143.665	-0.157	0.015
-562.544	-108.171	-0.409	0.089
-561.529	19.356	0.188	0.152
-560.515	-101.072	-0.073	0.018
-559.500	800.000	-0.085	0.238
-558.485	800.000	-0.041	-0.130
-557.471	639.802	0.108	0.276
-556.456	37.557	-0.089	0.079
-555.442	686.138	0.177	-0.464
-554.427	29.085	-0.133	0.113
-553.412	285.461	0.065	-0.117
-552.398	-84.546	0.136	-0.043
-551.383	-55.432	0.320	0.144
-550.369	-200.000	0.011	0.194
-549.354	800.000	-0.071	-0.196
-548.339	-200.000	0.033	0.272
-547.325	15.114	-0.129	-0.101
-546.310	-200.000	0.011	-0.257
-545.296	-32.905	0.168	-0.093
-544.281	-116.531	0.231	-0.043
-543.266	-66.195	-0.184	0.074
-542.252	-200.000	0.003	0.039
-541.237	204.740	0.183	-0.284
-540.223	187.739	0.007	-0.011
-539.208	-21.405	-0.341	0.208
-538.193	127.592	0.110	-0.140
-537.179	57.494	-0.209	0.204
-536.164	157.568	0.120	0.166
-535.150	-114.610	0.189	-0.036
-534.135	-200.000	-0.011	0.301
-533.121	183.685	-0.154	0.227
-532.106	-48.364	0.276	-0.133
-531.091	-200.000	-0.013	0.334
-530.077	626.507	-0.086	0.218
-529.062	280.848	-0.023	-0.042
-528.048	-163.327	-0.147	0.007
-527.033	-112.168	-0.207	-0.042
-526.018	-80.205	0.093	0.031
-525.004	190.357	-0.138	-0.208
-523.989	347.585	-0.273	-0.538
-522.975	-200.000	0.025	-0.186
-521.960	800.000	-0.085	0.242
-520.945	-0.281	-0.089	0.063
-519.931	81.023	0.100	-0.108
-518.916	38.296	-0.194	-0.173
-517.902	-107.537	0.206	-0.045
-516.887	-200.000	0.086	-0.561
-515.872	-0.143	0.221	-0.157
-514.858	-200.000	0.020	-0.172
-513.843	-27.142	0.278	-0.162
-512.829	-78.459	0.139	-0.048
-511.814	495.012	0.126	-0.289
-510.799	-67.419	0.435	0.171
-509.785	-29.689	-0.311	0.178
-508.770	24.236	0.111	0.091
-507.756	141.850	0.101	0.133
-506.741	800.000	0.037	0.132
-505.726	-169.923	0.490	0.018
-504.712	237.979	0.155	0.257
-503.697	30.795	0.031	-0.027
-502.683	-200.000	0.038	0.211
-501.668	800.000	-0.032	0.091
-500.653	205.348	0.034	0.053
-499.639	173.840	0.097	-0.140
-498.624	-109.582	0.105	0.022
-497.610	17.787	0.254	0.202
-496.595	155.889	-0.154	0.212
-495.581	800.000	0.023	-0.075
-494.566	-200.000	-0.010	0.142
-493.551	54.377	-0.160	0.154
-492.537	-200.000	-0.013	0.190
-491.522	-56.028	-0.220	-0.098
-490.508	-113.108	-0.084	-0.016
-489.493	26.138	0.254	0.212
-488.478	50.975	-0.145	-0.137
-487.464	138.177	0.143	-0.187
-486.449	120.699	-0.043	0.053
-485.435	-200.000	-0.046	0.226
-484.420	-42.477	-0.255	0.130
-483.405	-200.000	0.056	-0.272
-482.391	446.027	0.117	0.258
-481.376	465.320	0.050	0.112
-480.362	-127.837	-0.317	-0.046
-479.347	-148.485	-0.311	0.025
-478.332	55.087	-0.236	-0.228
-477.318	-101.764	-0.501	-0.121
-476.303	-33.115	0.062	0.034
-475.289	-52.222	-0.163	-0.075
-474.274	-36.785	0.255	-0.136
-473.259	800.000	0.056	0.197
-472.245	800.000	-0.057	0.220
-471.230	3.472	-0.145	-0.105
-470.216	243.877	0.050	0.084
-469.201	539.154	0.075	-0.179
-468.186	68.988	-0.122	-0.125
-467.172	-115.849	0.334	-0.062
-466.157	111.941	-0.205	-0.247
-465.143	-74.854	-0.216	-0.077
-464.128	223.573	-0.198	0.320
-463.113	800.000	-0.084	0.293
-462.099	800.000	-0.111	0.311
-461.084	754.420	-0.108	-0.290
-460.070	-55.382	-0.084	-0.037
-459.055	24.882	0.164	0.135
-458.040	800.000	0.039	-0.111
-457.026	-0.417	-0.121	0.086
-456.011	800.000	0.063	0.254
-454.997	-111.062	0.079	0.016
-453.982	-52.778	0.298	-0.137
-452.968	-200.000	0.009	-0.093
-451.953	-200.000	0.009	-0.255
-450.938	-119.385	-0.283	0.049
-449.924	65.491	0.146	-0.148
-448.909	-95.187	0.067	-0.018
-447.895	22.107	0.277	-0.225
-446.880	-3.118	-0.109	0.076
-445.865	163.782	0.064	0.090
-444.851	800.000	-0.064	-0.187
-443.836	-103.596	-0.257	-0.060
-442.822	-12.732	-0.160	0.104
-441.807	112.920	-0.038	-0.046
-440.792	76.877	-0.174	-0.185
-439.778	7.753	-0.323	-0.241
-438.763	-200.000	-0.027	0.127
-437.749	-139.822	0.176	-0.019
-436.734	102.014	0.085	0.099
-435.719	69.990	-0.128	0.132
-434.705	155.073	-0.228	-0.313
-433.690	-137.437	-0.142	-0.016
-432.676	-200.000	-0.014	-0.105
-431.661	-72.804	0.262	-0.096
-430.646	139.393	0.062	0.081
-429.632	-62.048	0.265	0.110
-428.617	-82.004	-0.492	-0.160
-427.603	-22.108	-0.136	0.082
-426.588	-200.000	0.001	0.050
-425.573	-55.658	-0.189	0.084
-424.559	-8.901	0.254	0.169
-423.544	-104.508	0.231	-0.053
-422.530	656.559	0.074	-0.188
-421.515	19.991	-0.102	0.082
-420.500	-77.735	-0.340	0.117
-419.486	217.063	0.117	-0.186
-418.471	335.440	0.170	0.328
-417.457	502.811	-0.127	0.293
-416.442	-114.434	0.204	0.039
-415.428	-100.975	0.262	-0.064
-414.413	741.618	-0.092	0.246
-413.398	87.562	-0.127	-0.140
-412.384	-200.000	-0.020	-0.344
-411.369	-200.000	-0.049	-0.407
-410.355	-23.923	-0.217	-0.129
-409.340	52.716	0.247	-0.235
-408.325	46.062	0.386	-0.356
-407.311	148.710	-0.135	0.182
-406.296	18.340	-0.118	-0.094
-405.282	-8.261	-0.130	-0.087
-404.267	-69.114	-0.134	-0.051
-403.252	-41.355	-0.059	-0.030
-402.238	-97.063	-0.299	-0.078
-401.223	107.404	-0.242	-0.287
-400.209	4.881	0.105	0.077
-399.194	130.288	-0.210	-0.268
-398.179	-200.000	0.004	0.132
-397.165	-200.000	-0.016	-0.134
-396.150	800.000	-0.068	0.275
-395.136	-200.000	0.037	0.440
-394.121	-200.000	-0.043	0.206
-393.106	9.949	0.122	-0.092
-392.092	-200.000	-0.043	-0.275
-391.077	249.803	-0.289	0.488
-390.063	378.355	-0.089	0.180
-389.048	800.000	-0.078	0.322
-388.033	346.625	-0.066	0.128
-387.019	-69.098	-0.183	0.070
-386.004	112.107	-0.133	-0.160
-384.990	325.747	0.043	0.081
-383.975	-90.865	0.134	0.038
-382.960	-182.151	-0.443	0.008
-381.946	-200.000	0.004	0.253
-380.931	-200.000	0.377	0.001
-379.917	-60.198	-0.271	-0.115
-378.902	-61.112	-0.186	0.078
-377.888	-82.746	-0.140	-0.045
-376.873	253.978	0.240	-0.409
-375.858	297.439	-0.065	-0.119
-374.844	223.142	-0.050	0.079
-373.829	-52.331	-0.202	-0.093
-372.815	-15.639	-0.182	0.115
-371.800	-200.000	-0.019	0.158
-370.785	291.661	-0.049	-0.089
-369.771	555.721	0.112	0.269
-368.756	-200.000	-0.005	0.059
-367.742	-116.355	0.058	0.011
-366.727	-21.960	0.212	0.128
-365.712	250.651	0.077	0.130
-364.698	145.664	0.128	-0.170
-363.683	800.000	0.068	0.265
-362.669	99.291	0.101	-0.116
-361.654	149.645	-0.093	-0.125
-360.639	219.396	0.031	-0.050
-359.625	-200.000	0.055	-0.530
-358.610	-200.000	-0.017	-0.172
-357.596	-200.000	-0.035	0.177
-356.581	58.310	-0.278	-0.271
-355.566	-200.000	-0.039	-0.482
-354.552	270.447	-0.132	-0.231
-353.537	564.087	-0.045	-0.109
-352.523	409.599	0.058	-0.121
-351.508	-46.249	-0.042	0.021
-350.493	-200.000	0.013	-0.080
-349.479	132.306	-0.081	-0.103
-348.464	96.800	-0.159	-0.181
-347.450	224.958	-0.155	0.249
-346.435	229.824	-0.139	0.226
-345.420	-172.487	0.237	0.007
-344.406	41.593	0.118	0.106
-343.391	-76.202	0.056	-0.020
-342.377	800.000	0.030	-0.110
-341.362	76.919	-0.195	-0.206
-340.348	-200.000	0.025	-0.154
-339.333	-33.094	0.362	-0.199
-338.318	800.000	0.024	0.104
-337.304	504.728	0.163	0.374
-336.289	23.755	0.069	0.057
-335.275	-200.000	-0.001	0.076
-334.260	800.000	-0.043	0.156
-333.245	-127.181	-0.186	-0.027
-332.231	-200.000	-0.012	0.066
-331.216	-101.728	-0.205	0.049
-330.202	-1.462	0.082	-0.058
-329.187	61.888	-0.058	-0.057
-328.172	171.146	0.255	0.363
-327.158	-126.496	0.239	0.035
-326.143	565.406	-0.088	-0.211
-325.129	257.139	0.092	-0.157
-324.114	-7.708	-0.214	-0.143
-323.099	-130.732	-0.193	0.026
-322.085	-200.000	-0.026	0.183
-321.070	-55.690	0.198	0.088
-320.056	-92.963	0.350	0.097
-319.041	-200.000	0.006	-0.106
-318.026	-200.000	0.001	-0.076
-317.012	-162.016	0.363	0.018
-315.997	303.339	-0.040	-0.073
-314.983	-200.000	0.035	0.346
-313.968	0.819	0.184	-0.131
-312.953	175.348	0.037	0.054
-311.939	-200.000	0.036	-0.259
-310.924	-63.087	0.339	0.139
-309.910	177.189	0.118	0.170
-308.895	-200.000	0.051	0.291
-307.880	101.407	0.274	-0.317
-306.866	437.376	0.068	0.147
-305.851	-87.691	-0.110	0.033
-304.837	-14.352	-0.308	-0.196
-303.822	-161.758	0.079	0.004
-302.807	-92.039	-0.087	-0.024
-301.793	65.630	0.139	0.140
-300.778	49.339	0.252	-0.235
-299.764	-200.000	0.006	-0.035
-298.749	-3.850	-0.262	0.180
-297.735	-200.000	-0.001	0.108
-296.720	-168.939	-0.167	-0.006
-295.705	800.000	0.036	0.106
-294.691	-200.000	0.020	0.248
-293.676	-200.000	-0.065	0.310
-292.662	3.566	0.251	-0.181
-291.647	142.098	-0.150	0.197
-290.632	-53.447	-0.173	-0.078
-289.618	-69.595	-0.267	-0.101
-288.603	145.119	0.139	-0.184
-287.589	-200.000	0.022	0.098
-286.574	80.600	0.131	-0.139
-285.559	800.000	-0.029	0.087
-284.545	-144.222	0.271	0.025
-283.530	563.825	0.110	-0.264
-282.516	3.216	-0.205	-0.148
-281.501	1.231	0.246	-0.175
-280.486	-200.000	-0.004	-0.076
-279.472	-131.036	-0.037	0.005
-278.457	-29.418	-0.204	0.116
-277.443	334.701	0.187	-0.359
-276.428	-107.260	0.291	0.063
-275.413	-200.000	-0.011	0.165
-274.399	800.000	-0.040	-0.137
-273.384	800.000	-0.096	0.326
-272.370	800.000	-0.065	0.196
-271.355	196.310	0.048	0.073
-270.340	102.512	0.159	-0.184
-269.326	173.399	0.128	-0.183
-268.311	-200.000	0.004	0.254
-267.297	26.868	-0.195	0.162
-266.282	-58.818	0.341	0.146
-265.267	-105.830	-0.247	0.055
-264.253	800.000	0.028	0.081
-263.238	-2.024	-0.258	-0.180
-262.224	-15.075	-0.203	0.129
-261.209	45.308	0.105	-0.096
-260.195	-9.238	0.119	-0.079
-259.180	-73.194	0.234	-0.085
-258.165	800.000	0.092	0.346
-257.151	-6.783	0.060	-0.041
-256.136	-70.179	-0.132	-0.049
-255.122	2.554	-0.088	-0.063
-254.107	238.787	-0.170	-0.279
-253.092	-108.458	0.145	0.031
-252.078	-156.133	-0.395	0.025
-251.063	-200.000	0.001	-0.082
-250.049	165.589	0.146	0.204
-249.034	-120.892	0.365	0.061
-248.019	-97.424	0.359	0.092
-247.005	218.506	0.065	0.103
-245.990	-122.113	-0.153	0.025
-244.976	-74.942	0.315	0.112
-243.961	-118.634	0.178	0.031
-242.946	193.446	-0.022	0.033
-241.932	54.124	-0.145	-0.138
-240.917	-27.005	0.088	0.051
-239.903	-87.428	0.337	-0.101
-238.888	-200.000	-0.051	0.429
-237.873	800.000	0.109	0.341
-236.859	800.000	-0.177	0.504
-235.844	-200.000	0.008	-0.363
-234.830	45.585	-0.082	-0.075
-233.815	-200.000	0.180	0.001
-232.800	-37.766	0.335	0.176
-231.786	175.576	0.206	-0.295
-230.771	52.687	0.151	0.142
-229.757	-41.291	0.241	-0.123
-228.742	288.157	0.163	0.291
-227.727	99.157	0.141	0.161
-226.713	138.663	0.084	-0.109
-225.698	-200.000	0.017	-0.229
-224.684	-38.033	-0.108	-0.057
-223.669	89.990	-0.226	-0.250
-222.655	-53.281	0.104	-0.047
-221.640	-200.000	-0.011	0.354
-220.625	10.499	-0.055	0.042
-219.611	60.489	0.137	0.134
-218.596	98.271	-0.157	0.179
-217.582	800.000	0.082	-0.224
-216.567	-32.408	0.342	-0.189
-215.552	-200.000	-0.050	-0.357
-214.538	97.205	-0.187	-0.212
-213.523	-54.004	-0.138	0.062
-212.509	49.924	-0.052	-0.049
-211.494	486.345	-0.081	-0.182
-210.479	8.227	0.220	0.163
-209.465	800.000	0.063	-0.197
-208.450	-200.000	-0.003	0.075
-207.436	-57.799	-0.288	0.124
-206.421	-96.021	0.114	0.030
-205.406	-146.915	0.233	0.020
-204.392	442.999	0.052	-0.112
-203.377	-200.000	-0.059	-0.375
-202.363	-42.919	0.092	0.046
-201.348	-200.000	0.060	0.337
-200.333	384.530	-0.071	-0.144
-199.319	-168.181	0.471	-0.018
-198.304	271.439	0.117	0.204
-197.290	-41.114	0.162	0.083
-196.275	590.144	-0.119	-0.289
-195.260	-200.000	-0.001	-0.016
-194.246	-200.000	0.025	-0.411
-193.231	-200.000	0.040	-0.213
-192.217	-13.158	0.183	0.118
-191.202	211.592	0.143	0.222
-190.187	-200.000	-0.017	0.184
-189.173	-97.655	-0.100	-0.025
-188.158	-25.060	-0.155	-0.091
-187.144	-115.627	0.450	0.083
-186.129	599.736	-0.067	0.164
-185.114	-65.267	-0.088	-0.035
-184.100	-74.550	-0.219	0.078
-183.085	44.343	0.244	0.221
-182.071	-192.344	-0.513	-0.005
-181.056	225.739	0.123	0.196
-180.042	32.486	-0.186	-0.159
-179.027	-25.792	-0.255	0.148
-178.012	93.955	0.101	0.113
-176.998	-120.398	-0.276	0.046
-175.983	-67.239	-0.223	-0.087
-174.969	145.540	-0.153	0.202
-173.954	-99.155	0.184	-0.046
-172.939	800.000	-0.069	0.213
-171.925	-200.000	-0.053	0.246
-170.910	-200.000	0.061	-0.314
-169.896	4.859	-0.125	-0.090
-168.881	-200.000	0.009	-0.177
-167.866	448.706	-0.049	-0.105
-166.852	-200.000	0.047	0.311
-165.837	-200.000	0.006	0.129
-164.823	660.722	0.093	0.237
-163.808	-7.579	-0.417	-0.278
-162.793	-39.164	-0.367	0.190
-161.779	-97.413	-0.093	-0.024
-160.764	57.747	-0.235	-0.227
-159.750	294.635	0.251	-0.453
-158.735	50.307	-0.107	-0.100
-157.720	21.569	-0.107	-0.086
-156.706	-16.010	0.186	0.116
-155.691	-75.737	-0.178	0.062
-154.677	58.953	-0.221	-0.214
-153.662	-200.000	0.003	-0.035
-152.647	267.861	0.092	-0.159
-151.633	-200.000	0.029	-0.183
-150.618	-130.840	0.265	0.035
-149.604	39.891	0.197	0.175
-148.589	270.904	0.052	-0.090
-147.574	107.227	0.231	-0.271
-146.560	-34.562	0.132	-0.071
-145.545	-200.000	-0.011	-0.396
-144.531	74.153	0.123	-0.127
-143.516	-168.808	0.355	0.013
-142.502	695.504	-0.038	0.098
-141.487	-10.773	-0.501	0.326
-140.472	-121.748	0.167	-0.027
-139.458	96.771	-0.204	-0.230
-138.443	-43.278	0.174	0.087
-137.429	-112.648	-0.222	0.044
-136.414	-42.771	-0.290	-0.145
-135.399	-134.163	0.145	0.018
-134.385	-114.066	0.181	-0.035
-133.370	-1.503	0.175	-0.121
-132.356	27.895	-0.085	0.070
-131.341	-120.440	0.065	0.011
-130.326	61.681	0.382	-0.375
-129.312	203.944	0.048	0.073
-128.297	85.705	-0.175	-0.190
-127.283	170.333	0.129	0.182
-126.268	800.000	0.090	0.355
-125.253	-32.226	0.153	-0.084
-124.239	-58.354	0.176	0.075
-123.224	-18.034	0.093	0.057
-122.210	-137.657	0.259	0.029
-121.195	-71.361	0.231	0.085
-120.180	800.000	-0.054	0.163
