DTS Sentinel unit serial number:	SN413079Multiplexer serial number:	ORYXHardware model number:	OX4-SRSoftware version number:	ORYX F/W v4.00 Oryx Data Collector v3.7.2.0data status	okinstallation	princeton_trtdifferential loss correction	single-endedforward channel	channel 2reverse channel	N/Adate	2019/09/12time	09:49:11forward acquisition time	60.00reverse acquisition time	0.00gamma	496.2192k internal	0.2315k external	0.2315temperature offset calibration	1.0065default loss term (dB/km)	0.3790temperature slope calibration	1.0000multiplexer offset coefficient	1.0000multiplexer slope coefficient	1.0000fibre end	0.00T internal ref (°C)	36.00T ext. ref 1 (°C)	1.84T ext. ref 2 (°C)	32.45length (m)	temperature (°C)	Stokes	anti-Stokes-747.200	-171.575	-0.279	0.009
-746.185	124.941	-0.160	0.204
-745.171	452.178	0.064	-0.143
-744.156	293.365	0.403	0.746
-743.142	234.380	0.045	0.076
-742.127	-200.000	-0.025	0.128
-741.112	-200.000	-0.003	-0.118
-740.098	-13.777	-0.274	0.180
-739.083	80.638	0.127	0.138
-738.069	352.729	0.136	0.274
-737.054	-114.106	0.300	0.059
-736.039	24.321	0.170	0.143
-735.025	-82.122	0.066	-0.022
-734.010	800.000	0.029	0.090
-732.996	800.000	-0.026	-0.081
-731.981	-200.000	-0.031	0.159
-730.966	108.396	0.200	0.242
-729.952	-200.000	-0.034	-0.173
-728.937	-200.000	0.031	0.246
-727.923	-200.000	-0.040	-0.190
-726.908	-154.786	-0.374	0.025
-725.894	86.736	0.160	-0.179
-724.879	773.199	-0.057	0.157
-723.864	-200.000	0.020	0.444
-722.850	124.283	-0.092	0.117
-721.835	-111.152	0.042	-0.009
-720.821	171.216	0.219	-0.318
-719.806	-200.000	0.028	-0.338
-718.791	28.735	0.013	0.011
-717.777	-200.000	0.010	-0.100
-716.762	-20.298	0.271	-0.169
-715.748	-145.906	-0.329	0.030
-714.733	18.907	0.129	0.105
-713.718	-80.368	0.097	-0.033
-712.704	-47.695	0.022	-0.011
-711.689	79.785	-0.136	0.148
-710.675	490.313	-0.058	-0.134
-709.660	-144.737	0.226	0.021
-708.645	800.000	-0.027	0.119
-707.631	42.776	0.172	0.159
-706.616	-64.548	-0.286	-0.117
-705.602	-25.669	0.219	-0.131
-704.587	245.610	-0.042	-0.072
-703.572	800.000	-0.048	-0.137
-702.558	-99.644	0.150	0.038
-701.543	-200.000	-0.019	-0.289
-700.529	40.579	0.023	0.021
-699.514	-117.084	0.580	-0.107
-698.499	-131.289	-0.112	-0.015
-697.485	-33.680	-0.074	0.041
-696.470	183.505	0.106	-0.159
-695.456	-200.000	0.019	0.118
-694.441	-125.934	0.186	0.028
-693.426	392.117	-0.117	0.246
-692.412	-139.623	0.173	0.019
-691.397	442.762	0.074	0.164
-690.383	130.315	-0.109	-0.141
-689.368	-81.534	0.120	0.040
-688.354	-26.432	0.148	0.088
-687.339	-177.335	-0.439	0.011
-686.324	-4.283	-0.114	0.080
-685.310	-200.000	0.044	-0.323
-684.295	364.065	0.079	-0.161
-683.281	-121.698	-0.097	0.016
-682.266	620.751	-0.069	0.177
-681.251	-200.000	0.028	-0.149
-680.237	-24.296	0.230	0.139
-679.222	800.000	-0.149	-0.523
-678.208	-71.178	-0.397	-0.151
-677.193	212.432	0.156	0.248
-676.178	800.000	0.021	0.067
-675.164	-31.668	-0.327	0.185
-674.149	-172.942	-0.165	-0.005
-673.135	-200.000	0.043	-0.475
-672.120	-58.266	0.060	0.026
-671.105	30.470	-0.071	0.061
-670.091	28.764	-0.097	-0.083
-669.076	32.377	-0.199	-0.174
-668.062	775.167	-0.080	-0.222
-667.047	12.116	0.146	0.114
-666.032	157.374	0.041	0.058
-665.018	-149.118	-0.430	-0.035
-664.003	-5.907	0.252	-0.174
-662.989	150.356	-0.090	-0.123
-661.974	800.000	0.053	-0.192
-660.959	145.372	0.062	-0.084
-659.945	-39.924	-0.246	-0.130
-658.930	-149.992	0.094	-0.007
-657.916	-106.139	0.194	0.044
-656.901	-91.562	0.167	-0.048
-655.886	-54.054	-0.294	-0.135
-654.872	223.631	0.127	0.207
-653.857	-21.699	0.236	-0.145
-652.843	6.530	-0.044	-0.033
-651.828	-134.090	0.265	-0.033
-650.814	-142.049	0.273	0.027
-649.799	-60.508	-0.074	-0.032
-648.784	343.811	0.082	-0.163
-647.770	119.600	0.133	-0.166
-646.755	800.000	-0.022	-0.070
-645.741	-119.199	-0.307	-0.054
-644.726	-143.575	-0.199	0.019
-643.711	-200.000	-0.060	0.284
-642.697	93.200	0.088	-0.101
-641.682	-200.000	0.012	-0.420
-640.668	-67.650	0.197	0.078
-639.653	274.223	-0.117	-0.209
-638.638	47.911	-0.127	-0.120
-637.624	120.426	0.061	0.076
-636.609	92.451	-0.062	0.071
-635.595	474.892	0.092	-0.209
-634.580	800.000	-0.069	0.196
-633.565	-200.000	0.045	0.385
-632.551	132.079	-0.144	-0.187
-631.536	-200.000	-0.005	-0.176
-630.522	-176.963	-0.140	0.004
-629.507	-135.911	-0.131	-0.016
-628.492	-161.290	-0.119	0.006
-627.478	-39.068	0.226	0.120
-626.463	47.585	-0.231	0.218
-625.449	-132.789	-0.083	0.011
-624.434	76.557	-0.284	-0.303
-623.419	233.817	-0.020	-0.033
-622.405	250.052	-0.166	0.284
-621.390	51.527	0.166	0.159
-620.376	-200.000	-0.009	-0.221
-619.361	15.857	-0.118	-0.093
-618.346	122.919	-0.161	0.203
-617.332	-200.000	-0.019	0.095
-616.317	562.099	0.128	-0.312
-615.303	31.754	0.137	-0.118
-614.288	1.046	-0.091	0.066
-613.273	233.047	0.178	0.294
-612.259	24.019	0.260	-0.216
-611.244	365.843	-0.153	-0.312
-610.230	108.741	-0.260	0.313
-609.215	19.935	-0.064	-0.052
-608.201	100.870	-0.050	-0.058
-607.186	-106.292	-0.287	0.065
-606.171	-200.000	-0.006	-0.032
-605.157	-144.457	-0.114	0.011
-604.142	-27.764	-0.062	-0.036
-603.128	-200.000	-0.021	-0.200
-602.113	44.705	0.162	0.150
-601.098	16.300	-0.082	0.065
-600.084	-200.000	-0.017	-0.105
-599.069	131.734	-0.097	-0.126
-598.055	46.902	-0.343	0.321
-597.040	800.000	-0.021	0.071
-596.025	-200.000	0.006	0.244
-595.011	-48.567	-0.159	0.077
-593.996	476.496	-0.060	0.136
-592.982	260.737	-0.069	0.120
-591.967	-25.899	-0.066	0.039
-590.952	361.813	-0.133	0.268
-589.938	318.464	0.096	-0.183
-588.923	44.329	0.107	0.099
-587.909	42.088	-0.321	0.294
-586.894	-200.000	0.055	-0.250
-585.879	800.000	-0.107	-0.377
-584.865	-90.423	0.218	0.064
-583.850	80.962	0.226	-0.246
-582.836	-141.118	0.095	-0.010
-581.821	61.414	0.033	-0.033
-580.806	-78.888	-0.089	-0.030
-579.792	16.793	0.083	-0.066
-578.777	-200.000	0.040	-0.318
-577.763	-121.472	-0.301	-0.050
-576.748	-127.049	-0.316	0.047
-575.733	276.816	0.140	-0.250
-574.719	54.974	0.174	0.169
-573.704	74.651	0.076	-0.081
-572.690	12.460	-0.310	-0.241
-571.675	40.968	-0.173	-0.157
-570.661	87.114	0.317	-0.352
-569.646	565.137	0.080	0.196
-568.631	-200.000	0.013	0.193
-567.617	45.940	-0.216	0.201
-566.602	-16.408	0.117	0.074
-565.588	-39.428	0.055	-0.029
-564.573	50.289	0.062	0.059
-563.558	-31.974	-0.190	0.107
-562.544	-200.000	-0.004	0.177
-561.529	-200.000	-0.025	-0.427
-560.515	133.502	0.175	-0.228
-559.500	150.412	0.164	0.224
-558.485	431.077	-0.116	-0.253
-557.471	75.702	0.168	0.178
-556.456	-200.000	0.020	-0.189
-555.442	320.579	-0.086	-0.164
-554.427	800.000	-0.093	-0.277
-553.412	-17.748	0.064	-0.040
-552.398	-200.000	-0.033	-0.167
-551.383	-103.463	-0.204	0.048
-550.369	158.268	-0.095	0.132
-549.354	-200.000	-0.005	-0.139
-548.339	800.000	0.048	-0.175
-547.325	-55.702	0.044	0.020
-546.310	800.000	-0.059	0.207
-545.296	2.664	-0.148	0.108
-544.281	-17.138	0.139	-0.088
-543.266	108.726	-0.042	-0.050
-542.252	-104.455	0.168	0.039
-541.237	800.000	-0.122	0.364
-540.223	800.000	-0.062	0.237
-539.208	633.266	0.051	0.130
-538.193	-200.000	-0.034	-0.251
-537.179	-177.870	0.153	0.004
-536.164	359.407	-0.121	0.244
-535.150	460.944	0.135	0.303
-534.135	-77.337	-0.197	0.069
-533.121	-51.599	-0.256	-0.120
-532.106	-66.360	0.065	0.026
-531.091	800.000	0.062	-0.264
-530.077	172.372	-0.093	0.135
-529.062	253.119	0.088	0.151
-528.048	-35.269	0.266	0.145
-527.033	159.487	0.105	0.146
-526.018	23.423	0.164	-0.135
-525.004	-141.236	0.239	0.024
-523.989	-58.126	-0.169	-0.074
-522.975	164.871	-0.107	0.152
-521.960	-66.116	0.022	-0.009
-520.945	-49.884	0.259	0.124
-519.931	169.990	0.112	0.160
-518.916	19.444	0.103	0.083
-517.902	111.904	-0.059	-0.071
-516.887	47.347	0.073	-0.069
-515.872	-32.661	0.234	-0.131
-514.858	-15.056	0.046	-0.029
-513.843	-29.346	0.075	0.043
-512.829	115.387	0.227	0.279
-511.814	-102.733	0.243	0.058
-510.799	800.000	-0.095	-0.278
-509.785	75.095	0.115	-0.122
-508.770	685.820	0.050	-0.132
-507.756	-8.967	0.180	0.121
-506.741	406.854	-0.100	0.212
-505.726	-200.000	0.001	0.186
-504.712	-147.879	0.159	0.013
-503.697	111.229	0.144	-0.174
-502.683	-36.387	-0.132	-0.071
-501.668	401.173	0.048	0.102
-500.653	800.000	-0.093	0.306
-499.639	0.815	0.113	-0.081
-498.624	-68.257	0.121	-0.047
-497.610	163.755	0.094	-0.133
-496.595	202.517	-0.125	0.194
-495.581	800.000	-0.023	-0.074
-494.566	92.540	-0.195	0.221
-493.551	-73.810	0.374	-0.136
-492.537	134.151	0.288	0.374
-491.522	-0.260	0.184	-0.131
-490.508	225.429	-0.116	0.188
-489.493	-13.552	-0.118	0.077
-488.478	800.000	0.049	-0.164
-487.464	38.123	0.084	-0.075
-486.449	264.550	-0.187	0.327
-485.435	119.527	-0.180	-0.224
-484.420	-200.000	0.030	-0.170
-483.405	-86.628	-0.248	0.076
-482.391	195.909	0.256	0.390
-481.376	110.006	0.208	0.250
-480.362	194.594	-0.015	0.022
-479.347	-80.353	0.075	0.025
-478.332	191.004	0.134	-0.202
-477.318	-107.024	0.110	-0.024
-476.303	-119.154	0.150	-0.026
-475.289	-200.000	0.037	-0.218
-474.274	90.846	-0.227	0.255
-473.259	138.425	0.012	0.015
-472.245	-31.066	-0.121	-0.068
-471.230	-90.992	-0.302	0.087
-470.216	-94.293	-0.279	-0.076
-469.201	-82.146	0.115	-0.038
-468.186	-164.747	-0.171	0.008
-467.172	-138.304	0.427	0.047
-466.157	23.839	0.060	0.049
-465.143	-126.628	0.294	0.044
-464.128	-200.000	-0.001	0.050
-463.113	-200.000	-0.010	0.137
-462.099	-38.749	0.343	0.182
-461.084	-161.499	0.334	0.017
-460.070	-200.000	-0.001	0.186
-459.055	-77.731	-0.042	-0.015
-458.040	-163.596	-0.251	-0.012
-457.026	-61.677	0.143	-0.060
-456.011	-25.577	-0.163	0.097
-454.997	106.724	0.076	-0.090
-453.982	-200.000	0.005	-0.081
-452.968	-200.000	0.032	-0.152
-451.953	64.849	0.056	-0.057
-450.938	59.975	-0.034	0.034
-449.924	-9.044	0.104	0.070
-448.909	800.000	-0.136	-0.438
-447.895	-57.742	0.242	-0.106
-446.880	-145.345	-0.167	-0.015
-445.865	56.868	0.231	-0.225
-444.851	-200.000	-0.066	-0.304
-443.836	-140.036	-0.247	0.026
-442.822	482.034	-0.014	0.032
-441.807	257.376	0.086	0.149
-440.792	-62.602	0.182	0.076
-439.778	47.133	-0.144	0.135
-438.763	-200.000	-0.007	0.360
-437.749	344.630	-0.061	-0.120
-436.734	-46.549	0.287	0.141
-435.719	-67.932	0.228	0.089
-434.705	800.000	0.073	-0.214
-433.690	24.151	0.229	-0.189
-432.676	-129.593	0.347	0.048
-431.661	250.596	-0.090	-0.153
-430.646	188.672	0.030	-0.045
-429.632	236.035	0.138	0.229
-428.617	-31.301	0.013	-0.007
-427.603	122.912	-0.165	-0.207
-426.588	800.000	-0.152	-0.423
-425.573	800.000	-0.054	-0.153
-424.559	-185.590	0.304	0.005
-423.544	19.362	-0.260	0.209
-422.530	-120.244	-0.066	-0.011
-421.515	-9.730	-0.137	-0.091
-420.500	208.194	-0.108	0.168
-419.486	-200.000	-0.002	-0.276
-418.471	-113.144	-0.225	-0.044
-417.457	-134.971	0.257	-0.031
-416.442	607.560	-0.105	-0.262
-415.428	-159.613	-0.535	0.030
-414.413	-7.346	-0.127	0.086
-413.398	449.710	0.115	-0.253
-412.384	-42.953	-0.122	0.062
-411.369	42.049	-0.256	-0.233
-410.355	-78.396	-0.148	0.051
-409.340	-8.119	0.077	0.052
-408.325	289.003	0.040	0.072
-407.311	161.351	0.095	-0.133
-406.296	100.244	-0.098	0.113
-405.282	-200.000	0.004	-0.043
-404.267	13.852	0.185	-0.144
-403.252	321.643	0.046	-0.088
-402.238	-138.234	-0.094	-0.010
-401.223	74.428	0.213	0.224
-400.209	-200.000	-0.080	0.525
-399.194	43.124	0.130	-0.118
-398.179	6.045	0.285	-0.211
-397.165	800.000	0.045	-0.142
-396.150	-72.912	0.219	-0.080
-395.136	48.197	-0.142	-0.133
-394.121	392.367	-0.198	-0.411
-393.106	-200.000	0.012	-0.268
-392.092	-200.000	0.008	0.169
-391.077	-33.970	-0.308	-0.169
-390.063	-200.000	-0.012	0.348
-389.048	-1.215	-0.134	0.095
-388.033	47.605	0.183	0.170
-387.019	-117.068	0.185	0.034
-386.004	-145.153	-0.245	0.022
-384.990	-20.303	0.305	0.188
-383.975	54.528	-0.262	0.252
-382.960	-143.744	0.287	-0.027
-381.946	38.737	-0.272	0.243
-380.931	-200.000	-0.040	-0.298
-379.917	91.422	0.213	0.239
-378.902	-19.354	0.141	0.088
-377.888	-200.000	0.012	0.112
-376.873	-61.202	-0.265	-0.112
-375.858	-200.000	0.046	0.331
-374.844	-10.714	-0.233	-0.154
-373.829	346.134	0.116	-0.229
-372.815	367.365	-0.032	-0.064
-371.800	-200.000	-0.001	0.118
-370.785	-54.255	0.427	-0.194
-369.771	-200.000	-0.028	-0.301
-368.756	484.671	-0.102	-0.231
-367.742	-200.000	-0.043	-0.314
-366.727	-43.174	0.130	0.066
-365.712	375.181	-0.060	0.122
-364.698	800.000	0.019	-0.080
-363.683	-17.656	-0.275	-0.173
-362.669	232.660	0.154	-0.253
-361.654	148.919	0.029	0.040
-360.639	241.945	0.036	0.060
-359.625	13.404	-0.163	-0.126
-358.610	117.662	-0.226	-0.278
-357.596	12.354	-0.102	0.079
-356.581	189.642	0.129	0.193
-355.566	689.124	0.188	-0.490
-354.552	800.000	0.155	-0.634
-353.537	46.818	-0.105	0.097
-352.523	14.733	0.110	-0.086
-351.508	-84.352	0.426	-0.134
-350.493	91.252	0.173	0.194
-349.479	-91.882	-0.216	0.061
-348.464	-127.997	0.217	0.031
-347.450	-94.245	-0.162	-0.044
-346.435	-200.000	-0.067	-0.361
-345.420	9.791	-0.372	-0.281
-344.406	-200.000	0.018	0.179
-343.391	108.693	0.066	0.079
-342.377	7.914	-0.186	-0.139
-341.362	32.711	0.207	0.179
-340.348	-178.186	0.063	-0.001
-339.333	22.914	0.289	-0.236
-338.318	-7.259	-0.066	-0.045
-337.304	778.807	-0.109	-0.297
-336.289	-48.009	0.188	0.091
-335.275	-173.163	-0.281	-0.009
-334.260	39.453	-0.280	-0.250
-333.245	-20.526	-0.171	-0.105
-332.231	-83.048	0.041	0.013
-331.216	-108.177	0.242	-0.052
-330.202	184.962	0.136	0.201
-329.187	-51.367	0.140	0.065
-328.172	-60.815	-0.208	-0.088
-327.158	81.731	0.102	0.110
-326.143	-4.726	-0.136	0.094
-325.129	56.052	0.044	-0.043
-324.114	-35.384	-0.147	-0.079
-323.099	87.045	0.009	-0.010
-322.085	-72.587	-0.322	0.119
-321.070	40.681	0.107	0.097
-320.056	-18.543	0.213	0.133
-319.041	266.483	0.083	0.145
-318.026	800.000	-0.139	0.540
-317.012	487.139	-0.092	0.209
-315.997	-200.000	0.065	-0.456
-314.983	2.254	-0.076	-0.055
-313.968	69.416	0.162	0.167
-312.953	28.963	-0.076	0.064
-311.939	-145.706	-0.163	0.015
-310.924	-200.000	-0.002	0.023
-309.910	-131.104	0.276	0.037
-308.895	-97.037	0.105	0.027
-307.880	-200.000	0.178	-0.000
-306.866	-200.000	-0.007	-0.338
-305.851	-171.156	0.238	0.008
-304.837	70.790	-0.036	-0.037
-303.822	-83.829	0.198	-0.063
-302.807	-200.000	-0.011	0.233
-301.793	-200.000	-0.025	0.164
-300.778	599.348	0.087	-0.216
-299.764	-66.713	0.227	0.090
-298.749	-37.568	0.200	0.106
-297.735	668.836	0.050	0.129
-296.720	375.878	0.056	0.115
-295.705	800.000	0.011	0.031
-294.691	-107.349	0.392	-0.086
-293.676	-43.731	0.369	-0.185
-292.662	31.902	-0.085	0.073
-291.647	53.719	-0.075	-0.071
-290.632	103.346	0.301	0.352
-289.618	121.447	0.120	0.149
-288.603	800.000	-0.101	-0.340
-287.589	293.045	-0.214	-0.388
-286.574	257.114	-0.157	0.269
-285.559	253.235	-0.127	0.217
-284.545	13.640	0.146	0.113
-283.530	-148.042	-0.163	-0.014
-282.516	211.252	-0.232	-0.363
-281.501	236.528	-0.130	0.214
-280.486	-76.044	-0.131	0.046
-279.472	8.490	0.156	-0.117
-278.457	-107.447	-0.202	-0.044
-277.443	-142.311	0.336	0.033
-276.428	50.408	0.236	0.222
-275.413	-109.082	-0.171	-0.036
-274.399	-68.156	-0.216	0.084
-273.384	-200.000	0.013	0.215
-272.370	105.499	-0.217	-0.255
-271.355	771.534	-0.115	0.312
-270.340	-200.000	-0.001	-0.301
-269.326	48.597	0.164	0.153
-268.311	-102.161	0.324	0.078
-267.297	271.021	-0.128	-0.225
-266.282	541.760	-0.116	0.274
-265.267	266.258	-0.118	0.205
-264.253	-130.638	-0.404	-0.054
-263.238	-5.077	0.149	-0.102
-262.224	-200.000	-0.001	0.175
-261.209	126.506	0.080	-0.101
-260.195	-46.494	-0.189	-0.092
-259.180	-51.153	-0.059	-0.028
-258.165	-49.553	-0.135	0.064
-257.151	-99.961	0.260	-0.065
-256.136	533.469	-0.037	0.088
-255.122	-200.000	0.057	0.521
-254.107	149.183	-0.118	0.158
-253.092	359.607	-0.134	0.267
-252.078	205.997	0.099	-0.154
-251.063	-103.636	0.280	0.065
-250.049	40.416	-0.182	0.163
-249.034	-34.539	-0.189	0.103
-248.019	-101.444	-0.255	-0.062
-247.005	-200.000	0.042	-0.230
-245.990	-85.917	-0.396	0.122
-244.976	-200.000	0.029	0.184
-243.961	-138.766	0.338	-0.037
-242.946	-168.045	0.141	0.005
-241.932	102.083	-0.165	0.192
-240.917	-131.281	-0.200	-0.026
-239.903	-30.521	-0.247	0.139
-238.888	500.502	0.108	0.248
-237.873	378.870	-0.145	-0.295
-236.859	105.428	0.182	-0.214
-235.844	-142.034	-0.357	0.035
-234.830	-77.307	-0.076	0.026
-233.815	588.179	0.109	0.267
-232.800	-73.376	-0.174	-0.063
-231.786	-200.000	0.011	0.489
-230.771	-200.000	-0.053	-0.286
-229.757	-48.345	-0.173	-0.083
-228.742	-97.780	-0.353	-0.091
-227.727	-200.000	0.051	-0.247
-226.713	308.665	-0.118	-0.218
-225.698	-15.361	0.132	0.084
-224.684	-57.740	-0.051	-0.022
-223.669	-36.366	0.307	0.164
-222.655	-178.187	-0.272	0.006
-221.640	-200.000	0.039	-0.251
-220.625	-36.150	0.126	0.067
-219.611	424.745	0.163	0.348
-218.596	-140.199	0.286	0.030
-217.582	800.000	0.056	0.205
-216.567	10.069	-0.233	0.176
-215.552	-133.762	-0.325	0.040
-214.538	149.649	-0.158	-0.213
-213.523	-88.382	0.277	0.082
-212.509	777.305	-0.054	0.146
-211.494	114.475	-0.172	-0.208
-210.479	-200.000	0.043	0.191
-209.465	60.373	-0.153	0.150
-208.450	276.703	0.119	-0.211
-207.436	-180.083	-0.473	0.010
-206.421	-200.000	0.006	0.276
-205.406	111.341	0.100	0.120
-204.392	800.000	0.056	-0.243
-203.377	185.495	0.161	0.238
-202.363	87.060	-0.052	-0.057
-201.348	41.647	-0.134	-0.120
-200.333	800.000	-0.044	0.152
-199.319	473.299	0.012	-0.026
-198.304	398.124	-0.056	-0.117
-197.290	-200.000	-0.048	-0.349
-196.275	8.941	0.181	0.136
-195.260	-26.911	0.215	-0.125
-194.246	-200.000	-0.013	-0.217
-193.231	-200.000	-0.058	0.385
-192.217	-5.776	0.097	-0.066
-191.202	244.024	-0.098	0.163
-190.187	45.439	-0.177	0.162
-189.173	-71.246	0.135	-0.050
-188.158	26.667	0.449	-0.373
-187.144	53.106	-0.110	-0.104
-186.129	-200.000	0.008	0.062
-185.114	636.599	0.076	0.190
-184.100	37.803	0.132	-0.116
-183.085	1.478	0.099	0.071
-182.071	-67.811	0.091	-0.035
-181.056	192.811	-0.042	-0.064
-180.042	-79.627	-0.075	0.025
-179.027	800.000	-0.040	0.173
-178.012	-6.297	-0.149	0.101
-176.998	-200.000	-0.004	0.206
-175.983	-200.000	-0.045	0.221
-174.969	-44.184	-0.309	-0.154
-173.954	800.000	0.067	-0.263
-172.939	-200.000	-0.012	-0.124
-171.925	-200.000	0.012	0.081
-170.910	666.732	-0.067	0.171
-169.896	-200.000	0.016	-0.362
-168.881	-26.359	0.204	-0.118
-167.866	224.322	0.215	0.344
-166.852	104.189	0.134	-0.156
-165.837	14.080	-0.141	-0.109
-164.823	-82.202	0.206	-0.067
-163.808	662.940	-0.073	-0.187
-162.793	159.669	-0.214	0.295
-161.779	25.564	-0.190	0.157
-160.764	245.335	-0.053	0.089
-159.750	-102.070	0.123	-0.029
-158.735	-127.007	0.127	-0.019
-157.720	800.000	0.049	0.141
-156.706	800.000	-0.041	-0.117
-155.691	-200.000	-0.020	0.111
-154.677	-200.000	-0.005	0.033
-153.662	-109.968	0.171	-0.035
-152.647	108.445	0.105	-0.125
-151.633	-164.520	-0.079	-0.004
-150.618	-112.019	0.181	0.036
-149.604	324.333	-0.094	0.178
-148.589	-200.000	-0.042	-0.210
-147.574	800.000	-0.066	-0.216
-146.560	800.000	0.069	0.271
-145.545	-66.271	-0.076	-0.030
-144.531	-126.520	0.221	-0.032
-143.516	-200.000	-0.011	-0.065
-142.502	-200.000	-0.057	-0.311
-141.487	6.843	0.205	0.151
-140.472	-200.000	0.026	0.228
-139.458	-87.771	-0.219	0.065
-138.443	800.000	-0.081	0.344
-137.429	-199.819	-0.566	-0.003
-136.414	800.000	-0.066	-0.214
-135.399	-200.000	-0.027	-0.128
-134.385	-89.062	0.193	0.056
-133.370	800.000	0.105	0.428
-132.356	-85.388	-0.253	0.078
-131.341	800.000	0.035	-0.149
-130.326	503.696	0.010	0.022
-129.312	321.822	-0.027	-0.051
-128.297	-84.741	0.247	0.077
-127.283	-29.279	0.257	-0.145
-126.268	800.000	-0.070	0.262
-125.253	38.262	0.306	-0.269
-124.239	27.582	-0.041	0.034
-123.224	800.000	0.148	0.409
-122.210	-52.655	0.168	0.077
-121.195	-0.252	-0.053	0.037
-120.180	-8.649	0.444	-0.295
