DTS Sentinel unit serial number:	SN413079Multiplexer serial number:	ORYXHardware model number:	OX4-SRSoftware version number:	ORYX F/W v4.00 Oryx Data Collector v3.7.2.0data status	okinstallation	princeton_trtdifferential loss correction	single-endedforward channel	channel 2reverse channel	N/Adate	2019/09/15time	01:23:35forward acquisition time	60.00reverse acquisition time	0.00gamma	496.2192k internal	0.2325k external	0.2325temperature offset calibration	1.0036default loss term (dB/km)	0.3790temperature slope calibration	1.0000multiplexer offset coefficient	1.0000multiplexer slope coefficient	1.0000fibre end	0.00T internal ref (°C)	31.92T ext. ref 1 (°C)	4.50T ext. ref 2 (°C)	26.81length (m)	temperature (°C)	Stokes	anti-Stokes-747.200	66.360	0.298	0.305
-746.185	529.297	0.025	-0.060
-745.171	99.680	-0.232	-0.272
-744.156	-106.100	-0.131	0.030
-743.142	168.271	-0.109	-0.157
-742.127	-93.666	0.191	0.053
-741.112	11.448	0.046	-0.035
-740.098	-84.814	-0.075	-0.024
-739.083	238.758	0.011	0.019
-738.069	129.800	0.186	0.239
-737.054	-200.000	0.036	0.234
-736.039	481.204	0.046	0.106
-735.025	-200.000	-0.003	0.016
-734.010	258.880	0.008	0.015
-732.996	28.054	0.221	0.188
-731.981	-44.853	-0.116	0.058
-730.966	-200.000	-0.019	0.303
-729.952	-200.000	0.018	-0.218
-728.937	-95.384	-0.069	-0.019
-727.923	355.271	0.063	-0.127
-726.908	-68.898	-0.289	-0.113
-725.894	111.919	-0.119	-0.145
-724.879	-51.464	-0.211	0.100
-723.864	-2.677	-0.160	-0.113
-722.850	33.421	-0.279	-0.244
-721.835	66.012	0.183	0.187
-720.821	281.212	-0.115	-0.207
-719.806	-35.596	-0.355	0.194
-718.791	507.223	0.067	0.157
-717.777	162.924	0.104	0.147
-716.762	390.926	0.102	-0.213
-715.748	110.726	-0.184	0.223
-714.733	-200.000	-0.004	-0.141
-713.718	800.000	0.030	-0.103
-712.704	-166.239	0.133	-0.006
-711.689	-47.687	-0.291	0.142
-710.675	50.840	0.114	-0.109
-709.660	-15.532	-0.232	0.150
-708.645	-21.836	-0.098	-0.060
-707.631	567.082	0.064	-0.157
-706.616	310.282	0.077	-0.144
-705.602	-200.000	-0.037	-0.324
-704.587	-200.000	0.046	0.477
-703.572	4.951	-0.043	0.032
-702.558	-18.135	-0.080	0.051
-701.543	2.769	-0.126	0.092
-700.529	800.000	0.052	-0.200
-699.514	119.586	0.165	-0.206
-698.499	-121.082	-0.499	0.084
-697.485	146.751	0.130	-0.176
-696.470	-134.112	0.107	0.013
-695.456	16.590	0.233	-0.185
-694.441	-99.666	-0.314	0.079
-693.426	-73.124	-0.093	-0.034
-692.412	-117.429	-0.234	-0.043
-691.397	142.081	-0.052	-0.070
-690.383	125.926	0.046	-0.058
-689.368	-42.639	-0.103	0.053
-688.354	112.789	0.169	0.206
-687.339	-21.882	0.173	0.106
-686.324	-4.743	-0.130	0.090
-685.310	-200.000	0.018	-0.354
-684.295	-72.564	-0.146	-0.054
-683.281	118.528	-0.222	-0.276
-682.266	-150.378	0.469	0.036
-681.251	308.104	0.105	0.197
-680.237	281.937	-0.180	0.324
-679.222	800.000	0.075	0.296
-678.208	-96.659	-0.176	0.047
-677.193	-200.000	-0.033	-0.437
-676.178	611.910	0.114	-0.286
-675.164	-90.225	-0.409	-0.120
-674.149	121.251	-0.060	0.075
-673.135	-200.000	-0.049	0.349
-672.120	-16.057	0.153	-0.098
-671.105	21.384	0.207	-0.169
-670.091	800.000	-0.094	-0.370
-669.076	800.000	-0.022	0.069
-668.062	51.541	0.146	0.139
-667.047	-200.000	-0.034	0.152
-666.032	-51.686	-0.135	0.063
-665.018	130.643	0.086	-0.111
-664.003	-200.000	-0.007	0.066
-662.989	-15.717	0.193	-0.124
-661.974	7.785	-0.139	0.105
-660.959	251.067	-0.044	-0.075
-659.945	46.300	-0.055	-0.051
-658.930	-89.386	0.278	-0.082
-657.916	-54.499	-0.129	0.059
-656.901	-92.400	-0.336	-0.095
-655.886	43.373	-0.260	-0.239
-654.872	-14.123	0.126	0.082
-653.857	81.677	0.037	0.040
-652.843	-31.261	-0.078	0.044
-651.828	-70.655	0.206	0.078
-650.814	800.000	0.047	-0.145
-649.799	121.726	0.223	0.280
-648.784	45.304	-0.356	-0.330
-647.770	373.737	-0.142	-0.291
-646.755	781.470	0.120	-0.329
-645.741	-109.605	0.197	-0.042
-644.726	-200.000	0.018	-0.179
-643.711	-200.000	-0.015	-0.114
-642.697	-198.771	-0.180	-0.001
-641.682	-24.908	0.161	0.096
-640.668	-132.217	0.201	0.026
-639.653	664.342	0.201	-0.522
-638.638	-200.000	0.010	0.123
-637.624	-0.434	0.083	-0.059
-636.609	-79.606	0.278	-0.094
-635.595	800.000	0.099	0.322
-634.580	-200.000	-0.055	-0.250
-633.565	-200.000	0.003	-0.044
-632.551	800.000	0.082	0.246
-631.536	-137.717	0.217	-0.024
-630.522	-200.000	-0.004	-0.213
-629.507	800.000	0.084	-0.354
-628.492	800.000	-0.088	-0.259
-627.478	126.253	-0.290	0.368
-626.463	-119.050	0.426	0.075
-625.449	-56.897	0.229	-0.101
-624.434	-90.323	-0.353	-0.103
-623.419	-83.190	-0.343	0.111
-622.405	267.375	-0.124	-0.218
-621.390	-136.491	0.165	-0.019
-620.376	-142.173	-0.169	0.017
-619.361	86.336	-0.146	-0.162
-618.346	-72.232	-0.253	0.094
-617.332	-108.031	-0.244	-0.053
-616.317	-18.668	0.241	0.151
-615.303	-200.000	0.016	0.200
-614.288	800.000	0.135	0.410
-613.273	-56.995	0.270	-0.120
-612.259	-19.063	0.087	0.055
-611.244	-30.409	-0.309	-0.176
-610.230	-69.503	-0.319	0.123
-609.215	-124.609	-0.110	-0.017
-608.201	5.534	0.166	-0.123
-607.186	10.135	0.184	-0.140
-606.171	291.534	0.035	-0.064
-605.157	800.000	0.098	-0.305
-604.142	-161.638	-0.295	0.015
-603.128	-116.349	-0.161	-0.030
-602.113	181.808	0.074	-0.110
-601.098	-118.250	-0.158	-0.028
-600.084	-15.315	-0.272	-0.175
-599.069	23.616	0.114	-0.094
-598.055	-60.459	0.168	-0.072
-597.040	800.000	-0.028	-0.117
-596.025	-87.523	-0.311	-0.094
-595.011	-155.339	-0.239	-0.016
-593.996	156.768	0.086	0.119
-592.982	45.037	0.225	0.208
-591.967	-62.823	0.118	0.049
-590.952	-106.186	-0.152	0.034
-589.938	348.008	0.051	0.101
-588.923	9.688	-0.137	0.104
-587.909	-200.000	0.035	0.354
-586.894	289.016	-0.220	0.400
-585.879	95.973	-0.109	-0.125
-584.865	-192.211	0.203	-0.002
-583.850	745.085	0.038	0.104
-582.836	-200.000	-0.020	-0.123
-581.821	606.374	0.089	0.223
-580.806	800.000	-0.059	-0.214
-579.792	-200.000	-0.010	0.047
-578.777	43.853	0.118	0.108
-577.763	-86.626	0.224	-0.069
-576.748	8.089	0.285	0.215
-575.733	55.034	-0.076	-0.074
-574.719	-90.660	-0.208	-0.060
-573.704	210.759	0.190	-0.300
-572.690	87.512	-0.050	-0.055
-571.675	-40.453	0.171	-0.089
-570.661	671.818	-0.067	0.174
-569.646	22.470	-0.104	0.085
-568.631	-20.269	-0.119	-0.073
-567.617	-92.306	-0.224	0.063
-566.602	50.705	-0.130	-0.124
-565.588	138.420	-0.022	0.029
-564.573	-50.234	-0.172	0.082
-563.558	-26.668	-0.087	0.051
-562.544	-95.301	-0.141	0.038
-561.529	-116.728	-0.189	0.035
-560.515	-12.777	-0.359	0.235
-559.500	-119.847	0.139	-0.024
-558.485	-68.503	-0.089	0.035
-557.471	77.926	-0.105	0.112
-556.456	-121.915	0.108	0.018
-555.442	-27.047	0.408	-0.238
-554.427	28.054	-0.210	-0.177
-553.412	-144.863	-0.138	0.013
-552.398	-200.000	-0.018	-0.185
-551.383	64.940	-0.121	0.122
-550.369	-200.000	0.003	0.268
-549.354	-114.190	-0.218	-0.042
-548.339	1.994	0.112	0.081
-547.325	-121.439	-0.179	-0.030
-546.310	114.061	-0.052	0.064
-545.296	-40.988	0.221	0.114
-544.281	240.546	0.052	0.086
-543.266	79.761	0.172	0.185
-542.252	139.899	0.110	0.146
-541.237	-200.000	-0.020	0.178
-540.223	800.000	-0.032	0.134
-539.208	-52.353	-0.111	-0.051
-538.193	-59.338	-0.337	0.145
-537.179	-4.691	-0.456	0.315
-536.164	-131.766	-0.202	0.027
-535.150	-176.573	0.367	-0.009
-534.135	170.273	0.061	-0.087
-533.121	-74.239	-0.118	-0.043
-532.106	177.522	0.074	0.108
-531.091	-90.137	-0.287	0.084
-530.077	-151.050	0.459	-0.035
-529.062	33.717	0.131	-0.114
-528.048	653.804	0.120	-0.308
-527.033	663.947	0.088	-0.227
-526.018	800.000	-0.033	-0.113
-525.004	60.092	-0.151	-0.149
-523.989	-69.920	-0.304	0.116
-522.975	-98.983	-0.255	-0.065
-521.960	-200.000	-0.038	0.213
-520.945	90.373	-0.169	0.189
-519.931	280.385	-0.074	-0.132
-518.916	-200.000	0.055	-0.247
-517.902	800.000	-0.107	-0.321
-516.887	96.621	-0.058	-0.066
-515.872	-200.000	-0.024	-0.199
-514.858	-200.000	0.094	-0.585
-513.843	-149.650	-0.089	-0.007
-512.829	-162.252	-0.312	0.016
-511.814	-200.000	0.027	0.340
-510.799	-134.015	-0.206	0.026
-509.785	-115.067	0.133	-0.025
-508.770	173.239	0.232	-0.334
-507.756	-70.051	0.145	-0.055
-506.741	318.426	-0.160	0.303
-505.726	-200.000	-0.021	0.416
-504.712	-200.000	0.002	-0.129
-503.697	428.476	-0.144	-0.311
-502.683	70.877	-0.232	0.240
-501.668	109.666	0.049	-0.058
-500.653	-78.464	0.112	0.038
-499.639	-51.087	-0.238	-0.111
-498.624	97.566	0.160	-0.183
-497.610	200.492	0.149	-0.229
-496.595	-55.597	0.262	-0.117
-495.581	-196.914	0.271	0.002
-494.566	25.318	0.233	0.194
-493.551	-173.989	0.344	-0.010
-492.537	-39.441	0.126	-0.066
-491.522	-46.784	-0.069	0.034
-490.508	-200.000	-0.006	-0.066
-489.493	-46.490	-0.025	0.012
-488.478	-77.549	-0.241	-0.083
-487.464	201.655	0.109	0.168
-486.449	78.468	0.147	-0.157
-485.435	-175.870	0.139	0.004
-484.420	-151.883	-0.387	-0.028
-483.405	207.076	0.129	0.201
-482.391	109.371	0.140	-0.168
-481.376	-151.897	-0.057	-0.004
-480.362	-200.000	-0.005	0.230
-479.347	-200.000	0.036	-0.173
-478.332	800.000	0.060	0.239
-477.318	-200.000	0.000	-0.076
-476.303	39.291	0.214	-0.192
-475.289	-85.597	-0.270	-0.084
-474.274	-101.760	-0.260	-0.063
-473.259	156.554	0.128	-0.177
-472.245	-200.000	-0.025	0.156
-471.230	-103.703	-0.245	-0.057
-470.216	800.000	0.048	0.188
-469.201	26.274	-0.199	0.166
-468.186	529.328	0.049	0.115
-467.172	-44.454	-0.045	0.022
-466.157	23.752	-0.035	0.029
-465.143	22.300	0.286	0.233
-464.128	-149.984	-0.338	0.026
-463.113	47.516	-0.285	0.265
-462.099	-171.238	-0.207	-0.007
-461.084	-150.233	0.308	-0.024
-460.070	38.253	-0.042	-0.037
-459.055	365.170	0.078	0.157
-458.040	18.048	0.116	-0.092
-457.026	-149.686	-0.124	0.010
-456.011	26.294	-0.151	0.126
-454.997	207.878	-0.032	0.050
-453.982	800.000	-0.075	0.254
-452.968	-200.000	-0.063	-0.311
-451.953	52.482	-0.044	-0.042
-450.938	264.311	0.121	0.211
-449.924	567.431	-0.091	0.221
-448.909	-102.624	0.205	-0.049
-447.895	281.418	0.046	0.083
-446.880	309.840	0.077	-0.144
-445.865	-51.052	-0.205	-0.096
-444.851	-200.000	-0.002	-0.154
-443.836	-90.726	0.203	0.058
-442.822	800.000	-0.019	-0.057
-441.807	-117.377	-0.168	0.030
-440.792	800.000	0.008	-0.028
-439.778	78.973	-0.224	0.239
-438.763	9.054	-0.230	0.173
-437.749	133.834	-0.217	0.280
-436.734	800.000	0.121	0.440
-435.719	697.510	0.127	0.331
-434.705	-200.000	0.028	0.205
-433.690	-90.480	0.237	0.068
-432.676	-112.168	0.190	0.038
-431.661	-50.774	-0.140	0.066
-430.646	-200.000	-0.027	-0.248
-429.632	115.618	-0.065	-0.079
-428.617	-200.000	-0.008	0.136
-427.603	82.743	0.230	-0.249
-426.588	255.192	-0.253	-0.433
-425.573	-30.711	0.159	0.090
-424.559	800.000	0.097	0.341
-423.544	198.223	0.104	-0.158
-422.530	262.357	0.107	-0.186
-421.515	-200.000	0.012	0.120
-420.500	3.342	-0.261	0.189
-419.486	800.000	0.047	-0.191
-418.471	800.000	-0.039	-0.134
-417.457	-186.934	0.142	0.002
-416.442	-1.708	-0.112	0.079
-415.428	-89.733	0.371	-0.108
-414.413	-38.363	0.179	-0.095
-413.398	234.701	0.075	-0.123
-412.384	800.000	-0.115	-0.453
-411.369	-200.000	0.034	0.170
-410.355	-200.000	-0.028	0.252
-409.340	464.717	0.022	-0.049
-408.325	683.545	0.016	-0.041
-407.311	-173.065	0.296	0.009
-406.296	307.947	-0.058	0.107
-405.282	228.715	-0.110	-0.179
-404.267	222.218	0.055	0.088
-403.252	-200.000	-0.009	0.116
-402.238	5.269	-0.136	-0.100
-401.223	-200.000	-0.066	-0.327
-400.209	33.911	-0.080	0.070
-399.194	-127.304	-0.191	-0.028
-398.179	-50.577	-0.259	0.122
-397.165	800.000	-0.090	-0.337
-396.150	800.000	0.090	-0.266
-395.136	34.662	-0.099	-0.087
-394.121	1.613	-0.017	-0.012
-393.106	-24.665	0.363	0.215
-392.092	-184.530	0.194	-0.003
-391.077	-92.177	-0.202	-0.057
-390.063	-38.463	0.298	-0.157
-389.048	-115.407	0.190	-0.036
-388.033	16.768	-0.114	-0.090
-387.019	-12.326	-0.330	-0.215
-386.004	-200.000	0.058	-0.263
-384.990	-13.159	0.190	0.123
-383.975	-115.761	0.198	-0.037
-382.960	-200.000	0.007	-0.127
-381.946	28.326	-0.023	0.020
-380.931	308.605	-0.131	0.244
-379.917	-200.000	-0.034	-0.521
-378.902	-3.109	0.033	-0.023
-377.888	-41.231	-0.112	0.058
-376.873	672.820	0.118	0.306
-375.858	18.439	0.156	-0.124
-374.844	-200.000	-0.012	-0.267
-373.829	594.354	0.085	-0.210
-372.815	-200.000	0.005	0.152
-371.800	26.587	-0.228	-0.190
-370.785	-96.015	-0.365	-0.097
-369.771	305.442	0.192	-0.355
-368.756	-200.000	0.003	0.031
-367.742	19.807	0.316	-0.253
-366.727	-145.107	-0.173	0.016
-365.712	0.037	0.014	0.010
-364.698	800.000	-0.071	0.279
-363.683	4.737	-0.184	0.134
-362.669	82.881	-0.117	-0.126
-361.654	-46.741	-0.331	0.161
-360.639	-105.919	-0.221	0.049
-359.625	-5.450	0.251	0.171
-358.610	-200.000	-0.007	-0.038
-357.596	297.856	-0.061	0.111
-356.581	112.467	-0.122	-0.147
-355.566	-200.000	-0.010	0.433
-354.552	800.000	-0.070	-0.286
-353.537	-200.000	0.028	-0.167
-352.523	-1.255	0.212	0.149
-351.508	58.305	-0.111	0.109
-350.493	423.083	0.121	0.258
-349.479	-7.941	0.321	0.215
-348.464	-45.191	-0.040	-0.020
-347.450	-55.346	0.132	-0.059
-346.435	30.167	0.176	0.150
-345.420	800.000	0.089	-0.350
-344.406	-51.464	-0.247	-0.115
-343.391	132.123	-0.050	-0.064
-342.377	-46.297	0.241	0.118
-341.362	-200.000	0.004	0.490
-340.348	-3.520	-0.192	0.133
-339.333	616.532	-0.040	-0.100
-338.318	21.335	-0.051	0.041
-337.304	468.362	-0.106	-0.237
-336.289	-200.000	0.003	-0.065
-335.275	-104.692	-0.348	0.080
-334.260	-179.452	0.420	-0.009
-333.245	28.171	-0.117	-0.098
-332.231	113.454	-0.301	-0.363
-331.216	-200.000	-0.019	-0.098
-330.202	800.000	0.043	0.157
-329.187	-87.317	-0.235	-0.071
-328.172	800.000	-0.039	-0.149
-327.158	-169.469	0.224	0.008
-326.143	-106.538	0.152	0.034
-325.129	167.601	-0.176	-0.248
-324.114	-21.037	-0.363	-0.221
-323.099	-200.000	0.025	0.331
-322.085	-110.039	-0.133	-0.028
-321.070	-200.000	0.018	0.165
-320.056	36.249	-0.341	0.298
-319.041	-70.628	0.328	0.123
-318.026	-55.137	-0.149	0.067
-317.012	-139.729	0.176	-0.019
-315.997	-200.000	-0.010	0.050
-314.983	-16.406	-0.235	-0.148
-313.968	-105.230	0.141	-0.032
-312.953	-66.592	-0.149	0.059
-311.939	-84.873	-0.133	0.041
-310.924	-25.288	-0.250	0.147
-309.910	-107.470	0.085	0.018
-308.895	-40.737	0.079	0.041
-307.880	73.423	0.105	0.109
-306.866	-200.000	-0.005	0.324
-305.851	24.250	-0.021	-0.018
-304.837	175.339	-0.048	-0.069
-303.822	-41.192	0.268	0.137
-302.807	800.000	-0.135	0.500
-301.793	-127.189	0.042	0.006
-300.778	-200.000	-0.011	0.128
-299.764	-97.413	0.054	0.014
-298.749	-145.529	0.453	-0.040
-297.735	0.476	-0.305	-0.216
-296.720	46.902	-0.088	0.081
-295.705	321.861	0.174	-0.328
-294.691	800.000	0.042	-0.138
-293.676	3.842	-0.409	0.296
-292.662	158.716	-0.059	-0.081
-291.647	-200.000	0.037	0.369
-290.632	800.000	-0.032	0.128
-289.618	-200.000	0.026	0.135
-288.603	278.403	0.136	-0.241
-287.589	302.275	-0.232	0.425
-286.574	181.881	-0.194	0.282
-285.559	-146.461	0.295	0.026
-284.545	-2.130	-0.296	-0.206
-283.530	800.000	-0.123	-0.377
-282.516	-4.817	0.099	-0.068
-281.501	-44.254	-0.128	-0.063
-280.486	-101.147	-0.388	-0.094
-279.472	800.000	0.067	0.280
-278.457	12.292	0.281	0.215
-277.443	66.685	0.076	0.076
-276.428	51.799	0.067	-0.063
-275.413	51.974	0.263	0.248
-274.399	-200.000	-0.029	0.128
-273.384	800.000	0.047	-0.179
-272.370	800.000	-0.041	-0.128
-271.355	1.223	-0.158	0.112
-270.340	-134.659	0.061	0.007
-269.326	-200.000	0.220	0.001
-268.311	-62.864	0.044	0.018
-267.297	423.215	0.133	-0.282
-266.282	43.752	-0.089	0.081
-265.267	800.000	0.040	0.148
-264.253	-37.300	-0.253	-0.134
-263.238	800.000	-0.080	0.266
-262.224	-123.572	-0.202	-0.032
-261.209	401.275	0.076	-0.159
-260.195	-200.000	-0.022	-0.181
-259.180	145.978	0.190	0.252
-258.165	-32.295	-0.079	-0.043
-257.151	-121.109	-0.108	-0.018
-256.136	319.653	-0.042	0.079
-255.122	-20.638	-0.086	-0.052
-254.107	182.199	0.222	-0.324
-253.092	-100.188	-0.109	0.027
-252.078	-0.145	0.259	0.182
-251.063	78.482	0.141	-0.149
-250.049	511.583	0.081	0.188
-249.034	354.208	0.129	-0.255
-248.019	-37.805	-0.178	0.094
-247.005	800.000	0.097	-0.286
-245.990	30.885	0.182	-0.154
-244.976	95.118	0.154	-0.173
-243.961	18.764	-0.106	0.084
-242.946	-102.947	0.228	-0.054
-241.932	-84.758	0.564	-0.176
-240.917	-200.000	-0.028	-0.162
-239.903	58.319	-0.299	-0.291
-238.888	-94.396	0.199	0.054
-237.873	7.653	0.095	-0.071
-236.859	-200.000	0.101	0.508
-235.844	-200.000	0.017	-0.219
-234.830	67.463	0.153	0.155
-233.815	-200.000	0.005	0.103
-232.800	622.540	-0.043	0.106
-231.786	359.029	-0.163	0.323
-230.771	-39.115	0.323	0.168
-229.757	-101.065	-0.417	0.101
-228.742	227.399	-0.133	-0.214
-227.727	-85.586	0.351	0.108
-226.713	-200.000	0.171	0.000
-225.698	257.009	-0.021	0.036
-224.684	-147.791	0.197	-0.016
-223.669	-105.287	-0.130	0.029
-222.655	800.000	0.120	0.497
-221.640	-160.282	0.434	-0.023
-220.625	133.600	-0.182	-0.232
-219.611	252.271	-0.039	0.065
-218.596	-91.666	-0.123	0.035
-217.582	-7.815	-0.031	0.021
-216.567	184.159	-0.029	-0.043
-215.552	69.625	-0.177	-0.180
-214.538	291.410	0.082	-0.147
-213.523	-28.497	-0.261	-0.149
-212.509	96.066	-0.210	0.237
-211.494	-86.858	-0.113	0.034
-210.479	800.000	-0.055	0.178
-209.465	3.860	0.156	0.113
-208.450	800.000	0.066	0.183
-207.436	-101.540	-0.162	0.039
-206.421	-86.882	0.583	0.176
-205.406	800.000	0.053	0.181
-204.392	-53.771	0.178	0.080
-203.377	800.000	-0.123	-0.341
-202.363	-46.957	0.276	-0.133
-201.348	16.978	-0.089	0.070
-200.333	-159.688	0.313	0.017
-199.319	800.000	0.031	0.098
-198.304	125.761	-0.047	0.058
-197.290	-52.830	0.301	0.137
-196.275	-128.684	-0.500	-0.070
-195.260	190.475	0.119	-0.176
-194.246	-63.292	-0.245	-0.100
-193.231	-200.000	-0.014	0.217
-192.217	73.982	0.204	-0.212
-191.202	181.565	0.088	0.128
-190.187	416.364	0.035	0.073
-189.173	132.218	0.174	0.222
-188.158	-136.712	0.199	-0.023
-187.144	-200.000	0.028	0.288
-186.129	-135.752	-0.215	-0.025
-185.114	-18.747	0.227	0.139
-184.100	158.130	0.121	-0.165
-183.085	47.561	0.284	0.262
-182.071	105.517	0.027	0.031
-181.056	-84.753	0.094	0.029
-180.042	-200.000	-0.002	-0.149
-179.027	88.959	0.149	0.164
-178.012	800.000	0.052	0.174
-176.998	367.502	0.127	-0.253
-175.983	-125.968	-0.167	0.025
-174.969	55.088	0.089	0.085
-173.954	-156.001	-0.092	-0.006
-172.939	565.453	0.041	0.099
-171.925	-8.586	-0.028	0.019
-170.910	-117.748	0.260	-0.046
-169.896	-200.000	0.017	-0.087
-168.881	7.105	0.079	0.058
-167.866	76.040	-0.064	-0.066
-166.852	-63.298	-0.137	-0.056
-165.837	-123.122	0.259	-0.041
-164.823	-163.558	-0.235	-0.011
-163.808	800.000	-0.093	0.343
-162.793	43.890	-0.203	-0.184
-161.779	-117.100	0.456	-0.082
-160.764	-200.000	-0.018	-0.232
-159.750	119.829	0.156	-0.190
-158.735	-110.815	0.112	-0.023
-157.720	396.325	0.018	0.037
-156.706	800.000	0.020	-0.079
-155.691	-200.000	-0.050	-0.474
-154.677	251.467	0.134	-0.225
-153.662	-137.175	-0.272	0.031
-152.647	800.000	-0.097	0.263
-151.633	800.000	0.150	-0.409
-150.618	800.000	0.066	-0.221
-149.604	-97.063	0.184	0.047
-148.589	-200.000	-0.035	-0.343
-147.574	52.181	0.171	-0.160
-146.560	-29.584	-0.316	0.178
-145.545	137.246	-0.212	-0.274
-144.531	205.387	-0.030	0.045
-143.516	-134.410	-0.076	0.009
-142.502	222.474	-0.251	0.398
-141.487	461.638	-0.161	0.354
-140.472	-200.000	0.005	0.134
-139.458	-160.948	-0.177	-0.009
-138.443	800.000	0.051	0.199
-137.429	93.853	-0.284	0.317
-136.414	800.000	0.027	0.098
-135.399	50.331	0.213	0.198
-134.385	226.780	-0.097	0.156
-133.370	-98.107	0.133	0.034
-132.356	-0.839	-0.217	-0.151
-131.341	530.509	0.154	0.358
-130.326	-48.226	0.144	-0.068
-129.312	-200.000	-0.013	-0.093
-128.297	-157.585	0.151	0.009
-127.283	-109.890	-0.148	-0.031
-126.268	-92.180	0.074	0.020
-125.253	-10.544	0.027	-0.017
-124.239	-200.000	0.031	0.211
-123.224	60.619	0.091	0.089
-122.210	-73.414	0.323	0.116
-121.195	89.264	0.194	0.212
-120.180	1.586	-0.292	-0.207
