DTS Sentinel unit serial number:	SN413079Multiplexer serial number:	ORYXHardware model number:	OX4-SRSoftware version number:	ORYX F/W v4.00 Oryx Data Collector v3.7.2.0data status	okinstallation	princeton_trtdifferential loss correction	single-endedforward channel	channel 2reverse channel	N/Adate	2019/09/15time	11:11:35forward acquisition time	60.00reverse acquisition time	0.00gamma	496.2192k internal	0.2315k external	0.2315temperature offset calibration	1.0017default loss term (dB/km)	0.3790temperature slope calibration	1.0000multiplexer offset coefficient	1.0000multiplexer slope coefficient	1.0000fibre end	0.00T internal ref (°C)	34.31T ext. ref 1 (°C)	5.05T ext. ref 2 (°C)	29.76length (m)	temperature (°C)	Stokes	anti-Stokes-747.200	800.000	0.095	0.267
-746.185	314.694	-0.087	0.167
-745.171	231.987	-0.218	-0.363
-744.156	-22.945	-0.327	0.200
-743.142	-200.000	0.003	0.101
-742.127	-5.146	0.268	0.187
-741.112	-118.553	0.283	-0.051
-740.098	-74.186	-0.317	-0.116
-739.083	206.890	0.173	-0.274
-738.069	704.167	-0.095	0.253
-737.054	89.236	-0.144	0.162
-736.039	-48.369	-0.472	0.231
-735.025	-166.936	-0.208	0.009
-734.010	-200.000	0.005	0.208
-732.996	12.737	-0.138	0.108
-731.981	-200.000	-0.007	-0.268
-730.966	-47.011	0.173	-0.085
-729.952	-200.000	-0.043	-0.320
-728.937	47.922	-0.097	0.092
-727.923	280.609	-0.060	0.109
-726.908	-72.117	-0.198	-0.075
-725.894	82.934	-0.135	0.149
-724.879	137.803	-0.069	-0.092
-723.864	25.474	-0.322	-0.271
-722.850	800.000	0.040	-0.167
-721.835	653.724	0.132	-0.342
-720.821	146.651	-0.217	0.295
-719.806	110.703	0.096	-0.117
-718.791	-137.422	-0.128	0.015
-717.777	-179.730	-0.393	0.009
-716.762	-200.000	0.001	0.102
-715.748	-112.500	-0.160	0.032
-714.733	-200.000	0.038	-0.204
-713.718	-77.088	0.171	-0.061
-712.704	-8.056	-0.307	-0.209
-711.689	-118.245	0.160	-0.029
-710.675	73.021	-0.321	-0.339
-709.660	-200.000	0.045	-0.205
-708.645	358.847	-0.099	-0.200
-707.631	621.654	0.058	-0.148
-706.616	-13.970	-0.044	-0.029
-705.602	-7.443	0.323	0.222
-704.587	237.772	0.057	0.095
-703.572	-110.300	0.037	-0.008
-702.558	153.345	-0.016	0.022
-701.543	-200.000	-0.003	-0.475
-700.529	-200.000	-0.017	-0.486
-699.514	-40.670	0.185	0.097
-698.499	-200.000	-0.008	0.066
-697.485	-200.000	-0.002	0.046
-696.470	-154.352	-0.061	0.004
-695.456	-5.302	0.241	-0.167
-694.441	-19.441	-0.195	-0.122
-693.426	-160.838	0.189	0.010
-692.412	132.917	0.217	0.283
-691.397	396.320	-0.042	-0.088
-690.383	269.468	-0.193	-0.343
-689.368	6.000	-0.192	0.144
-688.354	-51.812	-0.134	-0.063
-687.339	800.000	-0.051	-0.217
-686.324	-200.000	-0.008	0.082
-685.310	-48.756	-0.156	0.075
-684.295	52.600	0.141	-0.136
-683.281	-64.571	-0.249	-0.102
-682.266	-97.727	0.311	0.081
-681.251	257.441	-0.158	-0.275
-680.237	214.619	0.109	-0.174
-679.222	304.403	0.124	-0.233
-678.208	-34.489	-0.209	-0.116
-677.193	-200.000	0.008	0.243
-676.178	-140.677	-0.326	-0.034
-675.164	62.012	0.177	-0.179
-674.149	-200.000	0.025	0.140
-673.135	-51.968	0.066	-0.031
-672.120	-111.067	0.080	-0.017
-671.105	195.065	0.081	0.125
-670.091	-200.000	0.019	0.188
-669.076	28.973	0.275	-0.236
-668.062	-75.731	-0.004	-0.001
-667.047	-7.335	-0.227	-0.155
-666.032	-68.152	-0.425	0.167
-665.018	-177.483	0.348	-0.009
-664.003	21.208	-0.220	0.181
-662.989	79.409	-0.031	0.033
-661.974	95.577	0.128	-0.148
-660.959	800.000	0.100	-0.286
-659.945	477.120	-0.069	-0.157
-658.930	186.806	-0.057	0.086
-657.916	-200.000	-0.061	-0.360
-656.901	406.735	-0.161	-0.344
-655.886	-112.642	0.162	0.033
-654.872	-200.000	-0.034	-0.396
-653.857	-64.611	-0.352	0.144
-652.843	-133.174	0.371	-0.047
-651.828	-16.994	0.197	-0.126
-650.814	-73.272	-0.238	0.088
-649.799	-200.000	0.001	0.050
-648.784	-48.811	0.219	0.106
-647.770	-115.924	0.165	0.031
-646.755	137.482	-0.065	-0.086
-645.741	56.153	0.054	0.053
-644.726	-200.000	0.027	-0.215
-643.711	-119.155	0.317	-0.056
-642.697	-200.000	0.015	-0.169
-641.682	-56.393	0.173	-0.077
-640.668	800.000	0.056	-0.199
-639.653	446.445	-0.101	-0.224
-638.638	150.749	0.113	-0.155
-637.624	-39.951	-0.240	0.126
-636.609	-200.000	0.017	-0.273
-635.595	800.000	-0.115	-0.446
-634.580	79.230	-0.241	0.261
-633.565	188.944	-0.040	0.060
-632.551	-66.012	0.360	-0.145
-631.536	-200.000	0.040	-0.199
-630.522	-200.000	-0.034	0.237
-629.507	-151.331	-0.175	-0.013
-628.492	545.381	-0.047	0.114
-627.478	-39.283	-0.075	0.040
-626.463	-59.269	0.296	-0.128
-625.449	-58.534	0.242	-0.106
-624.434	800.000	-0.054	-0.172
-623.419	-7.786	-0.169	0.115
-622.405	-136.116	-0.078	-0.009
-621.390	-103.951	-0.095	0.022
-620.376	378.908	-0.176	-0.364
-619.361	529.186	-0.122	0.291
-618.346	-147.015	-0.369	-0.032
-617.332	-49.681	-0.124	0.060
-616.317	800.000	-0.019	-0.076
-615.303	-200.000	-0.012	0.251
-614.288	725.316	0.114	-0.307
-613.273	336.258	-0.133	0.261
-612.259	409.175	0.078	0.166
-611.244	-132.768	0.195	0.025
-610.230	512.480	-0.046	0.108
-609.215	-67.301	0.123	-0.049
-608.201	-200.000	-0.010	-0.209
-607.186	-69.751	-0.252	0.097
-606.171	-43.900	-0.044	0.022
-605.157	-43.851	0.198	-0.101
-604.142	-200.000	-0.016	0.213
-603.128	-190.224	-0.331	-0.004
-602.113	-134.787	-0.443	-0.054
-601.098	162.956	-0.132	-0.187
-600.084	-75.594	0.313	-0.112
-599.069	27.189	0.146	-0.124
-598.055	-200.000	0.012	-0.074
-597.040	170.820	-0.128	-0.184
-596.025	12.828	0.178	-0.138
-595.011	-138.575	0.160	0.018
-593.996	-200.000	0.029	0.195
-592.982	102.627	-0.177	0.208
-591.967	287.548	-0.231	-0.422
-590.952	-154.534	0.202	-0.014
-589.938	-58.940	0.229	-0.100
-588.923	-71.189	0.213	-0.081
-587.909	-200.000	-0.019	0.090
-586.894	-182.719	-0.359	0.007
-585.879	88.190	0.204	0.228
-584.865	-40.341	0.148	0.077
-583.850	-56.916	-0.194	0.086
-582.836	-200.000	-0.017	0.237
-581.821	800.000	-0.054	-0.176
-580.806	800.000	0.040	-0.118
-579.792	-121.558	0.207	0.035
-578.777	474.829	-0.029	0.067
-577.763	-68.772	-0.395	0.154
-576.748	-181.131	0.043	-0.001
-575.733	-12.063	-0.254	0.167
-574.719	426.896	0.056	0.121
-573.704	24.646	0.098	0.082
-572.690	-117.583	-0.154	-0.028
-571.675	-32.715	0.101	0.057
-570.661	-175.529	-0.158	0.004
-569.646	-130.986	-0.386	-0.052
-568.631	-200.000	0.005	0.153
-567.617	15.164	0.141	0.111
-566.602	-162.595	-0.045	0.002
-565.588	-36.149	0.209	0.113
-564.573	-16.964	-0.029	0.019
-563.558	-200.000	0.039	-0.257
-562.544	28.448	0.298	-0.254
-561.529	-200.000	0.051	-0.228
-560.515	110.950	0.373	-0.451
-559.500	91.051	0.352	-0.397
-558.485	41.378	0.054	-0.049
-557.471	666.066	0.032	0.082
-556.456	728.594	0.096	-0.259
-555.442	53.314	-0.274	-0.265
-554.427	-200.000	0.007	-0.306
-553.412	94.124	-0.100	0.114
-552.398	-200.000	0.042	0.208
-551.383	-99.448	-0.361	0.092
-550.369	800.000	-0.109	0.318
-549.354	-79.974	-0.333	0.112
-548.339	-45.264	-0.102	-0.051
-547.325	-66.063	0.217	-0.087
-546.310	800.000	-0.098	0.295
-545.296	374.955	0.191	-0.391
-544.281	-200.000	0.015	0.108
-543.266	-200.000	0.012	0.437
-542.252	800.000	0.028	-0.089
-541.237	-98.381	-0.187	0.048
-540.223	-90.118	-0.140	-0.041
-539.208	52.905	0.108	-0.104
-538.193	-135.986	-0.017	0.002
-537.179	-200.000	-0.011	0.361
-536.164	-18.556	0.098	-0.062
-535.150	127.156	-0.227	-0.289
-534.135	-70.717	-0.238	-0.090
-533.121	144.664	-0.235	0.315
-532.106	71.564	0.181	-0.189
-531.091	726.646	0.020	0.053
-530.077	-109.239	0.126	-0.027
-529.062	800.000	-0.010	-0.032
-528.048	247.324	0.071	-0.120
-527.033	-92.559	0.308	-0.087
-526.018	109.282	0.072	-0.087
-525.004	318.847	-0.050	-0.096
-523.989	119.791	0.070	0.087
-522.975	-98.487	0.320	0.082
-521.960	-140.848	-0.165	0.017
-520.945	305.568	-0.159	-0.297
-519.931	175.308	0.173	-0.251
-518.916	-38.067	0.270	0.144
-517.902	191.921	0.186	-0.282
-516.887	81.936	0.187	0.203
-515.872	-200.000	0.009	-0.191
-514.858	-96.582	0.348	-0.092
-513.843	11.069	-0.317	-0.243
-512.829	2.865	-0.166	0.121
-511.814	282.209	-0.136	-0.245
-510.799	-95.601	-0.308	0.083
-509.785	-152.004	0.361	0.026
-508.770	-200.000	0.011	0.142
-507.756	800.000	0.080	-0.314
-506.741	800.000	-0.104	0.359
-505.726	23.938	-0.168	0.139
-504.712	-134.946	-0.314	0.038
-503.697	75.567	0.070	-0.074
-502.683	-149.630	0.088	-0.007
-501.668	-40.226	-0.350	0.183
-500.653	93.501	0.256	-0.291
-499.639	-78.012	0.314	0.108
-498.624	800.000	0.034	0.148
-497.610	-71.380	-0.176	0.066
-496.595	554.130	-0.014	-0.033
-495.581	-24.515	-0.266	0.159
-494.566	-200.000	-0.013	-0.401
-493.551	26.794	0.061	0.051
-492.537	-126.389	0.347	-0.052
-491.522	29.019	-0.231	0.197
-490.508	58.242	-0.285	-0.280
-489.493	-60.586	-0.209	0.089
-488.478	-60.809	-0.065	0.028
-487.464	-200.000	0.025	-0.165
-486.449	-137.983	-0.415	-0.046
-485.435	2.353	-0.284	0.206
-484.420	371.528	-0.122	0.249
-483.405	24.246	0.235	0.195
-482.391	-161.248	-0.134	0.007
-481.376	-200.000	-0.003	-0.332
-480.362	-24.208	-0.119	-0.071
-479.347	-160.112	-0.126	0.007
-478.332	-75.851	-0.197	-0.070
-477.318	-1.858	0.390	-0.275
-476.303	17.615	-0.252	0.201
-475.289	24.818	-0.081	-0.068
-474.274	-46.688	0.177	0.087
-473.259	-107.399	0.101	0.022
-472.245	63.401	0.074	0.075
-471.230	-81.703	0.132	0.043
-470.216	160.647	0.109	0.152
-469.201	-200.000	0.049	0.230
-468.186	-149.961	0.064	0.005
-467.172	127.501	-0.113	-0.143
-466.157	-200.000	-0.058	-0.290
-465.143	-135.981	-0.105	0.012
-464.128	50.859	0.174	0.165
-463.113	-124.013	0.263	0.041
-462.099	-64.865	-0.028	0.011
-461.084	592.404	0.067	-0.165
-460.070	-134.506	-0.462	0.057
-459.055	-17.807	0.181	0.114
-458.040	-114.092	-0.127	0.025
-457.026	-200.000	-0.373	0.001
-456.011	-134.423	0.202	0.025
-454.997	-111.944	0.106	-0.021
-453.982	-200.000	-0.024	-0.320
-452.968	7.743	-0.078	-0.058
-451.953	414.867	-0.035	0.074
-450.938	304.727	-0.123	-0.229
-449.924	800.000	-0.028	0.119
-448.909	800.000	0.042	-0.144
-447.895	800.000	-0.087	-0.283
-446.880	-67.725	-0.277	0.109
-445.865	-56.342	0.154	-0.068
-444.851	110.748	0.187	0.226
-443.836	-42.956	-0.101	-0.051
-442.822	-139.818	-0.372	0.039
-441.807	-74.095	0.450	0.163
-440.792	197.858	0.130	-0.198
-439.778	180.603	0.094	-0.139
-438.763	-200.000	0.034	0.161
-437.749	43.536	-0.112	-0.102
-436.734	-83.042	0.095	0.031
-435.719	114.906	-0.228	0.279
-434.705	101.529	-0.120	-0.140
-433.690	-185.731	-0.227	0.003
-432.676	74.393	-0.133	0.140
-431.661	-105.420	0.058	-0.013
-430.646	463.298	0.012	-0.027
-429.632	800.000	-0.057	0.192
-428.617	120.738	0.149	0.185
-427.603	-48.259	-0.331	0.160
-426.588	-200.000	0.001	-0.041
-425.573	180.591	0.161	-0.236
-424.559	0.448	0.072	0.052
-423.544	-33.663	0.235	-0.129
-422.530	134.720	-0.176	0.228
-421.515	-73.913	0.262	0.095
-420.500	-29.095	0.145	-0.083
-419.486	-73.787	0.142	0.052
-418.471	269.482	-0.110	0.194
-417.457	26.444	-0.236	0.197
-416.442	-9.378	-0.273	0.182
-415.428	562.972	0.053	0.128
-414.413	-84.890	-0.083	-0.026
-413.398	-143.464	-0.384	-0.037
-412.384	-13.627	-0.147	0.095
-411.369	800.000	0.031	0.095
-410.355	-131.484	-0.298	-0.039
-409.340	-122.449	-0.141	0.023
-408.325	-179.380	0.039	-0.001
-407.311	-192.640	-0.017	-0.000
-406.296	-54.638	0.230	0.104
-405.282	70.849	-0.210	-0.217
-404.267	-3.674	-0.120	-0.083
-403.252	-200.000	0.004	0.088
-402.238	-67.527	0.383	0.150
-401.223	564.453	0.078	-0.189
-400.209	800.000	-0.049	-0.153
-399.194	-16.266	0.030	0.019
-398.179	17.195	-0.262	0.208
-397.165	10.937	-0.105	-0.080
-396.150	144.291	-0.141	0.188
-395.136	-93.585	0.265	0.073
-394.121	-37.607	-0.059	0.031
-393.106	348.219	0.067	-0.132
-392.092	800.000	0.080	-0.224
-391.077	-132.231	0.315	0.041
-390.063	-143.559	0.292	0.028
-389.048	222.797	0.104	-0.168
-388.033	539.626	0.010	0.023
-387.019	800.000	0.070	0.203
-386.004	800.000	0.020	0.086
-384.990	800.000	0.040	0.155
-383.975	191.601	0.046	0.069
-382.960	-200.000	-0.016	-0.072
-381.946	123.856	-0.230	-0.288
-380.931	-119.840	-0.229	-0.039
-379.917	408.820	-0.094	-0.199
-378.902	149.342	-0.059	-0.080
-377.888	800.000	0.113	0.312
-376.873	-200.000	-0.028	-0.327
-375.858	800.000	-0.044	-0.157
-374.844	800.000	-0.049	-0.153
-373.829	185.525	0.115	0.171
-372.815	276.409	-0.108	-0.191
-371.800	69.494	-0.054	-0.055
-370.785	-7.049	0.245	0.166
-369.771	-76.829	0.296	0.104
-368.756	-158.131	-0.033	-0.002
-367.742	-161.669	-0.406	-0.021
-366.727	-200.000	0.036	0.162
-365.712	54.068	-0.247	0.237
-364.698	-75.258	0.145	0.052
-363.683	-200.000	0.004	0.279
-362.669	-112.585	-0.196	0.039
-361.654	800.000	0.061	0.174
-360.639	-26.907	-0.049	-0.029
-359.625	-43.950	-0.201	-0.101
-358.610	-3.669	-0.044	0.031
-357.596	122.764	0.040	0.050
-356.581	-84.482	0.240	-0.075
-355.566	-125.924	0.324	0.049
-354.552	-200.000	0.028	-0.281
-353.537	246.369	-0.153	-0.258
-352.523	-99.760	0.180	0.045
-351.508	-130.449	0.391	0.053
-350.493	-146.131	0.093	0.008
-349.479	-18.527	-0.165	0.103
-348.464	-200.000	0.027	-0.179
-347.450	-200.000	0.055	-0.254
-346.435	178.567	-0.128	0.186
-345.420	-19.064	0.122	-0.076
-344.406	-27.054	-0.100	0.058
-343.391	-155.418	-0.136	0.009
-342.377	800.000	-0.200	-0.623
-341.362	-200.000	0.052	-0.410
-340.348	144.307	-0.149	-0.198
-339.333	-81.546	0.308	0.101
-338.318	-155.159	-0.285	-0.019
-337.304	-200.000	0.032	0.324
-336.289	44.262	0.158	-0.144
-335.275	-200.000	0.005	0.056
-334.260	-28.041	0.167	0.097
-333.245	539.316	-0.188	0.446
-332.231	-53.157	0.083	0.038
-331.216	-162.597	-0.472	0.023
-330.202	-148.075	0.253	-0.021
-329.187	800.000	0.029	-0.120
-328.172	476.773	-0.055	-0.124
-327.158	476.709	-0.067	0.152
-326.143	207.658	-0.080	-0.125
-325.129	-71.713	-0.168	-0.062
-324.114	-9.312	0.097	0.065
-323.099	-139.540	-0.200	-0.021
-322.085	109.367	-0.162	-0.193
-321.070	-47.077	-0.077	0.037
-320.056	-11.420	-0.102	-0.067
-319.041	-200.000	0.048	-0.226
-318.026	338.331	0.121	-0.234
-317.012	171.200	0.072	-0.103
-315.997	60.620	0.258	0.255
-314.983	5.318	0.183	-0.135
-313.968	-200.000	-0.030	0.190
-312.953	-32.809	-0.268	0.149
-311.939	800.000	-0.125	0.526
-310.924	37.673	0.182	-0.161
-309.910	-35.568	0.080	0.043
-308.895	-10.216	0.168	-0.111
-307.880	-200.000	-0.008	0.121
-306.866	-145.690	0.286	-0.025
-305.851	-41.909	0.310	0.158
-304.837	98.014	0.308	-0.353
-303.822	-109.951	0.253	0.053
-302.807	-117.319	0.154	-0.028
-301.793	104.250	0.140	0.164
-300.778	111.922	-0.242	-0.291
-299.764	-200.000	0.013	-0.232
-298.749	-200.000	0.012	0.319
-297.735	26.116	0.057	0.048
-296.720	-14.540	0.375	-0.240
-295.705	-200.000	0.031	-0.338
-294.691	800.000	0.109	0.363
-293.676	-145.248	-0.309	0.028
-292.662	-77.182	-0.383	-0.133
-291.647	149.811	0.136	-0.184
-290.632	-173.324	0.212	0.006
-289.618	-125.124	-0.128	-0.020
-288.603	-78.766	0.198	0.067
-287.589	353.399	0.201	0.397
-286.574	-200.000	-0.001	-0.066
-285.559	-23.708	0.074	0.044
-284.545	197.849	0.069	0.105
-283.530	-41.033	-0.220	0.113
-282.516	-107.928	0.204	-0.044
-281.501	219.974	0.077	0.122
-280.486	-43.754	-0.123	-0.062
-279.472	649.639	0.078	0.199
-278.457	37.422	0.151	0.134
-277.443	371.368	-0.066	0.133
-276.428	-48.590	0.216	0.103
-275.413	-179.073	-0.352	0.008
-274.399	-83.982	-0.239	-0.076
-273.384	154.743	0.121	0.166
-272.370	-10.693	0.110	0.073
-271.355	179.604	0.043	-0.063
-270.340	156.899	0.118	0.163
-269.326	326.762	-0.072	0.137
-268.311	178.496	-0.195	-0.284
-267.297	-200.000	-0.025	-0.156
-266.282	302.407	-0.065	-0.120
-265.267	-67.474	0.277	-0.108
-264.253	-49.999	-0.151	0.071
-263.238	-200.000	0.031	-0.153
-262.224	-17.438	-0.065	0.041
-261.209	127.696	-0.108	-0.137
-260.195	-187.291	0.454	0.006
-259.180	800.000	-0.064	0.250
-258.165	-91.482	0.348	-0.099
-257.151	-200.000	0.005	-0.282
-256.136	800.000	-0.088	-0.270
-255.122	326.551	-0.078	0.149
-254.107	785.321	-0.024	-0.066
-253.092	800.000	-0.110	-0.317
-252.078	-200.000	0.080	-0.431
-251.063	-200.000	-0.037	0.291
-250.049	-35.748	-0.277	-0.149
-249.034	-157.008	0.298	0.018
-248.019	-178.501	-0.315	-0.007
-247.005	-200.000	-0.045	0.367
-245.990	-56.096	0.181	0.080
-244.976	800.000	0.053	-0.191
-243.961	353.960	-0.178	0.352
-242.946	800.000	-0.097	0.372
-241.932	-11.873	-0.114	0.074
-240.917	718.885	0.056	-0.147
-239.903	-4.958	-0.279	0.191
-238.888	505.774	-0.055	-0.126
-237.873	-200.000	0.008	0.089
-236.859	16.041	0.261	0.204
-235.844	-93.288	0.172	0.047
-234.830	800.000	-0.073	0.247
-233.815	59.807	-0.231	0.226
-232.800	212.356	0.103	0.161
-231.786	235.376	-0.122	0.199
-230.771	82.916	0.276	0.298
-229.757	504.685	0.102	0.234
-228.742	-65.875	-0.162	0.064
-227.727	206.960	0.191	-0.296
-226.713	-25.691	-0.184	0.108
-225.698	103.130	0.106	0.123
-224.684	-200.000	-0.008	0.242
-223.669	198.758	0.209	-0.317
-222.655	-200.000	-0.004	-0.268
-221.640	118.292	0.085	-0.105
-220.625	-77.382	-0.387	-0.133
-219.611	124.808	0.099	-0.124
-218.596	-64.960	-0.196	-0.079
-217.582	75.707	-0.078	0.082
-216.567	-85.984	0.317	0.097
-215.552	18.232	-0.441	0.349
-214.538	800.000	-0.071	-0.283
-213.523	227.906	0.048	0.077
-212.509	639.933	0.103	-0.261
-211.494	800.000	-0.043	0.178
-210.479	-101.822	0.275	0.066
-209.465	-200.000	0.021	0.135
-208.450	35.158	0.228	0.198
-207.436	-139.384	-0.217	-0.023
-206.421	191.501	-0.046	0.069
-205.406	-200.000	0.041	0.204
-204.392	800.000	-0.064	-0.199
-203.377	-90.656	-0.273	-0.078
-202.363	-64.352	0.133	0.054
-201.348	-108.171	0.519	0.111
-200.333	57.558	-0.348	0.337
-199.319	-93.638	-0.016	0.004
-198.304	-41.579	0.208	0.106
-197.290	373.152	-0.149	-0.300
-196.275	-200.000	-0.013	-0.061
-195.260	-56.279	0.229	-0.101
-194.246	800.000	0.011	0.040
-193.231	57.804	-0.083	-0.081
-192.217	160.478	0.051	0.071
-191.202	-167.395	0.369	0.015
-190.187	-200.000	-0.026	-0.196
-189.173	38.622	0.165	0.146
-188.158	-110.074	-0.193	0.040
-187.144	10.621	0.210	0.159
-186.129	-56.633	0.333	0.146
-185.114	-200.000	0.017	0.248
-184.100	-134.936	-0.137	0.016
-183.085	800.000	-0.057	-0.183
-182.071	194.927	0.120	0.181
-181.056	191.238	-0.110	-0.165
-180.042	-86.590	0.101	0.031
-179.027	3.280	-0.242	-0.174
-178.012	-158.856	-0.491	0.028
-176.998	-144.780	0.318	0.029
-175.983	-2.541	-0.069	0.048
-174.969	403.216	-0.025	0.051
-173.954	14.108	0.155	-0.119
-172.939	-200.000	0.034	0.219
-171.925	-5.622	-0.037	-0.025
-170.910	27.878	-0.259	0.217
-169.896	127.607	0.178	0.224
-168.881	-0.030	-0.293	0.207
-167.866	29.680	0.102	0.086
-166.852	-77.365	-0.218	0.075
-165.837	2.225	0.041	-0.029
-164.823	221.619	0.083	-0.133
-163.808	-111.660	0.227	-0.046
-162.793	-80.876	-0.127	-0.042
-161.779	59.599	-0.088	-0.086
-160.764	17.407	0.084	0.066
-159.750	28.384	-0.118	0.099
-158.735	-200.000	0.007	-0.324
-157.720	-27.849	0.064	-0.037
-156.706	-7.010	0.297	-0.200
-155.691	-47.598	-0.154	0.074
-154.677	275.700	0.264	0.464
-153.662	-134.583	-0.085	0.010
-152.647	-200.000	0.054	-0.329
-151.633	-67.045	0.212	0.083
-150.618	-34.351	0.254	-0.138
-149.604	375.634	0.140	-0.282
-148.589	-95.150	0.173	0.046
-147.574	28.382	-0.046	-0.039
-146.560	-124.071	-0.094	-0.015
-145.545	-43.575	-0.119	0.059
-144.531	367.465	0.006	-0.011
-143.516	147.977	0.139	0.186
-142.502	-200.000	0.191	-0.001
-141.487	-200.000	0.020	0.168
-140.472	-3.825	0.135	-0.093
-139.458	-116.019	0.414	-0.076
-138.443	9.823	-0.200	0.150
-137.429	729.914	0.093	-0.246
-136.414	-8.838	-0.081	0.054
-135.399	-98.685	0.016	-0.004
-134.385	45.743	0.275	-0.252
-133.370	-51.995	0.209	0.096
-132.356	-76.657	-0.211	0.073
-131.341	87.641	-0.062	-0.068
-130.326	-200.000	-0.006	0.048
-129.312	80.237	-0.136	0.145
-128.297	-200.000	0.063	0.317
-127.283	-48.892	-0.074	-0.035
-126.268	63.798	-0.199	0.198
-125.253	-72.110	0.302	-0.111
-124.239	-57.586	-0.217	0.094
-123.224	335.355	0.241	0.461
-122.210	-20.474	0.225	-0.137
-121.195	214.962	0.009	-0.015
