DTS Sentinel unit serial number:	SN413079Multiplexer serial number:	ORYXHardware model number:	OX4-SRSoftware version number:	ORYX F/W v4.00 Oryx Data Collector v3.7.2.0data status	okinstallation	princeton_trtdifferential loss correction	single-endedforward channel	channel 2reverse channel	N/Adate	2019/09/13time	15:15:34forward acquisition time	60.00reverse acquisition time	0.00gamma	496.2192k internal	0.2315k external	0.2315temperature offset calibration	1.0215default loss term (dB/km)	0.3790temperature slope calibration	1.0000multiplexer offset coefficient	1.0000multiplexer slope coefficient	1.0000fibre end	0.00T internal ref (°C)	35.50T ext. ref 1 (°C)	4.74T ext. ref 2 (°C)	29.90length (m)	temperature (°C)	Stokes	anti-Stokes-747.200	-141.572	-0.443	0.045
-746.185	389.902	0.089	0.187
-745.171	27.606	0.158	0.135
-744.156	-34.117	-0.254	0.141
-743.142	-200.000	0.061	0.275
-742.127	-21.075	0.295	0.183
-741.112	71.618	-0.043	0.045
-740.098	-14.067	-0.118	-0.077
-739.083	800.000	0.039	0.148
-738.069	492.787	0.124	0.287
-737.054	667.038	-0.081	0.211
-736.039	307.434	0.061	-0.115
-735.025	698.686	0.101	0.270
-734.010	-133.058	-0.192	-0.025
-732.996	119.036	0.144	-0.180
-731.981	-90.428	0.057	0.017
-730.966	127.763	-0.127	0.163
-729.952	-37.404	-0.269	-0.146
-728.937	-200.000	-0.006	0.372
-727.923	4.955	-0.123	0.092
-726.908	230.093	-0.096	-0.160
-725.894	-200.000	-0.023	-0.120
-724.879	210.233	-0.211	-0.336
-723.864	-13.994	-0.183	-0.119
-722.850	-152.450	0.081	0.006
-721.835	-200.000	0.027	0.278
-720.821	602.815	0.057	0.144
-719.806	-84.557	-0.282	-0.090
-718.791	255.129	-0.082	0.142
-717.777	800.000	-0.093	0.335
-716.762	430.658	0.136	-0.297
-715.748	-47.634	-0.119	-0.058
-714.733	800.000	-0.132	-0.463
-713.718	512.931	-0.054	0.128
-712.704	45.855	0.010	-0.009
-711.689	69.755	-0.057	-0.060
-710.675	93.445	0.282	0.323
-709.660	-82.990	-0.305	-0.100
-708.645	-76.128	-0.286	0.102
-707.631	210.674	-0.081	-0.129
-706.616	-158.827	0.158	-0.009
-705.602	62.712	0.129	0.130
-704.587	-94.071	-0.248	-0.069
-703.572	-200.000	-0.011	0.278
-702.558	453.805	0.159	-0.356
-701.543	45.451	-0.319	-0.298
-700.529	800.000	-0.039	-0.137
-699.514	87.047	-0.130	0.145
-698.499	187.384	0.187	-0.283
-697.485	-2.838	0.198	-0.140
-696.470	508.166	-0.109	-0.257
-695.456	-144.233	0.237	0.022
-694.441	-142.744	0.062	-0.006
-693.426	-94.525	-0.251	-0.069
-692.412	800.000	-0.023	-0.068
-691.397	278.896	0.085	0.153
-690.383	-200.000	0.048	-0.316
-689.368	-50.555	0.122	-0.058
-688.354	107.754	-0.117	0.141
-687.339	-149.947	-0.135	0.011
-686.324	-130.955	-0.348	-0.047
-685.310	-122.693	0.174	0.028
-684.295	-147.629	-0.158	-0.013
-683.281	384.038	-0.043	0.090
-682.266	-88.730	0.125	0.037
-681.251	800.000	-0.036	-0.127
-680.237	13.899	0.174	-0.137
-679.222	-72.607	0.274	-0.102
-678.208	249.909	-0.084	0.145
-677.193	-114.087	-0.437	0.086
-676.178	-26.001	0.123	0.073
-675.164	800.000	-0.048	-0.152
-674.149	-200.000	-0.070	-0.402
-673.135	127.411	0.092	-0.117
-672.120	611.674	-0.136	0.345
-671.105	-200.000	-0.026	-0.184
-670.091	-127.146	0.063	-0.009
-669.076	-118.746	-0.305	-0.054
-668.062	-62.223	0.217	-0.091
-667.047	454.846	0.107	0.240
-666.032	-78.968	-0.429	0.147
-665.018	-83.011	0.069	-0.023
-664.003	85.634	0.151	0.167
-662.989	800.000	-0.079	-0.294
-661.974	-200.000	0.030	-0.251
-660.959	125.897	-0.118	-0.151
-659.945	-69.532	0.182	0.070
-658.930	113.179	0.145	-0.177
-657.916	-42.826	-0.180	0.092
-656.901	-200.000	0.015	-0.073
-655.886	-200.000	0.022	0.217
-654.872	800.000	0.047	0.196
-653.857	16.634	-0.235	-0.188
-652.843	423.689	-0.064	-0.138
-651.828	-200.000	-0.045	0.276
-650.814	190.310	-0.087	0.131
-649.799	-200.000	0.057	-0.254
-648.784	-200.000	0.037	-0.206
-647.770	12.468	0.036	-0.028
-646.755	-35.938	0.227	0.124
-645.741	28.624	0.263	-0.225
-644.726	23.739	0.143	0.119
-643.711	-157.733	0.431	0.026
-642.697	123.633	-0.261	0.330
-641.682	-19.807	-0.141	0.088
-640.668	32.421	-0.159	0.139
-639.653	-200.000	-0.057	-0.282
-638.638	264.582	0.073	0.129
-637.624	800.000	-0.045	-0.171
-636.609	-141.079	0.369	-0.038
-635.595	58.855	0.115	-0.114
-634.580	-195.693	-0.097	0.001
-633.565	-200.000	0.035	-0.294
-632.551	62.796	0.180	0.181
-631.536	-63.644	0.145	-0.060
-630.522	800.000	0.091	-0.253
-629.507	-141.090	0.146	-0.015
-628.492	800.000	-0.040	-0.154
-627.478	-34.413	0.124	0.068
-626.463	-29.888	0.065	0.038
-625.449	-200.000	-0.008	-0.162
-624.434	27.362	0.136	0.115
-623.419	378.179	-0.051	-0.106
-622.405	33.631	-0.200	-0.175
-621.390	13.885	-0.114	0.089
-620.376	-77.553	0.100	0.035
-619.361	-200.000	-0.040	-0.292
-618.346	34.247	0.197	-0.173
-617.332	132.604	-0.122	-0.159
-616.317	-200.000	-0.013	-0.174
-615.303	-200.000	0.049	-0.000
-614.288	-146.405	0.177	-0.016
-613.273	433.709	-0.058	0.127
-612.259	-106.798	0.422	0.094
-611.244	-84.521	-0.124	-0.040
-610.230	-115.917	0.127	0.024
-609.215	-3.182	-0.211	0.148
-608.201	-104.591	-0.307	0.071
-607.186	-162.271	0.087	0.004
-606.171	-200.000	-0.010	-0.556
-605.157	-80.194	-0.260	0.088
-604.142	-200.000	0.028	-0.141
-603.128	-179.515	-0.204	-0.005
-602.113	38.304	0.150	0.135
-601.098	800.000	0.026	0.080
-600.084	-3.620	-0.144	0.101
-599.069	-54.986	-0.162	0.073
-598.055	-69.901	-0.389	-0.150
-597.040	35.618	-0.020	0.018
-596.025	-200.000	-0.095	-0.491
-595.011	-128.073	0.519	0.075
-593.996	-200.000	0.022	0.136
-592.982	110.680	-0.327	-0.397
-591.967	-200.000	0.602	-0.000
-590.952	800.000	-0.007	-0.026
-589.938	-94.622	-0.211	-0.058
-588.923	-65.049	-0.074	0.030
-587.909	-200.000	0.001	-0.181
-586.894	-200.000	0.050	-0.259
-585.879	-200.000	-0.001	-0.077
-584.865	339.385	-0.087	0.172
-583.850	42.319	0.313	0.286
-582.836	-37.325	0.282	0.152
-581.821	17.354	0.069	0.055
-580.806	-200.000	-0.070	-0.536
-579.792	-200.000	0.030	-0.362
-578.777	-200.000	-0.030	-0.167
-577.763	-131.408	-0.323	-0.043
-576.748	-88.292	0.103	0.031
-575.733	302.785	0.018	-0.034
-574.719	36.886	-0.341	-0.304
-573.704	10.303	0.149	-0.114
-572.690	-7.776	0.114	0.078
-571.675	-89.224	-0.378	-0.112
-570.661	-20.278	0.123	0.076
-569.646	-124.549	0.344	-0.054
-568.631	-109.510	-0.387	-0.082
-567.617	541.764	0.091	0.218
-566.602	-58.489	-0.195	0.085
-565.588	-113.824	0.319	-0.062
-564.573	7.553	-0.008	0.006
-563.558	-200.000	0.018	-0.296
-562.544	-32.789	0.141	-0.079
-561.529	-136.483	-0.457	0.053
-560.515	18.209	-0.250	-0.201
-559.500	-155.476	-0.167	-0.011
-558.485	-163.096	-0.169	-0.008
-557.471	-200.000	0.014	0.241
-556.456	-200.000	-0.033	-0.338
-555.442	-98.208	-0.223	0.058
-554.427	-12.396	0.223	0.146
-553.412	-200.000	0.046	0.444
-552.398	1.082	-0.201	-0.145
-551.383	-24.592	0.338	-0.202
-550.369	320.368	0.161	0.308
-549.354	-121.113	0.171	-0.029
-548.339	-200.000	-0.052	0.338
-547.325	-90.388	0.137	0.040
-546.310	800.000	-0.042	0.174
-545.296	-200.000	0.041	-0.398
-544.281	166.153	-0.066	-0.094
-543.266	-39.259	-0.021	-0.011
-542.252	455.101	-0.097	-0.217
-541.237	-90.018	0.233	0.068
-540.223	49.877	-0.060	-0.056
-539.208	24.240	-0.158	-0.131
-538.193	303.370	0.090	0.168
-537.179	94.605	0.124	-0.142
-536.164	103.263	-0.151	0.178
-535.150	-146.064	0.398	-0.035
-534.135	-23.155	0.469	0.284
-533.121	-72.235	-0.039	0.015
-532.106	-200.000	-0.016	0.107
-531.091	37.219	-0.255	0.227
-530.077	271.209	-0.113	0.199
-529.062	-104.624	0.198	0.046
-528.048	-3.479	0.162	0.113
-527.033	-92.097	-0.122	0.035
-526.018	477.251	0.106	-0.240
-525.004	65.569	-0.226	0.230
-523.989	5.402	-0.257	-0.190
-522.975	124.548	-0.276	-0.349
-521.960	-37.659	0.232	-0.124
-520.945	-149.195	0.308	0.025
-519.931	-200.000	-0.003	-0.405
-518.916	137.580	0.080	0.105
-517.902	52.307	-0.310	0.297
-516.887	-200.000	0.015	-0.213
-515.872	800.000	0.027	-0.080
-514.858	-200.000	-0.227	0.000
-513.843	473.520	0.024	-0.055
-512.829	419.215	0.147	-0.315
-511.814	289.072	0.050	-0.092
-510.799	397.848	0.048	0.102
-509.785	-23.803	0.300	-0.180
-508.770	601.615	0.059	0.146
-507.756	209.795	-0.176	-0.277
-506.741	4.531	-0.160	-0.118
-505.726	20.312	-0.222	-0.180
-504.712	800.000	-0.061	0.196
-503.697	649.702	-0.049	-0.125
-502.683	261.182	-0.148	0.258
-501.668	635.880	0.027	-0.068
-500.653	800.000	-0.037	-0.127
-499.639	-71.806	-0.019	0.007
-498.624	179.507	-0.116	-0.171
-497.610	55.724	-0.128	0.125
-496.595	317.656	-0.080	-0.152
-495.581	199.549	0.252	0.388
-494.566	-132.123	-0.088	-0.011
-493.551	91.085	0.141	0.159
-492.537	209.794	0.055	0.087
-491.522	40.620	-0.167	0.151
-490.508	-66.797	-0.282	0.112
-489.493	401.978	-0.146	0.307
-488.478	-98.557	0.269	0.069
-487.464	132.938	-0.095	0.123
-486.449	606.612	0.082	-0.206
-485.435	73.231	-0.139	-0.146
-484.420	-36.500	-0.295	0.160
-483.405	-42.419	0.396	-0.202
-482.391	-200.000	0.010	0.322
-481.376	-34.828	0.187	0.102
-480.362	17.130	0.108	0.086
-479.347	-154.869	0.364	-0.024
-478.332	1.744	-0.158	0.114
-477.318	-3.329	0.089	0.062
-476.303	-7.949	0.175	-0.118
-475.289	-109.263	0.136	0.029
-474.274	-200.000	-0.013	-0.241
-473.259	262.677	-0.017	0.030
-472.245	-151.679	-0.384	-0.028
-471.230	800.000	-0.058	0.231
-470.216	-37.588	0.086	0.046
-469.201	346.641	0.150	0.296
-468.186	-200.000	-0.006	-0.149
-467.172	44.807	0.323	0.298
-466.157	-200.000	0.016	-0.133
-465.143	110.530	0.135	-0.163
-464.128	-19.680	-0.138	0.086
-463.113	-200.000	-0.030	0.154
-462.099	-62.904	0.206	-0.085
-461.084	-90.190	0.030	-0.009
-460.070	-200.000	0.062	0.342
-459.055	800.000	-0.066	0.220
-458.040	42.703	0.307	-0.280
-457.026	-59.502	-0.356	-0.153
-456.011	204.041	0.131	0.204
-454.997	-200.000	-0.039	0.231
-453.982	22.600	-0.291	0.239
-452.968	-200.000	0.052	0.353
-451.953	-200.000	0.004	-0.093
-450.938	-63.293	-0.322	-0.133
-449.924	-15.625	-0.248	0.159
-448.909	72.765	-0.124	-0.130
-447.895	800.000	0.092	0.272
-446.880	11.857	0.039	-0.030
-445.865	-67.302	-0.415	0.164
-444.851	49.578	-0.276	-0.260
-443.836	193.782	-0.101	-0.153
-442.822	106.415	-0.177	0.210
-441.807	-67.775	0.279	0.109
-440.792	78.762	-0.190	-0.203
-439.778	101.091	0.341	0.397
-438.763	15.635	0.366	-0.288
-437.749	37.760	-0.250	-0.222
-436.734	169.535	-0.056	-0.080
-435.719	-11.147	0.169	-0.112
-434.705	-121.317	0.319	-0.053
-433.690	-72.235	-0.101	0.037
-432.676	-158.568	0.386	-0.022
-431.661	136.097	0.185	-0.242
-430.646	-200.000	-0.092	-0.463
-429.632	45.210	0.227	-0.210
-428.617	-99.312	-0.252	-0.064
-427.603	-200.000	-0.013	-0.118
-426.588	-85.850	-0.262	0.081
-425.573	154.328	0.099	0.135
-424.559	739.839	-0.116	-0.311
-423.544	-48.282	-0.073	-0.035
-422.530	376.768	-0.106	0.217
-421.515	-13.843	0.237	0.153
-420.500	800.000	0.013	-0.044
-419.486	-173.881	0.126	-0.004
-418.471	138.724	-0.253	0.332
-417.457	800.000	-0.071	-0.204
-416.442	-130.841	0.157	-0.021
-415.428	-200.000	0.025	-0.140
-414.413	-149.810	-0.200	0.016
-413.398	-103.102	0.266	0.063
-412.384	491.910	-0.072	0.165
-411.369	-51.584	-0.151	0.071
-410.355	-200.000	-0.018	-0.081
-409.340	170.055	0.036	-0.052
-408.325	94.764	0.105	0.119
-407.311	7.708	-0.293	-0.219
-406.296	-200.000	-0.012	0.174
-405.282	11.833	0.099	-0.076
-404.267	-132.668	-0.230	0.029
-403.252	-31.721	-0.186	0.104
-402.238	800.000	0.021	-0.091
-401.223	-168.542	0.310	0.012
-400.209	-200.000	-0.017	-0.309
-399.194	800.000	-0.096	-0.284
-398.179	367.735	0.153	0.309
-397.165	-33.914	-0.056	-0.031
-396.150	70.172	-0.195	0.201
-395.136	93.445	-0.244	0.276
-394.121	-200.000	-0.012	0.071
-393.106	-200.000	-0.066	0.364
-392.092	119.711	0.298	0.369
-391.077	-87.221	-0.231	0.070
-390.063	-32.327	-0.202	0.113
-389.048	621.781	0.009	-0.022
-388.033	80.369	0.199	-0.214
-387.019	-33.239	0.028	0.015
-386.004	-200.000	0.020	0.161
-384.990	23.944	0.159	-0.131
-383.975	148.889	-0.058	0.078
-382.960	-200.000	-0.025	0.114
-381.946	250.632	0.195	0.330
-380.931	800.000	-0.132	0.516
-379.917	253.282	-0.134	0.229
-378.902	-200.000	0.010	0.148
-377.888	88.533	-0.155	-0.172
-376.873	-189.708	0.599	-0.007
-375.858	800.000	-0.073	-0.239
-374.844	-200.000	0.016	0.216
-373.829	80.494	-0.069	0.074
-372.815	-48.122	0.265	0.128
-371.800	631.012	0.067	-0.170
-370.785	46.375	0.065	-0.060
-369.771	28.253	-0.256	-0.216
-368.756	-107.827	-0.367	0.080
-367.742	-28.348	0.399	0.230
-366.727	20.041	0.156	0.126
-365.712	800.000	-0.016	0.059
-364.698	155.793	-0.138	-0.190
-363.683	46.594	0.175	-0.162
-362.669	-47.634	-0.234	0.113
-361.654	-171.519	0.315	-0.010
-360.639	-93.005	-0.370	0.103
-359.625	-178.271	0.136	-0.003
-358.610	57.259	-0.078	0.076
-357.596	66.346	0.176	-0.179
-356.581	635.311	0.033	-0.085
-355.566	-159.467	0.191	0.011
-354.552	-130.393	-0.114	-0.015
-353.537	232.129	0.138	-0.225
-352.523	218.426	0.105	-0.168
-351.508	-58.271	-0.261	-0.114
-350.493	-75.817	0.146	-0.052
-349.479	86.875	-0.197	0.217
-348.464	-126.895	-0.450	0.066
-347.450	-16.963	-0.131	0.083
-346.435	-5.181	0.257	0.176
-345.420	145.566	0.240	0.320
-344.406	-31.330	0.187	0.105
-343.391	374.599	-0.075	0.152
-342.377	-200.000	-0.052	0.360
-341.362	-200.000	-0.007	-0.197
-340.348	800.000	0.014	-0.060
-339.333	-149.236	-0.313	-0.025
-338.318	258.124	0.242	-0.415
-337.304	-69.623	0.254	0.097
-336.289	428.310	0.075	-0.162
-335.275	-149.920	-0.136	-0.011
-334.260	800.000	0.068	0.222
-333.245	296.893	-0.105	-0.191
-332.231	-1.860	-0.472	0.331
-331.216	-200.000	0.022	0.210
-330.202	800.000	-0.112	0.383
-329.187	-57.954	-0.286	0.125
-328.172	800.000	-0.097	0.325
-327.158	-137.151	-0.284	-0.032
-326.143	151.728	0.224	-0.305
-325.129	34.198	0.165	-0.143
-324.114	-72.337	0.090	-0.033
-323.099	136.844	-0.069	-0.090
-322.085	163.151	-0.327	0.458
-321.070	148.779	-0.171	-0.230
-320.056	-157.136	0.266	0.016
-319.041	-192.157	-0.149	0.001
-318.026	-14.705	0.134	0.086
-317.012	800.000	0.191	-0.563
-315.997	389.990	0.169	-0.349
-314.983	-33.417	0.175	-0.096
-313.968	-82.145	0.023	-0.007
-312.953	63.874	-0.237	0.237
-311.939	800.000	0.058	-0.182
-310.924	96.634	0.277	0.316
-309.910	-68.907	-0.354	0.136
-308.895	470.358	0.099	0.222
-307.880	43.123	-0.134	-0.122
-306.866	403.153	-0.047	0.098
-305.851	800.000	-0.027	0.115
-304.837	-200.000	0.290	0.001
-303.822	-159.289	-0.295	-0.016
-302.807	34.215	0.146	0.126
-301.793	-122.611	-0.453	0.073
-300.778	-37.368	0.182	0.097
-299.764	275.072	-0.105	-0.186
-298.749	800.000	-0.027	-0.092
-297.735	164.679	0.077	-0.108
-296.720	-134.315	0.389	0.048
-295.705	-200.000	0.025	-0.234
-294.691	-159.953	0.361	-0.020
-293.676	-200.000	0.009	-0.097
-292.662	342.991	0.132	0.258
-291.647	800.000	-0.049	-0.184
-290.632	208.619	-0.120	0.186
-289.618	-151.873	0.314	-0.023
-288.603	-80.466	-0.328	0.109
-287.589	764.491	-0.031	-0.083
-286.574	156.570	0.344	-0.473
-285.559	467.716	-0.127	-0.284
-284.545	-154.302	0.360	0.024
-283.530	-200.000	-0.030	-0.172
-282.516	107.220	0.037	0.044
-281.501	517.813	0.106	0.247
-280.486	322.982	0.044	0.084
-279.472	365.886	0.071	0.142
-278.457	60.717	0.077	0.076
-277.443	-200.000	0.051	0.362
-276.428	19.960	0.174	0.139
-275.413	687.406	-0.041	0.106
-274.399	508.208	0.188	-0.434
-273.384	-0.782	-0.352	-0.248
-272.370	219.815	-0.179	0.285
-271.355	800.000	0.143	-0.399
-270.340	-118.997	-0.314	0.055
-269.326	-85.623	0.245	-0.076
-268.311	-108.116	-0.177	0.038
-267.297	60.288	-0.169	-0.166
-266.282	-9.338	0.247	0.164
-265.267	-165.386	-0.404	0.018
-264.253	-200.000	-0.001	-0.012
-263.238	800.000	0.043	-0.120
-262.224	293.325	0.225	-0.408
-261.209	800.000	-0.114	-0.358
-260.195	62.419	-0.099	0.099
-259.180	800.000	-0.084	-0.300
-258.165	800.000	-0.106	0.328
-257.151	105.375	-0.098	0.115
-256.136	59.652	-0.190	0.186
-255.122	-140.086	0.141	-0.015
-254.107	258.058	-0.111	-0.190
-253.092	-138.391	-0.083	-0.009
-252.078	-131.230	0.260	0.034
-251.063	-86.869	0.088	-0.027
-250.049	485.902	-0.071	0.161
-249.034	333.911	-0.104	0.201
-248.019	6.005	0.042	-0.031
-247.005	-64.947	-0.159	0.064
-245.990	19.690	-0.017	0.013
-244.976	60.992	-0.185	-0.183
-243.961	61.768	0.286	0.283
-242.946	-46.652	0.068	0.033
-241.932	50.563	-0.098	0.092
-240.917	-23.776	-0.225	0.134
-239.903	-138.328	-0.214	-0.023
-238.888	158.578	0.384	-0.529
-237.873	43.074	-0.115	-0.105
-236.859	106.701	0.135	0.159
-235.844	276.080	-0.059	0.104
-234.830	800.000	-0.061	0.231
-233.815	-86.658	-0.453	-0.138
-232.800	-70.870	-0.186	0.070
-231.786	108.192	-0.121	-0.143
-230.771	468.556	-0.135	0.300
-229.757	477.131	0.057	0.129
-228.742	-8.011	0.276	-0.185
-227.727	-99.759	-0.050	-0.012
-226.713	57.244	-0.174	-0.168
-225.698	-5.046	-0.239	-0.163
-224.684	54.107	-0.115	0.109
-223.669	-175.994	-0.222	-0.006
-222.655	188.084	0.203	0.301
-221.640	-108.040	-0.332	0.072
-220.625	26.084	0.103	0.085
-219.611	-111.642	0.190	-0.038
-218.596	-200.000	-0.045	-0.241
-217.582	212.817	-0.017	0.027
-216.567	74.337	-0.105	0.109
-215.552	229.964	-0.043	0.069
-214.538	-63.331	-0.190	0.078
-213.523	-91.457	0.277	0.078
-212.509	199.265	-0.039	0.059
-211.494	-200.000	-0.018	0.286
-210.479	4.039	-0.136	0.098
-209.465	32.867	0.155	0.133
-208.450	42.306	0.184	0.166
-207.436	-181.278	0.200	-0.004
-206.421	470.746	0.037	0.083
-205.406	-38.149	0.105	-0.055
-204.392	76.476	0.145	0.152
-203.377	248.584	0.228	-0.382
-202.363	-64.634	-0.051	-0.020
-201.348	395.213	0.056	-0.116
-200.333	-100.474	-0.254	-0.062
-199.319	-99.564	0.257	-0.064
-198.304	-55.432	-0.209	-0.093
-197.290	-72.054	-0.228	-0.084
-196.275	-54.878	0.071	0.032
-195.260	196.515	-0.198	-0.299
-194.246	81.522	0.128	-0.137
-193.231	247.238	-0.099	-0.165
-192.217	288.188	0.110	0.197
-191.202	40.856	-0.133	0.119
-190.187	800.000	-0.056	0.196
-189.173	42.723	0.109	-0.099
-188.158	800.000	-0.039	0.134
-187.144	-62.737	-0.156	0.064
-186.129	800.000	0.094	-0.382
-185.114	-44.564	-0.445	-0.221
-184.100	49.153	0.237	-0.221
-183.085	-22.475	-0.261	-0.156
-182.071	-171.271	0.197	-0.007
-181.056	86.501	0.303	0.331
-180.042	-200.000	-0.025	0.131
-179.027	-40.535	-0.159	0.082
-178.012	-200.000	-0.011	-0.115
-176.998	-148.142	0.390	-0.032
-175.983	-105.113	-0.106	-0.024
-174.969	-200.000	0.003	0.051
-173.954	2.969	0.133	0.096
-172.939	744.751	0.048	0.128
-171.925	-181.650	-0.296	-0.006
-170.910	800.000	-0.032	-0.114
-169.896	-110.780	0.520	0.106
-168.881	338.585	0.096	-0.186
-167.866	-64.394	-0.191	-0.077
-166.852	-200.000	-0.016	0.159
-165.837	-200.000	0.007	-0.161
-164.823	-53.846	0.157	0.071
-163.808	80.125	-0.021	0.023
-162.793	-200.000	0.032	0.245
-161.779	800.000	0.095	0.299
-160.764	491.997	-0.024	-0.054
-159.750	-95.742	0.263	-0.070
-158.735	-143.437	0.090	0.009
-157.720	297.323	-0.121	-0.221
-156.706	-166.529	-0.192	0.008
-155.691	113.214	-0.199	0.239
-154.677	64.343	0.062	0.061
-153.662	-74.349	-0.200	0.071
-152.647	58.879	-0.110	0.107
-151.633	-14.239	0.251	-0.160
-150.618	191.887	-0.128	-0.191
-149.604	-119.207	0.182	-0.031
-148.589	-158.338	0.339	0.020
-147.574	-97.750	0.093	0.024
-146.560	800.000	-0.101	0.412
-145.545	-63.152	0.231	0.094
-144.531	133.982	0.095	-0.122
-143.516	-63.220	0.130	0.053
-142.502	36.699	-0.211	0.184
-141.487	-73.304	-0.315	-0.114
-140.472	51.115	-0.200	0.188
-139.458	-134.936	-0.321	-0.038
-138.443	-96.423	0.107	0.028
-137.429	576.031	-0.051	-0.123
-136.414	-200.000	0.003	0.242
-135.399	-2.418	0.231	-0.160
-134.385	-153.192	-0.185	-0.013
-133.370	-72.863	-0.154	-0.056
-132.356	-90.468	-0.085	0.024
-131.341	179.618	-0.045	-0.065
-130.326	494.662	0.074	0.169
-129.312	-200.000	0.012	-0.254
-128.297	51.170	-0.158	0.149
-127.283	-200.000	0.040	0.253
-126.268	19.889	0.260	-0.207
-125.253	-200.000	-0.021	0.120
-124.239	800.000	0.038	-0.118
-123.224	175.561	0.140	-0.200
-122.210	14.001	-0.259	0.199
-121.195	-108.574	-0.079	0.017
-120.180	-1.865	-0.219	-0.153
