DTS Sentinel unit serial number:	SN413079Multiplexer serial number:	ORYXHardware model number:	OX4-SRSoftware version number:	ORYX F/W v4.00 Oryx Data Collector v3.7.2.0data status	okinstallation	princeton_trtdifferential loss correction	single-endedforward channel	channel 2reverse channel	N/Adate	2019/09/18time	07:59:35forward acquisition time	60.00reverse acquisition time	0.00gamma	496.2192k internal	0.2345k external	0.2345temperature offset calibration	0.9978default loss term (dB/km)	0.3790temperature slope calibration	1.0000multiplexer offset coefficient	1.0000multiplexer slope coefficient	1.0000fibre end	0.00T internal ref (°C)	23.56T ext. ref 1 (°C)	0.20T ext. ref 2 (°C)	19.30length (m)	temperature (°C)	Stokes	anti-Stokes-747.200	-200.000	-0.012	0.069
-746.185	-200.000	-0.044	0.316
-745.171	-44.485	0.330	0.165
-744.156	67.041	-0.078	0.079
-743.142	6.829	-0.056	-0.042
-742.127	-81.203	-0.194	-0.064
-741.112	-18.662	-0.049	-0.031
-740.098	165.471	-0.090	0.127
-739.083	100.881	0.115	-0.134
-738.069	800.000	-0.113	0.401
-737.054	-200.000	0.013	0.232
-736.039	184.407	-0.275	-0.408
-735.025	-33.577	0.370	-0.204
-734.010	55.128	-0.171	-0.165
-732.996	667.191	0.055	-0.142
-731.981	-200.000	0.022	0.298
-730.966	-94.477	-0.223	0.061
-729.952	77.352	0.077	-0.082
-728.937	616.376	0.101	0.254
-727.923	22.560	-0.102	-0.084
-726.908	-103.371	-0.393	-0.093
-725.894	-40.330	0.161	-0.084
-724.879	-6.649	-0.269	-0.183
-723.864	-200.000	0.004	-0.223
-722.850	-110.956	-0.448	-0.092
-721.835	-133.452	-0.057	0.007
-720.821	-35.890	0.071	-0.039
-719.806	61.083	-0.128	-0.127
-718.791	377.684	0.032	-0.066
-717.777	75.117	-0.282	-0.297
-716.762	67.894	0.184	-0.188
-715.748	-63.657	-0.009	0.004
-714.733	-118.941	0.091	-0.016
-713.718	130.382	-0.130	-0.166
-712.704	-137.961	-0.142	0.016
-711.689	-68.214	0.281	0.109
-710.675	-200.000	0.019	-0.203
-709.660	304.259	0.060	-0.111
-708.645	-102.531	-0.321	-0.077
-707.631	-150.067	0.426	0.033
-706.616	-200.000	0.012	-0.154
-705.602	-25.682	-0.234	0.138
-704.587	-123.776	0.105	-0.017
-703.572	133.626	-0.096	-0.124
-702.558	163.478	-0.113	0.159
-701.543	9.107	0.334	-0.252
-700.529	-167.284	-0.236	-0.010
-699.514	-40.828	0.140	-0.073
-698.499	-200.000	0.004	-0.058
-697.485	-200.000	-0.000	0.183
-696.470	800.000	0.015	0.058
-695.456	82.498	0.035	-0.038
-694.441	-200.000	0.038	0.513
-693.426	105.170	-0.181	0.214
-692.412	11.316	0.174	-0.133
-691.397	-200.000	-0.022	-0.160
-690.383	256.165	-0.235	0.402
-689.368	248.369	-0.138	-0.232
-688.354	163.209	-0.109	-0.153
-687.339	-44.123	0.124	0.062
-686.324	-200.000	-0.025	0.260
-685.310	800.000	-0.122	0.381
-684.295	-200.000	0.014	0.403
-683.281	797.704	0.052	-0.143
-682.266	800.000	-0.111	-0.314
-681.251	-61.596	-0.096	-0.040
-680.237	-114.338	0.130	0.025
-679.222	-179.714	0.021	-0.000
-678.208	-140.952	0.219	-0.022
-677.193	-79.641	-0.131	-0.044
-676.178	202.242	-0.196	0.301
-675.164	800.000	0.078	-0.260
-674.149	-68.029	-0.140	-0.054
-673.135	-108.919	-0.175	0.037
-672.120	57.187	0.253	-0.246
-671.105	800.000	-0.024	0.067
-670.091	-200.000	-0.014	-0.206
-669.076	-18.457	-0.261	0.163
-668.062	-113.897	-0.421	-0.082
-667.047	96.476	0.155	0.177
-666.032	260.560	-0.096	0.166
-665.018	-75.975	0.176	-0.062
-664.003	-57.503	-0.487	-0.213
-662.989	-62.328	-0.276	-0.115
-661.974	-95.702	0.063	-0.017
-660.959	159.920	-0.159	-0.221
-659.945	-107.971	-0.070	0.015
-658.930	-103.563	0.243	0.057
-657.916	211.827	0.163	0.256
-656.901	34.622	-0.040	0.035
-655.886	-163.401	-0.238	-0.011
-654.872	41.672	-0.107	-0.096
-653.857	-200.000	0.011	-0.301
-652.843	96.672	-0.149	0.170
-651.828	-93.897	0.185	-0.051
-650.814	-74.246	-0.326	-0.118
-649.799	-79.324	-0.190	-0.064
-648.784	39.118	-0.061	-0.054
-647.770	549.198	-0.017	-0.040
-646.755	-108.417	-0.106	0.023
-645.741	-84.075	-0.073	-0.023
-644.726	-16.110	-0.255	-0.161
-643.711	-192.463	-0.415	-0.004
-642.697	492.587	0.101	0.230
-641.682	706.814	-0.067	-0.177
-640.668	-128.180	-0.238	0.034
-639.653	800.000	-0.048	0.174
-638.638	-24.075	0.255	-0.152
-637.624	-200.000	0.026	0.260
-636.609	-125.001	0.256	0.039
-635.595	-18.979	0.152	-0.094
-634.580	278.222	-0.217	0.385
-633.565	-10.197	-0.117	-0.077
-632.551	-42.164	0.225	-0.115
-631.536	-58.972	-0.240	-0.103
-630.522	-3.608	0.207	0.143
-629.507	800.000	0.088	-0.378
-628.492	57.991	-0.236	-0.230
-627.478	-200.000	0.069	-0.312
-626.463	10.776	-0.151	0.114
-625.449	-200.000	0.048	-0.333
-624.434	-200.000	-0.024	-0.186
-623.419	-74.395	0.024	-0.008
-622.405	-57.998	-0.116	-0.051
-621.390	-200.000	0.033	0.284
-620.376	109.170	0.174	0.207
-619.361	-76.864	0.013	0.004
-618.346	525.078	-0.035	-0.082
-617.332	103.161	-0.167	-0.195
-616.317	-111.601	0.412	0.083
-615.303	50.454	0.201	-0.189
-614.288	-33.841	-0.175	0.096
-613.273	-200.000	-0.028	0.206
-612.259	170.488	-0.175	-0.249
-611.244	48.031	-0.174	0.162
-610.230	-68.347	-0.242	-0.093
-609.215	-46.926	-0.088	0.043
-608.201	59.020	-0.307	0.300
-607.186	-200.000	-0.044	0.368
-606.171	-4.416	0.104	0.071
-605.157	-117.069	-0.142	-0.026
-604.142	63.852	0.077	-0.077
-603.128	-178.697	-0.267	-0.006
-602.113	-28.463	0.095	0.055
-601.098	-79.024	0.402	0.136
-600.084	4.856	-0.401	-0.293
-599.069	-43.169	-0.139	-0.070
-598.055	1.252	0.146	-0.104
-597.040	-152.238	0.309	0.022
-596.025	246.882	-0.064	-0.108
-595.011	-40.041	0.192	0.100
-593.996	56.772	0.146	0.142
-592.982	61.359	-0.129	-0.127
-591.967	-155.682	0.239	0.015
-590.952	49.018	0.168	-0.156
-589.938	756.695	-0.104	0.281
-588.923	-35.213	0.211	-0.114
-587.909	23.638	0.185	0.151
-586.894	59.641	0.198	-0.194
-585.879	-69.680	0.325	0.124
-584.865	-200.000	0.040	0.346
-583.850	-53.172	-0.090	-0.041
-582.836	247.330	0.218	0.366
-581.821	-200.000	-0.008	0.300
-580.806	160.403	0.094	-0.131
-579.792	228.306	0.057	0.092
-578.777	-200.000	0.027	0.299
-577.763	-113.827	-0.042	-0.008
-576.748	-62.698	0.179	-0.074
-575.733	-133.863	-0.041	-0.005
-574.719	-52.429	-0.271	-0.124
-573.704	-174.086	0.199	0.006
-572.690	-92.948	0.119	-0.033
-571.675	-200.000	-0.021	-0.188
-570.661	-29.501	-0.140	-0.079
-569.646	800.000	-0.027	-0.076
-568.631	-122.975	0.227	0.036
-567.617	148.298	-0.029	0.039
-566.602	615.796	-0.150	0.372
-565.588	-102.943	0.316	-0.075
-564.573	800.000	0.030	-0.100
-563.558	115.538	0.251	-0.304
-562.544	368.858	-0.144	-0.290
-561.529	-20.221	-0.223	0.137
-560.515	473.759	-0.092	-0.207
-559.500	-134.531	0.226	0.027
-558.485	800.000	-0.069	0.284
-557.471	154.807	0.067	-0.092
-556.456	-8.397	0.182	0.122
-555.442	16.326	0.100	-0.078
-554.427	-200.000	-0.043	0.223
-553.412	93.496	0.219	0.246
-552.398	33.950	0.213	-0.184
-551.383	-200.000	0.026	0.204
-550.369	338.554	-0.071	0.138
-549.354	70.083	-0.097	0.099
-548.339	25.764	0.078	0.065
-547.325	-98.067	0.395	0.101
-546.310	-72.868	0.180	-0.066
-545.296	-2.954	0.263	0.182
-544.281	319.556	-0.134	0.253
-543.266	-127.717	-0.261	-0.037
-542.252	-63.186	0.205	0.084
-541.237	288.094	0.210	-0.378
-540.223	331.966	-0.062	0.118
-539.208	-200.000	0.001	0.123
-538.193	-158.766	0.254	-0.014
-537.179	-200.000	0.059	-0.313
-536.164	-124.420	-0.118	-0.018
-535.150	266.244	0.017	-0.029
-534.135	99.453	0.081	-0.092
-533.121	-190.721	0.055	0.001
-532.106	-48.946	0.198	0.094
-531.091	-200.000	-0.047	-0.327
-530.077	207.430	-0.194	-0.300
-529.062	682.640	0.074	-0.192
-528.048	-200.000	0.046	-0.317
-527.033	-138.037	-0.228	0.025
-526.018	131.848	-0.267	0.340
-525.004	613.612	-0.059	0.147
-523.989	441.803	0.114	-0.248
-522.975	23.916	-0.301	-0.246
-521.960	-80.259	0.080	-0.027
-520.945	90.719	-0.123	-0.137
-519.931	252.824	0.082	-0.138
-518.916	-200.000	-0.033	0.271
-517.902	473.653	-0.059	0.132
-516.887	10.471	0.225	-0.170
-515.872	-200.000	0.023	0.151
-514.858	-133.036	-0.324	0.041
-513.843	-200.000	-0.012	-0.084
-512.829	800.000	-0.124	-0.525
-511.814	-200.000	-0.091	-0.418
-510.799	-88.128	0.317	-0.094
-509.785	121.707	-0.072	-0.089
-508.770	-72.867	-0.181	-0.066
-507.756	-121.212	0.376	-0.062
-506.741	-200.000	-0.021	-0.287
-505.726	59.324	-0.075	-0.073
-504.712	711.434	0.092	0.240
-503.697	266.255	-0.111	-0.191
-502.683	-103.393	-0.186	0.043
-501.668	79.777	-0.016	0.017
-500.653	-115.049	-0.091	-0.017
-499.639	-200.000	0.021	-0.097
-498.624	134.139	0.043	-0.056
-497.610	-200.000	0.043	-0.240
-496.595	32.245	0.024	-0.020
-495.581	-200.000	0.020	0.259
-494.566	14.110	-0.079	-0.061
-493.551	105.171	0.080	0.093
-492.537	800.000	0.011	0.033
-491.522	-110.668	-0.166	-0.034
-490.508	-152.880	0.159	0.011
-489.493	-68.211	0.063	0.024
-488.478	219.706	-0.181	-0.287
-487.464	-183.682	0.053	-0.001
-486.449	722.699	-0.148	0.390
-485.435	12.554	-0.151	-0.116
-484.420	-188.657	0.230	0.003
-483.405	-16.023	0.147	-0.093
-482.391	23.217	-0.172	0.140
-481.376	-157.900	0.221	-0.013
-480.362	-22.640	-0.150	0.090
-479.347	-168.599	0.213	-0.008
-478.332	41.767	0.108	-0.097
-477.318	-73.977	0.301	0.108
-476.303	45.112	-0.169	0.154
-475.289	38.221	0.070	-0.061
-474.274	800.000	-0.022	0.090
-473.259	-29.542	-0.307	0.174
-472.245	252.822	-0.113	-0.190
-471.230	-185.579	-0.187	0.003
-470.216	25.830	-0.393	-0.324
-469.201	54.246	0.187	0.178
-468.186	205.055	0.198	-0.305
-467.172	-109.447	0.204	-0.043
-466.157	61.577	0.175	0.172
-465.143	-79.775	0.141	-0.047
-464.128	-8.754	-0.334	-0.221
-463.113	-35.963	-0.477	0.255
-462.099	800.000	-0.080	-0.242
-461.084	499.093	-0.096	-0.220
-460.070	-4.244	-0.041	0.028
-459.055	-124.488	-0.311	-0.048
-458.040	21.499	-0.048	0.039
-457.026	28.536	0.095	0.080
-456.011	800.000	0.058	0.160
-454.997	161.058	-0.093	-0.129
-453.982	-129.812	0.290	-0.039
-452.968	800.000	-0.026	0.105
-451.953	25.749	-0.121	-0.100
-450.938	-200.000	0.059	0.266
-449.924	157.863	-0.191	0.262
-448.909	145.668	-0.260	-0.345
-447.895	-200.000	-0.006	-0.194
-446.880	-75.128	0.234	0.083
-445.865	-107.610	-0.157	0.034
-444.851	134.026	-0.300	-0.384
-443.836	-200.000	0.031	-0.216
-442.822	-46.983	-0.177	-0.085
-441.807	-50.708	0.319	-0.149
-440.792	-88.101	0.139	-0.041
-439.778	-200.000	0.004	0.183
-438.763	-200.000	0.033	-0.156
-437.749	-42.702	-0.166	-0.084
-436.734	7.289	0.122	-0.090
-435.719	539.232	-0.025	0.059
-434.705	398.000	0.035	0.073
-433.690	800.000	0.042	-0.171
-432.676	-71.850	-0.264	0.097
-431.661	529.398	-0.009	0.022
-430.646	329.877	-0.067	0.127
-429.632	6.011	0.144	-0.105
-428.617	26.222	0.125	0.103
-427.603	107.805	-0.170	0.201
-426.588	800.000	0.021	0.061
-425.573	-200.000	-0.001	0.022
-424.559	568.081	-0.075	-0.180
-423.544	693.792	-0.047	-0.123
-422.530	108.810	0.151	-0.179
-421.515	165.613	-0.133	-0.186
-420.500	800.000	0.040	-0.110
-419.486	-67.578	-0.052	-0.020
-418.471	-92.441	0.215	0.060
-417.457	-200.000	0.012	0.153
-416.442	800.000	-0.171	0.501
-415.428	-26.589	-0.164	-0.095
-414.413	242.074	-0.261	0.431
-413.398	-200.000	-0.030	-0.139
-412.384	98.830	-0.137	0.156
-411.369	62.373	0.181	0.178
-410.355	27.338	-0.176	-0.146
-409.340	-140.441	-0.362	0.037
-408.325	255.271	-0.101	0.170
-407.311	257.363	0.040	0.068
-406.296	-42.964	-0.055	0.028
-405.282	-59.060	-0.099	-0.042
-404.267	152.782	-0.125	-0.169
-403.252	800.000	0.072	-0.268
-402.238	224.305	0.169	0.269
-401.223	800.000	0.092	-0.345
-400.209	800.000	-0.049	-0.196
-399.194	6.613	-0.213	0.156
-398.179	254.783	0.038	0.064
-397.165	-53.186	-0.347	-0.157
-396.150	-11.816	0.093	0.060
-395.136	-68.545	0.119	0.046
-394.121	-128.427	-0.091	-0.013
-393.106	-108.352	0.109	-0.023
-392.092	3.906	0.180	-0.129
-391.077	49.397	-0.080	-0.074
-390.063	29.962	0.246	-0.207
-389.048	79.181	-0.078	0.083
-388.033	37.509	-0.078	-0.069
-387.019	205.900	0.203	0.312
-386.004	-200.000	-0.005	0.067
-384.990	-200.000	0.012	-0.137
-383.975	-200.000	0.011	0.066
-382.960	693.636	0.061	0.157
-381.946	-110.080	0.256	0.053
-380.931	292.799	0.170	0.306
-379.917	-102.475	0.255	0.060
-378.902	-30.061	-0.090	0.050
-377.888	83.048	0.141	-0.151
-376.873	198.831	-0.200	-0.303
-375.858	-67.087	0.207	0.080
-374.844	-200.000	-0.001	0.070
-373.829	-145.228	-0.301	-0.027
-372.815	299.260	-0.092	-0.167
-371.800	78.449	-0.173	-0.182
-370.785	-200.000	0.012	-0.062
-369.771	37.214	0.044	-0.039
-368.756	2.518	0.240	-0.171
-367.742	-200.000	-0.017	-0.264
-366.727	73.678	0.329	0.340
-365.712	-13.681	0.296	0.189
-364.698	416.073	0.145	-0.305
-363.683	-91.800	-0.115	-0.032
-362.669	-200.000	0.007	0.151
-361.654	-91.059	0.063	-0.018
-360.639	-25.310	0.016	-0.009
-359.625	86.358	0.323	-0.351
-358.610	330.012	0.171	-0.324
-357.596	800.000	-0.053	0.208
-356.581	-117.860	-0.104	-0.018
-355.566	800.000	-0.051	-0.145
-354.552	-37.253	-0.275	-0.145
-353.537	50.332	0.013	0.012
-352.523	7.184	0.405	-0.298
-351.508	187.305	0.298	0.438
-350.493	-200.000	-0.016	-0.091
-349.479	-42.730	-0.319	-0.160
-348.464	787.963	0.077	-0.209
-347.450	202.823	-0.051	-0.078
-346.435	-200.000	0.019	-0.173
-345.420	39.752	0.220	-0.195
-344.406	-88.286	0.315	-0.093
-343.391	142.353	-0.081	-0.106
-342.377	-61.364	-0.054	0.022
-341.362	77.106	0.132	-0.138
-340.348	-200.000	0.032	0.409
-339.333	255.767	0.106	0.178
-338.318	-200.000	0.024	0.239
-337.304	126.274	-0.147	-0.183
-336.289	208.159	-0.107	-0.165
-335.275	30.733	0.032	-0.027
-334.260	223.720	-0.038	-0.061
-333.245	-117.440	0.286	-0.051
-332.231	119.786	-0.132	-0.161
-331.216	14.719	-0.158	0.121
-330.202	-200.000	0.012	0.077
-329.187	-24.343	0.318	-0.186
-328.172	136.074	0.243	0.312
-327.158	-33.201	-0.246	0.134
-326.143	-200.000	0.004	0.088
-325.129	800.000	-0.058	-0.232
-324.114	-166.049	-0.188	-0.008
-323.099	313.069	0.125	0.231
-322.085	140.551	0.141	-0.183
-321.070	118.654	-0.167	0.203
-320.056	52.493	0.125	-0.117
-319.041	-200.000	-0.030	-0.168
-318.026	393.715	0.030	0.061
-317.012	-114.775	-0.143	0.027
-315.997	269.622	0.059	-0.103
-314.983	800.000	0.075	-0.266
-313.968	251.384	0.039	-0.066
-312.953	-43.959	0.238	-0.118
-311.939	-6.330	-0.103	0.069
-310.924	116.799	0.133	0.161
-309.910	-45.842	-0.098	0.048
-308.895	-29.721	0.143	0.080
-307.880	-200.000	-0.023	0.149
-306.866	33.290	-0.284	-0.242
-305.851	5.817	0.273	0.198
-304.837	-99.650	0.195	0.048
-303.822	87.282	0.110	0.120
-302.807	-200.000	0.017	0.233
-301.793	-135.488	-0.339	0.040
-300.778	-200.000	0.028	0.267
-299.764	-176.300	0.508	0.013
-298.749	129.382	0.074	0.093
-297.735	800.000	0.075	-0.226
-296.720	-116.461	0.415	-0.075
-295.705	-55.875	-0.349	0.153
-294.691	800.000	-0.082	0.224
-293.676	175.000	0.094	-0.134
-292.662	214.740	-0.068	-0.107
-291.647	226.637	-0.216	0.345
-290.632	0.104	-0.279	-0.196
-289.618	-2.770	-0.241	-0.166
-288.603	46.387	0.103	-0.094
-287.589	-40.222	0.246	-0.126
-286.574	202.820	-0.335	0.508
-285.559	-2.111	-0.112	0.078
-284.545	107.878	0.156	-0.182
-283.530	-75.623	-0.220	0.077
-282.516	-34.328	-0.217	-0.117
-281.501	301.688	0.145	0.263
-280.486	363.747	0.047	0.092
-279.472	-33.668	-0.278	-0.151
-278.457	47.544	0.317	-0.291
-277.443	-200.000	-0.025	-0.177
-276.428	78.065	-0.261	0.273
-275.413	-94.900	0.134	0.036
-274.399	-58.172	-0.177	-0.076
-273.384	7.064	0.096	0.070
-272.370	381.743	-0.103	0.207
-271.355	403.603	0.281	0.581
-270.340	-162.768	-0.176	-0.008
-269.326	652.054	0.173	-0.436
-268.311	-113.994	0.125	0.024
-267.297	244.766	0.090	-0.148
-266.282	133.352	0.190	0.241
-265.267	699.468	0.088	0.227
-264.253	-142.366	0.124	0.012
-263.238	-200.000	-0.028	-0.157
-262.224	138.314	-0.081	-0.105
-261.209	-45.341	-0.210	-0.102
-260.195	800.000	0.051	-0.191
-259.180	76.086	-0.085	-0.089
-258.165	-161.767	-0.291	-0.015
-257.151	-200.000	-0.034	0.159
-256.136	68.925	0.114	-0.115
-255.122	-99.831	0.078	0.019
-254.107	-111.424	-0.314	0.063
-253.092	-139.482	0.167	0.017
-252.078	401.464	0.187	0.385
-251.063	-108.632	0.353	-0.074
-250.049	-200.000	0.012	-0.348
-249.034	-51.933	0.176	-0.080
-248.019	-141.841	0.248	-0.024
-247.005	-33.825	-0.234	0.126
-245.990	800.000	0.073	0.221
-244.976	115.063	0.071	-0.085
-243.961	-200.000	0.024	0.106
-242.946	800.000	-0.092	-0.285
-241.932	479.603	-0.046	0.102
-240.917	-141.830	-0.142	-0.014
-239.903	19.841	-0.239	-0.189
-238.888	-200.000	0.039	0.218
-237.873	-200.000	0.019	-0.195
-236.859	-99.635	-0.283	-0.070
-235.844	-59.412	0.198	0.083
-234.830	-16.347	-0.270	0.168
-233.815	110.588	0.085	0.100
-232.800	800.000	0.095	0.261
-231.786	-135.138	-0.176	-0.021
-230.771	90.861	0.086	0.095
-229.757	-127.964	-0.318	-0.045
-228.742	-180.974	-0.534	-0.011
-227.727	800.000	-0.081	-0.245
-226.713	17.817	-0.417	-0.325
-225.698	77.027	0.188	-0.195
-224.684	-15.575	-0.107	0.067
-223.669	31.473	-0.170	0.144
-222.655	62.442	0.100	0.098
-221.640	354.449	0.033	-0.065
-220.625	331.579	0.198	-0.373
-219.611	-103.933	0.193	-0.044
-218.596	-28.716	0.191	-0.108
-217.582	-28.591	-0.398	0.225
-216.567	90.817	0.121	-0.132
-215.552	-200.000	-0.079	0.600
-214.538	-109.038	-0.324	-0.068
-213.523	52.836	0.157	0.147
-212.509	531.761	-0.248	0.575
-211.494	-42.522	0.259	-0.129
-210.479	615.882	0.158	0.388
-209.465	-200.000	0.069	-0.335
-208.450	-36.969	0.139	-0.073
-207.436	264.328	-0.150	-0.255
-206.421	-46.506	0.062	0.030
-205.406	695.210	0.092	-0.236
-204.392	47.911	0.077	-0.070
-203.377	-28.602	-0.566	0.319
-202.363	5.581	0.252	-0.182
-201.348	-79.141	0.239	0.079
-200.333	-4.020	0.283	-0.192
-199.319	9.833	0.301	0.223
-198.304	256.407	-0.120	0.202
-197.290	21.653	-0.088	0.070
-196.275	-200.000	0.033	0.468
-195.260	-200.000	-0.017	-0.121
-194.246	-48.046	-0.252	0.119
-193.231	-186.546	0.254	0.004
-192.217	-159.961	-0.105	0.006
-191.202	-49.106	0.243	0.114
-190.187	-200.000	-0.009	0.060
-189.173	-93.009	-0.477	0.130
-188.158	800.000	-0.076	0.210
-187.144	56.336	-0.146	0.139
-186.129	-58.152	-0.236	0.101
-185.114	128.642	-0.143	-0.179
-184.100	-13.281	0.369	-0.234
-183.085	4.085	-0.311	0.223
-182.071	56.465	-0.147	0.139
-181.056	-200.000	0.018	-0.606
-180.042	87.324	-0.060	-0.065
-179.027	729.061	-0.078	0.205
-178.012	-200.000	-0.021	0.168
-176.998	-22.360	0.054	0.032
-175.983	-33.710	-0.052	0.028
-174.969	-0.430	-0.212	-0.148
-173.954	11.723	0.254	0.191
-172.939	800.000	0.099	0.293
-171.925	-200.000	0.010	0.396
-170.910	-97.546	0.442	-0.112
-169.896	-200.000	-0.021	0.154
-168.881	188.974	-0.347	0.508
-167.866	-49.200	-0.111	-0.052
-166.852	-100.977	-0.122	-0.029
-165.837	-81.034	0.175	-0.057
-164.823	286.212	-0.202	0.357
-163.808	38.306	0.194	0.169
-162.793	800.000	-0.038	-0.128
-161.779	-143.806	0.140	-0.013
-160.764	-187.727	-0.091	0.001
-159.750	800.000	-0.013	-0.035
-158.735	-200.000	-0.016	0.152
-157.720	-114.625	0.055	0.010
-156.706	-200.000	0.013	-0.294
-155.691	5.536	-0.068	-0.049
-154.677	-29.120	-0.205	0.115
-153.662	581.434	0.077	0.185
-152.647	57.131	0.130	-0.124
-151.633	155.830	-0.282	0.380
-150.618	800.000	-0.078	0.240
-149.604	531.839	-0.080	-0.184
-148.589	-200.000	0.011	-0.122
-147.574	-153.279	-0.072	-0.005
-146.560	-23.778	-0.081	0.047
-145.545	2.060	0.232	0.164
-144.531	-41.895	-0.155	0.077
-143.516	-173.994	-0.309	0.009
-142.502	227.258	-0.103	0.164
-141.487	56.043	0.140	-0.133
-140.472	-200.000	0.006	-0.154
-139.458	-200.000	-0.092	-0.431
-138.443	616.107	0.067	-0.164
-137.429	766.180	-0.082	0.218
-136.414	493.281	0.137	0.306
-135.399	3.595	-0.263	0.187
-134.385	800.000	0.069	-0.228
-133.370	-162.001	0.217	0.011
-132.356	12.248	0.158	0.119
-131.341	-145.695	0.316	0.028
-130.326	-138.688	-0.126	0.013
-129.312	293.753	0.123	0.219
-128.297	-9.899	0.346	0.225
-127.283	-86.543	0.210	-0.063
-126.268	285.345	-0.074	0.129
-125.253	-59.258	0.047	0.020
-124.239	-92.991	-0.351	-0.096
-123.224	197.585	-0.075	-0.112
-122.210	11.367	0.183	0.137
-121.195	-22.382	0.163	0.096
-120.180	800.000	0.107	0.302
