DTS Sentinel unit serial number:	SN413079Multiplexer serial number:	ORYXHardware model number:	OX4-SRSoftware version number:	ORYX F/W v4.00 Oryx Data Collector v3.7.2.0data status	okinstallation	princeton_trtdifferential loss correction	single-endedforward channel	channel 2reverse channel	N/Adate	2019/09/11time	04:49:10forward acquisition time	60.00reverse acquisition time	0.00gamma	496.2192k internal	0.2330k external	0.2330temperature offset calibration	0.9942default loss term (dB/km)	0.3790temperature slope calibration	1.0000multiplexer offset coefficient	1.0000multiplexer slope coefficient	1.0000fibre end	0.00T internal ref (°C)	29.50T ext. ref 1 (°C)	-0.25T ext. ref 2 (°C)	23.38length (m)	temperature (°C)	Stokes	anti-Stokes-747.200	-200.000	-0.040	-0.315
-746.185	-47.097	-0.300	0.148
-745.171	-44.515	-0.132	-0.066
-744.156	800.000	-0.054	0.215
-743.142	126.398	-0.170	-0.217
-742.127	333.252	-0.163	0.317
-741.112	-32.451	-0.267	-0.150
-740.098	-200.000	0.011	0.156
-739.083	-39.732	-0.198	-0.104
-738.069	800.000	0.054	-0.214
-737.054	217.281	-0.097	-0.156
-736.039	-73.056	-0.210	0.077
-735.025	-200.000	0.010	0.393
-734.010	314.029	0.103	-0.195
-732.996	800.000	0.121	-0.348
-731.981	101.274	0.190	-0.223
-730.966	-200.000	0.045	0.316
-729.952	5.761	0.137	0.102
-728.937	-200.000	0.008	-0.085
-727.923	800.000	-0.046	-0.172
-726.908	-200.000	-0.015	0.071
-725.894	-200.000	-0.013	-0.234
-724.879	550.079	0.176	-0.425
-723.864	-56.713	-0.109	0.048
-722.850	-41.914	-0.372	-0.192
-721.835	78.308	-0.230	-0.247
-720.821	312.913	-0.120	0.227
-719.806	-106.638	0.162	0.036
-718.791	-200.000	-0.022	0.231
-717.777	309.479	0.147	-0.277
-716.762	40.253	-0.164	0.148
-715.748	191.759	-0.142	-0.215
-714.733	153.942	0.077	-0.107
-713.718	28.337	0.053	0.045
-712.704	-80.839	-0.058	-0.019
-711.689	-18.274	-0.151	0.095
-710.675	-118.469	0.270	0.048
-709.660	-147.642	-0.131	-0.011
-708.645	29.891	-0.063	0.054
-707.631	-177.708	-0.036	-0.001
-706.616	-200.000	-0.008	-0.131
-705.602	442.071	-0.107	-0.237
-704.587	-9.914	0.051	0.034
-703.572	-79.747	0.215	0.073
-702.558	800.000	-0.067	-0.212
-701.543	-121.710	0.317	0.053
-700.529	-30.020	-0.270	0.155
-699.514	531.105	0.048	0.113
-698.499	-72.486	0.335	0.124
-697.485	155.503	-0.130	-0.179
-696.470	800.000	0.032	-0.136
-695.456	125.334	0.071	-0.089
-694.441	21.491	-0.192	-0.157
-693.426	349.147	-0.007	0.014
-692.412	391.079	0.073	0.153
-691.397	156.862	0.210	0.292
-690.383	-41.153	-0.313	-0.162
-689.368	-89.744	-0.273	0.080
-688.354	800.000	0.020	-0.083
-687.339	341.041	0.130	0.256
-686.324	-65.509	-0.340	0.137
-685.310	-87.973	0.223	-0.067
-684.295	73.999	-0.154	-0.163
-683.281	-200.000	0.017	-0.094
-682.266	-200.000	-0.056	0.416
-681.251	563.156	-0.054	-0.131
-680.237	-149.395	0.059	0.005
-679.222	-200.000	-0.027	0.200
-678.208	-42.208	0.312	-0.160
-677.193	200.692	0.158	-0.243
-676.178	800.000	-0.050	0.211
-675.164	-3.100	-0.273	0.191
-674.149	-200.000	-0.005	-0.283
-673.135	-170.559	-0.464	0.016
-672.120	428.529	0.026	0.056
-671.105	-15.295	-0.193	0.124
-670.091	274.454	0.099	0.176
-669.076	34.520	-0.425	-0.372
-668.062	-32.037	-0.161	-0.091
-667.047	58.270	-0.257	0.253
-666.032	-77.095	0.039	-0.014
-665.018	-136.016	-0.223	0.026
-664.003	-52.050	0.241	-0.113
-662.989	303.471	0.036	0.067
-661.974	-48.592	0.093	-0.045
-660.959	293.167	0.064	-0.118
-659.945	-127.668	-0.083	-0.012
-658.930	198.090	-0.156	-0.240
-657.916	-47.331	-0.339	-0.166
-656.901	-67.192	0.346	-0.137
-655.886	21.706	-0.161	0.132
-654.872	-61.952	-0.120	-0.051
-653.857	106.721	0.024	-0.029
-652.843	170.955	-0.087	-0.126
-651.828	355.693	-0.076	-0.152
-650.814	67.474	-0.163	0.167
-649.799	-111.951	-0.110	-0.022
-648.784	-200.000	0.004	-0.065
-647.770	-200.000	-0.059	-0.521
-646.755	40.679	-0.094	-0.085
-645.741	-200.000	0.018	-0.116
-644.726	-98.604	0.276	0.071
-643.711	-122.677	0.191	-0.031
-642.697	-200.000	-0.044	-0.344
-641.682	-200.000	0.010	-0.132
-640.668	-120.054	-0.400	-0.069
-639.653	116.842	-0.107	0.132
-638.638	-157.254	0.105	0.006
-637.624	-200.000	0.014	0.156
-636.609	-187.046	0.203	-0.003
-635.595	-180.540	-0.243	0.005
-634.580	800.000	0.081	-0.290
-633.565	-94.698	-0.112	-0.031
-632.551	207.545	0.200	0.313
-631.536	-17.701	-0.182	-0.115
-630.522	131.173	0.147	-0.190
-629.507	314.954	-0.108	0.204
-628.492	-84.253	-0.414	-0.131
-627.478	191.832	-0.225	-0.340
-626.463	279.126	0.126	-0.226
-625.449	202.530	-0.101	-0.157
-624.434	359.311	0.115	0.230
-623.419	-133.739	0.122	0.015
-622.405	249.045	-0.038	0.065
-621.390	26.025	-0.087	-0.073
-620.376	-200.000	-0.008	0.249
-619.361	80.199	0.177	-0.190
-618.346	-200.000	-0.006	-0.084
-617.332	-143.661	-0.220	-0.021
-616.317	-200.000	0.014	-0.239
-615.303	75.773	-0.091	-0.097
-614.288	-81.535	0.103	0.034
-613.273	-81.576	0.155	-0.051
-612.259	15.747	-0.232	-0.183
-611.244	-29.578	-0.353	0.202
-610.230	-200.000	-0.006	-0.066
-609.215	-200.000	-0.008	-0.069
-608.201	-199.496	-0.147	0.001
-607.186	-200.000	-0.030	-0.259
-606.171	338.607	0.124	0.243
-605.157	-51.565	-0.190	-0.089
-604.142	72.033	0.012	-0.012
-603.128	456.268	0.090	0.201
-602.113	-57.391	-0.098	0.043
-601.098	592.850	-0.048	-0.118
-600.084	-68.374	0.057	0.022
-599.069	-200.000	-0.004	-0.378
-598.055	-200.000	0.042	-0.207
-597.040	-200.000	0.008	-0.378
-596.025	160.950	-0.122	0.170
-595.011	-200.000	0.035	0.298
-593.996	481.194	0.132	-0.299
-592.982	-74.783	-0.120	-0.043
-591.967	-200.000	-0.006	0.215
-590.952	800.000	-0.079	-0.330
-589.938	800.000	0.067	0.215
-588.923	46.080	-0.111	0.103
-587.909	-70.930	0.180	-0.068
-586.894	18.494	0.238	0.191
-585.879	-104.356	-0.121	-0.028
-584.865	-200.000	0.008	0.111
-583.850	800.000	-0.036	0.141
-582.836	800.000	-0.064	-0.204
-581.821	307.948	-0.119	0.222
-580.806	800.000	0.104	-0.287
-579.792	-0.895	-0.347	-0.246
-578.777	-25.464	-0.408	0.241
-577.763	800.000	-0.006	0.019
-576.748	250.170	-0.168	0.285
-575.733	251.122	0.182	-0.309
-574.719	92.769	-0.062	-0.070
-573.704	-91.863	-0.032	0.009
-572.690	-27.716	0.157	0.091
-571.675	-175.339	0.212	0.006
-570.661	310.993	-0.169	0.317
-569.646	19.002	0.261	0.209
-568.631	-200.000	-0.006	-0.058
-567.617	-74.949	-0.227	0.081
-566.602	800.000	-0.090	0.254
-565.588	148.273	0.170	-0.229
-564.573	-54.400	-0.417	0.189
-563.558	-200.000	0.017	0.228
-562.544	-38.833	-0.327	-0.172
-561.529	353.095	-0.028	-0.055
-560.515	800.000	0.042	-0.131
-559.500	-200.000	-0.001	-0.288
-558.485	-97.653	-0.055	0.014
-557.471	800.000	0.018	0.065
-556.456	-80.595	0.174	0.058
-555.442	337.241	0.174	-0.338
-554.427	36.307	0.065	0.058
-553.412	-72.886	-0.253	-0.093
-552.398	122.212	0.142	-0.177
-551.383	-90.326	-0.143	-0.042
-550.369	-77.965	0.129	0.045
-549.354	-200.000	-0.024	-0.263
-548.339	76.396	-0.107	-0.113
-547.325	-41.891	0.189	-0.097
-546.310	-78.869	0.190	0.065
-545.296	800.000	-0.019	-0.079
-544.281	-114.524	-0.332	0.064
-543.266	52.160	0.278	0.265
-542.252	-200.000	0.039	0.182
-541.237	-47.567	0.244	-0.118
-540.223	-200.000	0.064	0.280
-539.208	-200.000	0.023	-0.116
-538.193	165.943	-0.099	0.139
-537.179	24.828	-0.100	0.083
-536.164	-200.000	-0.018	0.094
-535.150	-35.155	0.099	0.054
-534.135	11.990	-0.240	0.184
-533.121	-90.110	-0.107	0.031
-532.106	83.335	0.042	0.045
-531.091	98.809	-0.188	-0.217
-530.077	471.990	0.043	-0.096
-529.062	127.331	-0.150	0.190
-528.048	-83.333	0.208	0.067
-527.033	-131.085	-0.308	0.041
-526.018	-173.712	0.263	0.008
-525.004	616.690	0.063	-0.159
-523.989	226.754	0.003	0.004
-522.975	93.418	-0.122	-0.137
-521.960	126.720	-0.049	0.062
-520.945	800.000	0.031	-0.103
-519.931	-200.000	-0.028	-0.254
-518.916	800.000	0.019	0.083
-517.902	-124.701	-0.239	-0.037
-516.887	800.000	0.074	0.281
-515.872	72.587	-0.141	0.147
-514.858	366.446	-0.045	-0.090
-513.843	28.793	0.047	-0.040
-512.829	-133.238	0.339	0.043
-511.814	-55.715	-0.262	-0.117
-510.799	-101.340	0.208	0.051
-509.785	-63.762	-0.152	-0.062
-508.770	98.618	0.093	0.107
-507.756	23.073	-0.200	-0.164
-506.741	-96.478	-0.263	0.069
-505.726	105.664	-0.137	0.162
-504.712	-142.541	-0.048	-0.005
-503.697	42.298	0.142	0.129
-502.683	-78.029	-0.154	-0.053
-501.668	107.566	-0.206	0.245
-500.653	187.175	0.141	0.209
-499.639	-200.000	0.010	0.047
-498.624	-124.600	0.359	-0.056
-497.610	446.780	0.085	0.187
-496.595	197.924	-0.083	0.127
-495.581	-29.460	0.110	-0.063
-494.566	38.088	0.057	0.051
-493.551	80.969	0.107	-0.115
-492.537	-81.619	-0.457	-0.150
-491.522	31.910	0.157	0.135
-490.508	-200.000	0.019	-0.128
-489.493	-71.446	-0.339	-0.127
-488.478	195.860	0.080	0.121
-487.464	-110.250	0.222	-0.046
-486.449	6.201	-0.115	-0.085
-485.435	-176.709	0.181	-0.005
-484.420	69.438	-0.180	0.185
-483.405	-141.958	-0.136	0.013
-482.391	94.579	-0.233	-0.264
-481.376	-108.185	-0.285	0.061
-480.362	800.000	-0.093	0.303
-479.347	-200.000	0.022	0.194
-478.332	-146.527	0.517	0.045
-477.318	-132.522	0.294	0.038
-476.303	-145.379	-0.325	0.029
-475.289	-131.600	0.166	-0.022
-474.274	800.000	0.047	0.186
-473.259	800.000	-0.059	-0.206
-472.245	101.023	0.106	-0.122
-471.230	150.891	0.202	0.273
-470.216	-46.925	-0.055	-0.027
-469.201	-200.000	0.010	-0.135
-468.186	-45.272	-0.278	0.137
-467.172	719.400	0.023	0.061
-466.157	19.443	-0.197	0.158
-465.143	800.000	-0.014	0.043
-464.128	800.000	-0.091	-0.328
-463.113	1.100	0.114	-0.082
-462.099	431.849	0.071	-0.153
-461.084	-194.738	0.421	-0.003
-460.070	-37.192	0.117	0.062
-459.055	107.259	-0.078	0.093
-458.040	-100.310	0.080	-0.020
-457.026	800.000	-0.018	-0.068
-456.011	-164.579	0.194	0.009
-454.997	-64.711	0.129	-0.052
-453.982	-13.155	-0.502	-0.325
-452.968	339.817	0.100	-0.193
-451.953	197.867	-0.236	-0.359
-450.938	283.693	-0.142	-0.255
-449.924	-50.182	0.182	-0.086
-448.909	77.508	0.062	0.065
-447.895	-109.964	-0.101	-0.021
-446.880	380.875	-0.174	-0.355
-445.865	-200.000	-0.057	-0.352
-444.851	-183.390	0.224	-0.004
-443.836	-76.186	0.353	0.124
-442.822	2.227	0.191	0.138
-441.807	-200.000	0.035	0.308
-440.792	-91.827	0.193	-0.055
-439.778	167.708	0.344	-0.487
-438.763	-45.860	-0.098	-0.048
-437.749	-67.670	-0.326	-0.127
-436.734	-200.000	-0.126	0.600
-435.719	-32.833	0.215	0.119
-434.705	-84.423	0.251	-0.079
-433.690	800.000	-0.050	-0.150
-432.676	-182.847	0.357	-0.006
-431.661	-200.000	0.048	-0.297
-430.646	-200.000	-0.000	0.301
-429.632	-200.000	0.014	0.203
-428.617	-97.713	0.075	0.019
-427.603	800.000	-0.084	-0.277
-426.588	297.260	0.264	0.481
-425.573	110.223	-0.278	0.331
-424.559	-32.372	-0.241	-0.134
-423.544	800.000	-0.043	0.177
-422.530	-115.724	-0.209	0.039
-421.515	-142.987	-0.155	-0.015
-420.500	-116.765	0.131	-0.024
-419.486	-118.530	-0.199	-0.035
-418.471	459.594	-0.019	0.042
-417.457	-10.330	-0.179	-0.118
-416.442	-200.000	-0.013	0.069
-415.428	311.960	-0.098	0.182
-414.413	-5.356	-0.183	-0.125
-413.398	39.750	0.121	0.108
-412.384	160.896	-0.065	0.090
-411.369	-10.705	-0.088	0.058
-410.355	-146.829	-0.280	0.024
-409.340	-136.149	0.249	0.029
-408.325	-200.000	0.051	-0.265
-407.311	-121.222	0.123	0.020
-406.296	-56.995	-0.187	-0.082
-405.282	-200.000	-0.035	0.179
-404.267	-200.000	0.061	-0.413
-403.252	-5.342	-0.389	-0.266
-402.238	-200.000	0.050	-0.409
-401.223	-75.797	0.238	0.084
-400.209	-34.998	-0.387	0.210
-399.194	-138.651	0.135	0.015
-398.179	214.737	-0.151	0.238
-397.165	124.149	0.047	0.059
-396.150	29.300	0.279	-0.236
-395.136	-2.270	-0.147	-0.102
-394.121	-57.778	0.219	-0.095
-393.106	19.993	-0.172	0.137
-392.092	373.173	-0.078	0.157
-391.077	-94.436	0.296	-0.080
-390.063	-200.000	-0.001	0.350
-389.048	-200.000	-0.002	0.068
-388.033	-123.089	-0.244	0.039
-387.019	-200.000	0.003	-0.148
-386.004	-72.717	0.046	0.017
-384.990	-120.995	-0.254	0.042
-383.975	49.732	0.316	0.296
-382.960	-175.034	0.247	0.007
-381.946	18.518	0.202	-0.160
-380.931	-11.303	-0.060	0.039
-379.917	-35.375	0.322	-0.174
-378.902	25.380	-0.241	-0.199
-377.888	257.040	-0.116	0.199
-376.873	-101.990	-0.148	0.035
-375.858	11.974	0.410	0.313
-374.844	-111.862	-0.201	-0.040
-373.829	92.952	0.124	0.139
-372.815	4.099	-0.202	0.147
-371.800	-36.748	0.200	-0.107
-370.785	-135.697	0.183	-0.021
-369.771	288.858	-0.061	-0.110
-368.756	-92.121	-0.281	-0.079
-367.742	-157.827	0.512	-0.030
-366.727	212.255	-0.082	0.128
-365.712	-105.331	0.336	-0.076
-364.698	337.199	0.081	-0.156
-363.683	74.884	0.176	-0.183
-362.669	658.985	0.084	0.214
-361.654	-200.000	-0.022	0.243
-360.639	-200.000	-0.021	0.165
-359.625	-32.676	0.195	-0.108
-358.610	-92.283	-0.314	-0.088
-357.596	-7.625	0.053	0.035
-356.581	-200.000	-0.034	-0.256
-355.566	-122.021	-0.274	-0.045
-354.552	-136.224	0.099	0.011
-353.537	-70.209	0.302	0.114
-352.523	-200.000	0.005	-0.299
-351.508	-200.000	0.040	-0.267
-350.493	33.934	-0.116	0.101
-349.479	-65.915	-0.115	0.046
-348.464	248.797	0.140	-0.234
-347.450	775.394	0.063	0.172
-346.435	55.518	0.242	0.232
-345.420	203.690	-0.066	-0.102
-344.406	207.163	-0.127	0.197
-343.391	-20.047	0.088	-0.054
-342.377	-80.370	-0.310	0.103
-341.362	-51.818	0.151	0.070
-340.348	461.923	0.098	0.216
-339.333	800.000	0.203	-0.557
-338.318	-168.200	0.138	-0.005
-337.304	-53.860	0.213	0.096
-336.289	-200.000	0.010	0.241
-335.275	-200.000	0.086	-0.390
-334.260	-200.000	0.020	-0.143
-333.245	-5.900	0.207	-0.141
-332.231	-115.881	-0.069	0.013
-331.216	81.602	0.154	0.165
-330.202	-104.125	-0.138	0.032
-329.187	-13.427	0.102	0.065
-328.172	183.478	0.242	0.354
-327.158	521.770	-0.051	-0.118
-326.143	-200.000	-0.038	0.294
-325.129	380.577	0.184	0.374
-324.114	231.390	-0.085	0.139
-323.099	114.567	-0.182	0.220
-322.085	242.462	0.056	-0.094
-321.070	-200.000	-0.019	0.500
-320.056	528.090	0.084	0.196
-319.041	-55.639	-0.312	0.138
-318.026	-12.538	0.058	0.037
-317.012	-67.909	-0.199	-0.077
-315.997	800.000	-0.028	-0.110
-314.983	-20.162	-0.092	0.056
-313.968	-21.550	-0.107	0.065
-312.953	-13.462	-0.072	-0.046
-311.939	39.123	0.098	0.086
-310.924	171.311	0.296	-0.420
-309.910	-81.090	0.263	-0.086
-308.895	-3.799	0.189	-0.130
-307.880	-110.349	0.263	-0.054
-306.866	129.684	-0.223	0.283
-305.851	-51.570	0.275	-0.127
-304.837	-113.902	0.268	0.052
-303.822	68.207	0.105	0.106
-302.807	-120.211	0.211	-0.036
-301.793	-121.031	-0.250	-0.042
-300.778	154.923	-0.197	-0.268
-299.764	-200.000	-0.026	0.150
-298.749	-38.992	-0.136	-0.071
-297.735	112.624	-0.089	0.106
-296.720	521.285	0.100	0.233
-295.705	-200.000	0.010	0.091
-294.691	357.377	0.031	0.061
-293.676	-139.040	0.289	0.031
-292.662	-200.000	-0.013	0.391
-291.647	269.776	-0.024	0.041
-290.632	-200.000	0.081	-0.358
-289.618	188.960	0.114	-0.168
-288.603	79.705	0.083	0.088
-287.589	-53.765	0.265	-0.120
-286.574	-144.508	-0.142	0.013
-285.559	800.000	0.208	-0.584
-284.545	800.000	-0.059	0.179
-283.530	20.312	-0.216	0.172
-282.516	10.113	0.087	0.065
-281.501	521.064	-0.014	0.032
-280.486	165.173	-0.123	0.171
-279.472	800.000	-0.030	-0.130
-278.457	-200.000	-0.031	-0.160
-277.443	191.662	-0.350	-0.522
-276.428	31.236	-0.126	0.107
-275.413	222.160	-0.133	-0.212
-274.399	-106.596	-0.455	-0.100
-273.384	800.000	0.091	0.251
-272.370	-29.379	-0.161	-0.091
-271.355	-200.000	0.004	0.097
-270.340	-127.789	0.314	0.045
-269.326	83.777	0.294	0.317
-268.311	-106.511	0.118	0.026
-267.297	52.119	0.152	0.143
-266.282	10.666	-0.031	-0.023
-265.267	6.749	0.056	0.041
-264.253	-129.125	0.219	0.030
-263.238	18.766	-0.084	0.066
-262.224	-26.328	-0.152	-0.088
-261.209	272.841	0.152	0.265
-260.195	-177.473	0.293	0.007
-259.180	-81.130	-0.192	-0.063
-258.165	-10.637	-0.436	0.285
-257.151	455.822	0.147	-0.322
-256.136	649.696	0.101	0.256
-255.122	-200.000	-0.042	0.601
-254.107	59.240	-0.053	-0.051
-253.092	60.634	0.121	0.119
-252.078	-200.000	0.066	0.465
-251.063	-45.596	-0.366	-0.179
-250.049	-164.841	0.492	-0.022
-249.034	-92.067	0.350	0.098
-248.019	-15.616	-0.249	0.157
-247.005	89.746	0.202	-0.222
-245.990	-67.153	-0.253	0.099
-244.976	183.215	-0.035	-0.052
-243.961	-200.000	-0.038	0.297
-242.946	-110.700	-0.189	0.039
-241.932	108.559	-0.229	-0.270
-240.917	6.411	0.062	0.045
-239.903	-200.000	-0.017	-0.190
-238.888	389.416	-0.105	0.214
-237.873	-127.299	-0.180	-0.026
-236.859	335.655	0.159	0.305
-235.844	30.614	-0.237	-0.200
-234.830	425.338	-0.090	-0.191
-233.815	216.406	0.150	0.236
-232.800	800.000	-0.088	0.275
-231.786	754.330	0.028	-0.074
-230.771	800.000	0.057	-0.223
-229.757	243.379	-0.040	-0.066
-228.742	800.000	-0.083	-0.245
-227.727	31.628	-0.289	-0.245
-226.713	-200.000	-0.010	0.335
-225.698	319.382	-0.026	0.049
-224.684	-37.429	-0.045	-0.024
-223.669	408.461	0.008	-0.017
-222.655	18.996	0.166	-0.132
-221.640	-34.986	0.146	-0.078
-220.625	325.368	-0.057	0.108
-219.611	-82.844	-0.173	0.055
-218.596	-11.568	-0.482	-0.312
-217.582	474.711	-0.057	0.127
-216.567	-132.033	-0.231	-0.030
-215.552	800.000	-0.025	-0.089
-214.538	800.000	0.045	-0.127
-213.523	59.253	-0.216	0.210
-212.509	12.795	0.265	0.202
-211.494	686.162	-0.078	-0.201
-210.479	800.000	0.056	0.195
-209.465	786.063	0.079	-0.214
-208.450	-160.435	0.199	0.011
-207.436	-74.889	-0.248	0.088
-206.421	32.387	-0.146	-0.125
-205.406	-200.000	-0.012	-0.363
-204.392	24.959	0.175	-0.143
-203.377	-55.762	-0.106	-0.047
-202.363	-39.147	-0.223	0.116
-201.348	-38.239	0.114	0.060
-200.333	111.152	-0.118	-0.140
-199.319	271.775	0.095	0.164
-198.304	59.722	0.025	-0.025
-197.290	-13.307	0.156	-0.100
-196.275	359.918	0.198	-0.391
-195.260	-188.877	-0.221	0.003
-194.246	-11.641	-0.145	-0.094
-193.231	-167.148	-0.138	-0.006
-192.217	-161.191	-0.430	-0.022
-191.202	-76.905	-0.052	0.018
-190.187	-200.000	-0.020	0.473
-189.173	800.000	0.063	0.209
-188.158	800.000	-0.059	-0.200
-187.144	-108.173	-0.328	-0.070
-186.129	608.410	0.092	-0.226
-185.114	37.347	0.186	0.163
-184.100	-139.970	0.368	-0.038
-183.085	-142.513	0.193	-0.019
-182.071	-200.000	0.019	-0.207
-181.056	-155.907	-0.123	0.008
-180.042	-59.279	0.374	0.159
-179.027	574.012	0.116	0.278
-178.012	84.171	-0.229	0.246
-176.998	150.365	0.177	-0.236
-175.983	688.047	0.071	0.182
-174.969	-200.000	0.029	0.210
-173.954	-70.587	-0.121	-0.045
-172.939	-200.000	-0.041	-0.415
-171.925	-200.000	0.026	0.124
-170.910	800.000	-0.066	-0.191
-169.896	395.015	0.081	0.167
-168.881	800.000	0.037	-0.127
-167.866	-83.254	0.046	0.015
-166.852	375.332	-0.075	-0.151
-165.837	549.426	-0.049	0.116
-164.823	585.011	0.070	-0.168
-163.808	100.900	0.189	0.217
-162.793	-80.449	0.230	-0.076
-161.779	-159.563	0.263	-0.014
-160.764	-119.151	-0.072	0.012
-159.750	800.000	0.111	0.370
-158.735	-82.842	0.265	-0.084
-157.720	438.299	-0.065	0.139
-156.706	345.896	-0.058	0.113
-155.691	-72.907	-0.077	-0.028
-154.677	-200.000	0.007	0.096
-153.662	26.232	0.307	0.253
-152.647	58.204	0.196	-0.189
-151.633	-200.000	0.002	-0.318
-150.618	-181.273	0.123	-0.002
-149.604	-200.000	0.017	-0.140
-148.589	-200.000	-0.036	-0.167
-147.574	-160.838	-0.062	-0.003
-146.560	-147.385	0.169	-0.014
-145.545	27.265	-0.271	-0.224
-144.531	559.744	0.065	0.154
-143.516	-160.707	0.205	0.011
-142.502	81.266	0.184	0.195
-141.487	56.634	0.044	-0.042
-140.472	-82.065	0.092	-0.030
-139.458	176.632	-0.061	0.088
-138.443	800.000	0.031	0.120
-137.429	-39.719	0.082	0.042
-136.414	143.116	-0.142	0.186
-135.399	131.367	0.101	-0.128
-134.385	-163.516	0.522	-0.024
-133.370	-200.000	-0.002	-0.046
-132.356	50.544	0.125	-0.116
-131.341	800.000	-0.017	0.063
-130.326	73.971	0.207	0.213
-129.312	238.784	-0.056	0.091
-128.297	-77.144	0.228	0.078
-127.283	253.517	0.142	-0.239
-126.268	728.012	0.042	-0.109
-125.253	-200.000	0.004	-0.195
-124.239	-200.000	0.070	0.343
-123.224	-48.539	-0.035	-0.016
-122.210	-62.954	0.294	-0.119
