DTS Sentinel unit serial number:	SN413079Multiplexer serial number:	ORYXHardware model number:	OX4-SRSoftware version number:	ORYX F/W v4.00 Oryx Data Collector v3.7.2.0data status	okinstallation	princeton_trtdifferential loss correction	single-endedforward channel	channel 2reverse channel	N/Adate	2019/09/11time	11:33:10forward acquisition time	60.00reverse acquisition time	0.00gamma	496.2192k internal	0.2304k external	0.2304temperature offset calibration	0.9968default loss term (dB/km)	0.3790temperature slope calibration	1.0000multiplexer offset coefficient	1.0000multiplexer slope coefficient	1.0000fibre end	0.00T internal ref (°C)	38.16T ext. ref 1 (°C)	0.17T ext. ref 2 (°C)	35.88length (m)	temperature (°C)	Stokes	anti-Stokes-747.200	558.557	0.135	0.331
-746.185	407.774	0.148	0.318
-745.171	-76.275	-0.297	-0.107
-744.156	800.000	-0.065	0.218
-743.142	-94.147	-0.295	0.082
-742.127	-200.000	-0.007	0.205
-741.112	-200.000	-0.063	-0.373
-740.098	-105.719	0.084	0.019
-739.083	93.522	0.162	-0.187
-738.069	-19.851	-0.167	0.105
-737.054	-176.417	-0.094	0.002
-736.039	-58.663	-0.056	-0.025
-735.025	-62.447	0.119	-0.050
-734.010	-78.286	-0.210	0.074
-732.996	77.991	0.225	-0.245
-731.981	-200.000	-0.096	0.582
-730.966	-187.538	-0.357	0.005
-729.952	-200.000	-0.058	-0.281
-728.937	-200.000	-0.050	0.296
-727.923	432.242	0.098	0.216
-726.908	800.000	-0.026	-0.109
-725.894	800.000	0.078	-0.303
-724.879	105.739	-0.021	0.025
-723.864	204.767	-0.076	-0.120
-722.850	-200.000	-0.002	0.022
-721.835	-0.072	-0.131	-0.095
-720.821	103.834	0.105	-0.125
-719.806	-128.698	-0.051	0.007
-718.791	-200.000	0.005	0.083
-717.777	5.736	0.110	0.083
-716.762	-22.956	-0.363	-0.223
-715.748	-200.000	0.052	-0.238
-714.733	-59.376	-0.094	-0.041
-713.718	-200.000	-0.010	-0.063
-712.704	-6.542	-0.302	-0.210
-711.689	-122.902	0.422	0.069
-710.675	-200.000	-0.037	-0.188
-709.660	-12.084	0.042	0.028
-708.645	800.000	0.085	-0.363
-707.631	-143.539	0.161	-0.016
-706.616	-159.906	-0.232	-0.013
-705.602	-140.006	0.372	0.040
-704.587	-53.773	-0.217	0.101
-703.572	-79.471	0.144	-0.050
-702.558	40.826	0.072	-0.066
-701.543	-200.000	0.395	0.001
-700.529	-66.940	0.076	-0.030
-699.514	-200.000	0.055	0.261
-698.499	800.000	0.010	0.031
-697.485	120.095	-0.077	0.097
-696.470	-200.000	-0.061	0.272
-695.456	731.777	-0.017	-0.045
-694.441	-119.040	-0.250	-0.045
-693.426	258.855	-0.074	-0.129
-692.412	-200.000	0.020	0.113
-691.397	-124.298	0.049	0.008
-690.383	12.038	-0.088	-0.069
-689.368	-200.000	-0.010	0.304
-688.354	192.053	0.134	0.205
-687.339	-200.000	0.019	-0.271
-686.324	207.690	0.031	-0.049
-685.310	215.290	0.109	0.176
-684.295	472.022	0.009	-0.021
-683.281	-28.957	-0.216	0.126
-682.266	-105.324	-0.050	0.012
-681.251	-49.098	-0.170	0.083
-680.237	-191.925	-0.235	0.002
-679.222	-48.574	0.185	0.090
-678.208	-142.222	0.247	0.025
-677.193	-118.846	-0.282	0.050
-676.178	-31.984	-0.259	0.147
-675.164	-117.742	-0.248	0.045
-674.149	42.909	-0.294	-0.272
-673.135	13.581	-0.038	-0.030
-672.120	-95.348	-0.138	0.038
-671.105	123.138	0.173	-0.221
-670.091	-71.301	0.396	-0.151
-669.076	-95.868	-0.039	0.011
-668.062	-66.023	-0.330	-0.134
-667.047	-136.698	0.166	-0.019
-666.032	-45.561	-0.082	-0.041
-665.018	-200.000	0.058	0.456
-664.003	-200.000	0.000	-0.063
-662.989	-140.025	-0.152	0.016
-661.974	79.157	-0.089	-0.097
-660.959	-200.000	-0.063	-0.315
-659.945	135.003	-0.049	0.064
-658.930	-86.392	-0.337	0.105
-657.916	62.695	0.150	-0.152
-656.901	800.000	-0.064	0.193
-655.886	2.570	0.275	0.202
-654.872	-200.000	-0.007	-0.060
-653.857	-78.614	0.418	0.145
-652.843	-113.648	0.216	-0.043
-651.828	-130.306	0.223	-0.031
-650.814	217.094	-0.183	-0.296
-649.799	800.000	-0.038	-0.144
-648.784	9.676	-0.180	0.138
-647.770	-57.888	0.146	-0.065
-646.755	-70.864	0.269	0.103
-645.741	800.000	-0.072	-0.297
-644.726	422.621	0.050	-0.109
-643.711	91.536	-0.288	-0.328
-642.697	-200.000	0.017	0.189
-641.682	486.283	0.038	0.089
-640.668	118.990	0.078	-0.098
-639.653	-2.236	0.037	-0.026
-638.638	574.868	-0.030	-0.075
-637.624	-107.494	0.523	0.116
-636.609	120.711	-0.236	-0.297
-635.595	-19.771	-0.270	0.169
-634.580	-60.658	-0.093	0.040
-633.565	-30.705	-0.107	0.061
-632.551	-134.238	-0.214	0.027
-631.536	-98.279	-0.272	-0.071
-630.522	800.000	-0.026	-0.110
-629.507	-155.286	-0.120	-0.008
-628.492	-80.250	-0.126	0.043
-627.478	-200.000	0.104	-0.516
-626.463	3.707	0.155	-0.115
-625.449	236.079	0.147	0.246
-624.434	-200.000	0.001	0.249
-623.419	181.427	-0.045	0.067
-622.405	-200.000	0.003	0.023
-621.390	-21.291	-0.297	-0.184
-620.376	71.324	-0.183	-0.193
-619.361	92.373	-0.132	0.151
-618.346	132.238	-0.181	-0.237
-617.332	22.289	-0.100	0.083
-616.317	800.000	0.024	-0.100
-615.303	-78.004	-0.142	0.049
-614.288	-93.650	-0.186	0.052
-613.273	-41.618	-0.078	0.041
-612.259	-83.501	-0.308	-0.100
-611.244	109.836	-0.048	0.059
-610.230	-200.000	-0.056	-0.251
-609.215	-11.065	-0.232	0.155
-608.201	-200.000	0.000	0.239
-607.186	-47.513	0.120	-0.059
-606.171	76.871	-0.339	-0.364
-605.157	-176.029	0.151	-0.004
-604.142	-2.767	0.179	0.127
-603.128	250.718	-0.165	0.283
-602.113	-122.165	0.181	0.030
-601.098	-31.951	-0.150	0.085
-600.084	-16.775	-0.133	0.085
-599.069	-67.243	0.067	0.027
-598.055	-87.144	-0.049	-0.015
-597.040	174.371	-0.179	-0.262
-596.025	198.690	0.090	-0.140
-595.011	-200.000	0.022	-0.240
-593.996	329.421	-0.113	0.220
-592.982	223.021	-0.072	-0.118
-591.967	735.931	-0.077	-0.208
-590.952	52.537	0.027	-0.026
-589.938	800.000	0.005	0.023
-588.923	106.609	0.144	0.172
-587.909	-98.331	0.355	-0.092
-586.894	-66.852	0.120	0.048
-585.879	-105.413	-0.189	-0.044
-584.865	-118.299	-0.308	-0.055
-583.850	310.553	-0.128	0.242
-582.836	800.000	0.057	0.188
-581.821	784.296	-0.087	0.242
-580.806	2.325	0.298	0.218
-579.792	800.000	-0.117	0.379
-578.777	-115.349	-0.021	0.004
-577.763	330.207	0.132	0.258
-576.748	203.942	-0.017	-0.027
-575.733	226.512	0.052	0.085
-574.719	466.959	0.020	-0.045
-573.704	-74.841	-0.454	0.165
-572.690	17.849	0.108	0.087
-571.675	-21.034	-0.268	0.166
-570.661	-184.543	-0.133	0.002
-569.646	35.225	0.140	0.124
-568.631	-112.031	-0.294	0.060
-567.617	-200.000	-0.047	0.327
-566.602	-123.907	0.216	-0.034
-565.588	-200.000	0.024	0.327
-564.573	800.000	-0.104	-0.337
-563.558	-70.490	0.367	-0.141
-562.544	203.251	-0.056	-0.087
-561.529	27.009	-0.394	-0.334
-560.515	-200.000	-0.008	-0.138
-559.500	-52.861	0.326	0.152
-558.485	362.115	0.056	-0.113
-557.471	107.754	-0.127	0.153
-556.456	-94.097	0.138	-0.038
-555.442	345.527	-0.036	0.072
-554.427	-65.205	0.314	0.128
-553.412	-65.199	-0.373	-0.152
-552.398	800.000	-0.111	0.333
-551.383	-200.000	-0.005	-0.042
-550.369	-76.277	-0.070	-0.025
-549.354	279.907	-0.029	0.051
-548.339	-14.561	-0.110	-0.071
-547.325	217.782	0.092	0.149
-546.310	697.909	-0.165	0.439
-545.296	-49.011	-0.349	0.169
-544.281	-79.268	0.063	-0.022
-543.266	800.000	0.073	0.229
-542.252	-95.706	0.123	-0.033
-541.237	57.725	0.047	-0.047
-540.223	79.472	-0.050	0.054
-539.208	800.000	0.072	-0.245
-538.193	285.047	0.161	-0.294
-537.179	-9.206	0.292	-0.197
-536.164	-200.000	0.041	-0.327
-535.150	-174.642	0.134	-0.004
-534.135	254.115	0.160	0.276
-533.121	-200.000	0.013	0.276
-532.106	-2.882	0.149	0.105
-531.091	-175.471	-0.345	-0.009
-530.077	361.833	0.023	0.047
-529.062	-34.105	0.177	-0.098
-528.048	-200.000	0.022	-0.113
-527.033	327.267	-0.010	-0.020
-526.018	-101.048	0.377	-0.093
-525.004	420.163	0.100	0.216
-523.989	-101.168	-0.178	-0.044
-522.975	-142.678	0.216	-0.021
-521.960	257.803	0.267	-0.463
-520.945	420.473	0.029	0.062
-519.931	53.073	-0.299	0.289
-518.916	219.363	0.093	-0.150
-517.902	-55.011	-0.154	-0.070
-516.887	-83.851	-0.227	-0.073
-515.872	-96.060	0.172	0.046
-514.858	207.471	0.111	0.176
-513.843	244.723	0.157	-0.267
-512.829	800.000	0.067	-0.198
-511.814	-7.178	0.009	0.006
-510.799	-20.293	0.059	0.037
-509.785	-69.203	0.199	0.077
-508.770	-118.001	-0.233	-0.042
-507.756	-41.877	-0.297	-0.153
-506.741	214.092	0.101	-0.161
-505.726	-37.037	-0.317	-0.171
-504.712	298.424	0.041	-0.075
-503.697	-200.000	-0.053	-0.269
-502.683	17.814	0.112	-0.090
-501.668	-99.913	0.062	0.016
-500.653	69.679	0.046	0.048
-499.639	-13.109	-0.140	0.092
-498.624	-20.032	-0.088	-0.055
-497.610	800.000	-0.050	0.165
-496.595	-166.198	0.153	0.007
-495.581	17.129	0.247	-0.198
-494.566	-90.536	-0.174	0.051
-493.551	0.528	0.118	-0.085
-492.537	-140.273	0.091	-0.010
-491.522	24.152	0.170	-0.142
-490.508	-94.122	0.158	-0.044
-489.493	21.634	0.095	0.078
-488.478	-45.654	0.409	0.204
-487.464	800.000	0.058	0.197
-486.449	277.013	0.060	-0.107
-485.435	-84.481	-0.144	-0.046
-484.420	-153.883	-0.248	0.017
-483.405	63.448	-0.027	0.027
-482.391	-200.000	-0.023	0.129
-481.376	-200.000	-0.029	-0.239
-480.362	-10.686	0.191	-0.128
-479.347	-110.967	-0.140	0.029
-478.332	131.107	-0.200	-0.258
-477.318	423.837	0.103	-0.223
-476.303	-99.543	-0.132	-0.033
-475.289	133.630	0.052	0.068
-474.274	168.725	0.173	0.248
-473.259	90.715	-0.088	-0.100
-472.245	127.531	-0.204	-0.261
-471.230	87.229	-0.070	0.078
-470.216	484.220	0.077	0.177
-469.201	198.553	-0.157	0.242
-468.186	12.678	-0.196	0.153
-467.172	-200.000	-0.032	-0.302
-466.157	-200.000	-0.014	0.382
-465.143	164.969	0.124	-0.176
-464.128	-200.000	0.036	0.377
-463.113	65.049	-0.082	-0.083
-462.099	21.230	0.269	-0.220
-461.084	473.730	-0.077	-0.175
-460.070	-200.000	0.067	-0.322
-459.055	-6.391	0.067	0.046
-458.040	-53.311	0.182	-0.084
-457.026	0.710	-0.142	-0.103
-456.011	-200.000	0.008	-0.251
-454.997	88.409	-0.135	0.151
-453.982	-44.589	-0.181	-0.091
-452.968	-200.000	0.022	-0.173
-451.953	-174.274	0.158	0.005
-450.938	-184.346	0.317	-0.005
-449.924	-200.000	-0.022	-0.283
-448.909	-60.314	-0.127	0.054
-447.895	74.935	-0.197	-0.208
-446.880	800.000	0.065	0.222
-445.865	-17.390	0.299	-0.190
-444.851	-49.321	0.173	-0.083
-443.836	-54.754	0.147	0.067
-442.822	-11.383	-0.144	-0.096
-441.807	-57.746	-0.370	-0.163
-440.792	-35.247	0.136	-0.074
-439.778	488.066	-0.168	-0.385
-438.763	-200.000	0.001	0.067
-437.749	-147.571	-0.152	-0.013
-436.734	-139.636	0.259	-0.028
-435.719	786.524	0.195	0.538
-434.705	102.308	0.075	0.089
-433.690	-171.152	0.284	-0.010
-432.676	-27.758	0.254	-0.148
-431.661	42.209	-0.228	0.208
-430.646	221.534	0.087	0.141
-429.632	-85.032	0.191	-0.060
-428.617	608.320	-0.074	0.186
-427.603	545.822	0.096	0.231
-426.588	-37.247	-0.090	-0.049
-425.573	-103.000	0.187	-0.045
-424.559	146.650	-0.061	-0.083
-423.544	-200.000	-0.005	0.076
-422.530	-195.953	-0.278	-0.002
-421.515	-154.007	0.080	0.005
-420.500	-51.440	-0.181	0.085
-419.486	252.498	-0.211	-0.362
-418.471	67.896	0.194	-0.199
-417.457	-200.000	0.015	0.101
-416.442	77.381	-0.061	-0.065
-415.428	-200.000	0.001	-0.162
-414.413	25.263	-0.201	0.168
-413.398	5.092	0.257	0.190
-412.384	28.531	0.267	-0.227
-411.369	-116.385	-0.332	-0.062
-410.355	585.772	-0.094	0.231
-409.340	-132.905	0.248	-0.032
-408.325	-200.000	0.004	-0.069
-407.311	158.669	0.138	-0.193
-406.296	347.152	-0.102	0.201
-405.282	13.473	0.082	-0.064
-404.267	514.758	0.067	0.157
-403.252	-72.110	-0.142	-0.053
-402.238	-7.707	-0.239	-0.163
-401.223	-200.000	-0.041	-0.294
-400.209	-134.739	-0.136	0.017
-399.194	144.979	0.047	-0.063
-398.179	-58.629	-0.425	0.185
-397.165	-200.000	-0.048	-0.253
-396.150	-184.663	-0.058	-0.001
-395.136	-25.475	0.294	-0.175
-394.121	-66.362	-0.048	0.019
-393.106	771.570	0.071	-0.195
-392.092	-71.760	-0.213	0.080
-391.077	-200.000	0.079	0.372
-390.063	-20.467	0.157	-0.097
-389.048	21.509	-0.328	0.268
-388.033	-32.226	0.256	0.144
-387.019	23.535	-0.240	-0.198
-386.004	17.867	0.078	-0.063
-384.990	-88.051	0.173	-0.052
-383.975	-200.000	-0.002	-0.152
-382.960	162.011	-0.097	-0.136
-381.946	55.215	0.056	-0.054
-380.931	424.497	-0.059	-0.127
-379.917	-154.356	-0.138	0.009
-378.902	-128.893	0.210	0.030
-377.888	68.581	0.087	0.089
-376.873	-166.639	0.338	-0.014
-375.858	78.815	0.122	-0.131
-374.844	230.294	0.137	-0.224
-373.829	-189.102	0.416	0.005
-372.815	-200.000	0.005	0.134
-371.800	-35.661	0.160	-0.087
-370.785	12.219	0.252	-0.195
-369.771	-200.000	0.001	0.280
-368.756	167.043	-0.089	0.126
-367.742	443.532	0.133	0.292
-366.727	398.982	-0.096	0.202
-365.712	-200.000	-0.009	0.242
-364.698	800.000	0.035	0.143
-363.683	181.234	0.130	0.191
-362.669	-107.037	-0.131	0.029
-361.654	-70.799	0.345	-0.130
-360.639	800.000	0.116	0.436
-359.625	755.538	-0.119	-0.324
-358.610	73.428	-0.168	-0.177
-357.596	-200.000	0.084	0.632
-356.581	7.964	-0.174	0.131
-355.566	1.922	-0.083	0.060
-354.552	-138.121	0.289	0.032
-353.537	327.333	-0.127	-0.245
-352.523	-200.000	-0.001	0.267
-351.508	-113.238	-0.405	0.080
-350.493	13.688	0.262	-0.204
-349.479	118.331	0.081	-0.100
-348.464	-9.743	-0.068	0.045
-347.450	268.785	-0.191	-0.336
-346.435	800.000	0.100	0.318
-345.420	457.240	-0.042	0.094
-344.406	-200.000	-0.028	0.153
-343.391	-87.343	-0.291	0.088
-342.377	1.194	0.194	0.140
-341.362	179.882	0.238	0.349
-340.348	-200.000	0.005	-0.227
-339.333	-44.269	-0.202	0.101
-338.318	13.377	-0.172	0.134
-337.304	-200.000	0.001	0.537
-336.289	-86.154	0.345	-0.107
-335.275	358.622	0.116	-0.233
-334.260	254.445	-0.122	0.210
-333.245	129.469	0.239	0.306
-332.231	-59.848	0.293	-0.126
-331.216	-200.000	0.049	-0.226
-330.202	147.167	0.085	-0.115
-329.187	-200.000	0.039	0.230
-328.172	35.663	0.079	0.070
-327.158	-12.572	0.110	0.072
-326.143	-77.254	0.425	-0.148
-325.129	446.169	-0.051	-0.112
-324.114	-21.476	-0.209	0.128
-323.099	-45.910	0.284	-0.140
-322.085	-46.628	0.047	0.023
-321.070	-33.075	-0.116	-0.065
-320.056	-66.006	-0.164	-0.066
-319.041	-200.000	0.064	0.302
-318.026	-200.000	-0.004	-0.144
-317.012	46.848	0.049	0.045
-315.997	-200.000	-0.019	-0.139
-314.983	-200.000	0.018	-0.156
-313.968	-159.787	-0.277	0.015
-312.953	800.000	-0.071	-0.294
-311.939	659.917	-0.095	-0.246
-310.924	-200.000	0.013	0.303
-309.910	521.031	-0.099	-0.232
-308.895	-86.658	0.221	-0.068
-307.880	-200.000	-0.065	0.311
-306.866	-200.000	0.003	0.127
-305.851	-42.799	-0.057	0.029
-304.837	800.000	-0.082	-0.306
-303.822	-191.542	-0.222	0.002
-302.807	77.446	-0.080	0.085
-301.793	6.954	-0.202	-0.151
-300.778	521.251	0.032	-0.075
-299.764	-200.000	0.008	-0.091
-298.749	282.224	-0.055	-0.098
-297.735	68.145	0.207	-0.212
-296.720	-200.000	-0.016	0.305
-295.705	800.000	0.091	0.308
-294.691	-38.735	0.133	0.070
-293.676	800.000	0.077	0.231
-292.662	-200.000	0.017	0.100
-291.647	154.937	-0.209	0.288
-290.632	-8.247	0.381	-0.256
-289.618	-33.284	-0.248	0.137
-288.603	-127.582	-0.130	0.019
-287.589	-137.960	0.109	0.012
-286.574	138.340	-0.220	0.289
-285.559	-83.949	-0.076	-0.024
-284.545	-26.210	-0.331	-0.195
-283.530	-16.249	0.295	0.188
-282.516	203.211	0.055	0.085
-281.501	-200.000	-0.013	0.080
-280.486	-200.000	-0.005	0.152
-279.472	800.000	0.064	0.266
-278.457	117.570	-0.044	-0.054
-277.443	-86.779	-0.238	0.073
-276.428	184.508	0.142	-0.210
-275.413	-7.937	-0.211	-0.142
-274.399	-200.000	0.029	-0.280
-273.384	120.570	-0.124	-0.153
-272.370	294.363	0.068	-0.124
-271.355	23.440	-0.094	-0.078
-270.340	-30.558	0.106	-0.060
-269.326	661.226	0.129	-0.332
-268.311	-15.471	-0.039	-0.025
-267.297	-103.174	-0.289	0.068
-266.282	-67.820	-0.235	-0.092
-265.267	-95.752	0.362	0.097
-264.253	788.523	-0.175	-0.480
-263.238	-28.423	-0.123	0.071
-262.224	47.869	0.058	-0.054
-261.209	800.000	-0.047	0.144
-260.195	28.307	0.162	0.137
-259.180	137.114	-0.043	-0.057
-258.165	-154.591	-0.295	0.020
-257.151	800.000	-0.069	-0.276
-256.136	-46.827	0.215	-0.105
-255.122	425.720	-0.059	-0.127
-254.107	-19.110	-0.251	0.156
-253.092	-81.750	-0.206	0.067
-252.078	697.510	-0.098	-0.257
-251.063	-116.908	-0.080	-0.015
-250.049	-200.000	0.011	0.287
-249.034	-200.000	-0.006	0.101
-248.019	195.348	-0.163	0.247
-247.005	-200.000	0.051	-0.268
-245.990	-198.331	0.266	-0.002
-244.976	-50.584	0.278	0.131
-243.961	59.904	-0.036	-0.035
-242.946	20.447	0.147	0.118
-241.932	123.042	0.164	0.205
-240.917	380.716	-0.149	0.305
-239.903	101.537	-0.223	0.259
-238.888	230.492	0.141	0.230
-237.873	126.116	-0.154	0.195
-236.859	-200.000	-0.013	-0.236
-235.844	104.173	0.155	0.182
-234.830	21.883	0.173	-0.141
-233.815	108.946	0.368	-0.440
-232.800	-33.766	-0.160	-0.088
-231.786	-200.000	0.041	0.338
-230.771	278.847	0.163	0.290
-229.757	796.582	-0.096	-0.264
-228.742	-2.604	-0.280	-0.195
-227.727	-200.000	0.006	0.228
-226.713	204.748	0.120	0.185
-225.698	-112.866	-0.057	0.011
-224.684	51.349	0.274	0.259
-223.669	-102.714	-0.237	0.056
-222.655	800.000	-0.042	-0.176
-221.640	20.217	-0.097	-0.078
-220.625	-44.530	-0.082	-0.041
-219.611	584.308	0.095	-0.233
-218.596	-165.212	-0.007	-0.000
-217.582	344.656	0.100	-0.195
-216.567	71.412	-0.213	0.220
-215.552	-61.788	0.258	0.108
-214.538	800.000	-0.025	0.073
-213.523	110.106	-0.107	0.128
-212.509	-187.949	-0.241	-0.003
-211.494	74.612	0.155	0.163
-210.479	-200.000	0.058	-0.363
-209.465	800.000	0.098	0.277
-208.450	-148.751	0.143	-0.012
-207.436	43.475	-0.179	0.164
-206.421	58.443	0.211	0.206
-205.406	382.950	-0.149	-0.306
-204.392	65.401	0.071	-0.071
-203.377	-200.000	0.036	0.247
-202.363	-200.000	-0.040	0.282
-201.348	-26.727	0.311	-0.181
-200.333	-27.416	-0.051	0.030
-199.319	-200.000	-0.012	0.055
-198.304	261.903	0.180	-0.310
-197.290	-97.858	-0.092	-0.024
-196.275	247.935	-0.162	-0.273
-195.260	260.583	0.100	-0.172
-194.246	348.175	-0.044	-0.087
-193.231	200.150	0.146	0.224
-192.217	-200.000	0.002	0.087
-191.202	800.000	-0.074	0.289
-190.187	-200.000	-0.000	-0.110
-189.173	-169.829	0.023	0.001
-188.158	-78.433	-0.340	-0.116
-187.144	-150.923	0.172	-0.013
-186.129	-200.000	-0.010	-0.212
-185.114	104.171	-0.068	-0.080
-184.100	-8.418	0.084	-0.056
-183.085	-59.476	0.232	0.099
-182.071	70.212	0.150	-0.154
-181.056	215.755	-0.107	-0.170
-180.042	-200.000	-0.016	0.104
-179.027	700.200	-0.052	-0.135
-178.012	42.537	-0.097	-0.088
-176.998	-67.304	0.129	-0.051
-175.983	-23.270	0.255	0.153
-174.969	-188.260	-0.110	-0.001
-173.954	60.796	-0.192	-0.189
-172.939	-176.629	0.213	0.005
-171.925	-153.731	0.102	-0.007
-170.910	215.240	-0.107	-0.169
-169.896	655.869	0.049	-0.125
-168.881	-200.000	-0.005	0.138
-167.866	-72.040	0.112	-0.042
-166.852	497.834	-0.162	-0.371
-165.837	-200.000	-0.004	0.105
-164.823	-96.747	0.230	0.060
-163.808	-150.248	0.044	-0.003
-162.793	-139.848	-0.310	-0.033
-161.779	-32.026	0.055	-0.031
-160.764	-18.901	-0.230	-0.142
-159.750	218.895	-0.051	-0.081
-158.735	-111.583	-0.176	-0.036
-157.720	800.000	-0.018	0.075
-156.706	-200.000	0.040	0.278
-155.691	78.039	0.353	0.375
-154.677	131.166	0.107	0.137
-153.662	85.541	0.050	-0.054
-152.647	-26.541	0.102	0.059
-151.633	0.062	-0.179	-0.127
-150.618	393.543	-0.051	0.105
-149.604	-58.742	0.137	0.059
-148.589	-200.000	0.004	0.146
-147.574	-30.221	0.295	-0.167
-146.560	-31.043	-0.166	0.093
-145.545	-88.634	-0.128	-0.038
-144.531	800.000	0.036	0.117
-143.516	-133.960	-0.090	0.011
-142.502	-119.911	0.095	-0.016
-141.487	104.335	-0.148	-0.174
-140.472	-136.684	-0.288	-0.033
-139.458	-200.000	-0.049	-0.312
-138.443	-200.000	0.019	0.174
-137.429	-95.022	0.131	0.035
-136.414	-117.921	-0.331	-0.059
-135.399	127.494	0.070	-0.089
-134.385	-200.000	-0.008	-0.045
-133.370	-116.759	-0.073	-0.013
-132.356	-128.400	-0.416	-0.059
-131.341	-200.000	-0.014	-0.110
-130.326	-72.110	-0.014	0.005
-129.312	365.312	-0.037	0.073
-128.297	-93.899	-0.110	-0.030
-127.283	395.566	0.119	-0.247
-126.268	95.974	0.050	0.056
-125.253	-42.128	0.294	0.149
-124.239	-59.718	-0.033	0.014
-123.224	-63.616	-0.210	-0.086
-122.210	-200.000	-0.005	-0.245
