DTS Sentinel unit serial number:	SN413079Multiplexer serial number:	ORYXHardware model number:	OX4-SRSoftware version number:	ORYX F/W v4.00 Oryx Data Collector v3.7.2.0data status	okinstallation	princeton_trtdifferential loss correction	single-endedforward channel	channel 2reverse channel	N/Adate	2019/09/17time	17:59:35forward acquisition time	60.00reverse acquisition time	0.00gamma	496.2192k internal	0.2289k external	0.2289temperature offset calibration	0.9982default loss term (dB/km)	0.3790temperature slope calibration	1.0000multiplexer offset coefficient	1.0000multiplexer slope coefficient	1.0000fibre end	0.00T internal ref (°C)	43.50T ext. ref 1 (°C)	0.33T ext. ref 2 (°C)	38.22length (m)	temperature (°C)	Stokes	anti-Stokes-747.200	-114.657	0.231	-0.045
-746.185	800.000	0.042	0.124
-745.171	-200.000	-0.278	0.001
-744.156	110.930	-0.159	0.196
-743.142	110.830	-0.160	-0.197
-742.127	-81.884	-0.211	-0.071
-741.112	-9.973	-0.198	-0.135
-740.098	-200.000	-0.028	0.146
-739.083	154.628	-0.196	0.276
-738.069	379.472	-0.140	0.295
-737.054	146.863	-0.269	-0.370
-736.039	79.203	0.218	-0.239
-735.025	-3.459	-0.088	0.063
-734.010	137.694	0.059	0.080
-732.996	-164.046	-0.220	-0.010
-731.981	715.910	0.035	0.094
-730.966	196.061	-0.102	-0.160
-729.952	-149.548	-0.465	0.038
-728.937	94.724	-0.093	0.108
-727.923	241.218	-0.170	0.291
-726.908	-200.000	-0.055	-0.255
-725.894	-200.000	-0.125	-0.000
-724.879	-18.467	-0.167	-0.107
-723.864	59.568	-0.015	-0.015
-722.850	-33.139	-0.221	-0.125
-721.835	-90.337	-0.485	-0.144
-720.821	-82.018	-0.317	-0.106
-719.806	420.235	-0.126	-0.277
-718.791	-200.000	0.020	-0.172
-717.777	-126.266	-0.235	-0.036
-716.762	-165.766	0.170	0.008
-715.748	800.000	-0.041	0.129
-714.733	800.000	0.095	-0.319
-713.718	436.468	-0.074	-0.164
-712.704	-59.104	-0.193	0.085
-711.689	-46.883	0.313	-0.157
-710.675	198.099	0.141	0.221
-709.660	-15.593	-0.195	0.127
-708.645	-39.383	0.085	-0.046
-707.631	-129.200	0.268	-0.038
-706.616	385.340	-0.137	0.290
-705.602	-179.436	0.204	0.005
-704.587	-154.264	-0.183	-0.013
-703.572	137.563	0.072	0.096
-702.558	-145.840	0.195	0.018
-701.543	26.361	0.392	-0.336
-700.529	-115.106	-0.209	0.041
-699.514	-80.001	0.293	0.101
-698.499	2.180	-0.262	0.194
-697.485	64.954	-0.103	-0.106
-696.470	-200.000	0.009	-0.094
-695.456	800.000	-0.030	-0.115
-694.441	330.825	-0.198	-0.389
-693.426	-200.000	0.015	-0.148
-692.412	-122.166	-0.086	0.014
-691.397	-58.905	0.210	0.093
-690.383	-7.115	0.342	0.237
-689.368	146.178	0.162	-0.222
-688.354	236.990	0.059	0.100
-687.339	-14.204	-0.123	-0.081
-686.324	-48.808	0.130	0.064
-685.310	-140.622	-0.225	0.024
-684.295	6.006	-0.101	-0.076
-683.281	-27.115	-0.159	-0.095
-682.266	103.374	-0.228	-0.274
-681.251	-200.000	-0.036	0.173
-680.237	-200.000	-0.056	0.268
-679.222	-200.000	0.001	-0.395
-678.208	7.818	-0.187	0.144
-677.193	800.000	-0.044	-0.184
-676.178	448.247	0.100	0.225
-675.164	-145.006	-0.498	-0.046
-674.149	-45.164	0.290	0.147
-673.135	-36.948	-0.363	0.199
-672.120	-66.269	0.180	0.073
-671.105	-122.660	0.282	0.047
-670.091	-200.000	0.021	-0.117
-669.076	-43.739	0.369	0.190
-668.062	46.425	-0.469	-0.445
-667.047	-200.000	0.027	0.138
-666.032	65.798	0.096	0.099
-665.018	-118.605	0.242	0.044
-664.003	-97.701	0.378	0.100
-662.989	14.300	0.240	0.191
-661.974	-27.885	-0.071	-0.042
-660.959	-200.000	-0.032	-0.214
-659.945	-81.705	-0.371	-0.124
-658.930	-87.928	-0.516	0.159
-657.916	259.240	-0.148	-0.260
-656.901	-200.000	0.029	-0.382
-655.886	-200.000	0.062	0.424
-654.872	-46.153	0.256	0.129
-653.857	-7.217	-0.164	0.114
-652.843	339.024	0.071	0.142
-651.828	-172.923	-0.273	-0.009
-650.814	-174.478	0.324	-0.009
-649.799	-200.000	-0.055	-0.368
-648.784	-44.109	-0.123	0.063
-647.770	35.682	0.218	-0.196
-646.755	-107.614	-0.201	-0.045
-645.741	146.881	-0.088	0.120
-644.726	-122.098	-0.269	0.045
-643.711	98.080	-0.064	0.076
-642.697	-150.301	-0.141	0.011
-641.682	-125.983	0.256	0.039
-640.668	-117.145	0.176	-0.033
-639.653	-200.000	-0.028	-0.328
-638.638	-0.970	-0.137	-0.099
-637.624	-26.302	0.131	0.079
-636.609	-200.000	-0.019	-0.110
-635.595	-66.132	0.286	0.116
-634.580	-93.369	0.250	0.071
-633.565	-2.942	0.097	-0.069
-632.551	-14.412	-0.225	-0.148
-631.536	-111.216	-0.073	0.015
-630.522	-104.791	-0.135	-0.032
-629.507	155.631	0.113	0.159
-628.492	202.857	0.048	-0.075
-627.478	800.000	0.105	-0.299
-626.463	213.236	0.250	-0.403
-625.449	-200.000	0.027	0.183
-624.434	104.673	0.071	0.086
-623.419	-105.058	-0.076	-0.018
-622.405	-57.257	0.199	-0.089
-621.390	57.005	-0.338	0.336
-620.376	5.991	0.162	0.122
-619.361	328.724	0.157	0.307
-618.346	-44.170	-0.170	0.087
-617.332	-74.347	-0.383	0.141
-616.317	800.000	0.059	0.255
-615.303	387.515	0.092	-0.194
-614.288	-64.643	0.052	-0.022
-613.273	800.000	0.068	-0.240
-612.259	-200.000	-0.040	-0.383
-611.244	40.286	0.164	-0.150
-610.230	-26.558	-0.163	0.097
-609.215	53.765	0.142	0.139
-608.201	128.691	0.134	-0.174
-607.186	-200.000	0.009	0.091
-606.171	-103.155	0.357	-0.086
-605.157	-162.014	0.238	-0.012
-604.142	-192.855	-0.128	0.001
-603.128	476.213	-0.088	0.203
-602.113	302.508	-0.046	-0.086
-601.098	800.000	-0.013	0.052
-600.084	-200.000	-0.008	0.283
-599.069	-113.543	0.551	-0.110
-598.055	-200.000	-0.048	-0.340
-597.040	32.937	0.142	0.125
-596.025	-96.760	0.136	0.036
-595.011	108.376	-0.102	0.124
-593.996	800.000	-0.052	0.199
-592.982	-200.000	0.034	-0.192
-591.967	-0.033	-0.201	0.146
-590.952	254.297	-0.168	0.292
-589.938	1.584	0.190	-0.139
-588.923	-126.284	-0.022	0.003
-587.909	-47.688	0.114	-0.056
-586.894	800.000	0.095	-0.416
-585.879	-45.094	0.334	0.169
-584.865	800.000	-0.189	0.703
-583.850	682.122	-0.055	0.147
-582.836	35.244	-0.036	0.032
-581.821	-75.870	0.178	-0.064
-580.806	-82.064	-0.100	0.033
-579.792	-167.511	-0.230	0.009
-578.777	-15.391	-0.147	0.096
-577.763	72.945	-0.012	0.012
-576.748	-200.000	-0.010	-0.272
-575.733	-61.865	-0.035	-0.015
-574.719	-98.904	0.063	0.016
-573.704	-61.100	-0.036	0.015
-572.690	-74.586	-0.248	-0.091
-571.675	-200.000	0.049	-0.282
-570.661	0.541	0.148	0.107
-569.646	-85.735	-0.074	-0.023
-568.631	114.941	0.071	0.088
-567.617	-109.603	-0.403	0.087
-566.602	-176.978	-0.229	0.006
-565.588	800.000	-0.070	0.287
-564.573	617.238	-0.102	-0.260
-563.558	30.372	-0.109	0.095
-562.544	526.501	0.113	0.270
-561.529	-10.838	0.110	0.074
-560.515	-102.121	0.225	0.055
-559.500	-127.939	0.143	-0.021
-558.485	220.684	0.043	0.071
-557.471	-6.360	0.267	0.185
-556.456	-25.836	0.170	0.102
-555.442	44.881	0.007	0.007
-554.427	383.082	0.144	-0.301
-553.412	-130.704	-0.472	-0.065
-552.398	284.793	-0.065	0.120
-551.383	-53.065	0.032	0.015
-550.369	242.832	0.094	0.161
-549.354	-200.000	-0.075	-0.349
-548.339	131.000	0.139	-0.182
-547.325	-18.934	-0.097	-0.061
-546.310	-200.000	-0.040	0.229
-545.296	271.866	-0.115	-0.207
-544.281	-147.821	-0.144	-0.012
-543.266	-47.029	0.189	0.094
-542.252	-74.029	0.065	0.024
-541.237	56.086	0.011	-0.011
-540.223	127.497	-0.298	-0.385
-539.208	-200.000	-0.008	-0.159
-538.193	36.177	0.296	-0.265
-537.179	-200.000	-0.083	0.703
-536.164	-68.380	-0.165	-0.065
-535.150	402.765	0.114	0.244
-534.135	232.841	0.115	-0.192
-533.121	94.112	-0.210	-0.242
-532.106	-109.258	-0.322	0.069
-531.091	229.459	-0.028	-0.047
-530.077	232.222	-0.087	-0.144
-529.062	129.854	0.227	0.296
-528.048	-200.000	-0.003	0.014
-527.033	800.000	-0.034	0.103
-526.018	172.800	0.044	0.064
-525.004	800.000	0.038	0.114
-523.989	-121.351	-0.036	-0.006
-522.975	-58.893	-0.222	-0.098
-521.960	-146.156	0.187	0.017
-520.945	782.499	-0.078	-0.218
-519.931	239.676	0.096	0.163
-518.916	-161.570	-0.253	0.013
-517.902	91.412	-0.314	0.358
-516.887	-144.474	-0.146	-0.014
-515.872	168.932	0.223	-0.323
-514.858	36.755	0.061	-0.055
-513.843	-92.325	-0.098	0.028
-512.829	75.234	0.231	0.248
-511.814	-57.532	0.071	0.032
-510.799	-25.334	0.204	-0.122
-509.785	193.024	-0.161	0.247
-508.770	-83.873	-0.115	-0.037
-507.756	774.485	-0.140	-0.389
-506.741	79.390	-0.233	-0.254
-505.726	-200.000	-0.028	0.210
-504.712	171.079	-0.138	-0.202
-503.697	-200.000	-0.013	0.188
-502.683	419.026	0.163	0.353
-501.668	800.000	-0.091	-0.271
-500.653	733.836	-0.081	0.220
-499.639	-107.130	-0.284	-0.064
-498.624	800.000	-0.013	-0.058
-497.610	-154.432	-0.123	0.008
-496.595	-200.000	-0.016	-0.122
-495.581	18.617	-0.137	0.111
-494.566	800.000	-0.121	-0.367
-493.551	672.788	0.013	0.033
-492.537	-111.911	-0.103	0.021
-491.522	-116.090	-0.160	0.030
-490.508	-50.661	-0.280	0.134
-489.493	-155.427	0.154	-0.010
-488.478	531.845	-0.088	0.211
-487.464	337.360	-0.066	0.131
-486.449	800.000	-0.105	0.318
-485.435	56.304	-0.243	-0.239
-484.420	-15.878	-0.286	0.185
-483.405	-118.026	-0.424	0.077
-482.391	388.859	-0.046	0.096
-481.376	788.499	0.078	0.218
-480.362	468.146	0.043	-0.098
-479.347	20.374	-0.170	-0.140
-478.332	-3.622	0.204	0.144
-477.318	-70.047	-0.141	-0.054
-476.303	-66.171	-0.049	0.020
-475.289	-110.797	-0.184	-0.038
-474.274	305.748	0.053	-0.100
-473.259	12.988	-0.072	-0.057
-472.245	-200.000	0.031	0.197
-471.230	-76.566	0.219	-0.078
-470.216	800.000	0.054	-0.165
-469.201	231.453	0.106	0.176
-468.186	75.275	0.297	0.317
-467.172	800.000	0.042	0.123
-466.157	-200.000	0.012	-0.173
-465.143	-89.574	0.351	0.105
-464.128	427.740	-0.031	0.069
-463.113	311.349	0.144	0.274
-462.099	292.088	-0.142	-0.262
-461.084	-88.227	-0.159	0.048
-460.070	151.637	-0.130	-0.180
-459.055	800.000	0.076	0.239
-458.040	660.827	0.078	-0.203
-457.026	494.778	-0.122	-0.284
-456.011	51.777	0.220	0.212
-454.997	287.179	0.117	0.214
-453.982	109.209	0.180	0.218
-452.968	-200.000	-0.026	-0.199
-451.953	800.000	-0.094	-0.276
-450.938	-73.830	-0.225	0.083
-449.924	598.216	0.092	0.231
-448.909	-200.000	0.007	0.101
-447.895	-110.961	0.075	0.016
-446.880	445.963	0.068	0.151
-445.865	-153.131	0.209	0.015
-444.851	-104.819	-0.282	-0.066
-443.836	512.172	-0.022	0.052
-442.822	-200.000	0.042	0.328
-441.807	193.135	-0.187	-0.286
-440.792	-8.710	0.411	0.279
-439.778	-20.647	0.233	0.145
-438.763	118.829	-0.252	-0.315
-437.749	294.275	-0.098	-0.182
-436.734	-137.021	0.289	0.033
-435.719	-39.157	0.299	0.159
-434.705	44.666	0.134	0.124
-433.690	12.459	-0.081	-0.063
-432.676	-53.729	0.237	-0.110
-431.661	-166.866	0.171	0.007
-430.646	341.965	0.110	-0.218
-429.632	7.372	0.138	-0.104
-428.617	-29.213	-0.129	0.075
-427.603	19.961	0.064	-0.053
-426.588	13.773	0.235	0.185
-425.573	112.877	-0.169	0.208
-424.559	-200.000	0.019	-0.109
-423.544	17.359	0.104	-0.084
-422.530	-200.000	-0.025	-0.481
-421.515	47.143	0.279	0.262
-420.500	95.491	-0.225	-0.260
-419.486	-200.000	-0.058	0.317
-418.471	-23.331	-0.320	0.195
-417.457	-98.592	-0.385	0.099
-416.442	5.955	0.353	0.264
-415.428	241.289	0.104	-0.176
-414.413	-200.000	-0.064	-0.301
-413.398	-27.283	0.077	0.045
-412.384	293.942	-0.072	-0.132
-411.369	-5.327	0.106	-0.074
-410.355	259.369	0.104	0.182
-409.340	88.986	0.150	0.169
-408.325	-105.911	0.325	0.074
-407.311	-200.000	-0.084	0.000
-406.296	800.000	-0.030	0.089
-405.282	800.000	0.010	-0.036
-404.267	-200.000	-0.012	-0.158
-403.252	-200.000	0.035	-0.266
-402.238	-25.263	0.040	0.024
-401.223	96.870	0.104	-0.121
-400.209	153.682	0.064	0.088
-399.194	34.533	-0.177	-0.156
-398.179	-96.339	0.143	-0.038
-397.165	-200.000	0.018	-0.228
-396.150	528.165	-0.088	0.211
-395.136	-200.000	-0.134	-0.000
-394.121	-200.000	0.039	-0.191
-393.106	-124.360	0.242	0.038
-392.092	73.070	0.130	-0.138
-391.077	-200.000	0.018	-0.249
-390.063	3.782	0.214	-0.158
-389.048	439.559	-0.121	0.266
-388.033	672.772	-0.076	-0.200
-387.019	80.572	0.210	-0.228
-386.004	19.129	-0.121	-0.098
-384.990	18.069	-0.060	0.049
-383.975	506.724	-0.100	-0.235
-382.960	-104.894	-0.238	0.055
-381.946	-104.931	0.066	0.015
-380.931	244.829	-0.157	-0.266
-379.917	233.209	0.098	-0.163
-378.902	800.000	-0.077	-0.287
-377.888	-2.530	0.175	-0.124
-376.873	-182.640	-0.234	-0.004
-375.858	-200.000	-0.010	0.057
-374.844	-22.861	-0.258	0.157
-373.829	10.595	-0.364	0.281
-372.815	514.345	0.077	-0.181
-371.800	-168.141	0.175	-0.007
-370.785	69.522	-0.063	-0.065
-369.771	-145.704	0.183	-0.017
-368.756	-59.588	0.088	-0.038
-367.742	634.562	-0.062	-0.159
-366.727	55.638	-0.089	-0.087
-365.712	312.653	-0.090	0.170
-364.698	800.000	0.028	0.122
-363.683	79.489	-0.069	-0.075
-362.669	800.000	0.031	0.091
-361.654	-200.000	0.024	0.170
-360.639	467.785	-0.038	0.085
-359.625	338.218	-0.179	0.351
-358.610	218.442	-0.166	-0.268
-357.596	-200.000	-0.014	-0.210
-356.581	-200.000	-0.053	0.268
-355.566	7.943	-0.351	-0.266
-354.552	-55.256	-0.046	0.021
-353.537	724.756	-0.097	0.262
-352.523	-27.977	-0.067	-0.039
-351.508	-21.341	0.212	0.131
-350.493	-85.618	0.340	-0.107
-349.479	-95.345	0.177	-0.048
-348.464	136.277	0.212	0.279
-347.450	-27.722	-0.185	-0.108
-346.435	-110.064	-0.363	-0.077
-345.420	-36.045	-0.180	-0.098
-344.406	-200.000	0.019	-0.479
-343.391	-42.285	0.114	0.059
-342.377	130.273	0.078	-0.101
-341.362	-18.934	-0.128	-0.080
-340.348	-87.713	-0.188	0.057
-339.333	800.000	0.061	-0.206
-338.318	411.029	0.109	-0.233
-337.304	276.917	0.090	-0.162
-336.289	-200.000	-0.044	0.409
-335.275	17.816	-0.233	-0.187
-334.260	-98.574	-0.200	-0.051
-333.245	10.620	0.188	0.145
-332.231	26.056	-0.229	-0.193
-331.216	-200.000	0.051	0.318
-330.202	371.381	-0.137	0.281
-329.187	713.954	-0.049	0.132
-328.172	800.000	-0.039	0.154
-327.158	414.642	0.144	-0.309
-326.143	800.000	0.041	0.149
-325.129	-64.381	-0.227	0.093
-324.114	82.414	-0.102	-0.112
-323.099	33.627	-0.244	-0.214
-322.085	-115.070	0.200	0.038
-321.070	53.697	-0.051	-0.049
-320.056	-83.948	-0.047	-0.015
-319.041	-3.626	-0.251	0.176
-318.026	168.246	0.120	-0.172
-317.012	600.114	0.077	0.192
-315.997	-43.113	-0.164	0.084
-314.983	-153.421	0.211	0.015
-313.968	-200.000	-0.046	-0.232
-312.953	147.905	0.207	0.281
-311.939	-1.884	-0.225	-0.159
-310.924	-200.000	-0.004	-0.221
-309.910	87.528	0.053	-0.059
-308.895	217.420	-0.137	-0.220
-307.880	-200.000	-0.008	0.133
-306.866	-200.000	-0.070	0.385
-305.851	367.500	0.145	-0.294
-304.837	-46.793	-0.130	0.064
-303.822	218.014	-0.144	-0.231
-302.807	-200.000	0.037	-0.258
-301.793	-161.647	0.150	-0.008
-300.778	79.177	0.280	-0.302
-299.764	321.073	0.153	0.294
-298.749	800.000	-0.108	0.459
-297.735	-54.844	-0.299	0.136
-296.720	43.095	0.068	0.062
-295.705	-72.731	0.246	0.091
-294.691	-73.025	-0.455	0.168
-293.676	-150.043	0.291	0.023
-292.662	800.000	-0.077	-0.293
-291.647	800.000	0.097	0.298
-290.632	-85.793	0.226	0.071
-289.618	-110.233	-0.190	-0.040
-288.603	60.922	0.164	-0.164
-287.589	-172.987	-0.291	-0.009
-286.574	-53.610	0.288	-0.133
-285.559	-200.000	0.030	-0.171
-284.545	-200.000	-0.003	-0.226
-283.530	-74.583	0.078	-0.028
-282.516	17.717	-0.128	0.103
-281.501	-45.058	-0.443	0.222
-280.486	-200.000	-0.051	-0.274
-279.472	-109.860	-0.241	-0.051
-278.457	-188.924	0.321	-0.004
-277.443	-120.877	0.409	0.069
-276.428	8.803	-0.111	0.084
-275.413	-53.971	-0.093	-0.042
-274.399	184.782	-0.107	-0.160
-273.384	12.118	0.314	-0.243
-272.370	-14.835	-0.216	0.139
-271.355	-100.754	0.229	-0.057
-270.340	-165.147	0.208	-0.009
-269.326	-200.000	-0.024	0.126
-268.311	295.765	0.305	0.562
-267.297	33.416	-0.041	-0.036
-266.282	-103.985	0.215	0.050
-265.267	56.430	0.175	0.172
-264.253	416.396	0.047	0.101
-263.238	-61.574	0.213	0.090
-262.224	149.770	0.055	0.075
-261.209	208.976	0.094	0.149
-260.195	-200.000	0.059	-0.342
-259.180	190.603	0.205	0.310
-258.165	800.000	-0.044	-0.140
-257.151	84.332	-0.135	-0.149
-256.136	-4.522	0.243	-0.169
-255.122	700.584	-0.063	0.167
-254.107	134.058	-0.121	0.157
-253.092	109.388	0.094	0.114
-252.078	60.293	0.089	-0.088
-251.063	2.800	-0.029	0.021
-250.049	-125.906	0.259	0.039
-249.034	-161.847	0.174	0.009
-248.019	85.252	-0.183	0.202
-247.005	-132.680	0.321	0.041
-245.990	182.863	-0.213	0.316
-244.976	-81.194	0.231	0.077
-243.961	451.299	0.017	0.038
-242.946	-43.526	-0.140	-0.071
-241.932	-105.557	0.294	0.067
-240.917	-78.016	0.191	-0.066
-239.903	47.552	-0.318	0.298
-238.888	-200.000	-0.053	0.281
-237.873	-135.907	0.282	0.033
-236.859	99.114	0.043	-0.050
-235.844	-85.905	0.104	0.032
-234.830	48.646	-0.054	-0.051
-233.815	-200.000	-0.004	0.188
-232.800	-200.000	-0.004	0.092
-231.786	417.391	-0.194	0.416
-230.771	79.313	-0.216	0.232
-229.757	-200.000	0.017	-0.286
-228.742	277.943	0.108	0.193
-227.727	-104.147	-0.273	0.064
-226.713	-159.839	0.169	0.009
-225.698	-32.341	0.283	0.159
-224.684	27.460	0.101	0.085
-223.669	40.549	-0.137	-0.124
-222.655	353.731	-0.175	0.350
-221.640	800.000	0.045	-0.175
-220.625	-43.765	0.256	-0.129
-219.611	50.481	-0.194	0.184
-218.596	-134.403	-0.349	-0.043
-217.582	-137.650	0.086	0.010
-216.567	23.346	-0.180	0.148
-215.552	-18.999	0.166	-0.104
-214.538	-31.745	0.069	-0.039
-213.523	-105.984	0.283	-0.064
-212.509	374.966	0.075	-0.153
-211.494	71.797	0.149	0.156
-210.479	270.360	0.115	0.203
-209.465	116.109	0.052	-0.064
-208.450	251.021	0.104	-0.178
-207.436	-48.889	0.109	-0.053
-206.421	145.085	-0.138	0.185
-205.406	-200.000	0.014	0.077
-204.392	-26.043	-0.083	-0.049
-203.377	-200.000	-0.003	-0.267
-202.363	5.611	0.212	0.157
-201.348	-69.890	-0.343	0.131
-200.333	-88.424	-0.387	-0.116
-199.319	31.145	0.037	-0.032
-198.304	132.294	0.083	-0.107
-197.290	132.882	0.233	-0.302
-196.275	-28.704	0.068	-0.039
-195.260	-200.000	-0.007	-0.164
-194.246	-41.802	0.182	0.094
-193.231	-79.401	-0.084	0.029
-192.217	26.688	-0.291	-0.244
-191.202	-35.705	-0.148	-0.081
-190.187	-184.028	-0.106	0.002
-189.173	1.297	-0.130	-0.093
-188.158	234.957	0.076	-0.125
-187.144	-144.865	-0.379	0.035
-186.129	-20.812	-0.281	-0.173
-185.114	1.786	-0.160	-0.116
-184.100	-84.757	0.254	0.080
-183.085	780.530	0.061	-0.167
-182.071	306.267	0.182	0.340
-181.056	-31.302	-0.052	-0.029
-180.042	-200.000	0.042	-0.230
-179.027	182.937	-0.108	0.160
-178.012	-5.046	0.131	-0.090
-176.998	197.319	0.055	-0.084
-175.983	-58.369	0.242	-0.105
-174.969	800.000	0.020	0.084
-173.954	-128.353	0.586	-0.084
-172.939	800.000	-0.095	-0.349
-171.925	110.659	0.044	-0.053
-170.910	-3.814	-0.177	-0.123
-169.896	-200.000	0.000	-0.129
-168.881	-37.491	0.153	0.082
-167.866	800.000	-0.099	-0.321
-166.852	800.000	0.043	-0.126
-165.837	-165.820	-0.340	0.015
-164.823	67.911	0.118	-0.121
-163.808	66.883	-0.124	0.126
-162.793	-200.000	0.001	-0.197
-161.779	-200.000	-0.040	-0.184
-160.764	-31.195	-0.214	0.121
-159.750	-92.391	0.039	-0.011
-158.735	-200.000	0.026	-0.233
-157.720	-152.956	0.189	0.013
-156.706	-200.000	-0.034	0.436
-155.691	17.024	-0.296	0.235
-154.677	61.431	-0.148	-0.148
-153.662	-117.119	0.379	-0.069
-152.647	-112.184	-0.222	0.045
-151.633	14.763	-0.224	-0.176
-150.618	276.433	-0.097	-0.172
-149.604	-100.437	-0.283	0.070
-148.589	145.028	-0.147	0.197
-147.574	-200.000	0.039	0.188
-146.560	19.061	0.175	0.140
-145.545	-101.479	0.288	-0.070
-144.531	34.033	0.192	-0.167
-143.516	800.000	-0.006	-0.024
-142.502	-170.202	0.162	0.006
-141.487	-200.000	0.017	-0.255
-140.472	-200.000	-0.006	0.065
-139.458	458.765	-0.243	-0.542
-138.443	-123.481	0.215	0.034
-137.429	-8.913	-0.112	-0.075
-136.414	-200.000	-0.019	0.116
-135.399	38.807	0.184	0.165
-134.385	199.795	-0.138	0.213
-133.370	-200.000	-0.079	0.378
-132.356	-62.234	-0.417	-0.174
-131.341	-27.046	0.176	-0.103
-130.326	72.160	-0.202	0.210
-129.312	-200.000	-0.010	0.188
-128.297	-132.744	0.234	0.030
-127.283	-102.825	0.198	-0.047
-126.268	121.419	0.100	0.125
-125.253	-21.504	-0.119	-0.073
-124.239	-33.543	0.085	-0.047
-123.224	776.223	-0.051	0.141
-122.210	292.292	-0.055	0.101
-121.195	402.791	0.113	0.238
