DTS Sentinel unit serial number:	SN413079Multiplexer serial number:	ORYXHardware model number:	OX4-SRSoftware version number:	ORYX F/W v4.00 Oryx Data Collector v3.7.2.0data status	okinstallation	princeton_trtdifferential loss correction	single-endedforward channel	channel 2reverse channel	N/Adate	2019/09/16time	16:03:35forward acquisition time	60.00reverse acquisition time	0.00gamma	496.2192k internal	0.2299k external	0.2299temperature offset calibration	0.9937default loss term (dB/km)	0.3790temperature slope calibration	1.0000multiplexer offset coefficient	1.0000multiplexer slope coefficient	1.0000fibre end	0.00T internal ref (°C)	40.94T ext. ref 1 (°C)	14.91T ext. ref 2 (°C)	35.14length (m)	temperature (°C)	Stokes	anti-Stokes-747.200	-83.373	-0.479	-0.157
-746.185	-178.507	0.053	-0.001
-745.171	-9.706	0.207	0.141
-744.156	-129.958	0.217	-0.030
-743.142	124.299	0.114	0.146
-742.127	-131.455	0.260	0.035
-741.112	-78.960	-0.142	-0.049
-740.098	-85.752	-0.384	0.122
-739.083	43.637	0.142	0.132
-738.069	-115.563	-0.317	-0.061
-737.054	148.365	-0.226	-0.312
-736.039	-99.073	0.261	-0.067
-735.025	180.883	-0.069	-0.103
-734.010	800.000	0.080	-0.248
-732.996	-92.001	0.205	-0.059
-731.981	43.204	-0.177	0.165
-730.966	32.950	0.061	0.054
-729.952	396.429	0.058	-0.124
-728.937	-26.074	0.081	0.048
-727.923	-200.000	-0.025	-0.148
-726.908	-200.000	0.040	0.197
-725.894	-49.652	0.225	-0.109
-724.879	20.590	-0.209	0.172
-723.864	176.800	0.162	0.241
-722.850	-65.989	-0.345	-0.140
-721.835	378.076	-0.148	0.308
-720.821	43.869	0.151	0.141
-719.806	-200.000	-0.003	0.070
-718.791	161.855	-0.138	-0.196
-717.777	-40.131	0.117	-0.062
-716.762	-7.262	0.317	-0.219
-715.748	-18.796	-0.093	0.059
-714.733	-108.402	0.160	-0.035
-713.718	800.000	-0.181	0.708
-712.704	-32.594	0.221	-0.126
-711.689	164.786	0.036	0.051
-710.675	60.316	-0.051	0.052
-709.660	-103.352	-0.185	-0.044
-708.645	-137.554	-0.182	0.021
-707.631	29.249	-0.135	0.116
-706.616	-147.828	-0.291	-0.025
-705.602	-200.000	0.031	0.197
-704.587	-200.000	-0.020	0.125
-703.572	-27.047	-0.256	0.152
-702.558	355.830	-0.078	0.159
-701.543	-73.863	0.421	0.156
-700.529	500.616	0.108	-0.254
-699.514	439.881	0.067	0.148
-698.499	800.000	-0.099	0.335
-697.485	-91.679	0.379	-0.110
-696.470	7.468	-0.116	0.089
-695.456	724.086	0.086	0.233
-694.441	-200.000	0.164	0.000
-693.426	-200.000	-0.037	0.201
-692.412	152.314	-0.194	-0.269
-691.397	17.512	0.096	0.077
-690.383	34.790	0.264	-0.235
-689.368	-35.979	-0.255	-0.140
-688.354	123.214	-0.035	0.045
-687.339	-55.106	0.164	-0.075
-686.324	-70.998	0.204	0.078
-685.310	-31.238	-0.133	-0.076
-684.295	116.595	0.212	0.264
-683.281	-26.334	0.211	-0.126
-682.266	-11.960	-0.187	0.125
-681.251	-23.502	0.148	0.090
-680.237	279.904	0.180	-0.327
-679.222	297.240	0.140	0.261
-678.208	-150.810	-0.169	0.013
-677.193	33.152	0.113	-0.100
-676.178	182.460	-0.095	0.142
-675.164	57.651	-0.175	-0.174
-674.149	-200.000	-0.062	0.343
-673.135	265.835	-0.135	0.239
-672.120	-41.565	-0.163	-0.085
-671.105	130.591	0.064	-0.084
-670.091	132.356	-0.062	-0.082
-669.076	-200.000	-0.074	0.369
-668.062	-148.753	0.097	-0.008
-667.047	-200.000	0.005	-0.144
-666.032	800.000	-0.074	0.300
-665.018	-117.121	-0.301	-0.056
-664.003	-50.865	-0.326	-0.156
-662.989	800.000	0.087	0.247
-661.974	192.638	0.127	-0.194
-660.959	-200.000	0.029	0.216
-659.945	-80.528	-0.327	0.111
-658.930	302.592	-0.064	-0.120
-657.916	800.000	0.049	0.206
-656.901	-154.898	-0.280	0.019
-655.886	-152.006	0.070	0.005
-654.872	137.688	0.163	-0.217
-653.857	131.229	0.112	-0.146
-652.843	88.065	-0.180	-0.203
-651.828	2.383	0.207	-0.152
-650.814	126.280	0.254	-0.326
-649.799	-163.168	0.222	0.011
-648.784	102.215	0.326	0.387
-647.770	18.754	0.203	0.165
-646.755	-84.380	-0.142	-0.046
-645.741	-71.675	-0.556	-0.211
-644.726	800.000	0.093	-0.267
-643.711	-32.916	0.091	-0.052
-642.697	-200.000	0.029	0.370
-641.682	800.000	-0.027	0.097
-640.668	16.018	0.226	-0.181
-639.653	-147.518	-0.140	-0.012
-638.638	-127.713	-0.391	0.057
-637.624	-200.000	-0.006	-0.034
-636.609	-109.358	-0.021	-0.005
-635.595	800.000	0.018	0.057
-634.580	-27.061	0.146	0.086
-633.565	209.556	-0.077	-0.122
-632.551	-43.032	-0.158	-0.081
-631.536	95.249	-0.070	0.081
-630.522	120.990	-0.194	-0.245
-629.507	439.882	-0.198	-0.439
-628.492	800.000	0.090	-0.279
-627.478	-23.233	0.140	0.086
-626.463	-45.067	-0.204	0.103
-625.449	-98.463	-0.155	0.040
-624.434	-200.000	-0.016	-0.255
-623.419	166.283	0.086	0.123
-622.405	232.778	0.082	-0.137
-621.390	544.221	0.097	-0.235
-620.376	323.310	0.130	-0.253
-619.361	800.000	0.095	0.351
-618.346	-159.503	0.262	-0.015
-617.332	-71.378	-0.248	0.094
-616.317	-22.945	-0.194	-0.119
-615.303	606.625	0.020	-0.050
-614.288	-82.277	-0.396	-0.131
-613.273	-200.000	-0.015	-0.174
-612.259	458.875	0.119	0.269
-611.244	-142.134	0.258	-0.026
-610.230	-200.000	-0.023	0.141
-609.215	-80.347	0.225	-0.076
-608.201	-200.000	-0.004	0.291
-607.186	-148.848	-0.067	-0.005
-606.171	-146.820	-0.125	-0.011
-605.157	637.490	-0.067	-0.173
-604.142	-200.000	-0.050	-0.357
-603.128	-161.259	0.195	0.010
-602.113	-200.000	-0.010	0.077
-601.098	-200.000	-0.072	-0.352
-600.084	-200.000	-0.005	-0.152
-599.069	113.306	-0.230	0.283
-598.055	106.049	-0.100	-0.120
-597.040	619.973	-0.181	-0.461
-596.025	-200.000	0.015	0.180
-595.011	-29.937	0.223	0.129
-593.996	-200.000	0.001	0.071
-592.982	269.823	0.054	-0.097
-591.967	-77.398	0.333	-0.117
-590.952	-200.000	-0.006	0.069
-589.938	691.243	0.085	-0.225
-588.923	-200.000	-0.026	0.181
-587.909	-92.938	-0.087	-0.025
-586.894	-200.000	0.032	0.500
-585.879	800.000	-0.057	0.207
-584.865	-200.000	-0.047	-0.213
-583.850	-170.533	-0.065	0.002
-582.836	-124.004	-0.311	-0.050
-581.821	680.081	-0.111	0.292
-580.806	-200.000	0.015	0.086
-579.792	-94.661	-0.156	-0.043
-578.777	-62.174	0.153	0.064
-577.763	-82.484	0.033	-0.011
-576.748	800.000	0.141	0.447
-575.733	-200.000	-0.045	0.296
-574.719	-96.860	0.243	0.065
-573.704	800.000	-0.035	-0.111
-572.690	31.569	0.117	0.102
-571.675	737.062	0.078	0.212
-570.661	-200.000	-0.005	-0.138
-569.646	196.048	0.099	-0.153
-568.631	640.287	0.114	-0.294
-567.617	-104.346	0.155	-0.036
-566.602	3.010	-0.077	-0.057
-565.588	90.174	0.196	0.222
-564.573	-10.451	0.240	0.161
-563.558	295.600	0.118	-0.219
-562.544	108.791	0.109	-0.133
-561.529	-115.125	-0.587	-0.113
-560.515	636.513	0.119	0.305
-559.500	-177.818	0.253	0.006
-558.485	130.881	-0.152	0.198
-557.471	-200.000	0.012	0.347
-556.456	800.000	-0.065	0.183
-555.442	109.181	-0.141	0.171
-554.427	-200.000	-0.026	0.145
-553.412	-38.617	0.261	-0.140
-552.398	81.505	-0.078	-0.085
-551.383	140.790	0.217	-0.290
-550.369	-89.792	0.291	-0.086
-549.354	-200.000	-0.001	-0.173
-548.339	230.700	0.166	0.274
-547.325	337.941	0.015	-0.030
-546.310	-200.000	0.002	-0.068
-545.296	48.553	0.187	-0.178
-544.281	-200.000	0.039	0.196
-543.266	5.524	0.176	-0.132
-542.252	41.547	-0.272	-0.250
-541.237	-78.633	0.311	-0.108
-540.223	5.458	0.222	-0.166
-539.208	-38.026	-0.273	-0.147
-538.193	33.187	0.222	-0.195
-537.179	166.038	0.059	-0.085
-536.164	-16.535	0.170	0.109
-535.150	800.000	0.039	-0.148
-534.135	-23.144	-0.336	-0.205
-533.121	161.799	-0.038	-0.054
-532.106	83.654	-0.186	-0.206
-531.091	10.214	0.122	0.094
-530.077	-130.913	0.169	0.023
-529.062	-111.925	0.442	-0.090
-528.048	766.691	0.098	-0.269
-527.033	-34.661	0.052	0.029
-526.018	194.816	-0.137	0.210
-525.004	-10.902	-0.039	0.026
-523.989	-200.000	0.018	0.105
-522.975	102.366	-0.280	0.330
-521.960	-82.853	0.326	-0.106
-520.945	258.900	0.126	0.221
-519.931	27.900	0.118	-0.100
-518.916	58.742	-0.119	0.118
-517.902	-200.000	-0.017	-0.098
-516.887	-200.000	-0.004	-0.038
-515.872	70.706	0.215	0.225
-514.858	-200.000	0.060	0.446
-513.843	7.285	-0.334	-0.252
-512.829	-200.000	-0.030	0.426
-511.814	437.488	0.237	0.523
-510.799	-84.988	-0.137	-0.043
-509.785	227.010	0.191	0.314
-508.770	-32.473	-0.291	-0.164
-507.756	160.324	0.144	-0.202
-506.741	800.000	0.077	0.303
-505.726	800.000	0.012	0.054
-504.712	-120.805	0.075	-0.013
-503.697	-100.572	0.139	-0.035
-502.683	-1.246	0.185	-0.132
-501.668	15.343	0.068	-0.054
-500.653	-37.077	-0.118	0.064
-499.639	-83.472	0.110	0.036
-498.624	-99.814	-0.225	0.057
-497.610	140.169	-0.337	-0.448
-496.595	800.000	0.053	-0.189
-495.581	-72.446	-0.031	0.011
-494.566	775.736	0.147	-0.404
-493.551	800.000	-0.011	0.045
-492.537	200.361	0.150	0.232
-491.522	193.717	0.132	0.202
-490.508	-200.000	-0.244	-0.001
-489.493	-112.055	-0.244	-0.050
-488.478	504.462	-0.060	0.140
-487.464	91.497	-0.137	-0.156
-486.449	600.337	-0.154	-0.386
-485.435	-14.569	-0.015	0.010
-484.420	768.721	0.056	-0.155
-483.405	-200.000	0.041	-0.651
-482.391	-200.000	-0.014	0.126
-481.376	800.000	0.027	0.113
-480.362	-38.186	-0.110	-0.059
-479.347	154.908	-0.042	-0.058
-478.332	166.274	-0.259	0.370
-477.318	800.000	0.058	0.164
-476.303	-200.000	-0.007	0.158
-475.289	621.038	-0.142	-0.361
-474.274	800.000	0.048	0.163
-473.259	-200.000	0.027	0.270
-472.245	117.247	0.087	-0.108
-471.230	158.607	0.017	0.025
-470.216	-69.822	-0.272	0.105
-469.201	-125.399	-0.070	-0.011
-468.186	-37.720	-0.247	-0.133
-467.172	-200.000	-0.081	-0.503
-466.157	-65.302	-0.397	0.161
-465.143	-115.464	0.196	0.037
-464.128	-127.391	-0.276	-0.040
-463.113	81.458	-0.205	0.224
-462.099	5.730	0.151	0.113
-461.084	399.462	-0.016	0.035
-460.070	-200.000	0.032	0.282
-459.055	100.366	0.241	-0.282
-458.040	-47.393	0.147	0.072
-457.026	149.121	-0.221	-0.302
-456.011	-149.283	-0.158	0.013
-454.997	-200.000	0.035	-0.270
-453.982	-151.572	0.266	0.020
-452.968	-200.000	-0.007	0.068
-451.953	150.978	-0.127	-0.175
-450.938	-165.316	0.261	0.012
-449.924	-200.000	0.016	0.169
-448.909	187.356	-0.227	-0.341
-447.895	-51.992	0.164	-0.077
-446.880	-33.367	-0.338	-0.189
-445.865	-182.011	-0.183	-0.003
-444.851	498.956	0.073	-0.169
-443.836	-16.218	-0.136	0.087
-442.822	-112.604	0.292	0.059
-441.807	182.918	0.164	-0.244
-440.792	283.913	0.071	0.129
-439.778	-40.407	-0.072	-0.038
-438.763	38.192	0.256	0.230
-437.749	53.831	-0.132	0.128
-436.734	112.108	-0.171	0.208
-435.719	35.619	-0.147	0.130
-434.705	312.970	0.046	0.086
-433.690	-200.000	-0.030	0.372
-432.676	118.415	-0.152	-0.189
-431.661	44.213	-0.263	-0.243
-430.646	109.064	-0.083	-0.100
-429.632	128.750	-0.051	0.066
-428.617	800.000	0.107	0.429
-427.603	-200.000	0.003	0.208
-426.588	34.508	-0.243	-0.214
-425.573	9.130	0.097	0.074
-424.559	800.000	0.012	0.045
-423.544	-127.084	-0.387	0.057
-422.530	1.095	0.048	0.035
-421.515	-163.982	-0.315	0.015
-420.500	192.029	-0.095	0.145
-419.486	102.033	-0.169	-0.199
-418.471	-200.000	-0.025	0.263
-417.457	-48.963	0.294	-0.142
-416.442	-37.889	0.260	-0.139
-415.428	-192.333	-0.289	0.003
-414.413	-200.000	-0.049	-0.235
-413.398	-82.451	0.267	-0.087
-412.384	504.684	-0.068	0.159
-411.369	-29.471	0.339	0.195
-410.355	-36.760	-0.193	0.104
-409.340	-13.521	0.021	0.014
-408.325	-200.000	0.027	0.460
-407.311	-34.820	0.262	0.144
-406.296	-200.000	-0.027	0.144
-405.282	-29.383	-0.343	0.198
-404.267	-93.863	-0.106	0.029
-403.252	-200.000	-0.004	0.161
-402.238	11.254	-0.170	-0.131
-401.223	-178.953	0.101	0.002
-400.209	-143.093	-0.057	0.006
-399.194	-179.527	-0.246	-0.005
-398.179	-200.000	-0.011	0.322
-397.165	-6.919	-0.199	-0.136
-396.150	-200.000	0.022	-0.150
-395.136	-200.000	-0.068	-0.432
-394.121	-200.000	0.021	0.112
-393.106	269.063	-0.159	0.281
-392.092	-75.399	-0.249	0.089
-391.077	151.862	-0.060	0.083
-390.063	82.061	0.089	0.097
-389.048	800.000	-0.112	-0.380
-388.033	-114.563	0.327	-0.063
-387.019	689.198	-0.088	-0.231
-386.004	-118.712	0.456	-0.081
-384.990	227.406	-0.082	-0.133
-383.975	773.442	-0.130	-0.355
-382.960	-119.567	0.414	0.072
-381.946	-36.347	-0.077	-0.042
-380.931	47.505	-0.070	0.065
-379.917	-117.815	0.170	-0.031
-378.902	-170.262	0.270	-0.010
-377.888	-7.334	-0.113	0.077
-376.873	21.911	0.054	-0.044
-375.858	800.000	-0.102	0.302
-374.844	-200.000	0.006	-0.190
-373.829	669.811	0.087	0.225
-372.815	-200.000	-0.036	-0.201
-371.800	102.731	-0.163	-0.192
-370.785	119.565	-0.127	0.158
-369.771	-59.450	0.461	-0.199
-368.756	-98.728	0.151	0.039
-367.742	78.959	-0.204	0.220
-366.727	-200.000	-0.047	0.323
-365.712	-51.659	-0.057	0.027
-364.698	-21.428	0.220	0.135
-363.683	-110.858	-0.206	-0.043
-362.669	-134.299	0.244	0.030
-361.654	-79.579	-0.123	-0.042
-360.639	800.000	-0.018	-0.067
-359.625	82.016	-0.137	0.149
-358.610	-160.310	-0.248	-0.013
-357.596	11.059	-0.137	0.105
-356.581	146.568	0.136	0.183
-355.566	-29.447	-0.106	0.061
-354.552	-200.000	0.009	-0.175
-353.537	226.014	0.034	-0.056
-352.523	8.429	-0.124	-0.093
-351.508	35.786	-0.238	-0.210
-350.493	800.000	-0.047	-0.173
-349.479	-76.528	-0.301	-0.106
-348.464	-136.617	0.195	-0.023
-347.450	-200.000	-0.001	0.245
-346.435	800.000	-0.080	-0.232
-345.420	177.023	-0.117	0.172
-344.406	321.498	0.111	0.213
-343.391	-94.888	-0.117	-0.032
-342.377	51.847	-0.240	0.229
-341.362	-98.596	-0.099	0.025
-340.348	139.049	0.219	-0.289
-339.333	235.759	0.118	-0.196
-338.318	-200.000	0.020	-0.154
-337.304	525.526	-0.084	0.198
-336.289	36.231	0.265	-0.235
-335.275	-74.218	-0.147	-0.053
-334.260	58.637	0.125	-0.123
-333.245	800.000	-0.021	-0.092
-332.231	37.771	0.066	0.058
-331.216	-200.000	-0.046	0.369
-330.202	-113.190	0.179	0.035
-329.187	305.036	0.294	-0.549
-328.172	-5.734	-0.165	-0.114
-327.158	133.090	0.200	0.259
-326.143	-42.196	-0.413	0.212
-325.129	343.044	0.024	-0.047
-324.114	667.010	-0.017	0.044
-323.099	800.000	-0.061	0.188
-322.085	-200.000	-0.002	-0.148
-321.070	-200.000	0.028	-0.512
-320.056	12.434	0.279	0.216
-319.041	-177.843	-0.179	0.004
-318.026	360.742	0.106	-0.212
-317.012	-200.000	-0.008	-0.066
-315.997	-200.000	-0.006	-0.225
-314.983	194.442	-0.012	0.018
-313.968	-200.000	0.020	-0.091
-312.953	-15.075	-0.123	-0.079
-311.939	3.902	0.171	0.125
-310.924	521.520	-0.078	0.184
-309.910	127.252	-0.091	0.116
-308.895	237.370	-0.091	-0.150
-307.880	91.904	-0.139	0.157
-306.866	1.255	0.118	-0.085
-305.851	800.000	0.028	-0.092
-304.837	320.921	0.093	-0.176
-303.822	-179.685	0.414	0.009
-302.807	-200.000	-0.002	-0.094
-301.793	302.496	-0.107	-0.198
-300.778	-131.277	-0.165	0.022
-299.764	130.632	-0.150	0.193
-298.749	532.859	-0.051	0.121
-297.735	-200.000	0.025	-0.148
-296.720	652.139	-0.046	-0.118
-295.705	45.744	0.062	-0.058
-294.691	-87.930	0.198	0.060
-293.676	532.966	0.095	-0.225
-292.662	199.596	-0.082	-0.126
-291.647	800.000	-0.048	0.196
-290.632	800.000	-0.097	0.348
-289.618	134.905	0.118	-0.154
-288.603	485.285	0.148	0.338
-287.589	64.568	-0.098	0.099
-286.574	-171.503	-0.352	-0.012
-285.559	-72.589	0.170	-0.063
-284.545	13.813	0.125	-0.097
-283.530	-170.437	-0.108	-0.004
-282.516	-48.854	0.205	-0.098
-281.501	714.796	0.034	0.091
-280.486	206.254	0.117	0.183
-279.472	10.509	-0.086	-0.066
-278.457	-200.000	0.031	0.000
-277.443	83.137	-0.187	0.204
-276.428	39.808	-0.162	-0.146
-275.413	-80.710	-0.040	-0.013
-274.399	96.941	0.249	-0.286
-273.384	-200.000	-0.042	0.258
-272.370	-200.000	0.019	0.269
-271.355	-200.000	-0.013	-0.098
-270.340	-101.713	0.154	-0.037
-269.326	-71.224	0.265	0.099
-268.311	127.565	0.021	0.027
-267.297	106.045	0.247	0.293
-266.282	272.337	-0.061	-0.107
-265.267	800.000	-0.052	-0.225
-264.253	-97.155	-0.227	0.059
-263.238	425.026	0.030	-0.066
-262.224	452.313	0.034	-0.075
-261.209	160.281	-0.247	-0.345
-260.195	-200.000	0.041	0.222
-259.180	83.436	0.138	-0.150
-258.165	-144.047	0.101	0.010
-257.151	-147.254	-0.320	0.027
-256.136	-200.000	0.036	-0.302
-255.122	-138.042	-0.102	0.011
-254.107	-11.732	0.262	-0.172
-253.092	-200.000	-0.019	-0.133
-252.078	-105.486	-0.110	0.025
-251.063	-65.850	-0.224	0.090
-250.049	113.123	0.045	0.055
-249.034	30.584	-0.174	0.149
-248.019	800.000	0.079	0.223
-247.005	40.106	0.137	-0.123
-245.990	261.811	0.059	-0.102
-244.976	90.887	-0.240	0.270
-243.961	800.000	0.051	-0.190
-242.946	-200.000	-0.028	-0.279
-241.932	-8.386	0.060	-0.040
-240.917	-48.148	0.067	-0.032
-239.903	-24.774	0.088	-0.052
-238.888	-0.194	0.064	-0.045
-237.873	-34.735	-0.103	-0.056
-236.859	29.051	0.025	-0.021
-235.844	-200.000	0.015	-0.174
-234.830	-114.898	-0.151	-0.029
-233.815	-56.337	0.092	0.041
-232.800	-49.728	0.191	-0.091
-231.786	-1.278	-0.309	0.218
-230.771	-129.635	0.145	-0.020
-229.757	-191.573	-0.118	-0.001
-228.742	-39.841	0.106	-0.055
-227.727	75.765	-0.128	0.135
-226.713	-55.527	0.076	0.034
-225.698	-157.287	0.093	-0.006
-224.684	-92.523	0.203	0.057
-223.669	126.137	0.064	0.081
-222.655	432.146	-0.115	-0.248
-221.640	800.000	-0.072	0.304
-220.625	-186.809	0.250	-0.003
-219.611	174.713	-0.096	0.139
-218.596	413.537	0.087	0.185
-217.582	-200.000	-0.007	0.102
-216.567	-113.554	0.253	0.050
-215.552	138.380	-0.105	0.138
-214.538	-51.071	0.146	0.068
-213.523	190.858	-0.038	0.057
-212.509	-20.242	0.164	-0.101
-211.494	39.111	-0.073	-0.065
-210.479	-141.574	0.300	0.030
-209.465	-129.918	0.282	-0.039
-208.450	-63.298	0.228	-0.094
-207.436	-200.000	-0.107	-0.543
-206.421	226.640	0.105	0.170
-205.406	293.845	0.142	-0.258
-204.392	184.243	0.210	-0.310
-203.377	764.851	0.050	-0.137
-202.363	-200.000	-0.002	0.231
-201.348	719.327	-0.048	-0.129
-200.333	-40.999	-0.323	-0.167
-199.319	-29.538	-0.178	0.102
-198.304	322.478	-0.115	-0.219
-197.290	-77.865	-0.134	0.046
-196.275	-158.433	-0.214	-0.012
-195.260	644.777	-0.064	-0.164
-194.246	77.356	0.149	0.158
-193.231	280.806	-0.072	-0.128
-192.217	-66.399	-0.196	0.078
-191.202	-200.000	-0.012	-0.115
-190.187	-74.229	0.243	-0.088
-189.173	-93.480	0.266	0.073
-188.158	90.929	-0.162	0.181
-187.144	-11.140	-0.021	-0.014
-186.129	-74.556	0.273	0.098
-185.114	-106.279	0.397	-0.089
-184.100	-200.000	-0.008	0.098
-183.085	521.249	-0.116	0.272
-182.071	24.719	-0.281	-0.232
-181.056	-93.102	0.184	0.051
-180.042	188.651	-0.119	-0.178
-179.027	-160.881	-0.486	0.026
-178.012	82.996	0.298	-0.323
-176.998	-132.804	-0.140	0.018
-175.983	-112.098	0.136	0.027
-174.969	12.915	-0.251	-0.194
-173.954	6.093	-0.183	-0.135
-172.939	247.600	-0.119	0.201
-171.925	800.000	0.042	-0.167
-170.910	-148.576	-0.307	0.025
-169.896	-50.187	-0.071	0.034
-168.881	717.022	0.154	0.407
-167.866	-111.176	-0.162	0.033
-166.852	57.705	0.264	0.257
-165.837	603.040	-0.074	0.184
-164.823	254.441	0.269	0.458
-163.808	-200.000	-0.041	0.486
-162.793	68.620	-0.076	0.078
-161.779	111.233	0.030	0.036
-160.764	800.000	0.043	-0.146
-159.750	407.553	-0.130	-0.274
-158.735	-79.687	0.096	0.032
-157.720	513.457	-0.084	-0.196
-156.706	-88.447	0.163	-0.049
-155.691	492.828	0.158	0.361
-154.677	-79.495	0.085	-0.029
-153.662	-200.000	0.139	0.688
-152.647	-29.701	0.101	0.057
-151.633	-7.165	0.052	0.035
-150.618	800.000	0.060	-0.205
-149.604	-200.000	-0.039	0.195
-148.589	-200.000	0.002	0.064
-147.574	84.531	0.018	-0.020
-146.560	52.175	0.163	0.155
-145.545	223.006	-0.152	0.245
-144.531	800.000	0.057	0.205
-143.516	-200.000	0.039	0.174
-142.502	80.277	-0.145	0.156
-141.487	-200.000	-0.036	0.224
-140.472	-200.000	-0.030	0.262
-139.458	54.225	0.202	-0.193
-138.443	64.771	0.427	0.429
-137.429	281.169	0.025	0.045
-136.414	-200.000	0.009	0.168
-135.399	800.000	0.146	-0.418
-134.385	800.000	-0.125	-0.344
-133.370	800.000	0.126	-0.371
-132.356	369.231	-0.090	0.181
-131.341	-105.962	0.263	-0.059
-130.326	-200.000	-0.010	-0.062
-129.312	800.000	0.033	-0.141
-128.297	-68.698	0.226	-0.087
-127.283	-143.518	-0.544	0.052
-126.268	131.545	-0.065	-0.083
-125.253	-200.000	0.002	0.098
-124.239	800.000	0.030	-0.092
-123.224	132.315	-0.057	-0.073
-122.210	800.000	-0.087	0.333
-121.195	-22.105	0.105	-0.064
