DTS Sentinel unit serial number:	SN413079Multiplexer serial number:	ORYXHardware model number:	OX4-SRSoftware version number:	ORYX F/W v4.00 Oryx Data Collector v3.7.2.0data status	okinstallation	princeton_trtdifferential loss correction	single-endedforward channel	channel 2reverse channel	N/Adate	2019/09/19time	10:39:35forward acquisition time	60.00reverse acquisition time	0.00gamma	496.2192k internal	0.2342k external	0.2342temperature offset calibration	1.0007default loss term (dB/km)	0.3790temperature slope calibration	1.0000multiplexer offset coefficient	1.0000multiplexer slope coefficient	1.0000fibre end	0.00T internal ref (°C)	24.53T ext. ref 1 (°C)	0.72T ext. ref 2 (°C)	20.04length (m)	temperature (°C)	Stokes	anti-Stokes-747.200	-106.500	-0.230	-0.052
-746.185	66.498	0.392	0.399
-745.171	-91.464	0.117	-0.034
-744.156	-200.000	-0.014	0.364
-743.142	293.470	-0.123	0.224
-742.127	31.366	-0.071	0.061
-741.112	526.626	0.096	0.228
-740.098	800.000	0.116	0.451
-739.083	-14.307	0.162	0.104
-738.069	800.000	-0.035	-0.150
-737.054	-200.000	0.075	0.378
-736.039	27.659	0.193	0.163
-735.025	-103.194	-0.403	0.095
-734.010	2.060	0.197	-0.143
-732.996	8.776	-0.053	-0.040
-731.981	-31.759	-0.302	-0.170
-730.966	197.366	-0.215	0.329
-729.952	93.881	-0.094	0.107
-728.937	-90.321	-0.063	-0.018
-727.923	800.000	-0.106	-0.385
-726.908	-137.904	0.402	-0.045
-725.894	-123.358	0.254	0.041
-724.879	-77.890	0.260	-0.090
-723.864	-200.000	-0.041	-0.346
-722.850	437.687	-0.177	-0.386
-721.835	263.654	0.062	0.107
-720.821	-106.896	0.335	-0.074
-719.806	-122.992	-0.530	0.085
-718.791	-200.000	0.068	0.500
-717.777	-200.000	0.013	0.093
-716.762	-75.565	-0.268	-0.095
-715.748	800.000	0.074	-0.289
-714.733	-200.000	0.044	-0.200
-713.718	-92.505	0.223	0.063
-712.704	91.853	-0.250	-0.282
-711.689	523.980	0.059	0.138
-710.675	622.494	-0.078	0.196
-709.660	188.169	-0.006	0.009
-708.645	128.134	-0.351	-0.446
-707.631	625.717	0.064	0.161
-706.616	50.742	0.084	-0.079
-705.602	-200.000	0.075	0.347
-704.587	-200.000	0.016	-0.125
-703.572	257.134	-0.282	-0.485
-702.558	35.338	0.106	0.093
-701.543	-92.307	0.287	0.081
-700.529	-112.397	0.238	0.048
-699.514	-135.572	0.125	0.015
-698.499	-153.418	0.298	0.021
-697.485	-113.090	0.213	-0.042
-696.470	800.000	0.076	0.224
-695.456	168.500	0.121	-0.172
-694.441	-50.790	-0.178	0.084
-693.426	800.000	0.051	0.158
-692.412	124.535	-0.038	-0.047
-691.397	-200.000	0.015	0.302
-690.383	-132.850	0.133	0.017
-689.368	-200.000	0.092	0.000
-688.354	800.000	0.065	-0.183
-687.339	41.427	-0.162	0.147
-686.324	263.339	0.250	-0.435
-685.310	800.000	0.039	0.122
-684.295	-71.852	0.070	0.026
-683.281	-5.169	-0.180	-0.124
-682.266	-200.000	-0.076	-0.363
-681.251	279.131	-0.168	0.300
-680.237	203.761	-0.084	0.130
-679.222	-68.021	0.231	0.090
-678.208	430.461	-0.120	-0.260
-677.193	-65.761	0.288	-0.115
-676.178	800.000	0.114	0.414
-675.164	-123.791	0.166	0.026
-674.149	-77.690	-0.340	0.118
-673.135	-200.000	-0.008	0.036
-672.120	-200.000	-0.006	-0.123
-671.105	-200.000	0.037	0.204
-670.091	800.000	-0.039	-0.112
-669.076	800.000	-0.080	-0.279
-668.062	800.000	0.091	0.261
-667.047	27.711	0.167	0.141
-666.032	68.644	-0.280	0.287
-665.018	66.939	0.104	-0.106
-664.003	800.000	-0.099	0.279
-662.989	-200.000	0.001	-0.211
-661.974	8.216	-0.239	-0.179
-660.959	122.208	0.087	0.108
-659.945	800.000	0.058	0.196
-658.930	280.435	-0.078	-0.139
-657.916	63.249	0.208	-0.208
-656.901	-62.373	-0.164	-0.068
-655.886	53.837	-0.186	0.179
-654.872	-200.000	-0.010	-0.067
-653.857	800.000	0.091	-0.323
-652.843	-85.025	0.215	0.067
-651.828	217.768	0.186	-0.296
-650.814	-49.129	-0.280	-0.134
-649.799	-200.000	0.025	-0.215
-648.784	800.000	0.059	0.212
-647.770	34.781	-0.184	-0.161
-646.755	214.599	0.140	-0.222
-645.741	-90.321	-0.077	-0.022
-644.726	-188.432	-0.166	0.002
-643.711	800.000	-0.115	0.341
-642.697	88.072	0.071	-0.079
-641.682	72.967	0.320	0.333
-640.668	-68.891	-0.129	-0.050
-639.653	166.335	-0.181	-0.256
-638.638	-200.000	0.008	-0.193
-637.624	133.377	-0.285	-0.368
-636.609	459.132	-0.020	-0.045
-635.595	-68.796	-0.156	-0.060
-634.580	-58.191	0.245	-0.107
-633.565	-200.000	0.047	-0.400
-632.551	99.276	-0.077	-0.089
-631.536	800.000	-0.039	0.139
-630.522	355.635	0.058	-0.114
-629.507	87.376	0.096	-0.106
-628.492	427.925	0.140	0.301
-627.478	800.000	0.084	0.238
-626.463	99.343	0.094	0.109
-625.449	294.194	-0.079	0.144
-624.434	-18.598	0.110	-0.068
-623.419	-21.681	-0.112	0.068
-622.405	-97.882	-0.483	0.124
-621.390	-158.251	-0.057	0.003
-620.376	89.626	0.141	0.157
-619.361	-65.969	0.173	-0.069
-618.346	-200.000	0.016	0.158
-617.332	-131.892	-0.182	0.024
-616.317	30.895	-0.054	0.046
-615.303	-200.000	0.033	-0.238
-614.288	800.000	-0.035	0.142
-613.273	-106.365	0.253	0.056
-612.259	187.714	-0.058	0.087
-611.244	26.864	-0.252	0.211
-610.230	800.000	0.072	-0.203
-609.215	254.809	-0.189	-0.322
-608.201	-1.980	-0.163	-0.114
-607.186	-2.992	0.184	-0.128
-606.171	181.820	-0.073	0.107
-605.157	10.667	-0.156	-0.119
-604.142	119.533	0.199	-0.246
-603.128	800.000	-0.096	0.284
-602.113	-46.498	0.401	-0.196
-601.098	-200.000	-0.001	-0.173
-600.084	552.975	0.079	-0.189
-599.069	-143.475	0.101	-0.010
-598.055	53.875	-0.136	0.130
-597.040	-48.617	0.229	0.110
-596.025	-68.946	-0.206	0.079
-595.011	156.078	-0.107	0.147
-593.996	800.000	0.051	0.165
-592.982	131.903	-0.042	0.053
-591.967	800.000	0.036	0.127
-590.952	-200.000	-0.049	0.253
-589.938	12.705	-0.202	0.155
-588.923	-200.000	-0.029	-0.275
-587.909	267.308	0.099	-0.172
-586.894	232.720	-0.135	0.221
-585.879	31.746	-0.219	0.188
-584.865	800.000	0.071	0.248
-583.850	-200.000	-0.059	0.265
-582.836	296.783	-0.092	-0.169
-581.821	-105.790	-0.102	0.023
-580.806	285.010	0.091	-0.163
-579.792	188.930	0.113	-0.168
-578.777	-156.931	0.251	0.015
-577.763	98.674	-0.074	0.085
-576.748	-67.581	-0.293	-0.114
-575.733	505.515	-0.052	-0.121
-574.719	-103.464	-0.248	0.058
-573.704	58.906	-0.063	0.062
-572.690	-200.000	0.002	-0.150
-571.675	-68.068	0.201	-0.078
-570.661	504.580	0.034	0.079
-569.646	412.738	0.049	0.105
-568.631	131.106	0.085	-0.109
-567.617	800.000	-0.081	-0.294
-566.602	123.558	0.021	0.027
-565.588	-200.000	0.010	0.138
-564.573	651.988	0.035	0.090
-563.558	40.095	0.025	-0.022
-562.544	625.736	-0.239	-0.600
-561.529	90.857	0.214	0.239
-560.515	-12.485	0.169	0.110
-559.500	387.474	0.082	-0.169
-558.485	-18.512	0.208	-0.129
-557.471	-200.000	0.042	0.183
-556.456	60.759	0.136	-0.134
-555.442	186.252	0.126	-0.187
-554.427	-163.100	0.248	0.012
-553.412	-117.186	0.145	0.026
-552.398	14.151	-0.329	0.255
-551.383	266.671	0.121	0.210
-550.369	42.276	0.266	0.240
-549.354	24.237	-0.190	0.156
-548.339	-23.423	0.162	0.097
-547.325	-130.744	-0.213	0.029
-546.310	-200.000	0.043	-0.374
-545.296	399.084	-0.066	-0.138
-544.281	234.189	-0.108	0.176
-543.266	-85.211	-0.009	-0.003
-542.252	42.283	0.229	-0.206
-541.237	-99.399	0.180	0.045
-540.223	41.852	-0.128	0.116
-539.208	-57.814	0.050	0.022
-538.193	-43.009	-0.142	0.072
-537.179	800.000	-0.007	-0.025
-536.164	-4.249	-0.261	-0.179
-535.150	426.279	-0.090	0.192
-534.135	125.555	0.138	0.173
-533.121	-114.801	-0.046	0.009
-532.106	-200.000	-0.013	0.133
-531.091	-80.564	-0.131	-0.043
-530.077	-78.853	0.309	-0.105
-529.062	-36.704	-0.105	0.056
-528.048	-162.300	0.133	0.007
-527.033	557.018	0.128	0.307
-526.018	-125.854	0.191	-0.029
-525.004	-13.079	-0.143	0.092
-523.989	69.169	0.106	-0.108
-522.975	194.861	-0.096	-0.144
-521.960	39.104	-0.351	0.312
-520.945	800.000	0.116	-0.355
-519.931	800.000	0.053	-0.180
-518.916	587.650	0.161	-0.394
-517.902	18.372	-0.199	-0.158
-516.887	-127.735	0.080	-0.011
-515.872	15.769	0.164	0.128
-514.858	-117.368	-0.199	0.036
-513.843	35.975	-0.084	-0.074
-512.829	-43.211	0.169	0.085
-511.814	-200.000	0.008	-0.299
-510.799	800.000	-0.033	-0.136
-509.785	3.219	-0.229	0.165
-508.770	-96.074	-0.098	0.026
-507.756	-200.000	0.009	0.079
-506.741	-50.198	-0.322	0.151
-505.726	34.214	-0.046	-0.040
-504.712	-25.452	-0.176	0.104
-503.697	800.000	-0.011	-0.045
-502.683	-104.784	0.319	-0.073
-501.668	678.540	0.043	0.111
-500.653	-61.785	-0.182	-0.075
-499.639	800.000	0.117	0.359
-498.624	-111.549	-0.241	0.049
-497.610	2.330	0.130	0.093
-496.595	76.074	-0.220	0.231
-495.581	770.568	-0.040	-0.109
-494.566	-200.000	0.040	-0.330
-493.551	674.688	0.086	-0.222
-492.537	798.769	0.050	-0.137
-491.522	138.679	0.196	0.255
-490.508	-15.335	0.456	0.289
-489.493	35.395	-0.244	0.213
-488.478	800.000	0.018	-0.049
-487.464	-138.707	0.282	0.031
-486.449	-200.000	0.001	-0.069
-485.435	-144.970	-0.269	-0.024
-484.420	-131.835	0.189	0.025
-483.405	-99.646	0.142	-0.035
-482.391	-26.499	0.012	-0.007
-481.376	-200.000	0.041	0.306
-480.362	800.000	-0.083	0.290
-479.347	90.264	0.127	-0.141
-478.332	800.000	0.061	-0.186
-477.318	87.706	-0.157	0.172
-476.303	-39.744	-0.202	0.105
-475.289	150.533	-0.062	-0.084
-474.274	-42.761	0.222	0.112
-473.259	-181.438	-0.121	-0.002
-472.245	355.426	-0.012	0.024
-471.230	-79.254	-0.220	-0.074
-470.216	-53.713	-0.215	-0.097
-469.201	-26.543	0.258	0.150
-468.186	-152.581	0.036	-0.003
-467.172	-44.835	-0.417	-0.206
-466.157	242.470	-0.124	-0.205
-465.143	61.644	0.085	-0.083
-464.128	258.623	0.110	0.188
-463.113	-0.569	-0.176	0.124
-462.099	318.920	0.281	0.527
-461.084	-165.837	-0.192	0.008
-460.070	99.038	-0.064	0.073
-459.055	-151.820	-0.070	0.005
-458.040	-84.673	0.246	0.077
-457.026	-112.421	0.085	-0.017
-456.011	-120.406	0.254	-0.043
-454.997	-118.511	0.254	-0.045
-453.982	-66.836	-0.299	-0.117
-452.968	-40.227	0.180	0.093
-451.953	87.345	-0.161	0.177
-450.938	-200.000	-0.007	0.050
-449.924	-80.575	-0.147	-0.048
-448.909	242.633	-0.137	0.227
-447.895	242.789	-0.176	-0.292
-446.880	288.043	0.209	0.374
-445.865	-64.357	-0.198	-0.080
-444.851	120.206	0.171	0.210
-443.836	-32.971	-0.122	-0.067
-442.822	229.331	-0.221	-0.357
-441.807	-10.612	-0.229	-0.150
-440.792	-27.068	0.165	-0.095
-439.778	197.858	-0.109	-0.164
-438.763	-139.022	-0.122	-0.013
-437.749	-109.331	-0.194	-0.041
-436.734	-11.615	0.228	0.149
-435.719	-200.000	-0.067	0.364
-434.705	-200.000	0.079	0.504
-433.690	-200.000	0.006	-0.268
-432.676	-56.909	0.230	0.101
-431.661	-200.000	-0.019	0.143
-430.646	-123.988	0.275	-0.043
-429.632	-3.226	-0.134	-0.093
-428.617	-39.199	-0.209	-0.109
-427.603	64.767	-0.211	-0.210
-426.588	-200.000	0.001	0.053
-425.573	-200.000	-0.016	0.180
-424.559	-96.293	-0.149	-0.039
-423.544	-120.897	-0.276	-0.046
-422.530	214.507	-0.136	-0.212
-421.515	-9.190	-0.070	-0.046
-420.500	-9.863	-0.192	0.126
-419.486	45.586	0.346	0.316
-418.471	-125.908	0.230	-0.034
-417.457	800.000	0.027	0.079
-416.442	372.258	-0.088	0.176
-415.428	101.070	0.248	0.286
-414.413	800.000	-0.043	-0.161
-413.398	-88.580	0.280	-0.082
-412.384	-50.350	0.132	-0.061
-411.369	-98.569	-0.056	0.014
-410.355	-7.822	-0.222	-0.149
-409.340	-126.153	0.237	-0.035
-408.325	-178.448	-0.111	0.003
-407.311	-131.498	-0.348	0.045
-406.296	708.003	0.102	0.266
-405.282	-42.674	-0.116	0.059
-404.267	-41.149	-0.269	-0.137
-403.252	-105.503	-0.383	0.086
-402.238	288.385	0.121	0.217
-401.223	-200.000	-0.023	-0.352
-400.209	-26.204	0.404	-0.235
-399.194	-159.127	-0.130	-0.007
-398.179	-200.000	-0.019	0.092
-397.165	39.887	-0.228	0.203
-396.150	-149.733	-0.386	-0.030
-395.136	-163.240	0.128	-0.006
-394.121	-200.000	-0.024	-0.257
-393.106	134.963	-0.116	-0.149
-392.092	33.173	-0.101	-0.087
-391.077	-4.906	-0.044	-0.030
-390.063	42.094	0.221	0.199
-389.048	113.428	0.060	-0.072
-388.033	44.566	-0.070	-0.064
-387.019	-20.974	0.177	-0.107
-386.004	-123.467	0.238	0.037
-384.990	62.019	0.117	-0.115
-383.975	-54.047	0.210	-0.095
-382.960	348.399	-0.067	0.130
-381.946	-136.050	0.369	0.043
-380.931	-200.000	-0.042	0.330
-379.917	800.000	0.073	-0.249
-378.902	-44.174	-0.253	0.125
-377.888	-200.000	-0.055	0.329
-376.873	74.492	-0.124	0.128
-375.858	-17.506	-0.154	-0.096
-374.844	-64.665	0.228	-0.091
-373.829	85.095	-0.198	-0.214
-372.815	-53.971	-0.149	0.067
-371.800	-56.265	0.162	-0.071
-370.785	32.747	-0.187	-0.160
-369.771	-112.988	-0.090	-0.017
-368.756	772.231	-0.036	0.098
-367.742	-22.267	0.338	-0.202
-366.727	-200.000	0.035	0.272
-365.712	-79.097	-0.173	-0.058
-364.698	113.947	-0.199	-0.238
-363.683	-150.826	-0.260	-0.019
-362.669	25.335	0.039	-0.032
-361.654	180.243	0.077	-0.111
-360.639	143.634	0.210	0.277
-359.625	65.009	0.228	-0.227
-358.610	-59.202	0.170	-0.072
-357.596	-200.000	-0.028	-0.245
-356.581	-200.000	0.003	0.069
-355.566	473.927	0.132	0.293
-354.552	68.627	0.171	-0.173
-353.537	-75.876	0.196	-0.068
-352.523	37.086	0.285	0.249
-351.508	-200.000	0.029	0.569
-350.493	-8.653	-0.170	-0.113
-349.479	-110.423	-0.267	-0.055
-348.464	-200.000	-0.054	0.364
-347.450	214.119	-0.124	-0.194
-346.435	800.000	0.067	0.214
-345.420	-200.000	0.043	0.299
-344.406	-115.285	-0.119	-0.022
-343.391	86.855	0.137	-0.149
-342.377	64.512	-0.053	-0.053
-341.362	261.144	0.124	0.212
-340.348	-200.000	0.081	0.376
-339.333	800.000	-0.045	0.158
-338.318	-35.386	-0.169	0.090
-337.304	-193.227	-0.174	0.002
-336.289	-96.525	0.171	0.044
-335.275	75.132	-0.214	0.223
-334.260	265.447	-0.118	0.202
-333.245	-139.907	-0.242	0.025
-332.231	-155.618	-0.063	0.004
-331.216	301.417	-0.073	0.133
-330.202	60.803	0.184	-0.180
-329.187	-116.318	-0.272	-0.050
-328.172	-200.000	0.019	-0.085
-327.158	-60.094	0.108	0.045
-326.143	-200.000	-0.003	0.023
-325.129	575.808	-0.104	0.250
-324.114	127.757	-0.137	-0.172
-323.099	800.000	0.040	0.160
-322.085	-200.000	-0.022	-0.113
-321.070	86.237	0.130	0.141
-320.056	501.777	0.161	0.365
-319.041	-162.967	0.260	-0.012
-318.026	-36.328	0.165	0.087
-317.012	-164.057	-0.430	0.020
-315.997	-200.000	-0.021	0.260
-314.983	-200.000	0.019	-0.193
-313.968	800.000	0.038	-0.141
-312.953	-122.699	-0.206	-0.033
-311.939	-4.713	-0.060	0.041
-310.924	-200.000	-0.064	0.297
-309.910	83.511	-0.163	0.175
-308.895	-166.066	-0.327	0.014
-307.880	17.044	0.298	0.232
-306.866	-90.365	0.168	-0.048
-305.851	-174.188	-0.181	0.005
-304.837	800.000	0.064	0.188
-303.822	384.895	0.016	-0.033
-302.807	-200.000	0.015	-0.141
-301.793	-6.609	0.285	0.191
-300.778	180.095	0.184	0.265
-299.764	-158.530	-0.152	-0.009
-298.749	10.573	0.117	-0.087
-297.735	590.776	-0.080	0.195
-296.720	800.000	0.050	-0.198
-295.705	58.140	0.134	0.129
-294.691	-200.000	0.106	0.515
-293.676	-111.653	0.185	0.037
-292.662	-97.520	-0.217	0.055
-291.647	256.961	0.089	0.151
-290.632	-123.044	-0.103	0.016
-289.618	-155.784	-0.118	0.007
-288.603	106.528	0.106	0.124
-287.589	102.288	0.006	-0.007
-286.574	257.165	-0.050	0.085
-285.559	-113.813	-0.224	-0.043
-284.545	16.909	-0.203	-0.158
-283.530	-19.326	-0.027	0.017
-282.516	-23.092	0.047	-0.028
-281.501	84.199	0.172	0.185
-280.486	800.000	-0.104	-0.294
-279.472	-200.000	-0.001	-0.252
-278.457	-109.642	-0.260	0.054
-277.443	-164.274	0.128	0.006
-276.428	-5.723	-0.086	0.058
-275.413	-137.777	0.120	-0.013
-274.399	41.686	-0.311	-0.277
-273.384	-200.000	-0.062	-0.396
-272.370	529.098	-0.049	-0.115
-271.355	55.531	-0.206	-0.196
-270.340	19.420	0.097	0.076
-269.326	-200.000	0.006	0.093
-268.311	-163.318	0.335	0.016
-267.297	3.870	0.235	-0.169
-266.282	-200.000	0.053	0.303
-265.267	-200.000	0.014	0.088
-264.253	588.317	0.084	0.204
-263.238	-20.019	-0.034	0.021
-262.224	-200.000	0.025	0.134
-261.209	294.869	-0.109	-0.196
-260.195	-29.838	0.109	-0.061
-259.180	-200.000	0.006	0.046
-258.165	-200.000	0.027	-0.149
-257.151	-73.447	0.149	0.053
-256.136	800.000	0.084	-0.298
-255.122	-16.318	0.164	0.102
-254.107	52.410	0.166	0.156
-253.092	-102.773	-0.230	-0.054
-252.078	-161.750	0.272	-0.014
-251.063	-78.712	-0.154	-0.052
-250.049	-102.646	-0.065	-0.015
-249.034	-184.762	0.199	0.003
-248.019	84.473	-0.100	0.108
-247.005	-25.090	-0.068	0.040
-245.990	800.000	0.114	-0.311
-244.976	-200.000	-0.004	0.137
-243.961	-200.000	0.048	0.216
-242.946	800.000	-0.118	0.332
-241.932	449.626	-0.068	0.148
-240.917	-62.382	-0.043	-0.018
-239.903	44.422	0.291	-0.263
-238.888	217.985	0.110	-0.172
-237.873	795.067	0.127	-0.344
-236.859	800.000	0.069	0.240
-235.844	200.070	-0.169	-0.254
-234.830	800.000	-0.092	-0.330
-233.815	66.436	-0.127	-0.127
-232.800	-69.730	0.216	-0.081
-231.786	-200.000	-0.008	-0.052
-230.771	800.000	-0.031	0.124
-229.757	57.590	0.036	-0.035
-228.742	800.000	-0.128	-0.430
-227.727	152.241	0.136	-0.182
-226.713	-35.711	0.051	-0.027
-225.698	20.447	-0.116	-0.092
-224.684	-17.740	-0.186	-0.114
-223.669	800.000	0.037	0.122
-222.655	23.556	0.083	0.067
-221.640	104.285	-0.066	-0.077
-220.625	-33.499	-0.154	0.083
-219.611	-200.000	-0.028	-0.200
-218.596	-31.602	0.216	0.119
-217.582	393.194	0.087	-0.177
-216.567	-101.780	0.331	0.079
-215.552	68.068	0.189	0.190
-214.538	-200.000	-0.022	0.118
-213.523	157.031	-0.088	-0.120
-212.509	472.099	0.062	-0.137
-211.494	-200.000	0.045	0.543
-210.479	-149.763	0.185	0.014
-209.465	112.469	0.382	-0.453
-208.450	-173.234	-0.104	0.003
-207.436	83.446	-0.169	0.181
-206.421	-200.000	-0.009	0.144
-205.406	-162.893	-0.106	0.005
-204.392	-61.382	-0.184	-0.076
-203.377	-200.000	0.007	0.077
-202.363	-29.629	0.347	-0.194
-201.348	152.972	0.145	-0.194
-200.333	208.328	-0.084	0.128
-199.319	131.769	0.094	0.119
-198.304	31.335	-0.341	-0.287
-197.290	144.662	-0.140	-0.184
-196.275	-80.260	0.130	-0.042
-195.260	216.066	0.096	0.150
-194.246	-147.262	0.331	0.028
-193.231	-30.057	-0.087	0.049
-192.217	-94.880	0.188	0.050
-191.202	53.921	0.047	0.045
-190.187	34.267	0.076	0.065
-189.173	52.721	-0.327	-0.306
-188.158	77.757	0.265	-0.276
-187.144	28.030	0.182	-0.150
-186.129	-16.436	0.482	-0.300
-185.114	-94.980	-0.226	-0.060
-184.100	189.883	-0.039	-0.057
-183.085	-200.000	0.059	0.411
-182.071	-103.155	-0.103	0.024
-181.056	328.748	0.041	-0.077
-180.042	-23.224	0.278	0.164
-179.027	-105.830	-0.297	-0.066
-178.012	68.526	-0.148	-0.149
-176.998	460.561	-0.019	0.041
-175.983	250.573	-0.140	0.232
-174.969	-23.752	0.376	-0.221
-173.954	185.007	0.173	-0.252
-172.939	-137.297	-0.309	0.034
-171.925	-200.000	0.046	-0.324
-170.910	336.546	-0.094	-0.179
-169.896	-200.000	-0.034	-0.218
-168.881	800.000	-0.020	0.065
-167.866	380.979	0.254	-0.510
-166.852	0.390	0.264	-0.185
-165.837	130.253	-0.224	-0.281
-164.823	515.348	0.019	-0.043
-163.808	159.372	-0.075	-0.103
-162.793	15.627	-0.229	0.176
-161.779	-200.000	-0.047	-0.341
-160.764	5.392	0.282	-0.204
-159.750	84.057	-0.224	-0.239
-158.735	-200.000	0.026	-0.269
-157.720	17.004	-0.043	-0.033
-156.706	44.227	0.363	0.326
-155.691	-52.084	-0.080	-0.037
-154.677	-71.948	-0.218	0.079
-153.662	-200.000	0.000	-0.061
-152.647	-126.274	-0.087	0.013
-151.633	-200.000	0.030	-0.238
-150.618	-142.247	0.079	0.008
-149.604	308.846	-0.139	-0.254
-148.589	205.323	0.196	0.298
-147.574	36.672	-0.148	-0.128
-146.560	-107.281	0.206	0.044
-145.545	212.178	-0.186	0.287
-144.531	101.565	0.042	0.048
-143.516	-62.228	0.288	0.117
-142.502	-50.245	0.270	0.125
-141.487	800.000	0.073	-0.258
-140.472	687.801	-0.031	0.079
-139.458	-121.180	-0.093	0.015
-138.443	77.543	0.158	-0.165
-137.429	-200.000	0.000	0.110
-136.414	56.202	0.150	0.143
-135.399	-200.000	-0.051	0.269
-134.385	47.226	-0.394	0.358
-133.370	-9.843	0.206	0.134
-132.356	105.419	-0.119	-0.137
-131.341	-81.374	0.198	-0.064
-130.326	-200.000	-0.023	0.245
-129.312	-173.904	0.252	0.007
-128.297	-200.000	-0.027	0.139
-127.283	793.898	0.058	0.155
-126.268	800.000	-0.004	0.014
-125.253	-85.381	-0.278	0.085
-124.239	84.179	0.200	-0.213
-123.224	520.804	0.034	0.077
-122.210	-69.424	-0.127	0.048
-121.195	536.951	0.131	-0.305
-120.180	86.910	0.109	0.118
