DTS Sentinel unit serial number:	SN413079Multiplexer serial number:	ORYXHardware model number:	OX4-SRSoftware version number:	ORYX F/W v4.00 Oryx Data Collector v3.7.2.0data status	okinstallation	princeton_trtdifferential loss correction	single-endedforward channel	channel 2reverse channel	N/Adate	2019/09/14time	23:35:34forward acquisition time	60.00reverse acquisition time	0.00gamma	496.2192k internal	0.2324k external	0.2324temperature offset calibration	1.0054default loss term (dB/km)	0.3790temperature slope calibration	1.0000multiplexer offset coefficient	1.0000multiplexer slope coefficient	1.0000fibre end	0.00T internal ref (°C)	32.31T ext. ref 1 (°C)	4.65T ext. ref 2 (°C)	27.33length (m)	temperature (°C)	Stokes	anti-Stokes-747.200	36.342	-0.178	-0.158
-746.185	15.729	-0.196	0.156
-745.171	-73.865	-0.308	-0.113
-744.156	-68.558	0.081	-0.032
-743.142	800.000	-0.042	-0.134
-742.127	800.000	-0.042	0.133
-741.112	29.912	0.013	-0.011
-740.098	-116.245	0.309	-0.058
-739.083	-14.844	0.352	-0.228
-738.069	186.849	-0.032	0.048
-737.054	-19.628	-0.177	0.110
-736.039	95.318	-0.198	-0.228
-735.025	152.691	-0.045	0.061
-734.010	-200.000	-0.012	-0.104
-732.996	-158.036	-0.407	-0.024
-731.981	751.898	0.021	0.057
-730.966	382.845	0.094	0.196
-729.952	648.618	-0.095	0.246
-728.937	-96.974	-0.445	0.118
-727.923	-200.000	0.004	-0.060
-726.908	-200.000	-0.055	-0.309
-725.894	-50.119	-0.403	0.193
-724.879	556.888	0.121	0.294
-723.864	218.069	0.039	0.064
-722.850	-98.941	0.164	0.042
-721.835	-180.156	-0.157	0.003
-720.821	125.134	0.155	-0.197
-719.806	-17.036	0.162	0.103
-718.791	-36.919	0.213	0.115
-717.777	-18.556	0.064	-0.040
-716.762	-131.734	0.415	0.055
-715.748	-124.252	0.050	0.008
-714.733	327.651	0.057	0.111
-713.718	598.553	0.102	-0.254
-712.704	-200.000	0.044	0.212
-711.689	431.855	0.205	-0.449
-710.675	278.203	-0.092	-0.164
-709.660	-200.000	-0.040	-0.187
-708.645	11.329	0.275	0.212
-707.631	-34.132	-0.105	-0.058
-706.616	-72.316	0.204	-0.076
-705.602	-200.000	0.005	-0.029
-704.587	-200.000	0.014	-0.123
-703.572	-89.519	0.103	-0.031
-702.558	-197.797	0.052	0.000
-701.543	348.121	0.204	0.406
-700.529	426.469	-0.144	-0.314
-699.514	276.356	-0.192	-0.344
-698.499	94.079	0.065	-0.075
-697.485	627.552	0.051	-0.129
-696.470	639.366	0.146	0.374
-695.456	-49.756	0.444	-0.213
-694.441	122.473	-0.120	0.151
-693.426	119.438	0.071	0.088
-692.412	41.004	-0.168	0.153
-691.397	-200.000	-0.033	0.215
-690.383	800.000	-0.047	-0.187
-689.368	-200.000	0.002	0.345
-688.354	-200.000	-0.007	-0.371
-687.339	158.704	0.113	0.158
-686.324	-200.000	0.070	0.000
-685.310	699.228	-0.080	-0.213
-684.295	55.404	-0.108	-0.105
-683.281	642.888	-0.111	-0.285
-682.266	24.199	0.194	0.162
-681.251	-63.870	-0.132	-0.054
-680.237	9.456	-0.164	0.125
-679.222	-174.491	0.213	0.006
-678.208	-32.303	0.080	-0.045
-677.193	-99.641	-0.305	0.077
-676.178	800.000	-0.073	0.303
-675.164	-200.000	-0.041	-0.256
-674.149	496.477	0.028	0.065
-673.135	70.579	-0.128	-0.133
-672.120	189.057	-0.128	0.193
-671.105	380.233	-0.072	0.148
-670.091	-200.000	-0.000	-0.106
-669.076	-65.818	-0.220	-0.089
-668.062	49.432	0.198	0.188
-667.047	-154.094	-0.127	0.009
-666.032	800.000	-0.025	0.092
-665.018	43.777	0.141	-0.130
-664.003	15.494	-0.206	-0.163
-662.989	-200.000	-0.010	0.114
-661.974	263.200	0.155	-0.270
-660.959	9.963	-0.279	0.213
-659.945	-117.530	-0.367	0.067
-658.930	174.891	-0.095	-0.138
-657.916	45.236	-0.145	-0.134
-656.901	800.000	-0.074	0.246
-655.886	-87.872	-0.252	-0.076
-654.872	235.438	-0.133	0.221
-653.857	-80.397	0.245	0.082
-652.843	296.336	0.216	-0.399
-651.828	88.686	-0.074	-0.083
-650.814	-200.000	0.007	-0.143
-649.799	646.198	-0.099	-0.254
-648.784	-200.000	-0.002	-0.119
-647.770	-200.000	-0.073	-0.354
-646.755	-88.422	0.116	-0.035
-645.741	-95.198	0.276	-0.075
-644.726	165.341	0.093	0.132
-643.711	-200.000	0.071	0.320
-642.697	150.326	0.065	-0.088
-641.682	-200.000	-0.010	0.194
-640.668	-200.000	0.008	-0.138
-639.653	-92.845	0.224	0.063
-638.638	78.130	0.090	-0.097
-637.624	779.619	-0.133	-0.367
-636.609	191.037	-0.205	-0.310
-635.595	-73.752	0.139	-0.051
-634.580	800.000	-0.087	-0.285
-633.565	-134.666	-0.117	-0.014
-632.551	-68.886	0.285	-0.111
-631.536	-200.000	-0.039	-0.188
-630.522	-142.645	0.079	0.008
-629.507	283.910	-0.168	-0.304
-628.492	31.486	-0.178	0.154
-627.478	184.745	0.057	0.085
-626.463	800.000	-0.057	-0.204
-625.449	-109.608	-0.056	0.012
-624.434	23.781	0.105	0.087
-623.419	-52.341	0.285	0.133
-622.405	-101.828	-0.106	0.026
-621.390	-139.330	0.091	0.010
-620.376	122.175	-0.305	0.383
-619.361	5.289	-0.163	0.120
-618.346	143.360	-0.201	0.268
-617.332	800.000	-0.137	0.410
-616.317	-48.784	0.171	-0.082
-615.303	490.628	-0.049	-0.113
-614.288	-200.000	-0.007	-0.034
-613.273	-45.146	-0.225	0.112
-612.259	-90.878	-0.308	0.089
-611.244	-102.282	-0.250	0.060
-610.230	-11.946	-0.119	0.079
-609.215	714.779	-0.095	0.253
-608.201	-200.000	0.009	-0.119
-607.186	450.026	0.106	0.234
-606.171	53.746	0.227	-0.219
-605.157	-143.815	-0.069	0.007
-604.142	47.116	-0.202	-0.189
-603.128	-200.000	0.000	0.118
-602.113	37.960	-0.277	0.247
-601.098	-96.208	-0.075	-0.020
-600.084	-65.498	0.287	-0.116
-599.069	800.000	0.052	-0.165
-598.055	-110.752	-0.206	-0.043
-597.040	-61.810	0.283	-0.119
-596.025	-105.122	-0.386	-0.089
-595.011	-121.099	-0.150	0.025
-593.996	-200.000	-0.028	0.142
-592.982	800.000	-0.099	-0.289
-591.967	30.445	-0.305	0.261
-590.952	800.000	-0.062	-0.260
-589.938	-154.766	0.222	-0.015
-588.923	105.755	0.033	-0.040
-587.909	553.238	-0.117	-0.282
-586.894	-20.919	-0.145	-0.089
-585.879	-100.220	0.079	-0.020
-584.865	-200.000	-0.059	-0.338
-583.850	-200.000	-0.037	-0.255
-582.836	522.605	-0.058	0.138
-581.821	-52.942	0.179	-0.083
-580.806	431.410	-0.090	0.196
-579.792	221.954	0.090	-0.146
-578.777	-200.000	0.017	0.301
-577.763	-143.218	0.491	0.047
-576.748	146.795	-0.183	-0.247
-575.733	-51.737	-0.154	0.072
-574.719	800.000	-0.074	-0.237
-573.704	-200.000	-0.012	0.124
-572.690	800.000	0.067	-0.248
-571.675	-200.000	-0.013	-0.291
-570.661	-82.166	0.102	0.033
-569.646	-43.131	-0.296	-0.150
-568.631	800.000	-0.091	-0.319
-567.617	244.079	-0.067	0.114
-566.602	110.067	-0.068	0.081
-565.588	-44.254	0.247	0.124
-564.573	800.000	0.010	0.032
-563.558	-155.406	0.202	0.013
-562.544	800.000	0.135	-0.380
-561.529	756.565	0.115	0.311
-560.515	105.384	-0.370	0.438
-559.500	-91.631	0.256	-0.073
-558.485	-92.190	-0.222	-0.063
-557.471	800.000	-0.013	0.037
-556.456	107.445	0.275	-0.328
-555.442	-153.123	-0.028	-0.002
-554.427	35.655	-0.102	0.090
-553.412	-8.889	-0.377	0.253
-552.398	199.469	-0.179	0.275
-551.383	34.254	0.284	-0.248
-550.369	431.216	0.112	0.243
-549.354	800.000	0.065	-0.206
-548.339	78.537	-0.138	0.148
-547.325	-200.000	-0.010	0.209
-546.310	44.166	-0.140	-0.129
-545.296	201.736	-0.060	-0.093
-544.281	254.346	-0.113	0.194
-543.266	-200.000	-0.028	-0.280
-542.252	13.117	0.156	-0.121
-541.237	-146.742	0.256	-0.022
-540.223	15.372	0.070	0.055
-539.208	287.345	0.136	0.247
-538.193	-43.615	0.188	-0.095
-537.179	-75.489	0.259	0.092
-536.164	218.172	0.162	0.259
-535.150	-100.004	-0.351	-0.088
-534.135	110.610	0.225	-0.271
-533.121	-9.350	0.377	0.252
-532.106	-73.146	-0.307	-0.113
-531.091	-200.000	0.040	-0.337
-530.077	-159.297	0.098	0.006
-529.062	-94.152	-0.359	0.099
-528.048	195.385	0.269	-0.409
-527.033	-12.382	0.241	-0.158
-526.018	-82.800	-0.166	0.054
-525.004	-200.000	-0.032	-0.191
-523.989	182.996	0.113	0.166
-522.975	56.557	0.066	-0.064
-521.960	-64.542	-0.112	0.045
-520.945	232.886	0.149	0.244
-519.931	158.116	-0.136	0.188
-518.916	-11.279	-0.160	-0.105
-517.902	-112.547	-0.283	-0.056
-516.887	68.672	0.157	0.161
-515.872	155.055	0.092	-0.127
-514.858	800.000	-0.048	-0.192
-513.843	800.000	-0.105	-0.349
-512.829	99.529	-0.278	-0.322
-511.814	116.216	-0.181	0.222
-510.799	365.514	0.048	-0.097
-509.785	-34.577	0.560	-0.307
-508.770	-78.768	0.381	0.130
-507.756	-200.000	0.013	-0.154
-506.741	-116.757	0.223	-0.041
-505.726	207.520	0.169	0.264
-504.712	-118.333	-0.066	0.012
-503.697	-108.522	0.152	-0.033
-502.683	-141.914	-0.249	0.025
-501.668	-45.525	0.287	-0.142
-500.653	-200.000	0.027	-0.142
-499.639	-82.858	-0.285	0.092
-498.624	-102.739	-0.245	0.058
-497.610	-138.889	-0.063	0.007
-496.595	800.000	0.092	-0.310
-495.581	82.496	-0.067	0.073
-494.566	-88.428	0.289	-0.086
-493.551	-97.003	0.284	0.074
-492.537	800.000	0.070	-0.278
-491.522	182.056	-0.050	0.074
-490.508	12.857	0.032	0.025
-489.493	800.000	0.058	-0.205
-488.478	-200.000	-0.032	0.174
-487.464	-42.588	-0.263	0.134
-486.449	103.636	0.053	0.063
-485.435	-200.000	0.020	0.334
-484.420	-24.155	-0.198	-0.118
-483.405	219.564	-0.134	-0.214
-482.391	-146.751	-0.248	-0.021
-481.376	-200.000	-0.008	-0.073
-480.362	57.358	0.144	0.141
-479.347	-51.475	-0.187	-0.087
-478.332	-45.607	-0.186	0.092
-477.318	169.510	0.184	0.262
-476.303	48.097	-0.280	-0.261
-475.289	-200.000	-0.021	-0.280
-474.274	-101.261	-0.055	-0.013
-473.259	159.619	0.052	-0.073
-472.245	765.116	0.112	0.303
-471.230	-161.794	0.225	0.011
-470.216	-200.000	-0.002	0.102
-469.201	-77.086	-0.212	0.074
-468.186	344.549	0.136	0.267
-467.172	-46.715	-0.377	-0.184
-466.157	113.540	0.085	0.103
-465.143	193.369	-0.123	0.186
-464.128	-2.341	-0.094	0.066
-463.113	-172.842	0.282	0.009
-462.099	28.661	0.212	0.180
-461.084	800.000	-0.081	-0.231
-460.070	-150.283	-0.265	0.020
-459.055	-200.000	0.008	-0.088
-458.040	-200.000	0.025	-0.155
-457.026	134.270	0.159	-0.206
-456.011	-118.357	-0.292	0.052
-454.997	-41.905	-0.219	-0.112
-453.982	489.219	-0.125	0.286
-452.968	437.437	-0.061	-0.133
-451.953	105.826	-0.048	0.057
-450.938	75.701	-0.094	-0.099
-449.924	-200.000	0.024	-0.310
-448.909	522.265	-0.080	0.187
-447.895	800.000	0.075	-0.249
-446.880	-171.756	-0.204	0.007
-445.865	800.000	-0.078	-0.260
-444.851	-28.110	0.204	0.117
-443.836	-18.210	-0.128	-0.080
-442.822	-200.000	-0.008	-0.499
-441.807	-200.000	0.063	-0.317
-440.792	-145.353	0.228	0.020
-439.778	-200.000	-0.037	0.330
-438.763	246.688	-0.348	-0.586
-437.749	-55.884	0.143	0.064
-436.734	-86.643	-0.343	-0.105
-435.719	-66.479	0.318	0.126
-434.705	-16.290	0.269	0.170
-433.690	-101.945	0.220	-0.053
-432.676	-200.000	0.038	0.318
-431.661	-148.115	0.134	0.011
-430.646	-54.591	-0.129	-0.058
-429.632	210.362	-0.137	-0.215
-428.617	-158.513	-0.265	0.015
-427.603	-200.000	0.020	0.184
-426.588	353.801	0.241	-0.477
-425.573	79.389	-0.113	-0.121
-424.559	800.000	-0.104	0.327
-423.544	-125.721	-0.158	-0.024
-422.530	-50.976	0.154	0.072
-421.515	-117.383	0.274	-0.049
-420.500	-11.719	0.089	-0.058
-419.486	43.557	-0.105	0.095
-418.471	-200.000	0.032	-0.148
-417.457	800.000	-0.078	0.240
-416.442	-31.830	0.125	0.070
-415.428	20.301	-0.143	0.115
-414.413	-81.877	-0.180	0.059
-413.398	-200.000	-0.023	0.358
-412.384	281.983	-0.020	0.035
-411.369	-200.000	-0.049	0.296
-410.355	-200.000	-0.027	-0.280
-409.340	128.141	-0.060	-0.076
-408.325	-22.720	-0.204	-0.123
-407.311	-200.000	0.020	0.150
-406.296	-31.517	0.250	-0.140
-405.282	-200.000	-0.006	0.166
-404.267	-147.773	0.215	0.018
-403.252	-200.000	0.026	0.302
-402.238	216.037	-0.132	-0.209
-401.223	-81.388	-0.350	-0.115
-400.209	800.000	-0.122	0.348
-399.194	-132.505	0.325	0.042
-398.179	800.000	0.061	-0.249
-397.165	-129.768	0.382	-0.052
-396.150	359.146	0.118	0.234
-395.136	800.000	0.028	0.103
-394.121	-200.000	-0.027	0.341
-393.106	239.973	0.151	0.251
-392.092	428.753	0.187	0.401
-391.077	800.000	-0.128	0.360
-390.063	480.692	-0.027	-0.061
-389.048	-200.000	-0.027	-0.406
-388.033	274.793	0.206	-0.364
-387.019	-200.000	0.005	0.081
-386.004	-100.064	0.201	-0.050
-384.990	-200.000	0.016	0.075
-383.975	36.315	0.293	-0.257
-382.960	69.981	-0.179	0.184
-381.946	-26.876	0.237	-0.138
-380.931	-200.000	0.008	0.256
-379.917	-112.749	0.084	-0.017
-378.902	489.264	-0.093	-0.211
-377.888	-13.125	0.184	-0.119
-376.873	177.337	0.117	-0.169
-375.858	314.312	0.112	0.209
-374.844	-131.063	0.026	0.003
-373.829	-74.694	0.218	0.078
-372.815	54.672	0.223	0.214
-371.800	-38.674	-0.274	-0.144
-370.785	-200.000	-0.001	0.294
-369.771	-200.000	0.021	0.109
-368.756	-20.161	0.180	0.110
-367.742	-77.633	0.065	0.023
-366.727	-200.000	0.023	0.224
-365.712	1.033	0.216	0.154
-364.698	380.014	-0.053	0.108
-363.683	-81.644	0.133	-0.043
-362.669	800.000	-0.062	-0.254
-361.654	-94.888	-0.062	0.017
-360.639	-156.993	0.211	-0.013
-359.625	-132.322	-0.157	0.020
-358.610	-200.000	0.056	0.472
-357.596	800.000	0.014	-0.049
-356.581	-9.579	-0.098	-0.065
-355.566	-200.000	-0.004	-0.164
-354.552	-98.794	0.217	-0.055
-353.537	-200.000	-0.008	0.282
-352.523	83.940	0.125	-0.136
-351.508	264.515	-0.166	-0.287
-350.493	-200.000	0.018	-0.157
-349.479	40.911	-0.125	-0.112
-348.464	-200.000	0.031	0.154
-347.450	-200.000	-0.013	0.166
-346.435	-71.069	-0.173	-0.065
-345.420	-200.000	0.004	0.173
-344.406	43.260	-0.225	-0.204
-343.391	-80.883	0.111	-0.036
-342.377	15.486	-0.136	-0.106
-341.362	57.392	0.145	-0.140
-340.348	81.531	-0.120	0.129
-339.333	-81.272	0.148	0.049
-338.318	-51.719	-0.130	-0.060
-337.304	800.000	0.047	0.130
-336.289	800.000	-0.048	-0.153
-335.275	-200.000	-0.007	-0.072
-334.260	290.476	-0.157	0.284
-333.245	167.624	0.133	-0.188
-332.231	169.225	-0.290	-0.411
-331.216	-7.076	-0.110	-0.074
-330.202	55.763	-0.105	-0.101
-329.187	367.845	0.187	0.376
-328.172	46.617	-0.033	0.030
-327.158	6.149	0.154	0.113
-326.143	-138.559	0.265	0.029
-325.129	-200.000	-0.043	0.217
-324.114	-83.774	0.517	-0.164
-323.099	-200.000	0.072	-0.563
-322.085	-200.000	-0.052	-0.292
-321.070	9.009	-0.222	0.167
-320.056	662.589	-0.079	0.202
-319.041	130.204	-0.145	-0.184
-318.026	-6.450	-0.101	-0.068
-317.012	87.177	-0.138	-0.151
-315.997	-99.155	0.216	-0.054
-314.983	169.638	0.118	-0.168
-313.968	420.889	0.132	0.281
-312.953	-16.552	0.237	-0.149
-311.939	-200.000	0.034	-0.161
-310.924	800.000	0.034	0.105
-309.910	800.000	-0.036	-0.118
-308.895	-149.477	-0.200	-0.016
-307.880	-105.680	-0.120	-0.027
-306.866	-49.357	-0.236	0.112
-305.851	-27.192	-0.084	0.049
-304.837	-122.987	-0.217	0.035
-303.822	305.827	-0.097	0.179
-302.807	-41.534	0.033	0.017
-301.793	-200.000	-0.022	0.194
-300.778	591.551	0.043	0.104
-299.764	307.248	-0.166	-0.307
-298.749	185.802	-0.025	0.037
-297.735	61.025	-0.148	0.146
-296.720	47.650	-0.224	0.207
-295.705	-92.155	0.088	0.025
-294.691	-200.000	-0.021	0.286
-293.676	-40.877	-0.399	0.205
-292.662	-0.983	0.172	0.121
-291.647	92.115	-0.125	0.140
-290.632	-200.000	-0.002	-0.031
-289.618	-200.000	-0.038	-0.341
-288.603	-119.243	-0.275	0.048
-287.589	299.819	0.064	-0.116
-286.574	-200.000	-0.019	0.261
-285.559	-80.924	0.539	0.177
-284.545	-200.000	0.008	-0.230
-283.530	148.449	-0.149	-0.200
-282.516	13.424	0.048	0.037
-281.501	-43.071	-0.369	0.185
-280.486	124.244	0.048	0.060
-279.472	-200.000	-0.012	-0.154
-278.457	-155.585	-0.186	0.012
-277.443	-148.403	0.083	-0.007
-276.428	242.576	0.082	0.137
-275.413	800.000	0.053	-0.226
-274.399	-186.481	0.396	-0.006
-273.384	273.633	-0.183	-0.321
-272.370	-87.264	-0.302	0.091
-271.355	800.000	-0.091	-0.307
-270.340	83.059	0.168	0.181
-269.326	105.470	0.228	0.267
-268.311	12.367	-0.204	-0.156
-267.297	-55.359	0.198	-0.088
-266.282	-19.267	-0.221	-0.136
-265.267	-90.949	0.454	-0.129
-264.253	276.341	0.060	-0.105
-263.238	-108.852	-0.165	-0.035
-262.224	-9.421	0.271	0.179
-261.209	119.284	-0.135	-0.166
-260.195	117.888	-0.084	-0.102
-259.180	-88.951	0.186	0.055
-258.165	-63.345	0.098	0.040
-257.151	-200.000	0.026	-0.180
-256.136	255.082	-0.070	-0.118
-255.122	-160.998	-0.184	0.010
-254.107	87.207	0.066	-0.072
-253.092	-168.791	0.554	0.021
-252.078	-143.505	-0.512	-0.048
-251.063	103.239	-0.156	0.181
-250.049	800.000	-0.058	0.197
-249.034	800.000	0.098	-0.304
-248.019	-129.399	-0.206	-0.028
-247.005	-200.000	-0.007	0.316
-245.990	-111.450	0.227	-0.046
-244.976	595.082	-0.087	0.212
-243.961	-200.000	0.002	0.099
-242.946	101.253	0.384	-0.443
-241.932	51.393	-0.244	0.229
-240.917	22.703	-0.299	-0.243
-239.903	221.122	0.048	-0.076
-238.888	242.512	0.114	0.188
-237.873	800.000	-0.054	0.185
-236.859	22.883	-0.127	0.103
-235.844	800.000	-0.069	0.192
-234.830	-200.000	-0.010	-0.204
-233.815	363.965	0.138	0.274
-232.800	48.403	0.367	0.340
-231.786	-152.521	-0.337	0.024
-230.771	337.247	0.010	-0.018
-229.757	345.990	0.109	0.212
-228.742	-200.000	0.011	0.224
-227.727	-43.685	0.230	-0.115
-226.713	-144.357	0.143	0.013
-225.698	-21.661	-0.026	-0.015
-224.684	158.843	0.154	0.211
-223.669	-116.654	0.169	0.031
-222.655	769.807	0.044	0.119
-221.640	-49.623	-0.346	-0.163
-220.625	-28.536	-0.223	-0.127
-219.611	-200.000	-0.069	-0.359
-218.596	-200.000	-0.018	0.311
-217.582	54.419	0.218	0.208
-216.567	143.241	-0.076	-0.100
-215.552	-62.211	0.317	-0.131
-214.538	45.141	-0.141	-0.129
-213.523	-104.761	0.070	-0.016
-212.509	-161.623	-0.420	-0.021
-211.494	-104.345	0.439	-0.101
-210.479	-107.904	-0.187	0.040
-209.465	95.108	-0.148	0.167
-208.450	-90.392	0.289	0.083
-207.436	601.205	0.056	0.136
-206.421	10.449	-0.070	-0.053
-205.406	49.777	-0.094	0.087
-204.392	-27.963	0.084	0.048
-203.377	21.419	-0.255	0.205
-202.363	-200.000	-0.024	0.195
-201.348	800.000	0.072	0.248
-200.333	10.608	0.109	-0.082
-199.319	92.791	-0.063	-0.071
-198.304	-200.000	-0.049	0.310
-197.290	6.491	0.173	-0.127
-196.275	70.357	0.107	-0.109
-195.260	-102.102	-0.182	-0.043
-194.246	387.810	0.106	-0.216
-193.231	-200.000	-0.007	0.050
-192.217	800.000	0.121	-0.351
-191.202	-19.452	-0.134	-0.082
-190.187	544.297	-0.128	-0.303
-189.173	-47.538	-0.199	0.096
-188.158	303.557	0.114	0.209
-187.144	800.000	-0.079	-0.225
-186.129	800.000	0.025	-0.083
-185.114	-30.807	0.111	0.062
-184.100	800.000	0.027	0.091
-183.085	-200.000	0.018	0.194
-182.071	73.050	0.052	0.054
-181.056	-200.000	0.032	0.359
-180.042	71.187	-0.097	0.099
-179.027	-200.000	0.079	0.410
-178.012	450.665	0.082	-0.180
-176.998	-200.000	0.012	-0.126
-175.983	674.871	0.104	-0.267
-174.969	-164.358	0.286	0.013
-173.954	-200.000	-0.061	-0.288
-172.939	471.384	0.090	0.201
-171.925	-11.389	0.275	0.179
-170.910	384.082	-0.117	-0.239
-169.896	-103.982	0.081	0.019
-168.881	800.000	-0.016	-0.048
-167.866	-200.000	-0.041	0.202
-166.852	800.000	0.068	0.272
-165.837	71.942	0.118	0.121
-164.823	800.000	-0.029	0.096
-163.808	29.521	-0.203	0.171
-162.793	529.101	0.029	-0.069
-161.779	-51.065	-0.220	0.102
-160.764	207.376	0.188	0.289
-159.750	-200.000	-0.013	-0.100
-158.735	27.976	-0.030	-0.025
-157.720	-142.003	-0.497	0.049
-156.706	47.314	-0.268	0.246
-155.691	800.000	-0.078	0.257
-154.677	-14.678	0.230	-0.146
-153.662	115.931	-0.047	0.057
-152.647	-113.284	0.510	0.099
-151.633	-2.900	-0.123	0.085
-150.618	287.015	-0.207	0.369
-149.604	-94.145	-0.295	-0.080
-148.589	-40.772	-0.116	0.059
-147.574	-200.000	-0.048	0.445
-146.560	44.125	-0.108	-0.098
-145.545	-3.117	-0.116	0.080
-144.531	168.513	0.132	0.185
-143.516	-74.273	0.386	0.138
-142.502	96.127	0.018	0.020
-141.487	-113.127	0.465	-0.090
-140.472	-110.656	-0.165	0.034
-139.458	82.959	-0.233	-0.250
-138.443	-200.000	0.040	-0.350
-137.429	218.218	0.059	-0.092
-136.414	-70.645	0.134	-0.050
-135.399	800.000	0.077	0.213
-134.385	-200.000	0.005	0.227
-133.370	-104.485	-0.265	-0.060
-132.356	-200.000	-0.023	-0.247
-131.341	-47.457	-0.210	-0.100
-130.326	62.712	-0.139	-0.137
-129.312	23.730	0.138	0.112
-128.297	2.118	-0.150	-0.106
-127.283	800.000	0.046	-0.197
-126.268	40.097	0.016	0.014
-125.253	725.020	-0.144	0.377
-124.239	262.915	-0.064	-0.109
-123.224	82.949	0.166	-0.178
-122.210	-200.000	-0.003	-0.072
