DTS Sentinel unit serial number:	SN413079Multiplexer serial number:	ORYXHardware model number:	OX4-SRSoftware version number:	ORYX F/W v4.00 Oryx Data Collector v3.7.2.0data status	okinstallation	princeton_trtdifferential loss correction	single-endedforward channel	channel 2reverse channel	N/Adate	2019/09/17time	16:23:35forward acquisition time	60.00reverse acquisition time	0.00gamma	496.2192k internal	0.2294k external	0.2294temperature offset calibration	0.9983default loss term (dB/km)	0.3790temperature slope calibration	1.0000multiplexer offset coefficient	1.0000multiplexer slope coefficient	1.0000fibre end	0.00T internal ref (°C)	41.25T ext. ref 1 (°C)	0.37T ext. ref 2 (°C)	38.72length (m)	temperature (°C)	Stokes	anti-Stokes-747.200	229.160	-0.131	-0.219
-746.185	259.840	-0.124	0.219
-745.171	-25.491	0.287	0.173
-744.156	800.000	-0.133	0.537
-743.142	722.698	0.130	-0.355
-742.127	333.048	0.113	0.223
-741.112	800.000	-0.045	0.196
-740.098	417.655	-0.141	0.308
-739.083	3.070	-0.136	-0.101
-738.069	-59.851	-0.070	0.031
-737.054	-200.000	-0.008	-0.134
-736.039	-97.095	-0.144	0.039
-735.025	-200.000	-0.012	-0.124
-734.010	-3.386	0.026	0.018
-732.996	761.711	-0.077	-0.213
-731.981	-200.000	-0.013	-0.160
-730.966	-78.389	0.195	-0.068
-729.952	800.000	0.023	0.098
-728.937	103.731	-0.151	-0.181
-727.923	800.000	0.091	0.267
-726.908	-58.220	-0.142	-0.063
-725.894	-118.644	-0.108	-0.019
-724.879	-113.583	0.262	-0.052
-723.864	73.032	-0.243	0.260
-722.850	-72.713	-0.354	-0.133
-721.835	-169.235	-0.192	0.007
-720.821	20.377	0.081	-0.067
-719.806	-200.000	0.007	0.152
-718.791	-200.000	-0.288	-0.001
-717.777	-200.000	0.019	-0.154
-716.762	253.542	-0.088	0.154
-715.748	-38.741	-0.129	0.070
-714.733	109.537	-0.064	0.079
-713.718	-24.363	0.061	-0.037
-712.704	-53.027	-0.341	0.160
-711.689	-200.000	-0.016	-0.078
-710.675	224.123	-0.074	0.121
-709.660	-11.840	0.385	-0.258
-708.645	223.812	-0.142	0.234
-707.631	-147.093	0.175	0.015
-706.616	800.000	-0.047	-0.151
-705.602	23.968	-0.349	-0.294
-704.587	35.337	-0.101	0.091
-703.572	800.000	0.063	-0.277
-702.558	-37.346	-0.026	0.014
-701.543	-85.746	0.165	0.052
-700.529	36.885	-0.215	0.194
-699.514	800.000	0.044	-0.150
-698.499	800.000	-0.104	-0.331
-697.485	-63.664	0.251	0.105
-696.470	154.130	-0.018	0.026
-695.456	-55.036	0.114	-0.052
-694.441	800.000	-0.041	0.148
-693.426	-83.968	0.166	0.054
-692.412	-112.882	0.102	-0.021
-691.397	-200.000	-0.026	-0.135
-690.383	800.000	-0.013	-0.041
-689.368	-61.241	-0.186	-0.080
-688.354	116.818	-0.109	-0.137
-687.339	-91.958	-0.191	-0.055
-686.324	800.000	0.061	-0.198
-685.310	245.554	0.030	-0.052
-684.295	-160.470	0.318	0.017
-683.281	80.325	-0.148	0.163
-682.266	131.522	-0.205	0.269
-681.251	-41.367	0.235	-0.123
-680.237	540.313	-0.040	0.096
-679.222	-200.000	-0.008	-0.053
-678.208	684.336	-0.077	0.205
-677.193	174.001	-0.174	0.257
-676.178	292.053	-0.074	-0.138
-675.164	-200.000	0.032	-0.188
-674.149	-101.425	-0.069	-0.017
-673.135	102.358	-0.139	0.166
-672.120	800.000	0.013	-0.057
-671.105	60.124	-0.147	0.149
-670.091	-12.552	0.133	-0.088
-669.076	434.164	-0.123	0.272
-668.062	-139.090	0.082	-0.009
-667.047	-200.000	-0.008	-0.159
-666.032	800.000	-0.057	0.209
-665.018	83.384	0.262	-0.291
-664.003	53.740	-0.169	-0.166
-662.989	20.299	-0.240	0.198
-661.974	195.875	0.010	-0.016
-660.959	-132.132	-0.079	-0.010
-659.945	157.458	-0.113	-0.160
-658.930	82.598	0.282	0.312
-657.916	-136.664	-0.170	-0.020
-656.901	-200.000	-0.057	-0.297
-655.886	-5.358	-0.307	-0.215
-654.872	-200.000	0.000	-0.278
-653.857	-74.754	-0.175	0.064
-652.843	-16.053	0.203	-0.131
-651.828	-12.216	0.180	-0.120
-650.814	-200.000	-0.006	0.186
-649.799	18.881	0.199	-0.163
-648.784	-56.848	-0.174	-0.078
-647.770	318.079	-0.092	0.178
-646.755	-60.214	-0.062	-0.027
-645.741	-138.522	-0.151	-0.017
-644.726	129.444	0.084	-0.110
-643.711	62.449	0.104	0.106
-642.697	-200.000	0.048	0.249
-641.682	116.515	0.104	0.130
-640.668	-182.329	-0.142	-0.003
-639.653	-80.726	-0.400	-0.135
-638.638	-120.426	0.018	-0.003
-637.624	-71.897	0.125	-0.047
-636.609	271.363	0.105	-0.188
-635.595	-200.000	-0.046	-0.341
-634.580	-100.551	0.053	0.013
-633.565	124.509	0.138	-0.176
-632.551	192.301	-0.190	-0.292
-631.536	800.000	-0.068	0.248
-630.522	305.086	0.112	-0.211
-629.507	73.798	-0.108	0.115
-628.492	-1.557	-0.060	0.043
-627.478	-158.452	0.363	0.021
-626.463	-16.787	0.228	-0.147
-625.449	-52.663	-0.192	-0.090
-624.434	414.798	0.117	0.255
-623.419	683.832	0.055	-0.147
-622.405	-96.672	-0.152	0.041
-621.390	-200.000	0.031	0.177
-620.376	-200.000	0.004	-0.020
-619.361	22.783	-0.118	0.098
-618.346	708.077	-0.058	0.156
-617.332	-200.000	0.024	0.299
-616.317	34.683	0.191	0.170
-615.303	-86.721	-0.445	-0.138
-614.288	89.364	0.218	-0.248
-613.273	344.528	0.140	0.280
-612.259	-200.000	-0.026	-0.241
-611.244	-155.618	0.191	-0.012
-610.230	-200.000	-0.040	-0.253
-609.215	92.566	-0.208	0.239
-608.201	399.639	-0.014	0.029
-607.186	-125.179	-0.056	0.009
-606.171	81.826	-0.192	-0.212
-605.157	-25.469	-0.149	0.090
-604.142	-68.631	-0.167	-0.066
-603.128	-34.838	-0.350	0.195
-602.113	169.282	-0.140	-0.203
-601.098	-162.130	-0.279	0.014
-600.084	-85.315	0.160	-0.051
-599.069	38.127	0.068	-0.062
-598.055	-12.790	-0.515	-0.341
-597.040	-90.539	-0.311	-0.092
-596.025	-47.494	0.217	0.107
-595.011	68.039	0.413	0.430
-593.996	-200.000	-0.018	0.094
-592.982	-90.801	0.191	-0.056
-591.967	-8.499	-0.628	-0.429
-590.952	-141.656	0.142	-0.015
-589.938	800.000	-0.075	0.269
-588.923	-149.381	0.132	-0.011
-587.909	-85.666	0.262	-0.083
-586.894	800.000	0.017	-0.047
-585.879	-60.182	-0.155	-0.067
-584.865	-200.000	0.017	0.292
-583.850	-200.000	-0.010	0.121
-582.836	-104.564	-0.121	0.028
-581.821	8.049	-0.229	0.175
-580.806	-93.134	0.272	0.077
-579.792	-200.000	-0.022	-0.291
-578.777	24.187	-0.311	-0.261
-577.763	-174.021	0.358	0.011
-576.748	-6.875	-0.199	-0.137
-575.733	-46.937	-0.177	-0.088
-574.719	-10.278	-0.087	-0.058
-573.704	64.297	-0.105	-0.108
-572.690	-105.122	0.101	-0.023
-571.675	-200.000	0.001	0.335
-570.661	142.997	-0.363	-0.490
-569.646	-52.136	0.143	0.067
-568.631	-142.924	0.190	-0.019
-567.617	139.872	-0.106	-0.142
-566.602	646.348	0.016	0.041
-565.588	94.825	0.098	-0.113
-564.573	-15.330	-0.063	-0.041
-563.558	233.685	-0.212	0.355
-562.544	800.000	-0.052	0.214
-561.529	-106.719	-0.084	-0.019
-560.515	92.193	0.128	-0.147
-559.500	-200.000	0.026	-0.153
-558.485	-106.933	-0.284	0.064
-557.471	-8.536	-0.051	0.035
-556.456	800.000	-0.089	0.344
-555.442	321.800	-0.125	-0.242
-554.427	800.000	0.176	-0.539
-553.412	800.000	-0.054	0.216
-552.398	-200.000	0.015	0.270
-551.383	-76.493	0.545	0.194
-550.369	120.313	0.173	0.218
-549.354	432.322	0.061	-0.134
-548.339	279.830	0.151	-0.273
-547.325	574.674	-0.114	-0.282
-546.310	54.106	0.308	0.300
-545.296	800.000	-0.035	-0.119
-544.281	371.927	0.165	-0.340
-543.266	-104.459	0.033	0.008
-542.252	107.759	0.204	0.247
-541.237	800.000	-0.067	-0.287
-540.223	-149.630	-0.128	-0.010
-539.208	41.345	0.155	-0.142
-538.193	56.724	-0.158	0.156
-537.179	-200.000	-0.022	0.144
-536.164	800.000	0.116	0.388
-535.150	320.076	-0.076	0.145
-534.135	-200.000	-0.017	0.082
-533.121	-200.000	-0.012	0.174
-532.106	86.794	0.184	-0.206
-531.091	-200.000	-0.016	-0.072
-530.077	-97.965	-0.119	-0.031
-529.062	125.363	0.132	0.169
-528.048	800.000	0.043	-0.173
-527.033	753.896	0.016	0.043
-526.018	800.000	-0.076	-0.304
-525.004	-200.000	-0.022	-0.220
-523.989	-200.000	-0.010	0.206
-522.975	-104.260	-0.142	-0.033
-521.960	-200.000	0.033	0.342
-520.945	-54.235	-0.505	-0.233
-519.931	-40.036	0.336	0.178
-518.916	261.826	0.137	-0.241
-517.902	-24.210	0.126	0.076
-516.887	590.952	-0.056	-0.139
-515.872	-154.027	0.282	0.019
-514.858	-8.729	-0.114	-0.078
-513.843	-32.822	0.113	0.064
-512.829	-200.000	0.047	0.213
-511.814	-176.229	0.134	0.004
-510.799	800.000	0.030	0.134
-509.785	167.174	0.059	-0.085
-508.770	-99.470	0.249	0.064
-507.756	-200.000	-0.004	-0.020
-506.741	-75.463	0.146	0.053
-505.726	-76.458	-0.150	-0.053
-504.712	192.835	0.079	-0.120
-503.697	176.292	0.104	-0.154
-502.683	-200.000	-0.067	0.312
-501.668	-200.000	0.038	0.202
-500.653	-38.202	0.242	0.130
-499.639	-121.609	0.352	-0.059
-498.624	135.207	0.131	-0.173
-497.610	-70.315	0.280	-0.108
-496.595	28.309	0.123	-0.105
-495.581	120.153	0.260	-0.327
-494.566	-200.000	0.009	-0.177
-493.551	800.000	0.039	0.151
-492.537	182.597	-0.058	0.086
-491.522	-200.000	0.020	0.096
-490.508	800.000	0.161	-0.505
-489.493	-200.000	0.004	-0.212
-488.478	-170.308	0.109	-0.004
-487.464	-161.319	0.243	0.013
-486.449	59.630	0.091	-0.090
-485.435	800.000	-0.034	-0.116
-484.420	-96.680	0.073	0.019
-483.405	-60.183	-0.238	-0.103
-482.391	15.346	-0.058	0.046
-481.376	361.229	-0.055	0.111
-480.362	349.418	-0.096	0.191
-479.347	-200.000	-0.004	0.042
-478.332	775.932	0.091	-0.253
-477.318	-49.061	0.051	0.025
-476.303	-150.274	0.114	0.009
-475.289	-11.195	-0.066	0.044
-474.274	-195.793	0.120	0.001
-473.259	-200.000	-0.003	-0.074
-472.245	16.228	0.385	-0.307
-471.230	-200.000	0.008	-0.239
-470.216	-55.310	0.179	0.081
-469.201	-144.534	-0.084	-0.008
-468.186	129.410	-0.285	0.368
-467.172	-79.580	0.135	0.046
-466.157	-39.030	0.202	0.107
-465.143	-200.000	-0.004	-0.066
-464.128	-200.000	-0.021	-0.142
-463.113	-101.244	-0.162	0.040
-462.099	236.921	0.101	-0.170
-461.084	117.599	-0.255	-0.317
-460.070	800.000	0.092	0.279
-459.055	177.913	0.171	0.253
-458.040	13.758	0.033	-0.026
-457.026	-71.002	-0.306	-0.117
-456.011	92.776	0.120	-0.137
-454.997	-200.000	-0.000	0.137
-453.982	14.430	0.135	-0.106
-452.968	-125.486	-0.128	-0.020
-451.953	23.173	0.135	0.112
-450.938	108.168	0.197	-0.238
-449.924	515.916	0.058	-0.137
-448.909	260.799	-0.131	0.230
-447.895	104.858	0.235	-0.281
-446.880	-200.000	0.007	-0.128
-445.865	10.248	0.060	0.046
-444.851	800.000	0.058	0.194
-443.836	289.786	-0.053	-0.096
-442.822	133.766	-0.042	-0.055
-441.807	-200.000	0.005	-0.140
-440.792	150.868	0.091	0.126
-439.778	97.578	0.146	0.169
-438.763	-10.558	-0.372	-0.249
-437.749	-41.682	0.144	0.075
-436.734	11.021	0.148	0.114
-435.719	-46.148	0.310	-0.154
-434.705	-114.761	-0.230	0.044
-433.690	-200.000	0.033	-0.150
-432.676	800.000	0.034	0.137
-431.661	32.933	-0.320	-0.280
-430.646	-75.799	-0.320	-0.114
-429.632	-121.632	0.041	0.007
-428.617	800.000	0.029	-0.081
-427.603	390.189	-0.157	0.329
-426.588	397.351	0.077	-0.162
-425.573	800.000	0.033	-0.095
-424.559	800.000	0.014	0.050
-423.544	168.425	0.234	0.336
-422.530	45.598	-0.151	0.141
-421.515	64.659	0.169	0.172
-420.500	37.589	-0.123	-0.110
-419.486	685.955	-0.130	0.343
-418.471	622.828	-0.115	0.292
-417.457	235.329	0.185	0.308
-416.442	36.462	-0.071	0.063
-415.428	128.236	-0.060	-0.076
-414.413	-200.000	-0.001	-0.047
-413.398	120.109	-0.109	0.137
-412.384	-23.916	0.220	0.133
-411.369	222.059	0.143	0.233
-410.355	-4.855	0.085	-0.059
-409.340	55.524	-0.109	-0.107
-408.325	-200.000	-0.051	0.234
-407.311	413.054	-0.116	0.249
-406.296	-92.188	0.261	-0.074
-405.282	511.548	-0.090	0.212
-404.267	255.500	0.168	-0.290
-403.252	-200.000	-0.022	-0.134
-402.238	-200.000	0.056	-0.254
-401.223	-40.651	0.291	0.152
-400.209	276.454	0.235	-0.422
-399.194	60.695	0.171	0.171
-398.179	-58.555	0.197	-0.086
-397.165	85.779	-0.162	0.179
-396.150	800.000	-0.061	0.203
-395.136	-22.893	-0.324	0.197
-394.121	152.794	-0.183	-0.252
-393.106	-71.152	-0.212	-0.080
-392.092	593.628	-0.053	-0.131
-391.077	-200.000	-0.003	0.076
-390.063	-200.000	0.015	0.136
-389.048	-12.522	-0.250	0.164
-388.033	-200.000	0.007	-0.172
-387.019	-49.554	-0.173	0.083
-386.004	195.193	0.101	0.154
-384.990	-17.881	0.105	0.066
-383.975	-116.569	0.284	-0.053
-382.960	123.658	0.117	0.148
-381.946	1.110	-0.286	0.207
-380.931	177.345	-0.140	0.206
-379.917	-152.845	-0.233	-0.017
-378.902	-34.924	0.276	0.152
-377.888	800.000	-0.061	-0.200
-376.873	-170.979	-0.256	-0.009
-375.858	-74.378	0.091	0.033
-374.844	-125.046	0.063	-0.010
-373.829	475.978	-0.056	0.128
-372.815	-200.000	0.004	0.184
-371.800	87.037	0.168	-0.187
-370.785	-200.000	0.031	-0.211
-369.771	-98.282	0.199	0.052
-368.756	253.418	-0.035	-0.061
-367.742	278.530	0.024	0.043
-366.727	-194.145	-0.195	0.002
-365.712	-51.569	-0.290	0.136
-364.698	-0.343	-0.052	-0.037
-363.683	-200.000	-0.005	-0.361
-362.669	-185.582	0.135	0.002
-361.654	-100.227	-0.107	-0.027
-360.639	-86.048	0.302	0.094
-359.625	140.136	-0.052	0.069
-358.610	79.177	-0.090	0.097
-357.596	-200.000	0.034	-0.250
-356.581	-103.425	0.128	-0.030
-355.566	-161.878	-0.230	0.012
-354.552	-200.000	-0.018	0.348
-353.537	-116.882	0.071	-0.013
-352.523	285.678	0.029	-0.053
-351.508	251.383	0.200	-0.342
-350.493	-166.724	-0.110	0.005
-349.479	-123.337	-0.208	-0.033
-348.464	98.563	0.031	0.036
-347.450	-200.000	0.017	0.084
-346.435	-88.813	-0.173	0.052
-345.420	800.000	0.005	0.016
-344.406	-121.493	-0.303	-0.051
-343.391	-200.000	0.033	-0.359
-342.377	800.000	-0.123	-0.378
-341.362	-200.000	0.030	0.194
-340.348	178.602	-0.016	-0.024
-339.333	-200.000	-0.053	0.310
-338.318	-25.591	0.101	0.060
-337.304	48.894	0.294	0.278
-336.289	111.933	-0.043	0.053
-335.275	2.453	-0.142	-0.104
-334.260	800.000	-0.044	-0.137
-333.245	26.784	-0.175	0.148
-332.231	125.402	-0.141	0.179
-331.216	-200.000	0.012	0.145
-330.202	-107.055	0.243	-0.054
-329.187	800.000	-0.129	-0.439
-328.172	26.889	0.049	0.042
-327.158	-54.411	-0.323	0.147
-326.143	-159.978	-0.090	-0.005
-325.129	-81.746	0.281	0.093
-324.114	-134.470	-0.038	-0.005
-323.099	-41.446	-0.254	0.132
-322.085	10.087	-0.025	-0.019
-321.070	-76.443	-0.246	-0.087
-320.056	411.859	-0.047	-0.101
-319.041	-200.000	-0.028	0.154
-318.026	139.405	0.043	0.057
-317.012	-12.285	0.198	-0.130
-315.997	800.000	-0.088	-0.279
-314.983	-70.071	-0.142	0.054
-313.968	82.505	0.056	0.062
-312.953	-115.080	-0.456	-0.087
-311.939	800.000	-0.208	0.620
-310.924	-14.449	0.204	0.132
-309.910	541.267	-0.090	-0.214
-308.895	-200.000	0.044	-0.206
-307.880	-200.000	-0.053	-0.363
-306.866	-132.159	-0.380	-0.050
-305.851	756.896	-0.058	0.158
-304.837	-200.000	0.023	-0.154
-303.822	-200.000	0.032	-0.224
-302.807	-200.000	-0.010	0.085
-301.793	-200.000	0.019	0.204
-300.778	-139.381	0.480	0.052
-299.764	-26.732	-0.081	-0.047
-298.749	81.455	0.086	-0.094
-297.735	800.000	0.048	-0.151
-296.720	-200.000	-0.009	-0.163
-295.705	126.184	0.264	0.336
-294.691	-200.000	-0.033	-0.279
-293.676	528.985	0.046	0.109
-292.662	-0.159	0.357	0.255
-291.647	170.454	0.153	0.220
-290.632	-200.000	0.053	-0.294
-289.618	-36.431	-0.144	-0.078
-288.603	186.230	0.085	0.127
-287.589	-146.737	-0.238	-0.021
-286.574	-85.487	-0.306	0.096
-285.559	-123.877	0.285	0.045
-284.545	-200.000	-0.054	0.288
-283.530	175.803	-0.094	0.136
-282.516	333.402	0.032	-0.062
-281.501	-46.418	-0.230	0.113
-280.486	-59.477	0.137	0.059
-279.472	-63.947	0.191	-0.079
-278.457	263.956	-0.014	-0.025
-277.443	79.951	0.071	0.077
-276.428	-149.179	0.087	-0.007
-275.413	-0.713	0.185	0.132
-274.399	171.355	0.090	0.130
-273.384	800.000	0.152	0.452
-272.370	41.894	0.185	0.169
-271.355	149.270	-0.209	0.283
-270.340	-161.605	0.242	0.012
-269.326	472.321	-0.083	0.187
-268.311	-153.031	0.147	0.010
-267.297	800.000	-0.077	-0.254
-266.282	-200.000	-0.020	-0.137
-265.267	24.727	-0.193	0.160
-264.253	800.000	-0.077	0.247
-263.238	-85.258	-0.091	-0.029
-262.224	123.525	0.059	-0.074
-261.209	222.827	0.152	0.246
-260.195	800.000	-0.074	-0.253
-259.180	-130.364	-0.350	0.048
-258.165	-92.242	-0.220	-0.062
-257.151	-13.614	0.066	-0.043
-256.136	72.824	-0.147	-0.154
-255.122	81.191	-0.171	0.185
-254.107	800.000	-0.044	-0.164
-253.092	70.036	0.252	0.261
-252.078	1.085	0.034	-0.025
-251.063	334.163	-0.078	-0.151
-250.049	217.875	0.045	0.072
-249.034	800.000	0.093	-0.287
-248.019	-39.074	-0.191	-0.101
-247.005	-200.000	-0.062	-0.284
-245.990	336.085	-0.111	0.216
-244.976	308.717	-0.114	-0.214
-243.961	-141.729	0.203	0.020
-242.946	173.311	0.039	0.056
-241.932	50.761	0.064	0.061
-240.917	202.263	-0.031	-0.048
-239.903	800.000	-0.056	-0.226
-238.888	35.696	-0.160	0.141
-237.873	-100.411	0.047	0.012
-236.859	-12.935	0.152	-0.099
-235.844	-102.286	-0.298	-0.072
-234.830	-61.174	0.102	-0.043
-233.815	-64.229	0.201	0.082
-232.800	-103.649	0.160	-0.038
-231.786	-95.540	0.191	0.051
-230.771	45.172	0.240	0.222
-229.757	-11.219	0.243	0.161
-228.742	-74.106	0.114	-0.041
-227.727	-200.000	0.037	-0.165
-226.713	-186.719	0.075	-0.001
-225.698	94.603	-0.246	-0.280
-224.684	318.586	0.131	-0.249
-223.669	198.640	0.174	0.267
-222.655	-200.000	0.009	0.381
-221.640	151.197	-0.124	0.169
-220.625	-200.000	-0.063	0.317
-219.611	-200.000	0.027	-0.257
-218.596	-200.000	0.012	-0.275
-217.582	61.275	-0.100	-0.100
-216.567	-200.000	-0.019	0.125
-215.552	800.000	-0.134	0.419
-214.538	800.000	-0.035	-0.130
-213.523	46.462	0.165	0.153
-212.509	23.592	0.076	0.063
-211.494	-4.636	-0.219	0.152
-210.479	-118.104	0.304	-0.054
-209.465	-78.846	-0.336	-0.115
-208.450	-142.645	-0.245	0.024
-207.436	77.592	-0.121	0.129
-206.421	-24.694	0.050	0.030
-205.406	405.509	-0.136	-0.288
-204.392	-94.466	-0.101	-0.028
-203.377	800.000	-0.049	0.160
-202.363	67.878	-0.256	0.262
-201.348	34.253	-0.116	0.101
-200.333	11.343	-0.138	-0.106
-199.319	-105.880	-0.153	0.034
-198.304	109.749	-0.192	0.231
-197.290	-190.225	0.243	-0.003
-196.275	-79.595	0.309	0.104
-195.260	-200.000	-0.033	0.253
-194.246	-112.590	-0.269	-0.054
-193.231	-144.911	-0.045	0.004
-192.217	-200.000	0.058	-0.286
-191.202	-152.883	-0.342	-0.024
-190.187	59.286	-0.103	0.102
-189.173	-125.237	0.217	-0.033
-188.158	130.614	0.109	-0.140
-187.144	-166.753	0.255	0.011
-186.129	-200.000	0.025	-0.205
-185.114	4.216	-0.162	0.118
-184.100	-6.223	-0.365	0.249
-183.085	-153.249	0.047	-0.003
-182.071	515.123	-0.086	-0.202
-181.056	17.415	0.331	-0.263
-180.042	92.388	0.088	-0.100
-179.027	-120.129	0.214	0.037
-178.012	-200.000	0.034	-0.149
-176.998	800.000	0.014	-0.056
-175.983	-200.000	-0.011	0.000
-174.969	800.000	0.065	0.207
-173.954	222.348	-0.021	0.034
-172.939	77.756	0.103	-0.110
-171.925	3.230	0.057	-0.042
-170.910	-45.428	-0.261	-0.129
-169.896	800.000	0.070	-0.244
-168.881	-164.570	-0.222	0.010
-167.866	-200.000	-0.007	-0.303
-166.852	-88.658	0.081	0.024
-165.837	555.494	0.080	-0.193
-164.823	-200.000	-0.038	-0.210
-163.808	-44.690	-0.097	0.049
-162.793	-61.479	0.094	-0.040
-161.779	-177.065	-0.278	0.007
-160.764	-200.000	0.011	-0.267
-159.750	800.000	-0.103	-0.307
-158.735	-132.303	0.215	-0.028
-157.720	-200.000	0.001	-0.197
-156.706	-200.000	-0.014	0.159
-155.691	296.712	0.204	0.373
-154.677	-70.406	-0.162	0.061
-153.662	-21.484	0.092	-0.056
-152.647	-200.000	-0.082	0.375
-151.633	800.000	-0.027	-0.099
-150.618	32.555	-0.067	-0.057
-149.604	-126.177	-0.158	0.024
-148.589	343.990	-0.106	0.209
-147.574	800.000	-0.021	-0.059
-146.560	130.456	0.198	-0.254
-145.545	-179.799	0.249	-0.005
-144.531	-60.899	-0.223	-0.094
-143.516	222.560	0.062	-0.099
-142.502	4.631	0.129	-0.095
-141.487	-38.929	-0.169	-0.089
-140.472	-89.203	0.269	-0.079
-139.458	124.579	0.215	0.270
-138.443	499.133	0.064	0.148
-137.429	-91.712	-0.335	0.095
-136.414	-200.000	0.027	-0.128
-135.399	55.053	-0.150	-0.145
-134.385	-134.975	0.182	0.022
-133.370	-93.638	0.284	0.078
-132.356	-168.772	-0.394	0.015
-131.341	236.489	-0.181	0.299
-130.326	127.131	-0.093	0.118
-129.312	-87.915	-0.162	-0.049
-128.297	-62.377	0.099	0.041
-127.283	-94.581	0.231	-0.063
-126.268	-28.716	-0.201	0.116
-125.253	71.661	-0.245	-0.254
-124.239	-87.395	0.067	0.020
-123.224	-154.430	-0.441	0.030
-122.210	308.667	0.111	0.206
