DTS Sentinel unit serial number:	SN413079Multiplexer serial number:	ORYXHardware model number:	OX4-SRSoftware version number:	ORYX F/W v4.00 Oryx Data Collector v3.7.2.0data status	okinstallation	princeton_trtdifferential loss correction	single-endedforward channel	channel 2reverse channel	N/Adate	2019/09/10time	23:53:11forward acquisition time	60.00reverse acquisition time	0.00gamma	496.2192k internal	0.2331k external	0.2331temperature offset calibration	0.9946default loss term (dB/km)	0.3790temperature slope calibration	1.0000multiplexer offset coefficient	1.0000multiplexer slope coefficient	1.0000fibre end	0.00T internal ref (°C)	29.50T ext. ref 1 (°C)	-0.31T ext. ref 2 (°C)	22.99length (m)	temperature (°C)	Stokes	anti-Stokes-747.200	-27.829	0.178	-0.104
-746.185	-200.000	0.001	-0.091
-745.171	800.000	-0.080	-0.281
-744.156	-78.911	-0.229	0.078
-743.142	268.303	-0.075	-0.132
-742.127	98.345	0.192	0.223
-741.112	242.105	0.137	0.230
-740.098	149.509	0.103	0.141
-739.083	311.206	0.242	-0.456
-738.069	-200.000	0.015	-0.074
-737.054	-120.229	0.071	-0.012
-736.039	-200.000	-0.035	0.213
-735.025	-26.956	0.469	0.275
-734.010	201.430	-0.269	-0.417
-732.996	800.000	0.073	-0.247
-731.981	-151.126	-0.260	-0.020
-730.966	-54.804	0.090	-0.041
-729.952	-62.044	-0.217	0.091
-728.937	610.676	-0.030	-0.075
-727.923	40.881	0.196	-0.178
-726.908	157.957	0.166	0.231
-725.894	-200.000	-0.023	-0.224
-724.879	-151.579	0.049	-0.004
-723.864	-108.780	0.148	0.032
-722.850	-7.826	0.083	-0.056
-721.835	-60.386	-0.298	-0.128
-720.821	184.660	-0.139	-0.207
-719.806	-90.849	-0.294	-0.085
-718.791	574.824	-0.071	0.173
-717.777	213.442	-0.181	-0.288
-716.762	800.000	0.099	-0.309
-715.748	-130.185	0.299	-0.041
-714.733	-49.082	-0.153	-0.074
-713.718	-41.856	0.121	0.062
-712.704	312.833	0.031	-0.058
-711.689	-159.473	0.178	-0.010
-710.675	-96.341	0.015	0.004
-709.660	26.418	-0.066	-0.056
-708.645	-200.000	0.037	-0.200
-707.631	-133.197	-0.246	-0.031
-706.616	29.996	-0.015	0.013
-705.602	-105.823	0.116	0.026
-704.587	-200.000	0.033	0.201
-703.572	5.936	-0.215	-0.160
-702.558	448.541	0.093	0.205
-701.543	44.247	0.110	-0.101
-700.529	800.000	-0.045	0.159
-699.514	314.974	0.115	-0.218
-698.499	43.501	-0.170	0.156
-697.485	-200.000	0.031	0.519
-696.470	-1.192	-0.355	0.252
-695.456	-121.217	-0.059	-0.010
-694.441	-30.806	0.038	0.022
-693.426	-76.305	-0.216	0.076
-692.412	-114.114	0.369	-0.072
-691.397	-101.387	-0.152	-0.037
-690.383	-77.895	0.320	0.111
-689.368	-18.053	0.216	0.136
-688.354	-154.185	-0.159	0.011
-687.339	-60.678	-0.180	-0.077
-686.324	24.241	-0.169	0.140
-685.310	96.044	-0.171	0.196
-684.295	103.228	0.226	0.266
-683.281	31.214	-0.289	-0.249
-682.266	-174.819	0.329	0.009
-681.251	20.429	-0.130	0.105
-680.237	-84.949	-0.337	-0.106
-679.222	800.000	-0.032	0.094
-678.208	587.790	0.083	-0.205
-677.193	-6.266	-0.214	0.147
-676.178	350.283	-0.085	0.169
-675.164	-113.484	0.140	0.027
-674.149	152.848	0.106	-0.146
-673.135	-200.000	0.065	0.314
-672.120	300.573	0.025	-0.047
-671.105	-119.036	-0.287	0.050
-670.091	-157.327	-0.346	-0.021
-669.076	209.492	0.163	-0.257
-668.062	-200.000	0.037	-0.165
-667.047	-200.000	-0.016	-0.205
-666.032	-112.703	-0.375	-0.075
-665.018	54.175	0.291	-0.281
-664.003	-21.356	0.248	0.152
-662.989	50.957	0.278	0.264
-661.974	38.039	-0.192	-0.172
-660.959	-200.000	0.342	0.000
-659.945	-200.000	-0.005	-0.468
-658.930	41.384	0.409	-0.371
-657.916	-118.656	-0.179	0.032
-656.901	35.628	-0.134	0.118
-655.886	260.563	-0.185	-0.321
-654.872	67.296	0.304	-0.311
-653.857	800.000	0.064	0.188
-652.843	83.859	0.292	0.320
-651.828	196.162	-0.053	0.081
-650.814	278.077	0.073	-0.131
-649.799	-105.770	0.144	0.033
-648.784	132.256	-0.118	0.152
-647.770	292.160	0.015	0.028
-646.755	-127.814	-0.154	0.022
-645.741	161.608	-0.130	0.182
-644.726	-38.816	0.196	-0.104
-643.711	249.295	0.164	-0.279
-642.697	-37.023	0.061	-0.033
-641.682	-116.285	0.348	0.065
-640.668	-200.000	-0.002	-0.077
-639.653	393.986	-0.040	-0.084
-638.638	74.520	-0.099	-0.104
-637.624	-48.357	-0.145	-0.070
-636.609	-116.096	0.453	0.084
-635.595	82.454	0.174	-0.190
-634.580	-200.000	-0.017	0.094
-633.565	800.000	0.060	-0.181
-632.551	-194.934	0.249	0.002
-631.536	-125.372	-0.091	0.014
-630.522	-43.338	-0.403	0.204
-629.507	110.855	-0.155	-0.188
-628.492	-37.096	-0.195	0.104
-627.478	800.000	-0.063	-0.221
-626.463	-200.000	-0.064	-0.300
-625.449	-200.000	-0.021	0.127
-624.434	-84.969	0.251	0.079
-623.419	125.711	-0.075	-0.095
-622.405	-200.000	-0.030	-0.184
-621.390	-31.980	0.300	-0.168
-620.376	-200.000	0.030	-0.307
-619.361	-23.364	-0.164	0.098
-618.346	-200.000	-0.026	0.218
-617.332	800.000	0.022	-0.076
-616.317	-200.000	0.001	-0.153
-615.303	54.349	-0.127	-0.122
-614.288	-13.766	0.209	0.135
-613.273	-90.269	-0.076	-0.022
-612.259	-130.458	-0.276	0.037
-611.244	-13.310	0.281	-0.183
-610.230	-21.672	0.086	0.052
-609.215	-200.000	-0.031	0.206
-608.201	-95.845	0.090	-0.024
-607.186	85.335	-0.163	-0.179
-606.171	12.044	0.181	-0.139
-605.157	-65.897	-0.300	-0.120
-604.142	-120.084	0.351	0.060
-603.128	-105.717	0.175	-0.040
-602.113	800.000	0.143	0.557
-601.098	-146.935	0.073	-0.006
-600.084	67.865	0.211	-0.216
-599.069	-92.049	0.205	0.058
-598.055	102.239	-0.120	-0.140
-597.040	800.000	-0.080	0.277
-596.025	-58.260	-0.156	0.068
-595.011	65.511	0.231	-0.234
-593.996	12.023	-0.135	0.104
-592.982	-70.963	0.277	0.104
-591.967	658.010	0.037	0.095
-590.952	-125.315	-0.242	-0.037
-589.938	40.955	-0.151	0.136
-588.923	465.238	0.117	0.262
-587.909	-158.895	0.211	0.012
-586.894	-200.000	0.001	-0.252
-585.879	-8.016	-0.194	-0.131
-584.865	389.168	-0.105	0.218
-583.850	211.362	0.123	0.193
-582.836	9.632	-0.085	0.065
-581.821	-87.199	-0.268	-0.081
-580.806	-40.929	-0.313	0.162
-579.792	81.340	-0.095	0.103
-578.777	-111.535	0.147	-0.030
-577.763	-57.349	-0.077	0.034
-576.748	-97.990	-0.198	-0.051
-575.733	62.418	-0.130	-0.129
-574.719	-73.254	0.162	0.059
-573.704	-200.000	0.026	0.296
-572.690	-200.000	-0.013	0.364
-571.675	-119.075	-0.330	-0.058
-570.661	-188.804	0.227	0.003
-569.646	140.345	-0.131	0.173
-568.631	-14.495	-0.395	-0.254
-567.617	18.597	0.082	-0.066
-566.602	800.000	0.112	0.382
-565.588	564.188	-0.063	0.152
-564.573	-124.945	-0.402	-0.062
-563.558	-134.509	0.244	-0.030
-562.544	474.201	-0.087	-0.196
-561.529	261.490	-0.170	0.294
-560.515	-89.632	-0.129	0.038
-559.500	233.568	-0.132	-0.217
-558.485	-87.920	-0.326	0.098
-557.471	66.386	-0.085	-0.087
-556.456	95.412	-0.028	-0.032
-555.442	160.796	0.281	0.392
-554.427	-200.000	0.039	0.170
-553.412	-200.000	-0.037	-0.182
-552.398	52.978	-0.135	0.129
-551.383	97.436	-0.150	-0.172
-550.369	800.000	-0.130	0.396
-549.354	144.511	-0.183	0.244
-548.339	-200.000	0.001	0.193
-547.325	-143.385	-0.201	-0.019
-546.310	-133.435	-0.368	-0.046
-545.296	-200.000	0.000	0.154
-544.281	414.175	-0.071	-0.150
-543.266	650.482	0.084	-0.215
-542.252	1.396	0.247	-0.177
-541.237	-30.261	0.219	-0.124
-540.223	-200.000	-0.016	-0.120
-539.208	100.587	-0.017	-0.019
-538.193	800.000	-0.056	-0.216
-537.179	15.179	-0.233	-0.182
-536.164	42.002	-0.058	-0.052
-535.150	463.899	-0.059	0.131
-534.135	-143.879	0.281	-0.026
-533.121	502.129	0.043	-0.100
-532.106	-5.145	0.200	-0.137
-531.091	54.135	0.279	0.268
-530.077	450.173	0.014	0.031
-529.062	-151.855	0.351	0.026
-528.048	3.747	0.087	0.063
-527.033	-82.896	-0.261	-0.084
-526.018	710.153	-0.116	-0.305
-525.004	-61.962	0.183	-0.077
-523.989	-124.133	-0.287	0.045
-522.975	-71.281	0.113	-0.042
-521.960	-200.000	-0.012	0.053
-520.945	-64.481	0.416	-0.169
-519.931	-56.888	0.061	-0.027
-518.916	64.733	-0.129	0.129
-517.902	278.255	0.102	0.181
-516.887	-14.337	0.328	0.211
-515.872	111.295	0.168	0.202
-514.858	6.996	0.014	0.010
-513.843	-158.759	-0.225	0.013
-512.829	68.614	-0.229	-0.234
-511.814	800.000	-0.101	-0.425
-510.799	573.538	0.118	-0.288
-509.785	519.948	-0.028	-0.067
-508.770	118.137	-0.319	0.392
-507.756	-53.277	0.279	0.128
-506.741	-74.172	-0.154	-0.056
-505.726	-200.000	0.019	-0.094
-504.712	-200.000	-0.058	-0.503
-503.697	20.730	0.051	0.041
-502.683	319.351	-0.031	0.058
-501.668	161.423	-0.208	-0.290
-500.653	47.080	-0.041	-0.038
-499.639	-31.606	-0.156	0.087
-498.624	318.914	0.100	-0.189
-497.610	123.389	-0.045	0.056
-496.595	-166.938	-0.287	-0.012
-495.581	55.228	0.090	-0.086
-494.566	800.000	0.091	-0.294
-493.551	-200.000	-0.006	-0.049
-492.537	125.066	-0.051	0.064
-491.522	10.187	0.056	-0.042
-490.508	-3.196	-0.187	0.130
-489.493	333.954	-0.143	0.275
-488.478	-200.000	0.032	0.148
-487.464	-200.000	0.079	0.497
-486.449	-9.854	-0.318	0.211
-485.435	111.974	0.156	0.188
-484.420	800.000	0.051	-0.173
-483.405	280.900	-0.176	0.314
-482.391	143.170	0.076	0.101
-481.376	-156.433	0.131	0.008
-480.362	252.572	-0.090	-0.153
-479.347	-37.575	-0.208	-0.110
-478.332	-162.069	0.071	0.004
-477.318	69.137	0.223	-0.229
-476.303	-134.510	0.133	0.016
-475.289	52.212	0.056	-0.053
-474.274	140.203	-0.073	-0.096
-473.259	800.000	-0.020	0.066
-472.245	39.253	-0.085	-0.076
-471.230	-96.972	0.461	-0.120
-470.216	-200.000	-0.041	-0.194
-469.201	683.166	0.059	0.152
-468.186	288.724	-0.066	-0.118
-467.172	-200.000	0.003	0.300
-466.157	-119.604	0.163	0.028
-465.143	-22.825	0.152	0.091
-464.128	-111.632	0.067	-0.014
-463.113	24.282	-0.135	0.111
-462.099	29.154	0.197	-0.166
-461.084	159.559	0.110	-0.153
-460.070	-198.456	0.260	0.001
-459.055	87.707	0.093	-0.102
-458.040	287.208	0.020	0.037
-457.026	-200.000	0.026	0.277
-456.011	800.000	0.064	0.178
-454.997	-119.573	0.188	0.032
-453.982	441.145	0.059	0.129
-452.968	475.460	0.055	0.123
-451.953	151.965	-0.032	-0.043
-450.938	265.839	-0.136	0.237
-449.924	247.183	0.053	0.089
-448.909	800.000	-0.008	-0.026
-447.895	92.009	-0.183	0.205
-446.880	-200.000	-0.032	-0.223
-445.865	47.576	-0.038	0.035
-444.851	-7.402	0.160	0.108
-443.836	-90.396	-0.304	0.088
-442.822	-56.650	0.220	-0.097
-441.807	-161.938	0.166	-0.008
-440.792	800.000	0.078	-0.335
-439.778	31.566	-0.110	0.094
-438.763	107.532	-0.034	-0.041
-437.749	-200.000	-0.077	0.377
-436.734	-29.883	-0.062	-0.035
-435.719	110.063	0.068	0.081
-434.705	170.004	-0.170	0.241
-433.690	65.171	-0.223	0.225
-432.676	800.000	-0.088	0.356
-431.661	-53.191	0.047	0.022
-430.646	-96.291	0.212	0.056
-429.632	-39.978	0.181	-0.094
-428.617	46.207	0.067	0.062
-427.603	110.523	-0.199	0.238
-426.588	-200.000	0.006	0.055
-425.573	-182.499	0.113	0.002
-424.559	800.000	0.039	0.124
-423.544	-200.000	0.018	0.172
-422.530	-200.000	-0.006	-0.164
-421.515	-200.000	0.027	0.210
-420.500	44.664	0.133	-0.121
-419.486	64.064	-0.110	-0.110
-418.471	40.729	0.148	0.133
-417.457	101.975	0.181	-0.210
-416.442	800.000	-0.084	-0.243
-415.428	408.701	0.060	-0.126
-414.413	-107.109	0.113	-0.025
-413.398	-24.110	0.111	-0.066
-412.384	102.778	-0.198	0.230
-411.369	-200.000	0.056	-0.268
-410.355	800.000	-0.092	-0.365
-409.340	-100.634	-0.499	-0.122
-408.325	377.394	-0.075	0.152
-407.311	-200.000	0.021	0.228
-406.296	44.186	0.075	-0.068
-405.282	800.000	-0.094	-0.265
-404.267	-24.886	0.203	0.120
-403.252	52.601	-0.281	-0.267
-402.238	-58.471	-0.424	-0.183
-401.223	-12.098	-0.140	-0.091
-400.209	23.391	-0.250	-0.204
-399.194	-200.000	0.007	0.079
-398.179	-63.885	-0.096	-0.039
-397.165	0.610	0.227	-0.161
-396.150	-98.224	0.245	-0.063
-395.136	-200.000	0.039	0.269
-394.121	-83.163	-0.405	0.129
-393.106	-160.519	-0.397	-0.021
-392.092	-122.897	0.169	0.027
-391.077	73.715	-0.220	0.229
-390.063	-200.000	0.045	0.331
-389.048	-20.085	0.396	0.242
-388.033	25.356	-0.220	-0.182
-387.019	-94.006	0.059	0.016
-386.004	23.561	0.274	-0.224
-384.990	121.057	-0.106	0.131
-383.975	255.400	-0.249	-0.424
-382.960	-200.000	0.078	-0.376
-381.946	570.206	-0.046	-0.111
-380.931	-98.467	-0.327	-0.083
-379.917	-149.070	-0.197	0.016
-378.902	444.974	-0.138	0.300
-377.888	800.000	0.040	-0.132
-376.873	-200.000	-0.013	-0.129
-375.858	-200.000	0.074	-0.325
-374.844	407.987	0.097	-0.202
-373.829	520.599	0.122	-0.285
-372.815	800.000	-0.044	0.166
-371.800	-2.386	0.549	-0.382
-370.785	-126.275	0.150	0.022
-369.771	-74.112	-0.297	0.107
-368.756	-200.000	-0.007	0.046
-367.742	-200.000	0.023	0.110
-366.727	472.628	0.040	-0.089
-365.712	-15.059	-0.416	0.264
-364.698	800.000	0.032	-0.091
-363.683	753.608	0.028	0.075
-362.669	-200.000	-0.039	0.284
-361.654	150.967	0.243	-0.328
-360.639	-126.215	-0.101	-0.015
-359.625	121.808	0.060	0.074
-358.610	-77.105	0.498	0.172
-357.596	88.988	0.096	-0.106
-356.581	-151.560	0.079	0.006
-355.566	49.610	0.258	0.241
-354.552	515.224	0.080	0.185
-353.537	523.581	0.092	0.215
-352.523	-110.882	0.306	-0.062
-351.508	169.592	0.123	0.174
-350.493	-200.000	-0.031	0.246
-349.479	-113.563	-0.255	-0.049
-348.464	-200.000	0.000	0.113
-347.450	718.594	-0.110	0.290
-346.435	615.770	-0.089	-0.220
-345.420	-160.684	-0.153	-0.008
-344.406	-200.000	-0.018	-0.400
-343.391	-63.522	0.340	-0.138
-342.377	-98.543	-0.134	0.034
-341.362	783.616	-0.015	-0.041
-340.348	-61.030	0.245	-0.102
-339.333	591.976	-0.043	-0.106
-338.318	-43.554	-0.301	-0.150
-337.304	52.964	0.298	-0.283
-336.289	-150.542	0.425	0.032
-335.275	656.898	0.181	0.461
-334.260	41.009	0.183	0.163
-333.245	-73.785	-0.109	0.039
-332.231	790.297	0.020	-0.055
-331.216	123.111	0.111	0.137
-330.202	42.702	-0.170	-0.153
-329.187	-200.000	-0.005	-0.425
-328.172	-79.588	0.196	-0.065
-327.158	-122.194	-0.259	0.042
-326.143	-168.327	0.117	0.004
-325.129	-200.000	0.032	-0.352
-324.114	75.426	-0.165	-0.172
-323.099	69.071	0.102	-0.104
-322.085	-83.343	-0.172	0.055
-321.070	66.781	0.106	0.107
-320.056	9.031	-0.044	0.033
-319.041	-200.000	-0.019	-0.162
-318.026	6.252	0.136	0.100
-317.012	112.432	0.120	0.144
-315.997	-200.000	-0.020	0.142
-314.983	-52.543	0.160	-0.073
-313.968	494.096	0.051	0.116
-312.953	8.795	0.132	0.098
-311.939	-0.207	0.200	0.141
-310.924	8.992	0.108	0.081
-309.910	-41.440	-0.046	-0.024
-308.895	102.221	-0.131	0.152
-307.880	96.766	0.099	0.112
-306.866	538.106	0.055	0.130
-305.851	-112.057	-0.579	-0.115
-304.837	-42.125	0.203	-0.103
-303.822	-75.858	0.284	-0.100
-302.807	800.000	0.106	0.317
-301.793	220.152	0.075	-0.119
-300.778	-48.240	-0.242	-0.115
-299.764	129.433	0.095	-0.120
-298.749	-42.707	-0.091	-0.046
-297.735	277.900	0.146	0.257
-296.720	496.007	-0.086	0.196
-295.705	215.532	0.122	0.192
-294.691	-150.715	0.212	0.016
-293.676	22.819	0.277	-0.224
-292.662	223.262	-0.098	-0.157
-291.647	-52.787	-0.081	0.037
-290.632	553.290	0.175	-0.416
-289.618	-200.000	0.146	-0.000
-288.603	-78.187	0.232	-0.079
-287.589	-200.000	-0.002	0.064
-286.574	-96.545	-0.063	-0.017
-285.559	5.063	0.132	-0.096
-284.545	-200.000	0.003	0.017
-283.530	-20.041	-0.301	-0.183
-282.516	-200.000	-0.066	-0.371
-281.501	59.929	-0.083	-0.081
-280.486	-102.899	-0.202	-0.047
-279.472	312.930	0.076	-0.142
-278.457	800.000	0.071	-0.213
-277.443	312.074	0.140	0.259
-276.428	-26.926	-0.105	-0.061
-275.413	168.994	-0.108	0.152
-274.399	-200.000	-0.007	-0.111
-273.384	-126.408	0.435	-0.064
-272.370	496.718	0.064	0.145
-271.355	-50.953	0.173	-0.080
-270.340	345.011	0.020	-0.039
-269.326	15.443	-0.196	0.152
-268.311	800.000	-0.144	0.597
-267.297	38.425	0.180	-0.158
-266.282	88.680	-0.040	-0.044
-265.267	44.056	0.083	-0.075
-264.253	-200.000	-0.024	-0.138
-263.238	800.000	0.144	-0.449
-262.224	161.352	-0.034	0.047
-261.209	-200.000	-0.010	-0.131
-260.195	-48.752	-0.196	0.093
-259.180	-61.655	-0.218	-0.090
-258.165	-41.908	-0.095	-0.048
-257.151	530.239	0.044	0.104
-256.136	-200.000	-0.010	0.143
-255.122	800.000	-0.064	0.236
-254.107	-19.068	-0.162	0.100
-253.092	-109.735	0.386	-0.080
-252.078	743.250	0.084	0.222
-251.063	185.536	0.131	0.192
-250.049	-200.000	-0.004	-0.084
-249.034	-57.492	-0.215	-0.093
-248.019	800.000	-0.144	0.415
-247.005	499.222	-0.066	-0.150
-245.990	-200.000	-0.015	0.088
-244.976	-19.188	0.123	0.075
-243.961	49.682	-0.206	0.191
-242.946	-39.118	-0.218	0.113
-241.932	-200.000	-0.023	-0.453
-240.917	-160.226	0.236	0.013
-239.903	115.329	0.099	0.119
-238.888	34.449	-0.250	-0.216
-237.873	-132.742	-0.531	-0.067
-236.859	-200.000	-0.018	0.104
-235.844	-126.526	0.327	-0.048
-234.830	-124.740	0.121	-0.018
-233.815	314.134	0.127	-0.236
-232.800	-200.000	0.092	0.000
-231.786	45.408	-0.097	-0.088
-230.771	256.829	0.096	0.162
-229.757	-200.000	-0.025	0.119
-228.742	482.094	0.071	-0.160
-227.727	-131.995	-0.174	-0.022
-226.713	662.074	0.090	0.229
-225.698	-200.000	0.008	-0.035
-224.684	44.330	-0.055	-0.050
-223.669	-150.748	-0.232	-0.017
-222.655	-110.900	0.131	0.027
-221.640	800.000	-0.045	-0.184
-220.625	-200.000	0.007	-0.042
-219.611	449.549	-0.224	0.487
-218.596	-200.000	0.018	0.115
-217.582	-105.321	0.273	-0.061
-216.567	416.037	0.125	-0.263
-215.552	-140.081	0.278	-0.029
-214.538	800.000	-0.123	-0.387
-213.523	61.184	0.384	-0.376
-212.509	427.799	-0.101	0.216
-211.494	-92.735	0.409	-0.113
-210.479	650.701	-0.110	-0.276
-209.465	-86.266	-0.269	0.082
-208.450	-200.000	-0.030	0.388
-207.436	-72.276	-0.176	0.064
-206.421	5.957	-0.238	-0.174
-205.406	-38.728	0.179	0.093
-204.392	-108.054	0.229	0.049
-203.377	-34.730	-0.204	0.110
-202.363	36.756	-0.153	-0.133
-201.348	-37.183	0.059	-0.031
-200.333	152.801	-0.150	0.202
-199.319	289.544	-0.107	-0.191
-198.304	49.636	-0.198	-0.184
-197.290	426.258	-0.076	0.161
-196.275	-200.000	-0.049	-0.229
-195.260	-200.000	-0.027	-0.238
-194.246	551.329	-0.062	0.146
-193.231	-106.767	-0.149	0.032
-192.217	116.620	-0.195	-0.236
-191.202	-200.000	0.009	0.329
-190.187	75.366	0.141	0.147
-189.173	-37.481	0.153	-0.080
-188.158	-200.000	0.005	0.050
-187.144	-13.544	-0.017	-0.011
-186.129	-200.000	0.063	0.460
-185.114	56.942	-0.244	-0.235
-184.100	-125.430	-0.167	0.025
-183.085	412.675	0.214	0.447
-182.071	36.479	-0.162	0.141
-181.056	800.000	-0.048	0.140
-180.042	-28.556	0.176	0.100
-179.027	122.704	0.178	-0.220
-178.012	-130.919	0.107	0.014
-176.998	24.950	0.031	-0.025
-175.983	406.618	0.084	-0.175
-174.969	145.949	-0.004	-0.006
-173.954	-46.952	0.341	0.164
-172.939	128.459	0.131	0.165
-171.925	-96.177	-0.399	0.104
-170.910	800.000	-0.081	0.225
-169.896	297.871	0.049	-0.089
-168.881	79.465	-0.058	0.062
-167.866	-200.000	-0.032	-0.185
-166.852	-72.882	-0.250	-0.091
-165.837	-152.027	-0.110	-0.008
-164.823	48.745	0.098	-0.090
-163.808	-200.000	-0.036	-0.348
-162.793	-29.740	0.208	0.117
-161.779	-133.148	-0.148	-0.018
-160.764	-26.568	-0.090	-0.052
-159.750	800.000	-0.123	-0.427
-158.735	-200.000	-0.023	0.353
-157.720	250.385	-0.081	0.135
-156.706	800.000	0.109	0.335
-155.691	-143.983	-0.189	0.018
-154.677	10.094	-0.251	-0.188
-153.662	244.292	0.069	0.114
-152.647	-200.000	0.022	-0.214
-151.633	-167.266	-0.239	0.009
-150.618	483.822	-0.102	0.229
-149.604	-54.446	0.311	0.139
-148.589	20.160	-0.120	0.095
-147.574	800.000	-0.058	0.238
-146.560	34.814	0.197	-0.170
-145.545	12.441	0.307	0.233
-144.531	-200.000	-0.002	0.090
-143.516	800.000	0.067	0.266
-142.502	-33.085	0.073	-0.040
-141.487	-200.000	-0.012	0.179
-140.472	135.417	0.003	0.004
-139.458	-156.598	0.322	-0.020
-138.443	800.000	0.077	-0.284
-137.429	94.696	0.118	-0.132
-136.414	172.144	0.154	0.218
-135.399	191.001	0.097	-0.143
-134.385	212.688	0.098	0.152
-133.370	128.623	0.143	-0.179
-132.356	78.690	-0.239	0.251
-131.341	-115.880	0.015	0.003
-130.326	-147.928	-0.400	0.033
-129.312	-6.558	0.163	-0.109
-128.297	-178.636	-0.311	-0.007
-127.283	428.022	0.128	0.271
-126.268	-75.343	-0.102	0.036
-125.253	468.937	0.102	-0.226
-124.239	800.000	-0.029	-0.104
-123.224	-200.000	0.019	0.086
-122.210	-15.059	-0.214	0.135
-121.195	182.780	0.080	0.116
