DTS Sentinel unit serial number:	SN413079Multiplexer serial number:	ORYXHardware model number:	OX4-SRSoftware version number:	ORYX F/W v4.00 Oryx Data Collector v3.7.2.0data status	okinstallation	princeton_trtdifferential loss correction	single-endedforward channel	channel 2reverse channel	N/Adate	2019/09/15time	14:19:35forward acquisition time	60.00reverse acquisition time	0.00gamma	496.2192k internal	0.2300k external	0.2300temperature offset calibration	0.9993default loss term (dB/km)	0.3790temperature slope calibration	1.0000multiplexer offset coefficient	1.0000multiplexer slope coefficient	1.0000fibre end	0.00T internal ref (°C)	39.06T ext. ref 1 (°C)	4.95T ext. ref 2 (°C)	36.03length (m)	temperature (°C)	Stokes	anti-Stokes-747.200	90.630	0.156	0.179
-746.185	428.721	-0.111	0.245
-745.171	24.357	0.213	0.179
-744.156	-200.000	0.005	0.154
-743.142	-101.020	-0.198	0.050
-742.127	178.637	0.288	0.430
-741.112	-200.000	-0.057	0.376
-740.098	161.550	0.035	0.049
-739.083	800.000	-0.169	-0.524
-738.069	-144.869	0.273	0.026
-737.054	-117.088	-0.220	0.041
-736.039	624.052	-0.015	-0.038
-735.025	120.446	0.202	0.256
-734.010	-74.660	-0.030	0.011
-732.996	-88.694	0.256	-0.078
-731.981	-9.013	0.259	-0.177
-730.966	205.219	-0.168	-0.266
-729.952	-162.622	-0.047	0.002
-728.937	-65.297	-0.290	0.119
-727.923	-25.368	-0.227	0.137
-726.908	-200.000	-0.043	-0.440
-725.894	-30.978	0.086	-0.049
-724.879	90.662	-0.197	-0.225
-723.864	-32.415	-0.226	0.128
-722.850	6.164	-0.060	0.046
-721.835	154.025	0.257	0.359
-720.821	416.839	-0.120	-0.261
-719.806	-200.000	-0.005	0.123
-718.791	49.021	-0.254	-0.243
-717.777	-200.000	-0.002	0.212
-716.762	110.349	-0.103	0.126
-715.748	159.999	-0.148	-0.210
-714.733	-200.000	0.093	-0.524
-713.718	13.507	0.023	-0.018
-712.704	-200.000	0.000	0.170
-711.689	66.908	0.136	0.141
-710.675	-200.000	-0.000	-0.264
-709.660	-200.000	0.219	0.001
-708.645	-139.811	-0.134	-0.014
-707.631	-75.231	0.095	-0.035
-706.616	-5.142	-0.184	-0.129
-705.602	800.000	0.014	0.059
-704.587	123.446	-0.131	-0.167
-703.572	117.711	-0.069	-0.086
-702.558	-102.368	0.014	0.003
-701.543	-200.000	-0.033	-0.168
-700.529	202.881	0.145	0.228
-699.514	745.190	-0.122	0.335
-698.499	55.068	-0.132	0.130
-697.485	-200.000	-0.011	-0.318
-696.470	282.828	0.119	0.218
-695.456	-72.884	-0.212	0.080
-694.441	442.089	0.119	0.264
-693.426	285.923	-0.119	-0.219
-692.412	-87.582	0.275	0.085
-691.397	-200.000	0.006	0.046
-690.383	177.178	0.080	-0.118
-689.368	-88.845	0.069	-0.021
-688.354	-200.000	-0.061	-0.311
-687.339	97.422	0.142	-0.166
-686.324	219.907	-0.057	0.092
-685.310	-200.000	0.021	-0.148
-684.295	-112.868	0.108	0.022
-683.281	95.833	0.080	-0.093
-682.266	-131.920	0.211	-0.028
-681.251	-200.000	-0.003	0.017
-680.237	-56.358	0.274	0.124
-679.222	-189.186	0.417	0.005
-678.208	-200.000	-0.023	0.142
-677.193	-65.067	-0.353	0.145
-676.178	800.000	-0.055	0.202
-675.164	-101.732	0.178	-0.044
-674.149	-67.226	0.202	-0.081
-673.135	-109.451	-0.228	-0.049
-672.120	-200.000	0.014	0.430
-671.105	501.747	0.021	-0.050
-670.091	-153.577	-0.056	0.004
-669.076	145.755	0.120	0.163
-668.062	52.073	-0.232	-0.225
-667.047	-200.000	0.036	0.165
-666.032	-28.788	0.114	-0.066
-665.018	-38.291	0.053	-0.028
-664.003	536.282	-0.018	-0.044
-662.989	-61.709	-0.217	0.092
-661.974	-143.511	0.126	-0.012
-660.959	-19.275	0.185	0.117
-659.945	-67.154	-0.145	-0.058
-658.930	-130.805	0.100	-0.014
-657.916	7.638	-0.117	-0.089
-656.901	68.472	-0.034	0.035
-655.886	170.964	0.048	0.070
-654.872	-200.000	0.043	-0.265
-653.857	236.930	0.147	-0.248
-652.843	8.368	-0.283	0.216
-651.828	-185.086	-0.238	0.004
-650.814	112.340	-0.079	-0.097
-649.799	-61.365	-0.238	-0.102
-648.784	652.897	-0.030	-0.079
-647.770	35.434	-0.236	0.211
-646.755	-73.985	-0.102	-0.038
-645.741	-200.000	0.009	-0.163
-644.726	-5.998	0.149	-0.103
-643.711	-200.000	0.044	-0.479
-642.697	522.238	-0.041	-0.097
-641.682	-200.000	-0.048	0.230
-640.668	686.543	0.052	-0.138
-639.653	-30.576	-0.317	-0.183
-638.638	53.286	0.132	0.129
-637.624	-41.619	0.299	-0.156
-636.609	800.000	0.021	-0.087
-635.595	42.408	-0.343	0.317
-634.580	-70.778	-0.082	0.031
-633.565	51.133	0.088	0.085
-632.551	67.403	0.298	-0.309
-631.536	-200.000	-0.005	-0.043
-630.522	-77.195	0.249	0.088
-629.507	92.407	0.081	-0.093
-628.492	56.558	0.350	-0.346
-627.478	-120.414	-0.143	0.025
-626.463	-81.701	0.141	-0.047
-625.449	800.000	0.067	0.276
-624.434	-61.009	0.109	0.047
-623.419	39.169	-0.329	0.299
-622.405	-116.486	-0.338	-0.063
-621.390	586.760	0.103	-0.258
-620.376	-200.000	0.017	0.130
-619.361	-85.963	-0.164	-0.052
-618.346	-34.453	-0.038	0.021
-617.332	-71.020	-0.205	-0.078
-616.317	-47.131	-0.110	-0.054
-615.303	-200.000	0.029	0.292
-614.288	-99.309	0.289	-0.074
-613.273	-162.808	-0.151	0.007
-612.259	-200.000	0.032	0.176
-611.244	237.415	-0.145	-0.244
-610.230	297.633	-0.086	-0.160
-609.215	-108.983	-0.444	0.096
-608.201	-125.825	-0.435	-0.067
-607.186	303.915	0.248	-0.466
-606.171	348.782	-0.169	0.338
-605.157	13.139	0.173	-0.136
-604.142	-200.000	0.042	-0.434
-603.128	3.623	-0.088	-0.065
-602.113	-1.345	-0.216	-0.155
-601.098	0.506	0.139	0.101
-600.084	71.549	-0.143	-0.151
-599.069	-200.000	-0.074	-0.522
-598.055	13.338	-0.111	-0.088
-597.040	-47.854	-0.335	-0.165
-596.025	-200.000	0.046	0.235
-595.011	-169.197	-0.512	-0.019
-593.996	800.000	-0.043	0.155
-592.982	-200.000	0.003	0.188
-591.967	-200.000	0.004	0.113
-590.952	566.066	0.064	0.158
-589.938	-35.345	0.309	0.171
-588.923	800.000	0.028	-0.113
-587.909	93.752	0.165	0.189
-586.894	136.259	-0.087	0.116
-585.879	800.000	0.031	0.131
-584.865	-2.775	0.140	-0.099
-583.850	-200.000	0.004	-0.101
-582.836	-200.000	0.013	-0.168
-581.821	18.676	-0.274	0.222
-580.806	800.000	-0.070	0.259
-579.792	-200.000	-0.027	0.138
-578.777	3.735	0.181	-0.134
-577.763	-73.389	-0.341	-0.126
-576.748	-16.458	-0.341	0.219
-575.733	368.175	0.079	0.162
-574.719	127.884	0.121	-0.156
-573.704	224.645	0.064	0.104
-572.690	800.000	0.026	-0.105
-571.675	-98.311	-0.216	0.056
-570.661	-200.000	-0.005	0.166
-569.646	-61.814	0.235	0.100
-568.631	-49.579	-0.122	0.059
-567.617	3.955	0.106	-0.078
-566.602	-200.000	-0.005	0.336
-565.588	605.611	-0.107	0.269
-564.573	661.661	-0.042	-0.108
-563.558	-200.000	-0.041	0.234
-562.544	800.000	0.030	0.116
-561.529	-200.000	0.010	0.164
-560.515	-200.000	0.024	-0.127
-559.500	-200.000	0.006	-0.336
-558.485	-31.781	0.297	-0.169
-557.471	-200.000	0.025	0.466
-556.456	113.662	0.136	-0.168
-555.442	-200.000	0.020	0.161
-554.427	-111.248	-0.172	0.036
-553.412	-145.475	0.212	-0.019
-552.398	29.302	0.328	-0.282
-551.383	800.000	-0.086	0.269
-550.369	-63.293	-0.086	-0.036
-549.354	511.734	-0.031	0.074
-548.339	-102.006	-0.166	0.041
-547.325	44.740	-0.124	-0.115
-546.310	800.000	0.037	-0.129
-545.296	78.976	-0.178	-0.193
-544.281	7.740	0.216	-0.163
-543.266	310.482	-0.131	-0.249
-542.252	-118.300	0.229	-0.041
-541.237	-81.623	-0.174	-0.058
-540.223	311.741	-0.126	-0.239
-539.208	-55.115	-0.300	0.137
-538.193	73.572	0.068	-0.072
-537.179	195.196	0.258	-0.396
-536.164	2.416	0.150	-0.110
-535.150	-69.021	-0.021	0.008
-534.135	218.570	-0.099	-0.161
-533.121	30.835	0.296	0.257
-532.106	52.909	-0.135	-0.130
-531.091	-154.547	-0.213	0.014
-530.077	-85.380	0.242	-0.076
-529.062	-105.003	-0.321	-0.074
-528.048	137.802	0.125	-0.166
-527.033	800.000	-0.012	-0.047
-526.018	-40.832	0.374	0.196
-525.004	-200.000	0.009	0.179
-523.989	329.975	-0.222	0.433
-522.975	-97.953	0.406	0.106
-521.960	-145.986	-0.259	-0.023
-520.945	-200.000	0.004	-0.279
-519.931	800.000	0.051	-0.156
-518.916	-200.000	0.041	0.195
-517.902	129.574	-0.127	-0.164
-516.887	-154.251	0.209	-0.014
-515.872	191.125	0.064	0.098
-514.858	284.651	-0.021	0.039
-513.843	-99.157	-0.259	0.066
-512.829	800.000	0.037	0.118
-511.814	-164.437	0.034	0.002
-510.799	42.949	-0.107	-0.098
-509.785	-126.742	-0.186	0.028
-508.770	800.000	-0.027	-0.094
-507.756	-200.000	-0.008	0.231
-506.741	-159.195	-0.240	-0.014
-505.726	-114.242	0.361	-0.070
-504.712	-200.000	0.001	0.094
-503.697	800.000	-0.064	0.225
-502.683	-2.276	0.244	-0.173
-501.668	800.000	-0.080	-0.314
-500.653	246.854	0.112	-0.191
-499.639	455.642	0.163	0.364
-498.624	-130.354	-0.163	0.022
-497.610	-200.000	-0.033	-0.209
-496.595	-48.045	-0.137	0.067
-495.581	-68.135	-0.273	-0.107
-494.566	114.163	0.145	0.178
-493.551	800.000	-0.072	0.272
-492.537	32.056	-0.020	-0.017
-491.522	14.510	0.099	-0.078
-490.508	-51.973	-0.237	-0.111
-489.493	-110.965	0.169	0.035
-488.478	800.000	-0.087	-0.269
-487.464	-9.398	-0.232	-0.156
-486.449	60.624	-0.144	0.144
-485.435	710.704	-0.069	0.185
-484.420	-200.000	-0.046	0.416
-483.405	-184.470	0.068	0.001
-482.391	287.448	-0.182	-0.332
-481.376	-92.961	0.202	0.057
-480.362	-70.545	0.043	-0.016
-479.347	-166.607	0.260	0.011
-478.332	-155.602	0.160	0.010
-477.318	180.087	-0.058	-0.085
-476.303	22.380	-0.248	0.205
-475.289	-200.000	0.033	-0.384
-474.274	-73.082	-0.161	-0.060
-473.259	-127.345	-0.242	0.036
-472.245	-89.633	-0.205	0.061
-471.230	-200.000	-0.040	-0.264
-470.216	-152.033	0.127	0.009
-469.201	511.465	0.115	-0.271
-468.186	-200.000	-0.039	-0.413
-467.172	-75.744	0.381	-0.137
-466.157	-200.000	0.012	0.171
-465.143	-34.671	0.278	-0.154
-464.128	582.212	-0.116	-0.287
-463.113	-200.000	0.059	0.281
-462.099	547.314	0.049	-0.117
-461.084	177.425	0.121	0.178
-460.070	108.953	0.189	-0.228
-459.055	58.056	-0.166	0.164
-458.040	-200.000	0.031	0.189
-457.026	419.620	0.089	-0.191
-456.011	-32.358	0.244	-0.137
-454.997	485.251	0.086	-0.197
-453.982	79.792	-0.154	-0.167
-452.968	-42.252	-0.132	-0.068
-451.953	215.832	0.169	-0.271
-450.938	40.926	-0.103	0.094
-449.924	555.604	-0.084	0.203
-448.909	-70.778	0.102	0.039
-447.895	-200.000	-0.034	-0.224
-446.880	45.421	-0.219	-0.204
-445.865	-45.959	-0.093	-0.046
-444.851	46.088	-0.054	0.051
-443.836	-30.151	-0.271	0.155
-442.822	12.285	0.199	0.155
-441.807	-161.933	-0.213	-0.011
-440.792	119.253	0.092	0.115
-439.778	-200.000	0.005	0.258
-438.763	-84.571	0.278	-0.088
-437.749	371.073	-0.171	-0.350
-436.734	101.677	0.130	-0.153
-435.719	-123.138	0.163	-0.026
-434.705	-114.233	-0.316	0.061
-433.690	800.000	0.026	-0.080
-432.676	-200.000	-0.031	-0.247
-431.661	-5.026	0.131	0.091
-430.646	-200.000	-0.057	0.357
-429.632	134.525	-0.047	0.061
-428.617	167.923	0.088	0.127
-427.603	-200.000	0.008	0.117
-426.588	4.549	-0.285	0.211
-425.573	800.000	-0.138	-0.393
-424.559	102.702	0.078	0.092
-423.544	33.855	-0.162	-0.142
-422.530	76.217	0.259	-0.277
-421.515	-5.772	-0.156	-0.107
-420.500	800.000	0.024	0.099
-419.486	-200.000	-0.001	0.125
-418.471	265.382	0.052	0.092
-417.457	240.488	-0.111	0.187
-416.442	-115.579	0.323	0.061
-415.428	68.088	-0.041	0.043
-414.413	85.514	-0.141	-0.156
-413.398	-89.283	0.275	-0.082
-412.384	-32.501	-0.083	-0.046
-411.369	-31.933	-0.128	-0.072
-410.355	113.364	0.230	0.281
-409.340	585.400	0.108	0.266
-408.325	31.254	-0.139	-0.120
-407.311	13.284	-0.113	-0.088
-406.296	294.333	-0.071	-0.130
-405.282	252.885	-0.062	0.107
-404.267	-148.071	-0.163	0.014
-403.252	-46.785	-0.245	0.120
-402.238	-200.000	0.007	-0.069
-401.223	209.511	0.085	-0.135
-400.209	-104.055	0.243	0.057
-399.194	235.283	-0.142	0.237
-398.179	-161.184	0.299	-0.016
-397.165	-200.000	-0.010	0.075
-396.150	-118.935	0.131	0.023
-395.136	-147.252	0.145	0.012
-394.121	-72.088	-0.378	0.141
-393.106	-36.073	-0.103	0.056
-392.092	-146.142	-0.157	0.014
-391.077	455.929	0.190	0.423
-390.063	-126.803	-0.291	0.043
-389.048	-200.000	0.009	0.160
-388.033	51.872	0.044	0.043
-387.019	-115.900	0.299	-0.056
-386.004	231.587	-0.086	-0.142
-384.990	-158.378	-0.125	-0.007
-383.975	791.812	0.029	-0.080
-382.960	96.540	0.036	-0.041
-381.946	93.869	-0.090	0.102
-380.931	-200.000	0.025	0.388
-379.917	169.411	-0.032	-0.046
-378.902	-131.408	-0.239	0.032
-377.888	-43.004	-0.221	-0.113
-376.873	44.140	-0.255	-0.235
-375.858	-63.457	-0.073	0.030
-374.844	-104.065	-0.129	-0.030
-373.829	-200.000	0.041	-0.194
-372.815	-200.000	0.014	0.122
-371.800	200.217	-0.165	0.255
-370.785	248.460	-0.050	-0.085
-369.771	-200.000	0.070	0.359
-368.756	-14.623	0.306	-0.198
-367.742	-132.894	-0.389	0.050
-366.727	-200.000	0.029	-0.278
-365.712	537.432	0.155	0.369
-364.698	-49.329	0.101	-0.048
-363.683	53.712	0.126	-0.121
-362.669	-0.591	-0.286	0.204
-361.654	-35.687	-0.225	-0.123
-360.639	800.000	-0.050	-0.155
-359.625	60.962	-0.278	0.277
-358.610	305.814	0.135	0.252
-357.596	321.915	-0.090	-0.172
-356.581	800.000	0.069	-0.246
-355.566	-38.321	-0.520	0.277
-354.552	85.430	0.180	-0.199
-353.537	42.577	0.060	-0.055
-352.523	-200.000	-0.227	-0.001
-351.508	-156.573	0.137	-0.009
-350.493	-19.117	0.091	0.057
-349.479	-72.798	0.063	0.023
-348.464	-80.536	-0.087	0.029
-347.450	-9.704	0.361	-0.242
-346.435	-71.304	-0.170	0.064
-345.420	-80.140	0.069	-0.023
-344.406	-30.683	0.327	0.186
-343.391	141.119	-0.087	0.116
-342.377	-200.000	0.045	0.288
-341.362	492.041	0.102	0.234
-340.348	800.000	0.055	0.166
-339.333	-103.970	0.228	0.053
-338.318	169.526	-0.059	-0.084
-337.304	800.000	0.079	0.240
-336.289	67.542	0.067	0.069
-335.275	147.806	-0.059	0.080
-334.260	-200.000	0.007	0.037
-333.245	45.467	-0.013	0.012
-332.231	800.000	0.012	-0.047
-331.216	-200.000	-0.024	0.110
-330.202	-62.475	-0.033	-0.014
-329.187	337.496	0.030	-0.058
-328.172	398.188	-0.153	-0.322
-327.158	-184.766	0.190	-0.003
-326.143	-114.288	-0.244	0.047
-325.129	123.099	-0.021	-0.026
-324.114	71.162	0.214	0.222
-323.099	-154.786	0.175	0.012
-322.085	134.551	-0.176	-0.230
-321.070	-200.000	0.015	0.138
-320.056	-94.738	-0.178	0.049
-319.041	-77.167	0.083	0.029
-318.026	47.790	0.158	0.148
-317.012	-163.130	-0.219	0.011
-315.997	375.147	-0.077	-0.158
-314.983	-164.182	0.111	0.005
-313.968	37.477	-0.034	0.030
-312.953	800.000	0.029	0.114
-311.939	-95.524	-0.107	-0.029
-310.924	253.964	-0.092	0.157
-309.910	-200.000	0.000	0.213
-308.895	-111.917	0.112	0.023
-307.880	-18.074	0.395	0.248
-306.866	77.923	0.117	0.125
-305.851	80.353	-0.270	-0.291
-304.837	71.579	0.148	0.154
-303.822	93.671	-0.164	0.187
-302.807	-67.480	-0.474	0.186
-301.793	-200.000	0.027	0.502
-300.778	800.000	-0.090	-0.307
-299.764	-17.988	-0.221	-0.139
-298.749	-72.148	0.270	-0.101
-297.735	79.756	-0.038	-0.041
-296.720	100.584	0.369	0.429
-295.705	76.461	-0.242	0.257
-294.691	34.575	0.241	0.211
-293.676	31.903	0.151	0.130
-292.662	-90.008	0.138	-0.040
-291.647	204.220	-0.107	0.167
-290.632	287.553	-0.012	-0.022
-289.618	-200.000	-0.060	0.305
-288.603	-23.353	-0.253	0.152
-287.589	309.601	0.125	-0.234
-286.574	22.564	-0.312	0.256
-285.559	800.000	-0.045	-0.127
-284.545	800.000	-0.025	-0.104
-283.530	436.291	-0.042	0.091
-282.516	-200.000	-0.004	0.061
-281.501	-33.370	0.432	0.239
-280.486	56.954	0.179	0.175
-279.472	-22.081	0.148	0.090
-278.457	-6.904	-0.055	0.038
-277.443	800.000	0.106	-0.362
-276.428	-89.322	-0.408	0.121
-275.413	-200.000	0.017	-0.079
-274.399	-200.000	-0.003	0.448
-273.384	800.000	-0.065	0.234
-272.370	-90.980	0.261	-0.075
-271.355	-200.000	-0.018	0.231
-270.340	-200.000	0.043	0.272
-269.326	-59.517	0.274	-0.118
-268.311	-200.000	-0.030	0.159
-267.297	615.897	0.181	-0.454
-266.282	489.730	0.164	-0.376
-265.267	-160.155	-0.167	0.009
-264.253	-6.902	-0.115	-0.078
-263.238	20.504	-0.116	0.094
-262.224	-118.223	-0.104	0.019
-261.209	800.000	0.135	-0.377
-260.195	-200.000	0.392	0.001
-259.180	800.000	-0.102	-0.303
-258.165	86.669	-0.346	-0.383
-257.151	-200.000	-0.028	-0.165
-256.136	-51.985	-0.255	-0.119
-255.122	-200.000	0.031	-0.438
-254.107	484.090	0.160	0.364
-253.092	-80.326	-0.342	-0.114
-252.078	516.910	0.097	-0.226
-251.063	108.029	0.039	-0.046
-250.049	3.676	-0.255	0.186
-249.034	-52.274	-0.221	-0.103
-248.019	128.419	-0.164	-0.209
-247.005	-100.635	-0.374	0.092
-245.990	-2.811	0.218	0.153
-244.976	-138.000	-0.039	-0.004
-243.961	-104.451	0.245	-0.057
-242.946	-87.613	-0.362	-0.110
-241.932	-200.000	0.027	0.224
-240.917	-56.325	0.277	0.123
-239.903	800.000	0.034	0.105
-238.888	31.222	-0.041	0.035
-237.873	-19.729	0.121	-0.075
-236.859	-138.876	-0.065	-0.007
-235.844	-200.000	0.024	0.271
-234.830	467.149	-0.068	0.153
-233.815	-119.077	-0.260	0.045
-232.800	-11.797	0.544	0.357
-231.786	-64.889	0.129	0.052
-230.771	-125.057	-0.188	0.029
-229.757	272.075	0.079	-0.139
-228.742	298.598	0.094	0.173
-227.727	800.000	-0.022	0.076
-226.713	-156.000	-0.096	0.006
-225.698	-200.000	0.001	-0.023
-224.684	-85.702	0.184	0.057
-223.669	13.427	-0.008	-0.006
-222.655	-41.677	0.286	-0.147
-221.640	59.906	0.260	-0.257
-220.625	244.155	0.056	0.094
-219.611	800.000	-0.055	0.213
-218.596	46.675	0.026	-0.024
-217.582	800.000	0.091	-0.265
-216.567	-200.000	-0.025	-0.365
-215.552	-200.000	-0.038	-0.247
-214.538	223.890	0.216	0.349
-213.523	-200.000	0.039	0.265
-212.509	-11.043	-0.138	-0.091
-211.494	-107.220	-0.083	-0.018
-210.479	-66.772	0.239	0.095
-209.465	-1.090	0.317	-0.224
-208.450	-0.280	0.510	-0.362
-207.436	111.338	0.175	0.211
-206.421	-28.685	0.283	-0.162
-205.406	-79.597	-0.272	0.092
-204.392	205.838	-0.162	0.251
-203.377	-200.000	-0.015	-0.071
-202.363	10.427	0.144	0.110
-201.348	800.000	-0.075	0.279
-200.333	-149.035	0.111	-0.009
-199.319	711.127	-0.105	-0.277
-198.304	34.201	0.212	0.184
-197.290	-27.636	-0.154	-0.089
-196.275	-200.000	0.060	-0.263
-195.260	800.000	0.086	-0.274
-194.246	589.161	0.094	-0.231
-193.231	140.571	0.033	-0.044
-192.217	-109.625	0.413	-0.087
-191.202	-66.661	-0.074	-0.029
-190.187	57.214	-0.122	-0.119
-189.173	-154.862	0.224	0.015
-188.158	76.733	-0.253	0.268
-187.144	-138.875	0.148	-0.016
-186.129	-12.104	0.430	-0.281
-185.114	-200.000	0.025	-0.143
-184.100	141.639	-0.137	-0.181
-183.085	-107.608	0.153	0.033
-182.071	381.162	0.070	0.143
-181.056	316.412	-0.040	-0.075
-180.042	-3.045	0.249	0.173
-179.027	-8.375	0.102	0.069
-178.012	270.312	-0.051	0.090
-176.998	408.766	-0.046	-0.098
-175.983	-153.247	0.334	-0.023
-174.969	379.600	-0.161	0.330
-173.954	460.540	-0.226	-0.502
-172.939	-200.000	0.032	-0.204
-171.925	86.281	-0.010	0.011
-170.910	349.638	-0.091	-0.179
-169.896	-200.000	-0.009	-0.247
-168.881	-200.000	-0.066	-0.381
-167.866	-200.000	0.050	-0.320
-166.852	-89.813	0.226	-0.066
-165.837	-200.000	-0.009	0.243
-164.823	-47.401	0.280	0.136
-163.808	800.000	-0.066	-0.283
-162.793	-55.832	-0.125	-0.056
-161.779	2.633	-0.138	0.100
-160.764	135.641	-0.046	-0.059
-159.750	800.000	0.032	0.114
-158.735	-125.413	0.200	-0.030
-157.720	-20.844	-0.021	-0.013
-156.706	-200.000	0.002	0.276
-155.691	-47.965	0.078	-0.037
-154.677	10.477	0.085	-0.065
-153.662	168.391	0.203	0.288
-152.647	-200.000	0.045	-0.312
-151.633	595.382	0.178	0.439
-150.618	408.062	-0.112	0.237
-149.604	-40.916	0.270	-0.139
-148.589	8.318	-0.139	-0.104
-147.574	-125.783	0.247	0.037
-146.560	-200.000	0.002	-0.085
-145.545	98.228	-0.292	-0.335
-144.531	348.308	0.037	-0.073
-143.516	73.955	0.195	0.203
-142.502	72.097	0.181	0.187
-141.487	-17.658	-0.232	-0.145
-140.472	2.261	0.069	-0.050
-139.458	125.824	0.052	-0.066
-138.443	320.895	0.058	0.110
-137.429	331.811	0.177	0.341
-136.414	197.314	-0.240	0.365
-135.399	88.673	-0.088	0.097
-134.385	800.000	0.054	0.156
-133.370	-62.481	-0.130	0.054
-132.356	11.215	0.227	0.173
-131.341	-56.964	0.082	-0.036
-130.326	-200.000	-0.043	-0.203
-129.312	598.735	0.062	0.153
-128.297	800.000	-0.013	-0.040
-127.283	-200.000	0.035	-0.153
-126.268	183.296	0.127	0.187
-125.253	153.779	0.175	-0.239
-124.239	-13.501	0.083	0.054
-123.224	-32.600	0.234	-0.130
-122.210	273.064	-0.197	0.346
-121.195	-134.512	-0.079	-0.010
-120.180	-140.412	0.039	-0.004
