DTS Sentinel unit serial number:	SN413079Multiplexer serial number:	ORYXHardware model number:	OX4-SRSoftware version number:	ORYX F/W v4.00 Oryx Data Collector v3.7.2.0data status	okinstallation	princeton_trtdifferential loss correction	single-endedforward channel	channel 2reverse channel	N/Adate	2019/09/16time	15:59:35forward acquisition time	60.00reverse acquisition time	0.00gamma	496.2192k internal	0.2299k external	0.2299temperature offset calibration	0.9944default loss term (dB/km)	0.3790temperature slope calibration	1.0000multiplexer offset coefficient	1.0000multiplexer slope coefficient	1.0000fibre end	0.00T internal ref (°C)	41.00T ext. ref 1 (°C)	14.88T ext. ref 2 (°C)	35.42length (m)	temperature (°C)	Stokes	anti-Stokes-747.200	128.658	0.088	-0.114
-746.185	-200.000	0.027	0.272
-745.171	-200.000	-0.006	-0.126
-744.156	-83.206	0.231	0.076
-743.142	-54.514	-0.218	0.101
-742.127	-200.000	-0.008	0.238
-741.112	42.221	0.220	-0.204
-740.098	195.590	-0.059	0.092
-739.083	-111.833	-0.247	0.051
-738.069	800.000	0.063	0.255
-737.054	555.228	0.059	-0.145
-736.039	-42.650	-0.072	0.037
-735.025	-183.952	-0.200	0.003
-734.010	49.261	-0.168	-0.161
-732.996	615.063	-0.070	-0.179
-731.981	-64.817	0.198	0.082
-730.966	144.958	0.147	0.201
-729.952	349.034	0.055	-0.111
-728.937	-85.390	-0.402	-0.128
-727.923	90.729	-0.343	-0.392
-726.908	122.666	-0.277	-0.353
-725.894	-81.417	0.098	0.033
-724.879	211.296	-0.063	-0.102
-723.864	-186.238	-0.248	-0.004
-722.850	236.476	-0.165	-0.279
-721.835	53.726	0.054	0.053
-720.821	-200.000	0.001	0.062
-719.806	-118.463	-0.101	0.018
-718.791	-200.000	-0.002	0.129
-717.777	-2.660	-0.168	-0.120
-716.762	-200.000	-0.071	0.395
-715.748	-200.000	-0.038	-0.407
-714.733	-200.000	0.025	-0.161
-713.718	63.116	-0.136	0.139
-712.704	766.890	0.070	-0.193
-711.689	-121.177	0.257	-0.044
-710.675	39.818	0.185	-0.170
-709.660	49.149	0.071	-0.068
-708.645	-43.177	0.172	-0.089
-707.631	719.853	0.037	-0.100
-706.616	-74.016	-0.193	-0.071
-705.602	-111.446	0.283	0.059
-704.587	-183.871	0.258	-0.004
-703.572	-64.820	-0.494	-0.204
-702.558	800.000	-0.071	0.266
-701.543	6.756	-0.214	0.162
-700.529	-139.172	-0.193	-0.021
-699.514	55.591	-0.096	0.095
-698.499	63.248	-0.273	0.279
-697.485	45.012	0.207	-0.194
-696.470	-91.485	-0.112	-0.033
-695.456	234.218	0.056	0.094
-694.441	-157.237	-0.171	0.011
-693.426	-71.386	-0.318	-0.121
-692.412	-48.283	-0.440	-0.216
-691.397	800.000	-0.048	-0.197
-690.383	-101.682	-0.087	-0.022
-689.368	77.737	-0.276	0.299
-688.354	-59.556	0.079	0.035
-687.339	31.718	-0.269	0.236
-686.324	-200.000	-0.039	-0.352
-685.310	-200.000	0.019	-0.187
-684.295	-5.495	0.269	-0.188
-683.281	-11.804	-0.069	0.046
-682.266	115.203	0.097	-0.121
-681.251	82.798	-0.111	-0.123
-680.237	-17.663	0.255	-0.163
-679.222	-82.964	-0.251	-0.083
-678.208	-200.000	0.011	-0.217
-677.193	446.111	0.070	0.156
-676.178	-8.025	0.032	0.022
-675.164	-11.433	0.084	0.056
-674.149	-3.305	-0.066	-0.047
-673.135	-145.261	0.299	-0.028
-672.120	310.575	0.127	-0.242
-671.105	800.000	-0.027	-0.115
-670.091	-200.000	0.045	-0.214
-669.076	-118.491	0.118	-0.021
-668.062	-40.328	-0.151	-0.080
-667.047	-200.000	0.045	-0.321
-666.032	-32.086	-0.158	-0.090
-665.018	523.147	0.055	-0.132
-664.003	635.385	-0.083	-0.214
-662.989	800.000	-0.056	-0.212
-661.974	237.895	-0.114	0.192
-660.959	-82.236	-0.142	-0.047
-659.945	553.606	-0.027	-0.067
-658.930	-10.409	-0.410	0.277
-657.916	-187.521	-0.316	-0.004
-656.901	-42.801	0.117	0.061
-655.886	-127.201	0.056	0.008
-654.872	-36.045	-0.398	0.219
-653.857	32.799	0.144	-0.127
-652.843	-53.704	0.136	-0.063
-651.828	800.000	-0.067	-0.261
-650.814	800.000	-0.087	-0.339
-649.799	31.539	0.203	-0.178
-648.784	195.584	0.176	0.272
-647.770	-23.917	0.353	0.215
-646.755	10.170	-0.043	-0.034
-645.741	-200.000	0.013	0.150
-644.726	336.070	0.095	0.187
-643.711	21.477	0.132	0.109
-642.697	800.000	0.069	-0.291
-641.682	-28.341	0.335	-0.197
-640.668	625.858	0.080	0.204
-639.653	-48.507	-0.222	-0.108
-638.638	22.734	-0.116	-0.097
-637.624	-151.512	0.449	-0.034
-636.609	344.972	0.126	-0.251
-635.595	800.000	-0.044	0.182
-634.580	-35.928	0.125	-0.069
-633.565	440.990	0.084	-0.187
-632.551	153.127	0.202	0.281
-631.536	13.694	0.154	0.122
-630.522	486.140	0.072	0.167
-629.507	800.000	-0.007	0.019
-628.492	800.000	0.106	0.312
-627.478	749.580	0.033	-0.091
-626.463	83.133	-0.136	0.150
-625.449	-17.358	0.125	-0.080
-624.434	-31.759	0.179	-0.102
-623.419	701.762	-0.119	0.318
-622.405	38.622	0.127	0.115
-621.390	0.373	-0.211	-0.153
-620.376	319.811	-0.048	0.093
-619.361	-200.000	0.020	0.190
-618.346	-200.000	0.009	0.268
-617.332	210.477	0.094	-0.149
-616.317	-103.702	0.184	0.044
-615.303	106.389	-0.148	-0.178
-614.288	85.702	-0.267	-0.298
-613.273	7.707	-0.286	-0.217
-612.259	108.845	-0.142	-0.173
-611.244	800.000	0.020	-0.064
-610.230	7.441	-0.226	0.171
-609.215	-49.872	-0.169	0.082
-608.201	179.199	0.091	-0.135
-607.186	788.417	0.120	0.336
-606.171	-34.786	0.138	0.077
-605.157	-66.608	0.391	-0.157
-604.142	37.095	0.228	-0.205
-603.128	93.895	0.104	0.120
-602.113	27.776	-0.128	-0.110
-601.098	425.732	-0.062	0.136
-600.084	-95.008	0.110	-0.030
-599.069	218.733	0.108	0.176
-598.055	319.415	-0.067	-0.129
-597.040	-87.179	-0.137	0.042
-596.025	28.093	-0.221	-0.189
-595.011	-45.285	-0.126	-0.064
-593.996	-87.265	-0.363	0.112
-592.982	-200.000	0.001	0.129
-591.967	389.194	-0.097	0.204
-590.952	424.071	0.120	-0.261
-589.938	-200.000	-0.035	-0.417
-588.923	-200.000	0.012	-0.244
-587.909	-35.503	-0.289	-0.159
-586.894	800.000	0.024	-0.084
-585.879	-200.000	0.045	-0.229
-584.865	57.247	-0.209	-0.207
-583.850	328.938	0.077	0.150
-582.836	322.591	-0.167	0.323
-581.821	800.000	0.007	0.024
-580.806	20.431	0.074	0.061
-579.792	800.000	0.037	0.125
-578.777	116.259	0.079	0.098
-577.763	498.062	-0.106	-0.246
-576.748	187.443	-0.069	0.104
-575.733	141.375	0.084	-0.112
-574.719	229.746	-0.151	-0.250
-573.704	62.292	-0.181	0.183
-572.690	-50.399	-0.189	0.090
-571.675	-151.878	-0.117	-0.009
-570.661	-69.647	-0.091	-0.035
-569.646	-14.378	-0.039	0.026
-568.631	66.705	-0.249	-0.257
-567.617	459.733	-0.164	0.370
-566.602	45.297	-0.038	-0.035
-565.588	-200.000	0.023	0.257
-564.573	311.839	-0.254	-0.482
-563.558	-48.689	-0.009	-0.004
-562.544	197.430	-0.182	-0.281
-561.529	-166.037	0.046	0.002
-560.515	33.598	0.108	-0.095
-559.500	-200.000	0.020	-0.103
-558.485	171.320	0.160	-0.233
-557.471	-31.253	0.052	-0.030
-556.456	70.598	-0.200	0.210
-555.442	199.476	-0.021	-0.033
-554.427	-200.000	0.033	-0.186
-553.412	-93.000	0.265	-0.075
-552.398	800.000	0.036	-0.139
-551.383	118.895	-0.148	0.186
-550.369	-68.849	-0.239	-0.094
-549.354	165.610	-0.054	-0.078
-548.339	-92.037	0.289	-0.083
-547.325	282.306	-0.130	0.235
-546.310	-84.046	-0.213	0.069
-545.296	-200.000	-0.036	0.305
-544.281	-200.000	-0.014	0.079
-543.266	-110.233	-0.093	-0.020
-542.252	75.690	0.080	-0.085
-541.237	800.000	0.096	-0.322
-540.223	25.959	0.236	0.199
-539.208	800.000	-0.025	0.083
-538.193	120.774	-0.218	0.274
-537.179	9.011	-0.086	-0.066
-536.164	306.077	-0.164	-0.308
-535.150	56.289	-0.261	-0.257
-534.135	218.102	0.066	-0.106
-533.121	140.123	-0.038	-0.051
-532.106	-94.099	0.383	-0.106
-531.091	-110.840	0.040	-0.008
-530.077	-67.561	0.287	0.114
-529.062	482.237	0.047	0.108
-528.048	-63.552	-0.338	-0.140
-527.033	263.710	0.058	0.103
-526.018	-192.537	-0.045	-0.000
-525.004	-91.267	0.099	0.029
-523.989	800.000	-0.084	-0.257
-522.975	34.558	0.166	-0.147
-521.960	-58.319	0.362	0.159
-520.945	-58.099	-0.102	-0.045
-519.931	-140.361	0.292	-0.031
-518.916	-101.323	-0.302	0.074
-517.902	-36.253	0.005	-0.003
-516.887	-92.982	0.253	-0.071
-515.872	-1.168	-0.178	-0.128
-514.858	-119.941	-0.151	-0.026
-513.843	502.646	-0.017	0.040
-512.829	-135.486	-0.040	0.005
-511.814	-8.435	-0.172	-0.117
-510.799	-200.000	0.032	0.152
-509.785	-36.698	-0.048	-0.026
-508.770	-200.000	-0.007	0.090
-507.756	-153.167	-0.258	-0.018
-506.741	-200.000	0.001	0.348
-505.726	93.529	-0.194	-0.223
-504.712	-78.974	0.061	-0.021
-503.697	-200.000	-0.051	-0.261
-502.683	90.919	0.284	-0.321
-501.668	-67.807	-0.190	-0.075
-500.653	316.217	0.119	0.227
-499.639	-74.555	-0.416	-0.152
-498.624	746.459	0.149	0.405
-497.610	4.468	-0.268	0.198
-496.595	31.231	-0.120	-0.104
-495.581	800.000	0.075	-0.324
-494.566	-200.000	0.071	-0.338
-493.551	-131.132	0.036	-0.005
-492.537	-140.933	-0.082	0.009
-491.522	-116.767	-0.331	0.061
-490.508	800.000	-0.037	0.150
-489.493	184.628	-0.166	-0.249
-488.478	-200.000	0.020	0.094
-487.464	205.452	-0.093	0.147
-486.449	48.999	0.350	-0.332
-485.435	28.337	0.109	0.093
-484.420	-57.012	0.209	-0.093
-483.405	-66.197	-0.464	0.187
-482.391	-200.000	0.073	-0.327
-481.376	170.501	0.064	-0.093
-480.362	-106.668	0.067	0.015
-479.347	-200.000	-0.042	-0.252
-478.332	-101.285	0.089	-0.022
-477.318	247.485	0.225	0.384
-476.303	30.659	0.242	-0.209
-475.289	146.716	-0.067	0.091
-474.274	476.493	0.052	-0.119
-473.259	-11.929	-0.100	-0.066
-472.245	-82.562	-0.383	0.125
-471.230	-17.317	-0.080	0.051
-470.216	226.099	0.119	-0.194
-469.201	-13.857	-0.026	-0.017
-468.186	-129.097	-0.351	-0.050
-467.172	95.168	0.035	0.041
-466.157	368.430	0.087	-0.177
-465.143	800.000	0.113	-0.468
-464.128	6.808	-0.204	-0.154
-463.113	103.608	-0.091	0.108
-462.099	-64.416	-0.419	0.172
-461.084	-129.652	-0.291	-0.041
-460.070	27.129	0.358	-0.304
-459.055	122.917	-0.152	0.191
-458.040	461.986	0.201	-0.454
-457.026	72.647	0.167	-0.176
-456.011	-200.000	0.010	0.201
-454.997	-66.946	0.236	0.094
-453.982	-200.000	-0.211	0.000
-452.968	760.560	-0.132	0.361
-451.953	185.880	0.089	-0.134
-450.938	-200.000	-0.002	0.076
-449.924	-200.000	0.001	-0.151
-448.909	96.576	-0.165	0.191
-447.895	7.098	0.246	0.185
-446.880	-158.599	-0.327	-0.019
-445.865	800.000	-0.060	0.229
-444.851	-82.036	-0.240	0.079
-443.836	324.126	0.150	-0.288
-442.822	-200.000	0.008	0.247
-441.807	32.666	0.092	-0.080
-440.792	-200.000	0.016	0.288
-439.778	-200.000	0.026	0.263
-438.763	212.932	0.057	0.090
-437.749	136.967	-0.091	0.120
-436.734	84.595	-0.138	0.153
-435.719	235.699	0.130	0.216
-434.705	96.367	0.022	-0.025
-433.690	-99.598	-0.343	0.087
-432.676	-167.231	-0.214	-0.009
-431.661	-75.779	0.182	0.065
-430.646	4.590	0.197	0.146
-429.632	-200.000	0.021	0.517
-428.617	0.855	0.151	-0.109
-427.603	-200.000	0.013	-0.221
-426.588	-200.000	0.030	-0.136
-425.573	-37.803	-0.259	-0.139
-424.559	-200.000	0.090	-0.450
-423.544	-36.008	-0.105	-0.057
-422.530	-58.881	-0.087	0.038
-421.515	69.658	-0.096	-0.100
-420.500	-65.401	0.247	-0.100
-419.486	127.149	0.073	0.094
-418.471	-189.554	-0.253	-0.003
-417.457	-200.000	0.016	-0.173
-416.442	-200.000	-0.002	-0.337
-415.428	-31.551	-0.071	-0.040
-414.413	-42.503	-0.043	0.022
-413.398	-10.513	-0.371	0.248
-412.384	3.024	-0.119	0.087
-411.369	800.000	0.118	-0.389
-410.355	-19.132	0.133	0.083
-409.340	8.920	-0.279	-0.212
-408.325	98.744	0.023	0.026
-407.311	-40.770	0.301	-0.157
-406.296	-84.852	0.125	-0.039
-405.282	-24.010	-0.277	0.167
-404.267	134.687	0.156	0.203
-403.252	-24.216	0.216	0.130
-402.238	-38.791	-0.341	-0.181
-401.223	-44.163	0.095	0.048
-400.209	78.769	0.252	-0.271
-399.194	658.125	-0.119	-0.307
-398.179	-27.526	-0.160	0.094
-397.165	-134.176	-0.243	0.030
-396.150	800.000	-0.036	-0.151
-395.136	-150.315	-0.129	-0.010
-394.121	12.721	0.226	-0.175
-393.106	-57.222	0.041	-0.018
-392.092	689.238	0.052	-0.136
-391.077	-41.288	-0.117	0.061
-390.063	800.000	-0.055	0.161
-389.048	-62.806	0.136	-0.057
-388.033	32.974	-0.181	0.158
-387.019	285.754	-0.072	-0.131
-386.004	211.362	0.055	-0.087
-384.990	63.759	-0.073	0.074
-383.975	90.933	-0.134	-0.151
-382.960	-43.406	0.146	0.074
-381.946	-138.118	0.138	-0.015
-380.931	-38.180	0.181	-0.096
-379.917	565.299	0.211	0.515
-378.902	62.734	-0.155	0.156
-377.888	-57.784	-0.201	0.089
-376.873	103.573	0.129	0.153
-375.858	-200.000	0.022	0.370
-374.844	228.104	-0.204	-0.334
-373.829	-200.000	-0.027	-0.283
-372.815	119.644	-0.056	-0.070
-371.800	-69.534	0.243	0.094
-370.785	154.694	-0.157	-0.217
-369.771	800.000	-0.129	0.515
-368.756	11.884	-0.219	0.169
-367.742	172.892	0.228	-0.330
-366.727	-200.000	-0.033	-0.214
-365.712	194.593	0.077	0.118
-364.698	-144.033	0.328	0.031
-363.683	76.039	-0.110	-0.117
-362.669	-200.000	0.016	0.109
-361.654	175.548	-0.178	-0.260
-360.639	-28.802	-0.215	-0.125
-359.625	-200.000	-0.015	0.511
-358.610	-167.159	0.101	-0.004
-357.596	307.725	0.089	0.168
-356.581	69.664	-0.086	-0.089
-355.566	-52.358	0.190	-0.088
-354.552	-86.661	-0.169	0.052
-353.537	398.778	0.053	0.112
-352.523	800.000	-0.045	-0.150
-351.508	-200.000	0.044	-0.359
-350.493	-53.673	-0.320	-0.147
-349.479	268.044	0.062	0.109
-348.464	-19.457	0.359	0.224
-347.450	-111.071	0.206	0.042
-346.435	-122.583	0.077	0.013
-345.420	314.057	-0.137	0.260
-344.406	-50.818	0.049	0.023
-343.391	-21.491	0.103	-0.063
-342.377	55.599	0.253	-0.246
-341.362	-177.618	0.182	-0.004
-340.348	-50.730	0.118	0.056
-339.333	800.000	0.079	0.242
-338.318	800.000	-0.124	0.380
-337.304	44.211	-0.103	0.095
-336.289	-129.693	0.364	0.050
-335.275	-57.109	-0.288	-0.127
-334.260	-39.375	-0.288	0.151
-333.245	-68.230	0.115	0.045
-332.231	800.000	-0.049	0.137
-331.216	-200.000	0.025	0.189
-330.202	-200.000	0.012	0.080
-329.187	-127.877	-0.094	0.014
-328.172	-200.000	0.007	0.233
-327.158	-200.000	-0.011	0.076
-326.143	489.218	-0.027	0.062
-325.129	-200.000	-0.013	-0.128
-324.114	72.146	-0.146	0.152
-323.099	800.000	-0.053	0.179
-322.085	-200.000	0.018	-0.190
-321.070	-98.294	-0.317	-0.082
-320.056	-50.175	-0.215	0.102
-319.041	63.950	0.176	0.178
-318.026	800.000	0.102	-0.333
-317.012	-166.203	0.143	-0.006
-315.997	240.920	-0.086	0.143
-314.983	-53.529	-0.155	0.071
-313.968	306.797	-0.089	0.166
-312.953	-77.023	0.286	-0.100
-311.939	-60.199	0.198	0.085
-310.924	-13.463	0.147	-0.095
-309.910	78.117	-0.108	0.116
-308.895	-130.278	0.320	-0.044
-307.880	-51.459	-0.288	-0.135
-306.866	-200.000	0.015	0.215
-305.851	87.306	0.256	-0.284
-304.837	136.566	0.169	-0.222
-303.822	-29.234	-0.473	-0.272
-302.807	800.000	-0.071	0.265
-301.793	-200.000	0.028	0.221
-300.778	-152.617	0.141	0.010
-299.764	276.071	-0.094	-0.168
-298.749	121.148	-0.275	0.344
-297.735	-101.570	-0.210	0.051
-296.720	-200.000	-0.016	0.193
-295.705	304.167	0.039	-0.073
-294.691	800.000	-0.074	0.205
-293.676	-75.390	0.169	0.060
-292.662	800.000	-0.065	-0.243
-291.647	-151.142	-0.338	0.025
-290.632	43.644	-0.166	0.152
-289.618	-200.000	-0.032	-0.244
-288.603	-200.000	-0.002	0.198
-287.589	606.500	-0.024	0.060
-286.574	271.651	0.208	-0.368
-285.559	-1.994	0.194	-0.137
-284.545	-184.864	0.316	-0.005
-283.530	38.689	-0.092	0.083
-282.516	-105.210	0.236	-0.054
-281.501	-89.305	-0.396	-0.117
-280.486	-200.000	-0.001	-0.449
-279.472	137.327	0.295	0.387
-278.457	-200.000	-0.017	0.174
-277.443	-200.000	-0.056	0.246
-276.428	113.658	0.233	0.284
-275.413	-200.000	-0.030	-0.227
-274.399	696.119	0.019	0.051
-273.384	800.000	-0.063	0.249
-272.370	-200.000	-0.031	-0.182
-271.355	3.447	0.135	-0.098
-270.340	24.374	-0.075	0.062
-269.326	-153.526	0.395	0.027
-268.311	-69.454	0.185	-0.071
-267.297	800.000	0.076	0.241
-266.282	153.255	0.094	0.129
-265.267	-98.612	-0.147	0.038
-264.253	1.717	-0.095	-0.069
-263.238	-164.183	-0.236	0.011
-262.224	14.526	0.157	0.123
-261.209	-200.000	-0.064	0.449
-260.195	800.000	0.135	-0.389
-259.180	-133.745	0.240	-0.030
-258.165	-123.818	0.301	0.048
-257.151	-76.546	-0.290	0.102
-256.136	216.996	0.085	0.136
-255.122	759.152	-0.131	0.355
-254.107	94.653	0.029	0.033
-253.092	26.695	0.389	-0.326
-252.078	-107.768	0.065	0.014
-251.063	37.693	-0.136	-0.121
-250.049	36.881	0.131	-0.116
-249.034	-57.522	0.338	-0.149
-248.019	-200.000	-0.158	-0.000
-247.005	450.020	0.045	-0.099
-245.990	-46.207	-0.243	-0.120
-244.976	-45.129	0.251	0.125
-243.961	685.868	0.017	-0.046
-242.946	-58.431	0.118	0.051
-241.932	604.243	-0.100	-0.250
-240.917	-200.000	-0.008	-0.223
-239.903	5.596	0.088	-0.065
-238.888	-200.000	-0.023	-0.126
-237.873	-82.209	-0.368	-0.120
-236.859	28.654	0.278	-0.236
-235.844	-49.829	-0.370	0.176
-234.830	-200.000	0.014	0.105
-233.815	742.788	0.067	-0.179
-232.800	-91.668	0.131	0.037
-231.786	184.924	-0.158	0.234
-230.771	-51.495	0.168	0.078
-229.757	37.791	0.103	0.091
-228.742	-7.429	-0.123	0.083
-227.727	20.597	0.218	-0.177
-226.713	43.848	0.125	0.114
-225.698	364.862	-0.135	-0.272
-224.684	639.820	0.020	0.050
-223.669	-200.000	0.009	0.164
-222.655	-5.648	0.108	0.074
-221.640	-200.000	0.039	0.286
-220.625	-200.000	0.004	-0.493
-219.611	-125.123	-0.213	0.033
-218.596	-95.838	0.248	-0.066
-217.582	12.203	0.302	0.233
-216.567	548.145	0.121	0.289
-215.552	37.213	0.114	0.101
-214.538	162.010	-0.064	-0.090
-213.523	133.592	-0.052	0.068
-212.509	-126.037	0.449	0.067
-211.494	48.374	0.262	-0.245
-210.479	741.622	0.123	0.331
-209.465	-200.000	-0.056	0.302
-208.450	226.079	-0.178	0.288
-207.436	64.019	0.172	0.173
-206.421	366.533	-0.064	-0.129
-205.406	-135.221	0.085	-0.010
-204.392	-81.642	-0.226	0.074
-203.377	-131.641	0.351	-0.046
-202.363	190.994	0.179	0.269
-201.348	-8.939	0.249	0.167
-200.333	-155.107	-0.283	-0.019
-199.319	-97.088	0.240	-0.063
-198.304	590.997	0.070	0.172
-197.290	800.000	-0.066	0.255
-196.275	216.655	0.200	0.318
-195.260	226.435	-0.180	-0.292
-194.246	-145.300	0.014	0.001
-193.231	190.952	0.141	0.212
-192.217	-38.240	-0.184	0.098
-191.202	800.000	0.143	-0.512
-190.187	-68.780	0.315	-0.122
-189.173	-124.425	0.168	-0.026
-188.158	147.158	0.137	0.184
-187.144	-74.764	0.233	0.083
-186.129	67.740	0.210	-0.214
-185.114	-200.000	-0.017	0.150
-184.100	-111.504	0.139	-0.028
-183.085	-81.164	0.170	-0.056
-182.071	-78.773	-0.104	-0.035
-181.056	-133.421	0.300	-0.038
-180.042	-162.767	0.367	-0.018
-179.027	-200.000	0.043	0.260
-178.012	-116.043	-0.252	-0.047
-176.998	-25.273	-0.275	0.162
-175.983	800.000	0.043	-0.123
-174.969	-105.062	-0.396	-0.091
-173.954	-200.000	0.028	-0.136
-172.939	-48.008	-0.150	0.072
-171.925	-200.000	0.008	-0.215
-170.910	153.588	-0.152	-0.208
-169.896	-200.000	-0.056	0.341
-168.881	410.699	0.103	-0.217
-167.866	-93.572	-0.220	-0.061
-166.852	-200.000	-0.062	-0.300
-165.837	115.241	0.096	-0.117
-164.823	139.841	-0.175	0.231
-163.808	800.000	0.048	-0.161
-162.793	-200.000	-0.043	-0.193
-161.779	-143.769	-0.077	-0.007
-160.764	-85.199	-0.320	0.100
-159.750	-111.954	0.140	0.028
-158.735	50.380	-0.111	-0.104
-157.720	14.976	-0.198	-0.155
-156.706	-73.083	-0.256	-0.094
-155.691	-145.731	-0.489	-0.043
-154.677	-200.000	-0.002	-0.120
-153.662	-47.595	0.110	-0.053
-152.647	800.000	0.187	0.568
-151.633	-103.424	-0.149	-0.035
-150.618	-117.102	-0.245	-0.045
-149.604	-83.176	-0.077	-0.025
-148.589	-200.000	0.076	0.409
-147.574	-51.891	-0.144	0.067
-146.560	262.668	0.099	0.172
-145.545	-151.875	0.206	0.015
-144.531	102.713	0.075	-0.088
-143.516	-200.000	-0.041	-0.329
-142.502	197.070	0.103	0.157
-141.487	-29.447	0.204	0.116
-140.472	-103.117	0.366	-0.086
-139.458	122.530	-0.298	0.372
-138.443	-181.162	0.196	0.004
-137.429	-131.219	0.175	0.023
-136.414	425.367	-0.072	-0.155
-135.399	800.000	0.013	-0.055
-134.385	800.000	0.084	0.310
-133.370	386.543	-0.171	0.352
-132.356	-20.701	-0.238	-0.145
-131.341	233.655	-0.116	0.190
-130.326	-58.186	0.328	0.143
-129.312	-200.000	0.016	-0.203
-128.297	-200.000	0.006	0.058
-127.283	-200.000	0.016	-0.187
-126.268	-200.000	-0.010	0.114
-125.253	-31.507	-0.064	0.036
-124.239	800.000	0.042	-0.154
-123.224	777.520	0.039	0.107
-122.210	-200.000	0.010	-0.154
-121.195	45.499	-0.051	0.047
