DTS Sentinel unit serial number:	SN413079Multiplexer serial number:	ORYXHardware model number:	OX4-SRSoftware version number:	ORYX F/W v4.00 Oryx Data Collector v3.7.2.0data status	okinstallation	princeton_trtdifferential loss correction	single-endedforward channel	channel 2reverse channel	N/Adate	2019/09/16time	02:27:34forward acquisition time	60.00reverse acquisition time	0.00gamma	496.2192k internal	0.2334k external	0.2334temperature offset calibration	0.9969default loss term (dB/km)	0.3790temperature slope calibration	1.0000multiplexer offset coefficient	1.0000multiplexer slope coefficient	1.0000fibre end	0.00T internal ref (°C)	27.64T ext. ref 1 (°C)	10.24T ext. ref 2 (°C)	22.67length (m)	temperature (°C)	Stokes	anti-Stokes-747.200	72.576	0.075	-0.079
-746.185	800.000	0.089	0.356
-745.171	-104.269	0.250	-0.058
-744.156	-17.830	-0.236	0.149
-743.142	-85.920	0.113	0.035
-742.127	-153.502	-0.193	0.013
-741.112	800.000	0.025	-0.080
-740.098	174.090	-0.102	-0.148
-739.083	-200.000	-0.031	0.164
-738.069	198.007	-0.342	0.526
-737.054	-164.305	-0.263	-0.012
-736.039	694.305	0.073	0.191
-735.025	-139.790	0.629	0.067
-734.010	800.000	0.022	0.069
-732.996	-200.000	-0.041	0.328
-731.981	-200.000	-0.004	-0.220
-730.966	-79.712	-0.393	0.133
-729.952	-113.847	0.193	0.038
-728.937	-90.506	-0.248	0.072
-727.923	-119.580	-0.660	0.115
-726.908	651.597	-0.097	0.250
-725.894	74.618	-0.129	-0.136
-724.879	-200.000	-0.002	0.097
-723.864	-40.518	-0.478	-0.249
-722.850	-143.327	-0.099	0.010
-721.835	790.022	0.056	0.155
-720.821	672.723	0.044	-0.115
-719.806	71.997	-0.036	-0.038
-718.791	-200.000	0.045	-0.223
-717.777	36.674	-0.361	-0.321
-716.762	-62.776	0.092	-0.038
-715.748	-200.000	0.020	-0.168
-714.733	56.579	0.014	0.014
-713.718	-27.294	-0.258	-0.151
-712.704	-120.327	-0.430	-0.074
-711.689	52.028	0.214	-0.205
-710.675	195.443	0.113	-0.172
-709.660	99.157	-0.230	-0.267
-708.645	-200.000	-0.045	-0.217
-707.631	53.692	0.154	0.149
-706.616	-69.820	0.143	-0.055
-705.602	-131.344	-0.119	-0.016
-704.587	-200.000	0.048	0.353
-703.572	-55.052	-0.109	0.049
-702.558	6.873	0.499	-0.373
-701.543	25.930	0.134	-0.112
-700.529	800.000	0.078	0.257
-699.514	99.522	-0.209	0.242
-698.499	3.845	0.252	0.185
-697.485	-39.176	0.125	0.066
-696.470	-172.733	-0.179	-0.006
-695.456	62.669	-0.253	-0.254
-694.441	314.985	-0.144	-0.272
-693.426	-10.264	0.056	-0.037
-692.412	-88.489	-0.235	0.070
-691.397	-120.729	-0.147	0.025
-690.383	420.245	-0.149	-0.321
-689.368	-180.417	0.190	0.004
-688.354	157.843	0.208	0.289
-687.339	-95.420	0.115	0.031
-686.324	800.000	0.054	0.191
-685.310	251.410	0.117	-0.199
-684.295	-62.395	0.303	0.127
-683.281	-62.138	-0.158	0.066
-682.266	-18.118	-0.372	-0.233
-681.251	45.523	0.084	-0.078
-680.237	-103.396	-0.123	0.029
-679.222	-24.575	-0.143	0.085
-678.208	-50.866	-0.286	-0.135
-677.193	-77.894	-0.379	0.131
-676.178	396.276	0.033	0.068
-675.164	-34.292	0.292	-0.161
-674.149	36.541	0.121	0.107
-673.135	-125.935	-0.445	0.067
-672.120	117.140	-0.061	0.075
-671.105	643.198	-0.052	0.132
-670.091	200.107	0.119	0.183
-669.076	-105.697	-0.204	-0.046
-668.062	-77.284	0.117	-0.041
-667.047	113.715	0.090	-0.109
-666.032	23.262	0.101	0.083
-665.018	-144.202	-0.460	-0.043
-664.003	-200.000	0.013	0.210
-662.989	68.402	0.131	-0.135
-661.974	130.975	-0.139	0.179
-660.959	-116.874	0.144	0.026
-659.945	-123.507	0.522	0.083
-658.930	-116.234	-0.424	0.079
-657.916	-92.633	0.393	0.110
-656.901	800.000	-0.087	0.369
-655.886	-69.566	-0.184	0.071
-654.872	-59.721	0.218	0.094
-653.857	800.000	-0.075	0.237
-652.843	14.560	0.226	-0.177
-651.828	800.000	0.176	-0.493
-650.814	-4.077	-0.184	-0.127
-649.799	298.574	0.003	0.006
-648.784	190.967	0.202	-0.304
-647.770	25.103	-0.014	-0.012
-646.755	83.617	-0.121	-0.132
-645.741	-145.621	0.291	-0.026
-644.726	109.321	-0.095	-0.114
-643.711	-137.654	0.373	0.042
-642.697	-86.879	-0.213	0.065
-641.682	-73.467	0.042	-0.015
-640.668	-90.474	0.171	0.049
-639.653	209.478	-0.056	-0.088
-638.638	-200.000	0.012	0.080
-637.624	87.671	-0.167	-0.185
-636.609	-147.735	-0.303	0.025
-635.595	-72.860	-0.217	-0.080
-634.580	205.434	-0.208	-0.323
-633.565	372.386	0.122	-0.249
-632.551	203.574	-0.137	-0.213
-631.536	353.300	-0.166	0.331
-630.522	694.680	-0.178	0.467
-629.507	-200.000	-0.059	0.356
-628.492	13.038	-0.231	-0.178
-627.478	-200.000	-0.045	-0.261
-626.463	59.365	-0.100	0.099
-625.449	-99.110	0.141	0.036
-624.434	-100.783	-0.159	0.039
-623.419	-200.000	0.038	0.203
-622.405	236.176	0.247	0.408
-621.390	-152.829	0.157	-0.011
-620.376	-61.033	-0.409	-0.173
-619.361	56.831	-0.117	0.114
-618.346	37.391	0.088	0.078
-617.332	714.974	-0.093	0.247
-616.317	-85.589	0.123	0.038
-615.303	181.611	-0.108	0.159
-614.288	433.755	0.069	0.151
-613.273	652.820	0.033	0.085
-612.259	-92.878	-0.161	-0.045
-611.244	-200.000	-0.025	0.182
-610.230	-200.000	0.030	0.248
-609.215	800.000	-0.037	0.123
-608.201	-52.911	0.164	-0.076
-607.186	-200.000	-0.018	0.447
-606.171	-200.000	-0.038	-0.181
-605.157	18.965	-0.320	-0.256
-604.142	786.553	-0.064	-0.175
-603.128	-200.000	0.027	-0.169
-602.113	24.904	0.201	-0.167
-601.098	-32.954	-0.159	0.088
-600.084	60.794	0.168	-0.167
-599.069	-157.055	0.227	0.014
-598.055	-17.463	0.214	-0.135
-597.040	-53.326	-0.064	-0.029
-596.025	6.017	0.073	0.054
-595.011	711.978	-0.075	-0.197
-593.996	39.046	0.168	0.150
-592.982	23.918	-0.304	-0.250
-591.967	20.490	0.284	-0.230
-590.952	-160.122	-0.593	0.032
-589.938	-2.891	0.299	-0.208
-588.923	-69.074	-0.339	0.131
-587.909	35.476	-0.189	-0.166
-586.894	-39.845	0.198	0.103
-585.879	39.223	-0.238	0.213
-584.865	-200.000	-0.003	-0.147
-583.850	205.534	0.181	-0.280
-582.836	117.938	0.269	-0.331
-581.821	16.910	0.027	0.021
-580.806	-169.152	0.117	0.004
-579.792	25.691	-0.068	0.057
-578.777	272.337	-0.105	0.184
-577.763	765.432	-0.117	-0.317
-576.748	-103.898	0.176	0.041
-575.733	96.339	-0.067	0.077
-574.719	284.963	0.067	0.121
-573.704	152.783	-0.075	0.103
-572.690	-157.144	0.286	0.017
-571.675	91.309	0.150	0.168
-570.661	-5.625	-0.290	0.199
-569.646	-80.208	-0.285	0.095
-568.631	-127.136	0.200	-0.029
-567.617	-200.000	0.035	-0.183
-566.602	65.226	-0.150	-0.151
-565.588	-128.073	-0.177	0.025
-564.573	-200.000	-0.043	0.347
-563.558	138.787	0.229	0.301
-562.544	272.359	0.049	0.087
-561.529	800.000	-0.077	-0.252
-560.515	-200.000	-0.008	-0.048
-559.500	783.449	-0.044	0.119
-558.485	58.422	-0.167	-0.164
-557.471	-150.646	-0.282	0.021
-556.456	-93.911	-0.341	0.094
-555.442	191.307	-0.170	0.255
-554.427	89.523	-0.153	-0.170
-553.412	414.254	-0.045	-0.096
-552.398	-200.000	-0.020	0.245
-551.383	-200.000	0.015	0.069
-550.369	27.726	-0.107	0.090
-549.354	-127.589	0.287	-0.041
-548.339	-130.196	0.241	0.033
-547.325	23.732	0.210	-0.173
-546.310	-127.551	-0.325	0.047
-545.296	-200.000	0.029	-0.424
-544.281	57.069	0.108	0.105
-543.266	-100.303	-0.358	-0.089
-542.252	-200.000	-0.082	-0.461
-541.237	-44.643	0.226	-0.113
-540.223	-103.708	-0.133	0.031
-539.208	238.013	0.034	-0.056
-538.193	-118.878	0.264	0.046
-537.179	784.856	0.040	-0.110
-536.164	130.191	0.194	-0.248
-535.150	30.047	-0.239	-0.203
-534.135	-200.000	-0.016	0.088
-533.121	111.689	-0.297	-0.357
-532.106	800.000	0.037	-0.124
-531.091	800.000	-0.091	0.291
-530.077	800.000	-0.040	-0.115
-529.062	-135.787	-0.060	0.007
-528.048	-76.065	-0.115	-0.041
-527.033	36.075	0.086	-0.076
-526.018	-200.000	0.025	-0.443
-525.004	-108.106	0.229	-0.049
-523.989	-34.037	0.228	0.125
-522.975	77.356	0.066	-0.070
-521.960	0.981	0.162	0.115
-520.945	732.182	0.109	-0.291
-519.931	-35.995	-0.198	-0.106
-518.916	-6.832	-0.168	0.114
-517.902	-49.408	-0.125	-0.059
-516.887	137.181	-0.071	-0.093
-515.872	-200.000	0.034	0.164
-514.858	-200.000	0.004	-0.028
-513.843	-61.469	0.102	0.043
-512.829	-200.000	-0.045	0.344
-511.814	-10.620	0.265	0.175
-510.799	329.457	0.117	0.223
-509.785	97.188	0.129	-0.148
-508.770	721.432	0.046	0.122
-507.756	17.540	0.093	0.073
-506.741	179.326	0.106	-0.154
-505.726	422.184	0.062	-0.132
-504.712	-200.000	-0.003	0.186
-503.697	7.738	-0.196	0.146
-502.683	-148.713	0.123	-0.010
-501.668	3.765	-0.183	0.133
-500.653	-15.103	0.346	0.220
-499.639	-136.203	-0.080	0.009
-498.624	-103.719	-0.284	-0.066
-497.610	-127.568	-0.190	-0.027
-496.595	800.000	-0.074	-0.205
-495.581	-80.844	0.130	-0.043
-494.566	-121.482	0.113	-0.019
-493.551	-123.894	0.278	-0.044
-492.537	259.772	-0.090	-0.154
-491.522	-200.000	0.038	0.342
-490.508	116.330	0.180	0.219
-489.493	-190.355	0.111	0.001
-488.478	-200.000	0.064	0.286
-487.464	-177.416	-0.399	-0.010
-486.449	-13.156	0.182	0.118
-485.435	-92.630	0.103	0.029
-484.420	244.562	-0.221	-0.369
-483.405	330.329	-0.149	0.286
-482.391	-200.000	0.020	0.287
-481.376	57.790	0.100	0.098
-480.362	-72.484	-0.494	0.182
-479.347	800.000	0.044	-0.180
-478.332	415.588	0.116	-0.246
-477.318	-99.989	-0.242	0.060
-476.303	-49.983	0.274	-0.129
-475.289	-29.946	-0.194	-0.110
-474.274	-102.667	-0.252	0.060
-473.259	-3.344	0.404	0.280
-472.245	114.319	-0.137	0.166
-471.230	-97.066	-0.057	-0.015
-470.216	54.402	-0.091	-0.087
-469.201	-200.000	0.000	-0.082
-468.186	-142.768	0.096	0.009
-467.172	-105.454	-0.226	-0.051
-466.157	-23.640	0.188	-0.112
-465.143	114.576	-0.178	0.215
-464.128	46.755	-0.034	0.032
-463.113	-148.549	-0.137	-0.011
-462.099	-0.015	0.080	-0.057
-461.084	-109.690	0.162	0.034
-460.070	527.810	0.030	0.071
-459.055	310.930	0.119	-0.222
-458.040	-132.487	-0.222	0.028
-457.026	-39.934	0.103	0.054
-456.011	-200.000	-0.015	0.107
-454.997	-200.000	0.005	-0.029
-453.982	800.000	0.024	0.076
-452.968	-38.842	0.268	0.141
-451.953	-200.000	0.058	-0.305
-450.938	32.530	-0.155	0.133
-449.924	66.169	-0.109	0.110
-448.909	-45.386	-0.031	-0.015
-447.895	366.638	0.118	0.236
-446.880	8.665	0.203	0.152
-445.865	52.644	0.283	-0.269
-444.851	800.000	-0.069	0.205
-443.836	6.492	0.221	-0.163
-442.822	6.824	-0.091	-0.067
-441.807	69.699	-0.013	-0.013
-440.792	-70.040	0.151	-0.057
-439.778	-173.473	-0.130	-0.004
-438.763	163.096	0.084	0.117
-437.749	-200.000	-0.061	0.360
-436.734	-200.000	0.049	-0.412
-435.719	250.776	0.037	0.063
-434.705	-49.386	-0.235	0.111
-433.690	-5.416	-0.280	-0.191
-432.676	15.893	0.267	-0.209
-431.661	-100.566	0.104	0.026
-430.646	179.854	0.128	-0.187
-429.632	249.103	-0.029	0.049
-428.617	-135.693	-0.283	-0.033
-427.603	-35.100	0.102	-0.055
-426.588	-200.000	0.054	-0.312
-425.573	-75.463	-0.108	-0.038
-424.559	269.102	0.012	0.022
-423.544	-143.806	-0.301	0.028
-422.530	-130.850	0.294	-0.039
-421.515	439.373	0.135	0.293
-420.500	129.410	-0.066	0.084
-419.486	98.293	0.083	-0.094
-418.471	5.952	-0.093	0.068
-417.457	800.000	-0.055	-0.169
-416.442	-139.375	-0.089	0.010
-415.428	29.680	0.197	-0.166
-414.413	-6.066	0.167	-0.113
-413.398	388.154	-0.066	-0.136
-412.384	765.500	-0.055	-0.147
-411.369	131.029	0.266	-0.339
-410.355	85.432	0.163	-0.178
-409.340	10.131	-0.170	0.129
-408.325	334.192	-0.050	0.096
-407.311	800.000	-0.088	-0.279
-406.296	34.924	0.286	-0.248
-405.282	94.783	-0.081	-0.091
-404.267	-38.302	-0.263	0.138
-403.252	-200.000	0.042	0.293
-402.238	-200.000	-0.000	-0.128
-401.223	-151.366	-0.268	-0.020
-400.209	-21.122	-0.126	0.076
-399.194	161.033	0.050	0.069
-398.179	672.691	0.028	-0.072
-397.165	-26.631	-0.088	0.051
-396.150	-20.768	0.171	-0.104
-395.136	80.291	0.250	-0.266
-394.121	17.787	-0.203	-0.160
-393.106	-200.000	0.075	-0.498
-392.092	30.922	-0.080	-0.068
-391.077	188.853	-0.200	0.297
-390.063	202.721	0.112	-0.171
-389.048	800.000	0.065	-0.270
-388.033	292.961	-0.039	0.071
-387.019	530.433	-0.066	-0.155
-386.004	-19.975	-0.259	0.158
-384.990	7.327	0.164	0.122
-383.975	-200.000	0.043	0.229
-382.960	-13.085	-0.171	0.110
-381.946	-44.146	-0.137	-0.068
-380.931	732.909	-0.054	0.144
-379.917	71.434	0.221	-0.227
-378.902	800.000	0.049	0.139
-377.888	552.453	-0.072	-0.171
-376.873	53.107	-0.189	0.180
-375.858	-200.000	-0.002	-0.189
-374.844	-0.637	-0.503	0.353
-373.829	-200.000	-0.065	0.302
-372.815	800.000	0.052	0.166
-371.800	-113.084	0.212	-0.041
-370.785	126.899	-0.237	-0.298
-369.771	-147.616	0.248	0.021
-368.756	-200.000	0.055	0.335
-367.742	-200.000	-0.006	0.187
-366.727	-200.000	0.001	0.187
-365.712	199.230	-0.087	-0.132
-364.698	-200.000	0.004	0.113
-363.683	-86.177	0.143	-0.044
-362.669	-126.928	-0.371	-0.054
-361.654	-151.243	-0.254	-0.019
-360.639	-200.000	0.019	-0.152
-359.625	577.734	0.154	-0.374
-358.610	3.916	0.113	-0.082
-357.596	649.693	-0.133	0.337
-356.581	107.748	0.269	-0.317
-355.566	154.103	0.116	0.157
-354.552	408.906	-0.116	-0.243
-353.537	92.623	0.089	0.099
-352.523	-88.715	-0.215	-0.063
-351.508	-200.000	-0.026	0.118
-350.493	216.001	0.075	-0.117
-349.479	-185.346	-0.222	-0.003
-348.464	-67.581	-0.033	0.013
-347.450	-3.168	0.152	-0.105
-346.435	-200.000	0.028	0.403
-345.420	-200.000	0.054	0.282
-344.406	-200.000	0.014	0.154
-343.391	-27.626	0.252	-0.145
-342.377	43.020	0.155	0.140
-341.362	-9.093	0.287	0.190
-340.348	-31.177	0.318	-0.177
-339.333	444.309	-0.035	-0.076
-338.318	-200.000	-0.019	-0.155
-337.304	-100.852	-0.348	0.085
-336.289	44.609	0.115	-0.104
-335.275	594.648	0.023	0.056
-334.260	-200.000	0.046	0.334
-333.245	8.584	-0.152	0.113
-332.231	-107.656	0.189	0.041
-331.216	63.552	-0.236	-0.234
-330.202	129.666	0.040	0.051
-329.187	-54.001	-0.140	0.063
-328.172	38.439	-0.061	0.054
-327.158	-79.906	-0.394	-0.131
-326.143	23.788	-0.221	0.180
-325.129	-200.000	0.079	-0.382
-324.114	198.190	-0.023	-0.035
-323.099	800.000	0.049	-0.138
-322.085	-200.000	0.035	-0.203
-321.070	-32.980	0.303	0.166
-320.056	497.454	-0.061	-0.139
-319.041	77.611	0.127	0.133
-318.026	-66.206	0.268	-0.105
-317.012	-93.268	-0.023	0.006
-315.997	295.726	0.087	-0.158
-314.983	-200.000	-0.009	-0.304
-313.968	76.678	-0.029	0.030
-312.953	800.000	-0.033	-0.126
-311.939	-200.000	-0.032	-0.233
-310.924	-119.838	0.247	-0.042
-309.910	-11.331	0.149	0.097
-308.895	86.068	-0.169	-0.184
-307.880	-103.528	0.138	0.032
-306.866	129.291	0.085	-0.108
-305.851	-27.148	0.043	0.025
-304.837	-60.494	0.442	0.186
-303.822	13.443	-0.263	0.202
-302.807	-97.854	0.545	-0.139
-301.793	-200.000	-0.015	-0.076
-300.778	117.023	-0.088	-0.106
-299.764	449.825	0.129	0.281
-298.749	-105.572	-0.029	-0.006
-297.735	-58.626	0.385	-0.165
-296.720	-97.146	0.242	-0.063
-295.705	-28.318	0.198	0.113
-294.691	-200.000	0.047	-0.354
-293.676	-200.000	0.004	0.022
-292.662	2.323	-0.419	0.299
-291.647	-200.000	-0.010	-0.180
-290.632	151.240	-0.114	0.153
-289.618	800.000	-0.016	-0.050
-288.603	-130.466	-0.127	-0.017
-287.589	800.000	-0.106	0.337
-286.574	-71.747	0.005	0.002
-285.559	-114.003	-0.085	-0.016
-284.545	82.182	0.194	0.207
-283.530	-103.309	-0.186	-0.043
-282.516	-27.405	0.375	-0.215
-281.501	-6.230	0.272	0.183
-280.486	-82.843	-0.092	-0.029
-279.472	759.147	0.114	-0.305
-278.457	-13.746	-0.278	0.178
-277.443	-200.000	-0.011	-0.169
-276.428	350.184	-0.154	-0.301
-275.413	81.641	0.126	-0.135
-274.399	46.858	-0.268	-0.246
-273.384	295.952	-0.128	-0.231
-272.370	-133.665	0.084	0.010
-271.355	132.920	-0.215	0.274
-270.340	125.068	-0.198	0.247
-269.326	50.116	0.184	0.171
-268.311	134.215	0.097	0.124
-267.297	33.861	-0.079	-0.068
-266.282	452.773	-0.115	-0.250
-265.267	-200.000	-0.007	0.032
-264.253	800.000	-0.107	0.325
-263.238	163.393	0.141	0.196
-262.224	42.591	-0.225	0.202
-261.209	149.861	0.150	0.201
-260.195	800.000	-0.009	-0.028
-259.180	87.161	0.196	0.213
-258.165	0.405	-0.094	0.066
-257.151	-62.546	0.056	0.023
-256.136	234.855	-0.011	0.018
-255.122	215.148	-0.143	-0.223
-254.107	8.824	0.109	0.081
-253.092	205.013	0.138	0.211
-252.078	-160.983	-0.441	-0.023
-251.063	-200.000	-0.015	-0.317
-250.049	-40.920	0.115	-0.059
-249.034	-31.123	-0.162	-0.090
-248.019	-200.000	-0.055	0.260
-247.005	152.389	-0.158	0.213
-245.990	129.683	0.118	0.149
-244.976	-7.777	-0.137	0.091
-243.961	290.574	-0.051	0.092
-242.946	-200.000	-0.022	0.332
-241.932	-78.918	0.270	-0.090
-240.917	358.431	0.083	-0.164
-239.903	-200.000	-0.022	-0.306
-238.888	-105.038	0.184	0.041
-237.873	292.611	-0.020	-0.036
-236.859	82.737	-0.036	-0.038
-235.844	-26.370	-0.101	-0.058
-234.830	-163.938	-0.370	0.017
-233.815	230.056	-0.043	0.069
-232.800	-200.000	0.022	-0.320
-231.786	800.000	0.050	-0.183
-230.771	95.925	-0.169	0.190
-229.757	-200.000	0.008	0.041
-228.742	-147.171	0.199	0.017
-227.727	116.320	0.337	0.406
-226.713	99.098	0.118	-0.134
-225.698	800.000	0.010	0.040
-224.684	-91.379	-0.066	-0.019
-223.669	-110.935	-0.371	-0.075
-222.655	-167.636	-0.328	0.013
-221.640	0.271	0.189	0.133
-220.625	-200.000	-0.048	-0.366
-219.611	-200.000	0.013	0.127
-218.596	-200.000	0.037	0.232
-217.582	-200.000	-0.059	-0.271
-216.567	9.840	-0.108	-0.081
-215.552	156.877	0.164	-0.223
-214.538	43.971	-0.108	-0.097
-213.523	800.000	-0.028	0.098
-212.509	-125.892	0.326	-0.048
-211.494	320.774	-0.068	-0.127
-210.479	-151.833	0.121	0.009
-209.465	81.597	0.016	0.017
-208.450	-200.000	0.056	0.314
-207.436	-162.759	0.163	-0.008
-206.421	-113.300	0.142	0.027
-205.406	218.116	0.100	-0.157
-204.392	303.997	0.051	0.092
-203.377	-200.000	-0.018	0.237
-202.363	-71.722	0.172	0.063
-201.348	-161.969	0.020	-0.001
-200.333	349.866	-0.051	-0.100
-199.319	-200.000	-0.049	-0.261
-198.304	-200.000	0.000	-0.044
-197.290	800.000	-0.044	0.132
-196.275	-106.471	0.218	-0.048
-195.260	-14.539	-0.086	-0.054
-194.246	129.698	-0.083	0.104
-193.231	290.388	0.161	0.288
-192.217	42.679	-0.276	0.248
-191.202	263.996	0.090	-0.154
-190.187	-200.000	-0.006	0.111
-189.173	-57.735	0.651	0.280
-188.158	86.365	-0.152	-0.165
-187.144	67.404	0.159	0.159
-186.129	-51.348	-0.361	0.166
-185.114	86.216	-0.258	0.280
-184.100	-5.020	0.248	0.168
-183.085	-26.878	-0.254	0.146
-182.071	278.830	-0.089	-0.156
-181.056	70.043	-0.174	-0.177
-180.042	-80.318	0.341	0.112
-179.027	-7.871	0.160	-0.106
-178.012	113.513	-0.088	0.104
-176.998	-200.000	0.009	0.133
-175.983	14.833	-0.300	-0.230
-174.969	-200.000	0.002	0.088
-173.954	15.123	0.206	0.158
-172.939	800.000	0.033	-0.138
-171.925	345.693	0.019	0.036
-170.910	132.243	-0.013	0.016
-169.896	-78.109	0.290	-0.098
-168.881	800.000	-0.124	-0.416
-167.866	-166.903	0.135	0.005
-166.852	-75.005	-0.189	0.066
-165.837	800.000	0.025	0.105
-164.823	-57.175	0.151	0.065
-163.808	177.742	-0.022	-0.032
-162.793	-200.000	0.036	0.202
-161.779	-128.576	0.428	0.060
-160.764	-39.259	-0.148	0.077
-159.750	-200.000	-0.060	0.453
-158.735	437.621	0.136	0.291
-157.720	-68.930	-0.192	0.073
-156.706	800.000	-0.071	-0.206
-155.691	800.000	-0.096	0.314
-154.677	123.271	0.246	-0.302
-153.662	-200.000	0.006	-0.112
-152.647	268.121	0.148	-0.254
-151.633	-117.689	0.105	0.019
-150.618	-200.000	0.001	-0.082
-149.604	-52.175	0.196	-0.089
-148.589	38.059	-0.211	-0.184
-147.574	19.799	-0.261	0.206
-146.560	400.484	0.091	0.187
-145.545	-151.960	0.220	-0.016
-144.531	149.773	-0.076	-0.102
-143.516	151.862	-0.185	-0.247
-142.502	-200.000	-0.042	0.200
-141.487	-122.534	-0.115	-0.018
-140.472	-119.805	0.158	0.027
-139.458	590.349	-0.093	-0.225
-138.443	50.508	-0.033	-0.030
-137.429	-48.339	-0.192	-0.091
-136.414	156.766	-0.098	-0.133
-135.399	-200.000	0.018	0.134
-134.385	-104.474	0.101	-0.023
-133.370	-136.475	-0.284	-0.032
-132.356	150.678	0.074	-0.098
-131.341	-185.749	-0.417	-0.006
-130.326	-123.162	-0.332	0.052
-129.312	800.000	-0.053	0.181
-128.297	713.168	0.077	0.199
-127.283	37.618	-0.155	-0.135
-126.268	-97.474	-0.140	0.036
-125.253	800.000	0.054	0.167
-124.239	-200.000	-0.105	0.498
-123.224	-200.000	-0.009	0.227
-122.210	-43.279	-0.267	0.132
-121.195	-200.000	-0.017	0.319
-120.180	62.922	0.269	0.264
