DTS Sentinel unit serial number:	SN413079Multiplexer serial number:	ORYXHardware model number:	OX4-SRSoftware version number:	ORYX F/W v4.00 Oryx Data Collector v3.7.2.0data status	okinstallation	princeton_trtdifferential loss correction	single-endedforward channel	channel 2reverse channel	N/Adate	2019/09/15time	21:19:34forward acquisition time	60.00reverse acquisition time	0.00gamma	496.2192k internal	0.2332k external	0.2332temperature offset calibration	0.9941default loss term (dB/km)	0.3790temperature slope calibration	1.0000multiplexer offset coefficient	1.0000multiplexer slope coefficient	1.0000fibre end	0.00T internal ref (°C)	31.06T ext. ref 1 (°C)	8.22T ext. ref 2 (°C)	24.08length (m)	temperature (°C)	Stokes	anti-Stokes-747.200	-118.054	-0.170	-0.031
-746.185	230.581	-0.042	0.069
-745.171	1.526	-0.252	0.183
-744.156	-200.000	-0.004	0.217
-743.142	800.000	-0.098	0.375
-742.127	241.548	-0.190	0.319
-741.112	-56.113	0.514	0.230
-740.098	50.057	-0.071	0.067
-739.083	-82.844	0.121	0.039
-738.069	244.497	0.164	0.277
-737.054	-149.022	0.248	0.020
-736.039	-128.515	-0.449	-0.064
-735.025	61.050	-0.251	0.251
-734.010	346.112	-0.128	-0.252
-732.996	39.661	-0.342	-0.308
-731.981	-200.000	0.052	0.292
-730.966	-200.000	0.009	-0.122
-729.952	61.585	-0.254	0.254
-728.937	-97.537	-0.488	-0.128
-727.923	800.000	-0.091	-0.371
-726.908	800.000	-0.036	-0.153
-725.894	-200.000	0.035	0.246
-724.879	-200.000	-0.037	0.264
-723.864	-200.000	-0.010	-0.278
-722.850	800.000	-0.059	-0.198
-721.835	-123.133	-0.367	0.059
-720.821	-48.587	-0.185	0.089
-719.806	263.147	-0.118	0.206
-718.791	-101.424	0.170	-0.042
-717.777	55.212	-0.210	0.204
-716.762	-95.945	-0.439	-0.117
-715.748	204.376	-0.138	0.214
-714.733	-57.329	0.083	-0.037
-713.718	111.711	-0.148	0.179
-712.704	596.088	0.149	-0.370
-711.689	85.938	0.192	0.213
-710.675	-200.000	-0.054	-0.303
-709.660	800.000	0.035	-0.149
-708.645	128.980	0.038	-0.048
-707.631	-133.001	0.033	0.004
-706.616	-85.340	-0.158	0.050
-705.602	117.968	0.081	-0.100
-704.587	-39.697	0.049	-0.026
-703.572	800.000	0.025	-0.103
-702.558	-200.000	0.008	0.105
-701.543	800.000	-0.095	0.356
-700.529	575.950	-0.172	-0.423
-699.514	92.843	-0.369	-0.419
-698.499	77.707	0.231	-0.248
-697.485	-200.000	-0.008	-0.180
-696.470	339.281	-0.041	-0.081
-695.456	411.164	-0.052	-0.110
-694.441	-4.940	-0.041	-0.028
-693.426	-200.000	-0.036	-0.159
-692.412	132.833	-0.199	0.257
-691.397	474.612	0.115	0.261
-690.383	45.450	-0.176	-0.163
-689.368	-95.011	-0.243	0.066
-688.354	800.000	-0.099	0.393
-687.339	-27.271	0.255	0.149
-686.324	12.722	-0.243	0.189
-685.310	164.973	0.200	-0.283
-684.295	9.195	0.192	-0.146
-683.281	-104.624	-0.492	0.114
-682.266	217.795	0.187	0.299
-681.251	-139.538	0.042	0.005
-680.237	75.206	0.270	0.286
-679.222	11.397	0.276	-0.212
-678.208	-0.151	-0.092	0.066
-677.193	-129.458	-0.270	0.038
-676.178	800.000	-0.075	-0.214
-675.164	-58.310	0.470	0.205
-674.149	637.789	0.075	-0.192
-673.135	-140.959	-0.236	-0.024
-672.120	-111.381	0.203	-0.042
-671.105	800.000	-0.059	-0.200
-670.091	-58.955	0.209	0.091
-669.076	-21.548	0.273	0.167
-668.062	480.729	0.092	-0.210
-667.047	255.194	0.093	0.160
-666.032	800.000	0.108	0.406
-665.018	-107.303	0.181	0.040
-664.003	-59.949	-0.087	-0.038
-662.989	-99.061	-0.226	-0.057
-661.974	-146.428	-0.166	-0.015
-660.959	-37.691	-0.103	0.055
-659.945	11.011	-0.020	0.015
-658.930	215.422	0.107	-0.170
-657.916	-67.140	-0.153	0.061
-656.901	-119.765	0.170	0.029
-655.886	-82.540	0.313	-0.102
-654.872	-86.178	-0.048	0.015
-653.857	-42.798	0.145	-0.074
-652.843	25.508	-0.080	-0.067
-651.828	235.353	0.201	0.333
-650.814	-200.000	-0.060	-0.412
-649.799	137.590	-0.167	0.219
-648.784	328.729	0.105	0.202
-647.770	-69.927	-0.211	-0.081
-646.755	157.044	-0.207	-0.286
-645.741	800.000	-0.024	-0.078
-644.726	-132.128	0.161	0.021
-643.711	-110.228	-0.139	-0.029
-642.697	223.361	-0.188	0.303
-641.682	10.581	0.162	0.124
-640.668	-77.389	0.199	-0.069
-639.653	-66.611	0.244	0.097
-638.638	12.405	-0.274	0.212
-637.624	-150.817	0.217	0.016
-636.609	99.816	-0.064	-0.074
-635.595	-126.917	0.175	-0.026
-634.580	-200.000	-0.023	0.292
-633.565	8.351	-0.068	0.051
-632.551	67.968	0.307	-0.314
-631.536	68.812	0.058	0.059
-630.522	-88.784	0.125	-0.037
-629.507	223.783	-0.201	-0.325
-628.492	0.984	0.279	-0.200
-627.478	56.415	-0.247	-0.241
-626.463	24.328	-0.169	-0.139
-625.449	-175.358	0.383	-0.011
-624.434	-16.464	-0.213	-0.135
-623.419	-200.000	0.039	-0.190
-622.405	800.000	0.047	0.178
-621.390	318.464	0.106	-0.201
-620.376	38.383	-0.105	0.093
-619.361	349.641	-0.092	-0.183
-618.346	37.460	-0.225	-0.199
-617.332	-81.940	0.338	0.111
-616.317	-185.013	0.251	-0.004
-615.303	-66.770	-0.095	0.038
-614.288	7.787	0.225	-0.168
-613.273	139.749	-0.111	-0.147
-612.259	291.033	-0.108	0.196
-611.244	-65.264	-0.153	0.062
-610.230	800.000	0.022	0.081
-609.215	800.000	0.085	-0.257
-608.201	-200.000	-0.000	-0.018
-607.186	68.632	-0.217	-0.223
-606.171	800.000	-0.023	-0.093
-605.157	-18.611	-0.222	0.139
-604.142	800.000	0.122	0.380
-603.128	-200.000	-0.054	-0.293
-602.113	-132.164	0.250	0.032
-601.098	668.444	0.090	-0.232
-600.084	66.324	-0.275	-0.279
-599.069	-200.000	-0.021	-0.287
-598.055	-95.286	0.135	-0.036
-597.040	-163.127	-0.434	0.021
-596.025	275.771	0.145	-0.258
-595.011	216.256	0.337	0.536
-593.996	-27.436	0.085	0.049
-592.982	-200.000	-0.011	0.158
-591.967	-160.655	-0.269	-0.014
-590.952	800.000	0.085	-0.292
-589.938	-200.000	-0.017	-0.285
-588.923	93.335	-0.144	-0.163
-587.909	-200.000	-0.073	-0.385
-586.894	-103.591	0.327	0.077
-585.879	800.000	-0.049	-0.168
-584.865	348.764	-0.130	-0.257
-583.850	800.000	0.103	0.373
-582.836	-200.000	-0.008	0.289
-581.821	91.033	-0.108	-0.121
-580.806	403.693	0.079	-0.167
-579.792	-75.486	0.380	0.135
-578.777	76.489	-0.240	0.254
-577.763	-77.171	-0.215	0.075
-576.748	-175.935	-0.213	0.006
-575.733	-200.000	-0.023	0.614
-574.719	800.000	0.041	0.175
-573.704	-70.942	0.196	-0.074
-572.690	800.000	0.085	0.322
-571.675	185.936	0.079	-0.117
-570.661	146.889	-0.124	0.166
-569.646	40.453	-0.371	0.334
-568.631	-54.111	0.156	0.071
-567.617	543.601	-0.151	-0.359
-566.602	449.819	-0.112	0.246
-565.588	-120.270	-0.229	-0.039
-564.573	6.457	0.172	0.128
-563.558	-174.222	-0.407	-0.012
-562.544	-25.321	0.227	0.134
-561.529	-37.344	0.131	0.070
-560.515	800.000	0.069	-0.299
-559.500	-99.526	-0.164	0.041
-558.485	-22.949	0.150	0.090
-557.471	-140.029	-0.366	-0.038
-556.456	-108.889	-0.223	-0.048
-555.442	-135.801	-0.081	0.010
-554.427	-166.518	0.242	0.010
-553.412	-101.384	-0.243	-0.059
-552.398	-62.121	0.248	0.103
-551.383	294.825	0.145	-0.266
-550.369	-110.985	-0.239	-0.049
-549.354	21.503	0.153	0.124
-548.339	-51.369	0.312	-0.146
-547.325	-150.020	0.102	-0.008
-546.310	-14.898	-0.222	-0.142
-545.296	-200.000	-0.059	-0.392
-544.281	-200.000	-0.033	-0.177
-543.266	-36.662	0.371	-0.199
-542.252	-200.000	0.044	0.341
-541.237	202.438	-0.137	0.212
-540.223	-71.609	-0.315	-0.117
-539.208	-130.307	-0.143	-0.019
-538.193	15.597	-0.119	-0.093
-537.179	-72.177	-0.297	-0.110
-536.164	45.851	0.163	0.151
-535.150	327.097	-0.215	-0.412
-534.135	622.002	-0.096	-0.241
-533.121	103.906	0.123	-0.144
-532.106	-200.000	-0.054	-0.246
-531.091	800.000	0.085	0.255
-530.077	800.000	0.026	0.085
-529.062	681.890	0.045	-0.117
-528.048	-5.939	-0.145	0.099
-527.033	-200.000	0.056	-0.271
-526.018	95.360	-0.103	-0.117
-525.004	-8.700	0.204	-0.136
-523.989	-125.196	0.098	0.015
-522.975	800.000	-0.073	-0.250
-521.960	800.000	-0.109	-0.387
-520.945	257.190	-0.059	0.100
-519.931	314.981	-0.082	0.154
-518.916	338.953	0.169	0.329
-517.902	-51.928	-0.286	0.132
-516.887	-36.643	0.110	0.059
-515.872	35.540	-0.087	-0.076
-514.858	-96.531	-0.101	-0.027
-513.843	800.000	0.109	-0.325
-512.829	-9.434	0.345	-0.230
-511.814	151.400	-0.131	-0.178
-510.799	-200.000	-0.022	-0.172
-509.785	-84.717	0.370	-0.116
-508.770	800.000	-0.033	-0.104
-507.756	-110.936	-0.236	0.048
-506.741	-46.613	0.225	0.110
-505.726	37.353	0.059	-0.052
-504.712	-200.000	-0.051	-0.597
-503.697	494.807	0.144	-0.330
-502.683	132.775	0.149	0.192
-501.668	-120.399	-0.088	-0.015
-500.653	106.219	-0.139	0.164
-499.639	-15.371	0.468	-0.298
-498.624	24.578	-0.307	-0.253
-497.610	-54.082	-0.244	0.110
-496.595	-63.158	-0.240	0.099
-495.581	98.091	0.194	0.222
-494.566	695.322	-0.069	-0.179
-493.551	-58.416	0.287	-0.124
-492.537	-12.055	0.216	0.141
-491.522	347.580	0.067	0.132
-490.508	-88.397	0.264	-0.079
-489.493	800.000	-0.151	-0.424
-488.478	-66.634	0.045	-0.018
-487.464	-200.000	0.006	-0.186
-486.449	-200.000	-0.296	0.000
-485.435	30.466	0.160	-0.136
-484.420	-2.103	-0.077	0.054
-483.405	-106.817	0.263	0.058
-482.391	800.000	0.118	0.478
-481.376	156.018	-0.158	0.217
-480.362	191.579	0.152	-0.228
-479.347	60.806	0.142	-0.141
-478.332	-97.097	-0.299	-0.078
-477.318	43.593	0.208	-0.189
-476.303	-200.000	0.023	0.308
-475.289	-200.000	-0.003	-0.135
-474.274	-22.898	-0.192	0.115
-473.259	513.771	-0.116	0.269
-472.245	-57.165	-0.348	0.152
-471.230	144.203	0.150	-0.200
-470.216	-200.000	-0.013	-0.289
-469.201	154.995	0.113	-0.155
-468.186	-200.000	-0.094	0.505
-467.172	-181.273	0.340	0.007
-466.157	-99.682	0.180	-0.045
-465.143	-170.660	-0.292	-0.010
-464.128	514.081	0.154	0.358
-463.113	800.000	-0.024	0.085
-462.099	484.173	-0.036	0.082
-461.084	-200.000	-0.035	0.183
-460.070	9.550	-0.226	-0.170
-459.055	800.000	-0.097	0.344
-458.040	-200.000	-0.027	-0.154
-457.026	175.694	-0.160	-0.231
-456.011	93.459	-0.151	-0.170
-454.997	42.279	-0.288	0.261
-453.982	-104.826	0.253	-0.058
-452.968	-24.854	-0.072	-0.042
-451.953	-164.131	0.283	-0.013
-450.938	-80.161	-0.140	0.047
-449.924	108.386	0.122	-0.145
-448.909	-170.487	0.269	-0.009
-447.895	-73.279	0.161	0.059
-446.880	-175.528	-0.226	0.006
-445.865	-111.006	-0.087	0.018
-444.851	399.898	0.014	-0.028
-443.836	145.686	-0.101	0.134
-442.822	86.425	-0.144	-0.157
-441.807	-98.562	0.103	-0.026
-440.792	-13.203	0.037	0.024
-439.778	-49.891	0.033	0.016
-438.763	-81.059	0.088	0.029
-437.749	-90.590	0.353	-0.102
-436.734	-25.300	-0.343	0.202
-435.719	372.898	-0.053	0.107
-434.705	745.330	0.124	-0.331
-433.690	800.000	0.039	-0.124
-432.676	-196.892	0.408	-0.003
-431.661	-167.070	0.327	0.013
-430.646	141.775	-0.070	-0.092
-429.632	-102.145	-0.100	-0.024
-428.617	582.929	0.102	0.248
-427.603	-66.836	-0.236	-0.093
-426.588	17.499	-0.129	0.102
-425.573	-200.000	0.015	-0.310
-424.559	-172.075	0.295	-0.009
-423.544	321.525	-0.042	-0.080
-422.530	149.313	0.126	-0.169
-421.515	-96.038	0.237	0.063
-420.500	194.691	-0.183	0.276
-419.486	800.000	0.076	0.287
-418.471	60.915	-0.253	0.249
-417.457	-200.000	-0.077	-0.490
-416.442	-200.000	-0.050	0.234
-415.428	79.069	0.063	0.067
-414.413	89.248	0.204	-0.226
-413.398	-4.125	-0.065	0.045
-412.384	-136.038	0.264	-0.031
-411.369	800.000	-0.021	0.087
-410.355	-120.670	-0.297	0.050
-409.340	-72.921	0.266	-0.097
-408.325	389.217	-0.081	-0.166
-407.311	12.118	0.085	-0.065
-406.296	-13.424	0.194	0.125
-405.282	222.358	0.043	0.068
-404.267	-116.972	-0.103	-0.019
-403.252	-31.776	-0.320	-0.178
-402.238	-162.852	0.135	-0.007
-401.223	800.000	-0.059	-0.252
-400.209	-3.203	-0.140	0.097
-399.194	269.043	0.065	0.112
-398.179	-138.031	-0.192	0.021
-397.165	173.171	-0.041	-0.059
-396.150	-200.000	0.016	-0.272
-395.136	-49.201	-0.152	0.072
-394.121	-200.000	-0.014	0.069
-393.106	-200.000	-0.029	-0.280
-392.092	298.519	-0.014	0.026
-391.077	85.848	-0.237	0.258
-390.063	98.271	0.146	-0.167
-389.048	-137.161	-0.181	0.021
-388.033	-51.612	-0.084	-0.039
-387.019	-6.339	-0.341	0.231
-386.004	-97.388	-0.249	0.064
-384.990	-37.922	-0.179	-0.094
-383.975	800.000	-0.040	0.173
-382.960	800.000	-0.042	0.169
-381.946	-11.029	0.105	0.069
-380.931	246.302	-0.123	-0.206
-379.917	36.202	-0.157	0.137
-378.902	150.611	-0.200	0.270
-377.888	-200.000	0.010	0.317
-376.873	-200.000	0.013	-0.221
-375.858	-63.997	-0.234	0.095
-374.844	792.197	0.043	-0.118
-373.829	-135.328	-0.070	0.008
-372.815	-147.669	0.375	0.031
-371.800	278.626	-0.084	-0.149
-370.785	-70.068	0.415	0.157
-369.771	-200.000	-0.051	0.350
-368.756	50.247	0.217	-0.203
-367.742	800.000	0.066	-0.240
-366.727	391.710	-0.211	0.434
-365.712	-165.108	-0.108	-0.005
-364.698	-10.654	0.294	-0.193
-363.683	-58.649	-0.025	-0.011
-362.669	132.969	0.091	0.117
-361.654	56.934	-0.147	0.142
-360.639	-13.634	0.228	-0.146
-359.625	-126.506	-0.140	-0.021
-358.610	637.205	0.113	-0.285
-357.596	-151.426	0.292	0.022
-356.581	94.787	-0.240	0.271
-355.566	178.104	-0.250	0.361
-354.552	-37.662	0.147	0.078
-353.537	-200.000	-0.155	0.000
-352.523	-59.033	-0.092	0.039
-351.508	-123.338	-0.073	0.012
-350.493	-200.000	0.002	-0.022
-349.479	-24.151	0.027	0.016
-348.464	-200.000	-0.034	-0.165
-347.450	215.801	-0.131	-0.206
-346.435	222.838	0.020	-0.032
-345.420	-59.321	-0.242	-0.103
-344.406	138.364	0.255	0.332
-343.391	-58.451	-0.269	0.116
-342.377	386.685	0.047	0.096
-341.362	-90.194	0.078	0.023
-340.348	254.526	0.154	-0.262
-339.333	491.097	0.044	-0.101
-338.318	-63.843	0.275	0.112
-337.304	-73.591	-0.323	0.117
-336.289	-11.029	-0.206	-0.134
-335.275	-36.768	-0.304	-0.162
-334.260	-2.228	-0.056	-0.039
-333.245	800.000	0.164	0.496
-332.231	-17.229	-0.288	0.180
-331.216	267.788	0.055	0.095
-330.202	-200.000	-0.026	-0.137
-329.187	-153.228	0.260	0.018
-328.172	575.182	-0.025	0.060
-327.158	-200.000	-0.067	0.370
-326.143	800.000	-0.118	-0.415
-325.129	217.477	0.052	0.082
-324.114	7.164	-0.212	0.157
-323.099	610.994	-0.109	0.270
-322.085	49.991	0.107	-0.100
-321.070	192.574	-0.137	-0.204
-320.056	179.316	0.173	-0.250
-319.041	-83.444	0.119	-0.038
-318.026	800.000	-0.035	-0.145
-317.012	431.061	-0.029	-0.062
-315.997	204.036	-0.022	-0.034
-314.983	-134.021	-0.058	0.007
-313.968	-111.779	0.209	0.042
-312.953	32.017	-0.021	-0.018
-311.939	10.184	-0.137	0.103
-310.924	117.235	-0.084	-0.102
-309.910	74.931	0.274	-0.285
-308.895	-17.700	0.222	0.138
-307.880	-200.000	0.024	0.363
-306.866	-23.563	0.175	0.104
-305.851	-200.000	0.017	0.327
-304.837	-200.000	-0.068	0.307
-303.822	59.319	0.109	0.106
-302.807	-200.000	0.011	-0.144
-301.793	-74.384	0.162	-0.058
-300.778	-39.804	0.028	0.014
-299.764	698.875	-0.015	0.039
-298.749	-200.000	0.003	-0.241
-297.735	97.092	-0.147	0.167
-296.720	-151.869	0.373	-0.027
-295.705	800.000	-0.040	-0.121
-294.691	-42.757	-0.107	-0.054
-293.676	262.535	-0.080	0.137
-292.662	-82.768	-0.164	0.053
-291.647	-200.000	-0.002	0.379
-290.632	800.000	0.028	0.102
-289.618	123.656	0.153	-0.189
-288.603	-186.141	0.245	-0.004
-287.589	-59.489	0.251	-0.106
-286.574	-6.804	-0.236	0.159
-285.559	-200.000	0.012	0.216
-284.545	9.728	0.130	-0.098
-283.530	238.512	0.092	-0.150
-282.516	-54.110	0.043	-0.019
-281.501	145.064	-0.042	0.055
-280.486	110.875	-0.082	0.097
-279.472	-133.549	-0.157	0.019
-278.457	-172.467	0.122	-0.004
-277.443	17.481	-0.232	-0.182
-276.428	-104.658	-0.130	-0.030
-275.413	-78.418	-0.145	-0.049
-274.399	800.000	-0.028	-0.116
-273.384	-200.000	0.034	0.454
-272.370	338.892	-0.052	0.100
-271.355	113.704	-0.076	-0.091
-270.340	-153.635	0.375	0.026
-269.326	-12.864	-0.213	0.137
-268.311	-95.646	-0.199	-0.052
-267.297	19.875	-0.205	0.163
-266.282	-168.697	-0.233	-0.009
-265.267	-33.792	0.134	-0.073
-264.253	34.755	0.114	0.098
-263.238	-145.035	0.309	0.028
-262.224	-200.000	-0.013	-0.090
-261.209	31.309	0.262	0.222
-260.195	0.051	-0.380	-0.267
-259.180	-14.084	0.304	-0.194
-258.165	-200.000	-0.025	0.134
-257.151	226.599	-0.098	-0.156
-256.136	-125.237	0.091	-0.014
-255.122	800.000	-0.119	0.391
-254.107	-46.699	0.175	-0.085
-253.092	-200.000	0.046	0.345
-252.078	514.227	0.062	-0.143
-251.063	32.994	0.098	0.084
-250.049	-200.000	-0.002	0.235
-249.034	-200.000	0.043	0.256
-248.019	-81.323	-0.321	0.104
-247.005	-147.577	-0.208	0.017
-245.990	-138.971	-0.281	0.030
-244.976	204.555	0.057	-0.087
-243.961	133.901	-0.093	-0.119
-242.946	107.965	-0.131	0.154
-241.932	800.000	0.063	-0.188
-240.917	-200.000	0.032	-0.168
-239.903	-66.771	-0.257	-0.100
-238.888	53.030	-0.117	0.110
-237.873	97.143	-0.066	-0.075
-236.859	280.256	0.225	0.396
-235.844	235.248	0.270	0.440
-234.830	-200.000	-0.015	-0.215
-233.815	-200.000	-0.032	-0.255
-232.800	-150.241	-0.057	0.004
-231.786	554.920	0.048	-0.113
-230.771	416.844	-0.080	0.168
-229.757	-57.806	0.132	-0.057
-228.742	799.422	0.116	0.316
-227.727	100.419	0.267	0.306
-226.713	77.229	0.240	0.252
-225.698	-33.190	-0.065	0.035
-224.684	788.002	-0.110	0.298
-223.669	14.556	0.164	0.126
-222.655	-135.782	0.151	-0.018
-221.640	-55.759	-0.073	-0.032
-220.625	-45.294	-0.081	0.040
-219.611	-175.441	0.304	0.008
-218.596	253.875	-0.177	-0.298
-217.582	-149.405	-0.245	0.019
-216.567	-200.000	-0.014	-0.231
-215.552	-200.000	0.044	-0.327
-214.538	-78.682	0.234	-0.079
-213.523	-200.000	0.068	0.597
-212.509	-18.457	0.292	-0.180
-211.494	-191.572	-0.318	0.003
-210.479	262.561	0.083	0.141
-209.465	-8.959	0.302	-0.199
-208.450	7.163	-0.222	-0.163
-207.436	142.181	-0.139	-0.182
-206.421	800.000	-0.095	-0.285
-205.406	-91.302	0.433	-0.122
-204.392	-130.250	-0.156	-0.021
-203.377	333.544	-0.117	0.222
-202.363	-66.470	-0.446	-0.175
-201.348	-113.394	-0.217	-0.042
-200.333	-152.348	-0.509	0.036
-199.319	1.397	-0.173	0.122
-198.304	-76.334	0.385	0.134
-197.290	-22.527	-0.193	-0.115
-196.275	78.236	0.145	0.152
-195.260	-15.978	0.164	0.102
-194.246	34.363	-0.192	-0.165
-193.231	54.589	0.397	0.377
-192.217	-200.000	0.052	-0.295
-191.202	800.000	-0.102	-0.370
-190.187	244.208	-0.151	0.250
-189.173	622.810	0.073	-0.181
-188.158	-200.000	-0.042	0.214
-187.144	800.000	0.140	-0.414
-186.129	191.015	0.109	-0.161
-185.114	-200.000	0.069	-0.331
-184.100	-0.160	-0.132	0.093
-183.085	-200.000	0.092	-0.446
-182.071	-200.000	-0.034	0.263
-181.056	-43.842	0.362	0.179
-180.042	-65.518	-0.190	0.075
-179.027	-34.431	-0.110	0.059
-178.012	-44.936	-0.243	-0.119
-176.998	-111.603	-0.209	0.042
-175.983	-200.000	0.044	0.445
-174.969	164.524	0.280	0.388
-173.954	-33.961	0.202	0.110
-172.939	116.625	0.070	0.085
-171.925	-100.662	-0.220	-0.053
-170.910	-74.652	0.241	0.085
-169.896	800.000	0.053	0.180
-168.881	-164.400	0.296	-0.013
-167.866	-124.618	0.164	0.025
-166.852	-96.808	-0.516	0.133
-165.837	-132.360	-0.321	-0.041
-164.823	143.464	-0.122	0.159
-163.808	-163.544	0.250	-0.012
-162.793	-171.097	0.591	-0.020
-161.779	338.801	0.170	-0.326
-160.764	423.119	0.178	0.375
-159.750	712.089	0.030	0.079
-158.735	-200.000	0.020	0.127
-157.720	517.280	0.115	0.263
-156.706	800.000	-0.031	0.124
-155.691	-200.000	0.043	-0.349
-154.677	-90.512	0.235	-0.067
-153.662	21.640	0.194	-0.156
-152.647	-200.000	0.029	-0.175
-151.633	-130.014	0.052	0.007
-150.618	616.400	0.144	0.356
-149.604	70.529	0.242	0.246
-148.589	-35.313	0.184	-0.098
-147.574	-17.700	-0.415	0.256
-146.560	-65.743	0.118	0.047
-145.545	37.049	-0.082	0.071
-144.531	-12.288	0.398	-0.255
-143.516	91.872	0.099	0.110
-142.502	191.721	0.176	0.261
-141.487	43.476	-0.150	0.135
-140.472	800.000	0.057	0.194
-139.458	-131.323	-0.087	-0.011
-138.443	-200.000	0.046	0.425
-137.429	-74.518	-0.095	0.034
-136.414	-77.535	-0.166	0.057
-135.399	-144.243	0.198	0.018
-134.385	24.890	-0.363	0.295
-133.370	-200.000	0.002	-0.205
-132.356	-200.000	0.006	0.176
-131.341	-200.000	0.014	-0.067
-130.326	55.283	0.103	0.098
-129.312	-132.481	0.087	0.011
-128.297	-200.000	-0.007	0.222
-127.283	630.784	0.056	-0.139
-126.268	-82.065	0.174	0.056
-125.253	-200.000	0.018	-0.200
-124.239	-78.034	0.288	-0.097
-123.224	695.063	-0.193	-0.497
-122.210	-149.171	0.328	-0.026
-121.195	265.247	0.055	0.094
