DTS Sentinel unit serial number:	SN413079Multiplexer serial number:	ORYXHardware model number:	OX4-SRSoftware version number:	ORYX F/W v4.00 Oryx Data Collector v3.7.2.0data status	okinstallation	princeton_trtdifferential loss correction	single-endedforward channel	channel 2reverse channel	N/Adate	2019/09/18time	08:03:34forward acquisition time	60.00reverse acquisition time	0.00gamma	496.2192k internal	0.2346k external	0.2346temperature offset calibration	0.9976default loss term (dB/km)	0.3790temperature slope calibration	1.0000multiplexer offset coefficient	1.0000multiplexer slope coefficient	1.0000fibre end	0.00T internal ref (°C)	23.69T ext. ref 1 (°C)	0.20T ext. ref 2 (°C)	19.35length (m)	temperature (°C)	Stokes	anti-Stokes-747.200	317.469	0.158	0.299
-746.185	388.507	-0.244	0.506
-745.171	-200.000	0.009	0.251
-744.156	648.085	0.081	0.207
-743.142	256.033	-0.171	-0.293
-742.127	-177.155	-0.214	0.005
-741.112	338.232	0.119	0.232
-740.098	-151.434	-0.471	0.035
-739.083	800.000	0.053	-0.196
-738.069	-10.193	-0.263	0.174
-737.054	-34.578	-0.207	-0.113
-736.039	-34.644	-0.181	-0.099
-735.025	47.584	0.097	0.090
-734.010	14.600	-0.254	-0.198
-732.996	-200.000	-0.085	-0.410
-731.981	28.990	-0.249	0.211
-730.966	172.471	-0.061	-0.087
-729.952	-62.497	-0.142	-0.059
-728.937	-200.000	-0.010	-0.045
-727.923	-122.239	-0.315	0.051
-726.908	800.000	-0.033	-0.104
-725.894	212.774	-0.102	-0.161
-724.879	800.000	-0.083	0.256
-723.864	-18.397	-0.128	0.080
-722.850	36.313	0.150	0.132
-721.835	-125.780	-0.247	-0.037
-720.821	-8.842	-0.096	-0.064
-719.806	265.790	0.064	-0.112
-718.791	125.137	0.065	-0.082
-717.777	-200.000	0.007	-0.125
-716.762	-156.273	0.262	-0.016
-715.748	188.476	0.042	-0.062
-714.733	-101.933	0.095	-0.023
-713.718	-75.166	-0.319	0.114
-712.704	-25.501	-0.165	-0.098
-711.689	42.168	-0.160	-0.145
-710.675	-41.228	0.242	-0.125
-709.660	114.005	-0.090	-0.110
-708.645	800.000	0.153	-0.547
-707.631	94.187	-0.172	-0.195
-706.616	-200.000	0.038	-0.185
-705.602	-134.655	0.189	0.023
-704.587	-12.949	0.136	-0.088
-703.572	-81.734	0.141	-0.046
-702.558	-200.000	-0.040	-0.292
-701.543	-89.415	-0.228	0.067
-700.529	545.449	-0.053	-0.127
-699.514	-80.654	-0.184	-0.061
-698.499	205.465	-0.148	-0.229
-697.485	800.000	0.114	-0.403
-696.470	46.501	-0.086	-0.080
-695.456	-200.000	0.038	-0.312
-694.441	-51.912	-0.110	-0.051
-693.426	-200.000	0.015	-0.128
-692.412	800.000	-0.047	0.159
-691.397	-200.000	0.043	-0.199
-690.383	284.029	-0.104	0.187
-689.368	800.000	0.013	-0.054
-688.354	-70.251	-0.376	-0.142
-687.339	-200.000	0.038	0.191
-686.324	-47.879	-0.180	-0.087
-685.310	800.000	0.108	-0.390
-684.295	-47.370	-0.144	-0.070
-683.281	113.520	-0.064	0.078
-682.266	134.248	-0.119	0.154
-681.251	392.969	0.072	-0.149
-680.237	-200.000	-0.283	0.001
-679.222	663.188	0.043	-0.110
-678.208	-78.263	-0.121	-0.041
-677.193	266.979	0.176	-0.307
-676.178	-200.000	-0.037	0.171
-675.164	-66.160	0.163	-0.065
-674.149	79.801	-0.079	-0.085
-673.135	91.330	0.113	0.126
-672.120	124.755	-0.177	0.222
-671.105	10.496	0.250	-0.190
-670.091	-42.351	0.300	-0.153
-669.076	33.627	0.019	0.016
-668.062	100.425	-0.057	0.066
-667.047	-144.213	-0.185	0.017
-666.032	-24.343	-0.092	0.054
-665.018	479.096	0.134	0.302
-664.003	-3.224	-0.128	-0.089
-662.989	-200.000	0.001	-0.018
-661.974	-9.901	0.127	0.084
-660.959	-41.817	-0.196	0.100
-659.945	620.332	0.080	0.199
-658.930	-41.449	0.070	0.036
-657.916	63.529	-0.059	-0.059
-656.901	67.184	-0.034	-0.035
-655.886	45.070	-0.155	0.142
-654.872	-136.765	-0.247	-0.028
-653.857	667.230	-0.110	-0.284
-652.843	304.478	0.102	-0.189
-651.828	800.000	0.063	-0.175
-650.814	800.000	0.118	0.354
-649.799	-42.064	-0.081	-0.041
-648.784	-200.000	-0.039	-0.177
-647.770	102.923	-0.160	0.186
-646.755	129.261	-0.167	-0.212
-645.741	-97.894	0.136	0.035
-644.726	-86.577	-0.395	0.121
-643.711	-200.000	-0.030	-0.325
-642.697	104.338	0.076	-0.089
-641.682	-161.362	0.198	-0.010
-640.668	138.447	-0.064	-0.084
-639.653	-74.841	-0.321	-0.115
-638.638	-147.387	0.186	-0.016
-637.624	59.404	-0.369	0.362
-636.609	800.000	-0.078	-0.223
-635.595	-98.989	0.180	0.045
-634.580	-200.000	0.008	-0.163
-633.565	-136.784	-0.446	0.051
-632.551	800.000	-0.009	-0.030
-631.536	-82.462	0.318	0.103
-630.522	63.551	-0.040	0.040
-629.507	237.538	0.085	0.140
-628.492	-200.000	-0.023	0.173
-627.478	25.772	0.045	0.038
-626.463	86.407	-0.170	-0.187
-625.449	-125.031	-0.072	-0.011
-624.434	196.755	0.042	-0.063
-623.419	105.315	-0.220	-0.258
-622.405	333.119	-0.224	-0.432
-621.390	3.848	-0.188	0.136
-620.376	-154.112	0.242	-0.016
-619.361	800.000	-0.010	0.044
-618.346	28.700	-0.186	0.156
-617.332	-200.000	-0.016	-0.258
-616.317	-138.042	0.222	0.025
-615.303	-66.088	-0.149	-0.059
-614.288	-146.443	0.391	0.034
-613.273	476.079	0.154	0.346
-612.259	81.562	-0.190	0.205
-611.244	-200.000	0.001	0.162
-610.230	16.713	-0.190	-0.150
-609.215	13.892	0.030	0.023
-608.201	426.501	-0.110	0.237
-607.186	-101.942	0.194	-0.047
-606.171	-41.625	-0.172	-0.088
-605.157	420.608	-0.123	-0.263
-604.142	38.459	0.162	0.143
-603.128	401.052	0.052	0.108
-602.113	-200.000	-0.030	0.275
-601.098	85.451	-0.094	0.103
-600.084	554.482	-0.038	-0.091
-599.069	-141.769	-0.174	-0.017
-598.055	-129.201	0.331	-0.046
-597.040	-54.944	-0.539	-0.242
-596.025	-11.508	-0.249	-0.163
-595.011	800.000	-0.115	0.359
-593.996	55.869	-0.207	0.200
-592.982	-200.000	0.025	-0.261
-591.967	-200.000	0.013	0.162
-590.952	800.000	-0.113	-0.388
-589.938	-165.397	0.228	0.010
-588.923	-118.730	0.233	-0.041
-587.909	-152.776	-0.195	-0.014
-586.894	20.641	0.236	0.190
-585.879	653.465	0.115	-0.292
-584.865	-200.000	-0.009	-0.105
-583.850	74.951	0.140	-0.147
-582.836	111.354	0.071	0.085
-581.821	-146.270	-0.061	0.005
-580.806	-39.335	-0.155	-0.081
-579.792	-25.975	-0.303	0.177
-578.777	92.114	0.084	-0.094
-577.763	-80.565	0.057	0.019
-576.748	408.406	-0.126	-0.264
-575.733	337.395	-0.145	0.281
-574.719	296.108	-0.067	-0.123
-573.704	-167.696	0.237	0.009
-572.690	-9.700	-0.317	-0.210
-571.675	-91.123	0.224	-0.064
-570.661	98.605	0.179	0.205
-569.646	273.540	-0.128	-0.225
-568.631	-200.000	0.021	-0.104
-567.617	-80.531	-0.110	0.036
-566.602	800.000	0.115	-0.336
-565.588	203.009	0.155	0.238
-564.573	67.614	-0.171	0.173
-563.558	731.693	-0.052	-0.138
-562.544	38.846	0.126	0.112
-561.529	16.058	-0.195	-0.153
-560.515	-200.000	-0.044	-0.381
-559.500	291.380	0.042	-0.075
-558.485	14.733	-0.075	0.058
-557.471	714.979	-0.066	0.175
-556.456	-50.646	0.240	-0.112
-555.442	621.783	-0.137	0.343
-554.427	-143.944	0.113	0.011
-553.412	-70.782	0.269	-0.101
-552.398	-99.807	0.244	0.061
-551.383	261.673	-0.036	-0.062
-550.369	-153.182	0.276	0.019
-549.354	246.972	-0.047	0.079
-548.339	-96.354	-0.077	0.020
-547.325	-126.648	0.079	0.012
-546.310	800.000	0.068	-0.221
-545.296	800.000	-0.155	0.507
-544.281	668.997	0.130	0.334
-543.266	-172.259	0.355	0.011
-542.252	-200.000	-0.051	-0.232
-541.237	-126.786	0.262	-0.038
-540.223	-13.655	0.224	-0.144
-539.208	35.648	-0.175	0.152
-538.193	12.598	-0.205	-0.157
-537.179	-21.310	-0.312	0.189
-536.164	800.000	-0.042	0.128
-535.150	486.668	0.145	-0.328
-534.135	-47.067	0.060	0.029
-533.121	-200.000	-0.007	0.143
-532.106	-200.000	0.160	0.001
-531.091	131.175	0.293	-0.374
-530.077	-66.297	0.309	-0.122
-529.062	114.837	-0.059	-0.071
-528.048	37.455	-0.158	0.139
-527.033	-200.000	-0.018	-0.116
-526.018	213.118	-0.243	-0.381
-525.004	800.000	-0.105	0.353
-523.989	-47.894	-0.156	-0.075
-522.975	-21.888	0.286	-0.172
-521.960	18.650	0.131	0.104
-520.945	800.000	-0.096	-0.306
-519.931	-200.000	-0.007	-0.080
-518.916	-200.000	0.020	-0.309
-517.902	-27.106	-0.125	0.072
-516.887	-138.513	0.295	-0.032
-515.872	-17.166	0.064	0.040
-514.858	457.856	0.101	-0.221
-513.843	-140.120	-0.201	0.021
-512.829	800.000	0.086	0.242
-511.814	168.898	0.183	-0.259
-510.799	-106.832	0.157	0.034
-509.785	117.191	0.044	0.053
-508.770	-200.000	-0.001	0.026
-507.756	-200.000	0.024	-0.190
-506.741	463.737	0.058	-0.128
-505.726	590.078	0.033	-0.080
-504.712	-41.934	0.225	-0.114
-503.697	-23.368	0.291	-0.173
-502.683	800.000	-0.004	-0.019
-501.668	39.476	-0.169	-0.150
-500.653	38.408	0.227	0.201
-499.639	800.000	0.072	0.271
-498.624	-200.000	0.013	0.224
-497.610	298.295	-0.032	-0.058
-496.595	-70.042	-0.055	-0.021
-495.581	-12.947	0.115	-0.074
-494.566	-200.000	0.027	0.148
-493.551	140.395	-0.147	-0.193
-492.537	11.735	-0.368	-0.280
-491.522	10.018	0.220	0.165
-490.508	83.024	-0.090	0.097
-489.493	800.000	-0.039	-0.125
-488.478	-47.992	0.087	-0.042
-487.464	219.514	-0.062	-0.098
-486.449	-122.512	0.146	-0.024
-485.435	-200.000	-0.057	0.334
-484.420	209.660	-0.164	-0.255
-483.405	266.937	-0.122	0.212
-482.391	-200.000	-0.030	0.239
-481.376	-65.744	-0.335	-0.133
-480.362	-29.058	-0.170	-0.097
-479.347	242.251	0.135	-0.223
-478.332	-49.181	0.281	-0.133
-477.318	145.877	0.135	0.179
-476.303	-200.000	0.008	0.033
-475.289	-1.460	0.036	-0.025
-474.274	153.522	-0.170	-0.230
-473.259	-102.645	-0.234	0.055
-472.245	85.722	0.048	0.052
-471.230	-200.000	0.028	0.134
-470.216	93.007	-0.029	0.032
-469.201	730.179	-0.028	-0.074
-468.186	-19.877	-0.212	-0.130
-467.172	166.616	0.068	0.096
-466.157	585.859	0.082	-0.200
-465.143	-200.000	0.019	-0.230
-464.128	252.219	-0.061	0.102
-463.113	-192.985	0.071	0.001
-462.099	800.000	0.051	-0.142
-461.084	223.179	0.135	0.216
-460.070	-93.349	0.135	0.037
-459.055	-200.000	-0.037	0.348
-458.040	800.000	-0.084	-0.236
-457.026	-97.258	0.361	-0.093
-456.011	-110.493	0.372	0.076
-454.997	-200.000	0.042	0.295
-453.982	-158.415	0.207	-0.012
-452.968	608.456	-0.160	0.394
-451.953	356.365	0.056	0.111
-450.938	-181.105	0.171	-0.003
-449.924	800.000	0.024	0.085
-448.909	800.000	-0.044	-0.153
-447.895	-58.587	-0.250	0.107
-446.880	800.000	-0.062	-0.232
-445.865	-40.006	-0.113	-0.058
-444.851	14.167	-0.116	0.090
-443.836	800.000	-0.064	-0.207
-442.822	-200.000	-0.059	-0.271
-441.807	-200.000	-0.008	0.203
-440.792	93.253	-0.264	0.295
-439.778	-195.261	-0.301	0.002
-438.763	80.179	-0.068	-0.073
-437.749	107.760	-0.233	-0.274
-436.734	519.393	-0.118	0.272
-435.719	800.000	0.111	0.396
-434.705	18.515	0.170	-0.135
-433.690	-132.187	0.197	-0.025
-432.676	-62.732	0.227	-0.093
-431.661	420.176	0.063	-0.134
-430.646	392.938	0.190	0.391
-429.632	300.504	-0.098	0.179
-428.617	-200.000	0.044	-0.200
-427.603	135.752	0.209	0.269
-426.588	-200.000	0.044	-0.589
-425.573	12.133	0.088	0.067
-424.559	-90.761	0.256	0.073
-423.544	237.047	0.019	-0.032
-422.530	-200.000	0.065	0.387
-421.515	238.664	-0.156	0.257
-420.500	101.860	-0.193	0.222
-419.486	-187.209	-0.100	0.001
-418.471	-73.301	0.303	-0.109
-417.457	-74.318	-0.171	0.061
-416.442	-149.579	0.355	-0.028
-415.428	-89.534	-0.041	-0.012
-414.413	-138.062	0.343	-0.038
-413.398	800.000	0.024	0.080
-412.384	-90.427	-0.200	0.057
-411.369	800.000	0.060	0.176
-410.355	219.027	0.060	0.095
-409.340	-0.173	0.187	0.131
-408.325	28.403	0.072	0.060
-407.311	-153.910	-0.165	0.011
-406.296	-200.000	-0.010	0.270
-405.282	154.289	0.078	0.105
-404.267	5.735	-0.122	-0.089
-403.252	122.968	-0.205	-0.253
-402.238	800.000	-0.049	0.179
-401.223	-132.842	-0.409	0.051
-400.209	-200.000	-0.007	0.146
-399.194	-41.712	-0.527	-0.267
-398.179	198.443	-0.098	0.148
-397.165	51.411	-0.177	0.166
-396.150	-45.606	-0.134	-0.065
-395.136	-32.159	0.192	-0.106
-394.121	-41.557	0.229	-0.116
-393.106	-104.506	-0.234	-0.053
-392.092	455.864	-0.080	0.176
-391.077	-19.240	0.065	0.040
-390.063	134.810	-0.257	-0.329
-389.048	-113.301	-0.314	0.061
-388.033	-104.359	0.135	-0.031
-387.019	-143.612	0.104	-0.010
-386.004	127.816	-0.232	-0.291
-384.990	199.095	0.052	-0.079
-383.975	58.715	0.272	-0.264
-382.960	-117.365	-0.256	-0.046
-381.946	800.000	0.059	0.250
-380.931	-147.149	0.111	0.009
-379.917	-108.579	-0.305	0.065
-378.902	189.664	0.139	-0.206
-377.888	-36.358	-0.121	-0.064
-376.873	-110.785	0.136	-0.028
-375.858	44.880	-0.134	-0.122
-374.844	328.573	0.184	-0.349
-373.829	800.000	-0.009	-0.034
-372.815	-119.772	-0.080	-0.014
-371.800	161.698	0.134	0.185
-370.785	10.330	0.352	0.264
-369.771	504.477	-0.058	-0.133
-368.756	-78.070	-0.247	0.084
-367.742	65.865	0.173	0.173
-366.727	-145.925	0.076	-0.007
-365.712	800.000	0.067	0.222
-364.698	247.617	0.137	0.228
-363.683	422.701	0.070	-0.149
-362.669	-167.672	0.444	0.017
-361.654	-83.279	-0.178	-0.056
-360.639	-200.000	0.008	-0.165
-359.625	-45.179	-0.271	-0.133
-358.610	133.127	-0.210	0.268
-357.596	800.000	0.102	0.305
-356.581	-200.000	0.012	0.174
-355.566	-200.000	-0.005	-0.146
-354.552	-200.000	0.079	-0.000
-353.537	30.680	-0.264	-0.223
-352.523	800.000	0.035	0.129
-351.508	-78.120	0.245	0.083
-350.493	-55.372	-0.074	-0.033
-349.479	-67.933	0.044	-0.017
-348.464	-34.189	0.146	0.079
-347.450	311.576	-0.082	0.152
-346.435	410.558	0.028	-0.058
-345.420	19.421	-0.239	-0.189
-344.406	400.981	-0.093	0.192
-343.391	-200.000	-0.022	0.193
-342.377	800.000	0.040	0.137
-341.362	61.540	-0.308	-0.301
-340.348	800.000	-0.026	-0.082
-339.333	349.822	0.067	-0.130
-338.318	47.561	-0.018	0.017
-337.304	800.000	0.149	0.465
-336.289	-41.220	0.254	-0.129
-335.275	169.968	-0.066	-0.093
-334.260	67.372	-0.062	-0.062
-333.245	258.035	0.163	0.276
-332.231	724.265	-0.080	-0.210
-331.216	-200.000	0.027	-0.413
-330.202	-32.051	0.068	0.037
-329.187	-200.000	-0.008	-0.183
-328.172	-92.097	0.224	-0.062
-327.158	20.737	0.291	-0.232
-326.143	-200.000	-0.001	-0.111
-325.129	800.000	0.067	-0.195
-324.114	800.000	0.112	0.325
-323.099	-106.533	-0.303	0.066
-322.085	-88.892	-0.024	0.007
-321.070	-200.000	-0.003	0.110
-320.056	-48.161	0.493	-0.234
-319.041	-53.008	-0.173	0.078
-318.026	-200.000	0.051	-0.394
-317.012	-91.912	-0.098	-0.027
-315.997	6.785	-0.125	0.092
-314.983	-120.132	0.328	-0.055
-313.968	-200.000	-0.029	-0.167
-312.953	-200.000	0.002	-0.241
-311.939	104.460	0.135	-0.156
-310.924	-18.590	0.111	0.068
-309.910	260.140	0.057	0.097
-308.895	-200.000	0.004	-0.046
-307.880	-30.130	0.086	0.048
-306.866	-40.752	0.266	-0.136
-305.851	-200.000	-0.019	-0.131
-304.837	800.000	0.022	-0.063
-303.822	40.907	-0.037	-0.033
-302.807	-19.767	0.228	-0.139
-301.793	35.735	0.202	0.175
-300.778	-61.796	0.252	0.104
-299.764	-1.244	-0.227	0.157
-298.749	5.356	0.331	-0.240
-297.735	138.490	0.311	0.401
-296.720	-53.353	-0.337	0.152
-295.705	-200.000	-0.039	0.180
-294.691	-200.000	-0.016	0.223
-293.676	-19.799	0.093	0.056
-292.662	-88.454	0.065	0.019
-291.647	-200.000	-0.007	-0.223
-290.632	235.775	-0.097	0.158
-289.618	73.214	-0.129	0.132
-288.603	-121.718	0.094	0.015
-287.589	-71.185	-0.356	-0.131
-286.574	-200.000	-0.012	0.199
-285.559	131.986	-0.157	-0.199
-284.545	-128.744	0.166	-0.023
-283.530	-200.000	-0.062	0.288
-282.516	800.000	-0.049	-0.147
-281.501	134.838	-0.144	-0.183
-280.486	-200.000	-0.022	-0.194
-279.472	800.000	-0.054	0.215
-278.457	514.125	0.119	0.272
-277.443	130.410	0.064	-0.080
-276.428	-200.000	-0.023	0.226
-275.413	42.188	0.329	0.293
-274.399	16.985	0.108	-0.084
-273.384	800.000	-0.071	0.275
-272.370	21.683	-0.119	-0.095
-271.355	48.192	-0.089	0.082
-270.340	-54.424	-0.136	0.061
-269.326	-200.000	-0.032	-0.330
-268.311	800.000	0.070	0.280
-267.297	-136.942	-0.273	0.031
-266.282	-55.558	-0.258	-0.114
-265.267	151.974	0.153	-0.204
-264.253	127.450	-0.088	-0.110
-263.238	-200.000	0.000	0.285
-262.224	-128.015	-0.106	-0.015
-261.209	-200.000	-0.010	-0.227
-260.195	-94.910	0.170	-0.045
-259.180	-121.287	0.207	-0.034
-258.165	-200.000	-0.038	-0.460
-257.151	-111.397	0.139	-0.028
-256.136	-200.000	0.019	0.301
-255.122	-61.148	0.160	0.066
-254.107	357.618	-0.019	-0.038
-253.092	-22.965	0.183	-0.108
-252.078	504.599	-0.071	0.160
-251.063	91.154	0.055	-0.060
-250.049	-181.967	-0.110	-0.002
-249.034	-156.166	0.420	-0.026
-248.019	800.000	0.092	0.370
-247.005	-200.000	0.024	0.168
-245.990	-200.000	0.007	0.044
-244.976	-16.733	0.286	0.178
-243.961	-200.000	0.024	0.203
-242.946	-90.177	0.151	-0.043
-241.932	-106.396	-0.131	0.029
-240.917	-137.045	0.071	0.008
-239.903	-64.701	-0.140	0.055
-238.888	105.291	-0.207	-0.240
-237.873	-70.462	0.353	-0.131
-236.859	270.963	0.040	0.070
-235.844	21.144	0.141	-0.112
-234.830	-200.000	-0.034	-0.164
-233.815	45.150	-0.056	0.051
-232.800	-25.142	-0.084	0.049
-231.786	-57.867	-0.138	-0.059
-230.771	132.479	-0.113	-0.143
-229.757	161.577	0.104	-0.142
-228.742	-200.000	0.007	-0.275
-227.727	90.172	-0.427	-0.468
-226.713	335.864	0.274	-0.521
-225.698	-135.533	-0.194	-0.023
-224.684	-91.949	-0.195	0.054
-223.669	-115.676	0.362	0.067
-222.655	-107.377	0.371	-0.080
-221.640	68.507	0.173	-0.174
-220.625	-142.546	-0.214	-0.021
-219.611	220.607	0.065	0.102
-218.596	157.066	-0.177	-0.239
-217.582	113.529	-0.146	-0.173
-216.567	-57.984	-0.234	-0.100
-215.552	23.010	0.404	-0.325
-214.538	-49.768	0.180	0.084
-213.523	-88.292	0.145	-0.042
-212.509	89.634	-0.057	0.062
-211.494	114.211	-0.029	0.035
-210.479	116.155	-0.174	-0.209
-209.465	800.000	0.030	0.122
-208.450	-48.124	-0.283	0.134
-207.436	-105.900	0.207	-0.046
-206.421	800.000	-0.001	-0.004
-205.406	143.542	0.250	0.326
-204.392	-123.563	-0.358	0.056
-203.377	263.363	-0.113	-0.191
-202.363	127.484	-0.180	0.224
-201.348	-200.000	-0.047	0.296
-200.333	89.065	0.124	-0.135
-199.319	87.833	-0.184	0.200
-198.304	-69.292	-0.073	-0.027
-197.290	-126.234	-0.192	0.028
-196.275	800.000	0.063	-0.258
-195.260	151.944	0.013	0.018
-194.246	800.000	0.159	-0.589
-193.231	-24.107	0.144	0.084
-192.217	455.478	-0.077	0.167
-191.202	307.262	0.094	0.171
-190.187	256.477	-0.051	0.086
-189.173	51.042	-0.157	0.146
-188.158	800.000	-0.039	-0.149
-187.144	-61.462	-0.052	0.021
-186.129	-191.706	-0.046	-0.000
-185.114	136.237	0.058	0.074
-184.100	-200.000	-0.018	0.258
-183.085	-200.000	0.004	-0.165
-182.071	-0.350	-0.127	-0.088
-181.056	-146.694	-0.059	-0.005
-180.042	800.000	0.171	0.484
-179.027	800.000	-0.059	0.180
-178.012	-98.317	-0.205	-0.051
-176.998	-40.720	-0.139	0.071
-175.983	-30.307	-0.343	0.190
-174.969	657.893	-0.160	-0.402
-173.954	-4.059	-0.123	0.083
-172.939	479.547	0.002	-0.005
-171.925	-54.624	0.199	-0.088
-170.910	111.620	0.206	0.243
-169.896	-200.000	-0.011	-0.158
-168.881	-17.158	-0.194	0.120
-167.866	305.552	-0.043	0.077
-166.852	289.148	0.105	0.185
-165.837	-13.572	-0.156	0.099
-164.823	-156.343	-0.194	0.012
-163.808	349.497	0.070	0.134
-162.793	-63.690	-0.131	-0.052
-161.779	-200.000	0.017	-0.156
-160.764	374.802	-0.122	0.244
-159.750	-200.000	0.080	0.346
-158.735	462.583	-0.082	0.178
-157.720	286.229	0.056	0.098
-156.706	397.092	-0.056	0.113
-155.691	-200.000	0.042	0.446
-154.677	38.078	-0.072	0.063
-153.662	-200.000	-0.014	0.228
-152.647	474.195	-0.034	0.075
-151.633	-80.626	-0.160	0.052
-150.618	90.843	-0.379	0.415
-149.604	-159.360	-0.228	0.012
-148.589	-50.730	-0.307	0.141
-147.574	-200.000	0.051	0.439
-146.560	116.601	0.033	0.039
-145.545	183.878	0.118	0.171
-144.531	-59.547	-0.196	0.082
-143.516	-200.000	0.008	0.109
-142.502	-66.081	-0.385	0.150
-141.487	-200.000	-0.009	0.055
-140.472	-200.000	-0.025	0.218
-139.458	137.177	0.025	-0.032
-138.443	126.504	0.091	-0.113
-137.429	-14.741	0.085	-0.053
-136.414	414.575	-0.107	-0.223
-135.399	82.588	0.253	0.268
-134.385	-70.708	-0.123	0.045
-133.370	-200.000	0.025	-0.216
-132.356	800.000	0.074	0.246
-131.341	504.435	-0.171	0.388
-130.326	-79.974	-0.296	0.097
-129.312	-92.168	-0.262	-0.072
-128.297	-50.597	0.200	-0.092
-127.283	385.705	0.057	-0.114
-126.268	385.982	-0.065	-0.131
-125.253	-200.000	0.036	0.248
-124.239	-200.000	-0.002	0.153
-123.224	-172.524	0.192	0.006
-122.210	-132.573	0.246	0.031
