DTS Sentinel unit serial number:	SN413079Multiplexer serial number:	ORYXHardware model number:	OX4-SRSoftware version number:	ORYX F/W v4.00 Oryx Data Collector v3.7.2.0data status	okinstallation	princeton_trtdifferential loss correction	single-endedforward channel	channel 2reverse channel	N/Adate	2019/09/18time	18:39:35forward acquisition time	60.00reverse acquisition time	0.00gamma	496.2192k internal	0.2313k external	0.2313temperature offset calibration	1.0026default loss term (dB/km)	0.3790temperature slope calibration	1.0000multiplexer offset coefficient	1.0000multiplexer slope coefficient	1.0000fibre end	0.00T internal ref (°C)	37.87T ext. ref 1 (°C)	0.92T ext. ref 2 (°C)	29.38length (m)	temperature (°C)	Stokes	anti-Stokes-747.200	39.486	-0.214	0.195
-746.185	800.000	-0.054	0.186
-745.171	568.452	-0.142	-0.351
-744.156	800.000	-0.070	0.271
-743.142	800.000	-0.017	-0.058
-742.127	737.103	-0.180	0.490
-741.112	76.623	0.266	0.286
-740.098	-27.903	0.030	-0.018
-739.083	-109.453	-0.313	0.067
-738.069	-36.854	-0.077	0.042
-737.054	-118.007	0.363	-0.066
-736.039	117.485	-0.043	0.053
-735.025	-200.000	-0.031	0.335
-734.010	-117.414	0.189	-0.035
-732.996	-66.232	-0.213	-0.086
-731.981	-38.898	-0.284	-0.152
-730.966	-116.188	0.147	0.028
-729.952	800.000	-0.154	-0.576
-728.937	457.294	0.098	0.220
-727.923	-57.190	0.105	-0.047
-726.908	-13.967	0.098	-0.064
-725.894	800.000	0.058	0.246
-724.879	356.456	0.175	-0.353
-723.864	800.000	-0.096	-0.285
-722.850	800.000	-0.117	-0.464
-721.835	20.057	-0.190	-0.155
-720.821	81.548	0.192	-0.210
-719.806	-59.814	-0.082	-0.036
-718.791	-125.168	0.397	0.062
-717.777	634.698	0.081	-0.209
-716.762	-77.785	0.098	-0.034
-715.748	444.013	-0.112	-0.248
-714.733	117.809	0.341	0.425
-713.718	298.048	-0.116	-0.216
-712.704	-200.000	0.037	-0.210
-711.689	96.931	0.123	-0.143
-710.675	800.000	0.035	-0.129
-709.660	-98.772	-0.274	-0.071
-708.645	11.804	0.107	0.083
-707.631	494.222	0.030	0.070
-706.616	145.181	0.096	0.131
-705.602	-150.360	0.187	-0.015
-704.587	-33.130	0.191	0.107
-703.572	-74.641	0.339	-0.123
-702.558	-40.932	-0.186	-0.097
-701.543	206.603	0.190	-0.299
-700.529	265.752	-0.032	0.057
-699.514	-53.987	0.083	0.038
-698.499	-91.377	-0.302	-0.087
-697.485	-200.000	0.023	-0.292
-696.470	-200.000	0.021	0.240
-695.456	-62.315	-0.212	0.089
-694.441	-93.486	0.026	0.007
-693.426	42.422	-0.078	-0.072
-692.412	-200.000	-0.008	0.091
-691.397	195.791	0.109	0.167
-690.383	-200.000	-0.058	-0.271
-689.368	-200.000	-0.020	-0.373
-688.354	-200.000	-0.054	-0.320
-687.339	800.000	-0.076	-0.240
-686.324	-91.470	-0.206	0.060
-685.310	800.000	-0.041	-0.145
-684.295	413.008	0.152	0.328
-683.281	60.638	0.138	0.139
-682.266	73.828	0.075	0.079
-681.251	-16.980	0.101	0.064
-680.237	27.845	-0.239	-0.203
-679.222	-90.139	-0.337	-0.099
-678.208	800.000	-0.037	0.119
-677.193	-163.887	-0.163	0.008
-676.178	-124.021	-0.305	-0.049
-675.164	800.000	0.043	-0.167
-674.149	-200.000	-0.007	0.045
-673.135	163.157	0.076	-0.108
-672.120	-200.000	-0.004	0.212
-671.105	-82.949	-0.099	-0.032
-670.091	369.201	0.051	-0.104
-669.076	-31.397	-0.139	-0.079
-668.062	-38.674	-0.235	-0.126
-667.047	-75.209	-0.043	0.016
-666.032	-60.417	-0.098	-0.042
-665.018	800.000	-0.131	-0.440
-664.003	-42.760	0.049	-0.025
-662.989	265.757	0.115	-0.203
-661.974	-79.096	0.181	0.062
-660.959	-200.000	-0.002	-0.165
-659.945	29.799	-0.070	0.060
-658.930	-200.000	0.021	-0.414
-657.916	-85.547	-0.077	-0.024
-656.901	262.488	0.033	0.058
-655.886	-63.722	0.105	-0.044
-654.872	-126.408	-0.197	-0.030
-653.857	-200.000	-0.020	-0.136
-652.843	99.333	-0.059	0.069
-651.828	-117.617	-0.137	-0.025
-650.814	-200.000	0.036	0.448
-649.799	-129.062	0.221	-0.031
-648.784	-129.045	0.276	-0.039
-647.770	578.569	-0.080	-0.197
-646.755	429.035	-0.031	-0.068
-645.741	-152.443	-0.056	-0.004
-644.726	800.000	-0.070	0.210
-643.711	-106.024	-0.081	0.019
-642.697	-1.907	-0.169	-0.120
-641.682	-200.000	0.001	-0.022
-640.668	3.118	0.072	-0.053
-639.653	430.943	0.154	0.337
-638.638	202.658	0.095	0.148
-637.624	32.785	-0.149	0.130
-636.609	-87.897	-0.169	0.051
-635.595	301.717	0.132	0.247
-634.580	210.104	0.143	0.227
-633.565	800.000	-0.062	0.222
-632.551	526.417	-0.188	-0.447
-631.536	380.367	0.075	-0.156
-630.522	-200.000	-0.008	0.544
-629.507	255.974	-0.100	-0.173
-628.492	-13.155	0.173	-0.114
-627.478	23.976	-0.096	0.080
-626.463	-131.227	-0.063	-0.008
-625.449	-116.609	0.462	-0.086
-624.434	-200.000	0.009	0.306
-623.419	-63.739	0.021	0.009
-622.405	-200.000	-0.012	-0.115
-621.390	2.032	0.025	0.018
-620.376	61.443	0.098	0.099
-619.361	-152.381	-0.130	0.009
-618.346	378.958	-0.081	0.167
-617.332	380.771	-0.076	-0.158
-616.317	-165.221	-0.187	-0.008
-615.303	-124.973	0.222	0.034
-614.288	800.000	0.076	0.268
-613.273	-200.000	-0.024	0.144
-612.259	-200.000	0.013	0.277
-611.244	1.308	0.249	0.181
-610.230	-200.000	-0.015	-0.290
-609.215	-41.071	-0.261	-0.136
-608.201	5.781	0.139	-0.104
-607.186	406.198	-0.061	-0.130
-606.171	-100.317	-0.123	0.031
-605.157	-200.000	0.032	-0.238
-604.142	166.610	-0.192	-0.274
-603.128	116.204	-0.209	-0.258
-602.113	159.349	-0.156	-0.219
-601.098	-141.423	0.161	0.016
-600.084	120.077	-0.055	-0.069
-599.069	626.410	-0.039	-0.099
-598.055	-200.000	0.017	-0.075
-597.040	208.413	0.145	-0.228
-596.025	102.219	0.174	0.205
-595.011	151.372	-0.145	-0.199
-593.996	-101.522	-0.062	-0.015
-592.982	350.088	-0.098	-0.194
-591.967	54.267	-0.226	-0.219
-590.952	-181.337	0.253	0.005
-589.938	450.523	0.058	-0.129
-588.923	-200.000	-0.008	-0.073
-587.909	653.682	-0.044	0.115
-586.894	-109.081	0.177	-0.038
-585.879	470.048	-0.177	-0.401
-584.865	800.000	0.010	-0.032
-583.850	26.758	-0.184	-0.155
-582.836	-200.000	-0.026	-0.143
-581.821	-200.000	0.017	-0.147
-580.806	-39.196	0.277	-0.147
-579.792	800.000	-0.102	0.314
-578.777	-16.784	0.353	0.225
-577.763	-200.000	0.024	-0.106
-576.748	369.723	-0.118	-0.241
-575.733	-0.404	0.212	0.152
-574.719	259.777	0.085	0.149
-573.704	800.000	0.094	0.303
-572.690	-38.132	0.190	0.102
-571.675	-111.054	-0.107	-0.022
-570.661	30.382	0.160	0.138
-569.646	427.010	-0.038	-0.083
-568.631	-27.439	0.087	-0.051
-567.617	-200.000	0.015	0.118
-566.602	-99.916	-0.132	-0.033
-565.588	277.025	-0.083	-0.149
-564.573	76.092	-0.131	-0.140
-563.558	150.116	0.124	0.170
-562.544	101.028	-0.226	0.265
-561.529	800.000	0.080	0.311
-560.515	-165.574	0.264	0.012
-559.500	271.917	-0.150	0.266
-558.485	800.000	-0.039	-0.135
-557.471	54.270	0.291	-0.282
-556.456	-117.134	0.165	-0.030
-555.442	-48.534	0.194	-0.094
-554.427	-53.407	-0.100	-0.046
-553.412	-63.244	0.110	0.046
-552.398	620.039	-0.116	-0.295
-551.383	-114.694	0.184	-0.035
-550.369	800.000	-0.031	0.101
-549.354	-115.426	0.155	0.029
-548.339	-200.000	0.015	0.201
-547.325	-200.000	-0.020	-0.153
-546.310	52.895	0.197	0.189
-545.296	-80.886	-0.226	0.075
-544.281	800.000	-0.033	0.095
-543.266	-63.782	0.140	-0.058
-542.252	-116.849	-0.104	-0.019
-541.237	-55.697	-0.202	-0.091
-540.223	-200.000	0.009	-0.172
-539.208	-200.000	0.015	-0.095
-538.193	83.913	0.211	-0.232
-537.179	-58.020	0.124	0.054
-536.164	-115.004	-0.153	0.029
-535.150	-78.948	-0.361	0.123
-534.135	-149.200	0.379	-0.030
-533.121	-36.304	-0.155	-0.084
-532.106	800.000	-0.089	-0.251
-531.091	42.554	0.075	-0.069
-530.077	-73.767	-0.010	-0.004
-529.062	-54.496	0.043	-0.020
-528.048	25.727	-0.073	0.061
-527.033	27.463	-0.131	-0.111
-526.018	10.812	-0.233	0.179
-525.004	800.000	-0.083	0.343
-523.989	205.513	-0.028	-0.044
-522.975	800.000	0.057	0.164
-521.960	392.946	-0.090	0.189
-520.945	55.343	-0.140	-0.136
-519.931	6.454	-0.251	0.188
-518.916	800.000	0.054	0.231
-517.902	-72.879	-0.125	-0.046
-516.887	397.790	-0.133	0.280
-515.872	53.939	0.123	-0.119
-514.858	-146.925	-0.432	-0.037
-513.843	-86.709	-0.523	-0.161
-512.829	262.535	0.121	0.210
-511.814	0.499	0.066	-0.048
-510.799	-31.783	0.284	0.160
-509.785	-99.979	0.134	0.034
-508.770	-72.577	-0.174	0.065
-507.756	30.903	-0.144	-0.124
-506.741	495.524	0.176	-0.407
-505.726	97.279	-0.088	0.101
-504.712	800.000	-0.060	-0.207
-503.697	800.000	-0.047	0.175
-502.683	-95.792	-0.156	-0.042
-501.668	151.738	-0.067	-0.092
-500.653	-80.084	-0.096	-0.032
-499.639	66.130	0.166	-0.169
-498.624	-117.431	0.300	-0.055
-497.610	-81.110	0.310	0.103
-496.595	-2.249	-0.148	0.105
-495.581	31.453	-0.139	0.120
-494.566	156.210	0.304	0.422
-493.551	-200.000	0.019	0.209
-492.537	150.254	-0.193	0.263
-491.522	800.000	0.046	-0.150
-490.508	401.438	-0.072	-0.151
-489.493	800.000	0.082	-0.265
-488.478	101.936	-0.073	0.086
-487.464	-0.753	-0.119	-0.085
-486.449	-91.442	-0.246	0.070
-485.435	243.786	-0.092	0.155
-484.420	282.431	-0.121	0.218
-483.405	-95.262	-0.300	-0.081
-482.391	-200.000	-0.010	-0.248
-481.376	-153.237	-0.254	-0.018
-480.362	-162.852	-0.127	0.006
-479.347	-176.767	-0.071	-0.002
-478.332	-200.000	0.002	-0.204
-477.318	-200.000	0.121	-0.541
-476.303	82.974	-0.086	0.093
-475.289	481.193	0.020	0.046
-474.274	800.000	-0.035	-0.154
-473.259	-100.513	0.236	0.059
-472.245	800.000	-0.104	-0.433
-471.230	-200.000	-0.029	-0.131
-470.216	604.533	-0.164	-0.411
-469.201	-57.936	0.072	-0.032
-468.186	115.286	-0.064	0.078
-467.172	253.766	-0.048	0.083
-466.157	-200.000	-0.036	-0.336
-465.143	627.751	-0.109	-0.277
-464.128	-88.043	0.190	-0.057
-463.113	-200.000	-0.042	-0.220
-462.099	-10.116	0.378	-0.252
-461.084	86.774	-0.181	0.200
-460.070	-200.000	0.010	-0.166
-459.055	-58.592	-0.155	-0.067
-458.040	120.199	0.088	-0.109
-457.026	-160.248	0.250	-0.014
-456.011	-3.473	-0.189	0.132
-454.997	-41.831	-0.184	0.095
-453.982	-200.000	-0.046	0.315
-452.968	4.501	-0.142	0.105
-451.953	-8.198	-0.229	-0.155
-450.938	495.402	0.086	-0.198
-449.924	563.069	-0.074	0.180
-448.909	-200.000	0.000	0.003
-447.895	-22.510	0.159	0.097
-446.880	-40.321	0.472	0.246
-445.865	-110.235	-0.290	0.061
-444.851	-94.184	-0.253	0.069
-443.836	800.000	0.101	-0.345
-442.822	-12.072	-0.248	0.163
-441.807	-90.573	0.249	-0.072
-440.792	108.535	-0.082	-0.099
-439.778	800.000	0.050	-0.151
-438.763	-94.182	-0.153	0.042
-437.749	130.680	-0.222	-0.285
-436.734	-200.000	0.065	0.397
-435.719	367.304	-0.067	-0.135
-434.705	-59.870	-0.268	0.115
-433.690	196.243	0.150	-0.228
-432.676	244.722	-0.123	0.207
-431.661	300.335	0.118	-0.217
-430.646	-68.724	-0.038	0.015
-429.632	800.000	0.045	0.131
-428.617	-8.050	0.148	0.100
-427.603	-151.303	0.065	0.005
-426.588	-29.272	0.210	-0.121
-425.573	-26.422	0.208	0.122
-424.559	663.424	-0.077	0.198
-423.544	-21.961	0.051	0.031
-422.530	-126.657	-0.288	0.043
-421.515	-200.000	0.030	0.157
-420.500	399.056	-0.055	0.115
-419.486	575.176	-0.109	-0.266
-418.471	133.740	0.068	-0.088
-417.457	407.168	-0.069	0.147
-416.442	-200.000	0.036	-0.380
-415.428	22.718	0.286	0.235
-414.413	800.000	-0.008	-0.032
-413.398	326.860	-0.030	-0.057
-412.384	-200.000	-0.036	0.276
-411.369	25.129	0.051	0.043
-410.355	800.000	0.006	-0.017
-409.340	-200.000	0.000	0.119
-408.325	-94.568	0.104	0.028
-407.311	691.901	0.094	0.246
-406.296	-144.382	0.119	0.011
-405.282	767.154	-0.028	-0.076
-404.267	654.003	0.036	-0.092
-403.252	59.724	0.097	-0.096
-402.238	-49.044	0.144	-0.069
-401.223	309.430	-0.161	-0.301
-400.209	-136.569	-0.392	0.045
-399.194	800.000	-0.048	0.202
-398.179	190.695	0.136	-0.205
-397.165	212.237	0.220	-0.347
-396.150	233.287	-0.083	-0.137
-395.136	-200.000	0.048	0.281
-394.121	489.534	0.122	-0.279
-393.106	800.000	-0.024	-0.086
-392.092	246.430	-0.088	-0.148
-391.077	68.045	-0.189	-0.194
-390.063	800.000	-0.085	0.334
-389.048	-169.836	0.319	-0.011
-388.033	-48.221	0.226	-0.109
-387.019	-88.414	0.232	-0.069
-386.004	6.647	0.095	-0.071
-384.990	268.865	-0.044	-0.078
-383.975	-5.326	-0.332	-0.228
-382.960	374.579	-0.041	0.083
-381.946	800.000	0.084	0.262
-380.931	127.589	-0.150	-0.190
-379.917	-148.982	-0.118	0.009
-378.902	-164.296	-0.107	-0.005
-377.888	20.103	0.217	0.175
-376.873	-106.354	0.282	-0.063
-375.858	238.480	0.043	-0.071
-374.844	624.955	0.054	0.136
-373.829	82.050	0.181	-0.197
-372.815	9.349	0.109	0.082
-371.800	-200.000	-0.080	-0.359
-370.785	-67.369	0.069	0.027
-369.771	-108.413	0.127	0.027
-368.756	-200.000	-0.018	0.157
-367.742	343.651	0.121	0.238
-366.727	-147.460	-0.333	0.028
-365.712	-116.066	0.140	0.026
-364.698	-20.041	-0.084	-0.052
-363.683	124.389	-0.084	0.106
-362.669	800.000	-0.092	-0.302
-361.654	-200.000	0.015	-0.104
-360.639	-146.503	0.104	0.009
-359.625	-19.156	-0.091	0.056
-358.610	-200.000	0.099	-0.468
-357.596	29.643	0.223	-0.190
-356.581	162.468	0.163	-0.228
-355.566	288.842	0.088	-0.160
-354.552	-48.934	-0.029	0.014
-353.537	192.911	-0.162	-0.245
-352.523	-200.000	-0.026	0.145
-351.508	-88.116	0.288	-0.086
-350.493	143.193	-0.068	0.091
-349.479	-34.919	-0.208	-0.113
-348.464	-39.747	-0.019	0.010
-347.450	219.393	-0.049	0.079
-346.435	77.483	-0.269	0.286
-345.420	800.000	-0.075	0.212
-344.406	-114.259	0.118	0.023
-343.391	-200.000	0.039	-0.276
-342.377	-200.000	-0.003	0.090
-341.362	646.662	-0.036	-0.092
-340.348	690.336	-0.115	0.300
-339.333	102.944	0.252	0.295
-338.318	-200.000	0.049	-0.291
-337.304	99.393	-0.280	-0.323
-336.289	-68.364	-0.109	0.042
-335.275	162.744	-0.090	-0.126
-334.260	800.000	-0.048	-0.169
-333.245	8.890	-0.242	0.182
-332.231	-200.000	0.021	-0.225
-331.216	425.261	0.050	0.108
-330.202	800.000	0.127	0.532
-329.187	-200.000	0.046	0.290
-328.172	687.836	-0.076	-0.197
-327.158	-7.552	-0.138	0.093
-326.143	-52.042	0.181	0.084
-325.129	800.000	0.032	0.121
-324.114	-200.000	-0.050	-0.394
-323.099	-200.000	0.016	-0.092
-322.085	-200.000	0.002	0.057
-321.070	-128.187	-0.029	0.004
-320.056	-200.000	-0.019	0.137
-319.041	-200.000	0.033	0.346
-318.026	-1.961	0.160	-0.112
-317.012	82.536	-0.132	0.143
-315.997	-200.000	0.010	-0.077
-314.983	-39.350	0.109	-0.057
-313.968	68.560	0.171	0.175
-312.953	91.504	-0.140	-0.157
-311.939	-200.000	0.046	-0.216
-310.924	369.406	0.138	0.279
-309.910	44.559	0.008	0.007
-308.895	17.483	0.261	0.206
-307.880	-135.126	-0.231	0.028
-306.866	-2.344	-0.144	-0.101
-305.851	800.000	0.037	-0.157
-304.837	-97.097	-0.197	0.051
-303.822	-28.007	-0.142	0.082
-302.807	-133.756	-0.141	0.017
-301.793	52.371	-0.032	-0.031
-300.778	-142.802	-0.100	-0.010
-299.764	-114.842	-0.288	0.055
-298.749	255.049	-0.133	-0.227
-297.735	110.286	0.141	0.169
-296.720	-38.897	0.344	0.180
-295.705	-65.423	0.063	0.025
-294.691	-1.763	0.057	-0.040
-293.676	105.486	0.109	-0.129
-292.662	-200.000	0.004	-0.050
-291.647	102.121	0.105	0.122
-290.632	59.242	-0.164	-0.161
-289.618	-200.000	0.045	0.304
-288.603	-91.727	-0.250	-0.071
-287.589	-91.553	-0.253	-0.072
-286.574	23.153	0.289	0.236
-285.559	-28.674	0.206	0.118
-284.545	-23.234	0.226	0.135
-283.530	207.735	0.129	-0.201
-282.516	316.167	0.171	0.322
-281.501	-149.764	-0.306	-0.024
-280.486	57.575	-0.113	0.110
-279.472	-118.250	-0.269	-0.048
-278.457	800.000	-0.047	-0.155
-277.443	-75.188	-0.428	-0.152
-276.428	-80.707	0.264	-0.087
-275.413	-200.000	-0.021	0.153
-274.399	-163.657	0.390	-0.018
-273.384	800.000	0.095	-0.338
-272.370	-26.771	-0.286	-0.167
-271.355	-153.274	0.150	-0.010
-270.340	-28.930	0.423	0.242
-269.326	260.289	-0.138	-0.238
-268.311	287.496	0.131	0.236
-267.297	139.356	-0.067	-0.088
-266.282	-17.238	0.285	0.179
-265.267	-200.000	-0.017	0.115
-264.253	354.866	0.104	0.206
-263.238	347.456	0.211	0.413
-262.224	-200.000	-0.004	0.179
-261.209	-200.000	0.007	-0.104
-260.195	207.799	-0.203	-0.316
-259.180	-200.000	-0.006	-0.346
-258.165	-200.000	0.043	0.579
-257.151	-200.000	0.056	0.273
-256.136	-79.451	-0.179	0.060
-255.122	307.632	0.116	0.215
-254.107	800.000	-0.073	-0.280
-253.092	-35.181	0.158	-0.086
-252.078	41.040	0.099	0.089
-251.063	68.770	0.132	-0.135
-250.049	-48.515	-0.190	0.091
-249.034	-30.304	0.067	-0.038
-248.019	-136.717	0.364	0.042
-247.005	-48.713	0.046	0.022
-245.990	-106.910	0.080	-0.018
-244.976	-200.000	0.033	0.186
-243.961	479.181	0.029	-0.066
-242.946	-131.170	-0.131	0.017
-241.932	294.117	-0.096	0.174
-240.917	-36.754	-0.062	0.033
-239.903	787.877	0.021	-0.057
-238.888	143.699	0.068	-0.090
-237.873	191.747	-0.126	-0.188
-236.859	239.401	0.147	0.243
-235.844	-101.980	0.446	-0.107
-234.830	-96.961	-0.350	0.091
-233.815	176.036	-0.172	-0.249
-232.800	800.000	0.114	-0.400
-231.786	42.796	-0.256	0.232
-230.771	-200.000	0.002	-0.026
-229.757	-157.038	-0.064	-0.004
-228.742	-57.111	0.096	-0.042
-227.727	214.071	-0.118	-0.186
-226.713	53.538	0.096	-0.092
-225.698	16.070	0.070	0.055
-224.684	35.533	0.219	-0.191
-223.669	337.939	0.090	0.175
-222.655	-102.757	-0.145	-0.034
-221.640	-200.000	-0.032	0.229
-220.625	-200.000	-0.011	-0.092
-219.611	800.000	-0.065	0.246
-218.596	-200.000	-0.010	-0.077
-217.582	-200.000	-0.034	0.243
-216.567	-200.000	0.014	0.228
-215.552	-42.871	0.118	0.060
-214.538	265.560	-0.036	0.062
-213.523	800.000	0.092	-0.273
-212.509	-67.894	0.063	-0.024
-211.494	-159.456	0.151	-0.008
-210.479	-200.000	0.002	0.116
-209.465	177.396	-0.200	0.290
-208.450	-200.000	0.033	0.411
-207.436	800.000	0.094	-0.288
-206.421	-200.000	-0.002	-0.128
-205.406	-200.000	-0.004	0.026
-204.392	-200.000	0.021	0.249
-203.377	195.075	-0.184	0.277
-202.363	229.709	-0.131	0.212
-201.348	-82.169	-0.291	-0.094
-200.333	-129.144	-0.226	-0.031
-199.319	186.478	-0.143	0.212
-198.304	-109.097	0.175	0.037
-197.290	755.553	-0.133	-0.357
-196.275	-132.941	-0.075	0.009
-195.260	594.349	0.271	-0.665
-194.246	-145.387	0.443	-0.040
-193.231	-67.158	-0.186	-0.073
-192.217	-108.117	0.184	0.040
-191.202	-33.035	0.448	-0.247
-190.187	-73.161	-0.284	-0.103
-189.173	800.000	0.043	0.164
-188.158	-104.446	0.184	-0.042
-187.144	-58.085	-0.192	-0.083
-186.129	160.769	0.119	0.165
-185.114	-90.227	0.129	0.037
-184.100	-42.242	0.130	0.066
-183.085	-69.220	0.091	0.035
-182.071	-200.000	0.048	0.269
-181.056	-79.185	-0.139	0.047
-180.042	212.332	-0.138	0.216
-179.027	-6.408	-0.033	0.022
-178.012	652.245	-0.156	0.397
-176.998	-200.000	-0.000	-0.177
-175.983	-200.000	-0.009	0.086
-174.969	306.642	-0.121	-0.223
-173.954	-128.656	0.205	0.029
-172.939	604.466	-0.056	0.137
-171.925	-59.985	0.045	-0.019
-170.910	-22.240	-0.205	0.123
-169.896	239.912	-0.204	0.337
-168.881	232.264	-0.027	0.044
-167.866	10.446	0.300	0.227
-166.852	-25.208	0.176	0.104
-165.837	-200.000	0.013	0.224
-164.823	-94.248	0.276	0.075
-163.808	48.240	-0.083	-0.077
-162.793	-61.004	-0.218	0.091
-161.779	-200.000	-0.059	-0.329
-160.764	-2.293	-0.202	-0.141
-159.750	-146.620	0.285	-0.025
-158.735	371.846	-0.035	0.070
-157.720	800.000	-0.084	0.238
-156.706	-200.000	-0.044	0.256
-155.691	-200.000	0.002	-0.322
-154.677	27.301	-0.092	0.076
-153.662	511.925	0.039	-0.091
-152.647	-200.000	0.004	0.034
-151.633	112.215	-0.098	-0.117
-150.618	-88.659	-0.237	-0.070
-149.604	230.729	-0.097	-0.157
-148.589	-55.034	0.185	0.083
-147.574	-70.452	0.093	-0.035
-146.560	30.192	-0.391	-0.330
-145.545	295.307	0.210	-0.381
-144.531	-97.538	0.231	-0.060
-143.516	-11.527	-0.055	-0.036
-142.502	10.865	-0.300	-0.227
-141.487	-200.000	-0.028	-0.277
-140.472	-14.434	0.127	-0.081
-139.458	96.717	-0.121	0.137
-138.443	791.293	0.050	-0.137
-137.429	6.304	0.066	0.049
-136.414	-184.815	0.275	-0.004
-135.399	-29.538	0.180	-0.102
-134.385	800.000	-0.036	-0.151
-133.370	10.159	0.176	-0.132
-132.356	-48.998	-0.169	-0.080
-131.341	-50.536	0.198	-0.092
-130.326	184.174	0.050	0.073
-129.312	-43.897	0.152	-0.076
-128.297	-13.407	0.173	-0.111
-127.283	130.653	0.173	-0.220
-126.268	800.000	-0.120	-0.379
-125.253	-28.208	0.196	-0.112
-124.239	-52.087	0.132	0.061
-123.224	-171.419	-0.212	-0.007
-122.210	459.844	0.067	0.148
