DTS Sentinel unit serial number:	SN413079Multiplexer serial number:	ORYXHardware model number:	OX4-SRSoftware version number:	ORYX F/W v4.00 Oryx Data Collector v3.7.2.0data status	okinstallation	princeton_trtdifferential loss correction	single-endedforward channel	channel 2reverse channel	N/Adate	2019/09/17time	22:59:34forward acquisition time	60.00reverse acquisition time	0.00gamma	496.2192k internal	0.2346k external	0.2346temperature offset calibration	0.9984default loss term (dB/km)	0.3790temperature slope calibration	1.0000multiplexer offset coefficient	1.0000multiplexer slope coefficient	1.0000fibre end	0.00T internal ref (°C)	24.80T ext. ref 1 (°C)	0.17T ext. ref 2 (°C)	17.98length (m)	temperature (°C)	Stokes	anti-Stokes-747.200	-177.911	-0.040	0.001
-746.185	-170.412	-0.386	0.013
-745.171	151.732	-0.142	-0.193
-744.156	-68.515	-0.388	0.150
-743.142	88.836	0.218	-0.243
-742.127	53.514	-0.140	0.134
-741.112	766.424	-0.008	0.022
-740.098	143.595	-0.067	0.090
-739.083	63.425	0.273	-0.274
-738.069	608.655	-0.212	-0.529
-737.054	-102.753	-0.319	-0.076
-736.039	-112.732	-0.296	-0.059
-735.025	-142.641	-0.251	-0.025
-734.010	225.942	-0.123	-0.199
-732.996	21.440	-0.154	-0.125
-731.981	396.483	0.070	-0.146
-730.966	-200.000	-0.046	-0.217
-729.952	-200.000	-0.046	-0.404
-728.937	-121.447	-0.129	-0.021
-727.923	506.042	-0.108	-0.251
-726.908	-37.536	-0.168	-0.090
-725.894	-172.432	-0.196	0.006
-724.879	33.863	0.193	-0.168
-723.864	177.167	-0.082	0.120
-722.850	-200.000	0.000	-0.096
-721.835	-100.994	-0.362	0.089
-720.821	-129.959	-0.297	0.041
-719.806	-109.009	-0.162	0.034
-718.791	242.855	-0.125	0.209
-717.777	-152.656	-0.231	0.016
-716.762	153.300	-0.050	0.068
-715.748	-138.309	-0.124	0.014
-714.733	-55.632	0.308	-0.138
-713.718	-156.279	-0.289	0.018
-712.704	106.284	-0.149	-0.176
-711.689	-200.000	0.000	0.026
-710.675	-54.364	0.063	-0.029
-709.660	35.397	0.148	-0.129
-708.645	800.000	0.062	0.196
-707.631	-23.041	0.157	-0.095
-706.616	339.016	-0.183	0.356
-705.602	-178.718	0.338	0.008
-704.587	97.489	-0.130	-0.149
-703.572	-200.000	-0.003	0.063
-702.558	128.181	0.074	-0.094
-701.543	-200.000	0.044	0.305
-700.529	-27.031	0.325	-0.189
-699.514	-120.517	-0.229	-0.039
-698.499	190.110	-0.170	-0.255
-697.485	147.900	-0.102	-0.138
-696.470	-200.000	0.048	0.343
-695.456	-4.291	0.329	0.227
-694.441	187.698	-0.092	-0.137
-693.426	161.144	-0.045	0.063
-692.412	132.050	-0.372	-0.478
-691.397	178.163	-0.113	-0.164
-690.383	374.996	0.048	0.097
-689.368	6.366	-0.099	0.073
-688.354	800.000	-0.020	-0.075
-687.339	415.741	-0.158	-0.337
-686.324	75.217	-0.245	-0.258
-685.310	-200.000	0.038	-0.213
-684.295	219.300	-0.130	0.208
-683.281	507.022	0.087	-0.200
-682.266	-200.000	0.040	-0.308
-681.251	-24.188	-0.231	-0.137
-680.237	-101.362	0.283	0.069
-679.222	-200.000	-0.033	0.173
-678.208	-200.000	-0.034	-0.211
-677.193	-101.961	-0.191	-0.046
-676.178	-20.890	0.354	0.216
-675.164	81.093	0.241	0.260
-674.149	-48.898	-0.067	0.032
-673.135	224.663	-0.006	0.010
-672.120	-200.000	-0.025	-0.208
-671.105	800.000	-0.093	0.263
-670.091	-95.879	0.257	-0.068
-669.076	-148.998	-0.176	-0.014
-668.062	-200.000	0.032	-0.304
-667.047	-14.084	0.133	-0.086
-666.032	-50.153	-0.131	-0.062
-665.018	-200.000	-0.000	0.169
-664.003	800.000	0.076	0.272
-662.989	-54.238	0.239	-0.108
-661.974	-136.715	-0.028	-0.003
-660.959	800.000	0.045	-0.135
-659.945	-78.118	-0.251	0.086
-658.930	-200.000	-0.006	0.047
-657.916	143.371	-0.188	-0.250
-656.901	551.699	-0.034	-0.082
-655.886	103.988	0.074	0.086
-654.872	502.550	0.068	0.157
-653.857	-82.949	0.392	-0.126
-652.843	-47.548	0.104	0.050
-651.828	-200.000	-0.050	0.230
-650.814	114.562	-0.260	0.316
-649.799	-200.000	0.003	0.088
-648.784	-87.115	-0.315	0.095
-647.770	-200.000	0.001	0.192
-646.755	-26.274	-0.243	-0.142
-645.741	800.000	0.050	0.158
-644.726	594.281	0.038	0.095
-643.711	-200.000	-0.261	-0.000
-642.697	-200.000	0.382	0.000
-641.682	-200.000	-0.007	-0.128
-640.668	-200.000	0.050	-0.446
-639.653	169.954	-0.099	0.141
-638.638	-67.777	-0.057	-0.022
-637.624	-30.410	0.168	-0.095
-636.609	-31.469	0.122	0.068
-635.595	-200.000	0.014	-0.410
-634.580	-36.203	-0.176	0.094
-633.565	-200.000	0.011	0.051
-632.551	560.122	-0.083	0.200
-631.536	291.975	-0.113	0.205
-630.522	-200.000	-0.006	-0.349
-629.507	113.077	-0.101	0.122
-628.492	97.618	-0.093	0.107
-627.478	-47.506	-0.321	0.155
-626.463	-200.000	-0.016	-0.210
-625.449	29.930	-0.195	0.165
-624.434	259.004	-0.066	-0.113
-623.419	-128.194	-0.364	0.052
-622.405	-83.029	0.278	0.089
-621.390	-191.571	0.379	0.004
-620.376	14.724	-0.010	-0.008
-619.361	-3.432	-0.126	0.087
-618.346	-101.171	0.211	-0.051
-617.332	-200.000	-0.011	0.131
-616.317	-200.000	-0.035	0.269
-615.303	800.000	0.070	-0.203
-614.288	-127.141	-0.130	-0.019
-613.273	-182.052	0.122	0.002
-612.259	-200.000	0.005	-0.075
-611.244	-95.023	0.159	-0.043
-610.230	-152.954	-0.370	-0.026
-609.215	-200.000	0.016	0.231
-608.201	-6.264	-0.157	0.107
-607.186	205.301	-0.101	0.156
-606.171	800.000	-0.086	-0.283
-605.157	-11.274	0.066	0.043
-604.142	-27.893	-0.314	-0.181
-603.128	-60.479	-0.263	0.111
-602.113	-200.000	-0.043	-0.245
-601.098	-69.092	-0.095	0.037
-600.084	14.981	0.127	-0.099
-599.069	-31.032	0.208	-0.117
-598.055	628.931	0.112	0.281
-597.040	-200.000	0.015	0.095
-596.025	-17.660	-0.202	0.126
-595.011	-200.000	0.001	0.031
-593.996	39.115	-0.084	0.074
-592.982	-200.000	0.077	0.360
-591.967	-141.676	-0.230	0.023
-590.952	29.798	-0.218	-0.185
-589.938	789.507	0.080	-0.218
-588.923	117.274	0.073	-0.089
-587.909	-79.529	0.349	-0.117
-586.894	-155.802	0.101	0.006
-585.879	283.033	-0.150	-0.267
-584.865	212.788	-0.261	-0.410
-583.850	-62.080	-0.200	-0.083
-582.836	47.562	-0.075	0.070
-581.821	800.000	0.032	-0.104
-580.806	-200.000	0.071	-0.349
-579.792	72.144	0.102	0.105
-578.777	507.431	0.060	-0.138
-577.763	705.566	-0.093	-0.243
-576.748	-150.087	-0.168	0.013
-575.733	-69.231	-0.398	0.152
-574.719	119.986	0.111	-0.137
-573.704	-200.000	0.019	0.341
-572.690	-46.428	-0.439	0.214
-571.675	-174.453	-0.400	-0.011
-570.661	320.986	-0.097	-0.184
-569.646	-88.915	0.022	-0.007
-568.631	-28.816	0.293	0.167
-567.617	-200.000	0.039	0.281
-566.602	-101.136	-0.112	0.027
-565.588	728.464	0.068	0.179
-564.573	153.055	0.092	-0.126
-563.558	-200.000	-0.002	0.617
-562.544	36.889	0.436	-0.382
-561.529	291.588	-0.159	-0.287
-560.515	-131.096	0.213	-0.028
-559.500	-200.000	0.029	-0.208
-558.485	638.403	0.060	-0.152
-557.471	-116.051	0.453	0.084
-556.456	-200.000	-0.017	0.116
-555.442	-85.889	0.193	0.059
-554.427	412.163	0.020	0.042
-553.412	-49.982	0.097	0.046
-552.398	666.546	-0.113	-0.289
-551.383	-200.000	-0.037	0.288
-550.369	800.000	-0.031	0.100
-549.354	579.482	0.051	-0.123
-548.339	-156.602	-0.305	-0.019
-547.325	-39.314	-0.109	0.057
-546.310	-200.000	-0.016	-0.132
-545.296	188.725	0.190	-0.282
-544.281	-63.361	0.198	0.081
-543.266	-173.789	0.196	-0.006
-542.252	286.946	0.143	0.256
-541.237	-30.422	0.087	0.049
-540.223	-127.397	-0.267	-0.038
-539.208	0.212	0.233	0.165
-538.193	-87.093	-0.063	-0.019
-537.179	-109.266	-0.175	-0.037
-536.164	-194.635	0.125	-0.001
-535.150	-200.000	0.015	-0.163
-534.135	-69.424	0.342	0.130
-533.121	-74.647	0.221	-0.079
-532.106	104.891	-0.171	0.200
-531.091	-91.369	0.073	0.021
-530.077	54.914	-0.352	0.337
-529.062	44.256	0.025	-0.023
-528.048	-200.000	-0.027	0.126
-527.033	-173.157	0.122	-0.004
-526.018	158.314	0.113	0.155
-525.004	-103.795	0.231	-0.054
-523.989	100.463	-0.235	0.270
-522.975	-54.623	0.276	0.124
-521.960	-42.703	-0.004	0.002
-520.945	-200.000	-0.048	0.259
-519.931	-3.065	-0.266	-0.184
-518.916	-87.307	0.343	-0.103
-517.902	476.905	0.066	-0.149
-516.887	54.468	0.251	-0.240
-515.872	-45.663	-0.375	-0.184
-514.858	-200.000	0.004	0.036
-513.843	-200.000	-0.024	0.197
-512.829	-145.542	-0.150	0.013
-511.814	287.744	-0.079	0.142
-510.799	-76.718	0.177	0.062
-509.785	-4.404	0.148	-0.101
-508.770	-200.000	0.052	-0.230
-507.756	245.426	-0.137	-0.229
-506.741	-98.688	0.243	-0.061
-505.726	-200.000	0.005	0.239
-504.712	-59.434	0.287	0.122
-503.697	-48.742	0.096	0.045
-502.683	-182.544	0.090	-0.002
-501.668	292.051	-0.170	0.306
-500.653	-103.168	-0.337	0.079
-499.639	800.000	0.041	-0.133
-498.624	431.406	-0.074	-0.159
-497.610	235.370	-0.180	0.294
-496.595	248.997	0.095	0.160
-495.581	800.000	-0.098	-0.336
-494.566	-200.000	0.004	0.392
-493.551	-133.394	-0.245	-0.030
-492.537	-29.635	-0.103	-0.058
-491.522	-45.979	0.431	-0.211
-490.508	151.934	0.126	-0.170
-489.493	800.000	0.053	-0.190
-488.478	-200.000	0.003	0.039
-487.464	-176.061	-0.020	-0.001
-486.449	800.000	-0.049	-0.212
-485.435	800.000	-0.079	0.226
-484.420	-69.317	-0.306	0.116
-483.405	-25.836	0.308	0.180
-482.391	325.870	0.066	-0.124
-481.376	-127.676	0.359	-0.051
-480.362	-127.988	-0.231	0.033
-479.347	30.123	0.091	-0.077
-478.332	623.019	-0.152	0.379
-477.318	-200.000	-0.062	-0.420
-476.303	69.909	-0.154	-0.157
-475.289	-200.000	0.038	0.195
-474.274	59.846	-0.080	0.079
-473.259	800.000	0.083	-0.238
-472.245	-200.000	-0.015	0.069
-471.230	-160.774	-0.217	-0.011
-470.216	104.099	0.074	-0.086
-469.201	761.520	-0.030	-0.079
-468.186	176.859	0.129	-0.186
-467.172	-50.369	0.338	-0.158
-466.157	-6.728	-0.156	-0.105
-465.143	96.685	0.112	0.127
-464.128	-81.314	-0.073	0.024
-463.113	-32.740	-0.096	-0.053
-462.099	82.556	0.053	-0.057
-461.084	-113.991	-0.064	-0.012
-460.070	15.117	0.303	-0.235
-459.055	395.120	0.103	-0.211
-458.040	429.564	0.022	-0.046
-457.026	234.853	0.149	-0.243
-456.011	-165.026	-0.232	-0.010
-454.997	-68.320	-0.263	0.101
-453.982	-200.000	-0.036	0.244
-452.968	401.363	-0.044	-0.091
-451.953	-15.872	-0.228	-0.143
-450.938	114.954	-0.081	-0.097
-449.924	7.043	-0.162	-0.119
-448.909	140.190	-0.035	-0.045
-447.895	383.972	0.051	0.104
-446.880	97.134	0.326	0.369
-445.865	777.283	-0.050	0.134
-444.851	187.081	0.134	0.197
-443.836	800.000	0.051	0.196
-442.822	271.266	0.113	-0.196
-441.807	24.108	0.251	-0.205
-440.792	-92.425	0.032	0.009
-439.778	50.303	0.258	-0.241
-438.763	-147.697	-0.310	-0.026
-437.749	-126.240	-0.032	-0.005
-436.734	76.641	0.103	0.107
-435.719	-200.000	-0.033	0.221
-434.705	-97.816	-0.419	0.107
-433.690	-200.000	0.007	0.109
-432.676	1.858	-0.182	-0.130
-431.661	215.051	-0.107	-0.167
-430.646	4.761	0.114	0.083
-429.632	-0.677	-0.163	-0.114
-428.617	650.540	0.146	0.370
-427.603	613.948	0.123	0.304
-426.588	-64.311	-0.259	0.104
-425.573	274.963	-0.243	-0.425
-424.559	-200.000	0.029	-0.200
-423.544	-73.063	-0.391	-0.142
-422.530	98.577	-0.160	0.182
-421.515	417.422	-0.106	-0.224
-420.500	-57.177	0.037	0.016
-419.486	41.540	0.015	-0.013
-418.471	-160.860	0.078	0.004
-417.457	-90.728	-0.160	-0.046
-416.442	59.294	-0.182	-0.177
-415.428	556.183	0.093	-0.222
-414.413	-72.697	-0.226	0.082
-413.398	-200.000	0.030	0.333
-412.384	78.228	-0.141	0.148
-411.369	-19.466	0.148	-0.090
-410.355	-59.985	-0.149	0.063
-409.340	-102.923	-0.333	0.078
-408.325	185.607	-0.072	0.105
-407.311	-200.000	-0.019	0.106
-406.296	25.946	0.055	0.045
-405.282	598.829	-0.033	0.082
-404.267	-13.179	0.174	0.112
-403.252	106.105	0.133	0.155
-402.238	-9.776	0.133	-0.087
-401.223	-9.807	-0.100	0.066
-400.209	-10.259	-0.078	0.051
-399.194	-165.125	0.190	-0.008
-398.179	229.695	0.050	0.081
-397.165	-200.000	-0.097	0.545
-396.150	5.635	0.126	-0.092
-395.136	-11.125	-0.217	-0.141
-394.121	-3.329	0.152	0.104
-393.106	11.492	0.153	0.116
-392.092	-147.165	-0.462	0.039
-391.077	495.877	0.087	-0.198
-390.063	54.191	0.264	0.251
-389.048	-66.574	-0.165	-0.064
-388.033	6.985	0.198	0.146
-387.019	800.000	-0.063	0.262
-386.004	620.127	0.115	-0.285
-384.990	-168.735	-0.410	0.015
-383.975	461.109	-0.059	0.131
-382.960	-200.000	-0.006	0.110
-381.946	115.136	0.126	-0.151
-380.931	-10.000	0.262	-0.172
-379.917	-200.000	-0.046	0.269
-378.902	-152.748	-0.184	-0.013
-377.888	-200.000	-0.043	-0.264
-376.873	383.140	0.108	-0.219
-375.858	-121.383	-0.270	0.044
-374.844	292.284	-0.132	-0.237
-373.829	36.900	0.416	-0.363
-372.815	-51.861	0.219	-0.101
-371.800	237.072	-0.133	-0.217
-370.785	473.387	-0.137	0.305
-369.771	-136.905	-0.357	0.040
-368.756	-44.964	-0.251	0.123
-367.742	-87.234	0.118	0.035
-366.727	390.111	-0.093	-0.190
-365.712	253.328	-0.101	0.169
-364.698	800.000	-0.049	-0.139
-363.683	800.000	0.055	0.177
-362.669	132.938	0.149	0.190
-361.654	-200.000	-0.042	-0.321
-360.639	-46.100	0.288	-0.140
-359.625	182.171	0.116	-0.168
-358.610	135.408	-0.168	0.215
-357.596	598.660	0.037	-0.091
-356.581	87.030	0.045	0.049
-355.566	-200.000	-0.025	-0.171
-354.552	-13.025	0.373	0.239
-353.537	92.590	0.143	-0.159
-352.523	-91.927	0.317	0.088
-351.508	-155.737	0.133	0.008
-350.493	296.500	-0.227	-0.410
-349.479	-78.806	0.183	0.061
-348.464	-200.000	0.025	0.192
-347.450	-18.948	0.100	0.061
-346.435	800.000	0.071	0.196
-345.420	-114.401	0.149	-0.028
-344.406	800.000	0.086	-0.265
-343.391	-66.212	0.340	0.133
-342.377	-13.029	0.278	0.178
-341.362	-81.704	-0.400	0.129
-340.348	22.194	-0.022	-0.018
-339.333	48.143	0.052	-0.048
-338.318	-114.339	0.075	-0.014
-337.304	-81.665	-0.088	0.028
-336.289	-70.899	0.102	0.038
-335.275	389.175	0.131	-0.267
-334.260	375.095	0.115	0.231
-333.245	-199.493	-0.104	-0.001
-332.231	-200.000	-0.026	-0.204
-331.216	138.637	-0.121	-0.157
-330.202	183.165	-0.164	-0.238
-329.187	567.174	-0.107	-0.257
-328.172	-59.214	-0.325	-0.138
-327.158	6.089	0.050	0.037
-326.143	-98.539	-0.232	0.058
-325.129	800.000	-0.003	0.014
-324.114	18.835	-0.475	0.374
-323.099	-200.000	-0.087	-0.428
-322.085	-2.896	0.167	0.115
-321.070	-200.000	-0.026	-0.256
-320.056	145.786	0.176	-0.231
-319.041	-200.000	-0.006	0.153
-318.026	-33.711	0.218	0.118
-317.012	800.000	-0.095	0.313
-315.997	17.207	0.337	0.263
-314.983	-35.504	0.128	-0.069
-313.968	-117.735	-0.210	0.037
-312.953	104.286	-0.376	0.435
-311.939	-200.000	0.038	0.409
-310.924	-150.077	-0.137	0.010
-309.910	-2.588	-0.255	-0.175
-308.895	-200.000	-0.064	-0.448
-307.880	7.123	-0.174	0.128
-306.866	407.595	0.085	0.177
-305.851	-163.714	0.308	-0.014
-304.837	476.622	0.035	0.078
-303.822	129.542	-0.014	0.018
-302.807	-200.000	-0.012	-0.099
-301.793	342.557	0.071	-0.137
-300.778	-200.000	0.027	0.323
-299.764	-35.179	-0.371	0.198
-298.749	99.749	0.086	0.098
-297.735	47.200	-0.243	-0.222
-296.720	-22.844	0.186	-0.111
-295.705	209.685	0.194	0.299
-294.691	639.325	-0.151	-0.377
-293.676	199.387	0.056	-0.084
-292.662	-10.471	-0.247	0.161
-291.647	-33.536	-0.434	0.235
-290.632	-41.687	0.129	-0.065
-289.618	388.767	-0.171	0.348
-288.603	-200.000	0.040	0.178
-287.589	-162.607	-0.169	-0.008
-286.574	190.899	-0.168	0.249
-285.559	-81.917	0.281	-0.090
-284.545	-89.788	-0.475	0.136
-283.530	175.764	0.089	-0.127
-282.516	800.000	0.080	-0.297
-281.501	4.161	-0.203	-0.146
-280.486	-200.000	-0.018	0.108
-279.472	-200.000	0.006	-0.207
-278.457	-54.140	0.106	0.047
-277.443	138.052	-0.065	-0.084
-276.428	-185.554	0.104	0.002
-275.413	21.838	-0.152	0.121
-274.399	30.037	0.191	0.160
-273.384	-46.695	0.148	-0.071
-272.370	192.548	-0.134	-0.198
-271.355	-200.000	-0.015	-0.261
-270.340	800.000	-0.051	-0.141
-269.326	31.807	-0.117	0.099
-268.311	-147.559	-0.274	-0.023
-267.297	83.637	0.155	-0.166
-266.282	-91.171	0.106	0.030
-265.267	-200.000	0.019	-0.178
-264.253	243.033	0.181	0.298
-263.238	332.892	-0.020	0.038
-262.224	688.816	-0.099	0.253
-261.209	130.670	-0.161	0.203
-260.195	126.035	-0.070	0.086
-259.180	800.000	-0.062	0.248
-258.165	-25.171	-0.415	-0.241
-257.151	236.857	-0.072	-0.116
-256.136	173.873	0.049	-0.069
-255.122	-3.055	-0.063	-0.043
-254.107	553.081	0.083	0.196
-253.092	109.458	-0.088	0.103
-252.078	-200.000	0.024	-0.115
-251.063	-151.740	-0.183	-0.013
-250.049	336.383	0.172	0.327
-249.034	-38.603	0.097	-0.050
-248.019	137.732	0.203	0.261
-247.005	800.000	0.038	-0.126
-245.990	-40.659	0.172	0.088
-244.976	-122.263	-0.056	-0.009
-243.961	64.823	0.168	-0.166
-242.946	97.478	-0.078	0.088
-241.932	349.583	0.217	-0.421
-240.917	-166.621	0.062	0.003
-239.903	-139.860	0.335	0.035
-238.888	-200.000	0.039	0.277
-237.873	211.294	-0.132	-0.204
-236.859	-127.230	0.087	0.012
-235.844	-112.239	-0.154	0.030
-234.830	563.854	-0.094	0.223
-233.815	800.000	-0.045	-0.171
-232.800	-35.338	0.093	0.050
-231.786	-60.190	-0.192	0.080
-230.771	254.825	0.098	0.165
-229.757	-47.620	-0.041	-0.020
-228.742	-12.338	-0.339	-0.217
-227.727	-38.131	-0.199	0.104
-226.713	-200.000	0.482	-0.002
-225.698	-59.037	0.226	-0.096
-224.684	190.623	-0.143	-0.210
-223.669	-165.395	-0.147	-0.006
-222.655	-200.000	0.065	-0.280
-221.640	73.993	-0.404	0.415
-220.625	368.141	-0.126	0.250
-219.611	-32.571	-0.303	0.165
-218.596	159.754	0.185	0.253
-217.582	20.618	-0.227	-0.180
-216.567	-157.950	0.192	-0.011
-215.552	-152.997	0.134	0.009
-214.538	-21.213	-0.219	-0.131
-213.523	412.507	-0.138	0.287
-212.509	-156.325	0.181	0.011
-211.494	15.091	-0.245	-0.188
-210.479	-109.998	0.315	0.065
-209.465	800.000	0.034	0.098
-208.450	-121.216	0.205	-0.034
-207.436	-200.000	0.388	-0.001
-206.421	164.637	0.309	-0.427
-205.406	635.200	-0.140	-0.349
-204.392	-84.851	0.329	0.101
-203.377	54.011	-0.119	0.112
-202.363	477.290	0.063	0.140
-201.348	800.000	-0.031	0.085
-200.333	800.000	0.120	0.369
-199.319	83.968	0.257	0.274
-198.304	269.184	0.128	-0.219
-197.290	-12.949	0.165	-0.105
-196.275	331.230	-0.140	0.265
-195.260	-146.377	0.152	-0.013
-194.246	16.784	0.079	-0.061
-193.231	-54.032	0.279	-0.124
-192.217	-50.930	-0.267	0.123
-191.202	-200.000	-0.010	0.288
-190.187	-79.532	-0.130	0.043
-189.173	86.532	0.229	-0.248
-188.158	-122.327	-0.289	0.046
-187.144	-42.893	0.099	-0.049
-186.129	800.000	0.054	-0.206
-185.114	-103.250	-0.290	-0.067
-184.100	55.600	-0.112	-0.106
-183.085	652.664	-0.103	0.259
-182.071	97.556	0.096	-0.108
-181.056	800.000	0.064	-0.189
-180.042	-200.000	-0.049	-0.319
-179.027	389.401	0.065	0.133
-178.012	-141.077	0.376	-0.038
-176.998	-169.459	0.139	-0.005
-175.983	800.000	-0.129	0.482
-174.969	8.965	0.174	0.128
-173.954	252.846	-0.009	0.015
-172.939	-113.059	0.242	-0.047
-171.925	-200.000	-0.008	-0.193
-170.910	17.412	0.105	0.082
-169.896	65.374	0.183	-0.181
-168.881	-121.581	0.506	-0.082
-167.866	98.558	0.025	0.028
-166.852	-140.674	-0.059	0.006
-165.837	-118.659	0.205	0.035
-164.823	79.809	-0.113	-0.118
-163.808	21.176	0.204	-0.161
-162.793	-148.030	0.297	0.024
-161.779	120.400	-0.075	0.091
-160.764	-200.000	-0.075	-0.342
-159.750	-200.000	0.046	-0.330
-158.735	478.395	0.171	-0.379
-157.720	800.000	0.036	-0.124
-156.706	-187.601	0.234	0.003
-155.691	226.951	-0.060	-0.095
-154.677	315.216	0.290	-0.535
-153.662	12.027	0.125	0.094
-152.647	17.387	0.284	0.221
-151.633	-87.391	0.066	-0.019
-150.618	-67.500	-0.308	0.118
-149.604	-200.000	-0.065	0.306
-148.589	230.773	-0.185	-0.297
-147.574	-200.000	0.074	0.511
-146.560	118.201	0.159	-0.192
-145.545	-3.442	-0.146	-0.099
-144.531	-95.595	-0.360	-0.094
-143.516	800.000	0.039	0.159
-142.502	-17.763	0.516	0.317
-141.487	143.504	-0.296	-0.385
-140.472	389.313	-0.046	0.093
-139.458	-10.292	-0.268	-0.174
-138.443	434.747	0.170	-0.361
-137.429	115.215	0.179	-0.214
-136.414	-112.866	0.122	-0.024
-135.399	-101.237	-0.210	-0.050
-134.385	6.717	-0.301	-0.219
-133.370	800.000	-0.044	0.136
-132.356	-200.000	-0.039	-0.213
-131.341	-134.657	-0.317	-0.038
-130.326	157.660	0.269	0.364
-129.312	85.439	0.092	-0.098
-128.297	-104.683	-0.250	-0.056
-127.283	-88.467	-0.092	0.027
-126.268	-200.000	0.023	0.107
-125.253	26.344	-0.166	-0.136
-124.239	-14.580	-0.233	0.146
-123.224	-200.000	0.007	0.189
-122.210	-146.971	0.127	-0.011
