DTS Sentinel unit serial number:	SN413079Multiplexer serial number:	ORYXHardware model number:	OX4-SRSoftware version number:	ORYX F/W v4.00 Oryx Data Collector v3.7.2.0data status	okinstallation	princeton_trtdifferential loss correction	single-endedforward channel	channel 2reverse channel	N/Adate	2019/09/10time	20:41:11forward acquisition time	60.00reverse acquisition time	0.00gamma	496.2192k internal	0.2330k external	0.2330temperature offset calibration	0.9946default loss term (dB/km)	0.3790temperature slope calibration	1.0000multiplexer offset coefficient	1.0000multiplexer slope coefficient	1.0000fibre end	0.00T internal ref (°C)	31.87T ext. ref 1 (°C)	-0.31T ext. ref 2 (°C)	25.20length (m)	temperature (°C)	Stokes	anti-Stokes-747.200	800.000	0.033	-0.141
-746.185	800.000	0.016	0.053
-745.171	424.249	-0.055	-0.120
-744.156	800.000	-0.103	0.343
-743.142	19.811	-0.044	-0.036
-742.127	-178.701	0.122	-0.003
-741.112	458.196	-0.072	0.161
-740.098	-200.000	-0.068	0.369
-739.083	-104.023	0.153	0.036
-738.069	-110.114	-0.159	0.034
-737.054	267.298	-0.150	0.265
-736.039	-145.549	-0.274	-0.025
-735.025	800.000	0.120	0.390
-734.010	12.448	-0.160	-0.124
-732.996	-47.923	-0.097	0.047
-731.981	144.493	-0.112	0.151
-730.966	-200.000	-0.038	0.221
-729.952	454.981	-0.087	-0.195
-728.937	40.817	-0.187	-0.170
-727.923	-109.343	-0.195	-0.042
-726.908	-200.000	-0.010	0.087
-725.894	265.098	0.075	-0.132
-724.879	-6.228	-0.201	0.138
-723.864	-100.848	-0.227	-0.056
-722.850	-61.344	0.166	-0.070
-721.835	229.304	-0.056	-0.091
-720.821	270.002	0.052	0.093
-719.806	708.186	0.067	0.177
-718.791	-200.000	-0.160	0.001
-717.777	-0.073	-0.096	0.069
-716.762	192.085	0.098	0.148
-715.748	-87.827	0.329	0.100
-714.733	-145.910	-0.262	0.023
-713.718	585.894	0.074	-0.182
-712.704	-200.000	-0.022	-0.188
-711.689	347.028	0.204	-0.405
-710.675	-200.000	0.022	0.170
-709.660	-167.502	0.273	0.011
-708.645	-38.577	-0.076	0.040
-707.631	293.518	0.105	-0.193
-706.616	-12.789	0.008	0.006
-705.602	322.007	0.087	0.167
-704.587	94.389	-0.263	0.300
-703.572	-98.798	0.078	0.020
-702.558	98.878	0.137	0.159
-701.543	-117.736	0.100	0.018
-700.529	-87.734	-0.128	0.039
-699.514	234.005	0.159	0.263
-698.499	-41.381	0.020	-0.011
-697.485	-153.073	0.103	-0.007
-696.470	-200.000	0.017	-0.398
-695.456	-200.000	-0.059	-0.295
-694.441	15.945	0.190	0.151
-693.426	-26.699	-0.105	-0.062
-692.412	-200.000	-0.016	-0.278
-691.397	737.726	0.151	-0.406
-690.383	-163.638	-0.289	-0.014
-689.368	181.433	-0.129	0.190
-688.354	12.170	0.443	-0.342
-687.339	-32.874	0.319	-0.178
-686.324	-63.734	-0.344	-0.142
-685.310	187.984	-0.141	-0.211
-684.295	-47.063	-0.158	-0.078
-683.281	-16.629	0.337	0.215
-682.266	-200.000	0.042	0.262
-681.251	-141.451	0.128	0.013
-680.237	235.680	0.162	0.268
-679.222	-49.356	0.208	-0.100
-678.208	-11.237	-0.295	-0.195
-677.193	-0.419	0.241	-0.172
-676.178	800.000	-0.106	-0.437
-675.164	109.830	0.163	-0.197
-674.149	175.472	-0.244	-0.355
-673.135	-83.587	0.093	-0.030
-672.120	-72.565	0.101	-0.037
-671.105	-50.637	-0.116	0.055
-670.091	-16.765	-0.063	-0.040
-669.076	-200.000	-0.356	-0.001
-668.062	-140.080	-0.283	0.030
-667.047	187.418	0.223	-0.335
-666.032	-200.000	-0.345	-0.001
-665.018	217.878	-0.135	0.216
-664.003	800.000	-0.046	0.164
-662.989	8.783	-0.361	0.273
-661.974	800.000	-0.017	0.060
-660.959	54.423	-0.104	-0.100
-659.945	-117.343	-0.238	-0.043
-658.930	22.305	0.056	0.046
-657.916	148.624	0.163	-0.222
-656.901	69.244	-0.059	0.061
-655.886	-200.000	0.007	-0.229
-654.872	408.550	-0.152	0.324
-653.857	-22.363	0.128	-0.078
-652.843	111.916	0.121	-0.147
-651.828	247.181	0.156	0.264
-650.814	800.000	-0.016	0.066
-649.799	-200.000	-0.010	0.048
-648.784	-135.789	-0.211	0.025
-647.770	58.185	0.085	-0.083
-646.755	387.249	-0.048	-0.099
-645.741	-171.110	-0.269	-0.009
-644.726	-95.992	0.285	-0.076
-643.711	406.343	0.022	-0.046
-642.697	-200.000	-0.034	-0.695
-641.682	800.000	-0.044	-0.136
-640.668	-78.696	0.302	-0.104
-639.653	-200.000	-0.020	-0.090
-638.638	-200.000	0.011	0.416
-637.624	-22.875	0.101	-0.061
-636.609	125.596	0.025	0.032
-635.595	-123.351	0.389	0.062
-634.580	293.566	0.107	-0.196
-633.565	-27.030	-0.101	0.059
-632.551	-55.894	0.219	-0.098
-631.536	105.736	-0.152	-0.180
-630.522	-123.846	0.300	-0.047
-629.507	-34.532	-0.282	0.155
-628.492	-123.758	-0.295	0.047
-627.478	-13.258	-0.197	-0.128
-626.463	-151.758	0.135	0.010
-625.449	800.000	0.061	0.208
-624.434	271.291	-0.086	0.152
-623.419	-146.542	0.248	-0.022
-622.405	800.000	0.037	-0.150
-621.390	187.236	0.008	0.013
-620.376	-200.000	-0.025	0.262
-619.361	-30.729	0.091	-0.051
-618.346	-67.990	-0.159	-0.062
-617.332	392.041	-0.103	-0.214
-616.317	-138.996	-0.268	0.029
-615.303	126.525	-0.241	-0.306
-614.288	49.267	-0.162	-0.152
-613.273	57.492	-0.128	0.125
-612.259	13.107	-0.257	0.199
-611.244	-116.915	-0.033	0.006
-610.230	-94.089	0.060	0.017
-609.215	745.377	0.076	0.206
-608.201	800.000	0.150	-0.543
-607.186	93.936	-0.084	0.095
-606.171	209.164	0.104	-0.163
-605.157	126.083	0.076	-0.096
-604.142	-11.263	-0.167	-0.110
-603.128	-96.951	-0.405	0.106
-602.113	-200.000	-0.030	0.282
-601.098	-200.000	-0.019	0.353
-600.084	51.594	-0.253	0.241
-599.069	1.005	0.178	0.128
-598.055	16.244	-0.086	-0.068
-597.040	384.282	0.126	0.260
-596.025	800.000	-0.041	0.140
-595.011	-100.721	-0.284	-0.070
-593.996	-145.335	0.236	0.021
-592.982	197.267	-0.133	0.204
-591.967	265.733	0.201	0.351
-590.952	-156.263	-0.275	0.017
-589.938	-17.977	-0.213	0.133
-588.923	9.679	0.099	0.075
-587.909	-41.455	0.187	-0.096
-586.894	77.591	-0.113	-0.120
-585.879	-2.851	0.175	0.122
-584.865	128.315	-0.126	0.161
-583.850	49.767	-0.151	0.143
-582.836	-2.283	0.091	-0.064
-581.821	-200.000	0.020	0.245
-580.806	2.832	-0.091	-0.066
-579.792	282.495	-0.057	0.101
-578.777	-200.000	-0.001	0.030
-577.763	-103.217	-0.124	-0.029
-576.748	62.939	0.029	0.029
-575.733	-134.614	-0.241	-0.029
-574.719	-140.395	-0.092	0.010
-573.704	65.503	0.132	0.134
-572.690	-200.000	-0.001	0.376
-571.675	461.865	0.055	0.122
-570.661	46.304	0.119	0.111
-569.646	40.905	-0.053	0.048
-568.631	769.655	-0.090	-0.245
-567.617	125.891	-0.042	-0.052
-566.602	78.151	0.213	-0.227
-565.588	665.873	0.080	-0.206
-564.573	129.868	0.182	0.233
-563.558	-46.591	-0.212	0.104
-562.544	-13.245	-0.091	0.059
-561.529	337.750	0.234	0.455
-560.515	-200.000	0.015	0.239
-559.500	29.258	-0.139	0.118
-558.485	181.789	-0.150	0.221
-557.471	86.691	0.202	0.222
-556.456	-200.000	0.030	0.000
-555.442	-200.000	0.035	-0.296
-554.427	54.088	-0.105	-0.101
-553.412	270.098	0.134	-0.235
-552.398	800.000	-0.031	-0.126
-551.383	211.575	-0.121	-0.190
-550.369	-23.572	-0.093	0.056
-549.354	-119.142	-0.513	-0.090
-548.339	236.493	0.124	-0.205
-547.325	-200.000	0.002	-0.057
-546.310	-200.000	0.037	0.297
-545.296	398.772	0.129	-0.270
-544.281	6.698	-0.176	0.131
-543.266	-81.102	-0.120	0.040
-542.252	143.183	0.041	0.054
-541.237	377.608	-0.133	0.273
-540.223	696.857	0.113	-0.297
-539.208	-200.000	0.020	0.149
-538.193	-200.000	-0.027	-0.323
-537.179	-200.000	-0.029	-0.169
-536.164	21.246	-0.181	0.147
-535.150	650.952	0.035	-0.090
-534.135	710.770	0.158	0.417
-533.121	-200.000	0.002	0.139
-532.106	199.251	0.107	0.164
-531.091	70.464	0.105	-0.109
-530.077	800.000	0.035	-0.129
-529.062	-18.642	0.128	0.079
-528.048	251.446	0.085	-0.145
-527.033	-140.240	-0.252	0.026
-526.018	-95.329	0.357	0.096
-525.004	-200.000	-0.023	0.179
-523.989	-33.307	-0.129	-0.071
-522.975	-24.007	-0.218	-0.130
-521.960	-100.735	0.401	-0.099
-520.945	158.170	0.090	-0.124
-519.931	-200.000	-0.008	-0.213
-518.916	-162.605	0.220	-0.011
-517.902	-200.000	-0.002	0.337
-516.887	295.639	0.089	-0.162
-515.872	179.211	-0.211	-0.308
-514.858	-14.036	0.236	-0.152
-513.843	-62.934	0.201	0.083
-512.829	800.000	-0.058	0.240
-511.814	-31.834	-0.117	-0.065
-510.799	800.000	0.068	-0.241
-509.785	-11.215	-0.186	0.122
-508.770	-155.830	0.249	0.016
-507.756	-56.751	-0.258	-0.114
-506.741	-131.127	-0.433	-0.058
-505.726	412.228	-0.074	0.158
-504.712	-145.728	-0.187	0.017
-503.697	-76.053	-0.221	-0.078
-502.683	-12.754	0.288	0.187
-501.668	169.367	0.198	0.282
-500.653	88.307	-0.142	0.157
-499.639	280.652	-0.081	0.145
-498.624	-67.181	-0.213	-0.083
-497.610	-65.211	0.395	0.159
-496.595	22.162	-0.085	0.070
-495.581	6.126	-0.050	0.037
-494.566	198.788	0.131	0.200
-493.551	31.208	-0.206	0.176
-492.537	-138.074	-0.122	-0.013
-491.522	-136.715	-0.136	0.016
-490.508	5.843	0.141	0.104
-489.493	-138.001	-0.133	-0.015
-488.478	72.504	-0.093	0.097
-487.464	201.182	0.140	0.216
-486.449	372.456	0.177	-0.359
-485.435	-121.280	0.154	0.026
-484.420	256.178	-0.043	-0.074
-483.405	-200.000	-0.034	0.285
-482.391	-77.012	-0.294	-0.102
-481.376	-130.495	-0.303	-0.041
-480.362	357.874	0.133	0.264
-479.347	800.000	0.132	0.422
-478.332	-112.887	-0.092	0.018
-477.318	50.469	0.172	0.162
-476.303	-180.611	0.268	0.005
-475.289	-200.000	0.002	-0.205
-474.274	87.599	0.125	-0.138
-473.259	226.340	0.129	-0.208
-472.245	-200.000	0.007	0.150
-471.230	-62.491	-0.217	0.090
-470.216	178.102	-0.061	0.089
-469.201	800.000	0.025	-0.103
-468.186	-200.000	-0.022	0.177
-467.172	-41.376	0.090	-0.046
-466.157	800.000	0.043	0.174
-465.143	-67.330	0.425	0.166
-464.128	242.079	0.153	-0.256
-463.113	-166.377	-0.441	-0.018
-462.099	800.000	0.075	0.218
-461.084	138.779	0.178	-0.232
-460.070	121.910	0.149	-0.185
-459.055	1.760	-0.096	0.069
-458.040	281.624	-0.120	-0.213
-457.026	-200.000	0.189	-0.000
-456.011	79.623	0.050	0.053
-454.997	-200.000	-0.023	-0.445
-453.982	-84.912	-0.352	-0.110
-452.968	-2.752	-0.117	0.081
-451.953	800.000	-0.046	-0.164
-450.938	-24.623	-0.325	0.192
-449.924	260.309	-0.066	0.114
-448.909	800.000	-0.078	0.305
-447.895	-117.467	0.131	-0.024
-446.880	477.592	-0.054	-0.122
-445.865	-41.784	0.354	-0.181
-444.851	-200.000	0.021	0.412
-443.836	-200.000	0.035	0.433
-442.822	-151.738	0.145	-0.011
-441.807	-200.000	-0.043	-0.232
-440.792	392.727	0.226	0.468
-439.778	-125.738	0.196	-0.030
-438.763	87.104	-0.172	-0.189
-437.749	416.493	0.142	0.303
-436.734	-105.273	-0.272	-0.062
-435.719	-92.718	-0.130	-0.036
-434.705	800.000	-0.064	0.252
-433.690	462.430	-0.136	-0.303
-432.676	-81.595	-0.247	0.081
-431.661	-103.873	-0.411	0.096
-430.646	800.000	0.041	-0.113
-429.632	632.438	0.013	-0.033
-428.617	116.816	0.159	0.194
-427.603	-28.754	-0.397	-0.227
-426.588	-94.084	0.257	0.070
-425.573	30.671	-0.155	-0.132
-424.559	413.474	0.088	-0.185
-423.544	-142.970	0.220	0.021
-422.530	-152.700	-0.072	-0.005
-421.515	-59.289	-0.042	0.018
-420.500	-70.643	0.071	0.027
-419.486	800.000	0.036	-0.137
-418.471	-200.000	-0.005	-0.285
-417.457	70.705	0.109	0.112
-416.442	-200.000	-0.002	-0.177
-415.428	-0.134	0.281	0.199
-414.413	498.188	0.110	-0.253
-413.398	293.020	-0.136	-0.246
-412.384	-91.831	-0.157	0.044
-411.369	275.990	-0.088	-0.156
-410.355	26.745	0.185	0.154
-409.340	-112.256	0.160	0.032
-408.325	426.628	-0.109	0.233
-407.311	-4.036	0.205	-0.141
-406.296	267.666	-0.120	0.209
-405.282	-200.000	0.000	-0.142
-404.267	800.000	0.078	-0.241
-403.252	344.750	-0.057	0.112
-402.238	489.467	0.118	-0.267
-401.223	118.188	0.210	-0.258
-400.209	800.000	-0.083	-0.248
-399.194	49.965	0.181	0.170
-398.179	-9.055	-0.092	0.061
-397.165	-97.730	0.136	0.035
-396.150	800.000	-0.023	0.094
-395.136	-66.927	0.125	-0.049
-394.121	-200.000	-0.022	-0.200
-393.106	279.649	-0.065	0.115
-392.092	-49.509	-0.068	-0.032
-391.077	-200.000	-0.020	0.210
-390.063	800.000	0.068	-0.285
-389.048	-200.000	0.001	0.106
-388.033	-152.689	0.253	-0.018
-387.019	109.674	-0.122	-0.145
-386.004	-98.352	-0.190	0.048
-384.990	800.000	0.057	-0.174
-383.975	276.757	-0.120	-0.212
-382.960	-200.000	-0.025	0.133
-381.946	356.086	0.064	0.127
-380.931	372.547	-0.128	0.258
-379.917	-200.000	0.007	0.209
-378.902	328.056	-0.052	0.099
-377.888	-200.000	-0.016	-0.130
-376.873	-121.022	0.293	-0.049
-375.858	190.539	-0.302	-0.451
-374.844	-26.717	0.089	0.052
-373.829	73.728	0.131	-0.136
-372.815	-90.810	0.237	-0.068
-371.800	-80.977	-0.285	-0.094
-370.785	-200.000	0.039	0.207
-369.771	-200.000	0.005	0.094
-368.756	-8.001	-0.173	-0.116
-367.742	202.912	-0.089	-0.136
-366.727	-43.368	0.192	0.096
-365.712	-134.075	-0.222	0.027
-364.698	208.617	0.083	0.129
-363.683	311.252	0.065	0.122
-362.669	79.448	-0.111	-0.118
-361.654	-200.000	0.072	0.327
-360.639	-15.496	0.223	0.141
-359.625	-84.218	0.140	-0.044
-358.610	-200.000	-0.006	-0.026
-357.596	-200.000	-0.017	-0.117
-356.581	-68.420	0.220	0.085
-355.566	-200.000	-0.035	-0.278
-354.552	557.496	-0.119	-0.284
-353.537	335.270	-0.035	-0.066
-352.523	40.370	-0.196	-0.175
-351.508	-200.000	0.016	0.204
-350.493	-48.920	-0.419	0.199
-349.479	690.356	0.027	-0.071
-348.464	-12.187	0.365	0.237
-347.450	32.641	-0.166	-0.142
-346.435	15.358	0.156	-0.121
-345.420	-80.629	-0.313	-0.103
-344.406	19.772	-0.091	0.073
-343.391	-103.554	0.137	-0.032
-342.377	-47.210	0.307	-0.148
-341.362	511.024	0.044	-0.102
-340.348	207.450	-0.050	0.078
-339.333	-140.753	-0.162	-0.017
-338.318	121.512	0.103	0.127
-337.304	800.000	0.018	-0.069
-336.289	-115.173	-0.273	0.051
-335.275	-101.365	0.184	0.044
-334.260	800.000	0.049	-0.186
-333.245	58.000	0.318	0.309
-332.231	-200.000	-0.012	-0.172
-331.216	11.218	0.169	-0.128
-330.202	110.727	-0.199	0.238
-329.187	800.000	0.005	0.019
-328.172	-71.262	-0.165	-0.061
-327.158	800.000	0.097	-0.330
-326.143	-200.000	0.005	-0.425
-325.129	-113.093	-0.592	-0.116
-324.114	-200.000	-0.032	0.194
-323.099	705.202	-0.048	-0.126
-322.085	-200.000	-0.011	0.203
-321.070	713.525	0.010	0.025
-320.056	-200.000	0.014	0.110
-319.041	59.920	0.025	-0.024
-318.026	485.081	0.055	-0.125
-317.012	-11.587	-0.289	0.188
-315.997	-200.000	-0.003	-0.418
-314.983	64.188	0.120	0.119
-313.968	800.000	0.005	-0.017
-312.953	-118.948	-0.017	0.003
-311.939	405.425	-0.117	-0.245
-310.924	-116.264	-0.385	-0.071
-309.910	-131.252	0.361	0.047
-308.895	-68.704	0.153	-0.059
-307.880	30.120	0.125	0.105
-306.866	622.167	0.128	0.319
-305.851	-93.991	-0.153	0.042
-304.837	-95.416	0.121	-0.032
-303.822	-75.122	-0.238	0.084
-302.807	61.784	0.101	0.099
-301.793	-37.218	-0.293	-0.155
-300.778	77.808	-0.178	0.188
-299.764	277.425	-0.105	0.185
-298.749	-84.803	-0.089	-0.028
-297.735	-200.000	0.031	0.161
-296.720	500.799	0.125	0.286
-295.705	285.501	0.130	-0.232
-294.691	-200.000	0.004	0.359
-293.676	800.000	-0.065	0.202
-292.662	800.000	-0.154	0.479
-291.647	-117.246	-0.247	-0.044
-290.632	-24.073	-0.434	-0.257
-289.618	-27.073	-0.233	-0.134
-288.603	-19.791	0.073	-0.045
-287.589	-200.000	-0.021	-0.161
-286.574	729.572	0.105	0.278
-285.559	800.000	0.053	-0.148
-284.545	25.550	-0.050	-0.041
-283.530	-186.650	-0.084	-0.001
-282.516	391.151	0.126	0.259
-281.501	-150.414	-0.045	0.003
-280.486	-168.867	0.253	-0.009
-279.472	104.197	-0.115	-0.134
-278.457	106.179	-0.126	0.148
-277.443	39.547	-0.232	-0.206
-276.428	168.393	0.133	-0.187
-275.413	-110.205	0.239	0.049
-274.399	-200.000	0.003	-0.089
-273.384	-200.000	-0.045	0.239
-272.370	82.197	-0.105	-0.112
-271.355	-69.309	-0.099	0.038
-270.340	-92.635	0.135	0.037
-269.326	-115.830	0.152	0.028
-268.311	800.000	-0.046	0.130
-267.297	34.665	0.152	-0.132
-266.282	6.413	0.217	0.159
-265.267	-20.392	0.060	-0.036
-264.253	150.610	0.143	-0.192
-263.238	-200.000	0.011	-0.128
-262.224	-160.228	0.226	-0.012
-261.209	-122.957	0.240	0.038
-260.195	278.073	0.122	0.215
-259.180	128.428	-0.334	0.420
-258.165	-135.933	0.250	0.029
-257.151	-200.000	0.436	0.000
-256.136	800.000	-0.099	-0.399
-255.122	-46.457	0.138	-0.067
-254.107	1.541	-0.201	-0.143
-253.092	-4.600	0.193	-0.131
-252.078	665.384	0.060	0.153
-251.063	57.294	-0.182	0.175
-250.049	-95.195	0.196	-0.052
-249.034	-21.185	-0.221	0.133
-248.019	-17.776	0.259	-0.161
-247.005	-94.677	-0.182	0.049
-245.990	30.921	-0.030	0.026
-244.976	2.525	0.006	-0.004
-243.961	131.740	-0.118	0.150
-242.946	-96.039	-0.234	-0.061
-241.932	-200.000	0.021	-0.129
-240.917	-87.626	0.149	-0.044
-239.903	-200.000	0.014	-0.093
-238.888	800.000	0.080	0.222
-237.873	-200.000	0.024	-0.150
-236.859	6.123	0.205	-0.150
-235.844	310.489	0.034	0.063
-234.830	614.898	-0.058	-0.144
-233.815	-200.000	-0.007	0.058
-232.800	-106.200	0.121	-0.027
-231.786	121.707	0.046	-0.056
-230.771	-29.238	0.120	-0.068
-229.757	-121.251	0.222	-0.037
-228.742	247.800	-0.189	0.315
-227.727	61.628	0.113	-0.111
-226.713	-86.366	-0.129	-0.039
-225.698	271.878	-0.134	-0.233
-224.684	-164.249	-0.209	-0.009
-223.669	44.497	-0.273	-0.248
-222.655	125.377	-0.185	-0.231
-221.640	-176.798	0.393	0.010
-220.625	-55.884	0.062	0.027
-219.611	341.396	0.068	-0.130
-218.596	-25.796	-0.157	-0.091
-217.582	-200.000	0.014	-0.383
-216.567	79.912	0.257	0.273
-215.552	92.320	-0.093	-0.103
-214.538	-109.054	0.282	-0.059
-213.523	-160.639	0.191	-0.010
-212.509	754.835	0.029	0.078
-211.494	129.184	0.025	0.031
-210.479	305.591	0.156	0.287
-209.465	-200.000	0.003	-0.401
-208.450	-72.036	0.226	0.083
-207.436	21.138	0.160	0.128
-206.421	-91.966	0.176	-0.049
-205.406	10.743	0.073	-0.055
-204.392	-84.936	-0.406	0.126
-203.377	194.570	0.195	-0.292
-202.363	-200.000	-0.008	0.364
-201.348	-98.747	-0.117	-0.029
-200.333	800.000	0.106	0.414
-199.319	776.369	0.082	-0.222
-198.304	-200.000	-0.061	-0.337
-197.290	-36.014	0.284	0.151
-196.275	2.780	-0.378	0.270
-195.260	73.768	-0.142	-0.147
-194.246	38.959	-0.019	-0.017
-193.231	-166.045	-0.246	-0.010
-192.217	485.249	0.035	-0.078
-191.202	-146.450	-0.336	-0.029
-190.187	108.302	-0.073	0.085
-189.173	3.671	0.233	-0.167
-188.158	28.649	-0.202	-0.168
-187.144	253.758	-0.063	0.106
-186.129	800.000	-0.016	-0.045
-185.114	800.000	0.170	-0.697
-184.100	297.598	0.296	-0.535
-183.085	-74.812	-0.357	0.126
-182.071	4.486	-0.454	-0.328
-181.056	800.000	0.036	-0.116
-180.042	-1.369	-0.301	0.209
-179.027	-129.829	-0.076	-0.010
-178.012	74.220	0.113	-0.117
-176.998	185.434	0.140	0.204
-175.983	-39.575	0.370	0.191
-174.969	-70.727	0.281	0.105
-173.954	-58.023	0.156	0.067
-172.939	-45.837	0.256	0.124
-171.925	-9.641	0.141	0.093
-170.910	268.859	0.112	0.194
-169.896	152.894	-0.226	-0.304
-168.881	328.432	0.081	-0.154
-167.866	32.673	0.142	-0.121
-166.852	10.879	0.231	0.174
-165.837	-5.421	0.070	-0.047
-164.823	267.594	0.102	0.176
-163.808	534.610	-0.095	0.221
-162.793	789.536	-0.032	-0.087
-161.779	75.108	-0.055	0.057
-160.764	-200.000	-0.017	-0.086
-159.750	9.017	-0.145	-0.108
-158.735	-114.091	0.090	0.017
-157.720	524.091	0.116	0.268
-156.706	800.000	-0.018	-0.066
-155.691	-200.000	0.010	-0.152
-154.677	-43.337	-0.273	-0.136
-153.662	-200.000	0.014	-0.130
-152.647	800.000	0.019	0.067
-151.633	-95.123	0.342	-0.091
-150.618	-97.835	-0.147	0.037
-149.604	-200.000	-0.041	-0.193
-148.589	-138.475	0.328	-0.036
-147.574	242.472	0.151	0.248
-146.560	-172.192	0.476	0.015
-145.545	61.842	-0.251	0.246
-144.531	110.521	-0.115	-0.136
-143.516	-200.000	-0.071	0.331
-142.502	92.989	-0.142	0.158
-141.487	-132.283	0.096	0.012
-140.472	294.590	-0.158	0.284
-139.458	20.882	0.210	0.168
-138.443	-200.000	0.074	0.437
-137.429	-125.973	-0.261	-0.039
-136.414	86.315	0.177	-0.191
-135.399	120.265	-0.093	-0.113
-134.385	-200.000	-0.005	0.100
-133.370	-200.000	-0.057	-0.291
-132.356	484.438	0.119	-0.267
-131.341	800.000	0.041	-0.171
-130.326	-200.000	-0.050	0.253
-129.312	274.659	0.108	0.188
-128.297	-104.275	-0.561	-0.128
-127.283	362.898	-0.036	-0.071
-126.268	17.359	0.090	-0.070
-125.253	396.328	0.131	-0.269
-124.239	66.401	-0.275	0.275
-123.224	9.993	0.092	-0.069
-122.210	178.419	-0.097	-0.140
-121.195	17.433	0.273	0.213
