DTS Sentinel unit serial number:	SN413079Multiplexer serial number:	ORYXHardware model number:	OX4-SRSoftware version number:	ORYX F/W v4.00 Oryx Data Collector v3.7.2.0data status	okinstallation	princeton_trtdifferential loss correction	single-endedforward channel	channel 2reverse channel	N/Adate	2019/09/14time	17:47:35forward acquisition time	60.00reverse acquisition time	0.00gamma	496.2192k internal	0.2312k external	0.2312temperature offset calibration	1.0110default loss term (dB/km)	0.3790temperature slope calibration	1.0000multiplexer offset coefficient	1.0000multiplexer slope coefficient	1.0000fibre end	0.00T internal ref (°C)	37.50T ext. ref 1 (°C)	5.01T ext. ref 2 (°C)	32.58length (m)	temperature (°C)	Stokes	anti-Stokes-747.200	-63.901	-0.062	0.026
-746.185	-200.000	-0.024	0.174
-745.171	800.000	-0.010	0.044
-744.156	800.000	-0.032	0.106
-743.142	49.431	0.210	0.201
-742.127	406.735	-0.109	0.233
-741.112	-79.675	0.114	0.039
-740.098	-27.357	-0.029	0.017
-739.083	-32.058	0.376	-0.213
-738.069	-200.000	-0.018	0.505
-737.054	-141.695	0.246	0.025
-736.039	-17.062	0.050	0.032
-735.025	-108.445	-0.243	-0.053
-734.010	-10.920	-0.057	-0.038
-732.996	-108.066	-0.223	0.049
-731.981	49.247	-0.266	-0.254
-730.966	58.175	0.251	-0.249
-729.952	-10.938	-0.140	-0.094
-728.937	228.021	-0.368	0.607
-727.923	773.958	0.107	0.297
-726.908	72.958	-0.092	-0.098
-725.894	276.517	0.057	-0.102
-724.879	16.957	-0.024	-0.019
-723.864	-177.995	-0.147	0.004
-722.850	-9.404	0.168	0.114
-721.835	-200.000	-0.050	-0.497
-720.821	800.000	0.021	-0.089
-719.806	-89.507	-0.189	-0.056
-718.791	373.320	0.141	-0.291
-717.777	188.162	-0.028	-0.042
-716.762	222.601	-0.040	0.065
-715.748	31.196	-0.271	-0.236
-714.733	-63.974	0.198	-0.082
-713.718	-102.873	-0.168	-0.040
-712.704	215.295	0.192	-0.309
-711.689	-53.073	-0.194	-0.090
-710.675	11.331	0.064	0.050
-709.660	120.095	0.125	-0.157
-708.645	-52.428	-0.110	-0.052
-707.631	-22.777	-0.196	-0.120
-706.616	-101.794	-0.019	-0.005
-705.602	-152.255	0.316	-0.023
-704.587	91.255	-0.110	-0.125
-703.572	330.999	-0.054	0.106
-702.558	-8.148	0.082	0.056
-701.543	126.265	-0.089	0.115
-700.529	127.905	-0.036	0.046
-699.514	-87.728	0.281	-0.086
-698.499	250.000	0.115	-0.198
-697.485	490.519	0.076	-0.177
-696.470	402.269	0.094	0.201
-695.456	-138.432	-0.027	0.003
-694.441	112.135	-0.200	0.245
-693.426	495.003	-0.012	-0.028
-692.412	-44.389	-0.117	0.059
-691.397	116.565	-0.186	-0.231
-690.383	40.851	0.332	0.303
-689.368	100.647	0.110	0.130
-688.354	-200.000	-0.000	-0.217
-687.339	38.727	0.046	0.042
-686.324	53.739	-0.048	-0.047
-685.310	800.000	-0.052	0.201
-684.295	800.000	0.040	-0.177
-683.281	-4.856	-0.060	-0.042
-682.266	72.824	0.055	0.058
-681.251	-200.000	-0.034	0.186
-680.237	-200.000	-0.004	0.184
-679.222	47.721	0.145	-0.137
-678.208	-22.477	0.092	0.057
-677.193	30.238	0.367	-0.317
-676.178	800.000	-0.038	-0.126
-675.164	800.000	-0.038	0.143
-674.149	-76.666	0.224	-0.080
-673.135	566.760	-0.089	0.219
-672.120	61.847	0.366	0.369
-671.105	-200.000	-0.013	0.652
-670.091	-165.892	-0.109	-0.005
-669.076	-152.496	0.221	-0.016
-668.062	800.000	0.041	0.162
-667.047	-50.995	-0.341	-0.162
-666.032	-200.000	-0.037	-0.207
-665.018	9.601	-0.078	0.059
-664.003	800.000	0.089	0.270
-662.989	-49.656	0.115	0.055
-661.974	564.892	-0.120	-0.294
-660.959	423.666	-0.140	0.304
-659.945	-2.094	-0.212	0.151
-658.930	20.782	-0.212	0.174
-657.916	-74.817	0.241	0.088
-656.901	-177.165	0.371	-0.009
-655.886	-116.305	-0.207	-0.039
-654.872	32.347	0.155	0.136
-653.857	-200.000	0.005	0.206
-652.843	-200.000	0.000	-0.310
-651.828	-200.000	-0.028	0.265
-650.814	-94.797	-0.246	-0.067
-649.799	-93.585	-0.490	0.137
-648.784	431.950	-0.109	0.239
-647.770	10.289	-0.168	0.129
-646.755	-123.549	-0.111	-0.018
-645.741	-118.383	0.092	-0.016
-644.726	15.859	0.130	-0.104
-643.711	153.087	-0.203	-0.281
-642.697	-200.000	-0.049	0.301
-641.682	335.920	0.153	-0.300
-640.668	12.214	0.116	-0.090
-639.653	800.000	0.080	-0.232
-638.638	119.319	-0.240	-0.300
-637.624	-137.276	0.267	0.031
-636.609	77.181	0.126	0.136
-635.595	-104.823	-0.331	0.077
-634.580	139.877	0.168	-0.223
-633.565	-108.734	-0.161	0.035
-632.551	800.000	0.053	0.165
-631.536	67.098	0.145	0.149
-630.522	-88.586	-0.267	-0.080
-629.507	393.067	0.147	-0.308
-628.492	25.710	0.125	-0.105
-627.478	25.296	0.303	0.254
-626.463	663.364	-0.105	0.275
-625.449	193.046	0.074	-0.113
-624.434	800.000	-0.119	-0.524
-623.419	-48.536	-0.093	0.045
-622.405	-27.229	0.152	-0.089
-621.390	78.519	-0.178	-0.192
-620.376	-8.523	0.026	0.017
-619.361	-200.000	0.012	-0.106
-618.346	17.645	-0.097	0.078
-617.332	-142.988	-0.140	0.014
-616.317	-34.635	0.164	-0.091
-615.303	-6.935	0.364	-0.250
-614.288	-170.757	-0.098	0.003
-613.273	420.285	-0.026	0.055
-612.259	51.045	-0.167	0.160
-611.244	219.959	0.173	-0.280
-610.230	-84.568	-0.219	0.070
-609.215	70.107	-0.257	-0.268
-608.201	-200.000	-0.020	-0.339
-607.186	-131.449	-0.175	-0.023
-606.171	-200.000	0.016	0.075
-605.157	442.941	0.086	-0.190
-604.142	-94.781	0.199	0.055
-603.128	-200.000	0.007	-0.121
-602.113	800.000	0.067	0.260
-601.098	-25.938	0.305	-0.181
-600.084	-82.784	-0.063	-0.021
-599.069	139.429	-0.077	-0.103
-598.055	-49.445	0.231	-0.111
-597.040	20.039	-0.066	0.054
-596.025	-15.582	-0.166	0.107
-595.011	-90.120	0.394	0.116
-593.996	800.000	0.095	0.300
-592.982	405.217	0.097	0.206
-591.967	-106.678	-0.240	-0.054
-590.952	242.668	-0.216	-0.365
-589.938	-200.000	-0.010	0.401
-588.923	-3.598	-0.105	0.073
-587.909	-200.000	-0.019	0.097
-586.894	173.024	0.073	0.106
-585.879	283.315	-0.119	0.216
-584.865	107.630	0.069	-0.082
-583.850	-200.000	0.043	0.247
-582.836	56.490	0.207	0.203
-581.821	-200.000	-0.031	0.188
-580.806	-85.097	0.298	-0.094
-579.792	-118.544	0.387	-0.069
-578.777	-200.000	0.039	0.261
-577.763	40.684	0.166	0.151
-576.748	-94.359	0.299	-0.082
-575.733	0.300	0.007	-0.005
-574.719	37.814	-0.217	0.195
-573.704	103.922	0.197	-0.233
-572.690	-76.345	-0.111	0.039
-571.675	-200.000	-0.032	0.142
-570.661	-186.922	-0.264	-0.004
-569.646	-147.044	0.220	-0.019
-568.631	-7.895	-0.080	-0.054
-567.617	-26.309	-0.198	-0.117
-566.602	800.000	0.056	-0.197
-565.588	295.662	-0.106	0.195
-564.573	17.011	0.073	-0.058
-563.558	129.689	-0.290	-0.374
-562.544	-53.613	-0.158	-0.073
-561.529	74.722	-0.061	0.065
-560.515	-200.000	-0.019	0.377
-559.500	-6.610	-0.351	0.241
-558.485	-118.656	0.429	-0.076
-557.471	-75.388	0.271	-0.097
-556.456	-200.000	0.007	0.094
-555.442	43.674	0.189	-0.175
-554.427	-200.000	-0.046	0.231
-553.412	-199.022	0.109	-0.001
-552.398	-155.466	0.205	-0.013
-551.383	-200.000	0.028	-0.218
-550.369	165.475	0.189	-0.269
-549.354	-144.139	0.302	0.028
-548.339	-200.000	-0.015	-0.179
-547.325	-98.172	0.109	-0.028
-546.310	4.208	-0.274	-0.202
-545.296	180.177	0.107	-0.158
-544.281	-108.117	-0.118	0.026
-543.266	-200.000	-0.006	-0.094
-542.252	-96.267	-0.034	0.009
-541.237	18.718	0.498	0.401
-540.223	-21.264	-0.116	-0.072
-539.208	-200.000	0.036	0.329
-538.193	699.830	0.077	-0.203
-537.179	53.148	-0.153	0.147
-536.164	-200.000	-0.028	0.126
-535.150	158.211	-0.013	-0.018
-534.135	-41.634	0.098	-0.051
-533.121	800.000	0.041	0.128
-532.106	-103.475	-0.256	-0.061
-531.091	-54.694	0.246	-0.112
-530.077	154.481	-0.106	0.147
-529.062	302.233	-0.087	-0.162
-528.048	-45.918	-0.176	-0.087
-527.033	-56.863	0.067	-0.030
-526.018	-69.602	-0.170	0.066
-525.004	-5.702	-0.227	-0.156
-523.989	-200.000	0.043	-0.302
-522.975	81.776	-0.033	-0.036
-521.960	-14.749	-0.420	-0.272
-520.945	151.344	0.100	-0.137
-519.931	79.764	-0.153	0.166
-518.916	-200.000	-0.052	-0.327
-517.902	-18.340	0.115	-0.072
-516.887	235.561	-0.164	-0.273
-515.872	100.539	-0.224	-0.262
-514.858	800.000	0.039	-0.126
-513.843	-131.069	-0.141	-0.019
-512.829	-94.910	-0.254	-0.069
-511.814	560.366	0.090	-0.219
-510.799	19.790	-0.218	0.176
-509.785	-162.075	0.404	-0.020
-508.770	95.255	-0.172	-0.197
-507.756	273.887	-0.076	-0.136
-506.741	-69.879	0.167	0.064
-505.726	267.639	-0.178	0.314
-504.712	-200.000	0.006	0.081
-503.697	63.149	0.062	0.063
-502.683	154.991	-0.093	0.129
-501.668	-200.000	0.005	-0.051
-500.653	-106.893	-0.379	0.084
-499.639	-98.848	0.196	0.050
-498.624	800.000	0.073	0.277
-497.610	46.706	-0.085	-0.079
-496.595	609.397	0.057	0.143
-495.581	52.408	-0.116	0.111
-494.566	-200.000	-0.027	-0.129
-493.551	47.732	-0.267	0.251
-492.537	212.811	-0.049	0.077
-491.522	211.206	0.085	-0.135
-490.508	-156.411	0.404	-0.025
-489.493	-121.255	-0.241	0.040
-488.478	-20.222	0.224	-0.139
-487.464	49.643	0.061	0.057
-486.449	470.171	-0.211	-0.476
-485.435	800.000	-0.064	0.270
-484.420	800.000	-0.072	0.221
-483.405	-33.284	-0.125	-0.070
-482.391	-12.292	0.446	0.293
-481.376	-120.597	0.213	-0.036
-480.362	-68.575	-0.074	-0.029
-479.347	-200.000	0.021	-0.122
-478.332	14.250	-0.013	0.010
-477.318	417.362	0.089	-0.191
-476.303	-81.075	0.133	-0.044
-475.289	-6.386	0.049	0.034
-474.274	297.571	-0.232	-0.428
-473.259	-200.000	0.047	-0.236
-472.245	-49.765	-0.144	0.069
-471.230	22.565	-0.137	0.113
-470.216	296.736	-0.213	0.392
-469.201	-144.721	0.207	-0.019
-468.186	-67.966	-0.167	0.066
-467.172	-102.676	-0.159	-0.038
-466.157	-10.861	-0.119	-0.079
-465.143	79.766	-0.139	-0.149
-464.128	800.000	-0.014	0.055
-463.113	44.973	0.355	0.328
-462.099	-7.562	0.130	-0.088
-461.084	-106.500	0.215	-0.048
-460.070	73.261	-0.104	0.109
-459.055	150.389	-0.167	-0.227
-458.040	-200.000	0.008	-0.107
-457.026	-200.000	0.005	-0.106
-456.011	329.160	0.114	-0.221
-454.997	-200.000	-0.001	-0.133
-453.982	337.468	-0.124	0.242
-452.968	-200.000	-0.062	-0.280
-451.953	72.300	-0.183	-0.191
-450.938	-200.000	0.001	0.223
-449.924	-200.000	-0.019	-0.097
-448.909	800.000	-0.045	0.157
-447.895	122.956	0.136	0.170
-446.880	269.926	-0.211	-0.371
-445.865	-200.000	-0.004	-0.143
-444.851	800.000	-0.066	0.233
-443.836	800.000	-0.067	-0.212
-442.822	377.724	0.150	-0.307
-441.807	135.474	-0.073	0.096
-440.792	-37.299	-0.469	-0.252
-439.778	800.000	-0.008	0.030
-438.763	36.247	-0.379	-0.335
-437.749	-40.909	-0.337	-0.175
-436.734	729.332	0.211	-0.566
-435.719	-65.725	-0.192	0.077
-434.705	-200.000	0.006	0.180
-433.690	273.553	-0.207	-0.366
-432.676	694.069	0.113	0.297
-431.661	-200.000	0.045	0.218
-430.646	41.707	0.118	0.107
-429.632	-168.409	-0.189	0.007
-428.617	-72.303	0.194	-0.072
-427.603	-200.000	0.033	0.163
-426.588	8.089	-0.139	0.104
-425.573	694.429	-0.132	0.348
-424.559	124.855	0.140	0.176
-423.544	303.390	-0.077	0.143
-422.530	128.640	-0.120	0.153
-421.515	-200.000	-0.017	-0.158
-420.500	-2.992	0.191	0.134
-419.486	-72.369	0.044	0.016
-418.471	-67.787	0.352	0.138
-417.457	-126.838	-0.258	0.038
-416.442	625.073	0.019	0.049
-415.428	76.437	-0.141	0.150
-414.413	210.808	-0.180	0.284
-413.398	62.680	-0.258	0.259
-412.384	256.236	-0.092	0.158
-411.369	-61.625	-0.070	-0.029
-410.355	52.437	-0.058	-0.055
-409.340	-61.380	-0.158	-0.066
-408.325	267.845	-0.113	0.198
-407.311	53.481	0.357	0.343
-406.296	-200.000	0.055	-0.275
-405.282	449.515	0.076	-0.167
-404.267	455.069	-0.073	0.162
-403.252	85.625	0.077	-0.085
-402.238	300.676	0.240	0.443
-401.223	-78.448	0.122	0.042
-400.209	85.675	0.201	0.221
-399.194	34.033	0.147	-0.128
-398.179	800.000	0.087	-0.279
-397.165	16.495	0.191	0.151
-396.150	44.902	-0.119	0.110
-395.136	800.000	0.062	-0.208
-394.121	219.631	0.064	-0.103
-393.106	-128.594	-0.089	-0.013
-392.092	470.129	0.088	-0.199
-391.077	-200.000	0.009	-0.097
-390.063	-87.869	-0.266	0.080
-389.048	65.488	-0.306	-0.310
-388.033	-200.000	0.036	0.199
-387.019	800.000	-0.072	0.220
-386.004	-200.000	-0.036	-0.392
-384.990	340.744	0.006	-0.011
-383.975	128.143	-0.359	-0.457
-382.960	-116.181	0.529	-0.098
-381.946	-200.000	0.029	-0.222
-380.931	-200.000	-0.041	-0.183
-379.917	-73.084	0.335	0.123
-378.902	124.318	0.102	-0.128
-377.888	286.692	-0.137	-0.248
-376.873	133.920	-0.265	0.343
-375.858	-59.412	0.066	0.028
-374.844	326.100	-0.082	0.158
-373.829	800.000	0.108	0.352
-372.815	-175.426	0.147	-0.004
-371.800	126.383	0.112	-0.142
-370.785	51.482	-0.185	-0.176
-369.771	-126.761	-0.326	-0.048
-368.756	-200.000	0.022	0.113
-367.742	212.073	0.069	0.108
-366.727	499.055	-0.053	-0.121
-365.712	-99.737	0.160	0.040
-364.698	-200.000	-0.009	-0.289
-363.683	242.695	-0.157	-0.263
-362.669	14.430	0.219	0.171
-361.654	-58.057	-0.124	-0.054
-360.639	-200.000	0.374	-0.001
-359.625	-54.281	0.390	0.177
-358.610	800.000	-0.087	0.285
-357.596	-79.337	0.332	-0.112
-356.581	258.709	-0.060	0.104
-355.566	592.585	0.117	0.289
-354.552	132.055	-0.067	-0.086
-353.537	46.693	-0.206	0.191
-352.523	16.763	0.104	-0.082
-351.508	403.875	-0.131	-0.276
-350.493	15.313	-0.124	-0.097
-349.479	-151.502	0.148	0.011
-348.464	800.000	-0.046	-0.130
-347.450	29.960	-0.045	-0.038
-346.435	-94.616	-0.199	-0.054
-345.420	740.561	0.083	0.222
-344.406	430.439	0.109	-0.235
-343.391	5.437	0.289	0.213
-342.377	-53.324	0.081	-0.037
-341.362	779.230	-0.016	0.045
-340.348	233.446	0.238	0.392
-339.333	55.911	-0.257	-0.249
-338.318	-101.016	0.281	-0.069
-337.304	75.838	0.205	0.216
-336.289	-185.149	0.276	-0.004
-335.275	18.203	-0.274	0.219
-334.260	-17.165	-0.133	-0.084
-333.245	-84.123	0.186	0.059
-332.231	-147.793	-0.181	-0.015
-331.216	45.639	-0.101	0.093
-330.202	800.000	0.086	-0.252
-329.187	-76.893	0.018	-0.006
-328.172	32.942	0.195	0.169
-327.158	186.765	0.168	0.250
-326.143	-200.000	-0.048	0.255
-325.129	424.986	-0.039	0.084
-324.114	201.607	0.159	-0.244
-323.099	-200.000	0.020	0.226
-322.085	-200.000	-0.004	0.026
-321.070	-132.016	-0.231	-0.030
-320.056	640.894	0.182	-0.463
-319.041	-49.134	-0.416	-0.198
-318.026	44.068	-0.110	0.101
-317.012	800.000	0.036	-0.108
-315.997	231.146	-0.074	0.120
-314.983	287.980	-0.050	-0.090
-313.968	-21.780	0.464	0.282
-312.953	37.228	-0.094	0.083
-311.939	32.353	-0.256	-0.221
-310.924	-164.023	0.208	0.010
-309.910	25.977	-0.271	0.226
-308.895	18.447	0.104	-0.083
-307.880	11.315	-0.231	0.176
-306.866	69.543	0.060	0.061
-305.851	-200.000	0.002	0.066
-304.837	-200.000	0.088	0.393
-303.822	800.000	0.009	-0.031
-302.807	-200.000	0.009	-0.146
-301.793	223.266	-0.042	0.068
-300.778	-132.813	-0.239	0.030
-299.764	-120.918	-0.273	0.046
-298.749	-200.000	-0.044	0.233
-297.735	-106.804	0.133	-0.029
-296.720	-10.189	0.084	0.055
-295.705	-32.506	-0.206	-0.114
-294.691	171.600	-0.154	-0.221
-293.676	235.573	0.121	0.199
-292.662	407.173	-0.097	-0.205
-291.647	-8.237	-0.237	-0.159
-290.632	-200.000	-0.002	0.280
-289.618	-166.183	-0.112	-0.005
-288.603	-18.349	0.114	-0.071
-287.589	4.594	0.217	-0.159
-286.574	21.885	-0.196	0.159
-285.559	-42.605	0.051	-0.026
-284.545	-10.510	0.433	-0.286
-283.530	-44.575	-0.167	-0.083
-282.516	255.939	0.044	0.075
-281.501	70.849	-0.161	-0.167
-280.486	-200.000	-0.001	0.047
-279.472	-60.289	0.129	0.055
-278.457	-61.959	0.298	0.124
-277.443	127.093	-0.332	0.419
-276.428	-123.031	0.291	-0.047
-275.413	-200.000	-0.001	-0.151
-274.399	215.671	0.044	-0.070
-273.384	800.000	-0.089	-0.307
-272.370	32.320	-0.101	0.086
-271.355	6.497	0.056	0.041
-270.340	-58.502	0.202	0.087
-269.326	-90.872	-0.272	-0.078
-268.311	405.353	0.237	0.499
-267.297	67.587	0.283	0.288
-266.282	138.412	-0.251	0.328
-265.267	144.085	-0.058	0.077
-264.253	3.532	-0.204	-0.148
-263.238	800.000	0.056	0.171
-262.224	-116.171	-0.091	0.017
-261.209	-131.885	-0.294	-0.038
-260.195	-200.000	-0.002	-0.028
-259.180	343.492	-0.059	0.114
-258.165	150.989	-0.092	-0.125
-257.151	-181.610	0.346	0.007
-256.136	-200.000	-0.006	-0.105
-255.122	117.893	0.049	-0.060
-254.107	-72.875	-0.247	0.091
-253.092	15.306	0.341	0.266
-252.078	152.083	-0.174	-0.237
-251.063	49.589	0.270	-0.253
-250.049	-100.676	-0.512	-0.126
-249.034	800.000	-0.103	-0.342
-248.019	-200.000	0.020	0.236
-247.005	182.180	0.239	0.350
-245.990	-3.293	0.378	-0.262
-244.976	37.239	-0.258	-0.227
-243.961	-85.003	0.388	0.121
-242.946	-200.000	-0.015	0.242
-241.932	-200.000	0.003	0.064
-240.917	800.000	0.091	-0.278
-239.903	-45.944	-0.380	0.187
-238.888	-124.564	-0.129	-0.020
-237.873	-200.000	-0.034	-0.206
-236.859	194.638	0.092	0.139
-235.844	-200.000	0.081	0.435
-234.830	130.001	-0.100	0.128
-233.815	800.000	0.038	0.113
-232.800	76.789	-0.144	0.152
-231.786	-71.125	0.074	-0.028
-230.771	-181.169	-0.060	-0.001
-229.757	-200.000	0.041	0.304
-228.742	24.501	0.166	-0.137
-227.727	-9.189	0.264	0.176
-226.713	42.418	0.144	-0.130
-225.698	800.000	-0.050	-0.173
-224.684	28.357	-0.160	0.134
-223.669	-200.000	-0.010	-0.115
-222.655	-200.000	-0.003	-0.193
-221.640	105.284	0.164	0.193
-220.625	131.163	0.069	-0.088
-219.611	-46.605	0.048	-0.024
-218.596	-8.247	-0.052	0.035
-217.582	-57.989	0.196	-0.085
-216.567	147.072	0.030	0.040
-215.552	533.153	-0.134	0.315
-214.538	207.246	-0.057	0.088
-213.523	800.000	-0.047	-0.189
-212.509	-200.000	0.062	-0.435
-211.494	-200.000	-0.016	-0.143
-210.479	-83.444	0.136	0.043
-209.465	-75.850	-0.180	0.063
-208.450	11.918	0.211	0.161
-207.436	-200.000	0.006	-0.066
-206.421	29.909	0.200	0.170
-205.406	37.269	0.174	-0.153
-204.392	99.887	-0.112	-0.129
-203.377	-200.000	0.039	-0.217
-202.363	800.000	0.018	0.066
-201.348	-200.000	-0.012	-0.054
-200.333	-200.000	0.008	-0.182
-199.319	-71.351	-0.266	0.099
-198.304	-52.170	-0.169	-0.078
-197.290	800.000	0.059	0.201
-196.275	-19.833	0.216	-0.133
-195.260	-200.000	-0.141	-0.000
-194.246	110.510	0.187	-0.224
-193.231	-200.000	-0.063	0.435
-192.217	-147.576	0.112	0.009
-191.202	347.980	0.105	-0.206
-190.187	800.000	-0.073	-0.237
-189.173	1.363	0.079	-0.057
-188.158	289.678	-0.051	-0.092
-187.144	-32.751	0.135	-0.074
-186.129	706.325	0.003	0.009
-185.114	-200.000	0.000	0.004
-184.100	-200.000	-0.014	-0.136
-183.085	-35.141	0.277	-0.150
-182.071	-15.306	-0.042	-0.027
-181.056	-107.992	0.197	0.042
-180.042	-200.000	0.011	0.090
-179.027	800.000	-0.169	0.480
-178.012	-99.384	0.042	-0.011
-176.998	-92.385	-0.219	0.061
-175.983	-135.672	0.203	-0.024
-174.969	132.327	-0.168	0.215
-173.954	157.542	-0.044	0.061
-172.939	-98.208	0.333	-0.085
-171.925	11.398	0.138	0.105
-170.910	377.404	0.032	0.065
-169.896	159.160	0.120	-0.165
-168.881	100.485	-0.050	-0.057
-167.866	28.125	-0.270	-0.226
-166.852	-21.957	-0.454	-0.274
-165.837	-154.038	0.233	-0.016
-164.823	249.023	0.153	-0.258
-163.808	471.164	0.120	0.267
-162.793	-101.439	0.064	-0.015
-161.779	-23.896	0.294	0.174
-160.764	-200.000	-0.011	0.469
-159.750	118.996	-0.177	0.217
-158.735	130.769	0.296	0.376
-157.720	-27.970	0.199	-0.114
-156.706	461.293	0.095	-0.211
-155.691	-126.716	-0.376	0.055
-154.677	34.113	-0.178	0.154
-153.662	233.736	-0.137	0.223
-152.647	-34.669	-0.217	-0.117
-151.633	291.624	0.064	0.115
-150.618	-200.000	-0.014	0.149
-149.604	167.995	-0.131	-0.185
-148.589	319.482	0.052	-0.098
-147.574	40.548	0.197	0.176
-146.560	329.126	0.088	0.168
-145.545	-0.940	0.178	-0.125
-144.531	13.041	-0.166	0.127
-143.516	-200.000	-0.009	0.164
-142.502	382.360	0.083	-0.169
-141.487	-108.137	-0.258	-0.055
-140.472	-13.144	-0.128	0.083
-139.458	490.822	-0.047	-0.106
-138.443	457.995	-0.061	-0.134
-137.429	-140.212	0.244	-0.025
-136.414	-167.931	0.133	-0.005
-135.399	-200.000	-0.056	0.271
-134.385	40.622	0.111	-0.099
-133.370	45.999	-0.102	0.094
-132.356	-200.000	-0.012	0.082
-131.341	-200.000	-0.023	-0.188
-130.326	50.151	0.092	-0.086
-129.312	-89.914	-0.264	-0.077
-128.297	800.000	0.061	0.205
-127.283	404.943	0.144	-0.300
-126.268	6.830	-0.171	-0.126
-125.253	-42.016	-0.175	0.089
-124.239	-85.302	0.135	0.042
-123.224	314.210	-0.055	0.103
-122.210	39.057	0.207	-0.184
-121.195	-118.168	0.133	-0.023
-120.180	93.692	0.071	0.079
