DTS Sentinel unit serial number:	SN413079Multiplexer serial number:	ORYXHardware model number:	OX4-SRSoftware version number:	ORYX F/W v4.00 Oryx Data Collector v3.7.2.0data status	okinstallation	princeton_trtdifferential loss correction	single-endedforward channel	channel 2reverse channel	N/Adate	2019/09/12time	00:33:10forward acquisition time	60.00reverse acquisition time	0.00gamma	496.2192k internal	0.2325k external	0.2325temperature offset calibration	1.0092default loss term (dB/km)	0.3790temperature slope calibration	1.0000multiplexer offset coefficient	1.0000multiplexer slope coefficient	1.0000fibre end	0.00T internal ref (°C)	33.37T ext. ref 1 (°C)	2.07T ext. ref 2 (°C)	28.00length (m)	temperature (°C)	Stokes	anti-Stokes-747.200	-200.000	-0.020	0.224
-746.185	800.000	0.034	0.137
-745.171	456.678	0.102	-0.229
-744.156	-135.368	0.263	-0.032
-743.142	301.895	-0.168	0.314
-742.127	-200.000	-0.027	0.432
-741.112	-200.000	-0.008	0.099
-740.098	-98.545	-0.263	-0.068
-739.083	-104.566	-0.091	-0.021
-738.069	-200.000	-0.033	-0.344
-737.054	-101.758	-0.235	0.058
-736.039	83.024	-0.114	0.125
-735.025	-54.965	0.377	-0.171
-734.010	-154.536	-0.318	-0.021
-732.996	800.000	0.085	-0.316
-731.981	-10.278	0.100	-0.067
-730.966	188.808	-0.143	-0.216
-729.952	-144.652	-0.190	0.018
-728.937	504.562	0.143	-0.333
-727.923	-56.747	-0.190	-0.085
-726.908	-156.153	0.131	-0.008
-725.894	-150.078	-0.365	-0.029
-724.879	7.956	0.170	-0.129
-723.864	-5.974	-0.372	0.256
-722.850	-20.730	0.112	-0.069
-721.835	-134.252	-0.336	-0.042
-720.821	-200.000	0.028	-0.129
-719.806	-83.652	-0.155	-0.050
-718.791	-108.369	0.215	-0.047
-717.777	-55.158	-0.252	0.114
-716.762	24.231	0.087	0.072
-715.748	-200.000	0.009	-0.233
-714.733	-200.000	-0.064	0.496
-713.718	-37.065	0.279	-0.151
-712.704	-91.059	0.031	-0.009
-711.689	95.600	-0.138	-0.158
-710.675	178.389	-0.061	0.089
-709.660	-44.914	-0.253	0.127
-708.645	88.961	0.157	-0.176
-707.631	59.119	0.157	-0.155
-706.616	-200.000	-0.016	0.228
-705.602	116.198	0.108	-0.133
-704.587	34.747	0.344	-0.303
-703.572	133.259	-0.134	0.175
-702.558	-109.130	-0.077	-0.016
-701.543	10.716	0.131	-0.100
-700.529	135.115	-0.131	0.172
-699.514	-41.337	-0.102	0.053
-698.499	234.506	0.107	-0.178
-697.485	-112.278	-0.247	-0.050
-696.470	-200.000	0.041	-0.218
-695.456	156.582	-0.068	0.094
-694.441	-59.888	-0.139	-0.060
-693.426	-162.864	0.176	0.009
-692.412	82.672	-0.254	0.278
-691.397	800.000	0.048	-0.154
-690.383	800.000	-0.074	-0.264
-689.368	-2.528	0.153	-0.108
-688.354	-200.000	-0.010	-0.166
-687.339	338.128	-0.219	-0.429
-686.324	68.977	-0.061	0.063
-685.310	40.554	-0.166	0.151
-684.295	800.000	0.080	0.317
-683.281	23.632	-0.274	-0.227
-682.266	-108.804	-0.200	-0.043
-681.251	-107.771	0.321	0.070
-680.237	-200.000	0.019	-0.104
-679.222	63.587	-0.217	-0.219
-678.208	-19.735	-0.194	-0.121
-677.193	-89.566	0.048	0.014
-676.178	371.458	0.055	-0.112
-675.164	-200.000	-0.075	0.403
-674.149	306.499	-0.066	0.124
-673.135	-94.909	0.112	0.030
-672.120	-4.416	-0.091	-0.063
-671.105	-200.000	0.025	0.269
-670.091	-185.214	0.246	-0.004
-669.076	-200.000	-0.024	0.135
-668.062	113.785	-0.147	-0.180
-667.047	-35.543	0.190	0.104
-666.032	800.000	0.028	0.101
-665.018	5.272	0.215	0.159
-664.003	-1.023	-0.243	0.173
-662.989	-135.680	0.172	0.021
-661.974	22.388	0.097	0.080
-660.959	625.194	-0.038	0.098
-659.945	137.575	0.117	-0.155
-658.930	60.180	-0.426	-0.424
-657.916	-114.126	-0.308	-0.060
-656.901	-109.665	0.164	-0.035
-655.886	-70.963	0.101	0.038
-654.872	-98.499	0.217	0.056
-653.857	-153.474	0.196	-0.014
-652.843	-104.257	0.429	-0.100
-651.828	-22.263	-0.315	0.192
-650.814	88.848	0.202	-0.226
-649.799	70.044	0.110	0.114
-648.784	800.000	-0.086	0.267
-647.770	-200.000	0.087	0.442
-646.755	-200.000	0.012	-0.262
-645.741	87.612	0.153	0.171
-644.726	-200.000	0.006	-0.384
-643.711	219.002	0.133	0.214
-642.697	60.839	-0.222	-0.222
-641.682	656.652	-0.057	0.148
-640.668	-200.000	0.037	-0.305
-639.653	432.583	0.123	-0.267
-638.638	314.872	-0.206	0.390
-637.624	87.408	0.098	0.109
-636.609	262.691	0.171	0.298
-635.595	-184.736	0.176	0.003
-634.580	800.000	0.095	0.315
-633.565	174.110	-0.097	0.141
-632.551	578.728	0.050	-0.124
-631.536	800.000	0.034	0.100
-630.522	158.033	-0.247	-0.344
-629.507	800.000	-0.100	0.438
-628.492	223.007	0.059	-0.095
-627.478	-64.241	-0.267	0.109
-626.463	175.993	-0.090	0.131
-625.449	800.000	0.042	-0.122
-624.434	-18.607	0.304	-0.190
-623.419	49.416	-0.288	-0.272
-622.405	49.769	-0.392	0.371
-621.390	163.203	0.173	-0.244
-620.376	-200.000	0.012	0.159
-619.361	-163.947	-0.165	-0.008
-618.346	-12.564	0.130	-0.085
-617.332	-200.000	-0.002	0.386
-616.317	-122.816	-0.215	-0.035
-615.303	-200.000	-0.025	-0.291
-614.288	76.443	0.038	-0.040
-613.273	-108.413	-0.219	-0.047
-612.259	-157.113	0.185	0.011
-611.244	-59.476	0.187	0.081
-610.230	180.294	-0.148	0.218
-609.215	360.616	-0.078	0.157
-608.201	-149.446	-0.429	0.034
-607.186	-45.606	-0.251	-0.125
-606.171	-150.201	0.123	0.010
-605.157	28.415	0.014	0.012
-604.142	800.000	0.048	0.154
-603.128	-78.637	0.205	0.070
-602.113	22.444	-0.255	0.209
-601.098	18.786	0.251	-0.202
-600.084	355.073	-0.148	-0.295
-599.069	-93.487	0.164	0.046
-598.055	280.422	-0.112	-0.200
-597.040	85.845	-0.141	0.155
-596.025	-45.978	0.240	0.119
-595.011	-68.344	-0.315	-0.123
-593.996	-17.318	0.137	0.086
-592.982	434.921	-0.137	0.299
-591.967	800.000	-0.047	0.164
-590.952	341.635	0.035	-0.070
-589.938	-117.888	-0.192	0.034
-588.923	-109.425	0.124	0.026
-587.909	-16.099	-0.271	0.173
-586.894	-135.183	-0.207	0.025
-585.879	134.209	-0.093	0.121
-584.865	-8.364	0.218	-0.147
-583.850	-33.005	0.174	-0.097
-582.836	-200.000	-0.008	-0.034
-581.821	175.660	0.107	-0.156
-580.806	-200.000	-0.038	-0.223
-579.792	-200.000	-0.032	-0.170
-578.777	800.000	-0.121	-0.350
-577.763	-127.139	-0.178	-0.026
-576.748	-33.119	-0.249	-0.138
-575.733	-44.016	-0.137	-0.069
-574.719	655.059	-0.064	0.166
-573.704	-31.603	-0.100	0.056
-572.690	782.248	-0.158	-0.434
-571.675	-190.182	0.204	0.002
-570.661	-12.518	-0.355	-0.232
-569.646	-200.000	0.072	0.345
-568.631	-123.915	0.237	-0.037
-567.617	-49.831	0.231	0.110
-566.602	182.191	0.094	-0.139
-565.588	-42.452	-0.216	-0.110
-564.573	313.882	0.041	0.076
-563.558	-200.000	0.029	0.159
-562.544	-92.665	-0.115	0.032
-561.529	480.886	-0.064	-0.145
-560.515	-30.745	-0.462	0.262
-559.500	748.353	0.061	0.165
-558.485	140.261	0.186	-0.246
-557.471	-51.388	-0.188	-0.088
-556.456	196.079	-0.147	0.225
-555.442	-58.289	0.236	-0.103
-554.427	800.000	-0.060	-0.259
-553.412	35.342	-0.184	-0.162
-552.398	296.256	-0.113	-0.207
-551.383	698.763	0.084	-0.220
-550.369	-165.280	0.185	-0.008
-549.354	143.480	0.270	-0.359
-548.339	122.918	0.199	-0.250
-547.325	462.395	0.107	-0.238
-546.310	104.489	0.196	-0.231
-545.296	120.007	0.200	0.249
-544.281	-148.110	0.476	0.039
-543.266	55.342	-0.249	-0.241
-542.252	-200.000	-0.015	0.296
-541.237	-116.765	0.233	0.043
-540.223	83.642	0.179	0.196
-539.208	-166.058	-0.392	-0.017
-538.193	17.317	-0.198	0.158
-537.179	-200.000	-0.048	0.224
-536.164	-81.054	0.270	-0.090
-535.150	-80.434	-0.260	-0.087
-534.135	-144.490	0.208	-0.019
-533.121	-58.581	0.071	0.031
-532.106	-200.000	0.079	0.422
-531.091	-100.949	0.412	0.101
-530.077	69.613	-0.260	-0.268
-529.062	-200.000	0.007	-0.249
-528.048	41.924	0.151	-0.137
-527.033	-26.950	-0.227	-0.133
-526.018	232.693	0.149	-0.245
-525.004	-160.313	0.260	-0.014
-523.989	70.781	-0.163	0.169
-522.975	-117.056	-0.076	-0.014
-521.960	-200.000	-0.033	-0.164
-520.945	-3.889	-0.150	-0.104
-519.931	-91.797	-0.239	0.068
-518.916	44.577	0.222	-0.204
-517.902	-31.740	0.344	-0.193
-516.887	198.147	0.168	-0.256
-515.872	-200.000	0.021	0.204
-514.858	-48.198	0.197	-0.095
-513.843	-33.214	0.064	-0.036
-512.829	694.369	-0.055	-0.145
-511.814	-29.498	-0.255	0.146
-510.799	113.005	0.247	-0.299
-509.785	-123.528	0.213	-0.034
-508.770	255.844	0.112	0.191
-507.756	123.235	0.176	0.221
-506.741	-76.805	0.362	0.127
-505.726	-129.298	0.270	-0.038
-504.712	220.271	0.020	-0.032
-503.697	411.096	0.134	-0.285
-502.683	-200.000	-0.011	0.229
-501.668	-200.000	-0.020	0.095
-500.653	-200.000	-0.214	-0.001
-499.639	-97.820	-0.323	-0.083
-498.624	465.627	0.048	-0.107
-497.610	-200.000	0.005	-0.308
-496.595	20.607	-0.122	0.099
-495.581	74.857	0.153	0.161
-494.566	204.709	0.067	0.104
-493.551	-132.608	0.355	-0.046
-492.537	-39.511	-0.190	0.099
-491.522	-200.000	0.018	0.177
-490.508	-200.000	0.035	-0.209
-489.493	-57.526	0.092	-0.040
-488.478	223.368	0.220	0.355
-487.464	800.000	-0.137	-0.433
-486.449	350.315	0.049	-0.096
-485.435	-200.000	0.032	-0.212
-484.420	-151.278	-0.200	-0.015
-483.405	308.223	0.020	-0.037
-482.391	-36.725	0.205	-0.110
-481.376	31.222	-0.128	0.109
-480.362	800.000	-0.038	0.145
-479.347	-113.372	-0.347	0.068
-478.332	800.000	-0.032	0.091
-477.318	624.279	-0.129	-0.324
-476.303	-200.000	0.018	-0.227
-475.289	580.071	0.059	-0.144
-474.274	-187.736	-0.150	0.002
-473.259	-37.225	-0.042	-0.022
-472.245	-80.587	-0.098	0.033
-471.230	-62.342	-0.372	0.155
-470.216	-118.077	-0.200	0.036
-469.201	-200.000	0.007	-0.342
-468.186	-200.000	0.022	0.288
-467.172	-44.568	0.234	-0.117
-466.157	800.000	-0.066	-0.183
-465.143	25.031	-0.114	0.094
-464.128	442.949	0.085	0.186
-463.113	-200.000	0.043	0.200
-462.099	103.302	0.130	0.152
-461.084	140.081	0.082	-0.108
-460.070	-59.367	-0.173	-0.074
-459.055	-175.591	-0.565	0.015
-458.040	-74.676	0.179	0.064
-457.026	162.937	-0.127	0.178
-456.011	-134.701	0.464	-0.056
-454.997	-130.901	-0.381	-0.051
-453.982	151.293	0.150	-0.204
-452.968	320.958	-0.201	-0.381
-451.953	800.000	-0.008	-0.031
-450.938	800.000	0.022	0.074
-449.924	29.267	0.178	-0.151
-448.909	58.152	-0.157	-0.153
-447.895	361.743	0.135	0.269
-446.880	-63.587	-0.254	0.104
-445.865	-200.000	-0.019	-0.146
-444.851	84.495	0.180	0.197
-443.836	-23.909	0.157	-0.094
-442.822	24.727	0.177	0.147
-441.807	-104.410	0.072	0.017
-440.792	-95.972	0.305	-0.081
-439.778	90.135	-0.151	0.168
-438.763	-27.861	0.190	0.110
-437.749	-200.000	-0.007	0.061
-436.734	-62.710	0.130	-0.054
-435.719	470.194	-0.067	0.149
-434.705	-200.000	0.021	-0.188
-433.690	277.046	0.087	0.153
-432.676	-51.222	-0.161	0.075
-431.661	50.802	-0.275	-0.260
-430.646	-200.000	-0.002	0.293
-429.632	-150.555	-0.340	-0.026
-428.617	298.258	-0.212	-0.389
-427.603	208.172	0.014	0.022
-426.588	-7.305	0.198	0.134
-425.573	-96.107	0.166	-0.044
-424.559	9.223	-0.049	-0.037
-423.544	-120.257	-0.253	-0.043
-422.530	137.997	0.352	0.460
-421.515	412.315	-0.062	-0.131
-420.500	-57.433	0.286	0.125
-419.486	-200.000	0.031	-0.246
-418.471	23.091	-0.054	0.044
-417.457	590.448	-0.087	0.214
-416.442	-78.842	-0.383	0.130
-415.428	51.269	-0.148	0.140
-414.413	-67.322	-0.137	0.054
-413.398	-119.615	-0.207	0.036
-412.384	374.041	0.047	0.095
-411.369	-77.181	0.278	0.096
-410.355	-56.633	-0.124	0.055
-409.340	-200.000	0.052	-0.245
-408.325	488.021	0.110	-0.250
-407.311	631.837	-0.040	-0.102
-406.296	-59.804	-0.138	-0.059
-405.282	33.415	-0.372	0.321
-404.267	-28.478	0.343	0.197
-403.252	227.594	-0.125	0.202
-402.238	-200.000	-0.021	-0.120
-401.223	474.960	-0.039	-0.088
-400.209	-200.000	-0.003	-0.016
-399.194	-34.026	0.076	0.042
-398.179	800.000	0.056	0.173
-397.165	-200.000	-0.017	-0.314
-396.150	-200.000	-0.006	0.100
-395.136	-103.294	-0.225	-0.053
-394.121	-200.000	0.007	0.230
-393.106	-5.499	0.202	0.138
-392.092	800.000	-0.093	-0.267
-391.077	213.564	-0.155	-0.243
-390.063	-200.000	0.480	-0.002
-389.048	-200.000	-0.009	-0.329
-388.033	247.550	0.027	-0.046
-387.019	-200.000	0.008	0.312
-386.004	259.596	-0.059	-0.101
-384.990	699.520	-0.144	0.378
-383.975	81.675	-0.219	-0.235
-382.960	150.599	0.173	-0.234
-381.946	800.000	-0.037	0.156
-380.931	240.481	0.130	-0.216
-379.917	-200.000	-0.017	-0.081
-378.902	-60.784	-0.147	0.062
-377.888	-0.082	-0.311	-0.220
-376.873	-190.414	-0.209	0.002
-375.858	-200.000	0.015	0.545
-374.844	257.336	-0.079	0.135
-373.829	240.350	-0.138	0.229
-372.815	560.018	-0.060	-0.144
-371.800	800.000	0.085	-0.291
-370.785	204.925	0.104	-0.161
-369.771	-200.000	0.071	-0.318
-368.756	-29.666	-0.153	-0.087
-367.742	-187.013	0.400	0.005
-366.727	-131.076	0.030	-0.004
-365.712	800.000	-0.079	-0.270
-364.698	-40.191	-0.328	0.170
-363.683	-26.131	0.172	-0.101
-362.669	157.845	-0.107	-0.147
-361.654	100.116	-0.142	-0.164
-360.639	-121.473	-0.228	0.038
-359.625	-104.263	0.246	0.057
-358.610	69.808	-0.274	0.280
-357.596	2.542	0.223	-0.161
-356.581	-1.028	-0.016	-0.012
-355.566	65.471	0.148	0.149
-354.552	634.368	0.007	-0.018
-353.537	-104.879	0.183	0.042
-352.523	-181.532	-0.120	-0.002
-351.508	-63.887	0.189	-0.077
-350.493	38.478	0.103	0.091
-349.479	0.196	0.263	-0.186
-348.464	138.723	-0.063	0.082
-347.450	-112.816	-0.161	0.032
-346.435	800.000	-0.035	0.152
-345.420	-200.000	0.114	0.572
-344.406	800.000	0.045	-0.194
-343.391	271.433	-0.065	-0.114
-342.377	-8.005	-0.123	0.082
-341.362	253.154	-0.098	0.166
-340.348	198.858	0.170	0.258
-339.333	-135.691	0.130	0.015
-338.318	-52.912	0.088	0.040
-337.304	-34.575	0.127	0.069
-336.289	-9.123	-0.154	0.103
-335.275	-200.000	0.037	0.408
-334.260	-101.744	-0.377	0.091
-333.245	40.559	-0.118	-0.106
-332.231	779.379	-0.069	0.187
-331.216	-180.660	0.161	0.003
-330.202	-59.187	-0.205	-0.088
-329.187	436.606	0.109	0.237
-328.172	265.413	-0.230	0.398
-327.158	91.969	-0.104	-0.116
-326.143	-25.727	-0.159	-0.093
-325.129	-17.210	-0.127	-0.079
-324.114	-84.240	0.343	-0.108
-323.099	16.461	0.123	0.096
-322.085	-33.807	-0.235	0.129
-321.070	800.000	-0.089	-0.258
-320.056	-200.000	0.046	0.269
-319.041	13.704	-0.152	-0.117
-318.026	-130.794	-0.040	0.005
-317.012	140.150	-0.053	0.069
-315.997	-58.408	0.257	0.111
-314.983	91.063	0.084	0.093
-313.968	800.000	0.072	0.311
-312.953	-84.764	-0.088	-0.028
-311.939	-200.000	0.014	0.158
-310.924	-64.909	-0.293	0.118
-309.910	83.159	0.242	-0.261
-308.895	-116.049	0.246	0.045
-307.880	-200.000	-0.003	-0.383
-306.866	-85.308	-0.292	-0.090
-305.851	-200.000	-0.002	0.194
-304.837	-112.552	-0.089	0.018
-303.822	-84.991	-0.069	-0.022
-302.807	3.484	0.185	-0.134
-301.793	-89.096	-0.322	-0.094
-300.778	-102.305	0.298	-0.071
-299.764	-80.026	-0.485	0.162
-298.749	-142.429	0.356	0.035
-297.735	800.000	0.061	0.209
-296.720	-150.500	0.209	0.016
-295.705	128.446	0.257	0.325
-294.691	166.217	-0.142	0.199
-293.676	-81.312	-0.073	-0.024
-292.662	91.156	-0.210	-0.233
-291.647	-87.413	0.200	-0.060
-290.632	-172.877	-0.279	0.009
-289.618	-160.888	0.130	-0.007
-288.603	-15.376	-0.123	0.078
-287.589	-21.943	0.085	-0.051
-286.574	800.000	0.006	-0.024
-285.559	294.491	-0.060	0.108
-284.545	-200.000	0.043	0.226
-283.530	50.610	-0.034	0.032
-282.516	8.573	0.129	-0.096
-281.501	245.467	-0.062	-0.104
-280.486	-200.000	0.043	0.199
-279.472	348.417	-0.118	-0.230
-278.457	190.888	-0.185	0.276
-277.443	87.984	0.253	-0.278
-276.428	21.364	0.333	-0.268
-275.413	-76.453	0.140	0.049
-274.399	107.981	0.197	0.232
-273.384	302.136	-0.253	0.464
-272.370	800.000	-0.101	0.386
-271.355	-127.573	0.326	0.047
-270.340	355.623	-0.061	-0.120
-269.326	-200.000	-0.031	0.241
-268.311	-184.066	0.215	-0.004
-267.297	-127.706	-0.192	0.027
-266.282	-173.494	-0.174	0.005
-265.267	95.406	-0.216	-0.244
-264.253	-200.000	-0.034	-0.265
-263.238	-163.252	-0.304	0.014
-262.224	800.000	-0.035	-0.135
-261.209	180.206	-0.098	-0.142
-260.195	-200.000	0.004	0.175
-259.180	-117.316	0.386	-0.069
-258.165	134.409	0.093	-0.119
-257.151	82.930	0.122	-0.132
-256.136	800.000	0.150	-0.431
-255.122	-152.573	0.309	-0.022
-254.107	297.026	-0.056	-0.101
-253.092	75.982	0.287	-0.301
-252.078	-80.754	-0.370	-0.122
-251.063	-65.704	-0.405	0.161
-250.049	-69.706	-0.160	0.060
-249.034	322.014	0.095	0.180
-248.019	-200.000	0.010	-0.245
-247.005	-49.171	0.028	-0.013
-245.990	800.000	-0.036	0.151
-244.976	-92.065	-0.073	0.020
-243.961	534.662	0.091	0.213
-242.946	17.460	0.189	-0.149
-241.932	18.989	0.095	-0.075
-240.917	402.978	-0.056	-0.117
-239.903	267.898	0.118	-0.204
-238.888	-154.878	-0.130	0.008
-237.873	800.000	0.053	-0.156
-236.859	-2.368	0.239	0.166
-235.844	-138.077	0.178	0.020
-234.830	-107.112	-0.260	0.057
-233.815	-200.000	-0.034	0.481
-232.800	-164.928	-0.304	-0.013
-231.786	800.000	-0.023	0.065
-230.771	800.000	0.038	0.120
-229.757	-200.000	0.005	-0.213
-228.742	-45.977	0.356	0.174
-227.727	84.267	-0.110	0.119
-226.713	-30.221	0.294	0.165
-225.698	-131.028	-0.325	-0.043
-224.684	299.354	0.120	0.218
-223.669	156.909	-0.116	0.158
-222.655	-200.000	0.013	-0.232
-221.640	219.019	0.139	0.220
-220.625	443.230	-0.135	-0.292
-219.611	-200.000	-0.009	-0.261
-218.596	148.548	-0.026	-0.035
-217.582	-200.000	0.003	-0.287
-216.567	-5.175	-0.273	0.186
-215.552	9.264	-0.171	0.128
-214.538	157.310	-0.042	-0.057
-213.523	58.086	-0.358	0.346
-212.509	87.085	0.113	-0.123
-211.494	-113.186	-0.455	0.089
-210.479	800.000	-0.043	-0.133
-209.465	318.935	0.072	0.134
-208.450	362.987	0.100	-0.198
-207.436	33.794	-0.525	-0.452
-206.421	219.814	-0.104	-0.165
-205.406	-76.055	-0.231	-0.081
-204.392	-19.555	0.015	-0.009
-203.377	-78.989	0.372	-0.125
-202.363	-200.000	0.048	0.225
-201.348	-200.000	0.086	0.404
-200.333	59.159	0.224	-0.218
-199.319	-146.136	0.165	0.014
-198.304	210.238	-0.179	-0.277
-197.290	-200.000	0.016	0.216
-196.275	22.091	0.408	0.329
-195.260	-200.000	0.005	-0.239
-194.246	19.989	0.275	0.219
-193.231	196.364	-0.142	-0.213
-192.217	-200.000	0.007	-0.222
-191.202	-200.000	0.057	0.369
-190.187	310.319	0.159	0.294
-189.173	453.769	0.058	-0.126
-188.158	-135.885	0.364	-0.042
-187.144	2.979	0.147	0.106
-186.129	-72.420	0.100	0.037
-185.114	-27.942	-0.129	0.074
-184.100	-6.828	0.490	-0.329
-183.085	-200.000	-0.022	-0.196
-182.071	-109.030	0.453	-0.095
-181.056	-7.625	-0.285	-0.190
-180.042	135.764	0.096	0.123
-179.027	-200.000	0.053	0.297
-178.012	-79.827	-0.256	0.085
-176.998	128.004	-0.069	-0.086
-175.983	-126.863	-0.094	0.014
-174.969	-0.247	0.257	-0.180
-173.954	317.529	0.193	-0.359
-172.939	-113.343	0.243	0.047
-171.925	125.125	-0.040	-0.050
-170.910	-200.000	0.022	0.208
-169.896	106.677	0.116	-0.135
-168.881	-83.314	0.107	0.034
-167.866	72.125	0.132	-0.136
-166.852	-79.418	-0.168	0.056
-165.837	-16.034	0.258	-0.162
-164.823	-200.000	-0.003	0.032
-163.808	225.755	0.119	-0.191
-162.793	-83.857	-0.088	-0.028
-161.779	638.918	-0.133	0.334
-160.764	-200.000	0.006	0.148
-159.750	-106.826	0.272	0.060
-158.735	28.733	0.143	0.120
-157.720	-61.699	-0.208	0.086
-156.706	800.000	-0.043	-0.159
-155.691	44.696	-0.042	0.038
-154.677	-77.940	0.183	0.062
-153.662	-200.000	-0.021	-0.216
-152.647	-162.539	-0.216	0.011
-151.633	800.000	-0.044	0.158
-150.618	-200.000	-0.002	-0.163
-149.604	-8.311	0.147	-0.098
-148.589	-114.672	-0.124	0.023
-147.574	167.958	0.160	-0.224
-146.560	-15.327	0.148	0.094
-145.545	236.357	-0.135	-0.220
-144.531	57.317	0.201	0.193
-143.516	22.285	0.321	-0.259
-142.502	66.063	-0.204	-0.204
-141.487	291.831	0.176	0.317
-140.472	47.178	0.167	-0.153
-139.458	-179.339	0.298	-0.006
-138.443	-200.000	0.000	-0.163
-137.429	139.017	-0.182	-0.236
-136.414	-61.973	0.047	0.019
-135.399	-139.640	-0.252	0.026
-134.385	-54.231	0.181	0.081
-133.370	-45.479	-0.201	0.098
-132.356	167.214	-0.168	-0.235
-131.341	303.974	-0.133	0.242
-130.326	24.756	-0.097	-0.079
-129.312	118.012	-0.137	-0.167
-128.297	-153.443	-0.464	0.032
-127.283	-112.797	0.251	0.049
-126.268	18.764	0.145	-0.114
-125.253	166.762	-0.251	-0.351
-124.239	48.274	0.076	0.070
-123.224	-200.000	0.021	-0.188
-122.210	800.000	0.049	-0.203
-121.195	-87.057	0.292	0.088
