DTS Sentinel unit serial number:	SN413079Multiplexer serial number:	ORYXHardware model number:	OX4-SRSoftware version number:	ORYX F/W v4.00 Oryx Data Collector v3.7.2.0data status	okinstallation	princeton_trtdifferential loss correction	single-endedforward channel	channel 2reverse channel	N/Adate	2019/09/15time	22:51:34forward acquisition time	60.00reverse acquisition time	0.00gamma	496.2192k internal	0.2335k external	0.2335temperature offset calibration	0.9948default loss term (dB/km)	0.3790temperature slope calibration	1.0000multiplexer offset coefficient	1.0000multiplexer slope coefficient	1.0000fibre end	0.00T internal ref (°C)	28.73T ext. ref 1 (°C)	8.89T ext. ref 2 (°C)	22.27length (m)	temperature (°C)	Stokes	anti-Stokes-747.200	-200.000	0.012	0.213
-746.185	-46.374	-0.194	0.096
-745.171	-79.579	0.068	-0.023
-744.156	-200.000	-0.010	0.380
-743.142	68.358	-0.174	0.179
-742.127	-67.975	-0.403	0.158
-741.112	-200.000	-0.002	0.026
-740.098	800.000	0.072	0.221
-739.083	129.653	0.088	-0.112
-738.069	-92.213	0.202	-0.057
-737.054	221.993	0.076	-0.122
-736.039	-200.000	0.111	-0.526
-735.025	5.057	0.152	-0.113
-734.010	-102.418	-0.400	0.096
-732.996	-49.907	-0.198	-0.094
-731.981	-26.572	-0.258	0.152
-730.966	-91.811	0.070	0.020
-729.952	-61.794	-0.317	0.133
-728.937	-93.018	-0.389	-0.109
-727.923	191.661	0.037	0.056
-726.908	-98.759	0.057	-0.014
-725.894	-62.526	0.185	-0.077
-724.879	-200.000	0.074	-0.392
-723.864	-200.000	-0.027	-0.189
-722.850	-81.032	0.197	-0.065
-721.835	-200.000	-0.009	-0.203
-720.821	-200.000	0.016	0.139
-719.806	-65.351	-0.419	-0.169
-718.791	72.662	0.194	-0.203
-717.777	-37.323	-0.320	0.171
-716.762	-140.287	-0.331	0.035
-715.748	-18.906	-0.437	-0.273
-714.733	446.245	-0.160	0.354
-713.718	57.706	0.172	-0.169
-712.704	-50.627	-0.189	-0.089
-711.689	75.346	-0.175	0.185
-710.675	34.825	-0.351	0.308
-709.660	800.000	-0.054	0.196
-708.645	95.857	0.179	-0.205
-707.631	-171.255	0.195	0.007
-706.616	135.674	0.159	0.207
-705.602	-2.222	-0.219	0.154
-704.587	12.031	-0.134	-0.103
-703.572	-76.490	-0.048	0.017
-702.558	800.000	-0.032	-0.097
-701.543	102.533	0.148	-0.173
-700.529	113.188	-0.111	0.135
-699.514	-8.004	-0.275	0.186
-698.499	47.253	0.129	0.121
-697.485	-123.694	0.198	-0.031
-696.470	-58.635	-0.080	-0.035
-695.456	-200.000	0.051	-0.278
-694.441	-106.887	-0.290	-0.064
-693.426	-175.012	0.083	-0.002
-692.412	646.201	0.081	0.207
-691.397	-86.833	-0.204	-0.062
-690.383	-81.819	0.241	0.079
-689.368	-100.947	0.058	0.014
-688.354	-154.028	-0.092	0.006
-687.339	477.796	-0.008	-0.018
-686.324	-132.961	0.372	0.047
-685.310	-40.767	-0.253	0.131
-684.295	195.585	0.146	0.222
-683.281	-70.614	0.234	0.089
-682.266	196.092	0.135	-0.207
-681.251	-87.059	-0.343	-0.105
-680.237	269.613	0.080	0.140
-679.222	-9.025	0.166	-0.111
-678.208	-200.000	-0.017	0.148
-677.193	800.000	-0.009	0.036
-676.178	800.000	-0.079	0.314
-675.164	515.555	0.064	0.150
-674.149	-200.000	0.011	0.087
-673.135	-83.294	0.213	-0.069
-672.120	-127.287	0.172	0.025
-671.105	-200.000	-0.006	0.322
-670.091	39.348	0.125	0.112
-669.076	23.912	0.154	-0.127
-668.062	-138.184	-0.386	0.043
-667.047	-200.000	0.016	0.139
-666.032	-200.000	0.027	0.458
-665.018	146.460	0.141	0.190
-664.003	800.000	0.016	0.052
-662.989	43.819	0.128	-0.118
-661.974	67.958	0.119	-0.122
-660.959	273.555	-0.101	-0.179
-659.945	220.745	-0.197	-0.317
-658.930	-166.711	-0.323	0.013
-657.916	-200.000	-0.042	-0.226
-656.901	-87.157	-0.174	-0.053
-655.886	-46.898	-0.238	0.117
-654.872	-165.321	0.160	0.007
-653.857	-110.640	0.065	0.014
-652.843	120.061	-0.134	0.166
-651.828	41.142	-0.228	-0.207
-650.814	-113.797	-0.497	0.097
-649.799	433.468	0.036	-0.079
-648.784	800.000	-0.067	-0.251
-647.770	526.717	-0.082	-0.193
-646.755	173.945	-0.112	0.162
-645.741	-33.804	-0.206	0.113
-644.726	800.000	0.134	-0.396
-643.711	595.764	0.049	-0.122
-642.697	-11.759	0.136	-0.089
-641.682	-31.007	0.084	0.048
-640.668	98.594	-0.302	0.348
-639.653	234.553	-0.143	0.236
-638.638	34.108	0.085	-0.075
-637.624	291.131	-0.078	0.142
-636.609	-142.710	0.181	0.018
-635.595	40.742	-0.140	-0.126
-634.580	-200.000	-0.001	0.025
-633.565	-90.845	0.160	-0.046
-632.551	-200.000	-0.012	-0.253
-631.536	-200.000	-0.008	0.044
-630.522	800.000	-0.076	0.252
-629.507	368.649	-0.096	0.195
-628.492	-140.315	-0.379	0.040
-627.478	130.409	-0.118	-0.151
-626.463	158.812	-0.118	-0.164
-625.449	3.768	0.164	0.120
-624.434	66.351	-0.083	0.084
-623.419	-200.000	0.043	0.219
-622.405	-200.000	-0.047	-0.294
-621.390	197.127	-0.198	-0.301
-620.376	-76.326	0.268	-0.094
-619.361	146.236	-0.057	0.076
-618.346	-105.228	0.215	-0.049
-617.332	-200.000	-0.171	0.000
-616.317	-200.000	0.093	-0.429
-615.303	-162.640	-0.241	-0.012
-614.288	190.900	-0.156	-0.235
-613.273	-96.325	0.202	-0.053
-612.259	800.000	0.045	0.136
-611.244	800.000	0.131	-0.372
-610.230	420.335	-0.192	0.411
-609.215	350.177	0.069	-0.137
-608.201	-200.000	-0.079	-0.463
-607.186	800.000	-0.031	-0.129
-606.171	800.000	0.055	0.211
-605.157	22.833	0.210	-0.172
-604.142	-200.000	0.034	0.285
-603.128	403.165	0.035	0.074
-602.113	33.933	-0.288	-0.251
-601.098	-123.893	0.157	-0.025
-600.084	800.000	-0.041	-0.156
-599.069	27.886	-0.318	-0.268
-598.055	314.162	-0.083	-0.157
-597.040	-3.787	0.250	0.173
-596.025	595.359	0.042	-0.105
-595.011	-147.174	0.339	-0.029
-593.996	-103.587	0.246	0.058
-592.982	58.641	0.145	0.142
-591.967	-57.353	0.303	-0.133
-590.952	-53.872	0.074	-0.034
-589.938	34.306	-0.336	0.293
-588.923	157.926	0.167	0.231
-587.909	67.436	-0.123	0.126
-586.894	36.517	-0.093	-0.082
-585.879	-49.584	-0.050	0.024
-584.865	103.385	0.101	0.118
-583.850	-5.534	-0.130	-0.089
-582.836	800.000	-0.010	-0.031
-581.821	81.753	-0.062	0.067
-580.806	800.000	-0.043	-0.185
-579.792	539.708	-0.103	-0.245
-578.777	-97.763	-0.170	-0.044
-577.763	-200.000	-0.023	0.125
-576.748	156.159	-0.249	-0.343
-575.733	-84.351	0.134	-0.042
-574.719	87.394	-0.070	-0.077
-573.704	-200.000	0.004	-0.098
-572.690	444.186	0.075	-0.164
-571.675	-167.433	-0.073	-0.003
-570.661	-120.995	0.284	-0.048
-569.646	-76.665	-0.391	0.137
-568.631	800.000	0.038	-0.119
-567.617	253.488	-0.183	-0.312
-566.602	491.845	-0.030	-0.068
-565.588	214.664	0.053	-0.084
-564.573	-200.000	0.004	0.181
-563.558	137.115	-0.168	0.219
-562.544	-6.420	-0.229	0.156
-561.529	800.000	-0.034	-0.129
-560.515	-200.000	-0.010	0.146
-559.500	722.661	0.047	-0.125
-558.485	66.548	0.076	0.077
-557.471	116.277	-0.126	-0.154
-556.456	-60.667	0.333	-0.141
-555.442	-81.578	0.164	-0.054
-554.427	511.816	0.148	-0.344
-553.412	800.000	-0.044	-0.163
-552.398	-200.000	-0.058	-0.432
-551.383	289.392	0.077	0.139
-550.369	-144.175	-0.374	0.035
-549.354	431.654	0.138	-0.299
-548.339	-12.818	0.075	0.049
-547.325	-200.000	-0.056	0.249
-546.310	-71.673	-0.235	0.087
-545.296	19.446	-0.312	-0.250
-544.281	-141.243	-0.128	-0.013
-543.266	327.410	0.145	0.277
-542.252	249.865	-0.097	-0.164
-541.237	800.000	-0.088	-0.266
-540.223	-200.000	-0.009	-0.180
-539.208	266.678	-0.127	-0.221
-538.193	58.683	-0.276	0.270
-537.179	207.498	-0.216	0.336
-536.164	254.291	0.064	0.108
-535.150	-62.467	0.030	-0.012
-534.135	-4.855	0.253	-0.173
-533.121	-48.500	0.158	0.076
-532.106	-200.000	0.342	0.001
-531.091	-200.000	0.044	-0.198
-530.077	-106.282	-0.268	-0.060
-529.062	88.030	0.193	-0.213
-528.048	800.000	0.070	0.278
-527.033	-200.000	0.018	0.091
-526.018	-115.687	-0.272	0.051
-525.004	-18.106	0.223	0.139
-523.989	-138.011	-0.109	0.012
-522.975	-25.472	0.293	-0.172
-521.960	-54.531	-0.177	0.080
-520.945	-119.559	0.061	-0.010
-519.931	800.000	-0.017	0.058
-518.916	502.773	-0.193	-0.445
-517.902	-200.000	0.057	-0.413
-516.887	-200.000	-0.060	-0.606
-515.872	-62.824	-0.167	-0.069
-514.858	-23.873	0.136	0.081
-513.843	85.407	-0.062	-0.068
-512.829	-33.498	-0.263	-0.145
-511.814	85.571	-0.110	-0.121
-510.799	800.000	0.117	-0.330
-509.785	-200.000	-0.016	0.136
-508.770	520.937	0.085	-0.199
-507.756	-152.895	-0.106	0.007
-506.741	137.034	-0.090	-0.117
-505.726	-59.078	-0.168	0.072
-504.712	800.000	0.077	0.259
-503.697	45.366	0.068	-0.062
-502.683	-200.000	-0.021	0.223
-501.668	-200.000	0.058	-0.261
-500.653	10.683	0.075	0.057
-499.639	-200.000	0.038	-0.244
-498.624	195.740	-0.130	-0.196
-497.610	358.768	-0.164	0.327
-496.595	-70.237	0.055	-0.021
-495.581	-90.233	-0.247	-0.072
-494.566	108.739	-0.019	0.022
-493.551	-200.000	-0.017	-0.368
-492.537	18.734	0.100	-0.080
-491.522	-200.000	-0.116	0.524
-490.508	-141.858	-0.391	0.039
-489.493	800.000	0.078	0.230
-488.478	-107.143	-0.106	0.023
-487.464	175.173	-0.097	0.140
-486.449	-200.000	-0.013	-0.206
-485.435	-36.097	-0.198	-0.107
-484.420	-200.000	-0.008	0.077
-483.405	318.374	0.164	0.308
-482.391	-41.421	-0.188	0.096
-481.376	401.302	0.063	-0.132
-480.362	-121.957	-0.408	-0.067
-479.347	14.412	-0.480	0.372
-478.332	-18.303	0.406	0.253
-477.318	-77.942	-0.073	0.025
-476.303	4.367	-0.028	-0.020
-475.289	-74.708	-0.184	0.066
-474.274	-200.000	-0.020	0.416
-473.259	-81.142	0.209	-0.069
-472.245	108.233	-0.193	-0.229
-471.230	235.184	-0.151	-0.248
-470.216	-198.772	-0.259	-0.001
-469.201	-200.000	-0.027	0.244
-468.186	-180.631	0.403	0.008
-467.172	25.163	-0.298	0.246
-466.157	436.362	-0.038	-0.082
-465.143	-73.197	-0.261	-0.095
-464.128	-82.092	-0.282	-0.091
-463.113	159.407	0.102	-0.141
-462.099	-159.235	0.314	0.018
-461.084	19.368	-0.049	-0.039
-460.070	17.147	0.159	0.125
-459.055	126.307	0.046	0.058
-458.040	-114.000	-0.210	-0.040
-457.026	-70.193	-0.273	-0.103
-456.011	800.000	0.084	0.282
-454.997	-143.836	0.389	0.037
-453.982	-139.140	0.254	-0.027
-452.968	-91.041	-0.098	-0.028
-451.953	46.233	0.242	0.223
-450.938	124.234	0.121	0.151
-449.924	-104.051	-0.056	-0.013
-448.909	-16.710	-0.275	0.173
-447.895	-91.505	0.064	0.018
-446.880	606.139	0.122	0.302
-445.865	-37.013	-0.087	-0.047
-444.851	-29.516	0.024	0.013
-443.836	-35.036	-0.459	-0.248
-442.822	800.000	-0.041	0.126
-441.807	-200.000	-0.009	-0.038
-440.792	398.505	-0.072	-0.150
-439.778	149.571	-0.065	0.088
-438.763	800.000	-0.149	-0.458
-437.749	-200.000	0.071	-0.314
-436.734	-49.943	-0.171	0.081
-435.719	299.845	0.093	0.169
-434.705	-64.182	0.129	0.052
-433.690	390.664	0.029	-0.060
-432.676	-107.897	0.423	0.091
-431.661	79.606	0.123	0.131
-430.646	-129.963	0.242	-0.033
-429.632	144.699	-0.249	-0.330
-428.617	-49.177	-0.116	0.055
-427.603	-200.000	-0.045	0.251
-426.588	11.036	0.085	-0.064
-425.573	-200.000	-0.003	-0.042
-424.559	172.657	0.152	-0.217
-423.544	-69.762	0.302	-0.114
-422.530	-148.999	-0.198	-0.016
-421.515	315.321	0.082	0.153
-420.500	174.499	0.110	0.157
-419.486	-3.032	0.179	-0.124
-418.471	208.578	-0.120	0.186
-417.457	40.167	0.072	-0.065
-416.442	-107.913	-0.158	-0.034
-415.428	85.830	-0.064	0.069
-414.413	126.881	0.240	0.301
-413.398	126.767	0.267	0.335
-412.384	-200.000	0.045	-0.217
-411.369	-5.136	0.134	0.092
-410.355	800.000	0.042	-0.120
-409.340	304.002	0.137	-0.251
-408.325	187.894	0.158	-0.235
-407.311	-64.195	-0.165	-0.067
-406.296	-15.131	-0.021	0.014
-405.282	17.373	-0.227	0.179
-404.267	-69.131	0.167	-0.064
-403.252	268.880	-0.063	0.109
-402.238	-20.688	-0.219	0.133
-401.223	-79.386	-0.269	-0.090
-400.209	-200.000	-0.007	-0.100
-399.194	520.841	0.060	-0.139
-398.179	-200.000	0.068	-0.419
-397.165	-200.000	0.006	0.027
-396.150	-125.964	-0.253	-0.038
-395.136	-47.398	-0.141	-0.068
-394.121	124.984	-0.260	-0.325
-393.106	-67.901	-0.066	-0.025
-392.092	-49.674	0.041	-0.019
-391.077	-200.000	0.022	-0.319
-390.063	-200.000	-0.021	-0.330
-389.048	-79.217	0.321	-0.108
-388.033	-200.000	0.022	0.132
-387.019	233.124	0.055	0.090
-386.004	-7.550	0.369	-0.247
-384.990	44.688	0.271	-0.247
-383.975	-60.823	0.398	0.167
-382.960	49.677	-0.147	0.137
-381.946	191.023	-0.083	-0.124
-380.931	800.000	0.056	0.232
-379.917	-4.287	0.135	-0.092
-378.902	-166.503	-0.529	-0.022
-377.888	-113.712	0.174	0.034
-376.873	39.897	0.159	0.142
-375.858	155.883	0.098	-0.134
-374.844	-93.955	0.477	0.130
-373.829	-76.177	-0.275	0.096
-372.815	-200.000	0.011	0.148
-371.800	-20.661	0.122	0.074
-370.785	-63.714	-0.226	-0.092
-369.771	-200.000	-0.008	0.385
-368.756	139.476	0.137	0.178
-367.742	-107.512	0.037	-0.008
-366.727	114.723	-0.067	-0.081
-365.712	-59.189	-0.114	-0.048
-364.698	800.000	-0.161	0.461
-363.683	236.278	-0.090	-0.147
-362.669	-3.198	-0.125	0.087
-361.654	-200.000	-0.002	-0.116
-360.639	-154.630	-0.242	-0.016
-359.625	-200.000	-0.030	0.151
-358.610	20.203	0.103	0.082
-357.596	140.480	0.158	0.207
-356.581	-53.605	0.058	-0.026
-355.566	-200.000	-0.021	0.300
-354.552	800.000	0.036	-0.136
-353.537	-200.000	0.001	0.047
-352.523	291.613	-0.234	-0.422
-351.508	800.000	0.152	-0.422
-350.493	38.669	0.057	-0.050
-349.479	-200.000	-0.080	-0.398
-348.464	-140.102	0.056	0.006
-347.450	262.630	-0.024	-0.040
-346.435	-120.532	0.222	-0.037
-345.420	-200.000	0.025	0.354
-344.406	32.828	0.087	0.074
-343.391	-200.000	0.003	0.500
-342.377	800.000	-0.008	-0.033
-341.362	-83.315	0.378	0.120
-340.348	-109.392	0.336	0.070
-339.333	-110.440	0.109	-0.022
-338.318	-117.358	0.325	-0.058
-337.304	-178.002	0.086	-0.002
-336.289	-158.213	0.148	-0.009
-335.275	-110.835	0.275	-0.056
-334.260	-5.635	-0.295	0.200
-333.245	-200.000	-0.068	0.344
-332.231	-200.000	-0.027	0.121
-331.216	60.635	0.352	0.344
-330.202	-95.620	-0.273	-0.072
-329.187	-200.000	-0.019	0.307
-328.172	-88.483	0.175	-0.052
-327.158	-200.000	-0.004	0.265
-326.143	7.186	0.241	0.178
-325.129	-123.763	0.238	0.037
-324.114	-200.000	-0.006	-0.047
-323.099	800.000	-0.112	-0.418
-322.085	-93.759	0.202	-0.055
-321.070	-85.060	-0.149	0.046
-320.056	476.595	0.063	-0.140
-319.041	135.697	0.213	-0.274
-318.026	94.809	-0.088	0.099
-317.012	376.514	0.092	-0.186
-315.997	-200.000	-0.031	-0.141
-314.983	238.781	0.094	0.154
-313.968	211.319	0.110	0.171
-312.953	33.951	0.152	0.131
-311.939	-52.303	0.265	0.121
-310.924	-75.171	-0.152	-0.053
-309.910	59.920	-0.158	0.154
-308.895	-200.000	-0.006	-0.196
-307.880	800.000	-0.040	0.159
-306.866	184.789	0.049	0.072
-305.851	658.836	-0.208	-0.527
-304.837	181.330	-0.087	-0.126
-303.822	-184.817	0.063	-0.001
-302.807	-63.602	-0.367	-0.149
-301.793	-136.059	-0.144	0.017
-300.778	169.416	-0.086	-0.122
-299.764	37.826	0.151	0.132
-298.749	-108.197	-0.184	-0.039
-297.735	-200.000	-0.003	0.172
-296.720	-152.108	-0.210	-0.015
-295.705	325.813	0.108	0.203
-294.691	-48.189	0.143	0.068
-293.676	415.012	0.054	0.113
-292.662	-57.379	-0.224	-0.097
-291.647	133.522	0.004	0.005
-290.632	3.072	-0.028	0.020
-289.618	-200.000	-0.019	-0.114
-288.603	-200.000	-0.119	0.569
-287.589	-31.332	0.273	0.152
-286.574	-67.367	-0.232	-0.090
-285.559	186.226	-0.105	-0.154
-284.545	-70.974	-0.078	0.029
-283.530	230.620	-0.074	-0.120
-282.516	-200.000	-0.026	-0.167
-281.501	800.000	0.066	-0.237
-280.486	-149.587	0.149	0.012
-279.472	-41.075	-0.573	0.292
-278.457	800.000	-0.091	-0.290
-277.443	800.000	0.026	0.103
-276.428	-110.841	0.467	0.095
-275.413	-200.000	0.258	-0.000
-274.399	-150.505	0.123	-0.009
-273.384	0.214	0.250	0.176
-272.370	-200.000	-0.037	-0.217
-271.355	104.850	-0.158	0.183
-270.340	800.000	-0.110	0.320
-269.326	-68.961	-0.079	0.030
-268.311	14.839	-0.145	-0.112
-267.297	19.835	0.094	0.075
-266.282	322.488	-0.116	0.218
-265.267	-76.306	0.384	-0.133
-264.253	17.463	-0.234	0.183
-263.238	-200.000	0.083	0.487
-262.224	-200.000	-0.026	-0.154
-261.209	182.176	0.249	0.362
-260.195	-96.919	0.028	-0.007
-259.180	330.401	-0.162	0.308
-258.165	197.105	0.112	0.168
-257.151	-21.271	0.272	0.164
-256.136	-39.726	0.099	0.051
-255.122	19.391	0.087	-0.069
-254.107	-200.000	0.018	-0.275
-253.092	-10.888	0.245	0.160
-252.078	-15.921	0.161	0.101
-251.063	-22.416	0.140	0.083
-250.049	442.273	0.102	-0.220
-249.034	386.752	-0.116	-0.236
-248.019	-200.000	0.017	0.425
-247.005	130.698	-0.149	-0.189
-245.990	-115.456	0.326	0.061
-244.976	-109.901	-0.148	-0.030
-243.961	-200.000	0.026	-0.355
-242.946	-200.000	0.022	-0.393
-241.932	-1.607	0.357	0.248
-240.917	24.160	0.069	0.056
-239.903	-151.275	-0.170	0.013
-238.888	-16.033	-0.175	-0.109
-237.873	-89.770	-0.152	0.044
-236.859	800.000	-0.174	0.498
-235.844	31.097	-0.078	-0.066
-234.830	-65.424	0.286	0.113
-233.815	303.892	0.112	0.205
-232.800	-200.000	-0.049	-0.405
-231.786	26.180	0.207	-0.170
-230.771	800.000	0.056	-0.209
-229.757	-32.068	0.250	-0.138
-228.742	-26.502	0.153	0.088
-227.727	125.579	0.109	0.135
-226.713	-60.318	-0.508	-0.213
-225.698	551.797	0.153	0.362
-224.684	-200.000	0.013	-0.104
-223.669	-21.336	0.209	-0.126
-222.655	-135.910	-0.310	-0.036
-221.640	-200.000	0.013	0.086
-220.625	296.495	-0.209	0.378
-219.611	94.815	-0.103	-0.115
-218.596	0.840	-0.114	-0.080
-217.582	481.553	-0.120	-0.267
-216.567	119.446	0.249	0.303
-215.552	-200.000	-0.002	-0.140
-214.538	41.127	0.096	-0.085
-213.523	-191.334	-0.138	0.001
-212.509	800.000	0.088	0.241
-211.494	800.000	0.060	-0.193
-210.479	-31.291	0.076	0.042
-209.465	800.000	-0.043	0.135
-208.450	-120.797	0.131	-0.022
-207.436	489.284	-0.051	0.115
-206.421	298.701	-0.098	0.177
-205.406	105.359	0.236	-0.274
-204.392	-200.000	-0.020	-0.098
-203.377	-81.715	0.167	0.054
-202.363	663.822	0.056	0.142
-201.348	-127.798	0.286	0.041
-200.333	-105.650	-0.271	0.060
-199.319	49.348	0.063	0.058
-198.304	23.555	-0.114	-0.092
-197.290	-104.716	-0.269	0.061
-196.275	3.841	0.091	0.065
-195.260	138.212	-0.220	-0.284
-194.246	-200.000	-0.014	-0.233
-193.231	-151.446	-0.037	0.003
-192.217	-5.396	0.112	0.076
-191.202	686.178	0.036	-0.091
-190.187	800.000	-0.087	0.296
-189.173	29.831	-0.293	0.245
-188.158	507.772	0.042	-0.097
-187.144	-39.850	-0.038	0.019
-186.129	-52.335	-0.119	0.054
-185.114	-142.391	-0.215	-0.021
-184.100	-200.000	-0.003	-0.124
-183.085	179.923	0.140	-0.202
-182.071	-103.922	0.248	0.057
-181.056	-41.834	0.252	0.127
-180.042	-60.990	-0.306	0.127
-179.027	-200.000	0.002	0.135
-178.012	-121.430	-0.096	0.016
-176.998	253.403	0.176	-0.296
-175.983	-200.000	-0.040	0.194
-174.969	-178.392	-0.082	-0.002
-173.954	182.438	0.086	0.124
-172.939	800.000	-0.025	0.094
-171.925	336.592	-0.155	0.295
-170.910	-91.776	-0.157	0.044
-169.896	238.733	0.098	0.159
-168.881	256.622	-0.054	-0.090
-167.866	2.718	0.032	-0.023
-166.852	-200.000	0.062	0.317
-165.837	-80.960	0.278	0.091
-164.823	-200.000	0.051	0.224
-163.808	-7.955	0.199	-0.132
-162.793	105.924	-0.092	0.107
-161.779	445.747	-0.097	-0.208
-160.764	-73.515	0.495	0.177
-159.750	673.005	-0.074	0.188
-158.735	800.000	0.069	0.196
-157.720	61.812	0.168	0.165
-156.706	-123.151	-0.276	0.043
-155.691	116.844	0.161	0.194
-154.677	171.467	-0.088	0.124
-153.662	-200.000	-0.036	-0.223
-152.647	800.000	-0.037	0.148
-151.633	-17.835	-0.125	-0.077
-150.618	-64.994	0.107	0.042
-149.604	-161.540	-0.175	0.009
-148.589	-169.909	-0.124	0.004
-147.574	159.868	0.224	0.306
-146.560	800.000	0.084	0.316
-145.545	-200.000	-0.041	-0.304
-144.531	-53.770	0.369	0.165
-143.516	-102.848	-0.220	-0.051
-142.502	670.366	0.046	-0.118
-141.487	92.544	0.158	-0.175
-140.472	238.902	-0.025	0.042
-139.458	114.069	0.159	0.189
-138.443	-200.000	0.034	-0.280
-137.429	63.830	0.210	0.207
-136.414	-92.690	0.293	0.080
-135.399	800.000	0.069	-0.252
-134.385	-200.000	0.019	0.208
-133.370	-200.000	0.009	-0.247
-132.356	102.526	0.163	0.186
-131.341	-200.000	0.054	0.249
-130.326	121.876	0.086	0.106
-129.312	-200.000	0.001	0.192
-128.297	170.989	0.160	0.226
-127.283	-24.720	0.336	0.196
-126.268	423.112	0.104	0.220
-125.253	-200.000	0.076	0.329
-124.239	800.000	-0.070	0.228
-123.224	200.838	-0.141	0.213
-122.210	-77.812	-0.185	0.063
-121.195	64.236	0.240	0.236
