DTS Sentinel unit serial number:	SN413079Multiplexer serial number:	ORYXHardware model number:	OX4-SRSoftware version number:	ORYX F/W v4.00 Oryx Data Collector v3.7.2.0data status	okinstallation	princeton_trtdifferential loss correction	single-endedforward channel	channel 2reverse channel	N/Adate	2019/09/13time	21:55:35forward acquisition time	60.00reverse acquisition time	0.00gamma	496.2192k internal	0.2334k external	0.2334temperature offset calibration	1.0128default loss term (dB/km)	0.3790temperature slope calibration	1.0000multiplexer offset coefficient	1.0000multiplexer slope coefficient	1.0000fibre end	0.00T internal ref (°C)	28.02T ext. ref 1 (°C)	3.14T ext. ref 2 (°C)	22.65length (m)	temperature (°C)	Stokes	anti-Stokes-747.200	70.413	0.032	-0.033
-746.185	-200.000	0.009	0.187
-745.171	-54.655	-0.359	0.163
-744.156	-200.000	0.041	-0.314
-743.142	190.827	-0.030	-0.046
-742.127	-29.579	-0.292	0.168
-741.112	-200.000	-0.002	-0.121
-740.098	-133.858	-0.108	0.014
-739.083	119.316	0.126	0.156
-738.069	1.595	-0.422	0.305
-737.054	73.207	-0.128	-0.135
-736.039	15.211	-0.118	-0.093
-735.025	-200.000	-0.006	0.139
-734.010	800.000	-0.055	-0.231
-732.996	-200.000	-0.018	-0.094
-731.981	85.145	-0.105	-0.116
-730.966	-119.164	-0.335	-0.059
-729.952	311.466	0.110	-0.208
-728.937	-200.000	0.022	0.201
-727.923	102.796	0.213	-0.251
-726.908	800.000	-0.056	0.187
-725.894	-200.000	0.058	-0.277
-724.879	383.453	-0.099	-0.205
-723.864	800.000	0.041	-0.170
-722.850	146.829	-0.093	-0.125
-721.835	-55.457	-0.061	-0.027
-720.821	-91.761	-0.090	0.026
-719.806	-200.000	0.001	-0.224
-718.791	-69.586	-0.118	-0.045
-717.777	55.898	0.076	0.074
-716.762	373.371	-0.165	-0.336
-715.748	-12.928	0.166	-0.109
-714.733	-200.000	-0.019	-0.096
-713.718	-4.562	-0.044	-0.030
-712.704	-200.000	-0.024	-0.278
-711.689	353.915	0.132	0.263
-710.675	-47.460	-0.030	-0.015
-709.660	-200.000	0.024	0.190
-708.645	112.294	-0.173	0.210
-707.631	204.210	-0.110	-0.171
-706.616	53.928	0.306	0.296
-705.602	84.433	0.236	0.259
-704.587	-200.000	-0.014	0.071
-703.572	-136.935	0.141	0.016
-702.558	-200.000	0.011	0.127
-701.543	201.203	-0.033	-0.051
-700.529	800.000	0.041	0.132
-699.514	-143.087	-0.261	-0.025
-698.499	-14.847	-0.106	-0.068
-697.485	366.438	-0.041	-0.083
-696.470	-200.000	-0.065	0.441
-695.456	-200.000	-0.021	-0.183
-694.441	-200.000	0.005	-0.070
-693.426	8.401	0.182	-0.137
-692.412	193.884	0.091	0.138
-691.397	333.859	0.074	-0.143
-690.383	-78.872	-0.090	-0.031
-689.368	-200.000	0.041	-0.379
-688.354	-200.000	0.073	-0.353
-687.339	469.151	0.173	-0.389
-686.324	430.972	-0.062	-0.135
-685.310	-142.038	-0.211	0.021
-684.295	-115.486	-0.155	-0.029
-683.281	75.471	-0.158	-0.168
-682.266	-98.620	0.169	-0.043
-681.251	496.966	0.072	0.167
-680.237	56.948	-0.078	-0.077
-679.222	307.992	-0.133	-0.250
-678.208	29.580	0.128	-0.109
-677.193	-200.000	0.070	-0.364
-676.178	-98.948	0.146	0.037
-675.164	669.308	-0.028	0.072
-674.149	81.123	0.166	-0.180
-673.135	70.575	-0.126	-0.131
-672.120	386.252	-0.106	0.219
-671.105	-91.265	-0.139	-0.040
-670.091	41.999	0.091	-0.083
-669.076	-22.015	-0.297	-0.181
-668.062	158.166	0.155	0.215
-667.047	24.251	-0.195	0.161
-666.032	-13.547	0.367	-0.239
-665.018	800.000	0.092	0.278
-664.003	-35.153	-0.333	-0.182
-662.989	59.018	-0.205	0.202
-661.974	229.171	-0.273	-0.446
-660.959	55.492	0.184	0.179
-659.945	-73.140	-0.232	0.085
-658.930	9.198	-0.127	0.096
-657.916	-64.346	0.383	-0.156
-656.901	-14.810	0.214	-0.138
-655.886	152.080	-0.195	-0.267
-654.872	538.247	-0.087	-0.208
-653.857	33.319	0.167	-0.145
-652.843	-200.000	-0.001	0.328
-651.828	57.142	0.081	-0.079
-650.814	-130.626	-0.652	-0.088
-649.799	496.963	0.025	-0.058
-648.784	3.253	0.137	0.100
-647.770	13.057	0.200	-0.155
-646.755	-200.000	-0.024	-0.116
-645.741	255.751	0.084	0.145
-644.726	218.847	0.058	-0.093
-643.711	138.076	0.126	-0.165
-642.697	-200.000	0.032	-0.173
-641.682	447.989	0.031	0.068
-640.668	-106.725	-0.132	0.029
-639.653	5.834	0.099	-0.073
-638.638	-10.610	-0.124	-0.082
-637.624	259.790	0.143	0.247
-636.609	-200.000	-0.043	-0.253
-635.595	122.789	-0.176	-0.221
-634.580	800.000	-0.024	-0.100
-633.565	159.306	-0.156	0.217
-632.551	51.457	0.116	0.110
-631.536	85.751	-0.153	0.169
-630.522	-200.000	-0.027	-0.250
-629.507	14.873	0.325	0.254
-628.492	-54.738	0.298	0.135
-627.478	-156.307	0.270	0.017
-626.463	33.482	-0.071	-0.062
-625.449	-3.779	-0.275	0.191
-624.434	155.145	0.180	0.248
-623.419	-81.018	0.080	-0.026
-622.405	-70.652	-0.260	0.098
-621.390	-23.606	0.171	-0.103
-620.376	612.040	0.019	0.048
-619.361	-200.000	-0.055	-0.285
-618.346	-119.759	-0.105	0.018
-617.332	-200.000	0.042	0.482
-616.317	114.687	0.019	0.023
-615.303	305.704	-0.064	0.119
-614.288	-23.165	0.334	-0.201
-613.273	-183.137	0.110	-0.002
-612.259	-200.000	-0.005	-0.197
-611.244	-200.000	0.001	0.017
-610.230	-97.188	0.085	0.022
-609.215	-110.891	0.318	-0.065
-608.201	800.000	0.095	0.296
-607.186	-85.391	0.198	0.062
-606.171	-200.000	0.025	-0.258
-605.157	-200.000	-0.042	-0.288
-604.142	264.969	-0.191	0.332
-603.128	-11.073	0.151	0.100
-602.113	223.179	-0.057	-0.092
-601.098	-200.000	0.024	-0.424
-600.084	385.416	-0.112	0.231
-599.069	-99.413	0.101	-0.025
-598.055	-200.000	-0.003	0.315
-597.040	84.982	0.128	0.140
-596.025	-200.000	0.026	0.194
-595.011	-105.858	-0.251	-0.057
-593.996	422.306	-0.207	-0.445
-592.982	-22.979	-0.045	0.027
-591.967	43.979	0.187	-0.171
-590.952	-200.000	-0.006	0.076
-589.938	-94.295	-0.231	-0.063
-588.923	8.145	-0.239	0.179
-587.909	-166.563	-0.122	-0.005
-586.894	-52.402	0.105	0.048
-585.879	55.402	-0.079	-0.076
-584.865	-38.051	-0.251	0.133
-583.850	140.923	-0.223	0.295
-582.836	78.385	0.227	0.242
-581.821	-200.000	0.034	0.273
-580.806	800.000	0.048	-0.158
-579.792	800.000	-0.038	-0.150
-578.777	-82.165	0.091	0.030
-577.763	99.352	0.059	0.068
-576.748	-200.000	0.041	-0.263
-575.733	-159.899	-0.288	0.016
-574.719	-200.000	-0.048	0.238
-573.704	48.415	0.117	-0.109
-572.690	-200.000	-0.044	-0.334
-571.675	-135.436	-0.203	-0.024
-570.661	-119.884	0.245	-0.042
-569.646	-90.276	-0.240	-0.070
-568.631	-110.822	-0.101	-0.021
-567.617	-35.129	0.138	0.075
-566.602	-200.000	-0.048	0.241
-565.588	211.909	-0.026	0.041
-564.573	648.110	0.007	0.017
-563.558	-200.000	0.026	0.155
-562.544	370.929	0.088	0.179
-561.529	82.371	-0.292	-0.317
-560.515	-200.000	-0.032	0.231
-559.500	-15.645	0.085	0.054
-558.485	-99.810	-0.503	-0.126
-557.471	7.648	-0.188	-0.141
-556.456	0.794	0.180	0.129
-555.442	-54.548	0.475	-0.215
-554.427	-200.000	0.018	-0.339
-553.412	-184.937	-0.397	-0.006
-552.398	-50.426	0.167	0.079
-551.383	31.599	0.106	0.091
-550.369	-38.891	-0.218	-0.115
-549.354	-42.220	-0.259	0.132
-548.339	-59.568	0.202	0.086
-547.325	84.707	-0.108	-0.118
-546.310	-27.765	-0.088	0.051
-545.296	-63.713	0.336	-0.138
-544.281	345.865	0.085	0.167
-543.266	-67.826	0.146	0.057
-542.252	-9.585	0.175	0.116
-541.237	81.589	0.194	0.209
-540.223	103.052	-0.214	0.250
-539.208	-80.843	-0.354	0.117
-538.193	-54.939	0.101	-0.045
-537.179	60.830	-0.143	0.142
-536.164	-200.000	0.019	-0.197
-535.150	-200.000	0.035	-0.463
-534.135	73.786	-0.191	-0.200
-533.121	-73.099	0.317	-0.116
-532.106	-8.826	-0.303	-0.203
-531.091	405.853	-0.039	0.083
-530.077	688.875	-0.014	0.035
-529.062	3.935	-0.260	-0.189
-528.048	-97.814	-0.281	0.072
-527.033	223.120	0.086	0.139
-526.018	-200.000	-0.015	-0.141
-525.004	-18.876	0.046	-0.029
-523.989	-4.622	0.107	0.073
-522.975	800.000	0.095	-0.286
-521.960	-111.894	-0.061	-0.012
-520.945	-37.604	-0.160	0.085
-519.931	575.475	-0.026	-0.064
-518.916	800.000	0.047	0.134
-517.902	-200.000	-0.008	0.075
-516.887	-97.765	0.096	-0.025
-515.872	533.851	-0.160	-0.377
-514.858	-160.621	0.076	-0.004
-513.843	-29.472	0.248	0.142
-512.829	-40.017	-0.234	-0.122
-511.814	-200.000	-0.026	-0.261
-510.799	-56.026	0.136	0.060
-509.785	800.000	-0.058	0.162
-508.770	-83.233	0.156	-0.050
-507.756	800.000	-0.033	-0.123
-506.741	800.000	-0.052	-0.154
-505.726	-200.000	-0.003	-0.104
-504.712	603.096	-0.053	-0.131
-503.697	561.658	0.061	-0.147
-502.683	227.010	-0.128	-0.207
-501.668	211.381	-0.119	-0.186
-500.653	67.933	-0.204	-0.208
-499.639	-200.000	0.389	0.001
-498.624	-200.000	0.018	0.331
-497.610	50.796	0.171	0.162
-496.595	-200.000	0.016	0.209
-495.581	-112.338	0.243	0.048
-494.566	-3.852	0.066	0.046
-493.551	-19.240	-0.141	0.087
-492.537	-57.633	0.211	0.092
-491.522	-193.151	0.098	0.001
-490.508	-79.738	0.535	0.179
-489.493	49.028	-0.248	-0.232
-488.478	721.850	-0.128	-0.339
-487.464	3.398	-0.241	-0.175
-486.449	24.061	0.062	-0.051
-485.435	210.832	-0.080	0.125
-484.420	-200.000	-0.014	-0.132
-483.405	-52.759	-0.147	0.067
-482.391	247.447	-0.051	-0.086
-481.376	258.046	0.244	0.418
-480.362	3.346	0.076	-0.055
-479.347	-200.000	0.003	0.164
-478.332	-121.208	0.216	-0.036
-477.318	559.240	0.165	-0.397
-476.303	321.818	-0.131	0.248
-475.289	-100.942	0.280	-0.068
-474.274	-92.196	-0.228	0.064
-473.259	800.000	-0.065	0.270
-472.245	800.000	-0.054	0.236
-471.230	-200.000	-0.003	0.047
-470.216	2.474	-0.369	0.265
-469.201	8.881	0.031	0.024
-468.186	-147.137	-0.189	-0.016
-467.172	800.000	-0.119	-0.505
-466.157	670.855	0.062	-0.159
-465.143	-53.690	-0.363	0.165
-464.128	194.384	0.144	0.217
-463.113	800.000	0.026	-0.073
-462.099	-167.623	0.218	0.009
-461.084	-91.465	0.016	-0.005
-460.070	573.001	0.077	0.186
-459.055	-59.313	-0.403	0.172
-458.040	-200.000	0.020	0.252
-457.026	-6.493	-0.259	0.176
-456.011	-133.458	0.393	0.049
-454.997	17.563	-0.424	0.335
-453.982	-200.000	0.018	-0.148
-452.968	-77.311	0.201	-0.070
-451.953	-132.563	0.099	0.013
-450.938	800.000	-0.064	-0.251
-449.924	67.838	-0.077	-0.079
-448.909	-72.502	0.275	0.101
-447.895	800.000	0.061	0.216
-446.880	38.004	0.108	-0.095
-445.865	-200.000	0.019	0.219
-444.851	-66.461	-0.336	0.132
-443.836	121.455	-0.163	-0.201
-442.822	-66.377	0.049	0.019
-441.807	-200.000	-0.058	-0.273
-440.792	-143.962	0.393	-0.037
-439.778	293.945	0.155	-0.281
-438.763	175.812	-0.105	-0.151
-437.749	59.089	-0.135	-0.132
-436.734	800.000	0.057	-0.239
-435.719	9.567	0.129	0.097
-434.705	-13.664	0.194	-0.124
-433.690	-111.271	0.174	-0.035
-432.676	800.000	0.028	-0.092
-431.661	-200.000	-0.025	0.342
-430.646	-89.652	-0.108	-0.031
-429.632	-200.000	-0.026	-0.120
-428.617	18.881	-0.264	-0.210
-427.603	800.000	-0.118	0.375
-426.588	-200.000	-0.036	0.372
-425.573	-77.735	0.214	-0.073
-424.559	-200.000	-0.015	0.090
-423.544	-34.802	-0.058	0.031
-422.530	79.735	-0.279	-0.298
-421.515	-79.852	-0.050	-0.017
-420.500	133.659	-0.127	0.164
-419.486	-166.999	0.227	0.009
-418.471	474.025	0.103	-0.231
-417.457	-32.300	0.288	0.160
-416.442	-94.326	0.304	-0.082
-415.428	112.617	-0.251	0.302
-414.413	-130.884	0.372	0.049
-413.398	-74.325	0.410	0.147
-412.384	152.304	-0.157	0.213
-411.369	18.547	0.237	-0.188
-410.355	-54.288	-0.086	0.039
-409.340	-137.040	-0.067	0.008
-408.325	60.745	0.158	-0.156
-407.311	-89.217	-0.067	-0.019
-406.296	-40.848	0.177	0.091
-405.282	-148.004	-0.106	0.009
-404.267	284.163	0.144	0.256
-403.252	800.000	0.108	-0.311
-402.238	58.046	0.145	0.141
-401.223	146.457	-0.077	0.102
-400.209	150.301	0.171	0.230
-399.194	180.675	0.055	-0.080
-398.179	-85.781	0.181	0.056
-397.165	-200.000	-0.025	0.426
-396.150	-95.191	-0.537	0.144
-395.136	264.664	-0.151	0.262
-394.121	800.000	-0.042	0.145
-393.106	-200.000	-0.048	-0.249
-392.092	-142.737	-0.125	-0.012
-391.077	-77.593	0.149	0.051
-390.063	172.534	0.144	-0.205
-389.048	800.000	-0.048	-0.139
-388.033	42.212	0.137	0.124
-387.019	-65.314	0.172	-0.069
-386.004	-66.003	0.368	0.146
-384.990	141.024	0.191	-0.250
-383.975	31.189	0.075	0.064
-382.960	-200.000	0.080	0.364
-381.946	-185.802	-0.139	0.002
-380.931	53.831	0.189	-0.180
-379.917	800.000	-0.086	-0.299
-378.902	154.193	-0.067	-0.091
-377.888	-200.000	0.022	-0.411
-376.873	151.954	-0.147	0.198
-375.858	576.679	-0.051	0.124
-374.844	28.121	-0.051	0.042
-373.829	-121.651	0.095	-0.016
-372.815	110.664	-0.049	-0.059
-371.800	508.288	0.145	-0.334
-370.785	428.723	0.149	-0.318
-369.771	-138.336	-0.130	0.014
-368.756	-154.814	-0.229	-0.015
-367.742	-82.906	-0.126	-0.040
-366.727	475.522	0.024	0.054
-365.712	-116.415	0.136	-0.025
-364.698	47.680	-0.089	-0.083
-363.683	-200.000	0.007	0.126
-362.669	-169.793	-0.266	0.009
-361.654	599.196	-0.096	-0.235
-360.639	800.000	0.022	0.064
-359.625	-57.864	0.138	-0.060
-358.610	-200.000	0.008	0.109
-357.596	690.734	-0.072	-0.188
-356.581	-200.000	-0.021	-0.169
-355.566	242.258	-0.061	-0.100
-354.552	110.835	-0.076	-0.090
-353.537	-125.680	0.258	0.039
-352.523	246.761	-0.103	0.173
-351.508	41.968	-0.152	-0.136
-350.493	248.562	0.099	0.166
-349.479	-15.532	0.043	0.027
-348.464	-66.554	0.060	0.024
-347.450	-135.564	0.274	-0.032
-346.435	438.630	-0.174	-0.375
-345.420	282.448	0.136	0.241
-344.406	-200.000	0.085	0.523
-343.391	105.590	0.161	0.188
-342.377	-85.180	-0.368	-0.114
-341.362	483.583	-0.046	0.103
-340.348	75.109	-0.358	-0.374
-339.333	800.000	0.015	0.047
-338.318	112.735	-0.098	-0.118
-337.304	2.899	-0.138	-0.099
-336.289	666.992	-0.117	0.300
-335.275	-123.842	0.145	0.023
-334.260	130.846	0.142	-0.181
-333.245	29.185	0.114	-0.095
-332.231	28.895	0.081	-0.068
-331.216	80.423	-0.305	0.325
-330.202	-2.908	-0.196	-0.135
-329.187	-8.075	0.050	-0.033
-328.172	-200.000	-0.047	-0.399
-327.158	2.346	-0.149	0.107
-326.143	-128.010	-0.316	0.045
-325.129	72.595	0.233	-0.240
-324.114	-63.190	0.039	0.016
-323.099	-31.434	-0.216	-0.120
-322.085	-75.149	0.144	0.051
-321.070	800.000	-0.103	0.312
-320.056	227.233	-0.144	0.232
-319.041	-70.247	-0.231	-0.087
-318.026	-171.080	-0.075	0.003
-317.012	-200.000	0.008	0.223
-315.997	-156.375	-0.192	0.012
-314.983	-64.869	0.169	-0.067
-313.968	800.000	-0.169	-0.464
-312.953	-200.000	-0.058	-0.279
-311.939	239.158	-0.119	-0.195
-310.924	-200.000	-0.031	0.203
-309.910	-99.437	-0.205	-0.051
-308.895	-18.728	0.289	0.178
-307.880	-200.000	0.072	-0.362
-306.866	800.000	0.023	0.094
-305.851	-92.181	-0.331	-0.092
-304.837	-23.822	-0.238	-0.141
-303.822	68.148	0.075	-0.076
-302.807	-67.889	-0.088	-0.034
-301.793	-18.583	-0.049	-0.030
-300.778	-67.663	-0.215	-0.083
-299.764	253.002	-0.108	0.181
-298.749	537.993	0.066	0.155
-297.735	85.566	-0.105	-0.114
-296.720	-6.159	-0.074	-0.050
-295.705	-108.492	0.249	0.053
-294.691	-200.000	-0.017	0.166
-293.676	440.303	0.002	-0.005
-292.662	-158.108	0.159	-0.009
-291.647	-200.000	-0.001	0.118
-290.632	-82.126	0.297	0.096
-289.618	198.534	0.075	0.113
-288.603	-200.000	0.023	-0.265
-287.589	19.929	0.280	0.222
-286.574	-200.000	0.034	-0.262
-285.559	-200.000	0.065	0.436
-284.545	-200.000	0.011	-0.107
-283.530	-200.000	0.039	-0.200
-282.516	244.690	-0.108	0.180
-281.501	-200.000	0.055	0.427
-280.486	363.672	-0.050	-0.099
-279.472	-113.091	-0.185	-0.036
-278.457	463.209	-0.162	-0.357
-277.443	56.281	0.153	0.147
-276.428	-0.426	0.158	0.111
-275.413	0.921	0.188	0.133
-274.399	-147.101	-0.155	0.013
-273.384	340.726	-0.175	-0.338
-272.370	-72.397	-0.223	-0.082
-271.355	800.000	-0.029	0.085
-270.340	80.347	-0.203	-0.216
-269.326	-200.000	0.057	0.255
-268.311	-33.733	-0.056	-0.030
-267.297	-200.000	0.009	0.065
-266.282	-200.000	0.012	-0.157
-265.267	114.811	0.011	0.013
-264.253	-200.000	0.033	-0.394
-263.238	-73.009	0.121	0.044
-262.224	-108.516	-0.123	-0.026
-261.209	-60.332	0.405	-0.170
-260.195	-2.023	-0.171	0.118
-259.180	800.000	0.034	0.140
-258.165	60.647	0.017	-0.017
-257.151	230.581	-0.036	0.059
-256.136	800.000	0.132	0.431
-255.122	67.206	0.130	-0.130
-254.107	-33.016	-0.127	0.069
-253.092	-85.762	-0.130	0.040
-252.078	-200.000	-0.007	0.113
-251.063	-122.012	-0.146	0.024
-250.049	44.796	-0.354	0.321
-249.034	27.929	0.215	0.179
-248.019	-26.843	0.407	-0.235
-247.005	-161.459	-0.143	0.007
-245.990	-108.047	0.107	-0.023
-244.976	602.768	0.086	0.210
-243.961	-118.030	0.218	-0.038
-242.946	-18.139	-0.121	-0.075
-241.932	-84.920	-0.181	0.056
-240.917	6.430	0.145	-0.106
-239.903	-4.265	0.218	-0.149
-238.888	800.000	0.060	0.190
-237.873	800.000	0.070	-0.278
-236.859	386.922	-0.179	0.365
-235.844	163.725	0.114	0.158
-234.830	-151.979	-0.213	-0.015
-233.815	-31.492	-0.104	0.058
-232.800	-200.000	0.000	-0.206
-231.786	-139.294	-0.063	0.007
-230.771	127.950	0.126	0.158
-229.757	-95.218	-0.106	0.028
-228.742	-200.000	-0.056	-0.275
-227.727	-200.000	0.055	0.249
-226.713	800.000	-0.044	-0.145
-225.698	425.750	-0.152	-0.322
-224.684	-110.128	0.465	0.096
-223.669	553.243	-0.076	0.179
-222.655	-200.000	-0.011	-0.192
-221.640	-200.000	-0.034	0.153
-220.625	0.446	0.330	0.232
-219.611	39.057	0.079	0.070
-218.596	-73.748	-0.432	-0.155
-217.582	-200.000	0.020	0.208
-216.567	-162.416	0.362	-0.018
-215.552	25.854	-0.205	0.168
-214.538	-200.000	-0.014	0.073
-213.523	663.272	0.063	-0.160
-212.509	11.917	0.104	-0.079
-211.494	-200.000	-0.022	0.131
-210.479	-77.017	-0.314	0.108
-209.465	761.108	0.075	0.200
-208.450	227.392	-0.113	0.181
-207.436	-81.225	0.252	-0.082
-206.421	-200.000	-0.006	0.128
-205.406	-76.113	-0.227	-0.079
-204.392	-107.174	-0.063	0.014
-203.377	183.080	-0.161	-0.234
-202.363	-200.000	-0.060	-0.353
-201.348	-70.210	0.227	0.085
-200.333	-60.732	0.110	-0.046
-199.319	4.374	0.146	0.105
-198.304	-52.964	0.092	0.042
-197.290	542.636	-0.049	0.115
-196.275	13.586	-0.221	-0.168
-195.260	-60.941	0.315	0.131
-194.246	-28.343	-0.193	0.109
-193.231	47.280	0.262	-0.240
-192.217	-167.543	-0.284	-0.011
-191.202	-141.376	-0.328	-0.033
-190.187	800.000	0.075	0.251
-189.173	-72.013	-0.177	-0.065
-188.158	91.613	-0.036	-0.039
-187.144	87.782	0.068	-0.075
-186.129	-73.167	0.071	-0.026
-185.114	-200.000	-0.020	0.223
-184.100	-25.078	0.128	-0.075
-183.085	139.674	-0.185	-0.239
-182.071	-29.280	0.338	0.190
-181.056	-6.887	-0.125	-0.084
-180.042	800.000	0.027	-0.113
-179.027	-1.250	0.241	-0.168
-178.012	-128.140	0.342	-0.048
-176.998	-19.804	0.143	-0.087
-175.983	-200.000	0.049	-0.317
-174.969	-38.854	-0.339	0.175
-173.954	415.769	-0.029	-0.060
-172.939	-89.026	-0.232	-0.067
-171.925	-200.000	0.006	0.029
-170.910	-75.776	-0.095	0.033
-169.896	3.396	0.108	0.077
-168.881	84.541	-0.187	-0.201
-167.866	-96.463	0.231	-0.060
-166.852	-200.000	0.039	0.276
-165.837	62.374	-0.030	0.030
-164.823	800.000	0.030	0.124
-163.808	74.825	0.305	-0.316
-162.793	-24.041	-0.263	-0.154
-161.779	123.841	0.067	0.082
-160.764	800.000	0.154	-0.429
-159.750	-91.341	0.191	0.054
-158.735	-163.717	0.457	-0.021
-157.720	-123.914	-0.260	0.040
-156.706	182.686	-0.152	0.220
-155.691	800.000	0.029	-0.121
-154.677	177.817	-0.088	0.125
-153.662	-200.000	0.012	0.283
-152.647	83.201	-0.244	0.261
-151.633	-24.078	-0.240	-0.141
-150.618	-82.493	-0.328	0.105
-149.604	-200.000	0.003	0.105
-148.589	10.136	0.084	0.063
-147.574	800.000	0.054	0.173
-146.560	218.319	0.142	-0.222
-145.545	-62.698	-0.410	-0.167
-144.531	-65.696	-0.116	-0.046
-143.516	385.402	-0.063	-0.127
-142.502	-101.326	0.389	-0.093
-141.487	-161.529	-0.289	-0.015
-140.472	-40.627	-0.196	-0.100
-139.458	330.968	-0.071	0.134
-138.443	800.000	0.073	-0.243
-137.429	79.184	0.195	-0.205
-136.414	-200.000	-0.012	0.062
-135.399	-97.993	0.038	-0.010
-134.385	-1.596	-0.075	-0.052
-133.370	-133.551	0.187	-0.023
-132.356	168.501	-0.197	-0.275
-131.341	182.935	-0.087	-0.126
-130.326	240.273	-0.137	0.224
-129.312	-50.144	0.043	0.020
-128.297	-45.119	-0.092	-0.045
-127.283	118.879	-0.041	0.049
-126.268	221.080	0.081	-0.127
-125.253	-51.685	-0.183	0.084
-124.239	309.473	0.115	-0.211
-123.224	35.932	-0.194	0.168
-122.210	15.581	-0.059	0.045
-121.195	-200.000	-0.025	0.308
