DTS Sentinel unit serial number:	SN413079Multiplexer serial number:	ORYXHardware model number:	OX4-SRSoftware version number:	ORYX F/W v4.00 Oryx Data Collector v3.7.2.0data status	okinstallation	princeton_trtdifferential loss correction	single-endedforward channel	channel 2reverse channel	N/Adate	2019/09/16time	11:47:35forward acquisition time	60.00reverse acquisition time	0.00gamma	496.2192k internal	0.2308k external	0.2308temperature offset calibration	0.9952default loss term (dB/km)	0.3790temperature slope calibration	1.0000multiplexer offset coefficient	1.0000multiplexer slope coefficient	1.0000fibre end	0.00T internal ref (°C)	38.22T ext. ref 1 (°C)	13.07T ext. ref 2 (°C)	35.55length (m)	temperature (°C)	Stokes	anti-Stokes-747.200	183.923	0.176	-0.265
-746.185	92.969	0.179	0.205
-745.171	-200.000	-0.061	-0.349
-744.156	-174.994	0.048	-0.001
-743.142	434.257	-0.068	-0.151
-742.127	-200.000	-0.016	0.082
-741.112	487.733	-0.059	0.136
-740.098	-47.224	-0.312	0.154
-739.083	325.482	0.068	0.132
-738.069	-200.000	-0.012	-0.062
-737.054	500.034	-0.134	-0.313
-736.039	568.910	-0.097	0.240
-735.025	-200.000	0.022	0.147
-734.010	-200.000	0.009	-0.403
-732.996	182.618	0.058	0.087
-731.981	-29.135	-0.145	0.085
-730.966	-194.936	-0.398	-0.003
-729.952	800.000	0.135	-0.452
-728.937	-28.633	0.332	-0.194
-727.923	-71.179	-0.412	0.157
-726.908	-106.233	-0.086	-0.020
-725.894	-129.456	-0.208	0.029
-724.879	5.007	0.395	-0.295
-723.864	35.205	-0.187	-0.167
-722.850	-200.000	-0.038	0.192
-721.835	146.861	0.091	-0.124
-720.821	193.817	0.198	0.304
-719.806	-20.326	-0.167	0.104
-718.791	-200.000	-0.014	0.084
-717.777	-22.108	0.065	0.040
-716.762	-124.020	-0.266	0.042
-715.748	85.771	-0.041	0.046
-714.733	96.229	-0.216	-0.251
-713.718	800.000	-0.132	-0.402
-712.704	160.272	-0.135	-0.192
-711.689	-21.179	0.054	-0.033
-710.675	-17.620	0.162	-0.103
-709.660	-123.329	0.114	-0.018
-708.645	453.277	-0.104	-0.234
-707.631	-200.000	-0.060	-0.292
-706.616	355.259	0.025	0.051
-705.602	-0.306	0.043	-0.031
-704.587	9.931	0.172	-0.132
-703.572	800.000	-0.104	0.333
-702.558	-145.770	0.080	0.007
-701.543	-78.254	0.125	-0.043
-700.529	-106.929	-0.564	-0.127
-699.514	-27.321	-0.239	-0.141
-698.499	780.063	-0.053	-0.146
-697.485	-118.893	0.064	0.011
-696.470	-96.746	-0.457	0.122
-695.456	-131.274	0.476	0.064
-694.441	48.431	0.179	0.170
-693.426	-200.000	-0.010	-0.533
-692.412	112.063	0.040	-0.049
-691.397	-144.145	-0.328	0.031
-690.383	136.977	-0.083	0.110
-689.368	-81.355	0.166	0.055
-688.354	800.000	-0.104	-0.297
-687.339	-26.436	0.313	-0.186
-686.324	-200.000	-0.055	0.273
-685.310	455.571	0.114	0.257
-684.295	41.098	-0.107	0.098
-683.281	-20.307	0.231	-0.144
-682.266	-172.983	0.265	-0.008
-681.251	-200.000	-0.014	0.233
-680.237	-200.000	0.012	-0.068
-679.222	-200.000	0.059	-0.330
-678.208	309.350	-0.139	-0.263
-677.193	-93.537	-0.012	0.003
-676.178	-200.000	-0.001	0.312
-675.164	-200.000	-0.020	0.192
-674.149	657.430	0.118	0.307
-673.135	-200.000	-0.023	-0.174
-672.120	19.350	0.300	-0.244
-671.105	-45.587	-0.410	-0.206
-670.091	-95.633	0.141	0.038
-669.076	585.717	-0.126	-0.315
-668.062	-81.974	-0.179	0.059
-667.047	-126.753	0.202	0.030
-666.032	-68.289	0.184	0.073
-665.018	140.315	-0.108	-0.144
-664.003	273.057	-0.158	0.283
-662.989	-117.994	-0.327	-0.059
-661.974	-200.000	0.001	0.125
-660.959	-200.000	0.029	0.179
-659.945	-27.574	0.194	-0.114
-658.930	-194.543	0.556	-0.004
-657.916	224.102	0.052	-0.085
-656.901	264.066	0.207	-0.364
-655.886	129.019	-0.176	0.228
-654.872	800.000	-0.067	-0.287
-653.857	-200.000	-0.036	-0.633
-652.843	137.274	0.154	-0.203
-651.828	-21.358	-0.314	0.194
-650.814	-200.000	-0.063	0.359
-649.799	-200.000	-0.015	0.079
-648.784	800.000	0.086	-0.265
-647.770	31.806	-0.092	0.080
-646.755	-200.000	-0.013	-0.073
-645.741	-21.058	-0.216	0.134
-644.726	-56.468	-0.190	0.085
-643.711	523.883	0.072	-0.171
-642.697	-200.000	0.002	-0.275
-641.682	212.443	-0.135	0.215
-640.668	134.259	-0.100	0.132
-639.653	182.685	0.215	-0.322
-638.638	800.000	0.046	0.137
-637.624	251.659	0.142	-0.245
-636.609	-200.000	0.006	-0.445
-635.595	-162.304	-0.065	-0.003
-634.580	759.281	0.049	-0.133
-633.565	172.313	-0.140	0.204
-632.551	-71.842	0.160	-0.060
-631.536	-75.686	-0.155	0.056
-630.522	-22.214	0.280	0.172
-629.507	800.000	-0.068	-0.219
-628.492	-108.960	0.272	-0.059
-627.478	-20.642	0.251	0.156
-626.463	230.994	-0.167	-0.277
-625.449	-80.211	-0.031	-0.010
-624.434	-84.326	-0.268	-0.086
-623.419	534.523	0.167	0.401
-622.405	-43.258	-0.376	-0.192
-621.390	469.400	-0.087	-0.197
-620.376	465.914	0.171	0.386
-619.361	2.326	0.109	0.080
-618.346	-200.000	-0.003	-0.126
-617.332	-29.074	-0.123	-0.072
-616.317	395.710	-0.115	0.242
-615.303	289.687	0.103	0.189
-614.288	-49.460	-0.203	0.098
-613.273	-92.192	-0.368	0.105
-612.259	-164.705	-0.243	0.011
-611.244	142.918	0.061	0.082
-610.230	543.306	-0.057	0.136
-609.215	340.211	-0.143	-0.282
-608.201	-160.431	0.289	0.016
-607.186	800.000	0.079	-0.250
-606.171	800.000	0.016	0.066
-605.157	-65.955	0.238	-0.096
-604.142	83.580	0.176	-0.194
-603.128	175.811	0.145	0.212
-602.113	-27.041	-0.126	-0.074
-601.098	-200.000	0.036	0.203
-600.084	81.369	0.260	-0.284
-599.069	88.589	0.206	-0.232
-598.055	67.814	-0.246	0.254
-597.040	-87.886	0.117	0.036
-596.025	-13.477	0.157	0.103
-595.011	-200.000	0.000	0.074
-593.996	74.950	0.245	-0.260
-592.982	-59.788	0.359	-0.155
-591.967	-25.350	0.046	-0.027
-590.952	-118.750	-0.300	-0.053
-589.938	-182.417	-0.184	-0.003
-588.923	-108.480	-0.019	-0.004
-587.909	182.961	0.058	0.087
-586.894	5.232	0.152	-0.113
-585.879	38.263	-0.279	0.251
-584.865	407.542	0.166	-0.355
-583.850	119.584	-0.275	-0.344
-582.836	-196.314	0.170	-0.001
-581.821	-58.619	0.297	0.130
-580.806	800.000	0.092	0.314
-579.792	115.494	0.133	0.165
-578.777	800.000	0.119	0.333
-577.763	-200.000	0.046	0.263
-576.748	-200.000	0.040	0.204
-575.733	-120.484	-0.211	-0.036
-574.719	215.257	-0.038	0.061
-573.704	-79.593	-0.158	-0.054
-572.690	-89.550	0.134	-0.040
-571.675	94.205	0.192	0.220
-570.661	36.809	-0.104	0.093
-569.646	-200.000	0.004	-0.227
-568.631	85.579	-0.096	-0.106
-567.617	-50.883	0.091	0.043
-566.602	800.000	-0.024	0.095
-565.588	-82.406	-0.244	0.080
-564.573	-78.580	0.182	0.063
-563.558	-72.317	0.031	-0.012
-562.544	-64.233	-0.461	-0.190
-561.529	272.461	0.106	0.189
-560.515	-143.678	-0.324	-0.031
-559.500	-128.518	0.160	0.023
-558.485	-59.445	-0.190	0.082
-557.471	70.333	0.136	-0.142
-556.456	800.000	-0.075	-0.265
-555.442	92.214	-0.136	0.154
-554.427	546.136	-0.019	0.045
-553.412	116.456	0.106	0.131
-552.398	-73.539	0.310	-0.114
-551.383	-139.245	0.226	-0.025
-550.369	348.931	0.075	0.150
-549.354	-138.743	0.427	-0.047
-548.339	800.000	0.051	0.215
-547.325	800.000	-0.074	-0.210
-546.310	-114.934	-0.213	0.041
-545.296	737.053	-0.106	0.286
-544.281	-80.605	0.255	0.086
-543.266	800.000	-0.050	-0.151
-542.252	-71.161	-0.315	-0.119
-541.237	302.889	-0.163	-0.305
-540.223	140.825	-0.144	0.192
-539.208	92.880	-0.162	-0.184
-538.193	-192.265	0.311	0.003
-537.179	-200.000	-0.041	0.222
-536.164	62.250	0.064	0.065
-535.150	-93.190	0.342	-0.096
-534.135	31.965	0.153	0.133
-533.121	89.087	-0.077	-0.086
-532.106	184.288	0.115	-0.172
-531.091	227.261	0.065	0.107
-530.077	-54.377	0.218	0.100
-529.062	2.101	-0.251	-0.183
-528.048	-93.405	0.277	0.077
-527.033	-200.000	0.008	-0.573
-526.018	-176.055	0.022	0.001
-525.004	-200.000	-0.032	-0.160
-523.989	786.943	0.086	-0.238
-522.975	-200.000	-0.012	-0.479
-521.960	-78.704	-0.168	0.058
-520.945	800.000	-0.100	0.290
-519.931	3.273	0.280	0.205
-518.916	-200.000	-0.086	0.446
-517.902	800.000	0.081	0.278
-516.887	177.333	-0.046	-0.067
-515.872	-96.971	-0.287	-0.076
-514.858	-200.000	-0.044	0.437
-513.843	800.000	0.026	0.082
-512.829	316.996	-0.106	-0.201
-511.814	-53.355	-0.266	-0.123
-510.799	91.548	-0.114	-0.129
-509.785	-21.699	0.030	-0.019
-508.770	54.545	0.234	0.228
-507.756	364.041	-0.046	0.093
-506.741	-106.745	-0.192	-0.043
-505.726	-200.000	-0.004	0.083
-504.712	-99.353	-0.084	-0.021
-503.697	-200.000	-0.041	-0.363
-502.683	-46.965	0.150	0.074
-501.668	312.163	-0.167	0.316
-500.653	304.449	-0.040	-0.075
-499.639	5.601	-0.018	-0.013
-498.624	-200.000	0.021	0.168
-497.610	81.130	0.066	-0.072
-496.595	-136.630	-0.124	-0.014
-495.581	-156.692	0.303	0.019
-494.566	-165.460	-0.243	-0.011
-493.551	80.030	-0.127	0.138
-492.537	800.000	0.056	-0.244
-491.522	-92.171	0.206	0.058
-490.508	800.000	-0.034	-0.139
-489.493	-140.720	-0.248	-0.026
-488.478	-200.000	0.019	-0.196
-487.464	108.371	-0.142	-0.171
-486.449	668.853	-0.033	-0.086
-485.435	431.677	0.125	0.273
-484.420	39.557	-0.141	0.127
-483.405	-200.000	0.017	-0.110
-482.391	430.374	-0.099	0.215
-481.376	96.771	0.159	0.183
-480.362	-200.000	-0.025	0.215
-479.347	-143.322	-0.071	-0.007
-478.332	-181.012	0.236	-0.005
-477.318	194.501	0.120	0.183
-476.303	-19.421	-0.177	0.110
-475.289	-101.954	-0.303	0.074
-474.274	-200.000	-0.017	-0.237
-473.259	-50.967	0.044	-0.021
-472.245	800.000	0.078	0.230
-471.230	-84.351	-0.526	-0.167
-470.216	800.000	0.041	-0.156
-469.201	8.884	0.114	0.086
-468.186	-151.628	0.046	-0.003
-467.172	-30.705	0.196	0.112
-466.157	22.214	0.120	-0.099
-465.143	-200.000	0.001	-0.085
-464.128	249.663	-0.084	0.143
-463.113	-200.000	0.015	0.102
-462.099	-200.000	-0.006	-0.120
-461.084	180.150	0.129	0.189
-460.070	129.450	0.181	0.232
-459.055	-200.000	-0.051	-0.324
-458.040	53.654	-0.058	-0.056
-457.026	-173.092	0.394	0.012
-456.011	220.331	-0.054	-0.087
-454.997	-59.997	0.047	-0.020
-453.982	-24.358	-0.212	-0.127
-452.968	59.690	0.164	-0.163
-451.953	-67.655	0.067	-0.026
-450.938	-126.294	0.176	0.026
-449.924	-180.100	-0.190	-0.004
-448.909	800.000	0.035	0.151
-447.895	3.856	-0.241	-0.177
-446.880	591.474	-0.066	0.164
-445.865	-200.000	0.005	0.036
-444.851	130.061	0.176	-0.227
-443.836	-55.942	-0.106	0.048
-442.822	-200.000	0.040	0.381
-441.807	-151.673	-0.483	-0.036
-440.792	314.726	-0.134	-0.253
-439.778	-28.563	0.123	0.071
-438.763	-100.311	0.280	-0.070
-437.749	-200.000	-0.063	0.378
-436.734	414.273	-0.088	-0.188
-435.719	800.000	0.022	-0.079
-434.705	-43.415	0.354	-0.180
-433.690	721.833	-0.071	0.189
-432.676	27.614	-0.215	0.182
-431.661	800.000	0.033	0.095
-430.646	-200.000	-0.039	-0.322
-429.632	-167.630	-0.094	-0.004
-428.617	29.564	-0.056	0.048
-427.603	113.379	-0.160	0.194
-426.588	-28.347	0.153	0.089
-425.573	155.772	0.357	0.494
-424.559	63.718	-0.187	-0.189
-423.544	455.805	0.166	-0.369
-422.530	-167.266	-0.278	-0.011
-421.515	-200.000	-0.003	-0.023
-420.500	79.916	0.071	0.077
-419.486	800.000	-0.054	-0.177
-418.471	-74.322	-0.151	-0.055
-417.457	-200.000	0.016	-0.250
-416.442	-50.946	0.104	0.049
-415.428	-49.048	0.295	0.142
-414.413	-154.380	-0.242	0.016
-413.398	245.117	0.188	-0.318
-412.384	426.352	-0.154	0.333
-411.369	89.311	0.208	-0.233
-410.355	150.300	0.114	0.155
-409.340	173.850	-0.199	-0.288
-408.325	32.496	0.100	-0.086
-407.311	-74.737	0.134	0.048
-406.296	77.608	-0.219	-0.234
-405.282	31.441	0.280	-0.242
-404.267	-65.518	-0.202	-0.081
-403.252	800.000	0.085	0.239
-402.238	-107.926	-0.198	0.043
-401.223	-200.000	0.025	-0.132
-400.209	-138.916	-0.291	0.032
-399.194	800.000	0.033	0.108
-398.179	34.886	-0.124	-0.109
-397.165	5.250	0.083	0.061
-396.150	800.000	-0.092	0.269
-395.136	137.238	0.087	-0.114
-394.121	-200.000	0.006	-0.334
-393.106	51.286	-0.232	-0.221
-392.092	-153.464	0.139	0.010
-391.077	215.944	0.284	-0.453
-390.063	77.720	0.218	0.233
-389.048	-200.000	-0.004	-0.205
-388.033	800.000	0.033	0.127
-387.019	-110.340	0.192	-0.040
-386.004	149.462	0.057	0.077
-384.990	253.398	-0.160	0.273
-383.975	-140.082	-0.295	0.031
-382.960	-200.000	0.012	0.201
-381.946	155.488	-0.118	-0.162
-380.931	101.855	-0.120	0.140
-379.917	115.824	0.083	0.102
-378.902	800.000	-0.024	-0.099
-377.888	-114.721	-0.264	0.051
-376.873	800.000	-0.044	-0.160
-375.858	-158.317	0.237	0.014
-374.844	1.660	0.188	0.135
-373.829	-35.177	-0.242	0.132
-372.815	-174.373	0.456	0.013
-371.800	-123.800	-0.132	-0.021
-370.785	26.466	0.148	-0.124
-369.771	-58.326	0.052	-0.023
-368.756	46.663	0.261	0.243
-367.742	-86.184	0.196	-0.061
-366.727	-175.447	-0.156	0.004
-365.712	119.162	-0.099	-0.123
-364.698	572.206	0.129	-0.314
-363.683	-69.096	0.250	0.097
-362.669	800.000	-0.051	-0.173
-361.654	711.898	-0.114	0.303
-360.639	495.191	0.096	0.220
-359.625	92.292	-0.104	-0.118
-358.610	130.668	0.245	-0.314
-357.596	20.146	-0.163	0.132
-356.581	195.984	-0.090	0.137
-355.566	-64.437	-0.186	-0.076
-354.552	422.456	-0.065	-0.140
-353.537	29.601	0.198	-0.169
-352.523	80.979	-0.218	0.236
-351.508	800.000	0.026	-0.082
-350.493	-43.782	-0.419	0.211
-349.479	124.619	-0.232	-0.292
-348.464	-200.000	-0.068	0.346
-347.450	-34.732	0.277	0.151
-346.435	46.059	0.083	0.077
-345.420	-160.600	0.172	-0.009
-344.406	800.000	0.084	0.239
-343.391	2.103	-0.190	-0.138
-342.377	-200.000	-0.005	-0.191
-341.362	800.000	-0.086	0.260
-340.348	-40.037	-0.166	-0.087
-339.333	-83.453	-0.395	-0.127
-338.318	-147.417	-0.329	0.028
-337.304	284.654	0.106	0.190
-336.289	800.000	-0.155	-0.518
-335.275	145.405	-0.047	0.062
-334.260	-80.575	-0.102	-0.034
-333.245	502.064	0.065	0.149
-332.231	-200.000	0.018	0.387
-331.216	79.372	-0.306	0.328
-330.202	114.664	0.072	0.088
-329.187	800.000	-0.048	-0.157
-328.172	800.000	0.034	0.148
-327.158	800.000	-0.062	-0.230
-326.143	24.766	0.129	-0.107
-325.129	-160.861	-0.169	0.009
-324.114	-159.507	-0.128	0.007
-323.099	-9.320	-0.184	-0.123
-322.085	-94.389	-0.355	-0.097
-321.070	-19.552	0.138	-0.085
-320.056	454.549	-0.105	0.233
-319.041	800.000	0.085	0.320
-318.026	15.488	0.270	-0.212
-317.012	52.459	-0.176	0.168
-315.997	-200.000	0.022	0.235
-314.983	-200.000	-0.073	0.390
-313.968	800.000	0.030	0.092
-312.953	-103.840	0.037	0.009
-311.939	-162.716	-0.118	0.006
-310.924	-200.000	0.044	0.254
-309.910	83.786	-0.225	-0.246
-308.895	800.000	-0.037	-0.158
-307.880	604.529	0.080	-0.198
-306.866	-23.384	0.071	0.043
-305.851	50.469	0.124	-0.117
-304.837	109.936	0.189	-0.226
-303.822	800.000	0.026	0.087
-302.807	170.991	0.020	0.028
-301.793	-63.065	-0.272	0.112
-300.778	-55.502	-0.256	-0.115
-299.764	-92.236	0.025	0.007
-298.749	189.567	-0.123	-0.184
-297.735	-200.000	-0.025	0.178
-296.720	800.000	-0.046	0.159
-295.705	385.136	0.081	0.167
-294.691	-130.946	-0.060	0.008
-293.676	-18.228	0.337	0.211
-292.662	-200.000	-0.024	-0.259
-291.647	-92.271	-0.184	0.052
-290.632	-85.098	0.118	-0.037
-289.618	-200.000	0.013	0.419
-288.603	-200.000	-0.010	0.328
-287.589	359.803	0.243	-0.485
-286.574	-143.562	0.128	-0.012
-285.559	-121.427	-0.485	0.081
-284.545	-200.000	-0.026	0.211
-283.530	540.454	0.025	0.060
-282.516	72.044	0.060	0.062
-281.501	473.976	0.104	-0.235
-280.486	-61.540	-0.031	0.013
-279.472	800.000	0.031	-0.127
-278.457	248.677	0.129	0.218
-277.443	297.645	-0.158	0.290
-276.428	71.083	-0.281	-0.291
-275.413	281.624	-0.131	0.235
-274.399	242.127	0.178	-0.296
-273.384	-200.000	0.014	0.095
-272.370	-78.435	0.216	-0.074
-271.355	310.959	0.165	0.309
-270.340	467.913	0.094	0.210
-269.326	-91.692	0.322	-0.091
-268.311	800.000	0.134	-0.498
-267.297	-54.023	-0.450	-0.204
-266.282	-21.434	0.125	0.076
-265.267	124.829	-0.300	-0.376
-264.253	-171.830	0.073	-0.002
-263.238	-158.198	0.158	-0.009
-262.224	357.433	-0.032	-0.064
-261.209	52.410	0.120	-0.114
-260.195	-131.077	0.228	-0.030
-259.180	-200.000	-0.036	-0.551
-258.165	-200.000	-0.032	0.271
-257.151	-105.202	-0.367	-0.084
-256.136	106.364	-0.334	-0.395
-255.122	89.220	-0.099	0.110
-254.107	800.000	-0.047	-0.189
-253.092	-43.107	-0.119	-0.060
-252.078	800.000	0.071	-0.226
-251.063	-110.806	-0.172	-0.035
-250.049	-115.583	-0.345	0.065
-249.034	487.356	0.169	0.385
-248.019	351.124	-0.056	-0.110
-247.005	89.185	0.103	0.114
-245.990	-123.008	-0.077	-0.012
-244.976	26.999	-0.098	-0.082
-243.961	-105.369	0.277	-0.063
-242.946	195.327	0.079	0.120
-241.932	347.975	-0.101	-0.198
-240.917	511.266	0.180	0.417
-239.903	-200.000	-0.047	0.272
-238.888	178.374	-0.090	0.131
-237.873	-130.896	0.369	-0.049
-236.859	-78.167	-0.163	0.056
-235.844	-9.033	0.165	-0.110
-234.830	-200.000	-0.031	0.212
-233.815	76.290	0.042	-0.044
-232.800	800.000	0.107	0.294
-231.786	-200.000	0.009	0.114
-230.771	43.417	0.108	0.098
-229.757	-75.857	-0.061	-0.022
-228.742	3.367	-0.234	-0.170
-227.727	-45.389	0.376	0.186
-226.713	800.000	-0.050	0.155
-225.698	259.398	-0.216	-0.371
-224.684	-102.542	0.233	0.055
-223.669	800.000	-0.072	-0.253
-222.655	131.974	0.065	-0.083
-221.640	800.000	-0.035	-0.124
-220.625	800.000	-0.070	0.272
-219.611	23.345	-0.122	0.100
-218.596	-50.041	0.248	-0.117
-217.582	-200.000	0.017	-0.222
-216.567	-110.309	0.131	-0.027
-215.552	-160.194	-0.148	-0.008
-214.538	97.213	0.107	-0.123
-213.523	800.000	-0.072	0.270
-212.509	-71.114	-0.146	0.055
-211.494	323.399	0.105	-0.199
-210.479	800.000	0.031	-0.108
-209.465	148.247	-0.067	0.090
-208.450	-199.725	0.181	-0.001
-207.436	5.536	0.078	-0.057
-206.421	-142.928	0.139	-0.013
-205.406	647.990	-0.093	-0.237
-204.392	-71.466	-0.322	-0.120
-203.377	38.552	0.135	0.120
-202.363	370.768	-0.027	0.054
-201.348	348.051	-0.113	-0.221
-200.333	-112.286	0.225	-0.045
-199.319	288.603	0.134	-0.242
-198.304	539.697	0.054	0.128
-197.290	-138.228	0.337	-0.037
-196.275	-200.000	0.214	0.000
-195.260	31.881	-0.218	0.187
-194.246	303.477	0.142	-0.262
-193.231	-123.239	0.176	-0.028
-192.217	-95.596	0.095	0.025
-191.202	109.726	0.156	-0.186
-190.187	-111.333	0.187	0.038
-189.173	-200.000	0.014	-0.077
-188.158	48.252	0.145	-0.135
-187.144	-6.613	-0.205	-0.139
-186.129	43.186	0.058	-0.053
-185.114	-13.851	-0.073	0.047
-184.100	20.439	-0.068	0.055
-183.085	-13.767	0.286	-0.184
-182.071	15.910	0.144	-0.113
-181.056	290.400	0.099	-0.179
-180.042	-100.284	0.223	0.055
-179.027	58.713	0.085	0.083
-178.012	-55.952	0.297	0.132
-176.998	683.552	0.098	0.254
-175.983	-200.000	-0.053	0.261
-174.969	-132.695	-0.026	-0.003
-173.954	800.000	0.032	-0.102
-172.939	-178.465	0.360	-0.008
-171.925	-2.821	-0.070	-0.049
-170.910	539.716	-0.130	0.308
-169.896	-83.111	-0.166	0.053
-168.881	493.430	0.081	-0.185
-167.866	400.286	0.066	0.138
-166.852	-200.000	-0.000	-0.066
-165.837	79.145	-0.215	-0.228
-164.823	-104.684	-0.106	0.024
-163.808	-125.541	-0.184	-0.028
-162.793	-200.000	0.018	0.196
-161.779	-200.000	0.056	0.374
-160.764	-84.480	-0.340	-0.107
-159.750	-81.868	-0.038	-0.012
-158.735	-92.133	0.072	-0.020
-157.720	-200.000	0.023	-0.105
-156.706	28.873	0.036	0.030
-155.691	-200.000	-0.003	-0.059
-154.677	-106.612	-0.129	-0.029
-153.662	649.902	0.077	-0.195
-152.647	156.069	-0.151	0.207
-151.633	800.000	-0.116	0.387
-150.618	-37.571	0.518	0.274
-149.604	-53.186	0.092	0.042
-148.589	800.000	-0.023	-0.076
-147.574	800.000	0.063	-0.219
-146.560	-200.000	0.013	0.065
-145.545	-13.746	0.415	0.266
-144.531	161.443	0.257	-0.357
-143.516	800.000	-0.046	0.189
-142.502	-187.003	-0.217	0.003
-141.487	227.901	-0.105	0.169
-140.472	-70.621	-0.148	0.055
-139.458	-73.496	0.323	0.117
-138.443	31.296	-0.302	-0.257
-137.429	800.000	-0.062	0.199
-136.414	207.909	-0.188	0.291
-135.399	-35.197	0.223	0.121
-134.385	4.796	-0.213	0.155
-133.370	602.653	-0.105	-0.259
-132.356	30.635	-0.430	-0.365
-131.341	-122.689	-0.190	0.031
-130.326	-23.108	0.127	-0.076
-129.312	-117.009	-0.036	-0.007
-128.297	-11.681	-0.205	0.134
-127.283	-43.268	0.293	-0.147
-126.268	800.000	-0.005	-0.015
-125.253	1.583	0.218	-0.156
-124.239	-50.549	-0.186	0.087
-123.224	-8.613	-0.255	-0.170
-122.210	-200.000	-0.014	0.125
-121.195	40.039	-0.360	-0.321
