DTS Sentinel unit serial number:	SN413079Multiplexer serial number:	ORYXHardware model number:	OX4-SRSoftware version number:	ORYX F/W v4.00 Oryx Data Collector v3.7.2.0data status	okinstallation	princeton_trtdifferential loss correction	single-endedforward channel	channel 2reverse channel	N/Adate	2019/09/18time	02:59:34forward acquisition time	60.00reverse acquisition time	0.00gamma	496.2192k internal	0.2349k external	0.2349temperature offset calibration	0.9982default loss term (dB/km)	0.3790temperature slope calibration	1.0000multiplexer offset coefficient	1.0000multiplexer slope coefficient	1.0000fibre end	0.00T internal ref (°C)	22.75T ext. ref 1 (°C)	0.16T ext. ref 2 (°C)	16.70length (m)	temperature (°C)	Stokes	anti-Stokes-747.200	-200.000	0.044	0.396
-746.185	800.000	-0.051	0.143
-745.171	215.063	0.103	0.164
-744.156	-95.959	-0.163	0.043
-743.142	-51.375	-0.196	-0.091
-742.127	-200.000	-0.063	0.693
-741.112	-200.000	0.016	-0.076
-740.098	-163.452	0.360	-0.017
-739.083	-200.000	-0.004	-0.028
-738.069	12.519	-0.183	-0.141
-737.054	73.500	-0.072	0.075
-736.039	-200.000	0.013	0.066
-735.025	-170.020	-0.203	-0.007
-734.010	213.304	-0.077	-0.121
-732.996	584.557	-0.081	0.198
-731.981	185.739	-0.128	-0.189
-730.966	429.318	-0.054	-0.117
-729.952	-200.000	0.029	-0.170
-728.937	46.373	0.268	0.248
-727.923	800.000	0.021	-0.084
-726.908	-181.159	0.227	0.005
-725.894	-200.000	0.037	-0.191
-724.879	477.651	-0.110	-0.248
-723.864	-3.706	-0.333	-0.231
-722.850	-110.076	0.201	-0.042
-721.835	-200.000	0.005	0.149
-720.821	0.666	-0.301	0.215
-719.806	46.655	-0.105	-0.097
-718.791	730.094	0.057	0.151
-717.777	744.123	0.089	-0.240
-716.762	-92.449	-0.137	-0.039
-715.748	-200.000	-0.002	-0.131
-714.733	-63.257	-0.328	-0.135
-713.718	-60.472	0.542	-0.230
-712.704	800.000	0.043	-0.171
-711.689	-130.269	0.271	0.037
-710.675	-145.018	-0.384	0.035
-709.660	-155.400	-0.301	0.019
-708.645	80.000	-0.050	-0.053
-707.631	-55.557	0.130	-0.058
-706.616	-25.985	0.153	-0.090
-705.602	-200.000	-0.003	0.025
-704.587	-200.000	0.004	0.175
-703.572	800.000	0.087	0.346
-702.558	-10.754	-0.365	-0.240
-701.543	-141.023	-0.232	0.024
-700.529	96.713	-0.058	0.067
-699.514	-53.242	0.172	0.079
-698.499	-105.651	-0.184	0.041
-697.485	187.117	-0.129	0.191
-696.470	-200.000	0.048	0.551
-695.456	-57.567	0.139	0.061
-694.441	-86.242	0.230	-0.071
-693.426	3.964	-0.174	-0.127
-692.412	-27.616	0.169	-0.098
-691.397	-153.409	0.122	-0.008
-690.383	368.513	0.077	-0.156
-689.368	95.686	0.041	-0.046
-688.354	41.424	-0.098	-0.088
-687.339	-31.203	0.125	-0.070
-686.324	-200.000	-0.070	0.454
-685.310	156.788	0.093	-0.128
-684.295	532.817	-0.026	0.062
-683.281	510.449	-0.156	0.362
-682.266	684.302	-0.056	-0.146
-681.251	-200.000	-0.013	0.333
-680.237	-82.264	-0.265	0.086
-679.222	399.443	-0.111	-0.233
-678.208	127.563	0.082	-0.104
-677.193	90.681	-0.135	-0.151
-676.178	22.916	-0.250	-0.204
-675.164	-31.399	-0.151	0.084
-674.149	-154.899	0.329	-0.022
-673.135	101.172	0.127	-0.148
-672.120	193.027	0.135	-0.204
-671.105	79.574	-0.090	0.096
-670.091	-200.000	0.046	-0.330
-669.076	100.834	0.029	0.033
-668.062	-114.026	-0.077	-0.015
-667.047	-0.051	0.160	0.113
-666.032	116.346	-0.119	-0.146
-665.018	-200.000	0.010	0.078
-664.003	-104.980	-0.102	-0.023
-662.989	114.656	-0.131	-0.158
-661.974	127.650	0.072	0.091
-660.959	-38.415	-0.099	0.052
-659.945	-23.249	0.051	-0.030
-658.930	-142.311	-0.349	-0.034
-657.916	159.410	-0.063	-0.088
-656.901	-25.947	-0.256	-0.150
-655.886	-200.000	0.004	-0.077
-654.872	733.997	-0.187	0.499
-653.857	57.401	0.229	-0.223
-652.843	-104.229	-0.381	-0.088
-651.828	-200.000	0.006	0.097
-650.814	800.000	-0.052	0.166
-649.799	-200.000	-0.012	0.259
-648.784	62.974	-0.158	-0.158
-647.770	800.000	-0.069	0.271
-646.755	-5.208	0.161	0.110
-645.741	-200.000	0.057	-0.333
-644.726	-200.000	-0.001	0.303
-643.711	-74.429	0.091	0.033
-642.697	800.000	-0.024	0.071
-641.682	-86.786	0.269	-0.082
-640.668	-101.622	-0.195	0.047
-639.653	81.837	-0.099	-0.106
-638.638	-200.000	-0.031	-0.235
-637.624	-200.000	-0.096	-0.438
-636.609	105.786	0.126	0.148
-635.595	35.875	-0.122	0.107
-634.580	-90.756	0.316	-0.091
-633.565	-174.991	0.067	-0.002
-632.551	-163.127	-0.310	-0.015
-631.536	-86.909	0.055	0.017
-630.522	-200.000	-0.053	-0.454
-629.507	-60.003	0.112	-0.048
-628.492	260.177	-0.130	0.224
-627.478	800.000	0.062	0.210
-626.463	-49.387	-0.128	0.061
-625.449	-200.000	-0.009	-0.083
-624.434	31.901	0.104	0.089
-623.419	307.363	0.023	0.042
-622.405	-57.664	0.193	-0.084
-621.390	83.151	0.206	-0.222
-620.376	800.000	-0.072	0.278
-619.361	80.950	-0.172	0.185
-618.346	-37.863	-0.305	-0.161
-617.332	-14.020	-0.152	-0.097
-616.317	800.000	-0.113	-0.347
-615.303	498.198	-0.133	-0.304
-614.288	-75.413	0.208	-0.074
-613.273	171.524	-0.213	0.303
-612.259	675.950	-0.094	-0.243
-611.244	64.192	0.049	0.049
-610.230	-160.378	-0.263	0.014
-609.215	228.665	-0.088	-0.143
-608.201	-200.000	-0.014	-0.227
-607.186	57.222	0.163	0.158
-606.171	-200.000	-0.003	0.452
-605.157	800.000	-0.071	-0.278
-604.142	-3.418	0.210	0.145
-603.128	-46.311	-0.259	-0.126
-602.113	800.000	-0.070	0.195
-601.098	133.508	-0.149	-0.192
-600.084	97.998	-0.169	-0.193
-599.069	48.472	-0.045	0.042
-598.055	-70.776	0.166	-0.062
-597.040	-55.942	-0.152	0.067
-596.025	-100.983	0.111	0.027
-595.011	377.980	-0.126	-0.256
-593.996	8.351	0.362	-0.270
-592.982	539.283	-0.088	0.209
-591.967	-116.667	0.176	0.032
-590.952	102.279	-0.189	0.219
-589.938	-200.000	0.006	0.187
-588.923	298.633	0.096	-0.176
-587.909	-200.000	0.026	-0.115
-586.894	25.116	-0.131	0.108
-585.879	-200.000	-0.031	0.238
-584.865	-12.849	0.079	0.051
-583.850	620.144	0.111	-0.276
-582.836	-3.188	-0.116	0.080
-581.821	-200.000	0.031	-0.216
-580.806	91.185	-0.080	-0.089
-579.792	-3.320	-0.293	0.203
-578.777	-200.000	0.032	0.202
-577.763	151.394	-0.094	0.127
-576.748	800.000	-0.072	-0.231
-575.733	-200.000	-0.031	0.417
-574.719	-91.101	-0.077	-0.022
-573.704	-49.486	0.255	0.120
-572.690	6.262	0.118	-0.087
-571.675	-200.000	0.044	0.254
-570.661	84.547	-0.129	-0.140
-569.646	-200.000	-0.001	0.099
-568.631	205.187	0.223	-0.343
-567.617	800.000	0.059	-0.178
-566.602	-200.000	0.061	-0.286
-565.588	11.315	-0.418	0.317
-564.573	-149.897	0.181	-0.014
-563.558	20.897	0.124	-0.100
-562.544	-143.721	-0.552	-0.052
-561.529	-178.101	0.100	0.002
-560.515	-200.000	-0.012	0.202
-559.500	-5.304	-0.256	-0.175
-558.485	387.304	0.084	-0.172
-557.471	-152.675	0.151	-0.011
-556.456	-140.077	-0.190	0.020
-555.442	-51.441	0.199	0.092
-554.427	107.847	-0.128	-0.151
-553.412	-200.000	-0.001	-0.031
-552.398	-85.207	0.038	0.012
-551.383	158.614	-0.111	0.153
-550.369	-88.458	-0.031	0.009
-549.354	-40.586	-0.025	-0.013
-548.339	55.079	-0.191	-0.183
-547.325	324.728	0.080	0.151
-546.310	174.419	-0.166	0.238
-545.296	257.841	0.072	0.122
-544.281	-113.792	0.227	0.044
-543.266	162.538	-0.083	-0.115
-542.252	55.688	-0.104	0.100
-541.237	294.467	0.101	-0.183
-540.223	144.759	0.099	-0.132
-539.208	-200.000	0.045	-0.228
-538.193	-75.122	-0.119	-0.042
-537.179	294.911	-0.258	-0.467
-536.164	236.988	-0.228	0.374
-535.150	9.318	-0.182	0.136
-534.135	217.172	-0.134	-0.211
-533.121	334.606	0.025	-0.049
-532.106	138.836	-0.247	0.322
-531.091	280.569	0.087	-0.155
-530.077	-108.822	0.265	0.056
-529.062	800.000	0.077	0.265
-528.048	103.259	0.075	-0.087
-527.033	513.612	0.129	-0.298
-526.018	17.225	-0.203	-0.159
-525.004	-200.000	0.026	-0.385
-523.989	-95.195	-0.306	0.082
-522.975	-6.320	0.225	-0.152
-521.960	119.705	-0.248	-0.304
-520.945	-197.621	0.173	-0.001
-519.931	84.863	0.038	0.042
-518.916	83.515	-0.223	-0.241
-517.902	140.555	0.138	-0.181
-516.887	-58.689	-0.121	-0.052
-515.872	115.403	-0.064	-0.077
-514.858	186.712	-0.100	-0.147
-513.843	261.409	0.105	0.180
-512.829	800.000	0.038	0.138
-511.814	-93.972	-0.363	-0.099
-510.799	-64.860	0.128	0.051
-509.785	-200.000	0.016	0.181
-508.770	800.000	0.013	-0.056
-507.756	-113.423	0.061	-0.012
-506.741	27.975	-0.143	0.119
-505.726	23.833	-0.173	-0.141
-504.712	-88.079	0.218	-0.065
-503.697	-18.843	0.261	0.161
-502.683	-65.946	-0.238	-0.094
-501.668	-200.000	-0.047	0.222
-500.653	15.471	0.111	0.086
-499.639	-108.398	-0.023	0.005
-498.624	-93.293	-0.131	-0.036
-497.610	-200.000	0.010	0.075
-496.595	422.462	0.117	-0.248
-495.581	291.502	0.052	0.094
-494.566	222.933	-0.072	0.114
-493.551	-200.000	-0.019	-0.174
-492.537	-200.000	0.019	-0.147
-491.522	480.438	0.027	-0.061
-490.508	84.726	-0.247	-0.267
-489.493	35.631	0.213	0.185
-488.478	564.589	-0.050	-0.121
-487.464	-157.261	-0.170	-0.010
-486.449	254.530	0.106	0.179
-485.435	-200.000	0.041	-0.415
-484.420	178.966	-0.160	-0.231
-483.405	-46.509	-0.177	0.086
-482.391	98.203	-0.136	-0.155
-481.376	-68.102	0.222	-0.086
-480.362	-38.787	0.176	0.092
-479.347	399.545	0.127	-0.263
-478.332	67.944	0.130	-0.131
-477.318	114.170	-0.178	-0.214
-476.303	17.705	-0.065	-0.051
-475.289	362.313	-0.108	-0.215
-474.274	523.265	0.047	-0.108
-473.259	-200.000	0.015	0.198
-472.245	-72.219	-0.621	0.227
-471.230	-200.000	0.073	0.362
-470.216	2.994	-0.213	0.153
-469.201	119.149	-0.065	0.079
-468.186	-200.000	-0.019	0.147
-467.172	193.009	0.078	0.116
-466.157	-153.855	0.033	0.002
-465.143	-200.000	-0.058	0.316
-464.128	-126.484	0.216	0.032
-463.113	318.266	0.084	0.157
-462.099	-67.951	-0.082	-0.032
-461.084	-105.915	0.322	-0.072
-460.070	800.000	0.032	0.091
-459.055	93.096	0.291	0.325
-458.040	-139.161	-0.253	0.027
-457.026	-63.010	-0.589	0.240
-456.011	13.612	-0.364	0.279
-454.997	800.000	-0.049	-0.157
-453.982	155.122	0.127	0.173
-452.968	-86.572	-0.275	0.083
-451.953	800.000	-0.038	-0.106
-450.938	-97.317	-0.219	-0.056
-449.924	56.135	0.187	-0.179
-448.909	-27.177	-0.317	-0.182
-447.895	61.500	0.152	0.149
-446.880	193.014	0.085	0.126
-445.865	738.280	0.026	0.069
-444.851	-200.000	0.019	-0.157
-443.836	-140.034	0.161	-0.017
-442.822	-130.255	0.108	-0.014
-441.807	-200.000	0.042	0.313
-440.792	51.354	0.219	0.205
-439.778	-61.020	0.211	-0.088
-438.763	-138.982	0.275	-0.029
-437.749	-37.285	-0.138	-0.073
-436.734	-2.506	0.154	-0.106
-435.719	-17.206	-0.130	-0.081
-434.705	-25.431	0.191	-0.111
-433.690	44.464	0.218	0.197
-432.676	173.660	0.124	-0.177
-431.661	-69.046	0.349	-0.133
-430.646	-67.448	0.107	-0.041
-429.632	-102.170	-0.035	-0.008
-428.617	71.742	0.218	0.223
-427.603	-200.000	0.014	0.150
-426.588	800.000	-0.044	0.136
-425.573	200.139	0.236	0.358
-424.559	57.763	0.126	0.121
-423.544	-14.874	0.167	-0.106
-422.530	800.000	0.094	0.277
-421.515	-95.596	0.134	0.035
-420.500	-25.815	0.368	-0.214
-419.486	800.000	0.091	-0.281
-418.471	166.079	-0.062	-0.087
-417.457	-134.413	-0.176	-0.021
-416.442	-200.000	-0.009	-0.113
-415.428	130.376	-0.174	-0.219
-414.413	-200.000	-0.005	0.220
-413.398	24.150	-0.195	-0.159
-412.384	-200.000	-0.018	-0.175
-411.369	800.000	-0.145	0.397
-410.355	290.735	-0.044	-0.078
-409.340	-133.795	0.294	0.036
-408.325	709.270	0.042	0.109
-407.311	52.287	-0.137	0.129
-406.296	-61.390	0.314	-0.130
-405.282	42.597	0.067	0.060
-404.267	3.993	-0.125	-0.090
-403.252	100.818	-0.180	-0.206
-402.238	800.000	-0.098	0.363
-401.223	-54.668	0.225	0.100
-400.209	172.260	-0.065	-0.093
-399.194	561.721	0.047	-0.111
-398.179	20.068	-0.189	0.150
-397.165	-31.250	0.105	-0.058
-396.150	800.000	-0.024	0.101
-395.136	31.937	0.223	-0.189
-394.121	43.527	0.152	-0.137
-393.106	800.000	0.040	-0.114
-392.092	-200.000	0.023	-0.130
-391.077	73.895	0.025	-0.026
-390.063	201.835	-0.185	0.282
-389.048	629.026	-0.030	0.074
-388.033	34.502	-0.002	0.002
-387.019	179.068	0.090	-0.129
-386.004	8.668	-0.313	0.232
-384.990	-92.289	0.121	-0.034
-383.975	114.481	0.076	0.091
-382.960	-54.682	0.127	0.056
-381.946	200.075	0.114	-0.172
-380.931	72.378	0.208	-0.214
-379.917	486.752	0.019	-0.042
-378.902	-145.456	-0.196	0.017
-377.888	113.683	-0.089	0.107
-376.873	-74.145	-0.139	-0.050
-375.858	136.059	0.099	0.127
-374.844	253.257	0.142	0.239
-373.829	124.311	-0.186	0.230
-372.815	4.087	-0.112	-0.081
-371.800	-200.000	-0.035	-0.448
-370.785	94.490	-0.111	0.124
-369.771	-200.000	-0.007	-0.119
-368.756	-17.855	-0.114	-0.070
-367.742	-60.766	-0.171	-0.071
-366.727	18.264	-0.087	0.069
-365.712	-12.822	-0.109	0.070
-364.698	118.887	0.117	-0.142
-363.683	800.000	0.097	-0.298
-362.669	611.386	-0.062	-0.153
-361.654	-200.000	-0.045	0.209
-360.639	-200.000	0.057	0.257
-359.625	518.255	0.026	-0.060
-358.610	196.629	0.112	0.168
-357.596	800.000	0.024	0.067
-356.581	-70.601	0.253	-0.094
-355.566	-200.000	0.013	-0.119
-354.552	-64.405	-0.183	-0.073
-353.537	-14.112	0.095	-0.060
-352.523	212.727	-0.093	0.144
-351.508	142.016	0.204	0.267
-350.493	100.118	0.066	0.075
-349.479	-132.422	-0.121	-0.015
-348.464	-74.502	-0.081	0.029
-347.450	19.296	-0.105	-0.083
-346.435	-89.249	-0.111	0.032
-345.420	800.000	0.030	0.125
-344.406	-73.774	-0.253	-0.090
-343.391	-114.705	0.196	0.037
-342.377	-133.885	-0.254	-0.031
-341.362	142.367	0.409	0.533
-340.348	-43.020	-0.283	0.141
-339.333	-6.842	0.163	-0.109
-338.318	-200.000	-0.026	-0.179
-337.304	-172.111	-0.396	-0.013
-336.289	-88.976	0.538	0.156
-335.275	187.948	0.107	0.158
-334.260	-12.871	-0.145	-0.093
-333.245	42.857	0.118	-0.105
-332.231	800.000	0.058	0.211
-331.216	-83.945	0.475	0.149
-330.202	-84.651	0.232	0.072
-329.187	-200.000	-0.004	0.102
-328.172	-200.000	-0.047	0.279
-327.158	89.129	0.307	0.336
-326.143	656.874	0.114	0.289
-325.129	-200.000	-0.043	-0.339
-324.114	-6.877	0.057	-0.038
-323.099	-200.000	-0.108	-0.487
-322.085	-200.000	0.029	-0.153
-321.070	-200.000	-0.032	0.226
-320.056	119.297	0.113	-0.137
-319.041	-124.897	-0.268	0.041
-318.026	-38.508	0.126	-0.065
-317.012	230.783	0.205	-0.330
-315.997	-192.675	0.113	0.001
-314.983	-115.176	0.114	0.021
-313.968	281.874	-0.129	-0.228
-312.953	-200.000	0.001	-0.053
-311.939	98.176	-0.230	-0.260
-310.924	-122.573	0.118	-0.019
-309.910	-64.514	0.134	0.053
-308.895	-200.000	-0.019	0.219
-307.880	800.000	-0.111	0.359
-306.866	15.858	-0.280	0.216
-305.851	-200.000	-0.072	-0.427
-304.837	29.798	0.114	0.095
-303.822	-13.853	-0.127	-0.080
-302.807	-200.000	-0.001	0.139
-301.793	800.000	-0.126	0.376
-300.778	-133.132	0.187	0.023
-299.764	-84.723	0.156	-0.048
-298.749	-200.000	-0.005	0.035
-297.735	346.909	-0.138	-0.266
-296.720	63.782	0.092	-0.091
-295.705	-79.505	-0.328	-0.109
-294.691	-22.953	-0.207	0.123
-293.676	800.000	0.010	0.032
-292.662	94.597	-0.083	-0.092
-291.647	-94.143	0.256	0.069
-290.632	105.006	0.171	-0.198
-289.618	116.369	0.050	-0.060
-288.603	148.426	-0.143	-0.189
-287.589	6.494	-0.272	0.198
-286.574	-50.187	0.335	0.155
-285.559	-86.768	0.093	0.028
-284.545	800.000	-0.056	-0.241
-283.530	-112.780	-0.453	-0.088
-282.516	66.152	-0.136	0.135
-281.501	-60.803	0.510	0.212
-280.486	62.676	-0.143	-0.141
-279.472	-49.033	-0.122	-0.057
-278.457	216.567	0.137	0.214
-277.443	108.105	-0.186	-0.217
-276.428	-153.337	0.182	-0.012
-275.413	103.954	0.078	-0.090
-274.399	800.000	0.089	-0.276
-273.384	27.295	0.156	-0.128
-272.370	474.719	0.098	-0.216
-271.355	35.250	0.187	0.161
-270.340	7.106	0.292	0.214
-269.326	34.324	-0.105	-0.090
-268.311	20.765	-0.339	-0.269
-267.297	800.000	-0.019	-0.082
-266.282	-99.243	-0.184	-0.045
-265.267	800.000	-0.076	0.252
-264.253	-106.051	-0.228	-0.050
-263.238	61.892	0.199	0.194
-262.224	-132.244	-0.103	0.013
-261.209	-156.700	0.201	-0.012
-260.195	63.605	0.399	0.393
-259.180	-200.000	-0.081	0.358
-258.165	-19.981	0.291	-0.176
-257.151	521.320	0.040	-0.091
-256.136	-200.000	-0.012	0.114
-255.122	800.000	-0.108	0.295
-254.107	431.457	0.082	0.174
-253.092	-200.000	0.019	0.241
-252.078	243.419	0.213	0.350
-251.063	54.544	-0.104	-0.098
-250.049	145.977	-0.160	0.210
-249.034	800.000	0.123	-0.475
-248.019	-101.560	-0.322	-0.077
-247.005	8.934	0.238	-0.176
-245.990	65.190	-0.076	0.075
-244.976	-65.204	0.169	0.067
-243.961	800.000	0.072	0.259
-242.946	-59.828	0.265	0.111
-241.932	-200.000	-0.021	-0.168
-240.917	97.823	0.243	0.273
-239.903	-96.496	-0.343	0.089
-238.888	-122.922	-0.204	-0.032
-237.873	-19.842	-0.174	-0.106
-236.859	-21.057	0.110	0.066
-235.844	370.232	-0.040	-0.080
-234.830	-121.723	0.042	0.007
-233.815	-32.652	-0.153	0.083
-232.800	-132.706	-0.159	-0.020
-231.786	800.000	-0.023	0.076
-230.771	-153.192	-0.385	-0.026
-229.757	-119.840	-0.070	-0.012
-228.742	-140.297	-0.091	-0.009
-227.727	330.826	-0.100	-0.189
-226.713	-70.123	-0.256	0.095
-225.698	67.028	-0.095	-0.095
-224.684	800.000	-0.046	-0.132
-223.669	162.638	-0.152	-0.209
-222.655	-200.000	0.077	-0.335
-221.640	-200.000	-0.041	-0.326
-220.625	800.000	-0.051	-0.215
-219.611	-57.804	0.182	0.078
-218.596	-48.818	0.127	0.060
-217.582	-200.000	0.014	0.192
-216.567	98.646	-0.211	-0.238
-215.552	78.471	0.062	0.065
-214.538	-19.889	-0.162	-0.098
-213.523	424.710	-0.064	0.135
-212.509	-200.000	-0.025	0.248
-211.494	23.677	0.261	0.210
-210.479	605.005	0.069	-0.169
-209.465	-134.717	0.220	0.026
-208.450	800.000	-0.048	-0.152
-207.436	46.351	0.038	0.035
-206.421	-200.000	-0.002	-0.007
-205.406	-200.000	0.012	-0.156
-204.392	-122.259	-0.480	0.077
-203.377	-109.091	0.105	-0.022
-202.363	-114.321	0.479	0.090
-201.348	800.000	-0.074	-0.232
-200.333	-80.736	0.246	0.080
-199.319	-42.311	0.340	-0.169
-198.304	609.336	-0.126	-0.308
-197.290	170.440	-0.078	0.109
-196.275	800.000	-0.048	0.203
-195.260	-59.146	0.306	-0.129
-194.246	-16.265	0.304	0.188
-193.231	-200.000	-0.020	-0.156
-192.217	100.473	-0.102	0.116
-191.202	162.472	0.121	-0.166
-190.187	98.423	0.132	-0.149
-189.173	-57.722	-0.240	0.103
-188.158	722.960	0.080	-0.208
-187.144	-66.784	-0.411	-0.159
-186.129	-200.000	0.018	0.096
-185.114	143.459	-0.028	0.036
-184.100	-75.507	-0.294	-0.102
-183.085	800.000	-0.096	0.317
-182.071	262.983	0.182	0.308
-181.056	-122.885	0.335	0.053
-180.042	800.000	-0.055	0.184
-179.027	-61.656	0.369	-0.151
-178.012	26.052	-0.226	-0.184
-176.998	-105.084	-0.240	0.054
-175.983	-3.155	0.119	0.081
-174.969	800.000	-0.044	0.124
-173.954	800.000	-0.116	0.318
-172.939	287.478	-0.084	-0.149
-171.925	-200.000	-0.003	-0.175
-170.910	-69.429	-0.024	-0.009
-169.896	800.000	0.062	-0.173
-168.881	-53.260	-0.082	0.037
-167.866	-101.136	0.095	-0.023
-166.852	-164.465	0.128	0.006
-165.837	-62.712	-0.074	-0.030
-164.823	213.852	0.126	-0.195
-163.808	-110.025	-0.475	0.097
-162.793	633.540	0.141	-0.349
-161.779	-100.494	0.209	0.051
-160.764	-200.000	-0.004	0.276
-159.750	-200.000	0.033	0.374
-158.735	65.927	0.145	0.143
-157.720	800.000	0.079	0.241
-156.706	-125.046	0.497	0.075
-155.691	800.000	0.016	0.062
-154.677	307.782	-0.023	-0.041
-153.662	-200.000	-0.014	0.129
-152.647	391.837	0.036	0.072
-151.633	-86.536	0.189	-0.057
-150.618	-0.809	-0.134	-0.093
-149.604	-158.222	0.133	-0.008
-148.589	800.000	0.021	-0.070
-147.574	37.513	-0.013	0.011
-146.560	800.000	-0.025	-0.089
-145.545	-200.000	0.034	-0.170
-144.531	-171.025	0.315	0.010
-143.516	444.351	0.056	-0.120
-142.502	-63.597	0.305	0.122
-141.487	-128.650	0.402	0.055
-140.472	219.041	-0.053	0.082
-139.458	-200.000	0.035	0.336
-138.443	-46.090	-0.073	-0.035
-137.429	116.992	0.274	-0.328
-136.414	-154.205	-0.179	0.012
-135.399	800.000	0.097	-0.352
-134.385	46.829	0.081	0.073
-133.370	-105.778	-0.092	0.020
-132.356	1.115	-0.228	0.160
-131.341	26.002	-0.146	0.118
-130.326	554.687	-0.021	0.050
-129.312	198.527	0.014	-0.021
-128.297	-32.242	0.400	-0.218
-127.283	-55.411	0.403	-0.176
-126.268	308.366	0.187	-0.341
-125.253	77.754	0.075	-0.078
-124.239	44.010	0.169	-0.151
-123.224	-61.749	-0.098	0.040
-122.210	310.986	-0.064	0.116
-121.195	231.220	0.233	-0.371
