DTS Sentinel unit serial number:	SN413079Multiplexer serial number:	ORYXHardware model number:	OX4-SRSoftware version number:	ORYX F/W v4.00 Oryx Data Collector v3.7.2.0data status	okinstallation	princeton_trtdifferential loss correction	single-endedforward channel	channel 2reverse channel	N/Adate	2019/09/13time	23:35:34forward acquisition time	60.00reverse acquisition time	0.00gamma	496.2192k internal	0.2338k external	0.2338temperature offset calibration	1.0127default loss term (dB/km)	0.3790temperature slope calibration	1.0000multiplexer offset coefficient	1.0000multiplexer slope coefficient	1.0000fibre end	0.00T internal ref (°C)	26.77T ext. ref 1 (°C)	3.18T ext. ref 2 (°C)	21.05length (m)	temperature (°C)	Stokes	anti-Stokes-747.200	800.000	0.098	-0.291
-746.185	60.370	-0.278	-0.276
-745.171	269.934	0.127	-0.224
-744.156	-138.179	0.047	0.005
-743.142	800.000	-0.050	0.141
-742.127	-96.285	-0.564	0.150
-741.112	-200.000	-0.006	0.216
-740.098	-100.917	0.148	-0.036
-739.083	-96.050	0.155	-0.041
-738.069	-157.088	-0.246	0.015
-737.054	660.047	0.060	-0.156
-736.039	-57.092	-0.331	0.146
-735.025	242.235	0.115	-0.192
-734.010	-58.804	0.133	-0.058
-732.996	15.291	-0.082	-0.065
-731.981	38.008	-0.150	0.134
-730.966	-200.000	-0.403	-0.001
-729.952	-200.000	0.018	-0.212
-728.937	-200.000	-0.006	-0.116
-727.923	-62.901	-0.267	-0.111
-726.908	-155.193	0.178	-0.012
-725.894	-138.742	0.213	0.023
-724.879	-116.616	-0.123	-0.023
-723.864	-200.000	0.029	-0.258
-722.850	800.000	0.021	0.090
-721.835	800.000	0.064	-0.203
-720.821	800.000	-0.079	0.277
-719.806	235.257	0.114	0.189
-718.791	-46.085	-0.124	0.061
-717.777	-69.478	0.119	0.046
-716.762	-102.687	0.361	-0.086
-715.748	800.000	-0.041	0.155
-714.733	-6.878	0.303	0.206
-713.718	85.731	-0.286	-0.315
-712.704	214.351	-0.199	-0.315
-711.689	108.424	0.113	-0.136
-710.675	-35.768	-0.273	-0.148
-709.660	127.713	0.200	0.255
-708.645	-116.692	-0.157	0.029
-707.631	20.008	0.177	0.143
-706.616	-89.869	-0.102	0.030
-705.602	188.478	0.157	-0.235
-704.587	-47.995	0.214	0.104
-703.572	-77.659	-0.240	0.083
-702.558	309.994	-0.038	0.072
-701.543	-135.188	-0.204	-0.025
-700.529	-95.676	0.330	0.088
-699.514	163.688	0.164	-0.231
-698.499	130.938	0.068	0.087
-697.485	232.677	0.118	0.194
-696.470	-84.954	-0.049	-0.016
-695.456	-30.956	0.086	0.048
-694.441	112.889	0.176	0.213
-693.426	-194.588	-0.238	-0.002
-692.412	101.362	0.081	0.095
-691.397	139.173	0.180	-0.237
-690.383	205.267	-0.021	0.033
-689.368	-112.717	-0.305	-0.061
-688.354	-28.320	0.272	0.157
-687.339	-200.000	0.047	-0.366
-686.324	-47.087	-0.299	0.146
-685.310	-200.000	-0.014	0.170
-684.295	576.396	-0.108	-0.265
-683.281	258.715	0.144	-0.249
-682.266	-136.336	-0.183	-0.021
-681.251	-17.695	-0.154	0.097
-680.237	-130.473	0.178	0.024
-679.222	800.000	-0.038	-0.133
-678.208	-200.000	0.075	-0.485
-677.193	331.093	-0.107	-0.206
-676.178	20.078	-0.209	-0.169
-675.164	-105.136	-0.423	0.097
-674.149	-200.000	0.008	-0.101
-673.135	116.290	-0.128	0.157
-672.120	290.868	0.015	0.028
-671.105	193.027	-0.194	-0.294
-670.091	-5.760	-0.019	-0.013
-669.076	800.000	-0.092	0.306
-668.062	-128.696	0.006	0.001
-667.047	-116.926	-0.244	0.045
-666.032	-24.844	0.173	0.103
-665.018	211.188	-0.237	-0.373
-664.003	178.155	-0.093	-0.136
-662.989	-132.824	0.189	-0.024
-661.974	-104.377	-0.138	0.032
-660.959	-5.009	0.013	-0.009
-659.945	-4.716	0.149	-0.103
-658.930	-200.000	-0.025	0.129
-657.916	-133.794	0.329	-0.041
-656.901	-31.143	-0.164	-0.092
-655.886	800.000	-0.092	0.256
-654.872	282.016	-0.056	-0.100
-653.857	116.898	0.326	-0.400
-652.843	-144.284	-0.237	-0.022
-651.828	-83.265	-0.125	0.040
-650.814	-105.757	0.233	-0.053
-649.799	800.000	0.090	0.338
-648.784	34.251	0.094	0.082
-647.770	162.096	0.012	-0.017
-646.755	3.571	0.323	-0.235
-645.741	18.972	0.211	0.169
-644.726	314.835	0.139	-0.261
-643.711	-49.579	-0.354	-0.168
-642.697	432.670	0.106	-0.230
-641.682	241.207	0.067	-0.113
-640.668	602.526	-0.059	-0.147
-639.653	-200.000	0.028	0.264
-638.638	-200.000	0.002	0.112
-637.624	-22.105	0.145	-0.088
-636.609	-34.639	0.251	0.138
-635.595	112.441	0.086	-0.104
-634.580	-53.908	0.055	-0.025
-633.565	-9.142	0.019	-0.012
-632.551	-200.000	-0.003	0.116
-631.536	-60.585	-0.101	-0.043
-630.522	48.362	0.168	-0.157
-629.507	351.367	0.077	-0.153
-628.492	-200.000	-0.014	0.171
-627.478	-124.081	-0.069	-0.011
-626.463	-48.705	-0.069	-0.033
-625.449	2.231	-0.164	-0.118
-624.434	-96.971	-0.100	0.026
-623.419	-57.577	0.189	-0.083
-622.405	212.752	0.047	0.074
-621.390	-177.608	-0.198	0.005
-620.376	800.000	0.042	0.129
-619.361	-3.997	0.006	0.004
-618.346	-70.595	-0.270	0.102
-617.332	28.106	-0.040	-0.034
-616.317	-200.000	-0.021	0.193
-615.303	77.663	-0.211	0.225
-614.288	-65.355	0.259	0.104
-613.273	181.350	-0.094	0.137
-612.259	18.314	-0.185	-0.148
-611.244	-177.522	0.245	0.006
-610.230	-103.270	-0.177	0.042
-609.215	-32.796	0.058	-0.032
-608.201	359.166	0.093	-0.185
-607.186	-200.000	-0.007	0.218
-606.171	185.213	-0.298	0.441
-605.157	75.561	0.149	0.157
-604.142	-200.000	0.002	0.045
-603.128	73.119	-0.122	-0.127
-602.113	305.744	0.074	0.138
-601.098	320.242	-0.136	-0.257
-600.084	-21.362	-0.143	-0.087
-599.069	-75.471	0.164	-0.058
-598.055	201.430	0.043	-0.066
-597.040	-96.223	-0.293	0.077
-596.025	-200.000	-0.002	0.165
-595.011	-139.596	-0.314	-0.033
-593.996	32.494	0.254	-0.219
-592.982	504.665	-0.042	0.098
-591.967	-102.511	0.064	0.015
-590.952	-90.441	-0.098	0.028
-589.938	-200.000	0.028	0.152
-588.923	-153.154	-0.257	0.018
-587.909	174.842	0.162	0.234
-586.894	-200.000	-0.020	0.098
-585.879	-200.000	-0.031	0.228
-584.865	-136.976	0.221	-0.025
-583.850	235.908	-0.207	-0.341
-582.836	216.199	-0.122	-0.194
-581.821	352.339	-0.113	-0.223
-580.806	9.401	-0.223	-0.168
-579.792	-75.499	0.100	-0.035
-578.777	-200.000	0.052	-0.299
-577.763	25.361	-0.266	-0.221
-576.748	-53.403	0.170	0.078
-575.733	-20.909	0.152	0.093
-574.719	749.134	-0.088	0.236
-573.704	-200.000	0.007	0.333
-572.690	11.756	0.128	0.098
-571.675	-30.289	-0.216	-0.122
-570.661	102.546	0.030	-0.035
-569.646	800.000	-0.019	-0.052
-568.631	478.490	-0.109	0.247
-567.617	-91.277	0.135	0.038
-566.602	-200.000	-0.028	-0.165
-565.588	195.898	-0.040	-0.061
-564.573	-98.737	0.158	-0.040
-563.558	521.075	0.040	0.094
-562.544	800.000	0.078	-0.266
-561.529	-200.000	0.027	0.230
-560.515	-200.000	0.021	0.298
-559.500	266.799	-0.035	0.060
-558.485	51.153	-0.071	-0.067
-557.471	31.830	0.218	0.187
-556.456	-41.891	-0.388	0.198
-555.442	-125.493	0.236	-0.036
-554.427	333.678	0.083	0.159
-553.412	-154.131	0.076	-0.005
-552.398	-171.380	0.215	0.007
-551.383	-63.711	-0.194	-0.079
-550.369	43.373	0.026	-0.023
-549.354	91.201	0.104	-0.117
-548.339	-200.000	-0.028	-0.191
-547.325	-200.000	-0.011	0.142
-546.310	800.000	0.081	0.254
-545.296	-24.860	-0.129	0.076
-544.281	81.410	0.162	-0.174
-543.266	-162.020	-0.234	0.012
-542.252	-200.000	-0.015	-0.073
-541.237	-4.076	-0.300	-0.207
-540.223	454.430	0.118	0.261
-539.208	403.591	-0.141	0.295
-538.193	-200.000	0.003	0.134
-537.179	-187.343	-0.030	-0.000
-536.164	228.209	0.025	0.041
-535.150	-110.598	-0.180	-0.037
-534.135	-114.387	-0.283	-0.054
-533.121	94.789	0.066	0.074
-532.106	-76.211	0.232	0.081
-531.091	-53.279	-0.134	0.061
-530.077	223.239	-0.067	-0.107
-529.062	127.493	0.074	-0.093
-528.048	-43.197	-0.167	0.084
-527.033	-56.466	0.400	0.177
-526.018	43.306	0.050	0.045
-525.004	-200.000	-0.023	0.182
-523.989	398.653	-0.039	-0.081
-522.975	44.283	0.173	0.158
-521.960	45.377	0.316	-0.290
-520.945	-144.482	-0.064	-0.006
-519.931	-69.535	0.191	-0.073
-518.916	-142.330	-0.136	0.013
-517.902	-59.311	-0.192	0.082
-516.887	432.181	0.050	-0.109
-515.872	121.661	0.170	-0.211
-514.858	91.930	0.150	-0.168
-513.843	-200.000	0.035	0.172
-512.829	351.251	0.032	-0.062
-511.814	-200.000	0.029	-0.305
-510.799	-19.818	-0.350	-0.215
-509.785	-200.000	-0.026	-0.234
-508.770	105.802	-0.204	-0.240
-507.756	497.557	0.100	-0.230
-506.741	2.673	0.050	-0.036
-505.726	41.130	0.370	0.333
-504.712	-118.192	-0.245	-0.043
-503.697	-144.600	-0.319	0.029
-502.683	189.484	-0.263	0.392
-501.668	238.025	-0.062	-0.102
-500.653	-72.697	-0.207	0.076
-499.639	-120.540	0.204	0.034
-498.624	68.007	-0.108	-0.110
-497.610	-75.128	-0.428	-0.152
-496.595	-46.093	0.159	0.078
-495.581	386.536	0.038	-0.078
-494.566	84.371	0.067	0.073
-493.551	-49.444	0.286	-0.135
-492.537	-147.066	-0.134	-0.011
-491.522	398.624	-0.081	-0.168
-490.508	-200.000	-0.020	-0.130
-489.493	-131.227	-0.230	0.030
-488.478	-34.724	0.301	-0.164
-487.464	-126.834	-0.217	0.032
-486.449	155.176	-0.113	-0.154
-485.435	-55.056	-0.223	0.100
-484.420	-140.503	0.438	0.045
-483.405	-80.707	-0.472	0.156
-482.391	72.256	0.113	0.117
-481.376	-28.499	0.321	0.184
-480.362	154.075	0.056	0.076
-479.347	130.249	0.158	-0.201
-478.332	-103.190	0.222	-0.052
-477.318	-200.000	0.027	-0.147
-476.303	1.022	0.193	-0.137
-475.289	-104.272	0.378	-0.087
-474.274	95.817	-0.094	-0.106
-473.259	-55.297	-0.133	-0.059
-472.245	284.769	-0.155	-0.277
-471.230	800.000	-0.039	0.140
-470.216	-19.010	-0.243	0.150
-469.201	43.893	0.191	-0.174
-468.186	57.046	-0.234	-0.226
-467.172	-121.652	0.071	-0.012
-466.157	-15.077	-0.224	-0.143
-465.143	-181.679	-0.552	0.011
-464.128	762.604	0.089	0.239
-463.113	244.820	-0.064	0.107
-462.099	-126.178	-0.112	0.017
-461.084	34.455	-0.166	-0.144
-460.070	670.577	0.084	0.216
-459.055	304.219	-0.057	0.106
-458.040	238.868	0.093	-0.153
-457.026	254.484	0.277	-0.470
-456.011	-117.778	0.158	0.028
-454.997	-149.027	0.150	-0.012
-453.982	8.408	-0.176	-0.131
-452.968	-74.426	-0.051	0.018
-451.953	-9.105	0.198	-0.132
-450.938	151.424	-0.099	-0.133
-449.924	596.782	-0.075	-0.183
-448.909	-10.102	-0.149	-0.098
-447.895	796.848	-0.110	-0.300
-446.880	-59.700	0.072	0.030
-445.865	-46.307	-0.125	-0.061
-444.851	205.187	-0.108	-0.166
-443.836	12.665	0.082	-0.063
-442.822	556.018	0.040	0.097
-441.807	387.217	0.071	0.145
-440.792	-200.000	0.011	-0.204
-439.778	-200.000	-0.071	0.354
-438.763	270.950	-0.082	0.144
-437.749	303.599	0.103	0.189
-436.734	427.383	0.086	0.184
-435.719	-23.585	-0.349	-0.208
-434.705	-200.000	-0.014	-0.083
-433.690	16.131	0.137	-0.107
-432.676	339.645	-0.116	0.224
-431.661	181.143	0.138	-0.201
-430.646	-200.000	0.036	0.275
-429.632	-180.036	-0.252	-0.005
-428.617	-140.173	-0.386	-0.040
-427.603	-200.000	-0.043	-0.194
-426.588	-35.218	0.063	0.034
-425.573	800.000	0.021	-0.084
-424.559	332.831	0.048	-0.092
-423.544	-49.637	-0.073	-0.034
-422.530	138.070	-0.131	0.170
-421.515	-36.288	0.191	-0.102
-420.500	22.482	0.047	0.038
-419.486	211.229	0.190	0.296
-418.471	25.016	0.178	0.146
-417.457	-75.687	-0.419	0.147
-416.442	-200.000	0.006	-0.057
-415.428	-17.413	-0.155	0.097
-414.413	-30.709	-0.203	0.114
-413.398	800.000	-0.047	-0.154
-412.384	-77.524	0.160	0.055
-411.369	715.387	0.040	-0.105
-410.355	800.000	-0.108	-0.336
-409.340	-85.604	-0.080	-0.025
-408.325	79.290	0.217	-0.231
-407.311	800.000	0.101	-0.340
-406.296	-79.900	0.366	-0.122
-405.282	25.818	-0.117	-0.096
-404.267	-200.000	-0.018	0.089
-403.252	4.221	0.124	0.090
-402.238	800.000	0.096	0.315
-401.223	-5.344	0.185	-0.126
-400.209	170.750	-0.117	-0.166
-399.194	30.836	0.304	0.258
-398.179	134.789	0.172	0.221
-397.165	-60.584	0.227	0.095
-396.150	-25.299	0.086	-0.051
-395.136	325.426	-0.128	-0.242
-394.121	-200.000	0.012	0.267
-393.106	-200.000	0.011	0.214
-392.092	-2.275	-0.335	0.233
-391.077	-22.898	-0.073	-0.043
-390.063	-99.612	0.189	0.047
-389.048	-90.463	-0.255	-0.073
-388.033	58.980	-0.057	-0.056
-387.019	-197.705	0.141	-0.001
-386.004	-200.000	-0.077	-0.372
-384.990	-200.000	-0.030	-0.213
-383.975	10.254	-0.289	-0.218
-382.960	-200.000	-0.013	0.132
-381.946	-200.000	0.060	-0.274
-380.931	71.874	-0.235	0.242
-379.917	-200.000	0.022	0.126
-378.902	46.140	0.074	0.067
-377.888	800.000	0.075	0.271
-376.873	57.272	0.092	0.089
-375.858	226.304	0.198	-0.318
-374.844	-133.084	-0.307	0.038
-373.829	800.000	-0.086	-0.301
-372.815	-141.334	-0.230	-0.023
-371.800	-84.567	0.028	-0.009
-370.785	-47.980	-0.250	-0.119
-369.771	240.440	0.085	0.141
-368.756	-27.958	0.270	0.155
-367.742	45.794	0.280	-0.256
-366.727	-200.000	0.011	-0.197
-365.712	-143.993	0.173	0.016
-364.698	113.004	0.110	0.132
-363.683	215.977	0.072	-0.113
-362.669	-200.000	0.019	0.147
-361.654	-144.967	-0.242	0.022
-360.639	-63.106	-0.134	-0.055
-359.625	-101.443	0.038	0.009
-358.610	88.779	0.294	0.323
-357.596	55.817	-0.144	0.138
-356.581	-151.437	-0.022	-0.002
-355.566	134.240	0.156	0.200
-354.552	-200.000	0.001	0.258
-353.537	-90.926	-0.147	0.042
-352.523	89.731	0.175	0.193
-351.508	73.825	-0.195	0.202
-350.493	148.226	0.197	0.262
-349.479	321.454	0.078	-0.147
-348.464	279.699	-0.207	0.365
-347.450	-185.229	0.159	0.002
-346.435	281.940	0.122	-0.215
-345.420	-200.000	0.002	0.127
-344.406	-200.000	0.000	-0.093
-343.391	-32.091	0.379	0.209
-342.377	-156.117	-0.155	0.010
-341.362	-73.120	0.089	0.032
-340.348	800.000	-0.023	-0.091
-339.333	-47.251	0.187	0.090
-338.318	-98.419	0.360	-0.091
-337.304	-45.704	0.169	0.082
-336.289	246.475	-0.217	-0.361
-335.275	-168.121	-0.307	0.012
-334.260	-89.464	0.222	0.065
-333.245	-159.217	-0.287	0.016
-332.231	-200.000	-0.025	-0.207
-331.216	-146.362	0.159	-0.014
-330.202	-89.891	0.327	-0.094
-329.187	-61.073	0.070	0.029
-328.172	40.384	0.196	-0.174
-327.158	470.992	-0.030	-0.067
-326.143	800.000	-0.059	0.214
-325.129	-178.981	0.402	0.009
-324.114	-200.000	0.010	0.205
-323.099	-166.022	-0.184	0.008
-322.085	800.000	0.068	-0.260
-321.070	505.733	-0.063	-0.144
-320.056	-200.000	0.004	-0.150
-319.041	-200.000	0.013	-0.111
-318.026	-200.000	0.025	-0.135
-317.012	-200.000	0.031	-0.462
-315.997	-180.895	-0.303	-0.006
-314.983	-159.790	0.127	0.007
-313.968	800.000	0.106	-0.295
-312.953	-127.506	-0.364	-0.052
-311.939	-1.892	0.219	0.152
-310.924	-61.283	-0.314	-0.131
-309.910	800.000	0.070	0.259
-308.895	473.847	0.137	0.304
-307.880	-84.845	-0.374	0.116
-306.866	-68.965	0.344	-0.131
-305.851	199.873	0.064	0.098
-304.837	800.000	-0.015	-0.047
-303.822	160.536	-0.186	0.256
-302.807	189.976	0.099	-0.146
-301.793	145.381	0.264	-0.348
-300.778	-65.941	0.172	-0.068
-299.764	-200.000	-0.085	-0.409
-298.749	42.792	0.068	-0.061
-297.735	-200.000	0.025	0.321
-296.720	285.112	-0.027	0.048
-295.705	-88.311	-0.233	0.069
-294.691	56.634	-0.171	0.164
-293.676	-200.000	-0.034	-0.282
-292.662	-144.871	-0.193	-0.017
-291.647	434.782	-0.109	0.234
-290.632	454.276	-0.117	0.255
-289.618	-118.203	-0.292	0.051
-288.603	344.151	0.189	-0.365
-287.589	-200.000	-0.012	0.057
-286.574	-129.993	-0.243	0.033
-285.559	8.274	0.152	0.113
-284.545	317.903	0.061	-0.114
-283.530	-200.000	-0.026	0.177
-282.516	-177.557	0.274	0.007
-281.501	-58.840	-0.244	-0.104
-280.486	337.946	0.198	-0.380
-279.472	32.038	-0.191	0.162
-278.457	606.263	0.152	-0.374
-277.443	-86.748	0.692	0.209
-276.428	-79.004	0.183	-0.061
-275.413	534.438	0.102	0.238
-274.399	-200.000	-0.003	0.071
-273.384	-93.129	0.340	0.093
-272.370	61.572	-0.147	0.144
-271.355	467.282	0.025	0.055
-270.340	118.316	-0.184	0.224
-269.326	26.484	0.159	0.131
-268.311	161.369	-0.171	-0.235
-267.297	-89.367	0.159	-0.046
-266.282	-200.000	0.004	-0.248
-265.267	-200.000	0.025	-0.463
-264.253	7.858	-0.004	0.003
-263.238	53.296	0.088	0.083
-262.224	-160.759	0.419	0.022
-261.209	516.434	0.103	-0.238
-260.195	-111.102	-0.208	-0.042
-259.180	-200.000	0.069	-0.301
-258.165	-142.908	0.147	-0.014
-257.151	165.871	-0.094	-0.131
-256.136	60.311	0.135	-0.131
-255.122	-29.995	0.231	-0.130
-254.107	800.000	0.107	0.361
-253.092	627.895	0.145	-0.360
-252.078	800.000	0.077	-0.311
-251.063	178.562	-0.304	-0.437
-250.049	-200.000	-0.064	0.300
-249.034	252.508	0.087	0.146
-248.019	-129.904	0.187	0.025
-247.005	-86.487	0.186	-0.056
-245.990	800.000	-0.057	-0.200
-244.976	-8.693	0.140	0.093
-243.961	85.488	-0.199	0.215
-242.946	800.000	0.073	-0.283
-241.932	179.098	-0.120	0.172
-240.917	-200.000	-0.025	0.405
-239.903	92.255	-0.279	-0.309
-238.888	-49.254	0.127	0.060
-237.873	271.082	-0.098	-0.170
-236.859	-200.000	0.009	-0.079
-235.844	-200.000	-0.009	0.126
-234.830	255.797	-0.216	-0.364
-233.815	-50.948	0.399	0.184
-232.800	-200.000	0.001	0.190
-231.786	-65.084	0.442	0.175
-230.771	800.000	0.074	0.308
-229.757	131.735	0.138	-0.174
-228.742	-200.000	-0.013	-0.146
-227.727	289.342	-0.067	0.120
-226.713	144.594	-0.065	-0.086
-225.698	240.023	0.050	-0.082
-224.684	251.945	-0.094	0.157
-223.669	755.062	-0.075	0.198
-222.655	-126.992	-0.179	-0.026
-221.640	-14.797	-0.142	0.089
-220.625	11.908	0.117	0.089
-219.611	-12.230	0.144	-0.093
-218.596	-140.907	0.328	0.033
-217.582	800.000	0.030	-0.084
-216.567	-49.981	0.202	0.094
-215.552	-200.000	-0.054	0.258
-214.538	-60.798	-0.127	0.053
-213.523	477.806	-0.049	-0.108
-212.509	-200.000	-0.003	0.023
-211.494	44.908	-0.230	0.208
-210.479	59.451	-0.078	-0.076
-209.465	1.848	0.280	0.198
-208.450	-26.320	0.029	-0.017
-207.436	188.078	-0.164	0.241
-206.421	51.072	-0.070	0.065
-205.406	-26.682	-0.148	0.085
-204.392	800.000	-0.081	-0.269
-203.377	-146.091	-0.187	0.016
-202.363	-57.882	-0.245	0.105
-201.348	74.255	-0.137	0.141
-200.333	-165.355	0.195	-0.008
-199.319	-200.000	-0.003	0.034
-198.304	800.000	0.050	0.197
-197.290	76.438	0.063	-0.066
-196.275	-62.128	-0.252	0.103
-195.260	38.160	-0.225	0.196
-194.246	-6.268	0.147	0.099
-193.231	-200.000	-0.018	-0.185
-192.217	254.252	-0.154	0.259
-191.202	-156.231	0.371	-0.023
-190.187	-81.715	0.236	-0.076
-189.173	-101.446	-0.183	-0.044
-188.158	-120.346	0.234	-0.039
-187.144	17.687	0.018	0.014
-186.129	800.000	-0.130	-0.445
-185.114	135.268	-0.039	-0.050
-184.100	-113.692	-0.199	0.038
-183.085	23.486	-0.268	0.216
-182.071	28.482	-0.093	0.078
-181.056	-200.000	-0.072	0.378
-180.042	9.398	0.151	0.112
-179.027	92.820	-0.105	-0.116
-178.012	175.732	-0.121	-0.173
-176.998	-101.474	0.250	0.060
-175.983	-37.415	0.098	0.051
-174.969	800.000	0.081	-0.231
-173.954	-200.000	-0.016	0.078
-172.939	-200.000	-0.044	0.220
-171.925	266.211	0.174	0.298
-170.910	800.000	0.050	0.149
-169.896	-137.214	-0.478	-0.053
-168.881	447.423	0.085	-0.184
-167.866	213.938	-0.041	-0.063
-166.852	119.584	-0.186	0.226
-165.837	-160.318	-0.204	-0.011
-164.823	800.000	0.111	0.461
-163.808	-162.538	-0.425	-0.021
-162.793	-98.361	-0.174	0.044
-161.779	162.460	-0.145	0.199
-160.764	-57.350	-0.081	0.035
-159.750	719.395	-0.087	0.228
-158.735	-8.276	-0.060	-0.040
-157.720	62.885	0.145	-0.142
-156.706	-137.110	0.221	-0.025
-155.691	-200.000	-0.018	-0.144
-154.677	-79.975	0.036	0.012
-153.662	50.787	0.102	-0.095
-152.647	-105.573	-0.244	-0.054
-151.633	800.000	-0.005	0.020
-150.618	328.543	-0.021	-0.039
-149.604	-200.000	-0.003	0.107
-148.589	626.903	-0.102	0.252
-147.574	-83.131	0.126	-0.040
-146.560	189.744	0.106	-0.156
-145.545	333.689	-0.106	0.201
-144.531	-117.739	0.180	-0.032
-143.516	800.000	0.027	-0.100
-142.502	147.844	0.145	-0.192
-141.487	-200.000	-0.011	0.144
-140.472	35.546	0.133	0.114
-139.458	-167.874	0.122	-0.005
-138.443	14.995	0.092	-0.071
-137.429	-2.460	-0.197	-0.135
-136.414	-179.560	0.136	-0.003
-135.399	800.000	-0.067	-0.213
-134.385	-41.585	0.400	-0.202
-133.370	-65.431	-0.397	0.156
-132.356	-8.508	0.133	-0.088
-131.341	-56.750	-0.244	0.106
-130.326	-200.000	0.012	0.062
-129.312	-200.000	0.016	-0.082
-128.297	800.000	-0.058	-0.181
-127.283	-68.461	-0.241	-0.092
-126.268	16.486	0.156	0.121
-125.253	-200.000	0.024	0.340
-124.239	-96.307	-0.332	-0.086
-123.224	-56.881	-0.108	0.047
-122.210	-25.941	0.118	-0.068
-121.195	566.992	0.113	-0.269
