DTS Sentinel unit serial number:	SN413079Multiplexer serial number:	ORYXHardware model number:	OX4-SRSoftware version number:	ORYX F/W v4.00 Oryx Data Collector v3.7.2.0data status	okinstallation	princeton_trtdifferential loss correction	single-endedforward channel	channel 2reverse channel	N/Adate	2019/09/13time	23:31:35forward acquisition time	60.00reverse acquisition time	0.00gamma	496.2192k internal	0.2337k external	0.2337temperature offset calibration	1.0130default loss term (dB/km)	0.3790temperature slope calibration	1.0000multiplexer offset coefficient	1.0000multiplexer slope coefficient	1.0000fibre end	0.00T internal ref (°C)	26.81T ext. ref 1 (°C)	3.18T ext. ref 2 (°C)	20.99length (m)	temperature (°C)	Stokes	anti-Stokes-747.200	41.507	-0.152	0.138
-746.185	-63.231	-0.092	-0.038
-745.171	-17.970	0.063	0.040
-744.156	-200.000	0.060	0.431
-743.142	27.716	0.119	0.101
-742.127	-200.000	0.048	0.478
-741.112	72.820	-0.140	-0.147
-740.098	800.000	-0.048	0.188
-739.083	27.104	0.081	0.068
-738.069	553.245	-0.134	0.323
-737.054	-200.000	0.010	0.052
-736.039	-129.181	-0.338	0.047
-735.025	68.239	-0.098	-0.101
-734.010	33.898	-0.188	0.164
-732.996	-200.000	-0.008	-0.428
-731.981	311.442	-0.101	-0.191
-730.966	-53.689	0.156	-0.072
-729.952	-106.494	-0.087	-0.019
-728.937	-27.655	-0.308	0.179
-727.923	126.620	-0.128	0.163
-726.908	-200.000	0.012	-0.090
-725.894	800.000	-0.060	0.237
-724.879	-84.719	-0.080	-0.025
-723.864	800.000	-0.128	-0.466
-722.850	67.753	-0.120	-0.123
-721.835	-81.907	-0.218	0.072
-720.821	-11.557	-0.122	-0.080
-719.806	155.318	-0.030	-0.041
-718.791	80.621	0.332	0.359
-717.777	159.418	-0.262	0.365
-716.762	-79.569	0.130	0.044
-715.748	-200.000	0.082	0.378
-714.733	64.438	-0.180	-0.182
-713.718	267.284	0.174	-0.305
-712.704	-174.281	0.210	-0.006
-711.689	-69.947	-0.274	0.105
-710.675	-94.640	-0.109	-0.030
-709.660	293.374	0.111	0.203
-708.645	800.000	0.082	-0.257
-707.631	-200.000	0.060	-0.305
-706.616	-179.849	0.249	-0.005
-705.602	-200.000	-0.084	-0.406
-704.587	800.000	-0.013	-0.036
-703.572	221.650	0.078	0.126
-702.558	-44.064	0.221	-0.111
-701.543	68.445	-0.092	0.094
-700.529	214.828	-0.156	0.248
-699.514	-99.118	0.072	-0.018
-698.499	800.000	-0.130	-0.421
-697.485	755.708	0.055	-0.148
-696.470	-76.089	0.076	0.027
-695.456	-32.364	0.363	-0.203
-694.441	392.494	-0.101	-0.211
-693.426	-153.799	-0.382	-0.026
-692.412	106.180	0.145	-0.172
-691.397	129.169	-0.208	-0.266
-690.383	-200.000	0.040	-0.358
-689.368	-125.162	-0.087	-0.013
-688.354	-70.843	-0.031	-0.012
-687.339	-10.314	-0.324	-0.215
-686.324	-88.042	-0.454	0.136
-685.310	-81.426	0.361	-0.119
-684.295	-200.000	0.061	-0.000
-683.281	-31.540	-0.239	0.134
-682.266	-134.175	0.107	0.013
-681.251	387.960	0.048	-0.100
-680.237	38.073	0.102	0.091
-679.222	25.381	-0.332	-0.276
-678.208	555.425	-0.051	-0.123
-677.193	-200.000	0.019	0.130
-676.178	-156.315	0.059	0.004
-675.164	103.470	-0.271	-0.318
-674.149	-120.009	-0.141	0.024
-673.135	-27.383	0.122	0.071
-672.120	29.773	-0.173	0.147
-671.105	-200.000	-0.006	-0.246
-670.091	599.034	0.103	-0.257
-669.076	-94.518	-0.103	-0.028
-668.062	800.000	-0.024	0.090
-667.047	-14.072	0.320	0.207
-666.032	-153.301	0.455	0.032
-665.018	-72.844	0.193	0.071
-664.003	426.538	0.089	-0.192
-662.989	44.588	-0.089	0.082
-661.974	-200.000	0.067	-0.460
-660.959	-142.625	-0.027	0.003
-659.945	14.240	-0.159	0.124
-658.930	-61.113	-0.024	0.010
-657.916	-178.812	-0.261	-0.006
-656.901	7.361	0.048	0.036
-655.886	17.783	0.128	0.102
-654.872	800.000	-0.043	-0.164
-653.857	800.000	-0.037	0.141
-652.843	36.722	0.239	-0.211
-651.828	260.149	-0.202	0.348
-650.814	-2.579	0.125	0.087
-649.799	158.640	-0.121	0.168
-648.784	-93.514	-0.300	0.083
-647.770	95.242	-0.080	0.091
-646.755	-105.794	0.063	-0.014
-645.741	-112.741	-0.291	0.058
-644.726	-8.849	-0.163	-0.109
-643.711	-200.000	0.016	0.115
-642.697	-200.000	-0.004	0.372
-641.682	72.648	0.250	0.261
-640.668	800.000	0.035	-0.122
-639.653	-54.001	0.333	0.151
-638.638	-98.083	-0.379	0.098
-637.624	244.909	-0.122	-0.206
-636.609	-54.825	0.199	-0.090
-635.595	-200.000	-0.091	0.000
-634.580	794.710	0.057	-0.157
-633.565	-20.571	-0.197	-0.121
-632.551	-173.522	-0.143	-0.004
-631.536	-5.108	-0.075	-0.051
-630.522	164.106	-0.032	0.044
-629.507	800.000	0.026	0.104
-628.492	-175.900	-0.462	-0.012
-627.478	668.797	-0.126	0.327
-626.463	-85.737	0.460	-0.143
-625.449	34.249	-0.145	-0.126
-624.434	3.817	-0.125	-0.091
-623.419	-200.000	0.025	-0.192
-622.405	-45.088	0.260	-0.129
-621.390	-10.168	0.166	-0.110
-620.376	-50.164	-0.292	0.138
-619.361	-70.883	-0.210	-0.079
-618.346	-47.947	0.514	-0.248
-617.332	-61.871	-0.033	0.014
-616.317	-200.000	0.001	0.183
-615.303	-149.113	-0.309	-0.025
-614.288	113.248	0.149	0.181
-613.273	-200.000	0.001	-0.188
-612.259	113.638	0.082	0.100
-611.244	-76.769	0.091	-0.032
-610.230	-94.040	0.282	-0.077
-609.215	78.194	-0.166	-0.177
-608.201	-200.000	-0.004	0.021
-607.186	561.042	0.138	0.333
-606.171	-11.456	0.333	0.219
-605.157	719.235	-0.142	0.377
-604.142	-200.000	0.043	-0.206
-603.128	180.944	-0.089	0.131
-602.113	-36.420	0.047	-0.026
-601.098	-9.285	0.112	-0.075
-600.084	135.117	-0.110	0.142
-599.069	-200.000	0.027	0.167
-598.055	38.090	-0.110	-0.098
-597.040	70.263	-0.241	-0.249
-596.025	111.299	0.032	0.039
-595.011	144.786	0.127	-0.169
-593.996	225.245	-0.114	-0.184
-592.982	-167.668	-0.213	0.008
-591.967	649.479	0.020	-0.052
-590.952	163.671	0.115	0.161
-589.938	-111.866	0.243	-0.049
-588.923	-14.751	0.199	0.128
-587.909	216.702	0.190	-0.301
-586.894	526.102	-0.092	-0.217
-585.879	-146.461	0.094	-0.008
-584.865	15.678	-0.328	-0.257
-583.850	410.534	0.127	-0.268
-582.836	73.916	0.259	0.271
-581.821	725.988	-0.128	-0.340
-580.806	252.334	0.039	-0.066
-579.792	-38.818	0.150	-0.079
-578.777	-35.632	0.080	-0.043
-577.763	-69.793	0.157	-0.060
-576.748	-128.287	0.175	0.025
-575.733	-135.391	-0.042	-0.005
-574.719	73.840	0.179	-0.187
-573.704	-200.000	0.014	-0.171
-572.690	-96.956	0.272	0.071
-571.675	-160.865	0.110	0.006
-570.661	-33.984	-0.277	-0.152
-569.646	93.643	0.207	0.234
-568.631	-144.384	-0.194	0.018
-567.617	-200.000	-0.010	-0.200
-566.602	2.618	-0.080	-0.058
-565.588	-200.000	-0.016	-0.088
-564.573	120.067	0.125	-0.155
-563.558	200.336	0.138	-0.212
-562.544	800.000	0.138	-0.407
-561.529	-200.000	-0.034	-0.267
-560.515	-139.388	0.203	-0.022
-559.500	-200.000	-0.007	-0.042
-558.485	-200.000	0.023	-0.128
-557.471	-200.000	-0.033	0.202
-556.456	-15.417	0.259	-0.165
-555.442	-200.000	0.077	-0.382
-554.427	-54.791	0.194	0.087
-553.412	-200.000	-0.051	0.331
-552.398	58.401	0.099	-0.097
-551.383	423.844	-0.132	0.284
-550.369	646.020	-0.018	-0.045
-549.354	-178.764	-0.215	-0.005
-548.339	-108.217	0.076	0.016
-547.325	-5.305	0.296	0.203
-546.310	348.302	-0.129	-0.254
-545.296	800.000	0.014	0.050
-544.281	-200.000	-0.087	0.482
-543.266	-28.666	0.077	0.044
-542.252	79.095	-0.212	0.226
-541.237	-82.048	0.206	-0.067
-540.223	-162.080	-0.196	-0.010
-539.208	-37.966	0.087	-0.046
-538.193	199.402	0.233	-0.355
-537.179	-2.550	0.302	-0.210
-536.164	800.000	0.058	-0.249
-535.150	-200.000	0.021	-0.183
-534.135	101.234	-0.147	-0.170
-533.121	8.788	-0.125	-0.094
-532.106	-200.000	0.018	-0.150
-531.091	532.536	-0.188	-0.442
-530.077	-86.244	0.441	-0.135
-529.062	-43.734	-0.197	0.099
-528.048	737.066	0.031	-0.082
-527.033	25.657	0.202	-0.167
-526.018	326.515	-0.278	0.529
-525.004	-135.044	-0.330	-0.040
-523.989	-150.934	0.227	-0.017
-522.975	-189.848	-0.184	-0.002
-521.960	-152.199	-0.171	-0.012
-520.945	-12.894	-0.121	0.078
-519.931	223.288	-0.168	0.269
-518.916	225.982	0.008	0.012
-517.902	256.551	-0.151	-0.258
-516.887	-200.000	0.055	-0.328
-515.872	105.303	0.066	-0.078
-514.858	800.000	0.042	-0.156
-513.843	77.385	0.081	0.085
-512.829	800.000	-0.091	0.301
-511.814	-200.000	-0.026	0.336
-510.799	-46.270	0.408	0.200
-509.785	719.403	0.047	0.125
-508.770	-28.777	0.201	-0.115
-507.756	43.781	-0.274	-0.250
-506.741	1.520	0.077	-0.055
-505.726	-145.022	0.244	0.022
-504.712	-200.000	-0.017	0.323
-503.697	-50.607	-0.326	0.153
-502.683	800.000	-0.059	-0.171
-501.668	42.451	-0.186	0.168
-500.653	-147.707	-0.279	-0.023
-499.639	-100.539	0.262	0.064
-498.624	261.723	-0.085	0.147
-497.610	329.385	0.060	-0.114
-496.595	-52.079	0.222	-0.102
-495.581	-200.000	0.017	0.194
-494.566	-173.816	-0.569	0.017
-493.551	-200.000	0.025	-0.198
-492.537	-200.000	0.002	-0.228
-491.522	182.215	-0.082	0.121
-490.508	-46.566	-0.212	-0.104
-489.493	571.687	0.061	-0.147
-488.478	275.527	0.147	-0.260
-487.464	126.262	-0.121	0.152
-486.449	58.347	0.366	0.356
-485.435	45.851	0.162	0.149
-484.420	-21.944	-0.248	0.150
-483.405	239.736	-0.117	0.194
-482.391	105.526	0.143	0.168
-481.376	-100.163	0.026	-0.006
-480.362	479.680	0.052	0.117
-479.347	-200.000	-0.026	0.183
-478.332	292.638	0.241	-0.437
-477.318	-53.350	-0.121	0.055
-476.303	800.000	0.072	0.310
-475.289	-181.300	-0.031	-0.001
-474.274	216.679	-0.116	-0.183
-473.259	69.197	-0.211	-0.215
-472.245	496.619	0.045	-0.103
-471.230	127.634	0.187	0.236
-470.216	800.000	-0.076	-0.226
-469.201	240.366	0.155	-0.257
-468.186	-89.483	-0.115	-0.034
-467.172	350.497	-0.119	-0.234
-466.157	96.521	0.149	0.169
-465.143	-23.896	0.210	0.125
-464.128	-42.143	0.156	0.079
-463.113	40.200	-0.354	0.316
-462.099	9.946	-0.054	-0.040
-461.084	388.105	0.057	-0.116
-460.070	-159.292	0.112	0.006
-459.055	595.952	0.030	0.074
-458.040	591.062	0.214	0.523
-457.026	-129.131	0.237	0.033
-456.011	300.834	0.110	0.202
-454.997	82.026	0.160	0.173
-453.982	152.298	-0.141	0.191
-452.968	583.630	-0.095	0.230
-451.953	132.052	0.031	0.039
-450.938	800.000	0.031	-0.088
-449.924	-200.000	0.363	0.001
-448.909	-178.702	0.072	-0.002
-447.895	-68.850	0.070	0.027
-446.880	-20.405	-0.081	-0.049
-445.865	-100.702	-0.319	-0.078
-444.851	-15.706	-0.039	0.024
-443.836	-200.000	0.032	0.194
-442.822	205.517	-0.135	0.209
-441.807	800.000	0.071	-0.238
-440.792	-182.063	-0.689	0.013
-439.778	-56.102	0.242	0.107
-438.763	-200.000	0.043	-0.249
-437.749	-47.947	-0.155	-0.075
-436.734	140.113	-0.145	-0.190
-435.719	800.000	-0.039	-0.145
-434.705	-24.773	-0.200	-0.118
-433.690	-15.407	-0.077	-0.049
-432.676	144.227	0.308	-0.407
-431.661	-200.000	0.041	-0.302
-430.646	495.219	-0.092	0.209
-429.632	701.666	0.037	0.097
-428.617	-75.127	0.334	-0.118
-427.603	-130.716	-0.343	-0.046
-426.588	-7.423	0.198	0.133
-425.573	-143.576	-0.131	0.012
-424.559	-74.301	-0.149	0.054
-423.544	67.244	0.070	0.071
-422.530	670.611	0.120	0.308
-421.515	-5.403	-0.183	-0.125
-420.500	-96.972	0.162	0.042
-419.486	275.921	0.058	-0.101
-418.471	800.000	0.159	-0.530
-417.457	-200.000	0.005	-0.181
-416.442	44.493	0.077	0.070
-415.428	87.406	-0.054	-0.059
-414.413	-200.000	-0.028	-0.179
-413.398	9.910	0.390	0.293
-412.384	-200.000	-0.005	0.269
-411.369	800.000	0.117	-0.330
-410.355	229.952	-0.157	0.255
-409.340	45.175	0.065	0.059
-408.325	-92.641	-0.357	-0.099
-407.311	-200.000	0.016	-0.176
-406.296	-200.000	0.044	0.191
-405.282	-22.101	-0.176	0.106
-404.267	-141.670	0.185	-0.018
-403.252	-74.798	0.242	-0.086
-402.238	218.769	0.338	0.534
-401.223	800.000	-0.062	-0.232
-400.209	-80.856	0.106	-0.035
-399.194	-200.000	0.000	0.040
-398.179	104.308	-0.067	0.078
-397.165	800.000	0.112	0.311
-396.150	-49.590	0.132	-0.062
-395.136	35.098	0.234	-0.203
-394.121	35.519	-0.089	0.078
-393.106	-128.224	0.093	0.013
-392.092	136.989	-0.108	-0.140
-391.077	-60.143	-0.304	0.128
-390.063	-140.155	0.143	0.015
-389.048	-200.000	0.011	0.261
-388.033	272.238	-0.062	0.108
-387.019	-4.545	-0.298	0.204
-386.004	-200.000	0.027	0.137
-384.990	-103.710	-0.252	0.058
-383.975	-29.811	-0.067	0.038
-382.960	-200.000	0.000	-0.200
-381.946	-32.963	0.147	0.081
-380.931	57.843	-0.188	0.182
-379.917	-25.988	-0.254	0.148
-378.902	-200.000	0.013	0.138
-377.888	-94.884	0.074	-0.020
-376.873	374.567	-0.193	0.389
-375.858	145.304	-0.081	-0.107
-374.844	82.096	-0.059	-0.063
-373.829	800.000	0.084	-0.281
-372.815	419.047	0.069	-0.146
-371.800	-145.509	-0.039	-0.003
-370.785	-115.262	0.128	-0.024
-369.771	-200.000	0.034	0.233
-368.756	178.403	-0.050	0.072
-367.742	-200.000	0.017	0.075
-366.727	-60.743	-0.217	-0.091
-365.712	146.153	-0.040	0.054
-364.698	-93.429	-0.187	-0.051
-363.683	178.424	0.075	0.109
-362.669	-200.000	0.067	0.336
-361.654	-93.988	0.213	-0.058
-360.639	155.864	0.093	-0.127
-359.625	-42.528	-0.119	0.060
-358.610	521.966	0.100	-0.233
-357.596	61.757	-0.198	-0.195
-356.581	391.062	-0.045	0.092
-355.566	-67.520	0.112	-0.044
-354.552	800.000	-0.013	-0.043
-353.537	77.205	0.157	-0.165
-352.523	422.824	-0.113	-0.240
-351.508	-111.005	-0.137	0.028
-350.493	-200.000	0.054	-0.290
-349.479	-200.000	-0.010	-0.099
-348.464	-9.975	0.103	-0.068
-347.450	-10.242	-0.102	-0.067
-346.435	-200.000	-0.043	-0.203
-345.420	800.000	-0.079	0.219
-344.406	-181.467	-0.046	-0.001
-343.391	-200.000	-0.022	0.132
-342.377	-102.495	-0.191	0.045
-341.362	-127.855	0.255	-0.036
-340.348	-123.802	-0.022	-0.003
-339.333	-142.701	-0.306	-0.030
-338.318	28.288	-0.331	-0.276
-337.304	-15.959	0.188	-0.118
-336.289	8.682	-0.309	-0.230
-335.275	666.419	0.059	-0.151
-334.260	-200.000	-0.001	0.007
-333.245	-200.000	0.029	-0.381
-332.231	-46.929	-0.044	-0.021
-331.216	-200.000	0.016	0.077
-330.202	-79.749	-0.210	0.070
-329.187	-42.300	-0.197	-0.099
-328.172	442.282	-0.107	0.232
-327.158	-108.212	0.212	-0.045
-326.143	256.036	-0.101	-0.172
-325.129	-121.763	-0.263	-0.043
-324.114	-117.927	-0.334	-0.059
-323.099	121.640	-0.084	0.103
-322.085	290.961	-0.068	-0.122
-321.070	-20.176	0.172	-0.104
-320.056	114.194	0.122	-0.146
-319.041	-154.541	-0.146	0.010
-318.026	-112.674	-0.189	0.037
-317.012	-28.849	-0.071	0.040
-315.997	-200.000	-0.063	0.347
-314.983	-114.866	-0.043	-0.008
-313.968	-96.681	-0.297	0.077
-312.953	-128.753	-0.236	-0.033
-311.939	390.126	-0.124	0.253
-310.924	-200.000	0.041	0.269
-309.910	800.000	-0.016	-0.067
-308.895	-200.000	-0.004	0.375
-307.880	-90.452	0.286	-0.082
-306.866	170.011	0.042	0.060
-305.851	90.044	0.041	-0.045
-304.837	-200.000	0.013	-0.278
-303.822	156.909	0.078	0.106
-302.807	281.303	0.151	0.268
-301.793	206.045	0.108	0.166
-300.778	230.122	-0.063	0.102
-299.764	-200.000	-0.021	0.193
-298.749	-200.000	0.070	0.486
-297.735	-200.000	0.003	0.147
-296.720	-64.280	-0.161	0.064
-295.705	82.741	0.147	-0.157
-294.691	800.000	0.053	-0.153
-293.676	176.007	0.147	0.210
-292.662	800.000	0.004	-0.018
-291.647	-22.897	0.234	0.139
-290.632	-128.703	0.149	0.021
-289.618	-75.702	-0.195	-0.068
-288.603	20.627	-0.207	-0.166
-287.589	-76.809	-0.531	0.183
-286.574	-73.756	0.242	-0.087
-285.559	-44.525	0.413	-0.203
-284.545	-90.667	0.157	-0.045
-283.530	800.000	0.012	-0.051
-282.516	12.309	-0.140	0.106
-281.501	-155.696	-0.181	0.011
-280.486	83.417	0.200	-0.215
-279.472	667.749	0.051	0.131
-278.457	6.349	0.277	0.203
-277.443	-26.685	-0.163	0.094
-276.428	-30.578	-0.176	0.098
-275.413	622.171	-0.254	0.630
-274.399	235.078	-0.362	0.588
-273.384	636.085	-0.092	-0.231
-272.370	-200.000	0.040	-0.209
-271.355	16.272	-0.071	0.055
-270.340	252.251	-0.113	0.190
-269.326	142.256	0.113	-0.148
-268.311	-134.661	-0.067	-0.008
-267.297	-110.815	0.320	-0.065
-266.282	-2.407	-0.080	-0.055
-265.267	-75.504	0.244	-0.086
-264.253	-145.446	-0.293	0.026
-263.238	-47.500	0.295	0.141
-262.224	169.193	0.139	-0.195
-261.209	-200.000	-0.023	0.384
-260.195	250.938	0.161	-0.269
-259.180	-75.345	-0.121	-0.043
-258.165	-200.000	0.015	0.086
-257.151	-97.757	0.094	0.024
-256.136	800.000	-0.059	-0.199
-255.122	-200.000	-0.024	0.263
-254.107	-40.312	0.232	-0.119
-253.092	-133.359	0.109	-0.013
-252.078	-89.886	0.126	0.036
-251.063	90.149	-0.322	0.355
-250.049	193.569	0.094	0.140
-249.034	102.314	0.093	0.107
-248.019	-141.829	-0.146	-0.014
-247.005	800.000	0.032	0.111
-245.990	-120.824	0.131	0.022
-244.976	-134.537	-0.169	-0.020
-243.961	31.662	0.216	0.183
-242.946	-18.026	0.266	0.164
-241.932	65.295	0.138	0.138
-240.917	-200.000	-0.012	-0.216
-239.903	10.684	0.262	-0.197
-238.888	-126.089	0.295	-0.044
-237.873	3.873	0.199	0.143
-236.859	93.755	-0.064	-0.072
-235.844	-73.319	-0.304	-0.109
-234.830	-1.104	0.140	-0.097
-233.815	-93.079	-0.247	0.068
-232.800	-19.149	0.089	-0.054
-231.786	-200.000	-0.027	-0.152
-230.771	-200.000	-0.001	-0.267
-229.757	45.845	0.099	-0.090
-228.742	29.184	0.305	0.255
-227.727	53.866	0.384	-0.363
-226.713	45.987	-0.217	0.197
-225.698	172.304	-0.166	0.235
-224.684	800.000	-0.031	-0.129
-223.669	209.632	-0.360	-0.555
-222.655	-67.703	0.104	-0.040
-221.640	-52.586	-0.125	0.057
-220.625	800.000	-0.091	-0.341
-219.611	-200.000	-0.024	0.185
-218.596	-200.000	-0.015	0.114
-217.582	342.286	0.042	-0.080
-216.567	-56.214	-0.174	0.076
-215.552	-94.799	0.272	0.073
-214.538	398.215	-0.051	-0.105
-213.523	693.602	-0.056	-0.145
-212.509	208.068	-0.048	-0.074
-211.494	-60.627	0.283	-0.118
-210.479	-71.141	0.076	0.028
-209.465	122.092	0.117	0.143
-208.450	160.401	0.092	0.127
-207.436	-65.420	-0.188	-0.074
-206.421	-113.663	0.238	0.046
-205.406	387.517	-0.021	-0.043
-204.392	511.194	-0.070	-0.160
-203.377	800.000	0.022	-0.085
-202.363	-60.717	-0.223	0.093
-201.348	-200.000	0.031	-0.272
-200.333	-200.000	-0.024	0.407
-199.319	-8.000	0.226	0.150
-198.304	-85.774	-0.123	0.037
-197.290	23.906	0.072	-0.058
-196.275	-170.575	-0.239	-0.008
-195.260	-153.998	0.171	0.011
-194.246	125.770	0.098	-0.122
-193.231	95.681	-0.256	0.287
-192.217	218.489	-0.120	0.189
-191.202	405.629	-0.073	0.151
-190.187	-6.241	0.119	0.080
-189.173	128.840	-0.172	0.215
-188.158	-168.216	-0.386	0.015
-187.144	-200.000	-0.035	-0.454
-186.129	-76.352	-0.100	0.034
-185.114	800.000	-0.016	-0.057
-184.100	325.097	-0.174	0.327
-183.085	104.820	-0.185	0.214
-182.071	800.000	-0.103	-0.302
-181.056	-200.000	0.013	-0.155
-180.042	199.960	0.016	0.023
-179.027	104.260	-0.102	0.118
-178.012	-54.070	-0.222	0.099
-176.998	37.213	0.266	-0.231
-175.983	800.000	0.031	0.088
-174.969	-35.499	-0.245	-0.131
-173.954	-52.599	0.136	0.062
-172.939	-78.504	0.218	-0.073
-171.925	143.900	0.105	-0.137
-170.910	-48.396	0.175	-0.083
-169.896	188.125	-0.099	-0.145
-168.881	364.206	0.118	0.233
-167.866	-48.274	0.333	-0.158
-166.852	-200.000	0.073	-0.345
-165.837	800.000	-0.075	-0.210
-164.823	749.786	-0.040	0.107
-163.808	-200.000	0.020	0.098
-162.793	-200.000	0.003	-0.023
-161.779	233.761	0.102	0.165
-160.764	-200.000	0.024	-0.190
-159.750	-112.653	-0.102	-0.020
-158.735	800.000	-0.076	-0.253
-157.720	136.260	0.230	0.294
-156.706	290.474	0.083	-0.147
-155.691	800.000	-0.086	0.287
-154.677	221.830	-0.076	-0.120
-153.662	275.366	0.136	0.237
-152.647	371.892	-0.178	0.354
-151.633	707.775	0.172	-0.446
-150.618	476.008	0.103	0.229
-149.604	-92.330	-0.133	0.037
-148.589	361.912	-0.042	-0.083
-147.574	9.493	0.273	-0.203
-146.560	32.616	-0.232	-0.196
-145.545	204.725	0.199	-0.303
-144.531	374.655	-0.124	-0.247
-143.516	-15.412	0.099	0.062
-142.502	-123.522	0.036	-0.006
-141.487	115.612	0.237	0.284
-140.472	175.300	-0.023	-0.033
-139.458	-98.453	0.268	-0.067
-138.443	-13.121	-0.038	0.024
-137.429	-90.001	-0.082	0.024
-136.414	-56.495	0.191	-0.083
-135.399	317.042	0.098	-0.182
-134.385	-187.345	-0.326	-0.004
-133.370	112.901	0.244	-0.289
-132.356	0.724	0.201	0.141
-131.341	405.615	-0.019	0.040
-130.326	-200.000	0.010	-0.114
-129.312	-200.000	-0.057	0.476
-128.297	45.701	-0.066	0.059
-127.283	-75.877	0.220	-0.077
-126.268	-88.042	0.219	0.064
-125.253	-76.730	0.215	-0.074
-124.239	-1.168	0.239	-0.166
-123.224	361.825	-0.220	0.433
-122.210	-135.061	0.157	0.019
-121.195	124.893	-0.107	0.132
