DTS Sentinel unit serial number:	SN413079Multiplexer serial number:	ORYXHardware model number:	OX4-SRSoftware version number:	ORYX F/W v4.00 Oryx Data Collector v3.7.2.0data status	okinstallation	princeton_trtdifferential loss correction	single-endedforward channel	channel 2reverse channel	N/Adate	2019/09/14time	07:15:34forward acquisition time	60.00reverse acquisition time	0.00gamma	496.2192k internal	0.2338k external	0.2338temperature offset calibration	1.0136default loss term (dB/km)	0.3790temperature slope calibration	1.0000multiplexer offset coefficient	1.0000multiplexer slope coefficient	1.0000fibre end	0.00T internal ref (°C)	26.19T ext. ref 1 (°C)	3.45T ext. ref 2 (°C)	20.93length (m)	temperature (°C)	Stokes	anti-Stokes-747.200	-68.241	-0.364	0.142
-746.185	67.372	0.324	0.331
-745.171	454.883	0.104	-0.231
-744.156	800.000	-0.040	-0.117
-743.142	-84.579	-0.229	0.072
-742.127	-96.970	-0.454	-0.119
-741.112	327.688	0.094	-0.182
-740.098	117.819	-0.233	-0.288
-739.083	-20.710	-0.402	-0.248
-738.069	-18.771	0.058	-0.036
-737.054	-13.976	0.037	0.024
-736.039	-200.000	0.022	-0.184
-735.025	-57.244	0.335	0.148
-734.010	122.215	0.142	0.178
-732.996	76.370	-0.270	-0.287
-731.981	-95.698	-0.192	0.052
-730.966	-28.783	0.277	0.160
-729.952	113.687	0.088	0.108
-728.937	-22.223	-0.147	0.090
-727.923	-136.040	-0.435	-0.051
-726.908	-91.257	0.408	-0.117
-725.894	453.280	-0.128	-0.284
-724.879	769.008	0.063	0.172
-723.864	-16.405	-0.164	0.104
-722.850	172.143	-0.040	0.057
-721.835	-161.514	0.133	-0.007
-720.821	229.179	-0.135	0.221
-719.806	7.769	-0.147	0.110
-718.791	127.511	0.065	0.082
-717.777	-61.519	0.140	-0.059
-716.762	476.426	0.094	0.214
-715.748	-19.648	-0.341	0.212
-714.733	491.950	0.082	-0.189
-713.718	-200.000	-0.039	0.431
-712.704	16.299	-0.268	0.212
-711.689	-127.646	-0.276	-0.040
-710.675	-83.458	-0.177	0.057
-709.660	199.938	0.150	0.230
-708.645	-200.000	0.032	0.247
-707.631	-200.000	-0.082	0.534
-706.616	454.522	0.134	0.297
-705.602	800.000	-0.073	-0.265
-704.587	126.611	-0.103	-0.131
-703.572	33.074	0.180	-0.157
-702.558	78.761	-0.170	-0.182
-701.543	-143.498	-0.167	0.016
-700.529	-92.091	0.427	0.121
-699.514	28.222	0.092	-0.077
-698.499	-5.819	-0.265	0.182
-697.485	-76.435	0.051	-0.018
-696.470	116.299	0.138	-0.169
-695.456	23.445	-0.094	0.077
-694.441	304.063	0.090	0.168
-693.426	800.000	-0.110	-0.324
-692.412	371.234	0.038	0.077
-691.397	-46.945	-0.124	-0.061
-690.383	-116.665	-0.297	0.055
-689.368	-200.000	0.025	-0.294
-688.354	-156.165	0.108	0.007
-687.339	-200.000	-0.005	0.145
-686.324	-103.326	0.158	0.037
-685.310	-12.609	0.179	-0.117
-684.295	-200.000	-0.021	-0.129
-683.281	-23.906	-0.240	0.144
-682.266	15.234	-0.030	0.024
-681.251	-56.583	-0.435	-0.193
-680.237	374.210	0.044	-0.090
-679.222	-200.000	0.077	-0.524
-678.208	200.221	0.090	0.138
-677.193	-94.487	-0.294	0.080
-676.178	800.000	0.033	-0.107
-675.164	-53.651	-0.258	0.118
-674.149	-200.000	0.040	-0.246
-673.135	341.946	0.037	-0.072
-672.120	495.128	0.074	-0.169
-671.105	-29.946	-0.134	0.076
-670.091	-200.000	0.012	-0.299
-669.076	-140.189	-0.380	-0.040
-668.062	373.820	-0.066	0.134
-667.047	161.775	0.052	-0.073
-666.032	-54.012	0.231	-0.105
-665.018	-200.000	0.004	-0.072
-664.003	-84.989	0.116	0.036
-662.989	-159.453	0.386	-0.022
-661.974	-200.000	-0.033	-0.209
-660.959	800.000	-0.062	-0.216
-659.945	800.000	-0.044	0.165
-658.930	603.367	0.198	-0.493
-657.916	-118.973	-0.138	-0.024
-656.901	-200.000	-0.045	-0.383
-655.886	-16.858	-0.258	-0.163
-654.872	292.888	0.074	0.135
-653.857	18.208	0.139	0.111
-652.843	48.911	0.072	0.067
-651.828	-96.973	-0.194	0.051
-650.814	-54.537	-0.152	-0.069
-649.799	-138.606	-0.407	0.045
-648.784	152.268	0.074	0.101
-647.770	-200.000	0.034	0.197
-646.755	162.939	-0.144	0.202
-645.741	148.787	0.122	0.165
-644.726	-46.764	-0.220	0.108
-643.711	-30.888	-0.192	0.109
-642.697	267.903	0.118	0.206
-641.682	-200.000	-0.006	0.075
-640.668	-49.583	0.184	0.087
-639.653	-5.354	0.152	0.105
-638.638	4.951	-0.236	-0.174
-637.624	-48.340	-0.295	0.142
-636.609	191.295	-0.034	0.052
-635.595	145.185	-0.041	-0.055
-634.580	-200.000	0.021	-0.282
-633.565	-40.899	0.217	-0.112
-632.551	-5.268	0.272	-0.187
-631.536	-186.470	-0.093	0.001
-630.522	-53.036	0.157	0.072
-629.507	73.222	0.133	-0.139
-628.492	204.660	-0.072	0.112
-627.478	121.149	-0.166	-0.206
-626.463	-45.807	-0.359	0.177
-625.449	-200.000	0.019	0.131
-624.434	800.000	-0.026	-0.107
-623.419	291.962	-0.122	-0.221
-622.405	222.478	0.030	0.048
-621.390	222.141	-0.158	0.253
-620.376	325.391	-0.075	-0.143
-619.361	-72.644	0.186	-0.068
-618.346	-200.000	-0.045	-0.307
-617.332	-141.873	-0.134	-0.013
-616.317	800.000	-0.025	0.104
-615.303	317.076	-0.021	-0.040
-614.288	653.308	-0.172	-0.441
-613.273	32.045	0.055	-0.047
-612.259	-200.000	-0.055	0.327
-611.244	122.835	0.091	0.114
-610.230	-146.027	-0.108	-0.010
-609.215	377.200	0.171	-0.349
-608.201	-200.000	0.010	-0.099
-607.186	9.030	0.383	0.289
-606.171	-84.165	-0.270	-0.085
-605.157	-182.000	-0.203	0.004
-604.142	-58.539	-0.298	-0.129
-603.128	149.478	0.186	0.251
-602.113	49.332	-0.094	0.088
-601.098	-200.000	-0.011	0.135
-600.084	128.029	-0.104	0.132
-599.069	-74.426	0.089	0.032
-598.055	-25.483	-0.099	-0.059
-597.040	-83.644	-0.064	-0.020
-596.025	-200.000	-0.010	-0.099
-595.011	-150.853	-0.127	0.010
-593.996	97.243	0.109	-0.125
-592.982	-27.033	0.318	0.185
-591.967	268.134	-0.095	0.165
-590.952	198.594	0.180	-0.275
-589.938	-63.406	0.040	0.016
-588.923	10.730	-0.179	0.136
-587.909	244.571	-0.129	0.216
-586.894	102.401	0.107	0.125
-585.879	-63.265	-0.402	-0.165
-584.865	7.823	-0.194	-0.145
-583.850	123.055	-0.014	-0.018
-582.836	134.650	0.031	-0.040
-581.821	-200.000	0.002	-0.187
-580.806	-79.959	-0.203	-0.068
-579.792	-200.000	-0.048	0.216
-578.777	513.535	-0.072	0.167
-577.763	-17.558	0.212	0.133
-576.748	256.907	0.136	0.233
-575.733	-121.110	-0.254	0.042
-574.719	-3.018	0.160	-0.112
-573.704	73.084	-0.157	0.163
-572.690	-200.000	0.009	0.225
-571.675	-69.721	-0.062	-0.023
-570.661	-42.733	-0.258	0.131
-569.646	-200.000	-0.000	-0.049
-568.631	-92.657	0.181	-0.051
-567.617	314.810	-0.122	-0.229
-566.602	360.982	0.117	-0.233
-565.588	50.910	0.171	-0.161
-564.573	-200.000	0.012	0.396
-563.558	60.305	0.158	-0.156
-562.544	-200.000	0.027	0.262
-561.529	662.518	0.042	-0.109
-560.515	-200.000	-0.016	0.294
-559.500	194.927	-0.055	0.083
-558.485	800.000	0.040	-0.117
-557.471	800.000	0.034	0.145
-556.456	4.845	0.310	-0.227
-555.442	-106.184	-0.354	0.079
-554.427	257.948	-0.163	0.280
-553.412	-122.347	-0.220	0.036
-552.398	-120.747	-0.022	-0.004
-551.383	800.000	-0.051	0.208
-550.369	-19.302	0.120	0.074
-549.354	-8.362	0.125	-0.084
-548.339	64.490	0.090	-0.090
-547.325	703.500	-0.091	-0.240
-546.310	800.000	0.065	-0.254
-545.296	-108.149	-0.150	0.032
-544.281	-118.047	0.209	-0.037
-543.266	536.126	0.050	-0.117
-542.252	71.339	0.036	0.037
-541.237	800.000	-0.010	-0.041
-540.223	27.517	-0.274	-0.230
-539.208	-132.365	0.200	-0.026
-538.193	354.924	-0.073	0.144
-537.179	-47.291	-0.053	-0.026
-536.164	-55.864	-0.292	0.130
-535.150	489.710	0.125	0.284
-534.135	4.933	0.140	-0.102
-533.121	-132.503	-0.434	-0.056
-532.106	378.179	0.085	-0.172
-531.091	240.093	0.118	-0.196
-530.077	604.203	-0.172	0.425
-529.062	-200.000	-0.014	-0.177
-528.048	-200.000	-0.001	0.052
-527.033	173.622	0.048	0.070
-526.018	-45.695	-0.184	-0.090
-525.004	-126.188	0.138	0.021
-523.989	-129.047	0.115	0.016
-522.975	-37.858	0.041	0.022
-521.960	-149.736	0.063	-0.005
-520.945	263.459	-0.079	0.137
-519.931	-53.837	0.302	0.137
-518.916	140.061	0.102	-0.134
-517.902	178.224	0.024	-0.035
-516.887	-163.176	-0.303	0.014
-515.872	-60.686	-0.151	-0.064
-514.858	800.000	0.043	0.182
-513.843	-43.038	-0.365	-0.184
-512.829	92.195	0.314	0.351
-511.814	-72.119	-0.273	0.101
-510.799	-13.949	0.168	0.108
-509.785	447.559	0.091	-0.200
-508.770	-182.813	-0.568	0.010
-507.756	-162.027	0.388	0.019
-506.741	779.476	0.127	-0.344
-505.726	-45.502	-0.197	-0.097
-504.712	47.234	-0.317	-0.294
-503.697	800.000	0.034	-0.096
-502.683	179.081	0.027	-0.039
-501.668	-123.894	-0.143	0.022
-500.653	-75.642	-0.261	-0.092
-499.639	-200.000	0.015	-0.110
-498.624	-135.818	-0.052	-0.006
-497.610	-122.718	-0.167	0.027
-496.595	-11.788	-0.236	-0.154
-495.581	800.000	-0.061	-0.199
-494.566	-83.244	0.499	-0.159
-493.551	-148.600	-0.170	0.014
-492.537	529.768	-0.079	-0.186
-491.522	800.000	0.050	0.180
-490.508	-142.866	-0.198	0.019
-489.493	-60.014	-0.048	-0.020
-488.478	800.000	0.037	0.145
-487.464	266.608	-0.064	0.111
-486.449	800.000	0.072	-0.261
-485.435	-200.000	-0.027	0.343
-484.420	-107.138	-0.159	0.035
-483.405	-38.986	0.504	-0.264
-482.391	170.031	-0.140	-0.198
-481.376	629.804	-0.119	-0.299
-480.362	202.649	0.088	0.136
-479.347	-25.436	-0.117	0.069
-478.332	-200.000	0.015	0.157
-477.318	-81.376	-0.362	-0.118
-476.303	90.135	0.256	-0.284
-475.289	792.177	-0.118	0.322
-474.274	-200.000	0.092	0.586
-473.259	10.247	0.042	0.032
-472.245	8.093	-0.239	-0.178
-471.230	800.000	-0.073	0.237
-470.216	-103.993	-0.151	-0.035
-469.201	147.454	-0.080	0.106
-468.186	-194.392	-0.098	-0.001
-467.172	27.080	-0.278	0.231
-466.157	-98.933	0.175	0.044
-465.143	-200.000	0.011	-0.061
-464.128	-142.621	0.272	-0.026
-463.113	-119.183	0.453	-0.078
-462.099	800.000	0.083	-0.333
-461.084	-7.576	0.329	0.221
-460.070	-57.091	0.071	-0.031
-459.055	-133.821	0.053	-0.007
-458.040	-130.983	-0.328	-0.043
-457.026	-105.365	-0.089	-0.020
-456.011	-200.000	0.039	0.295
-454.997	175.735	-0.060	0.086
-453.982	-119.385	0.073	-0.013
-452.968	-123.835	-0.208	-0.033
-451.953	-3.304	-0.213	0.147
-450.938	-200.000	0.008	0.074
-449.924	800.000	-0.047	0.176
-448.909	800.000	0.024	0.090
-447.895	71.942	0.111	-0.115
-446.880	25.944	-0.184	0.152
-445.865	544.106	0.063	0.149
-444.851	545.600	-0.042	0.099
-443.836	52.915	-0.159	-0.151
-442.822	248.672	-0.035	0.058
-441.807	-87.772	0.164	-0.049
-440.792	18.602	0.223	-0.177
-439.778	-69.161	-0.227	0.086
-438.763	-31.120	-0.218	-0.122
-437.749	800.000	0.060	-0.182
-436.734	-200.000	0.004	-0.160
-435.719	-102.589	0.265	0.063
-434.705	252.844	-0.175	-0.295
-433.690	-200.000	0.001	-0.314
-432.676	-85.240	0.215	-0.067
-431.661	15.713	0.339	-0.264
-430.646	17.501	-0.284	0.224
-429.632	-64.934	-0.200	-0.080
-428.617	800.000	0.109	-0.358
-427.603	-79.457	0.153	-0.051
-426.588	466.579	-0.133	0.294
-425.573	399.828	-0.079	-0.165
-424.559	-200.000	0.019	-0.130
-423.544	-131.071	0.278	0.037
-422.530	-157.763	-0.171	-0.010
-421.515	-73.086	0.140	-0.051
-420.500	-200.000	-0.004	0.161
-419.486	318.241	0.105	0.198
-418.471	349.829	-0.125	-0.245
-417.457	181.766	-0.039	-0.057
-416.442	-161.293	-0.141	0.007
-415.428	800.000	-0.105	-0.307
-414.413	-51.730	0.231	-0.107
-413.398	-47.732	-0.312	0.150
-412.384	-38.125	-0.043	0.023
-411.369	91.921	-0.071	0.080
-410.355	-82.564	0.296	0.095
-409.340	-163.394	-0.458	0.022
-408.325	-200.000	-0.034	-0.204
-407.311	-103.140	0.329	-0.077
-406.296	800.000	-0.086	-0.289
-405.282	-98.460	-0.459	0.116
-404.267	-119.780	0.304	-0.052
-403.252	-168.615	0.403	-0.015
-402.238	-99.869	-0.312	-0.077
-401.223	-180.907	0.220	0.004
-400.209	-76.258	0.117	0.041
-399.194	221.611	-0.064	0.102
-398.179	-142.152	-0.146	0.014
-397.165	-200.000	-0.010	-0.068
-396.150	279.653	0.004	0.008
-395.136	120.568	-0.155	0.191
-394.121	21.081	0.117	0.094
-393.106	339.046	-0.143	0.275
-392.092	-3.584	-0.121	0.083
-391.077	800.000	0.025	-0.071
-390.063	423.719	-0.154	-0.327
-389.048	-123.728	0.172	-0.027
-388.033	-164.896	0.194	0.009
-387.019	-94.373	-0.170	0.046
-386.004	-200.000	0.023	0.120
-384.990	-200.000	-0.015	0.157
-383.975	-157.856	0.177	-0.010
-382.960	63.702	-0.121	-0.121
-381.946	-130.592	0.212	0.028
-380.931	246.947	0.165	-0.276
-379.917	800.000	-0.041	-0.146
-378.902	82.919	-0.069	0.074
-377.888	46.972	-0.266	-0.245
-376.873	-200.000	0.060	-0.294
-375.858	-200.000	-0.006	0.308
-374.844	-28.177	0.297	-0.170
-373.829	244.360	0.199	-0.331
-372.815	696.186	0.029	-0.076
-371.800	776.797	0.098	0.265
-370.785	335.708	-0.103	0.198
-369.771	-200.000	0.262	0.000
-368.756	5.712	0.181	0.132
-367.742	-200.000	-0.011	0.267
-366.727	-79.504	0.161	-0.054
-365.712	-48.615	-0.284	-0.135
-364.698	-200.000	-0.020	-0.126
-363.683	800.000	-0.088	-0.242
-362.669	-200.000	0.019	-0.109
-361.654	70.272	0.141	-0.144
-360.639	800.000	0.081	-0.236
-359.625	12.604	0.184	-0.140
-358.610	-71.599	-0.106	0.039
-357.596	109.784	-0.078	-0.092
-356.581	800.000	0.077	-0.295
-355.566	-77.540	0.132	0.045
-354.552	50.858	-0.255	0.239
-353.537	51.032	-0.014	0.013
-352.523	399.928	0.076	0.158
-351.508	-33.249	-0.098	-0.053
-350.493	-200.000	0.067	-0.368
-349.479	800.000	-0.092	-0.263
-348.464	69.032	-0.245	0.248
-347.450	63.781	-0.102	0.101
-346.435	360.996	-0.253	0.501
-345.420	-29.767	0.070	0.039
-344.406	-107.898	0.223	0.048
-343.391	5.248	0.295	0.215
-342.377	289.600	-0.026	0.046
-341.362	-102.550	0.116	-0.027
-340.348	-193.768	-0.627	-0.005
-339.333	-200.000	0.017	0.313
-338.318	421.390	-0.147	-0.312
-337.304	-92.940	0.449	-0.124
-336.289	-116.678	-0.133	-0.024
-335.275	67.474	-0.108	0.109
-334.260	-46.325	0.167	-0.081
-333.245	-23.072	0.265	-0.158
-332.231	-200.000	-0.002	-0.134
-331.216	451.999	-0.142	-0.311
-330.202	-29.743	0.049	-0.028
-329.187	18.204	0.185	-0.146
-328.172	56.119	0.138	0.132
-327.158	-200.000	0.004	0.260
-326.143	3.779	0.031	-0.022
-325.129	-180.949	0.119	0.002
-324.114	800.000	-0.050	0.141
-323.099	269.849	-0.203	-0.352
-322.085	-200.000	0.018	-0.121
-321.070	800.000	-0.137	-0.425
-320.056	-10.014	-0.440	0.289
-319.041	161.326	-0.145	0.200
-318.026	-99.853	-0.168	0.041
-317.012	-200.000	-0.020	-0.328
-315.997	800.000	0.092	-0.263
-314.983	36.165	0.400	-0.348
-313.968	-200.000	0.010	-0.058
-312.953	299.944	-0.052	-0.095
-311.939	-190.955	0.191	-0.002
-310.924	-65.984	0.230	-0.091
-309.910	-50.403	0.076	-0.035
-308.895	145.593	0.088	0.116
-307.880	-47.958	0.117	-0.056
-306.866	-7.126	0.152	0.102
-305.851	63.778	0.102	-0.101
-304.837	235.437	-0.050	0.082
-303.822	800.000	0.127	0.363
-302.807	11.577	-0.050	0.038
-301.793	390.191	-0.078	0.159
-300.778	562.483	0.036	-0.086
-299.764	227.367	0.063	0.100
-298.749	193.744	-0.125	0.186
-297.735	29.161	0.167	0.140
-296.720	-25.788	0.095	-0.055
-295.705	107.926	0.037	-0.044
-294.691	23.757	-0.254	-0.206
-293.676	-150.584	0.169	0.013
-292.662	800.000	0.102	-0.323
-291.647	131.323	-0.118	-0.149
-290.632	49.187	0.147	0.136
-289.618	115.867	-0.136	-0.164
-288.603	204.385	-0.096	-0.146
-287.589	-200.000	-0.020	0.432
-286.574	649.445	0.108	0.273
-285.559	121.390	-0.063	0.077
-284.545	-18.933	-0.167	-0.102
-283.530	-200.000	-0.039	-0.183
-282.516	-16.398	-0.119	-0.074
-281.501	-200.000	0.005	0.229
-280.486	692.491	-0.041	0.106
-279.472	119.370	-0.189	-0.230
-278.457	-200.000	-0.067	-0.398
-277.443	257.492	-0.087	-0.148
-276.428	-200.000	-0.009	0.122
-275.413	-70.537	0.441	0.165
-274.399	800.000	-0.035	0.136
-273.384	-115.640	0.444	-0.082
-272.370	15.821	-0.107	-0.083
-271.355	-200.000	-0.024	-0.309
-270.340	9.050	0.156	-0.116
-269.326	590.648	0.032	-0.077
-268.311	56.234	0.188	-0.180
-267.297	140.727	-0.164	-0.214
-266.282	-102.879	0.063	0.015
-265.267	164.968	-0.194	0.270
-264.253	-81.646	-0.139	0.045
-263.238	-69.124	-0.227	0.086
-262.224	-141.189	0.295	0.030
-261.209	115.297	0.181	0.218
-260.195	743.068	-0.012	0.031
-259.180	-49.749	-0.194	-0.091
-258.165	50.470	0.101	-0.094
-257.151	-200.000	0.266	0.001
-256.136	800.000	0.108	0.392
-255.122	-125.920	0.296	0.044
-254.107	84.869	0.104	0.112
-253.092	-168.510	0.250	-0.009
-252.078	-99.148	-0.050	0.012
-251.063	136.892	-0.127	-0.163
-250.049	-168.158	0.070	-0.003
-249.034	190.998	0.227	-0.336
-248.019	7.340	0.213	-0.157
-247.005	-14.897	-0.023	-0.014
-245.990	-20.188	-0.183	-0.111
-244.976	-200.000	-0.015	0.223
-243.961	-99.796	-0.123	0.030
-242.946	-134.772	-0.257	0.031
-241.932	171.463	0.201	0.284
-240.917	-200.000	0.083	-0.379
-239.903	-200.000	-0.053	-0.533
-238.888	-95.674	-0.308	-0.081
-237.873	35.598	0.222	-0.192
-236.859	401.738	-0.042	0.087
-235.844	-101.558	0.311	-0.074
-234.830	-17.018	-0.103	-0.064
-233.815	272.085	-0.112	0.194
-232.800	226.086	0.062	-0.099
-231.786	-130.425	0.402	0.054
-230.771	-78.601	-0.062	0.021
-229.757	66.388	-0.189	-0.189
-228.742	-86.815	0.310	0.093
-227.727	-110.740	-0.357	0.072
-226.713	-33.913	0.129	-0.070
-225.698	-12.916	-0.094	-0.060
-224.684	-200.000	0.041	0.297
-223.669	-54.179	-0.292	-0.131
-222.655	30.131	-0.135	-0.114
-221.640	-9.993	-0.181	-0.118
-220.625	-200.000	-0.011	0.227
-219.611	-12.632	-0.129	0.082
-218.596	47.996	0.204	-0.188
-217.582	-159.626	-0.324	0.018
-216.567	-135.015	0.359	-0.043
-215.552	-124.274	-0.140	-0.022
-214.538	-167.722	-0.264	-0.010
-213.523	48.036	0.120	0.110
-212.509	-21.922	-0.295	0.176
-211.494	41.734	-0.109	0.097
-210.479	-37.984	-0.185	0.097
-209.465	88.022	0.162	-0.177
-208.450	361.109	0.101	0.200
-207.436	224.418	-0.136	0.216
-206.421	800.000	-0.080	0.225
-205.406	-200.000	0.000	0.183
-204.392	240.166	-0.106	0.174
-203.377	-118.606	0.281	-0.049
-202.363	-200.000	0.054	0.260
-201.348	-189.464	-0.260	-0.003
-200.333	275.415	0.042	-0.074
-199.319	-194.326	-0.207	-0.002
-198.304	96.774	0.222	0.249
-197.290	-92.392	0.400	-0.111
-196.275	-42.526	0.178	-0.089
-195.260	-23.775	-0.086	-0.050
-194.246	248.097	0.326	-0.541
-193.231	90.400	-0.108	-0.119
-192.217	0.113	0.163	0.114
-191.202	-200.000	-0.042	0.195
-190.187	676.261	0.106	0.271
-189.173	148.301	0.254	0.337
-188.158	-200.000	0.018	0.106
-187.144	-200.000	0.003	-0.174
-186.129	-103.715	0.219	-0.050
-185.114	-62.045	-0.099	-0.040
-184.100	-54.484	-0.106	0.047
-183.085	-200.000	-0.016	-0.130
-182.071	138.126	0.149	0.192
-181.056	800.000	-0.095	0.266
-180.042	87.816	0.128	-0.139
-179.027	-72.748	-0.156	-0.057
-178.012	-109.538	0.343	-0.071
-176.998	-187.222	-0.444	0.006
-175.983	-112.550	0.338	-0.066
-174.969	-16.645	0.026	0.016
-173.954	-79.539	-0.145	-0.048
-172.939	-123.653	0.323	0.050
-171.925	246.066	0.192	0.317
-170.910	-200.000	0.037	0.240
-169.896	625.738	-0.116	-0.288
-168.881	-200.000	-0.036	0.365
-167.866	95.054	0.229	0.255
-166.852	549.032	0.082	-0.192
-165.837	-65.859	0.222	0.087
-164.823	-41.141	0.238	-0.121
-163.808	-200.000	-0.034	-0.178
-162.793	-79.371	-0.031	-0.010
-161.779	341.933	0.091	0.174
-160.764	-5.679	0.188	0.126
-159.750	-6.510	0.119	-0.080
-158.735	-48.114	-0.384	0.182
-157.720	-67.509	0.178	0.068
-156.706	-5.526	-0.281	0.189
-155.691	800.000	0.155	0.435
-154.677	22.869	0.201	0.161
-153.662	-200.000	0.018	0.111
-152.647	-200.000	-0.014	0.077
-151.633	170.456	0.235	0.329
-150.618	36.799	0.130	-0.112
-149.604	800.000	-0.037	-0.117
-148.589	518.777	0.108	0.248
-147.574	-22.118	0.176	0.105
-146.560	45.650	0.060	0.054
-145.545	-106.559	-0.150	0.033
-144.531	14.724	0.072	-0.055
-143.516	-200.000	0.015	-0.183
-142.502	800.000	-0.034	0.097
-141.487	-84.402	0.159	-0.049
-140.472	-92.343	-0.246	0.068
-139.458	-38.944	0.060	0.031
-138.443	-200.000	0.030	0.295
-137.429	418.690	0.173	0.363
-136.414	-87.842	0.024	-0.007
-135.399	-47.327	-0.135	0.064
-134.385	800.000	-0.083	0.259
-133.370	225.584	-0.103	0.163
-132.356	800.000	-0.081	0.233
-131.341	295.906	-0.146	-0.263
-130.326	-200.000	-0.030	0.140
-129.312	-200.000	0.013	0.123
-128.297	-66.275	-0.221	0.086
-127.283	-26.213	0.104	0.060
-126.268	120.324	-0.123	-0.149
-125.253	-165.322	-0.321	-0.014
-124.239	-90.098	-0.177	0.051
-123.224	513.247	0.110	-0.250
-122.210	-159.037	-0.299	0.017
-121.195	500.832	-0.062	-0.140
