DTS Sentinel unit serial number:	SN413079Multiplexer serial number:	ORYXHardware model number:	OX4-SRSoftware version number:	ORYX F/W v4.00 Oryx Data Collector v3.7.2.0data status	okinstallation	princeton_trtdifferential loss correction	single-endedforward channel	channel 2reverse channel	N/Adate	2019/09/11time	02:25:10forward acquisition time	60.00reverse acquisition time	0.00gamma	496.2192k internal	0.2331k external	0.2331temperature offset calibration	0.9941default loss term (dB/km)	0.3790temperature slope calibration	1.0000multiplexer offset coefficient	1.0000multiplexer slope coefficient	1.0000fibre end	0.00T internal ref (°C)	29.20T ext. ref 1 (°C)	-0.30T ext. ref 2 (°C)	23.52length (m)	temperature (°C)	Stokes	anti-Stokes-747.200	241.599	-0.086	0.145
-746.185	-72.714	-0.027	0.010
-745.171	-200.000	-0.027	0.335
-744.156	-173.287	0.298	-0.009
-743.142	-200.000	0.027	0.186
-742.127	-21.839	-0.190	-0.116
-741.112	-25.752	0.085	0.051
-740.098	219.107	0.114	0.183
-739.083	154.562	-0.311	-0.430
-738.069	-200.000	0.042	-0.252
-737.054	-24.793	-0.140	0.084
-736.039	181.024	-0.263	0.388
-735.025	176.284	-0.050	0.073
-734.010	714.009	0.110	-0.293
-732.996	-72.282	-0.295	-0.110
-731.981	-150.868	0.390	0.030
-730.966	-125.181	0.151	0.023
-729.952	-164.410	0.130	0.006
-728.937	726.081	-0.061	-0.164
-727.923	31.336	0.203	0.176
-726.908	-100.136	-0.222	0.055
-725.894	46.060	-0.052	0.049
-724.879	220.250	-0.061	-0.099
-723.864	-200.000	0.003	-0.341
-722.850	32.529	0.040	0.035
-721.835	30.150	-0.150	-0.129
-720.821	159.906	-0.073	0.102
-719.806	114.779	0.122	-0.149
-718.791	-200.000	-0.005	0.074
-717.777	414.961	0.172	-0.368
-716.762	800.000	0.049	-0.203
-715.748	-68.998	-0.249	-0.097
-714.733	109.137	0.241	-0.289
-713.718	206.909	-0.058	-0.091
-712.704	-136.112	-0.312	-0.037
-711.689	152.806	0.155	-0.213
-710.675	70.349	-0.055	0.057
-709.660	-200.000	-0.001	-0.016
-708.645	31.813	0.251	0.217
-707.631	-98.990	0.432	0.110
-706.616	-54.007	-0.353	-0.161
-705.602	-32.313	-0.105	0.059
-704.587	-79.679	-0.328	-0.111
-703.572	-24.766	-0.151	-0.090
-702.558	203.318	0.209	-0.324
-701.543	800.000	0.040	-0.116
-700.529	29.030	-0.207	0.177
-699.514	791.011	0.051	0.140
-698.499	-25.951	-0.230	-0.136
-697.485	99.643	-0.016	-0.019
-696.470	-200.000	-0.006	-0.113
-695.456	-81.130	-0.257	0.085
-694.441	115.351	-0.121	-0.148
-693.426	-49.339	-0.229	0.110
-692.412	-148.503	0.235	0.019
-691.397	31.563	0.038	0.033
-690.383	-17.152	-0.119	-0.075
-689.368	121.867	0.115	-0.144
-688.354	-22.306	0.331	0.201
-687.339	29.385	0.042	-0.036
-686.324	139.844	0.105	-0.140
-685.310	61.192	-0.054	-0.053
-684.295	800.000	0.053	-0.221
-683.281	-200.000	0.034	0.178
-682.266	58.345	0.128	0.126
-681.251	78.633	-0.079	-0.085
-680.237	-141.605	0.329	-0.033
-679.222	221.614	-0.141	0.227
-678.208	104.238	0.056	-0.067
-677.193	-172.308	-0.011	0.000
-676.178	800.000	0.042	0.130
-675.164	98.972	-0.065	0.075
-674.149	-143.657	0.033	0.003
-673.135	554.050	0.118	0.284
-672.120	228.291	-0.153	0.250
-671.105	23.821	0.092	-0.076
-670.091	120.274	0.224	-0.279
-669.076	158.916	-0.130	0.182
-668.062	-150.122	-0.332	-0.026
-667.047	-154.617	-0.356	0.024
-666.032	293.800	-0.207	-0.379
-665.018	141.714	-0.031	-0.041
-664.003	-96.295	-0.294	0.078
-662.989	-154.547	0.163	-0.011
-661.974	140.123	-0.101	-0.134
-660.959	-86.203	-0.210	0.065
-659.945	11.826	0.235	-0.181
-658.930	478.301	-0.068	0.154
-657.916	50.180	-0.257	0.244
-656.901	1.288	0.306	0.221
-655.886	65.254	-0.235	0.238
-654.872	-87.286	0.141	-0.043
-653.857	39.028	-0.145	-0.130
-652.843	800.000	0.044	0.179
-651.828	453.943	0.070	0.156
-650.814	174.649	-0.074	-0.108
-649.799	191.054	0.029	-0.043
-648.784	-118.205	-0.140	0.025
-647.770	-144.639	0.120	0.011
-646.755	-200.000	-0.013	-0.213
-645.741	42.245	-0.162	-0.148
-644.726	169.345	-0.137	-0.196
-643.711	90.480	0.042	0.047
-642.697	-200.000	-0.017	-0.320
-641.682	-66.287	-0.024	0.010
-640.668	-118.406	-0.071	-0.013
-639.653	-200.000	0.014	-0.119
-638.638	-42.884	-0.456	0.232
-637.624	215.809	-0.144	0.229
-636.609	122.405	0.277	0.347
-635.595	25.598	0.225	-0.188
-634.580	800.000	-0.067	0.279
-633.565	49.225	0.143	-0.135
-632.551	11.959	0.089	-0.068
-631.536	-31.175	-0.358	-0.202
-630.522	800.000	-0.037	-0.122
-629.507	-200.000	-0.000	-0.027
-628.492	-200.000	-0.027	0.172
-627.478	-166.546	0.135	-0.006
-626.463	1.063	-0.155	-0.111
-625.449	151.273	-0.088	-0.120
-624.434	122.687	-0.250	-0.313
-623.419	162.861	0.140	-0.197
-622.405	112.490	-0.246	0.298
-621.390	145.356	-0.184	-0.246
-620.376	304.277	-0.198	-0.368
-619.361	195.936	-0.016	-0.025
-618.346	-1.460	-0.077	-0.054
-617.332	-162.086	-0.233	-0.012
-616.317	-130.032	-0.289	0.040
-615.303	-200.000	0.019	0.120
-614.288	-200.000	0.007	-0.323
-613.273	-200.000	-0.028	0.160
-612.259	42.519	0.111	-0.101
-611.244	-122.526	-0.317	-0.052
-610.230	-61.448	0.240	0.101
-609.215	-151.393	0.374	0.028
-608.201	-70.529	-0.174	-0.066
-607.186	552.634	-0.014	-0.034
-606.171	184.261	0.174	-0.257
-605.157	52.833	-0.072	0.069
-604.142	-8.006	0.110	-0.074
-603.128	-109.382	-0.392	0.083
-602.113	26.027	0.316	-0.264
-601.098	-200.000	-0.048	-0.273
-600.084	41.797	-0.214	-0.194
-599.069	-136.248	-0.292	-0.034
-598.055	16.042	-0.123	0.097
-597.040	800.000	-0.081	-0.339
-596.025	-160.375	0.222	-0.012
-595.011	-189.686	-0.283	0.003
-593.996	-44.857	-0.077	-0.038
-592.982	-200.000	-0.112	-0.542
-591.967	-200.000	0.024	-0.604
-590.952	-107.306	0.164	0.036
-589.938	30.971	0.308	0.264
-588.923	284.265	-0.077	-0.139
-587.909	263.490	-0.032	0.055
-586.894	102.971	0.047	0.055
-585.879	-200.000	-0.004	0.115
-584.865	41.365	-0.243	-0.220
-583.850	327.921	-0.030	-0.059
-582.836	143.072	0.104	-0.139
-581.821	-200.000	-0.026	0.186
-580.806	-200.000	0.006	-0.286
-579.792	-50.273	-0.271	-0.128
-578.777	-200.000	-0.022	-0.109
-577.763	-200.000	-0.012	-0.098
-576.748	-41.807	-0.222	-0.114
-575.733	95.353	0.072	-0.082
-574.719	-79.027	-0.125	-0.043
-573.704	-56.674	-0.063	0.028
-572.690	-106.047	-0.131	-0.030
-571.675	-200.000	0.050	-0.296
-570.661	-85.465	-0.126	0.039
-569.646	-200.000	0.011	0.304
-568.631	-18.504	0.155	0.097
-567.617	-136.746	0.207	-0.024
-566.602	167.550	0.022	0.032
-565.588	-79.676	0.122	0.041
-564.573	136.681	-0.094	-0.122
-563.558	-26.731	-0.036	-0.021
-562.544	-200.000	0.002	-0.074
-561.529	118.921	-0.097	0.120
-560.515	800.000	-0.022	-0.091
-559.500	46.305	-0.093	0.086
-558.485	800.000	-0.027	-0.116
-557.471	-108.940	-0.285	0.061
-556.456	575.489	0.090	0.219
-555.442	123.755	0.326	-0.408
-554.427	1.794	-0.111	0.080
-553.412	-68.360	-0.126	-0.049
-552.398	-200.000	-0.064	-0.321
-551.383	197.576	0.347	-0.529
-550.369	489.237	-0.051	0.116
-549.354	285.584	0.040	0.071
-548.339	-200.000	0.008	0.189
-547.325	14.294	-0.194	-0.151
-546.310	62.746	-0.089	0.089
-545.296	-42.145	0.219	0.112
-544.281	800.000	0.006	-0.023
-543.266	14.719	0.044	-0.035
-542.252	800.000	0.043	-0.176
-541.237	-200.000	-0.399	-0.001
-540.223	-117.789	0.159	0.029
-539.208	800.000	0.071	-0.226
-538.193	800.000	-0.045	-0.170
-537.179	4.583	-0.172	0.126
-536.164	-200.000	-0.016	-0.548
-535.150	-15.461	0.287	-0.183
-534.135	560.456	-0.057	0.139
-533.121	-200.000	0.007	0.200
-532.106	-200.000	-0.015	0.097
-531.091	-61.183	-0.143	-0.060
-530.077	-200.000	0.006	-0.144
-529.062	729.310	-0.069	0.184
-528.048	106.383	0.121	-0.143
-527.033	-89.941	-0.230	-0.067
-526.018	110.114	0.098	-0.117
-525.004	24.112	-0.160	-0.131
-523.989	201.849	-0.066	0.101
-522.975	178.366	0.136	-0.198
-521.960	660.417	0.076	-0.195
-520.945	-72.985	-0.208	-0.076
-519.931	-200.000	-0.008	-0.176
-518.916	136.695	-0.085	0.111
-517.902	185.039	0.165	0.245
-516.887	-72.759	0.318	-0.117
-515.872	28.581	-0.103	0.087
-514.858	73.963	-0.180	-0.188
-513.843	-123.264	0.328	-0.052
-512.829	531.722	-0.060	0.140
-511.814	-26.087	0.207	0.122
-510.799	-200.000	0.027	0.168
-509.785	-111.681	-0.242	0.049
-508.770	374.286	0.054	-0.109
-507.756	77.893	0.030	0.032
-506.741	-92.881	-0.179	0.050
-505.726	227.516	-0.118	-0.191
-504.712	-200.000	0.053	0.407
-503.697	98.086	-0.033	-0.037
-502.683	-200.000	-0.007	-0.058
-501.668	800.000	-0.022	0.066
-500.653	-200.000	0.043	-0.421
-499.639	-103.581	-0.356	0.083
-498.624	-111.901	-0.132	-0.027
-497.610	-36.007	0.083	0.045
-496.595	37.264	0.167	0.148
-495.581	186.096	-0.070	-0.104
-494.566	-200.000	0.030	0.246
-493.551	402.936	0.070	0.147
-492.537	-200.000	0.006	-0.255
-491.522	-28.892	-0.116	-0.066
-490.508	-74.822	0.237	0.085
-489.493	-200.000	0.004	-0.045
-488.478	-127.006	-0.248	0.036
-487.464	-29.901	-0.095	-0.054
-486.449	-167.054	-0.195	0.008
-485.435	-98.985	0.031	0.008
-484.420	-102.928	-0.080	0.019
-483.405	1.911	0.272	0.195
-482.391	66.754	0.165	-0.168
-481.376	-82.252	0.269	-0.087
-480.362	446.014	-0.110	0.241
-479.347	-200.000	-0.007	0.133
-478.332	343.920	0.226	-0.441
-477.318	-9.265	0.217	0.144
-476.303	50.207	-0.067	-0.063
-475.289	-157.670	-0.150	0.009
-474.274	-1.035	0.108	0.076
-473.259	31.813	0.278	0.238
-472.245	89.981	-0.109	0.121
-471.230	-200.000	-0.021	0.360
-470.216	584.485	-0.050	0.122
-469.201	31.908	0.255	-0.219
-468.186	-125.175	0.378	0.058
-467.172	33.367	0.155	0.134
-466.157	-51.159	0.064	-0.030
-465.143	186.879	-0.142	0.210
-464.128	89.289	-0.139	0.155
-463.113	-200.000	-0.014	-0.097
-462.099	583.128	0.046	-0.113
-461.084	-153.835	-0.390	-0.027
-460.070	800.000	-0.062	0.260
-459.055	454.318	-0.020	-0.044
-458.040	300.735	0.032	0.059
-457.026	287.937	0.088	0.159
-456.011	122.390	-0.168	-0.209
-454.997	109.766	0.113	0.134
-453.982	-39.350	-0.357	0.186
-452.968	115.173	0.086	-0.105
-451.953	318.212	-0.233	-0.438
-450.938	-90.079	-0.271	-0.079
-449.924	-200.000	0.033	-0.242
-448.909	-23.062	0.184	-0.110
-447.895	-122.944	-0.383	0.061
-446.880	-81.097	-0.027	-0.009
-445.865	-200.000	0.050	0.262
-444.851	298.823	0.049	0.089
-443.836	111.428	0.168	0.202
-442.822	-42.627	0.300	0.152
-441.807	-26.366	-0.140	0.081
-440.792	-90.596	0.048	-0.014
-439.778	-200.000	-0.004	-0.026
-438.763	742.811	0.119	0.318
-437.749	-200.000	0.030	0.218
-436.734	38.384	-0.169	0.149
-435.719	-152.783	-0.083	0.006
-434.705	-200.000	-0.024	0.202
-433.690	-200.000	-0.028	0.161
-432.676	-107.285	0.096	0.021
-431.661	77.049	0.127	0.134
-430.646	-64.991	0.245	-0.098
-429.632	-99.653	0.175	-0.044
-428.617	-200.000	0.053	0.239
-427.603	-200.000	0.003	-0.189
-426.588	248.520	0.080	0.135
-425.573	800.000	0.083	0.231
-424.559	181.776	0.152	0.223
-423.544	-200.000	0.065	-0.557
-422.530	16.278	0.296	-0.232
-421.515	-31.714	-0.235	-0.131
-420.500	5.407	0.281	-0.206
-419.486	3.716	-0.331	-0.240
-418.471	-200.000	0.075	-0.457
-417.457	-200.000	0.046	0.297
-416.442	-71.911	-0.195	-0.072
-415.428	285.114	-0.158	-0.283
-414.413	-26.569	-0.202	-0.117
-413.398	3.008	-0.115	-0.083
-412.384	655.560	0.071	-0.181
-411.369	-200.000	-0.013	-0.088
-410.355	58.811	-0.171	-0.167
-409.340	84.062	0.012	0.013
-408.325	-200.000	0.040	-0.209
-407.311	-200.000	0.014	-0.203
-406.296	4.673	0.216	0.158
-405.282	-180.564	-0.387	0.008
-404.267	-61.727	-0.095	0.040
-403.252	682.450	-0.037	0.097
-402.238	800.000	0.033	0.137
-401.223	-122.205	0.315	0.051
-400.209	800.000	-0.031	-0.116
-399.194	85.381	-0.173	-0.189
-398.179	-64.424	0.226	-0.091
-397.165	-65.224	-0.058	-0.023
-396.150	70.620	-0.254	0.261
-395.136	-200.000	0.070	0.475
-394.121	19.577	0.200	0.160
-393.106	-59.344	0.132	0.056
-392.092	-103.597	0.202	0.047
-391.077	421.373	-0.055	-0.116
-390.063	-137.678	-0.080	-0.009
-389.048	119.917	0.213	-0.262
-388.033	-186.823	0.170	0.002
-387.019	363.371	0.034	0.068
-386.004	-4.067	-0.175	0.120
-384.990	-20.819	0.060	-0.037
-383.975	191.797	-0.164	0.245
-382.960	-200.000	-0.030	-0.305
-381.946	-139.963	0.055	0.006
-380.931	51.294	0.229	-0.215
-379.917	35.284	0.060	-0.052
-378.902	21.042	0.295	-0.238
-377.888	-200.000	0.057	0.293
-376.873	89.606	-0.416	0.461
-375.858	154.122	0.169	0.230
-374.844	-200.000	0.003	0.050
-373.829	16.733	0.337	0.264
-372.815	102.545	0.252	0.292
-371.800	-65.070	-0.118	0.047
-370.785	161.063	-0.087	0.121
-369.771	-198.972	-0.326	0.002
-368.756	-84.294	-0.247	-0.078
-367.742	-114.764	0.078	-0.015
-366.727	-200.000	-0.030	0.192
-365.712	356.003	-0.135	0.267
-364.698	99.378	-0.098	0.112
-363.683	800.000	0.031	0.090
-362.669	-77.063	0.117	-0.040
-361.654	-61.568	-0.466	0.194
-360.639	29.611	0.170	0.143
-359.625	-119.120	0.158	-0.027
-358.610	174.795	0.088	0.126
-357.596	-86.805	0.255	-0.077
-356.581	-200.000	0.037	0.323
-355.566	462.196	0.044	-0.097
-354.552	-88.944	-0.075	0.022
-353.537	-71.506	0.176	-0.065
-352.523	800.000	-0.075	-0.268
-351.508	20.013	-0.172	0.137
-350.493	-200.000	-0.017	-0.374
-349.479	-70.299	-0.036	0.013
-348.464	800.000	0.059	0.237
-347.450	-115.748	0.228	0.042
-346.435	-182.088	0.077	-0.001
-345.420	-200.000	0.004	-0.563
-344.406	-200.000	0.037	-0.170
-343.391	-58.965	-0.232	0.099
-342.377	42.353	0.124	0.111
-341.362	-200.000	0.059	-0.313
-340.348	340.121	-0.197	0.381
-339.333	133.818	-0.150	0.192
-338.318	800.000	0.125	-0.347
-337.304	-43.919	0.319	-0.159
-336.289	240.491	-0.072	0.119
-335.275	415.729	0.045	-0.094
-334.260	-200.000	0.194	0.000
-333.245	32.212	0.089	0.076
-332.231	-161.104	-0.211	-0.011
-331.216	-200.000	-0.015	0.285
-330.202	-146.365	0.249	0.022
-329.187	22.699	-0.192	-0.156
-328.172	-19.867	0.182	-0.111
-327.158	83.780	-0.363	-0.392
-326.143	-115.012	0.182	0.034
-325.129	-77.560	0.152	-0.052
-324.114	-108.370	-0.213	0.046
-323.099	320.077	-0.117	-0.219
-322.085	-5.656	-0.145	0.099
-321.070	325.384	-0.096	0.182
-320.056	-82.076	0.195	-0.063
-319.041	83.134	0.249	-0.269
-318.026	800.000	-0.079	0.302
-317.012	-32.556	0.196	0.108
-315.997	-25.305	0.288	-0.168
-314.983	-103.825	-0.249	0.058
-313.968	-102.688	0.142	0.034
-312.953	100.260	-0.179	0.205
-311.939	119.464	-0.194	0.237
-310.924	800.000	-0.066	-0.262
-309.910	482.944	-0.041	0.091
-308.895	-200.000	-0.006	0.128
-307.880	800.000	-0.023	-0.064
-306.866	-190.640	0.085	-0.001
-305.851	-60.475	0.357	0.150
-304.837	800.000	-0.134	0.433
-303.822	659.486	0.118	0.301
-302.807	-90.311	-0.217	-0.062
-301.793	467.542	0.073	0.163
-300.778	800.000	-0.057	0.158
-299.764	-110.671	0.185	0.038
-298.749	-21.436	-0.201	-0.121
-297.735	-200.000	-0.016	0.218
-296.720	-200.000	-0.017	-0.377
-295.705	800.000	-0.051	0.141
-294.691	-54.088	0.080	-0.036
-293.676	50.716	-0.232	-0.217
-292.662	-73.565	0.188	0.068
-291.647	171.477	-0.104	-0.148
-290.632	44.622	-0.199	-0.181
-289.618	-13.640	0.129	0.083
-288.603	-67.642	-0.114	0.044
-287.589	20.136	0.211	0.168
-286.574	152.695	-0.272	0.367
-285.559	464.999	-0.029	0.064
-284.545	-114.890	0.167	0.031
-283.530	-89.685	-0.473	0.137
-282.516	-200.000	0.000	0.124
-281.501	-64.275	0.072	0.029
-280.486	800.000	0.043	-0.136
-279.472	-125.123	0.085	0.013
-278.457	-55.366	0.076	0.033
-277.443	-200.000	-0.048	0.259
-276.428	87.538	0.061	0.067
-275.413	332.606	-0.187	0.358
-274.399	-77.743	0.056	0.019
-273.384	244.414	0.228	-0.379
-272.370	-65.640	-0.121	-0.048
-271.355	-200.000	0.041	-0.343
-270.340	353.641	0.040	-0.079
-269.326	-200.000	0.019	-0.353
-268.311	93.098	0.267	-0.298
-267.297	-200.000	-0.031	-0.159
-266.282	29.948	0.382	0.322
-265.267	-200.000	0.011	0.317
-264.253	800.000	-0.054	-0.177
-263.238	-200.000	-0.020	-0.154
-262.224	237.801	0.171	0.280
-261.209	-110.262	0.282	-0.058
-260.195	800.000	0.023	0.097
-259.180	800.000	0.123	-0.499
-258.165	-0.224	0.313	0.219
-257.151	97.812	0.109	0.124
-256.136	-103.072	-0.214	-0.050
-255.122	-17.604	0.260	0.161
-254.107	-76.710	0.130	-0.045
-253.092	-54.416	0.107	0.048
-252.078	-200.000	-0.047	0.378
-251.063	-156.440	0.235	-0.014
-250.049	237.451	0.172	-0.282
-249.034	-165.782	-0.270	0.011
-248.019	-17.949	-0.251	0.155
-247.005	-59.949	0.447	-0.188
-245.990	-200.000	-0.016	-0.099
-244.976	322.050	0.098	-0.184
-243.961	-4.268	-0.092	0.063
-242.946	20.713	0.035	-0.028
-241.932	13.899	0.285	0.219
-240.917	-93.262	-0.165	0.045
-239.903	480.835	-0.048	0.106
-238.888	352.467	-0.110	0.216
-237.873	-17.727	0.241	0.149
-236.859	800.000	-0.058	0.225
-235.844	37.131	-0.186	0.162
-234.830	-149.073	0.150	0.012
-233.815	-200.000	0.007	0.105
-232.800	-82.573	-0.265	0.085
-231.786	-200.000	-0.020	-0.134
-230.771	-200.000	0.003	-0.136
-229.757	-71.566	0.116	-0.043
-228.742	-59.248	-0.140	-0.060
-227.727	-123.589	-0.018	0.003
-226.713	645.924	-0.059	0.149
-225.698	97.627	-0.167	-0.190
-224.684	-200.000	-0.008	0.044
-223.669	-111.185	0.314	-0.063
-222.655	191.649	0.272	0.404
-221.640	-91.356	0.308	-0.087
-220.625	215.323	0.093	-0.145
-219.611	95.973	-0.267	-0.301
-218.596	800.000	0.061	0.190
-217.582	-26.753	-0.107	0.062
-216.567	-200.000	-0.015	0.329
-215.552	204.015	-0.085	0.130
-214.538	-153.366	0.505	0.035
-213.523	1.670	-0.051	-0.036
-212.509	-75.968	-0.079	0.027
-211.494	484.495	0.100	0.225
-210.479	509.008	0.030	0.069
-209.465	-172.269	0.126	0.004
-208.450	-130.947	-0.162	0.021
-207.436	800.000	-0.104	0.437
-206.421	-135.976	0.330	-0.038
-205.406	-20.732	-0.243	-0.147
-204.392	-200.000	0.000	0.063
-203.377	242.543	-0.094	-0.155
-202.363	-88.236	0.362	-0.107
-201.348	17.012	0.046	0.036
-200.333	763.345	-0.240	0.641
-199.319	-200.000	0.005	0.023
-198.304	-23.835	-0.092	-0.054
-197.290	-115.477	-0.182	0.034
-196.275	-100.497	-0.154	0.038
-195.260	-15.410	-0.033	0.021
-194.246	-88.834	0.270	0.079
-193.231	509.618	-0.088	-0.202
-192.217	-123.486	-0.222	0.035
-191.202	-29.070	-0.158	-0.089
-190.187	-7.109	0.172	0.115
-189.173	-200.000	-0.020	0.087
-188.158	165.328	0.121	-0.169
-187.144	301.717	0.229	0.416
-186.129	-131.741	0.369	0.048
-185.114	-187.585	-0.237	0.003
-184.100	-90.136	-0.122	0.035
-183.085	-200.000	0.055	-0.340
-182.071	-106.794	-0.158	0.034
-181.056	315.150	-0.084	-0.157
-180.042	-90.555	-0.204	-0.058
-179.027	-182.593	0.197	0.004
-178.012	81.561	0.157	-0.167
-176.998	126.263	0.076	-0.094
-175.983	-73.436	-0.192	0.069
-174.969	148.629	0.144	0.191
-173.954	336.860	0.130	0.248
-172.939	102.993	-0.027	0.032
-171.925	-97.751	-0.316	0.080
-170.910	800.000	0.060	0.247
-169.896	529.442	0.175	-0.407
-168.881	171.062	-0.046	0.065
-167.866	32.256	0.068	-0.057
-166.852	-10.191	-0.099	-0.065
-165.837	-200.000	-0.042	-0.261
-164.823	-42.417	0.227	0.114
-163.808	70.563	-0.057	0.058
-162.793	800.000	0.055	-0.191
-161.779	567.900	-0.083	-0.198
-160.764	-87.762	0.185	-0.055
-159.750	-100.771	-0.125	-0.030
-158.735	-25.287	-0.069	0.040
-157.720	149.791	-0.094	0.125
-156.706	-106.114	0.082	0.018
-155.691	13.877	0.296	0.227
-154.677	23.316	-0.364	0.294
-153.662	-49.206	-0.295	0.139
-152.647	800.000	-0.073	0.303
-151.633	800.000	0.019	0.065
-150.618	-200.000	0.030	-0.321
-149.604	162.879	-0.136	0.188
-148.589	17.212	0.267	0.208
-147.574	-118.278	-0.294	0.051
-146.560	-62.191	0.372	0.152
-145.545	141.749	0.206	0.268
-144.531	-35.658	-0.266	-0.142
-143.516	0.479	-0.074	-0.052
-142.502	-100.022	-0.123	-0.030
-141.487	107.096	-0.073	-0.086
-140.472	-68.820	0.463	-0.176
-139.458	-7.658	0.266	0.177
-138.443	-36.597	-0.342	-0.181
-137.429	515.907	-0.064	0.146
-136.414	676.408	-0.161	-0.412
-135.399	800.000	-0.036	0.102
-134.385	800.000	0.021	-0.090
-133.370	70.700	-0.150	-0.152
-132.356	-111.777	0.020	-0.004
-131.341	82.183	0.103	-0.110
-130.326	-179.613	0.422	0.009
-129.312	-70.930	-0.071	0.026
-128.297	800.000	0.034	0.111
-127.283	-122.559	0.167	0.027
-126.268	133.739	0.084	-0.106
-125.253	-200.000	0.071	0.408
-124.239	376.478	0.075	-0.150
-123.224	-48.533	0.235	-0.111
-122.210	800.000	0.115	0.365
-121.195	-68.716	0.560	0.213
