DTS Sentinel unit serial number:	SN413079Multiplexer serial number:	ORYXHardware model number:	OX4-SRSoftware version number:	ORYX F/W v4.00 Oryx Data Collector v3.7.2.0data status	okinstallation	princeton_trtdifferential loss correction	single-endedforward channel	channel 2reverse channel	N/Adate	2019/09/19time	01:51:35forward acquisition time	60.00reverse acquisition time	0.00gamma	496.2192k internal	0.2353k external	0.2353temperature offset calibration	1.0016default loss term (dB/km)	0.3790temperature slope calibration	1.0000multiplexer offset coefficient	1.0000multiplexer slope coefficient	1.0000fibre end	0.00T internal ref (°C)	21.37T ext. ref 1 (°C)	0.69T ext. ref 2 (°C)	14.77length (m)	temperature (°C)	Stokes	anti-Stokes-747.200	-109.990	0.158	0.033
-746.185	-108.459	-0.392	-0.084
-745.171	556.985	0.079	0.190
-744.156	800.000	-0.085	0.333
-743.142	-133.965	-0.464	0.057
-742.127	-139.177	0.287	-0.031
-741.112	186.286	0.124	0.184
-740.098	-200.000	-0.010	0.323
-739.083	800.000	0.036	0.105
-738.069	-200.000	-0.036	0.296
-737.054	248.233	-0.155	0.261
-736.039	-200.000	0.036	0.239
-735.025	19.013	0.074	-0.059
-734.010	800.000	-0.067	0.186
-732.996	-150.422	-0.093	0.007
-731.981	800.000	-0.129	0.378
-730.966	-147.522	-0.413	0.035
-729.952	84.703	-0.218	-0.237
-728.937	-200.000	-0.001	0.107
-727.923	632.604	-0.086	-0.217
-726.908	-115.259	-0.136	-0.026
-725.894	-77.320	0.114	0.039
-724.879	-88.825	0.082	0.024
-723.864	-15.734	-0.164	-0.104
-722.850	-200.000	0.012	0.110
-721.835	39.659	0.093	-0.083
-720.821	-25.217	-0.246	-0.145
-719.806	-44.627	0.055	-0.027
-718.791	-11.488	-0.039	0.025
-717.777	-62.269	-0.146	0.060
-716.762	263.777	0.147	-0.254
-715.748	800.000	0.125	-0.449
-714.733	-1.941	0.200	-0.140
-713.718	243.850	0.141	0.235
-712.704	-200.000	0.009	-0.209
-711.689	-131.649	-0.043	-0.006
-710.675	499.473	-0.006	0.014
-709.660	800.000	-0.049	-0.203
-708.645	-107.712	-0.240	-0.052
-707.631	-11.554	0.083	-0.054
-706.616	-200.000	0.064	0.340
-705.602	-167.316	-0.196	0.008
-704.587	-101.403	-0.242	-0.059
-703.572	-200.000	0.040	0.194
-702.558	16.773	0.089	0.070
-701.543	4.559	-0.349	-0.255
-700.529	75.638	-0.271	0.285
-699.514	2.632	0.221	-0.159
-698.499	-55.001	-0.203	0.091
-697.485	421.989	0.049	0.105
-696.470	-65.705	-0.233	0.093
-695.456	-108.944	-0.349	-0.074
-694.441	-166.648	0.272	0.011
-693.426	24.164	-0.191	0.157
-692.412	-80.337	0.060	-0.020
-691.397	20.090	0.099	0.079
-690.383	232.100	0.095	-0.155
-689.368	535.965	-0.171	-0.404
-688.354	-136.706	-0.292	0.033
-687.339	-200.000	-0.022	-0.382
-686.324	-200.000	-0.098	-0.435
-685.310	-200.000	0.015	-0.171
-684.295	87.823	0.137	0.151
-683.281	800.000	-0.099	-0.289
-682.266	4.268	0.158	0.115
-681.251	51.135	0.080	0.075
-680.237	-84.318	-0.140	-0.044
-679.222	691.197	0.050	0.130
-678.208	181.115	-0.196	-0.287
-677.193	800.000	0.042	-0.169
-676.178	800.000	0.076	0.271
-675.164	-58.060	-0.053	0.023
-674.149	-85.655	0.369	-0.114
-673.135	800.000	0.046	-0.182
-672.120	-121.308	0.397	0.066
-671.105	-15.872	0.352	-0.223
-670.091	-83.937	-0.208	0.066
-669.076	532.214	-0.031	-0.073
-668.062	-200.000	0.014	0.328
-667.047	-81.907	0.103	-0.033
-666.032	-8.358	-0.138	-0.092
-665.018	800.000	-0.048	-0.181
-664.003	110.655	-0.054	-0.064
-662.989	-135.228	-0.191	0.023
-661.974	104.406	0.174	-0.204
-660.959	322.705	-0.112	-0.213
-659.945	47.867	0.197	-0.182
-658.930	-95.830	-0.140	-0.037
-657.916	-122.761	-0.357	-0.057
-656.901	-112.419	-0.130	-0.026
-655.886	104.039	0.258	0.301
-654.872	-200.000	0.009	0.334
-653.857	406.229	-0.038	-0.079
-652.843	682.435	0.080	0.207
-651.828	260.646	0.013	-0.022
-650.814	431.223	0.160	0.344
-649.799	800.000	-0.059	-0.206
-648.784	-16.224	0.097	0.061
-647.770	41.096	0.311	0.279
-646.755	-22.247	-0.216	0.130
-645.741	-200.000	-0.004	0.210
-644.726	-31.647	0.224	-0.125
-643.711	135.387	-0.141	-0.182
-642.697	-200.000	0.018	-0.302
-641.682	-11.362	0.109	-0.071
-640.668	662.764	0.121	-0.310
-639.653	167.153	-0.185	-0.261
-638.638	202.998	0.034	0.052
-637.624	760.835	0.048	-0.128
-636.609	800.000	-0.106	0.321
-635.595	274.708	-0.121	-0.213
-634.580	-100.739	-0.185	-0.045
-633.565	-200.000	-0.015	0.110
-632.551	92.172	0.141	0.158
-631.536	90.815	0.238	-0.265
-630.522	-19.730	-0.061	-0.037
-629.507	-200.000	-0.003	0.051
-628.492	-77.859	-0.400	0.137
-627.478	-59.320	-0.181	0.077
-626.463	225.476	-0.066	-0.106
-625.449	-200.000	-0.025	-0.159
-624.434	314.737	0.063	-0.117
-623.419	-69.262	-0.102	-0.039
-622.405	-20.428	0.236	0.144
-621.390	239.296	0.082	-0.136
-620.376	800.000	0.084	-0.277
-619.361	48.197	0.133	-0.123
-618.346	-200.000	-0.001	-0.203
-617.332	232.768	-0.110	-0.179
-616.317	191.865	-0.083	-0.123
-615.303	-200.000	0.006	-0.165
-614.288	107.663	-0.171	0.201
-613.273	16.291	-0.214	0.167
-612.259	-123.484	0.687	-0.108
-611.244	800.000	-0.031	0.103
-610.230	22.176	-0.189	0.153
-609.215	132.125	0.085	-0.109
-608.201	5.695	-0.248	0.182
-607.186	55.995	-0.061	0.058
-606.171	-96.287	0.348	0.091
-605.157	264.121	-0.193	-0.334
-604.142	-178.928	0.171	-0.004
-603.128	-119.562	0.076	-0.013
-602.113	-29.910	0.207	-0.117
-601.098	-89.433	0.353	0.103
-600.084	285.495	-0.083	-0.149
-599.069	-200.000	0.009	-0.103
-598.055	-165.718	0.035	0.002
-597.040	261.967	0.200	0.344
-596.025	-200.000	0.010	-0.227
-595.011	800.000	-0.035	0.108
-593.996	-176.640	-0.264	0.007
-592.982	8.611	-0.195	-0.146
-591.967	-144.208	0.223	-0.021
-590.952	96.359	-0.175	-0.199
-589.938	-95.199	-0.392	-0.105
-588.923	277.354	-0.046	-0.081
-587.909	110.715	-0.156	-0.186
-586.894	-1.591	-0.061	-0.043
-585.879	-130.164	-0.142	0.019
-584.865	192.022	-0.110	0.164
-583.850	76.299	-0.114	0.119
-582.836	-200.000	0.031	0.197
-581.821	67.650	-0.034	0.034
-580.806	119.710	-0.111	0.137
-579.792	-27.994	0.397	-0.227
-578.777	360.683	-0.103	-0.205
-577.763	-100.480	-0.022	0.005
-576.748	-88.565	0.171	0.050
-575.733	55.444	-0.037	0.035
-574.719	260.444	-0.069	-0.118
-573.704	190.780	0.245	-0.365
-572.690	183.853	0.176	0.258
-571.675	396.394	0.079	0.163
-570.661	522.818	-0.051	0.118
-569.646	51.789	0.070	0.066
-568.631	68.832	-0.161	-0.163
-567.617	-159.570	0.162	0.009
-566.602	14.164	0.131	-0.101
-565.588	-81.588	-0.153	0.050
-564.573	35.538	0.171	0.149
-563.558	-160.018	0.126	-0.007
-562.544	45.300	-0.171	0.156
-561.529	25.523	-0.214	-0.176
-560.515	-104.970	0.106	0.024
-559.500	747.489	-0.049	0.131
-558.485	800.000	0.051	-0.185
-557.471	196.262	-0.197	-0.297
-556.456	565.461	-0.079	-0.189
-555.442	19.064	-0.124	0.098
-554.427	199.112	0.058	0.088
-553.412	-200.000	-0.058	0.466
-552.398	42.902	0.208	0.188
-551.383	-105.351	-0.114	-0.026
-550.369	343.418	-0.150	-0.291
-549.354	-200.000	0.023	-0.190
-548.339	786.933	0.079	0.214
-547.325	51.928	-0.243	0.229
-546.310	79.309	0.086	0.092
-545.296	-65.799	0.212	0.084
-544.281	-18.492	-0.187	0.116
-543.266	-58.144	0.260	-0.112
-542.252	367.624	-0.027	-0.053
-541.237	504.818	0.020	-0.045
-540.223	-200.000	-0.087	0.526
-539.208	-21.325	0.275	-0.166
-538.193	77.666	-0.042	-0.044
-537.179	96.163	0.280	-0.317
-536.164	-71.231	-0.359	0.133
-535.150	-73.918	0.278	-0.100
-534.135	311.941	0.085	0.157
-533.121	-25.576	-0.078	-0.046
-532.106	-200.000	-0.039	0.410
-531.091	15.143	0.192	-0.149
-530.077	63.340	0.049	0.048
-529.062	461.062	0.127	0.280
-528.048	-129.756	0.533	-0.073
-527.033	-200.000	0.021	-0.165
-526.018	202.518	-0.036	-0.055
-525.004	161.517	-0.075	-0.104
-523.989	-92.895	-0.359	0.099
-522.975	-27.547	-0.295	0.169
-521.960	-200.000	0.005	0.338
-520.945	357.075	-0.103	0.203
-519.931	606.860	-0.072	-0.176
-518.916	-105.717	0.059	-0.013
-517.902	-200.000	-0.021	-0.153
-516.887	182.589	0.122	0.178
-515.872	-200.000	0.000	0.127
-514.858	-147.684	-0.149	0.012
-513.843	-165.486	-0.107	-0.005
-512.829	800.000	-0.014	-0.040
-511.814	126.487	0.118	-0.147
-510.799	216.003	0.014	0.023
-509.785	-97.620	-0.399	-0.102
-508.770	666.907	-0.088	-0.225
-507.756	-200.000	0.031	-0.295
-506.741	102.935	-0.055	0.063
-505.726	465.341	-0.162	-0.358
-504.712	-99.960	-0.362	0.089
-503.697	-200.000	0.020	0.097
-502.683	-68.537	0.228	0.087
-501.668	800.000	-0.017	0.065
-500.653	-200.000	-0.016	-0.338
-499.639	-200.000	-0.019	0.198
-498.624	133.526	-0.118	-0.150
-497.610	80.993	-0.230	0.245
-496.595	800.000	0.026	-0.085
-495.581	-62.908	-0.294	-0.120
-494.566	-200.000	0.042	-0.306
-493.551	-200.000	-0.030	0.157
-492.537	-146.135	0.195	0.017
-491.522	-136.079	-0.270	0.031
-490.508	62.930	-0.237	0.234
-489.493	595.384	0.116	0.282
-488.478	150.354	0.069	0.093
-487.464	-145.509	-0.485	0.043
-486.449	-200.000	0.031	-0.244
-485.435	-74.080	0.194	0.069
-484.420	-200.000	-0.651	-0.003
-483.405	-164.486	0.176	-0.008
-482.391	11.470	-0.115	0.087
-481.376	117.779	0.160	0.194
-480.362	-161.602	-0.275	-0.014
-479.347	-200.000	-0.011	-0.280
-478.332	253.574	0.080	-0.135
-477.318	546.270	0.136	0.321
-476.303	-200.000	0.052	0.396
-475.289	156.091	0.062	0.084
-474.274	-1.268	0.372	-0.259
-473.259	760.204	-0.113	0.302
-472.245	800.000	0.070	-0.244
-471.230	95.394	-0.110	0.124
-470.216	-200.000	0.000	-0.471
-469.201	132.945	0.173	-0.220
-468.186	421.853	-0.073	0.155
-467.172	-200.000	0.049	0.244
-466.157	157.590	0.197	0.269
-465.143	800.000	0.063	-0.188
-464.128	-1.540	-0.239	0.166
-463.113	-200.000	-0.052	-0.242
-462.099	-115.493	-0.142	-0.026
-461.084	-44.387	-0.276	0.136
-460.070	-81.858	0.103	0.033
-459.055	-37.602	0.227	-0.119
-458.040	36.353	-0.117	0.102
-457.026	350.749	-0.067	0.131
-456.011	81.974	0.180	-0.192
-454.997	34.788	0.206	-0.177
-453.982	800.000	0.026	-0.071
-452.968	333.787	-0.050	0.096
-451.953	-121.494	0.115	-0.019
-450.938	-182.785	0.348	0.006
-449.924	-107.454	-0.314	0.068
-448.909	-66.555	-0.287	0.112
-447.895	-86.004	0.055	-0.017
-446.880	-23.510	-0.362	0.214
-445.865	51.266	0.319	0.299
-444.851	-36.295	0.083	0.044
-443.836	372.719	0.050	-0.101
-442.822	-200.000	0.028	-0.153
-441.807	800.000	0.066	0.202
-440.792	391.792	-0.107	-0.219
-439.778	20.364	-0.145	0.115
-438.763	-200.000	0.008	-0.250
-437.749	310.190	-0.212	0.391
-436.734	-78.405	0.391	-0.132
-435.719	247.768	-0.084	-0.141
-434.705	-200.000	0.022	-0.121
-433.690	800.000	-0.058	0.213
-432.676	-5.767	0.196	0.132
-431.661	-42.462	0.077	-0.039
-430.646	-200.000	0.015	-0.176
-429.632	-36.397	0.364	0.193
-428.617	-85.091	0.362	0.112
-427.603	-200.000	-0.026	0.198
-426.588	800.000	0.042	-0.124
-425.573	-63.779	-0.210	0.085
-424.559	-4.002	0.143	0.098
-423.544	-5.845	0.310	0.209
-422.530	800.000	-0.034	-0.112
-421.515	-45.748	0.291	-0.141
-420.500	-200.000	-0.033	0.276
-419.486	247.073	-0.177	0.294
-418.471	4.820	-0.242	0.175
-417.457	-134.207	0.161	-0.020
-416.442	309.993	0.064	-0.117
-415.428	800.000	-0.027	-0.098
-414.413	442.697	-0.105	0.226
-413.398	67.969	0.280	0.282
-412.384	6.868	0.273	-0.200
-411.369	-157.905	0.306	0.018
-410.355	-200.000	0.014	0.267
-409.340	13.760	0.208	0.159
-408.325	-13.198	-0.125	-0.080
-407.311	-200.000	-0.005	0.309
-406.296	-32.815	-0.022	-0.012
-405.282	-200.000	-0.010	-0.194
-404.267	-200.000	0.001	-0.085
-403.252	-105.616	0.136	-0.030
-402.238	-100.018	-0.135	0.033
-401.223	-200.000	0.020	0.101
-400.209	468.729	-0.018	-0.039
-399.194	-152.607	-0.112	0.008
-398.179	173.796	-0.158	-0.224
-397.165	-97.082	0.040	-0.010
-396.150	-200.000	0.014	-0.136
-395.136	-137.769	-0.261	0.029
-394.121	106.113	0.039	-0.046
-393.106	-13.982	0.054	-0.034
-392.092	33.990	-0.254	0.218
-391.077	-162.619	0.467	0.023
-390.063	-78.899	-0.136	0.046
-389.048	-72.743	0.125	0.045
-388.033	-117.905	-0.328	-0.058
-387.019	274.264	-0.100	-0.175
-386.004	-170.998	0.395	-0.013
-384.990	209.604	0.287	-0.443
-383.975	-54.981	-0.230	0.102
-382.960	-41.993	-0.086	0.043
-381.946	-26.525	0.095	-0.054
-380.931	-200.000	-0.025	-0.178
-379.917	18.777	-0.142	-0.112
-378.902	-200.000	-0.007	-0.206
-377.888	-200.000	-0.076	0.373
-376.873	39.301	0.168	-0.148
-375.858	434.088	0.019	0.041
-374.844	-104.727	-0.239	0.054
-373.829	-36.227	0.121	0.064
-372.815	-39.673	0.147	0.076
-371.800	119.119	-0.084	0.102
-370.785	-188.100	0.116	-0.001
-369.771	-86.776	-0.229	-0.069
-368.756	103.735	0.078	-0.089
-367.742	286.706	0.146	-0.259
-366.727	-92.935	-0.189	0.052
-365.712	-200.000	-0.007	0.069
-364.698	800.000	-0.156	-0.457
-363.683	13.585	0.118	-0.090
-362.669	-4.701	-0.423	-0.286
-361.654	553.997	0.074	0.176
-360.639	-200.000	0.052	-0.349
-359.625	800.000	-0.091	-0.247
-358.610	-58.213	0.285	0.122
-357.596	-73.232	-0.148	-0.053
-356.581	-18.339	-0.272	-0.167
-355.566	109.191	0.375	0.441
-354.552	800.000	-0.050	0.208
-353.537	608.619	-0.151	0.369
-352.523	-107.532	0.157	0.034
-351.508	89.859	-0.209	-0.230
-350.493	-200.000	0.001	-0.306
-349.479	-200.000	0.011	0.062
-348.464	251.345	-0.181	0.303
-347.450	-200.000	0.020	0.144
-346.435	-6.860	0.026	0.018
-345.420	-89.549	-0.212	0.061
-344.406	-177.862	-0.251	-0.006
-343.391	-144.253	0.115	0.011
-342.377	78.243	0.117	-0.122
-341.362	800.000	-0.067	-0.193
-340.348	-200.000	0.020	-0.152
-339.333	-200.000	-0.023	0.448
-338.318	84.797	-0.201	-0.216
-337.304	-46.301	0.546	0.263
-336.289	72.340	0.164	0.167
-335.275	-29.404	-0.096	-0.054
-334.260	-200.000	0.155	-0.000
-333.245	-100.295	-0.106	-0.026
-332.231	278.968	0.136	-0.238
-331.216	-100.557	-0.223	-0.054
-330.202	-163.269	0.205	-0.010
-329.187	127.352	0.034	-0.042
-328.172	800.000	-0.027	-0.105
-327.158	-200.000	-0.026	-0.121
-326.143	-42.731	-0.127	0.063
-325.129	-106.192	0.275	-0.061
-324.114	-200.000	0.025	0.297
-323.099	-91.120	-0.135	0.038
-322.085	-161.878	-0.117	0.006
-321.070	217.782	0.082	0.129
-320.056	800.000	-0.074	0.241
-319.041	-200.000	0.065	0.282
-318.026	107.655	0.048	0.056
-317.012	-178.830	-0.145	0.003
-315.997	-200.000	-0.036	-0.194
-314.983	42.375	-0.151	0.134
-313.968	442.758	0.094	-0.202
-312.953	86.831	-0.170	-0.184
-311.939	-140.047	0.260	0.027
-310.924	-92.317	0.397	-0.110
-309.910	-200.000	-0.048	-0.325
-308.895	-147.824	0.268	0.022
-307.880	-104.211	-0.212	0.048
-306.866	-200.000	-0.007	-0.113
-305.851	-26.314	0.421	0.242
-304.837	127.694	-0.124	-0.154
-303.822	70.666	-0.093	0.095
-302.807	409.442	0.132	-0.274
-301.793	800.000	-0.073	-0.230
-300.778	-132.489	0.289	0.036
-299.764	-140.108	-0.167	0.017
-298.749	-200.000	-0.035	0.211
-297.735	-98.331	0.289	0.073
-296.720	393.039	0.108	0.219
-295.705	24.322	0.221	0.179
-294.691	217.402	0.031	0.049
-293.676	786.836	0.070	0.187
-292.662	800.000	0.133	0.415
-291.647	79.922	-0.236	-0.248
-290.632	-30.034	-0.136	0.076
-289.618	-71.307	-0.034	-0.012
-288.603	-127.422	0.125	-0.018
-287.589	18.272	0.180	0.141
-286.574	658.839	0.151	-0.381
-285.559	-104.165	-0.038	0.009
-284.545	75.094	-0.069	-0.072
-283.530	23.937	-0.223	0.180
-282.516	-101.601	-0.058	0.014
-281.501	-2.529	0.194	0.133
-280.486	88.547	0.158	-0.172
-279.472	269.440	-0.019	-0.034
-278.457	-96.773	0.056	-0.014
-277.443	21.850	0.158	0.126
-276.428	-56.728	-0.103	0.044
-275.413	-200.000	-0.018	0.105
-274.399	-200.000	0.021	-0.125
-273.384	-69.117	-0.223	0.084
-272.370	-81.810	0.079	0.025
-271.355	-200.000	-0.040	0.418
-270.340	-92.409	0.455	-0.125
-269.326	262.721	0.166	0.282
-268.311	-139.066	0.076	-0.008
-267.297	-91.161	-0.130	-0.036
-266.282	-200.000	-0.013	-0.132
-265.267	-200.000	0.015	0.331
-264.253	-62.197	0.055	-0.022
-263.238	-85.606	-0.069	0.021
-262.224	-200.000	-0.004	0.290
-261.209	800.000	0.028	-0.114
-260.195	354.992	-0.139	-0.270
-259.180	145.781	0.106	-0.138
-258.165	-156.374	0.039	-0.002
-257.151	-125.998	0.249	0.037
-256.136	-6.057	-0.290	0.194
-255.122	92.760	-0.131	0.144
-254.107	-200.000	0.013	-0.198
-253.092	237.080	0.165	-0.267
-252.078	800.000	-0.041	-0.169
-251.063	174.514	-0.079	0.112
-250.049	171.800	-0.143	-0.201
-249.034	-36.646	0.263	0.138
-248.019	-82.184	-0.043	-0.014
-247.005	-160.040	-0.231	0.012
-245.990	124.751	0.247	-0.303
-244.976	118.518	-0.221	-0.266
-243.961	203.738	-0.110	-0.167
-242.946	-200.000	0.032	-0.185
-241.932	33.311	0.099	0.084
-240.917	-200.000	0.001	-0.134
-239.903	-109.408	0.364	0.075
-238.888	388.055	-0.109	-0.220
-237.873	-139.524	-0.146	0.015
-236.859	-15.445	-0.241	-0.150
-235.844	158.021	-0.059	-0.080
-234.830	-106.544	0.063	0.014
-233.815	800.000	-0.054	-0.199
-232.800	-200.000	0.012	-0.174
-231.786	-126.039	-0.197	0.029
-230.771	-81.052	0.248	-0.080
-229.757	225.267	-0.227	0.358
-228.742	-169.001	0.207	-0.008
-227.727	-45.385	-0.263	-0.127
-226.713	-4.850	-0.130	0.088
-225.698	-101.483	0.257	-0.061
-224.684	-35.617	-0.280	0.149
-223.669	-200.000	0.014	-0.097
-222.655	-200.000	-0.003	-0.168
-221.640	-134.572	0.352	0.042
-220.625	-76.635	0.058	0.020
-219.611	-150.955	0.241	0.018
-218.596	-200.000	-0.002	-0.202
-217.582	800.000	-0.036	-0.138
-216.567	114.650	-0.230	0.274
-215.552	-107.221	0.447	0.096
-214.538	174.541	-0.167	-0.236
-213.523	20.834	-0.110	0.087
-212.509	118.429	-0.068	-0.082
-211.494	-200.000	-0.021	0.153
-210.479	-97.498	0.039	-0.010
-209.465	8.598	0.211	-0.155
-208.450	45.366	0.048	0.044
-207.436	-181.779	0.323	0.006
-206.421	263.424	0.205	-0.348
-205.406	-200.000	-0.003	0.036
-204.392	-200.000	-0.047	-0.425
-203.377	64.217	-0.127	-0.125
-202.363	-129.274	-0.434	0.059
-201.348	78.221	0.189	0.197
-200.333	-200.000	-0.024	0.131
-199.319	1.027	0.158	-0.111
-198.304	-146.234	0.262	0.022
-197.290	173.017	-0.160	-0.226
-196.275	33.045	-0.216	0.183
-195.260	-200.000	0.040	0.265
-194.246	800.000	0.030	-0.084
-193.231	-200.000	-0.077	-0.366
-192.217	-104.031	-0.273	-0.062
-191.202	-200.000	0.018	0.154
-190.187	-57.830	0.503	0.215
-189.173	46.733	-0.092	0.084
-188.158	-95.071	-0.254	-0.067
-187.144	136.050	0.083	0.105
-186.129	692.619	-0.166	0.424
-185.114	-200.000	-0.008	0.248
-184.100	-140.163	-0.275	-0.028
-183.085	-83.487	-0.051	-0.016
-182.071	197.410	-0.144	-0.215
-181.056	6.491	-0.357	-0.258
-180.042	288.167	-0.019	0.033
-179.027	161.239	0.330	-0.450
-178.012	-185.799	-0.185	0.003
-176.998	95.183	-0.111	0.123
-175.983	131.726	0.233	0.293
-174.969	-36.472	-0.240	0.126
-173.954	-200.000	0.014	0.268
-172.939	531.033	-0.112	-0.259
-171.925	-200.000	0.028	0.262
-170.910	60.788	0.075	0.072
-169.896	-170.386	-0.209	0.007
-168.881	166.240	-0.041	-0.057
-167.866	280.538	-0.064	0.111
-166.852	-200.000	-0.025	-0.150
-165.837	800.000	-0.028	-0.097
-164.823	183.687	0.234	-0.337
-163.808	800.000	0.063	-0.198
-162.793	-90.575	-0.127	-0.036
-161.779	-80.488	-0.165	0.054
-160.764	-98.771	0.140	0.035
-159.750	47.584	-0.089	-0.081
-158.735	-170.173	0.199	-0.007
-157.720	268.856	-0.127	0.217
-156.706	-200.000	0.023	0.203
-155.691	-200.000	-0.037	0.553
-154.677	-73.259	-0.392	-0.140
-153.662	150.616	-0.085	-0.112
-152.647	-16.985	-0.183	0.113
-151.633	-200.000	-0.008	0.459
-150.618	-120.188	-0.133	-0.022
-149.604	-120.654	0.244	-0.040
-148.589	194.405	0.049	-0.073
-147.574	-38.371	-0.088	-0.045
-146.560	42.600	0.349	-0.309
-145.545	-71.027	-0.039	-0.014
-144.531	-132.180	-0.279	-0.035
-143.516	94.100	0.171	0.189
-142.502	-42.921	-0.051	-0.025
-141.487	38.866	0.200	0.174
-140.472	-86.981	0.027	0.008
-139.458	527.720	0.116	-0.266
-138.443	-24.719	0.242	-0.140
-137.429	527.375	0.110	-0.251
-136.414	28.176	0.193	-0.158
-135.399	-200.000	0.025	0.107
-134.385	-200.000	0.023	-0.140
-133.370	-96.432	0.306	-0.079
-132.356	126.995	0.161	-0.198
-131.341	-94.067	0.153	-0.041
-130.326	-22.985	0.198	0.116
-129.312	95.007	-0.118	0.131
-128.297	49.350	0.329	0.301
-127.283	357.060	-0.091	0.176
-126.268	-128.531	-0.183	0.025
-125.253	-34.335	0.196	-0.105
-124.239	-124.929	0.060	0.009
-123.224	96.747	-0.166	-0.185
-122.210	-200.000	-0.010	-0.082
