DTS Sentinel unit serial number:	SN413079Multiplexer serial number:	ORYXHardware model number:	OX4-SRSoftware version number:	ORYX F/W v4.00 Oryx Data Collector v3.7.2.0data status	okinstallation	princeton_trtdifferential loss correction	single-endedforward channel	channel 2reverse channel	N/Adate	2019/09/17time	18:19:35forward acquisition time	60.00reverse acquisition time	0.00gamma	496.2192k internal	0.2288k external	0.2288temperature offset calibration	0.9985default loss term (dB/km)	0.3790temperature slope calibration	1.0000multiplexer offset coefficient	1.0000multiplexer slope coefficient	1.0000fibre end	0.00T internal ref (°C)	43.31T ext. ref 1 (°C)	0.31T ext. ref 2 (°C)	37.07length (m)	temperature (°C)	Stokes	anti-Stokes-747.200	-200.000	0.003	-0.047
-746.185	118.230	0.197	0.249
-745.171	-25.310	-0.345	0.209
-744.156	365.400	0.107	0.220
-743.142	-46.043	0.305	0.154
-742.127	-132.243	-0.158	0.021
-741.112	106.966	0.050	0.060
-740.098	148.042	0.134	0.185
-739.083	-200.000	0.000	0.034
-738.069	-200.000	-0.041	0.203
-737.054	-200.000	0.005	0.232
-736.039	40.588	0.075	-0.069
-735.025	-137.661	-0.255	0.029
-734.010	-124.715	-0.198	0.031
-732.996	-104.319	-0.175	-0.042
-731.981	0.666	-0.149	-0.109
-730.966	132.360	-0.215	-0.283
-729.952	-78.342	0.183	-0.064
-728.937	272.725	0.040	0.073
-727.923	-78.198	-0.460	-0.162
-726.908	-200.000	-0.032	-0.237
-725.894	326.903	0.106	0.208
-724.879	766.959	-0.034	-0.094
-723.864	800.000	-0.060	-0.193
-722.850	800.000	-0.109	-0.368
-721.835	80.485	0.140	0.154
-720.821	-5.178	-0.211	-0.148
-719.806	-45.114	0.066	-0.034
-718.791	-200.000	-0.007	0.347
-717.777	-118.298	-0.249	0.045
-716.762	-158.733	-0.420	-0.025
-715.748	393.764	-0.190	-0.406
-714.733	-200.000	0.010	-0.197
-713.718	638.668	0.006	-0.015
-712.704	376.160	0.081	-0.169
-711.689	-140.374	-0.302	-0.032
-710.675	-186.831	0.020	0.000
-709.660	47.150	0.125	-0.119
-708.645	800.000	0.039	0.122
-707.631	661.672	-0.103	-0.271
-706.616	-101.394	-0.257	0.064
-705.602	-91.470	-0.142	0.042
-704.587	-200.000	-0.040	0.212
-703.572	-141.488	-0.143	0.015
-702.558	341.259	0.137	-0.274
-701.543	741.501	-0.129	-0.355
-700.529	-132.977	-0.227	-0.030
-699.514	800.000	-0.135	0.436
-698.499	61.378	0.213	-0.217
-697.485	237.875	-0.172	-0.292
-696.470	-85.608	0.428	-0.136
-695.456	800.000	0.109	0.341
-694.441	-79.106	-0.102	-0.035
-693.426	15.854	-0.399	-0.322
-692.412	-43.010	-0.124	0.064
-691.397	329.202	-0.225	-0.442
-690.383	800.000	-0.111	-0.315
-689.368	-77.755	0.305	0.108
-688.354	-126.856	0.166	-0.025
-687.339	6.310	-0.082	-0.062
-686.324	15.045	0.055	-0.044
-685.310	402.839	-0.015	-0.032
-684.295	-121.495	-0.175	0.030
-683.281	-139.516	-0.064	-0.007
-682.266	356.407	-0.185	0.378
-681.251	-148.757	0.036	-0.003
-680.237	-77.380	0.254	0.090
-679.222	-89.301	-0.394	-0.119
-678.208	-157.010	0.116	0.007
-677.193	47.790	0.211	-0.202
-676.178	-59.201	0.157	-0.069
-675.164	-5.008	-0.213	-0.150
-674.149	85.289	-0.106	-0.119
-673.135	99.576	0.050	-0.060
-672.120	165.402	-0.067	-0.097
-671.105	272.975	0.015	-0.028
-670.091	7.216	0.186	0.142
-669.076	107.484	-0.290	-0.352
-668.062	472.025	-0.056	0.128
-667.047	-61.643	-0.201	-0.086
-666.032	108.016	0.162	0.198
-665.018	229.422	-0.127	0.213
-664.003	72.452	-0.183	0.195
-662.989	163.948	-0.144	-0.207
-661.974	-50.967	-0.181	0.087
-660.959	172.025	0.120	0.177
-659.945	56.894	-0.035	0.035
-658.930	-200.000	-0.061	0.336
-657.916	-200.000	-0.035	0.345
-656.901	197.359	-0.088	0.137
-655.886	-67.989	0.275	-0.110
-654.872	-143.381	-0.061	0.006
-653.857	-200.000	-0.053	-0.377
-652.843	362.682	0.145	0.297
-651.828	-200.000	0.026	-0.413
-650.814	-42.682	0.111	0.058
-649.799	-141.759	0.295	-0.030
-648.784	-117.109	0.143	-0.027
-647.770	800.000	-0.108	-0.322
-646.755	-141.986	-0.434	-0.044
-645.741	-52.656	-0.015	-0.007
-644.726	59.037	0.013	-0.013
-643.711	287.107	0.020	-0.037
-642.697	76.313	0.063	0.068
-641.682	800.000	-0.102	0.307
-640.668	101.713	-0.031	0.037
-639.653	800.000	0.097	0.381
-638.638	-86.576	-0.320	0.100
-637.624	319.031	0.152	0.294
-636.609	729.300	0.073	-0.198
-635.595	-80.143	0.166	-0.057
-634.580	272.596	0.060	-0.108
-633.565	434.347	0.067	-0.148
-632.551	-39.544	-0.140	-0.075
-631.536	-111.121	0.279	-0.058
-630.522	77.747	0.240	0.261
-629.507	786.554	0.025	0.071
-628.492	77.166	-0.123	-0.134
-627.478	-101.491	-0.399	-0.099
-626.463	-21.611	-0.078	0.049
-625.449	43.410	0.143	0.134
-624.434	-129.002	-0.155	-0.022
-623.419	52.650	-0.053	0.052
-622.405	12.090	-0.071	0.055
-621.390	-105.014	0.260	0.061
-620.376	-156.434	-0.149	-0.009
-619.361	-200.000	-0.007	-0.132
-618.346	186.315	-0.142	0.215
-617.332	222.427	-0.199	0.328
-616.317	-200.000	-0.000	-0.258
-615.303	-170.396	-0.452	0.016
-614.288	-200.000	0.012	0.128
-613.273	-111.410	-0.119	0.025
-612.259	-191.535	0.231	-0.002
-611.244	-9.861	0.005	-0.003
-610.230	8.389	0.044	-0.034
-609.215	-115.866	-0.506	0.097
-608.201	-200.000	-0.014	-0.251
-607.186	-23.650	-0.167	0.102
-606.171	237.599	0.099	-0.167
-605.157	-139.405	-0.099	0.011
-604.142	199.974	0.121	0.189
-603.128	-115.315	0.119	-0.023
-602.113	142.091	-0.055	0.075
-601.098	800.000	0.131	0.369
-600.084	800.000	-0.098	0.393
-599.069	15.483	-0.326	0.261
-598.055	-200.000	0.025	-0.155
-597.040	179.322	-0.099	0.148
-596.025	194.947	-0.128	-0.198
-595.011	-200.000	0.013	0.394
-593.996	-130.749	0.406	0.056
-592.982	-100.815	0.141	-0.035
-591.967	-107.377	-0.203	-0.046
-590.952	118.601	-0.175	0.220
-589.938	-28.735	0.316	0.185
-588.923	265.073	-0.037	0.066
-587.909	-12.514	-0.203	0.135
-586.894	-158.042	0.220	0.013
-585.879	-57.113	-0.092	0.041
-584.865	146.073	-0.100	0.137
-583.850	-173.062	0.284	0.009
-582.836	-56.051	-0.209	-0.095
-581.821	771.092	-0.029	-0.080
-580.806	-200.000	0.013	0.112
-579.792	-70.915	0.125	-0.048
-578.777	441.553	-0.019	0.043
-577.763	100.223	0.037	0.044
-576.748	800.000	0.033	-0.106
-575.733	310.851	-0.085	-0.163
-574.719	135.745	-0.038	-0.051
-573.704	-200.000	-0.010	0.141
-572.690	116.572	-0.127	0.159
-571.675	-173.663	-0.511	-0.016
-570.661	-200.000	-0.020	0.199
-569.646	127.198	-0.076	0.098
-568.631	143.943	0.039	-0.052
-567.617	184.892	0.304	-0.460
-566.602	-100.561	-0.107	0.027
-565.588	-200.000	-0.011	-0.359
-564.573	800.000	0.104	0.309
-563.558	70.926	0.107	0.113
-562.544	-104.446	-0.346	0.081
-561.529	-141.653	0.120	0.012
-560.515	-63.754	0.224	0.093
-559.500	3.218	-0.036	0.027
-558.485	84.905	-0.189	0.211
-557.471	-168.163	0.150	-0.006
-556.456	63.763	-0.245	-0.250
-555.442	-96.943	0.069	-0.018
-554.427	283.753	-0.154	0.281
-553.412	21.596	0.184	-0.153
-552.398	205.026	-0.169	0.266
-551.383	-87.368	0.078	0.024
-550.369	800.000	0.089	-0.333
-549.354	-48.472	-0.199	0.097
-548.339	-30.509	-0.054	-0.031
-547.325	35.149	-0.195	-0.174
-546.310	-200.000	-0.033	-0.239
-545.296	500.378	-0.029	0.067
-544.281	800.000	-0.055	-0.237
-543.266	109.347	-0.033	-0.040
-542.252	-61.333	-0.132	0.057
-541.237	-106.410	-0.367	-0.083
-540.223	-103.772	0.148	-0.035
-539.208	-200.000	0.084	-0.385
-538.193	420.846	0.039	-0.084
-537.179	-60.140	0.256	0.111
-536.164	-86.627	0.152	-0.047
-535.150	-5.350	0.251	-0.175
-534.135	406.314	0.096	-0.206
-533.121	800.000	-0.066	-0.190
-532.106	800.000	-0.069	-0.286
-531.091	-200.000	-0.063	0.349
-530.077	-39.569	0.130	0.069
-529.062	522.059	0.111	0.265
-528.048	-12.069	0.260	0.173
-527.033	6.497	0.211	0.159
-526.018	59.762	-0.228	-0.228
-525.004	-200.000	0.013	0.088
-523.989	-64.286	0.182	0.075
-522.975	-200.000	-0.006	0.163
-521.960	-200.000	-0.000	-0.021
-520.945	165.314	-0.100	0.144
-519.931	134.059	-0.267	-0.352
-518.916	210.577	0.129	-0.205
-517.902	36.292	0.196	-0.176
-516.887	-59.277	-0.296	0.129
-515.872	216.563	-0.069	0.111
-514.858	165.489	0.303	-0.435
-513.843	198.142	-0.046	-0.072
-512.829	-200.000	0.002	0.132
-511.814	116.524	-0.128	0.160
-510.799	-200.000	0.010	0.093
-509.785	-182.471	-0.278	-0.005
-508.770	209.301	-0.071	0.113
-507.756	-200.000	0.002	-0.331
-506.741	-130.273	0.382	0.053
-505.726	-72.045	-0.180	0.068
-504.712	-121.108	-0.124	0.021
-503.697	-44.324	0.249	0.127
-502.683	-200.000	0.056	0.261
-501.668	460.187	0.041	0.093
-500.653	800.000	0.043	-0.169
-499.639	94.995	0.307	-0.355
-498.624	-1.558	-0.168	-0.120
-497.610	-38.959	0.079	-0.042
-496.595	-74.182	-0.191	0.070
-495.581	775.423	0.106	-0.293
-494.566	800.000	0.124	-0.361
-493.551	215.382	-0.207	-0.333
-492.537	13.639	-0.216	-0.170
-491.522	-82.473	-0.182	-0.060
-490.508	-200.000	0.057	-0.304
-489.493	-127.834	0.258	-0.038
-488.478	348.887	0.092	-0.184
-487.464	-200.000	0.000	-0.316
-486.449	86.046	0.197	0.220
-485.435	-46.626	-0.254	-0.126
-484.420	74.282	-0.421	-0.449
-483.405	-146.011	0.084	-0.008
-482.391	-200.000	-0.003	0.224
-481.376	591.161	-0.088	0.220
-480.362	-200.000	-0.023	0.411
-479.347	56.581	0.372	0.367
-478.332	615.270	0.122	-0.310
-477.318	30.789	0.223	-0.193
-476.303	59.957	0.165	0.165
-475.289	-164.642	-0.158	0.007
-474.274	228.064	-0.116	0.192
-473.259	-22.287	-0.266	0.163
-472.245	34.434	-0.116	0.103
-471.230	29.124	-0.016	0.014
-470.216	-53.136	0.312	0.145
-469.201	-27.376	0.108	-0.064
-468.186	281.261	0.060	0.110
-467.172	800.000	-0.008	-0.035
-466.157	-132.861	0.259	-0.034
-465.143	426.881	0.116	0.253
-464.128	-19.918	-0.311	0.195
-463.113	-3.570	0.127	-0.090
-462.099	-137.212	-0.351	-0.040
-461.084	468.204	0.046	-0.104
-460.070	48.662	0.245	0.232
-459.055	-42.705	0.160	-0.083
-458.040	-200.000	0.040	-0.248
-457.026	117.685	-0.148	0.185
-456.011	-200.000	0.015	0.186
-454.997	237.265	0.086	0.145
-453.982	670.076	0.176	0.461
-452.968	-33.635	0.228	0.128
-451.953	207.113	0.244	0.385
-450.938	-27.677	0.156	-0.092
-449.924	60.248	-0.034	0.034
-448.909	-59.275	0.229	-0.100
-447.895	109.886	0.092	-0.111
-446.880	122.697	-0.122	-0.155
-445.865	-115.887	-0.070	0.013
-444.851	-200.000	0.005	-0.264
-443.836	138.955	0.164	0.218
-442.822	-200.000	-0.027	-0.287
-441.807	-180.756	0.043	0.001
-440.792	-89.857	-0.088	0.026
-439.778	57.806	0.193	0.192
-438.763	376.154	0.165	0.341
-437.749	157.809	-0.177	0.248
-436.734	564.197	-0.066	-0.161
-435.719	-105.365	-0.296	0.068
-434.705	-200.000	-0.004	0.050
-433.690	393.864	0.049	-0.103
-432.676	800.000	0.060	0.170
-431.661	-11.735	0.114	0.076
-430.646	-200.000	-0.052	-0.504
-429.632	-111.968	-0.283	-0.058
-428.617	-185.475	-0.049	-0.001
-427.603	-58.658	0.366	0.161
-426.588	-200.000	-0.048	-0.288
-425.573	353.795	-0.224	-0.450
-424.559	432.246	0.105	0.231
-423.544	326.289	0.080	0.155
-422.530	-24.393	0.095	-0.057
-421.515	800.000	-0.156	-0.492
-420.500	600.118	-0.042	-0.105
-419.486	800.000	-0.025	0.093
-418.471	-200.000	0.002	0.108
-417.457	-20.713	0.124	0.077
-416.442	-41.584	0.263	-0.137
-415.428	69.261	0.218	-0.227
-414.413	310.824	0.073	0.138
-413.398	-110.337	-0.211	0.044
-412.384	141.863	-0.161	-0.216
-411.369	-50.803	0.301	0.143
-410.355	25.936	-0.042	0.035
-409.340	24.932	-0.312	0.262
-408.325	125.067	-0.150	-0.192
-407.311	800.000	-0.065	-0.239
-406.296	-200.000	0.379	0.001
-405.282	32.525	0.323	0.282
-404.267	-200.000	0.013	0.204
-403.252	-56.228	-0.044	-0.020
-402.238	384.925	-0.036	0.076
-401.223	-151.092	-0.090	0.007
-400.209	35.969	-0.136	0.121
-399.194	-200.000	-0.014	-0.223
-398.179	548.394	0.086	-0.209
-397.165	-95.988	0.082	0.022
-396.150	-156.566	-0.175	0.011
-395.136	-55.996	0.084	0.038
-394.121	-200.000	-0.014	-0.304
-393.106	80.604	-0.196	-0.213
-392.092	-147.308	0.193	0.017
-391.077	-94.049	0.093	-0.026
-390.063	344.617	0.152	-0.301
-389.048	800.000	-0.046	-0.151
-388.033	-200.000	-0.498	-0.002
-387.019	170.932	0.253	0.367
-386.004	800.000	-0.009	-0.036
-384.990	-96.591	-0.203	0.054
-383.975	260.994	0.069	-0.121
-382.960	121.641	0.166	-0.209
-381.946	-72.410	0.199	0.075
-380.931	-13.925	-0.370	0.242
-379.917	-73.643	-0.078	0.029
-378.902	80.679	-0.195	-0.212
-377.888	800.000	0.062	-0.272
-376.873	289.188	0.158	-0.289
-375.858	100.683	0.072	-0.085
-374.844	210.383	0.126	0.200
-373.829	-87.259	-0.336	0.103
-372.815	-12.777	-0.198	-0.130
-371.800	-200.000	-0.054	-0.342
-370.785	541.240	0.245	0.590
-369.771	283.380	-0.047	0.086
-368.756	-45.963	0.206	-0.103
-367.742	-118.976	0.129	0.023
-366.727	-142.961	-0.126	-0.012
-365.712	-80.233	0.544	0.184
-364.698	-120.801	-0.088	-0.015
-363.683	-0.269	-0.110	-0.079
-362.669	161.425	0.240	-0.339
-361.654	-200.000	-0.033	0.173
-360.639	150.503	0.067	0.092
-359.625	-73.800	-0.272	-0.100
-358.610	-114.245	0.268	0.052
-357.596	-162.329	-0.095	-0.005
-356.581	800.000	0.043	0.179
-355.566	-66.503	0.356	0.143
-354.552	-28.877	-0.358	0.208
-353.537	591.434	0.029	-0.073
-352.523	105.438	-0.240	0.286
-351.508	-25.542	0.126	-0.075
-350.493	0.543	0.229	-0.166
-349.479	-94.654	0.238	0.065
-348.464	-109.566	0.149	-0.032
-347.450	332.633	0.083	0.162
-346.435	-16.823	0.056	-0.036
-345.420	-72.212	0.201	0.075
-344.406	-26.069	-0.202	-0.120
-343.391	-200.000	-0.006	-0.078
-342.377	529.794	0.177	-0.421
-341.362	800.000	-0.090	-0.280
-340.348	-200.000	0.002	-0.034
-339.333	150.725	0.152	0.209
-338.318	30.884	-0.025	0.021
-337.304	98.050	0.065	0.076
-336.289	-85.115	-0.081	-0.025
-335.275	-69.377	-0.175	-0.068
-334.260	-112.959	0.138	-0.028
-333.245	207.197	0.063	0.100
-332.231	66.122	-0.312	-0.320
-331.216	-200.000	-0.004	-0.048
-330.202	15.154	0.192	0.152
-329.187	-92.873	0.014	-0.004
-328.172	63.955	-0.078	-0.079
-327.158	453.103	0.104	-0.233
-326.143	125.066	-0.164	0.209
-325.129	-200.000	-0.030	0.223
-324.114	239.365	-0.025	0.042
-323.099	168.474	-0.010	-0.015
-322.085	93.621	-0.156	-0.178
-321.070	125.136	-0.050	-0.063
-320.056	295.761	-0.149	-0.276
-319.041	68.675	0.363	0.376
-318.026	-3.835	0.032	-0.023
-317.012	-75.891	0.358	0.128
-315.997	197.604	-0.061	0.094
-314.983	-64.480	-0.314	-0.129
-313.968	145.664	0.202	-0.273
-312.953	-75.343	0.134	-0.048
-311.939	592.141	0.019	-0.048
-310.924	688.237	0.096	0.254
-309.910	800.000	0.033	0.118
-308.895	75.749	-0.100	-0.107
-307.880	-127.109	0.180	-0.027
-306.866	49.299	0.139	-0.132
-305.851	-124.296	0.251	0.040
-304.837	316.374	0.081	-0.154
-303.822	214.061	-0.058	0.093
-302.807	-70.935	0.189	0.072
-301.793	57.997	-0.150	0.148
-300.778	-200.000	0.004	0.169
-299.764	-93.596	0.135	-0.038
-298.749	-53.627	-0.235	0.108
-297.735	-140.595	-0.339	0.035
-296.720	-200.000	-0.013	-0.199
-295.705	24.238	0.344	0.286
-294.691	-62.047	-0.233	0.098
-293.676	-200.000	-0.023	-0.125
-292.662	-43.234	0.298	0.152
-291.647	62.065	-0.255	0.257
-290.632	-35.201	0.050	0.028
-289.618	288.440	0.130	-0.237
-288.603	-36.487	-0.434	0.235
-287.589	-162.527	-0.155	0.008
-286.574	57.137	0.235	0.231
-285.559	-200.000	0.051	0.342
-284.545	800.000	-0.069	-0.258
-283.530	-200.000	-0.043	-0.544
-282.516	-200.000	-0.012	0.170
-281.501	800.000	0.102	0.307
-280.486	111.783	0.213	0.259
-279.472	-176.900	-0.228	0.006
-278.457	11.180	-0.206	-0.159
-277.443	-115.297	0.041	0.008
-276.428	-125.819	-0.275	0.042
-275.413	-46.462	-0.283	0.140
-274.399	-100.020	0.381	0.096
-273.384	-200.000	-0.037	0.191
-272.370	-200.000	-0.027	-0.118
-271.355	72.995	0.113	-0.119
-270.340	-48.463	0.245	0.119
-269.326	800.000	0.089	0.354
-268.311	41.786	-0.167	-0.152
-267.297	-57.599	0.308	-0.136
-266.282	53.118	-0.073	-0.070
-265.267	-200.000	-0.020	0.098
-264.253	-189.689	0.256	0.003
-263.238	512.908	0.128	0.300
-262.224	-200.000	-0.016	0.132
-261.209	30.220	0.044	-0.038
-260.195	-71.031	-0.356	-0.135
-259.180	65.002	-0.042	0.043
-258.165	264.488	-0.041	-0.072
-257.151	800.000	0.070	-0.242
-256.136	-52.926	0.172	-0.080
-255.122	-200.000	0.040	-0.218
-254.107	800.000	0.062	-0.231
-253.092	555.627	0.052	0.125
-252.078	800.000	0.119	-0.434
-251.063	-34.825	-0.079	-0.043
-250.049	-171.309	0.088	-0.003
-249.034	-200.000	0.008	-0.265
-248.019	61.340	-0.008	0.008
-247.005	49.115	-0.192	0.181
-245.990	-2.703	-0.171	0.120
-244.976	267.247	-0.093	0.163
-243.961	-200.000	0.038	0.311
-242.946	-161.478	0.094	-0.005
-241.932	-106.095	-0.154	0.035
-240.917	-55.642	-0.093	-0.042
-239.903	-61.041	0.035	0.015
-238.888	625.014	0.090	0.228
-237.873	-94.000	0.272	-0.075
-236.859	800.000	0.079	0.293
-235.844	107.913	0.167	0.200
-234.830	-96.951	0.098	0.026
-233.815	-28.055	0.114	0.067
-232.800	442.773	0.097	-0.213
-231.786	-132.264	-0.280	0.036
-230.771	-48.044	-0.080	0.039
-229.757	78.113	-0.060	0.064
-228.742	-56.950	0.193	-0.085
-227.727	12.257	0.119	-0.092
-226.713	800.000	-0.036	0.110
-225.698	-2.237	-0.067	0.047
-224.684	468.120	-0.074	-0.166
-223.669	-97.932	0.181	-0.047
-222.655	-107.558	-0.341	-0.075
-221.640	102.869	-0.222	-0.261
-220.625	-200.000	-0.010	0.118
-219.611	-114.549	-0.132	-0.025
-218.596	-125.842	-0.412	-0.062
-217.582	384.155	-0.074	-0.153
-216.567	-200.000	0.028	-0.260
-215.552	800.000	-0.065	0.246
-214.538	-62.556	0.202	-0.084
-213.523	-49.959	-0.050	0.024
-212.509	-147.816	0.201	-0.017
-211.494	114.567	0.168	0.206
-210.479	-114.147	-0.248	0.048
-209.465	11.315	0.116	0.089
-208.450	88.033	-0.167	0.185
-207.436	800.000	-0.082	0.341
-206.421	-200.000	-0.002	-0.254
-205.406	800.000	0.054	0.227
-204.392	1.250	0.154	-0.111
-203.377	-83.339	0.039	-0.012
-202.363	263.736	-0.114	-0.199
-201.348	-167.822	0.251	0.010
-200.333	-93.730	-0.221	-0.061
-199.319	-13.866	0.071	-0.046
-198.304	74.657	0.193	0.203
-197.290	77.769	-0.176	-0.188
-196.275	-49.602	0.192	-0.091
-195.260	71.115	0.195	-0.203
-194.246	-165.706	0.181	-0.008
-193.231	20.800	-0.166	0.135
-192.217	132.439	-0.067	-0.087
-191.202	-200.000	-0.028	0.137
-190.187	-200.000	-0.070	0.358
-189.173	-105.910	0.214	0.048
-188.158	-61.017	0.278	-0.118
-187.144	800.000	0.092	-0.335
-186.129	-200.000	0.009	-0.374
-185.114	359.069	-0.242	-0.486
-184.100	-200.000	0.007	-0.250
-183.085	-144.282	0.178	-0.017
-182.071	-115.670	-0.277	-0.052
-181.056	209.073	0.103	0.162
-180.042	-121.298	0.197	0.033
-179.027	192.737	0.161	0.243
-178.012	-200.000	-0.074	0.375
-176.998	-66.976	-0.255	0.101
-175.983	-153.094	-0.095	0.007
-174.969	-60.571	-0.321	-0.137
-173.954	358.745	-0.095	0.191
-172.939	-200.000	0.038	-0.261
-171.925	-42.388	-0.158	0.081
-170.910	-164.195	-0.128	0.006
-169.896	119.927	0.190	-0.236
-168.881	-44.371	-0.289	0.145
-167.866	-200.000	0.053	-0.234
-166.852	800.000	-0.032	0.138
-165.837	427.028	0.112	0.241
-164.823	4.010	-0.181	0.133
-163.808	268.295	-0.156	-0.275
-162.793	13.450	-0.198	-0.154
-161.779	-7.557	-0.184	-0.125
-160.764	13.948	-0.322	-0.251
-159.750	64.433	-0.192	-0.194
-158.735	155.135	0.123	0.169
-157.720	-200.000	0.014	0.081
-156.706	800.000	-0.020	0.085
-155.691	-122.797	-0.233	0.038
-154.677	-200.000	0.001	-0.071
-153.662	-3.371	-0.129	-0.090
-152.647	-13.349	-0.269	-0.175
-151.633	-112.662	0.124	-0.025
-150.618	-45.476	-0.188	0.093
-149.604	48.683	-0.367	-0.345
-148.589	-200.000	-0.016	0.195
-147.574	-16.202	-0.097	0.062
-146.560	-200.000	0.041	0.296
-145.545	274.684	0.146	0.259
-144.531	-40.394	-0.108	0.056
-143.516	337.999	0.083	0.162
-142.502	-36.115	0.497	-0.269
-141.487	5.701	-0.166	-0.123
-140.472	46.118	-0.130	-0.121
-139.458	333.539	-0.046	0.090
-138.443	10.559	0.051	-0.039
-137.429	742.761	0.121	-0.326
-136.414	343.338	-0.081	0.158
-135.399	-200.000	-0.005	-0.158
-134.385	162.067	-0.033	0.046
-133.370	0.006	0.044	0.031
-132.356	-95.460	-0.118	-0.032
-131.341	-200.000	0.017	0.235
-130.326	31.334	-0.216	0.186
-129.312	-7.762	0.262	-0.177
-128.297	-200.000	0.053	-0.280
-127.283	-200.000	-0.000	0.075
-126.268	800.000	-0.061	0.187
-125.253	-193.808	-0.300	0.003
-124.239	-13.500	0.260	0.169
-123.224	144.280	-0.156	-0.209
-122.210	-139.199	0.404	-0.044
-121.195	48.378	-0.186	0.175
