DTS Sentinel unit serial number:	SN413079Multiplexer serial number:	ORYXHardware model number:	OX4-SRSoftware version number:	ORYX F/W v4.00 Oryx Data Collector v3.7.2.0data status	okinstallation	princeton_trtdifferential loss correction	single-endedforward channel	channel 2reverse channel	N/Adate	2019/09/11time	15:21:11forward acquisition time	60.00reverse acquisition time	0.00gamma	496.2192k internal	0.2289k external	0.2289temperature offset calibration	1.0012default loss term (dB/km)	0.3790temperature slope calibration	1.0000multiplexer offset coefficient	1.0000multiplexer slope coefficient	1.0000fibre end	0.00T internal ref (°C)	42.87T ext. ref 1 (°C)	0.97T ext. ref 2 (°C)	35.89length (m)	temperature (°C)	Stokes	anti-Stokes-747.200	140.001	-0.176	0.238
-746.185	-152.516	-0.126	-0.009
-745.171	-140.787	0.076	0.008
-744.156	310.337	0.085	-0.162
-743.142	-69.315	-0.374	-0.147
-742.127	-26.103	0.282	0.170
-741.112	51.438	-0.176	-0.171
-740.098	58.730	0.097	-0.098
-739.083	106.059	-0.089	-0.107
-738.069	-87.610	0.068	0.021
-737.054	69.232	-0.117	-0.123
-736.039	-200.000	0.008	-0.116
-735.025	-24.988	-0.044	0.027
-734.010	-59.244	0.116	0.051
-732.996	157.389	0.099	-0.140
-731.981	583.801	-0.026	0.066
-730.966	449.696	-0.073	0.165
-729.952	365.657	-0.052	-0.107
-728.937	800.000	-0.111	-0.390
-727.923	-200.000	-0.010	-0.120
-726.908	121.217	-0.158	-0.202
-725.894	150.523	0.082	-0.115
-724.879	159.010	-0.259	-0.368
-723.864	-91.412	-0.141	0.041
-722.850	-99.317	-0.088	-0.023
-721.835	441.005	0.109	0.245
-720.821	-200.000	-0.021	0.472
-719.806	19.707	0.147	-0.121
-718.791	-102.358	0.385	-0.095
-717.777	800.000	-0.100	-0.296
-716.762	567.023	-0.128	0.317
-715.748	-95.831	-0.478	0.131
-714.733	92.165	0.100	-0.116
-713.718	79.390	0.231	-0.254
-712.704	165.016	0.098	-0.142
-711.689	-13.935	0.343	-0.227
-710.675	132.281	-0.154	0.203
-709.660	-118.801	0.091	0.016
-708.645	-121.249	-0.021	-0.004
-707.631	154.992	-0.129	-0.182
-706.616	800.000	-0.061	-0.265
-705.602	-33.849	0.095	0.053
-704.587	667.007	0.051	0.134
-703.572	800.000	-0.055	0.162
-702.558	-32.662	-0.230	-0.131
-701.543	270.481	-0.101	0.182
-700.529	261.307	-0.120	0.212
-699.514	80.657	0.235	0.259
-698.499	225.581	0.227	0.377
-697.485	-137.292	0.219	0.025
-696.470	-172.951	0.157	0.005
-695.456	69.624	0.193	0.203
-694.441	800.000	-0.052	0.191
-693.426	275.027	-0.191	0.345
-692.412	-127.931	-0.255	-0.038
-691.397	-49.603	0.171	0.083
-690.383	-153.272	-0.146	0.010
-689.368	69.707	-0.059	-0.062
-688.354	121.505	0.094	0.120
-687.339	-103.338	0.058	-0.014
-686.324	521.061	0.271	0.651
-685.310	335.474	-0.123	-0.244
-684.295	428.833	0.059	-0.131
-683.281	-42.965	0.117	-0.060
-682.266	-105.394	-0.366	-0.085
-681.251	-45.963	-0.167	0.084
-680.237	800.000	0.067	0.237
-679.222	670.930	-0.108	-0.285
-678.208	99.638	-0.051	-0.061
-677.193	220.680	-0.115	-0.189
-676.178	800.000	0.038	0.132
-675.164	5.497	0.140	-0.106
-674.149	297.283	-0.107	-0.201
-673.135	-67.714	0.206	0.082
-672.120	-200.000	-0.004	0.058
-671.105	800.000	0.026	0.078
-670.091	-51.604	0.209	0.100
-669.076	71.903	-0.145	-0.154
-668.062	-108.072	-0.171	-0.038
-667.047	375.584	-0.071	0.147
-666.032	564.396	-0.168	0.416
-665.018	153.756	-0.100	0.140
-664.003	-97.139	0.349	-0.093
-662.989	-111.134	-0.293	0.061
-661.974	-81.674	-0.040	0.013
-660.959	-87.813	0.082	0.025
-659.945	294.399	-0.121	-0.226
-658.930	101.238	-0.163	-0.194
-657.916	474.463	0.130	-0.300
-656.901	-108.266	-0.208	-0.046
-655.886	-87.144	0.200	0.062
-654.872	-1.957	-0.098	-0.070
-653.857	-80.918	0.572	-0.194
-652.843	800.000	-0.055	-0.176
-651.828	634.647	-0.136	0.352
-650.814	3.786	-0.109	0.081
-649.799	-200.000	0.017	0.108
-648.784	-121.823	-0.296	-0.050
-647.770	-200.000	-0.020	0.344
-646.755	-91.312	0.311	-0.091
-645.741	-193.285	-0.456	0.004
-644.726	800.000	-0.007	0.026
-643.711	-118.070	0.182	0.033
-642.697	-92.862	0.428	-0.122
-641.682	199.315	0.130	-0.204
-640.668	-57.538	-0.205	-0.092
-639.653	127.406	-0.104	-0.135
-638.638	746.195	-0.061	-0.168
-637.624	-108.607	0.447	0.098
-636.609	80.414	0.199	-0.218
-635.595	-43.156	0.198	0.102
-634.580	385.362	0.136	0.286
-633.565	238.220	0.123	0.208
-632.551	-16.296	0.089	-0.057
-631.536	725.740	-0.125	0.339
-630.522	-200.000	-0.033	0.342
-629.507	496.012	0.091	0.214
-628.492	-200.000	-0.008	0.101
-627.478	-200.000	-0.007	0.243
-626.463	-200.000	0.058	0.296
-625.449	800.000	0.013	0.048
-624.434	-200.000	-0.026	0.155
-623.419	289.452	-0.142	-0.262
-622.405	-109.812	-0.350	-0.075
-621.390	-49.691	0.266	0.129
-620.376	-200.000	0.038	0.293
-619.361	-65.585	-0.234	-0.096
-618.346	139.340	0.295	-0.396
-617.332	-33.630	0.202	-0.114
-616.317	-35.098	-0.130	0.072
-615.303	-4.057	-0.234	0.165
-614.288	303.739	0.098	-0.185
-613.273	-191.430	-0.008	0.000
-612.259	800.000	-0.079	0.279
-611.244	-200.000	-0.016	-0.306
-610.230	69.458	-0.217	-0.227
-609.215	98.456	0.080	0.094
-608.201	-200.000	-0.027	-0.318
-607.186	-87.069	-0.413	-0.128
-606.171	-51.683	-0.350	-0.166
-605.157	-113.392	-0.249	0.050
-604.142	-5.744	-0.094	0.066
-603.128	427.296	-0.249	-0.548
-602.113	43.937	-0.209	-0.195
-601.098	69.632	0.174	0.183
-600.084	-82.963	-0.159	-0.052
-599.069	-15.478	-0.089	-0.058
-598.055	-138.989	0.211	-0.023
-597.040	-27.638	0.101	0.060
-596.025	577.228	0.183	-0.457
-595.011	-101.170	-0.046	0.011
-593.996	-17.451	-0.156	0.100
-592.982	113.386	0.050	0.062
-591.967	-96.668	0.219	-0.059
-590.952	18.263	0.213	-0.173
-589.938	-49.514	0.148	0.072
-588.923	-200.000	0.025	0.467
-587.909	-66.728	-0.261	0.105
-586.894	800.000	0.044	-0.196
-585.879	151.448	0.059	0.081
-584.865	-200.000	0.012	-0.098
-583.850	-9.059	0.139	-0.095
-582.836	389.363	-0.096	-0.203
-581.821	-80.517	0.107	0.036
-580.806	-37.824	-0.142	0.077
-579.792	-128.287	-0.387	-0.056
-578.777	-38.220	0.333	0.180
-577.763	73.800	-0.198	0.211
-576.748	-84.617	-0.149	-0.048
-575.733	51.588	0.035	-0.034
-574.719	-200.000	-0.015	0.091
-573.704	152.679	0.137	-0.190
-572.690	459.892	0.110	-0.249
-571.675	-83.978	0.162	0.053
-570.661	-53.284	0.203	-0.095
-569.646	129.192	-0.280	0.363
-568.631	47.402	0.214	-0.202
-567.617	-200.000	0.040	0.364
-566.602	-164.804	-0.365	0.017
-565.588	6.418	0.371	-0.280
-564.573	44.805	0.055	-0.051
-563.558	109.023	-0.171	0.208
-562.544	58.353	-0.107	0.107
-561.529	239.728	-0.125	-0.212
-560.515	-145.694	-0.242	0.022
-559.500	800.000	-0.054	0.169
-558.485	-200.000	-0.027	0.203
-557.471	-200.000	0.015	0.234
-556.456	-11.227	-0.169	0.113
-555.442	-64.533	0.348	-0.144
-554.427	149.121	0.076	-0.104
-553.412	-200.000	-0.036	0.210
-552.398	-107.686	-0.269	-0.060
-551.383	-17.777	-0.152	-0.097
-550.369	-163.403	0.228	-0.011
-549.354	354.973	-0.195	-0.394
-548.339	-200.000	0.021	-0.163
-547.325	-12.072	0.221	-0.147
-546.310	-41.775	0.246	0.128
-545.296	-117.136	-0.193	-0.036
-544.281	-61.623	-0.437	0.186
-543.266	-53.476	-0.343	0.160
-542.252	-108.786	0.401	-0.087
-541.237	-200.000	0.048	0.256
-540.223	-176.229	-0.197	-0.005
-539.208	-200.000	-0.003	0.128
-538.193	800.000	0.055	-0.186
-537.179	800.000	-0.043	-0.122
-536.164	107.448	-0.197	-0.238
-535.150	375.022	-0.076	0.158
-534.135	79.467	0.188	-0.205
-533.121	-91.554	-0.369	0.107
-532.106	-84.409	0.144	0.046
-531.091	1.009	-0.231	-0.169
-530.077	72.931	-0.194	-0.206
-529.062	330.531	0.049	0.096
-528.048	132.241	-0.234	0.306
-527.033	-36.019	-0.147	0.081
-526.018	447.608	0.125	0.279
-525.004	26.111	-0.102	0.086
-523.989	-95.037	0.419	-0.115
-522.975	544.512	0.129	-0.312
-521.960	-123.962	0.096	-0.015
-520.945	800.000	-0.041	-0.118
-519.931	800.000	-0.050	0.208
-518.916	-200.000	-0.010	-0.269
-517.902	-200.000	-0.011	0.175
-516.887	-165.108	0.131	0.006
-515.872	19.735	0.075	-0.061
-514.858	185.836	-0.199	0.301
-513.843	213.168	-0.135	0.217
-512.829	800.000	-0.027	0.115
-511.814	267.475	-0.107	0.190
-510.799	-27.936	-0.291	0.171
-509.785	65.574	-0.224	-0.230
-508.770	71.195	0.253	-0.266
-507.756	72.863	-0.033	-0.035
-506.741	-200.000	0.009	0.125
-505.726	800.000	0.055	-0.154
-504.712	-142.508	-0.166	0.017
-503.697	-51.738	-0.239	-0.113
-502.683	284.679	-0.179	0.327
-501.668	-103.430	-0.300	-0.072
-500.653	800.000	-0.104	0.297
-499.639	-120.509	-0.111	0.019
-498.624	-200.000	-0.044	0.395
-497.610	-56.490	0.349	-0.157
-496.595	-114.840	0.415	-0.080
-495.581	-9.920	-0.025	-0.017
-494.566	-40.971	-0.113	-0.059
-493.551	-46.861	0.271	-0.134
-492.537	332.822	0.046	0.089
-491.522	-186.623	-0.036	-0.001
-490.508	221.657	0.023	0.037
-489.493	483.983	-0.116	0.268
-488.478	800.000	-0.077	0.324
-487.464	-116.732	0.107	-0.020
-486.449	73.206	0.142	-0.151
-485.435	48.430	-0.168	-0.159
-484.420	-200.000	-0.013	-0.340
-483.405	-60.061	0.135	0.058
-482.391	526.305	-0.020	0.049
-481.376	800.000	-0.148	-0.593
-480.362	32.010	0.155	-0.135
-479.347	760.609	-0.077	0.211
-478.332	-160.338	0.410	-0.022
-477.318	362.952	-0.046	-0.093
-476.303	-137.458	0.427	0.049
-475.289	-200.000	0.038	0.210
-474.274	800.000	0.051	0.213
-473.259	-164.590	0.134	-0.006
-472.245	800.000	-0.029	0.099
-471.230	-24.992	0.221	-0.133
-470.216	-140.556	0.142	0.015
-469.201	-146.186	-0.317	-0.028
-468.186	-190.608	0.044	-0.000
-467.172	116.784	0.166	0.207
-466.157	33.614	0.102	-0.090
-465.143	566.081	0.057	-0.140
-464.128	-143.778	0.073	-0.007
-463.113	58.302	0.224	-0.222
-462.099	38.667	0.171	-0.155
-461.084	-34.039	0.238	0.133
-460.070	637.179	-0.046	-0.119
-459.055	308.894	-0.084	-0.159
-458.040	-200.000	-0.022	-0.221
-457.026	59.633	-0.177	-0.177
-456.011	-79.376	-0.171	0.059
-454.997	-32.149	0.396	-0.224
-453.982	33.752	0.163	0.143
-452.968	23.143	-0.033	0.027
-451.953	141.729	0.060	-0.081
-450.938	800.000	0.101	0.304
-449.924	-122.180	-0.050	0.008
-448.909	180.269	0.030	-0.045
-447.895	-127.192	0.183	-0.027
-446.880	304.608	-0.069	0.129
-445.865	199.210	-0.150	-0.233
-444.851	800.000	-0.055	-0.166
-443.836	70.390	-0.131	-0.137
-442.822	29.856	0.058	0.050
-441.807	290.831	0.163	0.300
-440.792	114.818	0.172	0.212
-439.778	-200.000	-0.014	-0.362
-438.763	-200.000	-0.025	-0.315
-437.749	23.064	-0.151	-0.126
-436.734	34.366	-0.183	-0.161
-435.719	-134.382	0.397	-0.049
-434.705	-200.000	0.036	-0.264
-433.690	17.933	0.245	0.198
-432.676	-52.477	0.214	-0.100
-431.661	800.000	-0.019	0.059
-430.646	-4.537	0.265	-0.185
-429.632	89.328	-0.057	0.065
-428.617	-200.000	-0.019	-0.348
-427.603	796.315	0.126	-0.351
-426.588	281.284	-0.053	-0.097
-425.573	526.864	-0.071	0.170
-424.559	248.132	-0.150	0.256
-423.544	-112.974	0.067	-0.013
-422.530	-131.194	-0.223	0.030
-421.515	-86.516	-0.217	-0.067
-420.500	-11.632	0.347	0.230
-419.486	-200.000	0.068	0.358
-418.471	201.866	0.095	-0.148
-417.457	800.000	-0.149	0.516
-416.442	188.449	-0.223	0.338
-415.428	-33.316	-0.359	-0.201
-414.413	381.517	-0.131	-0.273
-413.398	-200.000	0.000	0.192
-412.384	754.109	-0.018	0.050
-411.369	-19.962	0.298	-0.186
-410.355	-184.198	-0.359	0.006
-409.340	197.639	0.241	-0.372
-408.325	-200.000	0.029	0.199
-407.311	-200.000	0.016	0.156
-406.296	-102.328	-0.286	0.069
-405.282	182.936	0.126	0.188
-404.267	160.004	0.174	0.245
-403.252	-93.238	-0.377	-0.106
-402.238	-174.441	-0.253	0.007
-401.223	-200.000	-0.029	-0.234
-400.209	-53.520	0.218	-0.101
-399.194	24.377	0.162	0.135
-398.179	-21.652	0.266	0.164
-397.165	-151.762	0.028	-0.002
-396.150	168.520	0.110	0.158
-395.136	43.636	-0.160	0.148
-394.121	251.347	-0.078	-0.133
-393.106	800.000	-0.091	-0.262
-392.092	494.693	0.193	-0.448
-391.077	228.598	0.134	-0.221
-390.063	-57.855	0.093	0.041
-389.048	29.905	0.331	-0.285
-388.033	15.934	0.054	0.043
-387.019	-200.000	0.017	0.288
-386.004	237.199	-0.096	0.161
-384.990	-17.064	-0.236	0.151
-383.975	465.266	-0.151	-0.341
-382.960	-200.000	-0.006	-0.115
-381.946	-119.592	-0.227	0.040
-380.931	204.390	0.085	-0.133
-379.917	-200.000	-0.022	0.213
-378.902	-144.689	-0.046	0.004
-377.888	-83.417	-0.229	0.074
-376.873	-78.398	-0.085	0.029
-375.858	-200.000	0.029	-0.208
-374.844	-116.337	0.230	0.043
-373.829	24.363	-0.089	-0.075
-372.815	395.359	0.076	-0.159
-371.800	13.054	0.285	0.223
-370.785	-77.598	0.110	-0.039
-369.771	-31.675	0.184	-0.104
-368.756	-121.342	-0.266	0.045
-367.742	136.672	-0.208	0.275
-366.727	-180.325	-0.321	0.007
-365.712	-187.188	-0.092	0.001
-364.698	23.134	0.180	-0.149
-363.683	-81.177	-0.062	-0.021
-362.669	800.000	0.081	0.300
-361.654	-200.000	0.054	0.389
-360.639	-134.113	-0.172	0.021
-359.625	-6.813	0.210	-0.144
-358.610	229.101	-0.134	-0.221
-357.596	-168.603	0.175	-0.007
-356.581	-200.000	0.020	0.183
-355.566	-159.738	-0.233	0.013
-354.552	66.804	-0.202	-0.208
-353.537	480.673	0.065	0.149
-352.523	76.550	0.175	-0.187
-351.508	-198.094	-0.163	0.001
-350.493	-79.928	0.141	0.048
-349.479	226.763	0.117	0.192
-348.464	42.053	0.145	0.133
-347.450	-100.655	0.074	-0.018
-346.435	-69.218	-0.254	-0.099
-345.420	-67.065	-0.202	0.081
-344.406	314.211	-0.000	0.001
-343.391	-31.687	-0.355	0.201
-342.377	800.000	0.037	-0.112
-341.362	800.000	0.018	0.056
-340.348	-18.514	0.155	-0.097
-339.333	-33.638	0.139	0.077
-338.318	233.392	-0.138	0.229
-337.304	-73.183	0.042	0.015
-336.289	-128.922	-0.049	0.007
-335.275	-200.000	-0.051	-0.324
-334.260	131.214	0.016	0.021
-333.245	-48.215	-0.321	0.156
-332.231	-122.256	-0.305	0.050
-331.216	775.827	-0.042	0.115
-330.202	87.424	-0.226	0.253
-329.187	81.215	-0.107	-0.117
-328.172	781.706	-0.041	-0.114
-327.158	261.645	-0.059	0.103
-326.143	264.795	0.131	-0.230
-325.129	-200.000	0.016	-0.347
-324.114	306.039	-0.166	0.312
-323.099	223.714	-0.165	-0.269
-322.085	-47.072	-0.331	-0.163
-321.070	108.748	0.104	0.125
-320.056	-100.524	0.145	-0.036
-319.041	-79.637	0.321	0.109
-318.026	-135.667	-0.238	0.028
-317.012	-89.021	-0.253	0.075
-315.997	280.664	-0.194	-0.350
-314.983	-80.939	-0.259	0.086
-313.968	-200.000	0.024	-0.212
-312.953	-178.445	0.136	-0.003
-311.939	-28.089	0.213	-0.124
-310.924	-47.377	0.210	0.103
-309.910	-152.473	-0.119	-0.009
-308.895	-200.000	0.017	-0.125
-307.880	-131.195	-0.165	0.022
-306.866	68.888	-0.083	-0.086
-305.851	-93.970	0.115	0.032
-304.837	-200.000	0.010	-0.102
-303.822	-42.524	0.165	0.085
-302.807	244.572	0.027	-0.045
-301.793	-101.162	-0.343	0.085
-300.778	117.324	0.099	0.122
-299.764	486.021	0.077	0.177
-298.749	-114.666	-0.168	0.032
-297.735	3.822	-0.151	0.111
-296.720	-126.641	-0.135	-0.020
-295.705	533.670	0.114	-0.273
-294.691	800.000	0.089	-0.371
-293.676	-177.857	0.143	-0.003
-292.662	-200.000	0.029	0.138
-291.647	520.674	0.123	0.290
-290.632	22.431	0.261	0.215
-289.618	-171.234	0.224	-0.008
-288.603	-200.000	-0.028	-0.343
-287.589	-50.149	-0.109	0.052
-286.574	92.362	0.297	-0.337
-285.559	800.000	-0.043	-0.155
-284.545	-174.094	-0.133	-0.004
-283.530	-65.142	-0.089	0.036
-282.516	-27.192	0.245	-0.144
-281.501	800.000	-0.039	-0.123
-280.486	169.706	-0.104	0.150
-279.472	49.523	-0.091	0.086
-278.457	381.062	0.111	-0.229
-277.443	-74.771	-0.241	-0.087
-276.428	-200.000	0.052	0.237
-275.413	800.000	0.058	0.163
-274.399	200.687	-0.064	-0.099
-273.384	160.731	-0.131	-0.184
-272.370	-200.000	-0.018	0.177
-271.355	239.763	-0.227	-0.380
-270.340	320.810	0.081	-0.155
-269.326	-139.901	0.189	0.020
-268.311	162.038	-0.093	-0.131
-267.297	7.282	0.185	-0.139
-266.282	217.290	-0.132	-0.212
-265.267	34.736	0.173	-0.152
-264.253	-200.000	0.012	-0.160
-263.238	-86.253	-0.180	-0.056
-262.224	-11.459	-0.139	0.092
-261.209	42.733	0.212	0.194
-260.195	407.307	0.123	-0.262
-259.180	-117.298	-0.218	-0.040
-258.165	-39.998	-0.182	0.096
-257.151	-46.994	0.094	0.046
-256.136	-11.946	0.079	0.052
-255.122	18.934	-0.184	0.148
-254.107	53.905	-0.125	-0.121
-253.092	-13.225	-0.140	-0.091
-252.078	128.269	0.057	-0.073
-251.063	-62.408	0.385	0.161
-250.049	-102.620	0.099	0.024
-249.034	-200.000	0.033	-0.463
-248.019	-121.538	-0.259	0.043
-247.005	89.081	0.180	0.202
-245.990	-7.670	0.144	-0.098
-244.976	-129.526	0.141	-0.020
-243.961	85.583	0.217	-0.240
-242.946	55.028	-0.054	-0.053
-241.932	518.492	0.089	-0.209
-240.917	-25.349	0.081	-0.048
-239.903	-75.901	0.209	0.074
-238.888	800.000	-0.056	-0.214
-237.873	-42.433	-0.522	0.267
-236.859	75.585	-0.264	-0.280
-235.844	623.606	-0.030	0.077
-234.830	-43.033	0.098	0.050
-233.815	-128.899	0.149	0.021
-232.800	-125.511	0.266	-0.041
-231.786	32.367	0.336	-0.292
-230.771	399.486	0.098	0.205
-229.757	-200.000	0.026	0.214
-228.742	102.488	-0.079	-0.093
-227.727	800.000	-0.086	0.260
-226.713	-134.761	0.201	0.025
-225.698	800.000	0.061	0.211
-224.684	-45.892	0.176	-0.087
-223.669	-200.000	0.029	0.215
-222.655	145.020	0.038	0.051
-221.640	-200.000	-0.010	0.235
-220.625	-12.320	-0.392	-0.257
-219.611	-200.000	-0.014	0.227
-218.596	-200.000	0.000	0.106
-217.582	-86.876	0.171	0.053
-216.567	111.286	-0.075	0.090
-215.552	-130.897	-0.064	-0.009
-214.538	-200.000	0.024	-0.206
-213.523	308.078	-0.261	0.489
-212.509	0.812	0.190	-0.136
-211.494	4.463	0.201	0.148
-210.479	-163.538	-0.322	-0.015
-209.465	-108.411	-0.407	0.088
-208.450	-177.292	-0.312	-0.008
-207.436	180.696	0.047	-0.069
-206.421	-115.440	-0.224	-0.042
-205.406	-12.712	0.071	0.047
-204.392	480.926	0.023	-0.052
-203.377	41.203	0.198	0.179
-202.363	-118.221	0.332	0.059
-201.348	150.694	0.053	0.072
-200.333	-200.000	0.007	0.140
-199.319	-26.032	0.165	-0.098
-198.304	-100.218	0.326	-0.081
-197.290	184.284	0.191	-0.284
-196.275	-26.823	-0.136	0.080
-195.260	660.928	0.056	-0.145
-194.246	-19.613	0.181	-0.112
-193.231	781.753	-0.069	0.190
-192.217	31.664	0.158	0.136
-191.202	800.000	0.062	-0.183
-190.187	105.427	0.172	0.203
-189.173	204.735	-0.051	0.079
-188.158	430.337	0.073	0.159
-187.144	106.334	-0.095	0.113
-186.129	17.905	-0.155	0.124
-185.114	-98.320	0.366	-0.094
-184.100	119.072	0.283	-0.351
-183.085	-200.000	-0.049	-0.311
-182.071	-200.000	-0.001	0.278
-181.056	488.163	-0.128	0.294
-180.042	301.402	-0.159	0.295
-179.027	133.388	-0.188	-0.244
-178.012	-200.000	-0.006	-0.340
-176.998	135.251	0.175	0.229
-175.983	-138.339	0.381	0.042
-174.969	54.771	-0.011	0.011
-173.954	800.000	0.102	0.327
-172.939	211.036	-0.134	-0.211
-171.925	-200.000	-0.031	0.282
-170.910	-125.595	0.233	-0.035
-169.896	-72.641	-0.191	-0.070
-168.881	111.319	-0.249	0.301
-167.866	-94.778	0.100	0.027
-166.852	15.177	-0.096	0.075
-165.837	-55.311	-0.070	-0.032
-164.823	-68.305	-0.141	0.055
-163.808	17.219	0.104	-0.082
-162.793	382.472	-0.056	0.116
-161.779	25.896	-0.415	0.347
-160.764	-200.000	-0.048	-0.237
-159.750	-200.000	-0.013	0.195
-158.735	-200.000	-0.011	-0.062
-157.720	-44.346	0.383	0.192
-156.706	-200.000	-0.004	0.196
-155.691	-44.487	0.362	-0.181
-154.677	-71.433	0.130	-0.049
-153.662	367.526	0.045	0.091
-152.647	-126.175	0.119	0.018
-151.633	8.363	-0.283	0.213
-150.618	-124.587	0.338	0.053
-149.604	800.000	-0.051	-0.217
-148.589	14.475	-0.074	0.058
-147.574	800.000	0.024	0.073
-146.560	75.046	-0.215	-0.226
-145.545	-38.584	-0.117	0.062
-144.531	-37.420	-0.174	-0.093
-143.516	800.000	0.036	-0.106
-142.502	-200.000	0.019	0.205
-141.487	11.021	0.102	-0.078
-140.472	800.000	0.156	0.487
-139.458	126.391	-0.056	-0.071
-138.443	68.435	0.050	0.051
-137.429	-200.000	0.013	0.100
-136.414	-200.000	-0.034	-0.165
-135.399	-29.505	0.085	0.049
-134.385	33.587	-0.153	-0.133
-133.370	-102.579	0.182	-0.043
-132.356	-200.000	-0.015	0.212
-131.341	-200.000	0.020	0.192
-130.326	-61.282	0.348	0.147
-129.312	-71.122	0.101	0.038
-128.297	-95.965	-0.147	0.039
-127.283	800.000	0.064	0.229
-126.268	159.341	-0.127	0.177
-125.253	330.626	0.150	0.289
-124.239	-42.992	0.182	0.092
-123.224	297.517	0.056	0.102
-122.210	177.847	-0.068	0.099
-121.195	95.040	0.029	-0.033
