DTS Sentinel unit serial number:	SN413079Multiplexer serial number:	ORYXHardware model number:	OX4-SRSoftware version number:	ORYX F/W v4.00 Oryx Data Collector v3.7.2.0data status	okinstallation	princeton_trtdifferential loss correction	single-endedforward channel	channel 2reverse channel	N/Adate	2019/09/13time	21:11:35forward acquisition time	60.00reverse acquisition time	0.00gamma	496.2192k internal	0.2334k external	0.2334temperature offset calibration	1.0122default loss term (dB/km)	0.3790temperature slope calibration	1.0000multiplexer offset coefficient	1.0000multiplexer slope coefficient	1.0000fibre end	0.00T internal ref (°C)	28.50T ext. ref 1 (°C)	3.04T ext. ref 2 (°C)	23.08length (m)	temperature (°C)	Stokes	anti-Stokes-747.200	-13.646	-0.228	-0.149
-746.185	3.610	-0.179	0.131
-745.171	-200.000	0.030	-0.204
-744.156	800.000	0.056	0.210
-743.142	-200.000	0.030	0.315
-742.127	-104.997	0.271	0.062
-741.112	46.024	0.169	0.157
-740.098	77.662	-0.381	0.408
-739.083	33.192	-0.213	0.186
-738.069	-53.405	0.327	-0.150
-737.054	-128.455	0.365	-0.052
-736.039	-200.000	-0.051	-0.230
-735.025	-33.204	-0.063	-0.035
-734.010	218.865	-0.134	-0.216
-732.996	-200.000	0.045	-0.266
-731.981	-17.774	-0.347	-0.219
-730.966	13.570	-0.159	-0.124
-729.952	433.303	-0.211	-0.461
-728.937	71.136	-0.197	-0.205
-727.923	625.385	-0.100	0.254
-726.908	203.341	-0.164	-0.255
-725.894	165.264	-0.213	-0.303
-724.879	800.000	0.081	0.263
-723.864	335.859	-0.100	-0.194
-722.850	-91.219	-0.344	-0.099
-721.835	-62.869	0.201	0.084
-720.821	-200.000	0.002	-0.325
-719.806	800.000	-0.096	-0.282
-718.791	161.525	-0.054	-0.075
-717.777	26.881	-0.020	0.017
-716.762	237.148	-0.153	0.255
-715.748	226.216	-0.161	0.262
-714.733	-56.365	0.162	0.072
-713.718	47.095	-0.155	-0.145
-712.704	-150.211	0.073	0.006
-711.689	-149.090	-0.301	-0.024
-710.675	60.150	0.066	-0.065
-709.660	-200.000	-0.013	0.258
-708.645	230.742	-0.144	-0.237
-707.631	121.937	-0.118	-0.148
-706.616	800.000	0.067	0.214
-705.602	-81.430	-0.065	0.021
-704.587	-130.394	0.052	-0.007
-703.572	0.209	0.157	0.112
-702.558	-149.568	-0.464	0.037
-701.543	-133.644	0.301	-0.038
-700.529	541.695	-0.116	-0.277
-699.514	-73.843	-0.095	-0.034
-698.499	104.919	-0.132	-0.156
-697.485	-61.330	0.209	0.088
-696.470	800.000	-0.058	-0.243
-695.456	-73.881	0.289	-0.105
-694.441	800.000	-0.032	0.093
-693.426	-26.553	0.208	0.122
-692.412	-174.942	-0.148	0.004
-691.397	-47.687	0.169	0.082
-690.383	-49.750	-0.462	0.220
-689.368	5.033	-0.242	-0.179
-688.354	-200.000	-0.047	0.290
-687.339	296.746	0.128	0.236
-686.324	553.554	0.021	0.050
-685.310	-29.613	0.279	0.160
-684.295	800.000	0.043	-0.131
-683.281	328.831	-0.118	0.228
-682.266	337.924	0.134	-0.261
-681.251	12.708	-0.156	-0.121
-680.237	-4.026	0.216	-0.150
-679.222	581.847	-0.103	-0.254
-678.208	-77.678	0.299	-0.104
-677.193	-49.168	-0.177	-0.085
-676.178	-151.977	-0.257	-0.019
-675.164	-8.311	-0.109	0.074
-674.149	23.664	-0.169	0.139
-673.135	-200.000	0.033	-0.181
-672.120	-200.000	0.008	-0.461
-671.105	-135.250	-0.108	-0.013
-670.091	-200.000	0.008	-0.279
-669.076	-78.823	-0.238	0.081
-668.062	800.000	-0.019	-0.058
-667.047	800.000	0.026	0.078
-666.032	679.240	-0.091	-0.238
-665.018	-100.967	0.317	0.078
-664.003	-103.647	-0.194	-0.046
-662.989	-142.762	0.225	-0.022
-661.974	-200.000	-0.014	-0.281
-660.959	-134.748	-0.068	0.008
-659.945	-109.474	-0.303	-0.064
-658.930	800.000	-0.072	-0.299
-657.916	-29.601	-0.084	-0.048
-656.901	131.560	-0.205	-0.264
-655.886	-4.222	0.193	0.134
-654.872	-200.000	-0.018	0.112
-653.857	214.572	-0.103	0.163
-652.843	426.339	-0.112	-0.242
-651.828	-200.000	0.021	-0.146
-650.814	105.056	-0.148	-0.175
-649.799	-117.049	0.101	-0.018
-648.784	-51.257	-0.037	-0.017
-647.770	551.679	0.068	0.164
-646.755	800.000	-0.040	-0.165
-645.741	85.318	0.172	-0.189
-644.726	-200.000	0.005	0.224
-643.711	800.000	-0.061	0.219
-642.697	-146.819	0.237	0.020
-641.682	11.742	0.118	-0.090
-640.668	-155.446	-0.124	-0.008
-639.653	-200.000	-0.051	-0.270
-638.638	-4.771	0.395	-0.273
-637.624	-79.432	0.090	-0.031
-636.609	-200.000	-0.052	0.000
-635.595	-85.197	-0.056	-0.017
-634.580	233.791	-0.179	-0.295
-633.565	75.905	0.078	-0.083
-632.551	-9.250	-0.172	-0.115
-631.536	272.589	-0.176	-0.312
-630.522	152.373	-0.077	-0.105
-629.507	-200.000	-0.005	0.096
-628.492	800.000	0.048	0.177
-627.478	-89.749	-0.128	0.038
-626.463	-200.000	-0.000	-0.220
-625.449	800.000	0.044	0.151
-624.434	93.550	0.079	0.089
-623.419	-82.445	-0.224	-0.073
-622.405	163.392	0.186	0.262
-621.390	-1.482	0.262	-0.185
-620.376	-101.942	0.106	0.026
-619.361	-56.315	0.166	0.074
-618.346	-0.189	-0.151	-0.107
-617.332	655.852	-0.057	0.147
-616.317	800.000	-0.062	-0.203
-615.303	203.168	-0.190	-0.294
-614.288	800.000	-0.071	0.242
-613.273	252.887	0.059	0.101
-612.259	-77.431	-0.376	0.131
-611.244	-86.920	0.254	0.077
-610.230	142.812	0.120	-0.160
-609.215	114.697	-0.239	-0.291
-608.201	729.518	-0.120	-0.320
-607.186	-107.792	-0.195	0.042
-606.171	-200.000	0.016	-0.140
-605.157	35.222	-0.105	-0.092
-604.142	-42.014	0.259	0.133
-603.128	443.432	0.145	0.317
-602.113	482.043	0.104	0.236
-601.098	-200.000	-0.007	0.102
-600.084	-32.541	-0.361	-0.201
-599.069	-65.641	0.197	-0.079
-598.055	170.032	0.085	-0.121
-597.040	-200.000	0.027	0.205
-596.025	194.149	-0.050	0.076
-595.011	301.442	-0.095	0.176
-593.996	-200.000	-0.018	-0.173
-592.982	286.289	-0.098	-0.177
-591.967	-200.000	-0.009	0.078
-590.952	-109.881	-0.268	0.056
-589.938	86.511	-0.059	0.066
-588.923	800.000	-0.098	-0.276
-587.909	-108.175	0.277	0.060
-586.894	63.194	0.220	-0.220
-585.879	-98.767	0.196	0.050
-584.865	-200.000	0.068	-0.387
-583.850	98.842	0.230	0.266
-582.836	-200.000	-0.036	0.311
-581.821	28.601	-0.104	0.088
-580.806	-40.718	0.087	-0.045
-579.792	52.506	-0.065	0.062
-578.777	707.916	0.105	-0.277
-577.763	-12.002	0.078	-0.051
-576.748	-68.706	-0.115	0.045
-575.733	292.931	-0.057	0.103
-574.719	-200.000	-0.011	-0.049
-573.704	59.449	-0.058	0.057
-572.690	-74.041	0.087	0.031
-571.675	361.109	0.125	0.251
-570.661	-121.824	0.268	0.044
-569.646	404.448	0.125	-0.263
-568.631	-115.267	-0.212	-0.040
-567.617	54.043	0.114	-0.110
-566.602	137.550	0.052	-0.068
-565.588	29.395	-0.180	-0.152
-564.573	-91.708	0.195	-0.055
-563.558	-143.207	0.185	0.018
-562.544	-68.178	0.021	0.008
-561.529	515.605	-0.122	0.285
-560.515	179.198	-0.023	-0.034
-559.500	-30.799	-0.104	-0.059
-558.485	-185.449	0.079	0.001
-557.471	-83.833	-0.097	-0.031
-556.456	373.641	-0.057	0.115
-555.442	-95.888	0.048	0.013
-554.427	-121.932	-0.168	-0.028
-553.412	-145.507	-0.342	-0.031
-552.398	800.000	0.115	-0.415
-551.383	114.661	0.085	-0.104
-550.369	-71.740	0.167	-0.062
-549.354	-126.558	-0.450	-0.067
-548.339	392.675	0.063	0.131
-547.325	-97.609	-0.386	0.100
-546.310	800.000	0.061	0.200
-545.296	-110.403	0.183	-0.038
-544.281	-200.000	0.052	-0.331
-543.266	800.000	-0.055	0.156
-542.252	-33.994	-0.553	-0.303
-541.237	-100.599	0.101	-0.025
-540.223	288.779	0.033	0.059
-539.208	754.306	0.082	-0.222
-538.193	800.000	-0.120	0.425
-537.179	44.392	0.230	-0.211
-536.164	-108.185	-0.545	-0.118
-535.150	125.127	0.339	-0.426
-534.135	-200.000	-0.045	-0.287
-533.121	107.514	-0.030	0.036
-532.106	311.869	0.090	0.168
-531.091	8.666	-0.050	-0.037
-530.077	9.090	0.026	-0.020
-529.062	-200.000	0.014	0.066
-528.048	131.073	0.197	0.252
-527.033	-11.372	-0.312	0.205
-526.018	800.000	-0.112	-0.365
-525.004	-46.833	-0.399	-0.195
-523.989	-127.447	-0.192	-0.028
-522.975	800.000	0.010	-0.043
-521.960	-200.000	-0.016	-0.292
-520.945	537.967	-0.019	-0.044
-519.931	292.668	-0.097	0.175
-518.916	-200.000	-0.014	0.067
-517.902	-27.828	0.113	-0.065
-516.887	738.522	-0.143	0.384
-515.872	-119.833	-0.358	0.061
-514.858	-200.000	0.033	-0.158
-513.843	58.146	-0.091	0.089
-512.829	-171.257	-0.291	0.010
-511.814	-159.584	-0.172	-0.009
-510.799	800.000	0.072	-0.200
-509.785	-149.823	0.228	0.018
-508.770	-92.692	-0.258	-0.072
-507.756	74.227	-0.172	-0.180
-506.741	360.289	-0.097	0.193
-505.726	-200.000	0.002	-0.215
-504.712	187.199	0.077	-0.114
-503.697	653.215	-0.111	0.283
-502.683	-200.000	-0.039	-0.569
-501.668	87.083	0.183	0.202
-500.653	-200.000	0.019	0.190
-499.639	-138.536	0.182	0.020
-498.624	-200.000	-0.051	-0.286
-497.610	-63.039	0.045	-0.019
-496.595	-130.375	-0.060	-0.008
-495.581	184.354	0.141	0.207
-494.566	16.850	-0.102	0.080
-493.551	-200.000	-0.000	-0.211
-492.537	-64.898	0.108	-0.043
-491.522	200.433	0.174	-0.266
-490.508	-47.284	-0.210	-0.102
-489.493	-32.102	0.235	0.131
-488.478	-12.652	0.053	0.034
-487.464	-200.000	0.022	-0.293
-486.449	-150.626	0.081	-0.006
-485.435	-200.000	-0.036	-0.203
-484.420	144.440	-0.080	0.106
-483.405	537.978	-0.070	-0.165
-482.391	-190.226	0.139	-0.002
-481.376	-200.000	0.011	0.280
-480.362	-37.387	-0.347	0.185
-479.347	-200.000	0.007	-0.369
-478.332	800.000	-0.091	-0.261
-477.318	-165.213	-0.203	0.009
-476.303	-52.579	0.204	-0.094
-475.289	-125.060	-0.494	-0.076
-474.274	-62.705	0.242	0.100
-473.259	-200.000	0.012	0.106
-472.245	452.247	0.084	-0.186
-471.230	33.520	0.133	0.115
-470.216	-95.753	-0.111	0.029
-469.201	164.630	0.066	0.092
-468.186	190.321	-0.096	-0.143
-467.172	567.497	0.100	0.241
-466.157	-200.000	0.004	-0.172
-465.143	-1.314	0.069	-0.048
-464.128	-200.000	0.007	0.096
-463.113	156.358	0.187	0.257
-462.099	-25.104	-0.286	-0.168
-461.084	257.740	0.181	-0.309
-460.070	-200.000	-0.005	0.048
-459.055	-41.433	-0.463	-0.237
-458.040	-200.000	0.031	0.247
-457.026	36.209	0.075	0.066
-456.011	-200.000	0.020	0.104
-454.997	-29.676	0.157	0.089
-453.982	135.544	0.188	-0.243
-452.968	481.762	0.140	0.317
-451.953	-200.000	-0.022	0.113
-450.938	-200.000	0.044	-0.258
-449.924	765.056	0.114	-0.308
-448.909	256.008	0.153	-0.262
-447.895	22.450	-0.170	-0.138
-446.880	-200.000	-0.021	0.485
-445.865	90.802	-0.015	0.017
-444.851	-14.281	-0.289	-0.185
-443.836	74.509	0.077	-0.081
-442.822	-30.232	0.140	0.079
-441.807	123.341	0.271	0.337
-440.792	-32.126	0.104	-0.058
-439.778	379.451	-0.046	0.094
-438.763	-61.104	-0.370	-0.155
-437.749	777.888	-0.072	-0.195
-436.734	-200.000	0.038	0.301
-435.719	-200.000	-0.037	-0.361
-434.705	-0.248	0.282	-0.199
-433.690	210.340	0.054	0.085
-432.676	-157.997	0.286	-0.017
-431.661	76.455	-0.140	-0.147
-430.646	-197.341	-0.188	-0.001
-429.632	-100.612	0.209	0.051
-428.617	-32.722	-0.356	-0.197
-427.603	-170.678	0.170	-0.006
-426.588	629.749	0.028	0.070
-425.573	95.677	0.083	0.094
-424.559	62.257	-0.158	-0.156
-423.544	570.184	-0.103	-0.249
-422.530	9.716	0.085	-0.064
-421.515	-125.804	-0.244	0.037
-420.500	668.004	0.072	0.185
-419.486	60.450	-0.078	0.077
-418.471	-29.956	0.275	-0.155
-417.457	523.588	0.013	0.031
-416.442	291.528	-0.185	-0.334
-415.428	-200.000	-0.045	0.311
-414.413	447.528	0.126	-0.276
-413.398	-43.425	-0.136	0.068
-412.384	-32.868	-0.325	0.179
-411.369	-100.806	-0.077	0.019
-410.355	100.218	0.158	0.182
-409.340	-200.000	-0.009	0.208
-408.325	-20.624	-0.058	-0.036
-407.311	28.429	-0.222	-0.186
-406.296	148.070	0.186	0.248
-405.282	-101.062	-0.070	0.017
-404.267	-200.000	-0.058	0.320
-403.252	-200.000	-0.002	0.159
-402.238	-200.000	-0.061	-0.374
-401.223	-141.951	0.380	-0.038
-400.209	-71.084	-0.213	0.080
-399.194	2.253	-0.374	-0.268
-398.179	-0.515	0.106	-0.075
-397.165	-200.000	-0.015	-0.216
-396.150	800.000	0.139	0.426
-395.136	570.326	0.097	0.235
-394.121	192.122	0.040	0.060
-393.106	-51.724	0.232	-0.107
-392.092	-77.403	0.110	-0.038
-391.077	389.791	0.138	-0.283
-390.063	-48.328	-0.198	-0.095
-389.048	445.368	0.073	0.160
-388.033	-200.000	-0.026	0.204
-387.019	318.352	0.097	0.182
-386.004	-167.631	0.098	0.004
-384.990	551.401	0.118	0.282
-383.975	-106.378	-0.378	-0.084
-382.960	-200.000	-0.011	-0.054
-381.946	-200.000	0.037	0.493
-380.931	800.000	0.007	0.031
-379.917	351.130	-0.136	-0.267
-378.902	422.073	-0.108	-0.230
-377.888	177.970	-0.153	-0.221
-376.873	56.410	0.165	-0.159
-375.858	-67.088	0.092	-0.036
-374.844	86.567	0.125	-0.137
-373.829	-142.997	-0.206	0.020
-372.815	37.243	0.112	-0.099
-371.800	-1.465	-0.153	-0.107
-370.785	636.436	0.125	0.315
-369.771	524.508	0.123	0.288
-368.756	800.000	-0.088	0.261
-367.742	-200.000	-0.003	-0.180
-366.727	-65.903	0.018	0.007
-365.712	800.000	0.050	-0.165
-364.698	800.000	-0.034	0.146
-363.683	-100.766	-0.174	0.042
-362.669	800.000	-0.071	-0.210
-361.654	114.335	0.257	0.310
-360.639	84.156	0.179	0.193
-359.625	404.069	0.005	0.010
-358.610	-3.081	0.053	0.037
-357.596	-200.000	-0.001	-0.107
-356.581	229.926	-0.078	0.127
-355.566	9.212	0.304	-0.227
-354.552	-200.000	-0.037	-0.322
-353.537	66.929	-0.221	0.223
-352.523	368.308	0.081	0.163
-351.508	-119.191	-0.209	-0.036
-350.493	-173.092	-0.189	0.006
-349.479	58.212	-0.084	-0.081
-348.464	170.670	0.067	0.096
-347.450	373.033	-0.080	0.161
-346.435	-200.000	0.032	0.194
-345.420	-75.039	0.187	0.066
-344.406	-200.000	0.268	-0.000
-343.391	-200.000	-0.002	0.263
-342.377	800.000	-0.076	0.223
-341.362	555.330	-0.121	-0.289
-340.348	-76.467	0.190	-0.066
-339.333	-20.798	-0.172	-0.104
-338.318	-200.000	0.048	-0.275
-337.304	-71.788	-0.042	-0.015
-336.289	76.808	-0.106	0.112
-335.275	-200.000	0.005	-0.322
-334.260	800.000	0.019	-0.063
-333.245	-48.640	-0.213	0.101
-332.231	-200.000	-0.076	-0.507
-331.216	-200.000	-0.026	0.165
-330.202	628.612	-0.043	-0.108
-329.187	-42.243	-0.183	-0.092
-328.172	-200.000	-0.018	0.097
-327.158	178.578	-0.123	-0.177
-326.143	50.136	0.137	0.128
-325.129	144.130	0.100	0.132
-324.114	137.420	0.070	0.091
-323.099	68.885	-0.070	0.071
-322.085	92.770	0.159	0.178
-321.070	460.020	-0.216	0.475
-320.056	-86.564	0.123	0.037
-319.041	-200.000	-0.051	0.228
-318.026	-77.450	0.243	0.084
-317.012	429.628	-0.066	-0.141
-315.997	402.298	-0.064	-0.133
-314.983	3.659	0.291	-0.210
-313.968	800.000	-0.053	0.220
-312.953	-13.552	0.056	-0.036
-311.939	-89.546	0.228	0.066
-310.924	-182.482	-0.246	0.004
-309.910	-106.556	-0.127	0.028
-308.895	-83.325	0.250	0.079
-307.880	-9.995	-0.072	-0.047
-306.866	1.264	0.120	0.085
-305.851	-6.817	0.134	0.090
-304.837	800.000	-0.129	-0.361
-303.822	-43.979	-0.341	0.170
-302.807	51.615	0.061	0.058
-301.793	61.606	-0.076	-0.075
-300.778	-81.634	0.382	0.124
-299.764	-200.000	0.000	-0.191
-298.749	-135.016	0.097	0.012
-297.735	-1.556	-0.167	0.116
-296.720	-17.411	0.133	0.083
-295.705	800.000	0.044	-0.149
-294.691	-200.000	0.018	0.308
-293.676	-200.000	0.025	0.203
-292.662	-36.544	0.269	-0.143
-291.647	800.000	-0.066	-0.212
-290.632	613.197	-0.040	-0.099
-289.618	-200.000	0.008	-0.154
-288.603	-155.673	0.103	-0.007
-287.589	-97.416	-0.171	0.044
-286.574	-3.516	-0.105	0.072
-285.559	800.000	0.105	-0.332
-284.545	-181.213	-0.219	-0.004
-283.530	6.206	0.057	0.042
-282.516	291.994	-0.034	0.061
-281.501	-200.000	-0.026	0.335
-280.486	-35.173	-0.121	0.065
-279.472	256.782	0.178	-0.302
-278.457	585.074	0.018	-0.044
-277.443	800.000	0.120	-0.383
-276.428	-196.220	0.393	0.003
-275.413	-59.093	-0.057	0.024
-274.399	214.917	0.057	0.089
-273.384	-82.207	0.316	-0.102
-272.370	53.716	0.127	0.121
-271.355	-94.726	-0.070	-0.019
-270.340	-75.814	-0.146	0.051
-269.326	-158.323	0.245	0.014
-268.311	190.146	0.081	0.120
-267.297	12.573	0.243	0.185
-266.282	-141.213	0.240	-0.024
-265.267	-122.654	0.137	-0.022
-264.253	-44.741	0.155	0.076
-263.238	-19.102	-0.231	0.142
-262.224	800.000	0.076	0.271
-261.209	-200.000	0.019	0.177
-260.195	-200.000	-0.004	0.315
-259.180	124.565	-0.285	0.354
-258.165	-200.000	-0.016	-0.327
-257.151	-0.023	0.191	0.134
-256.136	-37.905	-0.228	0.119
-255.122	-200.000	-0.035	0.264
-254.107	103.526	0.032	-0.037
-253.092	-93.371	-0.176	-0.048
-252.078	-59.128	0.246	0.105
-251.063	-149.999	0.191	0.015
-250.049	-35.484	0.152	-0.081
-249.034	214.865	-0.013	0.020
-248.019	-142.276	0.222	-0.022
-247.005	-108.304	-0.071	0.015
-245.990	-33.109	-0.088	0.048
-244.976	-200.000	0.079	0.422
-243.961	-75.040	-0.116	-0.041
-242.946	156.886	0.082	0.112
-241.932	800.000	-0.047	-0.133
-240.917	58.020	0.283	0.273
-239.903	60.407	-0.089	0.087
-238.888	-39.844	0.294	-0.151
-237.873	101.250	0.184	0.211
-236.859	-55.829	-0.406	0.179
-235.844	-70.535	-0.213	0.079
-234.830	-10.193	-0.161	0.105
-233.815	-170.243	0.059	-0.002
-232.800	90.834	-0.202	-0.223
-231.786	32.264	0.210	-0.179
-230.771	800.000	-0.044	-0.128
-229.757	740.603	0.196	0.520
-228.742	426.242	-0.086	0.184
-227.727	800.000	0.056	0.169
-226.713	0.735	0.012	0.008
-225.698	-93.664	-0.217	-0.059
-224.684	-200.000	-0.032	0.385
-223.669	-129.652	-0.242	-0.033
-222.655	-200.000	0.016	-0.116
-221.640	-132.010	0.309	0.040
-220.625	800.000	-0.061	0.244
-219.611	800.000	-0.022	-0.088
-218.596	-137.431	-0.085	0.009
-217.582	384.150	-0.098	0.199
-216.567	28.548	-0.148	0.123
-215.552	476.319	-0.086	-0.191
-214.538	-56.433	0.272	0.119
-213.523	-69.136	0.159	-0.060
-212.509	230.413	-0.106	-0.171
-211.494	61.651	-0.373	0.366
-210.479	-76.579	0.394	0.136
-209.465	123.946	0.155	-0.192
-208.450	-29.422	0.252	0.142
-207.436	800.000	-0.021	-0.085
-206.421	157.378	-0.137	0.186
-205.406	27.827	-0.144	0.119
-204.392	-158.970	0.088	-0.005
-203.377	27.130	0.248	0.204
-202.363	-150.161	-0.263	-0.020
-201.348	-69.590	0.051	-0.019
-200.333	-58.339	0.142	0.061
-199.319	405.822	-0.026	0.055
-198.304	60.786	0.260	-0.254
-197.290	-200.000	-0.032	0.278
-196.275	173.702	-0.196	-0.279
-195.260	78.861	0.177	0.186
-194.246	800.000	-0.034	0.109
-193.231	337.610	-0.059	-0.113
-192.217	-92.269	-0.200	0.056
-191.202	-200.000	0.000	0.016
-190.187	-60.905	0.412	0.171
-189.173	-75.967	-0.074	-0.026
-188.158	33.027	-0.330	0.281
-187.144	-200.000	-0.005	-0.176
-186.129	-108.583	0.244	0.051
-185.114	-49.825	0.133	0.062
-184.100	-120.567	0.203	-0.034
-183.085	315.854	0.070	0.130
-182.071	-9.107	-0.244	-0.160
-181.056	681.016	-0.022	0.057
-180.042	-200.000	-0.214	-0.001
-179.027	-50.749	-0.162	0.075
-178.012	-164.247	0.258	0.012
-176.998	-117.976	0.303	-0.053
-175.983	800.000	0.050	0.167
-174.969	-101.413	-0.172	0.041
-173.954	54.355	-0.280	-0.265
-172.939	-200.000	0.052	-0.627
-171.925	-200.000	0.057	-0.390
-170.910	-150.829	-0.022	0.002
-169.896	-124.411	0.190	-0.029
-168.881	193.921	-0.059	0.087
-167.866	-1.616	0.058	0.040
-166.852	385.185	0.059	-0.119
-165.837	7.275	-0.183	-0.134
-164.823	-146.735	0.126	-0.011
-163.808	-120.120	-0.400	0.067
-162.793	112.007	-0.153	0.181
-161.779	150.517	-0.060	0.080
-160.764	-35.554	-0.125	-0.067
-159.750	80.457	-0.146	-0.155
-158.735	178.820	0.156	-0.224
-157.720	-66.902	-0.108	0.042
-156.706	-108.697	0.171	0.036
-155.691	339.767	0.004	0.008
-154.677	-154.273	-0.303	0.020
-153.662	-200.000	0.017	0.204
-152.647	800.000	0.056	0.165
-151.633	-89.787	0.428	-0.123
-150.618	110.389	0.156	-0.184
-149.604	152.360	-0.138	0.184
-148.589	99.004	-0.159	-0.181
-147.574	-67.177	-0.257	0.099
-146.560	196.594	-0.042	0.062
-145.545	20.883	0.257	0.204
-144.531	800.000	0.050	-0.178
-143.516	-56.748	-0.152	0.066
-142.502	-200.000	-0.017	-0.126
-141.487	-200.000	0.006	-0.182
-140.472	274.382	0.226	0.392
-139.458	-142.172	-0.292	0.028
-138.443	-93.125	-0.182	-0.050
-137.429	800.000	0.155	-0.448
-136.414	-27.875	-0.036	0.020
-135.399	190.824	0.064	0.094
-134.385	-28.831	0.178	0.100
-133.370	272.435	0.138	0.239
-132.356	-144.601	0.259	-0.023
-131.341	-200.000	0.043	-0.238
-130.326	473.185	-0.076	0.168
-129.312	-78.210	-0.276	-0.093
-128.297	-200.000	-0.022	0.195
-127.283	-61.380	-0.447	-0.185
-126.268	-200.000	0.001	0.121
-125.253	31.751	0.183	-0.155
-124.239	20.502	-0.214	0.170
-123.224	-200.000	0.026	0.208
-122.210	-55.155	0.185	0.081
-121.195	-60.865	-0.091	-0.038
