DTS Sentinel unit serial number:	SN413079Multiplexer serial number:	ORYXHardware model number:	OX4-SRSoftware version number:	ORYX F/W v4.00 Oryx Data Collector v3.7.2.0data status	okinstallation	princeton_trtdifferential loss correction	single-endedforward channel	channel 2reverse channel	N/Adate	2019/09/13time	00:19:34forward acquisition time	60.00reverse acquisition time	0.00gamma	496.2192k internal	0.2333k external	0.2333temperature offset calibration	1.0167default loss term (dB/km)	0.3790temperature slope calibration	1.0000multiplexer offset coefficient	1.0000multiplexer slope coefficient	1.0000fibre end	0.00T internal ref (°C)	28.50T ext. ref 1 (°C)	3.74T ext. ref 2 (°C)	23.16length (m)	temperature (°C)	Stokes	anti-Stokes-747.200	-65.785	-0.362	0.146
-746.185	-131.033	0.254	-0.034
-745.171	225.520	0.080	0.130
-744.156	131.891	-0.202	0.262
-743.142	160.997	-0.081	-0.114
-742.127	-76.128	-0.047	0.017
-741.112	389.728	0.134	0.279
-740.098	-35.849	0.192	0.104
-739.083	274.216	0.141	0.251
-738.069	269.695	0.200	0.353
-737.054	-91.461	-0.101	0.029
-736.039	-67.414	-0.251	0.099
-735.025	12.816	0.132	-0.103
-734.010	73.270	-0.257	-0.270
-732.996	-54.747	-0.142	0.064
-731.981	-31.205	0.058	0.033
-730.966	9.581	-0.141	0.107
-729.952	-79.831	0.086	-0.029
-728.937	-200.000	-0.013	-0.129
-727.923	-151.845	0.091	0.007
-726.908	5.646	-0.244	-0.181
-725.894	152.911	-0.204	0.280
-724.879	-200.000	-0.011	0.082
-723.864	13.896	0.202	-0.158
-722.850	172.063	0.176	-0.255
-721.835	800.000	-0.039	-0.118
-720.821	-102.391	-0.363	0.087
-719.806	-35.166	-0.068	0.037
-718.791	-200.000	-0.017	0.255
-717.777	69.058	-0.202	0.209
-716.762	800.000	-0.074	-0.299
-715.748	-100.099	0.399	-0.100
-714.733	117.549	0.195	0.241
-713.718	-200.000	0.045	0.245
-712.704	-181.021	-0.360	0.007
-711.689	24.905	0.133	0.111
-710.675	101.998	-0.289	-0.339
-709.660	-64.540	-0.207	-0.084
-708.645	-105.874	-0.108	-0.024
-707.631	800.000	-0.047	0.203
-706.616	318.332	-0.139	-0.264
-705.602	0.323	0.209	-0.150
-704.587	404.316	0.052	0.109
-703.572	-85.893	-0.184	0.057
-702.558	-132.042	-0.113	0.015
-701.543	-200.000	-0.059	0.269
-700.529	-200.000	-0.009	0.366
-699.514	-200.000	-0.071	-0.380
-698.499	-37.611	-0.139	-0.074
-697.485	443.754	-0.045	-0.100
-696.470	-101.819	0.147	-0.036
-695.456	-13.516	-0.243	-0.158
-694.441	-40.876	0.315	0.164
-693.426	54.027	0.116	0.112
-692.412	-150.798	0.194	0.015
-691.397	-102.630	0.336	-0.081
-690.383	-200.000	0.013	0.196
-689.368	69.239	-0.140	0.145
-688.354	540.468	0.179	-0.428
-687.339	352.749	-0.122	-0.242
-686.324	12.671	-0.357	-0.277
-685.310	-200.000	-0.004	-0.376
-684.295	-80.963	-0.110	0.037
-683.281	-12.466	0.177	-0.116
-682.266	288.301	0.039	-0.071
-681.251	-147.063	-0.252	-0.022
-680.237	359.827	-0.138	0.278
-679.222	800.000	0.011	-0.034
-678.208	657.457	-0.129	-0.332
-677.193	-138.271	-0.385	0.043
-676.178	-115.893	-0.578	-0.108
-675.164	-131.595	0.210	-0.028
-674.149	-135.584	-0.338	0.040
-673.135	-14.974	0.046	-0.030
-672.120	-105.934	0.283	-0.064
-671.105	-76.656	-0.287	0.101
-670.091	-81.980	-0.137	-0.045
-669.076	-18.558	-0.191	0.119
-668.062	-125.235	-0.330	0.051
-667.047	110.662	0.252	0.304
-666.032	-95.544	0.045	-0.012
-665.018	107.744	0.097	-0.116
-664.003	245.895	0.050	-0.084
-662.989	-71.693	-0.172	-0.065
-661.974	-113.353	-0.489	0.096
-660.959	-12.114	-0.139	0.091
-659.945	245.498	-0.172	0.290
-658.930	159.184	0.201	0.281
-657.916	-78.681	-0.055	0.019
-656.901	45.791	0.297	-0.275
-655.886	179.821	-0.150	-0.220
-654.872	712.684	0.052	-0.137
-653.857	-13.964	0.041	0.027
-652.843	765.228	-0.021	-0.058
-651.828	-130.274	-0.348	0.047
-650.814	-86.907	-0.178	0.055
-649.799	-7.720	0.264	-0.179
-648.784	67.419	-0.160	-0.163
-647.770	7.106	0.148	0.111
-646.755	-200.000	-0.009	-0.257
-645.741	-200.000	0.039	-0.298
-644.726	-200.000	-0.018	0.363
-643.711	800.000	-0.050	0.215
-642.697	29.324	-0.120	-0.102
-641.682	-200.000	0.027	-0.136
-640.668	-1.154	0.137	-0.097
-639.653	87.735	0.285	0.316
-638.638	-200.000	0.023	-0.264
-637.624	255.540	-0.115	-0.197
-636.609	-15.922	-0.247	-0.157
-635.595	-116.981	0.384	0.070
-634.580	-86.967	0.151	0.046
-633.565	-10.945	-0.159	0.105
-632.551	227.877	-0.099	-0.161
-631.536	-127.869	-0.113	-0.016
-630.522	800.000	-0.061	-0.174
-629.507	-110.519	-0.260	0.054
-628.492	-43.600	-0.183	0.092
-627.478	-92.987	-0.278	0.078
-626.463	137.776	-0.272	-0.357
-625.449	-42.177	0.118	-0.061
-624.434	800.000	0.067	0.240
-623.419	-200.000	-0.016	-0.130
-622.405	-10.512	0.037	0.024
-621.390	-200.000	0.036	-0.162
-620.376	89.248	0.041	0.045
-619.361	-84.142	-0.177	-0.056
-618.346	-84.236	0.231	-0.073
-617.332	-148.359	-0.074	-0.006
-616.317	614.528	-0.176	-0.440
-615.303	800.000	-0.020	-0.084
-614.288	-97.584	0.225	0.058
-613.273	329.612	-0.079	-0.152
-612.259	-63.980	-0.106	-0.043
-611.244	87.267	0.203	-0.225
-610.230	307.777	0.097	-0.181
-609.215	59.983	-0.175	0.173
-608.201	-131.398	0.295	0.039
-607.186	800.000	-0.059	0.230
-606.171	-22.718	0.059	-0.035
-605.157	-83.853	-0.065	-0.021
-604.142	-200.000	-0.044	0.282
-603.128	-200.000	-0.058	0.260
-602.113	-89.000	-0.127	0.038
-601.098	-36.867	-0.165	-0.089
-600.084	37.887	-0.075	0.067
-599.069	-70.193	0.023	0.009
-598.055	128.179	-0.186	0.237
-597.040	-24.026	0.350	0.210
-596.025	800.000	-0.091	-0.322
-595.011	212.413	0.108	-0.171
-593.996	268.369	0.045	-0.080
-592.982	-39.761	0.199	-0.104
-591.967	-32.413	0.343	-0.191
-590.952	16.582	-0.069	0.055
-589.938	-46.960	0.117	0.057
-588.923	-200.000	0.013	-0.278
-587.909	-200.000	0.020	-0.122
-586.894	282.539	0.269	-0.482
-585.879	-97.623	-0.041	-0.011
-584.865	-200.000	-0.018	0.178
-583.850	792.644	0.022	0.061
-582.836	-50.146	0.059	-0.028
-581.821	294.141	-0.156	-0.285
-580.806	1.470	0.209	-0.150
-579.792	-58.408	0.056	0.024
-578.777	92.313	0.099	0.112
-577.763	58.581	0.073	0.072
-576.748	180.174	-0.151	-0.221
-575.733	-13.409	-0.128	-0.083
-574.719	49.459	-0.155	-0.146
-573.704	786.577	-0.142	0.388
-572.690	90.383	-0.152	-0.169
-571.675	800.000	0.042	-0.160
-570.661	423.554	-0.184	-0.396
-569.646	-42.657	-0.181	0.092
-568.631	800.000	-0.092	-0.400
-567.617	-59.553	0.128	0.055
-566.602	-158.422	0.179	0.010
-565.588	-61.466	-0.235	-0.098
-564.573	-200.000	0.009	-0.122
-563.558	179.072	0.226	-0.330
-562.544	118.480	-0.164	0.202
-561.529	4.468	0.076	0.056
-560.515	-200.000	0.001	-0.137
-559.500	-119.694	-0.230	0.040
-558.485	-63.147	-0.155	-0.064
-557.471	299.049	0.091	-0.168
-556.456	200.060	0.085	0.130
-555.442	-90.048	-0.169	-0.049
-554.427	-107.422	0.167	-0.036
-553.412	-154.568	0.134	0.009
-552.398	-181.557	0.290	0.006
-551.383	7.557	-0.256	-0.191
-550.369	139.445	-0.119	-0.157
-549.354	677.831	0.183	0.476
-548.339	-200.000	0.017	-0.207
-547.325	-111.453	-0.107	0.022
-546.310	-81.068	-0.133	-0.044
-545.296	166.425	0.077	-0.109
-544.281	147.165	-0.150	-0.202
-543.266	-114.560	-0.094	0.018
-542.252	-170.794	0.217	-0.007
-541.237	-70.636	-0.236	0.089
-540.223	-200.000	0.010	0.055
-539.208	122.345	0.266	0.332
-538.193	-180.408	-0.265	-0.005
-537.179	184.518	0.052	0.076
-536.164	24.943	0.096	0.079
-535.150	50.485	-0.091	-0.086
-534.135	-200.000	0.006	0.199
-533.121	512.489	0.063	0.146
-532.106	620.874	-0.115	0.289
-531.091	-95.727	-0.166	-0.044
-530.077	-200.000	0.013	0.225
-529.062	53.912	0.080	0.077
-528.048	332.014	0.126	0.242
-527.033	-43.794	-0.149	-0.075
-526.018	97.182	0.134	-0.154
-525.004	-92.506	-0.403	-0.113
-523.989	21.014	-0.259	0.210
-522.975	-137.277	-0.305	0.035
-521.960	800.000	-0.022	-0.063
-520.945	-58.342	-0.217	0.094
-519.931	-200.000	0.084	0.398
-518.916	-171.031	0.074	-0.003
-517.902	-72.060	0.105	-0.039
-516.887	-170.692	-0.121	0.004
-515.872	-200.000	-0.088	0.625
-514.858	191.012	0.027	0.040
-513.843	-200.000	-0.067	0.389
-512.829	-84.149	0.218	-0.069
-511.814	128.073	-0.225	-0.285
-510.799	241.117	-0.066	0.109
-509.785	800.000	-0.019	-0.069
-508.770	-93.795	-0.352	0.097
-507.756	-126.704	-0.306	0.045
-506.741	800.000	0.037	0.128
-505.726	612.322	0.095	0.236
-504.712	105.267	0.233	0.275
-503.697	650.012	0.080	-0.204
-502.683	147.590	-0.098	-0.131
-501.668	800.000	-0.139	-0.527
-500.653	30.003	0.287	-0.244
-499.639	-90.222	-0.158	-0.046
-498.624	-200.000	0.012	0.134
-497.610	3.213	0.152	-0.110
-496.595	-200.000	-0.013	-0.351
-495.581	-200.000	-0.011	-0.401
-494.566	800.000	-0.163	-0.596
-493.551	-200.000	0.057	-0.292
-492.537	-200.000	-0.016	-0.156
-491.522	314.497	0.020	0.038
-490.508	76.810	-0.077	-0.081
-489.493	-85.814	0.372	-0.115
-488.478	-30.116	-0.214	-0.121
-487.464	358.146	0.045	-0.090
-486.449	-103.757	-0.347	0.081
-485.435	39.137	0.037	-0.033
-484.420	135.202	-0.162	0.209
-483.405	255.569	-0.054	0.093
-482.391	-200.000	0.007	-0.248
-481.376	-51.598	0.263	-0.122
-480.362	-93.973	-0.161	0.044
-479.347	41.055	-0.286	0.257
-478.332	14.903	0.186	0.145
-477.318	-200.000	-0.036	0.209
-476.303	267.459	-0.049	-0.086
-475.289	-88.680	0.108	0.032
-474.274	-200.000	0.018	-0.126
-473.259	800.000	-0.006	0.017
-472.245	800.000	-0.036	-0.145
-471.230	209.870	-0.231	0.360
-470.216	102.942	0.071	0.082
-469.201	-26.291	0.286	0.167
-468.186	-79.197	0.114	0.039
-467.172	-71.438	0.258	0.096
-466.157	-181.350	-0.098	-0.002
-465.143	184.805	-0.024	0.035
-464.128	396.157	-0.094	-0.196
-463.113	21.212	0.196	-0.158
-462.099	32.436	0.132	-0.114
-461.084	209.039	0.122	-0.189
-460.070	-38.047	0.200	-0.105
-459.055	-200.000	-0.058	-0.425
-458.040	-55.737	-0.148	0.066
-457.026	800.000	-0.064	-0.228
-456.011	-172.381	-0.211	-0.007
-454.997	765.494	-0.101	0.273
-453.982	-200.000	-0.057	0.497
-452.968	-68.584	-0.110	0.042
-451.953	115.554	0.188	-0.229
-450.938	435.954	0.130	-0.281
-449.924	800.000	-0.047	-0.140
-448.909	21.809	-0.210	-0.170
-447.895	152.016	-0.265	0.359
-446.880	800.000	0.034	-0.102
-445.865	10.799	-0.129	0.098
-444.851	800.000	0.091	0.277
-443.836	94.595	-0.116	0.131
-442.822	408.749	0.048	-0.100
-441.807	196.045	-0.068	0.102
-440.792	-165.089	0.185	-0.008
-439.778	-92.266	0.226	-0.063
-438.763	299.284	0.051	-0.094
-437.749	88.642	0.209	-0.231
-436.734	-98.864	0.104	0.026
-435.719	148.306	0.154	-0.207
-434.705	800.000	0.024	-0.104
-433.690	-200.000	-0.055	0.000
-432.676	-9.659	0.082	-0.054
-431.661	51.881	0.102	0.097
-430.646	673.864	-0.049	-0.126
-429.632	-84.165	0.153	-0.048
-428.617	200.667	-0.176	0.269
-427.603	-32.917	-0.100	0.055
-426.588	-200.000	-0.009	0.073
-425.573	-92.399	0.434	0.121
-424.559	-200.000	0.015	0.292
-423.544	-200.000	0.032	0.181
-422.530	452.631	0.084	-0.184
-421.515	164.375	-0.072	-0.100
-420.500	-145.626	-0.314	-0.028
-419.486	-86.545	0.252	0.077
-418.471	-45.816	0.282	-0.139
-417.457	-22.125	0.195	-0.117
-416.442	117.737	-0.262	-0.321
-415.428	27.242	0.025	-0.021
-414.413	-92.965	0.135	0.037
-413.398	-106.306	0.268	0.059
-412.384	-200.000	0.007	0.237
-411.369	-200.000	-0.020	-0.098
-410.355	-46.909	-0.149	0.072
-409.340	130.571	-0.131	0.167
-408.325	-75.452	0.267	-0.094
-407.311	800.000	-0.076	0.258
-406.296	-200.000	0.001	0.302
-405.282	750.524	-0.117	0.314
-404.267	707.685	-0.060	0.157
-403.252	-17.940	-0.245	-0.152
-402.238	118.997	-0.200	0.246
-401.223	-154.270	-0.111	-0.007
-400.209	57.833	-0.065	0.063
-399.194	-144.311	-0.072	0.007
-398.179	800.000	0.074	0.220
-397.165	-41.687	-0.080	-0.041
-396.150	113.246	0.165	-0.199
-395.136	-61.623	-0.077	0.032
-394.121	-114.429	-0.065	-0.012
-393.106	-72.912	-0.234	-0.085
-392.092	-87.830	-0.124	0.037
-391.077	800.000	-0.106	0.330
-390.063	-94.346	0.331	-0.090
-389.048	373.044	0.110	0.221
-388.033	-12.766	-0.290	0.187
-387.019	266.202	-0.043	-0.075
-386.004	109.630	-0.170	-0.202
-384.990	800.000	-0.053	-0.205
-383.975	4.922	-0.092	0.067
-382.960	38.298	-0.107	0.095
-381.946	776.598	0.119	0.321
-380.931	74.000	-0.160	0.166
-379.917	800.000	-0.078	-0.233
-378.902	-197.350	0.263	0.002
-377.888	-102.408	0.066	-0.016
-376.873	576.661	0.041	-0.100
-375.858	-8.189	0.311	0.208
-374.844	-132.247	-0.327	-0.042
-373.829	98.718	-0.141	-0.161
-372.815	-200.000	-0.036	0.350
-371.800	-61.113	0.287	0.120
-370.785	-56.904	0.381	0.167
-369.771	363.826	0.034	-0.068
-368.756	-1.548	0.132	0.092
-367.742	800.000	-0.038	0.120
-366.727	101.738	-0.083	0.096
-365.712	466.802	-0.083	-0.185
-364.698	148.760	0.264	-0.353
-363.683	139.931	-0.074	0.096
-362.669	-55.541	-0.093	0.041
-361.654	54.058	-0.207	0.197
-360.639	-115.166	0.184	0.035
-359.625	-62.561	-0.204	-0.084
-358.610	-114.166	0.263	-0.050
-357.596	-88.333	0.379	-0.112
-356.581	7.030	-0.241	0.178
-355.566	140.990	-0.096	-0.126
-354.552	-46.793	-0.226	-0.109
-353.537	-200.000	-0.009	0.304
-352.523	-200.000	0.006	0.266
-351.508	-155.398	0.206	-0.013
-350.493	-154.820	-0.177	0.012
-349.479	-87.506	-0.275	-0.082
-348.464	32.284	0.293	0.251
-347.450	-200.000	0.003	0.114
-346.435	-35.752	0.198	-0.106
-345.420	-152.174	-0.159	0.011
-344.406	-100.195	0.270	-0.067
-343.391	-93.625	0.181	0.049
-342.377	178.763	-0.082	-0.119
-341.362	-68.160	0.107	0.041
-340.348	-58.046	0.294	-0.127
-339.333	-116.792	-0.443	0.081
-338.318	-132.706	0.337	0.043
-337.304	62.013	0.275	0.271
-336.289	-17.495	-0.281	0.175
-335.275	48.698	0.253	0.234
-334.260	-200.000	0.005	0.367
-333.245	15.129	0.098	0.076
-332.231	-152.468	0.125	0.009
-331.216	800.000	-0.022	0.071
-330.202	129.425	0.255	0.323
-329.187	9.467	0.438	0.328
-328.172	-79.718	-0.275	-0.092
-327.158	-200.000	0.051	-0.248
-326.143	800.000	0.018	0.052
-325.129	-13.993	0.260	0.166
-324.114	-0.996	0.121	-0.085
-323.099	217.915	0.087	-0.138
-322.085	157.896	0.077	-0.105
-321.070	800.000	-0.044	-0.192
-320.056	-18.196	0.110	0.068
-319.041	-95.968	-0.365	0.096
-318.026	436.379	-0.067	0.143
-317.012	-8.405	-0.030	-0.020
-315.997	-8.741	-0.328	-0.217
-314.983	-30.326	0.075	-0.042
-313.968	-71.759	-0.119	-0.044
-312.953	72.671	0.347	-0.358
-311.939	88.211	0.097	-0.106
-310.924	158.130	-0.300	0.411
-309.910	81.075	0.102	-0.109
-308.895	800.000	0.004	-0.015
-307.880	-69.025	-0.037	-0.014
-306.866	-200.000	0.023	0.429
-305.851	562.641	0.097	0.233
-304.837	68.826	0.104	0.105
-303.822	40.546	-0.365	-0.325
-302.807	361.781	-0.130	0.257
-301.793	512.263	-0.029	0.066
-300.778	-147.226	-0.240	-0.020
-299.764	-33.918	-0.182	0.099
-298.749	223.738	0.162	0.259
-297.735	72.501	0.129	0.133
-296.720	171.391	0.066	0.094
-295.705	5.394	-0.063	0.046
-294.691	86.363	-0.164	0.178
-293.676	-153.147	-0.034	0.002
-292.662	40.610	0.128	0.114
-291.647	-6.792	-0.149	0.100
-290.632	-20.348	0.254	-0.155
-289.618	136.337	0.094	-0.121
-288.603	94.847	0.091	-0.102
-287.589	-99.424	0.082	-0.020
-286.574	462.932	0.082	-0.180
-285.559	185.518	0.075	-0.111
-284.545	-21.062	-0.063	0.038
-283.530	-90.030	-0.196	-0.056
-282.516	-200.000	0.010	0.200
-281.501	-200.000	-0.034	0.181
-280.486	-99.190	-0.034	-0.009
-279.472	-149.757	0.331	-0.026
-278.457	-178.567	0.287	-0.007
-277.443	-34.302	0.111	-0.060
-276.428	148.526	-0.209	0.279
-275.413	-85.403	-0.091	-0.028
-274.399	502.431	-0.035	0.080
-273.384	-200.000	-0.035	0.171
-272.370	-123.608	-0.228	0.036
-271.355	-54.794	0.129	0.058
-270.340	-46.918	-0.197	-0.095
-269.326	310.097	0.083	-0.152
-268.311	-141.238	0.260	-0.026
-267.297	-200.000	-0.051	-0.358
-266.282	691.769	-0.063	0.164
-265.267	-168.302	0.339	0.013
-264.253	-110.347	-0.062	0.013
-263.238	-13.795	0.371	0.237
-262.224	800.000	-0.107	0.301
-261.209	-123.290	-0.466	-0.074
-260.195	-73.730	-0.294	-0.106
-259.180	-93.468	-0.183	0.050
-258.165	-200.000	-0.056	0.255
-257.151	800.000	-0.086	0.264
-256.136	-11.815	-0.130	0.084
-255.122	-200.000	-0.034	-0.205
-254.107	731.960	-0.059	0.155
-253.092	-200.000	0.026	-0.114
-252.078	-200.000	-0.018	-0.092
-251.063	-129.855	0.361	0.049
-250.049	54.156	-0.264	-0.250
-249.034	-71.687	0.050	-0.019
-248.019	226.932	0.080	-0.128
-247.005	-200.000	0.014	-0.114
-245.990	-23.584	0.135	0.080
-244.976	22.436	0.053	0.043
-243.961	-66.541	-0.308	0.120
-242.946	-200.000	-0.002	-0.227
-241.932	-7.441	-0.309	-0.206
-240.917	-200.000	-0.252	0.000
-239.903	276.604	-0.160	-0.280
-238.888	8.194	0.279	0.207
-237.873	-40.048	-0.304	-0.156
-236.859	7.742	0.160	0.118
-235.844	-200.000	0.060	-0.356
-234.830	-159.417	-0.323	-0.018
-233.815	-66.235	-0.123	0.048
-232.800	27.828	-0.071	0.059
-231.786	200.020	0.163	0.247
-230.771	271.817	-0.148	-0.257
-229.757	37.035	-0.133	0.116
-228.742	78.772	0.258	0.272
-227.727	-37.852	0.096	0.051
-226.713	221.731	0.062	-0.098
-225.698	-78.932	-0.128	-0.043
-224.684	223.737	0.165	-0.262
-223.669	-145.174	-0.086	-0.008
-222.655	-80.208	0.107	-0.035
-221.640	800.000	-0.158	-0.491
-220.625	17.904	-0.254	-0.199
-219.611	562.458	-0.063	0.150
-218.596	-66.980	-0.175	0.068
-217.582	-200.000	-0.007	0.195
-216.567	-57.035	-0.220	0.096
-215.552	-85.491	0.079	0.024
-214.538	-129.840	0.311	-0.042
-213.523	342.704	0.029	0.055
-212.509	-190.080	0.269	-0.003
-211.494	800.000	-0.137	-0.402
-210.479	800.000	-0.020	0.057
-209.465	170.529	0.126	0.178
-208.450	-200.000	-0.025	0.216
-207.436	45.549	-0.095	0.086
-206.421	250.322	0.027	0.044
-205.406	-200.000	-0.031	0.281
-204.392	13.640	0.254	0.194
-203.377	606.962	0.146	0.358
-202.363	462.619	0.065	0.144
-201.348	-200.000	-0.004	0.097
-200.333	601.371	0.063	0.155
-199.319	-200.000	0.010	-0.088
-198.304	-175.812	-0.073	-0.002
-197.290	56.639	0.136	0.130
-196.275	41.466	0.138	0.123
-195.260	800.000	0.046	-0.158
-194.246	-81.945	-0.357	-0.115
-193.231	-103.568	0.162	-0.037
-192.217	327.212	0.069	-0.131
-191.202	-31.885	-0.210	-0.116
-190.187	534.722	-0.094	-0.220
-189.173	-63.966	-0.082	-0.033
-188.158	89.909	-0.038	0.042
-187.144	-200.000	-0.001	-0.270
-186.129	-101.777	-0.242	0.058
-185.114	111.318	0.095	-0.113
-184.100	-163.003	0.109	0.005
-183.085	-123.940	-0.199	-0.031
-182.071	338.758	-0.124	-0.237
-181.056	-62.047	-0.203	0.083
-180.042	-95.451	0.178	0.047
-179.027	291.120	0.105	-0.188
-178.012	-44.502	0.135	-0.066
-176.998	800.000	-0.045	-0.127
-175.983	-64.331	-0.087	0.035
-174.969	800.000	0.059	0.177
-173.954	-12.570	-0.068	0.043
-172.939	527.917	0.131	-0.303
-171.925	293.311	0.071	-0.128
-170.910	-33.031	0.208	-0.113
-169.896	432.976	0.149	-0.317
-168.881	-171.974	-0.135	-0.004
-167.866	-131.716	0.254	0.033
-166.852	800.000	-0.094	-0.256
-165.837	-76.893	0.065	0.022
-164.823	-200.000	0.027	-0.129
-163.808	389.131	0.046	0.093
-162.793	215.472	0.064	-0.100
-161.779	395.832	0.104	0.213
-160.764	-116.448	0.183	-0.033
-159.750	194.790	0.090	0.134
-158.735	438.952	0.159	0.341
-157.720	-200.000	0.024	-0.194
-156.706	3.531	0.332	-0.238
-155.691	800.000	0.089	0.290
-154.677	312.106	0.093	-0.172
-153.662	16.627	0.194	0.151
-152.647	-86.201	-0.123	0.037
-151.633	-15.941	-0.150	-0.094
-150.618	-200.000	-0.014	-0.175
-149.604	800.000	-0.038	0.160
-148.589	114.063	-0.318	0.381
-147.574	45.727	-0.238	0.216
-146.560	-200.000	0.012	-0.189
-145.545	-105.581	-0.183	0.041
-144.531	90.736	0.110	0.121
-143.516	125.222	0.036	0.044
-142.502	800.000	0.022	-0.064
-141.487	-200.000	0.013	0.358
-140.472	-106.396	-0.126	-0.028
-139.458	99.741	0.256	-0.292
-138.443	591.064	-0.099	0.241
-137.429	800.000	0.012	0.043
-136.414	-200.000	-0.010	-0.424
-135.399	-67.734	0.312	-0.120
-134.385	92.510	-0.054	-0.060
-133.370	-52.601	0.439	0.199
-132.356	422.464	-0.142	0.299
-131.341	285.113	0.178	0.314
-130.326	164.823	-0.088	0.122
-129.312	-72.617	0.227	0.082
-128.297	-200.000	0.022	0.105
-127.283	70.151	-0.059	0.060
-126.268	-200.000	0.018	0.186
-125.253	-135.130	-0.220	-0.026
-124.239	-42.105	-0.076	0.038
-123.224	-9.084	0.156	-0.103
-122.210	115.920	0.073	0.087
-121.195	800.000	0.089	-0.292
