DTS Sentinel unit serial number:	SN413079Multiplexer serial number:	ORYXHardware model number:	OX4-SRSoftware version number:	ORYX F/W v4.00 Oryx Data Collector v3.7.2.0data status	okinstallation	princeton_trtdifferential loss correction	single-endedforward channel	channel 2reverse channel	N/Adate	2019/09/15time	14:31:34forward acquisition time	60.00reverse acquisition time	0.00gamma	496.2192k internal	0.2299k external	0.2299temperature offset calibration	0.9987default loss term (dB/km)	0.3790temperature slope calibration	1.0000multiplexer offset coefficient	1.0000multiplexer slope coefficient	1.0000fibre end	0.00T internal ref (°C)	39.37T ext. ref 1 (°C)	4.91T ext. ref 2 (°C)	36.27length (m)	temperature (°C)	Stokes	anti-Stokes-747.200	23.741	0.255	0.214
-746.185	361.423	0.214	0.438
-745.171	800.000	0.070	0.232
-744.156	-200.000	0.075	0.342
-743.142	155.487	0.075	0.105
-742.127	193.919	0.140	0.216
-741.112	-101.322	0.351	-0.087
-740.098	-89.604	0.208	-0.062
-739.083	11.279	0.199	-0.156
-738.069	149.251	0.285	0.393
-737.054	-200.000	0.005	-0.028
-736.039	38.419	-0.360	0.327
-735.025	211.348	0.148	0.237
-734.010	-32.029	-0.259	-0.148
-732.996	-88.714	-0.539	-0.163
-731.981	67.174	0.019	-0.020
-730.966	4.251	0.202	-0.151
-729.952	-112.135	-0.128	0.026
-728.937	274.928	0.234	-0.423
-727.923	-81.106	-0.261	-0.088
-726.908	-200.000	0.007	0.136
-725.894	-68.051	-0.221	0.088
-724.879	-57.202	-0.144	-0.065
-723.864	43.445	-0.236	-0.220
-722.850	293.735	0.106	-0.198
-721.835	-85.892	-0.413	0.130
-720.821	21.656	-0.335	-0.278
-719.806	-25.983	-0.340	0.204
-718.791	-27.806	-0.180	-0.106
-717.777	-200.000	-0.069	0.404
-716.762	225.362	0.036	-0.060
-715.748	15.969	-0.084	0.067
-714.733	22.930	-0.091	-0.076
-713.718	800.000	-0.061	0.179
-712.704	-16.687	-0.102	0.066
-711.689	82.899	-0.093	0.103
-710.675	209.924	-0.113	-0.180
-709.660	-65.879	-0.352	-0.143
-708.645	-200.000	-0.049	0.257
-707.631	147.093	-0.241	-0.331
-706.616	-111.681	-0.143	-0.029
-705.602	-20.410	-0.058	0.036
-704.587	176.064	0.039	-0.058
-703.572	400.118	0.176	-0.375
-702.558	182.027	0.139	0.208
-701.543	327.930	0.074	-0.145
-700.529	489.268	-0.107	-0.249
-699.514	247.248	-0.203	0.349
-698.499	608.351	0.038	-0.097
-697.485	-175.590	0.234	-0.006
-696.470	648.459	-0.103	-0.268
-695.456	100.996	0.058	0.068
-694.441	-200.000	-0.024	-0.122
-693.426	-200.000	-0.001	-0.227
-692.412	-200.000	-0.017	-0.135
-691.397	736.976	0.007	-0.019
-690.383	-200.000	0.028	0.207
-689.368	-17.699	0.057	-0.037
-688.354	-39.765	0.222	-0.118
-687.339	-126.499	-0.208	0.032
-686.324	130.640	-0.057	0.075
-685.310	429.668	-0.099	-0.219
-684.295	-18.703	-0.274	-0.174
-683.281	183.419	-0.164	-0.246
-682.266	91.133	0.130	-0.149
-681.251	172.305	-0.120	-0.175
-680.237	354.802	0.098	0.199
-679.222	-28.080	-0.068	0.040
-678.208	381.920	0.085	-0.178
-677.193	-21.938	-0.105	-0.065
-676.178	1.129	-0.298	-0.217
-675.164	-145.438	-0.203	0.019
-674.149	791.668	-0.107	0.300
-673.135	569.055	-0.068	0.169
-672.120	30.500	0.097	-0.085
-671.105	-130.439	0.089	0.012
-670.091	800.000	-0.025	-0.084
-669.076	395.662	-0.138	0.292
-668.062	-6.705	-0.208	-0.144
-667.047	-122.293	-0.153	0.025
-666.032	140.922	0.188	0.253
-665.018	71.813	-0.044	-0.046
-664.003	-105.151	0.098	0.023
-662.989	359.474	0.054	-0.111
-661.974	-137.952	0.103	-0.012
-660.959	431.757	-0.072	-0.159
-659.945	-52.805	-0.143	-0.067
-658.930	-200.000	-0.059	-0.360
-657.916	-134.731	0.052	0.006
-656.901	-20.093	0.121	0.076
-655.886	294.184	-0.026	-0.049
-654.872	-85.259	-0.164	-0.052
-653.857	-200.000	0.033	-0.182
-652.843	45.987	0.330	-0.311
-651.828	504.476	-0.127	-0.298
-650.814	751.936	0.073	0.200
-649.799	800.000	-0.106	-0.373
-648.784	-183.531	0.283	0.005
-647.770	-51.440	-0.344	-0.163
-646.755	-200.000	-0.023	-0.140
-645.741	63.566	0.210	-0.214
-644.726	552.710	0.166	-0.405
-643.711	296.265	0.115	-0.214
-642.697	-7.501	0.286	-0.197
-641.682	-200.000	0.025	0.227
-640.668	283.443	-0.043	0.079
-639.653	800.000	0.035	0.109
-638.638	-51.542	-0.156	0.074
-637.624	-3.153	0.281	-0.199
-636.609	78.165	0.090	-0.097
-635.595	-200.000	0.007	0.031
-634.580	800.000	-0.120	0.342
-633.565	-22.288	0.073	-0.045
-632.551	80.579	0.132	-0.144
-631.536	800.000	-0.053	0.188
-630.522	461.081	-0.067	-0.153
-629.507	45.378	0.221	-0.207
-628.492	-200.000	0.002	-0.199
-627.478	-200.000	-0.009	0.157
-626.463	-144.512	0.263	-0.025
-625.449	394.182	0.065	0.138
-624.434	-162.403	0.172	0.009
-623.419	800.000	0.098	0.311
-622.405	-30.439	-0.102	-0.059
-621.390	42.644	-0.261	-0.242
-620.376	277.758	-0.062	-0.111
-619.361	-96.672	0.087	-0.023
-618.346	-50.050	-0.212	-0.102
-617.332	73.205	-0.195	-0.207
-616.317	-96.056	-0.104	0.028
-615.303	-156.315	-0.141	0.009
-614.288	-200.000	0.009	-0.108
-613.273	18.632	0.242	0.197
-612.259	-200.000	0.031	-0.305
-611.244	-200.000	-0.016	-0.170
-610.230	290.487	0.095	0.175
-609.215	-200.000	-0.013	0.217
-608.201	-17.540	0.312	-0.199
-607.186	138.085	0.117	-0.156
-606.171	-200.000	0.054	-0.420
-605.157	-145.016	-0.130	0.012
-604.142	-97.091	-0.238	-0.063
-603.128	-124.331	-0.143	0.023
-602.113	116.938	-0.091	0.113
-601.098	-151.904	-0.089	-0.007
-600.084	98.885	-0.171	-0.201
-599.069	800.000	0.094	-0.271
-598.055	-118.179	0.316	-0.057
-597.040	-62.849	0.155	0.065
-596.025	143.164	-0.104	0.141
-595.011	-161.987	0.273	0.014
-593.996	109.316	-0.042	0.051
-592.982	-200.000	-0.005	0.079
-591.967	4.263	0.062	0.046
-590.952	-23.199	-0.153	-0.093
-589.938	-100.175	0.154	-0.039
-588.923	-95.411	0.133	0.036
-587.909	-75.664	0.055	0.020
-586.894	0.653	0.089	-0.065
-585.879	-159.496	-0.317	-0.018
-584.865	-200.000	0.001	0.132
-583.850	481.670	0.084	0.194
-582.836	659.890	0.011	-0.029
-581.821	-143.077	-0.331	-0.032
-580.806	-158.400	0.110	-0.006
-579.792	12.207	0.084	0.065
-578.777	16.242	0.196	0.157
-577.763	-89.307	0.384	-0.115
-576.748	-83.559	0.102	0.033
-575.733	24.275	0.277	0.232
-574.719	800.000	0.068	0.220
-573.704	-38.237	0.269	0.145
-572.690	-14.617	-0.282	-0.184
-571.675	-113.609	-0.135	-0.027
-570.661	-200.000	0.023	0.261
-569.646	800.000	-0.028	-0.093
-568.631	-200.000	-0.006	0.071
-567.617	27.530	0.177	0.151
-566.602	116.896	0.079	-0.099
-565.588	-200.000	-0.041	-0.310
-564.573	-48.931	-0.370	0.180
-563.558	-200.000	0.011	0.099
-562.544	-78.235	0.158	-0.055
-561.529	4.452	0.182	0.135
-560.515	221.565	0.118	0.192
-559.500	259.238	-0.073	-0.128
-558.485	-92.365	-0.056	-0.016
-557.471	-136.843	0.516	0.060
-556.456	177.571	-0.073	0.107
-555.442	-34.161	-0.097	0.054
-554.427	-200.000	-0.038	-0.241
-553.412	-140.005	-0.306	-0.033
-552.398	800.000	0.046	0.169
-551.383	358.364	-0.086	0.175
-550.369	163.453	-0.098	-0.139
-549.354	-180.474	-0.329	-0.007
-548.339	-20.839	0.140	0.087
-547.325	-2.334	-0.165	0.117
-546.310	-27.873	-0.456	0.267
-545.296	1.812	0.191	0.139
-544.281	-200.000	-0.028	0.157
-543.266	180.674	-0.194	0.288
-542.252	-114.748	0.154	0.030
-541.237	-1.832	0.214	-0.152
-540.223	-32.052	0.151	-0.086
-539.208	81.252	0.190	0.208
-538.193	-161.476	-0.195	-0.010
-537.179	-45.252	0.254	0.128
-536.164	74.100	-0.071	0.076
-535.150	17.527	0.013	-0.010
-534.135	-200.000	0.027	-0.345
-533.121	42.484	-0.140	-0.129
-532.106	-93.049	0.369	-0.104
-531.091	-180.457	-0.237	-0.005
-530.077	-4.147	0.152	-0.106
-529.062	-200.000	-0.004	-0.023
-528.048	-200.000	-0.023	-0.359
-527.033	329.666	0.024	0.046
-526.018	800.000	-0.111	0.347
-525.004	28.363	-0.279	-0.238
-523.989	800.000	0.070	0.225
-522.975	-165.977	-0.225	0.010
-521.960	47.823	0.102	-0.097
-520.945	62.926	-0.129	-0.130
-519.931	-200.000	-0.051	0.313
-518.916	-116.761	-0.187	0.035
-517.902	-72.086	-0.220	-0.083
-516.887	498.024	-0.100	0.232
-515.872	50.155	0.185	-0.177
-514.858	397.126	0.097	-0.206
-513.843	266.503	-0.116	0.205
-512.829	-113.233	0.193	0.038
-511.814	-9.141	0.235	0.159
-510.799	-110.174	-0.144	-0.030
-509.785	-77.759	0.126	0.044
-508.770	-43.873	-0.188	0.096
-507.756	-92.131	0.086	-0.025
-506.741	-164.394	0.030	0.001
-505.726	232.267	0.126	0.209
-504.712	-126.350	0.375	0.057
-503.697	-98.889	0.355	-0.091
-502.683	420.469	-0.137	0.297
-501.668	-109.358	-0.378	-0.081
-500.653	5.486	0.036	0.027
-499.639	-101.559	-0.172	0.042
-498.624	-14.874	-0.187	0.122
-497.610	-32.067	-0.582	0.329
-496.595	-63.452	-0.187	-0.078
-495.581	-200.000	-0.012	-0.124
-494.566	43.625	-0.132	-0.122
-493.551	489.940	-0.103	-0.238
-492.537	-110.347	0.146	0.031
-491.522	153.076	0.113	-0.157
-490.508	800.000	-0.089	-0.317
-489.493	-200.000	-0.033	0.176
-488.478	-112.783	0.164	-0.033
-487.464	-200.000	0.037	-0.302
-486.449	-29.332	-0.144	-0.083
-485.435	-165.686	0.341	-0.015
-484.420	100.211	-0.075	0.088
-483.405	800.000	-0.020	-0.071
-482.391	260.558	-0.072	0.127
-481.376	156.853	-0.163	0.227
-480.362	198.832	-0.119	0.185
-479.347	-200.000	0.062	-0.330
-478.332	-61.819	-0.246	-0.104
-477.318	-33.910	0.279	0.155
-476.303	-91.643	0.193	0.056
-475.289	441.862	-0.096	0.211
-474.274	800.000	0.055	-0.202
-473.259	341.817	-0.153	0.302
-472.245	484.197	-0.051	0.117
-471.230	-200.000	0.004	-0.163
-470.216	36.796	0.106	-0.095
-469.201	178.950	0.182	0.269
-468.186	-6.112	-0.243	0.168
-467.172	-200.000	-0.024	0.125
-466.157	-129.500	-0.284	-0.040
-465.143	44.688	0.114	-0.106
-464.128	-63.470	0.154	0.064
-463.113	800.000	-0.041	0.132
-462.099	-50.905	0.085	-0.040
-461.084	-165.142	-0.165	-0.007
-460.070	-113.504	-0.250	0.049
-459.055	-146.975	-0.234	-0.020
-458.040	-200.000	0.022	-0.131
-457.026	60.053	-0.093	-0.093
-456.011	-200.000	-0.013	0.268
-454.997	-32.321	0.168	0.094
-453.982	-200.000	-0.047	0.319
-452.968	-200.000	-0.007	-0.071
-451.953	76.506	-0.156	-0.167
-450.938	800.000	-0.052	0.186
-449.924	-200.000	0.019	0.298
-448.909	800.000	0.077	-0.231
-447.895	-28.520	-0.076	0.044
-446.880	65.151	-0.250	0.255
-445.865	-21.002	-0.147	0.091
-444.851	-50.982	0.091	-0.043
-443.836	-157.547	-0.298	-0.018
-442.822	237.825	-0.075	-0.126
-441.807	192.570	0.104	-0.158
-440.792	-131.078	0.136	0.018
-439.778	7.645	0.188	0.142
-438.763	470.347	-0.141	0.320
-437.749	29.153	0.177	0.152
-436.734	58.412	0.166	-0.165
-435.719	68.029	-0.088	0.091
-434.705	100.325	0.198	0.231
-433.690	-105.107	-0.099	0.023
-432.676	54.370	0.138	-0.134
-431.661	367.741	0.055	0.112
-430.646	293.055	-0.048	0.088
-429.632	-200.000	-0.002	-0.010
-428.617	-200.000	-0.065	0.387
-427.603	-185.849	-0.173	-0.003
-426.588	-38.785	-0.157	-0.084
-425.573	13.966	-0.302	-0.237
-424.559	-45.076	-0.129	0.064
-423.544	27.778	0.199	0.169
-422.530	800.000	-0.096	-0.400
-421.515	-53.107	-0.298	-0.138
-420.500	-148.138	0.123	0.010
-419.486	-200.000	-0.002	-0.116
-418.471	-186.359	0.167	0.002
-417.457	713.850	-0.125	0.335
-416.442	-73.286	-0.229	-0.084
-415.428	-97.829	0.289	0.075
-414.413	-69.433	0.213	0.082
-413.398	-190.371	-0.181	0.002
-412.384	-104.123	0.119	0.028
-411.369	-37.636	0.213	0.114
-410.355	800.000	0.088	-0.335
-409.340	191.232	0.049	-0.075
-408.325	-123.529	-0.334	-0.054
-407.311	137.776	-0.030	-0.040
-406.296	-32.975	0.095	-0.053
-405.282	-23.402	0.179	0.108
-404.267	-200.000	-0.006	-0.081
-403.252	46.153	-0.073	0.068
-402.238	417.290	-0.120	-0.259
-401.223	-200.000	-0.002	0.051
-400.209	42.821	0.270	0.248
-399.194	-65.153	-0.210	-0.085
-398.179	-142.912	-0.154	-0.015
-397.165	-65.269	-0.268	0.109
-396.150	-174.683	-0.221	-0.006
-395.136	-6.939	0.207	0.142
-394.121	-66.936	0.020	0.008
-393.106	800.000	0.139	0.402
-392.092	-9.416	0.043	0.029
-391.077	60.666	-0.120	-0.120
-390.063	-94.819	-0.220	0.060
-389.048	800.000	0.020	-0.060
-388.033	64.116	-0.074	-0.075
-387.019	38.278	0.269	-0.241
-386.004	61.545	-0.164	-0.164
-384.990	800.000	0.082	-0.323
-383.975	-45.773	-0.179	0.089
-382.960	-173.019	-0.098	0.003
-381.946	378.990	0.197	0.407
-380.931	131.158	-0.143	0.184
-379.917	456.985	-0.098	-0.218
-378.902	-200.000	-0.016	-0.164
-377.888	-37.490	0.131	0.070
-376.873	157.061	-0.118	0.164
-375.858	18.421	-0.139	0.112
-374.844	402.884	-0.107	0.226
-373.829	109.250	-0.149	-0.180
-372.815	-200.000	-0.023	0.247
-371.800	-34.524	-0.239	-0.132
-370.785	-200.000	0.028	-0.186
-369.771	-62.353	0.171	0.072
-368.756	800.000	-0.055	-0.175
-367.742	96.839	0.176	0.203
-366.727	-60.330	-0.602	0.257
-365.712	61.265	-0.171	0.171
-364.698	133.236	0.190	0.247
-363.683	800.000	0.074	0.253
-362.669	-151.759	-0.214	-0.016
-361.654	115.952	-0.061	-0.075
-360.639	-110.244	0.272	0.057
-359.625	132.341	0.266	0.345
-358.610	441.501	0.027	-0.060
-357.596	-200.000	0.011	-0.229
-356.581	-106.612	0.156	-0.035
-355.566	-78.612	-0.262	-0.090
-354.552	196.457	-0.106	0.162
-353.537	26.585	-0.271	0.228
-352.523	547.188	-0.035	-0.084
-351.508	22.806	-0.077	-0.063
-350.493	800.000	-0.052	0.190
-349.479	-188.341	-0.078	-0.001
-348.464	197.312	0.002	-0.003
-347.450	-87.782	-0.067	0.020
-346.435	202.004	-0.078	0.121
-345.420	-56.121	-0.064	-0.028
-344.406	156.768	0.177	0.246
-343.391	800.000	-0.053	0.172
-342.377	-136.235	-0.098	-0.012
-341.362	-200.000	-0.030	0.214
-340.348	-195.722	0.255	0.002
-339.333	800.000	0.025	0.089
-338.318	-200.000	-0.001	0.101
-337.304	-62.685	-0.189	0.079
-336.289	-46.041	0.261	-0.129
-335.275	-200.000	-0.010	-0.170
-334.260	-79.025	0.290	0.099
-333.245	-200.000	-0.063	0.294
-332.231	259.628	0.065	0.113
-331.216	-200.000	0.039	0.283
-330.202	-154.158	-0.276	-0.019
-329.187	180.863	0.145	-0.213
-328.172	-200.000	-0.081	0.000
-327.158	-49.864	-0.155	0.074
-326.143	356.454	-0.138	0.276
-325.129	800.000	-0.070	-0.262
-324.114	176.822	-0.078	0.114
-323.099	-70.130	0.247	0.094
-322.085	-102.712	-0.153	-0.037
-321.070	26.668	0.005	-0.004
-320.056	563.573	-0.053	-0.129
-319.041	97.445	0.136	-0.157
-318.026	598.003	-0.098	-0.245
-317.012	800.000	0.053	-0.177
-315.997	42.577	-0.206	-0.188
-314.983	258.599	-0.217	-0.375
-313.968	800.000	0.091	-0.368
-312.953	362.040	0.070	-0.141
-311.939	240.867	0.013	0.022
-310.924	-200.000	0.012	-0.148
-309.910	152.322	0.259	-0.354
-308.895	-200.000	0.027	-0.236
-307.880	244.963	-0.067	0.113
-306.866	800.000	-0.015	-0.051
-305.851	77.517	-0.146	0.156
-304.837	56.525	0.112	0.110
-303.822	94.168	0.119	-0.136
-302.807	136.109	0.166	-0.217
-301.793	-180.630	-0.371	0.008
-300.778	-200.000	-0.004	-0.026
-299.764	-105.995	0.250	-0.056
-298.749	-162.058	-0.360	0.018
-297.735	-64.506	-0.241	0.098
-296.720	-110.024	0.135	-0.028
-295.705	128.274	-0.168	0.214
-294.691	-132.842	0.346	-0.044
-293.676	213.609	-0.133	-0.210
-292.662	800.000	0.135	0.392
-291.647	-44.861	0.136	-0.068
-290.632	-200.000	-0.023	0.409
-289.618	152.629	0.163	0.223
-288.603	-119.631	0.223	0.039
-287.589	-42.584	-0.130	-0.066
-286.574	-200.000	0.071	0.357
-285.559	305.676	-0.211	0.393
-284.545	-30.559	-0.109	-0.062
-283.530	145.748	0.092	-0.124
-282.516	47.554	0.126	0.118
-281.501	-200.000	-0.010	-0.087
-280.486	-32.919	0.083	-0.046
-279.472	-64.825	0.168	-0.068
-278.457	-200.000	0.004	-0.325
-277.443	-150.227	0.393	0.030
-276.428	40.113	0.177	-0.159
-275.413	28.600	0.176	0.149
-274.399	555.985	-0.034	0.082
-273.384	800.000	-0.012	0.046
-272.370	188.865	-0.072	0.108
-271.355	323.167	-0.079	0.150
-270.340	503.624	-0.141	-0.326
-269.326	-36.844	-0.155	-0.083
-268.311	751.287	0.023	-0.062
-267.297	-200.000	0.002	-0.025
-266.282	-131.813	-0.254	0.033
-265.267	20.430	0.160	-0.129
-264.253	42.408	0.248	0.226
-263.238	-200.000	0.031	-0.289
-262.224	-12.333	-0.226	-0.148
-261.209	-69.253	0.257	0.099
-260.195	186.944	0.086	-0.128
-259.180	305.372	0.154	-0.287
-258.165	800.000	0.074	-0.213
-257.151	302.724	0.092	0.170
-256.136	-139.072	-0.117	-0.013
-255.122	-167.260	0.042	-0.002
-254.107	115.202	0.185	-0.226
-253.092	-200.000	-0.009	-0.136
-252.078	27.528	0.167	0.140
-251.063	-200.000	0.008	-0.168
-250.049	-200.000	-0.002	0.113
-249.034	85.533	0.061	0.067
-248.019	-200.000	-0.018	-0.110
-247.005	-200.000	0.000	-0.174
-245.990	800.000	0.019	0.068
-244.976	361.318	0.038	0.076
-243.961	800.000	-0.079	0.271
-242.946	-142.694	-0.216	0.021
-241.932	433.697	0.034	-0.073
-240.917	598.483	0.069	0.172
-239.903	-2.583	-0.281	-0.197
-238.888	138.622	0.067	0.088
-237.873	22.191	0.049	0.040
-236.859	46.171	-0.162	0.151
-235.844	-104.104	0.186	0.043
-234.830	766.342	-0.057	0.154
-233.815	-200.000	-0.033	0.232
-232.800	-191.566	-0.305	-0.003
-231.786	-98.849	-0.155	0.040
-230.771	-160.781	-0.192	0.010
-229.757	297.113	-0.072	-0.133
-228.742	600.843	-0.144	0.357
-227.727	-120.656	0.155	-0.026
-226.713	-101.944	0.172	-0.041
-225.698	-200.000	-0.035	0.219
-224.684	800.000	0.146	0.438
-223.669	-56.834	0.178	0.079
-222.655	138.392	0.199	-0.261
-221.640	-57.336	-0.222	-0.098
-220.625	-200.000	0.020	-0.243
-219.611	77.520	-0.079	0.084
-218.596	-137.853	0.272	0.030
-217.582	161.971	0.147	-0.205
-216.567	-145.908	0.288	0.026
-215.552	28.613	-0.177	0.150
-214.538	-3.198	-0.316	0.220
-213.523	-85.535	-0.056	0.017
-212.509	154.556	0.138	-0.189
-211.494	-49.650	-0.052	-0.025
-210.479	-79.749	-0.318	-0.107
-209.465	-35.763	0.164	-0.089
-208.450	800.000	-0.040	0.148
-207.436	58.346	-0.184	-0.180
-206.421	-200.000	0.050	-0.337
-205.406	38.451	-0.266	-0.237
-204.392	-14.264	0.282	-0.182
-203.377	121.119	0.142	0.176
-202.363	334.359	-0.121	0.235
-201.348	-76.501	0.364	0.128
-200.333	-51.385	0.292	-0.137
-199.319	79.565	-0.157	-0.168
-198.304	800.000	0.054	-0.200
-197.290	800.000	0.029	0.089
-196.275	123.154	-0.247	-0.309
-195.260	326.415	-0.080	-0.153
-194.246	-1.927	0.188	-0.132
-193.231	-113.984	0.357	-0.069
-192.217	-71.861	0.169	0.063
-191.202	258.524	-0.187	0.322
-190.187	80.281	-0.355	-0.382
-189.173	-200.000	-0.057	-0.328
-188.158	-131.779	-0.168	-0.022
-187.144	228.476	0.208	0.339
-186.129	628.661	-0.117	-0.294
-185.114	53.377	-0.217	-0.208
-184.100	-80.880	0.332	0.110
-183.085	32.777	-0.245	-0.212
-182.071	800.000	0.034	-0.097
-181.056	-164.921	-0.308	-0.014
-180.042	240.362	-0.179	0.298
-179.027	800.000	0.098	0.287
-178.012	-9.905	0.087	0.058
-176.998	676.778	0.121	-0.314
-175.983	199.325	-0.036	-0.054
-174.969	254.997	-0.170	-0.291
-173.954	115.118	0.186	-0.227
-172.939	452.913	0.220	-0.486
-171.925	-145.777	0.523	-0.047
-170.910	32.871	0.111	-0.096
-169.896	-200.000	-0.003	0.105
-168.881	66.616	0.175	0.178
-167.866	-17.375	-0.248	0.156
-166.852	3.225	-0.384	0.279
-165.837	483.976	0.106	-0.240
-164.823	132.867	0.041	-0.053
-163.808	-138.403	0.138	-0.015
-162.793	-116.851	0.260	-0.048
-161.779	177.490	0.070	-0.102
-160.764	800.000	0.064	0.201
-159.750	-181.873	0.378	-0.007
-158.735	-87.645	0.255	-0.077
-157.720	-166.661	-0.102	0.004
-156.706	800.000	0.079	-0.326
-155.691	-154.971	0.352	0.023
-154.677	-28.622	-0.228	0.131
-153.662	-200.000	0.025	-0.290
-152.647	800.000	0.047	-0.138
-151.633	-92.618	-0.176	0.049
-150.618	216.302	0.163	0.259
-149.604	788.490	-0.013	0.036
-148.589	162.100	-0.139	0.195
-147.574	-24.071	0.123	0.073
-146.560	-23.910	0.055	0.033
-145.545	800.000	-0.074	-0.218
-144.531	103.878	-0.092	-0.108
-143.516	-84.502	0.374	-0.118
-142.502	-200.000	-0.008	0.330
-141.487	800.000	-0.060	0.220
-140.472	-173.890	-0.164	-0.005
-139.458	194.070	0.064	0.096
-138.443	-200.000	-0.030	0.214
-137.429	-8.899	0.106	0.071
-136.414	-200.000	0.029	0.232
-135.399	17.990	-0.308	0.245
-134.385	-63.442	0.094	-0.039
-133.370	57.084	-0.157	-0.153
-132.356	72.742	-0.220	-0.229
-131.341	40.023	-0.240	0.214
-130.326	800.000	-0.085	-0.340
-129.312	97.784	-0.212	-0.243
-128.297	139.410	0.129	0.169
-127.283	337.590	-0.098	0.190
-126.268	-151.103	-0.243	-0.018
-125.253	-139.077	-0.167	-0.018
-124.239	-200.000	-0.018	0.161
-123.224	-13.977	0.141	0.091
-122.210	103.154	0.030	-0.035
