DTS Sentinel unit serial number:	SN413079Multiplexer serial number:	ORYXHardware model number:	OX4-SRSoftware version number:	ORYX F/W v4.00 Oryx Data Collector v3.7.2.0data status	okinstallation	princeton_trtdifferential loss correction	single-endedforward channel	channel 2reverse channel	N/Adate	2019/09/16time	15:19:35forward acquisition time	60.00reverse acquisition time	0.00gamma	496.2192k internal	0.2299k external	0.2299temperature offset calibration	0.9937default loss term (dB/km)	0.3790temperature slope calibration	1.0000multiplexer offset coefficient	1.0000multiplexer slope coefficient	1.0000fibre end	0.00T internal ref (°C)	41.06T ext. ref 1 (°C)	14.59T ext. ref 2 (°C)	36.99length (m)	temperature (°C)	Stokes	anti-Stokes-747.200	-200.000	0.013	0.175
-746.185	800.000	-0.104	0.361
-745.171	291.311	0.153	-0.285
-744.156	-63.390	-0.116	-0.049
-743.142	199.685	0.146	-0.229
-742.127	-200.000	-0.041	0.345
-741.112	633.653	-0.116	0.301
-740.098	-189.356	0.068	-0.001
-739.083	129.453	-0.195	0.254
-738.069	248.089	0.044	0.076
-737.054	800.000	0.070	-0.252
-736.039	-77.891	-0.135	-0.047
-735.025	-89.276	0.131	0.039
-734.010	-200.000	-0.003	-0.131
-732.996	800.000	0.057	-0.179
-731.981	42.552	-0.192	0.178
-730.966	-99.562	0.094	0.024
-729.952	-180.044	0.305	0.007
-728.937	102.098	0.049	0.058
-727.923	-24.707	-0.223	-0.135
-726.908	513.042	-0.064	0.152
-725.894	-94.009	-0.130	0.036
-724.879	763.234	-0.115	0.319
-723.864	25.179	-0.161	0.137
-722.850	674.970	-0.090	0.237
-721.835	26.581	-0.355	-0.303
-720.821	17.685	0.096	-0.078
-719.806	-200.000	0.018	-0.184
-718.791	-200.000	-0.081	-0.372
-717.777	-97.591	-0.262	-0.069
-716.762	-67.499	-0.234	-0.093
-715.748	-94.905	-0.213	-0.059
-714.733	471.300	-0.060	0.137
-713.718	-107.990	0.200	0.044
-712.704	-101.980	-0.227	0.056
-711.689	-9.753	0.161	0.109
-710.675	-200.000	-0.015	-0.252
-709.660	-200.000	0.013	-0.221
-708.645	800.000	-0.014	0.041
-707.631	21.984	0.300	-0.249
-706.616	-80.481	-0.155	0.053
-705.602	98.875	0.039	-0.046
-704.587	-163.638	0.420	0.020
-703.572	60.907	-0.016	0.016
-702.558	115.613	-0.179	0.223
-701.543	-145.274	0.091	0.008
-700.529	-59.639	0.234	-0.102
-699.514	-95.628	0.327	0.089
-698.499	-4.552	-0.196	0.138
-697.485	-8.661	-0.130	0.089
-696.470	-40.632	0.217	-0.115
-695.456	-120.494	0.101	0.017
-694.441	-149.115	-0.425	-0.035
-693.426	-200.000	0.038	-0.447
-692.412	-103.800	-0.259	-0.062
-691.397	-200.000	-0.035	-0.361
-690.383	82.419	-0.203	0.225
-689.368	-71.187	0.360	-0.138
-688.354	168.290	-0.046	0.067
-687.339	538.264	0.119	-0.287
-686.324	641.848	0.059	0.154
-685.310	28.605	-0.158	-0.137
-684.295	118.800	-0.161	-0.202
-683.281	-200.000	0.020	0.094
-682.266	258.466	-0.113	-0.198
-681.251	-40.997	0.302	0.159
-680.237	164.294	0.249	0.357
-679.222	-60.992	0.212	-0.091
-678.208	54.905	0.182	-0.179
-677.193	-98.608	0.103	-0.027
-676.178	-3.589	0.252	0.178
-675.164	459.922	0.103	-0.234
-674.149	-86.297	-0.264	-0.083
-673.135	343.299	0.017	0.033
-672.120	-91.805	0.216	-0.062
-671.105	-169.934	0.275	0.010
-670.091	252.047	0.012	-0.022
-669.076	800.000	0.072	-0.252
-668.062	-57.664	0.394	0.175
-667.047	-200.000	0.019	-0.230
-666.032	-122.229	-0.114	-0.019
-665.018	800.000	0.037	-0.113
-664.003	285.440	0.053	-0.097
-662.989	-200.000	0.000	-0.157
-661.974	408.298	0.119	0.256
-660.959	38.079	-0.290	0.262
-659.945	5.143	-0.289	-0.217
-658.930	395.773	0.146	-0.309
-657.916	394.103	0.076	0.161
-656.901	-200.000	-0.052	0.305
-655.886	12.195	-0.151	0.118
-654.872	-200.000	0.004	0.091
-653.857	-16.994	-0.106	0.068
-652.843	256.550	0.090	-0.157
-651.828	-200.000	-0.000	-0.412
-650.814	39.444	-0.183	0.166
-649.799	75.445	0.115	-0.124
-648.784	-93.373	-0.255	0.072
-647.770	-200.000	0.035	-0.276
-646.755	-151.317	0.230	-0.017
-645.741	66.129	0.079	0.081
-644.726	-200.000	0.007	0.197
-643.711	-174.593	0.133	0.004
-642.697	30.786	-0.178	-0.155
-641.682	-148.035	0.253	0.021
-640.668	-80.300	-0.138	-0.047
-639.653	-103.138	-0.265	-0.064
-638.638	-99.655	-0.125	0.032
-637.624	-33.552	0.231	-0.129
-636.609	-200.000	-0.065	-0.308
-635.595	112.402	0.101	-0.124
-634.580	-184.808	-0.298	0.005
-633.565	91.359	-0.099	-0.113
-632.551	-41.530	0.205	0.107
-631.536	-90.197	-0.276	-0.082
-630.522	73.263	-0.126	-0.133
-629.507	21.583	-0.361	0.298
-628.492	37.634	-0.131	0.118
-627.478	355.003	-0.062	0.125
-626.463	7.433	0.172	-0.131
-625.449	-18.688	0.395	-0.250
-624.434	-144.807	-0.295	0.028
-623.419	-86.703	-0.163	-0.051
-622.405	-81.029	0.338	0.114
-621.390	800.000	-0.066	0.253
-620.376	-69.844	-0.058	-0.023
-619.361	-87.098	0.381	-0.118
-618.346	-65.257	-0.253	-0.103
-617.332	-79.735	-0.119	-0.041
-616.317	216.442	0.076	0.122
-615.303	800.000	0.070	0.271
-614.288	168.786	-0.116	-0.168
-613.273	28.266	0.120	0.103
-612.259	-84.613	0.187	-0.060
-611.244	-59.024	0.565	0.248
-610.230	293.762	-0.062	0.115
-609.215	-200.000	0.056	-0.290
-608.201	356.345	-0.039	0.079
-607.186	446.810	0.058	0.131
-606.171	181.918	-0.211	-0.316
-605.157	-200.000	0.007	0.066
-604.142	75.112	-0.168	0.180
-603.128	-70.920	-0.350	-0.134
-602.113	-4.662	-0.224	0.157
-601.098	-190.196	-0.186	0.002
-600.084	-44.318	0.055	-0.028
-599.069	-1.364	0.222	-0.159
-598.055	-44.229	-0.165	0.084
-597.040	626.691	-0.037	-0.096
-596.025	-8.609	-0.020	0.014
-595.011	-112.722	0.135	-0.027
-593.996	-108.362	-0.203	-0.044
-592.982	-68.149	0.262	-0.103
-591.967	-23.240	0.262	0.160
-590.952	-200.000	-0.010	-0.218
-589.938	-63.011	-0.464	-0.195
-588.923	-32.046	-0.340	-0.193
-587.909	16.928	-0.083	0.067
-586.894	68.907	-0.253	0.264
-585.879	-103.959	-0.228	-0.054
-584.865	800.000	-0.022	0.090
-583.850	-114.216	-0.113	-0.022
-582.836	-50.658	0.083	0.040
-581.821	-200.000	0.002	-0.145
-580.806	473.994	-0.048	0.111
-579.792	-48.673	-0.284	0.138
-578.777	598.508	-0.141	0.355
-577.763	454.154	-0.002	0.004
-576.748	-60.353	-0.045	0.019
-575.733	49.866	0.068	-0.065
-574.719	345.167	0.105	-0.209
-573.704	-112.700	-0.093	-0.019
-572.690	85.276	-0.115	-0.128
-571.675	517.298	-0.050	-0.118
-570.661	24.350	0.317	-0.265
-569.646	800.000	-0.038	0.107
-568.631	-49.715	-0.221	-0.106
-567.617	210.383	-0.196	0.313
-566.602	-152.305	-0.182	-0.013
-565.588	-200.000	0.009	-0.153
-564.573	-200.000	0.009	-0.071
-563.558	142.789	0.107	-0.144
-562.544	-91.884	0.291	0.084
-561.529	716.561	0.109	0.294
-560.515	-120.604	0.304	0.052
-559.500	316.074	0.106	0.203
-558.485	-4.760	0.085	-0.060
-557.471	482.777	0.030	0.069
-556.456	-31.681	-0.183	-0.104
-555.442	-97.774	-0.398	-0.104
-554.427	181.208	-0.240	0.357
-553.412	-14.682	0.092	0.060
-552.398	-103.371	-0.158	-0.038
-551.383	-118.533	-0.123	-0.022
-550.369	-25.368	-0.032	0.019
-549.354	683.474	-0.062	-0.165
-548.339	-139.911	0.342	-0.037
-547.325	19.984	0.224	0.183
-546.310	-6.704	-0.112	0.077
-545.296	-200.000	0.011	-0.167
-544.281	14.177	0.206	-0.163
-543.266	-28.408	-0.061	-0.036
-542.252	503.994	-0.138	-0.324
-541.237	114.121	-0.136	0.167
-540.223	-154.098	0.127	-0.009
-539.208	800.000	0.025	-0.079
-538.193	-0.804	-0.118	0.085
-537.179	-96.683	0.277	0.074
-536.164	285.054	-0.062	-0.113
-535.150	103.970	0.221	-0.263
-534.135	-15.644	-0.061	-0.039
-533.121	29.549	-0.261	0.225
-532.106	-200.000	-0.006	0.036
-531.091	-115.294	-0.442	-0.084
-530.077	135.253	0.168	-0.221
-529.062	188.066	-0.049	0.075
-528.048	403.077	0.166	-0.352
-527.033	-51.731	0.017	-0.008
-526.018	-8.265	0.208	-0.142
-525.004	-21.508	-0.170	0.105
-523.989	140.848	0.162	0.217
-522.975	72.843	0.257	0.272
-521.960	-54.104	-0.052	-0.024
-520.945	315.517	-0.190	0.363
-519.931	178.021	-0.081	-0.119
-518.916	-55.596	0.237	0.107
-517.902	146.197	0.091	0.124
-516.887	-200.000	0.037	0.190
-515.872	-114.251	-0.027	0.005
-514.858	145.148	-0.074	-0.101
-513.843	800.000	0.077	-0.266
-512.829	284.577	0.149	-0.271
-511.814	-25.470	0.147	-0.088
-510.799	182.271	0.092	-0.137
-509.785	800.000	0.088	-0.252
-508.770	48.420	0.101	-0.096
-507.756	-55.900	0.165	-0.074
-506.741	384.070	0.044	-0.091
-505.726	639.909	-0.142	0.365
-504.712	461.915	-0.017	-0.039
-503.697	19.097	-0.226	0.184
-502.683	800.000	-0.081	-0.238
-501.668	78.156	-0.140	0.151
-500.653	-10.988	0.353	-0.236
-499.639	-200.000	0.002	-0.248
-498.624	124.438	0.150	0.190
-497.610	-105.307	0.278	-0.064
-496.595	-177.109	0.243	-0.006
-495.581	138.006	-0.130	0.173
-494.566	800.000	-0.146	-0.532
-493.551	-94.026	-0.125	0.035
-492.537	-79.227	0.152	-0.052
-491.522	-72.244	0.283	-0.106
-490.508	-190.731	0.159	0.002
-489.493	165.220	-0.128	0.182
-488.478	312.687	0.069	-0.132
-487.464	56.580	-0.086	-0.084
-486.449	800.000	-0.037	0.132
-485.435	-104.815	0.275	0.064
-484.420	-200.000	0.032	0.219
-483.405	79.172	-0.056	0.061
-482.391	0.038	0.235	-0.169
-481.376	-63.725	-0.288	0.119
-480.362	-200.000	-0.010	0.165
-479.347	496.898	0.055	0.128
-478.332	193.860	-0.103	-0.158
-477.318	-46.087	-0.418	-0.208
-476.303	-200.000	0.023	0.212
-475.289	-44.757	0.114	0.057
-474.274	-11.306	0.147	-0.098
-473.259	35.845	-0.237	0.210
-472.245	169.570	0.262	-0.378
-471.230	800.000	-0.035	-0.123
-470.216	-78.465	-0.249	-0.086
-469.201	-200.000	-0.006	0.064
-468.186	-6.930	0.160	-0.110
-467.172	-200.000	0.002	-0.446
-466.157	-108.822	-0.340	0.073
-465.143	239.983	-0.148	-0.249
-464.128	-65.513	-0.173	0.070
-463.113	-96.383	0.123	-0.033
-462.099	-200.000	-0.021	0.248
-461.084	-47.597	0.112	0.055
-460.070	415.557	0.190	0.410
-459.055	583.142	-0.103	0.255
-458.040	-10.230	0.006	0.004
-457.026	341.209	0.106	0.209
-456.011	800.000	0.037	-0.105
-454.997	205.841	0.145	-0.228
-453.982	312.872	0.138	0.261
-452.968	-137.480	-0.173	0.020
-451.953	-200.000	-0.004	0.084
-450.938	-133.388	-0.277	0.035
-449.924	-150.765	-0.322	-0.025
-448.909	333.199	0.126	-0.245
-447.895	-61.300	-0.080	0.034
-446.880	-108.880	0.320	-0.069
-445.865	-200.000	-0.033	0.188
-444.851	-174.095	0.090	-0.003
-443.836	-40.732	-0.380	-0.199
-442.822	-30.030	0.243	0.140
-441.807	-43.823	0.099	-0.050
-440.792	-68.273	-0.159	0.062
-439.778	-14.810	0.158	-0.102
-438.763	31.941	-0.253	0.220
-437.749	-39.548	-0.070	-0.037
-436.734	50.548	-0.067	-0.064
-435.719	-200.000	-0.011	0.162
-434.705	163.106	0.069	-0.098
-433.690	693.461	-0.087	0.231
-432.676	-200.000	0.002	-0.045
-431.661	-171.351	0.569	-0.019
-430.646	800.000	-0.095	-0.358
-429.632	-200.000	0.020	0.199
-428.617	217.589	-0.050	-0.080
-427.603	356.986	0.050	-0.101
-426.588	-200.000	-0.023	0.196
-425.573	62.217	0.022	-0.022
-424.559	30.014	-0.093	0.080
-423.544	-200.000	-0.064	-0.290
-422.530	38.550	0.060	-0.054
-421.515	-180.038	0.246	-0.005
-420.500	310.463	-0.037	0.070
-419.486	52.818	0.114	0.110
-418.471	-39.961	-0.376	0.198
-417.457	121.618	0.271	0.340
-416.442	-68.267	-0.223	-0.087
-415.428	98.817	0.084	0.097
-414.413	-182.839	-0.336	0.006
-413.398	-200.000	0.017	-0.138
-412.384	130.956	0.068	-0.088
-411.369	-8.975	-0.242	-0.163
-410.355	158.697	-0.095	-0.133
-409.340	-200.000	-0.020	0.139
-408.325	-22.085	-0.274	0.167
-407.311	-112.946	-0.219	-0.044
-406.296	-200.000	-0.009	-0.458
-405.282	11.219	-0.066	0.051
-404.267	-97.878	-0.053	0.014
-403.252	-200.000	0.009	-0.090
-402.238	-98.474	0.221	0.057
-401.223	-53.298	-0.325	-0.150
-400.209	800.000	0.094	-0.292
-399.194	800.000	-0.126	0.455
-398.179	800.000	0.041	-0.168
-397.165	-60.630	0.208	-0.089
-396.150	13.756	0.076	-0.059
-395.136	126.450	-0.102	0.130
-394.121	-62.237	-0.320	-0.134
-393.106	-200.000	-0.001	0.148
-392.092	-86.922	-0.176	0.054
-391.077	233.949	-0.127	0.210
-390.063	-49.185	-0.094	-0.045
-389.048	571.572	-0.167	-0.409
-388.033	-85.935	0.298	-0.093
-387.019	-29.439	0.057	0.033
-386.004	-200.000	0.193	0.000
-384.990	702.911	-0.079	-0.210
-383.975	205.935	0.071	0.112
-382.960	736.408	0.015	-0.041
-381.946	800.000	-0.044	-0.178
-380.931	-200.000	-0.064	-0.343
-379.917	43.182	-0.089	0.081
-378.902	-200.000	0.018	0.124
-377.888	242.119	-0.097	0.162
-376.873	406.126	0.050	0.106
-375.858	-123.155	0.380	-0.061
-374.844	8.389	0.064	-0.048
-373.829	-200.000	-0.044	-0.509
-372.815	-200.000	0.042	0.233
-371.800	57.395	0.092	0.091
-370.785	-93.479	0.321	-0.090
-369.771	-40.441	-0.216	0.113
-368.756	52.515	0.146	-0.140
-367.742	-122.039	-0.221	0.036
-366.727	62.003	0.052	-0.052
-365.712	-129.175	0.066	0.009
-364.698	800.000	0.079	-0.279
-363.683	119.492	0.023	-0.029
-362.669	-76.008	0.080	0.029
-361.654	84.891	-0.149	0.164
-360.639	800.000	0.044	0.180
-359.625	-55.731	0.329	0.148
-358.610	77.602	-0.275	-0.294
-357.596	145.118	0.056	-0.076
-356.581	-200.000	0.012	0.373
-355.566	15.587	-0.127	0.100
-354.552	-54.672	-0.170	-0.077
-353.537	-200.000	0.011	-0.232
-352.523	273.503	0.182	-0.324
-351.508	-77.354	-0.124	-0.043
-350.493	800.000	0.055	-0.213
-349.479	-79.361	-0.249	0.085
-348.464	385.489	0.053	-0.111
-347.450	440.947	-0.088	0.194
-346.435	50.507	-0.244	-0.232
-345.420	676.602	0.061	-0.159
-344.406	-173.622	0.052	-0.002
-343.391	-81.565	-0.231	0.076
-342.377	-200.000	0.068	-0.430
-341.362	-200.000	-0.077	0.465
-340.348	78.684	0.086	0.092
-339.333	-73.506	0.176	0.064
-338.318	393.517	0.110	0.230
-337.304	-200.000	0.001	0.296
-336.289	399.490	0.162	-0.341
-335.275	-134.783	-0.110	0.013
-334.260	-200.000	0.019	-0.134
-333.245	-200.000	-0.018	0.359
-332.231	262.786	-0.106	0.184
-331.216	800.000	-0.036	-0.112
-330.202	0.153	-0.288	0.206
-329.187	-69.789	0.046	-0.018
-328.172	800.000	-0.071	-0.266
-327.158	414.587	-0.064	0.137
-326.143	7.747	0.124	0.094
-325.129	-200.000	0.009	-0.411
-324.114	47.526	-0.095	-0.089
-323.099	-136.421	0.239	0.028
-322.085	-160.672	0.260	0.014
-321.070	106.065	-0.099	0.117
-320.056	373.983	0.077	-0.157
-319.041	494.224	0.017	0.039
-318.026	36.110	0.091	-0.080
-317.012	437.154	0.060	0.131
-315.997	-4.095	0.121	0.084
-314.983	-29.647	-0.196	-0.112
-313.968	113.262	-0.055	-0.067
-312.953	-87.106	0.184	0.056
-311.939	-200.000	0.014	0.119
-310.924	800.000	-0.097	-0.415
-309.910	-188.121	-0.076	0.001
-308.895	800.000	0.078	-0.323
-307.880	7.709	-0.087	-0.065
-306.866	-52.730	-0.087	0.040
-305.851	55.511	-0.112	0.109
-304.837	190.327	0.226	-0.341
-303.822	35.619	-0.268	-0.236
-302.807	260.576	0.065	0.113
-301.793	-103.361	0.231	0.055
-300.778	695.342	0.020	-0.053
-299.764	363.924	-0.051	-0.103
-298.749	265.536	-0.080	-0.140
-297.735	63.366	-0.132	-0.133
-296.720	-2.555	-0.163	-0.115
-295.705	22.689	0.138	-0.113
-294.691	-150.060	-0.133	-0.010
-293.676	-109.013	0.324	-0.069
-292.662	47.223	-0.180	-0.168
-291.647	546.940	-0.097	-0.234
-290.632	-200.000	-0.020	0.175
-289.618	-56.750	0.276	-0.123
-288.603	-31.993	-0.125	-0.070
-287.589	193.819	0.126	0.192
-286.574	341.445	0.077	0.151
-285.559	-6.326	-0.140	0.096
-284.545	531.034	-0.128	0.303
-283.530	-74.234	-0.195	-0.071
-282.516	-68.657	0.054	0.021
-281.501	-27.138	-0.229	-0.134
-280.486	144.145	0.094	-0.126
-279.472	507.179	-0.025	-0.057
-278.457	547.107	0.116	-0.279
-277.443	360.178	-0.098	-0.197
-276.428	128.479	-0.102	0.130
-275.413	222.616	-0.114	-0.184
-274.399	-200.000	-0.017	-0.232
-273.384	-200.000	0.012	-0.059
-272.370	17.192	-0.214	-0.170
-271.355	432.061	0.096	0.209
-270.340	89.159	-0.072	0.080
-269.326	37.993	0.069	0.062
-268.311	-177.349	0.354	0.009
-267.297	230.400	-0.218	-0.358
-266.282	226.435	0.176	0.286
-265.267	53.295	-0.173	0.166
-264.253	81.521	-0.097	0.105
-263.238	-200.000	-0.032	0.382
-262.224	501.511	0.055	0.127
-261.209	-145.307	-0.294	0.027
-260.195	-200.000	-0.049	-0.374
-259.180	57.663	-0.056	-0.055
-258.165	254.221	0.141	0.242
-257.151	200.803	-0.251	0.387
-256.136	25.996	0.348	0.291
-255.122	-69.615	0.077	-0.030
-254.107	-53.871	-0.207	-0.095
-253.092	-91.432	0.333	0.095
-252.078	-200.000	0.002	-0.074
-251.063	800.000	0.036	0.116
-250.049	-14.786	0.190	-0.122
-249.034	-7.462	0.134	0.091
-248.019	-184.122	0.339	0.006
-247.005	-183.604	0.263	-0.005
-245.990	-200.000	0.023	-0.260
-244.976	-148.272	-0.281	-0.023
-243.961	-75.145	0.127	-0.045
-242.946	-150.699	-0.182	-0.014
-241.932	-146.818	-0.191	0.016
-240.917	45.842	-0.107	0.099
-239.903	83.224	0.187	0.204
-238.888	-107.617	0.096	-0.021
-237.873	800.000	0.054	0.158
-236.859	-118.333	0.117	0.021
-235.844	-200.000	0.023	0.200
-234.830	329.969	-0.137	0.264
-233.815	-147.796	0.378	0.032
-232.800	-200.000	-0.010	-0.476
-231.786	-47.655	0.153	-0.074
-230.771	20.539	-0.022	-0.018
-229.757	282.375	-0.100	0.180
-228.742	800.000	-0.044	-0.128
-227.727	13.410	0.233	0.181
-226.713	-38.464	-0.179	0.095
-225.698	120.757	-0.190	0.236
-224.684	57.852	0.056	-0.055
-223.669	-73.918	-0.229	0.083
-222.655	-8.078	-0.184	0.124
-221.640	-83.541	0.107	0.034
-220.625	547.335	0.044	0.106
-219.611	26.658	0.144	0.120
-218.596	38.811	-0.120	0.107
-217.582	-200.000	0.005	0.142
-216.567	121.391	0.314	0.391
-215.552	-200.000	-0.039	0.176
-214.538	356.572	-0.149	-0.296
-213.523	-200.000	0.016	0.156
-212.509	-156.520	-0.204	-0.013
-211.494	-200.000	0.014	0.220
-210.479	34.259	0.120	-0.105
-209.465	-200.000	0.036	0.168
-208.450	58.149	0.386	-0.378
-207.436	-51.129	-0.376	-0.176
-206.421	117.560	-0.092	0.113
-205.406	10.251	-0.255	-0.194
-204.392	-123.421	0.408	-0.065
-203.377	-4.469	-0.096	-0.066
-202.363	7.508	0.309	-0.231
-201.348	800.000	-0.078	-0.294
-200.333	-106.646	-0.094	-0.021
-199.319	49.664	0.275	0.258
-198.304	-200.000	-0.009	0.186
-197.290	-136.789	-0.290	0.033
-196.275	-103.926	0.101	-0.024
-195.260	-200.000	0.036	0.408
-194.246	-95.131	0.170	-0.046
-193.231	453.031	-0.150	-0.332
-192.217	-200.000	-0.056	0.739
-191.202	-49.369	0.319	-0.152
-190.187	-200.000	0.002	-0.059
-189.173	483.724	0.103	0.234
-188.158	800.000	-0.044	-0.134
-187.144	104.798	0.187	-0.220
-186.129	95.258	-0.194	-0.221
-185.114	172.968	0.126	-0.181
-184.100	86.377	0.124	-0.136
-183.085	60.374	0.239	-0.236
-182.071	170.696	-0.049	-0.070
-181.056	-97.246	0.379	0.099
-180.042	800.000	-0.057	0.186
-179.027	800.000	-0.076	0.277
-178.012	606.671	0.151	0.377
-176.998	329.735	-0.146	0.280
-175.983	612.547	0.169	0.422
-174.969	-200.000	0.039	0.324
-173.954	-137.901	0.060	-0.007
-172.939	-128.266	-0.050	-0.007
-171.925	-59.651	0.374	0.160
-170.910	-49.854	-0.322	0.152
-169.896	800.000	0.070	0.197
-168.881	-60.185	0.106	0.045
-167.866	800.000	-0.086	0.290
-166.852	-175.211	-0.280	-0.008
-165.837	-13.959	0.404	-0.261
-164.823	-57.550	0.085	-0.037
-163.808	-200.000	-0.037	-0.165
-162.793	-200.000	-0.083	0.428
-161.779	800.000	-0.058	0.252
-160.764	-64.289	-0.379	-0.154
-159.750	-116.605	-0.084	0.016
-158.735	220.751	0.114	0.182
-157.720	90.365	0.138	0.154
-156.706	-200.000	-0.008	0.186
-155.691	-64.665	0.184	-0.074
-154.677	44.358	-0.058	0.053
-153.662	-159.672	0.367	-0.020
-152.647	-34.044	0.112	0.061
-151.633	-1.946	0.140	0.098
-150.618	-159.087	0.139	-0.008
-149.604	-200.000	0.036	-0.276
-148.589	-88.330	-0.381	0.113
-147.574	20.727	-0.157	0.127
-146.560	-45.386	-0.356	0.176
-145.545	-200.000	-0.034	0.365
-144.531	800.000	-0.124	0.434
-143.516	230.258	0.067	-0.109
-142.502	-7.585	-0.407	-0.274
-141.487	-200.000	0.034	-0.199
-140.472	-93.072	0.440	-0.122
-139.458	-200.000	-0.014	-0.216
-138.443	-139.306	0.203	-0.022
-137.429	800.000	0.033	-0.122
-136.414	-117.545	-0.394	-0.071
-135.399	-45.931	-0.607	0.298
-134.385	-140.719	0.265	0.027
-133.370	261.553	-0.177	-0.306
-132.356	326.091	0.090	-0.172
-131.341	-200.000	-0.001	-0.036
-130.326	-125.740	0.158	0.024
-129.312	-97.438	-0.324	0.084
-128.297	-129.616	-0.073	-0.010
-127.283	-43.908	-0.038	-0.019
-126.268	-140.147	0.215	-0.023
-125.253	800.000	0.081	-0.254
-124.239	-200.000	-0.019	-0.276
-123.224	172.452	-0.136	0.195
-122.210	-14.873	0.300	0.192
-121.195	800.000	0.059	-0.189
