DTS Sentinel unit serial number:	SN413079Multiplexer serial number:	ORYXHardware model number:	OX4-SRSoftware version number:	ORYX F/W v4.00 Oryx Data Collector v3.7.2.0data status	okinstallation	princeton_trtdifferential loss correction	single-endedforward channel	channel 2reverse channel	N/Adate	2019/09/17time	10:39:35forward acquisition time	60.00reverse acquisition time	0.00gamma	496.2192k internal	0.2324k external	0.2324temperature offset calibration	0.9975default loss term (dB/km)	0.3790temperature slope calibration	1.0000multiplexer offset coefficient	1.0000multiplexer slope coefficient	1.0000fibre end	0.00T internal ref (°C)	30.06T ext. ref 1 (°C)	0.17T ext. ref 2 (°C)	25.70length (m)	temperature (°C)	Stokes	anti-Stokes-747.200	-137.491	-0.379	0.043
-746.185	266.329	0.151	0.265
-745.171	560.275	-0.102	0.249
-744.156	319.828	0.036	0.068
-743.142	-89.375	0.079	0.024
-742.127	-200.000	0.017	0.217
-741.112	-200.000	-0.001	-0.180
-740.098	800.000	0.035	0.097
-739.083	-112.332	0.175	0.035
-738.069	-70.056	0.301	0.116
-737.054	67.172	-0.098	0.101
-736.039	-69.876	-0.084	-0.032
-735.025	800.000	-0.037	-0.108
-734.010	800.000	-0.145	0.421
-732.996	800.000	0.066	0.263
-731.981	184.225	-0.105	0.156
-730.966	262.804	0.094	-0.165
-729.952	-82.266	-0.185	-0.061
-728.937	800.000	-0.107	0.357
-727.923	737.867	-0.092	-0.249
-726.908	256.708	-0.122	-0.212
-725.894	2.071	-0.411	-0.300
-724.879	-131.776	-0.160	-0.021
-723.864	-94.416	0.087	0.024
-722.850	107.404	0.208	0.249
-721.835	-137.983	-0.152	-0.017
-720.821	-89.858	0.409	0.120
-719.806	-69.135	-0.266	0.103
-718.791	193.604	0.096	-0.147
-717.777	-3.575	0.228	0.160
-716.762	-130.856	0.243	-0.033
-715.748	-52.544	-0.114	-0.053
-714.733	-70.131	-0.233	0.089
-713.718	-200.000	0.013	0.218
-712.704	-24.252	-0.057	-0.034
-711.689	-0.095	-0.175	0.125
-710.675	-23.700	0.157	0.095
-709.660	26.329	-0.115	0.097
-708.645	-200.000	-0.002	0.013
-707.631	-82.195	0.187	-0.061
-706.616	54.783	-0.276	0.268
-705.602	-98.744	0.259	0.067
-704.587	242.661	0.178	0.301
-703.572	800.000	-0.070	-0.199
-702.558	541.318	0.056	-0.135
-701.543	-114.499	-0.247	0.048
-700.529	800.000	0.087	-0.369
-699.514	-200.000	-0.021	0.157
-698.499	-200.000	0.015	-0.200
-697.485	-62.207	-0.142	0.059
-696.470	234.826	0.268	-0.445
-695.456	-19.058	-0.091	-0.057
-694.441	71.790	-0.285	0.298
-693.426	-200.000	0.002	0.342
-692.412	360.857	0.139	-0.281
-691.397	-139.217	-0.167	-0.018
-690.383	-44.532	0.213	0.107
-689.368	-77.457	0.127	-0.044
-688.354	-200.000	-0.027	-0.204
-687.339	-200.000	0.006	0.128
-686.324	-92.021	0.120	-0.034
-685.310	509.473	0.144	0.337
-684.295	-178.835	0.313	0.007
-683.281	417.741	0.195	-0.419
-682.266	791.197	0.090	-0.250
-681.251	-137.603	-0.194	-0.022
-680.237	-135.139	0.128	-0.016
-679.222	388.814	0.103	0.214
-678.208	14.245	0.060	-0.047
-677.193	-200.000	-0.007	0.125
-676.178	-37.185	0.163	0.088
-675.164	177.559	0.107	-0.157
-674.149	-18.008	-0.090	-0.057
-673.135	-200.000	0.027	-0.399
-672.120	-63.371	0.234	-0.097
-671.105	-200.000	0.035	-0.227
-670.091	9.676	0.216	0.165
-669.076	176.562	0.158	-0.231
-668.062	166.378	-0.036	-0.051
-667.047	-65.923	-0.350	-0.141
-666.032	-200.000	-0.040	0.257
-665.018	96.563	-0.179	-0.206
-664.003	-200.000	0.005	0.230
-662.989	-97.238	0.073	0.019
-661.974	-2.772	0.149	0.105
-660.959	-193.412	-0.106	-0.001
-659.945	800.000	-0.059	0.241
-658.930	-115.181	0.245	-0.047
-657.916	-16.038	-0.187	0.120
-656.901	-200.000	0.012	0.358
-655.886	18.166	0.200	-0.160
-654.872	800.000	0.031	0.122
-653.857	31.191	-0.161	0.139
-652.843	219.548	0.181	-0.291
-651.828	-200.000	0.011	-0.067
-650.814	24.127	0.193	0.160
-649.799	-19.895	-0.264	-0.164
-648.784	799.442	-0.133	0.369
-647.770	-140.664	-0.103	0.011
-646.755	800.000	-0.072	-0.232
-645.741	-46.336	-0.252	0.125
-644.726	-133.862	0.212	0.027
-643.711	42.351	0.101	0.092
-642.697	-16.581	-0.337	0.214
-641.682	-89.471	-0.115	-0.034
-640.668	-200.000	0.011	0.203
-639.653	-200.000	0.405	0.000
-638.638	41.321	-0.178	-0.161
-637.624	507.484	0.067	-0.156
-636.609	-109.311	0.486	0.104
-635.595	-153.558	-0.315	-0.022
-634.580	-200.000	-0.029	-0.209
-633.565	-152.311	0.452	-0.033
-632.551	800.000	-0.112	0.455
-631.536	403.956	0.176	0.372
-630.522	170.859	-0.051	0.074
-629.507	-72.506	-0.352	0.131
-628.492	-144.682	-0.233	-0.022
-627.478	-39.372	-0.263	-0.139
-626.463	-200.000	-0.012	-0.145
-625.449	253.711	-0.137	-0.235
-624.434	187.448	-0.191	-0.287
-623.419	800.000	0.051	-0.175
-622.405	745.666	0.060	-0.163
-621.390	-200.000	-0.039	-0.268
-620.376	-107.594	-0.110	-0.024
-619.361	-200.000	0.087	0.474
-618.346	-50.740	0.277	0.131
-617.332	287.126	-0.130	0.236
-616.317	-169.561	-0.151	-0.006
-615.303	26.042	0.107	0.089
-614.288	32.438	-0.163	0.141
-613.273	-164.654	-0.060	0.003
-612.259	-33.930	0.219	0.121
-611.244	-95.870	0.208	0.056
-610.230	-107.821	-0.283	0.062
-609.215	-200.000	-0.032	0.189
-608.201	800.000	-0.098	-0.295
-607.186	-56.856	-0.297	-0.132
-606.171	-38.492	0.363	0.193
-605.157	-200.000	-0.012	0.225
-604.142	-119.075	0.241	-0.042
-603.128	800.000	-0.079	-0.252
-602.113	-76.304	0.236	-0.083
-601.098	-65.466	-0.298	-0.120
-600.084	-152.844	-0.280	-0.020
-599.069	-133.429	-0.287	-0.036
-598.055	-35.355	0.310	-0.169
-597.040	-6.070	0.141	0.096
-596.025	7.887	0.144	-0.108
-595.011	590.585	0.064	-0.158
-593.996	-200.000	-0.028	0.230
-592.982	-85.698	-0.160	0.050
-591.967	-128.616	-0.396	-0.056
-590.952	522.698	-0.056	0.132
-589.938	-146.550	-0.437	-0.038
-588.923	-84.697	0.468	0.148
-587.909	324.611	0.069	-0.133
-586.894	-200.000	0.070	-0.347
-585.879	1.702	-0.151	-0.109
-584.865	-200.000	0.009	-0.060
-583.850	310.931	-0.120	0.225
-582.836	800.000	0.143	0.470
-581.821	-8.043	-0.222	-0.150
-580.806	-17.551	0.083	-0.052
-579.792	117.817	0.023	0.029
-578.777	-85.663	0.128	-0.040
-577.763	497.321	-0.033	-0.076
-576.748	-36.606	-0.155	-0.084
-575.733	69.403	-0.140	-0.144
-574.719	-64.436	-0.409	0.167
-573.704	116.758	0.104	0.128
-572.690	102.127	-0.110	-0.129
-571.675	-31.233	0.268	-0.151
-570.661	116.431	-0.208	-0.256
-569.646	-200.000	0.048	-0.297
-568.631	-89.247	-0.181	-0.054
-567.617	-6.605	-0.303	0.207
-566.602	7.075	0.088	-0.066
-565.588	-21.222	-0.053	0.032
-564.573	-129.414	0.204	0.028
-563.558	651.962	-0.139	-0.357
-562.544	-200.000	-0.034	0.339
-561.529	42.967	-0.230	0.210
-560.515	8.980	-0.113	0.086
-559.500	563.016	-0.026	0.064
-558.485	350.191	0.081	0.161
-557.471	-68.065	-0.090	-0.035
-556.456	-200.000	-0.016	0.235
-555.442	-132.093	0.141	0.018
-554.427	-200.000	0.047	-0.235
-553.412	67.746	-0.162	-0.166
-552.398	91.709	-0.049	-0.055
-551.383	-84.213	-0.097	0.031
-550.369	339.573	-0.138	-0.269
-549.354	-92.392	0.086	-0.024
-548.339	752.044	0.067	0.180
-547.325	-23.813	-0.181	-0.108
-546.310	410.871	-0.032	0.068
-545.296	124.541	-0.066	-0.083
-544.281	158.281	-0.245	-0.340
-543.266	-137.588	-0.136	0.015
-542.252	800.000	-0.109	0.334
-541.237	26.661	-0.171	0.143
-540.223	-107.476	0.204	0.045
-539.208	257.438	-0.060	0.103
-538.193	-142.814	-0.307	-0.030
-537.179	83.324	-0.176	-0.192
-536.164	-9.675	0.096	0.064
-535.150	-200.000	0.111	-0.576
-534.135	-42.132	-0.218	0.111
-533.121	187.800	0.170	-0.255
-532.106	117.962	0.041	0.050
-531.091	225.084	-0.061	0.099
-530.077	239.763	0.124	-0.207
-529.062	15.805	-0.058	-0.046
-528.048	361.955	-0.056	0.112
-527.033	300.339	-0.188	0.348
-526.018	276.530	-0.093	-0.166
-525.004	-98.586	-0.121	-0.031
-523.989	-200.000	0.039	0.299
-522.975	39.556	0.136	0.122
-521.960	-99.987	0.119	-0.030
-520.945	-110.533	0.219	-0.045
-519.931	-94.525	-0.288	0.078
-518.916	178.710	0.056	-0.082
-517.902	-126.378	-0.269	0.040
-516.887	362.443	-0.122	0.245
-515.872	205.437	0.121	-0.188
-514.858	91.330	-0.322	0.361
-513.843	800.000	0.068	-0.244
-512.829	112.949	-0.069	0.084
-511.814	800.000	0.116	-0.372
-510.799	-200.000	-0.035	-0.219
-509.785	-200.000	0.012	-0.077
-508.770	70.158	-0.261	0.270
-507.756	-200.000	0.064	0.331
-506.741	-200.000	-0.033	-0.184
-505.726	-200.000	0.012	-0.055
-504.712	-97.449	-0.412	-0.107
-503.697	-200.000	-0.005	-0.191
-502.683	-17.546	0.175	-0.110
-501.668	-200.000	0.006	-0.075
-500.653	182.989	0.245	-0.362
-499.639	679.657	-0.108	0.282
-498.624	-169.177	0.211	0.008
-497.610	191.644	-0.084	0.127
-496.595	41.065	-0.227	0.205
-495.581	472.885	-0.041	-0.092
-494.566	-200.000	0.068	-0.412
-493.551	469.699	0.077	0.173
-492.537	-5.587	-0.339	0.232
-491.522	-35.272	-0.247	0.135
-490.508	-83.212	0.187	0.060
-489.493	597.665	-0.114	0.282
-488.478	-13.104	0.247	0.160
-487.464	546.779	-0.168	-0.402
-486.449	-20.459	0.177	0.109
-485.435	409.049	-0.108	-0.229
-484.420	-115.869	-0.042	-0.008
-483.405	800.000	0.070	0.281
-482.391	-149.027	-0.217	0.017
-481.376	417.616	0.106	0.227
-480.362	-144.798	0.316	-0.029
-479.347	-117.814	-0.239	0.043
-478.332	-54.025	-0.171	0.078
-477.318	-82.062	-0.230	0.075
-476.303	800.000	-0.044	0.133
-475.289	176.661	0.139	-0.201
-474.274	289.269	0.135	0.245
-473.259	-91.551	-0.024	-0.007
-472.245	798.037	0.046	-0.126
-471.230	-200.000	-0.007	-0.337
-470.216	-10.995	0.248	-0.163
-469.201	-102.240	-0.536	-0.129
-468.186	-10.387	-0.216	-0.143
-467.172	800.000	-0.007	0.021
-466.157	-114.490	-0.315	-0.060
-465.143	23.694	0.176	0.145
-464.128	519.694	0.159	-0.371
-463.113	800.000	0.053	0.224
-462.099	-106.055	0.125	-0.028
-461.084	135.595	-0.228	-0.297
-460.070	-10.535	0.298	-0.197
-459.055	80.430	-0.138	-0.148
-458.040	-200.000	-0.030	-0.181
-457.026	800.000	-0.076	0.297
-456.011	255.542	-0.166	0.284
-454.997	797.238	-0.087	-0.239
-453.982	-200.000	0.000	0.136
-452.968	796.761	0.101	0.277
-451.953	303.939	-0.153	0.284
-450.938	-33.877	0.167	-0.092
-449.924	94.876	-0.054	-0.061
-448.909	-87.900	-0.149	-0.045
-447.895	-200.000	0.001	0.183
-446.880	256.725	0.075	0.128
-445.865	-145.410	-0.246	0.022
-444.851	-200.000	-0.074	0.405
-443.836	47.760	0.271	0.252
-442.822	469.943	-0.110	0.247
-441.807	-144.726	0.312	0.029
-440.792	-74.989	-0.153	-0.055
-439.778	346.393	0.064	0.125
-438.763	-46.317	0.432	0.212
-437.749	-200.000	0.018	-0.112
-436.734	99.328	0.155	-0.178
-435.719	129.883	-0.132	-0.169
-434.705	64.504	0.025	-0.025
-433.690	-33.322	-0.196	0.108
-432.676	-158.673	-0.335	0.019
-431.661	-77.980	-0.253	0.087
-430.646	-154.294	0.368	-0.025
-429.632	-98.886	-0.222	-0.056
-428.617	72.524	-0.118	-0.122
-427.603	60.073	0.415	-0.409
-426.588	-73.828	0.485	0.176
-425.573	-200.000	0.031	-0.336
-424.559	-14.525	-0.236	0.152
-423.544	800.000	0.030	-0.086
-422.530	-109.182	-0.129	-0.027
-421.515	204.679	-0.110	0.170
-420.500	-200.000	-0.003	0.359
-419.486	-181.277	-0.164	0.003
-418.471	-200.000	0.057	0.278
-417.457	-46.600	-0.328	0.160
-416.442	3.033	0.159	0.115
-415.428	-168.422	-0.294	0.011
-414.413	-143.607	0.535	-0.051
-413.398	-200.000	0.013	-0.198
-412.384	-200.000	-0.015	-0.099
-411.369	-200.000	-0.073	-0.453
-410.355	800.000	0.035	-0.118
-409.340	-30.941	-0.119	0.067
-408.325	-125.018	-0.377	0.058
-407.311	-153.760	0.333	0.023
-406.296	-200.000	0.018	0.213
-405.282	391.290	0.202	-0.418
-404.267	-46.117	0.271	0.133
-403.252	-67.138	0.093	0.036
-402.238	100.238	-0.072	-0.083
-401.223	764.954	-0.009	-0.024
-400.209	199.960	0.069	-0.105
-399.194	633.255	0.075	-0.189
-398.179	-200.000	0.027	-0.172
-397.165	-200.000	0.002	0.017
-396.150	-200.000	0.017	-0.173
-395.136	-135.605	-0.192	0.023
-394.121	93.619	-0.160	0.181
-393.106	629.344	0.027	0.067
-392.092	-32.456	-0.295	0.164
-391.077	-110.372	0.404	-0.084
-390.063	-200.000	-0.017	0.123
-389.048	-137.495	-0.200	0.023
-388.033	-88.699	0.115	0.034
-387.019	289.219	-0.088	-0.159
-386.004	108.628	0.128	-0.152
-384.990	111.202	-0.273	0.327
-383.975	56.982	0.100	-0.097
-382.960	800.000	-0.078	0.215
-381.946	-18.906	-0.015	0.009
-380.931	-200.000	-0.006	-0.134
-379.917	281.536	0.153	-0.272
-378.902	-200.000	-0.008	0.070
-377.888	800.000	-0.018	0.075
-376.873	-164.803	0.376	-0.017
-375.858	-89.590	-0.388	-0.113
-374.844	800.000	-0.052	0.174
-373.829	-56.023	-0.070	-0.031
-372.815	-181.108	0.379	0.008
-371.800	228.616	0.044	-0.071
-370.785	800.000	-0.130	0.407
-369.771	-2.970	-0.120	-0.083
-368.756	-200.000	-0.040	-0.174
-367.742	-200.000	0.039	-0.364
-366.727	9.063	-0.303	0.228
-365.712	615.643	0.103	-0.258
-364.698	134.097	0.188	-0.243
-363.683	248.139	-0.337	-0.566
-362.669	-200.000	-0.010	0.100
-361.654	-1.907	0.141	-0.099
-360.639	520.134	-0.110	-0.256
-359.625	-44.203	0.327	0.163
-358.610	800.000	0.135	0.376
-357.596	231.013	-0.076	0.123
-356.581	547.753	-0.062	-0.148
-355.566	68.373	-0.060	-0.061
-354.552	124.586	0.167	-0.209
-353.537	-162.103	0.426	0.021
-352.523	-93.597	0.185	0.051
-351.508	315.552	-0.039	0.073
-350.493	-169.439	0.235	0.009
-349.479	800.000	0.124	-0.504
-348.464	-66.685	0.289	-0.114
-347.450	-200.000	0.006	-0.071
-346.435	-200.000	-0.046	-0.243
-345.420	-200.000	0.053	0.268
-344.406	77.660	-0.058	0.061
-343.391	435.618	0.046	0.100
-342.377	-99.618	-0.206	-0.052
-341.362	-4.079	0.359	0.247
-340.348	-200.000	0.006	-0.197
-339.333	248.811	-0.081	0.136
-338.318	35.251	0.308	-0.268
-337.304	-12.997	-0.095	-0.061
-336.289	-160.900	0.307	-0.016
-335.275	142.750	0.080	-0.105
-334.260	-60.939	-0.094	-0.039
-333.245	-45.086	0.105	0.052
-332.231	-200.000	0.090	0.550
-331.216	237.250	-0.166	-0.273
-330.202	-22.396	0.271	-0.163
-329.187	350.736	0.146	-0.288
-328.172	533.329	0.121	0.285
-327.158	19.582	-0.084	0.067
-326.143	153.361	-0.098	-0.134
-325.129	800.000	-0.047	0.135
-324.114	-200.000	0.032	-0.143
-323.099	800.000	0.024	-0.090
-322.085	74.652	0.076	0.079
-321.070	-30.225	0.258	-0.146
-320.056	-200.000	-0.019	0.202
-319.041	-200.000	0.010	-0.414
-318.026	231.006	-0.094	-0.153
-317.012	77.511	-0.181	0.191
-315.997	-200.000	0.010	-0.222
-314.983	-134.929	0.339	0.041
-313.968	-0.620	-0.107	-0.075
-312.953	81.558	-0.012	0.013
-311.939	800.000	-0.046	0.180
-310.924	-200.000	0.060	0.417
-309.910	-200.000	-0.004	-0.050
-308.895	-200.000	-0.037	0.211
-307.880	-200.000	0.071	0.361
-306.866	431.795	0.107	-0.231
-305.851	-200.000	-0.036	0.230
-304.837	-200.000	0.066	0.394
-303.822	-200.000	-0.011	0.090
-302.807	-44.796	0.122	-0.060
-301.793	52.148	0.103	-0.098
-300.778	115.205	-0.329	0.399
-299.764	62.326	0.289	-0.286
-298.749	-200.000	0.023	-0.155
-297.735	800.000	-0.054	0.165
-296.720	495.426	-0.051	-0.116
-295.705	7.102	0.224	0.166
-294.691	800.000	-0.112	0.380
-293.676	-100.154	0.269	0.066
-292.662	-17.270	0.089	0.056
-291.647	-128.506	0.201	0.028
-290.632	-124.422	-0.334	-0.052
-289.618	-53.588	0.181	-0.082
-288.603	-116.762	0.302	0.055
-287.589	-116.829	0.246	0.045
-286.574	167.316	-0.151	0.213
-285.559	-74.152	-0.274	-0.098
-284.545	223.965	-0.113	0.181
-283.530	80.937	0.155	0.165
-282.516	-146.086	-0.510	-0.045
-281.501	17.018	0.193	-0.151
-280.486	-68.508	0.089	-0.034
-279.472	-106.302	-0.020	0.004
-278.457	-191.426	0.055	-0.001
-277.443	-43.938	-0.304	-0.152
-276.428	-148.815	-0.097	0.008
-275.413	8.500	0.319	0.238
-274.399	-87.001	-0.228	0.069
-273.384	303.795	0.169	0.311
-272.370	-200.000	-0.004	-0.235
-271.355	224.572	0.166	0.265
-270.340	800.000	-0.091	0.265
-269.326	-200.000	-0.102	-0.464
-268.311	70.425	-0.022	-0.023
-267.297	-25.668	-0.342	-0.200
-266.282	178.095	-0.052	0.075
-265.267	768.716	-0.092	-0.248
-264.253	12.046	0.153	-0.116
-263.238	211.486	-0.150	-0.234
-262.224	800.000	0.056	-0.167
-261.209	-46.810	0.167	0.081
-260.195	-200.000	0.061	0.277
-259.180	-134.989	-0.182	0.022
-258.165	40.179	0.275	-0.245
-257.151	-94.103	-0.341	-0.093
-256.136	-200.000	-0.036	-0.212
-255.122	-48.567	-0.439	0.209
-254.107	-38.190	-0.034	0.018
-253.092	-160.242	-0.093	0.005
-252.078	-77.910	0.095	0.032
-251.063	800.000	0.110	0.301
-250.049	62.285	-0.201	0.199
-249.034	67.240	-0.111	-0.112
-248.019	800.000	0.053	-0.161
-247.005	-200.000	-0.012	-0.412
-245.990	-125.500	0.441	-0.066
-244.976	371.649	0.043	0.086
-243.961	-200.000	-0.041	0.269
-242.946	-130.566	-0.266	-0.035
-241.932	266.044	0.096	0.165
-240.917	-47.345	0.120	0.058
-239.903	298.440	0.170	0.310
-238.888	-200.000	-0.023	0.134
-237.873	800.000	-0.059	-0.183
-236.859	-11.153	0.153	0.100
-235.844	-140.659	0.239	-0.024
-234.830	-129.687	0.271	-0.037
-233.815	-134.028	0.533	0.065
-232.800	107.499	0.079	0.093
-231.786	-133.648	-0.111	0.014
-230.771	-144.322	-0.377	-0.035
-229.757	-143.538	0.110	-0.010
-228.742	267.597	-0.092	0.160
-227.727	286.567	0.128	0.229
-226.713	-81.437	0.051	0.017
-225.698	-200.000	-0.044	-0.300
-224.684	-17.263	-0.086	-0.053
-223.669	-100.427	-0.105	0.026
-222.655	47.223	0.046	-0.043
-221.640	-82.148	0.374	-0.121
-220.625	-200.000	0.030	0.359
-219.611	-137.301	-0.224	-0.025
-218.596	-200.000	-0.022	0.273
-217.582	23.547	0.184	0.150
-216.567	-154.737	0.037	-0.002
-215.552	-95.950	0.341	0.090
-214.538	16.471	0.181	-0.141
-213.523	-200.000	0.020	-0.211
-212.509	-168.391	0.261	0.010
-211.494	-56.983	0.084	-0.037
-210.479	-53.410	0.167	-0.076
-209.465	-42.746	0.155	0.078
-208.450	800.000	-0.010	0.041
-207.436	111.747	-0.168	0.201
-206.421	-200.000	-0.071	0.385
-205.406	-200.000	-0.009	0.110
-204.392	-29.900	0.085	-0.048
-203.377	-116.978	0.288	0.052
-202.363	328.960	0.057	0.107
-201.348	-200.000	-0.020	-0.173
-200.333	-90.355	0.279	0.080
-199.319	-34.403	-0.146	-0.079
-198.304	4.843	-0.084	0.061
-197.290	-58.866	-0.279	0.119
-196.275	248.747	0.153	-0.256
-195.260	-62.239	0.210	-0.086
-194.246	-200.000	-0.076	0.416
-193.231	-3.319	0.051	0.035
-192.217	128.370	-0.321	0.404
-191.202	26.975	0.229	-0.190
-190.187	-200.000	-0.049	-0.222
-189.173	800.000	0.135	-0.564
-188.158	91.413	0.160	-0.178
-187.144	245.833	-0.093	0.155
-186.129	643.133	0.113	-0.284
-185.114	-100.179	-0.215	-0.053
-184.100	-200.000	-0.020	0.102
-183.085	-3.076	0.520	-0.358
-182.071	80.896	-0.147	0.157
-181.056	63.168	-0.167	0.165
-180.042	-65.874	0.022	-0.008
-179.027	-200.000	-0.040	-0.248
-178.012	116.182	0.211	-0.255
-176.998	251.010	-0.072	-0.121
-175.983	327.175	0.097	-0.183
-174.969	-72.041	-0.401	0.147
-173.954	-200.000	0.002	0.030
-172.939	31.583	-0.151	0.128
-171.925	-133.848	0.294	-0.036
-170.910	-77.445	0.028	-0.010
-169.896	-126.358	0.166	-0.024
-168.881	-53.868	-0.158	-0.071
-167.866	101.600	0.166	0.191
-166.852	-200.000	-0.006	-0.047
-165.837	-47.200	-0.088	0.042
-164.823	174.935	-0.104	-0.149
-163.808	-200.000	0.018	-0.150
-162.793	124.288	0.029	-0.036
-161.779	74.136	0.164	0.170
-160.764	31.947	0.142	-0.120
-159.750	800.000	0.092	0.348
-158.735	-190.590	0.318	-0.003
-157.720	-98.874	-0.203	0.051
-156.706	-59.049	0.186	-0.079
-155.691	-12.089	-0.118	-0.076
-154.677	-200.000	-0.012	-0.086
-153.662	-83.918	-0.041	-0.013
-152.647	245.966	0.160	-0.265
-151.633	-96.345	0.167	0.044
-150.618	-29.065	0.139	-0.079
-149.604	125.889	0.215	0.268
-148.589	-200.000	0.036	0.214
-147.574	-200.000	-0.005	0.208
-146.560	67.996	0.189	0.191
-145.545	403.216	0.157	-0.327
-144.531	800.000	0.113	0.313
-143.516	-200.000	-0.071	-0.328
-142.502	382.412	0.067	-0.136
-141.487	-200.000	0.005	-0.201
-140.472	45.366	0.031	0.028
-139.458	-200.000	0.044	0.286
-138.443	-113.370	-0.107	-0.021
-137.429	99.101	0.207	0.236
-136.414	-200.000	-0.050	-0.420
-135.399	800.000	-0.039	-0.153
-134.385	-153.312	-0.144	-0.010
-133.370	800.000	0.070	0.198
-132.356	-65.584	-0.206	-0.082
-131.341	30.380	0.168	0.142
-130.326	7.855	0.148	-0.109
-129.312	567.281	-0.164	0.392
-128.297	-200.000	0.013	0.242
-127.283	-96.521	0.088	0.023
-126.268	-84.403	0.197	0.061
-125.253	27.560	0.090	0.075
-124.239	-77.481	0.046	0.016
-123.224	-131.973	0.297	-0.038
-122.210	-85.646	-0.276	-0.084
