DTS Sentinel unit serial number:	SN413079Multiplexer serial number:	ORYXHardware model number:	OX4-SRSoftware version number:	ORYX F/W v4.00 Oryx Data Collector v3.7.2.0data status	okinstallation	princeton_trtdifferential loss correction	single-endedforward channel	channel 2reverse channel	N/Adate	2019/09/18time	23:07:34forward acquisition time	60.00reverse acquisition time	0.00gamma	496.2192k internal	0.2350k external	0.2350temperature offset calibration	1.0016default loss term (dB/km)	0.3790temperature slope calibration	1.0000multiplexer offset coefficient	1.0000multiplexer slope coefficient	1.0000fibre end	0.00T internal ref (°C)	24.00T ext. ref 1 (°C)	0.77T ext. ref 2 (°C)	17.58length (m)	temperature (°C)	Stokes	anti-Stokes-747.200	-113.463	-0.457	-0.089
-746.185	664.433	-0.049	0.126
-745.171	334.913	0.134	0.259
-744.156	-76.083	0.048	0.017
-743.142	-125.077	-0.267	-0.041
-742.127	-200.000	-0.022	0.248
-741.112	-45.360	0.109	-0.054
-740.098	800.000	-0.056	0.239
-739.083	75.993	0.365	0.385
-738.069	-144.947	-0.385	0.035
-737.054	-200.000	-0.041	-0.194
-736.039	-98.887	-0.295	-0.075
-735.025	11.291	-0.180	0.137
-734.010	-200.000	-0.004	-0.252
-732.996	800.000	0.128	-0.422
-731.981	-99.031	0.204	0.052
-730.966	203.033	-0.097	-0.150
-729.952	293.196	-0.108	-0.196
-728.937	-159.033	-0.152	-0.009
-727.923	626.158	-0.061	-0.154
-726.908	212.405	0.065	0.102
-725.894	147.185	0.236	-0.317
-724.879	234.203	-0.144	0.237
-723.864	-51.716	-0.115	-0.053
-722.850	228.885	-0.052	-0.085
-721.835	597.364	0.033	-0.083
-720.821	-170.615	-0.171	-0.006
-719.806	4.241	-0.347	-0.254
-718.791	-200.000	0.010	-0.113
-717.777	-79.196	-0.109	-0.037
-716.762	-126.817	-0.209	-0.031
-715.748	-110.210	0.359	0.075
-714.733	136.620	-0.081	0.106
-713.718	-125.261	-0.075	-0.011
-712.704	-106.359	-0.080	-0.018
-711.689	9.506	0.172	-0.130
-710.675	800.000	0.111	-0.319
-709.660	800.000	0.061	-0.193
-708.645	75.331	0.144	-0.151
-707.631	-83.946	0.303	-0.096
-706.616	-72.754	-0.315	-0.116
-705.602	685.534	0.142	-0.369
-704.587	-148.132	0.127	-0.011
-703.572	54.082	-0.104	0.100
-702.558	800.000	0.172	-0.484
-701.543	198.091	-0.139	0.212
-700.529	-0.091	0.104	0.074
-699.514	-21.619	-0.228	-0.138
-698.499	800.000	0.077	-0.269
-697.485	10.391	0.165	0.126
-696.470	28.919	0.041	-0.035
-695.456	-200.000	0.010	-0.062
-694.441	55.123	0.231	0.222
-693.426	-200.000	-0.011	0.121
-692.412	211.486	0.040	0.062
-691.397	-112.884	-0.136	-0.027
-690.383	-18.436	-0.333	-0.207
-689.368	143.688	0.149	-0.198
-688.354	-200.000	-0.000	0.204
-687.339	-134.018	0.192	-0.024
-686.324	167.176	-0.090	-0.128
-685.310	10.636	-0.127	-0.096
-684.295	179.844	-0.134	-0.196
-683.281	-119.705	-0.269	-0.046
-682.266	-200.000	0.054	0.242
-681.251	217.893	0.159	0.253
-680.237	800.000	0.063	-0.204
-679.222	436.915	0.163	0.354
-678.208	650.087	0.038	0.096
-677.193	187.001	-0.105	0.156
-676.178	227.035	-0.034	-0.055
-675.164	-37.634	-0.178	0.095
-674.149	-46.843	-0.143	0.069
-673.135	-83.957	-0.113	-0.036
-672.120	-70.586	-0.361	-0.136
-671.105	21.048	-0.109	-0.088
-670.091	-109.567	-0.165	-0.035
-669.076	-144.484	0.203	0.019
-668.062	-147.086	0.235	-0.020
-667.047	607.352	0.109	-0.271
-666.032	19.637	0.151	-0.121
-665.018	-41.767	0.189	-0.097
-664.003	358.859	-0.159	-0.316
-662.989	611.694	-0.090	0.224
-661.974	-42.501	0.109	0.055
-660.959	-200.000	-0.012	0.116
-659.945	19.090	-0.069	-0.055
-658.930	-169.713	-0.526	-0.019
-657.916	-2.282	0.221	-0.154
-656.901	-146.172	0.082	0.007
-655.886	6.309	-0.162	-0.120
-654.872	-76.393	-0.361	-0.126
-653.857	-155.599	0.421	-0.027
-652.843	262.215	0.120	0.207
-651.828	84.444	0.212	-0.231
-650.814	-152.922	0.048	-0.003
-649.799	-200.000	-0.005	0.219
-648.784	322.826	0.021	-0.039
-647.770	-200.000	0.006	-0.038
-646.755	226.472	0.096	0.154
-645.741	491.354	0.050	0.114
-644.726	800.000	0.037	0.162
-643.711	-15.952	-0.027	0.017
-642.697	-100.970	0.135	-0.033
-641.682	18.403	-0.113	-0.090
-640.668	-76.766	0.150	-0.052
-639.653	375.067	0.100	0.203
-638.638	56.089	0.141	-0.136
-637.624	-76.735	0.531	0.185
-636.609	5.479	-0.077	0.057
-635.595	80.862	-0.058	-0.063
-634.580	-34.651	-0.128	-0.069
-633.565	116.475	0.201	-0.245
-632.551	-78.296	-0.280	0.096
-631.536	-200.000	0.018	0.093
-630.522	-30.496	-0.275	0.155
-629.507	-86.468	0.289	0.088
-628.492	-72.375	-0.142	-0.052
-627.478	-200.000	-0.063	-0.321
-626.463	-200.000	0.013	0.350
-625.449	-148.692	0.272	0.022
-624.434	789.430	0.165	0.450
-623.419	-105.986	-0.280	0.063
-622.405	36.326	-0.176	-0.154
-621.390	82.923	-0.173	0.187
-620.376	-200.000	0.026	-0.217
-619.361	-115.314	-0.481	0.090
-618.346	182.337	0.125	-0.182
-617.332	-52.862	-0.284	0.130
-616.317	-99.439	-0.173	-0.043
-615.303	-57.655	0.569	0.248
-614.288	21.933	0.138	0.112
-613.273	-139.587	0.094	0.010
-612.259	741.525	-0.018	0.049
-611.244	315.629	0.025	-0.047
-610.230	-200.000	0.010	0.092
-609.215	-46.472	0.150	0.073
-608.201	-13.852	0.306	-0.196
-607.186	339.673	0.159	0.307
-606.171	75.437	0.213	0.223
-605.157	669.843	0.016	0.041
-604.142	-108.765	0.097	-0.021
-603.128	27.781	0.134	-0.112
-602.113	-181.550	-0.250	-0.005
-601.098	800.000	-0.022	-0.066
-600.084	-117.179	0.206	0.037
-599.069	-81.431	0.171	0.056
-598.055	800.000	-0.080	-0.312
-597.040	446.280	-0.119	0.260
-596.025	-42.282	-0.134	-0.068
-595.011	800.000	0.042	0.155
-593.996	138.860	0.169	-0.221
-592.982	800.000	-0.149	-0.416
-591.967	-200.000	-0.010	-0.291
-590.952	-151.417	0.408	-0.030
-589.938	800.000	0.054	-0.192
-588.923	-90.569	0.137	0.039
-587.909	141.460	-0.036	0.048
-586.894	-143.530	0.447	0.042
-585.879	-151.795	0.119	0.009
-584.865	800.000	-0.093	0.295
-583.850	210.861	0.144	0.224
-582.836	-122.629	-0.343	-0.055
-581.821	133.672	-0.147	0.189
-580.806	-141.752	-0.234	-0.023
-579.792	-46.644	0.088	-0.043
-578.777	-200.000	-0.005	0.350
-577.763	93.748	-0.152	0.171
-576.748	36.365	-0.159	-0.139
-575.733	-16.382	-0.202	-0.127
-574.719	-115.260	0.194	-0.036
-573.704	-16.021	-0.194	0.122
-572.690	773.058	0.090	0.242
-571.675	535.775	0.160	-0.377
-570.661	-117.062	0.225	-0.041
-569.646	399.010	0.175	-0.363
-568.631	-73.687	-0.348	-0.126
-567.617	-111.518	-0.264	0.053
-566.602	40.550	-0.203	0.181
-565.588	174.796	-0.154	-0.221
-564.573	70.513	-0.261	-0.268
-563.558	256.282	0.125	-0.212
-562.544	800.000	0.038	0.115
-561.529	800.000	0.148	0.419
-560.515	32.766	0.170	0.146
-559.500	107.825	0.139	0.164
-558.485	171.409	-0.068	-0.097
-557.471	-200.000	0.026	0.164
-556.456	-84.803	0.444	-0.138
-555.442	-74.788	0.249	0.089
-554.427	386.535	-0.103	0.211
-553.412	663.288	0.069	0.176
-552.398	256.035	0.150	-0.255
-551.383	267.678	-0.146	0.252
-550.369	215.964	0.098	-0.154
-549.354	-109.942	0.323	0.067
-548.339	205.394	-0.150	0.231
-547.325	-114.621	0.208	-0.040
-546.310	78.206	0.199	-0.211
-545.296	23.348	-0.267	-0.217
-544.281	-200.000	0.026	-0.227
-543.266	-200.000	0.009	0.041
-542.252	-25.868	-0.206	-0.120
-541.237	-200.000	-0.003	-0.198
-540.223	-19.636	-0.210	0.129
-539.208	-106.910	0.274	0.060
-538.193	800.000	-0.042	-0.136
-537.179	12.455	0.303	-0.231
-536.164	-75.050	0.079	0.028
-535.150	-115.879	-0.125	0.023
-534.135	206.827	0.169	0.261
-533.121	405.606	0.083	0.172
-532.106	-185.979	0.225	0.003
-531.091	-200.000	-0.017	0.290
-530.077	-200.000	0.024	-0.208
-529.062	166.989	-0.211	-0.296
-528.048	101.592	-0.108	-0.125
-527.033	-200.000	0.042	0.201
-526.018	-15.063	0.222	-0.141
-525.004	-30.984	-0.385	0.215
-523.989	40.473	-0.182	-0.163
-522.975	-200.000	-0.018	-0.202
-521.960	580.919	-0.101	-0.245
-520.945	266.958	0.184	0.319
-519.931	553.547	-0.099	0.235
-518.916	11.284	-0.139	-0.106
-517.902	-115.145	-0.158	-0.030
-516.887	456.593	-0.042	0.092
-515.872	-58.301	-0.308	-0.133
-514.858	492.406	-0.063	0.143
-513.843	-200.000	0.030	0.358
-512.829	-124.767	-0.281	-0.043
-511.814	-200.000	0.011	-0.477
-510.799	-65.493	-0.104	-0.041
-509.785	800.000	-0.113	0.342
-508.770	-29.540	-0.215	0.122
-507.756	-200.000	-0.055	0.282
-506.741	-132.070	-0.225	0.029
-505.726	-86.637	0.392	0.119
-504.712	136.020	-0.086	-0.111
-503.697	225.523	-0.167	-0.267
-502.683	-56.840	-0.289	-0.126
-501.668	316.330	0.164	0.305
-500.653	-52.157	0.262	0.120
-499.639	-200.000	0.001	-0.160
-498.624	-0.608	-0.205	0.144
-497.610	136.728	-0.228	0.294
-496.595	-200.000	0.023	-0.381
-495.581	-44.177	-0.133	0.066
-494.566	-200.000	-0.003	-0.063
-493.551	-44.340	0.046	-0.023
-492.537	235.959	-0.246	0.402
-491.522	334.416	0.148	-0.282
-490.508	116.611	0.219	-0.266
-489.493	-11.641	0.195	0.127
-488.478	88.092	-0.238	-0.261
-487.464	-68.357	-0.190	-0.073
-486.449	-129.467	-0.079	-0.011
-485.435	-60.579	-0.347	-0.146
-484.420	123.448	-0.125	-0.154
-483.405	451.681	0.098	0.213
-482.391	-75.766	0.325	0.114
-481.376	80.867	0.140	-0.149
-480.362	-61.021	-0.289	0.120
-479.347	44.249	0.162	-0.147
-478.332	-122.510	0.163	0.026
-477.318	150.573	0.099	0.133
-476.303	-200.000	-0.065	0.406
-475.289	397.395	0.238	0.491
-474.274	-70.641	0.198	0.074
-473.259	66.862	-0.222	0.224
-472.245	102.839	-0.051	-0.059
-471.230	154.890	-0.224	-0.304
-470.216	10.335	0.230	0.173
-469.201	-136.129	-0.268	-0.031
-468.186	-129.018	-0.155	-0.021
-467.172	609.837	0.056	0.139
-466.157	-200.000	0.030	0.224
-465.143	165.559	-0.249	0.348
-464.128	13.811	-0.156	-0.120
-463.113	374.480	-0.153	0.308
-462.099	-98.343	0.288	0.073
-461.084	-26.027	-0.113	-0.066
-460.070	800.000	0.087	-0.302
-459.055	-200.000	-0.004	-0.115
-458.040	133.156	-0.229	0.292
-457.026	-200.000	0.040	0.396
-456.011	800.000	-0.074	-0.276
-454.997	224.920	0.020	-0.033
-453.982	800.000	-0.050	0.153
-452.968	62.709	0.270	0.266
-451.953	511.119	0.071	0.162
-450.938	26.862	0.184	-0.153
-449.924	5.756	-0.186	0.135
-448.909	800.000	0.105	0.314
-447.895	-93.476	0.089	-0.024
-446.880	-0.855	-0.293	-0.205
-445.865	800.000	0.071	0.218
-444.851	611.772	-0.008	0.020
-443.836	-200.000	-0.036	-0.259
-442.822	-200.000	0.030	-0.140
-441.807	106.083	-0.176	0.206
-440.792	-200.000	-0.000	-0.228
-439.778	-90.231	-0.128	-0.037
-438.763	-48.049	-0.169	-0.081
-437.749	-200.000	0.046	-0.271
-436.734	144.906	-0.169	-0.222
-435.719	39.033	-0.372	0.328
-434.705	-200.000	0.016	0.272
-433.690	-136.442	-0.306	-0.035
-432.676	-106.113	-0.329	-0.073
-431.661	389.741	-0.089	0.182
-430.646	-200.000	-0.023	-0.273
-429.632	-17.986	-0.120	-0.074
-428.617	-196.447	0.129	-0.001
-427.603	-66.285	0.098	0.038
-426.588	-74.210	-0.275	0.098
-425.573	-200.000	0.005	-0.190
-424.559	56.219	0.133	-0.127
-423.544	541.776	0.127	-0.298
-422.530	-200.000	0.020	-0.120
-421.515	-139.530	0.067	0.007
-420.500	335.723	0.176	-0.337
-419.486	-200.000	0.001	0.159
-418.471	57.521	-0.300	-0.289
-417.457	-85.405	0.313	0.096
-416.442	-200.000	0.012	-0.186
-415.428	-200.000	-0.057	0.369
-414.413	-144.227	-0.252	0.023
-413.398	24.477	-0.040	0.033
-412.384	390.874	-0.201	0.411
-411.369	-200.000	0.034	0.167
-410.355	-200.000	-0.065	-0.295
-409.340	800.000	0.042	-0.148
-408.325	-200.000	-0.026	-0.393
-407.311	463.548	-0.098	-0.215
-406.296	-200.000	0.000	-0.037
-405.282	-200.000	0.009	0.081
-404.267	-200.000	0.009	0.086
-403.252	279.309	-0.089	0.156
-402.238	-53.367	0.235	-0.106
-401.223	-9.062	0.138	-0.091
-400.209	-200.000	0.030	0.139
-399.194	390.668	0.079	0.161
-398.179	258.648	-0.103	0.175
-397.165	800.000	0.050	0.139
-396.150	-66.977	0.158	0.062
-395.136	63.658	-0.188	0.186
-394.121	720.196	-0.042	-0.111
-393.106	35.031	0.116	0.100
-392.092	382.498	-0.104	-0.211
-391.077	-200.000	-0.011	0.062
-390.063	349.653	0.147	-0.285
-389.048	-67.299	-0.418	-0.162
-388.033	-9.908	0.440	0.288
-387.019	-52.937	-0.040	0.018
-386.004	-180.415	-0.443	0.009
-384.990	220.428	0.306	-0.482
-383.975	-55.246	-0.220	-0.097
-382.960	-80.937	-0.247	0.081
-381.946	-200.000	-0.002	-0.017
-380.931	-123.306	0.372	0.058
-379.917	800.000	0.033	0.138
-378.902	-200.000	0.029	0.144
-377.888	-20.253	-0.085	0.052
-376.873	-108.498	0.106	-0.022
-375.858	-200.000	0.022	-0.202
-374.844	-49.357	0.308	-0.145
-373.829	87.993	0.183	0.199
-372.815	14.547	0.251	-0.193
-371.800	-171.617	-0.200	-0.007
-370.785	5.748	0.054	-0.039
-369.771	-44.484	0.342	-0.168
-368.756	-200.000	0.013	-0.259
-367.742	11.729	-0.096	0.072
-366.727	571.750	0.095	-0.228
-365.712	124.692	0.126	0.156
-364.698	800.000	0.051	-0.152
-363.683	463.269	-0.172	-0.379
-362.669	800.000	0.059	0.193
-361.654	548.622	-0.125	-0.295
-360.639	-164.578	-0.208	-0.009
-359.625	-137.581	0.135	-0.015
-358.610	-167.304	0.795	-0.032
-357.596	800.000	-0.062	0.197
-356.581	-143.057	0.063	-0.006
-355.566	-7.859	0.202	0.134
-354.552	-4.031	0.295	-0.201
-353.537	160.154	-0.102	-0.140
-352.523	-70.657	-0.306	0.114
-351.508	-166.818	0.363	0.015
-350.493	-200.000	0.046	0.201
-349.479	800.000	-0.029	0.111
-348.464	-4.507	-0.120	0.081
-347.450	-71.983	-0.161	-0.059
-346.435	-141.655	0.095	0.009
-345.420	-22.760	-0.201	0.119
-344.406	-2.605	-0.290	0.200
-343.391	800.000	0.018	0.069
-342.377	147.587	0.144	0.190
-341.362	532.359	0.138	0.322
-340.348	124.006	0.205	0.253
-339.333	711.945	0.085	-0.222
-338.318	743.427	-0.085	-0.225
-337.304	23.113	-0.108	-0.087
-336.289	14.097	0.220	-0.169
-335.275	175.081	-0.060	-0.086
-334.260	-108.548	-0.193	-0.041
-333.245	8.131	0.280	-0.206
-332.231	-167.288	-0.469	0.019
-331.216	-200.000	0.114	0.492
-330.202	-129.730	-0.191	0.026
-329.187	80.032	-0.242	-0.255
-328.172	-148.589	-0.208	-0.017
-327.158	800.000	0.063	-0.230
-326.143	74.279	-0.155	-0.159
-325.129	-200.000	0.053	-0.329
-324.114	776.608	0.098	-0.262
-323.099	-200.000	0.027	-0.125
-322.085	75.705	-0.296	0.307
-321.070	800.000	0.052	-0.183
-320.056	-27.891	0.158	-0.090
-319.041	104.310	-0.188	-0.218
-318.026	707.807	0.040	-0.103
-317.012	442.659	-0.036	0.077
-315.997	-200.000	0.008	0.344
-314.983	-57.573	-0.444	0.191
-313.968	271.228	-0.071	0.122
-312.953	-154.701	-0.175	0.011
-311.939	48.316	0.088	-0.081
-310.924	496.623	0.048	0.109
-309.910	-175.578	0.181	0.005
-308.895	-113.312	0.058	0.011
-307.880	-200.000	0.001	0.036
-306.866	800.000	0.071	0.266
-305.851	800.000	0.031	0.118
-304.837	108.040	-0.141	0.165
-303.822	253.950	-0.057	-0.096
-302.807	-159.423	0.323	0.018
-301.793	-77.388	0.143	0.049
-300.778	107.319	0.092	-0.107
-299.764	87.220	-0.334	0.362
-298.749	-22.238	-0.226	0.135
-297.735	-82.086	0.193	0.062
-296.720	-151.697	0.107	0.008
-295.705	-63.167	0.252	0.102
-294.691	241.664	-0.070	0.114
-293.676	142.453	-0.117	-0.153
-292.662	-65.917	0.172	-0.068
-291.647	772.924	-0.094	-0.251
-290.632	129.687	0.105	-0.131
-289.618	800.000	0.034	-0.144
-288.603	-107.776	0.183	0.039
-287.589	-144.002	-0.414	-0.038
-286.574	-86.781	0.267	0.080
-285.559	-58.028	0.166	-0.071
-284.545	86.911	-0.126	-0.136
-283.530	70.095	0.169	0.171
-282.516	-123.061	-0.098	-0.015
-281.501	85.777	-0.146	0.158
-280.486	-16.687	-0.194	0.121
-279.472	-73.851	-0.033	-0.012
-278.457	145.080	0.027	-0.036
-277.443	-5.496	0.263	-0.177
-276.428	48.661	0.176	-0.161
-275.413	478.233	0.145	-0.322
-274.399	19.977	0.167	0.132
-273.384	316.934	-0.011	0.021
-272.370	116.010	0.092	0.111
-271.355	-170.082	0.087	0.003
-270.340	-2.300	0.540	0.371
-269.326	143.601	-0.087	-0.114
-268.311	-200.000	-0.049	-0.369
-267.297	75.985	-0.260	0.269
-266.282	-172.926	-0.321	-0.010
-265.267	-42.959	-0.069	0.034
-264.253	800.000	-0.164	0.443
-263.238	-200.000	0.009	0.050
-262.224	46.804	0.273	-0.248
-261.209	476.554	-0.119	0.263
-260.195	-200.000	0.037	-0.279
-259.180	-118.028	-0.136	-0.024
-258.165	800.000	0.054	0.185
-257.151	129.906	-0.034	-0.043
-256.136	-200.000	0.018	0.266
-255.122	247.467	-0.127	0.210
-254.107	-200.000	-0.066	-0.301
-253.092	-64.695	-0.032	-0.013
-252.078	84.976	0.096	0.103
-251.063	111.591	0.212	-0.250
-250.049	106.004	-0.075	0.087
-249.034	-80.353	-0.455	-0.149
-248.019	212.088	-0.183	0.282
-247.005	-73.221	0.100	-0.036
-245.990	-106.954	-0.325	0.070
-244.976	200.783	-0.112	-0.169
-243.961	-42.624	-0.318	-0.158
-242.946	-60.956	-0.113	-0.047
-241.932	74.079	0.093	-0.095
-240.917	-200.000	0.048	-0.403
-239.903	74.948	0.150	0.155
-238.888	-200.000	0.017	-0.326
-237.873	-200.000	-0.004	-0.353
-236.859	36.252	-0.302	-0.261
-235.844	-200.000	-0.025	0.284
-234.830	-200.000	0.025	-0.108
-233.815	3.963	0.138	0.099
-232.800	56.258	0.081	0.077
-231.786	174.899	0.136	0.192
-230.771	800.000	-0.039	-0.150
-229.757	145.596	-0.099	-0.130
-228.742	300.052	0.226	0.408
-227.727	-149.867	-0.079	-0.006
-226.713	175.710	0.098	0.139
-225.698	-39.453	-0.348	-0.179
-224.684	-158.132	0.162	-0.009
-223.669	7.001	0.320	0.233
-222.655	-42.360	-0.138	-0.069
-221.640	259.181	0.174	-0.293
-220.625	-200.000	-0.030	0.243
-219.611	-13.097	-0.356	0.227
-218.596	-87.566	0.165	-0.049
-217.582	438.639	0.095	0.202
-216.567	-79.878	0.505	0.166
-215.552	800.000	0.084	0.297
-214.538	-96.836	-0.150	-0.038
-213.523	164.658	0.070	-0.096
-212.509	800.000	0.063	0.223
-211.494	28.745	0.076	-0.063
-210.479	-200.000	-0.047	-0.378
-209.465	213.203	0.113	-0.175
-208.450	-195.807	-0.031	0.000
-207.436	346.878	-0.145	-0.278
-206.421	-20.100	0.252	-0.152
-205.406	-92.859	-0.205	-0.056
-204.392	70.767	-0.224	-0.227
-203.377	-116.340	-0.253	0.046
-202.363	800.000	0.029	0.085
-201.348	-78.257	0.162	0.054
-200.333	65.584	0.188	-0.186
-199.319	-34.942	-0.398	0.212
-198.304	-144.126	-0.382	0.035
-197.290	-113.793	-0.052	-0.010
-196.275	-36.592	0.143	-0.075
-195.260	800.000	0.025	-0.103
-194.246	-44.864	0.221	-0.108
-193.231	-6.761	-0.178	-0.118
-192.217	379.618	-0.124	0.248
-191.202	-200.000	-0.032	-0.150
-190.187	-141.196	0.467	0.046
-189.173	-48.678	0.213	-0.100
-188.158	-58.684	-0.363	0.154
-187.144	375.329	-0.119	-0.237
-186.129	95.055	0.108	-0.120
-185.114	541.145	-0.149	-0.347
-184.100	-29.263	-0.179	0.100
-183.085	37.802	-0.294	-0.255
-182.071	-130.436	0.154	0.020
-181.056	669.643	-0.154	0.389
-180.042	59.135	0.103	-0.099
-179.027	-200.000	0.032	-0.165
-178.012	-200.000	0.012	-0.347
-176.998	-75.501	-0.133	0.046
-175.983	36.458	-0.171	-0.147
-174.969	-64.020	0.218	0.087
-173.954	-200.000	0.010	0.079
-172.939	800.000	0.083	0.245
-171.925	-123.955	0.440	-0.068
-170.910	314.204	0.038	0.069
-169.896	219.476	0.134	-0.209
-168.881	160.494	-0.072	-0.098
-167.866	78.628	0.146	0.152
-166.852	800.000	0.092	0.280
-165.837	-48.695	0.116	0.054
-164.823	-30.273	0.375	-0.208
-163.808	-200.000	0.013	-0.149
-162.793	33.766	0.143	-0.122
-161.779	126.694	-0.247	-0.306
-160.764	800.000	-0.109	-0.304
-159.750	635.332	0.046	0.115
-158.735	-75.848	0.258	0.089
-157.720	-32.031	-0.120	-0.066
-156.706	-6.327	0.146	-0.097
-155.691	-87.042	-0.291	0.087
-154.677	-173.581	0.161	-0.005
-153.662	64.287	0.228	0.224
-152.647	-6.902	0.050	-0.033
-151.633	-97.512	0.025	0.006
-150.618	5.669	-0.240	0.173
-149.604	800.000	0.020	0.065
-148.589	299.688	0.006	-0.011
-147.574	-200.000	0.061	-0.295
-146.560	45.462	0.114	0.102
-145.545	160.904	0.152	-0.207
-144.531	51.860	-0.104	0.096
-143.516	-200.000	0.046	-0.527
-142.502	-200.000	0.040	0.300
-141.487	-200.000	0.028	0.121
-140.472	-137.432	-0.043	0.005
-139.458	-46.560	-0.345	-0.165
-138.443	392.739	0.051	-0.103
-137.429	23.250	0.238	0.190
-136.414	-175.321	-0.106	0.003
-135.399	-116.081	-0.083	0.015
-134.385	733.268	0.078	0.203
-133.370	391.645	-0.140	0.284
-132.356	-122.885	-0.196	-0.031
-131.341	-200.000	0.028	-0.337
-130.326	204.258	-0.287	-0.433
-129.312	-179.293	-0.250	0.005
-128.297	566.206	-0.098	0.232
-127.283	-200.000	-0.022	-0.277
-126.268	132.320	0.208	-0.261
-125.253	-138.882	-0.475	-0.050
-124.239	-200.000	-0.032	-0.342
-123.224	800.000	0.057	0.172
-122.210	50.781	0.195	0.180
-121.195	-168.180	0.088	0.003
