DTS Sentinel unit serial number:	SN413079Multiplexer serial number:	ORYXHardware model number:	OX4-SRSoftware version number:	ORYX F/W v4.00 Oryx Data Collector v3.7.2.0data status	okinstallation	princeton_trtdifferential loss correction	single-endedforward channel	channel 2reverse channel	N/Adate	2019/09/18time	11:59:34forward acquisition time	60.00reverse acquisition time	0.00gamma	496.2192k internal	0.2325k external	0.2325temperature offset calibration	0.9985default loss term (dB/km)	0.3790temperature slope calibration	1.0000multiplexer offset coefficient	1.0000multiplexer slope coefficient	1.0000fibre end	0.00T internal ref (°C)	31.53T ext. ref 1 (°C)	0.49T ext. ref 2 (°C)	27.73length (m)	temperature (°C)	Stokes	anti-Stokes-747.200	454.766	-0.138	-0.308
-746.185	28.217	0.224	0.191
-745.171	638.093	0.036	-0.091
-744.156	144.400	-0.186	0.250
-743.142	599.897	0.051	0.128
-742.127	-86.254	-0.155	-0.048
-741.112	496.575	-0.116	0.269
-740.098	-176.408	-0.223	-0.006
-739.083	800.000	-0.042	-0.131
-738.069	164.661	-0.116	0.165
-737.054	-200.000	0.017	-0.331
-736.039	39.244	-0.158	-0.142
-735.025	10.602	0.106	0.081
-734.010	314.274	-0.084	-0.160
-732.996	99.917	-0.189	-0.221
-731.981	-21.547	-0.212	-0.130
-730.966	-80.524	-0.416	0.140
-729.952	-148.984	-0.258	-0.021
-728.937	172.455	-0.170	0.246
-727.923	4.350	-0.208	0.154
-726.908	-160.531	-0.272	0.015
-725.894	129.525	0.069	0.089
-724.879	-77.493	0.410	0.143
-723.864	94.630	-0.132	0.151
-722.850	-200.000	0.019	0.342
-721.835	-5.299	-0.141	-0.098
-720.821	-14.602	-0.197	-0.128
-719.806	291.722	0.055	-0.102
-718.791	800.000	-0.092	-0.349
-717.777	-54.209	-0.194	-0.089
-716.762	-148.368	-0.087	-0.007
-715.748	27.261	0.039	0.033
-714.733	-10.542	-0.117	-0.078
-713.718	-4.710	-0.190	0.132
-712.704	-153.752	-0.171	0.012
-711.689	-45.445	0.096	0.048
-710.675	521.338	-0.142	0.336
-709.660	-126.732	-0.338	-0.050
-708.645	25.752	-0.057	-0.048
-707.631	-67.044	0.169	-0.067
-706.616	-142.173	0.137	-0.014
-705.602	-200.000	0.066	-0.424
-704.587	10.316	-0.119	-0.091
-703.572	-133.917	0.384	0.048
-702.558	72.999	0.102	-0.107
-701.543	-28.111	0.076	0.044
-700.529	257.629	-0.108	-0.188
-699.514	-53.501	0.340	-0.157
-698.499	27.285	0.164	-0.139
-697.485	-200.000	-0.039	-0.423
-696.470	-50.923	-0.444	-0.210
-695.456	-200.000	0.042	-0.291
-694.441	800.000	-0.057	-0.162
-693.426	185.323	-0.272	-0.406
-692.412	281.064	-0.078	0.141
-691.397	-88.500	-0.245	0.074
-690.383	191.354	0.079	-0.119
-689.368	-64.371	-0.082	0.034
-688.354	68.782	0.240	-0.248
-687.339	96.474	-0.238	0.274
-686.324	-200.000	-0.072	-0.417
-685.310	190.448	-0.132	-0.199
-684.295	-4.544	0.220	-0.153
-683.281	116.137	-0.083	0.103
-682.266	356.264	0.148	-0.297
-681.251	-200.000	-0.049	-0.223
-680.237	800.000	0.164	-0.557
-679.222	627.706	-0.081	0.206
-678.208	-182.817	-0.207	-0.004
-677.193	27.335	0.298	-0.252
-676.178	-200.000	0.057	0.413
-675.164	-9.889	-0.090	-0.060
-674.149	471.361	0.048	0.108
-673.135	-200.000	-0.019	-0.260
-672.120	-200.000	-0.021	-0.237
-671.105	-120.746	0.166	-0.028
-670.091	42.321	-0.226	-0.206
-669.076	-120.980	-0.086	0.014
-668.062	17.818	-0.139	-0.111
-667.047	75.853	-0.173	0.184
-666.032	21.991	-0.155	-0.127
-665.018	179.076	-0.146	-0.215
-664.003	-80.228	0.194	-0.065
-662.989	156.493	0.141	-0.195
-661.974	285.284	-0.100	-0.180
-660.959	382.818	0.110	-0.226
-659.945	674.156	0.047	0.123
-658.930	253.511	-0.042	-0.073
-657.916	593.148	0.140	-0.347
-656.901	-88.766	0.184	0.055
-655.886	-200.000	0.000	0.018
-654.872	523.178	0.069	-0.163
-653.857	41.842	0.224	0.204
-652.843	16.870	-0.335	-0.267
-651.828	-56.171	0.199	0.089
-650.814	-21.177	-0.285	0.175
-649.799	-200.000	-0.037	0.181
-648.784	141.838	-0.154	0.205
-647.770	-27.027	0.311	0.182
-646.755	26.087	0.185	0.155
-645.741	27.908	-0.026	0.022
-644.726	28.503	-0.287	0.244
-643.711	-10.572	0.249	0.165
-642.697	107.734	-0.212	0.254
-641.682	800.000	-0.145	0.437
-640.668	326.849	0.126	0.243
-639.653	-67.151	-0.171	-0.068
-638.638	-200.000	-0.002	-0.012
-637.624	545.895	-0.067	0.160
-636.609	-200.000	-0.023	0.130
-635.595	-60.186	-0.293	0.125
-634.580	-165.834	-0.207	-0.009
-633.565	240.110	0.105	-0.175
-632.551	-17.413	0.082	0.052
-631.536	189.700	-0.095	0.143
-630.522	185.727	-0.111	-0.165
-629.507	28.536	-0.123	-0.104
-628.492	800.000	-0.092	-0.284
-627.478	-87.350	0.040	-0.012
-626.463	9.416	0.076	0.058
-625.449	-200.000	-0.009	0.044
-624.434	79.415	0.270	-0.291
-623.419	-200.000	0.036	-0.463
-622.405	-65.891	-0.074	0.030
-621.390	-100.468	0.052	-0.013
-620.376	103.236	0.214	-0.252
-619.361	22.670	-0.186	-0.153
-618.346	800.000	-0.039	0.144
-617.332	-65.308	0.056	0.023
-616.317	-51.662	-0.084	-0.040
-615.303	-200.000	0.045	-0.442
-614.288	-83.630	0.040	-0.013
-613.273	75.425	-0.099	-0.105
-612.259	6.289	-0.171	0.127
-611.244	-27.050	0.208	0.122
-610.230	-87.964	-0.265	-0.080
-609.215	-200.000	0.039	-0.293
-608.201	-200.000	0.002	0.063
-607.186	-90.746	-0.175	0.051
-606.171	137.037	-0.209	0.275
-605.157	-45.031	-0.154	0.077
-604.142	-200.000	0.020	-0.159
-603.128	800.000	0.026	-0.072
-602.113	204.292	-0.177	-0.275
-601.098	-120.672	0.298	-0.050
-600.084	132.004	0.088	-0.114
-599.069	129.994	0.054	0.069
-598.055	-23.414	-0.097	0.059
-597.040	-129.909	-0.124	0.017
-596.025	-184.527	0.088	0.001
-595.011	-31.954	-0.643	0.361
-593.996	-142.942	-0.296	0.029
-592.982	-125.068	0.196	0.030
-591.967	-121.945	0.127	-0.021
-590.952	370.659	-0.112	-0.228
-589.938	-30.718	0.216	0.123
-588.923	137.324	-0.072	0.095
-587.909	-122.953	0.037	0.006
-586.894	115.579	-0.104	0.127
-585.879	218.576	0.115	0.184
-584.865	2.138	-0.105	-0.076
-583.850	-200.000	-0.028	0.234
-582.836	6.623	0.259	0.193
-581.821	-200.000	-0.008	0.151
-580.806	-128.100	-0.173	-0.025
-579.792	14.155	-0.257	0.201
-578.777	9.919	0.397	-0.302
-577.763	-25.066	0.035	0.021
-576.748	-3.442	0.143	-0.100
-575.733	-200.000	0.108	-0.564
-574.719	423.708	-0.171	-0.368
-573.704	447.036	-0.052	0.115
-572.690	-9.853	-0.126	0.084
-571.675	-64.676	0.044	0.018
-570.661	-72.348	-0.190	-0.070
-569.646	21.306	-0.283	-0.230
-568.631	-200.000	-0.009	-0.190
-567.617	39.776	-0.089	0.080
-566.602	-200.000	0.018	-0.100
-565.588	-110.397	0.476	-0.099
-564.573	43.771	0.163	-0.149
-563.558	-85.945	-0.109	0.034
-562.544	75.474	0.389	0.411
-561.529	632.136	0.084	0.213
-560.515	-200.000	-0.001	-0.324
-559.500	87.486	-0.227	-0.252
-558.485	115.573	0.159	-0.194
-557.471	229.793	0.107	0.176
-556.456	13.198	-0.158	-0.122
-555.442	-158.872	0.235	-0.013
-554.427	-111.897	-0.224	0.045
-553.412	-94.741	0.196	-0.053
-552.398	132.699	0.113	0.145
-551.383	-53.142	-0.123	0.057
-550.369	-200.000	-0.002	0.029
-549.354	-200.000	-0.039	0.232
-548.339	153.950	0.227	-0.311
-547.325	800.000	0.064	-0.193
-546.310	-136.731	0.211	-0.024
-545.296	-200.000	-0.008	0.209
-544.281	-120.008	-0.270	0.046
-543.266	-43.258	-0.154	-0.078
-542.252	472.330	0.040	-0.089
-541.237	-110.223	-0.047	0.010
-540.223	-38.046	-0.106	0.056
-539.208	-21.518	-0.275	0.168
-538.193	800.000	0.061	-0.205
-537.179	544.004	0.077	-0.185
-536.164	-200.000	-0.027	0.229
-535.150	227.887	-0.075	0.122
-534.135	-110.270	0.221	-0.046
-533.121	-62.176	-0.367	-0.153
-532.106	-61.387	0.096	-0.041
-531.091	-158.424	0.268	0.016
-530.077	5.130	0.223	-0.165
-529.062	-200.000	0.173	0.001
-528.048	515.592	-0.049	-0.114
-527.033	-20.406	-0.216	0.133
-526.018	-152.524	-0.184	0.013
-525.004	-42.291	-0.319	0.163
-523.989	-123.677	-0.507	-0.080
-522.975	201.072	-0.265	-0.408
-521.960	-96.610	-0.195	-0.051
-520.945	13.318	-0.164	-0.127
-519.931	59.330	-0.160	0.157
-518.916	-76.486	-0.101	-0.036
-517.902	-12.815	0.119	-0.077
-516.887	-200.000	-0.017	0.111
-515.872	446.487	0.025	0.054
-514.858	-112.502	0.109	-0.022
-513.843	-83.172	-0.354	0.114
-512.829	269.923	-0.148	0.261
-511.814	143.220	0.252	-0.335
-510.799	54.209	0.249	-0.240
-509.785	800.000	-0.022	-0.086
-508.770	-126.126	0.184	0.028
-507.756	-200.000	-0.014	0.338
-506.741	281.706	0.013	-0.024
-505.726	-65.491	0.218	0.087
-504.712	104.851	-0.037	0.044
-503.697	800.000	-0.086	0.267
-502.683	25.428	0.166	-0.138
-501.668	23.379	0.120	0.099
-500.653	-200.000	0.023	0.374
-499.639	790.210	0.069	0.190
-498.624	-32.884	-0.157	0.087
-497.610	800.000	0.081	-0.285
-496.595	71.005	0.039	-0.040
-495.581	-200.000	0.081	-0.412
-494.566	238.494	-0.184	-0.305
-493.551	800.000	-0.030	-0.108
-492.537	-9.517	-0.171	0.114
-491.522	-200.000	-0.000	0.075
-490.508	-200.000	-0.029	0.169
-489.493	-200.000	0.004	-0.387
-488.478	85.337	-0.147	-0.161
-487.464	42.882	-0.146	0.133
-486.449	76.255	0.177	0.187
-485.435	-91.908	-0.092	-0.026
-484.420	-143.136	0.391	0.038
-483.405	-200.000	-0.002	0.204
-482.391	800.000	0.072	0.241
-481.376	-200.000	0.001	-0.019
-480.362	105.579	-0.212	0.250
-479.347	168.773	0.162	0.231
-478.332	95.934	0.077	0.087
-477.318	308.275	0.087	0.162
-476.303	275.476	0.134	-0.238
-475.289	72.457	0.201	0.210
-474.274	-48.973	-0.223	0.106
-473.259	-200.000	0.030	-0.360
-472.245	-160.024	0.386	0.021
-471.230	-24.462	-0.253	-0.150
-470.216	104.979	0.047	-0.055
-469.201	-200.000	-0.034	-0.208
-468.186	107.456	-0.108	-0.128
-467.172	164.701	-0.077	0.109
-466.157	-174.086	0.435	0.013
-465.143	-200.000	-0.021	0.277
-464.128	-73.254	0.107	-0.039
-463.113	-200.000	-0.032	0.158
-462.099	-200.000	0.078	0.355
-461.084	165.301	0.028	-0.040
-460.070	800.000	0.050	-0.184
-459.055	-107.384	0.218	-0.048
-458.040	-71.087	-0.254	0.095
-457.026	18.129	0.053	-0.042
-456.011	133.969	-0.275	-0.355
-454.997	460.621	-0.088	-0.195
-453.982	-154.434	-0.119	0.008
-452.968	800.000	-0.129	-0.477
-451.953	-138.771	-0.074	-0.008
-450.938	138.987	0.054	-0.071
-449.924	63.160	0.079	0.079
-448.909	-200.000	0.053	-0.242
-447.895	278.057	-0.148	0.263
-446.880	-59.694	-0.385	0.164
-445.865	-200.000	0.035	0.529
-444.851	-74.252	-0.130	0.047
-443.836	800.000	-0.060	0.168
-442.822	412.755	-0.214	0.455
-441.807	-112.973	0.133	-0.026
-440.792	0.452	-0.184	-0.131
-439.778	516.071	-0.107	0.248
-438.763	-200.000	-0.055	0.275
-437.749	-200.000	-0.048	0.214
-436.734	-200.000	-0.005	0.268
-435.719	476.711	0.076	0.172
-434.705	-75.418	0.295	0.105
-433.690	-200.000	0.044	0.332
-432.676	-200.000	-0.003	-0.044
-431.661	40.027	0.146	-0.131
-430.646	-140.865	-0.432	0.044
-429.632	524.768	0.121	-0.284
-428.617	-200.000	-0.018	0.395
-427.603	-200.000	0.044	0.327
-426.588	-92.602	0.325	-0.091
-425.573	-200.000	-0.062	-0.325
-424.559	-171.711	-0.243	0.008
-423.544	-38.163	-0.363	-0.192
-422.530	800.000	-0.062	0.221
-421.515	298.850	0.056	-0.103
-420.500	106.429	0.216	-0.255
-419.486	-25.444	-0.186	-0.110
-418.471	-200.000	0.046	-0.218
-417.457	-36.078	-0.202	-0.108
-416.442	30.737	-0.420	-0.358
-415.428	-200.000	-0.003	0.199
-414.413	56.971	0.069	0.067
-413.398	-200.000	-0.021	0.126
-412.384	3.149	-0.141	0.102
-411.369	-9.488	0.275	-0.183
-410.355	59.473	-0.132	-0.129
-409.340	800.000	0.047	-0.141
-408.325	-200.000	0.234	0.000
-407.311	529.396	0.088	-0.208
-406.296	-200.000	0.044	-0.296
-405.282	-88.218	0.065	-0.019
-404.267	-200.000	-0.089	0.404
-403.252	-103.493	0.339	0.079
-402.238	-200.000	-0.025	0.235
-401.223	-158.917	0.285	0.016
-400.209	42.474	-0.177	0.160
-399.194	106.594	-0.250	-0.295
-398.179	-200.000	0.027	-0.153
-397.165	96.557	0.150	-0.171
-396.150	42.374	-0.171	0.155
-395.136	-182.674	-0.120	0.002
-394.121	9.247	0.244	-0.183
-393.106	-200.000	-0.026	-0.232
-392.092	-44.564	0.048	-0.024
-391.077	120.972	-0.170	-0.210
-390.063	800.000	-0.076	0.221
-389.048	77.567	-0.104	-0.110
-388.033	-41.018	0.400	0.205
-387.019	189.263	-0.154	0.229
-386.004	-200.000	-0.048	0.319
-384.990	800.000	0.059	-0.253
-383.975	356.751	-0.051	-0.102
-382.960	4.082	0.127	-0.092
-381.946	800.000	-0.018	-0.072
-380.931	-29.140	0.352	-0.201
-379.917	-53.185	0.328	0.150
-378.902	-200.000	-0.023	0.134
-377.888	-98.706	-0.060	-0.015
-376.873	62.999	-0.091	-0.091
-375.858	-200.000	-0.031	0.265
-374.844	81.809	0.136	-0.146
-373.829	-153.463	-0.121	-0.008
-372.815	-17.199	0.256	0.161
-371.800	585.864	-0.152	0.373
-370.785	561.121	-0.117	-0.282
-369.771	-28.692	0.336	0.192
-368.756	-69.077	0.142	0.054
-367.742	-97.298	0.170	-0.044
-366.727	538.427	0.113	0.267
-365.712	232.068	0.130	0.213
-364.698	547.020	0.055	-0.132
-363.683	270.560	-0.083	-0.145
-362.669	-160.017	0.188	0.010
-361.654	14.520	0.322	-0.250
-360.639	42.223	0.120	0.108
-359.625	-47.300	-0.166	-0.080
-358.610	600.328	-0.057	-0.140
-357.596	204.391	-0.075	-0.115
-356.581	800.000	0.108	-0.378
-355.566	-200.000	-0.045	0.229
-354.552	61.603	0.076	-0.075
-353.537	-200.000	0.010	-0.179
-352.523	96.377	0.074	0.085
-351.508	-95.885	0.199	-0.053
-350.493	-200.000	0.001	-0.144
-349.479	91.894	0.151	-0.169
-348.464	154.480	-0.176	-0.240
-347.450	33.956	-0.136	-0.117
-346.435	82.865	0.128	-0.139
-345.420	-103.178	-0.370	0.087
-344.406	-20.521	0.481	0.294
-343.391	55.210	0.174	0.167
-342.377	800.000	0.035	0.115
-341.362	59.141	0.149	0.146
-340.348	-164.005	-0.290	-0.013
-339.333	-87.176	0.137	-0.041
-338.318	-139.983	0.419	0.044
-337.304	-21.732	0.122	-0.074
-336.289	99.109	0.105	-0.121
-335.275	138.083	0.105	0.137
-334.260	-81.193	-0.536	-0.176
-333.245	800.000	0.116	0.376
-332.231	92.920	-0.068	-0.076
-331.216	21.229	0.073	0.059
-330.202	48.578	0.095	-0.089
-329.187	132.920	-0.143	0.183
-328.172	-52.810	-0.341	-0.156
-327.158	-200.000	-0.012	-0.061
-326.143	223.429	0.140	0.225
-325.129	148.773	-0.214	0.287
-324.114	-25.437	-0.209	0.123
-323.099	-200.000	0.006	0.078
-322.085	272.010	0.081	-0.141
-321.070	-200.000	-0.007	-0.101
-320.056	-200.000	0.008	-0.120
-319.041	-200.000	-0.010	-0.294
-318.026	-124.679	-0.180	-0.028
-317.012	-76.518	0.064	0.022
-315.997	-70.611	-0.245	0.092
-314.983	173.870	-0.070	0.100
-313.968	-200.000	0.003	0.042
-312.953	52.526	-0.181	-0.171
-311.939	138.152	0.105	0.136
-310.924	-200.000	0.020	-0.268
-309.910	-200.000	-0.012	-0.102
-308.895	139.392	-0.285	-0.372
-307.880	800.000	-0.041	0.127
-306.866	-5.213	0.134	-0.091
-305.851	800.000	0.028	0.117
-304.837	-128.506	-0.200	0.028
-303.822	501.870	-0.040	0.091
-302.807	66.388	0.156	-0.158
-301.793	-200.000	0.086	-0.684
-300.778	438.371	0.063	0.136
-299.764	-88.764	-0.285	0.084
-298.749	215.913	-0.113	-0.179
-297.735	-200.000	0.000	0.321
-296.720	71.609	0.225	0.232
-295.705	236.277	0.038	-0.062
-294.691	-200.000	-0.079	-0.447
-293.676	169.353	0.041	0.058
-292.662	800.000	-0.101	0.329
-291.647	14.833	0.095	0.073
-290.632	182.555	0.147	0.214
-289.618	-62.864	-0.271	-0.111
-288.603	800.000	0.043	-0.124
-287.589	399.354	0.161	0.334
-286.574	73.324	0.181	-0.188
-285.559	90.346	0.165	-0.183
-284.545	800.000	0.059	0.183
-283.530	800.000	-0.076	-0.304
-282.516	-70.841	0.059	-0.022
-281.501	-200.000	0.005	-0.118
-280.486	-157.439	-0.547	0.033
-279.472	193.634	0.186	-0.279
-278.457	54.286	-0.270	-0.258
-277.443	217.432	0.051	-0.081
-276.428	-200.000	0.067	-0.361
-275.413	-200.000	-0.023	-0.166
-274.399	343.129	0.087	0.168
-273.384	-67.723	0.309	0.120
-272.370	800.000	0.118	-0.461
-271.355	365.368	0.132	0.263
-270.340	62.379	0.040	-0.040
-269.326	-30.170	0.161	-0.091
-268.311	-123.285	0.227	0.036
-267.297	-130.102	-0.247	-0.033
-266.282	-200.000	0.019	0.204
-265.267	165.403	-0.252	0.352
-264.253	800.000	0.069	-0.216
-263.238	486.238	-0.079	-0.179
-262.224	182.500	0.116	0.169
-261.209	492.843	-0.065	0.148
-260.195	-200.000	-0.015	0.241
-259.180	107.757	0.268	0.316
-258.165	46.207	-0.070	-0.065
-257.151	-150.129	0.115	-0.009
-256.136	-200.000	-0.087	-0.377
-255.122	-136.208	0.111	0.013
-254.107	450.876	0.123	0.270
-253.092	-200.000	0.043	0.300
-252.078	-55.611	-0.417	-0.185
-251.063	-200.000	0.021	-0.119
-250.049	427.798	-0.098	-0.209
-249.034	800.000	-0.031	-0.120
-248.019	-53.200	0.290	-0.131
-247.005	-152.381	0.372	0.027
-245.990	800.000	-0.111	0.324
-244.976	-150.192	-0.145	0.011
-243.961	800.000	0.074	0.273
-242.946	-200.000	0.008	0.078
-241.932	-36.299	-0.047	-0.025
-240.917	800.000	0.066	-0.206
-239.903	58.089	0.129	-0.125
-238.888	800.000	-0.034	0.132
-237.873	-200.000	0.007	0.080
-236.859	229.479	0.119	-0.191
-235.844	56.757	0.120	-0.116
-234.830	-37.798	-0.395	-0.208
-233.815	-171.890	0.275	0.009
-232.800	401.493	-0.075	0.156
-231.786	541.889	-0.072	0.169
-230.771	-112.331	0.473	0.094
-229.757	-56.974	-0.462	0.202
-228.742	-200.000	0.052	-0.237
-227.727	-200.000	0.028	0.261
-226.713	-200.000	-0.000	-0.209
-225.698	-120.925	-0.201	-0.033
-224.684	127.053	0.168	0.211
-223.669	141.680	0.244	-0.320
-222.655	22.891	0.239	0.194
-221.640	28.168	-0.124	-0.103
-220.625	-200.000	-0.017	0.191
-219.611	800.000	0.057	0.241
-218.596	-200.000	-0.066	-0.472
-217.582	-103.964	0.195	-0.045
-216.567	201.261	-0.237	0.361
-215.552	-4.858	-0.084	0.057
-214.538	67.614	-0.123	0.124
-213.523	-24.595	-0.285	0.168
-212.509	96.728	0.075	0.085
-211.494	-200.000	-0.013	0.185
-210.479	800.000	-0.098	-0.356
-209.465	-82.491	-0.186	0.060
-208.450	459.348	0.124	-0.273
-207.436	-139.966	0.214	-0.022
-206.421	-200.000	0.007	0.035
-205.406	-110.023	0.264	-0.055
-204.392	244.279	-0.086	0.143
-203.377	116.790	0.011	-0.014
-202.363	212.566	-0.057	-0.089
-201.348	39.558	0.196	0.174
-200.333	-200.000	-0.005	-0.054
-199.319	-200.000	0.004	0.165
-198.304	129.930	0.184	-0.233
-197.290	359.983	0.062	0.122
-196.275	-200.000	0.006	-0.056
-195.260	800.000	-0.032	0.107
-194.246	-73.117	-0.215	0.078
-193.231	-156.908	0.483	-0.029
-192.217	-200.000	-0.073	-0.000
-191.202	-177.645	0.004	0.000
-190.187	-200.000	-0.051	0.419
-189.173	-83.018	0.151	-0.048
-188.158	800.000	0.096	0.414
-187.144	-56.489	0.211	0.093
-186.129	-62.496	-0.089	-0.037
-185.114	43.386	0.228	-0.206
-184.100	228.894	0.180	-0.289
-183.085	-96.859	-0.124	-0.032
-182.071	-73.105	-0.147	-0.053
-181.056	89.187	-0.053	-0.059
-180.042	-79.909	0.152	-0.050
-179.027	640.647	0.159	-0.399
-178.012	-94.142	-0.181	-0.049
-176.998	-114.500	-0.321	-0.061
-175.983	-48.326	0.312	-0.148
-174.969	-43.639	-0.122	-0.061
-173.954	-82.572	0.155	-0.050
-172.939	-98.415	0.219	0.055
-171.925	-127.140	0.184	-0.027
-170.910	520.137	-0.101	0.234
-169.896	-108.005	0.149	0.032
-168.881	-200.000	-0.024	-0.103
-167.866	123.150	-0.285	-0.353
-166.852	-80.601	-0.300	-0.099
-165.837	43.992	-0.169	0.152
-164.823	83.811	0.098	0.105
-163.808	-200.000	-0.041	0.222
-162.793	363.367	-0.103	0.203
-161.779	30.087	-0.035	-0.030
-160.764	800.000	0.074	-0.241
-159.750	-200.000	-0.012	-0.154
-158.735	800.000	0.058	0.174
-157.720	124.330	-0.052	-0.065
-156.706	-74.741	0.365	-0.129
-155.691	-200.000	-0.014	0.458
-154.677	-169.468	-0.318	-0.011
-153.662	-141.588	-0.320	-0.032
-152.647	-200.000	-0.010	0.195
-151.633	56.031	-0.158	0.151
-150.618	352.153	-0.067	-0.130
-149.604	-200.000	-0.042	0.227
-148.589	-200.000	0.021	-0.140
-147.574	-64.621	-0.262	0.105
-146.560	-99.362	0.244	-0.061
-145.545	-150.339	0.366	-0.028
-144.531	-15.962	0.137	0.086
-143.516	-51.001	-0.225	0.104
-142.502	115.818	-0.149	0.180
-141.487	188.854	0.068	0.100
-140.472	-172.022	-0.082	0.003
-139.458	-85.905	0.187	-0.057
-138.443	8.888	-0.110	0.082
-137.429	-200.000	-0.002	-0.176
-136.414	36.749	0.195	0.170
-135.399	169.491	0.205	-0.289
-134.385	-4.778	0.223	-0.152
-133.370	-94.755	0.132	0.035
-132.356	-17.089	0.467	-0.290
-131.341	-53.999	0.284	0.128
-130.326	-12.942	0.319	-0.204
-129.312	246.031	0.117	0.195
-128.297	-200.000	-0.047	-0.235
-127.283	-153.986	-0.307	0.021
-126.268	-0.013	0.249	-0.175
-125.253	82.784	-0.187	0.201
-124.239	471.218	-0.037	-0.082
-123.224	-82.200	0.183	-0.059
-122.210	332.635	0.136	0.259
-121.195	167.023	0.067	-0.094
