DTS Sentinel unit serial number:	SN413079Multiplexer serial number:	ORYXHardware model number:	OX4-SRSoftware version number:	ORYX F/W v4.00 Oryx Data Collector v3.7.2.0data status	okinstallation	princeton_trtdifferential loss correction	single-endedforward channel	channel 2reverse channel	N/Adate	2019/09/18time	02:15:35forward acquisition time	60.00reverse acquisition time	0.00gamma	496.2192k internal	0.2350k external	0.2350temperature offset calibration	0.9986default loss term (dB/km)	0.3790temperature slope calibration	1.0000multiplexer offset coefficient	1.0000multiplexer slope coefficient	1.0000fibre end	0.00T internal ref (°C)	22.81T ext. ref 1 (°C)	0.17T ext. ref 2 (°C)	16.73length (m)	temperature (°C)	Stokes	anti-Stokes-747.200	800.000	0.086	0.362
-746.185	-200.000	-0.030	0.561
-745.171	-82.625	0.359	0.116
-744.156	-200.000	-0.065	0.304
-743.142	800.000	0.069	-0.213
-742.127	-33.252	0.154	0.085
-741.112	800.000	-0.054	0.156
-740.098	604.866	0.159	0.395
-739.083	-16.189	0.090	-0.057
-738.069	444.331	-0.097	0.213
-737.054	14.637	0.121	-0.094
-736.039	-69.550	-0.113	0.043
-735.025	-11.830	-0.125	0.082
-734.010	159.871	-0.111	-0.154
-732.996	137.784	0.273	0.357
-731.981	226.039	0.053	0.086
-730.966	-115.882	-0.197	-0.037
-729.952	-200.000	0.011	-0.132
-728.937	800.000	-0.030	-0.091
-727.923	-17.745	0.311	-0.195
-726.908	-148.999	-0.345	-0.028
-725.894	25.124	0.098	-0.081
-724.879	-170.629	0.139	0.005
-723.864	-15.977	-0.263	-0.167
-722.850	237.708	0.040	-0.066
-721.835	462.846	0.107	-0.239
-720.821	-78.111	0.252	0.086
-719.806	-120.811	0.153	-0.026
-718.791	-67.856	-0.235	0.092
-717.777	-15.592	0.204	0.130
-716.762	98.654	0.240	-0.276
-715.748	36.348	0.125	-0.110
-714.733	-131.613	-0.122	-0.016
-713.718	-5.804	0.142	0.097
-712.704	-3.060	-0.093	0.065
-711.689	45.714	-0.383	-0.353
-710.675	-34.037	-0.307	0.168
-709.660	-200.000	0.026	0.185
-708.645	107.240	0.141	-0.167
-707.631	-200.000	0.043	0.276
-706.616	76.024	-0.154	0.163
-705.602	311.409	0.103	-0.193
-704.587	-82.936	-0.091	-0.029
-703.572	58.873	0.197	-0.193
-702.558	-28.665	0.145	0.083
-701.543	-45.471	0.283	-0.140
-700.529	29.473	0.154	0.130
-699.514	800.000	0.011	0.043
-698.499	257.015	-0.007	0.012
-697.485	-97.059	-0.071	-0.019
-696.470	-144.045	0.204	0.019
-695.456	-117.570	0.192	0.035
-694.441	316.675	-0.094	-0.177
-693.426	-77.704	-0.092	0.032
-692.412	28.705	0.046	-0.039
-691.397	109.896	0.155	0.185
-690.383	-200.000	-0.062	-0.272
-689.368	-200.000	0.005	-0.140
-688.354	-82.015	0.550	0.179
-687.339	-148.382	-0.030	0.002
-686.324	-52.488	-0.163	-0.075
-685.310	-200.000	0.004	-0.103
-684.295	109.942	-0.157	-0.188
-683.281	-200.000	0.019	0.135
-682.266	-200.000	-0.007	0.081
-681.251	-200.000	0.010	-0.062
-680.237	292.202	0.141	-0.256
-679.222	278.631	0.090	-0.160
-678.208	49.530	0.081	0.076
-677.193	66.301	0.414	0.419
-676.178	211.643	0.192	0.301
-675.164	107.690	-0.209	-0.247
-674.149	-47.060	0.178	0.087
-673.135	76.287	0.012	-0.013
-672.120	-10.598	-0.182	0.120
-671.105	800.000	0.078	0.243
-670.091	-124.747	-0.120	0.018
-669.076	398.762	-0.109	-0.228
-668.062	-98.288	0.137	0.035
-667.047	800.000	0.078	0.312
-666.032	-152.199	0.230	-0.017
-665.018	352.578	0.068	0.134
-664.003	14.710	-0.265	-0.206
-662.989	615.913	0.043	0.107
-661.974	-92.535	0.494	-0.138
-660.959	147.800	-0.180	0.242
-659.945	-84.415	0.089	-0.028
-658.930	-59.523	0.188	0.080
-657.916	-43.003	-0.182	-0.092
-656.901	-200.000	0.004	-0.325
-655.886	230.792	-0.123	0.200
-654.872	-94.782	-0.039	-0.010
-653.857	-74.197	0.157	0.057
-652.843	-155.998	-0.123	0.008
-651.828	304.461	-0.010	-0.018
-650.814	-74.122	0.494	0.178
-649.799	-68.648	0.126	0.048
-648.784	-29.142	-0.135	0.077
-647.770	-200.000	-0.034	-0.182
-646.755	-19.357	-0.081	-0.050
-645.741	800.000	-0.093	-0.337
-644.726	239.223	0.033	-0.055
-643.711	-200.000	-0.040	-0.257
-642.697	-85.337	0.033	0.010
-641.682	125.478	-0.204	-0.256
-640.668	-107.378	-0.251	-0.055
-639.653	-111.901	-0.216	-0.043
-638.638	118.506	-0.286	-0.351
-637.624	800.000	-0.048	-0.172
-636.609	-200.000	-0.000	0.389
-635.595	345.990	-0.037	-0.073
-634.580	-69.241	-0.168	-0.064
-633.565	800.000	-0.042	0.144
-632.551	-75.736	0.168	-0.059
-631.536	800.000	-0.072	-0.219
-630.522	-99.572	0.269	0.067
-629.507	407.109	-0.030	0.063
-628.492	-163.533	-0.081	-0.004
-627.478	18.452	-0.143	-0.114
-626.463	31.474	-0.296	-0.253
-625.449	3.741	-0.132	-0.096
-624.434	222.008	-0.156	-0.249
-623.419	715.184	0.040	0.104
-622.405	69.552	-0.219	0.224
-621.390	58.134	-0.134	-0.131
-620.376	-200.000	0.017	-0.105
-619.361	-200.000	0.064	-0.433
-618.346	-117.031	-0.265	0.048
-617.332	431.199	0.055	-0.119
-616.317	31.989	-0.132	0.113
-615.303	408.296	0.096	-0.202
-614.288	209.740	-0.148	0.231
-613.273	0.050	0.187	-0.133
-612.259	94.015	-0.218	-0.245
-611.244	50.575	-0.081	-0.076
-610.230	-178.468	0.114	-0.003
-609.215	9.478	-0.288	0.216
-608.201	-6.698	0.234	-0.158
-607.186	-200.000	-0.005	-0.101
-606.171	38.834	0.280	-0.248
-605.157	-75.192	0.313	0.111
-604.142	800.000	-0.074	-0.280
-603.128	-21.397	-0.066	-0.040
-602.113	-189.084	0.183	-0.002
-601.098	-108.652	0.071	0.015
-600.084	-100.132	-0.266	0.066
-599.069	-60.675	-0.276	0.116
-598.055	-200.000	0.041	0.296
-597.040	-167.801	0.123	0.005
-596.025	34.880	-0.186	-0.162
-595.011	-130.589	0.097	-0.013
-593.996	-200.000	-0.008	0.157
-592.982	572.940	-0.051	-0.123
-591.967	106.477	-0.045	-0.053
-590.952	362.655	-0.088	-0.175
-589.938	800.000	0.143	0.506
-588.923	-89.814	0.063	0.018
-587.909	-200.000	0.010	-0.055
-586.894	-159.820	-0.219	0.012
-585.879	-200.000	0.016	0.096
-584.865	-28.407	-0.219	-0.125
-583.850	-200.000	0.020	-0.263
-582.836	551.867	-0.169	-0.402
-581.821	-24.315	0.074	-0.044
-580.806	-18.256	0.228	0.141
-579.792	142.958	0.163	0.215
-578.777	99.875	-0.133	0.153
-577.763	-102.796	0.175	-0.041
-576.748	249.542	-0.114	-0.192
-575.733	32.871	0.230	0.198
-574.719	-200.000	0.015	-0.240
-573.704	122.385	-0.113	-0.140
-572.690	800.000	0.129	-0.376
-571.675	-88.112	-0.027	-0.008
-570.661	-98.588	0.359	-0.091
-569.646	38.323	-0.495	-0.437
-568.631	-200.000	-0.019	-0.626
-567.617	-169.358	0.335	0.012
-566.602	-60.745	0.190	0.080
-565.588	137.436	0.161	-0.209
-564.573	-92.012	-0.166	0.046
-563.558	-171.005	0.270	0.009
-562.544	438.638	-0.035	-0.076
-561.529	-200.000	0.028	0.319
-560.515	800.000	-0.040	0.119
-559.500	-32.378	0.200	-0.111
-558.485	403.736	0.152	-0.317
-557.471	38.954	0.109	0.096
-556.456	1.931	0.002	0.002
-555.442	210.060	0.100	-0.156
-554.427	125.993	-0.181	0.227
-553.412	38.603	0.223	-0.197
-552.398	82.006	-0.051	-0.054
-551.383	-29.706	-0.164	-0.093
-550.369	68.108	0.175	0.177
-549.354	-31.010	-0.159	0.089
-548.339	-200.000	-0.002	-0.154
-547.325	405.541	-0.034	0.072
-546.310	311.457	-0.112	0.209
-545.296	-117.136	-0.123	0.022
-544.281	72.557	0.124	0.129
-543.266	-200.000	-0.398	-0.001
-542.252	800.000	-0.137	-0.417
-541.237	-54.786	0.229	-0.103
-540.223	305.919	0.142	-0.262
-539.208	-200.000	-0.021	-0.283
-538.193	484.835	-0.117	0.263
-537.179	-44.886	0.306	0.151
-536.164	-36.707	-0.252	0.134
-535.150	-200.000	-0.033	-0.151
-534.135	264.899	-0.032	0.055
-533.121	53.466	-0.314	0.298
-532.106	-134.364	0.342	0.042
-531.091	800.000	-0.027	-0.074
-530.077	-176.251	0.128	0.003
-529.062	-93.499	-0.255	-0.070
-528.048	-200.000	-0.007	0.105
-527.033	204.975	0.176	-0.270
-526.018	-133.723	-0.152	-0.019
-525.004	800.000	-0.054	0.212
-523.989	68.531	-0.139	-0.141
-522.975	-140.660	-0.034	0.003
-521.960	342.866	0.167	0.323
-520.945	-200.000	-0.055	0.314
-519.931	45.466	-0.074	-0.067
-518.916	262.773	-0.076	-0.131
-517.902	-20.955	-0.208	0.126
-516.887	-200.000	0.018	-0.170
-515.872	-200.000	0.005	0.151
-514.858	-200.000	0.035	0.251
-513.843	79.944	0.236	-0.251
-512.829	344.954	0.082	-0.160
-511.814	800.000	0.056	0.220
-510.799	800.000	-0.034	0.128
-509.785	-200.000	-0.011	0.071
-508.770	-67.819	-0.186	-0.072
-507.756	-84.928	0.042	-0.013
-506.741	386.231	-0.059	0.121
-505.726	-82.891	0.062	-0.020
-504.712	-146.071	-0.079	0.007
-503.697	-97.415	-0.101	-0.026
-502.683	-60.878	-0.160	-0.067
-501.668	800.000	-0.020	0.077
-500.653	-41.732	0.178	0.090
-499.639	-48.629	0.161	0.077
-498.624	-28.943	-0.070	-0.040
-497.610	346.545	-0.056	0.109
-496.595	800.000	0.062	-0.213
-495.581	-67.351	-0.074	0.029
-494.566	383.816	0.188	-0.383
-493.551	-93.997	0.229	-0.062
-492.537	163.752	-0.182	-0.254
-491.522	148.054	-0.174	0.232
-490.508	97.218	0.158	0.179
-489.493	39.849	-0.232	0.206
-488.478	-200.000	0.018	-0.124
-487.464	-200.000	-0.223	-0.001
-486.449	-99.896	-0.238	-0.059
-485.435	-200.000	0.009	-0.188
-484.420	-153.428	0.161	0.011
-483.405	151.614	0.159	0.214
-482.391	-200.000	0.079	-0.356
-481.376	-97.669	-0.207	-0.053
-480.362	-77.884	-0.181	0.062
-479.347	61.084	0.218	-0.214
-478.332	6.751	-0.179	-0.132
-477.318	-200.000	0.001	0.046
-476.303	-100.590	0.206	0.050
-475.289	-52.975	0.201	0.091
-474.274	105.222	-0.110	-0.128
-473.259	-200.000	-0.027	0.197
-472.245	-92.372	-0.162	-0.045
-471.230	-49.861	-0.235	-0.110
-470.216	-109.004	-0.189	-0.040
-469.201	-179.158	0.058	-0.001
-468.186	2.055	-0.184	0.132
-467.172	61.491	-0.066	-0.065
-466.157	32.558	-0.082	0.070
-465.143	-200.000	0.003	0.097
-464.128	800.000	0.151	-0.482
-463.113	-55.002	0.122	-0.054
-462.099	800.000	-0.074	0.271
-461.084	800.000	-0.074	0.268
-460.070	40.521	0.165	0.147
-459.055	-124.594	0.193	-0.030
-458.040	-91.697	-0.122	0.034
-457.026	95.539	0.027	-0.031
-456.011	800.000	-0.070	0.205
-454.997	-131.269	-0.173	-0.023
-453.982	-99.965	0.120	-0.030
-452.968	15.671	-0.161	0.125
-451.953	8.267	-0.174	0.129
-450.938	-70.584	0.253	0.094
-449.924	-157.174	-0.132	0.008
-448.909	-200.000	-0.017	0.155
-447.895	-200.000	0.017	0.105
-446.880	327.080	-0.189	0.357
-445.865	-200.000	-0.040	-0.239
-444.851	125.583	-0.112	-0.139
-443.836	-147.034	0.129	-0.011
-442.822	24.344	0.151	-0.123
-441.807	472.898	-0.030	0.066
-440.792	-97.239	0.183	0.047
-439.778	-53.397	-0.172	-0.078
-438.763	-200.000	-0.038	0.257
-437.749	236.819	-0.144	0.235
-436.734	-134.822	-0.085	0.010
-435.719	800.000	-0.074	0.210
-434.705	127.560	0.272	0.340
-433.690	-40.046	0.075	0.039
-432.676	-45.646	0.057	-0.028
-431.661	-18.446	-0.142	0.087
-430.646	221.105	0.195	0.308
-429.632	-159.300	-0.257	-0.014
-428.617	-51.600	0.047	-0.022
-427.603	4.281	-0.070	-0.050
-426.588	-137.240	0.289	0.032
-425.573	-144.720	-0.248	0.022
-424.559	-200.000	-0.006	0.204
-423.544	-200.000	-0.018	0.185
-422.530	800.000	0.087	-0.250
-421.515	-200.000	-0.024	-0.161
-420.500	800.000	-0.059	0.180
-419.486	12.079	0.145	-0.110
-418.471	-200.000	0.055	0.277
-417.457	800.000	-0.036	-0.137
-416.442	51.547	0.224	0.210
-415.428	-54.822	-0.092	-0.041
-414.413	-200.000	-0.027	-0.118
-413.398	74.699	-0.082	0.085
-412.384	-200.000	-0.026	-0.369
-411.369	-138.133	-0.017	0.002
-410.355	-84.158	-0.130	-0.041
-409.340	49.026	0.201	0.186
-408.325	-200.000	0.005	-0.199
-407.311	674.214	-0.141	-0.360
-406.296	-200.000	-0.004	-0.035
-405.282	-55.627	0.169	0.075
-404.267	-95.290	0.130	-0.034
-403.252	-200.000	0.010	-0.059
-402.238	7.996	-0.135	-0.100
-401.223	800.000	-0.109	-0.340
-400.209	370.612	0.030	0.061
-399.194	39.128	-0.043	-0.037
-398.179	800.000	-0.073	-0.213
-397.165	523.326	0.124	-0.287
-396.150	108.282	-0.043	0.051
-395.136	-156.685	0.289	-0.018
-394.121	-200.000	0.067	0.343
-393.106	52.084	0.082	0.077
-392.092	-200.000	-0.021	0.134
-391.077	800.000	0.039	0.114
-390.063	107.006	0.068	-0.080
-389.048	62.615	0.062	-0.061
-388.033	-145.716	-0.175	-0.015
-387.019	274.038	-0.279	-0.486
-386.004	105.987	-0.093	-0.108
-384.990	175.684	0.106	0.152
-383.975	46.019	0.069	0.063
-382.960	-2.229	-0.269	0.186
-381.946	-40.429	0.183	0.094
-380.931	-154.332	-0.196	0.013
-379.917	-56.847	0.146	0.063
-378.902	196.239	-0.144	-0.216
-377.888	800.000	0.035	-0.119
-376.873	-137.619	-0.049	-0.005
-375.858	26.496	0.366	-0.301
-374.844	150.945	-0.129	-0.173
-373.829	-200.000	-0.010	-0.055
-372.815	-104.482	0.193	0.044
-371.800	-36.094	0.249	-0.132
-370.785	339.036	0.132	-0.253
-369.771	71.969	-0.074	0.076
-368.756	28.939	0.129	0.107
-367.742	800.000	0.057	0.202
-366.727	82.308	0.019	-0.020
-365.712	747.156	-0.077	-0.204
-364.698	800.000	-0.056	0.222
-363.683	-61.296	-0.267	-0.110
-362.669	442.267	0.102	0.220
-361.654	-53.185	-0.085	-0.038
-360.639	-106.083	0.063	0.014
-359.625	-86.705	-0.204	-0.062
-358.610	-7.394	0.196	0.130
-357.596	800.000	0.045	0.122
-356.581	-151.386	0.036	-0.003
-355.566	-43.557	-0.084	-0.042
-354.552	-83.967	-0.235	0.073
-353.537	270.709	0.172	-0.297
-352.523	-135.443	-0.073	0.009
-351.508	-200.000	-0.014	-0.097
-350.493	-79.717	0.197	-0.065
-349.479	3.457	-0.270	0.193
-348.464	45.536	0.143	-0.129
-347.450	226.420	0.100	-0.160
-346.435	151.384	0.108	0.145
-345.420	800.000	0.118	0.433
-344.406	800.000	-0.036	-0.111
-343.391	-200.000	0.010	0.211
-342.377	-35.134	0.061	-0.033
-341.362	-103.526	0.199	0.046
-340.348	-200.000	0.001	0.217
-339.333	270.422	0.082	-0.142
-338.318	15.816	0.262	0.202
-337.304	27.709	-0.083	-0.069
-336.289	-132.826	0.381	-0.048
-335.275	-32.323	-0.004	-0.002
-334.260	9.485	-0.036	0.027
-333.245	-32.567	0.388	0.212
-332.231	258.835	-0.115	0.195
-331.216	-39.463	0.163	-0.084
-330.202	-128.569	-0.507	0.071
-329.187	453.868	0.110	0.238
-328.172	125.478	-0.097	-0.120
-327.158	-126.562	-0.339	-0.049
-326.143	76.881	-0.089	0.092
-325.129	353.259	-0.152	-0.297
-324.114	410.348	0.020	0.041
-323.099	-200.000	-0.005	0.106
-322.085	800.000	-0.083	0.262
-321.070	-120.146	0.293	0.049
-320.056	-43.644	0.147	0.073
-319.041	56.527	-0.086	0.083
-318.026	10.005	0.065	0.049
-317.012	385.424	-0.108	0.218
-315.997	-34.356	-0.163	-0.088
-314.983	201.568	-0.193	-0.293
-313.968	756.872	0.168	0.446
-312.953	769.848	-0.039	0.103
-311.939	-200.000	0.028	0.192
-310.924	-19.603	0.273	0.166
-309.910	-123.783	-0.051	0.008
-308.895	-49.571	0.136	0.064
-307.880	7.885	-0.259	-0.191
-306.866	241.919	0.063	0.103
-305.851	-165.005	0.331	-0.014
-304.837	-200.000	0.018	-0.111
-303.822	-20.997	-0.158	-0.095
-302.807	108.697	0.066	-0.077
-301.793	82.373	-0.258	0.274
-300.778	77.451	0.043	0.045
-299.764	-200.000	-0.000	-0.072
-298.749	86.985	-0.101	0.109
-297.735	218.885	0.047	0.073
-296.720	-200.000	-0.038	-0.201
-295.705	170.803	0.131	-0.184
-294.691	666.336	0.151	-0.382
-293.676	638.839	-0.063	-0.157
-292.662	-93.110	-0.127	-0.035
-291.647	333.715	0.196	-0.373
-290.632	120.957	-0.074	-0.090
-289.618	-70.624	-0.359	-0.133
-288.603	631.772	-0.110	-0.272
-287.589	-130.139	0.081	-0.011
-286.574	-123.762	-0.130	-0.020
-285.559	-200.000	0.012	0.082
-284.545	800.000	-0.029	-0.103
-283.530	800.000	-0.127	-0.536
-282.516	-19.327	0.332	0.202
-281.501	18.802	-0.127	0.099
-280.486	-200.000	0.013	0.107
-279.472	-110.352	0.273	0.056
-278.457	-108.351	0.155	0.033
-277.443	333.201	-0.157	0.298
-276.428	-95.912	-0.164	-0.043
-275.413	-37.792	-0.188	0.098
-274.399	800.000	-0.044	0.135
-273.384	175.810	-0.093	-0.133
-272.370	-75.558	-0.064	0.022
-271.355	-200.000	0.097	0.510
-270.340	1.957	0.117	0.083
-269.326	-102.147	-0.103	0.024
-268.311	-118.299	0.289	0.050
-267.297	-83.812	0.182	-0.057
-266.282	-132.914	-0.129	0.016
-265.267	-200.000	-0.025	0.153
-264.253	16.342	0.132	0.102
-263.238	16.089	-0.332	-0.256
-262.224	114.328	-0.075	-0.089
-261.209	-70.216	0.168	0.062
-260.195	341.023	-0.230	0.439
-259.180	-154.933	0.038	0.002
-258.165	507.643	-0.088	-0.201
-257.151	519.743	-0.176	-0.405
-256.136	213.202	-0.091	0.141
-255.122	-22.516	0.067	-0.039
-254.107	800.000	-0.077	0.254
-253.092	-30.029	0.172	0.096
-252.078	277.478	-0.061	0.107
-251.063	-115.248	-0.065	-0.012
-250.049	689.105	0.081	0.209
-249.034	-18.028	0.114	0.070
-248.019	-72.537	0.144	-0.052
-247.005	600.596	0.054	0.130
-245.990	-38.930	0.237	0.122
-244.976	-200.000	-0.007	-0.243
-243.961	-14.771	-0.104	0.065
-242.946	-50.533	-0.331	-0.153
-241.932	-101.095	0.281	-0.067
-240.917	-58.123	-0.305	0.130
-239.903	-86.502	0.123	-0.037
-238.888	-48.987	0.163	0.076
-237.873	61.819	0.011	-0.011
-236.859	-28.839	0.183	0.103
-235.844	-200.000	-0.016	-0.204
-234.830	164.753	0.036	-0.050
-233.815	231.509	0.254	-0.407
-232.800	216.446	0.159	0.248
-231.786	-73.342	-0.140	-0.050
-230.771	-200.000	-0.005	-0.056
-229.757	-123.423	-0.125	0.019
-228.742	249.590	0.110	0.182
-227.727	-138.997	0.055	-0.006
-226.713	-80.626	0.189	-0.062
-225.698	-110.415	0.152	0.031
-224.684	338.577	-0.055	0.105
-223.669	-84.888	0.109	-0.033
-222.655	27.069	0.143	0.118
-221.640	800.000	0.053	0.191
-220.625	27.184	0.052	-0.043
-219.611	299.628	-0.070	0.127
-218.596	303.802	0.063	0.114
-217.582	30.894	0.036	0.030
-216.567	-200.000	0.034	-0.231
-215.552	-171.701	0.149	0.005
-214.538	-200.000	-0.001	0.347
-213.523	800.000	0.017	-0.064
-212.509	-200.000	-0.008	0.046
-211.494	-114.588	-0.383	0.072
-210.479	-154.707	-0.129	0.008
-209.465	181.329	-0.125	0.180
-208.450	800.000	0.096	-0.368
-207.436	800.000	0.022	0.092
-206.421	-61.704	-0.216	-0.089
-205.406	-109.672	0.140	-0.029
-204.392	-200.000	0.001	-0.176
-203.377	800.000	0.028	-0.079
-202.363	-200.000	-0.004	0.090
-201.348	800.000	0.042	0.172
-200.333	-200.000	-0.037	0.302
-199.319	-200.000	-0.039	0.298
-198.304	-132.242	0.024	-0.003
-197.290	-95.705	-0.092	-0.024
-196.275	-91.746	0.189	-0.052
-195.260	800.000	-0.048	-0.148
-194.246	-200.000	-0.029	0.372
-193.231	-200.000	-0.046	0.432
-192.217	113.768	0.148	0.176
-191.202	313.303	-0.059	0.108
-190.187	-91.252	0.388	-0.109
-189.173	616.044	0.137	-0.336
-188.158	-138.126	0.267	0.029
-187.144	-58.080	0.170	-0.072
-186.129	12.888	0.182	0.138
-185.114	123.373	-0.026	0.032
-184.100	-110.375	0.248	-0.050
-183.085	-200.000	-0.024	0.239
-182.071	-58.741	-0.238	0.101
-181.056	329.009	-0.138	-0.259
-180.042	132.036	0.075	0.094
-179.027	118.362	0.214	0.258
-178.012	-200.000	-0.042	0.182
-176.998	362.507	-0.066	0.129
-175.983	800.000	-0.028	0.087
-174.969	-200.000	0.020	0.237
-173.954	-200.000	0.067	0.347
-172.939	800.000	-0.077	-0.225
-171.925	-115.079	0.246	-0.046
-170.910	-148.165	-0.100	0.008
-169.896	-110.109	0.148	0.030
-168.881	800.000	-0.045	0.186
-167.866	-113.320	0.123	-0.024
-166.852	-78.238	-0.332	0.111
-165.837	-36.190	0.471	0.248
-164.823	16.415	-0.172	-0.133
-163.808	174.657	0.070	-0.099
-162.793	800.000	0.044	0.187
-161.779	-136.810	0.243	-0.027
-160.764	-200.000	-0.099	-0.440
-159.750	-101.267	0.130	0.031
-158.735	-84.476	-0.386	0.119
-157.720	-99.969	0.280	-0.068
-156.706	-97.231	-0.143	0.036
-155.691	-165.899	0.091	-0.004
-154.677	-114.960	0.067	0.013
-153.662	117.588	-0.131	-0.157
-152.647	56.614	-0.137	-0.130
-151.633	800.000	0.027	-0.076
-150.618	-200.000	0.011	-0.208
-149.604	-68.533	-0.203	0.077
-148.589	-118.737	-0.274	0.047
-147.574	76.783	-0.181	-0.188
-146.560	-200.000	0.004	0.083
-145.545	294.217	-0.062	0.111
-144.531	-108.534	-0.097	-0.020
-143.516	292.094	-0.218	0.387
-142.502	529.331	0.013	0.031
-141.487	-117.885	0.126	0.022
-140.472	-23.147	-0.105	0.062
-139.458	-107.777	0.350	0.074
-138.443	-68.965	-0.401	-0.151
-137.429	-121.903	0.435	-0.070
-136.414	-200.000	0.066	0.323
-135.399	-200.000	0.007	0.031
-134.385	-200.000	0.074	0.492
-133.370	-134.497	-0.127	-0.015
-132.356	-90.479	-0.131	-0.037
-131.341	800.000	0.079	0.330
-130.326	6.917	-0.242	-0.175
-129.312	-136.757	-0.126	0.014
-128.297	-200.000	-0.038	0.403
-127.283	-125.259	0.138	0.021
-126.268	674.127	-0.089	-0.224
-125.253	-66.014	-0.186	-0.072
-124.239	-129.321	0.185	0.025
-123.224	234.964	-0.060	-0.096
-122.210	800.000	0.057	0.230
-121.195	-17.408	0.127	0.078
