DTS Sentinel unit serial number:	SN413079Multiplexer serial number:	ORYXHardware model number:	OX4-SRSoftware version number:	ORYX F/W v4.00 Oryx Data Collector v3.7.2.0data status	okinstallation	princeton_trtdifferential loss correction	single-endedforward channel	channel 2reverse channel	N/Adate	2019/09/13time	09:31:35forward acquisition time	60.00reverse acquisition time	0.00gamma	496.2192k internal	0.2327k external	0.2327temperature offset calibration	1.0198default loss term (dB/km)	0.3790temperature slope calibration	1.0000multiplexer offset coefficient	1.0000multiplexer slope coefficient	1.0000fibre end	0.00T internal ref (°C)	29.50T ext. ref 1 (°C)	4.42T ext. ref 2 (°C)	25.92length (m)	temperature (°C)	Stokes	anti-Stokes-747.200	800.000	0.090	0.369
-746.185	378.051	-0.104	0.214
-745.171	-200.000	-0.024	0.327
-744.156	163.068	0.165	0.233
-743.142	255.218	0.091	-0.157
-742.127	-88.730	-0.274	0.082
-741.112	-99.569	-0.242	0.061
-740.098	-126.493	-0.533	0.080
-739.083	239.833	0.075	0.126
-738.069	51.865	-0.133	0.128
-737.054	-109.431	-0.599	-0.128
-736.039	-107.963	-0.132	0.029
-735.025	-200.000	0.011	0.192
-734.010	338.042	-0.162	0.317
-732.996	800.000	-0.061	-0.176
-731.981	34.070	-0.083	0.073
-730.966	253.319	-0.106	-0.183
-729.952	4.736	-0.290	-0.215
-728.937	251.070	-0.061	-0.105
-727.923	12.118	-0.221	0.171
-726.908	-126.715	0.322	-0.048
-725.894	-129.803	-0.031	0.004
-724.879	200.765	-0.038	0.058
-723.864	57.836	-0.118	-0.116
-722.850	21.560	0.318	0.261
-721.835	-60.698	0.144	-0.062
-720.821	800.000	0.038	0.160
-719.806	-72.723	0.226	0.084
-718.791	33.857	-0.174	-0.153
-717.777	41.534	0.092	-0.084
-716.762	-24.768	0.351	0.210
-715.748	167.146	0.180	-0.258
-714.733	81.548	0.192	-0.209
-713.718	97.494	-0.073	-0.084
-712.704	171.823	-0.118	0.171
-711.689	112.217	0.145	-0.176
-710.675	132.747	-0.076	0.099
-709.660	800.000	0.014	-0.051
-708.645	-47.488	-0.307	-0.150
-707.631	16.671	0.072	0.057
-706.616	-200.000	0.036	-0.180
-705.602	-103.070	0.528	-0.126
-704.587	-200.000	0.101	0.475
-703.572	800.000	0.050	-0.193
-702.558	-200.000	0.021	-0.266
-701.543	16.811	0.117	-0.093
-700.529	183.927	-0.304	-0.453
-699.514	-200.000	0.033	0.153
-698.499	-78.440	-0.362	0.125
-697.485	1.832	-0.254	-0.184
-696.470	-200.000	-0.049	-0.281
-695.456	61.625	-0.162	0.162
-694.441	-200.000	-0.044	-0.208
-693.426	800.000	-0.080	-0.258
-692.412	-200.000	0.035	0.222
-691.397	-200.000	0.008	-0.076
-690.383	-102.245	-0.222	0.054
-689.368	51.475	0.029	-0.028
-688.354	190.052	-0.106	-0.160
-687.339	-200.000	-0.028	-0.149
-686.324	-64.798	0.405	0.165
-685.310	275.127	0.141	-0.251
-684.295	93.296	-0.082	0.093
-683.281	-200.000	0.000	-0.084
-682.266	-26.899	0.180	-0.106
-681.251	213.534	-0.047	0.075
-680.237	-99.314	0.120	-0.031
-679.222	-200.000	0.011	-0.064
-678.208	-34.963	-0.110	-0.060
-677.193	-105.031	-0.252	0.058
-676.178	458.006	0.039	0.087
-675.164	362.739	0.104	-0.211
-674.149	70.646	-0.199	-0.207
-673.135	-41.155	-0.293	-0.152
-672.120	-0.529	0.029	0.021
-671.105	556.060	0.024	0.059
-670.091	54.048	-0.110	0.106
-669.076	-141.873	0.058	0.006
-668.062	-58.084	-0.112	-0.049
-667.047	338.037	0.136	-0.266
-666.032	203.270	-0.238	-0.370
-665.018	-200.000	0.003	-0.040
-664.003	-142.468	0.354	-0.035
-662.989	-200.000	-0.068	0.305
-661.974	-200.000	-0.028	-0.170
-660.959	154.900	0.097	0.134
-659.945	123.901	0.062	0.078
-658.930	-155.871	0.246	0.016
-657.916	-27.915	-0.288	-0.168
-656.901	-63.731	0.313	-0.129
-655.886	-153.658	0.306	-0.021
-654.872	-200.000	-0.036	-0.227
-653.857	95.591	0.149	-0.170
-652.843	-96.289	-0.185	-0.049
-651.828	800.000	0.087	0.353
-650.814	-200.000	0.005	-0.096
-649.799	-200.000	-0.063	-0.528
-648.784	-111.208	0.061	-0.012
-647.770	53.007	-0.226	-0.217
-646.755	-105.570	0.169	0.038
-645.741	-50.459	-0.054	-0.026
-644.726	-81.480	-0.304	0.101
-643.711	-165.791	0.054	-0.002
-642.697	-93.500	-0.263	-0.073
-641.682	110.375	0.184	-0.222
-640.668	-140.519	-0.314	-0.033
-639.653	-11.271	-0.190	-0.126
-638.638	-200.000	-0.041	-0.213
-637.624	308.471	0.034	0.063
-636.609	70.588	-0.183	-0.190
-635.595	207.008	0.120	-0.188
-634.580	800.000	-0.028	-0.097
-633.565	-89.385	-0.201	0.059
-632.551	8.216	-0.074	0.056
-631.536	-76.098	-0.111	0.039
-630.522	728.585	0.072	0.193
-629.507	-200.000	0.003	0.178
-628.492	-132.048	0.110	-0.014
-627.478	252.801	0.239	0.410
-626.463	309.608	0.093	-0.175
-625.449	-200.000	-0.031	0.152
-624.434	-94.521	0.114	0.031
-623.419	800.000	-0.108	-0.434
-622.405	45.992	-0.080	0.074
-621.390	800.000	0.077	-0.246
-620.376	118.178	0.240	0.297
-619.361	0.394	-0.393	-0.282
-618.346	-200.000	0.005	-0.280
-617.332	800.000	0.024	0.082
-616.317	300.345	-0.029	-0.054
-615.303	800.000	-0.141	-0.391
-614.288	204.400	-0.053	-0.082
-613.273	55.060	-0.269	-0.261
-612.259	324.046	-0.090	0.172
-611.244	-2.142	0.102	0.072
-610.230	634.354	-0.157	-0.398
-609.215	569.477	0.095	0.232
-608.201	-22.165	0.137	0.084
-607.186	-51.325	0.074	-0.035
-606.171	-145.256	0.167	0.015
-605.157	570.508	0.018	-0.045
-604.142	-200.000	0.033	0.159
-603.128	800.000	-0.062	-0.192
-602.113	-200.000	-0.018	0.085
-601.098	-200.000	-0.011	-0.051
-600.084	-68.611	-0.100	0.039
-599.069	-59.309	0.092	0.040
-598.055	-200.000	0.013	-0.162
-597.040	800.000	-0.038	-0.141
-596.025	-200.000	-0.035	-0.544
-595.011	-200.000	-0.007	0.085
-593.996	-13.708	-0.103	-0.067
-592.982	800.000	0.039	0.112
-591.967	140.649	-0.037	-0.048
-590.952	800.000	0.057	-0.205
-589.938	-200.000	-0.011	0.075
-588.923	38.186	-0.166	-0.148
-587.909	9.776	0.288	-0.219
-586.894	-200.000	-0.041	0.000
-585.879	-200.000	0.028	0.259
-584.865	800.000	0.077	0.251
-583.850	800.000	-0.009	0.036
-582.836	-95.374	-0.226	0.061
-581.821	-111.966	-0.341	0.069
-580.806	-140.601	-0.123	-0.013
-579.792	-113.107	-0.407	-0.081
-578.777	-200.000	-0.038	-0.252
-577.763	800.000	0.075	-0.272
-576.748	51.500	0.164	0.156
-575.733	30.548	-0.062	0.053
-574.719	-1.330	0.168	-0.119
-573.704	128.876	0.022	-0.028
-572.690	-45.328	0.365	-0.181
-571.675	-14.758	0.159	0.102
-570.661	14.563	-0.148	0.116
-569.646	-164.515	0.267	0.012
-568.631	-38.546	0.296	0.157
-567.617	-200.000	0.096	-0.484
-566.602	800.000	0.098	-0.278
-565.588	-200.000	-0.055	0.303
-564.573	177.029	-0.130	-0.190
-563.558	532.736	-0.124	0.294
-562.544	198.746	-0.031	-0.047
-561.529	499.399	0.062	-0.144
-560.515	167.036	-0.160	0.228
-559.500	52.487	0.220	-0.210
-558.485	800.000	-0.027	-0.078
-557.471	-200.000	-0.011	-0.176
-556.456	800.000	0.089	0.355
-555.442	-113.489	0.132	0.026
-554.427	637.229	-0.072	0.184
-553.412	-200.000	0.005	0.064
-552.398	-15.975	-0.182	0.116
-551.383	-37.814	-0.125	-0.067
-550.369	291.470	-0.080	-0.145
-549.354	141.033	0.156	-0.207
-548.339	-114.079	0.225	0.044
-547.325	-142.193	-0.072	-0.007
-546.310	421.258	0.099	-0.213
-545.296	134.424	-0.145	-0.188
-544.281	78.081	-0.130	-0.139
-543.266	111.814	0.103	0.124
-542.252	241.935	-0.145	0.242
-541.237	-56.447	0.136	0.060
-540.223	800.000	-0.081	0.321
-539.208	-200.000	0.020	-0.138
-538.193	26.041	-0.023	0.019
-537.179	64.625	-0.116	0.117
-536.164	200.195	0.061	-0.094
-535.150	558.323	-0.063	-0.152
-534.135	32.139	0.381	0.329
-533.121	-94.560	0.144	-0.039
-532.106	-200.000	-0.018	0.236
-531.091	-200.000	-0.028	-0.230
-530.077	-48.468	-0.050	0.024
-529.062	477.325	-0.031	0.070
-528.048	800.000	0.091	0.275
-527.033	5.344	-0.200	-0.148
-526.018	172.362	-0.035	0.050
-525.004	-75.469	0.226	0.080
-523.989	-55.905	0.225	0.100
-522.975	417.470	-0.163	-0.348
-521.960	-164.990	0.179	-0.008
-520.945	-55.236	0.215	0.096
-519.931	100.997	0.138	0.161
-518.916	172.256	0.068	0.098
-517.902	-127.918	0.084	0.012
-516.887	-200.000	0.013	-0.098
-515.872	-105.712	-0.177	-0.040
-514.858	-200.000	0.039	0.325
-513.843	45.646	0.107	-0.099
-512.829	-121.993	0.175	0.029
-511.814	356.734	0.078	0.155
-510.799	-9.817	-0.144	-0.096
-509.785	-96.989	-0.166	-0.044
-508.770	60.917	-0.307	-0.304
-507.756	-200.000	0.056	0.259
-506.741	272.578	0.058	-0.102
-505.726	-124.407	-0.292	0.045
-504.712	-200.000	0.023	-0.127
-503.697	-63.981	-0.073	-0.030
-502.683	800.000	0.027	-0.083
-501.668	-200.000	0.009	-0.080
-500.653	-43.931	0.170	0.085
-499.639	330.797	-0.075	0.144
-498.624	77.309	0.220	0.234
-497.610	95.251	-0.135	0.154
-496.595	-100.830	-0.158	-0.039
-495.581	567.331	-0.029	-0.071
-494.566	-130.752	0.316	0.042
-493.551	8.585	0.227	-0.170
-492.537	-88.073	0.246	0.074
-491.522	94.074	-0.053	-0.060
-490.508	-92.984	-0.160	0.044
-489.493	341.793	-0.026	0.050
-488.478	-94.307	-0.134	0.037
-487.464	-108.832	-0.274	0.059
-486.449	-200.000	0.054	-0.244
-485.435	107.077	-0.230	-0.273
-484.420	634.900	0.014	-0.036
-483.405	-147.519	-0.042	-0.004
-482.391	800.000	-0.049	0.183
-481.376	-200.000	-0.023	0.148
-480.362	96.201	0.211	0.240
-479.347	-47.726	-0.145	0.070
-478.332	-30.556	-0.386	-0.218
-477.318	366.652	-0.064	0.129
-476.303	-16.038	-0.232	0.147
-475.289	-80.107	0.106	-0.035
-474.274	-86.314	-0.200	0.061
-473.259	129.932	-0.105	-0.134
-472.245	-54.145	-0.351	0.159
-471.230	-85.778	-0.382	-0.118
-470.216	-114.066	0.199	0.038
-469.201	800.000	0.068	0.211
-468.186	312.761	0.126	0.237
-467.172	1.092	-0.329	-0.235
-466.157	-56.500	0.176	-0.078
-465.143	-6.548	0.285	0.193
-464.128	444.191	0.081	0.177
-463.113	-177.026	0.272	-0.007
-462.099	-2.362	0.236	0.165
-461.084	71.070	0.135	-0.139
-460.070	8.061	0.160	0.119
-459.055	58.402	-0.099	0.097
-458.040	66.134	-0.181	0.183
-457.026	706.252	-0.067	0.175
-456.011	88.115	-0.142	0.157
-454.997	-103.964	0.364	0.085
-453.982	-118.688	0.195	-0.034
-452.968	-101.676	0.290	0.070
-451.953	280.238	-0.049	0.088
-450.938	-62.173	-0.095	0.039
-449.924	85.071	-0.124	0.135
-448.909	-200.000	0.008	-0.098
-447.895	-35.428	0.348	0.188
-446.880	590.686	0.075	-0.185
-445.865	50.249	0.080	0.076
-444.851	-9.576	-0.049	0.032
-443.836	48.080	0.280	-0.260
-442.822	-62.952	0.203	-0.083
-441.807	-130.437	-0.211	-0.028
-440.792	35.291	-0.016	0.014
-439.778	800.000	-0.020	0.078
-438.763	-43.794	0.151	-0.076
-437.749	-92.966	-0.365	-0.102
-436.734	-55.156	-0.386	-0.173
-435.719	-27.429	0.154	-0.089
-434.705	-200.000	0.006	0.072
-433.690	133.148	0.105	0.135
-432.676	-135.974	0.075	0.009
-431.661	124.789	0.220	-0.276
-430.646	200.242	0.052	-0.079
-429.632	138.422	0.088	0.116
-428.617	-200.000	0.023	0.166
-427.603	-149.923	-0.128	-0.010
-426.588	-200.000	-0.026	-0.137
-425.573	-200.000	-0.019	0.121
-424.559	21.513	0.353	0.286
-423.544	192.377	-0.171	0.257
-422.530	-91.368	0.414	-0.118
-421.515	26.553	0.193	-0.161
-420.500	-85.924	0.338	-0.104
-419.486	-200.000	0.016	0.124
-418.471	0.864	-0.342	0.244
-417.457	800.000	0.059	-0.234
-416.442	41.911	0.057	0.051
-415.428	-200.000	0.005	0.135
-414.413	-200.000	-0.014	0.180
-413.398	800.000	-0.053	-0.176
-412.384	-23.675	-0.133	-0.079
-411.369	-115.953	0.047	0.009
-410.355	800.000	-0.021	0.086
-409.340	725.068	-0.052	-0.139
-408.325	-116.443	-0.224	0.041
-407.311	522.628	-0.090	0.211
-406.296	-200.000	0.008	0.099
-405.282	68.826	-0.169	0.173
-404.267	102.224	0.119	0.139
-403.252	-200.000	0.037	-0.167
-402.238	-200.000	0.003	-0.251
-401.223	800.000	-0.051	-0.162
-400.209	-151.052	-0.220	0.016
-399.194	45.855	-0.065	0.060
-398.179	157.873	0.116	0.160
-397.165	-200.000	-0.040	-0.343
-396.150	402.976	-0.018	-0.039
-395.136	35.334	0.066	-0.058
-394.121	525.341	-0.156	0.366
-393.106	-171.881	0.292	0.009
-392.092	800.000	0.012	-0.051
-391.077	-110.505	-0.277	0.057
-390.063	530.043	-0.092	0.215
-389.048	-147.523	0.154	0.013
-388.033	130.835	-0.159	-0.203
-387.019	800.000	0.067	-0.237
-386.004	800.000	-0.021	0.075
-384.990	800.000	0.089	0.308
-383.975	-200.000	-0.046	-0.400
-382.960	-24.960	0.340	0.200
-381.946	-200.000	-0.020	-0.183
-380.931	-200.000	0.016	-0.233
-379.917	-180.406	-0.166	0.003
-378.902	344.647	0.044	-0.085
-377.888	-22.137	-0.114	-0.068
-376.873	-48.304	-0.165	0.079
-375.858	200.145	-0.093	0.142
-374.844	-115.178	0.265	-0.050
-373.829	-200.000	0.001	-0.185
-372.815	-78.489	-0.403	0.137
-371.800	330.446	-0.052	-0.100
-370.785	800.000	-0.073	-0.296
-369.771	173.647	0.347	-0.498
-368.756	-200.000	-0.016	0.089
-367.742	157.580	0.074	-0.102
-366.727	-105.738	-0.319	-0.072
-365.712	800.000	0.049	-0.210
-364.698	-200.000	0.008	-0.186
-363.683	-200.000	0.004	0.065
-362.669	391.205	0.151	-0.311
-361.654	163.686	0.255	-0.356
-360.639	-200.000	-0.022	-0.262
-359.625	-11.968	0.151	-0.099
-358.610	611.312	0.142	-0.352
-357.596	800.000	-0.113	-0.340
-356.581	-200.000	-0.012	0.187
-355.566	800.000	0.055	0.222
-354.552	-148.791	-0.088	0.007
-353.537	-200.000	0.019	-0.260
-352.523	-200.000	0.041	0.310
-351.508	-138.134	-0.112	0.012
-350.493	387.094	-0.116	0.237
-349.479	673.270	-0.044	0.113
-348.464	46.587	-0.110	-0.101
-347.450	-107.959	0.128	-0.028
-346.435	57.781	0.122	-0.118
-345.420	800.000	0.028	-0.087
-344.406	27.860	-0.013	0.011
-343.391	-97.281	-0.355	-0.092
-342.377	409.960	-0.138	0.291
-341.362	-4.283	0.464	0.319
-340.348	416.293	0.137	0.290
-339.333	38.836	-0.135	0.120
-338.318	-82.230	0.206	0.066
-337.304	-104.280	0.221	-0.051
-336.289	-200.000	0.016	-0.226
-335.275	-180.810	0.111	0.002
-334.260	800.000	-0.024	-0.082
-333.245	-113.667	0.130	0.025
-332.231	-42.128	0.023	-0.011
-331.216	-200.000	-0.031	0.229
-330.202	58.056	0.251	0.244
-329.187	-112.118	-0.129	-0.026
-328.172	54.668	-0.278	-0.266
-327.158	300.930	0.111	-0.204
-326.143	757.910	-0.081	0.218
-325.129	-55.050	-0.248	0.111
-324.114	74.040	-0.162	-0.169
-323.099	57.719	0.045	0.044
-322.085	800.000	-0.086	0.237
-321.070	-188.914	-0.184	-0.002
-320.056	136.736	0.119	0.154
-319.041	-108.358	-0.140	0.030
-318.026	-6.903	-0.318	0.214
-317.012	506.150	0.082	-0.188
-315.997	-41.421	0.334	0.170
-314.983	-121.827	-0.170	0.028
-313.968	70.233	-0.060	0.061
-312.953	223.377	0.140	0.224
-311.939	-65.054	-0.467	0.187
-310.924	-68.565	-0.178	0.068
-309.910	213.947	0.127	0.199
-308.895	-200.000	-0.040	-0.250
-307.880	-60.442	0.236	-0.100
-306.866	-200.000	0.022	-0.271
-305.851	800.000	0.013	0.036
-304.837	-200.000	0.039	-0.227
-303.822	800.000	0.040	-0.124
-302.807	382.822	0.212	0.433
-301.793	789.837	-0.069	0.187
-300.778	317.216	-0.111	-0.208
-299.764	-105.633	0.414	0.093
-298.749	121.706	0.155	0.192
-297.735	47.720	-0.042	-0.039
-296.720	140.823	0.051	-0.066
-295.705	13.242	-0.108	-0.083
-294.691	-14.561	-0.035	-0.022
-293.676	611.757	0.083	0.205
-292.662	-25.315	-0.291	-0.171
-291.647	143.725	-0.142	-0.187
-290.632	245.259	0.215	0.358
-289.618	-35.983	-0.060	0.032
-288.603	433.440	-0.139	0.298
-287.589	-200.000	-0.054	0.253
-286.574	-200.000	0.026	-0.122
-285.559	-46.715	0.216	0.105
-284.545	734.660	0.125	-0.332
-283.530	-200.000	0.000	0.003
-282.516	563.035	-0.059	0.142
-281.501	-72.105	-0.057	-0.021
-280.486	560.116	-0.131	-0.315
-279.472	-94.574	0.223	0.060
-278.457	200.979	0.169	0.258
-277.443	-200.000	-0.033	-0.397
-276.428	-39.591	0.306	-0.158
-275.413	-90.666	0.207	-0.059
-274.399	-17.581	0.144	0.090
-273.384	800.000	-0.060	0.226
-272.370	800.000	0.077	0.313
-271.355	188.527	-0.144	0.213
-270.340	452.741	0.066	0.145
-269.326	-67.298	-0.190	-0.074
-268.311	-143.708	-0.155	0.015
-267.297	-188.659	0.048	0.001
-266.282	-110.175	-0.183	0.038
-265.267	-13.135	-0.318	-0.205
-264.253	-200.000	0.002	-0.017
-263.238	-88.878	-0.143	0.042
-262.224	-124.502	0.163	-0.025
-261.209	301.497	0.088	-0.160
-260.195	29.161	0.053	-0.045
-259.180	-79.034	-0.062	-0.021
-258.165	-104.661	-0.118	0.027
-257.151	-6.175	-0.150	0.101
-256.136	-200.000	0.067	0.301
-255.122	-98.445	0.109	-0.028
-254.107	55.278	-0.057	0.054
-253.092	220.757	0.096	0.152
-252.078	70.934	-0.087	0.089
-251.063	255.736	0.126	-0.213
-250.049	800.000	-0.164	0.506
-249.034	632.093	0.066	-0.164
-248.019	499.819	-0.132	-0.301
-247.005	75.180	-0.030	0.032
-245.990	-117.538	-0.086	-0.015
-244.976	-200.000	0.039	0.268
-243.961	-22.482	-0.068	0.041
-242.946	-200.000	-0.008	-0.076
-241.932	-2.628	-0.031	0.022
-240.917	350.760	-0.048	-0.095
-239.903	665.282	0.206	0.525
-238.888	153.381	0.207	-0.281
-237.873	-64.457	0.147	-0.059
-236.859	753.997	-0.010	-0.027
-235.844	-200.000	-0.033	-0.276
-234.830	240.140	-0.270	0.444
-233.815	9.133	-0.241	-0.180
-232.800	228.024	-0.076	0.122
-231.786	-200.000	0.050	-0.460
-230.771	-47.220	0.313	-0.151
-229.757	-7.602	-0.273	0.182
-228.742	-47.291	0.090	-0.043
-227.727	-161.177	0.349	0.018
-226.713	55.351	-0.475	-0.454
-225.698	-69.547	0.418	-0.158
-224.684	7.416	0.042	-0.031
-223.669	-5.477	0.031	-0.021
-222.655	19.110	0.036	-0.028
-221.640	-200.000	-0.007	-0.071
-220.625	-142.582	0.035	-0.003
-219.611	-119.198	-0.319	0.055
-218.596	313.695	0.203	0.378
-217.582	-134.496	0.199	-0.024
-216.567	800.000	0.058	-0.162
-215.552	-26.227	0.269	-0.156
-214.538	737.946	0.034	-0.090
-213.523	-24.882	-0.289	-0.170
-212.509	-200.000	0.005	-0.192
-211.494	133.210	-0.057	-0.073
-210.479	-200.000	-0.031	0.565
-209.465	-200.000	0.060	0.358
-208.450	-200.000	-0.233	-0.001
-207.436	-107.162	0.111	0.024
-206.421	511.885	0.173	-0.398
-205.406	158.534	0.084	0.115
-204.392	-173.466	0.313	0.009
-203.377	-18.264	0.189	-0.116
-202.363	337.640	0.099	0.190
-201.348	421.067	-0.093	0.196
-200.333	1.076	-0.095	0.067
-199.319	-200.000	-0.083	-0.442
-198.304	-200.000	-0.031	0.193
-197.290	65.065	0.168	0.167
-196.275	-200.000	0.029	-0.507
-195.260	-200.000	-0.049	0.214
-194.246	7.435	-0.071	0.053
-193.231	7.676	-0.170	0.126
-192.217	25.843	-0.200	-0.164
-191.202	-81.265	-0.183	0.059
-190.187	800.000	0.021	0.067
-189.173	-87.848	0.196	-0.058
-188.158	-44.832	0.145	0.071
-187.144	227.531	0.053	0.085
-186.129	135.660	-0.206	0.265
-185.114	-97.253	0.252	0.065
-184.100	17.027	-0.313	-0.245
-183.085	-83.244	-0.168	-0.053
-182.071	800.000	-0.034	-0.128
-181.056	-200.000	-0.033	-0.239
-180.042	-200.000	-0.002	0.277
-179.027	-44.076	-0.213	0.106
-178.012	-39.961	0.301	-0.155
-176.998	68.177	-0.112	0.113
-175.983	90.133	0.057	0.063
-174.969	-25.806	0.344	-0.200
-173.954	-9.745	-0.247	-0.162
-172.939	219.324	-0.259	0.408
-171.925	242.753	-0.103	0.170
-170.910	-42.707	0.165	-0.083
-169.896	-200.000	0.037	0.335
-168.881	-200.000	0.011	-0.212
-167.866	-33.258	0.131	0.072
-166.852	-200.000	-0.020	-0.172
-165.837	-98.462	-0.047	-0.012
-164.823	446.447	-0.172	0.372
-163.808	29.671	-0.171	-0.144
-162.793	-83.504	-0.341	-0.108
-161.779	68.882	0.185	0.187
-160.764	-150.221	0.130	-0.010
-159.750	4.360	-0.165	0.119
-158.735	-17.112	-0.237	0.147
-157.720	135.715	0.081	-0.104
-156.706	-27.003	0.251	0.144
-155.691	308.381	0.093	0.171
-154.677	24.666	0.098	-0.080
-153.662	128.757	-0.121	0.152
-152.647	800.000	0.090	0.299
-151.633	8.656	0.067	-0.049
-150.618	30.872	-0.088	-0.074
-149.604	73.536	0.114	0.117
-148.589	153.413	-0.220	0.297
-147.574	591.178	0.045	0.109
-146.560	-200.000	0.034	0.172
-145.545	800.000	0.120	-0.496
-144.531	-14.310	0.202	0.128
-143.516	331.284	-0.074	-0.141
-142.502	-31.654	-0.165	0.091
-141.487	687.283	0.107	-0.276
-140.472	-200.000	0.019	0.193
-139.458	-88.994	0.064	-0.019
-138.443	-137.198	-0.179	0.020
-137.429	4.587	0.177	0.128
-136.414	164.657	0.096	-0.133
-135.399	85.227	0.148	-0.160
-134.385	24.449	-0.225	0.183
-133.370	-200.000	0.048	0.271
-132.356	-5.932	0.113	0.076
-131.341	800.000	0.039	0.121
-130.326	168.901	-0.223	0.314
-129.312	-200.000	0.007	-0.247
-128.297	800.000	0.060	-0.257
-127.283	358.513	-0.094	0.185
-126.268	147.716	0.064	0.085
-125.253	-200.000	0.048	-0.255
-124.239	800.000	0.060	0.172
-123.224	800.000	-0.071	-0.241
-122.210	213.631	-0.126	0.197
-121.195	-200.000	0.021	0.338
-120.180	185.366	0.244	0.357
