DTS Sentinel unit serial number:	SN413079Multiplexer serial number:	ORYXHardware model number:	OX4-SRSoftware version number:	ORYX F/W v4.00 Oryx Data Collector v3.7.2.0data status	okinstallation	princeton_trtdifferential loss correction	single-endedforward channel	channel 2reverse channel	N/Adate	2019/09/13time	22:15:35forward acquisition time	60.00reverse acquisition time	0.00gamma	496.2192k internal	0.2336k external	0.2336temperature offset calibration	1.0134default loss term (dB/km)	0.3790temperature slope calibration	1.0000multiplexer offset coefficient	1.0000multiplexer slope coefficient	1.0000fibre end	0.00T internal ref (°C)	27.89T ext. ref 1 (°C)	3.24T ext. ref 2 (°C)	22.60length (m)	temperature (°C)	Stokes	anti-Stokes-747.200	800.000	0.059	-0.175
-746.185	800.000	-0.069	0.250
-745.171	-107.358	-0.293	0.065
-744.156	-200.000	0.015	0.212
-743.142	213.611	-0.048	-0.076
-742.127	-12.054	-0.210	-0.138
-741.112	58.471	0.094	-0.092
-740.098	-112.119	-0.402	-0.081
-739.083	151.255	-0.207	-0.283
-738.069	-52.380	-0.349	0.162
-737.054	-145.290	-0.259	0.024
-736.039	-32.496	-0.149	-0.084
-735.025	-43.461	-0.164	-0.083
-734.010	-71.251	0.251	-0.095
-732.996	-200.000	0.060	-0.357
-731.981	119.084	-0.231	-0.287
-730.966	-43.169	-0.278	-0.142
-729.952	-200.000	-0.015	-0.201
-728.937	37.816	0.067	-0.060
-727.923	-3.768	0.178	-0.124
-726.908	92.582	0.104	0.118
-725.894	-65.418	-0.459	-0.185
-724.879	459.522	0.097	-0.217
-723.864	-21.058	0.121	0.074
-722.850	-157.138	-0.307	-0.019
-721.835	-200.000	0.023	-0.114
-720.821	41.930	0.063	-0.057
-719.806	264.947	0.095	-0.167
-718.791	313.203	-0.076	-0.143
-717.777	33.770	-0.024	-0.021
-716.762	-78.674	0.223	-0.076
-715.748	493.341	0.058	0.133
-714.733	-147.836	0.061	0.005
-713.718	-122.539	-0.070	0.011
-712.704	73.920	-0.141	-0.148
-711.689	800.000	0.041	-0.127
-710.675	284.896	-0.137	-0.248
-709.660	-46.019	0.329	-0.163
-708.645	98.518	-0.023	-0.027
-707.631	-95.661	-0.181	0.049
-706.616	35.933	0.268	0.237
-705.602	-65.045	0.114	-0.046
-704.587	-108.823	-0.207	0.044
-703.572	-200.000	0.014	0.157
-702.558	86.265	0.022	0.024
-701.543	-84.276	0.281	-0.089
-700.529	23.866	0.049	-0.040
-699.514	-200.000	-0.017	-0.161
-698.499	-60.448	-0.295	-0.126
-697.485	-63.953	-0.431	0.177
-696.470	115.407	0.071	-0.087
-695.456	-59.129	0.161	0.070
-694.441	-80.511	-0.256	0.086
-693.426	-6.785	0.233	0.159
-692.412	660.359	-0.021	-0.055
-691.397	-52.240	-0.366	0.170
-690.383	76.985	-0.135	-0.143
-689.368	-94.746	0.437	0.119
-688.354	473.394	-0.083	-0.187
-687.339	800.000	-0.077	-0.271
-686.324	100.572	-0.146	0.170
-685.310	-5.365	-0.181	0.125
-684.295	-119.145	0.142	-0.025
-683.281	78.457	-0.074	0.079
-682.266	-145.502	-0.159	-0.014
-681.251	73.483	0.069	-0.073
-680.237	-92.578	-0.232	-0.065
-679.222	-110.671	0.137	-0.028
-678.208	-43.094	-0.094	0.048
-677.193	11.015	0.110	-0.084
-676.178	-200.000	-0.009	-0.247
-675.164	-16.605	-0.371	-0.236
-674.149	800.000	-0.083	-0.322
-673.135	56.328	-0.097	-0.095
-672.120	152.111	-0.220	-0.301
-671.105	-96.287	0.493	0.131
-670.091	-11.183	-0.095	-0.063
-669.076	800.000	0.077	-0.233
-668.062	219.287	-0.219	-0.350
-667.047	-25.759	0.188	-0.111
-666.032	800.000	0.072	-0.221
-665.018	-200.000	0.012	-0.101
-664.003	612.290	-0.108	0.271
-662.989	-200.000	-0.072	0.400
-661.974	-200.000	-0.013	0.202
-660.959	-84.518	-0.189	-0.060
-659.945	-200.000	-0.036	0.177
-658.930	-200.000	0.011	-0.129
-657.916	-47.531	0.266	0.129
-656.901	-200.000	0.018	-0.105
-655.886	800.000	-0.055	-0.181
-654.872	-200.000	-0.031	0.251
-653.857	-200.000	-0.017	-0.201
-652.843	-104.188	-0.124	-0.029
-651.828	-200.000	-0.058	0.451
-650.814	198.132	-0.194	-0.297
-649.799	83.137	0.118	-0.128
-648.784	-200.000	0.000	0.029
-647.770	-79.318	0.148	0.050
-646.755	-200.000	-0.004	-0.133
-645.741	379.599	-0.096	0.198
-644.726	-135.552	-0.255	0.030
-643.711	800.000	-0.065	-0.242
-642.697	-200.000	-0.046	0.255
-641.682	100.181	-0.038	-0.044
-640.668	75.799	0.161	0.171
-639.653	-37.182	0.099	-0.053
-638.638	-24.509	0.347	-0.207
-637.624	-156.171	-0.135	-0.008
-636.609	16.381	0.114	-0.090
-635.595	22.200	-0.170	-0.139
-634.580	5.698	0.074	0.055
-633.565	-80.212	0.222	-0.074
-632.551	-124.628	-0.248	-0.039
-631.536	18.250	0.334	-0.267
-630.522	259.288	-0.156	0.268
-629.507	-171.591	-0.232	0.008
-628.492	-98.289	0.340	-0.087
-627.478	155.929	0.178	-0.246
-626.463	-162.695	-0.080	0.004
-625.449	662.595	0.096	0.247
-624.434	-108.097	-0.120	-0.026
-623.419	273.691	-0.066	0.117
-622.405	177.979	0.266	0.387
-621.390	-95.353	0.114	-0.031
-620.376	-7.319	-0.310	-0.210
-619.361	-200.000	0.007	0.168
-618.346	399.078	-0.169	-0.353
-617.332	-200.000	-0.027	-0.181
-616.317	165.086	-0.107	-0.151
-615.303	-25.517	0.088	0.052
-614.288	520.299	0.018	-0.042
-613.273	4.393	0.088	0.064
-612.259	154.566	0.161	0.222
-611.244	185.085	0.122	0.181
-610.230	-99.631	-0.369	0.092
-609.215	-134.169	-0.265	-0.033
-608.201	800.000	-0.026	0.074
-607.186	-39.793	-0.198	-0.103
-606.171	-70.902	0.393	-0.148
-605.157	143.678	-0.079	-0.105
-604.142	117.804	-0.210	-0.258
-603.128	218.297	0.016	-0.025
-602.113	6.794	-0.287	0.213
-601.098	71.754	-0.080	-0.083
-600.084	-89.440	-0.164	-0.048
-599.069	-200.000	0.024	0.151
-598.055	63.219	0.075	0.075
-597.040	-15.889	-0.410	-0.261
-596.025	-45.628	0.247	-0.122
-595.011	247.403	-0.153	0.258
-593.996	42.855	0.239	-0.218
-592.982	599.716	-0.110	-0.272
-591.967	228.372	0.081	-0.132
-590.952	-131.936	-0.156	-0.020
-589.938	346.268	-0.074	0.144
-588.923	-163.382	0.494	0.024
-587.909	-35.901	-0.284	-0.154
-586.894	-200.000	0.033	0.176
-585.879	431.234	-0.120	0.260
-584.865	-130.497	0.301	0.041
-583.850	-100.569	0.156	-0.039
-582.836	532.741	-0.216	-0.510
-581.821	-137.735	0.241	-0.027
-580.806	-147.443	-0.377	0.032
-579.792	66.330	-0.305	-0.310
-578.777	-59.655	0.352	0.150
-577.763	-143.202	-0.321	-0.031
-576.748	62.214	0.264	0.263
-575.733	-74.216	0.219	0.079
-574.719	800.000	0.075	-0.294
-573.704	800.000	0.082	-0.295
-572.690	-56.910	-0.249	0.110
-571.675	107.071	-0.166	0.196
-570.661	-200.000	-0.018	-0.262
-569.646	-81.148	-0.253	0.084
-568.631	800.000	-0.043	-0.164
-567.617	-121.228	-0.182	0.030
-566.602	427.823	-0.131	0.282
-565.588	-17.034	0.237	-0.149
-564.573	15.076	0.167	0.130
-563.558	11.882	-0.140	0.107
-562.544	-94.270	-0.147	-0.040
-561.529	-47.363	0.153	-0.074
-560.515	-58.710	0.123	0.053
-559.500	24.425	0.080	0.066
-558.485	151.920	-0.051	-0.070
-557.471	128.834	0.048	-0.061
-556.456	800.000	0.084	-0.263
-555.442	-110.161	0.087	-0.018
-554.427	568.848	0.096	-0.233
-553.412	285.467	-0.012	0.022
-552.398	-200.000	-0.026	0.168
-551.383	800.000	0.013	0.042
-550.369	-200.000	0.185	0.000
-549.354	283.925	0.192	0.345
-548.339	193.309	-0.067	-0.101
-547.325	-200.000	0.026	-0.141
-546.310	677.796	0.052	0.135
-545.296	800.000	-0.019	-0.052
-544.281	749.777	0.097	-0.260
-543.266	-46.650	0.230	0.112
-542.252	-93.554	0.304	-0.084
-541.237	-200.000	0.027	0.158
-540.223	800.000	-0.078	0.219
-539.208	-200.000	0.001	-0.204
-538.193	762.081	-0.046	-0.124
-537.179	48.809	-0.124	-0.116
-536.164	777.421	0.128	0.349
-535.150	800.000	0.027	0.117
-534.135	-200.000	-0.044	-0.200
-533.121	56.943	0.320	-0.311
-532.106	265.984	0.019	0.034
-531.091	-67.629	0.104	0.041
-530.077	800.000	-0.057	-0.216
-529.062	-200.000	0.032	0.253
-528.048	800.000	-0.094	0.272
-527.033	379.651	0.229	0.467
-526.018	-139.883	-0.311	-0.033
-525.004	42.222	0.043	0.039
-523.989	-200.000	-0.003	0.060
-522.975	-200.000	-0.002	-0.193
-521.960	-187.542	-0.305	-0.004
-520.945	433.796	-0.109	0.237
-519.931	220.216	0.080	0.128
-518.916	132.604	0.129	-0.165
-517.902	-20.365	-0.205	-0.126
-516.887	-13.075	-0.408	-0.264
-515.872	127.776	0.046	-0.059
-514.858	568.493	-0.097	0.235
-513.843	145.427	0.101	-0.134
-512.829	523.252	-0.033	-0.076
-511.814	119.748	0.166	0.205
-510.799	-49.404	-0.343	-0.163
-509.785	-64.780	-0.190	0.076
-508.770	-37.795	-0.136	-0.072
-507.756	-119.064	-0.224	-0.039
-506.741	-200.000	0.001	0.150
-505.726	-76.728	-0.193	0.067
-504.712	-10.963	0.181	-0.119
-503.697	-59.395	0.270	0.116
-502.683	-200.000	-0.012	-0.152
-501.668	-200.000	-0.048	0.482
-500.653	800.000	-0.047	-0.163
-499.639	-121.931	0.153	-0.025
-498.624	-200.000	0.009	0.139
-497.610	-120.585	-0.359	-0.061
-496.595	-74.753	-0.137	0.049
-495.581	294.717	-0.147	-0.268
-494.566	-82.292	0.273	0.088
-493.551	62.369	0.089	-0.089
-492.537	-56.892	0.176	-0.078
-491.522	-200.000	-0.014	0.349
-490.508	800.000	0.045	-0.158
-489.493	-157.123	0.206	-0.012
-488.478	210.036	-0.105	-0.165
-487.464	800.000	0.030	-0.115
-486.449	-114.738	-0.198	-0.038
-485.435	800.000	0.077	0.242
-484.420	-127.786	-0.213	-0.031
-483.405	-200.000	-0.075	0.441
-482.391	16.769	-0.261	-0.205
-481.376	80.569	-0.412	-0.441
-480.362	800.000	0.019	-0.067
-479.347	-142.454	0.237	-0.023
-478.332	139.007	0.138	-0.180
-477.318	-131.520	0.008	0.001
-476.303	-13.328	-0.161	-0.104
-475.289	-155.545	0.187	0.012
-474.274	58.442	-0.063	-0.061
-473.259	-126.525	0.300	0.044
-472.245	-83.394	0.201	0.064
-471.230	-133.047	-0.159	-0.020
-470.216	-11.926	0.090	-0.059
-469.201	-200.000	0.009	0.148
-468.186	-155.383	-0.240	0.015
-467.172	181.328	-0.220	-0.321
-466.157	-200.000	-0.065	0.332
-465.143	-200.000	-0.054	0.243
-464.128	-35.307	-0.162	-0.087
-463.113	-63.641	0.098	0.040
-462.099	-137.617	-0.393	-0.044
-461.084	289.579	0.091	-0.164
-460.070	-200.000	0.043	-0.271
-459.055	-14.228	0.052	0.033
-458.040	52.817	-0.094	0.089
-457.026	-62.988	0.257	-0.105
-456.011	-200.000	0.294	0.001
-454.997	-75.750	-0.115	-0.041
-453.982	-71.094	0.097	-0.036
-452.968	210.216	0.113	0.176
-451.953	-69.154	0.028	0.011
-450.938	-200.000	-0.003	-0.162
-449.924	33.670	0.068	-0.059
-448.909	-200.000	-0.023	-0.142
-447.895	478.193	0.022	-0.050
-446.880	-58.805	-0.204	0.087
-445.865	800.000	-0.045	-0.173
-444.851	-200.000	0.033	0.196
-443.836	78.093	-0.163	0.173
-442.822	-200.000	0.026	0.162
-441.807	800.000	-0.018	-0.075
-440.792	98.851	0.099	-0.113
-439.778	-200.000	0.043	0.574
-438.763	-181.446	-0.002	0.000
-437.749	-200.000	0.028	-0.152
-436.734	227.441	-0.203	-0.328
-435.719	-78.331	0.365	0.124
-434.705	-200.000	0.026	0.254
-433.690	461.718	-0.074	0.165
-432.676	409.973	-0.030	0.062
-431.661	-110.460	0.472	0.097
-430.646	-128.144	-0.261	0.037
-429.632	800.000	0.031	0.109
-428.617	-111.354	-0.111	0.023
-427.603	22.142	-0.223	-0.180
-426.588	800.000	-0.086	-0.316
-425.573	800.000	-0.019	0.081
-424.559	-6.638	-0.203	-0.137
-423.544	152.959	0.085	0.115
-422.530	-24.705	-0.177	0.105
-421.515	-200.000	0.010	-0.265
-420.500	151.063	0.172	-0.233
-419.486	1.048	-0.183	-0.130
-418.471	800.000	0.015	-0.056
-417.457	-80.630	-0.306	-0.101
-416.442	-135.983	-0.059	-0.007
-415.428	800.000	0.002	-0.008
-414.413	-99.073	0.178	-0.045
-413.398	123.569	0.486	0.605
-412.384	-200.000	0.005	-0.116
-411.369	284.206	-0.173	0.308
-410.355	-50.789	-0.042	-0.020
-409.340	-139.435	0.170	-0.018
-408.325	-159.154	0.140	0.008
-407.311	800.000	-0.017	0.062
-406.296	-160.803	0.252	-0.013
-405.282	383.709	-0.106	0.216
-404.267	-200.000	-0.019	0.278
-403.252	-138.953	0.271	-0.029
-402.238	58.414	0.084	0.082
-401.223	-129.589	-0.202	-0.028
-400.209	-1.029	0.280	-0.196
-399.194	-20.450	-0.028	0.017
-398.179	-64.297	0.030	-0.012
-397.165	76.811	0.168	0.177
-396.150	671.122	0.054	0.138
-395.136	206.256	0.150	-0.231
-394.121	121.217	-0.210	-0.259
-393.106	147.326	0.184	0.245
-392.092	-200.000	-0.044	0.419
-391.077	-200.000	0.013	0.163
-390.063	201.004	-0.054	-0.083
-389.048	-84.239	0.190	-0.060
-388.033	-200.000	-0.008	0.129
-387.019	-200.000	0.041	-0.259
-386.004	20.398	0.107	-0.086
-384.990	-200.000	-0.030	0.262
-383.975	-200.000	0.012	0.327
-382.960	800.000	-0.072	0.202
-381.946	-200.000	-0.088	0.454
-380.931	-10.931	0.130	-0.085
-379.917	-84.315	0.220	-0.069
-378.902	800.000	0.089	-0.382
-377.888	-83.414	0.088	-0.028
-376.873	431.289	-0.146	0.314
-375.858	137.778	0.177	0.229
-374.844	12.800	-0.203	-0.156
-373.829	-44.744	-0.113	-0.056
-372.815	-200.000	-0.033	0.206
-371.800	-41.158	-0.552	-0.282
-370.785	798.595	0.089	-0.242
-369.771	347.509	-0.047	-0.092
-368.756	-90.788	-0.157	0.045
-367.742	230.012	0.149	0.241
-366.727	800.000	-0.030	0.092
-365.712	68.444	0.126	0.128
-364.698	48.972	-0.074	-0.069
-363.683	150.302	-0.195	-0.261
-362.669	-200.000	-0.013	0.060
-361.654	-34.232	0.187	0.101
-360.639	28.849	-0.247	0.207
-359.625	273.473	-0.048	0.083
-358.610	-200.000	-0.000	0.153
-357.596	-127.618	0.236	0.034
-356.581	-200.000	-0.050	-0.364
-355.566	70.172	0.071	0.073
-354.552	-200.000	0.043	0.209
-353.537	-121.351	0.167	-0.027
-352.523	132.329	-0.121	0.155
-351.508	247.384	0.163	0.272
-350.493	-116.921	0.176	-0.032
-349.479	260.727	-0.062	0.106
-348.464	-136.071	-0.224	0.026
-347.450	2.040	0.240	0.172
-346.435	-200.000	0.005	-0.073
-345.420	-91.725	0.105	0.030
-344.406	-141.079	0.522	0.053
-343.391	47.016	0.083	0.076
-342.377	-148.669	0.160	-0.013
-341.362	800.000	-0.064	0.272
-340.348	-200.000	0.021	0.118
-339.333	10.590	-0.154	-0.116
-338.318	278.170	-0.155	-0.273
-337.304	800.000	-0.027	-0.077
-336.289	-109.965	-0.175	-0.036
-335.275	169.641	-0.146	0.206
-334.260	-35.668	-0.433	-0.232
-333.245	17.394	-0.136	0.107
-332.231	800.000	0.048	-0.185
-331.216	556.725	-0.089	-0.211
-330.202	-200.000	0.049	0.290
-329.187	8.574	-0.270	-0.201
-328.172	70.537	0.145	0.148
-327.158	-79.326	-0.132	0.044
-326.143	-63.352	0.123	0.050
-325.129	800.000	-0.107	0.367
-324.114	-115.734	-0.274	0.051
-323.099	-37.265	0.111	0.058
-322.085	800.000	-0.059	0.192
-321.070	-101.489	-0.126	-0.030
-320.056	147.384	0.033	-0.044
-319.041	178.634	0.077	0.111
-318.026	-110.001	0.271	0.056
-317.012	-80.714	0.127	-0.042
-315.997	-200.000	-0.016	0.225
-314.983	-18.549	0.120	0.074
-313.968	-101.354	-0.073	0.018
-312.953	-200.000	0.032	0.286
-311.939	-16.708	-0.533	0.333
-310.924	31.335	0.142	-0.120
-309.910	-200.000	0.004	0.269
-308.895	-163.080	-0.119	-0.006
-307.880	180.641	0.095	0.138
-306.866	341.732	-0.126	-0.243
-305.851	0.658	0.218	0.154
-304.837	6.365	-0.080	0.059
-303.822	-200.000	0.006	0.224
-302.807	87.731	0.120	-0.131
-301.793	-200.000	-0.035	-0.521
-300.778	412.603	0.110	-0.230
-299.764	-128.088	0.445	-0.063
-298.749	105.840	-0.308	-0.360
-297.735	-35.140	0.163	0.088
-296.720	-11.104	-0.175	-0.114
-295.705	89.272	-0.185	-0.203
-294.691	270.882	0.111	-0.193
-293.676	-15.246	-0.036	0.023
-292.662	51.058	-0.034	0.032
-291.647	54.152	0.095	0.091
-290.632	-75.643	-0.179	-0.063
-289.618	234.853	-0.078	-0.126
-288.603	-64.718	0.224	0.089
-287.589	-65.299	-0.189	0.075
-286.574	309.014	0.133	-0.245
-285.559	-175.497	0.112	0.003
-284.545	800.000	-0.078	0.212
-283.530	-65.132	0.114	0.045
-282.516	-51.211	0.424	0.196
-281.501	800.000	-0.123	-0.350
-280.486	-200.000	0.015	0.123
-279.472	-20.283	0.231	0.140
-278.457	11.672	-0.217	-0.164
-277.443	57.966	0.291	0.281
-276.428	8.905	-0.110	-0.082
-275.413	800.000	-0.029	-0.114
-274.399	21.687	-0.183	-0.147
-273.384	-37.211	0.161	0.085
-272.370	45.043	-0.155	0.141
-271.355	20.850	-0.121	-0.097
-270.340	-104.627	-0.286	0.065
-269.326	195.941	-0.064	0.097
-268.311	503.925	-0.167	-0.381
-267.297	-200.000	0.029	-0.403
-266.282	-13.716	-0.153	0.098
-265.267	14.174	0.217	0.167
-264.253	-134.352	-0.230	0.028
-263.238	-18.482	0.171	-0.105
-262.224	-200.000	-0.059	-0.431
-261.209	352.439	0.059	0.115
-260.195	-54.644	0.201	-0.089
-259.180	2.095	0.165	-0.117
-258.165	-200.000	0.005	0.179
-257.151	-110.561	-0.314	-0.064
-256.136	-102.364	-0.283	-0.067
-255.122	-15.262	-0.222	-0.140
-254.107	-68.950	-0.165	-0.063
-253.092	-155.078	0.129	0.008
-252.078	-200.000	0.023	0.404
-251.063	9.223	0.143	0.106
-250.049	299.179	0.119	0.216
-249.034	-200.000	-0.085	0.000
-248.019	-94.392	-0.484	0.130
-247.005	348.746	-0.208	0.404
-245.990	-144.515	-0.017	-0.002
-244.976	-86.003	0.240	0.073
-243.961	-200.000	0.075	-0.397
-242.946	-63.257	0.137	0.056
-241.932	-47.234	0.232	-0.111
-240.917	87.152	-0.118	-0.128
-239.903	364.956	-0.030	0.059
-238.888	95.292	0.051	-0.057
-237.873	-80.953	0.061	-0.020
-236.859	-32.933	-0.317	-0.173
-235.844	-85.699	0.193	0.059
-234.830	-74.674	0.364	0.129
-233.815	800.000	0.124	-0.356
-232.800	47.207	-0.118	-0.108
-231.786	-200.000	0.054	-0.280
-230.771	-184.326	-0.122	0.002
-229.757	266.705	0.056	0.097
-228.742	145.035	-0.068	0.089
-227.727	-16.573	-0.114	-0.071
-226.713	356.034	0.090	0.177
-225.698	-18.867	-0.241	-0.148
-224.684	-139.361	0.359	-0.038
-223.669	-104.739	0.390	-0.088
-222.655	800.000	0.011	0.037
-221.640	-34.204	0.077	0.042
-220.625	-200.000	-0.016	-0.212
-219.611	117.654	-0.093	0.112
-218.596	53.309	-0.114	0.108
-217.582	62.549	0.289	0.284
-216.567	-0.356	-0.082	-0.057
-215.552	-63.218	0.297	-0.120
-214.538	-169.403	-0.383	0.014
-213.523	81.956	-0.204	-0.218
-212.509	-15.506	-0.207	-0.130
-211.494	102.920	0.067	0.077
-210.479	-200.000	-0.016	-0.168
-209.465	-26.981	0.148	-0.085
-208.450	227.574	-0.220	-0.353
-207.436	494.634	0.065	-0.147
-206.421	48.861	-0.158	0.146
-205.406	-177.630	0.228	0.005
-204.392	800.000	0.057	-0.239
-203.377	-119.030	0.303	-0.052
-202.363	-20.085	0.120	-0.073
-201.348	417.025	0.106	0.222
-200.333	134.951	0.108	0.138
-199.319	-200.000	-0.002	-0.013
-198.304	-84.281	-0.421	-0.131
-197.290	-64.368	-0.195	-0.078
-196.275	-41.239	0.199	0.101
-195.260	-200.000	0.024	-0.126
-194.246	163.078	-0.044	0.060
-193.231	301.227	0.118	0.215
-192.217	276.292	0.223	-0.389
-191.202	-4.795	0.170	0.115
-190.187	-135.022	0.231	-0.027
-189.173	-55.277	0.139	-0.062
-188.158	56.785	0.102	0.098
-187.144	800.000	0.085	0.329
-186.129	299.235	-0.138	0.250
-185.114	-200.000	-0.004	-0.210
-184.100	-6.777	0.036	0.024
-183.085	197.791	-0.171	-0.256
-182.071	16.685	0.251	-0.195
-181.056	54.624	-0.132	0.125
-180.042	-200.000	0.084	0.369
-179.027	22.785	0.175	0.141
-178.012	76.156	-0.098	-0.102
-176.998	-60.938	-0.256	0.106
-175.983	-56.227	0.158	0.069
-174.969	-176.630	-0.316	0.008
-173.954	-122.116	-0.132	-0.021
-172.939	752.888	-0.070	0.186
-171.925	-60.135	0.311	-0.130
-170.910	-61.026	-0.142	-0.059
-169.896	-200.000	0.050	-0.244
-168.881	-149.690	-0.028	0.002
-167.866	1.722	-0.145	-0.102
-166.852	-0.156	0.162	-0.113
-165.837	11.654	-0.312	-0.235
-164.823	800.000	0.085	0.251
-163.808	-61.316	-0.237	-0.098
-162.793	-159.687	0.105	-0.006
-161.779	30.318	0.065	0.054
-160.764	35.879	-0.025	0.021
-159.750	296.901	0.248	-0.446
-158.735	-112.580	-0.170	0.033
-157.720	126.437	0.128	0.158
-156.706	22.435	0.080	0.064
-155.691	238.583	-0.147	-0.239
-154.677	-13.087	-0.060	-0.038
-153.662	16.203	0.180	0.139
-152.647	-120.580	0.388	0.064
-151.633	13.181	-0.333	0.253
-150.618	-9.518	-0.245	-0.161
-149.604	201.432	-0.098	0.148
-148.589	-200.000	0.003	-0.303
-147.574	221.921	-0.003	-0.004
-146.560	11.990	-0.085	-0.064
-145.545	-151.639	-0.234	0.017
-144.531	3.274	-0.140	-0.100
-143.516	-200.000	0.017	0.082
-142.502	-33.113	0.191	-0.104
-141.487	-64.472	0.026	0.010
-140.472	-58.829	-0.137	-0.058
-139.458	-56.439	-0.129	0.056
-138.443	-74.474	0.235	-0.083
-137.429	-158.210	0.179	0.010
-136.414	-200.000	-0.007	-0.278
-135.399	800.000	-0.042	-0.159
-134.385	9.511	0.355	0.264
-133.370	60.450	-0.130	-0.126
-132.356	18.324	0.037	0.029
-131.341	-19.326	0.111	0.067
-130.326	-127.292	0.412	0.059
-129.312	173.218	0.045	-0.064
-128.297	-120.886	-0.178	0.029
-127.283	181.895	0.078	-0.112
-126.268	-170.910	-0.176	0.006
-125.253	116.982	-0.118	0.142
-124.239	-20.262	0.127	-0.077
-123.224	13.435	0.194	-0.147
-122.210	5.179	-0.092	-0.066
-121.195	-142.181	-0.164	0.016
