DTS Sentinel unit serial number:	SN413079Multiplexer serial number:	ORYXHardware model number:	OX4-SRSoftware version number:	ORYX F/W v4.00 Oryx Data Collector v3.7.2.0data status	okinstallation	princeton_trtdifferential loss correction	single-endedforward channel	channel 2reverse channel	N/Adate	2019/09/14time	01:03:35forward acquisition time	60.00reverse acquisition time	0.00gamma	496.2192k internal	0.2338k external	0.2338temperature offset calibration	1.0126default loss term (dB/km)	0.3790temperature slope calibration	1.0000multiplexer offset coefficient	1.0000multiplexer slope coefficient	1.0000fibre end	0.00T internal ref (°C)	26.37T ext. ref 1 (°C)	3.18T ext. ref 2 (°C)	21.39length (m)	temperature (°C)	Stokes	anti-Stokes-747.200	800.000	0.039	-0.149
-746.185	-83.720	-0.654	0.210
-745.171	222.516	-0.162	0.261
-744.156	-200.000	-0.074	0.410
-743.142	-138.664	0.174	-0.019
-742.127	800.000	0.095	0.312
-741.112	-71.726	-0.281	-0.105
-740.098	800.000	0.114	-0.426
-739.083	29.178	-0.193	0.164
-738.069	-96.877	-0.024	-0.006
-737.054	800.000	-0.050	-0.181
-736.039	303.525	-0.100	-0.186
-735.025	-113.717	0.403	0.079
-734.010	34.982	-0.151	0.133
-732.996	347.226	-0.200	-0.394
-731.981	800.000	0.102	0.310
-730.966	-105.625	-0.144	0.033
-729.952	-200.000	0.029	0.184
-728.937	86.702	0.231	-0.255
-727.923	385.824	0.112	0.231
-726.908	-200.000	-0.029	-0.218
-725.894	-34.115	0.216	-0.119
-724.879	330.317	-0.063	-0.123
-723.864	143.271	-0.121	0.161
-722.850	49.139	0.208	0.196
-721.835	-200.000	-0.049	0.258
-720.821	-200.000	0.003	0.295
-719.806	-62.711	-0.088	0.037
-718.791	58.601	0.114	-0.112
-717.777	48.556	-0.135	0.127
-716.762	257.551	-0.133	0.229
-715.748	-200.000	-0.002	-0.172
-714.733	104.301	-0.160	0.188
-713.718	800.000	-0.077	-0.234
-712.704	-164.381	0.272	0.012
-711.689	-200.000	-0.012	0.082
-710.675	55.749	0.196	-0.191
-709.660	-200.000	-0.016	-0.230
-708.645	-200.000	0.020	-0.135
-707.631	-1.291	0.198	-0.140
-706.616	-101.479	-0.161	-0.039
-705.602	-133.570	-0.156	0.020
-704.587	-25.263	-0.198	-0.117
-703.572	-129.029	-0.205	-0.029
-702.558	-67.091	0.207	-0.082
-701.543	-55.165	-0.199	-0.090
-700.529	29.064	-0.062	0.053
-699.514	800.000	0.086	-0.298
-698.499	796.974	-0.065	0.179
-697.485	-100.143	-0.117	-0.029
-696.470	124.266	-0.161	0.203
-695.456	40.398	0.126	-0.113
-694.441	-200.000	-0.013	0.059
-693.426	-126.295	-0.065	-0.010
-692.412	-103.393	0.233	0.055
-691.397	164.059	-0.213	0.301
-690.383	-75.379	-0.222	0.079
-689.368	-200.000	-0.011	-0.096
-688.354	-101.635	0.045	0.011
-687.339	800.000	0.098	0.356
-686.324	264.573	-0.157	0.274
-685.310	-11.982	-0.247	-0.162
-684.295	235.688	0.035	0.058
-683.281	800.000	-0.088	-0.281
-682.266	18.082	-0.167	-0.133
-681.251	-200.000	-0.006	0.392
-680.237	-82.978	-0.187	0.060
-679.222	250.701	0.199	0.339
-678.208	-200.000	-0.009	0.056
-677.193	12.090	-0.249	-0.192
-676.178	354.709	-0.138	0.275
-675.164	454.761	-0.139	0.307
-674.149	102.551	0.129	-0.151
-673.135	-64.174	-0.073	-0.030
-672.120	-181.332	-0.346	-0.007
-671.105	281.291	0.069	-0.124
-670.091	-80.313	-0.088	0.029
-669.076	-62.034	0.012	0.005
-668.062	78.423	-0.095	-0.102
-667.047	85.979	0.015	0.016
-666.032	3.690	-0.288	0.210
-665.018	-200.000	-0.010	0.230
-664.003	249.183	0.107	-0.182
-662.989	-137.900	0.205	-0.023
-661.974	13.020	0.154	-0.119
-660.959	-2.683	-0.203	0.142
-659.945	21.806	-0.171	0.139
-658.930	-200.000	-0.010	0.142
-657.916	658.898	-0.139	-0.357
-656.901	-7.816	0.186	-0.125
-655.886	-47.263	-0.057	0.028
-654.872	800.000	0.041	-0.171
-653.857	-200.000	0.018	-0.179
-652.843	-7.710	-0.162	-0.109
-651.828	24.274	-0.037	-0.031
-650.814	-85.467	0.243	-0.076
-649.799	-91.609	-0.181	-0.051
-648.784	-81.287	-0.204	-0.067
-647.770	800.000	0.015	0.063
-646.755	129.302	-0.115	0.147
-645.741	800.000	-0.125	-0.451
-644.726	-200.000	-0.014	0.280
-643.711	800.000	-0.086	-0.303
-642.697	674.115	0.052	-0.135
-641.682	-200.000	0.004	0.079
-640.668	546.365	-0.100	0.239
-639.653	-75.929	0.252	-0.089
-638.638	-200.000	-0.021	0.160
-637.624	-55.052	0.219	-0.099
-636.609	-200.000	0.001	0.054
-635.595	679.429	0.101	-0.264
-634.580	3.219	-0.122	-0.088
-633.565	-160.367	0.235	-0.013
-632.551	800.000	0.037	-0.161
-631.536	-15.115	-0.273	-0.175
-630.522	633.973	-0.086	-0.219
-629.507	-163.245	-0.424	0.020
-628.492	210.332	-0.038	-0.059
-627.478	-200.000	-0.020	0.194
-626.463	-5.364	-0.084	0.058
-625.449	12.392	-0.204	0.157
-624.434	-200.000	0.047	-0.253
-623.419	800.000	0.024	-0.080
-622.405	612.406	-0.027	0.067
-621.390	-200.000	-0.027	0.185
-620.376	-200.000	0.020	0.271
-619.361	545.682	0.151	0.359
-618.346	-107.217	0.132	-0.029
-617.332	56.742	0.192	0.187
-616.317	252.371	-0.081	0.138
-615.303	800.000	-0.064	-0.184
-614.288	-45.683	0.146	0.072
-613.273	-200.000	-0.023	-0.339
-612.259	305.053	-0.046	0.086
-611.244	483.585	-0.035	-0.080
-610.230	-200.000	-0.011	-0.150
-609.215	254.118	0.241	-0.412
-608.201	800.000	0.016	-0.045
-607.186	-13.235	-0.101	0.066
-606.171	389.060	0.095	0.197
-605.157	124.080	-0.311	0.390
-604.142	-32.821	-0.078	0.043
-603.128	-28.656	-0.063	0.036
-602.113	337.743	-0.028	-0.054
-601.098	-92.753	-0.084	-0.023
-600.084	-69.656	-0.096	0.037
-599.069	800.000	-0.074	0.302
-598.055	110.031	0.045	0.054
-597.040	-200.000	0.018	0.161
-596.025	-38.084	-0.247	-0.131
-595.011	-200.000	0.109	0.487
-593.996	-77.513	-0.145	0.050
-592.982	-121.263	-0.255	-0.042
-591.967	-106.648	0.218	0.048
-590.952	-66.537	0.135	-0.053
-589.938	-116.551	-0.110	-0.020
-588.923	684.553	0.086	-0.224
-587.909	17.896	0.179	-0.142
-586.894	667.822	-0.129	-0.334
-585.879	-84.722	0.512	0.161
-584.865	-50.406	-0.290	0.137
-583.850	-200.000	0.002	0.024
-582.836	-62.028	0.158	-0.066
-581.821	58.885	-0.273	0.268
-580.806	340.736	-0.197	0.384
-579.792	-200.000	-0.024	-0.194
-578.777	-200.000	-0.071	-0.564
-577.763	360.323	0.152	-0.304
-576.748	-110.317	0.301	-0.062
-575.733	-37.822	0.119	0.063
-574.719	-169.618	0.287	-0.010
-573.704	97.956	0.133	-0.152
-572.690	800.000	0.164	-0.613
-571.675	87.813	-0.070	0.078
-570.661	8.593	0.081	-0.061
-569.646	800.000	-0.055	-0.163
-568.631	110.714	0.012	-0.014
-567.617	-78.715	0.293	-0.100
-566.602	202.526	-0.107	-0.165
-565.588	195.587	0.121	-0.183
-564.573	-64.405	0.108	-0.044
-563.558	800.000	0.088	-0.369
-562.544	800.000	0.032	0.135
-561.529	-23.905	-0.194	0.115
-560.515	-200.000	-0.005	0.263
-559.500	52.550	-0.126	0.120
-558.485	14.780	0.176	-0.137
-557.471	-200.000	0.047	0.419
-556.456	173.513	-0.153	0.219
-555.442	-200.000	0.062	-0.273
-554.427	33.351	-0.129	-0.112
-553.412	140.185	-0.116	-0.153
-552.398	800.000	-0.029	-0.107
-551.383	98.165	-0.114	-0.131
-550.369	800.000	-0.039	0.168
-549.354	-25.053	-0.290	-0.171
-548.339	-200.000	-0.033	-0.143
-547.325	110.163	0.157	-0.188
-546.310	-200.000	-0.037	0.201
-545.296	684.724	0.101	-0.262
-544.281	-115.353	-0.257	-0.048
-543.266	-24.404	-0.138	0.082
-542.252	-20.847	-0.068	-0.042
-541.237	1.235	-0.172	0.123
-540.223	475.163	-0.052	-0.116
-539.208	-120.366	0.313	-0.053
-538.193	800.000	-0.106	-0.346
-537.179	-93.205	0.089	-0.025
-536.164	-7.141	0.055	0.037
-535.150	163.762	0.146	0.205
-534.135	123.260	0.115	0.144
-533.121	77.110	0.048	-0.050
-532.106	445.333	0.058	-0.127
-531.091	108.565	-0.165	-0.197
-530.077	205.655	0.136	-0.211
-529.062	-200.000	-0.023	-0.265
-528.048	-200.000	0.027	-0.315
-527.033	-31.682	0.208	-0.116
-526.018	303.908	0.173	-0.320
-525.004	-44.387	-0.187	0.093
-523.989	-153.478	-0.239	0.016
-522.975	-115.438	-0.103	0.019
-521.960	800.000	-0.095	0.343
-520.945	-117.207	-0.187	0.034
-519.931	-84.524	0.191	-0.060
-518.916	-125.476	0.404	-0.061
-517.902	-78.560	-0.264	0.090
-516.887	800.000	0.076	-0.268
-515.872	-62.722	0.136	-0.056
-514.858	-64.760	-0.294	-0.119
-513.843	-107.387	-0.107	-0.023
-512.829	-200.000	-0.027	0.150
-511.814	-43.012	-0.105	-0.053
-510.799	190.811	0.089	0.133
-509.785	-34.530	-0.243	0.132
-508.770	-200.000	-0.001	0.440
-507.756	-91.565	0.202	0.057
-506.741	287.330	-0.049	-0.088
-505.726	277.218	0.074	-0.131
-504.712	-23.539	-0.200	0.119
-503.697	-200.000	0.039	-0.182
-502.683	-98.578	0.235	0.060
-501.668	-28.713	-0.114	-0.065
-500.653	-109.260	0.245	0.052
-499.639	-200.000	0.004	0.028
-498.624	-91.699	-0.188	0.053
-497.610	123.345	-0.260	-0.324
-496.595	39.948	-0.173	0.154
-495.581	-200.000	0.004	-0.059
-494.566	588.137	-0.027	-0.067
-493.551	32.760	0.031	0.027
-492.537	-200.000	0.006	-0.118
-491.522	-175.055	-0.402	-0.011
-490.508	-63.741	0.153	-0.062
-489.493	-200.000	0.016	0.198
-488.478	-2.699	0.146	0.102
-487.464	-200.000	-0.047	0.465
-486.449	556.262	-0.153	0.365
-485.435	128.662	0.299	0.378
-484.420	-88.627	-0.471	-0.139
-483.405	15.129	0.213	-0.166
-482.391	97.015	-0.142	0.161
-481.376	-69.582	-0.266	-0.101
-480.362	-117.646	-0.318	0.057
-479.347	67.836	0.095	0.096
-478.332	-85.221	0.149	-0.046
-477.318	379.745	0.101	0.206
-476.303	-181.808	-0.224	0.004
-475.289	-61.838	-0.277	0.115
-474.274	158.879	0.186	-0.256
-473.259	0.450	-0.416	-0.295
-472.245	800.000	0.100	0.368
-471.230	800.000	0.129	-0.368
-470.216	29.334	-0.149	-0.125
-469.201	427.973	-0.058	-0.125
-468.186	188.192	0.067	0.100
-467.172	-200.000	-0.004	-0.153
-466.157	320.124	0.059	-0.112
-465.143	158.570	-0.219	0.302
-464.128	-200.000	0.055	0.322
-463.113	-83.541	-0.044	0.014
-462.099	-35.215	-0.098	0.053
-461.084	-200.000	0.033	-0.250
-460.070	-85.449	0.021	0.007
-459.055	-200.000	0.044	0.219
-458.040	-28.113	0.371	0.213
-457.026	315.476	-0.092	0.172
-456.011	153.860	0.147	-0.200
-454.997	222.294	-0.117	-0.187
-453.982	317.565	-0.203	-0.382
-452.968	100.232	0.135	0.155
-451.953	205.221	0.022	0.034
-450.938	-103.691	-0.258	-0.060
-449.924	84.876	0.146	-0.158
-448.909	-11.700	-0.110	0.071
-447.895	2.133	0.212	-0.152
-446.880	-39.947	-0.225	-0.116
-445.865	-80.894	0.096	0.032
-444.851	47.930	-0.292	-0.271
-443.836	566.273	0.052	-0.126
-442.822	94.506	0.075	-0.084
-441.807	-149.097	0.332	-0.026
-440.792	141.266	0.080	-0.105
-439.778	166.490	-0.053	0.074
-438.763	-160.397	0.462	0.025
-437.749	8.202	0.295	-0.220
-436.734	111.479	-0.237	0.283
-435.719	169.472	0.054	-0.076
-434.705	393.429	0.063	-0.129
-433.690	-200.000	0.059	0.553
-432.676	-50.587	0.186	-0.087
-431.661	22.316	0.080	0.064
-430.646	364.488	-0.153	-0.305
-429.632	367.796	-0.112	-0.225
-428.617	121.527	0.164	-0.202
-427.603	-143.822	0.112	0.010
-426.588	800.000	0.096	-0.370
-425.573	577.937	-0.068	0.164
-424.559	-200.000	0.113	-0.554
-423.544	-29.649	0.193	-0.109
-422.530	762.067	0.089	-0.240
-421.515	-135.611	0.378	0.044
-420.500	203.302	-0.104	0.160
-419.486	800.000	0.036	-0.103
-418.471	-72.192	0.403	-0.148
-417.457	-172.394	0.279	-0.009
-416.442	265.822	0.058	0.099
-415.428	-117.239	-0.178	-0.032
-414.413	-44.744	0.131	-0.065
-413.398	4.047	0.183	0.132
-412.384	-85.581	-0.103	0.032
-411.369	-43.635	-0.245	-0.123
-410.355	-200.000	-0.014	0.087
-409.340	-153.545	-0.229	0.016
-408.325	686.573	-0.049	0.126
-407.311	-28.013	-0.201	0.115
-406.296	-164.832	0.260	-0.012
-405.282	658.002	-0.109	-0.278
-404.267	800.000	-0.046	-0.160
-403.252	-84.268	-0.228	0.071
-402.238	-59.968	-0.050	0.021
-401.223	-130.679	0.375	-0.050
-400.209	800.000	-0.103	0.301
-399.194	8.855	0.145	0.108
-398.179	-200.000	0.022	0.137
-397.165	326.969	0.117	0.221
-396.150	-14.127	0.094	0.060
-395.136	-200.000	0.051	-0.353
-394.121	93.947	-0.045	-0.051
-393.106	800.000	-0.157	-0.545
-392.092	-1.029	-0.123	0.086
-391.077	742.304	-0.060	-0.159
-390.063	800.000	0.085	-0.243
-389.048	117.540	0.155	0.189
-388.033	-85.941	0.094	-0.029
-387.019	18.698	-0.248	0.196
-386.004	-6.831	0.135	0.091
-384.990	-21.212	0.103	-0.062
-383.975	366.079	0.061	-0.123
-382.960	800.000	-0.056	0.169
-381.946	800.000	0.137	0.478
-380.931	287.252	-0.055	0.098
-379.917	-95.961	-0.342	0.090
-378.902	-11.000	-0.144	0.094
-377.888	44.464	0.205	0.186
-376.873	-128.410	-0.221	-0.031
-375.858	94.491	0.116	0.130
-374.844	157.686	-0.111	0.151
-373.829	104.629	-0.160	-0.186
-372.815	244.459	-0.040	-0.067
-371.800	-36.967	0.202	-0.107
-370.785	-149.118	0.193	-0.015
-369.771	-85.185	0.205	-0.063
-368.756	727.829	-0.043	-0.113
-367.742	39.106	-0.059	-0.052
-366.727	-173.684	-0.195	0.006
-365.712	127.748	-0.155	-0.194
-364.698	22.899	-0.225	-0.182
-363.683	435.369	-0.033	0.070
-362.669	800.000	-0.032	-0.135
-361.654	132.813	-0.062	0.080
-360.639	-97.022	0.118	0.031
-359.625	49.758	0.061	-0.057
-358.610	126.433	0.266	0.333
-357.596	257.067	0.019	0.032
-356.581	-200.000	0.026	0.118
-355.566	800.000	0.055	-0.234
-354.552	-50.022	0.264	0.124
-353.537	800.000	0.008	0.028
-352.523	800.000	-0.049	0.187
-351.508	-123.883	0.245	0.038
-350.493	-173.920	-0.390	0.011
-349.479	207.500	0.102	0.157
-348.464	212.956	0.073	-0.114
-347.450	-62.571	-0.134	0.055
-346.435	-200.000	-0.009	-0.044
-345.420	-200.000	-0.061	0.464
-344.406	-157.167	-0.416	-0.025
-343.391	800.000	0.067	0.199
-342.377	-116.592	-0.041	-0.007
-341.362	-143.967	-0.085	0.008
-340.348	26.432	0.382	0.316
-339.333	-200.000	0.033	0.166
-338.318	-93.392	0.198	-0.054
-337.304	763.635	-0.100	0.269
-336.289	46.147	0.265	-0.243
-335.275	-56.402	-0.233	-0.102
-334.260	800.000	-0.033	-0.135
-333.245	-103.887	-0.029	0.007
-332.231	-40.374	-0.293	0.150
-331.216	800.000	-0.095	-0.326
-330.202	-200.000	0.033	0.239
-329.187	-121.119	-0.188	-0.031
-328.172	800.000	-0.104	-0.311
-327.158	230.209	-0.209	0.337
-326.143	293.276	0.190	0.342
-325.129	95.554	-0.031	-0.035
-324.114	-17.349	0.388	0.241
-323.099	-200.000	0.042	-0.191
-322.085	89.168	-0.292	0.321
-321.070	800.000	-0.110	0.361
-320.056	800.000	-0.074	-0.304
-319.041	-49.799	-0.250	0.117
-318.026	-183.968	0.052	0.001
-317.012	445.220	0.060	0.130
-315.997	800.000	-0.069	0.277
-314.983	61.789	0.053	0.052
-313.968	54.259	-0.032	-0.031
-312.953	-153.847	-0.097	0.007
-311.939	45.589	0.131	-0.120
-310.924	800.000	-0.072	0.244
-309.910	1.896	-0.084	0.059
-308.895	800.000	-0.080	0.256
-307.880	-200.000	-0.031	0.328
-306.866	-172.255	0.211	0.007
-305.851	-92.650	-0.415	-0.115
-304.837	-104.171	-0.400	-0.092
-303.822	-78.043	-0.102	0.035
-302.807	18.593	-0.188	-0.148
-301.793	-54.341	0.438	-0.196
-300.778	-150.945	0.304	0.023
-299.764	-126.136	-0.163	0.024
-298.749	505.306	0.076	-0.174
-297.735	78.395	0.127	-0.133
-296.720	-200.000	-0.015	0.184
-295.705	-58.941	0.067	0.029
-294.691	-106.971	0.083	0.018
-293.676	-200.000	-0.020	0.240
-292.662	-20.775	-0.057	0.035
-291.647	86.467	-0.120	-0.130
-290.632	-110.624	-0.060	0.012
-289.618	58.393	-0.260	-0.251
-288.603	-200.000	0.024	-0.289
-287.589	366.264	-0.116	0.230
-286.574	92.441	0.324	0.361
-285.559	-43.512	0.103	-0.051
-284.545	251.703	-0.102	-0.171
-283.530	48.981	-0.195	-0.180
-282.516	-200.000	-0.093	0.445
-281.501	232.985	-0.121	0.196
-280.486	72.933	-0.167	0.172
-279.472	-139.393	0.161	0.017
-278.457	800.000	0.013	-0.050
-277.443	52.566	0.251	0.236
-276.428	-21.256	0.178	0.107
-275.413	220.923	0.086	0.136
-274.399	800.000	0.057	-0.188
-273.384	84.128	-0.112	0.120
-272.370	-52.065	-0.080	-0.036
-271.355	104.268	0.233	0.270
-270.340	-47.977	-0.122	-0.058
-269.326	501.822	0.016	-0.036
-268.311	-113.483	0.191	-0.037
-267.297	-23.690	-0.166	0.098
-266.282	-41.831	0.084	0.042
-265.267	-42.209	0.151	0.076
-264.253	105.691	0.113	0.132
-263.238	76.211	-0.108	-0.113
-262.224	109.973	-0.082	-0.097
-261.209	-30.927	-0.204	0.113
-260.195	735.722	-0.085	0.225
-259.180	47.962	0.028	0.026
-258.165	83.197	0.190	0.203
-257.151	-200.000	-0.051	0.243
-256.136	48.246	0.215	0.198
-255.122	-39.796	-0.213	0.109
-254.107	5.694	-0.373	-0.271
-253.092	800.000	-0.058	0.181
-252.078	-85.166	0.181	0.056
-251.063	-27.893	-0.235	-0.134
-250.049	-200.000	-0.022	-0.335
-249.034	759.356	0.106	-0.282
-248.019	-200.000	-0.005	0.127
-247.005	2.190	-0.154	-0.109
-245.990	-200.000	-0.016	0.083
-244.976	-200.000	0.044	-0.230
-243.961	-66.413	-0.111	-0.043
-242.946	-24.079	0.366	-0.215
-241.932	-92.112	0.589	0.164
-240.917	-200.000	-0.025	0.220
-239.903	-40.739	-0.262	-0.134
-238.888	654.213	-0.135	-0.341
-237.873	18.561	-0.019	0.015
-236.859	800.000	0.073	-0.202
-235.844	-200.000	0.014	0.091
-234.830	-103.819	0.300	0.069
-233.815	-58.807	0.193	0.082
-232.800	-200.000	-0.001	0.242
-231.786	53.230	0.236	0.223
-230.771	35.481	0.124	-0.107
-229.757	174.451	0.136	0.193
-228.742	-115.553	-0.558	-0.103
-227.727	-200.000	-0.001	-0.145
-226.713	92.531	0.059	-0.065
-225.698	-4.099	0.195	0.133
-224.684	114.445	-0.017	0.020
-223.669	496.091	0.114	-0.257
-222.655	56.930	-0.244	-0.233
-221.640	-21.269	0.391	0.235
-220.625	-27.472	0.415	0.237
-219.611	-200.000	-0.030	0.246
-218.596	173.928	0.167	0.237
-217.582	322.208	0.164	-0.307
-216.567	-94.258	0.138	-0.037
-215.552	-72.450	0.275	-0.100
-214.538	-200.000	0.015	-0.116
-213.523	-200.000	0.020	0.217
-212.509	-200.000	-0.020	0.144
-211.494	-101.295	0.174	0.042
-210.479	-180.212	0.242	0.005
-209.465	-200.000	-0.008	0.191
-208.450	800.000	0.183	0.508
-207.436	129.797	0.071	-0.089
-206.421	320.531	-0.097	-0.181
-205.406	-200.000	-0.021	0.139
-204.392	-45.465	0.245	0.119
-203.377	-48.148	-0.110	0.052
-202.363	-168.820	-0.161	-0.006
-201.348	-60.026	0.322	0.135
-200.333	103.594	-0.046	-0.053
-199.319	-44.320	-0.151	0.074
-198.304	-106.653	0.145	-0.032
-197.290	12.655	-0.050	0.038
-196.275	800.000	-0.015	0.060
-195.260	67.191	0.196	0.196
-194.246	68.367	0.232	0.233
-193.231	82.290	0.016	-0.017
-192.217	66.188	-0.119	0.118
-191.202	158.612	0.109	0.149
-190.187	-200.000	0.017	-0.093
-189.173	-107.266	-0.546	-0.118
-188.158	-86.096	0.196	-0.060
-187.144	-165.330	-0.340	-0.015
-186.129	47.618	-0.187	0.172
-185.114	-39.153	0.204	-0.105
-184.100	-200.000	-0.049	-0.263
-183.085	-94.449	0.224	-0.060
-182.071	-70.926	-0.384	-0.142
-181.056	125.728	-0.115	-0.142
-180.042	800.000	-0.048	-0.162
-179.027	20.037	0.308	0.244
-178.012	-182.428	0.157	-0.003
-176.998	-80.096	-0.080	0.026
-175.983	-72.092	0.157	0.057
-174.969	-72.925	-0.252	-0.091
-173.954	156.400	-0.239	-0.324
-172.939	-200.000	0.023	0.161
-171.925	38.970	-0.102	-0.090
-170.910	800.000	-0.084	-0.245
-169.896	-93.756	0.077	0.021
-168.881	-149.489	0.134	-0.010
-167.866	-115.624	-0.364	-0.067
-166.852	274.220	0.053	-0.092
-165.837	800.000	0.044	-0.168
-164.823	-94.016	-0.115	0.031
-163.808	441.228	0.097	-0.209
-162.793	308.618	0.084	-0.153
-161.779	-200.000	0.015	-0.202
-160.764	-178.041	0.172	-0.004
-159.750	-85.829	0.061	-0.018
-158.735	109.540	-0.135	0.158
-157.720	-145.925	0.161	-0.014
-156.706	-175.085	-0.256	-0.007
-155.691	-51.874	-0.074	0.034
-154.677	204.850	0.099	-0.151
-153.662	287.772	-0.038	0.068
-152.647	141.006	0.013	0.017
-151.633	-73.128	-0.372	-0.134
-150.618	-60.367	-0.148	-0.062
-149.604	37.825	0.082	-0.072
-148.589	-62.514	-0.216	0.088
-147.574	68.237	0.222	0.223
-146.560	4.782	-0.298	0.215
-145.545	17.815	0.307	0.240
-144.531	469.704	-0.101	0.223
-143.516	573.405	-0.019	0.046
-142.502	-54.387	0.021	-0.009
-141.487	800.000	-0.084	0.247
-140.472	18.422	0.163	0.128
-139.458	-73.846	0.164	0.058
-138.443	-200.000	-0.003	0.240
-137.429	125.970	-0.237	0.293
-136.414	229.537	-0.078	0.125
-135.399	-200.000	0.007	0.237
-134.385	67.914	0.058	0.059
-133.370	800.000	-0.027	-0.094
-132.356	147.501	0.098	-0.129
-131.341	800.000	0.127	-0.380
-130.326	306.507	0.128	0.233
-129.312	-44.750	0.161	0.079
-128.297	79.939	-0.189	0.199
-127.283	305.245	-0.049	0.089
-126.268	-109.243	0.226	-0.047
-125.253	-183.822	-0.346	0.006
-124.239	-64.344	0.426	0.170
-123.224	490.114	0.104	-0.232
-122.210	183.015	-0.175	0.253
-121.195	308.880	0.305	0.557
