DTS Sentinel unit serial number:	SN413079Multiplexer serial number:	ORYXHardware model number:	OX4-SRSoftware version number:	ORYX F/W v4.00 Oryx Data Collector v3.7.2.0data status	okinstallation	princeton_trtdifferential loss correction	single-endedforward channel	channel 2reverse channel	N/Adate	2019/09/18time	12:03:34forward acquisition time	60.00reverse acquisition time	0.00gamma	496.2192k internal	0.2325k external	0.2325temperature offset calibration	0.9990default loss term (dB/km)	0.3790temperature slope calibration	1.0000multiplexer offset coefficient	1.0000multiplexer slope coefficient	1.0000fibre end	0.00T internal ref (°C)	31.61T ext. ref 1 (°C)	0.49T ext. ref 2 (°C)	27.39length (m)	temperature (°C)	Stokes	anti-Stokes-747.200	144.407	-0.142	0.191
-746.185	-200.000	-0.022	-0.220
-745.171	-87.471	-0.225	-0.069
-744.156	113.681	-0.235	-0.287
-743.142	357.848	-0.032	0.064
-742.127	204.770	0.233	0.365
-741.112	127.251	0.223	0.286
-740.098	96.592	-0.115	-0.132
-739.083	-20.660	-0.288	-0.178
-738.069	-99.062	0.061	-0.016
-737.054	-94.288	-0.256	-0.071
-736.039	-46.587	-0.429	0.212
-735.025	-53.575	0.092	-0.043
-734.010	475.192	-0.094	0.214
-732.996	33.948	0.176	-0.154
-731.981	181.052	0.250	-0.371
-730.966	-172.634	-0.196	0.006
-729.952	-200.000	0.000	-0.128
-728.937	-6.137	-0.222	0.153
-727.923	800.000	0.051	0.177
-726.908	333.024	-0.075	-0.146
-725.894	20.191	-0.154	-0.125
-724.879	145.281	0.112	-0.152
-723.864	76.507	-0.032	-0.034
-722.850	159.763	-0.098	-0.137
-721.835	504.478	-0.139	-0.325
-720.821	-99.361	-0.155	0.039
-719.806	35.001	0.184	0.162
-718.791	469.553	0.093	-0.210
-717.777	-200.000	-0.047	0.243
-716.762	800.000	-0.063	-0.261
-715.748	-93.582	0.243	0.068
-714.733	800.000	-0.029	0.118
-713.718	-49.682	-0.335	-0.161
-712.704	283.665	-0.177	-0.321
-711.689	-96.584	0.084	0.022
-710.675	15.449	0.226	-0.179
-709.660	-200.000	0.021	0.120
-708.645	-107.381	-0.373	0.083
-707.631	138.762	0.120	0.159
-706.616	29.809	0.188	0.161
-705.602	125.944	0.264	0.336
-704.587	-200.000	-0.014	-0.105
-703.572	800.000	-0.118	-0.360
-702.558	-46.039	-0.530	-0.263
-701.543	-137.486	-0.097	0.011
-700.529	64.124	-0.217	-0.219
-699.514	658.002	-0.094	-0.244
-698.499	-157.934	0.322	0.019
-697.485	800.000	-0.047	0.179
-696.470	71.783	-0.201	-0.211
-695.456	-200.000	-0.069	-0.324
-694.441	193.948	-0.170	0.260
-693.426	-200.000	0.014	-0.186
-692.412	180.394	-0.207	0.306
-691.397	-89.064	0.212	-0.063
-690.383	-95.440	-0.198	0.053
-689.368	62.986	0.155	0.157
-688.354	32.050	0.213	0.185
-687.339	-200.000	0.007	0.031
-686.324	-151.373	-0.115	-0.009
-685.310	-156.210	-0.212	0.013
-684.295	441.947	-0.077	0.170
-683.281	800.000	0.055	-0.167
-682.266	-179.626	0.176	0.004
-681.251	-8.835	0.071	-0.048
-680.237	-200.000	0.003	0.191
-679.222	24.583	0.201	0.168
-678.208	35.959	-0.129	0.114
-677.193	-51.481	0.130	0.061
-676.178	-148.347	0.233	-0.019
-675.164	-34.988	-0.049	-0.027
-674.149	623.989	-0.197	0.499
-673.135	-200.000	-0.001	0.063
-672.120	-200.000	0.053	-0.308
-671.105	-200.000	0.018	0.348
-670.091	-49.633	0.113	0.054
-669.076	-41.112	-0.220	-0.114
-668.062	-149.377	-0.345	0.028
-667.047	-106.591	0.032	0.007
-666.032	-46.718	-0.224	0.110
-665.018	199.045	-0.092	0.141
-664.003	-109.527	0.142	0.030
-662.989	-160.500	-0.150	-0.008
-661.974	-119.200	0.180	0.032
-660.959	201.013	0.133	-0.206
-659.945	617.966	-0.028	0.070
-658.930	649.549	0.089	0.230
-657.916	161.575	0.207	0.291
-656.901	-33.810	-0.258	-0.143
-655.886	74.406	0.072	-0.076
-654.872	-14.468	-0.193	-0.125
-653.857	19.804	-0.174	0.140
-652.843	229.588	0.119	0.196
-651.828	-46.239	0.048	0.024
-650.814	-200.000	0.052	0.277
-649.799	32.466	0.022	-0.019
-648.784	43.348	0.114	-0.104
-647.770	-200.000	-0.017	0.230
-646.755	116.152	0.170	0.209
-645.741	-106.499	-0.136	0.031
-644.726	800.000	-0.076	0.286
-643.711	800.000	-0.095	-0.264
-642.697	34.393	0.140	0.122
-641.682	241.820	-0.102	0.172
-640.668	-39.641	0.097	0.051
-639.653	-200.000	0.057	-0.335
-638.638	35.146	0.251	-0.221
-637.624	-6.157	0.207	-0.142
-636.609	-200.000	0.052	0.267
-635.595	800.000	-0.080	-0.239
-634.580	-132.185	-0.200	-0.026
-633.565	-92.910	0.262	-0.074
-632.551	112.203	-0.174	-0.211
-631.536	54.084	-0.124	-0.120
-630.522	614.166	-0.056	-0.141
-629.507	16.075	-0.091	0.072
-628.492	-200.000	-0.001	-0.184
-627.478	298.389	-0.040	0.074
-626.463	-60.746	0.113	0.048
-625.449	281.247	-0.082	0.147
-624.434	179.054	0.244	0.358
-623.419	-23.804	-0.198	0.119
-622.405	-100.483	0.242	-0.060
-621.390	25.484	0.180	-0.151
-620.376	-22.316	0.182	0.111
-619.361	-200.000	0.041	0.352
-618.346	800.000	-0.059	0.174
-617.332	-95.622	-0.219	-0.059
-616.317	-38.277	0.221	0.117
-615.303	139.274	-0.121	0.160
-614.288	-200.000	0.137	0.603
-613.273	-125.918	0.059	0.009
-612.259	780.935	0.032	0.087
-611.244	-131.387	-0.241	-0.032
-610.230	83.484	0.183	-0.200
-609.215	-75.817	-0.129	0.046
-608.201	35.952	0.154	-0.136
-607.186	417.934	-0.185	0.396
-606.171	-200.000	0.030	-0.210
-605.157	-200.000	0.016	0.072
-604.142	-200.000	-0.032	-0.438
-603.128	52.486	0.121	-0.116
-602.113	195.409	-0.058	0.089
-601.098	-200.000	-0.020	-0.304
-600.084	334.329	-0.064	-0.125
-599.069	-200.000	-0.058	-0.346
-598.055	800.000	-0.070	-0.199
-597.040	-158.016	0.176	-0.010
-596.025	613.331	-0.044	0.111
-595.011	64.377	0.064	0.065
-593.996	-81.988	-0.072	-0.024
-592.982	128.784	-0.087	0.111
-591.967	50.324	0.081	0.077
-590.952	-23.382	-0.381	-0.229
-589.938	-97.965	-0.235	0.061
-588.923	-200.000	0.042	0.192
-587.909	-67.020	0.003	-0.001
-586.894	-129.650	-0.382	0.053
-585.879	-200.000	0.007	0.211
-584.865	448.719	-0.111	-0.246
-583.850	-115.196	-0.195	0.037
-582.836	-2.164	0.117	0.082
-581.821	-200.000	-0.350	-0.001
-580.806	-21.199	-0.247	0.152
-579.792	220.307	0.165	-0.265
-578.777	-40.493	0.278	-0.145
-577.763	187.639	0.081	-0.122
-576.748	-124.495	0.109	-0.017
-575.733	-200.000	0.037	-0.262
-574.719	-104.612	-0.322	-0.074
-573.704	375.613	-0.142	0.290
-572.690	41.413	0.244	0.221
-571.675	-162.972	-0.212	-0.010
-570.661	800.000	0.054	-0.167
-569.646	-162.792	-0.101	0.005
-568.631	382.076	-0.101	0.208
-567.617	-200.000	-0.022	-0.350
-566.602	-74.010	0.296	-0.108
-565.588	315.551	0.169	0.320
-564.573	-10.227	-0.149	0.099
-563.558	-23.948	-0.351	-0.210
-562.544	800.000	0.026	0.081
-561.529	-107.125	0.107	-0.024
-560.515	249.253	-0.022	-0.037
-559.500	128.833	-0.024	0.030
-558.485	117.529	-0.044	0.054
-557.471	-57.586	0.361	0.159
-556.456	-28.629	-0.138	-0.080
-555.442	32.485	0.216	-0.187
-554.427	71.510	0.118	-0.122
-553.412	-200.000	-0.001	0.093
-552.398	800.000	-0.016	-0.055
-551.383	412.691	0.103	0.220
-550.369	674.996	0.134	0.348
-549.354	130.833	-0.109	-0.140
-548.339	-85.666	-0.200	0.062
-547.325	-40.460	0.119	-0.062
-546.310	302.839	0.132	0.244
-545.296	146.500	-0.201	-0.270
-544.281	-63.219	-0.034	0.014
-543.266	192.747	-0.048	-0.072
-542.252	-200.000	0.005	-0.081
-541.237	-200.000	-0.021	-0.166
-540.223	359.965	-0.109	-0.218
-539.208	-160.204	-0.221	-0.012
-538.193	782.067	0.160	0.438
-537.179	-200.000	0.024	-0.237
-536.164	-79.106	-0.276	-0.094
-535.150	-200.000	0.017	-0.193
-534.135	-123.485	0.275	0.044
-533.121	-73.604	0.156	0.057
-532.106	-175.597	-0.104	-0.003
-531.091	-89.952	0.212	0.062
-530.077	-66.520	0.129	-0.051
-529.062	165.466	-0.061	-0.086
-528.048	-72.438	0.324	-0.120
-527.033	55.440	0.106	0.102
-526.018	272.359	-0.160	0.282
-525.004	-173.622	-0.141	0.004
-523.989	-131.258	0.173	0.023
-522.975	-200.000	0.000	0.185
-521.960	-200.000	-0.015	-0.226
-520.945	-106.286	0.226	-0.051
-519.931	-42.690	-0.215	-0.110
-518.916	604.506	0.069	0.173
-517.902	540.207	-0.095	0.227
-516.887	800.000	0.073	0.241
-515.872	800.000	0.027	0.106
-514.858	-196.585	-0.123	-0.001
-513.843	-98.030	0.194	-0.050
-512.829	-88.312	-0.256	-0.077
-511.814	-41.442	0.053	0.027
-510.799	-81.485	-0.159	-0.052
-509.785	-43.702	0.243	0.122
-508.770	-126.291	0.062	-0.009
-507.756	-130.662	0.364	0.049
-506.741	-96.255	0.305	-0.081
-505.726	-93.248	0.162	-0.045
-504.712	181.471	0.384	-0.564
-503.697	-97.538	-0.263	-0.068
-502.683	-43.707	0.463	0.233
-501.668	62.364	0.303	0.302
-500.653	237.844	0.063	-0.105
-499.639	-44.020	0.406	0.204
-498.624	-31.339	0.502	0.282
-497.610	14.324	-0.056	0.044
-496.595	27.455	0.054	0.045
-495.581	384.920	0.060	0.123
-494.566	176.579	0.265	-0.384
-493.551	182.120	-0.265	0.390
-492.537	-102.950	-0.084	0.020
-491.522	-78.323	0.195	0.067
-490.508	-200.000	-0.016	0.092
-489.493	-165.883	0.218	0.009
-488.478	164.092	0.156	0.219
-487.464	-52.859	-0.207	-0.095
-486.449	5.790	0.085	0.063
-485.435	16.931	-0.230	-0.182
-484.420	188.869	0.004	-0.006
-483.405	30.923	0.136	-0.116
-482.391	233.043	0.041	0.067
-481.376	-24.757	0.080	0.048
-480.362	-200.000	-0.037	0.315
-479.347	133.972	-0.085	-0.110
-478.332	362.350	-0.193	-0.387
-477.318	128.303	-0.180	-0.229
-476.303	374.663	0.058	0.118
-475.289	193.532	-0.102	-0.155
-474.274	493.016	0.018	0.040
-473.259	-18.152	0.354	0.221
-472.245	367.976	-0.025	-0.051
-471.230	185.484	-0.083	0.123
-470.216	-90.698	-0.097	0.028
-469.201	-180.833	-0.242	-0.005
-468.186	800.000	-0.059	0.163
-467.172	-86.146	-0.245	-0.076
-466.157	-111.425	0.211	-0.043
-465.143	-71.046	-0.047	-0.018
-464.128	146.666	0.086	-0.116
-463.113	-118.065	0.143	0.026
-462.099	-97.132	-0.047	0.012
-461.084	800.000	-0.044	-0.186
-460.070	602.883	0.094	0.233
-459.055	-200.000	0.054	-0.343
-458.040	197.218	-0.096	-0.146
-457.026	-9.189	0.157	-0.104
-456.011	-200.000	-0.031	0.200
-454.997	-200.000	0.000	0.078
-453.982	-200.000	0.069	-0.370
-452.968	239.058	0.076	-0.126
-451.953	95.218	-0.131	0.149
-450.938	-103.560	0.137	-0.032
-449.924	-145.058	0.205	-0.019
-448.909	-200.000	0.031	-0.187
-447.895	-80.539	0.218	-0.072
-446.880	-42.320	0.142	0.072
-445.865	-200.000	-0.012	-0.105
-444.851	2.079	0.231	0.167
-443.836	234.234	-0.129	0.213
-442.822	800.000	-0.083	0.316
-441.807	800.000	0.049	0.169
-440.792	260.637	-0.152	-0.262
-439.778	-117.502	-0.224	0.040
-438.763	-200.000	-0.039	-0.204
-437.749	-50.385	0.074	0.035
-436.734	-9.108	0.248	-0.166
-435.719	-60.317	-0.306	0.130
-434.705	124.142	-0.216	-0.270
-433.690	662.621	-0.055	-0.142
-432.676	-200.000	-0.024	0.266
-431.661	141.648	0.114	0.150
-430.646	-96.272	0.173	-0.046
-429.632	-200.000	-0.032	-0.202
-428.617	46.831	-0.137	-0.127
-427.603	800.000	-0.081	-0.298
-426.588	185.051	0.144	-0.213
-425.573	464.162	0.091	0.202
-424.559	-200.000	-0.004	0.085
-423.544	9.161	-0.229	0.173
-422.530	-4.489	-0.130	-0.089
-421.515	-200.000	-0.034	-0.197
-420.500	165.161	-0.040	-0.057
-419.486	70.682	-0.258	0.266
-418.471	800.000	-0.029	0.088
-417.457	-43.675	0.247	-0.124
-416.442	84.298	0.118	0.128
-415.428	680.502	0.069	0.179
-414.413	800.000	-0.107	-0.310
-413.398	109.701	-0.190	-0.226
-412.384	-26.744	0.094	0.055
-411.369	-200.000	-0.017	0.196
-410.355	23.663	-0.298	-0.244
-409.340	-75.590	0.085	-0.030
-408.325	-7.156	0.090	0.061
-407.311	-200.000	0.039	-0.177
-406.296	557.015	0.092	-0.220
-405.282	64.565	-0.192	-0.193
-404.267	55.871	-0.144	-0.139
-403.252	-27.975	-0.291	-0.168
-402.238	-23.553	-0.264	-0.158
-401.223	86.555	0.125	0.137
-400.209	-79.289	-0.146	-0.049
-399.194	13.409	0.051	0.040
-398.179	-34.119	0.272	-0.149
-397.165	800.000	0.062	0.178
-396.150	33.800	-0.054	-0.046
-395.136	-15.887	-0.251	0.159
-394.121	-6.408	-0.061	0.042
-393.106	650.797	-0.044	-0.113
-392.092	56.137	0.287	0.277
-391.077	9.055	-0.314	0.236
-390.063	21.760	0.239	0.194
-389.048	-41.053	0.216	0.111
-388.033	-200.000	0.003	0.155
-387.019	-200.000	0.024	0.184
-386.004	2.512	0.221	0.159
-384.990	12.101	0.068	0.052
-383.975	-72.207	0.203	-0.075
-382.960	172.273	0.280	-0.401
-381.946	327.923	0.024	0.047
-380.931	-143.032	-0.221	-0.021
-379.917	-200.000	-0.020	-0.104
-378.902	-164.507	-0.119	0.005
-377.888	-62.563	0.361	-0.149
-376.873	-200.000	-0.008	0.060
-375.858	-200.000	0.050	-0.327
-374.844	-200.000	-0.015	0.111
-373.829	-200.000	0.017	-0.176
-372.815	71.411	-0.193	-0.199
-371.800	30.270	0.084	-0.071
-370.785	-23.689	-0.331	-0.197
-369.771	12.129	-0.152	-0.116
-368.756	-138.082	-0.296	0.033
-367.742	-190.606	-0.404	-0.004
-366.727	368.937	-0.025	-0.051
-365.712	2.449	0.113	0.081
-364.698	94.558	-0.226	0.255
-363.683	130.001	0.030	-0.039
-362.669	158.978	0.206	0.284
-361.654	25.372	-0.224	0.185
-360.639	-200.000	0.012	-0.211
-359.625	216.556	0.146	0.232
-358.610	-24.482	-0.204	0.121
-357.596	-113.911	0.249	0.048
-356.581	-169.183	-0.232	-0.009
-355.566	102.973	-0.363	0.422
-354.552	-152.605	0.191	0.014
-353.537	-158.498	0.362	-0.021
-352.523	152.813	-0.112	0.152
-351.508	26.038	-0.085	-0.071
-350.493	-135.439	0.269	-0.032
-349.479	800.000	0.029	-0.106
-348.464	800.000	0.095	0.372
-347.450	6.734	0.192	-0.142
-346.435	144.318	-0.097	-0.128
-345.420	258.720	0.122	0.208
-344.406	-77.621	-0.134	-0.046
-343.391	-200.000	-0.025	0.424
-342.377	800.000	0.050	-0.176
-341.362	528.894	-0.085	0.199
-340.348	43.311	-0.183	0.166
-339.333	-193.981	0.145	-0.001
-338.318	100.211	0.071	0.081
-337.304	800.000	0.121	-0.370
-336.289	8.846	0.092	-0.069
-335.275	105.695	-0.198	0.233
-334.260	-98.425	0.233	-0.059
-333.245	800.000	-0.103	0.306
-332.231	330.807	-0.117	-0.225
-331.216	-200.000	-0.023	-0.202
-330.202	-31.866	-0.131	0.073
-329.187	216.266	-0.161	-0.255
-328.172	-99.791	0.289	-0.072
-327.158	-200.000	0.013	0.130
-326.143	-200.000	-0.036	0.234
-325.129	-200.000	-0.006	-0.060
-324.114	-200.000	-0.198	0.001
-323.099	800.000	-0.023	-0.064
-322.085	3.692	-0.160	-0.116
-321.070	298.761	-0.077	0.140
-320.056	-200.000	0.070	-0.377
-319.041	308.650	-0.105	0.194
-318.026	36.246	-0.244	-0.213
-317.012	82.959	0.100	0.108
-315.997	358.545	-0.035	0.069
-314.983	429.276	-0.150	-0.321
-313.968	299.709	0.024	-0.044
-312.953	-140.685	0.142	-0.015
-311.939	-43.371	0.237	0.119
-310.924	-106.744	-0.291	0.064
-309.910	-61.166	0.032	-0.013
-308.895	50.128	-0.214	0.200
-307.880	-94.221	-0.287	0.078
-306.866	195.216	-0.121	0.182
-305.851	800.000	0.062	-0.205
-304.837	-200.000	0.021	0.339
-303.822	-123.279	-0.083	0.013
-302.807	-52.031	-0.133	-0.061
-301.793	-127.215	0.473	0.069
-300.778	-48.331	0.210	-0.100
-299.764	27.550	0.083	-0.069
-298.749	-38.696	-0.113	-0.059
-297.735	-171.716	0.439	0.014
-296.720	390.402	-0.045	-0.092
-295.705	-200.000	-0.035	-0.268
-294.691	-112.827	-0.275	-0.054
-293.676	-15.019	-0.250	-0.159
-292.662	-200.000	-0.046	0.317
-291.647	-137.920	-0.042	0.005
-290.632	-200.000	-0.057	-0.399
-289.618	-99.165	-0.213	0.053
-288.603	-121.480	0.339	-0.056
-287.589	-116.231	-0.289	-0.053
-286.574	-76.309	0.333	-0.116
-285.559	14.423	-0.372	-0.288
-284.545	49.570	-0.161	0.150
-283.530	15.423	0.253	0.197
-282.516	-72.605	0.148	-0.054
-281.501	-146.672	0.122	-0.010
-280.486	645.836	0.067	-0.169
-279.472	52.976	0.076	0.072
-278.457	-87.650	0.242	-0.072
-277.443	247.820	0.063	-0.106
-276.428	-180.011	0.352	-0.007
-275.413	629.128	0.073	0.184
-274.399	76.673	0.148	-0.156
-273.384	-100.713	-0.116	0.028
-272.370	318.447	0.111	-0.208
-271.355	800.000	-0.030	0.083
-270.340	-93.358	-0.342	0.094
-269.326	-81.128	0.238	-0.078
-268.311	-97.220	0.303	0.078
-267.297	392.804	0.148	-0.304
-266.282	-72.225	0.014	0.005
-265.267	30.092	-0.125	-0.106
-264.253	50.224	0.138	0.130
-263.238	-200.000	0.001	-0.143
-262.224	-200.000	0.005	-0.177
-261.209	-200.000	0.031	0.380
-260.195	501.315	0.105	-0.239
-259.180	212.674	-0.231	-0.361
-258.165	-200.000	0.000	0.082
-257.151	116.230	0.076	0.092
-256.136	-48.922	0.094	0.045
-255.122	800.000	0.046	-0.140
-254.107	160.818	-0.165	-0.228
-253.092	-112.189	-0.279	-0.055
-252.078	317.593	-0.108	0.202
-251.063	28.497	-0.239	-0.200
-250.049	-134.327	-0.263	-0.032
-249.034	565.813	-0.064	-0.153
-248.019	-33.729	-0.342	-0.187
-247.005	-20.844	0.133	-0.081
-245.990	800.000	-0.069	0.295
-244.976	432.265	0.041	0.088
-243.961	313.098	-0.129	0.240
-242.946	21.254	-0.084	0.068
-241.932	15.684	0.166	-0.129
-240.917	-125.668	0.205	-0.031
-239.903	-167.266	-0.275	0.011
-238.888	440.733	0.098	-0.211
-237.873	-5.541	-0.091	0.062
-236.859	-159.161	0.145	0.008
-235.844	-141.841	-0.192	-0.019
-234.830	117.788	-0.182	-0.221
-233.815	36.711	-0.214	-0.187
-232.800	800.000	-0.083	0.241
-231.786	-60.068	0.323	-0.136
-230.771	80.064	0.048	-0.051
-229.757	-82.055	0.185	-0.060
-228.742	49.794	-0.182	-0.169
-227.727	800.000	-0.070	0.222
-226.713	800.000	-0.086	0.246
-225.698	118.624	-0.129	0.157
-224.684	35.593	-0.141	0.123
-223.669	-200.000	0.014	0.309
-222.655	-157.165	-0.169	-0.010
-221.640	43.423	0.082	-0.074
-220.625	30.743	-0.208	-0.176
-219.611	426.528	-0.087	0.186
-218.596	-23.445	0.402	-0.238
-217.582	-200.000	-0.047	-0.337
-216.567	-200.000	0.044	0.194
-215.552	657.291	-0.091	-0.232
-214.538	-87.629	0.324	0.097
-213.523	800.000	-0.047	-0.194
-212.509	125.636	0.139	-0.173
-211.494	-59.259	0.361	0.154
-210.479	-200.000	0.021	0.241
-209.465	-200.000	0.068	0.298
-208.450	357.784	0.067	0.132
-207.436	-70.208	0.060	0.023
-206.421	-96.342	0.173	0.045
-205.406	-68.575	0.188	0.072
-204.392	-58.632	0.287	-0.123
-203.377	-200.000	0.014	0.195
-202.363	-200.000	0.020	-0.263
-201.348	93.080	-0.211	0.235
-200.333	-146.623	-0.115	-0.010
-199.319	-200.000	-0.004	0.023
-198.304	-106.567	-0.188	0.041
-197.290	-186.685	0.202	0.003
-196.275	92.563	0.084	-0.093
-195.260	243.088	-0.073	0.121
-194.246	-200.000	-0.033	0.221
-193.231	-200.000	-0.025	0.131
-192.217	-200.000	-0.002	0.473
-191.202	800.000	-0.077	0.291
-190.187	-16.581	-0.193	-0.120
-189.173	241.761	-0.164	0.270
-188.158	110.801	0.126	0.149
-187.144	-81.039	-0.319	-0.104
-186.129	800.000	-0.041	0.133
-185.114	12.148	-0.442	-0.335
-184.100	31.891	-0.148	-0.126
-183.085	47.971	0.090	-0.083
-182.071	-62.984	0.108	-0.044
-181.056	744.153	-0.078	0.207
-180.042	-153.451	0.072	0.005
-179.027	-32.050	0.229	-0.126
-178.012	1.180	-0.340	0.241
-176.998	70.113	0.132	-0.135
-175.983	-200.000	0.006	-0.214
-174.969	-101.959	0.196	-0.047
-173.954	-74.723	-0.134	0.047
-172.939	800.000	-0.138	-0.426
-171.925	-12.500	0.170	-0.109
-170.910	146.854	-0.093	0.123
-169.896	81.585	-0.112	0.119
-168.881	98.024	-0.161	0.182
-167.866	800.000	0.041	0.160
-166.852	-200.000	0.083	-0.448
-165.837	492.260	-0.128	0.289
-164.823	418.065	-0.126	0.266
-163.808	16.064	-0.263	0.204
-162.793	300.529	0.120	0.218
-161.779	-108.486	0.281	-0.060
-160.764	-20.348	-0.180	-0.109
-159.750	-143.968	-0.495	-0.046
-158.735	-62.437	0.154	0.063
-157.720	-185.846	0.206	0.003
-156.706	800.000	0.084	-0.310
-155.691	-200.000	0.045	0.272
-154.677	255.251	0.160	-0.270
-153.662	243.825	-0.063	0.105
-152.647	117.330	-0.080	0.097
-151.633	-95.712	-0.253	-0.067
-150.618	478.687	-0.070	-0.157
-149.604	-200.000	-0.100	0.489
-148.589	-111.239	0.180	0.036
-147.574	800.000	0.061	0.209
-146.560	-200.000	-0.015	-0.175
-145.545	-200.000	-0.033	0.234
-144.531	-200.000	0.001	-0.097
-143.516	-34.198	-0.204	-0.110
-142.502	-47.957	-0.263	-0.125
-141.487	-132.873	0.323	0.041
-140.472	52.632	-0.365	0.344
-139.458	-200.000	0.000	0.023
-138.443	-200.000	-0.007	0.178
-137.429	148.666	0.222	0.295
-136.414	-126.448	-0.141	-0.021
-135.399	-1.948	0.115	-0.080
-134.385	-200.000	0.011	0.064
-133.370	-200.000	-0.025	0.114
-132.356	-154.761	0.443	0.029
-131.341	-200.000	0.013	0.254
-130.326	59.236	-0.032	-0.031
-129.312	-129.228	-0.049	0.007
-128.297	79.439	-0.138	0.146
-127.283	77.979	0.025	-0.026
-126.268	800.000	-0.071	-0.305
-125.253	-61.313	0.394	0.163
-124.239	37.166	0.172	-0.150
-123.224	800.000	0.018	0.063
-122.210	155.532	0.112	0.152
-121.195	-158.051	0.235	-0.014
