DTS Sentinel unit serial number:	SN413079Multiplexer serial number:	ORYXHardware model number:	OX4-SRSoftware version number:	ORYX F/W v4.00 Oryx Data Collector v3.7.2.0data status	okinstallation	princeton_trtdifferential loss correction	single-endedforward channel	channel 2reverse channel	N/Adate	2019/09/14time	15:15:35forward acquisition time	60.00reverse acquisition time	0.00gamma	496.2192k internal	0.2302k external	0.2302temperature offset calibration	1.0144default loss term (dB/km)	0.3790temperature slope calibration	1.0000multiplexer offset coefficient	1.0000multiplexer slope coefficient	1.0000fibre end	0.00T internal ref (°C)	39.12T ext. ref 1 (°C)	5.15T ext. ref 2 (°C)	34.49length (m)	temperature (°C)	Stokes	anti-Stokes-747.200	-135.860	0.262	0.032
-746.185	-200.000	-0.051	0.440
-745.171	-21.045	0.223	0.139
-744.156	23.518	0.234	0.196
-743.142	-47.319	-0.436	-0.216
-742.127	-45.979	-0.175	0.088
-741.112	-200.000	-0.022	0.136
-740.098	-63.706	-0.163	-0.068
-739.083	190.019	0.088	-0.134
-738.069	-157.651	-0.079	-0.005
-737.054	800.000	0.012	-0.046
-736.039	-200.000	-0.018	0.240
-735.025	37.475	0.318	0.288
-734.010	-63.221	-0.128	-0.054
-732.996	-82.944	0.157	0.052
-731.981	469.603	0.081	0.186
-730.966	-200.000	0.041	0.476
-729.952	-143.636	-0.399	-0.039
-728.937	4.491	-0.155	0.116
-727.923	-97.122	-0.430	-0.115
-726.908	-16.661	-0.175	-0.113
-725.894	-108.401	-0.273	0.060
-724.879	419.405	-0.044	0.097
-723.864	-162.176	-0.271	-0.014
-722.850	-109.418	-0.357	-0.077
-721.835	20.291	-0.097	-0.080
-720.821	800.000	-0.064	0.221
-719.806	800.000	-0.065	-0.214
-718.791	27.250	-0.042	0.036
-717.777	128.610	-0.039	0.051
-716.762	-200.000	-0.028	0.154
-715.748	-46.970	-0.110	0.054
-714.733	-200.000	0.032	-0.227
-713.718	-102.843	0.173	0.042
-712.704	-184.565	-0.194	-0.003
-711.689	-200.000	0.017	-0.109
-710.675	-200.000	0.057	0.314
-709.660	-200.000	0.046	-0.279
-708.645	800.000	-0.043	0.191
-707.631	93.289	-0.020	0.023
-706.616	-138.020	-0.248	-0.028
-705.602	-3.993	-0.241	0.170
-704.587	106.618	-0.092	-0.111
-703.572	-200.000	-0.048	-0.280
-702.558	-5.189	0.104	-0.073
-701.543	800.000	0.081	-0.226
-700.529	200.162	-0.151	-0.236
-699.514	-16.913	-0.124	-0.079
-698.499	689.719	0.047	0.124
-697.485	56.648	0.088	-0.087
-696.470	-60.535	0.228	-0.099
-695.456	-13.826	0.169	0.111
-694.441	-141.810	-0.377	-0.038
-693.426	49.612	-0.192	-0.184
-692.412	-189.813	-0.328	-0.004
-691.397	-42.725	0.174	0.090
-690.383	48.941	-0.183	-0.174
-689.368	53.726	-0.091	-0.089
-688.354	168.552	-0.101	-0.147
-687.339	-200.000	0.019	-0.123
-686.324	-67.847	-0.039	0.015
-685.310	-200.000	0.002	0.096
-684.295	-135.505	0.172	-0.021
-683.281	-68.050	0.293	-0.116
-682.266	800.000	0.034	-0.136
-681.251	-200.000	0.033	0.178
-680.237	800.000	-0.034	-0.113
-679.222	50.988	-0.128	-0.124
-678.208	212.913	-0.179	-0.287
-677.193	20.587	-0.303	0.249
-676.178	112.860	0.214	-0.263
-675.164	-109.775	-0.348	-0.074
-674.149	-116.693	0.109	-0.020
-673.135	-200.000	0.051	-0.313
-672.120	131.973	0.154	-0.202
-671.105	-115.204	-0.279	0.054
-670.091	-119.577	0.299	-0.053
-669.076	422.752	0.125	-0.272
-668.062	800.000	-0.018	-0.069
-667.047	-150.667	-0.143	0.011
-666.032	-200.000	0.008	-0.141
-665.018	70.026	-0.234	0.245
-664.003	-200.000	-0.007	-0.307
-662.989	10.572	0.175	-0.135
-661.974	-46.609	-0.087	0.043
-660.959	-142.400	0.318	-0.032
-659.945	-119.141	-0.296	-0.052
-658.930	-17.371	-0.302	-0.193
-657.916	-64.333	-0.069	-0.028
-656.901	-18.145	-0.367	0.233
-655.886	-135.736	-0.164	-0.020
-654.872	-200.000	0.007	-0.277
-653.857	-12.484	0.092	0.061
-652.843	142.190	-0.064	-0.086
-651.828	-200.000	-0.032	0.144
-650.814	-193.002	-0.134	-0.001
-649.799	800.000	0.066	-0.216
-648.784	-44.127	-0.146	0.075
-647.770	-200.000	-0.011	-0.139
-646.755	45.482	-0.113	0.106
-645.741	-156.238	-0.171	0.011
-644.726	800.000	-0.055	0.184
-643.711	12.431	0.207	0.162
-642.697	153.735	-0.110	0.153
-641.682	800.000	0.066	0.254
-640.668	-114.833	-0.096	0.019
-639.653	800.000	0.098	-0.348
-638.638	-140.961	-0.062	-0.006
-637.624	35.301	-0.284	-0.253
-636.609	800.000	-0.025	-0.089
-635.595	88.182	-0.094	0.106
-634.580	171.569	-0.095	0.139
-633.565	-110.464	0.194	0.041
-632.551	-108.973	0.182	0.039
-631.536	26.768	0.156	-0.133
-630.522	-200.000	-0.002	-0.153
-629.507	134.400	-0.250	0.328
-628.492	-67.755	0.127	-0.050
-627.478	-200.000	0.048	0.250
-626.463	146.536	0.181	-0.247
-625.449	-94.510	-0.191	0.053
-624.434	783.564	0.080	0.222
-623.419	69.440	-0.183	-0.191
-622.405	800.000	-0.093	-0.346
-621.390	243.511	-0.014	-0.024
-620.376	-7.463	0.100	0.069
-619.361	498.776	-0.049	-0.115
-618.346	-52.348	0.223	0.105
-617.332	164.973	0.193	-0.277
-616.317	86.075	-0.113	-0.126
-615.303	53.922	-0.179	-0.174
-614.288	71.575	0.193	-0.203
-613.273	183.474	-0.097	-0.146
-612.259	-136.288	-0.178	0.021
-611.244	-63.226	0.017	0.007
-610.230	483.860	-0.090	-0.207
-609.215	-113.573	-0.228	0.045
-608.201	145.328	0.088	-0.119
-607.186	-159.907	-0.253	0.014
-606.171	123.868	0.137	0.174
-605.157	-119.168	-0.275	0.049
-604.142	22.222	-0.125	0.103
-603.128	65.491	0.075	-0.077
-602.113	-15.254	0.293	-0.190
-601.098	800.000	-0.040	-0.125
-600.084	-12.342	-0.398	0.264
-599.069	-128.236	0.104	0.015
-598.055	800.000	0.028	-0.112
-597.040	485.225	-0.096	-0.221
-596.025	-107.633	0.313	-0.069
-595.011	99.207	0.295	-0.346
-593.996	-4.640	-0.068	0.048
-592.982	79.962	0.157	0.171
-591.967	800.000	-0.105	-0.371
-590.952	14.142	-0.140	-0.110
-589.938	-200.000	0.031	0.290
-588.923	153.157	0.162	-0.225
-587.909	-12.120	-0.314	-0.208
-586.894	123.388	-0.110	0.139
-585.879	411.052	0.048	0.104
-584.865	486.453	-0.061	0.142
-583.850	-16.065	-0.134	-0.087
-582.836	42.346	0.190	-0.175
-581.821	-129.311	0.114	0.016
-580.806	594.274	0.082	-0.206
-579.792	800.000	-0.060	0.199
-578.777	-109.925	-0.109	0.023
-577.763	198.354	0.097	-0.151
-576.748	-150.619	-0.139	0.011
-575.733	-116.766	0.134	-0.025
-574.719	-78.183	-0.230	-0.080
-573.704	27.546	-0.202	-0.172
-572.690	637.597	0.126	-0.324
-571.675	-187.750	0.188	0.002
-570.661	-78.168	-0.327	0.114
-569.646	800.000	0.070	0.300
-568.631	-40.372	0.247	-0.130
-567.617	-88.450	-0.161	-0.049
-566.602	127.764	-0.291	-0.374
-565.588	43.556	-0.213	0.197
-564.573	800.000	-0.115	-0.408
-563.558	390.766	0.187	0.392
-562.544	736.384	-0.053	0.144
-561.529	800.000	-0.023	-0.090
-560.515	-101.459	0.310	0.076
-559.500	771.221	-0.111	-0.306
-558.485	-148.557	-0.166	0.014
-557.471	-179.726	-0.046	0.001
-556.456	-21.445	0.127	0.078
-555.442	-124.348	0.286	0.045
-554.427	17.208	0.117	-0.094
-553.412	-120.000	0.553	0.096
-552.398	-59.357	0.210	-0.091
-551.383	-200.000	-0.014	0.201
-550.369	-14.269	-0.091	0.059
-549.354	-57.454	-0.442	-0.196
-548.339	455.146	0.047	0.105
-547.325	-200.000	0.014	0.069
-546.310	785.876	0.078	0.216
-545.296	239.593	-0.182	0.307
-544.281	45.941	-0.131	0.123
-543.266	-88.992	0.219	-0.066
-542.252	216.626	-0.160	-0.257
-541.237	-67.215	0.097	0.038
-540.223	-200.000	-0.026	0.348
-539.208	237.459	0.061	-0.102
-538.193	478.171	0.015	0.035
-537.179	16.263	-0.124	0.099
-536.164	-200.000	-0.062	-0.422
-535.150	-171.151	0.192	-0.007
-534.135	-67.898	0.059	-0.023
-533.121	43.800	0.101	-0.094
-532.106	176.106	-0.087	0.127
-531.091	782.875	-0.055	0.151
-530.077	-17.328	-0.205	-0.130
-529.062	-74.468	-0.105	-0.038
-528.048	9.512	0.077	-0.059
-527.033	-8.551	-0.215	-0.146
-526.018	-200.000	0.032	0.413
-525.004	-200.000	-0.065	0.322
-523.989	252.968	-0.099	0.170
-522.975	136.859	-0.145	-0.192
-521.960	-200.000	0.033	-0.332
-520.945	-2.452	0.178	0.126
-519.931	22.087	-0.077	0.063
-518.916	800.000	-0.013	-0.047
-517.902	-93.470	-0.240	-0.067
-516.887	77.395	0.090	-0.096
-515.872	-62.129	-0.219	-0.092
-514.858	-200.000	-0.009	-0.153
-513.843	-200.000	0.008	-0.226
-512.829	-200.000	-0.011	-0.145
-511.814	26.666	0.173	-0.146
-510.799	-62.637	-0.214	0.090
-509.785	-200.000	-0.021	-0.194
-508.770	-91.292	-0.226	0.065
-507.756	418.047	-0.102	-0.221
-506.741	-63.840	-0.165	0.068
-505.726	-200.000	0.000	0.237
-504.712	-200.000	-0.029	0.181
-503.697	-116.933	0.278	0.051
-502.683	-59.674	-0.037	-0.016
-501.668	-83.960	-0.193	-0.062
-500.653	463.249	-0.069	-0.156
-499.639	800.000	0.088	-0.249
-498.624	-39.858	0.283	-0.149
-497.610	225.184	0.088	0.144
-496.595	800.000	-0.074	-0.289
-495.581	-200.000	-0.035	-0.164
-494.566	126.307	0.207	-0.264
-493.551	68.917	0.012	0.012
-492.537	-75.077	0.378	-0.136
-491.522	-63.984	0.100	-0.041
-490.508	-200.000	0.011	-0.176
-489.493	800.000	-0.051	-0.179
-488.478	-82.616	0.060	0.020
-487.464	-41.289	0.229	-0.119
-486.449	-96.110	-0.089	-0.024
-485.435	102.427	0.009	0.011
-484.420	-105.856	0.183	0.042
-483.405	800.000	0.035	-0.098
-482.391	50.920	-0.295	0.282
-481.376	-200.000	-0.045	0.295
-480.362	2.209	0.215	-0.157
-479.347	170.987	-0.008	-0.012
-478.332	-111.272	0.053	-0.011
-477.318	-200.000	0.034	-0.231
-476.303	800.000	-0.059	-0.176
-475.289	-43.877	-0.068	-0.034
-474.274	53.094	0.205	-0.198
-473.259	44.610	-0.144	0.133
-472.245	-88.999	-0.306	0.091
-471.230	-160.272	-0.053	0.003
-470.216	70.727	-0.223	0.232
-469.201	800.000	-0.063	0.220
-468.186	440.203	0.113	-0.249
-467.172	-171.714	-0.061	-0.002
-466.157	306.335	-0.055	-0.104
-465.143	69.583	0.085	0.088
-464.128	-129.502	0.283	-0.040
-463.113	-11.993	-0.067	0.044
-462.099	365.378	0.071	0.144
-461.084	-23.057	0.414	0.251
-460.070	583.130	0.125	0.308
-459.055	-200.000	0.039	0.209
-458.040	-161.561	0.288	-0.015
-457.026	526.379	0.056	0.132
-456.011	58.870	-0.164	-0.162
-454.997	-3.057	0.332	0.233
-453.982	-129.380	-0.190	0.027
-452.968	-92.023	0.219	0.062
-451.953	-125.537	0.194	0.030
-450.938	208.680	-0.185	0.292
-449.924	-140.178	-0.307	0.032
-448.909	134.302	0.205	0.267
-447.895	800.000	-0.046	0.191
-446.880	-102.344	-0.283	-0.068
-445.865	90.148	0.026	-0.029
-444.851	800.000	-0.036	-0.130
-443.836	-19.521	-0.342	-0.214
-442.822	76.830	0.170	0.182
-441.807	-60.805	-0.074	0.031
-440.792	-8.126	-0.247	0.168
-439.778	-14.131	0.428	-0.278
-438.763	180.041	0.163	0.241
-437.749	206.551	0.241	0.378
-436.734	-162.245	-0.037	-0.002
-435.719	430.295	0.157	0.343
-434.705	-141.632	0.162	0.016
-433.690	800.000	-0.022	-0.081
-432.676	-200.000	0.047	0.276
-431.661	-147.842	0.121	0.010
-430.646	-114.607	0.294	-0.057
-429.632	50.278	-0.260	0.247
-428.617	56.721	0.162	-0.159
-427.603	372.669	0.126	0.258
-426.588	-91.143	0.341	0.099
-425.573	775.411	0.135	-0.372
-424.559	-7.679	0.170	0.116
-423.544	411.462	-0.123	0.262
-422.530	-90.839	0.243	0.070
-421.515	-200.000	0.157	-0.000
-420.500	48.538	-0.153	-0.144
-419.486	630.215	0.038	-0.097
-418.471	166.498	0.065	-0.092
-417.457	-65.382	0.152	-0.062
-416.442	100.028	-0.138	0.161
-415.428	-200.000	0.002	0.038
-414.413	568.506	-0.145	0.355
-413.398	-200.000	0.019	-0.139
-412.384	-200.000	0.003	-0.421
-411.369	-200.000	0.112	-0.000
-410.355	281.845	-0.286	-0.516
-409.340	66.297	-0.093	-0.095
-408.325	262.824	-0.251	0.438
-407.311	123.612	-0.090	-0.113
-406.296	82.051	0.015	-0.016
-405.282	-140.493	-0.308	0.032
-404.267	-200.000	0.007	-0.208
-403.252	48.387	0.304	-0.286
-402.238	-188.763	-0.307	0.004
-401.223	693.419	-0.156	-0.411
-400.209	-45.200	-0.074	0.037
-399.194	-134.134	0.038	0.005
-398.179	-200.000	-0.056	0.548
-397.165	-104.274	-0.443	-0.103
-396.150	-200.000	0.032	-0.265
-395.136	-200.000	0.006	-0.367
-394.121	-46.683	0.121	-0.060
-393.106	-59.315	-0.136	0.059
-392.092	115.883	0.085	0.105
-391.077	-41.021	-0.142	0.074
-390.063	-137.591	0.210	-0.024
-389.048	-80.506	0.149	0.050
-388.033	-163.215	-0.112	-0.005
-387.019	-75.303	-0.231	0.083
-386.004	79.573	-0.095	-0.103
-384.990	-158.644	-0.291	-0.017
-383.975	141.728	0.184	0.245
-382.960	155.133	-0.138	-0.191
-381.946	-146.669	0.149	-0.013
-380.931	-200.000	0.002	0.040
-379.917	-200.000	-0.016	-0.338
-378.902	-20.126	-0.098	0.061
-377.888	-156.680	-0.290	-0.018
-376.873	108.608	0.203	0.243
-375.858	736.311	0.154	0.416
-374.844	-38.578	0.136	-0.072
-373.829	89.112	-0.202	-0.226
-372.815	-8.274	-0.471	0.319
-371.800	-73.587	-0.504	-0.184
-370.785	-47.342	-0.233	-0.114
-369.771	-131.601	0.033	-0.004
-368.756	-168.677	0.155	0.006
-367.742	-200.000	-0.054	-0.270
-366.727	-200.000	0.017	-0.145
-365.712	324.553	-0.098	0.188
-364.698	-33.943	-0.095	-0.053
-363.683	144.666	0.099	0.132
-362.669	26.174	0.089	0.075
-361.654	671.559	-0.026	0.067
-360.639	-167.103	0.401	-0.016
-359.625	-75.409	-0.075	0.027
-358.610	-143.370	0.130	-0.013
-357.596	-29.913	0.281	0.160
-356.581	769.792	0.170	0.464
-355.566	121.130	0.123	-0.154
-354.552	97.123	0.227	-0.261
-353.537	645.753	-0.063	0.161
-352.523	330.984	0.127	0.246
-351.508	-98.438	-0.617	0.159
-350.493	-200.000	-0.002	0.037
-349.479	29.312	-0.130	-0.110
-348.464	204.641	0.108	-0.168
-347.450	-126.149	0.293	-0.044
-346.435	-86.801	-0.332	0.102
-345.420	17.778	0.191	-0.152
-344.406	-45.918	0.102	-0.050
-343.391	-147.883	-0.217	-0.018
-342.377	37.393	0.060	0.053
-341.362	-37.675	-0.346	0.185
-340.348	-161.457	0.269	0.014
-339.333	671.306	0.044	-0.114
-338.318	-20.740	0.142	0.087
-337.304	669.566	0.087	-0.225
-336.289	67.083	-0.124	-0.127
-335.275	352.253	-0.108	-0.215
-334.260	-200.000	0.023	-0.118
-333.245	-77.608	0.131	-0.046
-332.231	179.199	-0.134	0.196
-331.216	-95.877	-0.257	0.069
-330.202	274.740	0.025	0.044
-329.187	-128.270	-0.067	-0.010
-328.172	-142.677	0.277	0.027
-327.158	265.730	0.231	-0.404
-326.143	129.650	0.087	-0.112
-325.129	-200.000	-0.042	0.199
-324.114	245.247	0.104	0.175
-323.099	-111.684	-0.307	-0.062
-322.085	173.168	0.132	0.190
-321.070	-142.090	-0.113	-0.011
-320.056	-135.140	0.207	0.025
-319.041	800.000	0.051	-0.156
-318.026	800.000	-0.027	0.082
-317.012	800.000	0.076	0.293
-315.997	89.153	-0.072	0.080
-314.983	-163.364	-0.145	-0.007
-313.968	-48.553	-0.214	0.103
-312.953	-167.808	0.062	0.002
-311.939	-142.027	0.254	0.025
-310.924	88.574	-0.122	0.136
-309.910	-200.000	-0.048	0.248
-308.895	800.000	-0.098	0.351
-307.880	-48.984	-0.071	-0.034
-306.866	126.271	0.143	-0.182
-305.851	177.542	0.266	-0.388
-304.837	-62.986	-0.232	-0.096
-303.822	166.346	0.278	0.394
-302.807	-200.000	0.017	0.497
-301.793	-75.378	0.137	-0.049
-300.778	-14.004	0.239	-0.154
-299.764	-107.455	0.294	-0.064
-298.749	-31.904	0.088	-0.050
-297.735	800.000	-0.010	-0.035
-296.720	-97.161	-0.287	-0.075
-295.705	626.634	-0.119	0.301
-294.691	48.220	-0.138	0.129
-293.676	-21.415	-0.161	-0.098
-292.662	109.908	-0.101	-0.121
-291.647	-200.000	-0.227	0.001
-290.632	800.000	-0.030	0.100
-289.618	-110.714	0.065	0.013
-288.603	3.274	-0.293	0.213
-287.589	-200.000	-0.007	-0.073
-286.574	2.767	0.208	0.151
-285.559	-200.000	0.024	-0.198
-284.545	-200.000	-0.032	0.153
-283.530	8.897	0.034	0.025
-282.516	418.643	0.029	0.062
-281.501	-200.000	0.029	-0.135
-280.486	49.446	0.201	-0.189
-279.472	-89.766	0.245	0.072
-278.457	-129.583	-0.052	0.007
-277.443	-152.616	-0.088	-0.006
-276.428	158.299	0.105	0.146
-275.413	-111.352	0.272	0.056
-274.399	202.995	0.044	-0.068
-273.384	-94.770	0.309	-0.084
-272.370	226.993	0.115	0.187
-271.355	-21.031	-0.084	-0.051
-270.340	194.714	0.196	0.297
-269.326	800.000	0.061	-0.181
-268.311	-200.000	-0.010	0.078
-267.297	-200.000	-0.012	0.167
-266.282	-118.901	-0.319	0.056
-265.267	54.447	-0.104	-0.100
-264.253	-115.468	0.395	0.074
-263.238	245.235	0.019	0.033
-262.224	-33.503	0.136	-0.075
-261.209	-153.506	0.141	0.010
-260.195	-200.000	0.312	-0.001
-259.180	800.000	0.039	-0.165
-258.165	-1.857	0.267	0.188
-257.151	-200.000	-0.056	0.359
-256.136	-200.000	-0.053	0.282
-255.122	-200.000	0.011	0.096
-254.107	182.051	0.196	0.289
-253.092	690.245	0.076	0.199
-252.078	-60.813	0.094	-0.040
-251.063	-159.979	-0.081	0.004
-250.049	561.011	-0.190	0.458
-249.034	153.112	-0.138	-0.189
-248.019	-33.508	0.362	0.200
-247.005	-141.887	-0.116	0.012
-245.990	369.593	0.060	-0.121
-244.976	257.111	-0.187	0.322
-243.961	-200.000	0.030	-0.254
-242.946	187.767	-0.062	-0.093
-241.932	-51.507	0.181	-0.085
-240.917	-200.000	-0.034	-0.184
-239.903	560.732	-0.142	0.343
-238.888	-141.522	-0.278	-0.028
-237.873	-36.112	-0.106	0.057
-236.859	115.149	0.112	0.137
-235.844	3.888	0.175	-0.128
-234.830	412.195	0.016	0.034
-233.815	-200.000	0.003	0.019
-232.800	-200.000	-0.098	0.000
-231.786	-15.487	0.192	0.122
-230.771	-44.998	0.127	-0.063
-229.757	-25.763	0.106	-0.062
-228.742	-102.062	-0.376	0.091
-227.727	-200.000	0.002	-0.064
-226.713	800.000	-0.068	0.281
-225.698	-200.000	-0.037	0.462
-224.684	-31.181	-0.217	-0.122
-223.669	239.320	-0.186	-0.308
-222.655	-200.000	-0.047	-0.210
-221.640	-200.000	-0.027	-0.550
-220.625	-200.000	0.011	-0.055
-219.611	-147.077	0.178	0.015
-218.596	105.764	0.185	-0.218
-217.582	374.433	0.193	-0.391
-216.567	-200.000	0.039	-0.375
-215.552	-38.092	-0.111	0.059
-214.538	-13.957	-0.095	0.061
-213.523	125.287	-0.029	0.037
-212.509	98.662	-0.189	-0.218
-211.494	4.473	-0.097	-0.071
-210.479	-54.184	-0.321	0.145
-209.465	800.000	0.051	0.150
-208.450	-100.617	0.124	0.031
-207.436	-200.000	-0.034	-0.157
-206.421	-113.235	-0.161	0.032
-205.406	-200.000	0.064	-0.331
-204.392	49.306	0.072	-0.068
-203.377	-13.396	0.131	0.085
-202.363	168.259	0.025	0.036
-201.348	5.593	0.233	0.172
-200.333	-191.397	-0.056	0.001
-199.319	164.524	0.210	0.295
-198.304	-77.991	0.176	0.061
-197.290	516.383	-0.053	0.123
-196.275	438.791	0.073	0.160
-195.260	-15.211	0.115	0.073
-194.246	32.759	0.165	0.143
-193.231	-200.000	-0.032	0.186
-192.217	-50.767	0.358	0.168
-191.202	-51.073	0.130	-0.061
-190.187	55.060	-0.298	-0.287
-189.173	117.737	-0.261	-0.321
-188.158	-47.999	-0.250	0.121
-187.144	29.960	0.238	-0.203
-186.129	-200.000	0.007	-0.210
-185.114	-144.126	0.448	-0.042
-184.100	45.953	0.169	0.156
-183.085	274.702	-0.083	0.147
-182.071	-200.000	-0.010	0.229
-181.056	-185.590	-0.270	0.004
-180.042	17.693	-0.038	0.030
-179.027	359.775	-0.130	0.259
-178.012	68.989	-0.244	-0.250
-176.998	-200.000	0.016	-0.163
-175.983	128.701	-0.070	-0.089
-174.969	120.314	-0.037	-0.046
-173.954	800.000	-0.070	-0.246
-172.939	53.180	0.208	-0.199
-171.925	800.000	0.008	-0.030
-170.910	-39.693	0.061	-0.032
-169.896	174.627	0.122	0.175
-168.881	68.552	-0.035	-0.036
-167.866	-32.388	0.113	-0.063
-166.852	157.924	0.149	-0.206
-165.837	749.613	-0.001	-0.004
-164.823	-43.957	-0.246	-0.123
-163.808	-200.000	0.010	0.308
-162.793	-200.000	0.022	-0.242
-161.779	-186.494	-0.374	0.005
-160.764	-86.204	-0.220	0.067
-159.750	194.207	0.102	-0.154
-158.735	-169.430	-0.246	-0.009
-157.720	244.021	-0.310	-0.518
-156.706	210.664	0.093	0.146
-155.691	5.100	-0.312	0.229
-154.677	-23.130	-0.258	0.155
-153.662	-0.765	-0.126	0.089
-152.647	-90.714	0.235	-0.067
-151.633	800.000	0.080	0.347
-150.618	-200.000	0.033	-0.280
-149.604	-112.151	-0.133	0.027
-148.589	-23.894	0.207	0.123
-147.574	-109.595	0.404	-0.085
-146.560	-53.207	-0.282	0.129
-145.545	-97.878	0.082	-0.021
-144.531	309.719	-0.034	0.063
-143.516	319.855	-0.080	0.151
-142.502	-86.318	0.116	0.035
-141.487	16.174	0.161	0.126
-140.472	-66.826	-0.141	0.056
-139.458	142.920	0.045	-0.060
-138.443	128.422	0.155	0.196
-137.429	-200.000	0.014	0.318
-136.414	46.881	-0.065	-0.060
-135.399	-123.852	-0.276	-0.043
-134.385	273.202	0.022	0.039
-133.370	346.212	-0.050	0.098
-132.356	-105.767	0.181	0.041
-131.341	413.403	0.144	0.305
-130.326	2.106	0.049	-0.035
-129.312	-129.929	-0.294	0.040
-128.297	-69.695	0.284	0.108
-127.283	-200.000	-0.044	0.214
-126.268	201.250	-0.028	-0.043
-125.253	127.801	0.226	0.285
-124.239	-132.225	-0.084	0.011
-123.224	-200.000	0.009	-0.195
-122.210	20.758	-0.104	0.084
