DTS Sentinel unit serial number:	SN413079Multiplexer serial number:	ORYXHardware model number:	OX4-SRSoftware version number:	ORYX F/W v4.00 Oryx Data Collector v3.7.2.0data status	okinstallation	princeton_trtdifferential loss correction	single-endedforward channel	channel 2reverse channel	N/Adate	2019/09/17time	20:39:34forward acquisition time	60.00reverse acquisition time	0.00gamma	496.2192k internal	0.2336k external	0.2336temperature offset calibration	0.9986default loss term (dB/km)	0.3790temperature slope calibration	1.0000multiplexer offset coefficient	1.0000multiplexer slope coefficient	1.0000fibre end	0.00T internal ref (°C)	29.97T ext. ref 1 (°C)	0.21T ext. ref 2 (°C)	20.89length (m)	temperature (°C)	Stokes	anti-Stokes-747.200	23.075	-0.226	-0.186
-746.185	343.766	-0.176	0.347
-745.171	-200.000	-0.045	0.402
-744.156	-200.000	0.012	0.264
-743.142	-30.188	-0.340	-0.194
-742.127	-45.457	-0.323	-0.161
-741.112	-176.870	-0.163	-0.004
-740.098	135.715	-0.149	0.195
-739.083	79.215	0.137	-0.148
-738.069	215.703	0.170	0.272
-737.054	-194.999	0.134	-0.001
-736.039	115.895	-0.272	0.334
-735.025	-4.970	-0.097	-0.067
-734.010	-200.000	-0.017	-0.421
-732.996	371.737	0.059	0.120
-731.981	-200.000	-0.013	-0.108
-730.966	115.396	-0.245	-0.301
-729.952	45.081	-0.053	-0.049
-728.937	478.064	0.064	-0.146
-727.923	170.123	0.168	-0.242
-726.908	-200.000	0.028	-0.532
-725.894	745.042	-0.049	-0.134
-724.879	91.500	-0.130	0.146
-723.864	-134.302	-0.229	0.028
-722.850	-20.814	-0.038	0.024
-721.835	5.238	-0.100	0.074
-720.821	-97.729	-0.309	0.080
-719.806	140.178	-0.099	0.131
-718.791	-93.475	-0.275	-0.077
-717.777	-200.000	-0.021	0.171
-716.762	2.316	0.189	0.137
-715.748	522.801	0.036	0.084
-714.733	704.775	-0.112	-0.297
-713.718	800.000	0.010	0.040
-712.704	-44.430	-0.122	-0.061
-711.689	8.021	-0.176	0.132
-710.675	-200.000	0.025	0.145
-709.660	-69.762	-0.163	0.062
-708.645	75.212	0.017	-0.017
-707.631	-71.768	-0.232	0.087
-706.616	120.457	0.083	-0.103
-705.602	-98.463	-0.028	-0.007
-704.587	689.624	0.071	-0.185
-703.572	-58.477	0.244	-0.106
-702.558	86.327	-0.064	-0.071
-701.543	32.145	0.197	-0.170
-700.529	269.672	-0.080	0.141
-699.514	-2.386	0.163	-0.115
-698.499	-131.876	0.320	0.042
-697.485	250.263	-0.110	-0.187
-696.470	-69.097	-0.278	-0.107
-695.456	479.818	-0.046	-0.105
-694.441	-181.853	-0.333	-0.006
-693.426	39.517	0.028	0.025
-692.412	-162.393	-0.173	-0.009
-691.397	-38.440	-0.156	0.083
-690.383	-67.918	0.005	-0.002
-689.368	-63.553	-0.407	-0.168
-688.354	-175.811	-0.049	-0.001
-687.339	-57.267	0.268	-0.118
-686.324	288.079	-0.099	-0.179
-685.310	529.105	0.242	-0.573
-684.295	-36.877	0.074	0.040
-683.281	-76.305	0.154	-0.054
-682.266	-106.097	-0.337	0.076
-681.251	800.000	-0.104	-0.303
-680.237	132.863	-0.154	0.199
-679.222	-200.000	-0.052	-0.385
-678.208	-137.080	0.306	-0.035
-677.193	-113.968	0.074	-0.014
-676.178	66.044	-0.113	-0.115
-675.164	-90.940	0.418	-0.120
-674.149	-5.160	-0.231	-0.159
-673.135	194.834	-0.103	0.157
-672.120	-52.607	0.059	-0.027
-671.105	-75.408	0.375	-0.134
-670.091	-100.003	-0.353	-0.088
-669.076	-51.863	-0.216	0.101
-668.062	150.430	-0.201	0.273
-667.047	201.456	0.151	0.232
-666.032	370.147	0.114	0.231
-665.018	-121.271	0.217	-0.036
-664.003	-42.191	0.325	0.166
-662.989	-200.000	-0.001	-0.049
-661.974	800.000	-0.047	-0.149
-660.959	-103.465	0.203	-0.048
-659.945	265.249	0.057	0.100
-658.930	7.155	0.179	0.134
-657.916	-62.980	-0.161	0.067
-656.901	-200.000	0.028	0.125
-655.886	-28.615	-0.100	0.057
-654.872	-123.584	-0.276	0.044
-653.857	-146.831	0.230	0.020
-652.843	-60.347	-0.154	0.066
-651.828	800.000	0.089	-0.286
-650.814	800.000	0.017	-0.068
-649.799	76.786	-0.219	0.233
-648.784	-2.008	0.221	-0.156
-647.770	-10.662	-0.204	-0.135
-646.755	408.217	-0.055	0.116
-645.741	-97.287	-0.282	0.074
-644.726	277.189	0.053	-0.095
-643.711	4.581	-0.226	-0.166
-642.697	327.526	0.070	-0.134
-641.682	-138.026	0.222	-0.025
-640.668	-200.000	-0.048	-0.409
-639.653	-175.354	-0.146	0.004
-638.638	-73.873	-0.369	-0.134
-637.624	750.845	-0.100	0.271
-636.609	-200.000	0.015	-0.322
-635.595	184.906	0.140	-0.208
-634.580	286.749	0.058	0.105
-633.565	-200.000	-0.027	0.118
-632.551	-195.308	0.221	0.002
-631.536	-200.000	0.004	-0.165
-630.522	-68.064	0.215	0.084
-629.507	-122.035	0.060	-0.010
-628.492	82.837	0.180	0.196
-627.478	-68.403	0.345	0.134
-626.463	61.967	-0.267	0.266
-625.449	-200.000	-0.022	-0.225
-624.434	-20.906	-0.038	0.023
-623.419	-78.015	-0.265	-0.091
-622.405	-20.571	-0.049	0.030
-621.390	-71.526	0.107	0.040
-620.376	-62.894	0.058	-0.024
-619.361	-34.640	-0.387	0.212
-618.346	-83.883	-0.125	0.040
-617.332	-29.623	0.077	-0.044
-616.317	110.363	0.070	0.084
-615.303	310.167	0.045	0.083
-614.288	-191.357	-0.221	0.002
-613.273	102.828	-0.254	-0.297
-612.259	-200.000	0.003	-0.102
-611.244	84.917	0.126	-0.137
-610.230	661.908	-0.036	-0.092
-609.215	88.363	-0.102	-0.113
-608.201	36.141	-0.096	-0.084
-607.186	-42.858	-0.133	-0.068
-606.171	-76.097	0.528	0.186
-605.157	-155.900	-0.336	0.021
-604.142	-10.159	0.211	-0.140
-603.128	-98.403	-0.312	0.080
-602.113	800.000	-0.114	0.319
-601.098	-87.869	-0.102	-0.031
-600.084	800.000	0.048	0.157
-599.069	50.539	-0.283	-0.267
-598.055	351.544	-0.162	0.321
-597.040	90.898	-0.095	-0.106
-596.025	800.000	-0.018	0.052
-595.011	54.573	-0.223	0.215
-593.996	397.120	-0.096	-0.199
-592.982	800.000	-0.043	-0.168
-591.967	-200.000	0.017	0.082
-590.952	211.673	0.083	-0.130
-589.938	244.518	-0.112	-0.188
-588.923	360.946	0.146	0.292
-587.909	315.483	-0.091	-0.172
-586.894	800.000	0.023	0.066
-585.879	566.763	0.032	-0.078
-584.865	-200.000	0.005	-0.290
-583.850	-200.000	0.055	-0.629
-582.836	-200.000	0.014	-0.324
-581.821	-128.181	0.152	0.022
-580.806	600.760	-0.138	-0.343
-579.792	800.000	0.091	-0.369
-578.777	50.638	-0.121	0.114
-577.763	-200.000	0.000	0.043
-576.748	-182.906	-0.431	-0.008
-575.733	-200.000	0.002	-0.238
-574.719	64.826	-0.161	0.163
-573.704	123.389	-0.100	-0.125
-572.690	181.445	-0.024	-0.035
-571.675	125.393	-0.117	-0.148
-570.661	-102.005	-0.068	0.016
-569.646	-23.145	-0.163	0.098
-568.631	158.923	-0.095	-0.131
-567.617	416.617	0.075	-0.159
-566.602	109.110	-0.186	-0.222
-565.588	-73.970	-0.139	-0.050
-564.573	-93.999	-0.212	-0.058
-563.558	800.000	0.116	0.332
-562.544	800.000	-0.051	0.141
-561.529	-39.939	-0.166	0.086
-560.515	-200.000	0.013	-0.217
-559.500	-178.947	-0.302	-0.007
-558.485	800.000	0.076	0.251
-557.471	63.077	0.149	0.148
-556.456	-125.208	-0.106	0.016
-555.442	-136.962	-0.144	0.016
-554.427	429.051	-0.127	0.273
-553.412	-200.000	-0.014	0.172
-552.398	-200.000	0.039	0.287
-551.383	-6.702	-0.202	-0.137
-550.369	-30.251	-0.128	-0.073
-549.354	-111.113	0.367	0.075
-548.339	-72.896	-0.221	-0.081
-547.325	107.196	-0.063	-0.075
-546.310	91.389	0.201	0.225
-545.296	-67.587	0.271	0.106
-544.281	14.264	0.160	0.124
-543.266	-200.000	-0.007	0.130
-542.252	800.000	-0.035	-0.100
-541.237	-12.583	-0.193	-0.125
-540.223	-130.907	-0.377	0.050
-539.208	544.223	0.073	-0.173
-538.193	-108.984	0.136	-0.029
-537.179	-103.064	0.058	-0.014
-536.164	-5.851	0.271	-0.185
-535.150	-43.099	-0.299	0.151
-534.135	689.650	-0.095	0.247
-533.121	-118.198	-0.151	0.027
-532.106	-113.147	0.242	-0.048
-531.091	-29.907	0.118	0.067
-530.077	-42.403	-0.141	-0.072
-529.062	-0.863	0.198	0.140
-528.048	462.588	0.121	-0.269
-527.033	66.292	0.124	0.126
-526.018	-144.623	-0.402	0.037
-525.004	58.129	0.083	-0.081
-523.989	800.000	-0.066	0.217
-522.975	67.205	-0.236	-0.240
-521.960	45.578	0.124	0.114
-520.945	21.656	-0.243	0.197
-519.931	59.665	-0.170	0.167
-518.916	-200.000	0.010	-0.091
-517.902	800.000	-0.057	0.238
-516.887	-55.704	-0.456	-0.203
-515.872	-88.836	-0.261	0.077
-514.858	-200.000	-0.015	-0.094
-513.843	-158.834	0.246	0.014
-512.829	-126.047	-0.333	0.050
-511.814	800.000	0.038	0.122
-510.799	800.000	-0.017	-0.051
-509.785	-33.834	-0.032	0.017
-508.770	800.000	0.066	-0.219
-507.756	94.995	-0.147	-0.166
-506.741	310.076	0.051	-0.094
-505.726	500.880	-0.114	0.262
-504.712	-144.754	-0.049	0.004
-503.697	800.000	0.033	-0.129
-502.683	-142.798	-0.193	-0.019
-501.668	800.000	0.055	-0.221
-500.653	-127.136	-0.243	-0.035
-499.639	-200.000	0.016	-0.343
-498.624	505.966	-0.160	0.368
-497.610	-68.070	0.228	-0.088
-496.595	299.616	-0.145	-0.265
-495.581	145.715	-0.250	-0.333
-494.566	-139.683	0.073	0.008
-493.551	-23.795	0.291	0.173
-492.537	-58.501	0.379	0.163
-491.522	224.992	-0.082	0.132
-490.508	75.833	-0.187	0.197
-489.493	-200.000	-0.035	-0.284
-488.478	-139.850	0.493	0.052
-487.464	155.630	-0.077	0.105
-486.449	-200.000	0.051	0.281
-485.435	-200.000	0.015	-0.142
-484.420	287.807	0.088	-0.158
-483.405	52.348	0.375	0.356
-482.391	77.998	-0.132	-0.140
-481.376	66.534	0.103	-0.104
-480.362	580.895	0.080	-0.195
-479.347	187.577	-0.146	-0.216
-478.332	-160.386	-0.181	0.010
-477.318	32.090	-0.028	-0.024
-476.303	-2.621	0.127	-0.089
-475.289	-56.851	-0.266	-0.117
-474.274	800.000	-0.051	-0.194
-473.259	116.063	-0.011	0.014
-472.245	21.778	0.256	0.207
-471.230	94.490	-0.140	-0.158
-470.216	17.977	0.303	-0.240
-469.201	-154.043	0.145	-0.010
-468.186	31.404	-0.054	0.046
-467.172	448.713	-0.053	-0.117
-466.157	-200.000	0.037	-0.265
-465.143	176.914	-0.124	0.179
-464.128	0.242	0.191	0.135
-463.113	122.261	-0.027	-0.033
-462.099	288.646	0.149	0.267
-461.084	-109.392	0.196	0.041
-460.070	-200.000	0.034	-0.312
-459.055	-200.000	-0.042	0.228
-458.040	800.000	-0.033	0.131
-457.026	310.104	0.227	0.423
-456.011	-52.352	-0.138	-0.063
-454.997	-134.904	-0.084	-0.010
-453.982	-119.147	0.144	-0.025
-452.968	682.473	0.089	-0.230
-451.953	114.416	0.065	-0.079
-450.938	800.000	0.021	0.088
-449.924	-17.465	-0.222	0.139
-448.909	-61.961	0.175	-0.073
-447.895	-117.740	-0.127	0.023
-446.880	109.021	-0.049	-0.059
-445.865	71.546	0.314	0.324
-444.851	-200.000	0.016	0.153
-443.836	50.309	0.118	0.111
-442.822	20.886	0.125	-0.100
-441.807	43.332	0.041	-0.037
-440.792	-71.947	-0.366	0.135
-439.778	-50.272	0.188	-0.088
-438.763	-154.436	0.167	-0.011
-437.749	-59.759	0.277	-0.118
-436.734	322.558	0.153	0.289
-435.719	800.000	-0.109	-0.300
-434.705	115.025	0.230	0.278
-433.690	-200.000	-0.044	0.278
-432.676	92.013	-0.027	-0.030
-431.661	204.580	-0.057	0.088
-430.646	-79.440	0.099	-0.033
-429.632	-182.816	-0.117	0.002
-428.617	800.000	0.051	-0.144
-427.603	145.195	-0.112	-0.149
-426.588	2.482	0.273	-0.196
-425.573	-200.000	-0.006	0.049
-424.559	-30.514	0.123	-0.069
-423.544	-126.448	-0.167	0.025
-422.530	508.238	0.106	0.245
-421.515	-200.000	0.015	0.135
-420.500	-96.527	-0.157	0.041
-419.486	366.886	-0.103	-0.206
-418.471	119.463	-0.142	-0.175
-417.457	-81.767	0.245	0.080
-416.442	260.151	-0.098	-0.168
-415.428	-152.817	-0.192	-0.013
-414.413	-64.554	-0.109	0.044
-413.398	-200.000	-0.021	0.217
-412.384	78.952	0.083	-0.088
-411.369	-160.843	-0.233	0.012
-410.355	-153.286	-0.210	0.015
-409.340	488.193	0.149	-0.336
-408.325	225.442	0.085	-0.136
-407.311	763.826	0.051	-0.138
-406.296	232.915	0.048	0.078
-405.282	265.058	-0.199	0.344
-404.267	60.014	-0.118	0.115
-403.252	783.811	-0.059	0.160
-402.238	-200.000	0.033	-0.185
-401.223	102.514	-0.109	-0.126
-400.209	-23.216	0.145	0.087
-399.194	-46.810	-0.062	-0.030
-398.179	-126.434	0.150	0.022
-397.165	-200.000	-0.042	-0.220
-396.150	9.405	-0.090	-0.067
-395.136	-200.000	-0.047	0.232
-394.121	-200.000	0.056	0.301
-393.106	-47.997	0.277	0.133
-392.092	79.612	-0.219	0.233
-391.077	20.112	0.100	-0.080
-390.063	145.380	0.193	0.256
-389.048	4.673	0.184	0.134
-388.033	-200.000	-0.319	-0.001
-387.019	110.106	-0.151	0.180
-386.004	539.017	-0.100	0.235
-384.990	112.007	0.221	0.264
-383.975	-200.000	0.038	0.244
-382.960	14.047	-0.204	-0.157
-381.946	170.274	-0.246	0.349
-380.931	-123.845	-0.234	-0.037
-379.917	28.312	-0.119	-0.100
-378.902	-73.075	0.091	0.033
-377.888	114.412	-0.101	0.121
-376.873	325.613	-0.183	-0.347
-375.858	31.202	-0.280	0.238
-374.844	-3.487	0.098	-0.067
-373.829	-200.000	0.014	0.069
-372.815	-200.000	0.009	-0.046
-371.800	-138.090	0.109	0.012
-370.785	-200.000	0.005	-0.052
-369.771	-135.104	0.174	0.021
-368.756	800.000	0.042	-0.123
-367.742	104.097	0.077	-0.090
-366.727	59.796	-0.177	-0.173
-365.712	385.196	0.069	-0.141
-364.698	-8.850	0.155	0.103
-363.683	31.424	0.096	0.082
-362.669	117.954	-0.139	-0.169
-361.654	-200.000	0.020	0.264
-360.639	-11.267	0.400	-0.261
-359.625	-124.919	0.400	-0.061
-358.610	282.952	0.160	-0.284
-357.596	800.000	0.064	-0.228
-356.581	800.000	-0.063	-0.266
-355.566	-49.528	0.385	0.181
-354.552	-200.000	0.017	-0.233
-353.537	94.563	0.176	-0.198
-352.523	800.000	-0.081	-0.255
-351.508	-200.000	0.011	-0.087
-350.493	77.199	-0.051	0.054
-349.479	-200.000	0.043	0.414
-348.464	-200.000	-0.003	0.251
-347.450	-45.730	-0.070	-0.034
-346.435	17.380	0.182	-0.143
-345.420	150.419	-0.153	-0.206
-344.406	-87.203	0.272	-0.082
-343.391	-23.125	-0.206	0.123
-342.377	-92.983	-0.390	-0.107
-341.362	-74.070	0.747	-0.268
-340.348	-14.060	0.349	0.223
-339.333	20.329	0.243	-0.194
-338.318	-88.831	-0.150	-0.044
-337.304	381.664	0.148	0.301
-336.289	127.554	0.103	0.129
-335.275	66.481	-0.140	-0.141
-334.260	-28.938	-0.194	0.110
-333.245	191.934	0.175	-0.261
-332.231	-112.495	-0.108	0.021
-331.216	88.445	-0.262	-0.287
-330.202	121.351	-0.142	0.174
-329.187	-96.029	-0.096	-0.025
-328.172	105.066	0.089	0.104
-327.158	328.112	0.095	0.180
-326.143	373.984	-0.069	0.139
-325.129	-116.067	-0.248	-0.046
-324.114	680.886	0.087	0.223
-323.099	-81.733	0.028	0.009
-322.085	20.058	-0.071	-0.057
-321.070	20.838	0.127	-0.101
-320.056	437.142	0.104	-0.224
-319.041	-156.898	0.472	-0.029
-318.026	-109.663	0.267	0.055
-317.012	-200.000	0.050	0.218
-315.997	-200.000	-0.011	-0.150
-314.983	318.017	0.077	0.144
-313.968	62.756	0.092	-0.091
-312.953	-117.252	-0.271	0.049
-311.939	-200.000	-0.016	0.125
-310.924	-51.757	0.420	0.193
-309.910	-103.068	0.235	0.055
-308.895	-200.000	-0.003	-0.069
-307.880	-138.660	0.302	-0.033
-306.866	53.674	-0.126	0.120
-305.851	680.376	0.106	0.271
-304.837	-200.000	0.031	0.265
-303.822	-200.000	-0.010	-0.346
-302.807	340.032	-0.185	-0.357
-301.793	-200.000	0.022	0.159
-300.778	467.250	-0.040	0.088
-299.764	179.369	0.205	0.296
-298.749	-77.022	0.347	-0.120
-297.735	711.447	0.135	-0.352
-296.720	800.000	0.082	-0.260
-295.705	191.009	0.064	0.095
-294.691	-27.196	-0.168	0.096
-293.676	525.162	0.134	-0.311
-292.662	-13.778	-0.139	0.089
-291.647	800.000	0.054	-0.208
-290.632	-200.000	-0.024	0.197
-289.618	800.000	0.027	0.099
-288.603	103.132	0.278	-0.322
-287.589	800.000	0.004	0.013
-286.574	800.000	-0.084	0.313
-285.559	-200.000	0.032	0.277
-284.545	749.414	-0.168	-0.448
-283.530	-200.000	-0.002	-0.033
-282.516	45.786	-0.088	0.081
-281.501	20.543	-0.247	0.197
-280.486	284.940	0.287	-0.510
-279.472	260.229	0.046	0.078
-278.457	800.000	0.055	-0.238
-277.443	95.041	0.211	-0.237
-276.428	163.418	0.086	-0.119
-275.413	-42.324	0.189	0.095
-274.399	-146.341	0.335	-0.029
-273.384	-200.000	0.059	0.489
-272.370	92.270	0.254	0.283
-271.355	181.995	-0.121	0.176
-270.340	347.285	-0.137	-0.266
-269.326	-200.000	-0.062	-0.289
-268.311	-44.662	0.285	0.140
-267.297	-138.931	-0.146	0.016
-266.282	68.978	-0.146	0.148
-265.267	-200.000	-0.004	0.579
-264.253	800.000	-0.016	-0.044
-263.238	128.345	-0.213	-0.268
-262.224	732.921	-0.100	-0.265
-261.209	161.323	0.114	-0.157
-260.195	455.323	0.049	0.107
-259.180	2.573	0.229	-0.164
-258.165	800.000	-0.040	0.140
-257.151	800.000	0.024	-0.085
-256.136	24.011	-0.152	-0.123
-255.122	176.556	-0.123	-0.177
-254.107	800.000	0.080	-0.230
-253.092	-200.000	0.064	0.364
-252.078	-80.523	-0.133	0.044
-251.063	-92.421	0.203	0.056
-250.049	97.668	0.017	-0.020
-249.034	-200.000	0.030	0.386
-248.019	-36.127	-0.249	-0.133
-247.005	-165.121	0.224	-0.010
-245.990	-87.103	0.167	-0.050
-244.976	-51.218	0.073	0.034
-243.961	-151.251	0.097	0.007
-242.946	263.984	0.133	0.228
-241.932	-200.000	0.011	0.053
-240.917	-200.000	-0.084	0.389
-239.903	800.000	-0.081	0.307
-238.888	-200.000	-0.047	0.250
-237.873	-188.599	-0.122	0.001
-236.859	52.563	0.108	0.101
-235.844	-200.000	-0.004	0.020
-234.830	-200.000	-0.017	-0.454
-233.815	-90.068	0.146	0.042
-232.800	250.762	-0.022	0.037
-231.786	-30.667	-0.135	-0.075
-230.771	-41.916	0.121	-0.061
-229.757	-40.992	0.098	0.050
-228.742	464.204	-0.081	0.178
-227.727	57.569	0.088	-0.085
-226.713	-88.919	-0.243	0.071
-225.698	-200.000	-0.007	0.174
-224.684	-200.000	-0.029	-0.227
-223.669	-21.903	0.041	0.025
-222.655	-51.647	-0.474	-0.218
-221.640	134.781	-0.288	0.368
-220.625	-116.905	-0.123	-0.022
-219.611	800.000	-0.025	-0.072
-218.596	-200.000	-0.023	0.351
-217.582	118.726	-0.224	-0.273
-216.567	622.370	0.055	0.137
-215.552	-200.000	-0.021	0.150
-214.538	-200.000	-0.012	-0.186
-213.523	800.000	-0.015	0.057
-212.509	23.418	-0.283	0.229
-211.494	800.000	-0.099	-0.424
-210.479	245.650	-0.074	-0.122
-209.465	-99.070	0.410	0.102
-208.450	-29.674	0.082	-0.046
-207.436	38.740	-0.180	0.158
-206.421	-200.000	0.047	0.203
-205.406	324.110	0.084	-0.157
-204.392	61.468	0.233	-0.228
-203.377	-200.000	0.007	0.123
-202.363	-200.000	-0.042	-0.249
-201.348	208.818	-0.091	0.140
-200.333	-82.939	-0.248	0.079
-199.319	61.459	-0.149	0.146
-198.304	-62.084	-0.352	-0.144
-197.290	-200.000	0.030	-0.257
-196.275	226.594	-0.117	0.186
-195.260	143.345	-0.123	0.161
-194.246	-88.981	0.189	0.055
-193.231	-200.000	-0.014	0.126
-192.217	498.857	-0.116	-0.264
-191.202	-200.000	-0.065	0.449
-190.187	271.227	0.162	0.280
-189.173	-125.186	0.091	0.014
-188.158	114.696	0.263	0.316
-187.144	-200.000	-0.044	-0.222
-186.129	119.844	-0.081	0.099
-185.114	44.740	0.221	-0.200
-184.100	366.776	0.042	0.082
-183.085	-141.857	0.228	0.022
-182.071	-58.739	-0.208	-0.088
-181.056	280.338	0.091	0.160
-180.042	74.282	-0.286	0.295
-179.027	-200.000	0.013	0.081
-178.012	-5.394	-0.266	-0.179
-176.998	-200.000	-0.019	-0.200
-175.983	800.000	0.101	0.293
-174.969	330.537	0.151	-0.285
-173.954	-200.000	-0.005	-0.167
-172.939	-200.000	-0.010	0.370
-171.925	-200.000	-0.045	0.197
-170.910	-28.416	-0.122	-0.069
-169.896	-49.436	0.441	-0.206
-168.881	217.171	0.229	0.358
-167.866	-85.062	0.059	-0.018
-166.852	-200.000	0.006	-0.131
-165.837	-160.941	0.130	0.007
-164.823	116.654	-0.179	0.215
-163.808	154.506	-0.069	-0.093
-162.793	33.022	0.380	-0.323
-161.779	800.000	-0.106	-0.305
-160.764	-22.785	0.272	-0.161
-159.750	175.509	-0.059	-0.083
-158.735	-29.465	0.213	0.120
-157.720	412.730	-0.064	0.133
-156.706	8.102	0.170	-0.125
-155.691	-33.469	-0.303	0.164
-154.677	644.001	0.135	-0.338
-153.662	466.117	-0.026	0.056
-152.647	-154.448	0.314	0.021
-151.633	800.000	-0.064	0.221
-150.618	-200.000	0.013	0.060
-149.604	288.885	-0.113	0.201
-148.589	-200.000	-0.005	0.061
-147.574	-91.538	-0.338	0.094
-146.560	119.575	0.182	0.222
-145.545	800.000	0.040	0.112
-144.531	-100.867	0.425	0.102
-143.516	241.430	-0.052	0.085
-142.502	-200.000	-0.040	-0.420
-141.487	800.000	0.016	0.066
-140.472	-200.000	-0.032	0.217
-139.458	99.172	0.131	-0.149
-138.443	-200.000	0.040	0.442
-137.429	-97.222	0.327	-0.084
-136.414	-200.000	0.009	0.171
-135.399	2.495	0.245	0.174
-134.385	-119.856	0.119	-0.020
-133.370	456.938	-0.044	0.095
-132.356	-39.598	-0.247	-0.127
-131.341	-59.182	0.079	-0.033
-130.326	48.180	0.266	0.244
-129.312	-99.445	0.189	0.047
-128.297	-80.203	0.190	-0.062
-127.283	173.580	0.120	0.170
-126.268	-30.260	0.269	0.150
-125.253	800.000	0.069	0.218
-124.239	-200.000	-0.003	0.067
-123.224	800.000	0.052	-0.174
-122.210	205.060	-0.016	0.024
-121.195	-118.443	0.175	0.030
