DTS Sentinel unit serial number:	SN413079Multiplexer serial number:	ORYXHardware model number:	OX4-SRSoftware version number:	ORYX F/W v4.00 Oryx Data Collector v3.7.2.0data status	okinstallation	princeton_trtdifferential loss correction	single-endedforward channel	channel 2reverse channel	N/Adate	2019/09/11time	12:13:11forward acquisition time	60.00reverse acquisition time	0.00gamma	496.2192k internal	0.2299k external	0.2299temperature offset calibration	0.9963default loss term (dB/km)	0.3790temperature slope calibration	1.0000multiplexer offset coefficient	1.0000multiplexer slope coefficient	1.0000fibre end	0.00T internal ref (°C)	39.81T ext. ref 1 (°C)	0.20T ext. ref 2 (°C)	38.15length (m)	temperature (°C)	Stokes	anti-Stokes-747.200	-200.000	0.012	-0.404
-746.185	-54.744	0.173	-0.080
-745.171	-138.056	-0.090	-0.010
-744.156	28.248	-0.153	0.132
-743.142	132.830	-0.172	-0.226
-742.127	247.870	0.121	-0.210
-741.112	61.395	0.190	0.193
-740.098	-95.531	-0.299	0.082
-739.083	-121.531	0.149	-0.025
-738.069	800.000	0.073	0.275
-737.054	-41.782	-0.206	-0.108
-736.039	-183.732	-0.345	-0.006
-735.025	-4.939	0.231	0.162
-734.010	-123.038	-0.195	-0.032
-732.996	-200.000	0.046	0.344
-731.981	800.000	-0.043	0.144
-730.966	-47.041	0.108	0.054
-729.952	-63.297	-0.318	-0.134
-728.937	-200.000	0.076	-0.391
-727.923	15.625	0.159	-0.127
-726.908	248.640	-0.167	-0.288
-725.894	800.000	0.050	-0.173
-724.879	777.628	0.060	0.167
-723.864	-200.000	-0.027	0.242
-722.850	-200.000	-0.023	0.244
-721.835	-34.926	0.162	-0.090
-720.821	21.030	0.059	0.049
-719.806	251.344	-0.137	-0.237
-718.791	31.314	-0.079	0.069
-717.777	-93.054	-0.422	-0.120
-716.762	-200.000	0.038	-0.180
-715.748	-100.127	0.123	0.031
-714.733	-200.000	0.053	0.255
-713.718	-102.430	-0.371	0.091
-712.704	685.799	-0.289	0.771
-711.689	-200.000	0.015	0.242
-710.675	179.251	-0.163	0.242
-709.660	580.289	-0.045	-0.113
-708.645	12.424	-0.221	-0.174
-707.631	-200.000	0.022	0.222
-706.616	-41.324	-0.280	0.147
-705.602	89.429	0.253	-0.287
-704.587	-200.000	0.026	0.317
-703.572	-178.662	0.048	0.001
-702.558	-132.006	0.249	0.033
-701.543	-200.000	0.001	0.247
-700.529	159.976	0.107	-0.152
-699.514	-56.955	0.227	-0.102
-698.499	-200.000	-0.026	-0.419
-697.485	417.229	-0.122	0.266
-696.470	73.128	-0.051	0.054
-695.456	-200.000	0.236	0.001
-694.441	-63.967	-0.069	-0.029
-693.426	-200.000	0.045	-0.223
-692.412	103.787	-0.084	0.101
-691.397	-50.855	-0.231	-0.111
-690.383	55.078	-0.080	0.079
-689.368	800.000	-0.047	0.146
-688.354	800.000	-0.051	0.218
-687.339	13.175	0.049	-0.039
-686.324	82.739	-0.127	0.141
-685.310	275.799	0.048	0.086
-684.295	527.115	0.062	0.148
-683.281	134.631	-0.129	0.171
-682.266	-35.565	-0.101	0.056
-681.251	-200.000	-0.025	0.175
-680.237	146.834	-0.090	0.123
-679.222	-200.000	0.007	0.268
-678.208	663.787	-0.057	0.149
-677.193	169.298	-0.046	0.067
-676.178	13.066	-0.145	0.114
-675.164	6.961	-0.225	-0.171
-674.149	-23.091	-0.054	0.033
-673.135	-200.000	0.017	-0.458
-672.120	479.164	0.011	0.025
-671.105	-115.525	0.162	0.031
-670.091	-2.147	-0.103	-0.074
-669.076	145.439	-0.267	-0.364
-668.062	-168.456	-0.093	0.004
-667.047	-200.000	0.016	-0.274
-666.032	4.435	-0.092	-0.069
-665.018	-200.000	0.002	0.043
-664.003	-88.712	0.191	-0.058
-662.989	-200.000	0.015	-0.098
-661.974	800.000	-0.027	0.115
-660.959	38.019	-0.071	0.064
-659.945	-20.624	-0.078	-0.049
-658.930	-200.000	0.025	-0.226
-657.916	65.285	0.107	0.110
-656.901	156.380	-0.063	0.088
-655.886	800.000	-0.047	0.209
-654.872	-176.766	-0.369	-0.010
-653.857	156.672	-0.075	0.105
-652.843	-101.712	0.091	0.022
-651.828	627.353	0.090	0.231
-650.814	-131.672	0.143	0.019
-649.799	-83.414	0.245	-0.080
-648.784	-60.802	-0.227	0.098
-647.770	-200.000	0.040	0.214
-646.755	-76.679	0.193	0.069
-645.741	800.000	0.006	-0.019
-644.726	-200.000	-0.025	0.283
-643.711	355.302	0.124	0.251
-642.697	36.868	-0.048	-0.043
-641.682	800.000	0.139	-0.548
-640.668	-9.654	0.049	-0.033
-639.653	-200.000	-0.019	-0.143
-638.638	691.674	-0.045	0.119
-637.624	-200.000	0.051	0.250
-636.609	-200.000	0.013	-0.076
-635.595	122.072	-0.038	-0.048
-634.580	-125.887	-0.100	0.015
-633.565	-40.579	-0.201	0.106
-632.551	-200.000	0.015	-0.105
-631.536	1.280	0.094	0.069
-630.522	800.000	0.086	-0.261
-629.507	-2.722	-0.143	-0.101
-628.492	-63.001	0.236	0.099
-627.478	-200.000	0.006	0.240
-626.463	443.617	-0.122	0.271
-625.449	-160.345	-0.183	0.010
-624.434	86.827	-0.134	-0.150
-623.419	590.375	0.155	-0.389
-622.405	508.803	-0.059	-0.139
-621.390	-200.000	0.042	0.336
-620.376	259.203	0.096	-0.169
-619.361	-200.000	0.004	-0.127
-618.346	-200.000	0.042	-0.190
-617.332	582.041	-0.088	-0.219
-616.317	-55.191	0.229	-0.105
-615.303	-81.505	-0.157	0.052
-614.288	10.871	-0.088	0.068
-613.273	-87.807	-0.071	-0.022
-612.259	110.918	-0.084	0.103
-611.244	99.121	-0.289	0.339
-610.230	-29.596	0.223	-0.129
-609.215	-59.178	0.245	0.107
-608.201	203.536	0.204	-0.320
-607.186	800.000	-0.030	-0.128
-606.171	800.000	-0.030	-0.111
-605.157	209.711	0.149	0.237
-604.142	-200.000	0.006	-0.052
-603.128	118.596	-0.214	-0.269
-602.113	-182.841	0.208	0.004
-601.098	727.158	-0.047	0.126
-600.084	551.716	0.113	-0.276
-599.069	153.379	0.053	-0.073
-598.055	-144.978	0.031	-0.003
-597.040	-109.886	-0.318	0.068
-596.025	-200.000	-0.010	0.270
-595.011	-35.936	-0.293	0.161
-593.996	177.513	0.042	0.061
-592.982	508.368	0.135	0.317
-591.967	162.877	-0.189	0.269
-590.952	-122.095	0.144	0.024
-589.938	791.132	-0.120	-0.334
-588.923	-144.008	-0.192	-0.018
-587.909	142.018	0.309	0.415
-586.894	-36.324	-0.270	-0.148
-585.879	217.323	-0.018	-0.029
-584.865	0.639	-0.134	-0.097
-583.850	-105.347	0.175	-0.040
-582.836	-49.564	0.198	-0.096
-581.821	-200.000	-0.012	-0.161
-580.806	50.039	-0.236	-0.225
-579.792	-200.000	-0.086	0.429
-578.777	375.555	0.136	0.280
-577.763	73.206	-0.168	0.179
-576.748	800.000	-0.080	-0.280
-575.733	-113.411	-0.059	0.012
-574.719	310.154	0.054	-0.102
-573.704	-61.273	0.367	0.157
-572.690	162.247	-0.091	0.130
-571.675	-30.114	-0.194	0.112
-570.661	-26.948	0.205	0.121
-569.646	184.784	0.232	-0.349
-568.631	201.360	-0.213	-0.332
-567.617	-118.295	0.061	0.011
-566.602	-200.000	0.015	0.145
-565.588	-43.287	-0.303	0.156
-564.573	754.484	0.023	-0.064
-563.558	-48.785	0.074	0.036
-562.544	-172.532	-0.266	0.009
-561.529	-148.237	-0.148	-0.012
-560.515	-47.820	-0.220	0.108
-559.500	-67.997	-0.262	-0.104
-558.485	244.005	-0.202	-0.344
-557.471	222.655	0.062	-0.101
-556.456	-139.611	0.289	-0.031
-555.442	433.169	-0.199	0.437
-554.427	-200.000	0.039	-0.289
-553.412	221.567	-0.122	-0.198
-552.398	-62.948	-0.038	0.016
-551.383	-83.645	0.416	0.135
-550.369	-49.646	-0.247	0.119
-549.354	28.109	-0.145	0.124
-548.339	-57.148	0.322	0.144
-547.325	68.508	-0.082	-0.085
-546.310	-200.000	-0.034	-0.405
-545.296	-200.000	-0.012	-0.421
-544.281	121.350	-0.150	0.189
-543.266	595.935	-0.206	-0.517
-542.252	-131.051	0.416	-0.056
-541.237	-20.677	-0.054	0.034
-540.223	-79.419	0.059	-0.020
-539.208	89.351	-0.202	0.227
-538.193	-112.622	0.114	0.023
-537.179	456.890	-0.094	-0.211
-536.164	26.565	0.261	-0.221
-535.150	94.184	0.110	-0.127
-534.135	96.156	0.022	-0.026
-533.121	442.672	0.137	-0.304
-532.106	309.063	-0.031	-0.058
-531.091	-200.000	-0.005	-0.148
-530.077	158.652	0.119	-0.168
-529.062	62.186	0.167	0.169
-528.048	5.381	0.110	-0.082
-527.033	-200.000	-0.005	-0.071
-526.018	9.612	0.154	0.118
-525.004	465.055	0.113	0.255
-523.989	-118.593	0.054	-0.010
-522.975	-200.000	0.019	0.084
-521.960	-43.855	-0.172	-0.088
-520.945	-200.000	-0.011	-0.347
-519.931	243.190	-0.139	-0.235
-518.916	-77.653	-0.385	-0.135
-517.902	-23.421	-0.135	-0.082
-516.887	800.000	0.050	-0.208
-515.872	-118.621	0.303	0.054
-514.858	800.000	-0.017	0.047
-513.843	-34.156	0.303	-0.168
-512.829	-200.000	-0.061	-0.363
-511.814	167.183	-0.087	-0.124
-510.799	619.217	-0.131	0.333
-509.785	-143.088	-0.430	-0.042
-508.770	79.957	-0.209	-0.227
-507.756	171.305	0.020	-0.029
-506.741	164.557	0.100	-0.142
-505.726	-137.685	-0.095	0.011
-504.712	-114.290	0.302	0.059
-503.697	800.000	0.074	-0.275
-502.683	-114.226	0.176	0.034
-501.668	68.933	-0.141	0.146
-500.653	-200.000	-0.002	-0.031
-499.639	-110.761	0.181	0.038
-498.624	-200.000	-0.003	-0.109
-497.610	105.464	-0.230	-0.275
-496.595	-69.266	-0.093	0.036
-495.581	366.145	-0.033	-0.068
-494.566	10.838	-0.148	0.114
-493.551	55.553	-0.079	-0.078
-492.537	-200.000	0.054	-0.300
-491.522	68.414	0.257	-0.266
-490.508	-152.349	-0.307	0.022
-489.493	-69.767	0.202	-0.078
-488.478	124.142	0.157	-0.199
-487.464	315.240	0.047	-0.090
-486.449	76.220	-0.109	-0.117
-485.435	800.000	-0.083	0.289
-484.420	161.400	-0.154	0.217
-483.405	800.000	-0.018	0.063
-482.391	181.296	0.163	-0.242
-481.376	35.979	-0.212	-0.188
-480.362	508.399	0.150	-0.352
-479.347	61.795	0.119	-0.120
-478.332	-21.347	-0.173	0.107
-477.318	-200.000	0.012	-0.113
-476.303	-200.000	0.013	-0.354
-475.289	-200.000	-0.061	0.364
-474.274	798.446	0.074	0.205
-473.259	9.390	-0.122	-0.093
-472.245	-200.000	-0.005	0.068
-471.230	14.267	0.425	-0.335
-470.216	800.000	0.066	0.266
-469.201	-7.338	0.160	-0.110
-468.186	726.867	-0.027	0.072
-467.172	38.452	0.325	0.292
-466.157	265.347	0.034	-0.059
-465.143	-122.801	-0.190	0.031
-464.128	-200.000	0.023	0.238
-463.113	-112.509	0.167	0.034
-462.099	-200.000	0.034	0.306
-461.084	-200.000	-0.038	0.479
-460.070	-106.468	-0.019	-0.004
-459.055	-25.211	0.219	0.131
-458.040	-112.315	0.139	0.028
-457.026	-126.648	0.150	0.022
-456.011	22.213	-0.109	-0.090
-454.997	402.839	0.127	0.270
-453.982	-106.914	0.241	0.054
-452.968	-51.610	0.043	0.020
-451.953	-200.000	0.025	0.446
-450.938	-200.000	-0.027	-0.240
-449.924	325.702	0.191	-0.369
-448.909	-39.743	-0.041	-0.022
-447.895	77.979	-0.071	0.077
-446.880	233.987	-0.076	0.126
-445.865	-200.000	0.049	-0.258
-444.851	-6.904	-0.115	-0.079
-443.836	-200.000	0.009	0.206
-442.822	222.245	-0.188	0.305
-441.807	-165.444	0.056	0.002
-440.792	800.000	-0.065	0.190
-439.778	-157.855	0.200	-0.012
-438.763	-18.711	-0.268	0.168
-437.749	-99.332	0.261	0.066
-436.734	-51.750	0.352	-0.165
-435.719	-9.800	-0.393	0.264
-434.705	-10.489	-0.106	-0.071
-433.690	-4.745	-0.167	0.116
-432.676	-95.031	0.105	0.029
-431.661	-83.170	-0.208	0.067
-430.646	463.957	0.056	0.126
-429.632	34.217	-0.165	-0.145
-428.617	42.260	0.350	0.321
-427.603	307.445	-0.126	0.236
-426.588	-140.617	-0.106	-0.011
-425.573	92.863	-0.089	0.102
-424.559	4.452	-0.057	0.042
-423.544	217.673	0.154	0.247
-422.530	-128.181	0.308	0.044
-421.515	90.942	-0.142	0.160
-420.500	539.227	0.029	0.069
-419.486	-128.422	-0.052	-0.007
-418.471	800.000	-0.007	-0.021
-417.457	420.793	-0.146	-0.316
-416.442	800.000	0.045	-0.190
-415.428	10.716	-0.191	0.147
-414.413	800.000	-0.067	0.233
-413.398	-120.685	0.240	-0.041
-412.384	-200.000	0.065	-0.392
-411.369	-200.000	0.014	0.144
-410.355	36.811	0.014	-0.012
-409.340	-111.655	0.318	-0.065
-408.325	-161.092	-0.266	-0.014
-407.311	-200.000	0.053	-0.284
-406.296	-36.545	-0.149	-0.081
-405.282	-2.867	0.068	-0.048
-404.267	145.098	-0.045	-0.060
-403.252	-59.863	-0.236	0.102
-402.238	-7.124	-0.340	-0.232
-401.223	735.202	0.101	0.273
-400.209	-200.000	-0.007	-0.043
-399.194	800.000	-0.089	0.358
-398.179	374.746	-0.193	0.396
-397.165	-200.000	0.001	0.097
-396.150	-51.002	0.200	0.095
-395.136	800.000	-0.077	-0.264
-394.121	-117.484	0.257	0.047
-393.106	507.255	-0.025	-0.058
-392.092	608.464	0.178	-0.447
-391.077	-26.028	-0.294	-0.174
-390.063	-200.000	0.007	0.273
-389.048	140.927	0.098	-0.130
-388.033	147.542	0.281	0.382
-387.019	144.110	-0.030	-0.040
-386.004	-200.000	0.004	0.043
-384.990	-32.308	-0.218	-0.123
-383.975	-200.000	-0.004	-0.117
-382.960	328.502	-0.079	0.152
-381.946	-91.044	0.440	0.127
-380.931	750.722	-0.089	0.242
-379.917	61.082	0.159	-0.159
-378.902	-171.675	0.163	-0.005
-377.888	-95.497	0.048	-0.013
-376.873	321.977	0.195	-0.373
-375.858	126.004	-0.278	0.353
-374.844	-70.167	-0.032	-0.012
-373.829	91.036	-0.069	-0.078
-372.815	800.000	0.121	-0.408
-371.800	164.173	-0.238	-0.338
-370.785	-102.086	-0.134	0.032
-369.771	44.829	0.220	0.203
-368.756	-113.816	-0.139	0.027
-367.742	291.970	-0.071	0.130
-366.727	800.000	-0.017	0.067
-365.712	-103.340	-0.260	0.062
-364.698	-200.000	0.003	-0.212
-363.683	-20.299	0.232	0.144
-362.669	-93.167	-0.374	0.105
-361.654	197.306	-0.112	0.172
-360.639	386.741	0.198	0.410
-359.625	27.646	0.225	0.191
-358.610	-200.000	0.021	-0.378
-357.596	-176.323	-0.168	-0.004
-356.581	475.093	0.042	-0.095
-355.566	-200.000	0.018	-0.258
-354.552	-34.289	-0.144	0.079
-353.537	-200.000	0.015	0.317
-352.523	-145.418	-0.288	0.026
-351.508	-73.634	-0.217	0.080
-350.493	-7.566	-0.144	-0.098
-349.479	-200.000	0.004	0.164
-348.464	128.871	0.074	0.094
-347.450	297.595	0.290	-0.536
-346.435	33.778	0.302	-0.264
-345.420	160.482	-0.056	-0.078
-344.406	253.426	-0.137	0.234
-343.391	-41.806	0.164	0.084
-342.377	-73.829	0.032	-0.012
-341.362	-100.104	0.111	-0.028
-340.348	610.561	-0.147	0.368
-339.333	76.703	-0.083	-0.088
-338.318	249.745	0.054	-0.091
-337.304	102.780	0.055	0.065
-336.289	-183.840	-0.047	-0.001
-335.275	-200.000	0.007	0.207
-334.260	29.002	0.091	0.078
-333.245	133.699	0.050	0.065
-332.231	316.387	-0.017	-0.032
-331.216	250.273	-0.144	-0.246
-330.202	-136.878	0.164	-0.019
-329.187	66.803	0.226	0.231
-328.172	-0.305	0.187	-0.133
-327.158	117.391	-0.048	-0.060
-326.143	-167.942	0.590	0.023
-325.129	-6.374	0.041	-0.028
-324.114	-56.488	-0.472	-0.210
-323.099	-99.297	-0.661	0.168
-322.085	8.929	0.260	-0.197
-321.070	266.420	0.162	0.284
-320.056	17.727	-0.063	0.050
-319.041	185.523	0.110	0.164
-318.026	177.169	-0.215	0.315
-317.012	62.819	-0.086	0.086
-315.997	-200.000	0.044	0.275
-314.983	-190.771	0.176	-0.002
-313.968	-19.616	0.405	0.252
-312.953	-2.026	-0.065	-0.046
-311.939	71.348	-0.149	-0.155
-310.924	-200.000	0.000	-0.013
-309.910	-43.949	-0.200	0.101
-308.895	713.138	0.080	0.211
-307.880	45.420	0.229	-0.212
-306.866	111.101	0.332	-0.402
-305.851	-7.245	0.293	0.199
-304.837	17.427	0.152	0.121
-303.822	-60.064	0.175	-0.075
-302.807	173.356	-0.053	-0.076
-301.793	-132.708	0.207	-0.027
-300.778	113.377	0.054	-0.066
-299.764	-200.000	0.022	0.242
-298.749	-111.703	-0.100	0.020
-297.735	-8.214	-0.246	0.166
-296.720	247.974	-0.051	0.087
-295.705	800.000	-0.058	-0.183
-294.691	290.821	-0.160	0.291
-293.676	-7.108	0.147	-0.100
-292.662	-200.000	0.034	-0.387
-291.647	-200.000	0.004	0.120
-290.632	800.000	-0.036	-0.121
-289.618	800.000	0.030	-0.086
-288.603	-45.371	-0.386	0.192
-287.589	-59.701	-0.219	0.094
-286.574	-198.225	0.320	-0.002
-285.559	169.341	-0.082	0.117
-284.545	-163.609	-0.252	0.012
-283.530	-200.000	-0.024	-0.232
-282.516	176.406	-0.149	-0.217
-281.501	-92.224	-0.263	-0.074
-280.486	110.027	0.062	-0.075
-279.472	289.305	-0.092	-0.168
-278.457	-13.117	0.235	-0.153
-277.443	258.681	-0.046	-0.080
-276.428	-36.879	0.263	0.141
-275.413	-28.714	0.211	0.121
-274.399	-50.740	-0.268	-0.126
-273.384	212.532	0.113	0.179
-272.370	31.850	-0.164	-0.141
-271.355	255.508	0.074	-0.127
-270.340	-112.597	0.065	0.013
-269.326	53.176	-0.160	-0.153
-268.311	800.000	-0.018	-0.072
-267.297	-200.000	0.027	0.126
-266.282	2.852	-0.307	0.223
-265.267	26.621	-0.271	0.227
-264.253	-52.134	0.084	0.039
-263.238	137.346	0.111	0.146
-262.224	-134.557	-0.358	0.044
-261.209	-41.543	0.139	-0.072
-260.195	-35.750	-0.094	0.051
-259.180	-35.080	-0.253	0.138
-258.165	-44.682	0.135	0.068
-257.151	-114.277	0.316	0.061
-256.136	16.738	-0.068	0.054
-255.122	-8.945	-0.067	0.045
-254.107	-117.537	0.419	-0.076
-253.092	800.000	0.036	-0.119
-252.078	-200.000	0.003	0.357
-251.063	-195.553	0.113	0.001
-250.049	290.534	-0.068	-0.123
-249.034	-146.263	-0.181	-0.016
-248.019	27.803	-0.115	0.097
-247.005	166.793	0.035	0.050
-245.990	128.135	-0.172	-0.219
-244.976	81.280	0.114	-0.124
-243.961	-138.510	0.327	0.036
-242.946	167.983	-0.136	0.194
-241.932	53.879	-0.053	0.051
-240.917	-200.000	0.013	-0.096
-239.903	357.755	-0.034	0.068
-238.888	-3.113	0.250	-0.174
-237.873	-34.660	-0.060	-0.033
-236.859	697.526	-0.029	-0.077
-235.844	-59.896	-0.124	0.053
-234.830	-13.513	-0.279	0.181
-233.815	800.000	0.153	0.577
-232.800	197.886	0.028	0.043
-231.786	112.298	0.197	-0.239
-230.771	-200.000	-0.101	-0.487
-229.757	-75.501	-0.068	0.024
-228.742	-200.000	-0.035	0.347
-227.727	1.076	-0.039	-0.028
-226.713	-99.673	0.067	0.017
-225.698	395.291	0.171	0.356
-224.684	520.260	-0.066	0.154
-223.669	164.145	-0.123	-0.173
-222.655	59.016	0.173	0.170
-221.640	126.652	0.157	-0.199
-220.625	320.873	0.107	-0.203
-219.611	-24.987	0.085	-0.050
-218.596	158.023	-0.020	0.027
-217.582	253.053	0.308	-0.526
-216.567	-27.179	0.181	-0.105
-215.552	165.251	-0.103	0.146
-214.538	-200.000	0.006	0.086
-213.523	800.000	0.106	-0.334
-212.509	-60.001	0.327	-0.140
-211.494	408.286	-0.076	0.160
-210.479	-165.433	-0.263	0.012
-209.465	38.372	-0.077	0.068
-208.450	159.338	0.173	0.240
-207.436	226.140	0.060	-0.097
-206.421	-55.208	0.096	0.043
-205.406	33.739	-0.078	-0.067
-204.392	-147.838	-0.271	-0.023
-203.377	77.629	-0.122	0.129
-202.363	353.889	-0.091	0.181
-201.348	63.714	-0.197	-0.198
-200.333	124.648	0.302	-0.380
-199.319	-200.000	-0.003	-0.493
-198.304	0.582	-0.168	-0.120
-197.290	25.116	-0.041	0.034
-196.275	800.000	0.059	0.221
-195.260	35.028	-0.120	0.105
-194.246	-98.991	-0.340	-0.086
-193.231	-51.110	0.310	-0.145
-192.217	603.627	0.120	0.299
-191.202	-117.268	-0.231	0.042
-190.187	-134.456	0.297	0.036
-189.173	67.472	-0.180	-0.184
-188.158	-105.070	0.064	-0.015
-187.144	162.051	0.091	0.127
-186.129	-10.923	0.365	0.241
-185.114	-85.682	-0.220	0.068
-184.100	115.444	-0.140	-0.171
-183.085	-50.879	0.195	0.092
-182.071	-83.068	0.259	0.083
-181.056	-35.494	0.113	0.061
-180.042	64.681	-0.092	-0.093
-179.027	-200.000	0.018	0.094
-178.012	44.839	0.144	0.133
-176.998	-1.659	-0.122	-0.086
-175.983	-61.245	-0.365	0.154
-174.969	-200.000	0.087	-0.390
-173.954	-102.837	-0.353	-0.084
-172.939	102.392	0.101	-0.118
-171.925	-122.712	0.289	-0.047
-170.910	-21.280	-0.184	0.112
-169.896	438.694	0.046	0.100
-168.881	26.339	-0.057	-0.047
-167.866	800.000	-0.021	-0.087
-166.852	-200.000	0.070	0.309
-165.837	486.403	-0.038	-0.086
-164.823	63.786	-0.085	0.085
-163.808	-178.399	0.073	-0.002
-162.793	-200.000	-0.049	-0.251
-161.779	92.253	0.013	0.014
-160.764	-145.025	0.247	-0.022
-159.750	481.477	-0.120	-0.271
-158.735	800.000	0.087	0.277
-157.720	249.532	-0.044	0.075
-156.706	48.213	-0.210	0.195
-155.691	-83.164	-0.115	0.037
-154.677	-34.010	-0.296	0.162
-153.662	103.000	-0.123	0.144
-152.647	-171.880	-0.280	0.009
-151.633	309.123	-0.033	0.062
-150.618	-200.000	-0.024	-0.224
-149.604	-7.312	0.126	-0.085
-148.589	680.218	0.048	0.125
-147.574	523.890	0.119	0.278
-146.560	-31.428	-0.115	-0.064
-145.545	800.000	0.047	-0.147
-144.531	-11.331	0.252	0.166
-143.516	109.288	0.215	0.256
-142.502	14.696	0.057	0.045
-141.487	-38.517	-0.319	-0.168
-140.472	-130.492	-0.327	-0.044
-139.458	94.549	0.055	0.062
-138.443	-60.665	0.284	0.120
-137.429	-200.000	-0.020	-0.121
-136.414	800.000	0.039	0.147
-135.399	23.219	-0.321	-0.263
-134.385	-60.313	0.229	-0.097
-133.370	-117.282	-0.275	-0.050
-132.356	-94.655	-0.432	0.117
-131.341	1.431	-0.100	0.071
-130.326	32.652	0.153	-0.131
-129.312	-144.650	0.321	0.029
-128.297	-200.000	0.039	0.229
-127.283	107.136	0.124	0.147
-126.268	-200.000	-0.019	0.109
-125.253	125.353	0.050	-0.063
-124.239	92.617	0.121	-0.136
-123.224	-200.000	-0.052	0.259
-122.210	-154.399	-0.050	-0.003
-121.195	548.135	0.025	0.060
-120.180	800.000	-0.081	-0.245
