DTS Sentinel unit serial number:	SN413079Multiplexer serial number:	ORYXHardware model number:	OX4-SRSoftware version number:	ORYX F/W v4.00 Oryx Data Collector v3.7.2.0data status	okinstallation	princeton_trtdifferential loss correction	single-endedforward channel	channel 2reverse channel	N/Adate	2019/09/16time	14:39:35forward acquisition time	60.00reverse acquisition time	0.00gamma	496.2192k internal	0.2298k external	0.2298temperature offset calibration	0.9939default loss term (dB/km)	0.3790temperature slope calibration	1.0000multiplexer offset coefficient	1.0000multiplexer slope coefficient	1.0000fibre end	0.00T internal ref (°C)	41.69T ext. ref 1 (°C)	14.32T ext. ref 2 (°C)	36.08length (m)	temperature (°C)	Stokes	anti-Stokes-747.200	-200.000	0.014	-0.234
-746.185	38.250	-0.122	0.111
-745.171	-200.000	0.012	0.433
-744.156	-138.781	-0.172	0.019
-743.142	337.183	0.102	0.203
-742.127	137.090	-0.262	0.350
-741.112	-33.229	0.327	-0.185
-740.098	-77.218	0.167	-0.059
-739.083	-200.000	0.031	0.410
-738.069	302.325	-0.186	0.351
-737.054	-200.000	-0.093	-0.603
-736.039	-190.998	0.203	0.002
-735.025	-200.000	0.036	0.231
-734.010	253.809	-0.118	0.205
-732.996	-108.244	-0.340	0.075
-731.981	81.187	-0.106	0.117
-730.966	82.768	0.122	0.135
-729.952	35.210	0.040	-0.035
-728.937	800.000	-0.066	-0.200
-727.923	-94.830	-0.341	0.094
-726.908	-116.166	-0.372	-0.070
-725.894	-74.205	-0.275	-0.101
-724.879	-200.000	0.038	-0.176
-723.864	-21.696	0.093	0.058
-722.850	-89.002	0.254	0.077
-721.835	280.500	0.051	-0.092
-720.821	800.000	0.068	-0.218
-719.806	-162.539	-0.267	0.013
-718.791	-200.000	-0.075	0.504
-717.777	166.348	0.307	0.444
-716.762	-76.550	0.124	0.044
-715.748	-16.060	0.324	0.210
-714.733	800.000	0.074	0.327
-713.718	289.584	-0.104	-0.193
-712.704	-127.098	-0.357	-0.053
-711.689	-101.312	0.100	-0.025
-710.675	800.000	-0.022	-0.086
-709.660	-25.671	0.130	0.078
-708.645	-18.719	-0.250	0.159
-707.631	3.122	-0.125	-0.093
-706.616	147.574	0.071	-0.097
-705.602	800.000	-0.129	-0.403
-704.587	-200.000	0.031	0.172
-703.572	-154.932	-0.182	-0.012
-702.558	-107.685	-0.309	-0.069
-701.543	45.683	0.323	-0.304
-700.529	800.000	0.040	-0.130
-699.514	30.668	0.261	0.228
-698.499	338.541	-0.151	-0.299
-697.485	-200.000	-0.057	0.270
-696.470	85.762	-0.261	0.293
-695.456	78.709	0.201	-0.219
-694.441	-171.092	-0.237	-0.008
-693.426	800.000	0.091	-0.314
-692.412	719.314	0.174	0.470
-691.397	-97.302	-0.105	-0.028
-690.383	-200.000	0.010	-0.145
-689.368	109.172	0.071	0.087
-688.354	42.570	0.207	-0.192
-687.339	145.596	0.156	0.212
-686.324	-200.000	-0.007	0.030
-685.310	-125.861	-0.121	0.019
-684.295	74.650	-0.254	0.272
-683.281	11.337	-0.115	0.090
-682.266	-101.609	-0.197	-0.049
-681.251	-21.682	0.114	0.071
-680.237	-200.000	0.020	0.159
-679.222	39.318	-0.131	0.119
-678.208	20.573	-0.353	-0.290
-677.193	-200.000	0.003	0.348
-676.178	-200.000	-0.000	-0.003
-675.164	65.558	0.028	-0.028
-674.149	-67.542	-0.267	-0.107
-673.135	20.071	0.135	-0.111
-672.120	109.084	-0.225	0.274
-671.105	186.464	0.106	0.161
-670.091	-19.646	-0.220	0.138
-669.076	508.406	-0.107	0.252
-668.062	-66.726	-0.232	-0.094
-667.047	-83.058	-0.073	-0.024
-666.032	-200.000	-0.003	0.533
-665.018	-200.000	-0.012	-0.121
-664.003	-113.029	0.070	-0.014
-662.989	312.204	-0.083	-0.159
-661.974	195.841	0.105	-0.163
-660.959	-81.923	-0.402	0.134
-659.945	23.819	-0.177	-0.149
-658.930	-22.504	-0.139	0.085
-657.916	-83.249	0.130	-0.042
-656.901	800.000	0.005	-0.020
-655.886	-57.399	0.135	0.060
-654.872	800.000	-0.079	-0.334
-653.857	-120.328	0.210	-0.036
-652.843	235.339	0.200	-0.335
-651.828	13.726	0.183	0.145
-650.814	-75.209	0.374	0.136
-649.799	384.366	-0.169	-0.354
-648.784	96.334	0.306	-0.356
-647.770	800.000	0.108	-0.330
-646.755	153.670	0.195	-0.272
-645.741	-200.000	-0.038	-0.320
-644.726	130.782	-0.118	0.154
-643.711	-63.816	0.074	0.031
-642.697	288.401	-0.086	-0.159
-641.682	649.593	-0.053	0.137
-640.668	-60.130	-0.297	-0.129
-639.653	-79.966	-0.243	0.083
-638.638	-200.000	-0.036	0.200
-637.624	137.052	0.152	-0.202
-636.609	-200.000	0.041	-0.273
-635.595	-200.000	-0.060	0.322
-634.580	122.309	0.280	-0.355
-633.565	-200.000	-0.003	-0.049
-632.551	504.030	0.157	0.369
-631.536	26.911	-0.104	0.088
-630.522	-126.834	-0.326	0.049
-629.507	-7.928	-0.180	0.124
-628.492	-200.000	-0.012	0.079
-627.478	-157.232	0.249	-0.015
-626.463	-1.554	0.112	-0.080
-625.449	203.125	0.066	0.103
-624.434	-107.650	0.231	0.051
-623.419	-138.199	0.360	0.041
-622.405	-131.592	0.422	-0.056
-621.390	-47.433	0.180	-0.089
-620.376	-113.823	0.138	0.027
-619.361	-200.000	-0.007	-0.154
-618.346	391.236	0.114	0.241
-617.332	-200.000	-0.006	0.134
-616.317	20.991	-0.118	-0.097
-615.303	-124.189	0.169	0.027
-614.288	-200.000	0.029	-0.254
-613.273	154.824	0.063	-0.089
-612.259	-200.000	-0.035	0.176
-611.244	-130.073	-0.037	0.005
-610.230	-189.000	-0.189	0.002
-609.215	285.539	-0.155	0.283
-608.201	-40.247	0.217	0.115
-607.186	89.433	0.307	0.347
-606.171	-26.049	-0.155	0.093
-605.157	-200.000	0.025	0.133
-604.142	135.835	-0.159	-0.210
-603.128	283.720	-0.126	-0.231
-602.113	314.828	-0.174	0.333
-601.098	-140.353	-0.135	-0.014
-600.084	-52.780	-0.151	0.071
-599.069	-200.000	-0.027	0.135
-598.055	-200.000	0.009	0.355
-597.040	-200.000	-0.001	-0.498
-596.025	800.000	0.104	-0.420
-595.011	-200.000	0.042	-0.193
-593.996	569.290	-0.073	-0.181
-592.982	325.638	-0.117	-0.228
-591.967	800.000	-0.072	0.264
-590.952	-200.000	-0.013	-0.067
-589.938	66.860	-0.031	-0.033
-588.923	182.773	-0.145	-0.217
-587.909	-200.000	0.000	-0.318
-586.894	30.297	0.070	-0.060
-585.879	-134.712	-0.088	0.011
-584.865	-200.000	0.010	-0.197
-583.850	-200.000	-0.077	-0.406
-582.836	72.948	0.096	0.102
-581.821	203.069	-0.152	0.239
-580.806	204.390	-0.023	-0.035
-579.792	-200.000	0.014	-0.079
-578.777	-140.933	-0.274	-0.029
-577.763	-116.648	0.162	-0.030
-576.748	14.777	-0.326	-0.259
-575.733	56.277	0.369	-0.364
-574.719	-200.000	-0.021	-0.106
-573.704	-137.343	-0.235	-0.027
-572.690	-20.302	-0.156	0.097
-571.675	-56.812	0.134	0.060
-570.661	29.829	-0.161	-0.139
-569.646	43.782	-0.174	-0.161
-568.631	-63.440	0.063	-0.026
-567.617	-79.694	-0.182	-0.062
-566.602	-200.000	0.049	-0.392
-565.588	-119.526	0.081	-0.014
-564.573	-200.000	-0.054	-0.337
-563.558	493.344	0.135	-0.315
-562.544	-42.063	-0.194	0.101
-561.529	-200.000	0.035	-0.342
-560.515	-77.112	-0.039	-0.014
-559.500	-117.976	-0.149	-0.027
-558.485	-65.237	0.274	0.112
-557.471	-200.000	-0.043	-0.244
-556.456	-55.422	-0.209	0.095
-555.442	800.000	-0.035	-0.119
-554.427	54.322	-0.168	0.164
-553.412	-159.212	-0.142	0.008
-552.398	-130.924	-0.402	0.055
-551.383	98.509	-0.243	-0.284
-550.369	-151.003	-0.129	0.010
-549.354	-17.190	0.187	-0.119
-548.339	-147.452	-0.333	0.029
-547.325	4.843	-0.224	0.167
-546.310	35.790	-0.116	0.103
-545.296	2.051	-0.289	-0.212
-544.281	-45.680	0.194	-0.097
-543.266	-72.680	-0.130	-0.049
-542.252	-200.000	0.010	-0.191
-541.237	142.037	0.013	-0.017
-540.223	-69.847	-0.119	-0.046
-539.208	800.000	-0.135	-0.390
-538.193	-55.154	0.032	0.015
-537.179	-98.271	0.202	-0.052
-536.164	362.975	-0.089	0.180
-535.150	800.000	-0.057	0.240
-534.135	-118.097	0.194	-0.035
-533.121	-16.902	0.330	-0.211
-532.106	151.886	-0.117	0.161
-531.091	-124.587	0.235	0.037
-530.077	800.000	-0.056	-0.184
-529.062	-200.000	0.021	-0.284
-528.048	30.900	-0.311	0.270
-527.033	-17.565	0.168	0.107
-526.018	-108.463	-0.205	0.045
-525.004	535.007	-0.068	-0.162
-523.989	-68.927	-0.072	0.028
-522.975	228.118	-0.107	0.176
-521.960	36.495	0.251	-0.224
-520.945	186.018	-0.267	0.402
-519.931	-57.441	-0.057	-0.025
-518.916	-65.078	-0.208	0.085
-517.902	-50.125	-0.142	0.068
-516.887	-41.750	0.341	-0.177
-515.872	-117.057	-0.288	-0.053
-514.858	-144.312	-0.234	-0.022
-513.843	58.712	0.137	-0.136
-512.829	-200.000	-0.018	0.106
-511.814	337.681	-0.069	-0.135
-510.799	-156.803	0.182	-0.011
-509.785	-76.149	-0.325	0.116
-508.770	-90.142	0.211	0.062
-507.756	-25.359	-0.199	-0.119
-506.741	-89.752	-0.081	-0.024
-505.726	-99.864	0.139	0.035
-504.712	-200.000	0.090	0.454
-503.697	-146.206	-0.236	-0.021
-502.683	-6.374	-0.255	-0.176
-501.668	129.989	0.099	-0.128
-500.653	-1.336	-0.119	0.085
-499.639	-200.000	-0.001	0.084
-498.624	105.785	-0.294	-0.352
-497.610	-79.649	0.143	0.049
-496.595	-36.394	-0.154	0.084
-495.581	-200.000	-0.011	0.222
-494.566	-200.000	-0.019	0.215
-493.551	797.423	-0.034	-0.093
-492.537	-130.365	-0.135	-0.018
-491.522	65.187	0.033	0.034
-490.508	18.448	0.225	0.181
-489.493	4.618	-0.148	-0.110
-488.478	23.049	-0.177	0.147
-487.464	2.057	-0.235	0.172
-486.449	36.586	0.124	0.111
-485.435	164.496	0.045	-0.065
-484.420	156.296	-0.167	0.232
-483.405	44.292	-0.022	-0.021
-482.391	-82.788	-0.194	-0.064
-481.376	3.917	0.119	0.088
-480.362	800.000	0.080	0.241
-479.347	800.000	0.044	0.191
-478.332	-130.051	-0.433	-0.060
-477.318	52.386	-0.060	0.058
-476.303	-200.000	0.003	-0.183
-475.289	-145.292	-0.212	0.019
-474.274	593.615	-0.148	0.371
-473.259	800.000	-0.053	-0.149
-472.245	13.292	0.189	0.148
-471.230	109.156	-0.161	0.194
-470.216	-19.308	0.275	-0.172
-469.201	247.830	0.081	-0.138
-468.186	37.413	-0.274	-0.245
-467.172	11.157	0.184	0.142
-466.157	-200.000	-0.066	0.359
-465.143	8.976	-0.266	-0.203
-464.128	268.428	0.197	-0.349
-463.113	-200.000	-0.007	0.068
-462.099	-200.000	-0.003	0.275
-461.084	-57.977	0.188	-0.083
-460.070	-200.000	0.006	0.145
-459.055	133.782	0.109	-0.143
-458.040	-200.000	-0.026	0.249
-457.026	-92.048	0.243	0.069
-456.011	49.923	-0.170	-0.162
-454.997	800.000	0.092	-0.278
-453.982	-33.347	0.293	-0.163
-452.968	261.278	-0.222	0.388
-451.953	-171.095	-0.188	-0.006
-450.938	-21.170	0.256	0.158
-449.924	321.920	0.122	-0.234
-448.909	800.000	-0.018	0.057
-447.895	-135.148	0.230	-0.028
-446.880	220.992	0.020	-0.033
-445.865	-80.334	-0.227	-0.076
-444.851	-13.674	0.113	-0.074
-443.836	-120.094	0.100	0.017
-442.822	-126.357	0.192	-0.029
-441.807	432.151	0.095	0.208
-440.792	23.335	-0.173	-0.144
-439.778	-97.948	-0.185	-0.048
-438.763	-200.000	-0.087	0.397
-437.749	-49.004	-0.256	-0.124
-436.734	-59.822	0.130	-0.056
-435.719	-98.889	-0.078	-0.020
-434.705	-200.000	-0.004	-0.072
-433.690	-55.300	-0.092	-0.042
-432.676	-200.000	-0.058	-0.410
-431.661	308.924	0.139	-0.263
-430.646	-200.000	-0.001	0.085
-429.632	204.913	0.084	0.132
-428.617	800.000	-0.052	0.146
-427.603	-200.000	-0.059	0.330
-426.588	-200.000	0.037	0.226
-425.573	27.558	0.223	-0.189
-424.559	-130.254	0.062	0.009
-423.544	-200.000	0.022	0.199
-422.530	-59.086	0.573	-0.249
-421.515	329.646	-0.104	-0.201
-420.500	-200.000	0.022	-0.318
-419.486	74.957	0.241	-0.256
-418.471	776.025	0.052	0.143
-417.457	-38.520	-0.378	0.202
-416.442	33.527	0.082	-0.072
-415.428	800.000	-0.071	0.221
-414.413	-16.606	0.305	-0.195
-413.398	161.480	-0.189	-0.266
-412.384	-191.764	-0.198	-0.002
-411.369	78.223	0.293	-0.315
-410.355	-200.000	-0.041	0.251
-409.340	299.208	-0.111	-0.206
-408.325	75.661	-0.278	-0.296
-407.311	-37.295	-0.029	0.015
-406.296	-200.000	-0.033	-0.302
-405.282	800.000	0.059	-0.228
-404.267	-200.000	0.036	0.165
-403.252	91.616	-0.103	-0.117
-402.238	-22.165	-0.184	-0.113
-401.223	28.351	-0.224	0.191
-400.209	-200.000	0.005	0.099
-399.194	-83.568	-0.118	0.038
-398.179	-56.513	0.249	-0.111
-397.165	-78.541	-0.111	0.038
-396.150	-41.188	-0.183	-0.095
-395.136	-29.697	0.332	0.191
-394.121	143.277	-0.137	0.184
-393.106	627.880	-0.099	-0.253
-392.092	-67.639	0.418	-0.165
-391.077	73.990	-0.095	-0.100
-390.063	-11.665	0.280	0.185
-389.048	-7.275	0.070	0.048
-388.033	109.767	0.200	0.242
-387.019	76.905	0.075	-0.080
-386.004	434.845	0.110	-0.242
-384.990	800.000	0.098	-0.301
-383.975	-102.556	0.231	-0.056
-382.960	46.272	-0.161	0.150
-381.946	194.892	-0.131	-0.200
-380.931	81.723	-0.159	-0.173
-379.917	15.401	-0.086	0.068
-378.902	76.646	0.138	0.147
-377.888	58.647	-0.255	-0.252
-376.873	-200.000	0.039	-0.305
-375.858	119.158	0.216	0.268
-374.844	96.101	-0.093	-0.107
-373.829	13.409	0.221	-0.173
-372.815	759.036	-0.038	-0.103
-371.800	-24.299	-0.113	0.068
-370.785	800.000	-0.104	0.391
-369.771	522.153	-0.172	0.406
-368.756	-127.864	0.118	-0.017
-367.742	-71.305	0.048	-0.018
-366.727	46.135	0.022	0.020
-365.712	24.863	0.070	-0.058
-364.698	-26.958	-0.185	-0.108
-363.683	-104.602	-0.196	-0.046
-362.669	324.431	-0.053	0.101
-361.654	154.672	0.240	0.332
-360.639	582.609	0.104	0.257
-359.625	438.000	0.092	0.202
-358.610	-74.130	-0.131	0.048
-357.596	-93.488	-0.176	-0.049
-356.581	505.662	0.045	0.104
-355.566	800.000	-0.022	-0.078
-354.552	-200.000	0.097	0.489
-353.537	-200.000	-0.028	0.248
-352.523	-102.415	0.252	-0.061
-351.508	-200.000	-0.050	0.506
-350.493	-108.084	-0.097	-0.021
-349.479	-117.542	0.213	0.039
-348.464	275.034	0.246	-0.438
-347.450	90.259	0.059	0.067
-346.435	61.237	-0.202	0.202
-345.420	-98.493	0.321	0.082
-344.406	-23.321	-0.021	-0.013
-343.391	-101.066	0.355	0.087
-342.377	28.924	-0.414	0.353
-341.362	-102.341	0.125	0.030
-340.348	-200.000	-0.001	-0.214
-339.333	132.816	0.124	0.161
-338.318	-18.002	0.366	0.230
-337.304	-200.000	-0.053	-0.280
-336.289	-200.000	0.037	-0.607
-335.275	800.000	0.035	0.143
-334.260	296.694	0.085	0.156
-333.245	-16.509	0.264	0.168
-332.231	-200.000	0.009	0.540
-331.216	-34.470	-0.150	-0.083
-330.202	95.351	-0.129	0.148
-329.187	349.040	0.020	-0.041
-328.172	-200.000	0.003	0.178
-327.158	-69.690	-0.457	0.175
-326.143	-30.928	-0.316	-0.179
-325.129	-147.086	-0.227	-0.019
-324.114	143.334	0.202	-0.270
-323.099	-146.769	0.309	0.027
-322.085	-58.287	0.220	-0.096
-321.070	-200.000	-0.015	-0.264
-320.056	27.322	0.097	-0.082
-319.041	-85.703	0.185	-0.058
-318.026	800.000	-0.079	-0.234
-317.012	97.619	-0.101	0.116
-315.997	107.810	0.051	-0.060
-314.983	277.481	0.079	0.141
-313.968	-62.247	-0.207	0.087
-312.953	-109.149	0.259	-0.055
-311.939	-26.391	-0.215	-0.127
-310.924	-19.994	0.170	0.106
-309.910	800.000	-0.115	0.328
-308.895	-113.119	-0.215	0.043
-307.880	-183.174	0.288	-0.005
-306.866	25.008	-0.109	-0.091
-305.851	-200.000	0.039	-0.334
-304.837	-20.392	0.078	-0.048
-303.822	-140.934	-0.117	0.012
-302.807	202.229	-0.103	-0.160
-301.793	691.908	0.113	0.298
-300.778	-25.207	-0.150	-0.089
-299.764	-199.344	0.264	-0.001
-298.749	800.000	-0.037	-0.130
-297.735	-12.413	0.166	0.109
-296.720	-200.000	0.013	-0.090
-295.705	52.192	0.089	-0.085
-294.691	567.892	-0.094	0.229
-293.676	-35.116	0.172	-0.094
-292.662	800.000	0.034	0.144
-291.647	47.671	0.086	-0.081
-290.632	800.000	-0.101	-0.348
-289.618	53.295	-0.206	-0.198
-288.603	800.000	-0.060	-0.177
-287.589	60.815	0.084	0.083
-286.574	800.000	0.030	0.129
-285.559	310.054	0.122	-0.230
-284.545	-3.776	0.163	-0.114
-283.530	-182.487	0.407	0.007
-282.516	-19.553	0.163	-0.101
-281.501	-114.514	-0.315	-0.061
-280.486	800.000	-0.093	-0.403
-279.472	-200.000	-0.044	-0.243
-278.457	-27.773	-0.271	0.158
-277.443	-132.870	-0.109	0.014
-276.428	277.234	-0.040	-0.072
-275.413	-126.902	-0.158	-0.023
-274.399	127.467	0.088	-0.112
-273.384	293.256	-0.114	0.208
-272.370	29.697	0.227	0.194
-271.355	41.718	0.036	0.032
-270.340	-200.000	0.031	-0.315
-269.326	-43.640	-0.176	0.089
-268.311	-121.834	-0.232	-0.038
-267.297	-169.733	-0.264	-0.010
-266.282	-67.767	-0.192	-0.075
-265.267	800.000	0.074	-0.302
-264.253	-56.118	0.351	0.157
-263.238	145.216	0.262	0.352
-262.224	90.548	-0.195	0.219
-261.209	-22.117	0.135	0.082
-260.195	-200.000	-0.022	0.253
-259.180	271.702	0.047	-0.084
-258.165	192.736	0.109	-0.164
-257.151	379.739	-0.103	-0.212
-256.136	42.630	0.213	-0.194
-255.122	-200.000	0.017	0.332
-254.107	1.106	0.180	0.129
-253.092	185.271	-0.122	0.181
-252.078	24.883	0.113	0.094
-251.063	120.584	0.146	0.181
-250.049	92.140	-0.176	-0.199
-249.034	49.783	-0.095	-0.090
-248.019	-131.375	0.319	0.042
-247.005	-132.582	-0.312	-0.040
-245.990	-64.341	0.145	0.059
-244.976	-165.816	-0.063	-0.003
-243.961	-69.618	-0.089	0.034
-242.946	9.070	-0.039	0.029
-241.932	800.000	0.040	0.114
-240.917	-200.000	0.020	0.132
-239.903	19.350	-0.206	-0.166
-238.888	336.943	0.158	0.306
-237.873	-200.000	0.014	0.175
-236.859	123.693	0.131	-0.164
-235.844	-35.692	-0.340	-0.184
-234.830	-87.059	-0.143	0.044
-233.815	-200.000	0.060	0.406
-232.800	-50.130	-0.180	-0.085
-231.786	-71.127	-0.265	-0.100
-230.771	211.129	0.121	-0.191
-229.757	116.890	-0.221	-0.272
-228.742	110.381	-0.114	0.137
-227.727	800.000	-0.071	0.257
-226.713	-85.445	-0.232	0.072
-225.698	800.000	0.032	0.110
-224.684	-27.237	0.191	0.111
-223.669	-151.260	0.133	-0.010
-222.655	-200.000	0.003	-0.137
-221.640	800.000	-0.017	-0.062
-220.625	431.332	0.234	0.506
-219.611	-80.246	0.197	0.066
-218.596	-135.520	0.208	-0.025
-217.582	-131.487	-0.123	-0.016
-216.567	-108.344	0.179	-0.039
-215.552	-29.879	0.077	0.044
-214.538	124.052	0.175	0.219
-213.523	334.157	-0.142	0.274
-212.509	47.738	0.149	0.139
-211.494	800.000	0.016	-0.043
-210.479	-9.759	0.232	0.155
-209.465	-166.410	0.254	0.011
-208.450	2.498	0.095	-0.069
-207.436	-71.676	-0.181	0.068
-206.421	9.332	-0.187	0.142
-205.406	800.000	-0.046	0.182
-204.392	-157.214	-0.124	0.007
-203.377	-106.805	0.322	0.071
-202.363	-72.597	-0.238	0.088
-201.348	7.000	-0.048	-0.035
-200.333	-200.000	0.045	0.345
-199.319	135.219	-0.285	-0.371
-198.304	93.167	-0.239	-0.271
-197.290	204.241	0.146	-0.227
-196.275	26.178	-0.260	-0.217
-195.260	108.490	-0.101	-0.120
-194.246	80.432	0.169	0.182
-193.231	800.000	-0.005	0.014
-192.217	-124.893	0.275	0.042
-191.202	-200.000	-0.028	-0.200
-190.187	92.643	0.235	0.265
-189.173	-48.598	0.103	0.050
-188.158	-103.524	0.237	-0.056
-187.144	64.228	0.128	0.128
-186.129	-112.604	0.286	-0.057
-185.114	-137.506	-0.232	0.026
-184.100	-121.165	0.226	-0.038
-183.085	-4.248	-0.131	-0.091
-182.071	-72.966	0.114	-0.042
-181.056	-86.261	-0.106	-0.033
-180.042	-114.133	-0.243	-0.047
-179.027	657.155	0.058	0.148
-178.012	-154.561	0.281	-0.019
-176.998	-62.608	0.215	0.089
-175.983	-31.638	0.108	-0.060
-174.969	97.233	0.092	-0.105
-173.954	-18.418	0.071	-0.045
-172.939	-200.000	-0.012	0.363
-171.925	-122.789	-0.064	0.010
-170.910	15.748	0.170	0.133
-169.896	525.089	-0.122	0.286
-168.881	36.165	0.099	-0.087
-167.866	-127.626	0.119	0.017
-166.852	184.906	0.175	0.259
-165.837	-79.320	0.261	0.088
-164.823	-62.881	-0.185	0.077
-163.808	-163.427	-0.285	-0.014
-162.793	-75.584	0.205	0.073
-161.779	-25.033	-0.252	0.149
-160.764	196.413	-0.205	0.311
-159.750	22.890	0.060	0.049
-158.735	1.714	-0.128	0.092
-157.720	27.548	0.113	0.095
-156.706	-76.796	0.413	0.144
-155.691	-200.000	-0.052	0.331
-154.677	-200.000	0.049	0.431
-153.662	41.661	0.313	0.283
-152.647	357.895	0.142	-0.282
-151.633	-67.557	0.089	0.035
-150.618	-173.843	-0.320	0.009
-149.604	-111.947	-0.304	-0.061
-148.589	-114.281	0.431	0.083
-147.574	800.000	-0.072	0.277
-146.560	800.000	0.012	-0.052
-145.545	-55.624	-0.081	0.036
-144.531	-39.784	-0.183	0.095
-143.516	800.000	0.106	-0.311
-142.502	-103.030	0.185	-0.044
-141.487	37.974	-0.336	-0.298
-140.472	240.154	-0.091	-0.151
-139.458	-200.000	-0.008	-0.096
-138.443	-200.000	0.004	-0.108
-137.429	-27.422	-0.131	-0.076
-136.414	-143.089	0.031	-0.003
-135.399	-87.006	0.217	0.066
-134.385	-87.446	0.468	-0.141
-133.370	-200.000	-0.024	0.210
-132.356	-71.062	0.278	0.104
-131.341	-200.000	0.057	-0.275
-130.326	-150.699	0.147	-0.011
-129.312	458.220	-0.132	-0.293
-128.297	-200.000	0.025	0.260
-127.283	-151.857	0.415	0.030
-126.268	-43.495	0.309	0.155
-125.253	-138.872	-0.035	-0.004
-124.239	71.208	-0.018	-0.019
-123.224	216.402	-0.055	0.088
-122.210	-19.702	0.062	-0.038
-121.195	99.722	-0.163	-0.188
