DTS Sentinel unit serial number:	SN413079Multiplexer serial number:	ORYXHardware model number:	OX4-SRSoftware version number:	ORYX F/W v4.00 Oryx Data Collector v3.7.2.0data status	okinstallation	princeton_trtdifferential loss correction	single-endedforward channel	channel 2reverse channel	N/Adate	2019/09/14time	14:07:35forward acquisition time	60.00reverse acquisition time	0.00gamma	496.2192k internal	0.2303k external	0.2303temperature offset calibration	1.0143default loss term (dB/km)	0.3790temperature slope calibration	1.0000multiplexer offset coefficient	1.0000multiplexer slope coefficient	1.0000fibre end	0.00T internal ref (°C)	38.28T ext. ref 1 (°C)	5.01T ext. ref 2 (°C)	37.05length (m)	temperature (°C)	Stokes	anti-Stokes-747.200	-2.788	-0.053	0.038
-746.185	328.008	-0.187	0.366
-745.171	-112.003	-0.114	0.023
-744.156	89.512	0.013	0.015
-743.142	-99.513	-0.276	-0.071
-742.127	111.682	0.137	0.168
-741.112	293.164	0.070	0.131
-740.098	739.867	-0.084	0.231
-739.083	329.583	-0.109	-0.213
-738.069	-29.353	0.316	0.184
-737.054	91.072	-0.102	-0.117
-736.039	-87.087	0.349	-0.108
-735.025	584.756	0.159	0.397
-734.010	-200.000	-0.040	0.373
-732.996	161.796	-0.256	-0.365
-731.981	-33.441	0.123	-0.069
-730.966	-62.793	-0.192	-0.081
-729.952	299.747	0.101	-0.189
-728.937	62.791	-0.100	-0.102
-727.923	-200.000	-0.050	-0.276
-726.908	-79.709	-0.118	-0.040
-725.894	-174.438	-0.133	-0.004
-724.879	96.716	0.063	0.073
-723.864	129.794	-0.206	-0.268
-722.850	-200.000	0.057	-0.330
-721.835	-74.052	0.249	-0.092
-720.821	744.209	0.078	-0.213
-719.806	-8.089	0.076	-0.052
-718.791	-47.090	-0.187	-0.093
-717.777	-200.000	0.005	0.027
-716.762	-158.704	0.295	0.017
-715.748	273.957	0.017	-0.031
-714.733	68.566	0.031	-0.033
-713.718	-166.618	0.288	-0.012
-712.704	-64.297	-0.064	0.027
-711.689	-200.000	-0.009	-0.072
-710.675	-106.304	-0.133	-0.030
-709.660	-42.281	0.069	-0.036
-708.645	800.000	-0.072	-0.320
-707.631	-155.225	0.150	-0.010
-706.616	240.257	0.098	0.166
-705.602	-200.000	0.026	0.161
-704.587	800.000	-0.157	-0.540
-703.572	-20.916	-0.240	-0.150
-702.558	20.480	-0.151	-0.124
-701.543	48.893	-0.170	0.162
-700.529	186.698	-0.107	0.161
-699.514	-137.981	-0.250	-0.028
-698.499	-141.412	-0.278	-0.029
-697.485	-57.142	0.192	0.086
-696.470	-49.373	0.256	0.124
-695.456	-200.000	-0.013	0.082
-694.441	800.000	-0.096	-0.420
-693.426	-200.000	-0.011	0.106
-692.412	22.741	0.219	0.182
-691.397	-96.501	0.180	-0.048
-690.383	-200.000	0.001	-0.330
-689.368	57.237	-0.076	0.075
-688.354	-176.628	-0.449	-0.012
-687.339	-200.000	-0.016	-0.120
-686.324	-145.384	0.112	0.010
-685.310	-101.589	0.137	-0.034
-684.295	113.700	-0.116	0.143
-683.281	16.472	0.081	-0.065
-682.266	-86.364	0.347	-0.109
-681.251	-32.996	0.407	0.230
-680.237	-134.934	-0.228	0.028
-679.222	188.602	0.100	-0.151
-678.208	-200.000	0.049	-0.278
-677.193	183.849	-0.277	0.417
-676.178	255.278	-0.073	-0.127
-675.164	-44.140	-0.123	-0.063
-674.149	-18.649	0.231	-0.146
-673.135	37.534	-0.227	-0.204
-672.120	267.380	-0.043	0.077
-671.105	-200.000	0.010	-0.257
-670.091	800.000	-0.037	-0.165
-669.076	-39.760	-0.078	-0.041
-668.062	800.000	-0.131	-0.438
-667.047	-51.345	0.318	-0.151
-666.032	-17.390	-0.118	-0.076
-665.018	57.258	-0.085	0.085
-664.003	-125.561	-0.158	-0.024
-662.989	62.534	0.072	-0.073
-661.974	5.445	-0.043	0.033
-660.959	-200.000	-0.022	-0.247
-659.945	-101.306	0.226	0.056
-658.930	-11.041	-0.113	0.076
-657.916	-88.939	-0.179	-0.054
-656.901	-200.000	-0.019	-0.296
-655.886	-11.258	-0.285	0.191
-654.872	-75.386	0.136	0.049
-653.857	54.610	-0.120	0.118
-652.843	126.632	0.282	-0.362
-651.828	800.000	-0.044	-0.152
-650.814	82.592	0.309	-0.340
-649.799	-8.314	-0.127	-0.087
-648.784	473.121	-0.042	0.096
-647.770	-57.285	0.157	0.070
-646.755	15.458	-0.191	0.152
-645.741	204.066	0.117	0.184
-644.726	-44.644	0.146	0.074
-643.711	-69.216	-0.171	-0.067
-642.697	186.731	0.118	-0.178
-641.682	-13.083	0.146	-0.096
-640.668	-200.000	0.004	0.182
-639.653	-200.000	0.021	-0.278
-638.638	119.435	-0.255	-0.321
-637.624	-64.764	-0.336	-0.138
-636.609	-64.609	0.268	-0.110
-635.595	-137.667	0.367	-0.042
-634.580	265.930	-0.116	0.205
-633.565	-200.000	-0.114	-0.640
-632.551	354.976	0.130	-0.263
-631.536	-71.493	-0.297	0.113
-630.522	-131.913	0.091	-0.012
-629.507	-18.136	-0.083	0.053
-628.492	34.941	-0.120	-0.106
-627.478	-169.946	0.250	0.009
-626.463	-129.220	-0.278	0.039
-625.449	-71.412	0.216	-0.082
-624.434	118.747	0.161	0.201
-623.419	-127.459	0.193	0.029
-622.405	-200.000	-0.071	0.318
-621.390	800.000	-0.018	0.063
-620.376	-200.000	0.028	-0.311
-619.361	-71.202	0.137	0.052
-618.346	-73.529	-0.073	0.027
-617.332	639.203	0.072	-0.187
-616.317	60.255	0.061	-0.061
-615.303	252.125	-0.154	-0.266
-614.288	-101.556	0.086	-0.021
-613.273	-34.154	0.063	0.035
-612.259	52.373	-0.183	-0.177
-611.244	-44.811	0.118	0.060
-610.230	-52.253	-0.185	-0.087
-609.215	800.000	-0.024	-0.108
-608.201	-131.423	0.213	-0.029
-607.186	543.244	0.027	-0.064
-606.171	-28.109	0.149	0.087
-605.157	215.687	-0.105	-0.170
-604.142	-200.000	0.029	0.161
-603.128	38.866	0.182	0.165
-602.113	-137.113	0.227	-0.026
-601.098	418.711	-0.148	-0.320
-600.084	-200.000	0.013	-0.146
-599.069	138.821	0.062	0.082
-598.055	-76.563	0.105	0.037
-597.040	-29.508	-0.199	-0.115
-596.025	222.334	0.209	0.341
-595.011	-54.229	0.185	-0.085
-593.996	13.941	-0.100	0.079
-592.982	271.909	0.083	-0.147
-591.967	-200.000	0.024	-0.317
-590.952	598.216	-0.075	-0.188
-589.938	-124.911	0.449	0.070
-588.923	-200.000	-0.006	-0.088
-587.909	-200.000	0.008	-0.076
-586.894	-200.000	0.036	-0.193
-585.879	-160.499	0.112	0.006
-584.865	-200.000	0.006	-0.064
-583.850	800.000	0.027	0.090
-582.836	-189.613	-0.163	-0.002
-581.821	0.451	0.073	-0.053
-580.806	-149.984	0.081	0.006
-579.792	785.817	0.060	-0.166
-578.777	-200.000	0.007	0.209
-577.763	-62.847	-0.313	-0.131
-576.748	256.464	0.110	0.192
-575.733	792.661	0.046	0.129
-574.719	-200.000	0.065	0.340
-573.704	90.303	-0.173	-0.196
-572.690	-200.000	-0.013	-0.225
-571.675	359.443	0.132	-0.268
-570.661	-133.169	-0.295	0.038
-569.646	-200.000	-0.017	0.110
-568.631	171.695	0.148	0.215
-567.617	436.173	0.138	0.303
-566.602	126.008	0.133	0.170
-565.588	-47.879	-0.172	-0.084
-564.573	-3.473	-0.240	0.169
-563.558	92.335	0.114	0.130
-562.544	82.166	-0.136	-0.149
-561.529	-100.635	0.167	-0.042
-560.515	142.022	-0.142	0.191
-559.500	198.404	-0.130	-0.201
-558.485	476.991	-0.110	-0.252
-557.471	-110.146	0.449	-0.095
-556.456	115.336	-0.049	0.061
-555.442	70.839	0.027	0.029
-554.427	-192.126	0.334	-0.003
-553.412	-200.000	-0.022	-0.745
-552.398	-46.659	-0.018	0.009
-551.383	1.374	-0.304	-0.221
-550.369	800.000	-0.059	-0.204
-549.354	-177.695	0.102	0.002
-548.339	51.344	0.092	-0.088
-547.325	56.789	-0.039	0.039
-546.310	662.548	0.036	0.093
-545.296	-70.872	-0.169	-0.064
-544.281	-36.638	-0.185	-0.101
-543.266	-97.463	0.137	0.036
-542.252	-200.000	-0.004	0.038
-541.237	800.000	0.116	0.355
-540.223	-115.551	0.229	0.043
-539.208	800.000	0.023	-0.066
-538.193	225.980	-0.110	-0.180
-537.179	-31.987	-0.268	-0.152
-536.164	259.343	-0.196	-0.341
-535.150	3.660	0.325	-0.240
-534.135	87.926	0.087	0.098
-533.121	800.000	-0.065	0.252
-532.106	-200.000	0.056	-0.249
-531.091	67.873	-0.122	-0.126
-530.077	800.000	0.081	-0.241
-529.062	-200.000	0.034	-0.245
-528.048	-131.138	0.238	-0.032
-527.033	382.948	0.138	-0.286
-526.018	-10.919	-0.091	-0.061
-525.004	137.724	-0.029	-0.038
-523.989	800.000	-0.084	0.320
-522.975	27.175	-0.041	0.035
-521.960	-129.405	-0.257	0.036
-520.945	-37.898	-0.307	-0.165
-519.931	-200.000	0.017	-0.089
-518.916	183.938	0.140	-0.209
-517.902	-63.234	-0.123	0.051
-516.887	800.000	0.043	0.186
-515.872	61.364	0.210	-0.211
-514.858	418.712	0.099	-0.213
-513.843	800.000	-0.064	-0.235
-512.829	175.766	-0.181	-0.265
-511.814	-76.326	-0.551	0.196
-510.799	-54.326	-0.363	0.166
-509.785	27.541	0.026	0.022
-508.770	130.784	0.091	0.118
-507.756	14.830	0.076	0.060
-506.741	800.000	-0.032	-0.136
-505.726	800.000	0.056	0.220
-504.712	44.389	0.109	-0.101
-503.697	-200.000	0.055	0.395
-502.683	-200.000	0.091	0.428
-501.668	112.124	-0.100	-0.121
-500.653	-9.531	-0.035	0.024
-499.639	23.201	0.206	0.171
-498.624	156.571	0.007	0.009
-497.610	14.256	0.247	-0.194
-496.595	37.280	-0.141	0.126
-495.581	-200.000	-0.106	-0.472
-494.566	20.070	0.294	0.239
-493.551	-200.000	0.029	0.270
-492.537	-58.932	-0.390	-0.170
-491.522	-132.652	-0.115	-0.015
-490.508	-200.000	0.027	-0.266
-489.493	-86.983	-0.221	-0.068
-488.478	104.224	-0.065	0.077
-487.464	13.405	-0.162	-0.127
-486.449	61.161	-0.263	0.263
-485.435	-43.247	0.268	0.137
-484.420	-200.000	0.025	0.337
-483.405	15.335	0.160	0.127
-482.391	63.153	-0.133	-0.135
-481.376	96.252	0.017	-0.019
-480.362	196.133	-0.185	-0.285
-479.347	-82.042	-0.071	-0.023
-478.332	-9.582	-0.253	-0.170
-477.318	-24.450	-0.220	-0.132
-476.303	539.662	-0.114	0.273
-475.289	655.519	-0.098	0.254
-474.274	-100.765	0.271	-0.067
-473.259	-200.000	-0.020	-0.122
-472.245	257.235	-0.140	-0.243
-471.230	432.914	-0.073	-0.160
-470.216	43.828	-0.135	0.125
-469.201	-141.763	-0.333	0.034
-468.186	-50.201	-0.088	-0.042
-467.172	-152.670	0.277	-0.020
-466.157	800.000	-0.106	-0.317
-465.143	392.975	0.066	-0.138
-464.128	800.000	0.077	0.276
-463.113	-98.624	0.276	0.071
-462.099	82.408	-0.094	-0.103
-461.084	126.200	0.094	-0.119
-460.070	68.957	0.105	0.108
-459.055	-162.990	0.091	-0.004
-458.040	-158.312	-0.101	0.006
-457.026	-28.403	-0.301	-0.175
-456.011	62.799	0.040	-0.041
-454.997	-200.000	0.005	-0.238
-453.982	-200.000	0.080	-0.361
-452.968	357.676	-0.219	0.440
-451.953	800.000	-0.030	0.100
-450.938	-130.163	-0.164	0.023
-449.924	-200.000	0.007	0.066
-448.909	75.169	-0.145	-0.154
-447.895	124.742	-0.135	0.171
-446.880	274.890	-0.161	0.287
-445.865	12.458	-0.288	-0.223
-444.851	-66.855	-0.125	0.050
-443.836	-51.626	-0.302	-0.142
-442.822	-103.876	0.234	-0.055
-441.807	-200.000	-0.013	-0.121
-440.792	111.592	-0.122	-0.148
-439.778	-120.662	0.215	0.037
-438.763	-99.778	-0.127	-0.032
-437.749	-200.000	-0.047	-0.357
-436.734	-200.000	-0.025	-0.471
-435.719	-97.609	0.372	0.097
-434.705	55.565	0.198	-0.193
-433.690	58.923	-0.296	-0.293
-432.676	293.195	0.063	0.115
-431.661	146.794	0.265	-0.358
-430.646	-81.216	-0.146	0.049
-429.632	224.674	-0.077	0.125
-428.617	357.705	-0.120	0.240
-427.603	-200.000	-0.015	0.078
-426.588	-125.034	-0.357	0.055
-425.573	-200.000	0.023	0.117
-424.559	39.949	0.135	0.122
-423.544	-79.279	-0.290	-0.099
-422.530	-77.815	-0.188	0.065
-421.515	137.623	-0.085	-0.112
-420.500	61.073	0.306	-0.306
-419.486	5.189	-0.135	-0.100
-418.471	608.901	0.089	0.222
-417.457	17.402	-0.044	-0.035
-416.442	16.285	-0.165	0.131
-415.428	-119.993	0.408	-0.071
-414.413	22.291	0.074	0.061
-413.398	800.000	0.110	0.336
-412.384	138.919	-0.101	-0.133
-411.369	-116.563	0.172	-0.032
-410.355	-133.666	0.463	-0.058
-409.340	449.561	0.089	0.198
-408.325	-200.000	0.053	0.283
-407.311	-33.262	0.117	-0.065
-406.296	-4.315	0.103	-0.072
-405.282	-9.859	-0.203	-0.136
-404.267	-85.537	0.220	0.069
-403.252	800.000	-0.069	-0.248
-402.238	276.423	-0.163	-0.290
-401.223	-153.172	-0.245	-0.017
-400.209	27.697	0.262	0.222
-399.194	303.620	0.078	0.146
-398.179	4.325	0.413	-0.304
-397.165	6.657	-0.300	-0.224
-396.150	-200.000	-0.033	-0.394
-395.136	724.014	0.051	-0.138
-394.121	-58.430	0.350	0.153
-393.106	198.180	0.110	-0.169
-392.092	-130.666	-0.200	0.027
-391.077	-24.221	0.151	0.091
-390.063	-20.729	0.103	-0.064
-389.048	-20.291	0.046	0.028
-388.033	19.838	0.399	0.323
-387.019	-81.788	-0.197	-0.065
-386.004	800.000	-0.110	-0.336
-384.990	56.173	-0.237	0.231
-383.975	451.242	-0.109	0.241
-382.960	318.704	-0.187	0.355
-381.946	-69.672	0.222	-0.085
-380.931	800.000	0.041	-0.117
-379.917	569.538	0.047	0.115
-378.902	-3.559	0.165	0.116
-377.888	-77.399	0.102	0.035
-376.873	-200.000	0.003	0.104
-375.858	-115.749	-0.207	-0.039
-374.844	-13.962	0.062	0.040
-373.829	210.422	0.136	0.214
-372.815	-20.831	0.251	0.154
-371.800	455.264	0.170	-0.379
-370.785	-116.841	-0.103	0.019
-369.771	-200.000	-0.047	0.437
-368.756	-9.312	-0.119	-0.080
-367.742	-63.468	-0.081	-0.034
-366.727	-200.000	-0.001	0.097
-365.712	148.688	-0.051	-0.070
-364.698	151.826	0.078	0.107
-363.683	-200.000	-0.013	-0.331
-362.669	69.837	0.296	0.307
-361.654	92.663	0.245	-0.278
-360.639	800.000	0.122	0.353
-359.625	-1.371	-0.388	0.275
-358.610	-152.748	-0.254	-0.018
-357.596	244.006	0.029	-0.049
-356.581	-78.887	-0.208	-0.071
-355.566	-200.000	0.003	0.034
-354.552	-200.000	0.216	0.001
-353.537	-200.000	0.021	-0.149
-352.523	-200.000	-0.002	0.008
-351.508	-200.000	0.064	0.384
-350.493	-200.000	0.035	-0.162
-349.479	588.185	0.095	0.236
-348.464	-200.000	0.043	0.271
-347.450	254.054	0.162	0.277
-346.435	6.514	0.200	0.149
-345.420	272.661	0.105	-0.186
-344.406	243.786	0.255	0.428
-343.391	-172.318	-0.124	-0.004
-342.377	27.111	0.211	0.178
-341.362	-87.376	0.366	-0.111
-340.348	323.928	-0.095	0.181
-339.333	-184.990	-0.177	-0.003
-338.318	41.070	-0.190	0.173
-337.304	-200.000	0.009	0.263
-336.289	-172.551	-0.294	0.009
-335.275	8.241	-0.167	0.126
-334.260	36.078	-0.098	-0.087
-333.245	-98.956	-0.126	-0.032
-332.231	18.128	-0.242	0.194
-331.216	-37.229	-0.219	-0.117
-330.202	-200.000	-0.019	0.197
-329.187	-20.495	0.206	-0.127
-328.172	-107.400	-0.108	0.024
-327.158	-60.166	0.102	-0.044
-326.143	-184.606	0.090	0.001
-325.129	800.000	-0.022	-0.097
-324.114	800.000	-0.053	0.185
-323.099	-99.613	-0.189	0.048
-322.085	-47.343	0.167	-0.082
-321.070	800.000	-0.037	-0.128
-320.056	-9.069	-0.110	-0.074
-319.041	800.000	-0.086	0.247
-318.026	-87.369	0.210	-0.064
-317.012	-59.969	0.085	-0.036
-315.997	-200.000	-0.011	-0.168
-314.983	-18.543	-0.322	-0.201
-313.968	-200.000	-0.028	0.182
-312.953	423.501	-0.153	-0.330
-311.939	53.538	-0.079	-0.076
-310.924	-114.363	-0.209	0.040
-309.910	-21.417	-0.395	0.242
-308.895	-60.423	0.201	0.086
-307.880	-200.000	0.002	-0.345
-306.866	-151.727	0.235	-0.017
-305.851	129.107	0.095	-0.121
-304.837	-101.824	-0.265	0.064
-303.822	40.491	0.122	-0.110
-302.807	-110.868	0.140	0.029
-301.793	-128.677	0.346	0.049
-300.778	-65.621	0.238	0.096
-299.764	-140.281	-0.037	-0.004
-298.749	-200.000	0.004	0.152
-297.735	-112.031	-0.202	0.041
-296.720	-200.000	0.088	0.417
-295.705	-59.169	0.069	0.030
-294.691	-148.945	-0.245	0.020
-293.676	172.684	0.036	-0.052
-292.662	318.546	-0.185	-0.351
-291.647	-200.000	-0.047	0.304
-290.632	-64.219	0.126	0.051
-289.618	19.664	-0.107	0.086
-288.603	-125.650	-0.384	0.058
-287.589	-200.000	0.001	-0.111
-286.574	15.985	0.340	-0.268
-285.559	87.097	-0.106	0.118
-284.545	-114.474	0.306	-0.059
-283.530	-27.067	-0.114	-0.066
-282.516	223.489	-0.148	0.239
-281.501	-200.000	-0.014	0.181
-280.486	-153.346	-0.213	-0.015
-279.472	41.279	0.210	0.190
-278.457	43.950	0.121	-0.111
-277.443	99.763	-0.248	-0.288
-276.428	227.332	0.158	0.258
-275.413	159.889	-0.065	0.090
-274.399	-46.705	0.116	-0.057
-273.384	635.777	0.069	-0.175
-272.370	-200.000	0.058	0.388
-271.355	-200.000	0.022	-0.142
-270.340	-200.000	0.048	-0.343
-269.326	44.310	-0.195	0.179
-268.311	800.000	-0.073	-0.220
-267.297	530.192	0.056	0.132
-266.282	-173.030	-0.111	0.003
-265.267	482.734	-0.030	0.068
-264.253	-111.573	0.152	0.031
-263.238	-153.448	0.132	0.009
-262.224	1.993	-0.256	0.185
-261.209	757.406	-0.137	-0.371
-260.195	764.653	0.100	-0.272
-259.180	280.574	-0.092	-0.164
-258.165	47.561	0.174	0.162
-257.151	66.112	-0.075	-0.076
-256.136	-103.417	-0.127	-0.030
-255.122	-140.849	0.242	-0.025
-254.107	-171.537	-0.198	0.007
-253.092	-1.433	0.120	-0.085
-252.078	185.065	0.020	0.029
-251.063	10.812	-0.059	0.045
-250.049	-108.731	-0.233	-0.050
-249.034	-200.000	0.014	-0.074
-248.019	-4.978	0.305	-0.210
-247.005	53.180	0.080	0.077
-245.990	-198.435	-0.204	-0.001
-244.976	176.263	-0.219	-0.318
-243.961	-104.969	0.380	0.087
-242.946	-166.892	-0.032	0.001
-241.932	3.627	0.117	-0.086
-240.917	-64.380	0.093	0.038
-239.903	-38.204	0.286	0.151
-238.888	-200.000	0.066	-0.307
-237.873	206.122	-0.098	0.152
-236.859	800.000	0.024	-0.101
-235.844	-109.768	0.087	0.018
-234.830	-200.000	-0.009	0.095
-233.815	-138.245	-0.181	0.020
-232.800	301.071	-0.061	0.112
-231.786	2.547	0.131	0.095
-230.771	-200.000	0.008	0.060
-229.757	-168.511	-0.067	0.003
-228.742	-22.621	-0.380	-0.229
-227.727	800.000	-0.043	-0.157
-226.713	-45.227	0.086	-0.042
-225.698	-174.780	0.074	0.002
-224.684	-200.000	-0.016	0.142
-223.669	-40.670	-0.184	-0.095
-222.655	-93.049	0.087	-0.024
-221.640	244.319	0.170	0.284
-220.625	-41.834	0.222	0.114
-219.611	-84.169	-0.312	0.099
-218.596	656.966	0.118	0.302
-217.582	-200.000	-0.012	-0.095
-216.567	-22.561	-0.191	-0.115
-215.552	75.678	-0.128	0.135
-214.538	-71.287	0.163	-0.061
-213.523	356.738	0.110	-0.218
-212.509	-65.990	0.408	0.163
-211.494	-200.000	-0.015	-0.089
-210.479	82.282	0.101	-0.110
-209.465	-200.000	0.018	0.118
-208.450	52.472	-0.016	0.015
-207.436	-200.000	0.089	0.440
-206.421	87.293	0.104	-0.114
-205.406	140.561	-0.165	-0.218
-204.392	-32.642	0.228	0.126
-203.377	62.547	-0.248	-0.247
-202.363	210.392	0.087	-0.135
-201.348	676.564	0.196	0.508
-200.333	-109.156	0.153	-0.032
-199.319	209.216	0.033	-0.052
-198.304	-63.373	0.241	0.099
-197.290	-200.000	-0.036	0.202
-196.275	160.121	0.132	0.183
-195.260	-200.000	-0.022	0.208
-194.246	-108.830	-0.083	-0.018
-193.231	-200.000	0.014	0.169
-192.217	75.152	-0.075	0.079
-191.202	282.230	-0.166	-0.297
-190.187	65.434	0.231	0.233
-189.173	-106.387	-0.252	0.056
-188.158	-94.922	-0.097	-0.026
-187.144	-36.226	-0.283	-0.152
-186.129	-178.980	-0.133	-0.003
-185.114	-200.000	0.004	0.137
-184.100	-200.000	-0.017	-0.338
-183.085	-147.911	0.153	-0.013
-182.071	105.083	0.270	0.317
-181.056	195.951	-0.092	0.140
-180.042	800.000	-0.100	0.374
-179.027	-81.133	0.181	0.060
-178.012	800.000	-0.025	0.079
-176.998	-133.815	-0.176	-0.022
-175.983	-200.000	0.022	0.189
-174.969	-53.528	0.229	0.104
-173.954	-200.000	-0.007	0.156
-172.939	-8.927	-0.122	-0.081
-171.925	82.556	0.158	-0.171
-170.910	-52.891	0.182	0.084
-169.896	783.437	-0.013	-0.035
-168.881	-160.753	-0.092	-0.005
-167.866	-47.066	-0.172	0.084
-166.852	308.756	-0.146	0.272
-165.837	-55.228	0.178	0.080
-164.823	-113.483	-0.064	0.012
-163.808	-48.848	-0.363	-0.173
-162.793	280.979	-0.173	0.309
-161.779	248.389	-0.137	0.231
-160.764	-3.890	0.070	-0.048
-159.750	664.329	0.109	-0.281
-158.735	379.682	0.099	0.203
-157.720	-200.000	0.002	0.177
-156.706	579.452	-0.097	0.237
-155.691	-200.000	-0.014	0.201
-154.677	54.071	0.141	0.135
-153.662	-200.000	0.023	0.128
-152.647	124.859	0.144	0.181
-151.633	473.705	0.076	0.170
-150.618	-12.244	0.183	0.119
-149.604	246.401	0.147	0.247
-148.589	-148.872	-0.063	0.005
-147.574	-91.261	-0.085	0.024
-146.560	-109.721	-0.183	-0.038
-145.545	267.007	0.187	-0.325
-144.531	2.163	0.204	-0.147
-143.516	109.521	-0.029	-0.034
-142.502	-39.492	0.276	0.144
-141.487	-42.677	-0.161	0.082
-140.472	-23.919	0.269	0.160
-139.458	479.431	-0.084	-0.188
-138.443	-32.221	0.215	-0.120
-137.429	800.000	-0.063	-0.259
-136.414	14.495	-0.190	-0.148
-135.399	-49.274	0.088	-0.042
-134.385	-17.924	-0.273	-0.170
-133.370	-97.434	-0.245	-0.063
-132.356	316.256	-0.097	0.182
-131.341	3.229	0.074	-0.054
-130.326	7.617	0.151	-0.113
-129.312	13.401	0.524	0.404
-128.297	168.464	-0.049	-0.070
-127.283	-82.253	-0.335	-0.108
-126.268	800.000	0.097	-0.304
-125.253	382.400	0.141	0.288
-124.239	-179.843	0.263	-0.006
-123.224	-200.000	-0.067	0.468
-122.210	-12.365	0.360	0.234
-121.195	-72.482	0.112	0.041
