DTS Sentinel unit serial number:	SN413079Multiplexer serial number:	ORYXHardware model number:	OX4-SRSoftware version number:	ORYX F/W v4.00 Oryx Data Collector v3.7.2.0data status	okinstallation	princeton_trtdifferential loss correction	single-endedforward channel	channel 2reverse channel	N/Adate	2019/09/15time	01:55:34forward acquisition time	60.00reverse acquisition time	0.00gamma	496.2192k internal	0.2325k external	0.2325temperature offset calibration	1.0034default loss term (dB/km)	0.3790temperature slope calibration	1.0000multiplexer offset coefficient	1.0000multiplexer slope coefficient	1.0000fibre end	0.00T internal ref (°C)	31.77T ext. ref 1 (°C)	4.53T ext. ref 2 (°C)	26.70length (m)	temperature (°C)	Stokes	anti-Stokes-747.200	-60.342	0.124	-0.053
-746.185	-143.361	-0.232	-0.022
-745.171	-113.753	0.097	-0.019
-744.156	-23.254	-0.076	0.046
-743.142	198.143	0.042	-0.065
-742.127	800.000	-0.041	-0.115
-741.112	210.089	-0.221	-0.350
-740.098	800.000	0.005	-0.021
-739.083	564.130	-0.031	0.076
-738.069	800.000	0.057	0.243
-737.054	54.159	0.067	0.065
-736.039	596.131	-0.096	-0.241
-735.025	-65.770	0.319	-0.129
-734.010	-149.048	0.421	-0.034
-732.996	-127.019	-0.335	-0.050
-731.981	-157.605	0.345	0.021
-730.966	-101.947	-0.331	-0.081
-729.952	-157.999	-0.062	-0.004
-728.937	-73.740	0.139	-0.051
-727.923	-200.000	0.010	-0.112
-726.908	-200.000	0.044	-0.461
-725.894	-72.173	-0.321	-0.120
-724.879	800.000	0.149	-0.436
-723.864	800.000	0.107	0.329
-722.850	-4.619	-0.248	0.172
-721.835	-200.000	0.002	-0.287
-720.821	-51.040	-0.219	0.104
-719.806	73.553	0.226	0.238
-718.791	201.179	-0.037	-0.058
-717.777	126.456	-0.224	-0.286
-716.762	-51.349	0.068	-0.032
-715.748	371.349	0.147	-0.300
-714.733	584.784	0.122	-0.302
-713.718	-110.869	-0.256	-0.053
-712.704	336.988	0.062	0.122
-711.689	-200.000	0.011	-0.189
-710.675	-158.915	-0.184	0.011
-709.660	12.425	-0.038	0.030
-708.645	-72.132	0.114	0.043
-707.631	-200.000	0.002	0.097
-706.616	-200.000	-0.004	-0.167
-705.602	-97.686	0.198	0.052
-704.587	166.150	-0.045	-0.064
-703.572	54.728	0.238	0.231
-702.558	800.000	0.047	0.173
-701.543	-115.956	0.058	0.011
-700.529	20.007	-0.111	0.090
-699.514	-122.517	-0.299	0.049
-698.499	244.852	-0.112	-0.190
-697.485	61.000	0.097	-0.097
-696.470	217.245	-0.192	0.308
-695.456	-68.032	-0.393	0.154
-694.441	-200.000	-0.034	-0.299
-693.426	445.348	-0.121	0.267
-692.412	-127.662	-0.250	-0.036
-691.397	200.143	0.138	-0.213
-690.383	-200.000	-0.029	-0.171
-689.368	-92.001	-0.272	-0.077
-688.354	-200.000	-0.032	-0.183
-687.339	-187.056	-0.183	0.003
-686.324	204.186	-0.110	-0.172
-685.310	-15.516	-0.041	-0.026
-684.295	800.000	0.127	-0.385
-683.281	-3.411	0.189	-0.132
-682.266	-39.602	0.181	-0.095
-681.251	102.232	-0.374	-0.440
-680.237	-163.557	-0.181	-0.009
-679.222	-126.952	0.058	0.009
-678.208	-109.300	-0.045	-0.010
-677.193	800.000	0.059	-0.252
-676.178	-109.170	0.059	0.013
-675.164	-97.427	0.262	-0.069
-674.149	-170.001	-0.045	0.002
-673.135	-161.164	-0.299	-0.016
-672.120	40.505	0.084	-0.076
-671.105	-99.621	-0.013	-0.003
-670.091	-200.000	-0.013	0.377
-669.076	167.232	-0.113	-0.161
-668.062	-200.000	0.002	-0.084
-667.047	-113.812	-0.323	-0.063
-666.032	67.268	-0.013	0.013
-665.018	-20.741	-0.244	-0.150
-664.003	636.765	-0.072	-0.185
-662.989	-166.496	0.141	-0.006
-661.974	48.112	-0.037	0.035
-660.959	122.488	0.111	-0.139
-659.945	800.000	0.082	0.247
-658.930	-14.377	-0.251	-0.163
-657.916	-49.659	0.121	-0.058
-656.901	114.644	0.114	0.139
-655.886	-158.637	0.251	0.015
-654.872	800.000	0.014	0.054
-653.857	800.000	0.048	-0.169
-652.843	800.000	-0.040	-0.144
-651.828	151.971	0.213	-0.292
-650.814	134.052	0.093	-0.121
-649.799	-154.369	-0.055	0.004
-648.784	-41.550	-0.083	-0.043
-647.770	-34.658	0.071	-0.039
-646.755	72.988	-0.171	-0.180
-645.741	130.902	0.178	-0.230
-644.726	81.842	0.090	0.098
-643.711	-85.371	0.173	0.054
-642.697	781.679	0.034	0.094
-641.682	800.000	-0.125	0.355
-640.668	237.025	-0.063	-0.105
-639.653	-126.302	-0.190	-0.028
-638.638	800.000	0.043	0.154
-637.624	434.198	-0.222	-0.484
-636.609	261.012	0.072	-0.126
-635.595	-151.969	-0.125	-0.009
-634.580	286.838	-0.036	0.065
-633.565	-83.149	0.328	0.106
-632.551	-138.708	-0.119	0.013
-631.536	476.337	-0.066	0.150
-630.522	-200.000	-0.035	-0.226
-629.507	126.623	0.138	-0.176
-628.492	-95.237	0.140	-0.038
-627.478	-88.528	-0.208	-0.062
-626.463	-124.023	-0.099	-0.016
-625.449	-85.912	0.295	-0.092
-624.434	-200.000	-0.009	-0.148
-623.419	92.697	0.072	0.081
-622.405	-200.000	0.043	-0.269
-621.390	-3.025	0.337	-0.236
-620.376	-68.391	-0.163	0.063
-619.361	-200.000	0.015	-0.078
-618.346	19.289	0.249	-0.201
-617.332	-40.414	-0.516	0.269
-616.317	-200.000	-0.062	0.434
-615.303	-77.909	-0.209	-0.073
-614.288	800.000	0.003	0.013
-613.273	800.000	-0.064	0.264
-612.259	-45.225	0.115	0.057
-611.244	-169.859	0.226	-0.008
-610.230	800.000	-0.074	0.269
-609.215	177.196	-0.060	-0.087
-608.201	-51.663	-0.178	0.083
-607.186	105.994	-0.118	0.140
-606.171	-200.000	0.002	0.066
-605.157	-120.466	0.197	0.034
-604.142	49.651	0.237	-0.224
-603.128	-200.000	0.043	0.229
-602.113	12.786	-0.081	-0.063
-601.098	-83.575	-0.245	0.079
-600.084	-200.000	0.003	-0.171
-599.069	42.019	-0.240	0.219
-598.055	-200.000	-0.001	0.241
-597.040	-59.768	-0.131	0.056
-596.025	-200.000	-0.004	-0.140
-595.011	-5.416	-0.053	-0.036
-593.996	-75.713	-0.290	0.103
-592.982	31.860	-0.087	0.075
-591.967	-35.830	0.089	0.049
-590.952	-20.346	-0.190	0.117
-589.938	-200.000	0.016	-0.329
-588.923	800.000	-0.009	-0.030
-587.909	94.639	-0.203	0.232
-586.894	28.497	0.211	0.179
-585.879	285.342	-0.165	0.298
-584.865	182.726	0.119	0.176
-583.850	225.908	0.064	-0.104
-582.836	65.866	-0.092	-0.094
-581.821	287.384	-0.052	-0.094
-580.806	-145.025	0.146	-0.013
-579.792	21.522	-0.217	-0.177
-578.777	-3.050	0.306	0.214
-577.763	494.556	-0.140	-0.322
-576.748	-200.000	0.048	0.369
-575.733	-129.376	-0.266	0.037
-574.719	-95.824	0.220	-0.059
-573.704	20.503	-0.257	-0.208
-572.690	-200.000	0.009	-0.217
-571.675	112.660	0.043	-0.052
-570.661	8.121	-0.137	0.103
-569.646	-200.000	-0.000	-0.144
-568.631	-200.000	0.014	0.133
-567.617	71.895	0.087	-0.090
-566.602	-93.480	0.104	0.029
-565.588	-117.055	0.243	0.044
-564.573	800.000	-0.096	-0.372
-563.558	800.000	0.057	-0.186
-562.544	241.358	-0.090	0.150
-561.529	-190.827	-0.323	0.003
-560.515	800.000	-0.036	0.102
-559.500	-19.593	0.025	0.015
-558.485	138.418	0.211	-0.277
-557.471	-59.873	-0.262	0.112
-556.456	-54.179	0.224	-0.102
-555.442	-27.478	-0.065	-0.038
-554.427	78.515	-0.102	-0.109
-553.412	-122.089	-0.224	-0.037
-552.398	-200.000	0.007	0.301
-551.383	120.119	-0.269	-0.334
-550.369	-23.979	-0.196	-0.117
-549.354	84.374	-0.097	-0.106
-548.339	800.000	-0.106	-0.420
-547.325	374.536	-0.088	-0.179
-546.310	-66.190	-0.127	0.051
-545.296	-95.878	-0.230	0.061
-544.281	273.298	0.058	0.102
-543.266	-96.522	0.185	0.049
-542.252	-36.746	0.257	0.138
-541.237	-64.034	-0.128	-0.052
-540.223	50.275	-0.218	0.206
-539.208	800.000	-0.061	-0.194
-538.193	-141.223	-0.079	-0.008
-537.179	-200.000	0.025	-0.228
-536.164	418.721	0.129	0.276
-535.150	36.741	-0.253	0.224
-534.135	-25.866	-0.184	-0.109
-533.121	-14.966	0.262	-0.168
-532.106	-54.137	0.060	-0.027
-531.091	111.732	0.168	-0.203
-530.077	389.604	-0.094	-0.194
-529.062	39.715	0.281	0.252
-528.048	250.607	0.114	-0.194
-527.033	265.604	-0.153	0.267
-526.018	110.048	0.453	0.544
-525.004	139.440	-0.106	-0.139
-523.989	-66.342	0.217	-0.086
-522.975	-21.975	-0.158	0.096
-521.960	-197.405	0.236	0.001
-520.945	-200.000	0.038	0.350
-519.931	-101.393	-0.154	0.038
-518.916	254.514	0.075	-0.129
-517.902	158.832	0.241	-0.335
-516.887	294.201	0.172	0.315
-515.872	-200.000	0.051	-0.252
-514.858	785.280	-0.061	-0.166
-513.843	-64.075	-0.085	0.035
-512.829	-72.539	-0.163	0.060
-511.814	227.703	0.138	-0.225
-510.799	-93.166	0.237	-0.066
-509.785	40.073	-0.273	-0.245
-508.770	-80.446	0.177	0.059
-507.756	37.697	0.124	-0.110
-506.741	-15.270	-0.067	-0.043
-505.726	-52.636	-0.273	0.126
-504.712	-113.935	0.229	0.044
-503.697	174.564	-0.144	0.208
-502.683	-68.787	0.183	-0.071
-501.668	-163.053	-0.141	-0.007
-500.653	-111.518	0.122	-0.025
-499.639	800.000	-0.097	-0.326
-498.624	203.002	-0.151	-0.233
-497.610	800.000	-0.049	0.148
-496.595	66.323	0.351	0.356
-495.581	-200.000	-0.032	-0.211
-494.566	-145.556	0.129	0.012
-493.551	-14.214	-0.038	-0.025
-492.537	-26.103	0.140	0.082
-491.522	-26.278	0.228	0.133
-490.508	23.910	-0.066	-0.054
-489.493	-96.602	-0.178	0.047
-488.478	70.446	0.315	-0.326
-487.464	9.038	-0.138	0.104
-486.449	196.656	0.166	0.252
-485.435	-23.650	0.321	0.192
-484.420	-105.112	-0.197	-0.045
-483.405	-51.369	0.253	0.118
-482.391	483.513	0.137	0.312
-481.376	12.751	0.238	0.184
-480.362	-102.751	-0.214	-0.051
-479.347	78.876	0.146	-0.156
-478.332	105.829	0.057	0.067
-477.318	609.752	-0.097	-0.242
-476.303	-3.344	0.149	0.104
-475.289	314.219	0.214	0.402
-474.274	583.342	0.041	0.100
-473.259	-14.884	0.245	-0.157
-472.245	-70.263	-0.263	0.100
-471.230	800.000	-0.122	0.385
-470.216	117.071	-0.085	0.104
-469.201	-200.000	0.018	-0.382
-468.186	-200.000	-0.033	-0.219
-467.172	3.360	-0.384	-0.279
-466.157	-200.000	-0.011	0.204
-465.143	1.896	-0.216	-0.155
-464.128	-60.523	0.154	-0.065
-463.113	574.041	-0.172	-0.418
-462.099	203.523	0.189	0.292
-461.084	35.554	0.139	0.122
-460.070	800.000	-0.061	0.258
-459.055	-0.899	0.297	-0.210
-458.040	-27.918	-0.072	0.041
-457.026	-53.928	0.185	-0.084
-456.011	-94.431	0.197	-0.054
-454.997	337.518	-0.075	-0.145
-453.982	600.891	-0.054	-0.134
-452.968	-200.000	-0.037	0.319
-451.953	-115.516	-0.433	0.081
-450.938	40.343	0.247	0.222
-449.924	-151.176	0.180	-0.013
-448.909	402.046	0.064	-0.134
-447.895	-118.266	0.213	0.038
-446.880	-35.719	0.023	-0.013
-445.865	85.714	-0.072	-0.079
-444.851	184.286	-0.280	0.414
-443.836	-4.872	0.226	-0.155
-442.822	800.000	0.100	0.285
-441.807	-86.884	0.367	0.112
-440.792	86.843	-0.099	-0.109
-439.778	-200.000	0.002	0.390
-438.763	-12.785	0.286	0.186
-437.749	-98.093	-0.296	-0.076
-436.734	466.716	-0.123	-0.274
-435.719	-138.940	0.255	0.028
-434.705	-200.000	-0.014	-0.066
-433.690	174.609	-0.112	-0.162
-432.676	266.443	-0.043	0.075
-431.661	-45.123	0.141	-0.070
-430.646	800.000	0.037	-0.147
-429.632	-200.000	-0.008	0.085
-428.617	-129.109	-0.162	0.023
-427.603	-81.937	-0.205	0.067
-426.588	-200.000	0.010	0.097
-425.573	-136.595	-0.120	0.014
-424.559	800.000	0.067	-0.193
-423.544	468.704	-0.018	-0.041
-422.530	-200.000	-0.093	-0.561
-421.515	-94.471	-0.161	-0.044
-420.500	-36.731	-0.399	-0.213
-419.486	-94.501	-0.073	0.020
-418.471	800.000	0.187	0.530
-417.457	-9.333	-0.284	-0.189
-416.442	-135.368	-0.188	0.022
-415.428	-54.138	-0.363	-0.165
-414.413	-120.950	0.017	0.003
-413.398	-76.704	0.402	0.140
-412.384	-35.694	-0.177	-0.096
-411.369	-200.000	0.011	-0.261
-410.355	-200.000	-0.004	-0.022
-409.340	86.286	-0.282	0.310
-408.325	243.097	0.084	-0.140
-407.311	714.174	0.047	-0.125
-406.296	70.177	-0.138	0.141
-405.282	-7.535	0.355	-0.239
-404.267	800.000	-0.105	-0.352
-403.252	258.904	-0.090	-0.155
-402.238	31.287	-0.128	-0.110
-401.223	62.170	0.290	-0.288
-400.209	100.184	0.173	-0.200
-399.194	28.040	-0.215	0.180
-398.179	-114.987	0.313	-0.059
-397.165	-132.935	0.136	0.017
-396.150	34.235	-0.254	-0.220
-395.136	180.326	0.081	0.118
-394.121	155.086	-0.128	0.175
-393.106	-90.273	0.159	0.046
-392.092	-200.000	-0.027	0.123
-391.077	-200.000	0.063	0.398
-390.063	152.817	-0.112	0.152
-389.048	285.804	-0.037	-0.066
-388.033	-91.026	0.249	0.071
-387.019	-38.697	-0.133	-0.070
-386.004	-161.588	-0.020	0.001
-384.990	247.411	0.139	0.234
-383.975	-68.212	0.078	0.030
-382.960	-200.000	0.006	-0.132
-381.946	-200.000	-0.002	0.236
-380.931	-97.903	-0.401	-0.103
-379.917	238.453	-0.155	-0.256
-378.902	49.965	-0.202	-0.190
-377.888	-200.000	0.034	0.207
-376.873	800.000	-0.058	0.163
-375.858	800.000	-0.078	0.265
-374.844	-76.757	0.094	-0.033
-373.829	-40.875	-0.108	-0.056
-372.815	60.497	-0.106	-0.104
-371.800	800.000	0.078	-0.295
-370.785	-55.772	-0.335	0.149
-369.771	-49.557	-0.299	0.142
-368.756	-72.261	0.302	-0.111
-367.742	128.492	0.161	0.203
-366.727	-200.000	-0.013	-0.355
-365.712	77.591	-0.191	-0.202
-364.698	103.071	0.123	-0.143
-363.683	-147.796	-0.102	-0.008
-362.669	242.804	0.145	-0.242
-361.654	502.680	0.107	0.245
-360.639	92.966	-0.154	0.174
-359.625	9.617	0.222	0.168
-358.610	132.209	0.158	-0.202
-357.596	161.697	0.057	-0.079
-356.581	132.206	-0.074	-0.095
-355.566	-200.000	-0.024	-0.119
-354.552	-47.014	0.012	-0.006
-353.537	-200.000	0.024	-0.390
-352.523	183.067	-0.076	-0.112
-351.508	-48.286	0.432	0.207
-350.493	294.985	-0.097	0.175
-349.479	-200.000	-0.035	0.157
-348.464	5.734	-0.326	-0.239
-347.450	125.781	-0.147	-0.185
-346.435	733.066	-0.088	-0.235
-345.420	-149.711	0.343	-0.027
-344.406	-200.000	0.031	-0.246
-343.391	-200.000	-0.055	0.359
-342.377	369.502	-0.006	0.012
-341.362	298.930	-0.176	0.323
-340.348	23.651	0.118	0.097
-339.333	161.011	-0.126	-0.174
-338.318	-200.000	0.046	-0.402
-337.304	-114.802	0.200	0.038
-336.289	155.192	0.104	0.143
-335.275	-118.701	0.143	-0.025
-334.260	-11.408	0.393	-0.257
-333.245	-10.299	0.104	0.068
-332.231	148.990	-0.147	-0.198
-331.216	800.000	0.138	-0.401
-330.202	-10.392	-0.038	0.025
-329.187	-45.828	-0.144	0.071
-328.172	800.000	-0.034	-0.103
-327.158	-138.463	-0.084	-0.009
-326.143	-200.000	-0.028	-0.189
-325.129	-152.337	-0.135	-0.010
-324.114	-200.000	-0.014	-0.213
-323.099	62.941	-0.246	-0.245
-322.085	377.445	-0.232	0.471
-321.070	-200.000	0.001	-0.190
-320.056	800.000	0.112	-0.328
-319.041	282.198	-0.162	0.289
-318.026	800.000	-0.111	-0.384
-317.012	114.320	0.121	0.146
-315.997	626.419	-0.034	0.085
-314.983	8.270	-0.144	0.108
-313.968	-200.000	0.491	0.001
-312.953	-7.188	0.082	0.055
-311.939	455.980	0.109	0.240
-310.924	800.000	0.034	0.137
-309.910	430.620	0.096	-0.206
-308.895	800.000	-0.046	-0.187
-307.880	34.642	0.179	-0.155
-306.866	680.007	-0.063	0.163
-305.851	-34.676	0.101	-0.055
-304.837	366.040	-0.148	-0.296
-303.822	-200.000	-0.105	0.495
-302.807	20.572	-0.267	0.214
-301.793	-200.000	0.166	-0.001
-300.778	203.920	0.131	0.201
-299.764	-200.000	0.011	-0.091
-298.749	-24.406	0.192	0.113
-297.735	127.784	0.248	-0.313
-296.720	800.000	-0.010	0.041
-295.705	45.108	0.263	0.240
-294.691	417.661	-0.011	-0.023
-293.676	99.631	-0.230	0.264
-292.662	83.391	0.053	0.057
-291.647	45.044	0.108	-0.099
-290.632	170.093	-0.281	0.399
-289.618	-75.105	-0.082	0.029
-288.603	354.954	-0.120	-0.237
-287.589	-106.112	0.194	0.043
-286.574	139.843	-0.167	0.218
-285.559	222.026	0.187	0.298
-284.545	-200.000	-0.009	0.189
-283.530	-136.944	-0.226	-0.026
-282.516	6.081	0.104	-0.076
-281.501	-121.423	0.228	0.038
-280.486	31.088	0.016	-0.014
-279.472	151.123	0.199	0.268
-278.457	22.887	-0.196	0.160
-277.443	-46.195	-0.365	-0.178
-276.428	19.306	-0.062	0.049
-275.413	5.119	0.193	-0.141
-274.399	-200.000	0.027	0.285
-273.384	196.080	0.179	-0.269
-272.370	-40.190	-0.189	-0.098
-271.355	-20.334	0.111	-0.067
-270.340	157.507	-0.039	0.054
-269.326	49.851	0.343	0.321
-268.311	-103.801	0.092	-0.021
-267.297	42.639	-0.157	-0.141
-266.282	111.052	-0.233	0.277
-265.267	89.879	-0.045	-0.050
-264.253	-22.583	-0.132	-0.079
-263.238	-89.473	-0.284	0.083
-262.224	800.000	0.063	-0.173
-261.209	717.474	0.102	0.268
-260.195	-119.439	-0.551	0.095
-259.180	48.391	0.134	0.125
-258.165	8.166	0.315	-0.234
-257.151	800.000	0.071	-0.255
-256.136	-29.844	-0.433	0.244
-255.122	-200.000	0.030	0.193
-254.107	68.785	-0.204	-0.207
-253.092	-88.071	0.155	0.046
-252.078	-200.000	-0.000	0.215
-251.063	-29.604	-0.188	0.106
-250.049	94.553	0.172	0.193
-249.034	302.362	0.057	-0.105
-248.019	800.000	0.077	-0.240
-247.005	-118.842	0.139	0.024
-245.990	-174.128	-0.175	-0.005
-244.976	-200.000	0.064	0.333
-243.961	639.516	0.097	-0.244
-242.946	88.992	-0.149	-0.164
-241.932	249.466	-0.125	-0.210
-240.917	-115.207	0.319	-0.060
-239.903	-111.250	0.350	0.071
-238.888	26.448	-0.293	0.243
-237.873	-113.356	-0.225	0.044
-236.859	48.488	-0.147	0.136
-235.844	592.242	0.207	-0.505
-234.830	566.489	0.011	0.026
-233.815	-71.248	0.285	-0.106
-232.800	736.383	0.030	-0.081
-231.786	200.055	-0.303	-0.460
-230.771	792.709	-0.099	-0.271
-229.757	419.803	0.108	-0.228
-228.742	-200.000	-0.002	0.074
-227.727	92.320	-0.081	-0.090
-226.713	-63.726	-0.119	-0.048
-225.698	95.830	-0.184	-0.208
-224.684	23.953	0.390	0.318
-223.669	-200.000	-0.016	0.256
-222.655	632.756	-0.193	0.484
-221.640	10.966	0.380	-0.287
-220.625	800.000	0.084	0.232
-219.611	-41.740	0.147	-0.075
-218.596	100.091	-0.032	0.036
-217.582	75.968	0.250	-0.261
-216.567	-200.000	-0.015	0.151
-215.552	88.200	0.082	-0.090
-214.538	800.000	-0.117	0.436
-213.523	420.579	0.057	0.121
-212.509	-15.161	0.146	0.092
-211.494	738.223	0.137	-0.364
-210.479	-66.466	-0.017	0.007
-209.465	-38.758	0.358	-0.187
-208.450	695.365	0.063	0.164
-207.436	94.397	-0.223	0.251
-206.421	-200.000	0.128	-0.603
-205.406	-200.000	-0.023	0.347
-204.392	73.188	0.111	0.115
-203.377	-200.000	0.161	0.000
-202.363	800.000	0.064	0.226
-201.348	-200.000	-0.048	0.331
-200.333	-200.000	0.019	-0.130
-199.319	-35.127	0.208	-0.112
-198.304	147.304	-0.193	-0.256
-197.290	800.000	0.009	0.036
-196.275	46.795	0.146	0.134
-195.260	355.523	-0.062	-0.121
-194.246	182.986	-0.091	-0.133
-193.231	-115.249	0.309	0.058
-192.217	-200.000	-0.017	-0.234
-191.202	-5.975	0.155	0.105
-190.187	223.545	0.088	0.140
-189.173	224.690	-0.091	0.145
-188.158	-200.000	-0.014	-0.160
-187.144	800.000	-0.040	0.127
-186.129	781.918	-0.087	0.235
-185.114	800.000	0.033	0.141
-184.100	-17.547	0.203	0.126
-183.085	-74.435	-0.140	-0.050
-182.071	-36.347	-0.288	0.153
-181.056	800.000	0.073	0.220
-180.042	-54.480	-0.283	0.127
-179.027	281.790	-0.136	-0.241
-178.012	-163.579	-0.184	0.009
-176.998	183.061	0.021	0.030
-175.983	113.738	-0.272	0.326
-174.969	-34.299	0.203	0.110
-173.954	-200.000	-0.012	0.218
-172.939	24.280	0.080	-0.065
-171.925	-32.204	0.280	-0.154
-170.910	-159.817	-0.164	-0.009
-169.896	467.796	-0.110	-0.244
-168.881	-29.908	-0.024	-0.014
-167.866	-23.278	0.063	0.038
-166.852	45.888	0.143	0.130
-165.837	-200.000	0.006	0.431
-164.823	282.994	0.072	0.128
-163.808	800.000	-0.101	-0.288
-162.793	198.090	-0.131	-0.197
-161.779	63.242	-0.153	0.151
-160.764	-200.000	0.014	-0.197
-159.750	105.575	-0.115	0.134
-158.735	-162.216	0.213	0.011
-157.720	625.087	-0.131	0.325
-156.706	800.000	0.010	-0.030
-155.691	35.753	0.221	-0.191
-154.677	-112.724	0.033	0.006
-153.662	76.251	0.157	-0.164
-152.647	-14.377	-0.272	0.172
-151.633	-34.358	-0.159	0.086
-150.618	-85.179	0.194	0.060
-149.604	10.295	-0.198	0.148
-148.589	-122.974	0.091	0.014
-147.574	-200.000	0.028	-0.250
-146.560	-15.935	0.163	0.102
-145.545	-200.000	-0.036	-0.174
-144.531	193.260	-0.071	0.106
-143.516	-200.000	0.019	-0.252
-142.502	-121.603	0.247	0.040
-141.487	-27.930	0.041	-0.023
-140.472	-200.000	0.017	-0.193
-139.458	5.361	0.135	-0.098
-138.443	-141.547	0.115	-0.011
-137.429	81.532	0.085	0.091
-136.414	-12.359	0.110	-0.071
-135.399	274.538	-0.113	-0.196
-134.385	800.000	0.070	-0.241
-133.370	-80.226	-0.041	-0.013
-132.356	-82.326	-0.118	-0.038
-131.341	294.584	-0.085	-0.153
-130.326	-200.000	0.079	-0.421
-129.312	362.961	0.120	-0.237
-128.297	6.099	0.147	0.107
-127.283	-200.000	-0.023	-0.170
-126.268	-140.554	-0.436	0.045
-125.253	758.545	0.029	0.078
-124.239	-200.000	0.003	-0.027
-123.224	23.235	0.210	-0.170
-122.210	332.189	-0.010	-0.018
-121.195	67.047	-0.091	-0.091
