DTS Sentinel unit serial number:	SN413079Multiplexer serial number:	ORYXHardware model number:	OX4-SRSoftware version number:	ORYX F/W v4.00 Oryx Data Collector v3.7.2.0data status	okinstallation	princeton_trtdifferential loss correction	single-endedforward channel	channel 2reverse channel	N/Adate	2019/09/11time	00:09:10forward acquisition time	60.00reverse acquisition time	0.00gamma	496.2192k internal	0.2332k external	0.2332temperature offset calibration	0.9946default loss term (dB/km)	0.3790temperature slope calibration	1.0000multiplexer offset coefficient	1.0000multiplexer slope coefficient	1.0000fibre end	0.00T internal ref (°C)	29.39T ext. ref 1 (°C)	-0.31T ext. ref 2 (°C)	22.81length (m)	temperature (°C)	Stokes	anti-Stokes-747.200	-67.144	0.287	0.114
-746.185	-200.000	-0.064	-0.372
-745.171	41.804	0.214	-0.196
-744.156	-200.000	0.034	0.227
-743.142	800.000	-0.027	-0.093
-742.127	86.245	-0.087	-0.097
-741.112	-37.172	-0.242	-0.130
-740.098	800.000	0.091	0.291
-739.083	-73.949	-0.249	0.091
-738.069	-36.346	-0.173	0.094
-737.054	-172.341	-0.192	-0.006
-736.039	-181.707	-0.312	0.006
-735.025	229.405	0.199	-0.327
-734.010	-40.210	-0.334	-0.175
-732.996	-104.200	-0.530	-0.124
-731.981	-1.808	-0.161	0.114
-730.966	28.947	-0.102	-0.087
-729.952	-200.000	0.024	0.218
-728.937	-108.844	-0.163	-0.035
-727.923	312.668	-0.143	-0.271
-726.908	11.630	0.101	0.078
-725.894	-200.000	0.017	0.080
-724.879	4.275	0.111	-0.082
-723.864	-145.957	-0.195	-0.017
-722.850	-35.872	-0.011	-0.006
-721.835	-200.000	-0.054	-0.357
-720.821	800.000	-0.060	0.200
-719.806	378.490	0.105	-0.216
-718.791	-48.277	-0.235	-0.114
-717.777	-68.049	0.112	-0.044
-716.762	-58.481	0.235	-0.103
-715.748	76.144	-0.053	-0.056
-714.733	-37.510	0.190	-0.102
-713.718	-105.976	-0.248	-0.056
-712.704	800.000	-0.086	0.324
-711.689	100.527	-0.063	0.074
-710.675	-200.000	0.027	-0.417
-709.660	-131.902	-0.277	0.036
-708.645	98.787	-0.308	-0.357
-707.631	-87.594	-0.348	-0.106
-706.616	392.689	0.107	-0.224
-705.602	523.040	0.103	-0.242
-704.587	25.365	-0.245	0.205
-703.572	800.000	-0.072	0.252
-702.558	-139.238	0.230	-0.025
-701.543	120.435	0.297	0.371
-700.529	104.598	0.091	0.107
-699.514	-5.823	-0.192	0.132
-698.499	-117.106	-0.260	0.048
-697.485	63.592	0.158	-0.159
-696.470	51.564	0.164	0.156
-695.456	109.916	-0.072	-0.087
-694.441	-24.844	-0.291	-0.174
-693.426	-116.199	0.236	-0.044
-692.412	-93.300	-0.111	0.031
-691.397	119.857	-0.113	-0.140
-690.383	-200.000	0.037	0.205
-689.368	-200.000	0.069	-0.370
-688.354	276.954	0.143	-0.255
-687.339	0.434	0.073	-0.052
-686.324	28.517	0.088	0.074
-685.310	78.977	-0.128	0.137
-684.295	11.290	-0.083	-0.063
-683.281	318.929	0.223	-0.424
-682.266	356.989	0.038	0.075
-681.251	-189.015	-0.194	0.002
-680.237	-61.697	-0.063	-0.026
-679.222	249.597	-0.029	-0.049
-678.208	190.115	0.163	-0.246
-677.193	-200.000	-0.070	0.386
-676.178	800.000	-0.080	0.228
-675.164	-49.630	-0.115	-0.055
-674.149	164.638	-0.158	-0.223
-673.135	-140.837	-0.213	0.022
-672.120	155.479	-0.287	-0.396
-671.105	34.704	-0.209	0.184
-670.091	139.156	-0.040	0.053
-669.076	187.196	0.074	-0.110
-668.062	-58.508	-0.266	0.116
-667.047	-200.000	-0.003	0.051
-666.032	23.672	0.104	0.086
-665.018	289.186	-0.069	-0.126
-664.003	-200.000	-0.053	-0.325
-662.989	288.307	-0.220	-0.399
-661.974	800.000	-0.025	-0.077
-660.959	-200.000	-0.001	-0.160
-659.945	130.549	-0.099	-0.127
-658.930	-7.310	0.217	0.147
-657.916	-119.163	-0.276	0.048
-656.901	-57.080	-0.550	-0.243
-655.886	3.548	-0.305	-0.223
-654.872	-45.322	0.369	-0.183
-653.857	-16.919	0.233	-0.147
-652.843	216.290	-0.230	-0.367
-651.828	-97.168	0.271	0.071
-650.814	225.224	-0.147	-0.239
-649.799	-95.284	0.556	0.150
-648.784	497.110	0.039	0.090
-647.770	800.000	0.067	-0.271
-646.755	751.049	0.080	-0.216
-645.741	-200.000	0.043	-0.262
-644.726	-42.528	-0.244	0.125
-643.711	-56.396	-0.099	0.044
-642.697	-200.000	0.032	0.153
-641.682	277.532	0.163	-0.291
-640.668	364.525	0.155	-0.313
-639.653	66.214	-0.181	-0.184
-638.638	412.892	0.070	-0.149
-637.624	-108.152	0.319	-0.069
-636.609	16.316	-0.164	0.130
-635.595	84.556	0.111	-0.121
-634.580	800.000	-0.055	0.177
-633.565	27.829	-0.194	-0.164
-632.551	-149.329	-0.090	-0.007
-631.536	800.000	-0.118	-0.326
-630.522	-82.562	-0.458	0.149
-629.507	17.590	0.272	-0.217
-628.492	138.311	0.253	-0.333
-627.478	18.794	-0.267	-0.214
-626.463	201.836	-0.190	0.294
-625.449	-10.494	0.189	-0.125
-624.434	612.399	-0.016	-0.041
-623.419	-19.357	-0.350	-0.217
-622.405	-103.989	-0.668	-0.156
-621.390	-26.549	-0.166	-0.097
-620.376	143.147	-0.280	0.373
-619.361	514.446	-0.047	-0.110
-618.346	360.888	0.030	-0.060
-617.332	-15.141	-0.130	0.083
-616.317	-174.088	0.270	-0.008
-615.303	-182.656	0.184	-0.003
-614.288	82.334	-0.246	-0.267
-613.273	-200.000	-0.009	-0.091
-612.259	-143.804	-0.288	0.027
-611.244	-20.293	-0.083	-0.051
-610.230	34.359	-0.117	-0.103
-609.215	-64.631	0.049	0.020
-608.201	202.056	-0.086	0.132
-607.186	14.388	-0.279	0.217
-606.171	2.288	-0.242	0.175
-605.157	-82.472	-0.308	-0.100
-604.142	232.447	-0.149	0.245
-603.128	-200.000	0.064	0.288
-602.113	-68.107	0.199	0.077
-601.098	800.000	-0.088	-0.372
-600.084	-156.984	0.419	0.026
-599.069	-46.076	0.214	-0.105
-598.055	233.076	0.106	-0.174
-597.040	343.679	0.115	-0.226
-596.025	72.900	-0.278	-0.290
-595.011	-199.968	-0.315	-0.002
-593.996	800.000	0.038	-0.136
-592.982	179.123	-0.072	-0.106
-591.967	418.913	-0.089	0.191
-590.952	-144.576	0.139	0.013
-589.938	-197.702	0.322	-0.002
-588.923	-200.000	-0.020	-0.183
-587.909	-84.016	-0.061	0.019
-586.894	203.796	-0.228	0.353
-585.879	-200.000	0.002	-0.121
-584.865	-200.000	-0.065	-0.000
-583.850	339.114	-0.022	-0.043
-582.836	-102.588	-0.199	-0.048
-581.821	154.675	0.038	-0.052
-580.806	-200.000	0.017	0.332
-579.792	69.741	-0.075	0.077
-578.777	20.502	0.119	-0.096
-577.763	800.000	0.036	0.128
-576.748	-200.000	-0.022	-0.120
-575.733	361.059	0.116	-0.233
-574.719	6.551	0.122	-0.091
-573.704	-72.253	0.244	0.090
-572.690	248.131	0.036	0.061
-571.675	-183.116	0.132	0.002
-570.661	-18.246	0.318	0.199
-569.646	800.000	0.074	-0.304
-568.631	248.398	-0.156	0.264
-567.617	10.570	0.033	0.025
-566.602	116.209	-0.106	0.130
-565.588	-32.660	-0.271	0.151
-564.573	399.984	0.106	0.221
-563.558	547.454	0.088	-0.210
-562.544	58.235	0.214	-0.210
-561.529	44.049	-0.247	-0.226
-560.515	71.807	0.165	-0.172
-559.500	-106.184	-0.274	-0.061
-558.485	800.000	-0.072	0.230
-557.471	-200.000	0.003	-0.245
-556.456	-200.000	0.002	-0.067
-555.442	-200.000	-0.034	-0.239
-554.427	-200.000	-0.019	-0.138
-553.412	800.000	0.040	0.150
-552.398	225.922	-0.115	0.185
-551.383	123.282	0.137	-0.172
-550.369	-200.000	0.088	-0.542
-549.354	-200.000	0.001	-0.195
-548.339	-200.000	-0.064	-0.297
-547.325	-110.957	-0.418	-0.086
-546.310	-177.140	0.217	0.005
-545.296	800.000	-0.052	0.160
-544.281	143.774	-0.203	-0.270
-543.266	-109.381	0.371	-0.078
-542.252	-200.000	-0.018	0.089
-541.237	-45.490	0.437	0.216
-540.223	-88.968	0.175	0.052
-539.208	347.605	-0.143	-0.282
-538.193	-55.585	0.230	-0.103
-537.179	-200.000	0.026	-0.228
-536.164	800.000	-0.118	-0.377
-535.150	-200.000	-0.037	0.179
-534.135	-114.575	0.523	0.100
-533.121	131.062	0.142	0.181
-532.106	-97.955	-0.145	-0.037
-531.091	-114.440	-0.165	0.032
-530.077	117.661	0.108	0.133
-529.062	-200.000	0.025	-0.256
-528.048	-41.756	-0.095	0.049
-527.033	555.335	0.067	0.161
-526.018	-57.172	-0.041	0.018
-525.004	-93.536	0.200	0.055
-523.989	-200.000	0.002	-0.075
-522.975	-200.000	0.028	-0.138
-521.960	217.754	0.043	-0.068
-520.945	-58.716	0.097	0.042
-519.931	-200.000	0.028	0.261
-518.916	-200.000	0.029	0.267
-517.902	97.675	-0.129	-0.148
-516.887	545.717	-0.060	-0.144
-515.872	800.000	-0.041	0.143
-514.858	504.698	0.132	-0.304
-513.843	489.578	0.082	0.188
-512.829	-200.000	-0.007	0.160
-511.814	-15.587	-0.062	-0.039
-510.799	675.502	-0.136	0.352
-509.785	-9.518	0.075	-0.050
-508.770	-200.000	0.022	-0.150
-507.756	194.881	0.054	-0.081
-506.741	570.489	-0.098	0.238
-505.726	585.595	-0.090	0.221
-504.712	200.758	-0.184	0.282
-503.697	78.293	-0.164	0.175
-502.683	77.590	-0.159	0.168
-501.668	415.673	0.044	0.094
-500.653	38.420	-0.057	0.050
-499.639	136.738	0.060	-0.077
-498.624	-200.000	0.036	-0.235
-497.610	233.428	-0.174	-0.286
-496.595	-153.638	-0.333	-0.023
-495.581	717.171	-0.154	0.407
-494.566	449.367	-0.061	-0.135
-493.551	-200.000	-0.078	-0.382
-492.537	-200.000	0.024	-0.450
-491.522	-162.040	0.392	-0.020
-490.508	-10.570	-0.196	-0.129
-489.493	-200.000	-0.037	0.175
-488.478	800.000	-0.046	0.170
-487.464	-200.000	-0.054	0.444
-486.449	232.151	-0.074	0.121
-485.435	83.339	0.201	0.218
-484.420	-110.179	-0.235	0.049
-483.405	659.076	-0.164	-0.419
-482.391	-200.000	-0.009	-0.043
-481.376	21.447	-0.125	0.101
-480.362	338.241	0.094	0.182
-479.347	29.731	-0.330	-0.280
-478.332	-200.000	0.026	-0.347
-477.318	-15.997	-0.252	-0.159
-476.303	229.099	0.251	-0.407
-475.289	-200.000	0.053	-0.500
-474.274	115.259	0.049	-0.059
-473.259	-125.696	-0.260	-0.039
-472.245	-123.260	-0.066	-0.011
-471.230	-80.011	0.142	-0.048
-470.216	-115.911	0.292	0.054
-469.201	-193.249	0.193	0.002
-468.186	-200.000	0.008	0.255
-467.172	309.823	-0.129	-0.240
-466.157	-200.000	-0.001	-0.091
-465.143	118.258	-0.099	0.121
-464.128	175.247	0.101	-0.146
-463.113	800.000	0.069	0.225
-462.099	800.000	0.070	0.220
-461.084	134.336	-0.217	-0.280
-460.070	-200.000	0.008	0.157
-459.055	33.808	-0.348	0.301
-458.040	-200.000	0.044	-0.283
-457.026	143.970	-0.103	-0.136
-456.011	-133.580	0.300	0.037
-454.997	-200.000	-0.036	-0.236
-453.982	120.223	0.052	0.064
-452.968	-150.567	-0.067	-0.005
-451.953	-110.582	0.322	0.066
-450.938	3.873	0.060	-0.043
-449.924	406.586	-0.038	0.080
-448.909	-78.074	0.151	0.052
-447.895	-163.193	-0.302	-0.014
-446.880	-40.884	-0.091	-0.047
-445.865	800.000	-0.029	0.113
-444.851	238.650	0.211	0.348
-443.836	-58.966	0.060	0.026
-442.822	-131.242	-0.135	0.018
-441.807	97.952	0.037	0.043
-440.792	159.748	-0.138	-0.191
-439.778	-181.476	0.315	-0.006
-438.763	-107.280	0.142	0.031
-437.749	-200.000	0.050	-0.311
-436.734	139.413	-0.149	0.194
-435.719	180.149	-0.113	0.165
-434.705	-108.117	0.275	0.059
-433.690	391.773	-0.087	0.179
-432.676	524.329	0.077	-0.181
-431.661	-30.217	-0.103	0.058
-430.646	6.019	0.027	0.020
-429.632	-163.719	0.309	-0.014
-428.617	800.000	-0.044	-0.170
-427.603	325.837	-0.140	0.267
-426.588	-200.000	-0.062	0.336
-425.573	800.000	0.065	-0.197
-424.559	-77.797	-0.158	0.054
-423.544	800.000	-0.076	0.263
-422.530	-200.000	-0.050	0.300
-421.515	800.000	0.029	-0.089
-420.500	185.628	0.156	0.231
-419.486	800.000	0.086	0.269
-418.471	770.859	0.077	0.209
-417.457	-200.000	0.012	0.097
-416.442	-200.000	0.008	-0.176
-415.428	717.928	-0.185	-0.488
-414.413	-146.309	-0.303	-0.026
-413.398	-99.268	0.593	-0.149
-412.384	74.403	0.166	-0.173
-411.369	337.496	0.062	-0.119
-410.355	-156.517	0.174	-0.011
-409.340	-47.797	0.228	0.110
-408.325	-117.374	0.150	-0.027
-407.311	-85.420	-0.131	0.040
-406.296	48.730	-0.196	0.182
-405.282	-11.620	-0.136	-0.089
-404.267	42.708	-0.170	-0.154
-403.252	-5.264	0.326	-0.222
-402.238	-9.156	0.254	0.169
-401.223	148.223	-0.076	-0.102
-400.209	-200.000	0.051	0.230
-399.194	800.000	0.097	0.345
-398.179	-200.000	-0.005	0.108
-397.165	-120.904	-0.307	-0.051
-396.150	712.901	-0.049	0.128
-395.136	68.982	0.085	0.086
-394.121	-118.609	-0.194	-0.034
-393.106	-138.012	-0.102	-0.011
-392.092	-36.492	0.185	0.099
-391.077	46.753	0.197	0.181
-390.063	-200.000	0.055	0.287
-389.048	-200.000	-0.059	0.361
-388.033	673.777	-0.066	0.169
-387.019	584.302	0.104	0.254
-386.004	800.000	0.089	0.281
-384.990	91.481	-0.150	-0.167
-383.975	-14.014	0.196	0.126
-382.960	800.000	0.081	0.280
-381.946	-200.000	0.030	-0.233
-380.931	-55.158	0.141	-0.063
-379.917	-40.129	0.272	0.140
-378.902	358.779	-0.131	0.260
-377.888	4.442	0.220	-0.160
-376.873	-67.505	0.175	0.068
-375.858	-200.000	-0.001	-0.238
-374.844	149.831	-0.130	-0.174
-373.829	416.095	-0.072	0.152
-372.815	499.856	-0.055	0.125
-371.800	-29.078	0.118	-0.067
-370.785	117.989	0.035	0.043
-369.771	-200.000	-0.011	-0.440
-368.756	70.344	-0.180	-0.185
-367.742	-134.351	0.157	-0.019
-366.727	-200.000	-0.024	-0.127
-365.712	425.543	-0.152	-0.325
-364.698	305.981	0.161	-0.297
-363.683	-30.614	-0.141	0.079
-362.669	-114.814	-0.213	-0.040
-361.654	211.351	0.033	-0.051
-360.639	186.271	0.074	-0.109
-359.625	283.772	-0.056	-0.099
-358.610	-68.796	-0.202	0.077
-357.596	-10.350	-0.276	-0.182
-356.581	-200.000	-0.050	-0.289
-355.566	59.774	-0.108	0.106
-354.552	282.766	0.167	0.297
-353.537	-68.897	0.212	-0.081
-352.523	-74.006	0.220	0.079
-351.508	-156.271	-0.161	-0.010
-350.493	-46.412	-0.198	-0.097
-349.479	-200.000	0.004	0.214
-348.464	-149.569	-0.072	0.006
-347.450	24.242	0.171	-0.140
-346.435	-152.603	0.101	-0.007
-345.420	-200.000	0.219	-0.001
-344.406	522.439	-0.037	-0.086
-343.391	800.000	-0.012	-0.044
-342.377	-200.000	-0.071	0.383
-341.362	-144.980	0.500	0.045
-340.348	-200.000	0.046	0.342
-339.333	88.367	0.015	0.016
-338.318	303.200	-0.112	-0.206
-337.304	-51.740	-0.306	0.141
-336.289	677.673	-0.146	-0.377
-335.275	41.708	0.121	0.109
-334.260	36.203	-0.118	0.103
-333.245	-200.000	0.009	-0.118
-332.231	-200.000	-0.024	-0.386
-331.216	-56.433	-0.080	-0.035
-330.202	-200.000	-0.015	-0.198
-329.187	-67.262	0.074	0.029
-328.172	2.525	0.198	0.142
-327.158	-200.000	0.042	0.223
-326.143	376.398	0.104	-0.209
-325.129	163.998	-0.260	-0.363
-324.114	800.000	-0.070	0.237
-323.099	411.057	0.035	-0.073
-322.085	255.691	-0.143	0.243
-321.070	800.000	-0.045	-0.149
-320.056	27.381	0.283	0.235
-319.041	-134.925	0.108	0.013
-318.026	-16.121	-0.135	-0.085
-317.012	214.118	0.264	-0.413
-315.997	90.798	-0.113	-0.125
-314.983	-200.000	-0.008	-0.163
-313.968	-138.734	0.258	0.028
-312.953	-200.000	-0.008	-0.114
-311.939	-65.758	0.086	0.034
-310.924	-80.745	-0.131	0.043
-309.910	48.508	-0.282	0.262
-308.895	-115.526	-0.214	-0.040
-307.880	-4.148	0.113	0.078
-306.866	-200.000	0.010	-0.086
-305.851	-101.348	0.083	-0.020
-304.837	485.087	0.075	0.170
-303.822	39.089	-0.100	0.088
-302.807	117.955	-0.116	-0.141
-301.793	-22.917	0.054	-0.032
-300.778	-76.513	0.154	0.053
-299.764	10.723	-0.082	-0.062
-298.749	-95.387	-0.013	0.003
-297.735	-31.985	0.046	0.025
-296.720	-200.000	-0.004	0.338
-295.705	42.987	0.086	0.077
-294.691	255.601	0.156	0.265
-293.676	176.077	0.096	0.138
-292.662	145.680	-0.143	0.189
-291.647	515.726	0.088	0.204
-290.632	21.844	-0.214	-0.172
-289.618	-120.185	0.184	-0.031
-288.603	800.000	-0.040	0.130
-287.589	800.000	-0.096	-0.289
-286.574	36.258	-0.084	-0.073
-285.559	117.062	-0.132	0.160
-284.545	-8.374	0.117	0.078
-283.530	-200.000	-0.005	0.062
-282.516	-70.485	0.302	0.113
-281.501	800.000	-0.029	0.112
-280.486	-114.227	0.388	0.074
-279.472	75.789	-0.120	-0.125
-278.457	-158.506	-0.253	0.014
-277.443	-19.214	0.279	-0.171
-276.428	-114.597	0.223	0.042
-275.413	20.409	0.297	0.237
-274.399	-200.000	-0.036	0.221
-273.384	271.870	0.162	-0.281
-272.370	112.105	-0.137	0.164
-271.355	250.995	-0.093	-0.156
-270.340	-71.373	-0.110	-0.041
-269.326	-200.000	0.001	-0.014
-268.311	800.000	0.102	0.403
-267.297	-1.390	-0.381	0.266
-266.282	800.000	0.078	0.332
-265.267	230.507	0.123	-0.199
-264.253	-23.302	0.234	0.139
-263.238	-200.000	0.010	0.303
-262.224	-200.000	0.066	0.504
-261.209	-96.610	-0.266	-0.069
-260.195	-200.000	-0.017	0.111
-259.180	-100.160	0.326	0.080
-258.165	538.468	0.037	0.087
-257.151	-42.404	0.104	0.052
-256.136	-200.000	0.016	-0.095
-255.122	800.000	-0.120	-0.363
-254.107	-200.000	-0.011	-0.202
-253.092	-200.000	-0.010	0.156
-252.078	-23.247	0.155	-0.092
-251.063	-200.000	0.067	0.373
-250.049	-200.000	0.002	-0.014
-249.034	-20.583	0.232	-0.141
-248.019	-56.566	-0.436	0.191
-247.005	74.201	0.063	0.065
-245.990	27.218	0.258	0.214
-244.976	-200.000	-0.076	-0.406
-243.961	370.895	-0.177	-0.354
-242.946	634.724	0.080	0.201
-241.932	800.000	-0.018	0.076
-240.917	5.595	0.206	-0.150
-239.903	-76.195	-0.128	0.045
-238.888	-200.000	-0.015	-0.381
-237.873	800.000	-0.036	0.151
-236.859	800.000	0.025	0.076
-235.844	800.000	-0.055	0.192
-234.830	-164.683	0.219	0.010
-233.815	-174.140	0.240	-0.007
-232.800	-72.909	-0.189	0.069
-231.786	26.207	-0.160	-0.132
-230.771	220.900	-0.076	-0.120
-229.757	-200.000	-0.003	0.066
-228.742	-88.296	-0.278	-0.082
-227.727	527.859	-0.037	-0.087
-226.713	-47.277	-0.194	-0.093
-225.698	24.602	-0.163	-0.133
-224.684	800.000	-0.107	0.311
-223.669	-67.794	-0.188	-0.072
-222.655	-200.000	0.005	-0.144
-221.640	-200.000	0.006	0.251
-220.625	396.711	0.150	0.309
-219.611	800.000	-0.029	-0.092
-218.596	-200.000	0.037	-0.316
-217.582	-72.774	-0.325	0.118
-216.567	-200.000	0.020	-0.178
-215.552	117.427	0.145	-0.176
-214.538	-200.000	-0.016	-0.129
-213.523	244.827	0.131	0.217
-212.509	210.776	0.124	0.191
-211.494	-11.409	0.259	-0.168
-210.479	572.180	-0.061	-0.146
-209.465	-91.378	-0.230	-0.065
-208.450	-82.113	-0.236	-0.076
-207.436	16.436	-0.076	0.059
-206.421	-200.000	0.023	0.301
-205.406	65.089	-0.379	-0.377
-204.392	390.982	0.039	0.079
-203.377	1.592	-0.130	-0.092
-202.363	68.348	-0.124	-0.125
-201.348	800.000	0.040	0.162
-200.333	-200.000	-0.064	0.324
-199.319	7.577	0.262	0.193
-198.304	-123.620	-0.377	-0.059
-197.290	5.933	0.080	0.058
-196.275	-172.498	0.451	0.014
-195.260	-200.000	0.020	0.320
-194.246	24.363	0.185	0.150
-193.231	-200.000	-0.025	0.255
-192.217	-89.976	0.239	0.069
-191.202	-18.929	-0.171	-0.105
-190.187	85.135	0.025	0.027
-189.173	-34.339	0.174	0.094
-188.158	800.000	-0.050	0.205
-187.144	240.763	0.081	0.133
-186.129	-70.684	-0.163	-0.061
-185.114	-52.941	-0.060	-0.027
-184.100	-71.892	0.162	-0.059
-183.085	800.000	0.086	0.287
-182.071	180.119	-0.199	-0.287
-181.056	-200.000	0.052	-0.268
-180.042	-66.640	0.260	0.102
-179.027	-159.226	-0.140	0.008
-178.012	-200.000	0.015	0.156
-176.998	445.145	-0.097	-0.209
-175.983	-19.541	-0.332	-0.202
-174.969	7.159	-0.049	-0.036
-173.954	-200.000	0.007	0.088
-172.939	591.681	-0.118	0.286
-171.925	-124.233	0.088	-0.014
-170.910	-25.677	0.181	-0.105
-169.896	-120.688	-0.141	0.023
-168.881	32.931	-0.096	-0.082
-167.866	800.000	0.031	0.086
-166.852	-120.187	0.066	-0.011
-165.837	-157.611	0.139	-0.008
-164.823	62.266	0.179	0.175
-163.808	-0.491	0.109	-0.076
-162.793	16.776	0.263	0.205
-161.779	-200.000	0.004	0.072
-160.764	790.894	-0.022	0.059
-159.750	3.937	0.333	0.239
-158.735	-200.000	0.053	0.252
-157.720	182.653	-0.099	0.143
-156.706	-200.000	-0.070	-0.435
-155.691	-13.653	-0.030	0.019
-154.677	159.744	-0.120	0.164
-153.662	-153.768	-0.124	-0.008
-152.647	158.607	-0.089	-0.122
-151.633	111.907	-0.252	-0.300
-150.618	-124.680	-0.311	0.047
-149.604	800.000	0.048	0.130
-148.589	394.877	0.056	-0.114
-147.574	-200.000	-0.028	-0.171
-146.560	71.762	0.178	-0.182
-145.545	-200.000	-0.004	0.285
-144.531	46.280	0.185	0.168
-143.516	109.948	0.111	0.131
-142.502	800.000	0.064	0.212
-141.487	12.087	0.369	0.279
-140.472	-124.072	0.104	0.016
-139.458	-182.852	-0.069	-0.001
-138.443	-165.605	0.349	0.015
-137.429	96.806	0.053	0.060
-136.414	-110.136	-0.189	-0.039
-135.399	-200.000	-0.002	0.057
-134.385	-200.000	-0.009	-0.127
-133.370	-97.652	-0.139	-0.035
-132.356	-179.339	0.134	-0.003
-131.341	-200.000	-0.011	0.053
-130.326	-200.000	0.067	-0.360
-129.312	232.671	0.146	-0.236
-128.297	217.232	0.068	0.106
-127.283	498.932	0.072	0.163
-126.268	0.661	-0.220	-0.154
-125.253	-55.217	0.450	-0.199
-124.239	-200.000	-0.022	-0.224
-123.224	-181.736	0.163	0.003
-122.210	-147.379	0.190	-0.016
