DTS Sentinel unit serial number:	SN413079Multiplexer serial number:	ORYXHardware model number:	OX4-SRSoftware version number:	ORYX F/W v4.00 Oryx Data Collector v3.7.2.0data status	okinstallation	princeton_trtdifferential loss correction	single-endedforward channel	channel 2reverse channel	N/Adate	2019/09/14time	19:23:35forward acquisition time	60.00reverse acquisition time	0.00gamma	496.2192k internal	0.2321k external	0.2321temperature offset calibration	1.0099default loss term (dB/km)	0.3790temperature slope calibration	1.0000multiplexer offset coefficient	1.0000multiplexer slope coefficient	1.0000fibre end	0.00T internal ref (°C)	34.94T ext. ref 1 (°C)	4.87T ext. ref 2 (°C)	29.04length (m)	temperature (°C)	Stokes	anti-Stokes-747.200	495.761	0.012	0.028
-746.185	-126.723	0.162	-0.024
-745.171	800.000	0.062	0.186
-744.156	-36.165	-0.324	0.177
-743.142	-80.722	-0.296	-0.099
-742.127	258.218	-0.082	-0.143
-741.112	-94.379	0.600	-0.165
-740.098	-36.940	0.102	0.055
-739.083	-20.780	0.275	-0.170
-738.069	-200.000	-0.026	-0.156
-737.054	-200.000	-0.023	-0.133
-736.039	-60.650	-0.296	-0.127
-735.025	23.870	0.355	0.296
-734.010	83.662	-0.201	-0.222
-732.996	-200.000	0.026	-0.221
-731.981	77.750	-0.189	-0.204
-730.966	-123.306	-0.290	-0.047
-729.952	112.950	-0.219	-0.268
-728.937	-30.230	-0.065	-0.037
-727.923	800.000	0.097	0.418
-726.908	-76.173	-0.173	0.062
-725.894	-44.197	-0.161	-0.082
-724.879	800.000	0.150	-0.494
-723.864	45.914	0.051	-0.048
-722.850	60.388	0.044	0.044
-721.835	800.000	0.091	0.261
-720.821	130.072	0.040	-0.052
-719.806	-65.034	0.396	0.161
-718.791	800.000	-0.012	-0.033
-717.777	-65.773	-0.351	-0.142
-716.762	135.695	0.071	0.093
-715.748	-128.864	0.084	0.012
-714.733	250.060	0.016	-0.028
-713.718	-200.000	-0.037	-0.321
-712.704	-87.612	-0.237	-0.072
-711.689	183.317	-0.221	-0.330
-710.675	-123.272	0.374	0.060
-709.660	-59.019	0.084	-0.037
-708.645	800.000	0.060	-0.249
-707.631	-45.603	0.073	0.036
-706.616	800.000	0.107	0.402
-705.602	-60.764	-0.107	-0.046
-704.587	-138.827	0.234	-0.026
-703.572	40.975	-0.199	0.181
-702.558	-200.000	0.023	0.407
-701.543	29.137	0.219	0.188
-700.529	800.000	0.019	0.070
-699.514	-200.000	0.020	-0.175
-698.499	-71.026	0.319	-0.121
-697.485	-169.088	-0.151	-0.006
-696.470	-50.595	0.139	-0.066
-695.456	389.982	0.091	-0.191
-694.441	-11.371	-0.289	-0.192
-693.426	134.470	-0.123	-0.161
-692.412	-18.791	0.154	0.097
-691.397	219.979	0.179	0.290
-690.383	-26.592	0.073	0.043
-689.368	-107.134	-0.566	-0.126
-688.354	-161.760	-0.236	0.012
-687.339	-105.376	-0.228	-0.052
-686.324	99.443	-0.070	-0.081
-685.310	-200.000	-0.030	-0.149
-684.295	724.403	0.084	-0.225
-683.281	65.251	-0.275	-0.280
-682.266	-6.515	-0.152	-0.104
-681.251	800.000	-0.081	0.338
-680.237	300.162	-0.170	0.317
-679.222	-87.580	-0.170	0.052
-678.208	205.973	0.202	0.316
-677.193	104.865	0.271	-0.322
-676.178	-95.387	-0.308	0.083
-675.164	-90.888	0.257	-0.075
-674.149	-70.466	-0.320	-0.122
-673.135	250.022	0.130	0.222
-672.120	-26.702	0.250	0.148
-671.105	25.656	-0.212	-0.178
-670.091	800.000	-0.098	-0.362
-669.076	0.579	0.196	-0.141
-668.062	-200.000	0.022	0.000
-667.047	65.829	0.158	0.161
-666.032	2.571	0.191	-0.139
-665.018	181.284	0.207	-0.306
-664.003	-116.618	-0.293	0.054
-662.989	-200.000	-0.070	-0.376
-661.974	-200.000	-0.025	-0.137
-660.959	-32.735	-0.058	-0.033
-659.945	-103.985	0.217	0.051
-658.930	223.044	-0.053	0.085
-657.916	139.719	-0.191	-0.253
-656.901	-101.395	-0.329	0.081
-655.886	-40.831	0.222	-0.116
-654.872	-106.080	0.151	0.034
-653.857	618.815	0.169	0.427
-652.843	-147.264	0.120	-0.010
-651.828	58.459	0.190	0.187
-650.814	171.907	0.096	-0.139
-649.799	610.613	0.044	-0.111
-648.784	-154.185	0.099	-0.007
-647.770	43.422	0.223	0.206
-646.755	-200.000	-0.029	0.140
-645.741	-176.586	0.239	0.006
-644.726	-150.846	-0.089	0.007
-643.711	197.545	-0.166	-0.255
-642.697	-87.059	0.285	0.087
-641.682	344.655	-0.109	0.215
-640.668	-200.000	-0.020	-0.194
-639.653	-110.953	-0.319	-0.066
-638.638	-166.957	0.148	-0.006
-637.624	-55.011	-0.276	0.125
-636.609	321.925	-0.103	-0.198
-635.595	-200.000	-0.053	-0.272
-634.580	-200.000	-0.033	-0.271
-633.565	-90.641	0.174	0.051
-632.551	38.448	-0.231	-0.208
-631.536	113.307	0.109	-0.133
-630.522	84.158	-0.148	-0.163
-629.507	-75.757	0.122	-0.044
-628.492	800.000	0.015	0.060
-627.478	800.000	0.053	-0.186
-626.463	-200.000	-0.011	-0.055
-625.449	-68.558	-0.128	-0.050
-624.434	224.157	-0.105	-0.171
-623.419	178.499	-0.204	-0.300
-622.405	-200.000	-0.021	-0.408
-621.390	-10.131	0.255	0.170
-620.376	189.213	-0.243	-0.366
-619.361	800.000	0.033	-0.099
-618.346	-35.359	-0.104	0.057
-617.332	-98.195	0.056	0.014
-616.317	-200.000	0.005	-0.217
-615.303	316.608	0.055	0.104
-614.288	686.853	0.133	-0.349
-613.273	-92.650	0.105	-0.030
-612.259	-200.000	0.009	-0.084
-611.244	-22.119	0.072	0.044
-610.230	4.119	0.143	0.105
-609.215	-200.000	-0.011	0.215
-608.201	19.464	0.296	-0.239
-607.186	-200.000	0.005	-0.120
-606.171	-84.039	-0.290	0.093
-605.157	-166.900	-0.160	-0.007
-604.142	133.460	-0.064	-0.083
-603.128	-200.000	0.012	-0.067
-602.113	-57.923	-0.194	0.085
-601.098	-63.250	0.211	0.087
-600.084	-57.694	-0.475	0.209
-599.069	800.000	0.037	0.122
-598.055	-20.280	0.246	-0.152
-597.040	19.840	0.066	0.053
-596.025	-63.814	0.260	-0.107
-595.011	-89.444	0.015	-0.005
-593.996	-200.000	-0.016	0.198
-592.982	-76.163	-0.139	-0.049
-591.967	-117.674	0.672	-0.122
-590.952	800.000	-0.062	0.179
-589.938	-73.304	-0.244	-0.090
-588.923	-40.947	0.126	-0.065
-587.909	332.009	0.073	0.142
-586.894	-54.583	0.439	0.199
-585.879	284.089	0.082	-0.148
-584.865	-200.000	0.018	0.237
-583.850	-13.282	-0.164	0.107
-582.836	-31.458	0.127	0.071
-581.821	-72.110	-0.237	-0.088
-580.806	76.527	-0.074	0.079
-579.792	18.506	0.323	0.259
-578.777	-106.069	0.172	-0.039
-577.763	-13.383	-0.185	-0.121
-576.748	308.362	-0.114	0.214
-575.733	-18.673	0.233	0.146
-574.719	-200.000	-0.012	-0.320
-573.704	-200.000	-0.025	0.246
-572.690	328.096	-0.039	-0.075
-571.675	-200.000	0.000	-0.030
-570.661	196.355	0.065	0.099
-569.646	-73.010	0.037	0.014
-568.631	275.250	-0.081	0.145
-567.617	311.611	-0.085	0.160
-566.602	-200.000	-0.000	0.521
-565.588	-8.365	0.102	0.069
-564.573	71.174	-0.172	-0.179
-563.558	-87.914	-0.207	0.062
-562.544	184.233	-0.151	0.224
-561.529	771.904	0.158	0.432
-560.515	231.834	-0.065	0.107
-559.500	232.253	0.103	0.170
-558.485	-132.236	0.158	0.021
-557.471	-106.731	0.070	-0.016
-556.456	-3.976	-0.157	-0.110
-555.442	40.041	0.188	-0.169
-554.427	243.829	-0.194	0.326
-553.412	11.568	-0.188	-0.144
-552.398	-200.000	-0.033	0.269
-551.383	-30.120	0.079	-0.045
-550.369	53.633	-0.330	-0.318
-549.354	-133.288	-0.169	-0.021
-548.339	800.000	-0.160	0.496
-547.325	800.000	0.040	-0.114
-546.310	-200.000	-0.004	-0.170
-545.296	-137.362	0.139	0.016
-544.281	-200.000	0.000	0.254
-543.266	-13.336	0.077	0.050
-542.252	95.843	-0.255	-0.292
-541.237	-52.086	0.145	0.068
-540.223	-74.494	0.206	0.075
-539.208	-91.585	-0.223	0.064
-538.193	-39.855	0.253	0.132
-537.179	-82.929	0.262	-0.085
-536.164	-29.011	-0.370	0.213
-535.150	-128.175	-0.511	0.073
-534.135	152.381	0.160	0.219
-533.121	-200.000	-0.037	0.257
-532.106	-90.567	-0.159	0.046
-531.091	322.273	-0.090	0.171
-530.077	800.000	-0.063	-0.259
-529.062	800.000	-0.050	-0.165
-528.048	-4.789	0.339	-0.234
-527.033	-200.000	-0.044	-0.250
-526.018	128.021	0.217	0.276
-525.004	-91.521	0.144	0.041
-523.989	800.000	-0.114	0.376
-522.975	707.621	0.065	0.173
-521.960	-49.708	0.446	0.212
-520.945	146.796	0.053	0.071
-519.931	-3.553	-0.117	0.082
-518.916	800.000	0.062	-0.214
-517.902	-117.223	-0.215	-0.039
-516.887	-46.779	-0.132	0.065
-515.872	-200.000	-0.019	-0.152
-514.858	481.765	0.037	-0.085
-513.843	-166.073	0.161	-0.007
-512.829	-200.000	0.000	-0.299
-511.814	-200.000	0.013	-0.150
-510.799	-200.000	0.042	-0.403
-509.785	474.645	-0.076	0.172
-508.770	88.260	0.142	0.158
-507.756	800.000	0.012	0.049
-506.741	1.876	-0.320	0.231
-505.726	48.630	-0.251	-0.236
-504.712	-102.778	-0.319	0.076
-503.697	-200.000	-0.031	-0.178
-502.683	223.531	-0.037	-0.060
-501.668	800.000	0.028	-0.087
-500.653	72.414	0.137	-0.143
-499.639	-118.930	0.085	0.015
-498.624	-178.378	-0.097	-0.002
-497.610	-200.000	-0.014	0.134
-496.595	-200.000	-0.049	0.253
-495.581	183.530	-0.191	0.283
-494.566	275.872	0.175	-0.311
-493.551	351.381	-0.159	-0.315
-492.537	78.663	0.214	-0.229
-491.522	-59.057	-0.176	0.076
-490.508	-29.668	-0.083	0.047
-489.493	610.386	0.057	0.143
-488.478	-71.676	-0.317	0.118
-487.464	-95.974	-0.423	-0.113
-486.449	435.324	-0.040	-0.087
-485.435	-200.000	-0.028	0.168
-484.420	800.000	0.062	-0.196
-483.405	-200.000	0.018	-0.086
-482.391	41.074	-0.095	-0.086
-481.376	-140.886	-0.140	-0.014
-480.362	462.614	0.059	-0.133
-479.347	128.621	0.052	-0.067
-478.332	294.673	-0.157	0.288
-477.318	491.592	-0.162	-0.372
-476.303	128.088	-0.091	0.116
-475.289	-42.360	0.206	-0.105
-474.274	-200.000	0.012	0.271
-473.259	-135.274	0.222	0.027
-472.245	-78.193	-0.054	0.019
-471.230	-200.000	0.007	0.192
-470.216	-200.000	-0.043	0.275
-469.201	-17.218	-0.177	-0.112
-468.186	-49.933	0.057	-0.027
-467.172	-200.000	-0.031	0.203
-466.157	-79.137	-0.213	0.072
-465.143	-34.687	-0.046	0.025
-464.128	28.013	0.287	0.242
-463.113	-200.000	0.007	-0.141
-462.099	485.535	-0.013	-0.031
-461.084	3.382	-0.179	0.130
-460.070	31.090	-0.123	-0.106
-459.055	-200.000	0.022	-0.123
-458.040	601.166	-0.079	0.196
-457.026	800.000	0.084	0.248
-456.011	-200.000	0.034	0.284
-454.997	-129.330	-0.270	-0.038
-453.982	-200.000	-0.068	-0.358
-452.968	-200.000	0.013	-0.447
-451.953	71.153	0.069	0.071
-450.938	18.070	-0.195	0.155
-449.924	-9.522	-0.109	-0.073
-448.909	81.185	-0.063	0.068
-447.895	800.000	-0.058	0.212
-446.880	87.828	0.110	-0.122
-445.865	-42.669	-0.209	0.106
-444.851	-98.540	-0.164	0.042
-443.836	-84.256	0.347	0.110
-442.822	329.975	-0.096	-0.184
-441.807	-137.167	-0.084	0.010
-440.792	124.821	-0.249	-0.314
-439.778	317.007	0.029	0.055
-438.763	800.000	0.040	-0.123
-437.749	618.840	-0.089	0.224
-436.734	266.119	0.074	-0.128
-435.719	78.371	-0.138	0.147
-434.705	-150.173	0.312	0.024
-433.690	79.392	-0.080	-0.086
-432.676	92.780	-0.126	0.142
-431.661	-200.000	-0.038	0.204
-430.646	-96.002	-0.182	0.048
-429.632	720.273	0.079	-0.211
-428.617	-26.633	0.268	0.157
-427.603	800.000	0.008	-0.027
-426.588	79.458	-0.151	-0.162
-425.573	-117.500	-0.559	-0.101
-424.559	-92.078	0.154	-0.043
-423.544	6.194	-0.133	-0.098
-422.530	800.000	0.097	-0.340
-421.515	7.990	-0.108	-0.081
-420.500	-121.548	0.312	-0.052
-419.486	-164.923	0.187	-0.008
-418.471	-200.000	-0.036	-0.296
-417.457	-120.316	-0.222	0.038
-416.442	-56.248	-0.204	-0.090
-415.428	133.916	0.008	0.010
-414.413	37.517	-0.135	0.120
-413.398	-87.464	0.246	0.074
-412.384	-13.015	0.191	-0.124
-411.369	-98.919	0.154	-0.039
-410.355	-81.556	0.309	-0.101
-409.340	79.651	0.059	-0.063
-408.325	-116.643	0.116	0.021
-407.311	-15.866	-0.054	-0.034
-406.296	28.084	-0.079	0.067
-405.282	12.730	-0.370	-0.285
-404.267	-51.882	-0.270	0.125
-403.252	-129.242	0.172	-0.024
-402.238	30.782	0.028	0.024
-401.223	800.000	0.066	-0.241
-400.209	-200.000	-0.038	0.252
-399.194	312.618	-0.127	0.239
-398.179	-131.279	-0.189	-0.025
-397.165	89.778	0.062	-0.069
-396.150	-100.715	-0.112	-0.028
-395.136	703.222	-0.084	0.220
-394.121	-165.759	0.185	0.008
-393.106	800.000	-0.073	0.212
-392.092	62.771	0.059	0.059
-391.077	177.001	0.019	0.027
-390.063	-75.909	-0.227	-0.080
-389.048	87.444	0.047	0.052
-388.033	-140.709	0.066	0.007
-387.019	-146.654	-0.457	-0.039
-386.004	800.000	0.035	-0.129
-384.990	55.126	0.051	-0.050
-383.975	112.282	0.113	0.137
-382.960	134.391	0.226	0.292
-381.946	-86.365	0.167	-0.051
-380.931	-108.298	0.185	0.040
-379.917	-200.000	-0.015	0.098
-378.902	-200.000	-0.020	0.100
-377.888	129.361	-0.121	0.154
-376.873	169.871	-0.120	0.171
-375.858	68.703	-0.076	0.077
-374.844	100.439	-0.138	-0.159
-373.829	-200.000	-0.005	-0.192
-372.815	-200.000	-0.035	0.173
-371.800	-25.942	-0.274	-0.161
-370.785	547.892	0.041	-0.098
-369.771	-200.000	-0.226	-0.001
-368.756	380.565	-0.173	0.352
-367.742	-82.898	-0.184	-0.059
-366.727	-120.415	0.266	-0.045
-365.712	-86.544	0.253	-0.077
-364.698	-113.756	-0.084	-0.016
-363.683	452.936	-0.034	-0.074
-362.669	14.156	0.526	-0.408
-361.654	403.877	0.091	-0.190
-360.639	-122.024	0.067	0.011
-359.625	96.978	0.169	-0.193
-358.610	-200.000	-0.025	-0.350
-357.596	34.246	0.250	-0.217
-356.581	-127.011	0.223	-0.033
-355.566	283.795	-0.051	0.091
-354.552	6.741	-0.317	0.235
-353.537	-75.635	-0.392	-0.139
-352.523	-133.850	0.182	-0.023
-351.508	-200.000	-0.024	0.300
-350.493	62.996	0.221	0.220
-349.479	234.709	0.178	0.293
-348.464	87.601	-0.052	0.057
-347.450	175.764	0.143	-0.206
-346.435	-66.369	-0.095	-0.038
-345.420	460.850	0.011	-0.024
-344.406	-200.000	-0.049	0.363
-343.391	22.579	0.136	0.111
-342.377	119.712	0.043	-0.054
-341.362	-200.000	-0.010	-0.329
-340.348	-132.175	0.088	0.011
-339.333	273.557	0.039	0.068
-338.318	-90.527	-0.204	-0.059
-337.304	117.389	0.267	-0.327
-336.289	-173.822	-0.567	0.017
-335.275	30.118	0.170	0.144
-334.260	208.424	0.176	-0.274
-333.245	188.130	0.214	-0.318
-332.231	-121.460	0.152	-0.025
-331.216	-37.206	-0.196	-0.104
-330.202	-42.684	0.228	-0.115
-329.187	274.290	0.266	-0.468
-328.172	-101.000	0.223	-0.054
-327.158	-200.000	0.015	0.078
-326.143	162.420	-0.218	-0.304
-325.129	-75.325	0.346	0.123
-324.114	-200.000	-0.034	-0.270
-323.099	-21.081	-0.192	-0.117
-322.085	453.835	0.093	0.206
-321.070	-190.646	-0.246	0.003
-320.056	-131.966	-0.142	0.018
-319.041	330.345	0.062	0.119
-318.026	76.736	0.215	-0.227
-317.012	-200.000	-0.056	0.260
-315.997	-74.377	-0.157	-0.056
-314.983	-200.000	0.021	0.094
-313.968	152.520	-0.121	-0.164
-312.953	-200.000	0.001	0.136
-311.939	-200.000	0.007	-0.285
-310.924	-133.677	-0.211	-0.026
-309.910	-24.295	0.214	-0.127
-308.895	-143.424	0.240	-0.023
-307.880	63.489	-0.158	0.158
-306.866	-36.377	-0.318	-0.170
-305.851	57.664	-0.139	-0.135
-304.837	-87.394	0.224	0.067
-303.822	800.000	-0.029	-0.086
-302.807	-18.182	0.171	-0.106
-301.793	-189.661	0.237	-0.003
-300.778	-6.942	-0.143	-0.097
-299.764	81.198	0.265	-0.284
-298.749	-105.456	-0.192	-0.043
-297.735	63.563	0.059	0.059
-296.720	632.925	-0.058	0.147
-295.705	427.083	0.027	0.058
-294.691	800.000	0.012	0.034
-293.676	587.877	-0.184	0.449
-292.662	578.767	0.058	0.141
-291.647	-200.000	-0.040	0.264
-290.632	-200.000	-0.060	-0.290
-289.618	800.000	-0.073	-0.230
-288.603	-17.347	0.221	0.138
-287.589	148.916	0.314	0.422
-286.574	-200.000	0.027	-0.253
-285.559	-34.408	0.118	0.064
-284.545	-200.000	-0.019	-0.203
-283.530	606.049	-0.066	0.163
-282.516	800.000	0.033	0.123
-281.501	800.000	0.072	0.286
-280.486	800.000	-0.021	-0.082
-279.472	-65.579	0.134	-0.053
-278.457	398.037	0.208	0.433
-277.443	-200.000	-0.018	0.212
-276.428	-200.000	-0.049	-0.260
-275.413	-93.723	0.337	0.092
-274.399	65.288	0.110	-0.110
-273.384	-194.142	-0.124	0.001
-272.370	-46.509	0.192	-0.093
-271.355	-200.000	-0.018	-0.118
-270.340	-200.000	0.015	-0.079
-269.326	-45.384	0.210	0.103
-268.311	-35.292	0.117	0.063
-267.297	800.000	0.049	-0.170
-266.282	-108.010	0.192	0.041
-265.267	43.796	0.103	-0.094
-264.253	4.426	-0.061	-0.044
-263.238	800.000	0.081	0.281
-262.224	28.593	-0.263	0.220
-261.209	-37.569	0.179	0.095
-260.195	-143.333	-0.324	0.031
-259.180	800.000	0.074	-0.282
-258.165	64.668	-0.116	-0.116
-257.151	665.949	-0.033	-0.085
-256.136	14.191	-0.096	0.074
-255.122	-200.000	0.006	-0.046
-254.107	33.699	-0.155	-0.134
-253.092	529.099	-0.072	0.169
-252.078	188.749	0.164	0.243
-251.063	679.257	0.013	-0.034
-250.049	-147.502	-0.313	0.026
-249.034	578.287	0.061	0.148
-248.019	138.241	0.124	0.161
-247.005	435.872	0.093	-0.200
-245.990	800.000	0.066	-0.260
-244.976	800.000	0.035	-0.108
-243.961	561.751	-0.018	-0.044
-242.946	35.760	0.192	-0.167
-241.932	-200.000	0.059	0.291
-240.917	410.323	0.107	0.225
-239.903	-60.912	0.116	-0.048
-238.888	156.365	0.129	0.177
-237.873	325.763	0.198	0.376
-236.859	489.562	-0.079	0.178
-235.844	800.000	0.109	0.406
-234.830	-200.000	-0.025	-0.133
-233.815	-62.586	-0.093	-0.038
-232.800	-200.000	-0.035	-0.199
-231.786	181.068	-0.054	0.079
-230.771	-200.000	0.038	0.231
-229.757	-73.092	0.327	0.119
-228.742	800.000	0.023	-0.080
-227.727	-200.000	-0.034	0.344
-226.713	-92.781	0.253	0.070
-225.698	29.472	0.385	-0.324
-224.684	15.503	0.135	0.105
-223.669	-51.991	0.189	0.087
-222.655	-32.370	0.138	0.076
-221.640	47.490	-0.135	-0.125
-220.625	225.369	-0.110	-0.176
-219.611	-200.000	-0.039	0.327
-218.596	800.000	-0.036	-0.100
-217.582	121.535	-0.036	-0.045
-216.567	-79.462	0.192	0.064
-215.552	245.931	0.096	0.161
-214.538	255.002	0.054	0.092
-213.523	-200.000	0.011	-0.685
-212.509	-200.000	0.024	-0.274
-211.494	290.971	-0.093	0.168
-210.479	162.800	-0.235	-0.326
-209.465	800.000	-0.088	-0.343
-208.450	380.395	-0.079	0.160
-207.436	143.495	-0.032	0.043
-206.421	-88.329	0.132	-0.039
-205.406	-70.857	0.293	-0.109
-204.392	-200.000	0.001	0.194
-203.377	-71.715	-0.158	0.058
-202.363	-200.000	-0.006	-0.063
-201.348	-131.718	0.028	-0.004
-200.333	-28.802	0.055	-0.031
-199.319	-200.000	-0.004	0.183
-198.304	94.342	-0.206	0.232
-197.290	-137.445	0.032	-0.004
-196.275	-200.000	-0.021	-0.170
-195.260	800.000	-0.017	-0.072
-194.246	-15.456	0.077	-0.049
-193.231	-200.000	-0.043	0.193
-192.217	-94.039	0.036	0.010
-191.202	800.000	0.062	0.221
-190.187	-64.110	-0.175	-0.071
-189.173	-120.494	0.410	0.069
-188.158	38.159	-0.162	0.143
-187.144	179.961	0.200	-0.290
-186.129	-100.367	0.169	0.042
-185.114	401.390	0.134	0.279
-184.100	-58.505	-0.254	-0.109
-183.085	20.714	0.043	-0.035
-182.071	800.000	-0.007	-0.029
-181.056	524.082	0.043	0.101
-180.042	150.834	-0.254	-0.341
-179.027	-7.942	0.254	0.170
-178.012	170.164	-0.033	0.047
-176.998	161.721	-0.087	-0.121
-175.983	385.006	-0.128	0.262
-174.969	-200.000	-0.052	-0.259
-173.954	-63.967	0.074	0.030
-172.939	69.888	-0.210	0.214
-171.925	-200.000	0.022	0.259
-170.910	75.923	-0.070	0.074
-169.896	-200.000	0.009	0.076
-168.881	-131.493	-0.310	-0.040
-167.866	130.975	0.087	-0.110
-166.852	-88.253	-0.329	0.097
-165.837	-200.000	-0.029	0.181
-164.823	-156.335	0.193	-0.012
-163.808	-97.207	0.355	0.092
-162.793	132.165	-0.038	0.049
-161.779	800.000	0.085	0.283
-160.764	200.954	-0.187	-0.284
-159.750	-36.840	-0.230	-0.122
-158.735	234.742	-0.184	-0.300
-157.720	83.364	-0.189	0.203
-156.706	-36.305	0.285	-0.152
-155.691	82.484	-0.003	-0.003
-154.677	-200.000	-0.010	0.057
-153.662	367.420	-0.152	-0.304
-152.647	-64.914	-0.283	-0.113
-151.633	120.221	0.067	-0.082
-150.618	-183.696	0.243	0.004
-149.604	765.138	-0.120	0.322
-148.589	-200.000	0.015	0.260
-147.574	-22.123	-0.204	-0.122
-146.560	-52.594	0.164	-0.075
-145.545	-166.842	-0.499	0.020
-144.531	80.197	0.105	0.111
-143.516	-75.926	0.112	0.039
-142.502	-90.400	-0.189	-0.054
-141.487	800.000	0.082	0.281
-140.472	283.721	-0.058	-0.103
-139.458	721.546	0.096	-0.252
-138.443	-58.399	0.149	0.064
-137.429	63.382	0.026	-0.026
-136.414	-200.000	0.037	0.166
-135.399	99.705	0.080	-0.092
-134.385	-200.000	0.004	-0.146
-133.370	171.653	-0.143	-0.202
-132.356	-81.500	0.300	-0.097
-131.341	800.000	0.047	0.189
-130.326	37.889	-0.117	-0.102
-129.312	-168.235	0.073	0.003
-128.297	-63.199	0.169	0.069
-127.283	420.022	0.124	-0.261
-126.268	729.073	0.079	0.209
-125.253	-43.726	0.319	-0.158
-124.239	-123.749	-0.384	-0.060
-123.224	-200.000	0.004	0.117
-122.210	18.653	-0.221	0.175
-121.195	800.000	0.052	-0.217
