DTS Sentinel unit serial number:	SN413079Multiplexer serial number:	ORYXHardware model number:	OX4-SRSoftware version number:	ORYX F/W v4.00 Oryx Data Collector v3.7.2.0data status	okinstallation	princeton_trtdifferential loss correction	single-endedforward channel	channel 2reverse channel	N/Adate	2019/09/13time	17:15:34forward acquisition time	60.00reverse acquisition time	0.00gamma	496.2192k internal	0.2308k external	0.2308temperature offset calibration	1.0199default loss term (dB/km)	0.3790temperature slope calibration	1.0000multiplexer offset coefficient	1.0000multiplexer slope coefficient	1.0000fibre end	0.00T internal ref (°C)	35.70T ext. ref 1 (°C)	4.80T ext. ref 2 (°C)	35.29length (m)	temperature (°C)	Stokes	anti-Stokes-747.200	-135.151	0.219	-0.027
-746.185	4.340	0.136	-0.101
-745.171	800.000	-0.109	-0.362
-744.156	800.000	0.033	0.133
-743.142	800.000	-0.018	-0.055
-742.127	270.432	0.049	0.087
-741.112	-137.724	-0.339	0.039
-740.098	-200.000	0.009	-0.216
-739.083	153.915	0.145	0.202
-738.069	198.718	0.137	0.214
-737.054	-200.000	0.021	-0.254
-736.039	-200.000	-0.036	-0.202
-735.025	233.605	-0.030	0.051
-734.010	-129.112	0.347	0.049
-732.996	800.000	-0.045	-0.135
-731.981	-14.922	0.123	0.080
-730.966	800.000	0.031	0.120
-729.952	-72.125	0.186	-0.070
-728.937	-200.000	-0.246	-0.000
-727.923	45.333	0.130	-0.122
-726.908	310.176	0.069	0.131
-725.894	-14.198	-0.128	0.084
-724.879	-2.912	-0.252	0.179
-723.864	325.531	0.085	-0.166
-722.850	-57.647	-0.137	0.061
-721.835	75.974	-0.203	-0.218
-720.821	-61.991	0.126	-0.054
-719.806	312.888	0.139	-0.265
-718.791	108.090	0.069	0.084
-717.777	-200.000	0.006	0.097
-716.762	340.562	-0.093	-0.184
-715.748	-200.000	0.029	-0.329
-714.733	430.938	-0.110	-0.243
-713.718	800.000	0.156	0.457
-712.704	800.000	-0.103	-0.314
-711.689	800.000	-0.041	0.127
-710.675	748.031	0.058	-0.160
-709.660	-64.029	0.255	-0.106
-708.645	617.001	0.060	-0.152
-707.631	-194.769	-0.429	-0.003
-706.616	-54.968	0.412	0.189
-705.602	318.311	-0.021	0.041
-704.587	-35.686	-0.305	-0.168
-703.572	54.373	-0.193	-0.189
-702.558	-5.366	0.249	-0.173
-701.543	-200.000	-0.045	-0.341
-700.529	215.164	-0.181	0.291
-699.514	88.748	0.105	-0.118
-698.499	325.454	0.149	-0.289
-697.485	-41.786	0.050	-0.026
-696.470	-200.000	0.010	0.114
-695.456	-200.000	0.001	-0.290
-694.441	-200.000	-0.029	-0.202
-693.426	-136.403	0.127	-0.015
-692.412	287.108	-0.111	0.204
-691.397	661.615	0.117	-0.306
-690.383	-56.792	-0.145	0.065
-689.368	-136.724	0.355	0.042
-688.354	13.499	-0.148	0.117
-687.339	-200.000	0.061	-0.510
-686.324	-188.401	-0.182	0.002
-685.310	-10.183	-0.222	-0.150
-684.295	381.719	-0.045	0.094
-683.281	800.000	-0.056	0.184
-682.266	-66.698	0.204	0.082
-681.251	321.509	0.123	-0.237
-680.237	-200.000	-0.077	0.351
-679.222	-66.001	-0.164	-0.066
-678.208	-178.186	0.362	-0.009
-677.193	468.719	-0.041	0.094
-676.178	-32.101	0.154	-0.087
-675.164	46.430	0.166	0.156
-674.149	298.496	0.140	-0.260
-673.135	-200.000	0.027	-0.208
-672.120	748.691	0.142	-0.388
-671.105	800.000	0.113	0.375
-670.091	-27.849	0.302	-0.177
-669.076	306.889	0.093	0.176
-668.062	64.597	-0.169	0.172
-667.047	-118.578	0.146	0.026
-666.032	-200.000	0.013	-0.136
-665.018	114.441	-0.139	0.171
-664.003	52.135	0.052	-0.050
-662.989	325.104	-0.069	0.134
-661.974	-200.000	0.059	0.300
-660.959	-129.631	-0.204	0.028
-659.945	46.916	0.094	0.088
-658.930	-145.042	0.277	0.026
-657.916	-105.908	-0.222	0.051
-656.901	-10.035	-0.238	-0.160
-655.886	800.000	-0.059	0.220
-654.872	-200.000	0.033	-0.153
-653.857	-29.070	0.113	0.066
-652.843	-200.000	-0.004	-0.202
-651.828	-85.059	-0.172	0.055
-650.814	-131.635	0.298	-0.040
-649.799	-3.866	0.204	-0.143
-648.784	571.579	0.094	-0.231
-647.770	194.226	-0.171	0.262
-646.755	255.300	0.096	-0.166
-645.741	-178.618	-0.265	0.006
-644.726	-25.676	0.035	-0.021
-643.711	800.000	0.030	0.115
-642.697	164.201	-0.033	0.047
-641.682	-72.701	-0.282	-0.105
-640.668	-98.755	-0.565	0.146
-639.653	-62.230	-0.271	0.114
-638.638	47.872	0.166	-0.157
-637.624	-139.536	0.483	-0.052
-636.609	75.104	-0.029	0.031
-635.595	11.491	0.085	0.066
-634.580	-200.000	0.040	-0.263
-633.565	177.846	-0.036	0.053
-632.551	-100.389	0.024	0.006
-631.536	636.726	0.194	-0.500
-630.522	-36.234	0.217	-0.119
-629.507	800.000	0.030	0.097
-628.492	6.330	-0.123	0.093
-627.478	116.722	-0.090	0.111
-626.463	-2.321	0.074	-0.052
-625.449	-200.000	-0.019	0.367
-624.434	-24.009	-0.130	0.079
-623.419	800.000	0.148	0.430
-622.405	-100.095	0.252	-0.064
-621.390	-90.513	0.152	-0.045
-620.376	-200.000	0.054	-0.401
-619.361	-60.741	-0.431	0.185
-618.346	-63.609	0.182	-0.075
-617.332	-200.000	0.037	0.251
-616.317	-200.000	-0.043	-0.393
-615.303	-200.000	0.004	0.316
-614.288	156.330	0.185	-0.258
-613.273	62.221	-0.236	-0.238
-612.259	800.000	-0.042	0.136
-611.244	517.654	0.120	0.285
-610.230	65.214	-0.092	0.094
-609.215	-200.000	-0.007	0.136
-608.201	-0.793	-0.231	-0.166
-607.186	-200.000	-0.002	0.123
-606.171	41.658	-0.149	-0.136
-605.157	-70.083	-0.337	0.130
-604.142	-171.521	0.089	0.003
-603.128	800.000	-0.046	0.150
-602.113	-131.387	0.173	-0.023
-601.098	166.929	-0.141	0.202
-600.084	-200.000	0.004	0.090
-599.069	-46.187	-0.071	0.035
-598.055	-75.305	-0.066	-0.024
-597.040	-105.909	0.065	0.015
-596.025	649.360	-0.047	0.121
-595.011	357.742	0.120	-0.243
-593.996	-63.262	0.145	-0.060
-592.982	127.947	-0.202	-0.259
-591.967	-99.795	0.222	-0.056
-590.952	-82.433	-0.445	-0.146
-589.938	-200.000	0.002	-0.185
-588.923	80.298	0.146	0.159
-587.909	280.687	-0.110	-0.198
-586.894	92.765	0.121	-0.138
-585.879	800.000	-0.059	0.195
-584.865	-38.964	0.239	0.127
-583.850	121.292	-0.067	0.084
-582.836	94.206	-0.029	0.034
-581.821	154.429	-0.114	0.158
-580.806	-89.348	-0.219	0.065
-579.792	767.631	-0.064	-0.175
-578.777	503.402	0.105	0.245
-577.763	175.611	0.156	0.229
-576.748	78.247	-0.095	0.102
-575.733	800.000	-0.037	0.157
-574.719	-5.585	0.174	0.121
-573.704	10.608	-0.266	0.205
-572.690	314.425	0.095	-0.181
-571.675	-33.988	-0.241	0.134
-570.661	-109.858	-0.304	0.064
-569.646	82.644	-0.073	0.081
-568.631	99.706	-0.128	-0.149
-567.617	-200.000	0.018	0.086
-566.602	100.339	0.214	-0.251
-565.588	-200.000	0.025	-0.219
-564.573	35.363	-0.082	0.072
-563.558	59.393	-0.113	0.112
-562.544	-59.748	-0.214	-0.092
-561.529	704.672	-0.206	0.549
-560.515	-142.171	0.208	-0.021
-559.500	169.143	0.077	0.111
-558.485	-138.088	-0.333	0.037
-557.471	-200.000	-0.003	-0.311
-556.456	-76.036	-0.269	0.096
-555.442	-45.607	-0.131	0.066
-554.427	256.500	-0.181	0.314
-553.412	-95.326	0.121	-0.033
-552.398	-200.000	-0.023	-0.432
-551.383	-192.457	0.156	-0.001
-550.369	-144.587	-0.237	0.022
-549.354	650.293	0.128	0.330
-548.339	185.836	0.250	0.375
-547.325	-61.587	-0.215	0.091
-546.310	-15.554	-0.179	0.115
-545.296	78.115	0.158	0.170
-544.281	-200.000	0.017	0.105
-543.266	-192.190	-0.260	-0.003
-542.252	386.120	0.125	0.260
-541.237	-19.744	-0.035	-0.022
-540.223	-125.851	-0.086	0.013
-539.208	-112.731	-0.241	0.048
-538.193	392.058	0.085	-0.178
-537.179	-200.000	-0.004	-0.061
-536.164	-200.000	-0.078	-0.575
-535.150	-85.954	0.215	-0.067
-534.135	-158.616	0.221	0.013
-533.121	24.590	-0.382	-0.319
-532.106	97.217	0.075	-0.086
-531.091	150.688	-0.048	0.066
-530.077	376.276	0.070	0.144
-529.062	282.751	0.097	-0.175
-528.048	800.000	-0.071	-0.264
-527.033	-200.000	0.033	0.271
-526.018	21.535	-0.222	0.182
-525.004	-77.063	-0.323	-0.114
-523.989	524.418	0.172	0.408
-522.975	-75.181	-0.315	-0.113
-521.960	714.813	0.055	0.148
-520.945	800.000	-0.067	-0.245
-519.931	123.493	-0.068	0.086
-518.916	-56.831	-0.214	0.096
-517.902	-45.031	0.200	0.100
-516.887	800.000	0.033	0.138
-515.872	30.898	-0.213	-0.184
-514.858	-30.239	-0.148	0.085
-513.843	-200.000	0.048	-0.355
-512.829	405.575	0.051	-0.109
-511.814	-48.659	0.274	0.133
-510.799	351.283	-0.202	0.402
-509.785	800.000	0.034	-0.152
-508.770	254.724	-0.125	0.216
-507.756	-56.916	-0.155	0.069
-506.741	-10.317	0.091	0.061
-505.726	-109.487	0.206	0.044
-504.712	83.118	-0.123	0.135
-503.697	113.256	0.250	-0.306
-502.683	800.000	0.051	0.163
-501.668	146.870	0.086	0.116
-500.653	11.033	-0.111	0.085
-499.639	-21.606	0.152	-0.093
-498.624	30.511	-0.235	-0.202
-497.610	800.000	-0.040	0.151
-496.595	-200.000	0.012	0.098
-495.581	-148.912	-0.280	-0.023
-494.566	-19.114	-0.109	0.068
-493.551	65.219	-0.217	0.221
-492.537	-17.901	0.058	0.036
-491.522	-126.009	-0.207	-0.031
-490.508	-7.411	0.188	0.128
-489.493	-200.000	0.005	-0.159
-488.478	94.160	-0.196	-0.224
-487.464	495.928	0.089	-0.207
-486.449	-200.000	0.008	0.234
-485.435	153.674	-0.041	-0.056
-484.420	-200.000	0.000	0.123
-483.405	-200.000	0.014	0.112
-482.391	25.056	-0.233	-0.195
-481.376	-147.415	0.378	-0.032
-480.362	222.129	0.113	-0.183
-479.347	585.273	-0.018	-0.046
-478.332	-89.683	0.216	-0.064
-477.318	344.873	0.154	0.304
-476.303	62.208	0.277	-0.278
-475.289	800.000	0.044	-0.123
-474.274	4.615	0.174	-0.129
-473.259	-60.958	-0.134	0.057
-472.245	55.556	-0.218	-0.213
-471.230	-55.480	-0.232	0.104
-470.216	61.211	-0.213	-0.213
-469.201	114.001	0.181	0.221
-468.186	-24.288	0.071	0.043
-467.172	-200.000	-0.034	-0.153
-466.157	-72.912	-0.264	0.098
-465.143	133.368	0.347	0.451
-464.128	-51.016	0.052	0.024
-463.113	-40.465	-0.010	-0.005
-462.099	-103.011	0.104	0.025
-461.084	1.900	0.164	-0.119
-460.070	333.111	0.137	0.267
-459.055	35.399	0.149	0.132
-458.040	-83.683	0.129	-0.041
-457.026	-200.000	0.049	0.308
-456.011	330.007	0.119	0.231
-454.997	-200.000	0.015	0.089
-453.982	325.813	0.127	-0.245
-452.968	142.724	0.015	0.020
-451.953	-200.000	0.038	-0.259
-450.938	-200.000	0.048	0.215
-449.924	-176.390	0.160	0.004
-448.909	124.012	-0.100	0.126
-447.895	-200.000	-0.001	0.248
-446.880	761.134	0.176	-0.480
-445.865	198.286	-0.080	0.123
-444.851	450.498	-0.101	-0.224
-443.836	-15.586	-0.198	0.127
-442.822	300.129	-0.061	-0.114
-441.807	-85.439	-0.235	-0.074
-440.792	46.602	0.105	-0.098
-439.778	-34.745	0.201	-0.110
-438.763	374.056	0.093	0.190
-437.749	-78.162	0.222	0.077
-436.734	37.925	0.199	-0.178
-435.719	-200.000	-0.043	0.195
-434.705	43.889	0.260	-0.239
-433.690	38.055	0.163	-0.145
-432.676	154.230	0.105	-0.144
-431.661	132.066	0.148	0.191
-430.646	-154.556	0.229	0.015
-429.632	438.497	0.143	-0.313
-428.617	1.869	-0.179	0.129
-427.603	120.285	-0.119	0.148
-426.588	100.762	0.243	-0.283
-425.573	712.297	-0.057	0.152
-424.559	-200.000	-0.044	0.339
-423.544	59.894	0.152	0.150
-422.530	-32.789	-0.112	0.062
-421.515	-57.750	-0.181	0.080
-420.500	-108.918	-0.241	0.052
-419.486	-200.000	0.006	0.295
-418.471	124.868	0.153	-0.194
-417.457	281.587	-0.141	-0.254
-416.442	-200.000	-0.016	-0.217
-415.428	-200.000	-0.006	-0.395
-414.413	292.634	0.023	0.041
-413.398	-200.000	0.014	-0.205
-412.384	118.445	0.112	-0.139
-411.369	219.539	-0.120	0.193
-410.355	38.844	-0.103	-0.093
-409.340	-118.588	0.092	0.016
-408.325	493.944	0.032	-0.074
-407.311	75.224	0.116	0.123
-406.296	13.640	0.201	0.156
-405.282	2.651	0.195	-0.142
-404.267	321.886	-0.069	-0.131
-403.252	-49.843	-0.127	-0.060
-402.238	-3.544	-0.071	0.050
-401.223	112.643	0.094	0.114
-400.209	72.715	-0.110	-0.115
-399.194	-20.194	0.122	-0.075
-398.179	-175.183	-0.274	-0.008
-397.165	-12.859	0.241	0.158
-396.150	800.000	-0.017	0.058
-395.136	124.097	0.102	-0.128
-394.121	800.000	-0.026	-0.095
-393.106	-190.329	-0.147	-0.002
-392.092	-140.974	-0.384	0.040
-391.077	267.560	0.036	-0.063
-390.063	20.414	0.147	-0.119
-389.048	800.000	0.077	0.252
-388.033	800.000	0.056	-0.188
-387.019	-57.402	0.222	-0.098
-386.004	-200.000	-0.031	-0.246
-384.990	-167.996	-0.257	-0.010
-383.975	-75.820	-0.077	-0.027
-382.960	-140.314	0.128	0.013
-381.946	-200.000	0.053	0.393
-380.931	148.408	-0.072	-0.097
-379.917	-152.077	-0.153	-0.011
-378.902	-82.899	0.061	-0.020
-377.888	109.130	0.102	-0.122
-376.873	173.916	0.183	-0.265
-375.858	61.104	0.029	-0.029
-374.844	127.415	0.061	-0.078
-373.829	-149.641	-0.130	-0.010
-372.815	-200.000	-0.005	-0.265
-371.800	800.000	0.059	0.222
-370.785	-200.000	-0.035	-0.166
-369.771	79.214	-0.267	-0.287
-368.756	123.346	-0.017	0.021
-367.742	-26.973	-0.088	-0.052
-366.727	461.582	0.102	-0.227
-365.712	-110.654	0.356	0.074
-364.698	-61.546	-0.407	-0.171
-363.683	-175.493	0.056	-0.002
-362.669	-171.452	-0.156	0.005
-361.654	-36.808	-0.363	-0.195
-360.639	-200.000	0.060	0.304
-359.625	-200.000	0.022	0.429
-358.610	-200.000	-0.020	0.119
-357.596	-200.000	0.004	-0.368
-356.581	800.000	0.086	-0.259
-355.566	401.860	0.102	0.214
-354.552	-3.257	0.012	0.008
-353.537	-200.000	-0.041	0.259
-352.523	-200.000	0.027	0.122
-351.508	210.360	-0.046	-0.072
-350.493	219.535	0.191	-0.306
-349.479	-114.746	-0.122	-0.023
-348.464	162.349	0.106	0.148
-347.450	800.000	0.061	-0.202
-346.435	193.370	0.156	-0.236
-345.420	8.494	-0.330	0.248
-344.406	-31.191	0.201	0.113
-343.391	-102.332	-0.345	-0.083
-342.377	-99.871	-0.081	-0.020
-341.362	-78.474	-0.317	-0.109
-340.348	-42.644	0.325	-0.165
-339.333	-200.000	-0.040	-0.245
-338.318	-51.082	-0.065	0.031
-337.304	166.582	0.208	0.295
-336.289	85.933	0.124	0.136
-335.275	-3.295	-0.327	-0.228
-334.260	-119.094	-0.353	0.062
-333.245	-40.465	0.149	-0.077
-332.231	457.958	-0.087	0.193
-331.216	-78.351	0.144	-0.050
-330.202	-98.091	-0.339	0.087
-329.187	79.949	-0.138	0.149
-328.172	-26.899	-0.023	-0.013
-327.158	458.309	0.091	-0.203
-326.143	259.355	-0.048	-0.083
-325.129	184.795	0.098	0.145
-324.114	-112.941	-0.296	-0.059
-323.099	-156.234	-0.378	-0.024
-322.085	147.612	-0.195	-0.263
-321.070	-80.749	-0.174	-0.058
-320.056	-8.304	-0.145	0.097
-319.041	-5.315	0.317	0.218
-318.026	-37.074	-0.101	0.054
-317.012	-200.000	0.017	0.099
-315.997	-50.244	-0.268	0.127
-314.983	-116.967	0.135	0.025
-313.968	22.484	-0.103	-0.084
-312.953	-200.000	0.012	0.152
-311.939	-200.000	0.003	0.039
-310.924	800.000	-0.056	-0.237
-309.910	25.965	0.327	-0.273
-308.895	237.133	-0.174	-0.288
-307.880	289.745	-0.129	0.234
-306.866	-37.926	0.284	-0.151
-305.851	800.000	0.013	-0.054
-304.837	-76.920	-0.206	0.072
-303.822	192.062	0.133	-0.200
-302.807	-18.556	-0.186	0.116
-301.793	275.158	0.100	-0.176
-300.778	-200.000	0.006	0.541
-299.764	61.730	0.191	0.190
-298.749	-200.000	-0.376	-0.001
-297.735	-65.378	0.164	0.066
-296.720	-142.709	0.178	-0.017
-295.705	349.828	0.194	0.383
-294.691	-200.000	0.038	-0.247
-293.676	-157.772	-0.230	0.014
-292.662	163.182	0.121	-0.170
-291.647	800.000	-0.121	0.367
-290.632	150.838	0.194	-0.263
-289.618	-141.496	0.341	-0.034
-288.603	667.461	-0.043	-0.111
-287.589	-55.482	-0.220	0.098
-286.574	111.014	0.103	0.124
-285.559	800.000	0.068	0.242
-284.545	-200.000	-0.015	0.203
-283.530	21.495	-0.436	-0.354
-282.516	-27.606	0.089	0.052
-281.501	800.000	0.009	-0.038
-280.486	284.136	0.086	0.154
-279.472	-89.513	0.139	0.041
-278.457	92.426	0.281	0.317
-277.443	331.970	0.029	0.057
-276.428	602.685	-0.099	0.245
-275.413	150.113	-0.222	0.300
-274.399	337.520	-0.014	0.028
-273.384	-25.517	0.339	-0.200
-272.370	-45.652	-0.130	-0.064
-271.355	800.000	0.046	-0.128
-270.340	-200.000	0.023	-0.214
-269.326	-151.068	-0.030	0.002
-268.311	-189.936	-0.136	-0.002
-267.297	-80.801	-0.238	-0.079
-266.282	800.000	0.098	-0.336
-265.267	328.972	-0.218	-0.419
-264.253	316.160	-0.156	0.294
-263.238	110.964	0.067	0.080
-262.224	42.380	-0.032	-0.029
-261.209	-200.000	0.017	0.145
-260.195	-31.365	0.179	-0.101
-259.180	114.209	0.164	-0.199
-258.165	39.268	0.243	0.217
-257.151	4.568	0.266	-0.195
-256.136	-119.949	-0.214	-0.037
-255.122	-103.510	-0.209	-0.049
-254.107	-60.888	0.093	0.039
-253.092	-7.910	-0.134	0.090
-252.078	131.189	0.312	-0.400
-251.063	-200.000	-0.030	-0.276
-250.049	177.294	-0.105	0.152
-249.034	-200.000	-0.014	0.360
-248.019	-110.238	0.337	0.070
-247.005	99.156	0.164	0.189
-245.990	-65.586	0.133	-0.053
-244.976	-114.559	0.216	-0.041
-243.961	800.000	-0.054	0.186
-242.946	683.716	0.035	0.090
-241.932	157.883	0.133	-0.183
-240.917	6.386	-0.158	0.117
-239.903	475.853	-0.072	-0.163
-238.888	335.919	-0.079	0.152
-237.873	-200.000	-0.029	-0.131
-236.859	-40.094	-0.140	-0.073
-235.844	800.000	0.119	0.370
-234.830	-142.540	0.402	0.039
-233.815	-200.000	0.004	-0.048
-232.800	-86.290	0.343	-0.105
-231.786	429.282	0.068	-0.146
-230.771	-183.750	-0.340	-0.006
-229.757	-15.754	0.159	-0.101
-228.742	-61.596	-0.134	0.056
-227.727	800.000	0.061	-0.266
-226.713	542.218	-0.186	-0.442
-225.698	-33.002	0.295	-0.163
-224.684	93.138	0.157	0.176
-223.669	-200.000	-0.024	-0.109
-222.655	-34.662	0.116	0.063
-221.640	-16.211	-0.053	0.033
-220.625	800.000	-0.080	0.304
-219.611	267.188	-0.061	0.106
-218.596	-115.692	-0.167	0.031
-217.582	-66.015	-0.033	-0.013
-216.567	800.000	0.062	0.201
-215.552	-84.504	-0.333	-0.105
-214.538	-79.635	-0.198	0.067
-213.523	-200.000	-0.024	0.000
-212.509	664.778	0.076	-0.197
-211.494	800.000	0.029	0.119
-210.479	-95.613	0.289	0.077
-209.465	-200.000	0.047	0.210
-208.450	118.375	0.178	0.219
-207.436	-200.000	0.021	-0.108
-206.421	20.297	0.082	0.066
-205.406	-54.908	-0.405	-0.182
-204.392	-200.000	-0.026	0.303
-203.377	-200.000	0.048	-0.290
-202.363	251.666	0.266	0.451
-201.348	-23.768	0.160	-0.095
-200.333	166.992	0.067	-0.094
-199.319	428.850	-0.155	-0.333
-198.304	-200.000	-0.021	-0.128
-197.290	-39.371	-0.147	0.077
-196.275	-31.550	0.347	0.194
-195.260	570.896	-0.044	0.106
-194.246	-200.000	0.006	-0.065
-193.231	800.000	0.088	0.260
-192.217	-200.000	-0.077	0.438
-191.202	2.016	0.246	0.177
-190.187	395.227	-0.019	-0.039
-189.173	-200.000	0.005	-0.074
-188.158	88.412	0.033	0.036
-187.144	187.413	0.043	-0.064
-186.129	307.744	0.107	0.198
-185.114	-75.757	-0.257	0.091
-184.100	172.610	-0.193	-0.276
-183.085	-37.558	-0.232	-0.123
-182.071	382.596	0.058	0.119
-181.056	326.188	0.139	-0.266
-180.042	-53.456	0.270	-0.123
-179.027	-200.000	0.027	0.143
-178.012	481.664	0.039	-0.087
-176.998	-200.000	0.017	0.273
-175.983	134.038	-0.161	-0.207
-174.969	-200.000	0.024	-0.189
-173.954	-69.706	-0.178	0.068
-172.939	388.566	-0.044	-0.090
-171.925	118.674	0.225	-0.276
-170.910	287.148	0.172	-0.309
-169.896	-92.513	-0.102	-0.028
-168.881	-110.069	0.310	0.064
-167.866	7.577	0.296	0.220
-166.852	-184.766	0.221	0.004
-165.837	-21.601	0.192	0.117
-164.823	-200.000	-0.024	0.194
-163.808	146.558	-0.110	0.147
-162.793	-200.000	-0.010	-0.195
-161.779	35.127	-0.314	-0.274
-160.764	-150.371	0.239	-0.018
-159.750	147.276	0.160	-0.214
-158.735	517.709	0.098	-0.228
-157.720	800.000	0.111	-0.369
-156.706	-69.176	0.161	0.061
-155.691	-77.168	-0.066	0.023
-154.677	107.723	-0.072	-0.085
-153.662	-125.404	0.076	0.012
-152.647	61.803	-0.088	-0.087
-151.633	-78.730	0.232	-0.079
-150.618	368.526	0.152	-0.306
-149.604	-1.978	0.114	0.080
-148.589	11.766	0.108	0.082
-147.574	800.000	0.074	-0.299
-146.560	203.411	0.297	-0.456
-145.545	-148.907	0.289	0.023
-144.531	800.000	0.020	-0.083
-143.516	565.802	-0.048	0.116
-142.502	109.500	0.056	0.066
-141.487	3.776	0.405	0.294
-140.472	63.401	0.204	0.203
-139.458	4.089	-0.148	0.108
-138.443	40.509	-0.073	0.065
-137.429	592.782	0.064	0.157
-136.414	-1.105	0.117	0.082
-135.399	303.121	-0.098	0.179
-134.385	800.000	0.077	-0.285
-133.370	-200.000	0.438	-0.002
-132.356	19.280	-0.073	0.058
-131.341	74.574	0.231	0.241
-130.326	259.462	0.117	0.200
-129.312	-183.928	-0.454	0.008
-128.297	-200.000	0.007	0.064
-127.283	-192.321	-0.125	-0.001
-126.268	-77.865	-0.258	0.088
-125.253	61.724	-0.040	-0.040
-124.239	-43.151	-0.056	-0.028
-123.224	45.395	0.100	-0.092
-122.210	245.340	0.041	0.068
-121.195	-200.000	0.008	0.053
-120.180	586.393	-0.091	0.222
-119.166	-71.988	-0.256	0.094
