DTS Sentinel unit serial number:	SN413079Multiplexer serial number:	ORYXHardware model number:	OX4-SRSoftware version number:	ORYX F/W v4.00 Oryx Data Collector v3.7.2.0data status	okinstallation	princeton_trtdifferential loss correction	single-endedforward channel	channel 2reverse channel	N/Adate	2019/09/13time	23:47:35forward acquisition time	60.00reverse acquisition time	0.00gamma	496.2192k internal	0.2338k external	0.2338temperature offset calibration	1.0129default loss term (dB/km)	0.3790temperature slope calibration	1.0000multiplexer offset coefficient	1.0000multiplexer slope coefficient	1.0000fibre end	0.00T internal ref (°C)	26.62T ext. ref 1 (°C)	3.18T ext. ref 2 (°C)	20.93length (m)	temperature (°C)	Stokes	anti-Stokes-747.200	458.665	-0.126	-0.282
-746.185	45.991	0.167	0.155
-745.171	80.820	-0.241	0.261
-744.156	799.426	-0.071	-0.198
-743.142	41.230	0.134	0.121
-742.127	301.016	-0.154	0.286
-741.112	80.206	-0.313	-0.338
-740.098	246.466	-0.248	-0.419
-739.083	-7.519	0.123	0.083
-738.069	-200.000	-0.021	-0.144
-737.054	-74.924	0.098	0.035
-736.039	-19.121	-0.462	0.288
-735.025	-79.786	0.491	0.166
-734.010	116.410	-0.222	0.273
-732.996	188.382	-0.137	0.205
-731.981	800.000	0.115	-0.398
-730.966	-200.000	-0.034	-0.244
-729.952	218.194	0.058	-0.092
-728.937	-85.652	-0.204	0.064
-727.923	115.577	-0.090	0.111
-726.908	-176.642	-0.156	0.004
-725.894	-50.619	-0.070	0.033
-724.879	296.156	-0.144	-0.264
-723.864	-113.021	0.243	-0.048
-722.850	535.824	-0.108	0.258
-721.835	78.419	0.098	0.105
-720.821	-200.000	-0.009	-0.247
-719.806	161.391	0.045	-0.064
-718.791	229.198	0.164	0.269
-717.777	-24.621	-0.281	0.168
-716.762	78.057	-0.139	0.149
-715.748	219.277	-0.216	0.347
-714.733	23.330	0.052	0.043
-713.718	-123.729	-0.496	-0.079
-712.704	-137.761	0.319	0.036
-711.689	-200.000	0.010	-0.085
-710.675	-200.000	0.038	0.217
-709.660	-106.981	-0.263	0.058
-708.645	-43.392	0.090	-0.046
-707.631	-69.440	-0.067	-0.026
-706.616	81.311	-0.245	0.265
-705.602	-2.902	0.128	0.090
-704.587	-95.671	-0.307	-0.082
-703.572	800.000	-0.081	-0.229
-702.558	306.086	-0.050	0.094
-701.543	-200.000	-0.036	0.281
-700.529	-56.974	-0.135	-0.060
-699.514	28.489	0.106	-0.090
-698.499	105.573	0.209	0.247
-697.485	100.062	-0.157	-0.182
-696.470	-132.443	0.090	-0.012
-695.456	-81.403	0.132	-0.043
-694.441	800.000	-0.057	-0.234
-693.426	-179.454	-0.323	-0.007
-692.412	-200.000	0.358	0.000
-691.397	800.000	0.022	-0.075
-690.383	578.346	-0.097	0.238
-689.368	272.065	-0.147	-0.259
-688.354	-200.000	0.018	0.185
-687.339	-127.312	0.280	0.041
-686.324	503.492	-0.115	0.266
-685.310	800.000	-0.015	0.046
-684.295	-21.590	-0.245	-0.149
-683.281	55.934	0.061	-0.060
-682.266	-169.885	0.157	0.006
-681.251	-159.802	0.356	0.020
-680.237	-5.583	-0.128	-0.088
-679.222	236.437	-0.133	0.220
-678.208	102.573	-0.303	-0.355
-677.193	42.360	0.137	-0.124
-676.178	-200.000	-0.087	0.420
-675.164	-196.921	0.158	-0.001
-674.149	800.000	0.057	0.207
-673.135	-66.263	-0.099	-0.040
-672.120	-186.754	0.559	-0.008
-671.105	-200.000	-0.060	-0.401
-670.091	-67.304	-0.131	-0.052
-669.076	-12.964	0.170	0.111
-668.062	-136.973	-0.608	0.070
-667.047	-131.193	0.202	-0.027
-666.032	-125.155	0.023	0.004
-665.018	-128.648	0.186	0.026
-664.003	-94.665	0.039	-0.011
-662.989	-64.373	-0.081	0.033
-661.974	-45.858	0.338	0.167
-660.959	-52.575	-0.274	-0.127
-659.945	-21.294	0.172	-0.105
-658.930	41.464	0.114	0.103
-657.916	171.536	0.031	-0.044
-656.901	-24.686	0.117	0.069
-655.886	4.805	-0.121	-0.089
-654.872	-45.855	-0.275	0.136
-653.857	-200.000	0.079	-0.452
-652.843	-200.000	0.029	-0.155
-651.828	93.205	0.229	0.259
-650.814	-109.954	0.246	0.051
-649.799	-139.227	0.306	0.033
-648.784	25.527	-0.273	-0.227
-647.770	243.446	0.128	-0.215
-646.755	-34.144	-0.248	0.136
-645.741	60.513	-0.015	0.015
-644.726	51.527	0.196	-0.186
-643.711	2.731	-0.079	-0.058
-642.697	-200.000	0.007	0.050
-641.682	-54.298	-0.166	0.075
-640.668	129.964	0.230	-0.295
-639.653	158.505	-0.291	-0.404
-638.638	-200.000	-0.037	0.401
-637.624	37.597	0.130	-0.115
-636.609	106.155	0.035	0.041
-635.595	-29.096	-0.380	0.218
-634.580	313.265	0.027	-0.050
-633.565	-200.000	-0.016	-0.260
-632.551	-71.603	-0.329	-0.123
-631.536	-135.141	-0.312	0.038
-630.522	150.351	-0.077	0.104
-629.507	-8.477	0.135	-0.091
-628.492	65.112	0.296	-0.299
-627.478	-88.869	-0.164	0.049
-626.463	-85.779	0.241	0.075
-625.449	-136.210	-0.146	0.017
-624.434	-57.455	-0.252	0.111
-623.419	-77.514	0.242	-0.084
-622.405	800.000	-0.049	0.170
-621.390	-86.712	-0.100	-0.031
-620.376	9.152	-0.169	0.128
-619.361	-71.256	0.124	0.046
-618.346	800.000	0.090	-0.250
-617.332	-112.852	-0.403	-0.080
-616.317	-200.000	-0.002	-0.053
-615.303	0.195	-0.173	0.123
-614.288	-27.160	-0.055	-0.032
-613.273	-39.222	-0.088	0.046
-612.259	-88.401	0.166	0.049
-611.244	-133.818	-0.111	0.014
-610.230	-200.000	-0.045	-0.230
-609.215	-109.003	0.235	-0.050
-608.201	-34.678	-0.229	-0.125
-607.186	-117.300	-0.330	-0.060
-606.171	-200.000	0.007	-0.074
-605.157	144.634	-0.223	0.298
-604.142	319.087	-0.143	-0.271
-603.128	-200.000	-0.022	-0.134
-602.113	96.484	0.148	-0.169
-601.098	59.688	0.047	0.046
-600.084	-99.620	-0.073	0.018
-599.069	37.868	-0.143	0.127
-598.055	-200.000	-0.054	-0.288
-597.040	800.000	0.125	0.387
-596.025	417.741	-0.048	0.103
-595.011	-41.517	0.367	0.188
-593.996	202.361	-0.138	0.212
-592.982	-103.474	-0.315	0.074
-591.967	-200.000	0.004	-0.202
-590.952	-105.363	-0.065	-0.015
-589.938	-200.000	-0.028	-0.242
-588.923	7.059	0.257	-0.191
-587.909	329.003	-0.224	-0.429
-586.894	36.043	0.153	-0.134
-585.879	-15.429	-0.397	0.253
-584.865	-13.356	0.072	0.047
-583.850	-22.708	0.195	0.117
-582.836	-200.000	0.016	0.326
-581.821	216.733	0.030	-0.048
-580.806	-54.944	0.157	-0.071
-579.792	800.000	-0.035	-0.135
-578.777	197.659	-0.286	0.435
-577.763	-200.000	0.014	-0.108
-576.748	368.072	0.032	0.065
-575.733	163.457	0.043	0.060
-574.719	-107.067	-0.037	0.008
-573.704	800.000	-0.052	-0.155
-572.690	800.000	0.126	-0.356
-571.675	191.558	0.222	0.333
-570.661	-30.465	0.182	0.103
-569.646	800.000	-0.063	-0.247
-568.631	80.378	0.207	-0.222
-567.617	-25.000	-0.102	0.060
-566.602	425.666	-0.136	-0.292
-565.588	22.541	-0.361	0.295
-564.573	-23.319	-0.263	-0.158
-563.558	139.886	0.053	0.070
-562.544	-62.494	-0.307	-0.127
-561.529	195.649	0.096	0.146
-560.515	-98.000	-0.210	-0.054
-559.500	-102.711	0.210	-0.050
-558.485	90.400	-0.132	0.147
-557.471	-159.189	-0.383	-0.021
-556.456	77.552	0.248	0.263
-555.442	-119.144	-0.329	0.057
-554.427	188.648	0.106	-0.159
-553.412	-26.422	-0.092	0.054
-552.398	-60.903	0.335	0.141
-551.383	-30.852	-0.151	0.085
-550.369	147.044	0.187	-0.250
-549.354	-110.821	0.197	-0.040
-548.339	381.428	0.090	0.185
-547.325	-200.000	-0.027	0.140
-546.310	-16.737	0.015	-0.009
-545.296	-30.125	0.098	-0.056
-544.281	101.662	0.181	-0.210
-543.266	-200.000	0.008	0.225
-542.252	542.739	0.042	-0.101
-541.237	-44.493	-0.119	-0.059
-540.223	-19.683	-0.197	-0.121
-539.208	78.774	-0.134	-0.143
-538.193	176.615	0.046	-0.067
-537.179	58.015	0.070	-0.069
-536.164	199.117	-0.093	-0.142
-535.150	23.964	-0.107	-0.088
-534.135	-53.995	0.206	0.093
-533.121	453.353	0.067	0.147
-532.106	-200.000	-0.002	-0.056
-531.091	800.000	0.083	0.336
-530.077	221.318	-0.070	0.112
-529.062	800.000	-0.044	0.162
-528.048	800.000	0.057	-0.223
-527.033	277.074	0.047	-0.083
-526.018	89.046	0.033	-0.037
-525.004	111.247	0.100	0.120
-523.989	-10.674	-0.302	-0.199
-522.975	413.627	0.116	-0.245
-521.960	-84.326	-0.195	0.061
-520.945	-200.000	-0.034	0.182
-519.931	-200.000	-0.018	-0.253
-518.916	12.432	0.170	0.130
-517.902	-138.544	-0.171	0.019
-516.887	800.000	-0.054	-0.190
-515.872	800.000	-0.038	-0.126
-514.858	-200.000	0.020	-0.371
-513.843	800.000	-0.074	-0.219
-512.829	-54.989	-0.090	-0.040
-511.814	-200.000	-0.008	0.113
-510.799	-42.436	0.126	0.064
-509.785	13.104	-0.112	-0.086
-508.770	800.000	0.149	-0.439
-507.756	-200.000	0.035	0.331
-506.741	-200.000	0.022	0.408
-505.726	-170.477	0.419	0.015
-504.712	-200.000	-0.019	0.216
-503.697	-18.039	-0.168	-0.105
-502.683	-200.000	0.036	-0.245
-501.668	800.000	-0.053	-0.184
-500.653	800.000	0.014	0.057
-499.639	800.000	-0.090	0.286
-498.624	800.000	-0.009	0.031
-497.610	-125.089	0.113	-0.017
-496.595	32.869	-0.218	0.188
-495.581	800.000	-0.071	-0.202
-494.566	-148.531	-0.288	-0.023
-493.551	569.935	0.156	0.377
-492.537	219.245	-0.117	0.186
-491.522	10.567	0.103	0.078
-490.508	-30.249	0.094	-0.053
-489.493	800.000	-0.097	-0.333
-488.478	-81.343	-0.274	0.090
-487.464	160.146	0.110	-0.153
-486.449	123.056	-0.110	0.137
-485.435	-24.273	0.098	-0.058
-484.420	2.054	0.114	-0.082
-483.405	191.227	0.073	-0.110
-482.391	100.975	0.090	0.104
-481.376	-200.000	-0.003	-0.268
-480.362	187.458	-0.026	0.038
-479.347	85.847	-0.189	-0.207
-478.332	515.642	0.144	0.334
-477.318	-121.593	0.281	-0.046
-476.303	-73.458	-0.079	0.029
-475.289	503.026	-0.062	0.141
-474.274	268.520	0.033	0.058
-473.259	-108.580	-0.181	-0.039
-472.245	-200.000	-0.043	0.230
-471.230	-87.697	0.281	0.084
-470.216	339.480	0.084	0.163
-469.201	606.836	-0.071	-0.175
-468.186	87.078	0.075	0.082
-467.172	215.389	-0.190	-0.299
-466.157	338.806	-0.125	0.241
-465.143	800.000	-0.109	0.416
-464.128	800.000	-0.153	-0.536
-463.113	800.000	0.055	-0.237
-462.099	181.336	0.056	0.082
-461.084	800.000	0.099	0.289
-460.070	-48.084	-0.146	-0.070
-459.055	-74.626	0.108	-0.039
-458.040	800.000	0.050	-0.176
-457.026	800.000	-0.111	0.384
-456.011	160.575	0.205	0.283
-454.997	675.709	0.082	-0.211
-453.982	27.455	0.138	0.115
-452.968	394.498	-0.078	-0.162
-451.953	-85.816	0.408	-0.125
-450.938	62.100	-0.044	-0.044
-449.924	-45.941	-0.098	0.048
-448.909	172.720	0.141	0.202
-447.895	29.088	-0.230	-0.194
-446.880	-37.166	0.319	0.169
-445.865	800.000	0.097	-0.312
-444.851	-35.901	-0.298	-0.160
-443.836	134.874	0.210	-0.271
-442.822	126.385	-0.148	-0.185
-441.807	-200.000	0.013	-0.174
-440.792	-82.347	-0.269	0.087
-439.778	1.532	0.285	0.203
-438.763	-120.653	-0.292	-0.049
-437.749	-200.000	-0.091	-0.396
-436.734	800.000	0.031	0.089
-435.719	-102.024	0.484	-0.116
-434.705	-154.318	-0.129	-0.009
-433.690	-22.720	-0.342	-0.205
-432.676	16.155	-0.137	0.107
-431.661	-105.622	-0.106	-0.024
-430.646	347.652	0.091	-0.178
-429.632	800.000	-0.119	-0.459
-428.617	326.101	0.114	-0.217
-427.603	74.453	0.216	-0.225
-426.588	-23.888	-0.105	0.062
-425.573	-115.904	0.246	-0.046
-424.559	208.550	0.161	-0.250
-423.544	-99.539	0.076	0.019
-422.530	-200.000	0.032	-0.199
-421.515	51.483	-0.084	-0.079
-420.500	539.748	0.165	0.389
-419.486	118.774	0.245	0.300
-418.471	-44.436	-0.235	0.117
-417.457	-27.142	0.055	-0.032
-416.442	772.562	-0.041	0.110
-415.428	48.803	-0.112	-0.104
-414.413	-39.236	-0.274	0.142
-413.398	-61.823	0.155	-0.064
-412.384	-39.437	-0.260	-0.135
-411.369	-200.000	-0.018	0.113
-410.355	-38.911	-0.197	-0.103
-409.340	-147.568	0.050	0.004
-408.325	315.950	0.054	-0.101
-407.311	221.003	0.094	0.149
-406.296	-200.000	-0.000	0.043
-405.282	-102.347	-0.134	0.032
-404.267	-200.000	0.016	-0.088
-403.252	-16.255	0.194	0.122
-402.238	-32.706	0.306	0.169
-401.223	-5.591	-0.055	0.038
-400.209	800.000	0.047	-0.147
-399.194	-75.230	-0.042	0.015
-398.179	660.442	-0.044	-0.112
-397.165	-200.000	0.011	0.311
-396.150	79.445	0.123	0.130
-395.136	-116.568	0.094	-0.017
-394.121	-128.856	-0.156	0.022
-393.106	-90.592	-0.339	-0.097
-392.092	-200.000	-0.025	0.198
-391.077	-137.067	0.429	0.048
-390.063	188.495	0.107	0.159
-389.048	447.696	-0.024	-0.052
-388.033	128.190	0.064	-0.081
-387.019	18.423	0.110	0.087
-386.004	-85.630	-0.265	-0.081
-384.990	-24.983	0.109	0.064
-383.975	800.000	-0.106	0.409
-382.960	-110.463	0.511	0.105
-381.946	75.545	0.130	0.136
-380.931	-100.323	-0.264	0.065
-379.917	800.000	0.067	-0.216
-378.902	800.000	-0.074	-0.253
-377.888	252.178	-0.120	0.202
-376.873	-200.000	-0.009	0.100
-375.858	-200.000	-0.056	-0.313
-374.844	-133.752	0.208	-0.026
-373.829	-77.894	0.148	-0.050
-372.815	123.142	0.053	-0.065
-371.800	-51.810	-0.276	-0.127
-370.785	251.739	0.068	0.115
-369.771	593.690	-0.020	-0.048
-368.756	282.367	0.043	-0.077
-367.742	-130.731	-0.275	0.036
-366.727	-47.590	0.164	-0.079
-365.712	-134.040	0.351	-0.043
-364.698	-200.000	-0.002	-0.066
-363.683	214.754	-0.099	-0.156
-362.669	-200.000	0.020	0.097
-361.654	-40.688	-0.100	-0.051
-360.639	-96.523	-0.304	-0.079
-359.625	223.343	0.045	-0.072
-358.610	46.207	-0.055	0.050
-357.596	52.546	0.179	0.169
-356.581	306.737	0.153	0.282
-355.566	258.581	0.108	-0.185
-354.552	-132.062	-0.206	-0.027
-353.537	-57.923	0.170	0.074
-352.523	-101.333	0.172	-0.041
-351.508	-49.513	0.272	0.128
-350.493	-200.000	0.017	0.261
-349.479	474.806	-0.081	-0.181
-348.464	468.061	0.054	0.119
-347.450	12.604	0.084	0.064
-346.435	391.998	0.059	0.121
-345.420	800.000	0.111	0.388
-344.406	47.974	0.257	-0.237
-343.391	-153.879	0.116	-0.008
-342.377	-70.694	0.141	-0.053
-341.362	462.716	-0.014	-0.031
-340.348	67.410	0.038	-0.038
-339.333	177.558	-0.080	-0.115
-338.318	77.475	0.134	-0.140
-337.304	356.310	-0.005	0.010
-336.289	-56.296	-0.312	0.137
-335.275	-133.668	0.299	0.037
-334.260	138.966	0.187	0.243
-333.245	-116.564	0.320	0.058
-332.231	36.176	-0.100	0.087
-331.216	84.869	0.134	-0.145
-330.202	70.262	-0.133	0.136
-329.187	-86.329	0.209	-0.064
-328.172	-19.696	-0.304	0.186
-327.158	-118.958	-0.128	-0.022
-326.143	-200.000	0.031	-0.235
-325.129	800.000	-0.059	-0.183
-324.114	199.906	0.075	0.113
-323.099	221.371	0.097	-0.154
-322.085	-16.412	0.065	0.041
-321.070	117.004	0.074	0.090
-320.056	-83.593	-0.342	0.108
-319.041	-200.000	0.023	0.112
-318.026	-62.613	-0.101	-0.041
-317.012	615.981	-0.063	0.156
-315.997	4.071	-0.129	0.093
-314.983	-165.554	-0.300	-0.013
-313.968	-200.000	-0.020	0.221
-312.953	-200.000	-0.009	0.605
-311.939	63.492	-0.256	0.253
-310.924	-86.178	-0.078	0.024
-309.910	-21.942	-0.043	-0.026
-308.895	-200.000	-0.012	0.207
-307.880	-87.603	-0.069	0.020
-306.866	-80.472	0.286	0.094
-305.851	173.658	0.175	-0.249
-304.837	97.719	0.120	-0.136
-303.822	228.782	-0.101	-0.163
-302.807	-200.000	-0.001	-0.299
-301.793	-141.892	0.254	-0.025
-300.778	800.000	0.098	0.275
-299.764	96.509	-0.169	0.191
-298.749	-166.309	-0.082	-0.003
-297.735	-24.327	0.192	0.113
-296.720	304.210	0.239	0.437
-295.705	-22.671	-0.226	0.135
-294.691	1.741	0.243	0.172
-293.676	-157.770	-0.238	-0.014
-292.662	-94.806	-0.350	0.094
-291.647	669.476	-0.093	-0.238
-290.632	-200.000	-0.024	0.151
-289.618	800.000	-0.057	-0.189
-288.603	734.673	0.035	0.093
-287.589	430.776	0.060	-0.128
-286.574	-80.182	-0.211	0.070
-285.559	33.712	-0.357	0.306
-284.545	82.168	0.143	0.153
-283.530	-89.962	-0.363	0.104
-282.516	221.495	-0.125	-0.199
-281.501	-95.120	0.100	-0.027
-280.486	-36.327	-0.206	0.110
-279.472	800.000	0.026	0.107
-278.457	87.985	0.261	0.285
-277.443	36.439	-0.089	0.077
-276.428	-12.383	-0.281	-0.181
-275.413	-107.412	0.221	-0.048
-274.399	-155.011	0.381	0.025
-273.384	64.027	0.097	-0.096
-272.370	-79.454	-0.191	0.064
-271.355	-115.186	-0.140	-0.026
-270.340	-105.861	-0.063	-0.014
-269.326	335.218	-0.154	-0.294
-268.311	-48.584	0.151	0.072
-267.297	205.445	0.064	0.098
-266.282	-31.416	0.354	0.196
-265.267	-151.242	0.215	0.016
-264.253	90.874	-0.124	0.137
-263.238	-6.233	-0.317	-0.213
-262.224	-200.000	-0.014	-0.081
-261.209	7.833	0.253	0.187
-260.195	-200.000	-0.008	0.270
-259.180	21.940	-0.153	0.123
-258.165	-120.202	0.197	0.033
-257.151	800.000	0.075	-0.310
-256.136	685.338	0.076	-0.195
-255.122	-200.000	0.031	-0.179
-254.107	9.783	0.557	-0.416
-253.092	-172.925	-0.160	-0.005
-252.078	74.532	0.250	0.259
-251.063	14.941	-0.061	-0.047
-250.049	-200.000	-0.012	0.289
-249.034	-123.309	0.238	0.037
-248.019	106.499	0.076	-0.089
-247.005	160.747	-0.129	-0.177
-245.990	-200.000	0.017	-0.095
-244.976	-15.503	0.316	0.199
-243.961	-41.178	-0.074	-0.038
-242.946	-40.689	-0.236	0.120
-241.932	800.000	-0.046	-0.196
-240.917	800.000	0.012	-0.048
-239.903	-200.000	-0.000	-0.027
-238.888	-122.307	0.341	0.055
-237.873	791.212	0.078	0.211
-236.859	-200.000	0.042	0.201
-235.844	-34.884	0.140	0.075
-234.830	-137.592	-0.248	0.027
-233.815	-9.555	-0.104	-0.069
-232.800	-88.329	0.244	0.072
-231.786	377.593	-0.223	0.449
-230.771	320.900	-0.118	0.221
-229.757	-126.846	0.173	-0.025
-228.742	268.682	-0.134	0.230
-227.727	-92.155	-0.203	0.056
-226.713	290.219	-0.063	-0.113
-225.698	800.000	-0.173	-0.640
-224.684	223.792	0.270	-0.428
-223.669	483.241	0.091	0.203
-222.655	-72.536	0.167	-0.061
-221.640	289.809	0.174	-0.310
-220.625	-99.194	-0.128	0.032
-219.611	39.857	0.086	0.076
-218.596	278.482	0.144	-0.252
-217.582	54.495	-0.144	-0.136
-216.567	-200.000	0.001	0.372
-215.552	71.318	-0.156	0.159
-214.538	-200.000	0.007	0.125
-213.523	-45.005	-0.098	-0.048
-212.509	351.786	0.133	0.259
-211.494	-55.421	0.280	-0.123
-210.479	-80.669	0.161	0.053
-209.465	405.470	-0.128	-0.265
-208.450	18.937	-0.201	-0.158
-207.436	-151.791	-0.203	-0.015
-206.421	-118.452	-0.147	-0.026
-205.406	-200.000	0.024	0.381
-204.392	5.986	0.101	-0.074
-203.377	458.650	-0.136	-0.297
-202.363	91.971	0.028	0.031
-201.348	-171.858	0.116	0.004
-200.333	236.574	0.008	0.013
-199.319	39.738	0.184	-0.162
-198.304	-144.478	0.064	0.006
-197.290	204.694	0.139	0.212
-196.275	206.955	0.342	-0.523
-195.260	-83.456	0.164	-0.052
-194.246	-2.665	-0.086	0.059
-193.231	-39.698	0.120	0.062
-192.217	800.000	0.057	-0.195
-191.202	362.830	0.036	-0.072
-190.187	182.238	0.029	-0.042
-189.173	-0.717	0.116	-0.081
-188.158	35.403	0.071	0.061
-187.144	65.702	-0.257	0.256
-186.129	800.000	0.050	0.157
-185.114	362.035	0.127	-0.249
-184.100	37.921	0.164	0.143
-183.085	-115.048	0.290	0.054
-182.071	-200.000	-0.035	-0.174
-181.056	-77.627	-0.282	-0.096
-180.042	-69.540	0.179	0.067
-179.027	84.367	0.275	0.295
-178.012	-156.496	0.090	0.005
-176.998	800.000	0.069	0.275
-175.983	645.308	-0.116	0.292
-174.969	-69.180	0.225	0.085
-173.954	38.479	0.248	-0.217
-172.939	130.723	-0.111	0.140
-171.925	-200.000	0.012	0.131
-170.910	800.000	-0.051	-0.170
-169.896	28.797	-0.096	0.080
-168.881	-97.781	-0.214	0.054
-167.866	-200.000	-0.028	0.206
-166.852	800.000	-0.088	0.285
-165.837	-200.000	0.010	-0.156
-164.823	-197.944	-0.353	-0.002
-163.808	104.522	-0.254	0.293
-162.793	-200.000	0.013	-0.126
-161.779	-48.518	-0.143	-0.068
-160.764	-128.889	0.053	0.007
-159.750	71.886	-0.095	0.097
-158.735	-125.338	-0.249	-0.037
-157.720	800.000	0.094	-0.267
-156.706	-200.000	-0.026	-0.258
-155.691	470.104	0.121	-0.268
-154.677	17.015	-0.455	-0.354
-153.662	-200.000	0.040	-0.177
-152.647	32.054	0.169	0.143
-151.633	24.984	-0.182	0.148
-150.618	800.000	0.156	-0.454
-149.604	-200.000	-0.037	0.199
-148.589	99.828	0.266	-0.302
-147.574	-109.554	0.585	-0.121
-146.560	175.052	0.020	-0.029
-145.545	308.631	-0.038	-0.069
-144.531	-200.000	0.082	0.467
-143.516	-200.000	0.005	0.180
-142.502	-55.488	0.144	-0.063
-141.487	-21.744	0.264	0.157
-140.472	83.085	-0.051	0.055
-139.458	-80.235	-0.452	-0.148
-138.443	368.585	-0.035	-0.069
-137.429	544.074	0.020	-0.046
-136.414	-65.192	-0.330	0.130
-135.399	4.922	-0.243	-0.175
-134.385	800.000	0.074	-0.258
-133.370	298.729	0.089	-0.161
-132.356	-200.000	0.048	-0.272
-131.341	17.582	0.074	-0.058
-130.326	-76.059	-0.333	-0.115
-129.312	800.000	0.115	0.466
-128.297	800.000	0.029	0.086
-127.283	-81.072	0.264	-0.085
-126.268	-70.526	-0.333	0.123
-125.253	-33.570	0.116	-0.063
-124.239	-14.050	0.298	0.189
-123.224	-200.000	0.001	0.143
-122.210	61.810	-0.109	0.107
-121.195	30.211	-0.415	0.347
-120.180	28.447	-0.066	0.054
