DTS Sentinel unit serial number:	SN413079Multiplexer serial number:	ORYXHardware model number:	OX4-SRSoftware version number:	ORYX F/W v4.00 Oryx Data Collector v3.7.2.0data status	okinstallation	princeton_trtdifferential loss correction	single-endedforward channel	channel 2reverse channel	N/Adate	2019/09/14time	00:15:35forward acquisition time	60.00reverse acquisition time	0.00gamma	496.2192k internal	0.2338k external	0.2338temperature offset calibration	1.0127default loss term (dB/km)	0.3790temperature slope calibration	1.0000multiplexer offset coefficient	1.0000multiplexer slope coefficient	1.0000fibre end	0.00T internal ref (°C)	26.50T ext. ref 1 (°C)	3.19T ext. ref 2 (°C)	21.43length (m)	temperature (°C)	Stokes	anti-Stokes-747.200	-37.494	0.321	-0.172
-746.185	-161.746	-0.263	0.013
-745.171	85.422	0.209	0.230
-744.156	-15.699	-0.203	0.130
-743.142	-75.889	0.176	0.063
-742.127	9.673	-0.233	0.177
-741.112	101.763	-0.100	0.117
-740.098	68.227	0.216	0.221
-739.083	800.000	0.072	0.291
-738.069	-144.224	-0.082	0.008
-737.054	-156.138	-0.230	0.015
-736.039	-200.000	-0.057	0.372
-735.025	176.129	0.172	0.251
-734.010	800.000	0.043	0.122
-732.996	39.722	-0.250	-0.225
-731.981	800.000	0.045	0.194
-730.966	-50.719	-0.189	0.089
-729.952	-24.996	-0.322	-0.191
-728.937	-200.000	0.005	-0.170
-727.923	-94.990	-0.186	0.051
-726.908	4.635	0.283	0.209
-725.894	-19.680	-0.179	-0.111
-724.879	800.000	-0.041	-0.156
-723.864	19.509	-0.133	0.107
-722.850	-142.700	-0.182	0.018
-721.835	88.181	-0.197	-0.219
-720.821	800.000	-0.124	0.349
-719.806	800.000	-0.059	0.240
-718.791	800.000	0.067	0.202
-717.777	-200.000	-0.042	-0.265
-716.762	128.126	0.116	-0.148
-715.748	-200.000	-0.002	0.216
-714.733	378.268	-0.183	0.375
-713.718	-116.075	-0.105	0.020
-712.704	-166.371	0.377	-0.016
-711.689	-4.241	-0.197	-0.137
-710.675	138.942	-0.123	0.161
-709.660	-17.231	-0.237	-0.150
-708.645	-36.456	-0.307	-0.166
-707.631	-200.000	0.000	0.191
-706.616	-103.110	0.367	-0.087
-705.602	466.291	-0.135	-0.303
-704.587	25.423	-0.140	-0.117
-703.572	-198.921	-0.287	0.002
-702.558	-200.000	-0.035	-0.358
-701.543	-200.000	-0.061	-0.327
-700.529	-126.712	0.092	-0.014
-699.514	-106.769	-0.334	-0.074
-698.499	-140.742	-0.323	0.033
-697.485	487.253	0.054	-0.122
-696.470	800.000	-0.030	0.102
-695.456	71.138	-0.159	-0.166
-694.441	416.396	-0.012	0.025
-693.426	-158.047	0.296	-0.017
-692.412	-95.070	0.356	-0.096
-691.397	7.594	-0.136	-0.102
-690.383	-71.722	0.324	0.121
-689.368	749.643	-0.057	0.154
-688.354	133.315	-0.159	0.206
-687.339	-200.000	0.027	0.187
-686.324	56.720	0.133	0.129
-685.310	-172.335	-0.345	-0.011
-684.295	-200.000	0.010	-0.346
-683.281	800.000	-0.052	0.156
-682.266	-55.641	-0.168	-0.075
-681.251	-69.261	0.078	-0.030
-680.237	303.481	-0.160	-0.296
-679.222	173.501	0.137	-0.197
-678.208	552.434	-0.087	-0.210
-677.193	227.596	0.081	-0.132
-676.178	233.364	0.176	-0.290
-675.164	527.762	-0.057	0.134
-674.149	-200.000	-0.017	-0.114
-673.135	-49.296	0.162	0.077
-672.120	48.289	-0.049	0.046
-671.105	-80.644	-0.265	-0.088
-670.091	85.275	0.146	-0.160
-669.076	90.894	-0.065	-0.073
-668.062	71.915	-0.109	0.114
-667.047	-84.724	-0.111	0.035
-666.032	-126.879	-0.136	0.020
-665.018	-200.000	-0.002	0.046
-664.003	134.258	-0.147	0.191
-662.989	-200.000	-0.016	-0.492
-661.974	800.000	0.076	0.211
-660.959	-179.311	-0.304	-0.007
-659.945	-21.180	0.234	0.143
-658.930	-92.738	-0.049	0.014
-657.916	108.033	-0.081	0.097
-656.901	287.940	0.149	-0.269
-655.886	201.409	0.118	-0.182
-654.872	-108.069	-0.232	-0.050
-653.857	21.990	-0.374	-0.305
-652.843	800.000	-0.062	0.260
-651.828	152.772	-0.074	0.101
-650.814	681.372	0.025	-0.064
-649.799	16.851	0.333	0.264
-648.784	139.850	0.123	-0.162
-647.770	-200.000	0.030	-0.213
-646.755	-165.899	0.230	-0.010
-645.741	-200.000	-0.004	0.182
-644.726	-76.397	0.228	-0.080
-643.711	-66.169	-0.338	-0.135
-642.697	-36.906	-0.108	-0.058
-641.682	-200.000	0.048	-0.281
-640.668	42.181	-0.298	0.270
-639.653	-93.519	-0.193	-0.053
-638.638	173.942	0.232	-0.336
-637.624	-17.173	-0.230	-0.145
-636.609	-130.846	0.221	-0.030
-635.595	-36.219	-0.504	-0.272
-634.580	-32.178	0.251	0.140
-633.565	-200.000	-0.030	0.159
-632.551	800.000	0.056	-0.238
-631.536	-155.926	0.348	0.022
-630.522	240.576	-0.088	0.146
-629.507	-154.318	-0.159	0.011
-628.492	467.364	-0.174	0.390
-627.478	143.676	-0.015	-0.020
-626.463	-200.000	-0.022	-0.100
-625.449	-43.301	-0.281	-0.142
-624.434	346.459	-0.087	0.171
-623.419	800.000	0.054	0.225
-622.405	-65.671	0.159	-0.064
-621.390	-92.931	-0.202	-0.056
-620.376	-200.000	-0.000	0.025
-619.361	-200.000	0.024	0.253
-618.346	-200.000	0.074	-0.442
-617.332	111.819	-0.318	0.384
-616.317	-184.413	-0.187	0.003
-615.303	-173.635	-0.169	-0.005
-614.288	-97.279	0.293	0.076
-613.273	-92.140	0.367	-0.104
-612.259	-200.000	-0.001	0.042
-611.244	233.387	0.159	-0.261
-610.230	536.234	-0.022	-0.051
-609.215	54.450	-0.070	-0.067
-608.201	22.099	-0.066	0.054
-607.186	-200.000	-0.021	0.211
-606.171	254.185	-0.056	-0.096
-605.157	293.181	0.087	-0.159
-604.142	-200.000	-0.010	-0.229
-603.128	463.052	-0.108	0.241
-602.113	-10.543	0.054	-0.035
-601.098	-41.580	-0.212	0.109
-600.084	-148.277	0.091	0.008
-599.069	-57.374	0.182	-0.080
-598.055	138.725	-0.105	0.138
-597.040	-95.113	-0.395	0.106
-596.025	147.501	0.173	0.232
-595.011	-7.025	-0.278	-0.188
-593.996	-200.000	-0.045	0.537
-592.982	-82.041	-0.034	-0.011
-591.967	-36.766	0.077	-0.041
-590.952	-18.336	0.319	0.199
-589.938	-167.846	0.137	-0.005
-588.923	-7.774	-0.048	0.032
-587.909	-200.000	-0.001	0.103
-586.894	800.000	0.045	-0.173
-585.879	63.102	0.277	0.276
-584.865	256.724	0.079	-0.136
-583.850	110.613	-0.064	0.077
-582.836	56.319	0.147	-0.142
-581.821	-164.474	-0.181	-0.008
-580.806	-1.082	-0.059	0.042
-579.792	-68.198	0.140	-0.054
-578.777	-162.022	0.460	-0.023
-577.763	77.459	0.094	-0.100
-576.748	-59.423	0.066	0.028
-575.733	392.494	0.030	-0.063
-574.719	-64.134	-0.214	-0.087
-573.704	-49.433	-0.323	0.154
-572.690	35.486	0.286	0.251
-571.675	577.729	-0.075	0.184
-570.661	-200.000	-0.052	-0.279
-569.646	38.139	-0.112	-0.100
-568.631	800.000	0.040	-0.112
-567.617	511.579	-0.053	-0.123
-566.602	184.995	-0.241	0.357
-565.588	173.435	0.213	-0.306
-564.573	447.604	0.094	-0.206
-563.558	-145.651	0.320	-0.029
-562.544	800.000	-0.054	0.172
-561.529	-88.174	-0.107	-0.032
-560.515	-124.737	-0.091	-0.014
-559.500	-132.732	-0.274	0.035
-558.485	-200.000	0.046	0.293
-557.471	229.058	0.117	0.190
-556.456	-200.000	0.082	-0.626
-555.442	278.058	-0.121	-0.215
-554.427	1.613	-0.041	0.029
-553.412	343.544	-0.129	-0.252
-552.398	-6.492	0.141	-0.096
-551.383	-124.215	0.164	-0.026
-550.369	800.000	0.039	0.135
-549.354	-161.582	-0.298	0.015
-548.339	-200.000	0.030	-0.227
-547.325	477.570	-0.008	-0.018
-546.310	800.000	-0.018	0.052
-545.296	-200.000	0.022	0.263
-544.281	800.000	0.083	-0.256
-543.266	-136.891	0.225	0.026
-542.252	-200.000	-0.034	-0.508
-541.237	-200.000	0.008	0.288
-540.223	-54.524	0.126	0.057
-539.208	-23.296	0.066	0.039
-538.193	142.883	0.122	0.161
-537.179	-97.911	-0.141	0.036
-536.164	38.043	0.276	-0.245
-535.150	-109.439	-0.246	0.052
-534.135	-91.930	-0.379	-0.107
-533.121	-60.290	-0.255	0.108
-532.106	-200.000	0.011	0.059
-531.091	800.000	-0.127	0.370
-530.077	-8.396	0.297	0.199
-529.062	-200.000	0.034	0.193
-528.048	-197.212	0.117	-0.001
-527.033	-102.275	-0.210	0.050
-526.018	208.194	0.079	-0.123
-525.004	800.000	-0.105	0.328
-523.989	90.956	0.307	0.343
-522.975	-51.693	0.334	0.155
-521.960	-200.000	0.067	0.328
-520.945	-96.499	0.152	0.040
-519.931	723.737	0.052	0.138
-518.916	409.891	-0.164	-0.346
-517.902	-127.781	-0.034	0.005
-516.887	-57.546	-0.181	-0.079
-515.872	256.068	-0.073	-0.124
-514.858	383.649	0.091	-0.187
-513.843	-81.528	0.216	0.071
-512.829	-200.000	-0.084	-0.367
-511.814	-200.000	0.001	0.095
-510.799	308.332	0.080	-0.149
-509.785	12.048	-0.181	0.138
-508.770	178.519	-0.229	0.333
-507.756	-200.000	0.000	-0.105
-506.741	-200.000	0.072	0.360
-505.726	-200.000	-0.012	-0.103
-504.712	177.463	0.076	0.110
-503.697	-178.582	0.181	0.004
-502.683	603.817	0.089	-0.219
-501.668	-127.666	-0.232	0.033
-500.653	-1.346	-0.152	-0.107
-499.639	45.924	-0.146	-0.134
-498.624	-103.282	0.125	-0.029
-497.610	-190.850	0.240	-0.003
-496.595	106.977	0.206	-0.243
-495.581	-129.146	-0.069	-0.010
-494.566	-80.086	0.466	0.155
-493.551	-60.358	-0.268	-0.113
-492.537	-140.869	0.147	0.015
-491.522	16.804	0.012	-0.009
-490.508	128.460	0.271	-0.344
-489.493	57.096	0.170	0.164
-488.478	-200.000	0.088	-0.556
-487.464	95.551	-0.106	0.120
-486.449	150.875	-0.168	-0.228
-485.435	82.897	-0.089	0.096
-484.420	-46.099	0.179	-0.088
-483.405	-44.429	0.352	0.175
-482.391	-98.249	0.416	-0.106
-481.376	-68.031	0.106	-0.041
-480.362	-117.873	-0.147	-0.026
-479.347	-102.094	-0.353	0.085
-478.332	642.332	-0.030	0.075
-477.318	800.000	-0.060	0.216
-476.303	-89.014	-0.212	0.062
-475.289	-200.000	0.016	-0.102
-474.274	70.042	0.196	-0.201
-473.259	28.218	-0.174	-0.146
-472.245	-155.695	-0.398	0.025
-471.230	-74.556	0.243	-0.087
-470.216	-25.803	-0.278	0.163
-469.201	6.967	0.070	0.052
-468.186	-15.266	0.153	-0.097
-467.172	800.000	0.054	0.232
-466.157	-39.142	-0.133	0.069
-465.143	-95.405	0.255	0.068
-464.128	-48.287	0.116	0.056
-463.113	149.610	-0.281	0.378
-462.099	800.000	-0.029	-0.087
-461.084	223.263	-0.117	-0.188
-460.070	-200.000	-0.008	-0.224
-459.055	-134.885	-0.404	-0.048
-458.040	244.427	-0.174	-0.290
-457.026	800.000	-0.073	0.222
-456.011	465.612	-0.104	-0.231
-454.997	-200.000	-0.001	0.235
-453.982	-165.994	0.097	0.004
-452.968	63.772	-0.223	0.222
-451.953	-193.301	0.245	-0.002
-450.938	38.769	-0.357	-0.316
-449.924	800.000	0.079	-0.264
-448.909	800.000	-0.070	0.205
-447.895	-200.000	0.013	0.258
-446.880	245.607	0.081	-0.135
-445.865	-5.402	-0.112	0.076
-444.851	194.708	0.174	-0.262
-443.836	87.793	-0.344	-0.378
-442.822	-116.858	-0.279	-0.051
-441.807	-34.041	0.341	0.186
-440.792	-200.000	-0.052	0.355
-439.778	800.000	0.010	0.036
-438.763	-200.000	-0.014	-0.219
-437.749	-38.025	-0.091	-0.048
-436.734	800.000	0.089	-0.334
-435.719	-200.000	-0.015	-0.222
-434.705	-99.484	0.171	0.043
-433.690	-114.672	0.269	0.051
-432.676	-48.184	-0.176	-0.084
-431.661	-119.476	-0.105	0.018
-430.646	188.983	-0.197	-0.293
-429.632	425.687	-0.106	0.226
-428.617	-189.947	0.345	-0.004
-427.603	61.442	-0.232	-0.229
-426.588	-99.211	-0.406	0.102
-425.573	-200.000	0.003	-0.149
-424.559	-22.454	-0.114	-0.069
-423.544	-49.989	-0.108	0.051
-422.530	-64.115	-0.372	-0.150
-421.515	-135.942	-0.170	0.020
-420.500	-90.822	0.192	-0.055
-419.486	-164.679	-0.333	0.015
-418.471	176.190	-0.224	0.322
-417.457	-66.174	0.314	0.124
-416.442	800.000	0.017	0.067
-415.428	-200.000	-0.028	-0.198
-414.413	-173.261	0.383	-0.012
-413.398	-59.192	-0.125	0.053
-412.384	-26.111	0.084	0.049
-411.369	479.254	-0.101	0.227
-410.355	-16.674	0.147	-0.092
-409.340	238.115	-0.133	0.219
-408.325	-200.000	-0.008	-0.267
-407.311	800.000	0.037	-0.155
-406.296	52.223	0.060	0.057
-405.282	-200.000	-0.001	-0.139
-404.267	-46.937	-0.019	-0.009
-403.252	-28.455	-0.135	-0.077
-402.238	8.891	0.211	0.157
-401.223	800.000	0.067	0.235
-400.209	13.078	0.118	-0.090
-399.194	30.746	0.087	-0.074
-398.179	24.876	0.079	0.065
-397.165	-94.275	0.062	0.017
-396.150	-103.202	-0.033	-0.008
-395.136	485.375	0.062	-0.140
-394.121	800.000	-0.027	0.078
-393.106	800.000	0.072	-0.201
-392.092	25.301	-0.260	-0.214
-391.077	-200.000	0.002	-0.023
-390.063	-15.711	0.118	-0.075
-389.048	124.259	0.154	-0.191
-388.033	34.646	0.073	0.063
-387.019	186.084	0.039	0.058
-386.004	800.000	0.088	-0.250
-384.990	115.290	0.133	0.161
-383.975	119.476	0.038	0.047
-382.960	-37.328	-0.160	-0.084
-381.946	-158.041	0.329	0.019
-380.931	307.096	0.056	-0.103
-379.917	-125.446	0.121	0.018
-378.902	257.039	-0.166	0.283
-377.888	-200.000	0.005	-0.162
-376.873	-125.791	-0.050	-0.007
-375.858	800.000	-0.036	-0.111
-374.844	-50.021	0.227	0.106
-373.829	-170.797	-0.410	-0.014
-372.815	-7.248	0.075	-0.050
-371.800	366.775	-0.074	-0.147
-370.785	181.971	0.062	-0.090
-369.771	150.690	-0.155	-0.209
-368.756	-105.726	-0.082	-0.018
-367.742	-135.553	0.347	-0.041
-366.727	475.104	0.079	-0.175
-365.712	85.711	-0.217	0.236
-364.698	172.436	-0.240	0.341
-363.683	426.597	-0.102	-0.218
-362.669	-132.227	0.355	-0.045
-361.654	226.796	-0.174	-0.279
-360.639	-200.000	0.034	-0.281
-359.625	217.762	0.105	-0.165
-358.610	366.075	-0.080	-0.160
-357.596	-200.000	-0.003	0.139
-356.581	150.613	-0.289	-0.388
-355.566	361.775	-0.166	-0.330
-354.552	-67.959	0.253	0.098
-353.537	37.115	0.229	0.201
-352.523	-34.000	-0.100	0.055
-351.508	221.240	0.094	-0.148
-350.493	800.000	-0.050	-0.215
-349.479	-200.000	0.021	0.095
-348.464	36.360	-0.232	-0.202
-347.450	430.001	0.035	0.075
-346.435	-56.468	-0.191	0.084
-345.420	115.267	-0.024	0.028
-344.406	-30.899	0.082	0.046
-343.391	-200.000	0.025	-0.336
-342.377	-67.080	0.064	-0.025
-341.362	800.000	-0.062	-0.195
-340.348	800.000	0.067	-0.231
-339.333	62.499	0.198	-0.195
-338.318	42.823	0.153	0.137
-337.304	743.914	0.031	0.083
-336.289	-169.603	-0.080	-0.003
-335.275	-135.809	0.109	-0.013
-334.260	-200.000	-0.019	0.101
-333.245	-95.125	0.352	-0.094
-332.231	-72.010	-0.194	-0.071
-331.216	7.177	0.203	-0.149
-330.202	60.827	-0.091	-0.089
-329.187	-82.401	0.153	0.049
-328.172	-164.920	0.284	-0.013
-327.158	134.301	-0.270	0.346
-326.143	-200.000	0.002	0.161
-325.129	119.279	-0.054	-0.066
-324.114	800.000	-0.153	0.451
-323.099	800.000	0.097	-0.339
-322.085	-99.399	-0.212	-0.053
-321.070	-95.101	-0.158	0.042
-320.056	-14.415	0.195	0.124
-319.041	260.973	-0.133	0.227
-318.026	800.000	0.044	0.172
-317.012	540.485	0.068	0.161
-315.997	-200.000	-0.018	0.549
-314.983	-42.650	-0.061	-0.031
-313.968	21.793	-0.025	0.020
-312.953	55.225	0.086	-0.082
-311.939	-146.174	-0.350	0.030
-310.924	-118.132	0.398	0.070
-309.910	319.035	0.188	0.351
-308.895	-200.000	0.046	-0.265
-307.880	-15.589	-0.095	0.060
-306.866	185.214	0.122	0.178
-305.851	-139.405	-0.045	-0.005
-304.837	-112.862	0.072	-0.014
-303.822	198.819	0.124	0.188
-302.807	-123.058	0.244	0.039
-301.793	14.868	-0.210	0.162
-300.778	800.000	-0.069	0.236
-299.764	-185.920	-0.219	0.003
-298.749	-35.919	0.164	-0.088
-297.735	-63.976	0.135	-0.054
-296.720	135.064	0.001	0.001
-295.705	324.716	-0.042	0.079
-294.691	-65.924	0.299	0.118
-293.676	536.527	0.095	0.222
-292.662	-200.000	-0.003	-0.066
-291.647	-1.829	-0.176	-0.122
-290.632	800.000	-0.042	-0.148
-289.618	-46.062	-0.093	0.045
-288.603	-12.983	0.287	0.184
-287.589	-200.000	-0.007	-0.133
-286.574	395.734	0.169	-0.347
-285.559	-166.228	0.080	0.003
-284.545	-68.164	-0.244	-0.094
-283.530	-17.107	0.353	-0.220
-282.516	800.000	0.100	0.389
-281.501	21.900	0.259	0.208
-280.486	-107.596	0.153	0.033
-279.472	76.952	-0.020	0.021
-278.457	-112.544	-0.102	0.020
-277.443	-185.396	0.310	0.005
-276.428	800.000	0.048	-0.195
-275.413	306.684	-0.117	0.215
-274.399	800.000	-0.076	0.219
-273.384	-50.266	-0.310	0.144
-272.370	575.807	-0.111	0.268
-271.355	-139.014	-0.082	-0.009
-270.340	800.000	-0.090	0.289
-269.326	-200.000	0.020	-0.247
-268.311	575.594	-0.153	0.367
-267.297	-28.679	0.193	0.110
-266.282	800.000	-0.016	-0.049
-265.267	-200.000	-0.069	-0.408
-264.253	311.564	-0.193	0.356
-263.238	-74.640	0.261	-0.092
-262.224	-200.000	-0.012	-0.122
-261.209	-92.521	0.102	-0.028
-260.195	756.455	-0.104	0.276
-259.180	800.000	0.101	0.310
-258.165	89.832	0.082	0.091
-257.151	-105.944	0.157	-0.035
-256.136	800.000	-0.073	-0.278
-255.122	-46.812	0.203	0.098
-254.107	61.181	0.224	-0.219
-253.092	-76.714	0.250	-0.086
-252.078	-200.000	-0.012	0.359
-251.063	-102.705	0.121	-0.028
-250.049	169.123	0.144	0.203
-249.034	163.689	0.220	-0.304
-248.019	-49.718	-0.550	-0.257
-247.005	-81.168	0.270	-0.088
-245.990	800.000	-0.169	-0.475
-244.976	800.000	0.016	-0.067
-243.961	-148.776	-0.394	-0.031
-242.946	331.467	-0.123	-0.233
-241.932	612.693	-0.196	0.483
-240.917	94.549	0.140	-0.157
-239.903	-200.000	0.003	0.118
-238.888	-115.797	-0.337	-0.062
-237.873	-75.994	-0.176	0.061
-236.859	-38.502	0.131	0.068
-235.844	133.435	-0.074	0.094
-234.830	800.000	-0.059	-0.173
-233.815	135.194	0.102	0.130
-232.800	-50.911	0.028	0.013
-231.786	688.113	0.070	0.181
-230.771	-81.581	-0.065	0.021
-229.757	-71.924	0.260	0.095
-228.742	-158.347	-0.173	0.010
-227.727	-200.000	-0.061	0.268
-226.713	-147.242	-0.557	0.047
-225.698	800.000	-0.061	0.227
-224.684	-112.892	-0.183	-0.036
-223.669	108.260	0.085	-0.100
-222.655	-200.000	-0.029	-0.384
-221.640	-200.000	-0.005	0.034
-220.625	343.774	0.114	0.219
-219.611	-51.289	-0.331	0.152
-218.596	-57.855	-0.234	0.101
-217.582	-200.000	-0.020	0.328
-216.567	-200.000	-0.018	0.105
-215.552	642.198	-0.074	0.185
-214.538	-57.801	-0.177	-0.076
-213.523	-149.442	0.278	-0.022
-212.509	-46.727	-0.197	0.095
-211.494	-73.346	0.160	-0.058
-210.479	311.345	0.087	-0.159
-209.465	-200.000	-0.103	-0.456
-208.450	2.538	0.102	0.073
-207.436	800.000	0.049	0.175
-206.421	20.342	0.180	0.143
-205.406	-200.000	0.005	0.065
-204.392	594.413	0.081	-0.197
-203.377	-71.216	-0.194	-0.071
-202.363	3.868	-0.089	0.064
-201.348	3.694	0.191	0.137
-200.333	-133.417	0.045	-0.006
-199.319	-75.452	-0.198	-0.069
-198.304	-133.625	-0.179	-0.022
-197.290	-200.000	0.018	-0.110
-196.275	207.471	-0.212	0.324
-195.260	56.259	0.167	-0.159
-194.246	-37.886	-0.087	0.046
-193.231	-200.000	-0.004	-0.299
-192.217	-5.209	-0.243	-0.164
-191.202	-79.675	0.252	-0.083
-190.187	-124.962	-0.285	-0.043
-189.173	601.338	0.085	0.208
-188.158	-172.437	-0.421	0.013
-187.144	-61.816	0.101	0.041
-186.129	158.933	0.090	0.122
-185.114	-88.394	-0.099	0.029
-184.100	10.604	0.239	-0.179
-183.085	-100.464	-0.138	0.034
-182.071	48.805	-0.200	0.184
-181.056	227.955	-0.225	-0.360
-180.042	800.000	0.037	0.139
-179.027	-161.064	0.395	0.020
-178.012	-163.293	0.061	-0.003
-176.998	478.741	-0.021	-0.047
-175.983	214.469	-0.165	-0.256
-174.969	42.585	-0.061	-0.055
-173.954	800.000	-0.054	-0.175
-172.939	-158.733	-0.190	0.011
-171.925	-135.854	0.227	-0.026
-170.910	166.250	0.193	0.268
-169.896	-49.722	0.178	0.083
-168.881	-200.000	0.007	0.178
-167.866	-200.000	0.039	0.273
-166.852	-200.000	0.006	0.047
-165.837	206.138	0.101	0.155
-164.823	242.455	-0.193	-0.317
-163.808	-200.000	-0.014	0.342
-162.793	198.482	0.175	-0.262
-161.779	-80.392	-0.248	0.081
-160.764	4.460	0.148	-0.106
-159.750	311.516	-0.035	-0.064
-158.735	23.773	0.135	0.109
-157.720	61.598	-0.114	0.111
-156.706	261.576	0.019	0.031
-155.691	-68.533	0.324	-0.123
-154.677	4.677	-0.224	0.161
-153.662	452.403	-0.080	0.173
-152.647	-200.000	-0.042	-0.244
-151.633	-98.501	0.430	0.108
-150.618	284.556	-0.196	0.346
-149.604	27.024	-0.246	0.202
-148.589	-72.522	-0.139	-0.050
-147.574	18.433	-0.183	0.143
-146.560	-71.435	-0.056	0.020
-145.545	17.747	0.194	-0.152
-144.531	-200.000	-0.005	0.169
-143.516	-115.999	0.271	0.049
-142.502	-99.049	0.195	0.048
-141.487	26.969	0.217	0.179
-140.472	-4.947	0.197	-0.133
-139.458	800.000	0.038	0.105
-138.443	50.608	-0.090	0.083
-137.429	-63.318	0.047	-0.019
-136.414	-200.000	-0.070	0.406
-135.399	189.212	-0.134	0.197
-134.385	660.893	-0.038	0.097
-133.370	-101.058	0.125	0.030
-132.356	195.215	0.132	-0.196
-131.341	-76.011	-0.395	-0.137
-130.326	442.155	-0.140	0.300
-129.312	800.000	0.121	0.351
-128.297	-200.000	0.033	0.183
-127.283	21.999	0.030	-0.024
-126.268	176.924	0.178	-0.254
-125.253	42.943	0.195	0.174
-124.239	-200.000	-0.060	-0.345
-123.224	316.508	0.174	-0.321
-122.210	-118.428	0.355	0.062
