DTS Sentinel unit serial number:	SN413079Multiplexer serial number:	ORYXHardware model number:	OX4-SRSoftware version number:	ORYX F/W v4.00 Oryx Data Collector v3.7.2.0data status	okinstallation	princeton_trtdifferential loss correction	single-endedforward channel	channel 2reverse channel	N/Adate	2019/09/17time	08:15:34forward acquisition time	60.00reverse acquisition time	0.00gamma	496.2192k internal	0.2333k external	0.2333temperature offset calibration	0.9976default loss term (dB/km)	0.3790temperature slope calibration	1.0000multiplexer offset coefficient	1.0000multiplexer slope coefficient	1.0000fibre end	0.00T internal ref (°C)	27.39T ext. ref 1 (°C)	0.12T ext. ref 2 (°C)	22.81length (m)	temperature (°C)	Stokes	anti-Stokes-747.200	298.720	0.097	0.179
-746.185	-25.559	0.138	0.082
-745.171	-200.000	-0.011	-0.140
-744.156	-164.414	-0.214	0.010
-743.142	800.000	-0.049	0.171
-742.127	685.490	-0.069	0.181
-741.112	-200.000	-0.035	-0.369
-740.098	-86.734	-0.165	-0.051
-739.083	800.000	-0.100	0.301
-738.069	92.406	-0.150	0.170
-737.054	-72.010	-0.201	-0.075
-736.039	-106.192	-0.645	-0.145
-735.025	-78.254	0.418	0.144
-734.010	-40.786	-0.207	-0.108
-732.996	-200.000	0.074	0.424
-731.981	-200.000	-0.010	0.091
-730.966	3.584	-0.352	-0.258
-729.952	192.755	-0.054	-0.082
-728.937	800.000	-0.122	-0.344
-727.923	558.495	-0.173	0.420
-726.908	214.629	0.166	0.265
-725.894	-42.827	-0.539	0.275
-724.879	328.524	-0.117	0.225
-723.864	-179.290	-0.311	-0.007
-722.850	-119.882	0.251	0.043
-721.835	-98.922	-0.054	-0.014
-720.821	-91.496	-0.168	-0.048
-719.806	181.877	-0.090	0.134
-718.791	800.000	-0.094	-0.307
-717.777	12.106	-0.317	-0.245
-716.762	800.000	-0.035	0.136
-715.748	-40.547	-0.322	-0.168
-714.733	301.278	0.085	0.158
-713.718	14.723	0.051	-0.040
-712.704	-34.093	0.059	-0.033
-711.689	214.097	-0.101	0.161
-710.675	-200.000	0.027	-0.146
-709.660	33.037	-0.152	0.132
-708.645	-142.318	-0.152	-0.015
-707.631	-39.884	-0.241	0.126
-706.616	-40.031	0.097	-0.051
-705.602	2.678	-0.115	-0.084
-704.587	800.000	0.116	-0.346
-703.572	58.125	0.174	-0.171
-702.558	171.420	0.036	0.052
-701.543	133.905	-0.188	-0.244
-700.529	-200.000	-0.025	-0.308
-699.514	-115.220	-0.228	-0.043
-698.499	505.117	0.200	0.465
-697.485	-6.398	0.076	0.052
-696.470	178.025	0.139	-0.203
-695.456	375.862	0.094	-0.192
-694.441	-105.545	0.181	0.041
-693.426	-69.596	-0.073	-0.028
-692.412	-106.023	0.351	-0.079
-691.397	581.971	-0.110	-0.272
-690.383	-100.844	0.195	0.048
-689.368	-39.078	-0.095	0.050
-688.354	45.753	0.142	-0.132
-687.339	-61.671	0.155	0.065
-686.324	161.560	0.139	0.196
-685.310	-11.629	-0.171	0.113
-684.295	800.000	0.024	-0.088
-683.281	245.096	-0.107	-0.181
-682.266	800.000	0.124	-0.409
-681.251	-7.828	-0.234	-0.158
-680.237	92.869	0.283	-0.321
-679.222	-128.609	-0.191	-0.027
-678.208	-97.348	-0.302	-0.079
-677.193	741.211	0.086	0.232
-676.178	-143.266	-0.281	0.027
-675.164	274.503	0.165	0.294
-674.149	800.000	0.062	-0.171
-673.135	-9.037	-0.149	-0.100
-672.120	-80.584	0.259	-0.086
-671.105	409.846	0.216	0.460
-670.091	800.000	0.102	-0.380
-669.076	45.267	0.262	-0.242
-668.062	155.218	-0.067	0.092
-667.047	508.161	0.061	0.142
-666.032	-26.337	-0.211	0.124
-665.018	-30.275	-0.169	0.096
-664.003	417.072	0.096	0.205
-662.989	-52.129	0.384	-0.179
-661.974	-147.362	-0.031	0.003
-660.959	800.000	0.027	-0.114
-659.945	-2.763	0.250	0.176
-658.930	73.611	-0.130	-0.136
-657.916	-200.000	-0.152	0.000
-656.901	101.967	0.219	0.256
-655.886	81.294	0.186	0.201
-654.872	263.402	0.025	-0.043
-653.857	-7.720	-0.306	0.207
-652.843	74.375	0.030	-0.032
-651.828	370.301	-0.146	0.297
-650.814	-200.000	0.029	-0.132
-649.799	658.484	-0.120	-0.308
-648.784	0.013	-0.066	-0.047
-647.770	-50.830	0.095	-0.045
-646.755	138.348	-0.112	0.147
-645.741	-12.226	0.350	-0.230
-644.726	-152.649	-0.256	0.018
-643.711	612.034	0.065	-0.162
-642.697	-200.000	0.040	0.184
-641.682	-165.067	-0.319	0.014
-640.668	800.000	-0.092	-0.376
-639.653	-200.000	-0.006	-0.326
-638.638	-64.851	0.046	0.019
-637.624	179.723	-0.060	-0.088
-636.609	800.000	-0.080	-0.271
-635.595	-200.000	-0.014	-0.512
-634.580	334.856	0.057	-0.110
-633.565	36.162	0.089	-0.078
-632.551	-14.952	0.293	-0.188
-631.536	-176.266	0.116	-0.003
-630.522	269.649	0.196	0.344
-629.507	-30.674	-0.060	0.034
-628.492	-181.149	0.399	-0.008
-627.478	84.095	-0.107	0.117
-626.463	56.812	0.262	0.255
-625.449	173.334	0.092	-0.132
-624.434	-113.608	-0.068	0.013
-623.419	-86.162	-0.118	0.037
-622.405	119.542	0.179	0.222
-621.390	800.000	-0.023	0.099
-620.376	75.180	0.239	0.252
-619.361	-200.000	0.017	0.389
-618.346	-27.517	0.365	0.212
-617.332	16.981	-0.241	-0.191
-616.317	58.420	0.149	0.146
-615.303	800.000	0.112	0.374
-614.288	60.190	-0.244	0.242
-613.273	-41.087	0.153	0.079
-612.259	-37.906	0.134	-0.071
-611.244	-96.620	-0.103	-0.027
-610.230	-142.947	-0.184	-0.018
-609.215	-95.116	-0.185	0.050
-608.201	-122.879	0.116	-0.019
-607.186	800.000	0.068	-0.210
-606.171	-26.460	0.043	0.025
-605.157	662.240	0.060	0.154
-604.142	12.322	0.192	-0.148
-603.128	7.626	0.165	-0.124
-602.113	-200.000	-0.001	-0.006
-601.098	800.000	-0.066	0.189
-600.084	52.452	0.170	-0.162
-599.069	-93.222	-0.088	0.025
-598.055	187.616	-0.062	0.092
-597.040	73.824	0.128	0.134
-596.025	-200.000	0.011	0.127
-595.011	-200.000	0.039	-0.387
-593.996	-200.000	0.242	0.000
-592.982	20.282	-0.103	0.083
-591.967	-34.881	0.383	-0.209
-590.952	800.000	0.060	-0.240
-589.938	515.527	0.136	-0.318
-588.923	-99.072	-0.278	-0.070
-587.909	-20.986	-0.193	-0.118
-586.894	-86.762	-0.141	0.043
-585.879	-28.469	-0.125	-0.072
-584.865	746.166	-0.007	-0.020
-583.850	800.000	-0.004	-0.013
-582.836	1.246	-0.123	0.088
-581.821	-200.000	-0.010	-0.062
-580.806	90.316	-0.178	-0.199
-579.792	178.860	0.146	0.213
-578.777	-66.281	0.448	-0.178
-577.763	-142.128	-0.302	-0.030
-576.748	111.163	0.127	0.153
-575.733	-69.387	0.021	-0.008
-574.719	19.339	0.243	-0.195
-573.704	-192.230	0.306	-0.003
-572.690	-129.352	0.253	-0.035
-571.675	267.367	-0.058	0.101
-570.661	323.425	-0.097	0.185
-569.646	-60.260	-0.176	0.075
-568.631	800.000	-0.104	-0.337
-567.617	-145.088	0.161	-0.015
-566.602	-126.047	-0.390	-0.058
-565.588	238.940	0.064	0.106
-564.573	44.541	-0.139	0.128
-563.558	238.440	-0.104	0.173
-562.544	-143.430	-0.187	-0.018
-561.529	-200.000	0.010	-0.113
-560.515	-200.000	0.124	-0.542
-559.500	800.000	-0.101	-0.314
-558.485	500.813	-0.045	0.103
-557.471	173.658	0.224	-0.322
-556.456	-200.000	0.038	0.255
-555.442	-200.000	-0.011	-0.110
-554.427	-44.219	0.155	0.078
-553.412	-200.000	0.021	-0.133
-552.398	140.708	-0.089	0.118
-551.383	49.158	-0.052	0.049
-550.369	-65.732	0.310	0.124
-549.354	-200.000	0.002	-0.267
-548.339	-200.000	-0.004	-0.149
-547.325	800.000	0.071	-0.213
-546.310	763.050	-0.066	0.178
-545.296	12.428	0.294	0.226
-544.281	561.130	-0.055	-0.133
-543.266	10.496	0.236	-0.179
-542.252	211.823	0.128	-0.201
-541.237	-102.588	-0.109	-0.026
-540.223	-89.329	0.163	0.048
-539.208	-2.444	-0.125	0.088
-538.193	656.132	0.071	-0.182
-537.179	570.521	-0.145	-0.353
-536.164	-200.000	-0.003	0.044
-535.150	-119.138	-0.098	0.017
-534.135	-200.000	-0.031	-0.246
-533.121	800.000	0.138	-0.431
-532.106	93.780	-0.069	-0.078
-531.091	20.297	0.117	0.094
-530.077	59.025	0.121	-0.119
-529.062	-26.122	0.121	0.071
-528.048	-200.000	-0.024	0.178
-527.033	-200.000	-0.047	-0.221
-526.018	800.000	0.058	-0.241
-525.004	189.373	-0.118	0.176
-523.989	-19.292	-0.170	-0.105
-522.975	151.920	-0.166	0.226
-521.960	-155.790	-0.052	-0.003
-520.945	-53.360	0.092	-0.042
-519.931	-58.114	-0.076	0.033
-518.916	-101.338	-0.074	-0.018
-517.902	280.192	-0.097	0.173
-516.887	-48.081	0.093	0.045
-515.872	-10.634	-0.160	0.105
-514.858	800.000	0.016	-0.061
-513.843	-200.000	0.004	-0.167
-512.829	-22.988	-0.177	-0.106
-511.814	786.779	-0.171	0.466
-510.799	189.241	-0.046	0.069
-509.785	33.762	0.131	0.113
-508.770	-143.484	-0.243	-0.023
-507.756	-10.780	0.097	-0.064
-506.741	218.193	-0.150	0.238
-505.726	57.263	-0.172	0.168
-504.712	283.685	-0.141	0.252
-503.697	336.751	-0.253	-0.489
-502.683	800.000	0.081	-0.258
-501.668	-116.991	-0.084	0.015
-500.653	-200.000	-0.011	0.281
-499.639	800.000	-0.058	-0.218
-498.624	-93.552	-0.524	-0.144
-497.610	-200.000	0.024	-0.140
-496.595	800.000	-0.075	-0.232
-495.581	4.370	-0.056	0.041
-494.566	402.798	0.064	0.134
-493.551	49.151	-0.293	0.275
-492.537	246.872	-0.098	-0.164
-491.522	-126.733	0.200	-0.029
-490.508	58.412	0.207	0.202
-489.493	-51.275	0.264	0.123
-488.478	70.263	0.135	-0.138
-487.464	800.000	0.011	0.041
-486.449	-99.616	0.155	-0.039
-485.435	-200.000	0.074	-0.360
-484.420	52.001	-0.172	-0.164
-483.405	-158.837	0.233	-0.013
-482.391	800.000	0.061	0.201
-481.376	110.952	-0.151	0.181
-480.362	42.943	-0.542	0.492
-479.347	-74.424	0.083	-0.030
-478.332	-200.000	-0.059	0.319
-477.318	500.034	0.107	0.246
-476.303	-200.000	-0.023	-0.224
-475.289	-116.081	-0.298	-0.055
-474.274	-184.128	0.210	0.003
-473.259	267.737	0.236	-0.412
-472.245	47.413	-0.031	-0.029
-471.230	503.122	-0.085	0.195
-470.216	800.000	0.095	0.300
-469.201	71.313	-0.285	0.294
-468.186	-98.578	0.052	-0.013
-467.172	-90.957	0.122	0.035
-466.157	59.894	-0.123	0.121
-465.143	-95.179	0.184	0.049
-464.128	-110.860	0.080	0.016
-463.113	800.000	-0.144	-0.429
-462.099	8.846	0.093	0.070
-461.084	800.000	0.034	0.106
-460.070	401.707	0.070	-0.146
-459.055	-83.083	0.282	0.090
-458.040	-182.305	0.067	0.001
-457.026	-50.804	-0.412	0.193
-456.011	-145.135	0.150	0.014
-454.997	329.377	0.089	-0.169
-453.982	800.000	0.042	0.119
-452.968	42.106	-0.188	-0.170
-451.953	-36.277	0.064	-0.034
-450.938	-92.649	-0.271	-0.076
-449.924	-182.203	-0.268	-0.005
-448.909	33.576	-0.048	-0.042
-447.895	-147.641	-0.139	0.012
-446.880	-200.000	-0.022	0.121
-445.865	-30.718	-0.189	0.106
-444.851	32.094	-0.067	-0.057
-443.836	-200.000	-0.269	-0.001
-442.822	-108.156	0.129	-0.028
-441.807	-138.494	0.047	-0.005
-440.792	131.562	-0.138	0.177
-439.778	800.000	-0.079	-0.227
-438.763	-183.553	0.133	-0.002
-437.749	-67.041	-0.280	-0.110
-436.734	800.000	0.109	-0.318
-435.719	-200.000	0.005	-0.169
-434.705	76.337	0.058	0.061
-433.690	97.688	0.124	-0.142
-432.676	-95.560	0.173	-0.046
-431.661	-82.583	0.183	-0.059
-430.646	233.299	0.092	0.150
-429.632	-146.812	0.219	0.019
-428.617	-67.700	-0.241	0.094
-427.603	128.866	0.181	0.229
-426.588	-130.746	-0.090	0.012
-425.573	-108.860	0.232	0.049
-424.559	-35.568	-0.253	-0.136
-423.544	546.014	-0.071	-0.168
-422.530	-200.000	-0.000	0.389
-421.515	33.603	-0.341	-0.295
-420.500	-33.484	0.343	0.188
-419.486	-171.125	0.063	0.002
-418.471	81.999	0.157	-0.169
-417.457	67.689	0.204	-0.207
-416.442	333.184	0.123	0.236
-415.428	357.125	0.016	-0.031
-414.413	800.000	0.111	-0.331
-413.398	591.712	0.024	-0.060
-412.384	-130.590	0.166	-0.022
-411.369	-200.000	-0.008	0.149
-410.355	90.344	-0.175	-0.195
-409.340	57.313	-0.202	0.196
-408.325	18.376	-0.153	0.121
-407.311	-119.007	-0.239	-0.042
-406.296	332.253	0.117	-0.224
-405.282	-11.181	-0.110	0.072
-404.267	254.396	0.094	-0.159
-403.252	503.492	0.120	0.274
-402.238	-63.714	-0.179	0.073
-401.223	-138.413	-0.238	0.026
-400.209	-200.000	-0.070	0.307
-399.194	9.190	-0.085	-0.064
-398.179	-84.732	-0.167	-0.052
-397.165	128.707	-0.145	0.184
-396.150	-32.260	0.233	-0.129
-395.136	-21.048	-0.099	0.060
-394.121	587.517	-0.096	0.234
-393.106	800.000	0.081	-0.234
-392.092	240.556	-0.103	-0.170
-391.077	-140.311	0.183	-0.019
-390.063	123.669	-0.184	0.229
-389.048	243.737	0.152	0.253
-388.033	46.617	-0.102	-0.094
-387.019	257.956	0.077	0.132
-386.004	-95.085	0.233	0.062
-384.990	145.072	0.005	-0.007
-383.975	-109.548	-0.228	0.048
-382.960	79.259	0.217	0.230
-381.946	-137.082	-0.280	0.032
-380.931	226.866	-0.193	-0.310
-379.917	-34.743	0.262	-0.142
-378.902	800.000	0.033	0.132
-377.888	42.414	0.225	-0.203
-376.873	-158.072	0.225	0.013
-375.858	-83.540	0.404	-0.128
-374.844	-63.056	-0.285	0.116
-373.829	800.000	-0.045	0.146
-372.815	-158.675	-0.129	-0.007
-371.800	-122.662	-0.062	0.010
-370.785	-181.405	-0.209	0.004
-369.771	500.604	-0.096	-0.220
-368.756	339.782	-0.115	0.223
-367.742	-144.068	0.339	-0.031
-366.727	-16.827	0.126	0.079
-365.712	26.795	-0.107	0.089
-364.698	800.000	-0.069	-0.256
-363.683	-13.272	-0.209	-0.135
-362.669	-200.000	-0.001	-0.301
-361.654	-121.323	0.166	-0.027
-360.639	-136.877	-0.070	0.008
-359.625	64.980	0.257	0.257
-358.610	-109.896	-0.128	-0.026
-357.596	279.533	-0.214	0.378
-356.581	276.076	-0.200	0.352
-355.566	202.567	-0.093	0.142
-354.552	-91.639	0.097	-0.027
-353.537	-200.000	0.023	-0.287
-352.523	-97.554	-0.206	0.053
-351.508	61.825	-0.330	-0.325
-350.493	-147.770	-0.323	-0.027
-349.479	-117.535	0.228	-0.041
-348.464	-105.444	-0.096	-0.022
-347.450	-122.067	-0.293	0.048
-346.435	-108.467	0.307	0.065
-345.420	191.259	0.283	0.421
-344.406	-172.155	0.180	-0.006
-343.391	22.326	0.174	-0.141
-342.377	-200.000	0.014	-0.114
-341.362	229.527	-0.115	0.186
-340.348	-9.591	0.051	-0.033
-339.333	-123.680	0.192	0.030
-338.318	-86.862	0.095	0.029
-337.304	-200.000	0.023	-0.331
-336.289	-86.889	-0.152	-0.046
-335.275	-200.000	-0.010	-0.074
-334.260	64.540	0.088	0.088
-333.245	-0.972	-0.254	0.178
-332.231	208.314	0.101	-0.156
-331.216	79.202	-0.154	-0.163
-330.202	25.456	0.161	-0.132
-329.187	-29.035	0.330	-0.188
-328.172	-151.040	-0.380	-0.028
-327.158	-63.897	0.167	-0.067
-326.143	25.468	0.170	0.140
-325.129	63.205	-0.125	0.124
-324.114	-200.000	-0.026	0.173
-323.099	217.240	0.030	0.047
-322.085	-38.270	0.156	-0.082
-321.070	-10.328	-0.127	-0.084
-320.056	222.006	0.103	0.164
-319.041	-100.693	-0.197	0.048
-318.026	21.973	0.123	-0.099
-317.012	302.780	0.009	-0.017
-315.997	245.191	0.069	-0.115
-314.983	295.083	0.129	0.233
-313.968	433.282	-0.080	-0.171
-312.953	-117.629	-0.144	-0.026
-311.939	-87.515	0.276	-0.082
-310.924	-128.235	0.183	-0.026
-309.910	-200.000	-0.007	0.148
-308.895	-87.120	-0.428	0.129
-307.880	-200.000	0.022	0.169
-306.866	85.629	-0.126	-0.137
-305.851	39.928	-0.168	-0.149
-304.837	119.949	-0.069	0.084
-303.822	-81.474	0.139	0.045
-302.807	-70.354	0.162	0.061
-301.793	-149.292	0.151	0.012
-300.778	87.701	-0.095	-0.104
-299.764	-102.903	-0.077	-0.018
-298.749	-74.178	0.315	-0.112
-297.735	-107.106	-0.544	0.119
-296.720	-104.173	0.289	0.066
-295.705	586.725	0.056	0.135
-294.691	418.046	-0.070	-0.147
-293.676	-134.855	-0.189	0.023
-292.662	-31.342	0.148	-0.082
-291.647	-100.610	0.309	-0.075
-290.632	-31.055	-0.054	-0.030
-289.618	800.000	0.130	-0.435
-288.603	-170.608	-0.153	-0.005
-287.589	15.397	-0.096	0.075
-286.574	-200.000	0.002	-0.076
-285.559	800.000	0.126	-0.363
-284.545	108.495	-0.058	0.068
-283.530	94.901	-0.098	-0.110
-282.516	87.133	0.285	0.311
-281.501	-200.000	0.052	0.253
-280.486	-9.851	-0.258	-0.169
-279.472	256.159	-0.077	0.130
-278.457	162.514	-0.104	-0.144
-277.443	-1.638	0.235	0.163
-276.428	181.620	0.107	0.155
-275.413	27.709	0.148	0.123
-274.399	-66.582	0.371	-0.145
-273.384	-198.408	0.219	0.001
-272.370	-140.704	0.193	0.020
-271.355	149.033	0.178	0.238
-270.340	559.200	-0.072	0.172
-269.326	-44.376	0.266	-0.132
-268.311	-200.000	0.013	0.193
-267.297	-97.590	-0.063	-0.016
-266.282	39.906	-0.119	-0.106
-265.267	800.000	0.078	0.303
-264.253	200.466	0.108	0.164
-263.238	-200.000	0.023	0.264
-262.224	-29.382	0.352	0.199
-261.209	0.165	-0.128	0.090
-260.195	212.337	-0.197	-0.307
-259.180	293.135	-0.080	-0.145
-258.165	-56.883	0.238	0.104
-257.151	-200.000	0.022	0.195
-256.136	169.092	-0.274	0.385
-255.122	800.000	-0.097	0.313
-254.107	193.708	-0.061	0.091
-253.092	51.708	0.251	0.235
-252.078	-193.298	0.164	0.001
-251.063	121.673	-0.126	0.155
-250.049	-45.434	-0.429	-0.210
-249.034	106.408	0.083	0.097
-248.019	113.729	0.158	0.190
-247.005	156.919	-0.155	0.211
-245.990	-143.402	0.275	0.026
-244.976	-4.947	-0.201	0.136
-243.961	-200.000	0.020	0.241
-242.946	194.341	-0.055	-0.082
-241.932	38.534	-0.115	-0.101
-240.917	493.286	0.168	-0.379
-239.903	249.495	-0.215	0.359
-238.888	118.219	0.064	0.077
-237.873	44.568	0.113	0.102
-236.859	235.261	-0.081	-0.133
-235.844	111.685	-0.183	-0.218
-234.830	-34.420	0.036	-0.019
-233.815	496.950	-0.148	-0.337
-232.800	444.490	0.013	-0.029
-231.786	118.073	-0.114	0.138
-230.771	134.590	0.200	-0.256
-229.757	195.689	-0.182	-0.272
-228.742	-23.863	0.145	-0.086
-227.727	5.083	0.071	0.052
-226.713	-200.000	0.044	-0.226
-225.698	132.702	0.246	-0.312
-224.684	-87.072	-0.262	-0.079
-223.669	0.695	0.170	0.120
-222.655	349.472	0.151	0.293
-221.640	-24.212	-0.196	-0.115
-220.625	-200.000	0.033	-0.167
-219.611	61.628	-0.125	-0.122
-218.596	54.574	-0.049	0.047
-217.582	48.718	-0.348	0.322
-216.567	440.711	0.144	-0.309
-215.552	617.170	0.095	-0.235
-214.538	23.446	-0.213	-0.172
-213.523	-139.823	0.443	0.046
-212.509	150.349	-0.186	-0.248
-211.494	-8.235	-0.227	0.151
-210.479	-165.271	-0.422	0.018
-209.465	800.000	0.032	-0.115
-208.450	-98.890	0.365	0.091
-207.436	-80.106	-0.197	0.065
-206.421	34.448	-0.263	-0.226
-205.406	800.000	-0.022	-0.072
-204.392	-29.671	-0.235	0.132
-203.377	214.553	-0.127	-0.199
-202.363	-165.033	0.226	-0.010
-201.348	800.000	0.077	0.281
-200.333	-39.599	-0.224	-0.115
-199.319	-110.340	0.297	-0.061
-198.304	195.378	0.024	-0.036
-197.290	-200.000	-0.026	0.116
-196.275	-48.496	-0.189	0.090
-195.260	800.000	0.116	0.431
-194.246	-133.830	-0.366	0.045
-193.231	345.809	0.123	0.237
-192.217	-97.321	-0.227	0.058
-191.202	-149.999	0.254	0.020
-190.187	131.735	-0.094	0.120
-189.173	-200.000	0.018	-0.149
-188.158	-171.996	0.235	-0.008
-187.144	-4.860	-0.129	0.088
-186.129	-200.000	-0.004	-0.038
-185.114	-109.266	0.133	0.028
-184.100	72.749	0.287	-0.294
-183.085	-61.568	-0.338	0.140
-182.071	-200.000	-0.031	0.227
-181.056	-200.000	0.035	0.206
-180.042	86.755	-0.148	0.161
-179.027	28.270	0.092	-0.076
-178.012	-58.396	-0.150	-0.064
-176.998	-200.000	-0.024	0.151
-175.983	-158.738	0.120	-0.007
-174.969	-79.741	0.331	0.110
-173.954	800.000	0.054	-0.183
-172.939	-102.482	0.175	-0.041
-171.925	-200.000	-0.117	0.535
-170.910	-200.000	0.008	0.088
-169.896	800.000	-0.108	-0.357
-168.881	150.342	-0.131	-0.175
-167.866	298.636	0.038	-0.069
-166.852	-200.000	-0.017	-0.115
-165.837	238.762	-0.151	0.247
-164.823	473.258	0.076	0.169
-163.808	-200.000	-0.084	-0.445
-162.793	-70.983	-0.291	0.108
-161.779	-69.496	-0.088	-0.033
-160.764	-54.995	0.481	0.213
-159.750	204.813	0.008	-0.012
-158.735	-12.028	0.225	-0.145
-157.720	-146.307	0.261	0.022
-156.706	178.346	-0.190	0.273
-155.691	-6.123	0.245	0.165
-154.677	800.000	-0.072	0.261
-153.662	-123.557	-0.183	-0.029
-152.647	39.481	-0.248	0.219
-151.633	9.108	-0.204	-0.152
-150.618	-200.000	-0.049	0.236
-149.604	-16.986	-0.217	0.134
-148.589	800.000	0.017	0.069
-147.574	800.000	-0.079	-0.216
-146.560	-73.113	-0.036	0.013
-145.545	34.053	0.091	-0.078
-144.531	-200.000	-0.050	0.229
-143.516	43.466	-0.079	0.071
-142.502	-200.000	-0.041	0.322
-141.487	57.549	-0.175	0.168
-140.472	800.000	0.083	0.326
-139.458	-5.706	-0.174	0.117
-138.443	-186.228	-0.295	-0.004
-137.429	-154.420	0.224	0.015
-136.414	800.000	0.058	-0.162
-135.399	800.000	0.085	-0.234
-134.385	-7.235	0.109	0.073
-133.370	-156.810	-0.202	0.012
-132.356	106.529	0.157	0.182
-131.341	-200.000	0.015	0.109
-130.326	327.914	-0.104	0.196
-129.312	705.905	0.041	-0.107
-128.297	-1.970	0.133	0.092
-127.283	-200.000	0.011	-0.192
-126.268	-200.000	0.011	0.169
-125.253	-200.000	0.012	-0.075
-124.239	800.000	0.014	0.040
-123.224	-55.763	-0.423	-0.185
-122.210	91.650	0.154	0.170
-121.195	-200.000	-0.021	0.229
-120.180	-13.584	0.047	-0.030
