DTS Sentinel unit serial number:	SN413079Multiplexer serial number:	ORYXHardware model number:	OX4-SRSoftware version number:	ORYX F/W v4.00 Oryx Data Collector v3.7.2.0data status	okinstallation	princeton_trtdifferential loss correction	single-endedforward channel	channel 2reverse channel	N/Adate	2019/09/12time	02:37:11forward acquisition time	60.00reverse acquisition time	0.00gamma	496.2192k internal	0.2326k external	0.2326temperature offset calibration	1.0093default loss term (dB/km)	0.3790temperature slope calibration	1.0000multiplexer offset coefficient	1.0000multiplexer slope coefficient	1.0000fibre end	0.00T internal ref (°C)	32.42T ext. ref 1 (°C)	2.10T ext. ref 2 (°C)	27.16length (m)	temperature (°C)	Stokes	anti-Stokes-747.200	-33.770	-0.089	0.050
-746.185	558.038	-0.100	0.242
-745.171	-97.761	0.406	-0.106
-744.156	-19.094	-0.193	0.121
-743.142	162.167	-0.191	-0.269
-742.127	632.096	0.025	0.064
-741.112	-50.563	0.295	-0.140
-740.098	205.223	0.181	0.284
-739.083	-16.768	-0.004	-0.002
-738.069	-69.603	-0.149	-0.058
-737.054	51.403	-0.117	-0.112
-736.039	800.000	-0.028	0.110
-735.025	-41.404	0.103	-0.053
-734.010	800.000	-0.082	-0.232
-732.996	-32.475	-0.054	-0.030
-731.981	-96.046	-0.107	-0.029
-730.966	-22.052	-0.288	-0.176
-729.952	-41.416	-0.064	0.033
-728.937	52.534	0.118	-0.114
-727.923	-200.000	-0.016	0.311
-726.908	-124.439	-0.277	0.043
-725.894	-40.902	-0.252	-0.131
-724.879	-58.666	-0.108	-0.047
-723.864	444.129	0.049	0.109
-722.850	760.675	0.058	0.158
-721.835	-131.367	0.122	0.016
-720.821	237.016	-0.108	-0.181
-719.806	-200.000	-0.051	-0.292
-718.791	462.213	-0.087	0.196
-717.777	-12.130	-0.313	-0.206
-716.762	-151.993	0.042	0.003
-715.748	-135.990	-0.259	-0.031
-714.733	128.309	0.126	-0.162
-713.718	800.000	0.092	-0.290
-712.704	52.707	-0.184	-0.177
-711.689	-200.000	0.008	-0.121
-710.675	-106.514	0.076	-0.017
-709.660	259.129	-0.195	-0.338
-708.645	-96.197	0.072	-0.019
-707.631	78.235	0.147	-0.158
-706.616	467.238	-0.050	-0.113
-705.602	-85.464	0.077	0.024
-704.587	-151.120	0.211	-0.016
-703.572	54.480	-0.130	0.126
-702.558	113.216	-0.111	0.135
-701.543	800.000	-0.081	0.226
-700.529	-174.952	0.186	-0.005
-699.514	109.159	0.223	-0.268
-698.499	13.113	-0.142	-0.111
-697.485	8.623	-0.322	0.244
-696.470	-51.397	-0.164	-0.077
-695.456	-200.000	-0.019	-0.258
-694.441	174.003	-0.108	0.157
-693.426	122.696	0.123	-0.155
-692.412	-170.542	0.253	0.009
-691.397	31.504	0.079	0.068
-690.383	-37.253	0.259	0.139
-689.368	-183.842	-0.187	-0.003
-688.354	-200.000	0.040	-0.180
-687.339	800.000	0.076	0.214
-686.324	446.836	-0.043	0.094
-685.310	95.427	0.200	0.229
-684.295	82.368	0.018	0.020
-683.281	594.869	-0.035	0.088
-682.266	60.345	0.158	0.157
-681.251	397.327	-0.074	-0.155
-680.237	-127.530	-0.104	0.015
-679.222	-195.083	-0.262	0.002
-678.208	87.723	-0.066	0.074
-677.193	-26.202	-0.164	0.097
-676.178	168.636	0.075	-0.107
-675.164	-200.000	-0.010	0.050
-674.149	-2.505	-0.231	0.162
-673.135	164.264	0.060	-0.085
-672.120	-123.510	0.088	-0.014
-671.105	-105.678	-0.356	0.081
-670.091	-200.000	-0.021	0.200
-669.076	-150.465	-0.097	0.007
-668.062	-82.314	0.140	0.046
-667.047	800.000	0.085	0.256
-666.032	-200.000	-0.025	0.580
-665.018	776.993	0.018	0.049
-664.003	-200.000	-0.041	0.275
-662.989	0.001	0.053	-0.038
-661.974	675.934	-0.051	0.133
-660.959	-14.540	0.114	-0.074
-659.945	130.674	0.055	-0.070
-658.930	50.633	0.094	-0.089
-657.916	-5.304	-0.133	0.092
-656.901	800.000	0.089	0.273
-655.886	419.839	0.214	-0.460
-654.872	-188.012	0.120	-0.002
-653.857	445.801	-0.047	-0.104
-652.843	702.315	-0.054	0.142
-651.828	156.737	-0.181	-0.252
-650.814	194.449	0.239	-0.364
-649.799	16.604	0.276	0.219
-648.784	800.000	-0.053	-0.174
-647.770	-111.803	-0.176	0.036
-646.755	-53.787	0.125	0.058
-645.741	37.593	0.164	-0.146
-644.726	296.134	-0.097	-0.179
-643.711	-28.258	0.209	0.121
-642.697	-54.470	0.118	0.054
-641.682	-97.040	-0.320	-0.084
-640.668	66.389	-0.064	0.065
-639.653	-75.789	0.134	-0.048
-638.638	685.706	-0.122	0.320
-637.624	30.679	-0.142	-0.122
-636.609	-89.328	-0.155	0.046
-635.595	-66.118	-0.162	0.065
-634.580	-200.000	0.034	0.174
-633.565	205.914	-0.153	0.238
-632.551	-173.958	0.153	0.005
-631.536	800.000	0.073	0.258
-630.522	-50.733	-0.091	-0.043
-629.507	-158.596	0.091	-0.005
-628.492	-24.987	0.192	0.115
-627.478	-190.076	-0.164	-0.002
-626.463	-146.464	-0.260	0.023
-625.449	44.393	0.070	0.064
-624.434	-137.132	0.176	0.020
-623.419	-200.000	-0.014	0.200
-622.405	-145.053	-0.493	-0.045
-621.390	284.759	0.095	-0.171
-620.376	314.212	-0.164	-0.309
-619.361	-54.835	0.215	-0.098
-618.346	-144.787	0.178	-0.016
-617.332	284.484	0.112	-0.202
-616.317	-161.755	-0.225	0.012
-615.303	0.688	-0.119	-0.086
-614.288	-134.108	-0.311	-0.039
-613.273	800.000	-0.089	-0.357
-612.259	436.935	-0.103	0.226
-611.244	-59.577	-0.157	-0.068
-610.230	79.819	-0.114	-0.123
-609.215	239.408	-0.202	-0.337
-608.201	-200.000	-0.003	-0.160
-607.186	-200.000	-0.012	0.309
-606.171	-75.027	-0.423	-0.152
-605.157	334.131	0.104	0.201
-604.142	-51.916	0.311	-0.145
-603.128	-14.962	0.319	-0.205
-602.113	-89.788	0.124	-0.036
-601.098	800.000	0.141	0.410
-600.084	-132.549	-0.156	0.020
-599.069	-200.000	0.025	0.394
-598.055	-150.252	-0.286	-0.022
-597.040	111.867	0.246	-0.298
-596.025	128.994	-0.241	-0.309
-595.011	571.109	-0.170	-0.416
-593.996	800.000	-0.068	0.275
-592.982	-20.915	0.220	-0.135
-591.967	-200.000	-0.006	-0.168
-590.952	16.807	-0.144	0.114
-589.938	57.314	-0.153	0.150
-588.923	-122.294	-0.104	-0.017
-587.909	-145.632	0.067	-0.006
-586.894	-200.000	0.020	0.216
-585.879	45.752	-0.217	0.201
-584.865	247.832	0.247	0.418
-583.850	800.000	-0.064	0.252
-582.836	-152.300	0.239	-0.017
-581.821	199.902	0.089	0.138
-580.806	-200.000	0.022	0.106
-579.792	-14.581	-0.057	-0.037
-578.777	-200.000	0.002	0.071
-577.763	19.174	0.133	0.107
-576.748	-200.000	0.009	-0.296
-575.733	800.000	0.050	-0.145
-574.719	62.132	-0.239	0.239
-573.704	329.944	0.126	0.243
-572.690	-200.000	-0.004	0.279
-571.675	-200.000	-0.036	-0.163
-570.661	800.000	-0.037	-0.108
-569.646	-40.256	-0.050	-0.026
-568.631	120.509	-0.278	-0.345
-567.617	19.329	-0.179	0.144
-566.602	-161.145	-0.203	0.011
-565.588	660.687	0.081	0.208
-564.573	-80.161	0.046	-0.015
-563.558	-200.000	0.013	0.140
-562.544	-200.000	0.032	-0.180
-561.529	707.418	-0.048	-0.127
-560.515	138.038	0.226	-0.296
-559.500	147.631	0.145	-0.195
-558.485	-55.059	0.160	0.072
-557.471	17.967	-0.192	-0.153
-556.456	-9.192	-0.185	0.124
-555.442	172.055	-0.101	-0.145
-554.427	-200.000	-0.020	0.150
-553.412	-25.606	-0.074	-0.044
-552.398	-42.664	0.130	-0.066
-551.383	800.000	-0.100	0.353
-550.369	157.211	-0.186	0.257
-549.354	800.000	0.067	-0.258
-548.339	244.906	-0.140	-0.236
-547.325	-118.514	-0.216	0.038
-546.310	537.247	-0.080	0.190
-545.296	-200.000	-0.043	0.199
-544.281	-106.061	-0.138	-0.031
-543.266	-180.049	0.150	0.003
-542.252	-200.000	0.017	-0.133
-541.237	-111.036	0.151	0.031
-540.223	282.503	-0.187	0.336
-539.208	-103.485	0.201	-0.047
-538.193	-85.496	0.134	-0.042
-537.179	39.845	-0.197	-0.177
-536.164	-78.715	-0.169	0.058
-535.150	48.277	0.148	-0.139
-534.135	149.093	0.210	0.284
-533.121	551.841	0.124	-0.297
-532.106	-64.044	-0.357	0.146
-531.091	-61.879	-0.195	-0.081
-530.077	76.539	-0.091	0.096
-529.062	-69.223	0.357	-0.137
-528.048	-3.268	0.117	-0.082
-527.033	-145.113	-0.236	-0.021
-526.018	-200.000	-0.040	0.259
-525.004	558.811	0.084	-0.204
-523.989	-7.078	0.164	-0.111
-522.975	-168.257	0.033	-0.001
-521.960	-50.302	-0.264	0.125
-520.945	800.000	-0.087	0.314
-519.931	19.171	-0.227	0.182
-518.916	-49.852	0.054	0.025
-517.902	-180.930	-0.071	0.001
-516.887	-96.367	-0.045	0.012
-515.872	56.226	-0.364	-0.353
-514.858	-28.678	0.255	-0.147
-513.843	694.096	0.060	0.158
-512.829	-115.432	-0.093	-0.017
-511.814	-144.010	0.241	0.023
-510.799	147.011	0.151	0.204
-509.785	153.413	-0.121	-0.166
-508.770	124.776	-0.034	-0.043
-507.756	-153.098	-0.145	-0.010
-506.741	76.295	0.265	0.281
-505.726	-200.000	0.002	-0.234
-504.712	-200.000	0.017	-0.120
-503.697	-200.000	0.017	-0.130
-502.683	800.000	-0.119	-0.333
-501.668	-200.000	0.040	-0.316
-500.653	800.000	-0.042	-0.156
-499.639	628.242	0.055	0.139
-498.624	183.068	-0.142	0.210
-497.610	-200.000	0.060	0.265
-496.595	800.000	-0.089	-0.295
-495.581	-30.097	0.193	0.109
-494.566	-103.548	0.059	-0.014
-493.551	-105.703	0.153	0.035
-492.537	-134.375	-0.219	0.027
-491.522	-200.000	0.046	0.269
-490.508	-91.882	-0.065	0.018
-489.493	380.270	0.090	-0.185
-488.478	4.684	-0.165	0.121
-487.464	242.776	0.162	-0.271
-486.449	-172.004	0.264	0.009
-485.435	800.000	0.042	-0.143
-484.420	597.303	0.070	-0.173
-483.405	62.975	-0.083	-0.083
-482.391	-181.231	0.071	0.001
-481.376	-200.000	-0.036	-0.200
-480.362	-60.674	0.061	0.026
-479.347	-162.300	-0.139	0.007
-478.332	309.619	0.173	-0.322
-477.318	-152.493	-0.154	-0.011
-476.303	472.589	-0.071	0.159
-475.289	-200.000	-0.005	0.139
-474.274	123.730	-0.136	0.170
-473.259	-200.000	0.041	0.300
-472.245	-86.040	0.296	0.091
-471.230	-200.000	-0.006	-0.194
-470.216	-200.000	0.037	-0.230
-469.201	-48.655	-0.165	-0.079
-468.186	373.290	-0.078	0.158
-467.172	-200.000	-0.008	-0.063
-466.157	-78.728	-0.089	0.030
-465.143	47.665	0.135	-0.125
-464.128	172.168	0.203	-0.292
-463.113	-151.124	-0.302	-0.023
-462.099	647.587	-0.062	0.159
-461.084	5.853	-0.283	0.209
-460.070	-55.801	-0.263	0.117
-459.055	-35.732	-0.176	-0.095
-458.040	-200.000	0.062	0.314
-457.026	51.183	0.032	0.031
-456.011	162.815	-0.177	-0.247
-454.997	-96.190	-0.162	-0.043
-453.982	-21.294	0.323	0.197
-452.968	-125.951	-0.233	0.035
-451.953	-200.000	-0.039	-0.248
-450.938	-61.404	-0.061	-0.025
-449.924	-36.470	-0.057	-0.031
-448.909	-56.562	0.255	-0.113
-447.895	-45.215	0.098	0.049
-446.880	-87.159	0.173	0.052
-445.865	406.909	0.053	0.112
-444.851	800.000	0.120	0.373
-443.836	-41.273	-0.168	0.086
-442.822	434.793	-0.088	0.191
-441.807	-162.321	0.076	-0.004
-440.792	491.366	0.169	-0.386
-439.778	143.600	0.205	-0.272
-438.763	273.764	-0.010	0.017
-437.749	-150.316	-0.080	-0.006
-436.734	-200.000	-0.016	-0.078
-435.719	44.681	-0.100	0.091
-434.705	116.159	-0.049	-0.060
-433.690	-124.883	-0.131	-0.020
-432.676	624.165	-0.048	-0.120
-431.661	-39.971	0.036	0.019
-430.646	7.699	0.166	0.124
-429.632	665.674	-0.053	0.135
-428.617	-200.000	-0.030	-0.151
-427.603	-200.000	0.025	-0.435
-426.588	180.575	0.153	-0.223
-425.573	-200.000	-0.033	-0.231
-424.559	348.124	0.069	0.135
-423.544	-200.000	-0.011	0.203
-422.530	458.428	0.077	-0.171
-421.515	49.455	-0.130	-0.122
-420.500	-58.699	-0.509	-0.219
-419.486	800.000	-0.084	-0.312
-418.471	-75.202	-0.188	0.067
-417.457	800.000	-0.133	0.387
-416.442	130.861	0.027	-0.035
-415.428	185.566	-0.046	-0.068
-414.413	-77.549	0.237	0.082
-413.398	-200.000	0.033	-0.304
-412.384	-200.000	-0.013	-0.060
-411.369	65.323	0.089	-0.090
-410.355	800.000	0.099	-0.397
-409.340	-200.000	-0.004	0.110
-408.325	244.044	0.175	-0.292
-407.311	-121.812	-0.203	0.033
-406.296	7.896	-0.274	0.204
-405.282	-94.609	-0.235	-0.064
-404.267	-170.857	0.115	-0.004
-403.252	371.890	-0.088	-0.179
-402.238	131.619	0.234	0.299
-401.223	-38.631	-0.170	0.089
-400.209	31.271	-0.052	0.044
-399.194	-200.000	-0.018	-0.330
-398.179	358.118	-0.086	0.170
-397.165	800.000	0.007	0.021
-396.150	-112.148	0.117	-0.023
-395.136	-119.428	-0.134	-0.023
-394.121	103.616	0.092	-0.108
-393.106	-65.285	-0.121	-0.049
-392.092	16.721	-0.332	-0.261
-391.077	-87.053	-0.500	-0.151
-390.063	136.989	-0.167	0.217
-389.048	207.828	0.118	-0.184
-388.033	251.148	-0.095	-0.161
-387.019	142.872	0.126	0.167
-386.004	169.749	0.095	-0.135
-384.990	501.135	0.184	-0.422
-383.975	58.256	0.169	0.165
-382.960	-7.415	0.154	-0.104
-381.946	13.759	-0.110	-0.085
-380.931	800.000	0.102	-0.288
-379.917	-27.397	0.231	-0.133
-378.902	92.393	-0.164	-0.184
-377.888	-200.000	0.251	-0.001
-376.873	-43.186	0.315	0.159
-375.858	-160.942	0.163	0.009
-374.844	-173.972	0.069	0.002
-373.829	-76.824	0.261	0.091
-372.815	-66.570	-0.130	-0.051
-371.800	755.774	-0.075	-0.201
-370.785	800.000	0.094	0.335
-369.771	13.728	-0.091	-0.070
-368.756	-9.290	0.271	-0.180
-367.742	659.147	-0.086	-0.219
-366.727	-104.216	-0.289	0.067
-365.712	-96.432	0.050	0.013
-364.698	42.949	0.276	0.250
-363.683	-200.000	0.022	-0.437
-362.669	44.923	0.219	0.200
-361.654	97.834	-0.122	-0.140
-360.639	-146.169	-0.419	0.037
-359.625	374.563	0.191	0.386
-358.610	116.259	-0.113	0.138
-357.596	800.000	0.064	0.269
-356.581	-62.261	-0.172	0.071
-355.566	-56.785	0.147	-0.065
-354.552	515.083	0.141	0.328
-353.537	23.957	-0.172	0.141
-352.523	-200.000	0.013	0.089
-351.508	528.763	-0.072	-0.168
-350.493	79.288	0.134	-0.142
-349.479	283.148	0.181	0.322
-348.464	800.000	0.040	0.149
-347.450	-47.134	0.133	0.064
-346.435	-92.077	0.201	-0.056
-345.420	53.512	0.128	-0.121
-344.406	-160.811	-0.222	-0.012
-343.391	122.190	0.058	-0.072
-342.377	-200.000	-0.004	0.234
-341.362	-96.884	-0.292	-0.076
-340.348	-132.879	-0.076	-0.010
-339.333	-56.936	0.498	0.218
-338.318	-200.000	-0.010	0.128
-337.304	-141.173	0.149	-0.015
-336.289	-77.414	-0.074	0.025
-335.275	224.374	-0.161	0.259
-334.260	-104.944	0.141	0.032
-333.245	-139.314	-0.207	0.022
-332.231	-200.000	0.067	0.468
-331.216	-162.463	0.189	-0.009
-330.202	174.373	-0.080	-0.114
-329.187	130.586	0.007	0.009
-328.172	-200.000	0.039	-0.289
-327.158	-200.000	-0.006	-0.102
-326.143	-14.918	-0.165	-0.105
-325.129	-131.735	0.082	0.011
-324.114	349.502	0.037	0.073
-323.099	-200.000	-0.091	0.423
-322.085	-170.350	0.160	-0.006
-321.070	-36.430	-0.193	-0.103
-320.056	-55.823	0.186	-0.082
-319.041	-32.724	0.256	-0.141
-318.026	-200.000	0.023	0.252
-317.012	-200.000	0.013	0.195
-315.997	-8.873	-0.170	-0.113
-314.983	10.381	-0.195	-0.147
-313.968	-106.869	0.219	-0.048
-312.953	800.000	0.086	-0.284
-311.939	800.000	0.077	-0.253
-310.924	79.187	0.150	-0.159
-309.910	560.005	0.032	0.077
-308.895	-147.034	-0.216	-0.018
-307.880	780.077	-0.165	-0.447
-306.866	-4.325	0.043	-0.029
-305.851	659.671	-0.028	0.072
-304.837	576.733	0.099	0.240
-303.822	179.524	-0.101	0.146
-302.807	390.706	0.091	0.188
-301.793	-95.874	0.147	0.039
-300.778	-115.000	0.047	0.009
-299.764	259.905	-0.215	-0.369
-298.749	-200.000	0.012	-0.155
-297.735	-43.895	-0.135	0.067
-296.720	13.020	0.201	-0.154
-295.705	-130.116	0.127	0.017
-294.691	-146.652	0.531	0.046
-293.676	-24.001	-0.229	-0.136
-292.662	134.179	-0.086	-0.110
-291.647	-182.172	0.404	0.007
-290.632	-68.357	0.262	-0.101
-289.618	-200.000	0.009	0.077
-288.603	800.000	-0.039	-0.154
-287.589	-200.000	-0.002	-0.255
-286.574	-142.768	0.288	0.028
-285.559	-93.776	0.292	-0.080
-284.545	-0.175	-0.344	0.243
-283.530	-39.122	-0.234	0.122
-282.516	-100.154	-0.064	-0.016
-281.501	-200.000	0.020	0.252
-280.486	71.587	-0.024	-0.025
-279.472	172.356	0.108	-0.154
-278.457	-74.727	0.146	0.052
-277.443	-200.000	-0.028	0.205
-276.428	421.065	-0.117	0.249
-275.413	26.557	-0.197	0.163
-274.399	-200.000	0.013	0.184
-273.384	-17.695	0.274	-0.171
-272.370	-41.295	-0.212	0.108
-271.355	-184.065	0.139	-0.002
-270.340	237.980	0.120	-0.197
-269.326	-59.642	-0.071	-0.030
-268.311	-120.662	-0.082	-0.014
-267.297	-57.888	-0.070	-0.030
-266.282	142.591	-0.268	-0.353
-265.267	-20.307	-0.236	-0.144
-264.253	-200.000	-0.017	-0.142
-263.238	800.000	0.136	-0.428
-262.224	394.785	-0.106	0.219
-261.209	-36.638	0.129	0.069
-260.195	800.000	-0.027	0.086
-259.180	41.510	0.193	0.173
-258.165	-200.000	0.000	0.117
-257.151	-200.000	0.066	0.417
-256.136	80.599	0.176	0.187
-255.122	278.020	-0.115	0.203
-254.107	-86.866	-0.161	0.049
-253.092	-87.353	-0.149	-0.045
-252.078	-152.688	-0.298	-0.021
-251.063	21.748	0.089	-0.071
-250.049	-111.752	-0.315	0.063
-249.034	-129.286	0.345	-0.048
-248.019	17.123	-0.087	0.068
-247.005	-106.761	0.350	0.077
-245.990	-200.000	-0.040	-0.289
-244.976	-134.796	-0.091	0.011
-243.961	-14.340	0.176	-0.112
-242.946	-45.673	0.152	0.075
-241.932	-200.000	0.008	-0.053
-240.917	-52.808	0.190	0.087
-239.903	455.246	0.089	-0.194
-238.888	51.797	0.241	0.226
-237.873	-62.047	0.084	0.035
-236.859	-200.000	0.018	-0.117
-235.844	-144.122	0.043	0.004
-234.830	800.000	0.025	-0.090
-233.815	-200.000	0.014	0.238
-232.800	87.129	0.016	-0.018
-231.786	-139.759	-0.252	-0.026
-230.771	-50.632	0.055	-0.026
-229.757	78.907	0.059	-0.063
-228.742	205.909	-0.126	0.194
-227.727	214.455	0.056	-0.087
-226.713	308.811	0.169	0.312
-225.698	-4.880	0.093	0.064
-224.684	169.269	0.113	0.159
-223.669	657.894	0.103	0.261
-222.655	-175.593	-0.153	0.004
-221.640	-28.219	-0.175	-0.100
-220.625	-1.939	0.140	-0.098
-219.611	165.817	0.085	0.119
-218.596	-63.969	0.234	0.094
-217.582	-66.328	0.202	0.079
-216.567	800.000	-0.052	-0.200
-215.552	-200.000	-0.000	-0.324
-214.538	443.639	0.101	0.218
-213.523	-200.000	-0.015	0.146
-212.509	235.838	-0.106	0.173
-211.494	31.857	0.093	-0.079
-210.479	-200.000	-0.029	0.165
-209.465	-200.000	-0.020	-0.170
-208.450	-102.291	0.246	-0.058
-207.436	-58.079	-0.333	-0.143
-206.421	-95.381	0.112	-0.030
-205.406	24.450	-0.193	-0.158
-204.392	-43.564	0.231	0.115
-203.377	-97.310	-0.356	0.092
-202.363	-67.868	0.269	0.104
-201.348	-83.107	0.067	-0.021
-200.333	-200.000	0.016	0.098
-199.319	26.480	0.276	0.228
-198.304	-200.000	0.036	-0.293
-197.290	536.104	0.116	-0.273
-196.275	-77.485	0.136	-0.047
-195.260	-127.155	0.187	-0.027
-194.246	-119.783	-0.174	0.030
-193.231	370.116	0.060	-0.119
-192.217	427.710	-0.043	-0.093
-191.202	215.803	0.084	0.132
-190.187	-62.031	-0.156	0.064
-189.173	-63.801	0.170	-0.069
-188.158	-71.962	0.156	0.057
-187.144	129.802	0.127	0.160
-186.129	509.682	-0.099	-0.227
-185.114	800.000	-0.019	0.071
-184.100	200.098	-0.074	-0.112
-183.085	-59.528	-0.026	0.011
-182.071	15.710	-0.195	0.151
-181.056	-112.484	0.150	-0.030
-180.042	-200.000	0.040	0.176
-179.027	-200.000	-0.005	0.208
-178.012	-61.408	0.245	-0.101
-176.998	309.014	0.019	-0.035
-175.983	-50.075	-0.131	-0.061
-174.969	-65.369	-0.321	0.127
-173.954	-40.607	-0.182	0.093
-172.939	82.306	0.094	-0.100
-171.925	-200.000	-0.059	-0.266
-170.910	540.190	0.246	0.576
-169.896	-200.000	0.028	0.226
-168.881	-200.000	0.007	0.213
-167.866	-83.687	0.115	-0.036
-166.852	196.435	0.128	-0.192
-165.837	26.081	-0.101	0.083
-164.823	-200.000	0.038	0.173
-163.808	174.195	-0.131	0.187
-162.793	-36.541	-0.222	-0.118
-161.779	800.000	0.068	0.214
-160.764	436.056	-0.170	-0.365
-159.750	-67.134	-0.040	0.016
-158.735	-12.502	-0.136	0.088
-157.720	171.918	0.122	0.173
-156.706	445.169	0.034	-0.074
-155.691	-200.000	0.022	-0.160
-154.677	-105.193	-0.283	0.064
-153.662	800.000	0.039	0.115
-152.647	637.056	-0.080	0.201
-151.633	162.704	0.094	0.130
-150.618	344.713	-0.105	0.204
-149.604	-200.000	0.081	-0.365
-148.589	-114.884	-0.091	0.017
-147.574	567.022	-0.043	0.104
-146.560	175.871	-0.077	0.110
-145.545	58.136	-0.043	0.042
-144.531	-121.396	0.198	0.032
-143.516	-76.533	0.283	0.098
-142.502	550.079	0.065	0.153
-141.487	-43.443	0.075	-0.037
-140.472	487.056	-0.035	-0.078
-139.458	18.925	-0.164	-0.129
-138.443	-122.445	0.156	-0.025
-137.429	721.829	0.219	0.574
-136.414	-200.000	-0.033	0.262
-135.399	-99.070	0.228	0.057
-134.385	-54.866	0.334	-0.148
-133.370	-21.941	0.028	0.017
-132.356	-65.478	0.110	-0.044
-131.341	421.186	-0.099	-0.209
-130.326	-146.494	-0.164	0.014
-129.312	-200.000	0.054	0.386
-128.297	-59.064	-0.099	-0.042
-127.283	-86.107	0.312	0.095
-126.268	176.436	-0.109	0.156
-125.253	-75.808	0.121	-0.042
-124.239	-102.649	-0.268	0.063
-123.224	-44.704	-0.203	0.100
-122.210	58.239	0.097	-0.093
