DTS Sentinel unit serial number:	SN413079Multiplexer serial number:	ORYXHardware model number:	OX4-SRSoftware version number:	ORYX F/W v4.00 Oryx Data Collector v3.7.2.0data status	okinstallation	princeton_trtdifferential loss correction	single-endedforward channel	channel 2reverse channel	N/Adate	2019/09/14time	23:19:35forward acquisition time	60.00reverse acquisition time	0.00gamma	496.2192k internal	0.2324k external	0.2324temperature offset calibration	1.0055default loss term (dB/km)	0.3790temperature slope calibration	1.0000multiplexer offset coefficient	1.0000multiplexer slope coefficient	1.0000fibre end	0.00T internal ref (°C)	32.37T ext. ref 1 (°C)	4.65T ext. ref 2 (°C)	27.39length (m)	temperature (°C)	Stokes	anti-Stokes-747.200	110.964	-0.072	-0.088
-746.185	-200.000	-0.038	0.301
-745.171	360.684	0.069	-0.140
-744.156	550.111	0.106	-0.257
-743.142	711.853	0.083	0.222
-742.127	70.765	0.585	0.611
-741.112	800.000	0.040	0.122
-740.098	-87.367	-0.288	0.088
-739.083	236.036	-0.180	-0.301
-738.069	-50.222	-0.248	-0.118
-737.054	-157.489	0.335	0.020
-736.039	800.000	0.038	0.155
-735.025	-137.988	-0.166	-0.019
-734.010	550.853	-0.041	0.099
-732.996	-127.834	-0.454	-0.066
-731.981	-6.012	0.135	0.093
-730.966	800.000	0.011	0.032
-729.952	-200.000	-0.016	-0.089
-728.937	310.660	0.115	-0.218
-727.923	800.000	0.028	-0.097
-726.908	-52.173	0.124	-0.058
-725.894	800.000	-0.050	-0.152
-724.879	-8.345	0.028	-0.019
-723.864	-63.342	0.309	-0.128
-722.850	-149.503	0.104	-0.008
-721.835	391.682	0.053	-0.111
-720.821	-72.555	0.108	0.040
-719.806	199.000	-0.070	0.108
-718.791	-200.000	0.054	0.259
-717.777	42.258	0.076	-0.069
-716.762	800.000	-0.050	-0.155
-715.748	-159.052	-0.248	-0.014
-714.733	114.745	-0.186	0.229
-713.718	57.322	-0.173	0.171
-712.704	-34.833	-0.093	-0.051
-711.689	249.796	0.146	-0.250
-710.675	-109.975	0.195	-0.041
-709.660	-94.786	-0.443	-0.121
-708.645	13.777	-0.297	-0.232
-707.631	-144.818	-0.354	-0.033
-706.616	800.000	-0.084	0.330
-705.602	-188.088	0.225	0.003
-704.587	-118.499	0.200	-0.036
-703.572	-109.290	-0.160	0.034
-702.558	-200.000	-0.136	0.000
-701.543	89.568	-0.275	-0.309
-700.529	-104.462	-0.305	0.071
-699.514	-112.940	0.396	0.079
-698.499	-45.473	-0.199	-0.099
-697.485	420.991	-0.188	0.405
-696.470	-19.347	-0.110	0.069
-695.456	800.000	0.064	-0.275
-694.441	130.028	-0.062	0.080
-693.426	800.000	-0.072	0.229
-692.412	-200.000	-0.040	-0.229
-691.397	172.549	0.134	0.194
-690.383	-159.186	-0.142	-0.008
-689.368	36.718	0.098	-0.087
-688.354	-13.521	-0.306	0.200
-687.339	-200.000	0.033	-0.299
-686.324	87.145	0.223	-0.248
-685.310	800.000	-0.145	-0.446
-684.295	106.110	0.015	-0.018
-683.281	-200.000	0.035	0.218
-682.266	-15.231	-0.337	-0.217
-681.251	118.053	0.219	-0.272
-680.237	180.028	-0.167	0.247
-679.222	-67.100	0.308	0.122
-678.208	145.584	-0.222	0.299
-677.193	769.969	-0.015	-0.040
-676.178	-200.000	-0.008	-0.111
-675.164	121.747	0.156	-0.195
-674.149	800.000	0.061	-0.221
-673.135	-200.000	-0.009	0.097
-672.120	193.784	-0.084	0.128
-671.105	-91.056	0.296	-0.086
-670.091	-35.774	-0.051	-0.028
-669.076	-200.000	-0.004	0.034
-668.062	34.957	0.070	0.062
-667.047	503.337	-0.080	-0.186
-666.032	800.000	-0.021	0.077
-665.018	-200.000	-0.059	0.293
-664.003	141.395	0.093	-0.124
-662.989	-37.849	-0.233	-0.125
-661.974	38.355	0.126	-0.113
-660.959	48.843	-0.254	-0.240
-659.945	-200.000	-0.005	0.157
-658.930	48.452	-0.323	0.304
-657.916	43.022	0.121	0.111
-656.901	792.795	0.026	-0.071
-655.886	119.329	-0.076	0.095
-654.872	800.000	-0.038	-0.156
-653.857	229.642	-0.072	-0.118
-652.843	402.814	-0.092	0.195
-651.828	-79.591	-0.423	-0.144
-650.814	-62.310	-0.090	0.038
-649.799	37.156	-0.143	-0.128
-648.784	-200.000	0.070	0.000
-647.770	-81.944	-0.171	-0.056
-646.755	-200.000	0.056	-0.258
-645.741	-74.234	-0.079	0.029
-644.726	624.380	-0.111	-0.281
-643.711	-20.981	-0.373	-0.230
-642.697	159.399	-0.162	0.227
-641.682	-200.000	-0.052	0.261
-640.668	-200.000	-0.041	0.369
-639.653	800.000	0.044	0.167
-638.638	26.881	0.201	-0.169
-637.624	515.151	-0.049	0.116
-636.609	-200.000	0.022	0.113
-635.595	-98.399	0.100	0.026
-634.580	-94.855	0.193	0.052
-633.565	-122.214	-0.164	0.027
-632.551	-48.230	0.187	0.091
-631.536	156.234	-0.135	0.187
-630.522	-127.234	0.108	-0.016
-629.507	-45.557	-0.176	0.088
-628.492	-200.000	-0.022	-0.118
-627.478	-200.000	-0.010	-0.085
-626.463	149.738	-0.208	-0.283
-625.449	649.067	0.075	-0.193
-624.434	800.000	-0.083	-0.262
-623.419	394.310	-0.145	-0.303
-622.405	-96.869	-0.414	-0.109
-621.390	-200.000	0.030	0.206
-620.376	607.537	-0.072	0.181
-619.361	-63.389	0.103	-0.043
-618.346	426.567	0.067	0.146
-617.332	-90.050	0.200	0.059
-616.317	225.653	0.087	-0.141
-615.303	117.131	-0.118	0.146
-614.288	-200.000	0.031	0.316
-613.273	-197.188	0.376	-0.002
-612.259	-168.849	0.238	0.009
-611.244	800.000	0.024	0.092
-610.230	613.841	0.062	0.157
-609.215	-63.935	0.194	-0.080
-608.201	-200.000	-0.052	-0.293
-607.186	-200.000	0.013	0.126
-606.171	731.516	-0.029	0.078
-605.157	-58.450	-0.092	0.040
-604.142	797.242	-0.036	0.099
-603.128	-76.991	0.282	0.099
-602.113	595.758	0.014	-0.035
-601.098	-37.432	-0.249	0.133
-600.084	-66.405	0.069	-0.027
-599.069	57.541	-0.181	0.178
-598.055	25.481	0.241	-0.201
-597.040	167.505	-0.038	0.054
-596.025	-138.552	0.064	0.007
-595.011	-200.000	-0.024	-0.291
-593.996	-62.996	-0.024	-0.010
-592.982	-200.000	-0.022	-0.181
-591.967	800.000	0.071	0.233
-590.952	-115.742	0.220	0.041
-589.938	800.000	-0.115	0.327
-588.923	-95.986	-0.132	0.035
-587.909	800.000	0.044	-0.148
-586.894	511.407	-0.073	-0.169
-585.879	121.280	0.212	-0.265
-584.865	74.106	0.092	0.096
-583.850	-200.000	-0.003	-0.029
-582.836	-24.811	-0.173	0.103
-581.821	49.235	-0.238	-0.225
-580.806	104.003	0.090	-0.106
-579.792	-164.527	0.148	-0.007
-578.777	-4.347	0.248	0.172
-577.763	-200.000	-0.061	0.276
-576.748	-187.715	-0.272	-0.004
-575.733	201.567	0.183	-0.283
-574.719	197.780	-0.128	-0.196
-573.704	-76.569	-0.246	-0.087
-572.690	-62.791	-0.290	0.120
-571.675	-29.933	-0.019	0.011
-570.661	248.112	-0.058	0.098
-569.646	-200.000	-0.034	-0.154
-568.631	-99.313	-0.161	0.041
-567.617	332.874	-0.074	-0.144
-566.602	51.242	0.054	-0.052
-565.588	-200.000	-0.029	0.224
-564.573	-75.268	-0.332	0.119
-563.558	28.656	0.124	0.105
-562.544	51.276	-0.370	-0.352
-561.529	-167.708	-0.330	-0.013
-560.515	278.382	-0.064	-0.115
-559.500	54.519	0.054	0.053
-558.485	-200.000	0.021	-0.258
-557.471	-144.591	0.338	0.031
-556.456	21.964	-0.122	-0.100
-555.442	-200.000	0.024	0.274
-554.427	-200.000	-0.016	-0.123
-553.412	800.000	0.061	0.177
-552.398	-1.395	0.138	0.098
-551.383	-83.027	0.280	0.090
-550.369	47.999	0.088	-0.082
-549.354	161.521	-0.211	-0.295
-548.339	-122.373	0.131	0.021
-547.325	-200.000	-0.056	-0.273
-546.310	245.863	0.180	0.304
-545.296	79.131	-0.107	0.115
-544.281	-99.878	-0.090	0.023
-543.266	800.000	-0.057	0.234
-542.252	-89.965	0.253	0.074
-541.237	-112.247	-0.367	0.074
-540.223	-114.096	-0.145	0.028
-539.208	30.348	-0.295	-0.253
-538.193	-200.000	-0.002	-0.148
-537.179	-100.284	0.459	-0.114
-536.164	119.523	0.290	0.359
-535.150	189.581	0.097	0.145
-534.135	-109.949	0.179	0.037
-533.121	135.525	-0.100	0.130
-532.106	7.776	-0.187	0.140
-531.091	-162.531	-0.176	0.009
-530.077	-200.000	0.016	0.131
-529.062	194.112	-0.182	-0.276
-528.048	126.777	-0.109	0.138
-527.033	151.652	0.117	-0.160
-526.018	238.843	-0.110	0.183
-525.004	7.133	-0.150	-0.112
-523.989	-44.281	-0.285	0.143
-522.975	-159.249	0.204	-0.011
-521.960	19.751	-0.258	0.208
-520.945	-119.595	-0.452	-0.078
-519.931	31.990	-0.291	-0.251
-518.916	-200.000	0.060	-0.336
-517.902	-66.891	0.086	0.034
-516.887	182.833	-0.135	0.200
-515.872	-110.893	-0.091	-0.019
-514.858	119.137	0.246	-0.304
-513.843	118.944	-0.153	-0.189
-512.829	-200.000	-0.003	-0.133
-511.814	-75.283	-0.233	-0.083
-510.799	121.986	-0.104	0.130
-509.785	-83.511	-0.219	-0.070
-508.770	158.279	0.102	0.142
-507.756	229.771	0.042	0.068
-506.741	64.319	0.152	0.154
-505.726	-108.815	0.319	-0.068
-504.712	-111.084	-0.175	0.036
-503.697	305.858	0.144	-0.267
-502.683	-200.000	-0.027	-0.241
-501.668	-161.388	0.210	-0.011
-500.653	-200.000	0.072	-0.324
-499.639	-38.548	-0.066	-0.035
-498.624	800.000	-0.107	-0.299
-497.610	184.714	0.089	0.133
-496.595	432.965	0.133	-0.289
-495.581	-87.570	-0.144	0.044
-494.566	1.941	0.278	0.201
-493.551	-120.869	-0.121	0.020
-492.537	-200.000	0.024	-0.189
-491.522	-16.185	-0.051	0.033
-490.508	66.476	0.325	-0.330
-489.493	800.000	-0.024	0.101
-488.478	-44.254	0.140	0.070
-487.464	-200.000	0.059	0.309
-486.449	200.630	-0.145	0.223
-485.435	-42.364	-0.225	-0.115
-484.420	-133.579	-0.342	-0.043
-483.405	-56.434	-0.372	0.165
-482.391	-182.196	-0.259	0.005
-481.376	22.470	0.056	-0.046
-480.362	412.211	0.107	0.227
-479.347	-102.435	0.221	-0.053
-478.332	-200.000	-0.007	-0.238
-477.318	743.967	0.063	-0.171
-476.303	-19.267	-0.225	0.139
-475.289	401.064	0.043	0.089
-474.274	750.706	-0.032	0.086
-473.259	-182.131	0.318	-0.006
-472.245	-34.246	0.171	-0.094
-471.230	723.185	0.094	-0.250
-470.216	51.717	0.115	-0.109
-469.201	-200.000	0.025	0.120
-468.186	-130.107	0.111	-0.015
-467.172	-59.193	-0.279	-0.120
-466.157	547.426	-0.077	0.184
-465.143	309.816	0.075	0.141
-464.128	249.066	0.126	0.214
-463.113	108.847	0.167	0.199
-462.099	-3.175	0.262	0.182
-461.084	-200.000	-0.026	0.246
-460.070	-84.052	0.239	-0.076
-459.055	179.088	0.079	-0.115
-458.040	96.512	0.099	0.113
-457.026	15.127	0.245	-0.192
-456.011	50.294	0.145	0.137
-454.997	-189.311	-0.117	-0.001
-453.982	800.000	-0.084	0.233
-452.968	-3.562	-0.209	0.145
-451.953	-200.000	0.005	0.210
-450.938	-10.340	-0.159	-0.105
-449.924	236.192	0.015	0.024
-448.909	-122.775	-0.164	-0.026
-447.895	63.416	-0.252	0.253
-446.880	149.435	-0.064	0.086
-445.865	-162.026	0.225	-0.011
-444.851	800.000	0.075	-0.313
-443.836	163.276	0.113	0.158
-442.822	-73.597	0.400	0.145
-441.807	800.000	-0.027	-0.116
-440.792	-200.000	-0.068	0.380
-439.778	-112.624	0.160	-0.032
-438.763	327.764	0.065	-0.125
-437.749	-10.302	-0.438	-0.290
-436.734	-142.534	-0.269	-0.026
-435.719	414.791	0.149	0.317
-434.705	459.230	0.061	0.135
-433.690	-81.520	-0.196	0.064
-432.676	709.606	-0.063	0.165
-431.661	800.000	-0.032	-0.124
-430.646	-200.000	-0.014	-0.116
-429.632	-118.613	-0.346	0.061
-428.617	-200.000	-0.020	-0.341
-427.603	116.496	-0.193	-0.236
-426.588	463.528	0.031	0.069
-425.573	65.378	0.089	-0.090
-424.559	232.090	0.099	-0.162
-423.544	528.018	-0.139	-0.326
-422.530	331.767	-0.062	-0.118
-421.515	-14.231	-0.030	-0.019
-420.500	85.014	0.080	-0.088
-419.486	-200.000	-0.084	-0.397
-418.471	-95.760	-0.268	0.071
-417.457	-33.742	-0.323	-0.177
-416.442	16.432	-0.049	0.039
-415.428	-38.018	-0.142	-0.075
-414.413	800.000	0.042	0.159
-413.398	-200.000	-0.068	-0.366
-412.384	-91.816	0.247	-0.070
-411.369	-54.721	0.197	0.089
-410.355	-200.000	0.043	-0.203
-409.340	-200.000	0.001	-0.029
-408.325	3.918	0.054	-0.040
-407.311	-74.313	-0.038	-0.014
-406.296	368.155	-0.202	0.407
-405.282	-138.418	0.107	-0.012
-404.267	248.149	-0.123	-0.207
-403.252	-200.000	0.020	-0.186
-402.238	-200.000	0.036	-0.324
-401.223	800.000	0.018	-0.072
-400.209	-12.096	-0.255	-0.166
-399.194	15.103	0.202	-0.157
-398.179	81.684	-0.193	-0.208
-397.165	-200.000	-0.005	-0.107
-396.150	-95.662	0.086	0.023
-395.136	206.373	0.198	-0.307
-394.121	-31.307	-0.172	0.096
-393.106	22.662	-0.199	0.163
-392.092	-178.806	0.080	-0.002
-391.077	135.738	0.150	-0.195
-390.063	36.684	0.059	-0.052
-389.048	56.056	0.074	-0.071
-388.033	-128.669	-0.248	0.035
-387.019	-200.000	0.005	0.301
-386.004	800.000	-0.074	0.228
-384.990	-155.388	-0.235	-0.015
-383.975	149.040	0.129	0.173
-382.960	-200.000	-0.063	0.303
-381.946	135.203	-0.178	-0.231
-380.931	71.051	0.288	-0.297
-379.917	553.128	-0.027	-0.064
-378.902	-7.906	0.130	-0.087
-377.888	-106.504	-0.217	-0.048
-376.873	800.000	0.036	0.117
-375.858	195.529	-0.127	0.192
-374.844	-200.000	-0.029	-0.143
-373.829	-7.854	0.160	0.108
-372.815	36.724	0.243	0.214
-371.800	458.374	0.031	0.069
-370.785	201.019	-0.126	0.193
-369.771	-72.278	0.314	-0.116
-368.756	-200.000	0.029	0.172
-367.742	-64.420	-0.100	-0.040
-366.727	412.095	0.095	-0.200
-365.712	-200.000	0.039	0.377
-364.698	194.713	-0.200	0.302
-363.683	86.265	0.113	0.124
-362.669	194.076	0.217	0.327
-361.654	800.000	-0.018	0.069
-360.639	-82.511	-0.112	0.036
-359.625	-200.000	0.031	-0.207
-358.610	-155.696	0.260	0.017
-357.596	-200.000	-0.010	-0.098
-356.581	800.000	-0.123	0.340
-355.566	-116.019	0.259	0.048
-354.552	-200.000	0.107	0.520
-353.537	291.818	0.162	0.293
-352.523	800.000	-0.146	0.423
-351.508	408.059	0.092	0.194
-350.493	39.271	-0.169	0.150
-349.479	-126.884	-0.258	-0.038
-348.464	170.873	-0.066	-0.094
-347.450	-200.000	-0.016	0.173
-346.435	25.808	-0.240	-0.199
-345.420	-75.640	0.111	0.039
-344.406	-74.911	-0.146	0.052
-343.391	4.040	0.021	0.015
-342.377	-82.471	0.704	-0.227
-341.362	800.000	-0.018	0.058
-340.348	175.523	-0.176	0.253
-339.333	800.000	0.105	0.354
-338.318	66.526	0.094	0.095
-337.304	53.603	0.213	-0.203
-336.289	-121.753	-0.384	0.063
-335.275	-198.036	-0.384	-0.002
-334.260	800.000	-0.088	0.286
-333.245	154.004	0.197	-0.269
-332.231	-137.300	0.186	0.021
-331.216	-42.945	0.167	-0.084
-330.202	-57.758	0.180	-0.078
-329.187	800.000	0.044	0.139
-328.172	-200.000	0.052	-0.312
-327.158	-200.000	0.013	0.155
-326.143	-200.000	0.017	0.300
-325.129	433.516	0.169	-0.365
-324.114	-77.072	-0.125	0.043
-323.099	-89.238	0.160	-0.047
-322.085	121.278	0.053	-0.065
-321.070	800.000	-0.074	0.225
-320.056	-60.352	-0.485	0.205
-319.041	-178.113	-0.065	-0.002
-318.026	-200.000	0.021	-0.281
-317.012	351.711	0.142	0.278
-315.997	162.961	-0.152	-0.212
-314.983	-60.525	0.179	0.076
-313.968	40.242	-0.157	0.140
-312.953	-98.446	0.147	-0.037
-311.939	118.957	-0.240	0.294
-310.924	99.416	0.116	-0.134
-309.910	416.742	-0.151	0.320
-308.895	-135.983	-0.126	-0.015
-307.880	220.612	-0.190	0.303
-306.866	144.398	0.162	-0.215
-305.851	370.135	0.114	-0.229
-304.837	-30.825	-0.313	-0.176
-303.822	93.893	-0.101	-0.114
-302.807	-40.345	-0.119	-0.061
-301.793	800.000	-0.043	0.126
-300.778	-132.701	-0.286	0.036
-299.764	-200.000	-0.004	0.393
-298.749	18.343	-0.264	0.209
-297.735	67.542	-0.235	0.238
-296.720	-182.161	-0.086	0.002
-295.705	800.000	0.081	0.254
-294.691	44.251	-0.096	-0.087
-293.676	116.770	-0.032	-0.039
-292.662	-91.152	0.138	-0.039
-291.647	-52.875	0.152	-0.069
-290.632	488.444	0.176	0.399
-289.618	-200.000	-0.046	-0.329
-288.603	22.093	-0.211	-0.170
-287.589	260.819	0.045	0.077
-286.574	146.545	-0.071	0.095
-285.559	-200.000	-0.103	-0.457
-284.545	-195.372	0.076	0.001
-283.530	-200.000	-0.014	-0.089
-282.516	-157.426	0.262	-0.016
-281.501	14.743	0.211	0.164
-280.486	-200.000	-0.056	0.456
-279.472	-76.856	0.181	-0.063
-278.457	176.815	-0.132	0.191
-277.443	800.000	0.018	-0.051
-276.428	112.839	0.205	-0.246
-275.413	800.000	0.044	0.138
-274.399	-184.710	0.268	0.004
-273.384	-73.359	-0.322	0.117
-272.370	-183.018	0.124	0.002
-271.355	668.734	0.007	-0.018
-270.340	524.711	-0.090	-0.211
-269.326	426.879	-0.154	-0.329
-268.311	-200.000	0.008	-0.216
-267.297	-200.000	0.025	0.230
-266.282	179.820	0.273	-0.396
-265.267	499.969	0.050	0.115
-264.253	-21.140	0.140	-0.085
-263.238	262.342	0.222	0.382
-262.224	-57.859	-0.080	0.035
-261.209	-45.773	0.184	0.090
-260.195	-31.595	0.102	-0.057
-259.180	-72.453	0.227	-0.083
-258.165	417.274	-0.011	-0.022
-257.151	-44.433	-0.186	0.092
-256.136	-105.248	-0.359	0.081
-255.122	104.738	-0.254	0.297
-254.107	-107.212	0.383	-0.084
-253.092	741.875	-0.028	-0.074
-252.078	-200.000	0.043	-0.190
-251.063	170.991	0.073	-0.103
-250.049	-145.059	-0.065	0.006
-249.034	-40.294	-0.171	-0.088
-248.019	51.274	-0.207	-0.194
-247.005	797.935	-0.057	-0.156
-245.990	800.000	-0.011	-0.035
-244.976	318.756	0.067	-0.125
-243.961	-45.292	0.074	0.036
-242.946	-180.533	-0.191	-0.004
-241.932	-88.816	-0.214	0.063
-240.917	43.502	0.050	-0.045
-239.903	76.882	-0.075	0.079
-238.888	126.029	0.153	-0.192
-237.873	123.275	0.196	-0.244
-236.859	-200.000	-0.320	0.000
-235.844	164.151	0.183	-0.256
-234.830	8.954	0.115	0.086
-233.815	32.453	0.273	0.234
-232.800	-200.000	0.001	0.109
-231.786	169.589	0.119	-0.168
-230.771	-84.418	-0.091	0.029
-229.757	-33.608	0.203	-0.111
-228.742	-186.797	0.082	0.001
-227.727	-32.211	-0.179	-0.099
-226.713	305.491	-0.102	0.188
-225.698	-132.071	0.132	0.017
-224.684	-93.046	-0.135	-0.037
-223.669	-62.475	-0.288	-0.118
-222.655	-105.995	0.117	-0.026
-221.640	457.373	-0.181	-0.397
-220.625	14.691	-0.220	0.170
-219.611	345.211	0.124	0.241
-218.596	800.000	0.023	-0.069
-217.582	-200.000	0.023	0.130
-216.567	-13.709	0.084	-0.053
-215.552	100.870	0.183	-0.211
-214.538	-100.618	0.106	0.026
-213.523	-200.000	0.022	-0.350
-212.509	-20.397	0.241	-0.147
-211.494	800.000	0.071	-0.251
-210.479	800.000	-0.022	-0.084
-209.465	61.441	0.160	0.157
-208.450	-90.033	0.208	0.060
-207.436	561.482	0.060	-0.143
-206.421	-200.000	0.022	-0.362
-205.406	-130.938	0.221	-0.029
-204.392	-69.927	0.176	0.066
-203.377	92.517	0.184	-0.205
-202.363	800.000	0.070	-0.288
-201.348	198.400	0.121	0.183
-200.333	566.455	-0.104	-0.249
-199.319	-18.449	-0.036	0.022
-198.304	-64.364	0.123	-0.049
-197.290	-135.627	-0.138	-0.016
-196.275	172.731	0.138	-0.196
-195.260	-200.000	-0.040	0.217
-194.246	27.024	-0.307	-0.255
-193.231	-200.000	-0.003	-0.142
-192.217	147.452	0.153	0.203
-191.202	403.118	0.028	0.058
-190.187	332.061	0.106	0.202
-189.173	-189.888	0.083	-0.001
-188.158	-99.743	-0.109	-0.027
-187.144	-25.437	0.290	0.169
-186.129	-15.352	0.196	0.124
-185.114	-81.207	0.228	0.074
-184.100	597.817	-0.023	0.057
-183.085	118.173	0.264	-0.321
-182.071	-48.805	0.380	0.180
-181.056	800.000	0.077	0.282
-180.042	-75.987	0.227	-0.079
-179.027	-55.516	0.070	0.031
-178.012	-123.408	0.196	0.031
-176.998	-200.000	-0.034	0.149
-175.983	-200.000	0.027	0.173
-174.969	55.568	0.018	0.017
-173.954	-61.965	0.128	-0.053
-172.939	-200.000	0.002	0.103
-171.925	-137.826	-0.159	-0.018
-170.910	-116.158	0.116	0.021
-169.896	-124.429	0.055	0.008
-168.881	-159.731	-0.217	0.012
-167.866	-200.000	0.047	0.306
-166.852	-178.675	0.323	-0.007
-165.837	127.563	0.103	-0.129
-164.823	-60.849	-0.242	-0.101
-163.808	-200.000	-0.015	0.154
-162.793	-143.237	-0.022	0.002
-161.779	95.027	-0.190	-0.214
-160.764	406.253	-0.016	0.032
-159.750	800.000	-0.007	-0.025
-158.735	-46.134	-0.192	0.093
-157.720	-129.920	-0.130	0.018
-156.706	-75.116	-0.172	-0.061
-155.691	800.000	-0.126	-0.394
-154.677	-200.000	0.044	0.349
-153.662	55.137	0.158	0.150
-152.647	192.464	0.205	-0.305
-151.633	-39.923	-0.054	-0.028
-150.618	14.404	-0.129	-0.099
-149.604	-55.832	0.229	0.101
-148.589	120.682	0.109	-0.134
-147.574	201.340	0.071	0.108
-146.560	-16.842	-0.171	0.107
-145.545	-11.509	0.077	0.050
-144.531	-200.000	0.021	0.196
-143.516	96.027	-0.296	0.333
-142.502	120.738	-0.086	-0.106
-141.487	800.000	-0.069	0.265
-140.472	135.990	0.112	0.144
-139.458	-200.000	-0.021	-0.204
-138.443	-76.841	0.020	-0.007
-137.429	-52.404	0.135	0.062
-136.414	800.000	-0.030	-0.104
-135.399	-200.000	-0.038	0.492
-134.385	800.000	0.100	0.306
-133.370	-141.158	-0.142	-0.014
-132.356	93.722	0.065	-0.073
-131.341	-15.748	-0.157	0.099
-130.326	-14.523	-0.247	-0.157
-129.312	359.822	0.078	-0.154
-128.297	32.315	-0.138	-0.117
-127.283	-108.642	0.075	0.016
-126.268	-31.070	0.169	-0.094
-125.253	-126.019	0.296	0.044
-124.239	482.322	0.166	-0.372
-123.224	-156.370	0.110	0.007
-122.210	-120.122	-0.195	0.033
