DTS Sentinel unit serial number:	SN413079Multiplexer serial number:	ORYXHardware model number:	OX4-SRSoftware version number:	ORYX F/W v4.00 Oryx Data Collector v3.7.2.0data status	okinstallation	princeton_trtdifferential loss correction	single-endedforward channel	channel 2reverse channel	N/Adate	2019/09/17time	17:47:35forward acquisition time	60.00reverse acquisition time	0.00gamma	496.2192k internal	0.2289k external	0.2289temperature offset calibration	0.9979default loss term (dB/km)	0.3790temperature slope calibration	1.0000multiplexer offset coefficient	1.0000multiplexer slope coefficient	1.0000fibre end	0.00T internal ref (°C)	43.44T ext. ref 1 (°C)	0.33T ext. ref 2 (°C)	38.71length (m)	temperature (°C)	Stokes	anti-Stokes-747.200	338.417	0.093	0.185
-746.185	577.605	-0.166	0.416
-745.171	800.000	0.023	0.100
-744.156	1.531	-0.130	-0.096
-743.142	73.210	0.288	-0.309
-742.127	33.018	-0.144	0.128
-741.112	38.017	-0.130	0.119
-740.098	-200.000	0.002	0.290
-739.083	-73.506	-0.351	0.131
-738.069	800.000	0.036	0.142
-737.054	-200.000	0.040	-0.186
-736.039	-200.000	0.036	-0.293
-735.025	-107.419	0.456	0.103
-734.010	-3.971	-0.100	-0.071
-732.996	-200.000	-0.008	-0.157
-731.981	167.264	0.061	-0.089
-730.966	41.091	-0.314	-0.291
-729.952	-72.271	-0.342	0.130
-728.937	-35.681	-0.198	-0.110
-727.923	2.552	-0.237	-0.176
-726.908	-200.000	-0.070	-0.537
-725.894	504.358	-0.137	0.324
-724.879	555.587	-0.017	-0.041
-723.864	93.694	-0.113	-0.131
-722.850	-174.492	-0.276	0.008
-721.835	70.732	-0.172	0.182
-720.821	189.190	-0.065	-0.100
-719.806	117.080	0.003	0.004
-718.791	42.172	0.130	0.121
-717.777	-9.565	-0.244	0.166
-716.762	-160.454	-0.136	-0.007
-715.748	-87.144	-0.135	-0.042
-714.733	-200.000	0.004	0.183
-713.718	-27.119	-0.068	0.041
-712.704	-99.475	-0.157	-0.041
-711.689	116.698	0.029	-0.036
-710.675	463.715	-0.051	0.117
-709.660	-151.857	0.165	0.012
-708.645	186.977	0.119	0.182
-707.631	-200.000	-0.016	-0.156
-706.616	-97.493	-0.158	0.042
-705.602	800.000	0.080	-0.261
-704.587	-126.309	0.139	0.021
-703.572	10.242	-0.073	-0.057
-702.558	-200.000	-0.014	0.091
-701.543	-115.322	-0.278	0.054
-700.529	-200.000	0.050	0.385
-699.514	-116.014	0.313	0.060
-698.499	113.021	-0.082	0.101
-697.485	-200.000	0.010	0.089
-696.470	-82.423	-0.265	-0.088
-695.456	800.000	0.049	-0.165
-694.441	-63.473	-0.115	0.048
-693.426	-137.754	0.232	0.027
-692.412	-151.295	0.213	0.016
-691.397	-1.600	-0.065	0.047
-690.383	-191.314	-0.193	0.002
-689.368	-149.299	0.224	-0.018
-688.354	378.265	-0.099	-0.208
-687.339	326.630	-0.185	-0.363
-686.324	178.628	0.104	-0.155
-685.310	800.000	-0.044	0.141
-684.295	-161.759	0.081	0.004
-683.281	74.120	0.047	-0.051
-682.266	-88.517	0.220	-0.067
-681.251	233.680	-0.051	-0.086
-680.237	800.000	-0.044	0.145
-679.222	-50.020	0.199	-0.097
-678.208	-20.819	0.320	-0.201
-677.193	-200.000	0.004	-0.051
-676.178	737.820	-0.077	-0.210
-675.164	494.246	-0.129	-0.303
-674.149	-166.044	0.196	0.009
-673.135	84.233	-0.129	0.144
-672.120	41.341	-0.031	0.029
-671.105	-125.219	0.150	0.024
-670.091	-46.999	0.378	0.189
-669.076	489.243	0.069	-0.161
-668.062	800.000	0.082	-0.239
-667.047	-132.474	0.119	-0.016
-666.032	58.881	0.189	0.190
-665.018	683.443	-0.008	-0.022
-664.003	-63.158	-0.143	-0.060
-662.989	-38.523	0.070	-0.038
-661.974	-139.330	-0.244	-0.027
-660.959	-77.230	-0.399	-0.142
-659.945	100.562	-0.015	0.018
-658.930	40.083	0.123	-0.113
-657.916	1.759	0.292	-0.215
-656.901	800.000	0.027	-0.112
-655.886	-83.860	-0.495	0.161
-654.872	800.000	-0.035	-0.136
-653.857	-139.081	-0.319	-0.035
-652.843	-88.695	-0.269	-0.082
-651.828	-36.416	-0.240	-0.132
-650.814	194.367	-0.142	-0.221
-649.799	-55.576	-0.224	-0.102
-648.784	169.945	-0.277	0.405
-647.770	329.506	0.131	0.258
-646.755	-191.829	0.217	0.002
-645.741	-112.350	-0.206	0.042
-644.726	-115.152	0.370	0.072
-643.711	-200.000	-0.007	0.093
-642.697	-152.734	0.150	0.011
-641.682	245.550	-0.110	-0.190
-640.668	-3.133	0.325	0.231
-639.653	800.000	0.085	-0.354
-638.638	-37.196	-0.165	0.090
-637.624	-101.642	0.100	-0.025
-636.609	-114.882	-0.189	-0.037
-635.595	-160.309	0.325	-0.018
-634.580	78.028	0.222	0.242
-633.565	702.867	0.008	-0.021
-632.551	-72.720	0.072	-0.027
-631.536	198.592	0.059	0.092
-630.522	-64.292	0.092	0.038
-629.507	-27.149	0.138	-0.082
-628.492	-132.262	0.189	-0.025
-627.478	-200.000	-0.008	0.117
-626.463	-20.119	-0.095	0.060
-625.449	143.865	-0.090	0.122
-624.434	-200.000	-0.181	-0.001
-623.419	110.145	0.082	-0.101
-622.405	-59.390	-0.171	-0.075
-621.390	190.651	-0.124	-0.191
-620.376	129.150	0.094	-0.122
-619.361	126.190	0.223	-0.288
-618.346	115.302	0.190	-0.236
-617.332	800.000	-0.065	-0.281
-616.317	800.000	-0.012	0.041
-615.303	-50.007	-0.394	-0.190
-614.288	-200.000	0.003	0.221
-613.273	-82.738	0.136	-0.045
-612.259	800.000	-0.086	0.370
-611.244	-184.809	-0.179	0.003
-610.230	769.920	-0.071	0.198
-609.215	59.517	-0.144	-0.145
-608.201	-174.434	0.255	-0.007
-607.186	-85.775	0.140	-0.044
-606.171	-66.253	-0.241	0.098
-605.157	800.000	-0.136	-0.387
-604.142	-178.238	-0.363	0.009
-603.128	150.975	0.100	0.138
-602.113	396.429	0.214	0.456
-601.098	-193.113	-0.302	-0.003
-600.084	121.496	-0.041	0.052
-599.069	-200.000	0.463	0.000
-598.055	800.000	-0.050	0.202
-597.040	-101.472	-0.050	-0.013
-596.025	-80.134	0.092	-0.032
-595.011	-103.557	0.224	-0.054
-593.996	-105.831	-0.081	0.019
-592.982	-149.233	-0.021	-0.002
-591.967	800.000	-0.025	-0.101
-590.952	-0.868	-0.141	0.101
-589.938	-95.776	-0.068	-0.018
-588.923	595.947	0.156	0.394
-587.909	-152.433	0.193	-0.014
-586.894	-200.000	0.058	-0.283
-585.879	24.432	0.144	-0.121
-584.865	645.499	-0.096	-0.250
-583.850	-30.807	0.410	-0.236
-582.836	-200.000	0.016	0.080
-581.821	-200.000	-0.042	-0.282
-580.806	-200.000	0.025	-0.204
-579.792	-200.000	0.013	-0.093
-578.777	126.078	0.043	-0.055
-577.763	158.554	-0.047	-0.066
-576.748	66.284	-0.140	0.144
-575.733	-12.729	0.220	0.146
-574.719	-200.000	0.011	0.222
-573.704	-94.607	0.079	0.022
-572.690	121.381	-0.205	-0.260
-571.675	-18.848	0.309	0.196
-570.661	-200.000	-0.026	-0.211
-569.646	800.000	0.061	-0.246
-568.631	-200.000	0.040	0.178
-567.617	-200.000	0.042	0.188
-566.602	-3.451	0.132	-0.094
-565.588	163.217	0.156	-0.223
-564.573	-200.000	-0.002	-0.048
-563.558	-4.076	0.127	0.089
-562.544	1.632	-0.241	0.177
-561.529	301.373	0.141	0.266
-560.515	54.994	0.123	0.121
-559.500	-108.333	-0.475	0.104
-558.485	144.909	0.173	-0.236
-557.471	9.665	-0.266	-0.205
-556.456	331.018	0.030	0.058
-555.442	-129.942	-0.280	-0.039
-554.427	-160.108	0.229	-0.013
-553.412	312.080	0.076	0.145
-552.398	800.000	0.031	0.116
-551.383	-200.000	-0.058	-0.340
-550.369	-200.000	-0.008	-0.230
-549.354	-126.686	-0.166	0.025
-548.339	-200.000	-0.012	-0.131
-547.325	0.798	-0.185	0.135
-546.310	800.000	0.044	-0.136
-545.296	-200.000	-0.037	-0.314
-544.281	-80.554	-0.200	0.068
-543.266	-140.525	0.440	-0.046
-542.252	22.083	-0.114	0.095
-541.237	-200.000	0.010	0.517
-540.223	-134.571	0.106	0.013
-539.208	0.903	-0.206	0.150
-538.193	-17.827	0.208	0.133
-537.179	800.000	-0.087	-0.252
-536.164	3.397	-0.191	0.142
-535.150	30.190	0.058	-0.050
-534.135	164.113	-0.115	0.165
-533.121	-200.000	0.009	0.287
-532.106	-57.967	0.288	0.128
-531.091	-103.789	0.249	0.059
-530.077	-170.746	0.159	-0.006
-529.062	-200.000	-0.041	-0.348
-528.048	-200.000	0.071	-0.487
-527.033	800.000	0.074	-0.228
-526.018	-55.979	0.228	-0.103
-525.004	-200.000	-0.013	0.065
-523.989	-81.642	0.082	-0.027
-522.975	-127.064	0.261	-0.039
-521.960	-30.826	-0.317	-0.182
-520.945	-54.444	-0.079	0.036
-519.931	-87.984	-0.242	-0.074
-518.916	-57.595	0.143	-0.064
-517.902	119.031	0.244	-0.306
-516.887	10.203	0.116	-0.090
-515.872	91.423	-0.073	-0.083
-514.858	41.824	0.116	-0.107
-513.843	-74.380	-0.214	0.079
-512.829	290.040	0.176	0.325
-511.814	379.498	0.070	-0.145
-510.799	362.470	-0.109	0.223
-509.785	-200.000	0.004	0.348
-508.770	-64.865	-0.019	-0.008
-507.756	-102.798	0.358	-0.087
-506.741	-163.655	0.268	-0.013
-505.726	-50.752	-0.410	0.196
-504.712	-4.854	-0.037	0.026
-503.697	105.173	0.166	-0.199
-502.683	-200.000	0.002	-0.203
-501.668	-138.584	-0.182	0.020
-500.653	259.806	0.139	0.244
-499.639	-118.683	0.167	-0.030
-498.624	66.053	0.111	-0.114
-497.610	30.326	-0.192	-0.166
-496.595	-73.570	-0.345	0.128
-495.581	-166.258	0.192	0.008
-494.566	376.764	-0.160	-0.331
-493.551	-66.111	0.059	0.024
-492.537	-107.503	0.365	0.081
-491.522	335.573	0.088	0.173
-490.508	249.532	-0.080	-0.138
-489.493	231.610	-0.161	-0.267
-488.478	784.479	-0.110	0.305
-487.464	730.486	-0.148	0.400
-486.449	49.155	0.267	-0.255
-485.435	169.436	-0.154	0.223
-484.420	-67.447	-0.189	-0.075
-483.405	-113.538	-0.028	0.006
-482.391	-118.728	-0.350	0.063
-481.376	138.918	0.085	0.113
-480.362	510.727	0.089	-0.209
-479.347	-68.644	-0.264	0.104
-478.332	-126.370	0.226	0.034
-477.318	-200.000	-0.056	0.264
-476.303	79.307	-0.060	0.066
-475.289	-170.784	0.181	0.006
-474.274	-200.000	-0.019	0.093
-473.259	269.706	-0.154	-0.274
-472.245	185.156	-0.143	-0.215
-471.230	-121.653	-0.023	-0.004
-470.216	362.304	-0.028	0.056
-469.201	-200.000	-0.025	0.151
-468.186	-136.218	-0.227	-0.027
-467.172	28.354	0.156	0.133
-466.157	-174.151	-0.162	-0.005
-465.143	31.408	-0.191	-0.166
-464.128	-200.000	-0.026	0.145
-463.113	18.268	-0.124	-0.101
-462.099	428.842	0.098	-0.216
-461.084	-158.210	-0.282	0.017
-460.070	237.029	0.134	-0.225
-459.055	586.110	-0.111	0.276
-458.040	258.842	0.154	0.268
-457.026	-73.652	-0.059	0.022
-456.011	-61.637	0.389	0.165
-454.997	106.647	0.186	-0.224
-453.982	800.000	-0.046	-0.130
-452.968	3.476	-0.021	0.016
-451.953	156.455	-0.084	0.118
-450.938	-148.646	-0.123	-0.010
-449.924	326.497	-0.051	0.100
-448.909	-65.142	-0.101	0.041
-447.895	-200.000	-0.033	0.229
-446.880	-72.638	0.258	-0.096
-445.865	-165.849	-0.438	0.019
-444.851	-122.788	-0.382	0.063
-443.836	32.869	0.161	-0.141
-442.822	-98.939	0.148	0.038
-441.807	-200.000	0.008	0.189
-440.792	467.153	0.023	-0.051
-439.778	-128.569	0.246	-0.035
-438.763	183.539	-0.157	0.236
-437.749	-41.891	-0.092	-0.048
-436.734	644.226	0.053	-0.136
-435.719	-164.647	-0.251	-0.011
-434.705	-16.108	-0.218	0.140
-433.690	120.404	-0.164	0.206
-432.676	24.106	-0.059	0.050
-431.661	800.000	0.138	-0.452
-430.646	360.891	0.319	-0.646
-429.632	800.000	-0.008	-0.031
-428.617	21.805	-0.163	-0.135
-427.603	86.986	-0.156	-0.174
-426.588	-150.927	0.147	0.011
-425.573	33.609	0.265	-0.233
-424.559	800.000	0.045	-0.151
-423.544	24.981	-0.006	0.005
-422.530	-144.931	0.039	0.004
-421.515	82.570	0.041	0.045
-420.500	-78.577	-0.304	-0.105
-419.486	-83.171	0.132	0.043
-418.471	-22.440	0.167	0.103
-417.457	283.707	-0.193	-0.351
-416.442	-134.535	-0.296	-0.037
-415.428	-44.741	0.279	-0.141
-414.413	384.453	-0.131	-0.273
-413.398	85.367	0.074	-0.082
-412.384	-141.832	0.165	-0.017
-411.369	-129.296	-0.243	-0.034
-410.355	-200.000	0.056	0.250
-409.340	76.431	-0.126	-0.135
-408.325	-44.563	-0.163	-0.082
-407.311	-147.495	0.039	-0.003
-406.296	-63.293	0.305	0.127
-405.282	-109.173	-0.040	0.009
-404.267	-200.000	0.024	0.162
-403.252	-200.000	-0.042	-0.254
-402.238	-179.088	-0.042	-0.001
-401.223	-144.876	0.039	0.004
-400.209	99.240	0.038	0.044
-399.194	-90.311	-0.249	-0.073
-398.179	322.110	0.089	0.171
-397.165	-129.467	-0.011	-0.002
-396.150	570.501	0.117	0.288
-395.136	108.146	-0.247	0.298
-394.121	14.434	-0.183	-0.145
-393.106	133.757	-0.083	0.108
-392.092	-17.365	-0.233	0.149
-391.077	-86.883	0.126	-0.039
-390.063	800.000	0.082	-0.251
-389.048	-42.814	-0.134	-0.069
-388.033	50.214	-0.295	-0.281
-387.019	-156.271	0.107	0.007
-386.004	-85.606	0.359	0.113
-384.990	-200.000	-0.024	0.182
-383.975	184.025	0.305	-0.456
-382.960	216.474	0.155	-0.250
-381.946	800.000	0.115	0.343
-380.931	-200.000	0.061	-0.317
-379.917	92.907	0.163	-0.186
-378.902	246.030	0.099	-0.168
-377.888	1.381	0.183	0.133
-376.873	132.267	0.085	0.110
-375.858	-42.639	0.354	-0.182
-374.844	74.085	0.178	-0.189
-373.829	-200.000	-0.008	0.046
-372.815	-166.539	0.066	0.003
-371.800	400.506	0.092	-0.195
-370.785	708.183	0.091	0.244
-369.771	-150.224	-0.199	0.016
-368.756	295.729	0.106	-0.197
-367.742	-200.000	0.007	-0.169
-366.727	172.767	-0.241	0.350
-365.712	800.000	0.005	0.017
-364.698	62.794	-0.120	-0.122
-363.683	274.401	0.236	0.421
-362.669	-200.000	-0.035	-0.186
-361.654	-27.154	-0.190	-0.112
-360.639	-200.000	-0.019	-0.397
-359.625	-200.000	-0.005	0.267
-358.610	21.050	-0.238	0.195
-357.596	55.762	0.078	-0.076
-356.581	-87.234	-0.132	0.040
-355.566	-118.159	0.068	0.012
-354.552	-39.797	-0.263	-0.139
-353.537	-147.161	0.168	0.014
-352.523	475.162	0.084	0.192
-351.508	-200.000	0.005	-0.313
-350.493	-67.578	-0.354	-0.140
-349.479	-107.729	-0.157	-0.034
-348.464	342.637	0.052	-0.102
-347.450	348.733	-0.070	-0.140
-346.435	128.216	0.225	0.289
-345.420	800.000	0.023	-0.068
-344.406	-4.691	0.218	0.152
-343.391	-60.451	-0.125	-0.053
-342.377	236.345	0.077	-0.129
-341.362	200.077	0.184	0.285
-340.348	337.098	-0.070	-0.138
-339.333	-46.816	0.340	0.168
-338.318	-200.000	-0.042	0.272
-337.304	18.809	0.126	-0.102
-336.289	183.794	0.025	0.037
-335.275	75.791	0.078	-0.083
-334.260	-157.581	0.306	0.018
-333.245	-200.000	0.000	-0.164
-332.231	-118.711	-0.138	-0.025
-331.216	42.705	0.064	-0.059
-330.202	-125.252	0.090	0.014
-329.187	-67.649	-0.208	0.082
-328.172	67.380	-0.221	-0.227
-327.158	-32.944	-0.198	-0.111
-326.143	125.747	-0.169	-0.215
-325.129	-200.000	-0.018	0.283
-324.114	141.144	0.166	-0.222
-323.099	3.408	0.301	0.221
-322.085	52.788	-0.216	-0.209
-321.070	-17.905	0.210	-0.133
-320.056	800.000	0.156	-0.514
-319.041	-65.977	-0.352	-0.142
-318.026	800.000	-0.073	-0.206
-317.012	143.238	0.125	-0.168
-315.997	25.013	0.418	0.350
-314.983	-200.000	0.021	0.189
-313.968	-186.617	0.100	0.001
-312.953	524.326	-0.101	0.239
-311.939	-28.837	-0.254	0.147
-310.924	800.000	0.073	0.291
-309.910	-200.000	0.051	-0.392
-308.895	465.616	0.099	0.223
-307.880	800.000	0.097	0.413
-306.866	-159.914	0.117	0.006
-305.851	-54.076	-0.214	0.098
-304.837	268.917	-0.094	0.166
-303.822	221.098	-0.134	-0.217
-302.807	27.379	-0.191	-0.162
-301.793	513.730	0.077	0.180
-300.778	-31.806	0.092	0.052
-299.764	116.653	-0.023	-0.028
-298.749	282.707	-0.032	0.057
-297.735	125.471	0.077	0.098
-296.720	-75.427	0.171	0.061
-295.705	17.214	-0.163	-0.130
-294.691	-131.324	-0.223	0.030
-293.676	-200.000	-0.012	0.139
-292.662	-108.759	0.254	0.055
-291.647	82.603	0.303	-0.331
-290.632	80.561	-0.062	0.067
-289.618	-9.775	-0.306	0.205
-288.603	-197.432	-0.273	0.002
-287.589	369.589	0.009	-0.019
-286.574	800.000	0.063	0.203
-285.559	150.388	-0.122	0.166
-284.545	-18.247	-0.380	0.239
-283.530	-58.237	0.127	0.056
-282.516	-62.843	-0.273	-0.114
-281.501	298.194	-0.157	-0.290
-280.486	-102.107	0.163	0.040
-279.472	-52.115	-0.455	-0.213
-278.457	-94.698	-0.287	-0.079
-277.443	213.091	0.072	0.114
-276.428	240.443	-0.087	0.146
-275.413	-200.000	0.013	-0.114
-274.399	800.000	0.045	0.129
-273.384	41.118	0.056	0.051
-272.370	215.510	-0.118	-0.189
-271.355	800.000	-0.052	0.174
-270.340	800.000	-0.047	-0.167
-269.326	511.753	-0.112	0.262
-268.311	-200.000	-0.019	0.155
-267.297	-200.000	0.028	0.142
-266.282	296.556	0.181	-0.334
-265.267	-24.223	-0.168	-0.101
-264.253	110.637	-0.246	0.298
-263.238	190.671	-0.041	-0.061
-262.224	-149.466	0.272	-0.022
-261.209	-122.243	-0.128	0.021
-260.195	-192.587	0.041	0.000
-259.180	-115.115	0.103	-0.020
-258.165	11.272	0.185	0.143
-257.151	-6.299	0.136	0.093
-256.136	155.955	-0.087	-0.120
-255.122	-81.843	-0.072	-0.024
-254.107	404.717	-0.040	-0.084
-253.092	-26.234	-0.220	-0.130
-252.078	-167.154	0.267	-0.011
-251.063	208.215	0.094	-0.148
-250.049	504.875	0.048	0.112
-249.034	-200.000	0.038	0.326
-248.019	-186.543	-0.025	-0.000
-247.005	108.642	-0.133	-0.160
-245.990	73.457	-0.216	0.228
-244.976	-200.000	0.003	0.235
-243.961	56.828	-0.231	0.227
-242.946	800.000	0.094	0.403
-241.932	48.362	-0.107	0.101
-240.917	762.529	-0.105	-0.286
-239.903	338.945	0.084	-0.164
-238.888	-1.344	0.125	0.089
-237.873	-200.000	0.026	-0.211
-236.859	-25.398	0.182	0.108
-235.844	-200.000	-0.019	0.158
-234.830	-21.527	0.299	-0.183
-233.815	145.541	0.152	-0.205
-232.800	-68.216	0.295	-0.115
-231.786	-99.228	0.193	-0.049
-230.771	-200.000	0.007	0.231
-229.757	-68.365	0.298	0.116
-228.742	800.000	0.042	0.127
-227.727	-70.189	-0.352	-0.134
-226.713	-200.000	-0.033	-0.158
-225.698	-87.185	-0.280	0.085
-224.684	-85.170	-0.310	0.097
-223.669	2.464	-0.197	-0.143
-222.655	21.579	0.033	-0.027
-221.640	241.136	0.220	-0.369
-220.625	-54.665	0.224	0.102
-219.611	800.000	0.031	0.105
-218.596	399.467	0.115	0.242
-217.582	-145.849	0.342	0.031
-216.567	77.967	0.148	-0.158
-215.552	-46.957	-0.074	-0.036
-214.538	29.533	0.067	0.058
-213.523	531.495	-0.109	0.260
-212.509	-79.895	-0.202	0.068
-211.494	-200.000	0.006	-0.037
-210.479	41.632	0.099	0.090
-209.465	-200.000	0.001	0.261
-208.450	-181.820	0.428	-0.008
-207.436	46.055	0.110	-0.102
-206.421	-23.624	-0.326	-0.197
-205.406	1.827	-0.040	-0.029
-204.392	358.104	0.070	0.141
-203.377	64.406	0.295	0.298
-202.363	800.000	-0.022	0.075
-201.348	190.295	0.018	-0.028
-200.333	-124.543	-0.201	0.031
-199.319	-200.000	-0.024	0.214
-198.304	-81.568	-0.445	-0.147
-197.290	20.941	-0.024	0.019
-196.275	-3.178	-0.102	0.071
-195.260	414.203	-0.139	0.297
-194.246	-87.793	0.393	-0.119
-193.231	-152.347	-0.231	0.017
-192.217	-7.391	0.199	0.135
-191.202	-200.000	-0.030	-0.256
-190.187	-37.878	-0.298	-0.159
-189.173	421.527	0.056	0.121
-188.158	-200.000	-0.022	-0.104
-187.144	-167.875	-0.187	0.007
-186.129	175.191	-0.159	0.231
-185.114	652.548	-0.052	0.134
-184.100	246.919	-0.088	0.149
-183.085	103.478	0.192	0.226
-182.071	-200.000	0.011	0.161
-181.056	-18.150	-0.214	0.134
-180.042	51.654	0.184	-0.175
-179.027	221.018	0.077	-0.124
-178.012	-18.664	0.064	-0.040
-176.998	-200.000	0.087	-0.434
-175.983	194.696	-0.095	-0.144
-174.969	139.676	0.118	0.156
-173.954	-90.367	0.179	0.052
-172.939	3.343	-0.285	0.208
-171.925	-87.165	-0.252	-0.077
-170.910	-99.306	-0.267	0.067
-169.896	-2.653	-0.425	0.298
-168.881	119.303	0.287	0.356
-167.866	81.013	-0.015	-0.016
-166.852	188.993	0.102	-0.154
-165.837	18.623	-0.130	0.105
-164.823	150.182	-0.045	-0.061
-163.808	-15.988	-0.260	0.166
-162.793	242.675	-0.109	0.182
-161.779	-200.000	-0.022	-0.182
-160.764	-200.000	-0.005	-0.145
-159.750	363.268	-0.052	0.105
-158.735	-65.609	0.270	-0.108
-157.720	642.235	0.110	-0.281
-156.706	-86.955	-0.287	0.088
-155.691	-19.277	-0.148	0.092
-154.677	221.670	0.161	0.258
-153.662	800.000	0.025	0.082
-152.647	248.035	0.166	-0.281
-151.633	-47.312	0.252	-0.123
-150.618	-142.220	0.273	-0.027
-149.604	294.611	-0.139	0.255
-148.589	11.285	0.086	-0.066
-147.574	49.791	0.168	-0.159
-146.560	289.718	-0.016	-0.030
-145.545	141.197	-0.074	-0.098
-144.531	103.334	-0.044	-0.051
-143.516	-107.877	0.154	-0.034
-142.502	-64.223	-0.258	-0.105
-141.487	800.000	0.013	-0.053
-140.472	19.429	-0.104	-0.084
-139.458	-151.828	0.391	-0.029
-138.443	800.000	-0.042	0.153
-137.429	284.772	-0.034	-0.060
-136.414	54.717	-0.146	-0.141
-135.399	-69.335	-0.305	-0.117
-134.385	175.585	-0.244	-0.354
-133.370	-44.782	0.319	-0.159
-132.356	-74.067	0.363	0.132
-131.341	-200.000	-0.002	-0.255
-130.326	28.824	-0.147	-0.125
-129.312	-83.382	0.082	-0.026
-128.297	2.079	-0.034	-0.025
-127.283	-157.382	0.292	0.018
-126.268	-200.000	0.002	-0.036
-125.253	-200.000	-0.036	-0.414
-124.239	-193.553	-0.131	0.001
-123.224	94.975	-0.307	0.349
-122.210	-200.000	0.064	-0.347
-121.195	525.288	0.090	-0.212
