DTS Sentinel unit serial number:	SN413079Multiplexer serial number:	ORYXHardware model number:	OX4-SRSoftware version number:	ORYX F/W v4.00 Oryx Data Collector v3.7.2.0data status	okinstallation	princeton_trtdifferential loss correction	single-endedforward channel	channel 2reverse channel	N/Adate	2019/09/19time	10:35:35forward acquisition time	60.00reverse acquisition time	0.00gamma	496.2192k internal	0.2342k external	0.2342temperature offset calibration	1.0009default loss term (dB/km)	0.3790temperature slope calibration	1.0000multiplexer offset coefficient	1.0000multiplexer slope coefficient	1.0000fibre end	0.00T internal ref (°C)	24.47T ext. ref 1 (°C)	0.73T ext. ref 2 (°C)	19.98length (m)	temperature (°C)	Stokes	anti-Stokes-747.200	-47.551	-0.079	-0.039
-746.185	-65.131	-0.262	-0.106
-745.171	-200.000	0.054	0.366
-744.156	-143.803	0.116	-0.011
-743.142	587.748	-0.046	0.113
-742.127	3.859	-0.555	0.406
-741.112	261.381	-0.113	-0.197
-740.098	-200.000	-0.041	0.358
-739.083	-163.680	-0.292	-0.014
-738.069	-33.482	-0.580	0.321
-737.054	-132.233	-0.088	0.011
-736.039	179.667	-0.135	-0.198
-735.025	212.653	-0.075	0.119
-734.010	800.000	-0.077	0.235
-732.996	-38.389	-0.260	-0.138
-731.981	-142.735	0.061	-0.006
-730.966	-200.000	-0.034	-0.161
-729.952	-121.705	0.085	-0.014
-728.937	-200.000	0.015	0.092
-727.923	-22.579	-0.211	-0.128
-726.908	2.811	0.044	-0.032
-725.894	54.642	0.130	-0.126
-724.879	321.615	0.111	-0.212
-723.864	551.818	-0.095	-0.229
-722.850	-200.000	-0.016	-0.292
-721.835	115.067	0.164	0.201
-720.821	174.918	-0.229	0.332
-719.806	730.489	0.052	0.140
-718.791	101.707	-0.074	-0.086
-717.777	-64.744	0.249	0.101
-716.762	449.002	-0.132	0.292
-715.748	21.227	0.114	0.092
-714.733	1.139	0.126	-0.090
-713.718	800.000	-0.051	-0.161
-712.704	-135.481	-0.005	-0.001
-711.689	450.780	-0.095	-0.209
-710.675	-121.698	0.489	0.081
-709.660	800.000	-0.032	0.104
-708.645	-173.582	0.080	0.002
-707.631	19.395	-0.095	-0.076
-706.616	76.790	0.134	0.142
-705.602	-200.000	0.020	-0.252
-704.587	-200.000	-0.025	0.337
-703.572	-45.822	-0.150	0.074
-702.558	-67.953	0.103	-0.040
-701.543	345.194	0.046	-0.090
-700.529	293.313	-0.103	0.188
-699.514	33.068	0.225	-0.195
-698.499	514.880	0.102	0.238
-697.485	104.501	0.025	-0.029
-696.470	800.000	0.042	0.162
-695.456	18.272	0.171	-0.136
-694.441	-77.041	-0.241	0.084
-693.426	800.000	-0.068	-0.247
-692.412	-200.000	0.012	-0.150
-691.397	-200.000	-0.010	0.397
-690.383	114.101	0.083	-0.101
-689.368	123.902	-0.076	-0.095
-688.354	275.863	0.098	0.174
-687.339	-60.933	0.137	-0.058
-686.324	800.000	0.013	-0.047
-685.310	800.000	0.057	-0.227
-684.295	-157.111	-0.213	0.013
-683.281	800.000	-0.083	-0.260
-682.266	-136.926	-0.119	-0.014
-681.251	-86.712	-0.090	0.028
-680.237	-200.000	-0.002	-0.196
-679.222	-200.000	0.012	0.272
-678.208	-200.000	0.083	0.378
-677.193	276.780	-0.098	-0.174
-676.178	53.632	-0.197	0.189
-675.164	-7.541	0.162	-0.109
-674.149	-200.000	-0.044	-0.231
-673.135	-102.609	0.215	0.051
-672.120	107.804	0.107	0.128
-671.105	182.431	0.102	0.150
-670.091	-27.153	-0.210	0.122
-669.076	27.441	0.623	0.523
-668.062	505.234	-0.155	0.359
-667.047	-143.895	0.123	0.012
-666.032	-93.881	-0.148	0.041
-665.018	97.239	0.055	-0.063
-664.003	-200.000	0.005	0.084
-662.989	121.784	0.049	-0.061
-661.974	-126.268	0.030	-0.004
-660.959	-136.305	-0.308	-0.036
-659.945	51.559	-0.249	0.236
-658.930	-200.000	-0.066	0.426
-657.916	800.000	-0.124	-0.367
-656.901	-200.000	0.019	-0.198
-655.886	-128.751	-0.118	0.017
-654.872	106.439	-0.163	0.193
-653.857	-0.960	-0.051	0.036
-652.843	800.000	0.098	0.336
-651.828	800.000	-0.068	0.257
-650.814	28.010	0.135	0.114
-649.799	800.000	-0.121	-0.495
-648.784	68.363	0.108	0.110
-647.770	214.996	0.145	-0.230
-646.755	-153.369	-0.192	0.013
-645.741	-5.170	0.130	-0.090
-644.726	-200.000	-0.004	-0.190
-643.711	800.000	0.079	-0.265
-642.697	-62.758	-0.170	0.070
-641.682	-141.993	-0.149	-0.015
-640.668	271.804	0.189	0.332
-639.653	-200.000	-0.001	0.082
-638.638	-136.207	-0.482	0.056
-637.624	64.989	-0.216	-0.218
-636.609	800.000	-0.041	-0.167
-635.595	800.000	-0.120	0.353
-634.580	-19.856	0.365	0.225
-633.565	-105.290	-0.300	0.068
-632.551	-95.936	-0.214	-0.057
-631.536	58.274	0.133	-0.130
-630.522	197.174	-0.202	0.308
-629.507	55.348	0.247	-0.239
-628.492	58.145	0.281	-0.274
-627.478	-56.234	-0.095	0.042
-626.463	140.228	-0.138	-0.181
-625.449	469.810	-0.052	0.116
-624.434	118.654	0.094	-0.116
-623.419	74.897	0.116	-0.122
-622.405	-200.000	0.018	0.201
-621.390	266.063	-0.173	-0.301
-620.376	-102.617	-0.519	0.123
-619.361	-2.805	0.069	-0.048
-618.346	-130.237	-0.097	-0.013
-617.332	-12.893	-0.298	0.193
-616.317	-200.000	-0.015	-0.233
-615.303	344.825	-0.086	-0.168
-614.288	463.353	-0.030	0.066
-613.273	-22.174	0.276	-0.167
-612.259	184.536	0.085	0.125
-611.244	640.688	-0.047	-0.120
-610.230	-16.227	-0.296	0.187
-609.215	-173.128	-0.205	0.006
-608.201	800.000	-0.046	-0.139
-607.186	-200.000	-0.011	0.082
-606.171	510.341	0.047	-0.108
-605.157	800.000	-0.037	0.147
-604.142	-96.585	-0.394	0.104
-603.128	-187.768	-0.225	-0.003
-602.113	114.759	-0.206	0.250
-601.098	-55.491	0.169	-0.076
-600.084	512.431	-0.086	-0.199
-599.069	800.000	0.044	0.179
-598.055	-122.953	-0.099	-0.016
-597.040	800.000	0.053	0.164
-596.025	211.844	-0.141	0.221
-595.011	-14.274	0.325	0.209
-593.996	-31.187	-0.073	-0.041
-592.982	85.228	-0.127	0.139
-591.967	800.000	0.074	0.296
-590.952	-200.000	-0.008	0.229
-589.938	-176.104	0.090	-0.002
-588.923	-24.149	-0.068	0.040
-587.909	-26.904	0.153	0.089
-586.894	3.662	0.119	0.086
-585.879	-69.673	-0.183	-0.070
-584.865	-95.157	-0.228	-0.061
-583.850	-56.852	0.123	0.054
-582.836	-121.877	0.263	0.043
-581.821	46.709	-0.349	0.323
-580.806	-109.407	-0.317	-0.067
-579.792	800.000	0.056	-0.196
-578.777	147.934	-0.185	-0.248
-577.763	800.000	0.041	0.124
-576.748	297.531	-0.240	-0.439
-575.733	254.960	0.221	-0.377
-574.719	2.169	-0.204	0.146
-573.704	265.248	0.113	0.196
-572.690	-200.000	-0.001	0.121
-571.675	-109.584	-0.071	-0.015
-570.661	-53.513	0.305	-0.139
-569.646	27.130	-0.123	-0.102
-568.631	-200.000	0.024	-0.163
-567.617	-32.883	0.249	-0.137
-566.602	11.201	-0.084	-0.064
-565.588	-200.000	0.035	-0.245
-564.573	-44.310	0.057	-0.029
-563.558	-95.220	-0.241	-0.065
-562.544	40.674	0.212	0.190
-561.529	-70.157	-0.295	-0.111
-560.515	-46.548	0.068	-0.033
-559.500	-47.399	-0.343	-0.166
-558.485	27.494	0.280	0.234
-557.471	800.000	-0.061	-0.182
-556.456	132.555	-0.066	-0.084
-555.442	800.000	-0.143	-0.445
-554.427	-103.868	-0.190	-0.044
-553.412	-200.000	-0.001	-0.168
-552.398	270.781	-0.100	0.175
-551.383	306.037	-0.224	0.414
-550.369	-30.752	-0.320	-0.180
-549.354	-107.818	0.503	-0.109
-548.339	-134.687	0.167	0.020
-547.325	-25.652	-0.309	0.181
-546.310	-134.496	0.169	0.020
-545.296	-141.143	-0.295	0.030
-544.281	800.000	-0.036	0.139
-543.266	158.473	0.129	0.178
-542.252	101.264	-0.190	-0.219
-541.237	-9.882	-0.186	-0.123
-540.223	114.126	-0.155	-0.188
-539.208	-200.000	-0.024	-0.133
-538.193	94.525	-0.063	0.072
-537.179	800.000	0.053	-0.211
-536.164	-144.759	-0.344	-0.031
-535.150	281.542	0.051	0.091
-534.135	-152.633	-0.148	-0.011
-533.121	-62.294	-0.254	-0.105
-532.106	-21.533	0.211	-0.128
-531.091	-131.040	-0.081	-0.011
-530.077	800.000	0.063	0.214
-529.062	-114.947	-0.012	-0.002
-528.048	-19.120	0.065	-0.040
-527.033	-49.480	0.218	-0.103
-526.018	89.987	-0.241	0.267
-525.004	116.061	0.125	0.152
-523.989	-1.794	-0.289	0.202
-522.975	631.515	-0.081	0.203
-521.960	-106.022	-0.074	-0.016
-520.945	70.579	0.128	-0.132
-519.931	30.287	0.166	0.141
-518.916	411.620	0.080	0.168
-517.902	-200.000	0.001	0.280
-516.887	-200.000	-0.017	-0.187
-515.872	-108.267	0.133	0.028
-514.858	-200.000	0.017	0.232
-513.843	71.473	-0.183	-0.189
-512.829	-43.025	0.247	-0.124
-511.814	-200.000	0.041	0.274
-510.799	-99.945	-0.244	-0.061
-509.785	-2.698	-0.065	-0.045
-508.770	-154.212	0.086	0.006
-507.756	215.798	0.105	-0.166
-506.741	-148.482	0.208	0.017
-505.726	53.814	-0.110	0.105
-504.712	-54.079	0.251	-0.113
-503.697	195.602	0.041	0.062
-502.683	-200.000	0.037	0.490
-501.668	-53.064	-0.362	0.165
-500.653	-200.000	-0.005	-0.268
-499.639	800.000	0.032	-0.098
-498.624	-66.723	0.277	-0.109
-497.610	-103.026	0.114	-0.027
-496.595	147.707	0.108	-0.144
-495.581	-95.856	0.273	-0.072
-494.566	45.604	0.136	-0.124
-493.551	800.000	0.036	0.151
-492.537	24.961	0.231	0.190
-491.522	180.562	-0.148	-0.215
-490.508	800.000	0.036	-0.102
-489.493	-140.132	-0.106	-0.011
-488.478	-50.579	-0.147	-0.069
-487.464	-200.000	-0.022	-0.211
-486.449	-27.967	0.035	0.020
-485.435	-200.000	-0.024	-0.409
-484.420	800.000	0.122	-0.411
-483.405	800.000	-0.074	-0.210
-482.391	-163.706	0.308	-0.014
-481.376	15.746	-0.273	-0.213
-480.362	-200.000	-0.038	-0.191
-479.347	660.564	-0.038	0.097
-478.332	262.578	-0.035	-0.061
-477.318	-6.849	0.254	-0.171
-476.303	-33.532	0.203	-0.111
-475.289	312.383	0.155	-0.288
-474.274	800.000	-0.049	0.168
-473.259	800.000	0.057	-0.165
-472.245	113.363	-0.177	-0.213
-471.230	14.800	-0.268	0.208
-470.216	-140.372	0.370	-0.038
-469.201	800.000	-0.059	0.220
-468.186	-200.000	0.011	0.131
-467.172	-102.552	0.152	0.036
-466.157	48.249	0.129	-0.120
-465.143	-56.175	0.332	0.146
-464.128	145.684	-0.316	-0.420
-463.113	-200.000	0.083	0.376
-462.099	800.000	0.041	0.124
-461.084	-79.556	-0.153	0.051
-460.070	422.893	-0.078	-0.166
-459.055	-82.804	-0.103	-0.033
-458.040	-77.692	0.139	0.048
-457.026	-176.322	0.051	-0.001
-456.011	-200.000	0.049	0.243
-454.997	-93.822	0.256	-0.070
-453.982	67.699	0.192	-0.194
-452.968	-200.000	0.006	0.128
-451.953	-116.784	0.083	0.015
-450.938	174.094	0.127	-0.182
-449.924	36.874	0.317	-0.278
-448.909	158.923	0.113	-0.155
-447.895	158.441	0.188	-0.258
-446.880	56.006	-0.320	0.307
-445.865	-20.520	-0.218	-0.133
-444.851	-16.636	-0.390	-0.244
-443.836	205.373	0.169	0.261
-442.822	800.000	-0.102	0.368
-441.807	72.390	-0.134	-0.139
-440.792	539.051	-0.078	-0.184
-439.778	12.221	0.154	0.118
-438.763	185.050	-0.128	-0.187
-437.749	7.345	-0.115	-0.085
-436.734	102.877	0.176	0.204
-435.719	800.000	0.067	-0.214
-434.705	-89.863	0.394	-0.114
-433.690	118.125	-0.273	0.333
-432.676	-200.000	0.007	-0.091
-431.661	-200.000	-0.086	-0.000
-430.646	800.000	-0.064	-0.251
-429.632	163.791	-0.108	0.150
-428.617	-118.323	0.249	0.044
-427.603	464.659	0.108	0.239
-426.588	84.370	0.087	0.095
-425.573	-72.509	0.219	-0.080
-424.559	-172.068	-0.098	0.003
-423.544	-200.000	-0.000	0.488
-422.530	9.865	-0.093	0.070
-421.515	71.135	0.329	-0.338
-420.500	302.285	-0.063	-0.115
-419.486	-37.487	0.127	0.067
-418.471	146.658	-0.257	0.342
-417.457	-200.000	0.004	-0.137
-416.442	229.018	-0.141	-0.228
-415.428	-161.097	0.198	0.010
-414.413	-99.640	-0.353	-0.088
-413.398	-196.654	0.112	-0.001
-412.384	-200.000	0.069	0.370
-411.369	800.000	0.022	-0.070
-410.355	800.000	-0.070	0.243
-409.340	133.936	0.037	-0.047
-408.325	-88.821	-0.191	-0.056
-407.311	8.751	0.021	-0.016
-406.296	-19.848	0.273	0.167
-405.282	282.884	-0.104	-0.184
-404.267	29.499	0.166	0.140
-403.252	-152.531	-0.233	0.016
-402.238	-54.380	0.084	0.038
-401.223	-30.761	0.176	0.099
-400.209	-15.925	0.267	-0.168
-399.194	-126.576	-0.156	0.023
-398.179	120.768	-0.260	-0.320
-397.165	689.745	0.121	-0.312
-396.150	-139.643	0.310	0.033
-395.136	-63.904	0.419	-0.169
-394.121	86.307	-0.114	0.124
-393.106	800.000	0.041	-0.152
-392.092	-118.746	0.299	-0.052
-391.077	36.479	-0.063	0.055
-390.063	-156.582	0.091	-0.006
-389.048	800.000	-0.031	-0.109
-388.033	645.702	-0.075	-0.190
-387.019	800.000	-0.084	0.239
-386.004	-89.822	-0.067	0.019
-384.990	-34.087	-0.136	-0.074
-383.975	90.726	0.063	0.070
-382.960	245.712	-0.152	0.252
-381.946	-102.814	-0.241	-0.057
-380.931	-200.000	0.004	0.298
-379.917	272.071	-0.125	-0.217
-378.902	-72.472	-0.078	0.028
-377.888	800.000	-0.098	0.295
-376.873	11.690	-0.173	-0.131
-375.858	-200.000	-0.040	-0.176
-374.844	-84.873	0.424	0.131
-373.829	215.318	0.113	0.176
-372.815	211.893	-0.188	-0.292
-371.800	-108.969	-0.284	-0.060
-370.785	52.187	0.210	0.198
-369.771	-200.000	0.026	0.314
-368.756	-200.000	-0.014	-0.123
-367.742	314.750	0.095	-0.176
-366.727	-176.565	0.251	-0.006
-365.712	78.011	-0.094	0.098
-364.698	-17.514	-0.320	-0.199
-363.683	-75.996	-0.258	0.090
-362.669	284.983	0.055	0.098
-361.654	22.105	0.295	0.238
-360.639	536.919	-0.089	-0.209
-359.625	-162.633	-0.058	-0.003
-358.610	-200.000	0.009	0.078
-357.596	-109.262	-0.213	0.045
-356.581	800.000	0.149	0.407
-355.566	58.137	-0.265	0.256
-354.552	-200.000	-0.113	-0.633
-353.537	-162.858	-0.075	0.004
-352.523	800.000	-0.046	0.154
-351.508	-17.333	0.186	0.116
-350.493	800.000	0.060	-0.235
-349.479	32.968	0.058	-0.050
-348.464	-200.000	-0.009	-0.103
-347.450	-200.000	-0.037	0.186
-346.435	251.250	-0.224	-0.376
-345.420	-200.000	-0.028	0.331
-344.406	-130.647	0.271	0.036
-343.391	149.040	-0.145	-0.194
-342.377	95.250	0.166	-0.187
-341.362	-86.385	-0.117	0.035
-340.348	-127.275	-0.151	-0.022
-339.333	-64.847	-0.251	0.100
-338.318	0.294	-0.379	0.267
-337.304	-159.090	0.399	-0.022
-336.289	-64.553	0.111	0.044
-335.275	2.630	0.130	0.093
-334.260	-61.600	0.381	0.158
-333.245	605.153	0.090	0.221
-332.231	-139.061	-0.154	0.016
-331.216	20.940	-0.118	-0.094
-330.202	-200.000	-0.056	-0.306
-329.187	-200.000	0.012	-0.187
-328.172	-24.400	0.201	-0.118
-327.158	242.092	-0.058	-0.096
-326.143	141.824	0.285	0.373
-325.129	324.047	0.092	0.172
-324.114	317.020	0.108	0.201
-323.099	86.345	-0.242	-0.263
-322.085	35.006	0.183	-0.158
-321.070	-139.591	0.116	0.012
-320.056	-200.000	-0.007	0.081
-319.041	140.156	-0.278	-0.361
-318.026	-100.769	-0.218	0.053
-317.012	-17.568	0.059	0.036
-315.997	-200.000	-0.013	-0.077
-314.983	-91.069	0.236	0.067
-313.968	-200.000	0.073	-0.350
-312.953	10.488	-0.159	-0.119
-311.939	30.790	-0.085	-0.072
-310.924	-13.027	0.078	-0.050
-309.910	456.363	0.014	-0.031
-308.895	125.254	-0.396	-0.492
-307.880	4.633	0.100	0.072
-306.866	166.762	0.103	0.144
-305.851	-21.972	-0.139	0.083
-304.837	-187.716	0.197	0.003
-303.822	36.016	-0.205	-0.178
-302.807	200.985	0.125	0.189
-301.793	201.209	-0.247	-0.374
-300.778	1.538	-0.405	-0.287
-299.764	-125.875	0.173	-0.026
-298.749	-200.000	0.079	-0.383
-297.735	-126.906	-0.294	-0.043
-296.720	-130.637	0.394	0.052
-295.705	-65.371	-0.055	-0.022
-294.691	-32.848	0.138	0.076
-293.676	-3.599	-0.181	-0.124
-292.662	169.350	-0.246	0.346
-291.647	-28.418	0.136	-0.077
-290.632	1.728	-0.014	-0.010
-289.618	392.452	0.149	0.304
-288.603	-26.428	0.091	0.053
-287.589	-200.000	-0.001	0.014
-286.574	-63.625	-0.184	0.074
-285.559	39.168	0.108	-0.095
-284.545	122.174	0.221	-0.272
-283.530	-200.000	0.010	0.069
-282.516	-144.435	-0.040	-0.004
-281.501	-126.784	0.252	0.037
-280.486	-200.000	0.019	0.169
-279.472	-200.000	-0.011	-0.317
-278.457	-200.000	-0.020	-0.103
-277.443	200.040	0.045	0.069
-276.428	410.265	0.046	-0.095
-275.413	-200.000	-0.023	-0.156
-274.399	-86.319	0.097	0.029
-273.384	-90.248	0.413	0.118
-272.370	53.317	0.172	-0.163
-271.355	-114.126	-0.254	0.048
-270.340	-109.967	0.257	0.053
-269.326	60.883	-0.469	0.457
-268.311	5.037	-0.112	0.081
-267.297	-200.000	-0.017	0.118
-266.282	-200.000	0.004	0.060
-265.267	-200.000	0.045	0.239
-264.253	-200.000	0.040	0.231
-263.238	62.315	-0.082	0.080
-262.224	72.498	0.185	-0.189
-261.209	524.537	0.033	0.077
-260.195	-27.190	0.413	0.236
-259.180	-117.548	0.230	-0.041
-258.165	-52.010	0.257	0.117
-257.151	-200.000	-0.045	0.272
-256.136	137.787	-0.116	0.150
-255.122	-182.619	0.199	0.004
-254.107	-70.109	-0.148	0.055
-253.092	63.706	-0.049	-0.048
-252.078	209.131	0.042	-0.065
-251.063	800.000	0.037	0.120
-250.049	90.690	-0.100	0.111
-249.034	5.420	-0.183	0.133
-248.019	-109.349	-0.140	-0.029
-247.005	-200.000	-0.061	0.432
-245.990	70.143	0.167	-0.169
-244.976	353.605	0.075	0.146
-243.961	9.957	0.176	0.131
-242.946	800.000	0.133	0.364
-241.932	-103.936	-0.218	0.050
-240.917	800.000	0.064	-0.200
-239.903	-26.266	0.215	-0.124
-238.888	-194.618	-0.287	0.002
-237.873	526.329	0.027	-0.061
-236.859	169.001	0.192	0.268
-235.844	-76.801	0.463	0.159
-234.830	800.000	0.120	0.388
-233.815	800.000	-0.066	0.273
-232.800	-200.000	0.050	-0.291
-231.786	417.169	-0.064	-0.135
-230.771	15.685	0.324	0.250
-229.757	-121.483	-0.292	-0.048
-228.742	129.713	-0.136	0.171
-227.727	-200.000	-0.030	-0.208
-226.713	614.148	0.066	-0.163
-225.698	-40.899	0.055	-0.028
-224.684	-200.000	0.024	0.263
-223.669	800.000	-0.063	-0.186
-222.655	-104.993	0.187	0.042
-221.640	14.889	0.137	0.105
-220.625	11.608	-0.163	-0.123
-219.611	-200.000	0.039	-0.177
-218.596	-97.531	0.209	0.053
-217.582	30.648	0.111	0.093
-216.567	-200.000	-0.019	-0.258
-215.552	452.399	-0.008	-0.018
-214.538	-170.839	-0.278	0.009
-213.523	-42.958	0.262	0.131
-212.509	-131.843	0.165	0.021
-211.494	-140.080	-0.141	0.015
-210.479	-28.864	-0.345	-0.195
-209.465	729.502	0.036	-0.094
-208.450	-200.000	0.036	-0.252
-207.436	-12.212	-0.440	0.283
-206.421	652.147	-0.012	0.030
-205.406	58.209	0.023	-0.022
-204.392	-106.069	-0.175	-0.039
-203.377	536.789	-0.041	-0.095
-202.363	274.843	-0.062	0.109
-201.348	-130.016	-0.306	-0.041
-200.333	800.000	-0.082	-0.264
-199.319	34.181	0.386	0.330
-198.304	-200.000	-0.034	0.279
-197.290	-20.137	-0.102	-0.062
-196.275	-200.000	-0.009	0.111
-195.260	-30.128	-0.131	0.073
-194.246	-200.000	0.002	0.099
-193.231	800.000	-0.149	-0.443
-192.217	-184.531	0.187	0.003
-191.202	-17.048	-0.119	-0.074
-190.187	-138.490	0.325	0.035
-189.173	-200.000	0.028	0.120
-188.158	-200.000	-0.002	0.195
-187.144	-146.128	0.497	0.043
-186.129	-105.099	-0.064	0.014
-185.114	-200.000	0.032	-0.473
-184.100	800.000	0.008	-0.033
-183.085	472.333	0.182	-0.402
-182.071	-49.728	-0.259	-0.121
-181.056	-164.071	0.265	0.012
-180.042	-88.949	0.129	0.038
-179.027	-200.000	0.012	0.376
-178.012	800.000	-0.019	0.067
-176.998	800.000	0.130	0.361
-175.983	-11.569	-0.151	0.097
-174.969	231.229	-0.226	-0.363
-173.954	-22.929	-0.224	-0.132
-172.939	-77.986	0.239	-0.081
-171.925	-200.000	-0.004	0.070
-170.910	800.000	-0.016	0.058
-169.896	-117.797	0.310	-0.055
-168.881	-161.186	0.171	-0.009
-167.866	269.325	0.115	0.198
-166.852	800.000	0.042	0.154
-165.837	72.608	-0.309	-0.315
-164.823	-130.695	-0.059	0.008
-163.808	72.116	0.034	-0.034
-162.793	-112.057	0.266	0.052
-161.779	-96.226	0.275	-0.071
-160.764	-200.000	-0.024	0.199
-159.750	-200.000	-0.067	0.318
-158.735	-130.578	0.198	0.026
-157.720	-43.192	-0.127	-0.063
-156.706	-17.382	0.263	0.162
-155.691	800.000	-0.137	0.410
-154.677	-73.290	0.151	0.054
-153.662	-163.460	-0.194	-0.009
-152.647	-200.000	-0.020	0.157
-151.633	398.992	-0.187	0.383
-150.618	-35.195	-0.178	-0.095
-149.604	-200.000	-0.094	-0.507
-148.589	28.617	-0.245	0.203
-147.574	60.592	-0.156	-0.152
-146.560	2.993	-0.193	-0.137
-145.545	204.279	0.064	-0.098
-144.531	-82.227	-0.218	-0.070
-143.516	273.357	0.249	-0.431
-142.502	283.818	-0.082	0.145
-141.487	78.058	0.380	0.397
-140.472	-89.101	0.239	-0.069
-139.458	-200.000	-0.012	0.257
-138.443	272.119	-0.033	-0.057
-137.429	-95.993	0.206	-0.054
-136.414	501.634	-0.084	-0.190
-135.399	-200.000	0.024	0.251
-134.385	-54.576	-0.432	0.191
-133.370	800.000	0.044	0.142
-132.356	124.988	-0.086	0.106
-131.341	-131.675	-0.215	-0.028
-130.326	-22.464	0.237	0.140
-129.312	168.818	0.047	-0.065
-128.297	-79.707	0.248	-0.082
-127.283	771.942	0.121	0.323
-126.268	-200.000	0.013	-0.118
-125.253	315.037	-0.040	-0.074
-124.239	-188.034	-0.257	-0.003
-123.224	800.000	-0.067	-0.236
-122.210	24.558	-0.029	0.023
