DTS Sentinel unit serial number:	SN413079Multiplexer serial number:	ORYXHardware model number:	OX4-SRSoftware version number:	ORYX F/W v4.00 Oryx Data Collector v3.7.2.0data status	okinstallation	princeton_trtdifferential loss correction	single-endedforward channel	channel 2reverse channel	N/Adate	2019/09/17time	15:11:35forward acquisition time	60.00reverse acquisition time	0.00gamma	496.2192k internal	0.2307k external	0.2307temperature offset calibration	0.9989default loss term (dB/km)	0.3790temperature slope calibration	1.0000multiplexer offset coefficient	1.0000multiplexer slope coefficient	1.0000fibre end	0.00T internal ref (°C)	37.69T ext. ref 1 (°C)	0.39T ext. ref 2 (°C)	34.47length (m)	temperature (°C)	Stokes	anti-Stokes-747.200	-13.672	-0.146	-0.096
-746.185	192.343	-0.143	0.219
-745.171	-200.000	0.017	0.080
-744.156	-111.834	0.417	-0.086
-743.142	5.326	0.378	-0.283
-742.127	83.111	0.111	0.123
-741.112	-200.000	0.012	-0.140
-740.098	48.958	0.186	0.177
-739.083	419.888	-0.220	-0.479
-738.069	-163.720	0.381	-0.018
-737.054	-114.831	-0.335	-0.065
-736.039	686.720	-0.086	-0.229
-735.025	100.436	-0.140	0.165
-734.010	-47.934	-0.192	-0.094
-732.996	416.137	-0.143	-0.311
-731.981	-28.691	-0.022	0.013
-730.966	-133.166	-0.174	-0.022
-729.952	-163.457	-0.360	0.017
-728.937	98.817	-0.082	-0.096
-727.923	-200.000	-0.495	0.000
-726.908	59.773	-0.283	-0.283
-725.894	-160.097	-0.331	0.018
-724.879	27.990	0.083	-0.071
-723.864	-134.781	-0.179	0.022
-722.850	630.936	-0.135	0.348
-721.835	563.127	-0.163	0.401
-720.821	-152.284	-0.321	-0.024
-719.806	-33.608	-0.130	0.073
-718.791	19.646	0.051	-0.042
-717.777	269.664	-0.059	-0.105
-716.762	335.208	0.054	0.107
-715.748	-53.887	0.161	-0.074
-714.733	800.000	-0.051	0.172
-713.718	-200.000	0.004	-0.115
-712.704	511.307	-0.070	0.165
-711.689	-200.000	-0.000	-0.270
-710.675	-7.293	0.098	0.068
-709.660	107.067	-0.166	-0.200
-708.645	51.443	-0.105	0.101
-707.631	-104.811	-0.070	-0.016
-706.616	-1.426	0.180	-0.129
-705.602	66.222	0.120	0.124
-704.587	800.000	-0.042	-0.132
-703.572	489.852	-0.215	-0.498
-702.558	-9.185	0.280	-0.190
-701.543	-200.000	0.004	0.378
-700.529	330.081	0.115	-0.225
-699.514	-103.845	-0.228	-0.054
-698.499	-168.416	-0.316	-0.012
-697.485	205.316	0.038	-0.060
-696.470	-78.718	-0.073	-0.025
-695.456	541.918	0.024	-0.057
-694.441	662.038	-0.118	-0.308
-693.426	800.000	-0.092	0.327
-692.412	-200.000	0.036	0.180
-691.397	19.934	-0.192	-0.157
-690.383	-157.199	0.262	-0.016
-689.368	413.550	-0.156	-0.338
-688.354	24.082	0.136	-0.114
-687.339	30.729	-0.265	0.230
-686.324	146.456	-0.154	-0.210
-685.310	-109.804	-0.235	0.050
-684.295	-119.142	-0.327	-0.058
-683.281	800.000	-0.074	-0.254
-682.266	-135.898	-0.238	-0.028
-681.251	708.306	0.081	-0.216
-680.237	-139.188	0.151	0.016
-679.222	362.232	0.188	-0.383
-678.208	135.628	0.021	0.028
-677.193	71.148	-0.207	-0.218
-676.178	-42.981	-0.057	0.029
-675.164	-127.147	-0.180	0.027
-674.149	280.900	-0.105	0.190
-673.135	-200.000	-0.008	-0.271
-672.120	767.944	0.042	-0.115
-671.105	163.877	0.136	-0.195
-670.091	296.701	-0.166	-0.308
-669.076	195.299	0.043	-0.067
-668.062	-200.000	-0.012	-0.106
-667.047	-121.130	-0.092	0.016
-666.032	172.811	-0.159	-0.232
-665.018	58.143	0.180	-0.179
-664.003	-200.000	0.001	0.078
-662.989	-173.882	-0.173	-0.005
-661.974	294.865	-0.135	0.251
-660.959	-200.000	0.010	0.090
-659.945	-200.000	0.086	-0.000
-658.930	56.602	-0.128	-0.126
-657.916	10.833	-0.244	-0.189
-656.901	-200.000	0.054	-0.249
-655.886	-200.000	0.006	0.186
-654.872	276.374	-0.063	0.114
-653.857	-200.000	0.129	-0.000
-652.843	-139.160	0.153	-0.017
-651.828	140.674	-0.117	-0.156
-650.814	110.372	-0.156	-0.190
-649.799	800.000	0.037	0.153
-648.784	313.523	-0.003	-0.006
-647.770	-21.570	0.163	0.101
-646.755	-200.000	0.018	-0.439
-645.741	-64.982	-0.231	-0.094
-644.726	278.876	0.091	-0.164
-643.711	-0.073	-0.202	0.145
-642.697	800.000	-0.036	0.143
-641.682	163.129	0.178	-0.253
-640.668	-144.112	0.424	-0.040
-639.653	-125.893	-0.229	-0.035
-638.638	-42.129	-0.240	-0.124
-637.624	142.850	-0.124	-0.167
-636.609	800.000	0.091	0.311
-635.595	-102.622	0.243	0.059
-634.580	-200.000	-0.051	-0.371
-633.565	-17.144	0.217	-0.138
-632.551	308.411	0.051	0.097
-631.536	53.301	-0.305	-0.296
-630.522	206.663	-0.176	0.277
-629.507	54.340	-0.261	-0.254
-628.492	205.311	-0.102	0.161
-627.478	-200.000	0.013	0.120
-626.463	-15.774	0.217	0.140
-625.449	-128.431	-0.175	-0.025
-624.434	-200.000	-0.102	-0.581
-623.419	124.391	-0.292	-0.372
-622.405	-64.772	-0.141	-0.058
-621.390	-77.683	-0.233	0.081
-620.376	223.993	-0.087	0.142
-619.361	12.411	-0.010	-0.008
-618.346	630.189	-0.057	0.145
-617.332	800.000	0.128	-0.402
-616.317	170.290	0.004	-0.005
-615.303	-200.000	0.034	-0.255
-614.288	-200.000	0.025	-0.147
-613.273	-28.461	-0.196	0.114
-612.259	295.543	-0.078	0.145
-611.244	174.453	-0.257	0.377
-610.230	102.472	-0.227	0.268
-609.215	50.654	-0.188	0.180
-608.201	-83.901	-0.228	-0.073
-607.186	52.925	0.105	-0.101
-606.171	-200.000	0.010	0.322
-605.157	52.185	-0.141	0.136
-604.142	2.844	-0.257	-0.189
-603.128	424.363	-0.181	-0.393
-602.113	-75.190	0.214	0.077
-601.098	574.794	-0.049	-0.121
-600.084	549.321	0.051	-0.124
-599.069	-200.000	-0.006	-0.237
-598.055	225.551	-0.214	-0.351
-597.040	469.623	-0.057	-0.130
-596.025	-28.565	0.155	-0.090
-595.011	478.806	0.119	-0.272
-593.996	217.191	0.061	-0.098
-592.982	38.174	-0.063	-0.056
-591.967	-55.249	-0.211	-0.096
-590.952	172.921	-0.256	-0.373
-589.938	273.058	-0.177	0.317
-588.923	-113.302	0.045	0.009
-587.909	-114.556	0.363	-0.070
-586.894	800.000	0.029	-0.128
-585.879	-168.706	0.225	0.009
-584.865	-26.911	0.135	0.080
-583.850	195.983	-0.041	0.062
-582.836	108.857	0.077	-0.093
-581.821	291.483	-0.109	0.200
-580.806	-97.251	-0.260	0.069
-579.792	-103.782	-0.078	0.018
-578.777	-200.000	0.028	-0.219
-577.763	800.000	-0.015	0.047
-576.748	41.640	0.159	-0.145
-575.733	-25.428	-0.012	0.007
-574.719	-118.152	0.277	-0.050
-573.704	-69.618	-0.155	0.060
-572.690	95.023	0.081	0.093
-571.675	-32.094	0.388	0.219
-570.661	28.710	0.124	-0.106
-569.646	17.972	-0.080	0.065
-568.631	-33.417	-0.174	0.097
-567.617	437.740	-0.049	-0.107
-566.602	73.176	-0.169	-0.178
-565.588	-57.613	0.316	0.140
-564.573	-75.934	0.102	0.037
-563.558	63.556	0.144	0.146
-562.544	-145.972	0.217	-0.019
-561.529	-115.170	0.199	-0.038
-560.515	-99.282	-0.322	-0.082
-559.500	272.467	-0.182	-0.324
-558.485	55.021	-0.197	0.192
-557.471	228.515	0.120	-0.197
-556.456	-200.000	0.009	-0.187
-555.442	-17.049	0.300	-0.191
-554.427	-200.000	-0.021	-0.178
-553.412	-200.000	-0.036	-0.205
-552.398	-200.000	0.014	0.160
-551.383	800.000	-0.089	0.341
-550.369	194.482	0.229	-0.350
-549.354	-200.000	-0.001	-0.169
-548.339	-62.894	-0.252	0.105
-547.325	41.547	-0.216	-0.198
-546.310	-200.000	-0.009	0.101
-545.296	-113.445	-0.427	-0.084
-544.281	-103.987	0.190	-0.045
-543.266	163.672	-0.130	-0.184
-542.252	-43.612	0.418	-0.213
-541.237	-0.905	-0.157	-0.112
-540.223	800.000	-0.113	0.348
-539.208	800.000	0.061	0.234
-538.193	-34.767	0.205	-0.113
-537.179	660.042	-0.048	-0.124
-536.164	152.462	0.117	0.162
-535.150	-145.770	0.244	-0.022
-534.135	-34.845	-0.221	0.122
-533.121	43.771	-0.300	-0.277
-532.106	800.000	-0.093	-0.282
-531.091	727.043	0.169	-0.454
-530.077	-71.298	0.291	0.110
-529.062	39.765	0.072	0.065
-528.048	323.385	0.080	-0.155
-527.033	-200.000	0.033	-0.167
-526.018	276.191	0.155	0.278
-525.004	-139.528	0.435	-0.047
-523.989	800.000	-0.035	-0.102
-522.975	-139.037	0.158	0.017
-521.960	-109.746	0.106	0.023
-520.945	39.390	-0.124	-0.112
-519.931	-125.580	0.295	-0.045
-518.916	193.337	-0.067	-0.103
-517.902	234.598	0.048	0.080
-516.887	64.512	-0.086	0.088
-515.872	51.159	0.145	-0.139
-514.858	447.906	0.108	0.239
-513.843	-200.000	0.012	0.259
-512.829	-4.124	0.245	-0.171
-511.814	524.693	-0.100	0.237
-510.799	-27.040	0.137	-0.080
-509.785	113.781	-0.016	0.020
-508.770	800.000	-0.095	-0.313
-507.756	-143.003	-0.283	0.028
-506.741	-200.000	-0.003	0.154
-505.726	86.560	0.116	-0.129
-504.712	800.000	0.078	0.269
-503.697	-46.034	0.160	0.079
-502.683	150.285	0.204	0.279
-501.668	-193.691	0.141	0.001
-500.653	-1.600	-0.226	0.161
-499.639	20.249	-0.296	0.240
-498.624	-200.000	-0.009	0.121
-497.610	-95.283	-0.097	0.026
-496.595	800.000	-0.064	0.211
-495.581	87.234	-0.145	-0.161
-494.566	768.431	0.150	-0.412
-493.551	466.524	0.189	-0.427
-492.537	-200.000	0.026	-0.119
-491.522	-32.533	0.210	0.118
-490.508	-200.000	-0.024	-0.165
-489.493	614.635	0.191	-0.481
-488.478	580.591	-0.196	-0.482
-487.464	-200.000	0.030	0.263
-486.449	-200.000	-0.040	0.258
-485.435	800.000	0.021	0.059
-484.420	-126.313	0.047	0.007
-483.405	79.843	0.272	-0.294
-482.391	237.972	0.083	-0.138
-481.376	-200.000	0.063	-0.694
-480.362	13.004	-0.162	-0.126
-479.347	-77.296	-0.220	0.077
-478.332	7.491	0.126	-0.095
-477.318	310.884	0.236	0.445
-476.303	-1.793	0.286	0.202
-475.289	-200.000	0.013	-0.091
-474.274	-97.123	-0.093	-0.024
-473.259	-150.075	-0.167	-0.013
-472.245	800.000	0.031	-0.099
-471.230	-4.115	0.124	-0.086
-470.216	800.000	-0.058	-0.195
-469.201	-37.293	0.151	-0.081
-468.186	87.525	-0.145	-0.162
-467.172	800.000	0.099	-0.415
-466.157	-147.614	-0.281	0.024
-465.143	11.067	-0.129	0.099
-464.128	496.778	0.078	0.180
-463.113	30.105	0.206	-0.177
-462.099	800.000	0.067	0.203
-461.084	800.000	-0.029	0.125
-460.070	-200.000	-0.009	0.105
-459.055	-200.000	-0.058	-0.258
-458.040	56.481	0.102	-0.099
-457.026	-200.000	0.039	-0.289
-456.011	123.790	-0.061	0.077
-454.997	-145.712	0.142	-0.013
-453.982	92.644	-0.060	0.068
-452.968	109.308	-0.292	-0.351
-451.953	-52.829	-0.128	0.060
-450.938	-200.000	-0.023	0.360
-449.924	-1.169	-0.167	-0.119
-448.909	56.933	0.238	-0.233
-447.895	-125.340	-0.081	-0.012
-446.880	-200.000	-0.015	0.076
-445.865	-146.098	0.368	0.033
-444.851	-7.991	0.039	0.027
-443.836	649.756	0.059	0.153
-442.822	33.481	-0.124	0.108
-441.807	-200.000	0.062	-0.000
-440.792	185.107	-0.056	-0.084
-439.778	96.521	0.080	-0.092
-438.763	43.245	-0.076	0.069
-437.749	-103.553	0.671	-0.158
-436.734	34.136	0.202	0.177
-435.719	10.263	0.203	0.155
-434.705	-154.151	0.043	-0.003
-433.690	-127.141	-0.271	-0.040
-432.676	-64.599	0.238	0.097
-431.661	-93.345	0.074	-0.021
-430.646	-52.781	-0.180	-0.083
-429.632	-200.000	-0.064	-0.311
-428.617	-90.846	0.317	-0.092
-427.603	-200.000	0.081	-0.390
-426.588	-61.109	0.415	-0.176
-425.573	105.812	0.188	0.223
-424.559	733.046	0.077	0.208
-423.544	42.827	-0.233	0.214
-422.530	-200.000	0.000	-0.223
-421.515	800.000	0.094	-0.286
-420.500	-33.811	-0.201	-0.111
-419.486	22.452	0.182	-0.150
-418.471	54.519	0.245	0.237
-417.457	240.173	-0.215	0.359
-416.442	159.648	-0.082	0.115
-415.428	-3.596	-0.261	-0.182
-414.413	52.389	-0.050	-0.048
-413.398	56.751	-0.261	-0.255
-412.384	-200.000	-0.008	0.226
-411.369	-125.348	-0.169	-0.026
-410.355	4.266	0.040	0.029
-409.340	800.000	-0.043	0.122
-408.325	-150.442	-0.281	-0.022
-407.311	-43.603	0.104	-0.053
-406.296	9.863	0.126	0.096
-405.282	-78.870	-0.233	0.080
-404.267	-27.023	-0.244	-0.143
-403.252	207.757	-0.131	-0.206
-402.238	-176.800	0.100	0.003
-401.223	119.025	-0.220	0.273
-400.209	-121.844	-0.294	-0.049
-399.194	-17.343	0.200	0.126
-398.179	-113.258	0.428	-0.085
-397.165	481.648	-0.101	0.230
-396.150	-200.000	0.050	0.000
-395.136	-0.686	0.113	-0.080
-394.121	214.741	-0.054	-0.086
-393.106	800.000	-0.025	0.107
-392.092	-115.228	0.324	-0.062
-391.077	800.000	0.033	-0.128
-390.063	-178.087	0.113	0.003
-389.048	800.000	-0.028	-0.109
-388.033	-200.000	-0.052	0.251
-387.019	-200.000	-0.030	-0.205
-386.004	109.621	-0.107	-0.129
-384.990	-5.104	-0.400	-0.276
-383.975	-200.000	0.067	0.314
-382.960	-200.000	-0.035	0.419
-381.946	-48.150	0.222	0.107
-380.931	-199.514	-0.168	-0.001
-379.917	-79.738	0.363	-0.123
-378.902	-13.416	-0.123	-0.080
-377.888	-166.318	-0.197	0.008
-376.873	-102.734	0.142	0.034
-375.858	-12.924	-0.266	0.173
-374.844	800.000	-0.143	0.469
-373.829	800.000	-0.023	0.097
-372.815	168.089	-0.032	-0.046
-371.800	-200.000	-0.010	-0.126
-370.785	-115.682	-0.148	-0.028
-369.771	-67.499	0.154	-0.061
-368.756	37.550	-0.457	-0.406
-367.742	-38.672	0.219	0.116
-366.727	-200.000	-0.019	0.378
-365.712	147.514	0.194	0.261
-364.698	-82.428	-0.211	0.069
-363.683	-54.875	-0.219	-0.099
-362.669	-73.670	0.145	0.053
-361.654	-200.000	-0.038	-0.184
-360.639	-144.616	0.043	-0.004
-359.625	-94.258	-0.361	0.099
-358.610	-182.654	-0.416	0.008
-357.596	588.064	0.135	0.332
-356.581	478.798	-0.054	-0.122
-355.566	-200.000	-0.023	0.137
-354.552	-128.664	-0.267	0.038
-353.537	24.278	0.178	0.148
-352.523	-10.011	-0.273	0.182
-351.508	112.904	0.333	0.404
-350.493	800.000	-0.048	0.146
-349.479	-68.083	-0.094	-0.037
-348.464	235.134	0.077	-0.127
-347.450	-31.868	0.182	0.102
-346.435	-94.224	-0.003	-0.001
-345.420	-200.000	-0.009	-0.273
-344.406	40.390	0.164	-0.148
-343.391	114.450	0.095	-0.116
-342.377	-200.000	0.013	0.225
-341.362	-97.233	0.141	-0.037
-340.348	425.956	0.191	0.412
-339.333	-46.902	-0.113	-0.055
-338.318	-115.088	0.081	0.015
-337.304	293.661	0.071	-0.130
-336.289	-120.078	-0.102	0.018
-335.275	-106.011	-0.343	0.077
-334.260	-106.298	0.135	-0.030
-333.245	112.689	-0.153	-0.186
-332.231	-9.305	0.201	-0.135
-331.216	450.288	-0.102	-0.224
-330.202	-50.039	0.268	-0.127
-329.187	2.889	0.169	0.123
-328.172	182.726	-0.073	0.107
-327.158	-65.919	0.151	0.061
-326.143	-200.000	0.060	-0.307
-325.129	-34.615	0.281	0.154
-324.114	-59.925	-0.187	-0.080
-323.099	800.000	-0.069	0.256
-322.085	411.764	0.074	-0.157
-321.070	132.986	0.106	-0.137
-320.056	70.222	-0.081	-0.084
-319.041	3.638	0.011	-0.008
-318.026	-126.271	-0.176	-0.026
-317.012	11.517	0.176	-0.135
-315.997	96.628	-0.322	-0.369
-314.983	-200.000	0.028	-0.124
-313.968	25.769	0.135	0.112
-312.953	-82.457	-0.347	0.113
-311.939	-36.617	0.104	-0.056
-310.924	65.355	-0.261	0.264
-309.910	-54.241	-0.163	-0.074
-308.895	277.387	-0.147	0.262
-307.880	-200.000	0.028	0.613
-306.866	-200.000	-0.040	0.333
-305.851	800.000	-0.092	-0.368
-304.837	212.505	0.203	0.319
-303.822	-84.220	-0.163	0.052
-302.807	800.000	-0.033	-0.143
-301.793	89.403	0.244	0.272
-300.778	-36.933	-0.176	0.094
-299.764	55.515	0.164	0.159
-298.749	295.640	-0.250	0.457
-297.735	-77.209	-0.220	-0.077
-296.720	45.794	-0.068	0.063
-295.705	-44.020	0.295	0.148
-294.691	-130.583	-0.292	0.039
-293.676	771.415	0.049	-0.133
-292.662	-98.902	-0.287	-0.073
-291.647	110.095	-0.248	-0.297
-290.632	748.937	0.075	0.203
-289.618	-42.535	0.362	-0.184
-288.603	134.776	0.032	-0.042
-287.589	104.300	0.141	0.166
-286.574	110.520	0.130	0.156
-285.559	-9.860	-0.198	-0.131
-284.545	56.751	-0.145	0.141
-283.530	639.827	0.126	0.320
-282.516	-141.019	0.327	-0.034
-281.501	-120.940	-0.167	0.028
-280.486	800.000	-0.096	-0.291
-279.472	696.496	-0.156	-0.408
-278.457	202.992	-0.025	0.039
-277.443	190.277	0.070	-0.105
-276.428	-158.254	-0.283	0.016
-275.413	218.023	0.134	-0.213
-274.399	800.000	-0.028	0.112
-273.384	800.000	0.032	-0.118
-272.370	471.755	0.127	-0.285
-271.355	478.952	-0.035	-0.080
-270.340	-159.332	0.093	0.005
-269.326	252.209	0.049	0.084
-268.311	-200.000	-0.292	0.001
-267.297	800.000	-0.086	0.325
-266.282	-200.000	0.013	0.106
-265.267	-200.000	-0.004	-0.175
-264.253	-118.286	0.250	-0.044
-263.238	-124.037	0.137	0.022
-262.224	45.769	0.170	-0.157
-261.209	-200.000	-0.016	0.149
-260.195	241.931	-0.136	0.226
-259.180	-115.603	0.258	0.048
-258.165	800.000	0.042	-0.157
-257.151	304.718	-0.098	0.182
-256.136	800.000	0.197	-0.642
-255.122	-200.000	0.022	-0.099
-254.107	258.933	-0.062	0.106
-253.092	-76.868	0.422	0.147
-252.078	-200.000	0.054	0.261
-251.063	236.536	0.118	-0.194
-250.049	-61.551	-0.216	0.091
-249.034	150.642	0.075	0.101
-248.019	-200.000	0.015	-0.350
-247.005	800.000	0.058	-0.236
-245.990	-59.998	0.069	-0.030
-244.976	-200.000	0.019	0.139
-243.961	41.033	0.070	-0.063
-242.946	83.864	-0.111	0.121
-241.932	21.972	-0.111	0.090
-240.917	8.999	0.175	0.132
-239.903	694.530	-0.124	0.324
-238.888	105.329	-0.084	-0.098
-237.873	196.081	0.214	-0.324
-236.859	-200.000	0.006	0.343
-235.844	123.380	-0.320	0.400
-234.830	-49.118	0.161	-0.077
-233.815	726.428	-0.048	0.129
-232.800	-121.160	0.207	0.035
-231.786	85.928	-0.272	0.298
-230.771	-200.000	-0.009	-0.123
-229.757	-152.457	-0.172	0.012
-228.742	205.265	0.185	0.286
-227.727	68.275	-0.062	-0.063
-226.713	197.555	0.058	0.089
-225.698	479.711	0.144	0.326
-224.684	-132.677	-0.148	0.019
-223.669	-200.000	0.031	0.222
-222.655	446.187	0.070	-0.153
-221.640	800.000	0.101	0.308
-220.625	-200.000	0.053	0.284
-219.611	-32.393	-0.228	0.127
-218.596	-154.281	-0.325	-0.022
-217.582	-4.118	0.310	0.214
-216.567	-200.000	0.015	0.256
-215.552	-200.000	0.036	0.318
-214.538	800.000	0.020	-0.088
-213.523	-110.498	-0.215	-0.044
-212.509	-101.698	-0.254	-0.061
-211.494	27.289	-0.269	0.225
-210.479	-83.127	0.151	-0.048
-209.465	-159.219	-0.281	0.016
-208.450	-181.990	0.229	0.004
-207.436	151.900	-0.083	-0.113
-206.421	-200.000	0.020	0.165
-205.406	800.000	0.037	-0.148
-204.392	72.469	-0.157	0.163
-203.377	231.431	-0.030	0.049
-202.363	126.034	0.083	0.105
-201.348	447.292	0.072	0.158
-200.333	-200.000	-0.010	0.247
-199.319	350.758	0.042	-0.082
-198.304	-200.000	-0.049	0.514
-197.290	-200.000	-0.009	0.188
-196.275	644.456	0.086	0.219
-195.260	92.893	-0.106	-0.119
-194.246	249.188	0.150	0.252
-193.231	-130.544	0.200	-0.027
-192.217	-200.000	0.011	-0.092
-191.202	40.204	0.334	-0.299
-190.187	701.733	0.030	-0.079
-189.173	-72.888	-0.035	0.013
-188.158	-15.375	0.123	-0.078
-187.144	-140.099	-0.142	-0.015
-186.129	-131.537	0.221	0.029
-185.114	-27.536	0.325	-0.188
-184.100	-101.152	0.196	-0.048
-183.085	-200.000	0.042	0.220
-182.071	212.456	0.038	-0.060
-181.056	-118.606	-0.109	-0.019
-180.042	-35.985	0.132	0.071
-179.027	192.764	-0.155	0.233
-178.012	-112.982	-0.057	0.011
-176.998	-104.467	-0.138	0.032
-175.983	-62.420	-0.050	0.020
-174.969	-24.428	0.043	0.025
-173.954	-200.000	0.011	0.151
-172.939	-0.294	-0.153	-0.108
-171.925	800.000	0.093	-0.301
-170.910	-33.549	-0.218	-0.120
-169.896	53.320	0.120	0.114
-168.881	321.766	-0.063	0.120
-167.866	-200.000	0.016	0.119
-166.852	444.402	0.139	0.304
-165.837	-43.538	-0.139	0.070
-164.823	-13.890	-0.206	0.132
-163.808	-28.218	-0.088	0.051
-162.793	-133.245	0.520	-0.065
-161.779	-84.709	-0.220	-0.069
-160.764	-45.435	-0.060	0.030
-159.750	-42.985	-0.103	-0.052
-158.735	-200.000	-0.023	0.145
-157.720	244.112	0.051	0.084
-156.706	19.641	-0.148	0.118
-155.691	-23.807	-0.122	-0.073
-154.677	104.747	0.153	-0.179
-153.662	192.039	-0.064	0.096
-152.647	135.999	-0.123	-0.159
-151.633	-89.462	0.084	0.024
-150.618	435.056	-0.010	0.022
-149.604	5.195	-0.244	-0.179
-148.589	-200.000	-0.001	-0.026
-147.574	-169.364	0.179	0.007
-146.560	-61.665	-0.031	0.013
-145.545	98.454	-0.062	-0.071
-144.531	-200.000	0.031	0.137
-143.516	-61.086	-0.103	-0.043
-142.502	-200.000	0.014	0.169
-141.487	-80.850	0.296	-0.098
-140.472	60.655	-0.168	0.165
-139.458	-196.905	0.368	0.002
-138.443	-71.108	0.308	-0.115
-137.429	-83.671	-0.104	-0.033
-136.414	800.000	-0.051	0.153
-135.399	-200.000	0.010	0.058
-134.385	116.458	0.079	0.096
-133.370	-78.462	-0.208	0.071
-132.356	-104.434	0.048	0.011
-131.341	76.723	-0.173	-0.182
-130.326	75.841	0.321	-0.337
-129.312	86.527	-0.116	0.127
-128.297	12.370	-0.102	0.078
-127.283	-141.310	0.301	-0.030
-126.268	-180.091	0.133	-0.003
-125.253	100.539	0.145	-0.167
-124.239	-200.000	-0.017	-0.089
-123.224	-200.000	0.006	-0.034
-122.210	-53.528	-0.091	-0.041
