DTS Sentinel unit serial number:	SN413079Multiplexer serial number:	ORYXHardware model number:	OX4-SRSoftware version number:	ORYX F/W v4.00 Oryx Data Collector v3.7.2.0data status	okinstallation	princeton_trtdifferential loss correction	single-endedforward channel	channel 2reverse channel	N/Adate	2019/09/12time	23:39:35forward acquisition time	60.00reverse acquisition time	0.00gamma	496.2192k internal	0.2332k external	0.2332temperature offset calibration	1.0174default loss term (dB/km)	0.3790temperature slope calibration	1.0000multiplexer offset coefficient	1.0000multiplexer slope coefficient	1.0000fibre end	0.00T internal ref (°C)	28.87T ext. ref 1 (°C)	3.77T ext. ref 2 (°C)	23.55length (m)	temperature (°C)	Stokes	anti-Stokes-747.200	-177.428	-0.067	0.002
-746.185	-72.501	-0.098	0.037
-745.171	270.231	0.119	-0.211
-744.156	-200.000	0.042	0.360
-743.142	246.694	0.168	0.286
-742.127	800.000	-0.049	0.140
-741.112	215.314	-0.094	-0.150
-740.098	448.386	-0.066	0.147
-739.083	-108.598	0.258	0.056
-738.069	-200.000	0.032	0.497
-737.054	-152.059	0.209	0.015
-736.039	-50.036	-0.363	0.173
-735.025	-66.817	0.385	-0.153
-734.010	-95.839	-0.363	-0.097
-732.996	-134.490	-0.111	-0.014
-731.981	-78.435	-0.308	-0.106
-730.966	-2.551	-0.179	-0.126
-729.952	6.281	-0.172	0.129
-728.937	-155.376	0.289	0.019
-727.923	0.293	-0.183	-0.131
-726.908	502.685	0.090	-0.208
-725.894	18.038	-0.117	-0.094
-724.879	800.000	-0.051	0.212
-723.864	37.147	0.128	0.114
-722.850	-128.237	0.202	0.029
-721.835	-40.314	-0.087	-0.046
-720.821	635.232	0.075	-0.190
-719.806	263.488	0.136	0.238
-718.791	-78.598	-0.346	0.119
-717.777	31.807	-0.217	0.188
-716.762	800.000	0.011	-0.035
-715.748	-12.690	-0.035	0.023
-714.733	-79.642	0.322	0.109
-713.718	800.000	0.059	-0.194
-712.704	7.286	0.058	-0.043
-711.689	329.414	-0.136	-0.263
-710.675	0.306	-0.346	-0.248
-709.660	-91.281	-0.318	0.091
-708.645	234.456	-0.163	-0.269
-707.631	-181.455	-0.342	-0.007
-706.616	-200.000	-0.006	0.192
-705.602	-92.302	0.233	0.066
-704.587	270.691	-0.154	-0.273
-703.572	-169.739	-0.226	-0.008
-702.558	384.610	0.027	-0.057
-701.543	224.004	-0.214	0.347
-700.529	39.564	0.070	0.063
-699.514	98.539	-0.215	0.249
-698.499	67.398	-0.209	0.214
-697.485	800.000	0.050	0.184
-696.470	187.989	0.181	0.271
-695.456	45.464	-0.190	-0.176
-694.441	-130.234	0.258	0.035
-693.426	800.000	0.062	-0.255
-692.412	-25.578	-0.415	-0.246
-691.397	-12.662	-0.309	-0.202
-690.383	300.253	0.081	-0.150
-689.368	96.272	0.203	-0.233
-688.354	-80.712	0.378	0.126
-687.339	-200.000	0.033	0.181
-686.324	-109.462	0.200	-0.043
-685.310	-6.009	0.076	-0.052
-684.295	-26.847	-0.114	-0.067
-683.281	-200.000	0.007	0.134
-682.266	-200.000	0.050	0.259
-681.251	-42.018	-0.123	-0.063
-680.237	-200.000	-0.042	0.186
-679.222	-54.704	0.212	0.096
-678.208	800.000	0.020	0.059
-677.193	68.544	0.403	-0.415
-676.178	-200.000	-0.045	-0.206
-675.164	90.769	0.266	-0.299
-674.149	-200.000	0.017	-0.125
-673.135	-68.269	-0.267	-0.104
-672.120	191.661	-0.092	0.139
-671.105	59.300	-0.149	0.147
-670.091	349.871	-0.133	-0.264
-669.076	-43.808	0.311	0.157
-668.062	-128.396	-0.107	0.015
-667.047	191.338	0.166	-0.251
-666.032	-136.133	-0.211	-0.025
-665.018	300.499	-0.058	0.107
-664.003	800.000	-0.039	-0.155
-662.989	-0.850	0.126	0.090
-661.974	-107.845	-0.196	0.043
-660.959	-102.812	0.138	-0.033
-659.945	356.451	-0.061	0.122
-658.930	69.880	0.117	-0.121
-657.916	31.745	-0.186	-0.161
-656.901	-200.000	0.070	0.722
-655.886	738.782	0.144	-0.387
-654.872	167.382	-0.037	0.052
-653.857	-200.000	0.002	-0.347
-652.843	-37.643	-0.180	0.096
-651.828	-67.320	-0.333	0.131
-650.814	800.000	-0.093	-0.262
-649.799	-188.391	0.387	-0.005
-648.784	-22.931	-0.183	0.111
-647.770	58.750	0.147	-0.145
-646.755	600.408	0.115	-0.287
-645.741	-200.000	0.032	-0.162
-644.726	-12.450	-0.226	-0.148
-643.711	-100.281	-0.145	0.036
-642.697	-164.142	-0.401	-0.019
-641.682	-141.487	-0.388	-0.039
-640.668	-153.354	-0.218	0.015
-639.653	-200.000	0.010	-0.257
-638.638	6.745	-0.263	-0.196
-637.624	71.806	-0.263	-0.274
-636.609	-106.554	0.260	-0.058
-635.595	-52.607	-0.155	-0.072
-634.580	-77.981	0.297	0.102
-633.565	-82.294	-0.084	-0.027
-632.551	-168.378	-0.340	-0.013
-631.536	-200.000	0.005	0.090
-630.522	55.662	-0.255	0.247
-629.507	-62.127	-0.133	0.056
-628.492	493.185	-0.137	0.314
-627.478	65.195	0.202	-0.205
-626.463	-140.209	-0.348	0.037
-625.449	-200.000	0.023	-0.211
-624.434	400.032	-0.039	-0.081
-623.419	384.389	-0.165	-0.340
-622.405	215.240	0.072	-0.114
-621.390	404.241	-0.096	0.201
-620.376	-99.136	0.205	0.052
-619.361	440.761	0.091	0.199
-618.346	-43.290	-0.226	0.114
-617.332	-39.321	-0.113	-0.059
-616.317	-200.000	-0.001	0.113
-615.303	-37.688	-0.211	0.112
-614.288	141.671	0.102	0.135
-613.273	-200.000	0.014	-0.115
-612.259	-43.867	-0.405	-0.204
-611.244	59.074	0.118	-0.116
-610.230	173.887	0.120	-0.173
-609.215	-195.749	-0.352	0.003
-608.201	-88.327	0.270	0.081
-607.186	-200.000	0.011	-0.103
-606.171	-189.199	0.171	0.002
-605.157	49.595	-0.116	-0.109
-604.142	245.290	-0.037	-0.062
-603.128	-116.815	-0.492	-0.090
-602.113	-8.094	-0.271	-0.183
-601.098	-72.022	-0.293	-0.109
-600.084	83.719	0.074	0.080
-599.069	-200.000	0.029	-0.130
-598.055	358.062	-0.150	-0.300
-597.040	327.031	-0.076	-0.145
-596.025	-49.060	-0.042	-0.020
-595.011	-51.548	-0.272	-0.127
-593.996	541.333	0.046	-0.110
-592.982	-13.394	-0.131	-0.085
-591.967	142.350	0.286	0.380
-590.952	-33.435	0.187	-0.104
-589.938	122.938	0.226	-0.283
-588.923	-200.000	0.034	0.277
-587.909	34.296	0.126	0.110
-586.894	314.493	0.104	0.195
-585.879	4.109	-0.079	-0.058
-584.865	-42.967	-0.183	0.093
-583.850	698.342	0.054	-0.142
-582.836	94.354	-0.158	-0.179
-581.821	-105.047	-0.033	0.008
-580.806	1.984	-0.168	-0.121
-579.792	-200.000	-0.005	0.042
-578.777	800.000	-0.075	0.281
-577.763	-90.480	0.135	-0.039
-576.748	-200.000	0.005	-0.063
-575.733	-58.407	-0.179	-0.078
-574.719	120.064	0.142	0.176
-573.704	7.338	-0.108	0.081
-572.690	-200.000	-0.022	-0.145
-571.675	-63.543	-0.129	0.053
-570.661	11.054	-0.188	0.143
-569.646	-10.808	0.091	0.060
-568.631	-32.278	0.034	-0.019
-567.617	-167.464	0.305	-0.012
-566.602	800.000	-0.035	-0.134
-565.588	208.038	-0.186	0.290
-564.573	199.779	0.067	-0.103
-563.558	-136.105	0.154	-0.018
-562.544	-96.856	-0.113	0.030
-561.529	77.729	0.104	-0.111
-560.515	-3.060	-0.315	-0.220
-559.500	-53.347	0.142	-0.065
-558.485	-33.880	-0.031	-0.017
-557.471	-29.138	-0.091	0.052
-556.456	343.823	0.095	-0.187
-555.442	4.240	-0.155	-0.114
-554.427	-25.952	-0.199	-0.117
-553.412	-6.812	-0.150	-0.102
-552.398	113.890	0.099	0.120
-551.383	-135.849	-0.285	-0.034
-550.369	40.124	0.183	-0.164
-549.354	-200.000	-0.043	0.215
-548.339	109.501	-0.184	0.220
-547.325	-200.000	0.018	-0.245
-546.310	-18.698	0.330	-0.205
-545.296	-200.000	-0.025	-0.260
-544.281	-27.538	-0.481	-0.279
-543.266	-151.554	-0.229	-0.017
-542.252	-43.165	0.063	-0.032
-541.237	-50.914	-0.067	-0.031
-540.223	-200.000	0.053	-0.308
-539.208	0.203	0.040	0.028
-538.193	-115.297	-0.093	-0.017
-537.179	-109.867	-0.297	0.062
-536.164	-40.653	0.199	-0.103
-535.150	-200.000	0.003	-0.303
-534.135	171.120	-0.221	0.316
-533.121	800.000	-0.037	0.109
-532.106	-92.226	-0.310	0.087
-531.091	-82.388	0.280	0.091
-530.077	-200.000	0.059	-0.410
-529.062	43.926	0.134	0.122
-528.048	-197.844	0.299	0.002
-527.033	-140.932	-0.063	0.006
-526.018	-200.000	0.022	0.154
-525.004	-57.614	0.248	-0.108
-523.989	-95.052	0.283	0.076
-522.975	-24.054	0.159	-0.095
-521.960	-63.531	-0.050	-0.021
-520.945	-59.152	0.169	0.073
-519.931	79.800	-0.093	-0.100
-518.916	-200.000	0.018	0.132
-517.902	-200.000	-0.137	-0.000
-516.887	-29.221	-0.312	0.179
-515.872	570.565	-0.070	-0.169
-514.858	107.719	0.148	-0.176
-513.843	-81.108	-0.105	0.035
-512.829	-140.262	-0.164	0.017
-511.814	-30.026	-0.399	0.227
-510.799	327.777	-0.114	-0.218
-509.785	800.000	0.042	-0.155
-508.770	42.894	-0.022	-0.020
-507.756	31.314	0.174	0.149
-506.741	369.890	0.084	-0.169
-505.726	-139.198	0.205	-0.022
-504.712	-104.972	-0.233	-0.053
-503.697	649.928	-0.140	-0.358
-502.683	-37.646	-0.031	-0.016
-501.668	339.349	-0.111	-0.215
-500.653	-126.579	-0.201	0.030
-499.639	363.766	-0.038	-0.075
-498.624	-200.000	0.037	0.204
-497.610	-200.000	-0.026	0.239
-496.595	-20.885	-0.468	0.286
-495.581	405.106	0.053	0.112
-494.566	-200.000	0.008	-0.133
-493.551	189.908	0.083	0.124
-492.537	-124.156	-0.311	-0.049
-491.522	82.246	0.090	-0.097
-490.508	-40.558	0.106	0.055
-489.493	-200.000	0.028	0.307
-488.478	136.528	-0.093	-0.121
-487.464	219.316	-0.157	0.251
-486.449	-127.969	0.390	-0.056
-485.435	528.927	0.131	-0.307
-484.420	-105.634	0.300	0.068
-483.405	37.296	0.051	-0.045
-482.391	232.768	0.105	-0.172
-481.376	-103.558	0.305	-0.071
-480.362	-1.921	0.099	-0.069
-479.347	149.926	-0.042	0.057
-478.332	171.899	0.152	-0.218
-477.318	295.236	0.078	-0.143
-476.303	92.420	0.206	0.231
-475.289	-103.840	-0.323	0.075
-474.274	-34.353	0.187	0.102
-473.259	-124.469	0.035	-0.005
-472.245	-200.000	0.039	-0.355
-471.230	800.000	-0.038	0.113
-470.216	-89.176	0.174	-0.051
-469.201	-78.651	0.312	-0.106
-468.186	-21.641	-0.068	0.041
-467.172	-86.671	0.125	-0.038
-466.157	-175.130	-0.281	-0.008
-465.143	-200.000	0.026	0.155
-464.128	-76.197	-0.413	0.145
-463.113	-158.623	0.184	-0.011
-462.099	359.196	-0.070	-0.138
-461.084	-107.162	0.085	0.019
-460.070	-88.596	0.163	0.048
-459.055	118.757	0.045	0.055
-458.040	-95.957	0.158	-0.042
-457.026	-165.476	0.146	-0.006
-456.011	-97.729	-0.355	0.091
-454.997	-200.000	0.006	-0.197
-453.982	431.877	0.078	-0.169
-452.968	-3.312	0.110	0.076
-451.953	-124.867	-0.255	0.039
-450.938	733.751	0.184	-0.489
-449.924	-88.155	0.165	-0.049
-448.909	442.192	0.100	-0.218
-447.895	-200.000	0.079	0.428
-446.880	707.524	-0.134	0.353
-445.865	-169.416	0.131	-0.005
-444.851	68.504	0.181	-0.185
-443.836	800.000	0.131	0.473
-442.822	-40.954	0.020	-0.010
-441.807	-5.435	0.197	0.135
-440.792	106.737	0.021	-0.025
-439.778	-200.000	0.004	0.175
-438.763	47.880	-0.079	0.073
-437.749	-95.399	0.108	0.029
-436.734	-48.476	-0.314	-0.150
-435.719	-200.000	-0.039	0.389
-434.705	800.000	0.037	0.115
-433.690	-200.000	-0.004	-0.026
-432.676	-59.189	0.064	-0.028
-431.661	-75.151	0.021	-0.008
-430.646	122.156	-0.073	-0.090
-429.632	-200.000	-0.013	0.284
-428.617	119.103	0.229	-0.281
-427.603	-200.000	-0.052	-0.282
-426.588	500.875	-0.075	0.172
-425.573	-200.000	0.002	-0.027
-424.559	-200.000	-0.008	-0.216
-423.544	-28.105	0.191	-0.110
-422.530	102.889	-0.155	-0.180
-421.515	109.847	0.139	-0.165
-420.500	124.424	0.161	0.201
-419.486	-58.756	0.110	-0.047
-418.471	-200.000	-0.070	-0.399
-417.457	-200.000	-0.060	-0.332
-416.442	-77.843	0.193	-0.066
-415.428	-35.167	0.470	0.254
-414.413	-36.235	-0.050	0.027
-413.398	17.757	-0.137	-0.108
-412.384	81.857	0.047	0.051
-411.369	-200.000	0.046	0.261
-410.355	18.227	-0.096	0.076
-409.340	-102.137	-0.154	0.037
-408.325	-39.149	0.229	-0.120
-407.311	-13.461	0.154	0.099
-406.296	-200.000	0.003	-0.183
-405.282	-153.912	0.068	-0.005
-404.267	-24.061	-0.168	-0.100
-403.252	-32.528	-0.047	0.026
-402.238	-78.753	-0.268	0.091
-401.223	-22.813	-0.326	-0.195
-400.209	-200.000	-0.004	-0.206
-399.194	-22.252	-0.156	0.094
-398.179	-102.707	0.571	0.135
-397.165	800.000	-0.078	0.271
-396.150	-33.192	0.125	-0.068
-395.136	109.982	0.089	-0.106
-394.121	-200.000	-0.039	0.192
-393.106	-170.829	0.169	0.006
-392.092	35.231	-0.123	-0.107
-391.077	-200.000	0.076	-0.343
-390.063	-62.315	0.261	-0.108
-389.048	800.000	0.028	-0.094
-388.033	574.993	0.110	-0.266
-387.019	-107.705	0.213	0.046
-386.004	-32.964	0.089	-0.049
-384.990	-102.401	-0.093	0.022
-383.975	-155.400	-0.173	0.011
-382.960	358.238	-0.108	-0.214
-381.946	1.091	-0.219	-0.156
-380.931	231.108	-0.150	0.244
-379.917	482.857	-0.097	0.218
-378.902	125.180	-0.054	0.067
-377.888	70.505	0.098	-0.101
-376.873	-55.149	-0.047	0.021
-375.858	-11.326	0.229	-0.150
-374.844	-66.899	-0.120	-0.047
-373.829	477.247	-0.101	0.226
-372.815	-200.000	0.005	0.229
-371.800	800.000	0.061	0.217
-370.785	800.000	0.070	0.215
-369.771	487.563	0.187	0.423
-368.756	360.491	-0.060	-0.120
-367.742	-19.311	0.319	0.196
-366.727	800.000	0.032	0.094
-365.712	-200.000	-0.018	-0.149
-364.698	169.812	-0.074	-0.104
-363.683	-200.000	-0.001	-0.035
-362.669	-8.241	0.189	-0.126
-361.654	334.752	0.074	-0.142
-360.639	-0.467	0.088	-0.062
-359.625	-36.686	-0.191	-0.102
-358.610	-68.016	0.035	0.014
-357.596	-200.000	-0.018	-0.231
-356.581	104.327	-0.057	-0.066
-355.566	255.661	-0.170	0.288
-354.552	194.043	-0.040	-0.060
-353.537	-38.785	-0.096	0.050
-352.523	-130.569	0.304	-0.041
-351.508	188.241	-0.174	0.257
-350.493	-200.000	0.007	-0.139
-349.479	800.000	0.070	-0.196
-348.464	-69.920	-0.067	0.025
-347.450	451.943	-0.107	0.235
-346.435	-136.860	-0.349	-0.040
-345.420	54.970	-0.163	0.156
-344.406	-200.000	-0.018	0.161
-343.391	800.000	-0.025	-0.105
-342.377	-200.000	0.028	-0.246
-341.362	-200.000	-0.001	0.045
-340.348	800.000	0.030	0.113
-339.333	195.085	-0.035	-0.053
-338.318	800.000	0.078	0.274
-337.304	16.753	-0.217	0.170
-336.289	-179.275	-0.056	-0.001
-335.275	-143.159	-0.068	-0.007
-334.260	-12.013	0.089	0.058
-333.245	-200.000	0.005	0.091
-332.231	-108.544	-0.045	-0.010
-331.216	-66.995	0.232	0.091
-330.202	800.000	-0.035	0.112
-329.187	-150.501	0.223	0.017
-328.172	-45.207	-0.208	-0.103
-327.158	-119.474	-0.221	-0.038
-326.143	188.671	0.095	0.141
-325.129	-100.055	-0.095	-0.023
-324.114	28.980	0.313	0.263
-323.099	0.570	-0.156	0.110
-322.085	-95.560	-0.230	0.061
-321.070	339.408	-0.106	0.204
-320.056	118.604	0.121	0.148
-319.041	-40.554	0.348	0.179
-318.026	365.242	0.110	-0.219
-317.012	430.622	-0.137	0.293
-315.997	505.069	0.092	0.210
-314.983	-196.280	0.171	-0.001
-313.968	-35.672	-0.199	-0.107
-312.953	171.951	0.073	0.103
-311.939	800.000	-0.063	0.176
-310.924	429.999	-0.048	0.102
-309.910	532.238	-0.045	0.104
-308.895	-167.821	-0.233	0.009
-307.880	-167.252	-0.129	0.005
-306.866	19.483	0.117	-0.093
-305.851	-98.940	0.132	-0.033
-304.837	42.099	0.282	-0.253
-303.822	364.878	-0.129	-0.258
-302.807	-200.000	0.064	0.370
-301.793	228.958	-0.091	-0.147
-300.778	-70.659	-0.206	0.077
-299.764	-172.844	-0.249	0.008
-298.749	-200.000	-0.011	0.269
-297.735	459.056	-0.069	0.153
-296.720	796.119	0.067	0.184
-295.705	105.582	-0.211	0.247
-294.691	-37.098	-0.122	0.065
-293.676	164.830	-0.026	-0.036
-292.662	-62.327	0.171	-0.070
-291.647	-118.507	0.120	-0.021
-290.632	101.431	0.213	0.245
-289.618	303.209	-0.029	0.054
-288.603	-81.185	-0.309	0.101
-287.589	800.000	-0.067	-0.183
-286.574	-200.000	-0.043	0.253
-285.559	-135.490	0.137	0.016
-284.545	-200.000	-0.051	-0.521
-283.530	11.501	0.074	0.056
-282.516	-106.093	-0.097	-0.022
-281.501	-74.331	-0.182	0.065
-280.486	20.204	0.186	0.148
-279.472	-200.000	-0.006	-0.122
-278.457	-162.427	0.403	0.020
-277.443	155.959	0.147	0.201
-276.428	427.299	0.156	0.332
-275.413	-56.076	0.448	0.197
-274.399	90.841	0.126	-0.139
-273.384	79.476	-0.246	-0.260
-272.370	-26.111	0.207	0.120
-271.355	-74.774	-0.282	-0.100
-270.340	-86.800	-0.128	-0.039
-269.326	-200.000	-0.059	-0.264
-268.311	114.407	0.248	0.299
-267.297	-18.188	-0.114	0.070
-266.282	-150.704	0.142	-0.011
-265.267	-142.253	0.328	-0.032
-264.253	-60.254	0.409	0.172
-263.238	389.525	-0.140	0.287
-262.224	-18.277	-0.187	-0.115
-261.209	-200.000	-0.006	0.201
-260.195	154.437	0.167	0.227
-259.180	-129.633	-0.156	0.021
-258.165	72.513	0.131	-0.135
-257.151	800.000	-0.048	-0.208
-256.136	31.067	-0.245	0.207
-255.122	82.287	-0.107	0.115
-254.107	-200.000	-0.062	0.322
-253.092	-52.072	0.124	0.057
-252.078	83.715	-0.101	0.109
-251.063	-12.160	0.325	0.210
-250.049	-170.119	-0.382	0.013
-249.034	498.628	-0.075	-0.171
-248.019	-200.000	0.044	0.367
-247.005	38.992	0.097	-0.085
-245.990	-61.032	0.443	0.185
-244.976	501.190	-0.161	-0.367
-243.961	-87.246	0.249	0.074
-242.946	169.298	-0.227	0.319
-241.932	244.916	-0.107	-0.178
-240.917	-73.435	0.162	-0.058
-239.903	155.907	-0.089	-0.122
-238.888	-200.000	-0.043	-0.223
-237.873	101.635	0.253	0.291
-236.859	-200.000	-0.038	0.368
-235.844	-200.000	-0.021	-0.281
-234.830	-39.536	-0.151	0.078
-233.815	-113.536	0.116	-0.022
-232.800	-67.845	0.132	-0.051
-231.786	-45.894	0.420	-0.204
-230.771	1.397	0.310	-0.220
-229.757	2.228	-0.166	-0.118
-228.742	-200.000	0.032	-0.251
-227.727	-40.328	-0.182	0.093
-226.713	-200.000	-0.011	0.322
-225.698	-200.000	-0.030	-0.131
-224.684	-106.873	0.329	-0.072
-223.669	800.000	-0.052	0.173
-222.655	-200.000	-0.017	0.248
-221.640	800.000	0.109	0.307
-220.625	142.429	-0.089	0.116
-219.611	84.006	-0.180	-0.194
-218.596	-200.000	0.008	-0.155
-217.582	86.920	0.035	0.039
-216.567	-200.000	-0.009	-0.042
-215.552	251.068	-0.095	0.159
-214.538	12.201	0.189	-0.144
-213.523	86.740	-0.122	-0.132
-212.509	108.551	0.117	-0.138
-211.494	-200.000	0.019	-0.217
-210.479	181.758	-0.232	-0.337
-209.465	259.904	0.170	-0.289
-208.450	-191.559	-0.222	0.002
-207.436	777.445	0.066	0.178
-206.421	-40.335	0.322	-0.165
-205.406	229.241	-0.072	-0.116
-204.392	-200.000	0.075	-0.428
-203.377	-200.000	-0.059	0.511
-202.363	346.241	-0.114	0.222
-201.348	-200.000	-0.096	0.575
-200.333	-200.000	-0.012	-0.124
-199.319	729.208	0.102	-0.269
-198.304	-200.000	-0.011	-0.411
-197.290	-200.000	-0.019	-0.168
-196.275	-200.000	0.039	0.314
-195.260	240.158	0.052	-0.086
-194.246	-200.000	0.032	-0.197
-193.231	-169.983	-0.072	0.003
-192.217	240.399	0.280	0.460
-191.202	-200.000	-0.020	-0.136
-190.187	773.622	0.050	0.133
-189.173	-68.786	0.529	-0.201
-188.158	-139.773	-0.172	-0.018
-187.144	-200.000	-0.063	0.331
-186.129	-21.405	0.244	0.147
-185.114	11.026	-0.118	0.089
-184.100	5.819	-0.068	0.050
-183.085	-96.483	-0.192	0.050
-182.071	-200.000	0.028	0.450
-181.056	253.802	0.039	-0.065
-180.042	257.731	0.149	0.253
-179.027	-98.677	0.104	0.026
-178.012	-6.335	0.227	0.153
-176.998	289.961	0.040	-0.071
-175.983	-105.833	0.391	-0.087
-174.969	-135.412	-0.269	0.032
-173.954	40.213	-0.198	0.175
-172.939	23.647	0.166	0.135
-171.925	230.045	0.040	-0.065
-170.910	-32.350	0.083	-0.046
-169.896	543.090	-0.031	0.073
-168.881	323.362	0.106	-0.200
-167.866	-141.247	0.137	-0.014
-166.852	-7.164	0.161	-0.108
-165.837	-84.404	-0.112	-0.035
-164.823	670.316	-0.057	0.146
-163.808	800.000	-0.058	-0.181
-162.793	383.907	-0.144	0.291
-161.779	-117.133	0.201	0.036
-160.764	800.000	0.018	-0.068
-159.750	30.207	0.124	-0.104
-158.735	40.437	-0.120	-0.107
-157.720	-200.000	0.001	-0.074
-156.706	-107.042	-0.349	0.076
-155.691	800.000	0.088	-0.328
-154.677	181.015	0.040	0.057
-153.662	185.474	-0.238	-0.347
-152.647	-29.083	0.340	0.192
-151.633	-136.484	0.138	-0.016
-150.618	69.556	-0.181	0.183
-149.604	164.313	-0.128	-0.177
-148.589	-154.391	-0.297	0.020
-147.574	107.878	0.042	-0.050
-146.560	59.331	0.269	0.261
-145.545	-65.641	0.181	-0.071
-144.531	800.000	-0.105	0.322
-143.516	-200.000	-0.029	-0.290
-142.502	41.939	0.474	0.422
-141.487	-93.350	0.149	-0.041
-140.472	-115.417	-0.156	-0.029
-139.458	74.338	0.401	0.414
-138.443	-58.167	-0.098	0.042
-137.429	146.176	0.120	-0.158
-136.414	-70.471	0.051	-0.019
-135.399	-92.439	0.159	0.044
-134.385	404.703	0.040	-0.083
-133.370	-61.619	-0.122	-0.050
-132.356	181.383	-0.101	0.147
-131.341	218.859	0.047	-0.074
-130.326	103.912	0.227	0.262
-129.312	13.387	0.096	-0.073
-128.297	800.000	0.091	0.246
-127.283	-13.806	0.190	0.121
-126.268	88.669	-0.255	0.279
-125.253	28.043	0.127	0.105
-124.239	433.229	-0.114	-0.243
-123.224	-50.578	0.167	-0.077
-122.210	98.542	0.063	-0.071
