DTS Sentinel unit serial number:	SN413079Multiplexer serial number:	ORYXHardware model number:	OX4-SRSoftware version number:	ORYX F/W v4.00 Oryx Data Collector v3.7.2.0data status	okinstallation	princeton_trtdifferential loss correction	single-endedforward channel	channel 2reverse channel	N/Adate	2019/09/17time	01:27:34forward acquisition time	60.00reverse acquisition time	0.00gamma	496.2192k internal	0.2328k external	0.2328temperature offset calibration	0.9975default loss term (dB/km)	0.3790temperature slope calibration	1.0000multiplexer offset coefficient	1.0000multiplexer slope coefficient	1.0000fibre end	0.00T internal ref (°C)	29.50T ext. ref 1 (°C)	0.11T ext. ref 2 (°C)	24.32length (m)	temperature (°C)	Stokes	anti-Stokes-747.200	26.571	0.116	0.098
-746.185	-152.112	0.198	-0.015
-745.171	-77.808	0.200	-0.070
-744.156	-87.335	-0.336	0.103
-743.142	-200.000	0.006	0.105
-742.127	-200.000	-0.305	0.000
-741.112	-59.967	0.367	0.158
-740.098	-85.432	-0.265	-0.083
-739.083	800.000	0.029	-0.096
-738.069	800.000	0.048	0.136
-737.054	-116.448	0.294	-0.055
-736.039	-91.939	-0.168	-0.048
-735.025	-35.137	0.493	-0.270
-734.010	-24.421	0.135	-0.081
-732.996	-164.578	-0.134	-0.006
-731.981	-122.592	0.275	0.045
-730.966	800.000	0.064	-0.203
-729.952	-55.768	-0.212	-0.096
-728.937	-109.620	-0.249	0.053
-727.923	800.000	0.152	-0.428
-726.908	780.127	0.098	-0.271
-725.894	1.988	-0.196	0.143
-724.879	-79.605	-0.193	0.066
-723.864	-200.000	-0.022	0.290
-722.850	186.114	-0.072	0.108
-721.835	800.000	0.034	0.133
-720.821	-13.210	-0.120	-0.079
-719.806	-73.586	-0.194	-0.071
-718.791	-187.173	0.235	0.003
-717.777	-119.363	-0.158	0.028
-716.762	-44.204	0.198	0.100
-715.748	-57.175	0.072	0.032
-714.733	722.923	-0.138	-0.371
-713.718	-182.032	-0.046	-0.001
-712.704	-84.680	-0.166	0.052
-711.689	61.830	-0.136	0.137
-710.675	-200.000	0.016	-0.177
-709.660	-158.833	-0.258	0.015
-708.645	291.246	-0.136	-0.249
-707.631	-122.503	-0.206	0.034
-706.616	-200.000	0.060	-0.512
-705.602	-3.158	-0.090	0.063
-704.587	-79.459	0.312	-0.106
-703.572	272.555	-0.184	-0.327
-702.558	8.569	0.203	-0.153
-701.543	-100.483	0.070	0.018
-700.529	-135.897	-0.243	-0.029
-699.514	-26.733	0.033	-0.019
-698.499	796.065	-0.111	-0.308
-697.485	433.468	0.163	-0.356
-696.470	144.026	0.093	-0.124
-695.456	759.558	-0.074	0.201
-694.441	20.825	0.210	0.171
-693.426	-200.000	0.021	0.221
-692.412	238.025	0.174	-0.291
-691.397	17.498	-0.111	-0.089
-690.383	-200.000	0.004	-0.502
-689.368	-47.189	-0.089	-0.044
-688.354	136.119	0.078	0.102
-687.339	359.717	0.102	0.205
-686.324	17.535	-0.369	0.295
-685.310	-92.760	-0.201	0.057
-684.295	-94.421	-0.033	0.009
-683.281	-130.420	-0.399	-0.054
-682.266	800.000	-0.041	-0.175
-681.251	87.746	-0.180	-0.201
-680.237	2.276	0.142	0.103
-679.222	413.144	-0.094	-0.202
-678.208	-59.411	0.199	0.086
-677.193	-200.000	-0.023	-0.331
-676.178	276.800	-0.089	0.158
-675.164	-200.000	0.055	-0.270
-674.149	-200.000	-0.012	0.320
-673.135	153.309	-0.083	0.115
-672.120	1.454	-0.274	-0.198
-671.105	67.112	0.178	0.182
-670.091	144.241	0.264	0.354
-669.076	-200.000	-0.007	0.268
-668.062	-93.724	0.221	0.061
-667.047	-59.347	-0.195	-0.084
-666.032	800.000	-0.051	-0.166
-665.018	-200.000	-0.036	0.250
-664.003	-145.892	0.250	-0.022
-662.989	138.549	-0.052	-0.068
-661.974	374.301	0.028	0.058
-660.959	-15.093	-0.147	0.095
-659.945	328.635	-0.091	-0.176
-658.930	-65.775	0.056	0.023
-657.916	240.274	0.017	-0.028
-656.901	-24.375	0.119	0.071
-655.886	-29.519	-0.127	0.073
-654.872	-142.922	0.181	0.018
-653.857	800.000	0.028	-0.108
-652.843	251.527	-0.171	0.292
-651.828	79.453	-0.104	-0.112
-650.814	13.897	0.166	-0.130
-649.799	419.164	-0.140	-0.300
-648.784	-94.542	-0.086	0.024
-647.770	436.375	0.047	-0.103
-646.755	-69.963	-0.042	-0.016
-645.741	-115.757	-0.323	0.061
-644.726	800.000	-0.059	0.197
-643.711	-200.000	-0.020	0.301
-642.697	195.082	-0.284	0.433
-641.682	-120.699	-0.146	-0.025
-640.668	306.133	-0.128	-0.239
-639.653	18.580	-0.336	-0.269
-638.638	-200.000	-0.019	0.153
-637.624	592.898	-0.107	0.266
-636.609	115.022	-0.131	-0.160
-635.595	-54.747	-0.138	0.062
-634.580	70.874	0.231	0.240
-633.565	75.656	0.167	0.177
-632.551	-143.973	-0.500	-0.047
-631.536	22.843	0.066	-0.054
-630.522	-121.127	-0.313	0.053
-629.507	-116.872	-0.280	0.051
-628.492	800.000	-0.017	0.058
-627.478	-24.981	0.143	0.085
-626.463	-65.849	-0.138	0.055
-625.449	-32.132	-0.290	-0.163
-624.434	-200.000	-0.078	-0.414
-623.419	149.083	0.055	-0.075
-622.405	463.958	-0.103	0.232
-621.390	69.041	-0.085	0.087
-620.376	-44.298	0.080	-0.040
-619.361	200.505	0.185	-0.285
-618.346	331.468	-0.120	-0.232
-617.332	14.864	0.246	0.193
-616.317	108.707	-0.079	0.094
-615.303	24.751	0.270	-0.224
-614.288	36.415	-0.089	0.079
-613.273	17.284	-0.018	-0.014
-612.259	102.418	-0.161	-0.188
-611.244	-200.000	-0.006	-0.029
-610.230	5.554	0.145	-0.107
-609.215	-122.069	-0.156	0.026
-608.201	-200.000	0.001	0.007
-607.186	-149.111	-0.135	-0.011
-606.171	-154.188	0.085	0.006
-605.157	-27.473	0.299	-0.174
-604.142	-200.000	0.008	0.046
-603.128	212.188	-0.133	0.210
-602.113	536.140	0.060	-0.143
-601.098	38.806	0.055	0.049
-600.084	-61.650	-0.325	-0.136
-599.069	-200.000	-0.056	-0.279
-598.055	65.804	0.248	0.252
-597.040	800.000	-0.026	-0.097
-596.025	-200.000	-0.004	0.203
-595.011	137.698	-0.014	-0.018
-593.996	-67.807	-0.323	-0.126
-592.982	16.930	0.296	-0.235
-591.967	-200.000	-0.008	0.092
-590.952	9.103	0.090	-0.068
-589.938	-138.327	-0.320	-0.035
-588.923	270.833	0.112	0.198
-587.909	800.000	0.142	0.448
-586.894	-91.065	-0.412	0.119
-585.879	-125.864	-0.061	0.009
-584.865	152.566	0.055	-0.075
-583.850	-50.738	0.099	-0.047
-582.836	-200.000	-0.016	-0.191
-581.821	-30.465	0.180	-0.102
-580.806	-74.135	-0.065	-0.023
-579.792	-200.000	0.024	-0.416
-578.777	-62.416	0.208	-0.086
-577.763	-200.000	0.007	-0.305
-576.748	800.000	0.039	0.131
-575.733	29.983	0.214	0.182
-574.719	-159.245	-0.430	-0.024
-573.704	-59.406	0.074	-0.032
-572.690	161.196	0.150	0.210
-571.675	-200.000	-0.019	-0.337
-570.661	800.000	-0.034	0.100
-569.646	-200.000	0.013	-0.339
-568.631	-200.000	0.027	-0.140
-567.617	-200.000	0.030	-0.146
-566.602	14.823	0.025	-0.019
-565.588	46.176	-0.267	-0.248
-564.573	800.000	-0.058	0.224
-563.558	-200.000	-0.023	0.180
-562.544	16.979	-0.307	0.243
-561.529	-106.781	0.197	-0.044
-560.515	-200.000	0.018	-0.181
-559.500	31.933	-0.062	-0.054
-558.485	800.000	-0.111	-0.413
-557.471	282.290	0.081	-0.145
-556.456	793.720	-0.015	0.040
-555.442	-200.000	-0.015	-0.123
-554.427	42.428	-0.095	-0.087
-553.412	-200.000	-0.042	0.477
-552.398	-18.833	0.054	-0.033
-551.383	-200.000	-0.062	-0.439
-550.369	69.083	0.072	-0.074
-549.354	19.225	0.105	0.085
-548.339	195.606	0.047	0.072
-547.325	-21.519	-0.239	0.146
-546.310	-145.987	0.137	0.012
-545.296	-99.945	0.254	-0.063
-544.281	-3.881	-0.126	-0.087
-543.266	-106.539	0.207	-0.046
-542.252	800.000	-0.028	-0.110
-541.237	-200.000	-0.027	-0.118
-540.223	354.938	0.182	-0.362
-539.208	-169.135	0.076	0.003
-538.193	223.187	0.175	0.281
-537.179	-92.374	0.226	0.063
-536.164	-39.907	-0.304	0.159
-535.150	-40.883	0.195	0.101
-534.135	-200.000	0.012	0.096
-533.121	166.474	-0.045	0.063
-532.106	51.859	-0.198	-0.188
-531.091	-82.470	0.002	-0.001
-530.077	245.109	0.150	0.252
-529.062	-200.000	0.002	0.153
-528.048	800.000	-0.079	-0.341
-527.033	176.868	0.172	0.250
-526.018	-68.137	0.123	-0.048
-525.004	-69.914	0.134	0.051
-523.989	-90.303	0.068	-0.020
-522.975	9.146	-0.168	-0.127
-521.960	118.097	0.153	-0.188
-520.945	-25.511	-0.313	-0.185
-519.931	221.764	-0.041	0.066
-518.916	101.702	-0.068	0.079
-517.902	186.945	0.173	0.258
-516.887	325.096	-0.039	0.074
-515.872	285.427	-0.117	0.211
-514.858	-49.821	-0.130	-0.062
-513.843	-200.000	-0.022	-0.196
-512.829	-200.000	0.090	0.442
-511.814	-143.933	-0.393	-0.037
-510.799	278.255	-0.096	-0.171
-509.785	-200.000	-0.048	0.277
-508.770	95.749	0.111	0.127
-507.756	-8.209	-0.050	0.034
-506.741	-200.000	-0.013	-0.146
-505.726	-200.000	0.017	-0.086
-504.712	-97.487	0.114	0.030
-503.697	-200.000	0.001	-0.029
-502.683	-64.825	-0.183	0.074
-501.668	77.116	0.248	-0.264
-500.653	143.777	0.135	0.179
-499.639	568.735	0.096	0.233
-498.624	-97.902	0.237	0.061
-497.610	-17.887	-0.301	-0.188
-496.595	193.272	-0.161	0.244
-495.581	574.157	0.052	0.128
-494.566	-38.667	-0.247	-0.130
-493.551	-200.000	-0.003	-0.149
-492.537	270.165	0.033	-0.059
-491.522	126.194	0.124	-0.157
-490.508	-72.124	0.215	-0.079
-489.493	41.469	0.022	-0.020
-488.478	-91.291	-0.184	-0.052
-487.464	-200.000	0.048	-0.215
-486.449	104.702	-0.011	-0.013
-485.435	-35.034	-0.080	0.043
-484.420	-146.686	0.070	0.006
-483.405	800.000	0.069	-0.274
-482.391	-200.000	-0.029	-0.165
-481.376	459.330	-0.106	0.235
-480.362	20.279	-0.120	0.097
-479.347	-94.577	0.059	-0.016
-478.332	-127.857	0.522	-0.075
-477.318	31.144	0.125	0.107
-476.303	32.055	0.159	0.136
-475.289	81.718	-0.026	-0.028
-474.274	-200.000	-0.017	-0.095
-473.259	86.893	-0.145	-0.160
-472.245	774.218	-0.070	0.191
-471.230	800.000	-0.032	0.100
-470.216	-28.326	0.081	0.047
-469.201	-146.545	0.041	0.004
-468.186	-0.946	-0.076	-0.054
-467.172	194.511	0.153	0.231
-466.157	-33.865	-0.183	0.101
-465.143	-118.530	0.322	-0.057
-464.128	800.000	0.042	-0.117
-463.113	504.505	0.033	-0.077
-462.099	-161.872	-0.496	0.025
-461.084	-57.872	-0.173	-0.075
-460.070	-191.019	-0.258	0.003
-459.055	-55.508	-0.193	-0.086
-458.040	-62.898	-0.195	-0.080
-457.026	800.000	-0.038	-0.140
-456.011	567.586	0.063	-0.154
-454.997	-200.000	-0.014	0.418
-453.982	88.485	0.168	0.186
-452.968	-42.476	-0.304	0.154
-451.953	-21.163	0.162	-0.099
-450.938	-142.776	-0.142	0.014
-449.924	-100.452	0.258	-0.064
-448.909	-14.736	-0.167	0.107
-447.895	-17.398	0.302	-0.190
-446.880	609.439	0.072	0.180
-445.865	675.791	-0.127	0.329
-444.851	194.871	-0.074	0.112
-443.836	-57.345	0.168	0.074
-442.822	226.030	-0.165	0.267
-441.807	-200.000	-0.002	0.218
-440.792	-1.991	0.432	0.302
-439.778	232.593	0.011	0.018
-438.763	295.955	0.097	0.178
-437.749	-200.000	0.050	-0.304
-436.734	-141.097	0.309	0.031
-435.719	90.824	0.211	-0.235
-434.705	800.000	0.057	-0.193
-433.690	800.000	0.024	0.078
-432.676	-151.735	0.028	0.002
-431.661	173.553	-0.018	-0.026
-430.646	71.531	0.051	-0.053
-429.632	-165.197	0.317	0.014
-428.617	-109.691	0.204	0.043
-427.603	18.610	-0.105	0.083
-426.588	800.000	0.108	-0.312
-425.573	226.208	-0.155	-0.250
-424.559	292.144	0.049	0.088
-423.544	426.618	-0.043	-0.093
-422.530	-17.414	0.260	-0.163
-421.515	-188.535	0.108	0.001
-420.500	567.740	-0.124	0.300
-419.486	-53.557	-0.094	-0.043
-418.471	-200.000	-0.089	-0.539
-417.457	-200.000	0.007	-0.173
-416.442	63.310	-0.089	0.089
-415.428	14.793	-0.093	0.072
-414.413	-200.000	-0.014	-0.366
-413.398	800.000	0.044	-0.150
-412.384	-170.262	-0.109	0.004
-411.369	120.937	-0.214	0.265
-410.355	-4.042	-0.058	-0.040
-409.340	-52.886	0.163	-0.075
-408.325	800.000	0.070	0.244
-407.311	-108.284	-0.238	-0.051
-406.296	-64.739	0.131	-0.053
-405.282	62.008	0.173	-0.172
-404.267	-80.337	0.329	0.109
-403.252	-167.647	-0.252	0.010
-402.238	565.659	0.045	0.107
-401.223	205.383	-0.124	-0.192
-400.209	800.000	-0.038	0.148
-399.194	216.321	0.178	0.282
-398.179	162.859	-0.108	0.150
-397.165	-106.955	-0.271	0.060
-396.150	383.969	0.240	0.490
-395.136	147.024	-0.067	0.089
-394.121	13.725	-0.051	-0.039
-393.106	-53.954	0.325	-0.147
-392.092	486.881	-0.162	-0.367
-391.077	146.853	-0.159	0.212
-390.063	-85.983	0.131	0.040
-389.048	800.000	0.125	0.418
-388.033	800.000	0.066	-0.225
-387.019	36.699	0.199	0.175
-386.004	-200.000	0.003	0.230
-384.990	-98.763	0.221	-0.056
-383.975	34.344	-0.234	-0.203
-382.960	429.010	0.072	-0.155
-381.946	-115.740	0.176	0.033
-380.931	800.000	0.081	0.229
-379.917	-77.931	0.170	-0.058
-378.902	126.325	0.245	-0.308
-377.888	800.000	-0.130	0.428
-376.873	194.305	-0.046	-0.070
-375.858	-88.802	-0.145	0.043
-374.844	21.353	-0.157	-0.127
-373.829	-120.103	0.229	0.039
-372.815	-200.000	0.018	-0.254
-371.800	-22.418	0.473	-0.284
-370.785	57.947	0.240	-0.234
-369.771	354.107	-0.095	-0.187
-368.756	-200.000	-0.024	-0.183
-367.742	550.246	0.043	0.103
-366.727	212.487	-0.105	-0.165
-365.712	-200.000	-0.013	-0.094
-364.698	427.512	0.076	0.162
-363.683	-62.791	-0.386	0.159
-362.669	177.603	-0.112	0.162
-361.654	-108.891	0.036	0.008
-360.639	273.126	0.093	0.163
-359.625	-60.743	0.223	-0.094
-358.610	-200.000	-0.025	0.311
-357.596	-200.000	0.016	-0.152
-356.581	-112.454	-0.225	-0.045
-355.566	-34.324	0.605	-0.329
-354.552	-11.254	0.135	0.089
-353.537	34.720	-0.105	-0.092
-352.523	558.626	0.137	0.327
-351.508	-200.000	0.242	0.000
-350.493	7.730	-0.051	-0.038
-349.479	-108.050	0.094	0.020
-348.464	-32.548	0.084	-0.046
-347.450	23.240	-0.128	-0.105
-346.435	672.363	-0.068	0.175
-345.420	13.660	0.235	-0.181
-344.406	213.540	-0.147	0.230
-343.391	1.145	-0.225	-0.160
-342.377	11.022	-0.176	0.134
-341.362	195.546	0.102	-0.154
-340.348	-115.161	-0.310	-0.058
-339.333	55.388	-0.287	-0.276
-338.318	374.671	-0.055	0.110
-337.304	290.890	-0.144	0.259
-336.289	-200.000	0.011	-0.236
-335.275	-59.787	-0.243	-0.103
-334.260	-88.266	0.244	0.073
-333.245	-8.917	-0.132	0.088
-332.231	-200.000	-0.003	0.190
-331.216	59.903	-0.239	0.234
-330.202	506.539	-0.030	-0.069
-329.187	67.662	-0.263	-0.266
-328.172	-92.722	-0.066	0.018
-327.158	714.194	-0.097	0.256
-326.143	-51.830	-0.059	-0.027
-325.129	47.772	0.107	0.099
-324.114	129.723	-0.291	-0.369
-323.099	-89.214	0.414	-0.121
-322.085	800.000	-0.078	-0.316
-321.070	-200.000	-0.005	0.188
-320.056	116.956	0.145	0.176
-319.041	101.567	-0.112	0.130
-318.026	22.266	0.135	-0.109
-317.012	89.660	0.198	-0.219
-315.997	-200.000	0.044	-0.339
-314.983	-48.931	0.244	0.116
-313.968	-200.000	0.015	-0.091
-312.953	-34.039	0.248	0.135
-311.939	111.272	-0.067	0.081
-310.924	-200.000	0.017	0.164
-309.910	39.730	0.103	-0.091
-308.895	-45.319	0.160	0.078
-307.880	-200.000	0.045	0.235
-306.866	-35.692	-0.409	-0.220
-305.851	68.714	0.206	0.209
-304.837	800.000	-0.046	-0.181
-303.822	18.981	0.351	0.279
-302.807	23.106	-0.161	0.130
-301.793	-108.516	0.401	0.085
-300.778	-32.698	0.237	-0.130
-299.764	98.871	-0.006	-0.007
-298.749	399.231	0.175	0.363
-297.735	-61.835	0.161	0.067
-296.720	-30.086	0.223	0.125
-295.705	271.926	0.097	-0.169
-294.691	31.674	-0.106	-0.090
-293.676	-116.060	-0.032	-0.006
-292.662	92.616	-0.231	0.258
-291.647	423.574	0.089	-0.189
-290.632	510.526	-0.110	-0.253
-289.618	227.695	0.081	-0.130
-288.603	471.868	-0.139	0.310
-287.589	209.703	-0.072	0.112
-286.574	-14.540	-0.222	0.141
-285.559	-162.640	-0.339	0.016
-284.545	800.000	-0.079	0.269
-283.530	-200.000	0.056	0.320
-282.516	265.914	0.062	0.106
-281.501	139.003	0.100	-0.130
-280.486	-200.000	-0.084	-0.470
-279.472	-120.509	-0.315	0.053
-278.457	263.518	0.098	0.169
-277.443	89.513	0.129	0.142
-276.428	-7.733	0.063	0.042
-275.413	175.013	0.058	-0.083
-274.399	-28.691	-0.208	-0.119
-273.384	199.325	-0.115	-0.174
-272.370	559.437	-0.067	-0.161
-271.355	-34.158	0.126	0.069
-270.340	19.324	0.168	-0.133
-269.326	-167.148	-0.395	-0.016
-268.311	140.780	0.159	0.207
-267.297	-85.660	0.435	0.134
-266.282	605.292	0.112	0.275
-265.267	100.232	-0.050	-0.057
-264.253	75.086	-0.149	0.156
-263.238	-200.000	0.006	-0.163
-262.224	-158.498	0.498	0.028
-261.209	513.722	-0.073	0.169
-260.195	-200.000	0.018	0.260
-259.180	-57.981	0.173	-0.075
-258.165	-141.411	0.253	-0.025
-257.151	-130.068	0.224	-0.030
-256.136	-52.945	-0.288	-0.131
-255.122	800.000	0.068	-0.259
-254.107	382.996	-0.047	-0.095
-253.092	-200.000	-0.008	0.260
-252.078	117.908	0.196	0.239
-251.063	126.608	-0.209	0.261
-250.049	-131.195	0.371	-0.049
-249.034	-200.000	-0.023	0.136
-248.019	-200.000	-0.030	0.207
-247.005	-42.696	0.159	0.080
-245.990	28.369	-0.185	-0.154
-244.976	-3.971	0.185	-0.127
-243.961	655.239	0.045	-0.113
-242.946	300.984	0.022	-0.041
-241.932	-112.712	-0.136	-0.027
-240.917	30.268	0.064	0.054
-239.903	-200.000	0.014	0.193
-238.888	800.000	0.037	-0.141
-237.873	-200.000	0.040	-0.280
-236.859	800.000	0.122	-0.426
-235.844	-200.000	-0.005	-0.100
-234.830	-200.000	-0.028	0.239
-233.815	800.000	-0.035	0.119
-232.800	109.444	0.026	0.031
-231.786	96.555	-0.178	-0.201
-230.771	441.653	0.042	0.091
-229.757	8.517	-0.249	0.185
-228.742	-200.000	0.010	-0.101
-227.727	268.348	-0.160	-0.277
-226.713	-72.217	-0.213	-0.078
-225.698	-12.328	0.179	-0.115
-224.684	800.000	-0.032	0.104
-223.669	302.652	-0.216	0.395
-222.655	29.601	0.177	0.149
-221.640	480.442	-0.073	0.163
-220.625	57.789	0.247	0.239
-219.611	60.094	-0.138	0.135
-218.596	119.260	-0.046	0.057
-217.582	-110.699	-0.202	-0.041
-216.567	-0.324	-0.412	-0.289
-215.552	-152.172	-0.199	-0.014
-214.538	800.000	0.065	0.199
-213.523	-200.000	-0.045	0.215
-212.509	-99.214	0.086	-0.021
-211.494	74.943	0.074	-0.077
-210.479	381.075	-0.091	0.184
-209.465	-114.587	0.195	-0.037
-208.450	-200.000	0.014	-0.295
-207.436	304.303	-0.163	0.298
-206.421	132.225	-0.083	0.105
-205.406	112.442	0.069	-0.083
-204.392	-200.000	-0.011	-0.064
-203.377	-31.003	-0.202	0.113
-202.363	-200.000	0.043	0.285
-201.348	800.000	0.041	-0.127
-200.333	-200.000	0.013	0.256
-199.319	224.735	0.131	0.210
-198.304	800.000	-0.148	-0.477
-197.290	-71.024	-0.159	0.059
-196.275	335.789	0.026	-0.050
-195.260	56.993	0.202	0.194
-194.246	101.858	0.060	0.069
-193.231	22.314	0.184	0.148
-192.217	320.397	-0.016	0.030
-191.202	-200.000	0.016	-0.275
-190.187	-200.000	0.018	0.287
-189.173	138.094	-0.183	-0.237
-188.158	-37.512	-0.047	0.024
-187.144	-39.063	-0.299	-0.155
-186.129	-116.786	-0.230	-0.042
-185.114	-1.218	0.138	0.096
-184.100	95.328	0.221	-0.248
-183.085	800.000	-0.151	-0.436
-182.071	-47.618	0.094	-0.045
-181.056	-153.342	0.283	0.019
-180.042	-200.000	0.028	-0.166
-179.027	800.000	-0.068	-0.252
-178.012	47.271	-0.158	0.145
-176.998	-115.280	0.161	0.030
-175.983	-131.251	-0.285	-0.037
-174.969	-75.901	0.082	0.029
-173.954	-131.027	-0.156	0.020
-172.939	-200.000	0.006	0.114
-171.925	410.881	0.172	-0.360
-170.910	12.288	-0.171	0.130
-169.896	-147.244	0.265	-0.022
-168.881	-200.000	-0.020	0.091
-167.866	-200.000	-0.001	0.101
-166.852	800.000	-0.094	-0.323
-165.837	-35.436	-0.171	-0.091
-164.823	134.281	-0.051	-0.065
-163.808	39.065	-0.230	0.202
-162.793	-85.298	0.063	-0.019
-161.779	-200.000	0.063	-0.303
-160.764	-6.895	0.209	0.140
-159.750	52.625	0.045	0.043
-158.735	-200.000	-0.024	0.156
-157.720	-17.666	0.154	0.095
-156.706	44.181	0.194	-0.175
-155.691	321.113	0.025	-0.046
-154.677	1.414	-0.157	-0.111
-153.662	48.536	-0.176	-0.162
-152.647	-139.584	0.104	0.011
-151.633	800.000	-0.074	0.225
-150.618	2.568	-0.235	-0.168
-149.604	800.000	-0.039	-0.145
-148.589	-53.608	0.255	0.115
-147.574	800.000	0.052	-0.170
-146.560	-200.000	-0.040	0.222
-145.545	-158.450	-0.133	-0.008
-144.531	-131.024	-0.295	-0.039
-143.516	111.928	-0.076	0.090
-142.502	-8.237	0.357	-0.236
-141.487	135.577	0.151	-0.193
-140.472	-200.000	0.025	0.180
-139.458	-21.359	0.146	-0.088
-138.443	-174.283	-0.240	-0.007
-137.429	459.925	0.095	0.209
-136.414	3.529	-0.215	0.154
-135.399	-200.000	-0.075	-0.329
-134.385	520.459	-0.055	0.126
-133.370	11.570	0.085	-0.064
-132.356	5.115	0.125	0.090
-131.341	-17.453	0.095	0.059
-130.326	-28.848	0.128	-0.072
-129.312	-126.511	0.278	-0.041
-128.297	44.680	-0.035	0.032
-127.283	-28.364	0.114	0.065
-126.268	343.884	-0.111	-0.214
-125.253	-200.000	-0.060	0.283
-124.239	156.509	-0.168	0.228
-123.224	-74.165	-0.370	0.132
-122.210	159.227	0.061	0.083
-121.195	-200.000	0.067	0.492
-120.180	-136.215	0.213	0.024
