DTS Sentinel unit serial number:	SN413079Multiplexer serial number:	ORYXHardware model number:	OX4-SRSoftware version number:	ORYX F/W v4.00 Oryx Data Collector v3.7.2.0data status	okinstallation	princeton_trtdifferential loss correction	single-endedforward channel	channel 2reverse channel	N/Adate	2019/09/16time	08:35:35forward acquisition time	60.00reverse acquisition time	0.00gamma	496.2192k internal	0.2327k external	0.2327temperature offset calibration	0.9978default loss term (dB/km)	0.3790temperature slope calibration	1.0000multiplexer offset coefficient	1.0000multiplexer slope coefficient	1.0000fibre end	0.00T internal ref (°C)	29.47T ext. ref 1 (°C)	11.93T ext. ref 2 (°C)	26.13length (m)	temperature (°C)	Stokes	anti-Stokes-747.200	-200.000	-0.025	0.150
-746.185	-50.009	0.238	0.114
-745.171	733.127	-0.020	0.055
-744.156	-123.884	-0.231	0.037
-743.142	179.482	0.181	-0.267
-742.127	-83.666	0.358	0.115
-741.112	-164.786	-0.011	0.001
-740.098	-16.192	-0.187	0.120
-739.083	135.246	0.073	-0.096
-738.069	-200.000	-0.001	0.212
-737.054	-34.596	-0.180	-0.100
-736.039	800.000	-0.091	-0.310
-735.025	33.861	0.082	-0.072
-734.010	288.727	-0.105	-0.191
-732.996	109.472	0.198	-0.239
-731.981	-200.000	0.051	-0.355
-730.966	1.079	0.045	-0.033
-729.952	4.521	0.087	0.065
-728.937	-29.907	-0.158	-0.091
-727.923	320.802	0.123	0.235
-726.908	179.078	-0.140	0.206
-725.894	-200.000	0.062	-0.278
-724.879	-58.282	0.019	-0.008
-723.864	401.267	0.095	-0.201
-722.850	800.000	0.111	0.409
-721.835	-200.000	0.042	-0.303
-720.821	-86.440	0.147	-0.045
-719.806	111.868	-0.051	-0.062
-718.791	-84.013	0.139	-0.044
-717.777	-145.026	-0.341	-0.031
-716.762	-156.290	0.186	0.012
-715.748	93.485	0.056	-0.064
-714.733	-93.848	-0.191	-0.053
-713.718	10.826	0.176	-0.136
-712.704	424.483	0.092	0.199
-711.689	51.687	0.116	-0.111
-710.675	36.167	-0.256	0.227
-709.660	-200.000	-0.042	0.368
-708.645	65.120	0.254	0.258
-707.631	-85.115	-0.156	-0.049
-706.616	-200.000	-0.069	-0.490
-705.602	-200.000	-0.006	-0.147
-704.587	182.680	-0.078	-0.116
-703.572	800.000	-0.080	-0.354
-702.558	-200.000	0.010	0.268
-701.543	-51.002	-0.173	-0.082
-700.529	145.104	0.040	0.054
-699.514	295.273	-0.252	-0.463
-698.499	-178.731	0.119	-0.003
-697.485	433.847	0.103	0.226
-696.470	79.609	0.096	-0.104
-695.456	800.000	-0.127	0.482
-694.441	458.095	0.040	0.090
-693.426	12.792	-0.131	0.102
-692.412	800.000	-0.060	-0.184
-691.397	-111.313	-0.153	0.031
-690.383	444.936	0.155	0.342
-689.368	-100.953	-0.127	0.031
-688.354	233.073	0.124	0.205
-687.339	-69.871	0.141	0.054
-686.324	18.032	0.073	0.059
-685.310	-103.564	-0.240	-0.057
-684.295	25.950	0.111	0.093
-683.281	-200.000	0.020	0.291
-682.266	800.000	0.079	0.261
-681.251	-54.931	-0.337	-0.153
-680.237	34.256	0.440	-0.386
-679.222	201.500	-0.087	0.135
-678.208	-27.600	-0.118	0.069
-677.193	30.403	0.199	0.171
-676.178	-180.513	-0.139	-0.003
-675.164	176.019	-0.204	0.298
-674.149	-200.000	-0.058	0.301
-673.135	258.543	-0.098	-0.170
-672.120	-126.547	-0.395	-0.059
-671.105	4.963	0.141	0.104
-670.091	-200.000	0.001	0.072
-669.076	800.000	0.010	0.034
-668.062	-44.486	0.111	0.056
-667.047	-200.000	0.026	0.182
-666.032	-200.000	-0.010	-0.058
-665.018	-115.754	-0.043	0.008
-664.003	234.009	-0.022	-0.036
-662.989	23.564	-0.117	-0.096
-661.974	-80.719	0.257	-0.086
-660.959	189.814	0.035	-0.052
-659.945	17.697	0.265	-0.212
-658.930	24.935	0.066	-0.055
-657.916	170.121	-0.060	-0.086
-656.901	265.432	0.064	0.113
-655.886	18.340	-0.070	-0.056
-654.872	190.556	0.080	-0.121
-653.857	-63.419	-0.088	-0.036
-652.843	800.000	-0.048	-0.188
-651.828	482.707	-0.066	0.152
-650.814	-161.065	-0.135	-0.007
-649.799	-200.000	0.004	-0.160
-648.784	-25.903	0.136	-0.080
-647.770	-200.000	-0.044	-0.388
-646.755	133.631	-0.301	-0.391
-645.741	-200.000	-0.007	0.082
-644.726	447.828	0.081	-0.178
-643.711	115.014	0.278	-0.340
-642.697	-200.000	-0.035	0.194
-641.682	800.000	-0.062	0.199
-640.668	117.653	0.063	-0.078
-639.653	-187.379	0.368	-0.005
-638.638	63.784	-0.269	-0.271
-637.624	-143.480	0.436	0.042
-636.609	136.071	0.197	0.257
-635.595	-28.542	-0.142	-0.082
-634.580	360.556	0.069	-0.139
-633.565	135.209	-0.093	0.122
-632.551	-65.681	-0.104	-0.042
-631.536	-32.742	-0.222	0.124
-630.522	538.556	-0.065	-0.155
-629.507	675.311	0.056	-0.147
-628.492	659.383	0.063	-0.163
-627.478	800.000	-0.094	0.354
-626.463	166.329	0.104	-0.147
-625.449	-200.000	-0.028	-0.329
-624.434	515.687	0.048	-0.112
-623.419	-182.125	-0.287	-0.005
-622.405	308.622	0.052	-0.097
-621.390	29.372	-0.190	-0.162
-620.376	-200.000	-0.017	0.161
-619.361	23.968	0.160	-0.132
-618.346	10.342	-0.449	-0.342
-617.332	800.000	0.082	-0.235
-616.317	330.709	0.246	0.475
-615.303	800.000	0.051	0.217
-614.288	367.761	-0.041	0.083
-613.273	-76.936	-0.076	-0.027
-612.259	-24.085	-0.132	0.079
-611.244	330.940	0.130	0.251
-610.230	115.501	-0.250	-0.307
-609.215	800.000	-0.086	0.376
-608.201	4.878	0.320	0.236
-607.186	218.287	0.071	0.114
-606.171	-112.340	-0.308	0.062
-605.157	287.455	-0.068	-0.124
-604.142	33.963	-0.101	0.089
-603.128	800.000	0.034	0.112
-602.113	-12.999	0.466	-0.304
-601.098	-200.000	-0.042	-0.242
-600.084	6.436	0.317	0.236
-599.069	-37.790	-0.048	0.026
-598.055	482.629	-0.118	0.269
-597.040	564.437	0.073	0.178
-596.025	-95.748	0.177	-0.047
-595.011	-200.000	0.079	-0.414
-593.996	114.004	-0.243	-0.296
-592.982	-200.000	-0.057	0.475
-591.967	503.773	-0.037	0.087
-590.952	-145.864	0.276	0.025
-589.938	-107.338	0.106	-0.023
-588.923	108.789	-0.188	0.226
-587.909	-200.000	-0.019	-0.184
-586.894	-112.112	-0.237	0.048
-585.879	-200.000	0.026	0.184
-584.865	-200.000	-0.009	-0.189
-583.850	-200.000	0.061	-0.527
-582.836	-145.003	0.038	-0.003
-581.821	-83.399	-0.258	-0.083
-580.806	-104.417	0.371	-0.086
-579.792	3.580	-0.079	-0.058
-578.777	349.114	-0.111	-0.219
-577.763	446.052	-0.133	0.292
-576.748	131.872	-0.084	-0.109
-575.733	-26.136	-0.115	0.068
-574.719	-136.072	-0.287	0.034
-573.704	800.000	-0.040	-0.172
-572.690	-24.485	-0.276	0.165
-571.675	24.227	0.225	0.186
-570.661	-200.000	-0.003	-0.031
-569.646	800.000	0.106	0.316
-568.631	-200.000	-0.015	-0.197
-567.617	800.000	0.015	-0.050
-566.602	-122.574	0.149	0.024
-565.588	-107.664	-0.494	0.108
-564.573	40.766	-0.207	0.187
-563.558	-38.974	0.138	0.073
-562.544	259.511	0.093	-0.161
-561.529	117.509	-0.193	-0.238
-560.515	311.092	0.261	0.490
-559.500	46.560	-0.082	-0.076
-558.485	-63.254	0.057	0.024
-557.471	-6.938	0.270	0.184
-556.456	800.000	0.095	0.297
-555.442	700.489	0.069	-0.183
-554.427	-148.590	-0.259	-0.021
-553.412	71.252	-0.175	-0.182
-552.398	42.167	-0.178	-0.162
-551.383	-60.789	0.121	0.051
-550.369	491.809	0.050	0.115
-549.354	-200.000	-0.052	-0.436
-548.339	49.009	-0.017	0.016
-547.325	-200.000	0.006	-0.334
-546.310	57.357	-0.081	-0.079
-545.296	655.298	-0.195	-0.500
-544.281	-117.140	0.148	-0.027
-543.266	218.253	-0.157	-0.251
-542.252	333.235	0.218	0.422
-541.237	254.156	0.071	0.121
-540.223	125.329	0.027	0.034
-539.208	531.131	0.095	-0.226
-538.193	800.000	0.075	0.324
-537.179	-123.152	0.077	0.012
-536.164	-172.642	-0.205	0.006
-535.150	-166.943	-0.158	-0.006
-534.135	5.833	0.262	-0.194
-533.121	245.311	-0.153	-0.257
-532.106	194.963	-0.122	-0.185
-531.091	-200.000	-0.004	0.034
-530.077	-200.000	0.014	0.064
-529.062	681.369	0.094	0.246
-528.048	51.784	-0.237	0.225
-527.033	-200.000	0.005	0.133
-526.018	-24.572	-0.102	-0.061
-525.004	174.852	0.090	-0.130
-523.989	-23.415	-0.273	0.164
-522.975	100.286	0.195	-0.226
-521.960	-34.828	-0.343	-0.187
-520.945	-200.000	-0.004	0.159
-519.931	-65.601	0.164	0.066
-518.916	800.000	-0.044	-0.130
-517.902	800.000	-0.046	-0.147
-516.887	64.505	-0.402	0.405
-515.872	52.067	0.192	0.183
-514.858	-200.000	-0.014	0.201
-513.843	-85.005	-0.376	0.118
-512.829	8.838	-0.135	-0.102
-511.814	12.186	-0.325	-0.250
-510.799	-131.899	0.242	-0.032
-509.785	-49.979	0.165	-0.078
-508.770	-135.420	-0.047	-0.006
-507.756	-14.542	-0.006	-0.004
-506.741	63.192	-0.132	-0.132
-505.726	-90.726	0.115	0.033
-504.712	-132.195	0.316	-0.041
-503.697	-37.762	0.365	-0.194
-502.683	-148.612	-0.081	0.007
-501.668	-99.318	0.370	-0.093
-500.653	-34.105	-0.032	0.018
-499.639	-200.000	0.013	0.119
-498.624	-59.104	-0.046	-0.020
-497.610	800.000	-0.070	0.255
-496.595	515.230	0.045	-0.104
-495.581	148.779	-0.202	-0.273
-494.566	358.524	-0.045	0.089
-493.551	701.022	0.141	-0.370
-492.537	42.622	0.143	0.130
-491.522	-89.165	-0.053	0.015
-490.508	-200.000	0.007	-0.061
-489.493	800.000	0.087	-0.263
-488.478	-50.267	0.115	-0.054
-487.464	48.642	-0.230	0.215
-486.449	-138.182	-0.336	-0.037
-485.435	400.693	0.063	-0.133
-484.420	-4.721	0.096	-0.066
-483.405	-49.315	-0.346	-0.165
-482.391	422.619	-0.138	0.296
-481.376	50.041	-0.073	-0.069
-480.362	-200.000	0.033	0.172
-479.347	-88.205	0.275	-0.082
-478.332	14.744	0.171	-0.133
-477.318	111.372	-0.179	-0.216
-476.303	-200.000	-0.013	-0.403
-475.289	-200.000	0.051	-0.319
-474.274	-144.902	0.352	-0.032
-473.259	72.298	0.011	-0.011
-472.245	36.883	-0.044	-0.039
-471.230	295.134	-0.136	0.248
-470.216	-200.000	-0.042	-0.193
-469.201	255.888	-0.072	0.123
-468.186	93.061	0.271	0.305
-467.172	-114.333	-0.096	-0.018
-466.157	800.000	0.137	-0.422
-465.143	95.022	-0.137	0.156
-464.128	109.177	0.032	0.038
-463.113	800.000	-0.073	0.284
-462.099	135.795	-0.188	0.245
-461.084	-56.450	0.231	-0.102
-460.070	36.887	-0.174	-0.154
-459.055	-80.297	0.295	-0.098
-458.040	-2.976	0.016	-0.011
-457.026	-72.039	0.119	0.044
-456.011	-76.953	-0.204	-0.071
-454.997	-45.184	0.249	-0.123
-453.982	-50.677	0.021	0.010
-452.968	-63.259	-0.152	0.062
-451.953	48.138	0.238	-0.222
-450.938	798.015	-0.005	-0.014
-449.924	-121.278	-0.171	0.028
-448.909	515.265	0.152	-0.354
-447.895	-143.289	0.286	0.027
-446.880	-200.000	-0.068	0.341
-445.865	-127.918	-0.127	-0.018
-444.851	-22.975	-0.056	0.034
-443.836	-200.000	0.028	0.179
-442.822	-21.326	-0.245	0.149
-441.807	800.000	0.059	-0.211
-440.792	-96.319	0.270	-0.071
-439.778	-94.165	-0.268	-0.073
-438.763	800.000	-0.044	0.152
-437.749	800.000	-0.086	0.271
-436.734	139.746	-0.170	-0.223
-435.719	296.991	-0.158	-0.288
-434.705	362.491	0.174	-0.348
-433.690	519.486	0.063	-0.147
-432.676	-200.000	-0.461	-0.001
-431.661	768.915	-0.074	0.201
-430.646	800.000	-0.101	-0.307
-429.632	92.205	-0.203	-0.228
-428.617	800.000	0.062	0.254
-427.603	-200.000	-0.028	-0.271
-426.588	-117.997	-0.248	0.044
-425.573	4.658	-0.288	0.210
-424.559	-158.544	0.265	-0.015
-423.544	-200.000	0.009	0.214
-422.530	-22.485	-0.157	0.095
-421.515	248.700	0.154	0.259
-420.500	-15.385	-0.220	0.140
-419.486	-124.383	-0.085	-0.013
-418.471	55.269	0.171	-0.165
-417.457	-98.246	-0.269	-0.069
-416.442	-97.669	0.047	0.012
-415.428	284.275	-0.084	-0.150
-414.413	-32.768	-0.129	-0.071
-413.398	-17.307	0.477	0.299
-412.384	562.263	-0.101	0.242
-411.369	-156.441	-0.175	0.011
-410.355	97.952	0.119	0.137
-409.340	-200.000	-0.076	0.375
-408.325	-47.228	-0.133	-0.064
-407.311	225.684	-0.090	0.145
-406.296	-88.874	-0.083	0.024
-405.282	-96.001	-0.136	-0.036
-404.267	800.000	-0.041	-0.147
-403.252	800.000	0.085	0.316
-402.238	800.000	0.030	-0.128
-401.223	-128.491	-0.212	-0.030
-400.209	-110.143	0.271	0.056
-399.194	94.567	0.247	0.279
-398.179	-200.000	0.020	-0.154
-397.165	-114.477	0.129	0.025
-396.150	-200.000	0.018	0.199
-395.136	-200.000	0.007	0.168
-394.121	-125.472	0.160	-0.024
-393.106	-8.614	-0.133	0.089
-392.092	328.836	0.121	0.231
-391.077	-118.435	0.230	-0.041
-390.063	-56.492	0.120	-0.053
-389.048	-1.269	0.283	0.199
-388.033	800.000	0.050	0.182
-387.019	513.421	0.077	-0.178
-386.004	-200.000	-0.005	-0.543
-384.990	481.751	-0.098	-0.222
-383.975	-141.940	-0.204	0.020
-382.960	800.000	-0.075	0.320
-381.946	-13.857	0.210	-0.135
-380.931	-34.626	0.317	0.172
-379.917	800.000	-0.033	0.096
-378.902	-22.010	0.142	0.086
-377.888	-122.985	-0.531	0.085
-376.873	-131.982	0.187	0.024
-375.858	405.595	0.026	-0.056
-374.844	-45.564	0.301	-0.148
-373.829	800.000	-0.050	0.177
-372.815	-97.017	-0.248	-0.064
-371.800	-100.900	-0.230	-0.056
-370.785	583.175	-0.077	0.187
-369.771	-8.474	0.249	-0.167
-368.756	-45.256	0.027	-0.013
-367.742	298.365	0.233	-0.425
-366.727	-200.000	0.007	-0.033
-365.712	1.075	-0.331	-0.236
-364.698	-37.713	-0.176	-0.093
-363.683	117.151	-0.104	-0.127
-362.669	-200.000	-0.026	0.363
-361.654	-81.989	-0.337	-0.109
-360.639	264.177	-0.278	-0.480
-359.625	566.677	0.169	-0.408
-358.610	426.365	0.102	-0.218
-357.596	607.753	-0.099	-0.245
-356.581	-200.000	0.004	0.048
-355.566	106.374	-0.164	-0.194
-354.552	-165.595	0.429	-0.019
-353.537	800.000	0.053	0.180
-352.523	163.498	0.160	-0.224
-351.508	800.000	-0.089	0.314
-350.493	800.000	0.084	-0.317
-349.479	-14.608	-0.149	-0.095
-348.464	410.704	0.066	-0.139
-347.450	634.842	-0.043	-0.108
-346.435	359.149	0.130	0.258
-345.420	251.590	0.042	-0.071
-344.406	417.083	0.069	-0.147
-343.391	82.922	-0.081	-0.087
-342.377	432.897	-0.109	0.234
-341.362	-176.062	-0.031	-0.001
-340.348	-200.000	0.032	0.140
-339.333	35.286	-0.341	0.297
-338.318	800.000	0.055	0.170
-337.304	66.626	0.350	-0.354
-336.289	10.484	-0.119	0.090
-335.275	800.000	-0.124	0.457
-334.260	-63.728	0.315	0.128
-333.245	38.732	0.051	0.045
-332.231	-33.564	0.098	-0.054
-331.216	78.685	0.109	-0.116
-330.202	212.226	-0.265	0.414
-329.187	24.059	0.115	-0.094
-328.172	12.357	0.307	0.235
-327.158	531.791	-0.163	0.382
-326.143	-111.510	-0.170	-0.034
-325.129	-61.051	-0.204	-0.085
-324.114	-200.000	-0.004	-0.089
-323.099	-200.000	0.009	0.294
-322.085	411.852	0.166	0.349
-321.070	94.931	-0.098	-0.111
-320.056	106.722	-0.129	0.152
-319.041	800.000	-0.035	-0.115
-318.026	-133.334	0.279	0.035
-317.012	187.185	0.035	0.051
-315.997	800.000	-0.098	-0.306
-314.983	-80.043	-0.175	-0.058
-313.968	655.777	-0.080	-0.204
-312.953	70.634	0.155	0.159
-311.939	-200.000	-0.000	-0.217
-310.924	10.764	0.174	-0.132
-309.910	-200.000	0.051	0.255
-308.895	-3.849	0.286	0.197
-307.880	-64.851	0.057	-0.023
-306.866	-200.000	-0.001	0.279
-305.851	147.222	0.287	-0.383
-304.837	-46.841	-0.021	0.010
-303.822	-47.643	-0.204	0.098
-302.807	-171.850	0.199	-0.006
-301.793	-94.031	0.093	-0.025
-300.778	445.978	-0.061	0.132
-299.764	37.896	0.242	-0.213
-298.749	-58.985	-0.131	-0.056
-297.735	675.943	-0.083	-0.215
-296.720	-148.566	-0.129	0.010
-295.705	-144.155	0.044	-0.004
-294.691	-200.000	0.013	0.061
-293.676	-43.325	-0.047	-0.024
-292.662	-43.770	-0.212	-0.106
-291.647	-42.053	0.167	-0.084
-290.632	-177.029	-0.206	0.005
-289.618	-32.326	0.044	0.024
-288.603	176.023	0.188	0.270
-287.589	-14.876	-0.048	0.030
-286.574	-200.000	0.016	-0.187
-285.559	-45.079	0.216	0.106
-284.545	-29.063	-0.332	-0.188
-283.530	345.442	-0.125	-0.243
-282.516	-156.231	0.270	0.017
-281.501	13.979	0.149	-0.115
-280.486	562.184	-0.048	-0.114
-279.472	-200.000	0.025	-0.165
-278.457	191.128	0.093	-0.138
-277.443	-80.585	0.171	-0.056
-276.428	-180.691	0.099	0.002
-275.413	112.360	-0.302	0.362
-274.399	-120.888	-0.197	-0.033
-273.384	24.882	0.181	0.148
-272.370	-8.592	-0.222	0.148
-271.355	800.000	-0.070	-0.214
-270.340	-107.134	-0.123	0.027
-269.326	138.188	0.074	0.096
-268.311	-200.000	0.036	0.297
-267.297	-200.000	0.002	0.208
-266.282	192.250	-0.286	-0.427
-265.267	251.830	-0.084	0.142
-264.253	111.178	0.259	0.309
-263.238	55.244	0.042	-0.040
-262.224	-200.000	-0.112	-0.671
-261.209	794.068	0.017	0.046
-260.195	93.242	0.242	0.271
-259.180	144.903	-0.218	0.288
-258.165	648.004	-0.016	0.041
-257.151	-86.608	0.232	-0.070
-256.136	-117.804	0.401	-0.071
-255.122	135.754	0.127	0.164
-254.107	171.384	0.153	0.218
-253.092	415.322	-0.148	0.311
-252.078	13.926	0.329	0.253
-251.063	-200.000	-0.021	-0.116
-250.049	-116.842	-0.095	-0.017
-249.034	-83.506	0.321	0.102
-248.019	-200.000	0.051	0.380
-247.005	13.388	0.098	-0.075
-245.990	-119.687	0.202	-0.034
-244.976	800.000	-0.089	-0.267
-243.961	36.477	-0.067	-0.058
-242.946	5.226	-0.060	-0.044
-241.932	290.015	-0.039	-0.070
-240.917	145.320	-0.110	-0.146
-239.903	-168.017	0.236	-0.009
-238.888	-163.822	-0.199	0.009
-237.873	-71.862	0.047	0.017
-236.859	59.609	-0.246	0.240
-235.844	-135.308	-0.172	-0.020
-234.830	90.274	-0.086	-0.095
-233.815	25.852	0.238	-0.196
-232.800	-54.050	-0.192	0.086
-231.786	475.959	0.096	0.214
-230.771	-200.000	-0.018	-0.094
-229.757	800.000	0.065	0.214
-228.742	-39.131	0.311	-0.162
-227.727	-154.950	-0.373	0.024
-226.713	256.975	-0.087	0.148
-225.698	-200.000	-0.028	-0.234
-224.684	-125.367	0.074	0.011
-223.669	-55.055	0.268	0.119
-222.655	155.531	-0.250	0.340
-221.640	12.812	0.023	-0.017
-220.625	92.096	-0.264	0.294
-219.611	499.264	0.109	0.248
-218.596	-35.748	0.119	0.064
-217.582	476.328	0.138	0.308
-216.567	-61.550	-0.153	-0.064
-215.552	-162.537	0.050	0.002
-214.538	152.703	-0.188	0.253
-213.523	-24.995	0.161	-0.094
-212.509	-200.000	-0.074	-0.339
-211.494	-63.364	-0.264	-0.107
-210.479	118.120	-0.219	-0.267
-209.465	123.974	-0.125	0.155
-208.450	-200.000	0.060	0.489
-207.436	-173.157	0.458	0.014
-206.421	-200.000	0.050	-0.264
-205.406	-137.484	0.236	0.026
-204.392	687.747	0.137	-0.352
-203.377	76.729	-0.145	0.152
-202.363	184.185	-0.056	-0.082
-201.348	800.000	0.024	-0.092
-200.333	29.111	-0.295	-0.247
-199.319	-200.000	0.002	-0.029
-198.304	-105.384	0.104	0.023
-197.290	-57.256	-0.018	-0.008
-196.275	-74.989	0.212	-0.075
-195.260	33.488	-0.089	-0.076
-194.246	104.434	-0.107	0.124
-193.231	-31.888	0.408	0.225
-192.217	-120.169	0.169	-0.028
-191.202	67.062	0.051	-0.051
-190.187	-90.031	0.144	0.042
-189.173	800.000	0.088	0.316
-188.158	181.257	0.168	-0.243
-187.144	97.159	-0.335	-0.379
-186.129	-161.180	-0.100	-0.005
-185.114	-103.337	0.294	0.068
-184.100	671.299	-0.125	0.319
-183.085	237.657	-0.093	0.153
-182.071	68.865	-0.223	0.226
-181.056	800.000	0.185	0.522
-180.042	800.000	-0.043	0.175
-179.027	63.979	-0.137	-0.136
-178.012	729.379	0.031	-0.082
-176.998	-200.000	0.018	0.144
-175.983	-127.908	0.398	-0.056
-174.969	265.068	0.130	-0.224
-173.954	-200.000	-0.038	0.227
-172.939	0.906	-0.159	0.112
-171.925	337.680	0.063	-0.121
-170.910	800.000	-0.021	-0.085
-169.896	161.712	0.062	0.086
-168.881	-86.864	-0.191	0.057
-167.866	35.048	-0.054	0.047
-166.852	-128.699	0.096	-0.013
-165.837	181.697	0.029	-0.042
-164.823	70.911	0.148	-0.151
-163.808	800.000	0.117	0.416
-162.793	-200.000	-0.007	-0.042
-161.779	570.283	-0.044	-0.106
-160.764	-164.097	0.398	0.018
-159.750	-200.000	0.002	0.159
-158.735	800.000	0.074	0.242
-157.720	275.398	0.110	0.192
-156.706	117.846	-0.234	-0.283
-155.691	-200.000	-0.019	0.110
-154.677	-22.711	0.076	-0.045
-153.662	-200.000	-0.098	0.486
-152.647	446.083	0.076	-0.164
-151.633	-65.352	-0.455	-0.180
-150.618	-183.795	0.173	0.003
-149.604	-19.996	-0.091	-0.055
-148.589	163.062	-0.154	0.212
-147.574	800.000	-0.088	-0.321
-146.560	-61.449	0.484	-0.201
-145.545	-4.263	0.200	-0.136
-144.531	-101.461	0.332	0.080
-143.516	103.881	0.143	-0.166
-142.502	-184.505	0.227	0.004
-141.487	77.970	-0.053	-0.056
-140.472	-5.553	0.318	-0.214
-139.458	-11.693	0.189	-0.122
-138.443	-127.278	-0.022	0.003
-137.429	75.341	0.116	0.120
-136.414	15.116	0.136	-0.105
-135.399	20.670	0.122	0.098
-134.385	80.183	-0.360	0.381
-133.370	731.017	-0.067	0.178
-132.356	91.474	0.149	0.165
-131.341	214.115	-0.144	-0.224
-130.326	-200.000	-0.273	0.001
-129.312	-200.000	-0.056	0.325
-128.297	-10.205	0.115	0.075
-127.283	617.111	-0.103	-0.254
-126.268	-200.000	0.053	-0.258
-125.253	205.193	0.138	0.212
-124.239	127.775	-0.081	0.101
-123.224	-42.194	-0.515	0.259
-122.210	-31.528	0.206	-0.114
-121.195	-42.565	0.291	-0.146
