DTS Sentinel unit serial number:	SN413079Multiplexer serial number:	ORYXHardware model number:	OX4-SRSoftware version number:	ORYX F/W v4.00 Oryx Data Collector v3.7.2.0data status	okinstallation	princeton_trtdifferential loss correction	single-endedforward channel	channel 2reverse channel	N/Adate	2019/09/12time	18:10:49forward acquisition time	15.00reverse acquisition time	0.00gamma	496.2192k internal	0.2323k external	0.2323temperature offset calibration	1.0135default loss term (dB/km)	0.3790temperature slope calibration	1.0000multiplexer offset coefficient	1.0000multiplexer slope coefficient	1.0000fibre end	0.00T internal ref (°C)	33.62T ext. ref 1 (°C)	2.97T ext. ref 2 (°C)	28.14length (m)	temperature (°C)	Stokes	anti-Stokes-747.200	-200.000	0.033	-0.345
-746.185	-200.000	-0.015	-0.130
-745.171	613.123	-0.217	0.549
-744.156	118.365	0.260	0.324
-743.142	-29.638	0.374	-0.215
-742.127	-66.081	0.571	0.230
-741.112	800.000	0.095	-0.381
-740.098	-200.000	-0.071	0.409
-739.083	800.000	0.181	-0.542
-738.069	123.826	0.519	0.658
-737.054	-200.000	-0.136	1.238
-736.039	-44.776	0.244	0.123
-735.025	-105.540	-0.668	-0.153
-734.010	41.650	0.576	-0.526
-732.996	258.001	-0.248	-0.431
-731.981	44.084	-0.136	-0.126
-730.966	-94.364	-1.160	-0.320
-729.952	465.697	-0.245	0.552
-728.937	47.975	0.585	-0.551
-727.923	116.138	-0.405	0.500
-726.908	10.334	-0.473	0.363
-725.894	26.040	-0.339	-0.285
-724.879	800.000	-0.309	0.950
-723.864	-134.436	1.563	0.193
-722.850	-24.961	0.636	0.381
-721.835	248.125	0.259	0.442
-720.821	-86.804	-0.341	0.105
-719.806	90.721	0.224	0.254
-718.791	766.344	-0.159	0.435
-717.777	199.982	-0.202	-0.314
-716.762	-2.025	-0.640	0.454
-715.748	800.000	-0.197	-0.612
-714.733	17.006	0.170	0.136
-713.718	-200.000	0.028	0.273
-712.704	447.981	0.297	-0.659
-711.689	-200.000	0.062	0.313
-710.675	800.000	0.150	0.484
-709.660	-151.870	-0.784	0.058
-708.645	4.996	-0.790	-0.586
-707.631	661.862	0.088	-0.229
-706.616	-21.204	-0.606	-0.373
-705.602	58.990	-0.221	0.219
-704.587	-200.000	0.020	-0.357
-703.572	-200.000	-0.262	-1.295
-702.558	800.000	-0.053	-0.219
-701.543	62.929	0.303	-0.305
-700.529	-89.628	-0.353	-0.104
-699.514	525.164	-0.067	0.158
-698.499	-200.000	0.135	0.626
-697.485	-67.490	0.517	0.205
-696.470	257.270	-0.368	-0.638
-695.456	25.823	0.928	-0.780
-694.441	31.437	-0.576	-0.499
-693.426	800.000	0.084	-0.315
-692.412	-200.000	0.026	0.368
-691.397	121.129	0.085	-0.107
-690.383	56.363	-0.323	0.317
-689.368	725.136	0.162	-0.436
-688.354	-137.722	-0.571	0.065
-687.339	-97.098	1.007	0.265
-686.324	-83.694	0.373	-0.120
-685.310	167.286	0.332	-0.474
-684.295	800.000	-0.109	-0.467
-683.281	-200.000	0.012	0.366
-682.266	-107.423	-0.571	-0.126
-681.251	-171.736	0.621	0.021
-680.237	107.361	0.266	-0.319
-679.222	-57.846	-0.652	-0.287
-678.208	-200.000	0.455	0.000
-677.193	800.000	0.100	0.395
-676.178	-99.066	0.341	0.087
-675.164	-30.820	0.389	0.222
-674.149	-200.000	0.200	-1.223
-673.135	51.917	0.566	-0.542
-672.120	252.483	0.246	-0.423
-671.105	19.145	-0.304	0.246
-670.091	-30.602	-0.532	-0.304
-669.076	68.235	0.700	-0.721
-668.062	384.728	-0.261	0.542
-667.047	383.529	-0.487	1.010
-666.032	800.000	0.064	-0.254
-665.018	269.281	-0.353	-0.625
-664.003	800.000	0.187	-0.552
-662.989	95.115	0.346	-0.397
-661.974	-133.496	-1.669	0.211
-660.959	486.267	-0.168	-0.385
-659.945	-200.000	0.082	-0.494
-658.930	95.854	0.156	0.179
-657.916	54.046	-0.325	-0.314
-656.901	-93.385	0.375	-0.105
-655.886	-97.852	-0.751	0.195
-654.872	253.084	-0.178	0.306
-653.857	156.009	0.404	0.560
-652.843	339.630	-0.228	0.447
-651.828	766.123	-0.160	0.437
-650.814	14.954	-0.863	0.679
-649.799	-200.000	0.057	0.471
-648.784	-200.000	0.008	0.198
-647.770	151.091	-0.534	-0.730
-646.755	6.381	0.364	0.272
-645.741	144.349	0.224	-0.301
-644.726	-70.649	0.375	0.143
-643.711	-35.584	-0.307	-0.168
-642.697	109.063	0.527	0.634
-641.682	800.000	-0.097	0.328
-640.668	-134.305	-0.464	-0.057
-639.653	-119.171	-0.260	0.046
-638.638	135.387	0.168	0.220
-637.624	-156.219	-0.315	0.020
-636.609	7.381	-0.495	-0.372
-635.595	-200.000	-0.058	1.139
-634.580	-120.092	0.398	0.068
-633.565	800.000	-0.086	-0.265
-632.551	-105.440	-0.111	-0.025
-631.536	-68.382	-0.086	0.034
-630.522	61.748	-0.604	0.605
-629.507	-57.227	-0.518	-0.229
-628.492	-200.000	0.105	-0.545
-627.478	-200.000	-0.070	-0.794
-626.463	209.778	0.254	-0.400
-625.449	-200.000	0.040	0.626
-624.434	-158.149	0.493	-0.029
-623.419	-73.553	0.431	0.158
-622.405	18.903	-0.818	0.658
-621.390	24.919	0.465	0.388
-620.376	-134.976	0.782	0.095
-619.361	51.260	-0.484	0.462
-618.346	-200.000	0.202	-0.981
-617.332	-42.121	0.149	-0.077
-616.317	-74.420	-0.130	-0.047
-615.303	148.986	0.108	-0.147
-614.288	800.000	0.031	0.115
-613.273	100.197	-0.244	0.285
-612.259	-157.422	-1.303	-0.079
-611.244	4.231	0.171	-0.126
-610.230	-200.000	0.016	-0.772
-609.215	-29.449	-0.440	0.253
-608.201	-69.187	-0.471	0.182
-607.186	60.978	0.407	-0.406
-606.171	164.748	-0.143	-0.203
-605.157	3.221	0.505	-0.369
-604.142	374.245	0.303	0.620
-603.128	408.940	0.361	-0.767
-602.113	-91.067	-0.830	-0.239
-601.098	-200.000	-0.647	0.002
-600.084	-77.684	0.840	0.292
-599.069	563.285	0.191	0.465
-598.055	-44.576	-0.619	-0.310
-597.040	-200.000	0.017	-0.315
-596.025	330.503	0.386	-0.747
-595.011	144.047	-0.220	-0.294
-593.996	800.000	0.165	-0.635
-592.982	800.000	0.112	-0.390
-591.967	-95.808	-0.127	0.034
-590.952	9.766	0.505	-0.385
-589.938	-200.000	-0.045	-0.259
-588.923	800.000	0.326	-1.119
-587.909	-62.037	-0.450	-0.189
-586.894	-55.615	-0.262	0.118
-585.879	300.317	-0.100	0.185
-584.865	-58.420	0.290	-0.126
-583.850	-165.542	0.503	0.022
-582.836	-30.330	0.360	0.205
-581.821	213.273	-0.110	0.174
-580.806	-200.000	-0.116	-0.556
-579.792	-98.771	0.090	0.023
-578.777	-132.113	0.721	0.094
-577.763	-200.000	0.155	1.046
-576.748	800.000	-0.275	0.984
-575.733	-200.000	0.058	1.336
-574.719	81.037	-0.568	-0.615
-573.704	141.601	0.374	-0.496
-572.690	19.593	-0.319	0.257
-571.675	-179.417	-0.219	0.005
-570.661	22.563	0.458	-0.376
-569.646	-200.000	-0.141	0.918
-568.631	-134.351	0.527	-0.065
-567.617	-200.000	0.069	-0.593
-566.602	-34.966	-0.306	0.167
-565.588	-128.191	1.053	0.151
-564.573	-108.240	0.750	0.163
-563.558	-200.000	0.036	0.218
-562.544	53.641	0.258	-0.248
-561.529	282.124	0.451	0.811
-560.515	-117.485	0.949	-0.172
-559.500	-200.000	-0.131	0.677
-558.485	-23.863	-1.095	-0.657
-557.471	-50.655	-0.709	0.335
-556.456	800.000	-0.079	0.248
-555.442	447.645	0.173	-0.381
-554.427	-200.000	-0.060	-0.473
-553.412	-182.222	-0.788	0.015
-552.398	-200.000	-0.049	-0.568
-551.383	-200.000	-0.065	-0.285
-550.369	-74.036	0.419	-0.152
-549.354	147.583	-0.199	-0.268
-548.339	347.918	0.149	0.294
-547.325	800.000	-0.341	1.039
-546.310	-200.000	0.158	0.752
-545.296	-200.000	0.049	-0.559
-544.281	8.665	-0.419	-0.316
-543.266	-200.000	-0.086	-0.635
-542.252	117.479	0.250	-0.308
-541.237	47.382	0.741	-0.691
-540.223	-200.000	-0.110	-0.735
-539.208	13.116	-0.648	-0.503
-538.193	-200.000	-0.005	0.806
-537.179	-16.888	0.836	0.529
-536.164	-114.713	0.299	-0.057
-535.150	-200.000	-0.110	-0.481
-534.135	800.000	0.151	-0.598
-533.121	219.482	-0.514	0.824
-532.106	140.988	-0.212	0.280
-531.091	17.001	-0.613	0.487
-530.077	-136.675	0.375	0.043
-529.062	197.916	0.171	0.262
-528.048	37.261	-1.361	1.207
-527.033	-200.000	-0.107	-0.667
-526.018	800.000	-0.217	0.676
-525.004	-200.000	-0.055	0.322
-523.989	-106.078	-0.668	0.150
-522.975	-89.525	0.627	-0.184
-521.960	-3.699	-0.598	-0.416
-520.945	-159.445	0.686	0.038
-519.931	-200.000	0.080	-0.466
-518.916	-200.000	0.009	-0.342
-517.902	772.855	-0.193	0.526
-516.887	800.000	0.074	-0.270
-515.872	-13.458	-0.544	0.353
-514.858	-100.581	-0.696	0.172
-513.843	140.612	0.694	-0.917
-512.829	136.602	-0.452	-0.590
-511.814	21.108	-0.240	0.195
-510.799	129.296	-0.410	-0.524
-509.785	-58.716	-0.741	-0.321
-508.770	-83.313	0.220	-0.071
-507.756	-153.787	-0.854	0.059
-506.741	-200.000	-0.018	0.562
-505.726	-47.871	-0.788	-0.382
-504.712	-93.241	0.431	-0.120
-503.697	-82.495	1.120	-0.364
-502.683	800.000	0.356	-1.307
-501.668	-21.449	0.302	-0.184
-500.653	94.336	-0.384	0.436
-499.639	-200.000	0.075	0.687
-498.624	-52.888	0.733	-0.338
-497.610	-94.526	-0.385	-0.105
-496.595	-148.054	-0.342	0.028
-495.581	-157.509	-0.201	-0.012
-494.566	800.000	-0.233	-0.725
-493.551	-12.594	0.647	-0.422
-492.537	-97.097	0.911	0.238
-491.522	94.625	-0.347	-0.394
-490.508	215.103	-0.353	0.560
-489.493	100.826	0.142	-0.165
-488.478	142.167	0.254	-0.337
-487.464	-117.148	-0.350	0.064
-486.449	-40.672	-0.536	0.278
-485.435	-92.834	0.331	0.092
-484.420	214.266	0.331	0.524
-483.405	-50.395	0.409	0.193
-482.391	102.866	-0.141	-0.164
-481.376	32.309	0.434	-0.374
-480.362	784.978	-0.048	0.131
-479.347	135.337	0.130	0.169
-478.332	126.456	-0.047	-0.059
-477.318	-99.065	0.333	0.084
-476.303	188.235	-0.525	-0.784
-475.289	-144.440	0.674	-0.062
-474.274	-113.291	0.275	0.054
-473.259	-7.126	-0.727	0.493
-472.245	-200.000	0.876	0.001
-471.230	212.754	0.379	0.597
-470.216	429.173	-0.321	-0.694
-469.201	-14.914	0.151	-0.097
-468.186	-163.814	0.051	0.002
-467.172	-97.334	-1.040	-0.271
-466.157	347.875	0.275	0.541
-465.143	-200.000	0.022	-0.357
-464.128	423.784	-0.114	-0.245
-463.113	45.671	0.376	-0.347
-462.099	448.138	0.201	0.443
-461.084	448.496	0.327	0.719
-460.070	83.095	0.312	-0.339
-459.055	168.132	-0.297	-0.423
-458.040	15.412	-0.262	0.205
-457.026	91.307	-0.460	-0.515
-456.011	-24.904	0.068	-0.040
-454.997	-113.162	-0.725	-0.143
-453.982	3.506	0.225	-0.164
-452.968	-167.487	0.635	0.025
-451.953	-63.097	-0.430	-0.177
-450.938	-93.595	0.348	-0.096
-449.924	-200.000	-0.047	0.308
-448.909	134.070	0.384	0.496
-447.895	474.264	-0.090	-0.203
-446.880	-200.000	0.039	0.250
-445.865	275.522	0.244	-0.432
-444.851	-111.580	-0.279	0.057
-443.836	-88.522	-0.570	-0.169
-442.822	9.908	-0.103	0.078
-441.807	-156.912	-0.465	-0.028
-440.792	-10.306	-0.597	0.395
-439.778	-182.676	-0.802	-0.015
-438.763	-137.811	0.667	0.075
-437.749	-200.000	0.122	0.792
-436.734	-47.752	-0.424	0.205
-435.719	161.312	-0.426	0.595
-434.705	800.000	-0.180	-0.538
-433.690	16.175	0.382	0.300
-432.676	108.208	0.642	0.764
-431.661	-18.878	0.276	-0.171
-430.646	-78.257	1.010	-0.346
-429.632	59.142	0.429	-0.421
-428.617	-134.135	0.374	0.046
-427.603	260.214	-0.102	0.176
-426.588	-164.543	-0.171	0.008
-425.573	-85.344	0.864	0.269
-424.559	37.856	0.371	-0.329
-423.544	-0.279	-0.412	0.292
-422.530	-200.000	0.013	-0.079
-421.515	15.746	-0.342	0.268
-420.500	22.069	0.389	-0.316
-419.486	60.593	0.548	-0.541
-418.471	78.591	-0.394	0.419
-417.457	175.996	-0.208	0.300
-416.442	-124.682	-1.114	-0.172
-415.428	-200.000	0.013	0.806
-414.413	-200.000	-0.064	-0.420
-413.398	48.373	-0.059	0.055
-412.384	13.342	0.710	-0.549
-411.369	-200.000	-0.008	0.269
-410.355	79.171	0.203	-0.217
-409.340	800.000	-0.113	-0.388
-408.325	473.241	-0.359	-0.806
-407.311	-55.441	-0.177	-0.079
-406.296	-13.289	0.219	-0.142
-405.282	-200.000	0.121	-0.707
-404.267	-16.058	-0.391	0.247
-403.252	-200.000	0.021	0.689
-402.238	800.000	0.107	-0.391
-401.223	-60.992	0.341	0.143
-400.209	-55.036	-0.282	0.126
-399.194	800.000	-0.077	-0.331
-398.179	-48.961	0.298	-0.142
-397.165	-200.000	-0.075	-0.564
-396.150	225.251	-0.353	0.569
-395.136	54.029	0.150	0.143
-394.121	145.829	-0.958	1.279
-393.106	800.000	-0.192	0.582
-392.092	-30.239	0.086	0.049
-391.077	-131.608	-0.491	-0.064
-390.063	-33.845	0.391	-0.214
-389.048	272.789	0.286	0.503
-388.033	393.650	-0.449	0.931
-387.019	356.101	0.121	-0.241
-386.004	-128.396	0.294	-0.042
-384.990	484.152	0.101	0.229
-383.975	286.783	0.220	-0.396
-382.960	-200.000	0.021	-0.283
-381.946	14.991	-0.285	-0.222
-380.931	2.119	-0.263	-0.189
-379.917	522.094	0.049	0.114
-378.902	-200.000	-0.003	0.899
-377.888	-8.753	-0.591	0.395
-376.873	-44.936	0.317	-0.157
-375.858	-200.000	0.043	0.787
-374.844	175.882	0.282	-0.407
-373.829	144.969	0.460	-0.612
-372.815	0.935	-0.457	0.326
-371.800	-64.403	0.430	-0.174
-370.785	53.704	0.696	-0.665
-369.771	-12.764	0.456	-0.296
-368.756	800.000	0.343	-1.404
-367.742	81.419	0.115	0.124
-366.727	-60.333	-0.076	-0.032
-365.712	91.344	0.192	-0.214
-364.698	276.712	-0.447	0.790
-363.683	645.342	0.043	0.109
-362.669	800.000	0.162	0.574
-361.654	-200.000	0.025	-0.364
-360.639	-53.430	-0.515	0.235
-359.625	-25.295	0.531	0.313
-358.610	220.615	0.272	-0.433
-357.596	800.000	0.079	-0.285
-356.581	800.000	0.024	-0.074
-355.566	-166.151	1.063	0.045
-354.552	76.132	0.266	0.280
-353.537	144.441	-0.395	0.525
-352.523	71.599	0.244	0.252
-351.508	-103.638	0.345	0.081
-350.493	109.921	-0.381	-0.454
-349.479	260.680	0.619	-1.065
-348.464	74.475	-0.522	-0.545
-347.450	-155.587	-0.624	-0.040
-346.435	-124.348	-0.097	-0.015
-345.420	241.044	0.209	-0.347
-344.406	-82.088	-0.230	-0.075
-343.391	-88.219	-0.520	-0.155
-342.377	-5.587	-0.054	-0.037
-341.362	-59.949	0.602	-0.256
-340.348	-89.759	-0.851	-0.248
-339.333	-150.928	-0.499	0.038
-338.318	800.000	0.192	-0.564
-337.304	155.294	-0.735	1.006
-336.289	66.455	0.545	0.551
-335.275	-158.209	0.678	-0.039
-334.260	115.143	-0.060	0.073
-333.245	126.906	0.116	0.147
-332.231	-11.930	-1.080	-0.703
-331.216	-23.450	-0.154	0.092
-330.202	123.809	0.248	0.309
-329.187	-200.000	-0.054	-0.351
-328.172	-71.777	0.271	-0.100
-327.158	800.000	-0.090	-0.376
-326.143	-100.965	1.158	-0.282
-325.129	50.335	0.619	-0.581
-324.114	800.000	-0.195	-0.842
-323.099	-94.195	0.552	0.150
-322.085	-34.011	-0.840	-0.459
-321.070	800.000	0.061	0.197
-320.056	-39.374	0.640	0.333
-319.041	99.269	0.203	-0.233
-318.026	-117.170	-1.097	-0.198
-317.012	-166.312	-0.265	0.011
-315.997	-192.304	0.645	0.006
-314.983	11.434	-0.479	0.365
-313.968	49.883	-0.531	0.497
-312.953	53.805	0.652	0.622
-311.939	206.163	0.172	0.266
-310.924	322.826	-0.349	-0.660
-309.910	800.000	0.112	-0.439
-308.895	-88.013	-0.643	0.192
-307.880	-200.000	-0.080	-0.447
-306.866	-33.730	0.328	-0.180
-305.851	-200.000	-0.011	-0.762
-304.837	-45.335	-0.415	-0.204
-303.822	800.000	0.066	-0.205
-302.807	-9.519	-0.224	-0.148
-301.793	131.700	-0.397	0.506
-300.778	81.802	-0.660	0.709
-299.764	-200.000	-0.142	0.712
-298.749	-200.000	-0.014	0.255
-297.735	-6.554	0.311	-0.210
-296.720	-134.940	0.610	-0.073
-295.705	-78.216	0.424	0.144
-294.691	800.000	-0.150	-0.549
-293.676	47.046	-0.382	-0.353
-292.662	-170.431	-0.397	0.014
-291.647	151.215	0.095	0.129
-290.632	6.200	-0.199	0.146
-289.618	-2.765	0.161	0.112
-288.603	-140.020	-0.657	-0.069
-287.589	609.957	0.156	-0.387
-286.574	-139.153	-0.354	-0.038
-285.559	-200.000	0.014	-0.143
-284.545	294.884	0.530	-0.961
-283.530	800.000	-0.191	-0.551
-282.516	-58.712	-0.739	-0.318
-281.501	-55.603	0.613	-0.272
-280.486	-67.935	-0.515	-0.199
-279.472	-2.430	-0.343	-0.239
-278.457	-56.211	0.150	-0.066
-277.443	-105.767	-0.388	-0.087
-276.428	800.000	0.272	-0.782
-275.413	-84.726	0.793	-0.247
-274.399	-200.000	-0.058	-0.826
-273.384	800.000	0.161	0.524
-272.370	800.000	0.177	0.557
-271.355	-13.915	0.735	0.471
-270.340	-6.947	0.519	0.349
-269.326	779.944	-0.140	0.380
-268.311	-200.000	0.093	0.700
-267.297	-200.000	-0.141	0.614
-266.282	564.297	-0.298	0.716
-265.267	-75.836	0.294	0.103
-264.253	800.000	0.133	0.558
-263.238	13.981	-0.329	0.254
-262.224	-200.000	0.014	-0.097
-261.209	-200.000	0.118	-1.001
-260.195	-200.000	0.103	0.452
-259.180	-147.763	0.189	0.016
-258.165	800.000	-0.225	0.666
-257.151	200.787	0.148	0.225
-256.136	-46.195	-1.129	0.551
-255.122	-200.000	-0.041	1.002
-254.107	60.648	0.483	0.474
-253.092	-88.994	0.712	0.209
-252.078	-200.000	0.083	0.544
-251.063	800.000	-0.196	0.690
-250.049	136.532	-0.471	0.608
-249.034	227.641	-0.106	-0.171
-248.019	-173.892	0.452	0.013
-247.005	22.830	0.038	-0.031
-245.990	10.890	0.327	0.247
-244.976	-153.242	0.595	-0.041
-243.961	357.209	-0.323	-0.637
-242.946	-200.000	0.012	-0.551
-241.932	-68.940	-0.428	-0.164
-240.917	-178.712	-0.317	0.007
-239.903	259.323	0.172	-0.293
-238.888	-126.879	0.560	0.082
-237.873	800.000	-0.135	0.575
-236.859	-92.776	0.589	0.163
-235.844	-200.000	0.052	-0.866
-234.830	150.550	-0.282	-0.379
-233.815	75.928	-0.079	-0.082
-232.800	52.518	-0.449	0.424
-231.786	80.531	-0.137	0.146
-230.771	-95.274	0.274	0.073
-229.757	-144.694	0.382	0.035
-228.742	134.816	-0.539	0.693
-227.727	-200.000	0.085	-0.421
-226.713	135.390	0.286	-0.369
-225.698	9.803	0.451	-0.339
-224.684	81.782	0.185	0.198
-223.669	-115.084	0.675	-0.127
-222.655	-200.000	-0.077	0.843
-221.640	800.000	0.104	0.310
-220.625	-200.000	0.124	-0.584
-219.611	35.998	-0.427	-0.372
-218.596	-103.360	-0.855	-0.199
-217.582	300.667	0.488	0.891
-216.567	133.298	0.320	-0.410
-215.552	-33.540	0.039	-0.021
-214.538	-200.000	-0.025	0.490
-213.523	800.000	-0.094	0.399
-212.509	-25.137	-0.052	-0.030
-211.494	23.280	0.034	-0.028
-210.479	-141.472	0.277	-0.028
-209.465	289.559	0.106	0.190
-208.450	-200.000	0.184	-1.014
-207.436	480.001	-0.116	0.259
-206.421	138.537	-0.406	0.527
-205.406	8.000	-0.947	0.702
-204.392	73.907	0.388	-0.402
-203.377	201.287	0.669	-1.019
-202.363	210.034	-0.837	1.299
-201.348	14.587	-0.604	-0.467
-200.333	-105.769	0.711	0.159
-199.319	102.516	-0.352	0.407
-198.304	36.733	0.022	-0.019
-197.290	103.670	0.505	0.586
-196.275	-200.000	0.002	0.279
-195.260	164.456	-0.153	0.213
-194.246	153.198	0.371	-0.501
-193.231	-38.428	0.197	0.103
-192.217	-26.394	-0.383	-0.222
-191.202	-57.393	0.721	-0.313
-190.187	-119.337	-0.347	0.060
-189.173	107.140	-0.695	0.817
-188.158	-50.107	-0.396	-0.185
-187.144	476.629	0.210	-0.470
-186.129	-87.817	0.546	0.163
-185.114	-30.877	-0.501	0.280
-184.100	705.216	-0.217	0.564
-183.085	-55.964	0.351	-0.155
-182.071	-99.390	-0.192	-0.048
-181.056	-200.000	0.103	0.892
-180.042	-200.000	0.171	1.320
-179.027	-200.000	-0.010	0.450
-178.012	-200.000	0.037	-0.713
-176.998	-167.303	-0.474	0.019
-175.983	-158.041	0.551	0.032
-174.969	-122.659	-0.813	0.130
-173.954	31.747	-0.085	0.072
-172.939	-200.000	-0.022	0.544
-171.925	-9.859	-0.255	0.168
-170.910	395.247	-0.455	-0.936
-169.896	-5.379	-0.629	0.426
-168.881	-113.252	0.393	0.076
-167.866	-11.465	0.142	0.092
-166.852	-3.598	-0.685	-0.470
-165.837	-83.331	0.661	0.209
-164.823	46.862	0.389	-0.357
-163.808	-134.629	-0.165	0.020
-162.793	129.973	0.421	-0.532
-161.779	288.653	-0.329	-0.589
-160.764	195.275	0.036	0.054
-159.750	11.600	0.287	0.217
-158.735	38.808	0.410	0.361
-157.720	88.896	-0.226	-0.248
-156.706	375.440	0.388	0.781
-155.691	257.032	0.095	-0.161
-154.677	64.048	0.270	-0.268
-153.662	42.850	-0.232	-0.209
-152.647	84.297	0.459	0.495
-151.633	28.378	-0.739	-0.616
-150.618	-74.892	-0.721	-0.255
-149.604	325.198	0.249	-0.470
-148.589	-200.000	-0.208	-1.003
-147.574	669.363	-0.115	-0.294
-146.560	-200.000	0.065	0.505
-145.545	-200.000	0.060	-0.423
-144.531	7.022	0.394	0.289
-143.516	83.222	0.598	0.642
-142.502	-179.587	-1.170	0.025
-141.487	-200.000	-0.029	0.373
-140.472	-200.000	0.036	-0.448
-139.458	114.519	-0.057	-0.069
-138.443	-75.421	-0.749	-0.263
-137.429	-200.000	-0.000	0.764
-136.414	42.362	-0.315	-0.283
-135.399	28.538	-0.823	-0.686
-134.385	800.000	-0.143	0.415
-133.370	-29.455	-0.690	0.389
-132.356	-65.533	0.800	-0.317
-131.341	800.000	0.011	-0.047
-130.326	-127.054	-0.456	-0.066
-129.312	-146.887	0.882	-0.075
-128.297	-200.000	-0.014	0.484
-127.283	-112.517	1.300	-0.256
-126.268	-169.685	0.626	-0.022
-125.253	-200.000	0.190	-0.887
-124.239	-190.850	-0.381	0.004
-123.224	414.186	0.400	-0.840
-122.210	78.746	0.441	0.465
-121.195	800.000	0.338	1.027
-120.180	800.000	0.089	-0.295
