DTS Sentinel unit serial number:	SN413079Multiplexer serial number:	ORYXHardware model number:	OX4-SRSoftware version number:	ORYX F/W v4.00 Oryx Data Collector v3.7.2.0data status	okinstallation	princeton_trtdifferential loss correction	single-endedforward channel	channel 2reverse channel	N/Adate	2019/09/15time	18:23:35forward acquisition time	60.00reverse acquisition time	0.00gamma	496.2192k internal	0.2285k external	0.2285temperature offset calibration	0.9920default loss term (dB/km)	0.3790temperature slope calibration	1.0000multiplexer offset coefficient	1.0000multiplexer slope coefficient	1.0000fibre end	0.00T internal ref (°C)	44.31T ext. ref 1 (°C)	6.68T ext. ref 2 (°C)	38.07length (m)	temperature (°C)	Stokes	anti-Stokes-747.200	-200.000	-0.008	0.055
-746.185	800.000	0.196	0.621
-745.171	114.097	0.166	0.208
-744.156	-200.000	-0.015	0.220
-743.142	343.780	-0.089	0.179
-742.127	-16.638	0.157	-0.102
-741.112	17.295	-0.104	-0.085
-740.098	242.692	-0.190	0.326
-739.083	-183.954	0.194	-0.003
-738.069	-200.000	-0.043	0.490
-737.054	-86.235	-0.145	0.046
-736.039	-200.000	0.028	-0.272
-735.025	41.765	0.240	0.223
-734.010	157.538	-0.109	-0.154
-732.996	126.167	0.049	0.064
-731.981	-74.738	0.203	0.075
-730.966	170.205	-0.105	-0.155
-729.952	-147.694	-0.595	-0.051
-728.937	229.762	-0.143	-0.240
-727.923	-28.127	0.111	0.066
-726.908	17.663	-0.217	0.177
-725.894	291.763	0.070	0.130
-724.879	-80.972	-0.197	-0.067
-723.864	60.875	-0.088	-0.090
-722.850	38.764	0.183	-0.167
-721.835	509.279	0.134	0.319
-720.821	204.378	-0.233	0.370
-719.806	-200.000	-0.029	-0.140
-718.791	519.032	0.073	-0.175
-717.777	120.014	-0.133	-0.169
-716.762	-99.147	0.252	0.065
-715.748	473.386	-0.082	-0.190
-714.733	-74.631	0.107	0.039
-713.718	800.000	-0.109	-0.362
-712.704	-156.099	0.118	0.008
-711.689	-200.000	-0.004	0.171
-710.675	-34.079	-0.268	0.151
-709.660	259.891	-0.139	0.246
-708.645	-115.677	0.239	0.046
-707.631	64.647	0.016	-0.017
-706.616	96.618	-0.141	-0.165
-705.602	-24.162	0.144	-0.088
-704.587	-200.000	0.018	0.137
-703.572	365.992	-0.063	-0.131
-702.558	-121.825	0.158	-0.027
-701.543	414.225	0.116	0.252
-700.529	559.496	-0.080	-0.198
-699.514	-71.598	0.370	0.142
-698.499	466.051	-0.068	0.156
-697.485	-200.000	0.373	0.001
-696.470	247.049	0.096	0.166
-695.456	54.236	0.154	-0.151
-694.441	-200.000	-0.066	-0.401
-693.426	-122.060	-0.420	-0.071
-692.412	-142.437	-0.223	0.022
-691.397	70.050	-0.089	-0.094
-690.383	28.759	0.112	0.097
-689.368	-35.448	0.214	0.119
-688.354	156.767	0.117	0.165
-687.339	-43.434	0.208	-0.108
-686.324	-149.801	-0.095	-0.008
-685.310	-200.000	0.002	-0.249
-684.295	800.000	-0.056	0.162
-683.281	371.346	0.074	0.153
-682.266	-69.071	-0.116	0.046
-681.251	426.839	0.039	-0.086
-680.237	452.738	0.159	0.361
-679.222	800.000	0.127	0.381
-678.208	-69.694	0.239	0.093
-677.193	113.917	-0.174	0.217
-676.178	-145.849	-0.250	0.023
-675.164	-34.960	-0.266	-0.148
-674.149	-200.000	0.033	-0.179
-673.135	34.247	-0.242	-0.216
-672.120	800.000	0.031	-0.136
-671.105	-82.907	-0.376	-0.124
-670.091	-84.791	0.216	0.069
-669.076	-127.074	0.138	0.021
-668.062	107.228	-0.155	0.188
-667.047	3.988	-0.358	0.268
-666.032	143.159	0.150	-0.204
-665.018	-62.547	-0.432	0.184
-664.003	338.273	0.150	-0.298
-662.989	-34.075	-0.226	0.127
-661.974	89.377	-0.104	-0.119
-660.959	-5.203	-0.108	0.076
-659.945	-200.000	-0.015	-0.340
-658.930	35.703	-0.135	0.121
-657.916	-142.808	-0.182	-0.018
-656.901	455.025	-0.166	0.376
-655.886	-118.486	0.261	0.047
-654.872	579.479	0.136	-0.340
-653.857	-61.283	-0.271	-0.117
-652.843	-14.451	-0.307	-0.202
-651.828	-200.000	0.092	0.447
-650.814	11.950	-0.548	0.431
-649.799	-200.000	0.003	-0.195
-648.784	-85.411	-0.173	0.055
-647.770	-200.000	-0.015	-0.163
-646.755	141.712	0.107	0.145
-645.741	800.000	-0.099	0.289
-644.726	800.000	0.017	0.060
-643.711	746.239	-0.090	0.247
-642.697	253.760	-0.061	-0.106
-641.682	-18.478	0.057	-0.036
-640.668	332.918	0.086	-0.170
-639.653	323.240	-0.145	-0.283
-638.638	190.775	0.153	-0.235
-637.624	-34.832	0.285	-0.159
-636.609	-3.265	0.268	0.191
-635.595	-65.142	-0.137	-0.057
-634.580	63.787	0.168	0.172
-633.565	44.643	-0.047	0.044
-632.551	-62.773	0.163	-0.069
-631.536	-120.874	-0.170	-0.029
-630.522	383.047	0.079	0.167
-629.507	350.206	-0.203	-0.410
-628.492	115.706	-0.171	-0.214
-627.478	800.000	0.131	0.418
-626.463	15.521	0.032	0.026
-625.449	-34.036	-0.322	0.181
-624.434	103.559	-0.133	-0.160
-623.419	-200.000	-0.021	0.245
-622.405	125.227	-0.178	-0.229
-621.390	-200.000	-0.036	0.201
-620.376	50.217	-0.155	0.150
-619.361	-79.897	-0.088	0.030
-618.346	366.778	-0.025	0.051
-617.332	-200.000	-0.032	0.371
-616.317	-10.367	-0.197	-0.133
-615.303	-86.497	-0.260	0.081
-614.288	-149.763	-0.165	0.013
-613.273	-116.647	0.103	0.019
-612.259	-72.295	-0.179	-0.068
-611.244	-156.395	0.036	-0.002
-610.230	-200.000	0.023	0.195
-609.215	122.899	0.236	0.301
-608.201	-161.763	-0.389	0.020
-607.186	54.156	0.134	-0.132
-606.171	-200.000	0.054	0.334
-605.157	47.658	-0.182	0.173
-604.142	115.836	0.152	-0.190
-603.128	554.670	-0.035	0.087
-602.113	215.222	-0.097	0.156
-601.098	40.277	-0.098	0.090
-600.084	249.590	0.096	-0.166
-599.069	222.467	-0.064	0.106
-598.055	800.000	-0.025	-0.088
-597.040	-72.728	-0.236	-0.089
-596.025	66.550	-0.139	-0.144
-595.011	-200.000	0.053	-0.316
-593.996	-129.357	-0.171	-0.024
-592.982	-200.000	0.024	-0.330
-591.967	-15.283	0.355	-0.232
-590.952	-125.281	0.543	-0.085
-589.938	-82.584	-0.184	-0.061
-588.923	-116.389	0.160	0.030
-587.909	548.977	0.112	-0.274
-586.894	192.840	0.195	-0.300
-585.879	-200.000	0.008	-0.154
-584.865	132.894	0.198	-0.261
-583.850	124.097	0.059	-0.076
-582.836	-32.835	-0.115	-0.065
-581.821	-58.774	0.089	0.039
-580.806	21.968	-0.145	0.120
-579.792	-141.832	0.088	-0.009
-578.777	586.247	0.039	-0.098
-577.763	70.205	0.135	0.142
-576.748	-120.261	0.135	0.023
-575.733	727.551	0.031	0.084
-574.719	-8.219	0.053	0.036
-573.704	-27.910	0.355	-0.210
-572.690	27.529	-0.206	-0.177
-571.675	-200.000	-0.030	-0.154
-570.661	21.564	0.097	0.080
-569.646	-92.062	0.223	0.064
-568.631	-114.301	-0.155	0.030
-567.617	800.000	-0.065	-0.206
-566.602	-130.450	0.136	0.019
-565.588	-1.788	0.201	0.144
-564.573	20.578	-0.338	0.278
-563.558	-188.737	0.195	0.002
-562.544	222.901	-0.240	-0.393
-561.529	-80.614	0.154	-0.052
-560.515	627.215	-0.008	0.022
-559.500	-119.229	0.128	-0.023
-558.485	-111.472	0.075	0.015
-557.471	284.566	-0.048	-0.088
-556.456	-39.474	0.147	-0.079
-555.442	61.834	-0.386	0.392
-554.427	-200.000	-0.039	-0.177
-553.412	781.728	0.113	-0.314
-552.398	127.863	-0.099	-0.129
-551.383	-67.273	0.411	-0.165
-550.369	461.581	0.097	-0.220
-549.354	-200.000	-0.024	-0.230
-548.339	423.260	0.162	-0.355
-547.325	-200.000	0.024	0.217
-546.310	-200.000	0.001	-0.123
-545.296	-200.000	0.006	-0.118
-544.281	800.000	-0.112	0.367
-543.266	99.376	0.025	0.030
-542.252	-200.000	0.016	-0.155
-541.237	135.564	0.073	-0.096
-540.223	-100.570	-0.125	-0.031
-539.208	-200.000	0.007	-0.231
-538.193	-194.336	-0.388	-0.003
-537.179	-18.601	0.162	-0.103
-536.164	-200.000	-0.010	-0.190
-535.150	349.108	0.088	-0.176
-534.135	-92.616	0.035	-0.010
-533.121	-105.195	-0.127	-0.029
-532.106	800.000	-0.034	-0.131
-531.091	-102.618	0.086	0.021
-530.077	23.085	-0.037	0.031
-529.062	-200.000	0.023	-0.109
-528.048	-200.000	-0.005	-0.097
-527.033	9.381	0.076	0.058
-526.018	-200.000	0.002	0.020
-525.004	513.131	-0.071	0.168
-523.989	-200.000	-0.014	-0.273
-522.975	-159.675	-0.378	0.021
-521.960	-126.136	0.174	0.027
-520.945	13.664	0.108	-0.085
-519.931	295.473	0.062	-0.116
-518.916	198.177	-0.050	-0.078
-517.902	-58.426	-0.185	0.082
-516.887	-132.106	-0.127	0.017
-515.872	800.000	-0.075	-0.276
-514.858	-200.000	-0.018	-0.121
-513.843	246.620	0.087	-0.150
-512.829	-13.793	-0.311	0.205
-511.814	131.453	0.185	0.242
-510.799	206.654	-0.145	-0.230
-509.785	431.248	0.020	-0.044
-508.770	-139.256	-0.396	0.043
-507.756	-30.131	0.068	0.039
-506.741	43.962	0.171	-0.159
-505.726	-200.000	-0.016	-0.102
-504.712	338.402	0.096	-0.190
-503.697	-200.000	0.049	0.239
-502.683	156.258	0.153	-0.214
-501.668	188.317	-0.086	-0.131
-500.653	95.750	-0.080	0.092
-499.639	95.667	-0.225	0.261
-498.624	-200.000	-0.002	0.294
-497.610	449.278	-0.025	0.057
-496.595	-141.243	-0.337	-0.035
-495.581	3.755	-0.276	0.205
-494.566	-80.633	-0.503	0.170
-493.551	-90.540	0.082	-0.024
-492.537	89.043	0.223	0.253
-491.522	-123.047	-0.371	-0.061
-490.508	304.459	0.032	-0.060
-489.493	-200.000	0.033	0.333
-488.478	212.236	0.141	0.226
-487.464	394.710	0.145	-0.307
-486.449	65.585	0.222	0.229
-485.435	31.534	-0.150	0.131
-484.420	382.754	-0.073	-0.153
-483.405	61.633	0.144	0.145
-482.391	96.541	-0.095	0.110
-481.376	800.000	0.056	-0.219
-480.362	800.000	0.028	0.095
-479.347	-96.461	0.322	0.087
-478.332	97.565	-0.064	0.075
-477.318	410.045	0.136	0.293
-476.303	-9.030	-0.262	0.178
-475.289	-7.283	0.228	-0.157
-474.274	170.890	-0.190	-0.277
-473.259	-116.837	-0.066	-0.012
-472.245	216.759	-0.016	-0.025
-471.230	-181.282	0.144	0.003
-470.216	-200.000	0.025	-0.206
-469.201	-140.470	0.013	0.001
-468.186	-109.753	-0.302	-0.064
-467.172	5.308	0.285	0.213
-466.157	-29.861	0.192	0.111
-465.143	-200.000	-0.014	0.093
-464.128	-200.000	0.008	-0.296
-463.113	121.108	-0.147	-0.186
-462.099	295.803	-0.051	0.094
-461.084	-93.788	-0.298	-0.083
-460.070	-88.476	0.159	-0.048
-459.055	-68.741	-0.214	0.084
-458.040	22.102	0.013	0.011
-457.026	-90.455	-0.160	-0.047
-456.011	34.786	-0.062	-0.055
-454.997	150.793	0.153	-0.211
-453.982	141.622	0.099	-0.133
-452.968	329.624	0.142	-0.276
-451.953	-139.024	-0.456	-0.050
-450.938	53.522	-0.017	-0.016
-449.924	-139.136	-0.293	-0.032
-448.909	-200.000	-0.005	0.130
-447.895	-194.936	0.352	-0.003
-446.880	-169.948	-0.178	0.006
-445.865	97.697	0.279	-0.325
-444.851	-98.149	-0.559	-0.146
-443.836	-200.000	-0.026	-0.257
-442.822	3.674	0.204	-0.151
-441.807	-35.455	0.121	-0.067
-440.792	800.000	-0.035	0.139
-439.778	152.626	-0.104	0.144
-438.763	-51.450	0.278	-0.132
-437.749	-38.454	0.207	-0.111
-436.734	-117.976	0.260	-0.047
-435.719	27.313	0.101	-0.086
-434.705	-43.131	-0.291	-0.150
-433.690	2.996	-0.172	-0.127
-432.676	447.462	0.170	0.379
-431.661	-88.730	-0.241	0.073
-430.646	92.290	-0.093	0.107
-429.632	177.949	-0.170	-0.252
-428.617	-103.223	-0.037	-0.009
-427.603	-77.086	0.060	0.021
-426.588	-200.000	0.042	-0.207
-425.573	-104.936	0.171	-0.040
-424.559	798.770	0.086	-0.240
-423.544	152.962	-0.227	-0.315
-422.530	74.583	-0.085	-0.091
-421.515	-78.786	-0.096	0.033
-420.500	-61.852	-0.247	0.105
-419.486	-71.823	0.194	-0.073
-418.471	-137.943	0.052	-0.006
-417.457	95.960	-0.230	0.266
-416.442	-200.000	-0.013	0.161
-415.428	800.000	0.023	0.075
-414.413	53.990	0.196	-0.191
-413.398	476.443	0.117	0.269
-412.384	800.000	-0.090	0.335
-411.369	23.718	-0.324	0.271
-410.355	153.331	-0.121	0.168
-409.340	800.000	0.012	-0.046
-408.325	-108.626	-0.346	-0.075
-407.311	-200.000	-0.001	0.260
-406.296	800.000	-0.117	0.407
-405.282	800.000	0.008	0.027
-404.267	-168.424	0.181	-0.007
-403.252	-49.620	0.348	0.168
-402.238	-94.444	-0.224	0.062
-401.223	-200.000	0.008	0.425
-400.209	-113.017	-0.374	-0.075
-399.194	-149.782	0.152	-0.012
-398.179	800.000	0.018	0.080
-397.165	-145.325	0.375	-0.034
-396.150	-200.000	-0.024	-0.196
-395.136	-52.727	-0.264	0.123
-394.121	-187.569	0.337	-0.005
-393.106	-137.062	-0.273	0.032
-392.092	-200.000	-0.039	-0.304
-391.077	311.400	-0.054	0.102
-390.063	-35.912	0.195	-0.107
-389.048	-148.360	-0.231	0.019
-388.033	324.207	0.052	-0.100
-387.019	398.459	0.151	-0.319
-386.004	800.000	-0.058	-0.204
-384.990	-105.869	-0.160	0.037
-383.975	41.794	0.068	-0.063
-382.960	-68.433	0.219	-0.086
-381.946	670.496	0.044	-0.115
-380.931	37.023	0.216	0.194
-379.917	-19.675	-0.387	0.242
-378.902	-114.836	-0.078	-0.015
-377.888	340.203	0.114	0.224
-376.873	9.783	0.223	-0.171
-375.858	-200.000	-0.030	-0.190
-374.844	-200.000	-0.036	-0.177
-373.829	-144.005	-0.141	0.013
-372.815	-200.000	-0.003	-0.051
-371.800	432.417	-0.092	-0.202
-370.785	4.165	-0.290	0.215
-369.771	142.082	0.167	0.224
-368.756	-200.000	0.015	0.168
-367.742	83.790	-0.117	0.129
-366.727	472.010	-0.114	-0.260
-365.712	510.100	-0.099	0.233
-364.698	-51.313	0.291	-0.138
-363.683	349.517	-0.029	-0.057
-362.669	214.479	-0.191	-0.305
-361.654	220.118	0.107	-0.173
-360.639	-34.012	0.057	0.032
-359.625	144.397	0.101	0.137
-358.610	91.614	-0.118	0.135
-357.596	-200.000	-0.017	0.146
-356.581	-69.721	0.136	-0.052
-355.566	246.411	0.029	-0.049
-354.552	-200.000	-0.127	0.000
-353.537	75.989	0.083	-0.089
-352.523	93.878	0.137	-0.157
-351.508	41.271	-0.269	-0.246
-350.493	800.000	-0.033	-0.132
-349.479	60.750	0.074	-0.075
-348.464	-122.485	0.325	-0.053
-347.450	176.596	-0.076	-0.112
-346.435	42.197	0.241	-0.222
-345.420	-194.261	0.261	0.002
-344.406	597.372	0.048	-0.119
-343.391	-125.571	0.113	-0.017
-342.377	800.000	-0.098	-0.302
-341.362	-84.450	0.203	-0.065
-340.348	-176.787	-0.096	-0.002
-339.333	-200.000	0.015	-0.220
-338.318	185.945	-0.117	0.176
-337.304	800.000	-0.031	0.100
-336.289	405.548	-0.093	-0.198
-335.275	73.638	-0.076	0.080
-334.260	343.001	-0.012	0.025
-333.245	-104.939	0.044	0.010
-332.231	6.755	-0.239	-0.180
-331.216	-200.000	-0.221	0.000
-330.202	-145.442	-0.071	-0.006
-329.187	165.961	-0.105	0.150
-328.172	-200.000	0.027	0.184
-327.158	-92.359	0.353	0.100
-326.143	133.012	0.110	-0.143
-325.129	-200.000	-0.006	0.082
-324.114	-149.725	0.070	-0.006
-323.099	-7.840	0.376	-0.257
-322.085	800.000	0.045	0.129
-321.070	800.000	-0.075	-0.229
-320.056	-69.606	-0.204	-0.079
-319.041	51.702	-0.217	0.208
-318.026	5.893	-0.159	0.119
-317.012	26.988	-0.118	0.100
-315.997	95.392	-0.213	0.245
-314.983	-175.704	-0.226	0.006
-313.968	323.350	0.014	-0.027
-312.953	-113.545	-0.138	-0.027
-311.939	161.407	0.107	-0.151
-310.924	27.651	0.064	0.054
-309.910	26.015	-0.169	0.142
-308.895	-100.573	-0.145	-0.036
-307.880	-68.113	-0.206	-0.081
-306.866	-143.949	0.071	-0.007
-305.851	109.911	-0.135	0.164
-304.837	45.752	0.130	-0.121
-303.822	175.875	-0.023	-0.034
-302.807	-58.771	-0.097	0.042
-301.793	-113.317	-0.159	-0.032
-300.778	-46.207	0.304	-0.151
-299.764	-138.919	-0.260	0.029
-298.749	550.435	-0.070	0.170
-297.735	-13.604	0.168	0.110
-296.720	59.255	0.180	0.179
-295.705	-200.000	0.003	-0.053
-294.691	-171.637	0.359	-0.012
-293.676	440.658	0.268	-0.591
-292.662	-200.000	0.025	-0.250
-291.647	23.647	-0.271	0.225
-290.632	-176.859	-0.055	-0.001
-289.618	-4.264	-0.165	-0.115
-288.603	-145.062	-0.312	0.029
-287.589	-1.582	-0.292	0.207
-286.574	-200.000	-0.034	0.183
-285.559	4.139	-0.206	0.152
-284.545	-120.337	0.291	0.050
-283.530	-200.000	0.002	0.123
-282.516	-172.569	-0.361	-0.011
-281.501	-92.274	0.189	-0.054
-280.486	4.251	0.216	0.159
-279.472	-61.447	0.162	0.069
-278.457	-200.000	-0.025	0.182
-277.443	-38.054	0.136	-0.073
-276.428	-129.166	0.175	-0.025
-275.413	-108.739	-0.079	-0.017
-274.399	234.565	0.152	-0.253
-273.384	-200.000	-0.067	0.382
-272.370	-200.000	-0.045	0.216
-271.355	67.400	0.180	0.185
-270.340	142.236	-0.185	0.248
-269.326	800.000	0.123	0.434
-268.311	280.249	0.147	-0.265
-267.297	52.838	0.115	-0.111
-266.282	311.586	0.179	-0.339
-265.267	109.039	0.064	0.077
-264.253	135.230	-0.035	0.046
-263.238	-6.894	0.040	0.027
-262.224	-5.127	0.256	-0.177
-261.209	-200.000	-0.039	0.233
-260.195	13.542	0.205	-0.160
-259.180	-118.622	0.430	-0.076
-258.165	130.124	0.079	0.102
-257.151	-200.000	0.024	-0.225
-256.136	77.865	0.062	0.067
-255.122	136.604	0.151	0.198
-254.107	281.499	0.015	0.028
-253.092	308.295	0.088	0.165
-252.078	60.792	-0.095	-0.095
-251.063	-21.644	0.179	-0.110
-250.049	238.270	-0.083	-0.138
-249.034	130.579	0.084	-0.109
-248.019	-200.000	-0.027	-0.173
-247.005	762.638	0.062	-0.168
-245.990	-76.676	-0.169	-0.060
-244.976	-200.000	0.014	0.323
-243.961	-15.105	0.141	-0.091
-242.946	114.322	0.248	-0.303
-241.932	-200.000	-0.048	0.247
-240.917	-200.000	0.009	-0.042
-239.903	490.200	0.068	0.158
-238.888	-165.444	0.153	-0.007
-237.873	258.605	-0.083	0.144
-236.859	-64.600	-0.088	0.036
-235.844	-145.813	-0.261	-0.023
-234.830	800.000	-0.039	0.168
-233.815	800.000	0.048	0.157
-232.800	35.510	0.048	0.042
-231.786	50.493	0.205	-0.195
-230.771	-200.000	-0.236	-0.001
-229.757	-200.000	-0.274	-0.001
-228.742	302.450	0.172	0.320
-227.727	-124.334	0.194	-0.030
-226.713	800.000	0.047	0.160
-225.698	466.346	-0.059	0.134
-224.684	800.000	0.056	0.190
-223.669	-200.000	-0.006	0.030
-222.655	-200.000	-0.098	-0.469
-221.640	-85.588	-0.147	0.046
-220.625	114.358	-0.091	-0.112
-219.611	-200.000	-0.008	0.287
-218.596	2.111	0.289	0.210
-217.582	222.880	0.128	0.208
-216.567	369.477	0.044	0.091
-215.552	-137.875	0.238	-0.027
-214.538	-95.099	-0.120	0.033
-213.523	161.046	0.170	0.239
-212.509	800.000	0.073	0.232
-211.494	-119.044	-0.112	0.020
-210.479	-1.180	-0.101	-0.072
-209.465	-200.000	0.029	0.325
-208.450	151.263	-0.129	0.176
-207.436	684.172	0.090	0.236
-206.421	104.788	0.238	0.282
-205.406	30.653	0.326	-0.281
-204.392	678.970	0.101	0.263
-203.377	-200.000	-0.048	0.253
-202.363	62.182	-0.072	0.073
-201.348	800.000	-0.097	-0.395
-200.333	265.980	-0.296	-0.519
-199.319	15.417	0.076	0.060
-198.304	62.889	-0.349	0.351
-197.290	17.595	0.064	-0.051
-196.275	800.000	-0.032	0.090
-195.260	42.670	0.249	0.228
-194.246	-59.641	0.162	0.070
-193.231	-111.348	0.025	-0.005
-192.217	378.394	0.125	-0.257
-191.202	-49.824	-0.164	0.078
-190.187	-70.734	0.276	-0.105
-189.173	98.996	0.086	0.100
-188.158	442.112	0.151	0.332
-187.144	-113.383	0.248	0.049
-186.129	-200.000	0.052	0.229
-185.114	-35.024	0.133	-0.073
-184.100	60.771	-0.093	0.093
-183.085	-55.471	-0.040	0.018
-182.071	-88.850	-0.094	-0.028
-181.056	-200.000	-0.028	-0.192
-180.042	284.117	-0.108	0.194
-179.027	1.807	-0.040	-0.029
-178.012	-200.000	0.027	0.343
-176.998	-116.485	-0.284	0.053
-175.983	423.826	-0.093	0.200
-174.969	-165.292	-0.327	0.014
-173.954	10.516	0.050	0.038
-172.939	102.566	0.332	0.390
-171.925	-113.886	-0.101	0.020
-170.910	-30.463	0.031	-0.017
-169.896	800.000	0.038	-0.148
-168.881	-200.000	-0.029	0.207
-167.866	80.153	0.223	0.240
-166.852	-145.295	0.387	-0.035
-165.837	800.000	0.031	0.130
-164.823	13.711	-0.292	0.228
-163.808	55.663	-0.126	0.123
-162.793	-22.972	-0.048	-0.029
-161.779	800.000	0.105	-0.317
-160.764	-121.639	0.395	0.066
-159.750	-145.500	0.187	-0.017
-158.735	-85.212	-0.248	-0.078
-157.720	800.000	0.084	-0.336
-156.706	585.549	-0.165	-0.407
-155.691	800.000	-0.051	0.215
-154.677	-200.000	0.031	0.170
-153.662	-51.141	0.179	-0.084
-152.647	175.555	0.123	0.179
-151.633	-70.358	-0.239	-0.091
-150.618	-163.630	0.155	-0.007
-149.604	-147.215	0.227	-0.019
-148.589	623.476	0.068	-0.173
-147.574	373.162	0.059	0.121
-146.560	340.094	0.100	-0.196
-145.545	46.786	-0.132	-0.123
-144.531	-200.000	0.049	-0.218
-143.516	-28.377	-0.022	0.013
-142.502	-200.000	0.012	-0.122
-141.487	38.382	-0.073	0.065
-140.472	220.281	0.124	0.199
-139.458	-142.529	0.406	-0.040
-138.443	366.037	-0.032	-0.064
-137.429	216.159	0.114	0.181
-136.414	431.793	-0.061	0.133
-135.399	-133.471	0.209	-0.026
-134.385	165.845	-0.126	0.178
-133.370	162.091	-0.144	-0.202
-132.356	-42.340	0.265	-0.136
-131.341	-145.892	0.192	0.017
-130.326	263.829	0.097	0.169
-129.312	1.453	0.241	0.174
-128.297	-66.242	0.300	0.120
-127.283	195.699	-0.165	-0.251
-126.268	78.809	0.269	0.289
-125.253	-44.091	0.076	-0.038
-124.239	-153.409	0.076	-0.005
-123.224	-200.000	-0.014	0.264
-122.210	-117.939	-0.218	0.039
-121.195	-200.000	-0.039	0.294
