DTS Sentinel unit serial number:	SN413079Multiplexer serial number:	ORYXHardware model number:	OX4-SRSoftware version number:	ORYX F/W v4.00 Oryx Data Collector v3.7.2.0data status	okinstallation	princeton_trtdifferential loss correction	single-endedforward channel	channel 2reverse channel	N/Adate	2019/09/14time	04:15:35forward acquisition time	60.00reverse acquisition time	0.00gamma	496.2192k internal	0.2336k external	0.2336temperature offset calibration	1.0128default loss term (dB/km)	0.3790temperature slope calibration	1.0000multiplexer offset coefficient	1.0000multiplexer slope coefficient	1.0000fibre end	0.00T internal ref (°C)	26.70T ext. ref 1 (°C)	3.33T ext. ref 2 (°C)	21.85length (m)	temperature (°C)	Stokes	anti-Stokes-747.200	766.556	0.020	0.055
-746.185	121.171	-0.282	0.353
-745.171	7.250	0.121	0.091
-744.156	800.000	-0.123	0.527
-743.142	8.579	0.192	0.145
-742.127	-192.638	-0.171	-0.002
-741.112	-200.000	0.049	-0.340
-740.098	6.610	-0.065	-0.048
-739.083	-200.000	-0.006	0.044
-738.069	23.339	0.182	0.150
-737.054	530.388	0.169	0.401
-736.039	-44.573	0.365	0.183
-735.025	33.318	0.141	0.122
-734.010	-127.473	-0.321	0.047
-732.996	74.890	-0.267	-0.282
-731.981	-93.220	-0.207	0.058
-730.966	-60.268	-0.105	0.045
-729.952	697.058	-0.115	-0.302
-728.937	-117.938	-0.072	0.013
-727.923	192.912	-0.091	0.138
-726.908	-36.075	0.255	-0.138
-725.894	-200.000	0.021	-0.297
-724.879	-5.677	-0.140	0.096
-723.864	-200.000	0.012	0.079
-722.850	-25.488	-0.114	0.068
-721.835	50.963	-0.070	0.067
-720.821	-200.000	-0.055	-0.283
-719.806	-145.709	-0.162	-0.014
-718.791	-86.003	-0.177	0.055
-717.777	-200.000	0.002	-0.115
-716.762	-12.348	-0.232	0.152
-715.748	-53.103	0.245	0.113
-714.733	-200.000	-0.028	0.136
-713.718	-200.000	-0.019	-0.126
-712.704	96.699	-0.316	0.363
-711.689	-200.000	-0.011	0.175
-710.675	-102.566	-0.389	-0.093
-709.660	-157.577	-0.105	0.006
-708.645	-200.000	-0.022	-0.187
-707.631	-0.729	-0.177	-0.126
-706.616	310.049	0.167	-0.313
-705.602	-200.000	-0.037	-0.165
-704.587	539.862	0.091	-0.216
-703.572	-200.000	0.013	0.094
-702.558	-129.006	0.105	0.015
-701.543	153.331	-0.055	0.075
-700.529	-72.297	0.026	-0.010
-699.514	-2.561	0.183	-0.129
-698.499	74.767	-0.212	0.224
-697.485	-200.000	-0.071	-0.346
-696.470	-32.560	0.302	-0.169
-695.456	-93.836	-0.267	0.074
-694.441	28.169	0.296	-0.251
-693.426	-0.831	-0.257	0.182
-692.412	-25.808	0.115	-0.068
-691.397	14.456	-0.129	0.101
-690.383	-142.702	-0.156	0.015
-689.368	53.058	0.135	-0.129
-688.354	-200.000	-0.056	-0.249
-687.339	77.346	-0.094	0.101
-686.324	-37.296	-0.312	-0.167
-685.310	800.000	-0.074	0.314
-684.295	62.791	-0.052	-0.052
-683.281	199.743	-0.244	-0.375
-682.266	800.000	-0.015	-0.059
-681.251	-92.606	-0.139	-0.039
-680.237	346.350	0.089	0.175
-679.222	282.300	0.274	-0.492
-678.208	800.000	0.073	0.226
-677.193	93.849	-0.338	0.384
-676.178	-200.000	-0.048	-0.323
-675.164	-61.987	-0.176	-0.074
-674.149	54.671	-0.079	-0.077
-673.135	150.433	-0.124	-0.169
-672.120	-8.909	-0.236	0.159
-671.105	565.060	0.182	0.441
-670.091	-134.663	-0.203	-0.025
-669.076	46.917	0.043	0.040
-668.062	-8.383	-0.262	0.177
-667.047	45.943	0.216	-0.200
-666.032	800.000	0.059	-0.235
-665.018	-94.957	0.080	0.022
-664.003	17.312	-0.293	-0.233
-662.989	-182.087	-0.207	0.004
-661.974	287.856	0.183	-0.332
-660.959	441.566	-0.159	0.348
-659.945	-200.000	0.001	-0.067
-658.930	23.585	-0.048	-0.039
-657.916	306.451	0.109	0.204
-656.901	-151.076	0.195	-0.015
-655.886	545.401	-0.129	-0.309
-654.872	167.730	-0.134	-0.191
-653.857	-176.262	0.074	0.002
-652.843	-200.000	-0.006	-0.188
-651.828	16.683	-0.374	-0.296
-650.814	800.000	0.050	0.198
-649.799	93.826	-0.134	0.152
-648.784	44.895	-0.282	-0.260
-647.770	2.261	-0.189	0.137
-646.755	-101.842	-0.325	-0.079
-645.741	1.633	-0.173	-0.124
-644.726	-86.756	-0.279	-0.085
-643.711	800.000	-0.081	0.306
-642.697	380.090	-0.086	0.176
-641.682	-60.447	0.133	-0.057
-640.668	59.347	0.274	-0.270
-639.653	800.000	-0.076	-0.258
-638.638	50.592	0.177	-0.167
-637.624	-58.342	-0.077	-0.033
-636.609	-200.000	0.024	-0.509
-635.595	-18.893	0.165	-0.103
-634.580	110.790	-0.206	0.248
-633.565	-50.087	-0.271	0.129
-632.551	800.000	0.058	0.192
-631.536	-108.849	-0.224	0.048
-630.522	-50.689	-0.224	-0.106
-629.507	-59.201	0.216	-0.093
-628.492	-119.276	0.153	0.027
-627.478	75.846	0.133	0.141
-626.463	192.678	-0.055	0.083
-625.449	800.000	0.064	0.180
-624.434	107.796	0.171	-0.204
-623.419	-200.000	0.004	-0.112
-622.405	332.772	0.133	0.257
-621.390	28.064	-0.089	-0.075
-620.376	-55.306	-0.277	0.124
-619.361	19.902	0.152	0.122
-618.346	-149.475	-0.050	-0.004
-617.332	-75.483	-0.075	0.027
-616.317	800.000	0.057	-0.244
-615.303	130.034	0.073	0.093
-614.288	-200.000	-0.015	-0.195
-613.273	-200.000	0.028	-0.216
-612.259	6.941	-0.156	0.116
-611.244	-200.000	-0.004	-0.212
-610.230	-103.406	0.193	0.045
-609.215	62.244	-0.158	-0.157
-608.201	-151.833	-0.068	-0.005
-607.186	-5.377	0.252	-0.173
-606.171	170.057	0.179	-0.256
-605.157	-200.000	-0.001	-0.113
-604.142	27.525	-0.192	0.161
-603.128	-200.000	-0.032	-0.216
-602.113	81.011	-0.102	0.110
-601.098	-96.310	0.095	0.025
-600.084	-71.221	-0.206	0.077
-599.069	676.228	0.083	0.215
-598.055	-16.679	-0.104	-0.066
-597.040	-144.939	-0.184	0.017
-596.025	-114.378	-0.314	0.060
-595.011	-59.299	0.225	-0.097
-593.996	-200.000	0.251	-0.001
-592.982	-53.709	-0.221	-0.101
-591.967	800.000	0.020	0.070
-590.952	-200.000	-0.035	0.248
-589.938	800.000	0.088	0.320
-588.923	1.183	0.132	0.095
-587.909	800.000	0.097	-0.291
-586.894	-147.095	-0.174	0.015
-585.879	-200.000	-0.511	-0.002
-584.865	-132.087	0.342	0.044
-583.850	-60.648	-0.311	0.132
-582.836	695.561	0.064	-0.168
-581.821	-55.241	-0.113	-0.051
-580.806	174.666	-0.174	0.251
-579.792	70.801	0.314	-0.324
-578.777	-19.109	0.235	0.146
-577.763	342.791	-0.033	-0.064
-576.748	214.125	0.189	0.298
-575.733	423.250	0.028	0.060
-574.719	-200.000	0.018	0.087
-573.704	-159.730	-0.072	-0.004
-572.690	75.545	-0.067	0.070
-571.675	-52.204	-0.270	-0.125
-570.661	-79.116	0.045	-0.015
-569.646	-200.000	0.001	-0.031
-568.631	-131.535	0.140	-0.018
-567.617	-58.185	-0.277	0.121
-566.602	800.000	0.050	-0.204
-565.588	-62.631	0.259	0.107
-564.573	-200.000	0.017	0.092
-563.558	112.603	0.088	0.106
-562.544	-200.000	0.039	0.198
-561.529	152.258	0.089	-0.122
-560.515	-183.436	-0.301	0.005
-559.500	-200.000	-0.034	-0.189
-558.485	-200.000	0.008	0.529
-557.471	-75.742	0.411	0.145
-556.456	-200.000	0.030	0.194
-555.442	-200.000	-0.003	-0.194
-554.427	140.190	-0.177	0.232
-553.412	-68.978	0.165	-0.063
-552.398	117.144	-0.079	0.097
-551.383	-22.677	-0.098	-0.059
-550.369	405.601	0.107	-0.226
-549.354	158.779	-0.166	-0.230
-548.339	-200.000	-0.022	0.128
-547.325	28.459	-0.052	0.044
-546.310	800.000	-0.083	-0.230
-545.296	549.470	-0.013	0.031
-544.281	-79.938	0.376	-0.126
-543.266	141.792	-0.073	-0.097
-542.252	575.394	-0.104	-0.252
-541.237	444.662	0.084	-0.183
-540.223	32.655	-0.147	0.127
-539.208	44.778	-0.144	0.132
-538.193	-185.699	0.128	-0.002
-537.179	21.757	-0.146	-0.119
-536.164	44.114	0.359	0.328
-535.150	-71.996	-0.205	-0.076
-534.135	-92.192	-0.084	0.024
-533.121	47.905	-0.137	0.127
-532.106	76.906	-0.167	0.177
-531.091	55.892	0.079	0.077
-530.077	-95.030	0.269	-0.072
-529.062	-179.169	0.305	-0.007
-528.048	800.000	0.096	-0.400
-527.033	94.585	0.063	-0.071
-526.018	-108.231	-0.203	-0.044
-525.004	800.000	-0.088	0.284
-523.989	800.000	-0.078	0.215
-522.975	-38.249	0.312	0.165
-521.960	-142.759	-0.104	-0.010
-520.945	-184.432	0.396	0.006
-519.931	-56.108	0.143	-0.063
-518.916	-46.543	0.046	-0.022
-517.902	800.000	0.031	-0.125
-516.887	-200.000	-0.018	-0.221
-515.872	77.345	0.218	0.231
-514.858	-80.504	-0.185	0.061
-513.843	17.933	0.323	0.256
-512.829	217.812	0.153	0.243
-511.814	89.397	-0.336	-0.372
-510.799	-200.000	0.016	-0.304
-509.785	42.506	-0.189	-0.171
-508.770	72.919	-0.120	0.125
-507.756	800.000	-0.017	0.069
-506.741	-1.293	0.178	0.125
-505.726	171.131	0.254	-0.362
-504.712	800.000	-0.091	0.256
-503.697	150.566	0.346	0.468
-502.683	674.777	-0.101	0.260
-501.668	45.394	-0.308	0.283
-500.653	233.164	0.143	0.233
-499.639	169.198	-0.037	-0.053
-498.624	175.149	-0.086	-0.123
-497.610	-165.734	-0.149	0.006
-496.595	182.187	0.106	0.155
-495.581	800.000	0.042	0.169
-494.566	-139.084	-0.082	0.009
-493.551	135.003	0.046	-0.060
-492.537	-40.889	-0.193	-0.100
-491.522	341.645	-0.096	-0.187
-490.508	-158.538	0.180	-0.010
-489.493	-40.369	-0.210	0.109
-488.478	-200.000	0.043	0.226
-487.464	30.115	-0.164	-0.139
-486.449	-131.430	-0.181	0.024
-485.435	21.888	0.192	-0.155
-484.420	-179.963	0.166	-0.004
-483.405	-51.654	0.069	0.032
-482.391	37.741	0.204	-0.180
-481.376	-200.000	0.044	-0.330
-480.362	321.360	-0.140	0.265
-479.347	-141.339	-0.274	0.028
-478.332	23.148	0.269	-0.220
-477.318	-118.663	-0.157	-0.028
-476.303	205.870	-0.122	-0.188
-475.289	87.388	-0.109	-0.119
-474.274	604.773	0.059	-0.146
-473.259	-87.589	-0.500	0.150
-472.245	-46.990	-0.243	-0.118
-471.230	-200.000	-0.000	0.308
-470.216	-75.108	-0.037	-0.013
-469.201	17.141	-0.186	-0.147
-468.186	258.056	0.108	-0.185
-467.172	-72.509	-0.276	0.101
-466.157	-55.572	0.123	0.055
-465.143	7.501	-0.105	0.078
-464.128	-3.577	-0.103	-0.071
-463.113	63.737	0.201	-0.201
-462.099	-200.000	-0.023	-0.104
-461.084	-115.411	-0.198	0.037
-460.070	800.000	0.064	0.206
-459.055	110.999	0.061	-0.073
-458.040	324.233	-0.165	-0.313
-457.026	-106.290	-0.123	-0.027
-456.011	74.697	0.049	0.051
-454.997	-174.905	0.283	0.008
-453.982	-75.197	0.075	0.027
-452.968	-133.991	-0.127	-0.016
-451.953	-78.751	0.202	0.068
-450.938	-12.207	-0.248	-0.161
-449.924	155.616	-0.120	-0.165
-448.909	-200.000	-0.050	-0.273
-447.895	800.000	0.112	-0.335
-446.880	-96.632	0.459	0.120
-445.865	40.615	-0.255	-0.228
-444.851	-70.952	-0.275	-0.103
-443.836	-67.913	0.186	-0.072
-442.822	775.343	0.121	-0.329
-441.807	800.000	0.025	0.077
-440.792	-200.000	0.018	0.161
-439.778	-81.019	-0.120	0.040
-438.763	57.515	0.205	-0.199
-437.749	558.062	-0.039	-0.094
-436.734	-71.362	-0.267	-0.099
-435.719	-200.000	0.040	-0.218
-434.705	66.199	0.081	-0.082
-433.690	248.217	-0.133	-0.223
-432.676	-43.033	-0.180	-0.091
-431.661	-106.313	0.231	0.051
-430.646	-200.000	0.024	0.209
-429.632	-57.663	-0.138	-0.060
-428.617	288.095	0.160	-0.288
-427.603	-42.224	0.084	-0.042
-426.588	800.000	-0.078	0.268
-425.573	235.940	0.130	-0.214
-424.559	800.000	0.121	0.396
-423.544	-200.000	-0.012	0.170
-422.530	-147.443	0.497	-0.042
-421.515	-75.561	-0.283	-0.100
-420.500	74.128	0.134	-0.140
-419.486	-56.562	0.044	0.019
-418.471	800.000	-0.068	-0.205
-417.457	800.000	-0.061	0.210
-416.442	55.932	-0.067	-0.064
-415.428	133.115	-0.159	-0.204
-414.413	-136.754	0.186	0.021
-413.398	-40.109	-0.090	0.047
-412.384	-112.122	0.385	0.077
-411.369	-200.000	0.011	-0.135
-410.355	-99.024	-0.441	-0.111
-409.340	-200.000	-0.012	-0.280
-408.325	-200.000	-0.022	0.229
-407.311	100.860	-0.250	-0.289
-406.296	297.031	0.083	-0.150
-405.282	-129.084	-0.211	-0.029
-404.267	-25.409	0.268	-0.157
-403.252	-27.870	-0.300	0.172
-402.238	81.400	0.244	-0.261
-401.223	-36.154	-0.076	-0.041
-400.209	-77.700	0.182	-0.062
-399.194	-62.842	-0.203	-0.083
-398.179	210.270	0.125	-0.194
-397.165	120.394	-0.202	0.249
-396.150	432.169	-0.090	-0.193
-395.136	-139.753	0.268	-0.028
-394.121	155.207	-0.092	-0.126
-393.106	-200.000	0.024	0.000
-392.092	27.813	-0.316	0.264
-391.077	-31.235	0.205	0.114
-390.063	-50.043	-0.330	0.155
-389.048	-67.880	0.289	0.112
-388.033	-161.382	0.142	-0.007
-387.019	-200.000	0.014	-0.251
-386.004	-136.613	0.084	-0.010
-384.990	-161.384	0.169	0.009
-383.975	-117.636	0.314	0.056
-382.960	-84.172	0.502	0.158
-381.946	-72.912	0.206	-0.075
-380.931	-47.891	0.258	0.124
-379.917	-125.072	0.070	0.011
-378.902	-200.000	-0.022	0.369
-377.888	-103.756	0.175	-0.041
-376.873	72.655	0.130	0.134
-375.858	338.078	-0.208	0.400
-374.844	-98.343	0.621	-0.158
-373.829	-200.000	0.003	0.118
-372.815	-200.000	-0.008	0.246
-371.800	36.415	0.034	-0.030
-370.785	-150.345	-0.155	-0.012
-369.771	-169.325	0.196	0.007
-368.756	-66.688	0.369	-0.145
-367.742	436.712	0.117	-0.251
-366.727	-200.000	-0.007	0.077
-365.712	392.745	-0.117	-0.240
-364.698	660.808	-0.122	0.311
-363.683	43.612	0.200	0.181
-362.669	149.996	-0.092	0.123
-361.654	318.011	-0.129	-0.241
-360.639	-200.000	-0.030	0.242
-359.625	5.268	-0.199	-0.145
-358.610	-120.229	-0.093	0.016
-357.596	183.884	-0.081	-0.118
-356.581	487.853	0.126	-0.285
-355.566	-200.000	0.015	0.326
-354.552	404.589	-0.045	-0.094
-353.537	-80.682	0.145	0.048
-352.523	240.733	-0.365	0.603
-351.508	259.952	0.080	-0.136
-350.493	228.418	0.153	0.247
-349.479	-79.451	-0.237	0.079
-348.464	708.627	0.012	-0.030
-347.450	800.000	-0.131	-0.366
-346.435	209.489	-0.226	0.350
-345.420	-200.000	0.069	-0.447
-344.406	-70.838	-0.152	0.057
-343.391	120.395	0.272	0.335
-342.377	103.961	0.139	-0.162
-341.362	-200.000	-0.044	0.376
-340.348	-66.207	0.208	0.082
-339.333	-25.869	-0.294	0.171
-338.318	-83.683	-0.301	-0.095
-337.304	-58.262	0.137	-0.059
-336.289	-200.000	-0.044	-0.219
-335.275	-100.684	-0.265	-0.065
-334.260	150.545	0.112	-0.150
-333.245	-60.895	0.091	0.038
-332.231	173.513	-0.054	-0.077
-331.216	-115.930	-0.293	0.054
-330.202	-13.957	0.400	-0.255
-329.187	-200.000	-0.057	-0.290
-328.172	800.000	-0.142	0.457
-327.158	69.400	0.036	0.037
-326.143	-38.667	0.272	0.142
-325.129	-200.000	0.241	0.000
-324.114	-200.000	-0.109	0.000
-323.099	117.772	0.060	-0.073
-322.085	-68.169	0.323	0.124
-321.070	-42.346	0.004	0.002
-320.056	-2.523	0.177	-0.122
-319.041	800.000	-0.079	0.333
-318.026	-27.169	0.207	-0.119
-317.012	-200.000	0.013	-0.287
-315.997	-200.000	0.016	0.079
-314.983	258.093	-0.039	0.066
-313.968	304.901	0.005	-0.009
-312.953	-82.693	-0.059	-0.019
-311.939	489.597	-0.070	-0.158
-310.924	304.306	0.049	0.090
-309.910	800.000	0.051	-0.175
-308.895	275.423	0.245	-0.430
-307.880	-200.000	-0.016	0.101
-306.866	529.973	0.055	-0.128
-305.851	-200.000	0.001	0.229
-304.837	81.193	0.188	-0.201
-303.822	69.944	-0.404	-0.412
-302.807	-71.609	0.274	0.101
-301.793	26.389	0.109	-0.090
-300.778	704.618	-0.101	0.262
-299.764	-62.412	-0.104	0.043
-298.749	-74.730	-0.136	-0.048
-297.735	-54.376	0.119	-0.053
-296.720	55.027	-0.176	-0.167
-295.705	199.019	0.026	0.039
-294.691	-66.514	-0.362	0.142
-293.676	-37.279	0.345	-0.182
-292.662	563.521	0.059	0.141
-291.647	-200.000	0.022	0.214
-290.632	-113.524	0.082	-0.016
-289.618	-77.393	0.182	0.062
-288.603	13.811	0.154	0.118
-287.589	-143.558	0.164	-0.015
-286.574	-140.864	-0.080	0.008
-285.559	31.178	0.212	0.179
-284.545	-159.373	0.121	-0.007
-283.530	-200.000	-0.040	0.379
-282.516	-39.377	-0.111	0.057
-281.501	-200.000	-0.225	-0.000
-280.486	-143.543	-0.299	-0.028
-279.472	-148.280	0.465	0.038
-278.457	-187.825	-0.472	-0.006
-277.443	-200.000	-0.022	-0.176
-276.428	800.000	0.068	-0.216
-275.413	800.000	0.070	-0.260
-274.399	-200.000	-0.014	0.115
-273.384	171.779	-0.037	0.052
-272.370	-14.876	0.201	0.127
-271.355	-200.000	-0.011	-0.052
-270.340	98.385	0.087	0.099
-269.326	87.154	-0.107	0.117
-268.311	800.000	-0.098	0.366
-267.297	800.000	-0.063	0.226
-266.282	428.327	0.016	0.035
-265.267	94.487	-0.120	0.134
-264.253	420.930	-0.046	-0.096
-263.238	32.794	-0.281	0.240
-262.224	-61.765	0.115	-0.047
-261.209	-43.048	0.264	0.132
-260.195	-78.177	-0.153	0.052
-259.180	-200.000	0.003	-0.122
-258.165	-134.697	0.215	0.026
-257.151	-79.434	0.316	0.105
-256.136	-11.810	0.176	0.114
-255.122	11.577	-0.222	0.168
-254.107	180.124	-0.062	0.090
-253.092	86.993	-0.163	0.177
-252.078	800.000	-0.145	0.416
-251.063	771.413	-0.073	-0.197
-250.049	240.465	0.158	-0.259
-249.034	142.581	0.105	-0.138
-248.019	11.808	0.264	0.200
-247.005	-36.031	0.117	0.062
-245.990	43.528	0.275	0.247
-244.976	-183.513	-0.241	-0.004
-243.961	800.000	0.043	0.133
-242.946	134.899	-0.101	0.129
-241.932	-70.079	0.247	-0.093
-240.917	-167.664	-0.123	0.005
-239.903	111.608	0.217	0.258
-238.888	-128.234	-0.385	-0.054
-237.873	-75.976	-0.118	-0.041
-236.859	231.090	0.199	0.321
-235.844	-25.980	-0.121	0.070
-234.830	15.874	0.296	0.230
-233.815	31.147	0.110	0.093
-232.800	-56.685	0.202	0.088
-231.786	341.134	-0.030	-0.057
-230.771	-4.020	0.138	-0.094
-229.757	-200.000	-0.043	-0.399
-228.742	-137.189	0.217	-0.024
-227.727	-39.073	0.365	0.189
-226.713	190.367	-0.137	0.202
-225.698	-53.834	-0.124	-0.056
-224.684	31.568	-0.084	-0.071
-223.669	60.010	0.117	0.114
-222.655	258.051	-0.071	0.121
-221.640	-21.717	-0.324	0.194
-220.625	-60.039	-0.209	0.088
-219.611	-200.000	0.009	0.129
-218.596	-73.574	0.166	0.060
-217.582	-140.403	0.249	-0.026
-216.567	304.719	0.076	0.139
-215.552	-46.487	0.241	0.116
-214.538	-150.085	-0.098	0.007
-213.523	-200.000	0.012	0.231
-212.509	-200.000	0.031	0.335
-211.494	125.930	-0.068	-0.085
-210.479	73.297	-0.088	-0.090
-209.465	-200.000	-0.001	0.116
-208.450	-200.000	0.003	-0.038
-207.436	800.000	0.020	-0.071
-206.421	-112.747	-0.245	-0.048
-205.406	347.606	0.077	0.150
-204.392	-84.069	-0.265	0.083
-203.377	800.000	0.079	-0.241
-202.363	-10.935	-0.222	0.144
-201.348	4.079	-0.233	-0.168
-200.333	-200.000	-0.005	-0.393
-199.319	-27.810	0.240	0.137
-198.304	-200.000	-0.039	0.431
-197.290	-93.793	-0.184	0.050
-196.275	149.512	-0.078	0.104
-195.260	7.328	0.119	0.087
-194.246	-84.219	-0.292	-0.091
-193.231	-141.401	0.058	-0.006
-192.217	22.732	0.173	-0.139
-191.202	-200.000	-0.065	-0.362
-190.187	18.138	-0.173	-0.136
-189.173	-8.844	-0.065	-0.043
-188.158	-111.150	0.110	-0.022
-187.144	-44.336	-0.292	-0.144
-186.129	-200.000	-0.029	0.166
-185.114	-107.239	-0.251	0.054
-184.100	-112.267	0.187	0.037
-183.085	678.082	0.036	0.092
-182.071	-49.554	0.266	0.124
-181.056	-156.904	-0.180	0.011
-180.042	800.000	0.093	-0.337
-179.027	-132.537	0.127	-0.016
-178.012	37.168	-0.173	-0.151
-176.998	209.258	0.037	-0.057
-175.983	800.000	-0.054	-0.222
-174.969	481.041	-0.102	-0.226
-173.954	28.053	-0.249	-0.207
-172.939	78.186	-0.154	0.161
-171.925	19.447	0.108	-0.086
-170.910	8.145	0.074	0.055
-169.896	800.000	-0.036	0.119
-168.881	-200.000	-0.024	0.271
-167.866	136.942	-0.038	0.049
-166.852	800.000	0.070	-0.299
-165.837	151.103	0.038	0.051
-164.823	-61.724	-0.066	-0.027
-163.808	-200.000	0.004	-0.237
-162.793	800.000	-0.046	-0.189
-161.779	-64.593	-0.134	0.053
-160.764	5.138	-0.309	-0.223
-159.750	63.632	0.112	-0.111
-158.735	7.139	-0.102	-0.075
-157.720	-178.797	-0.190	-0.004
-156.706	292.608	-0.156	-0.280
-155.691	-200.000	0.001	-0.048
-154.677	83.259	0.108	-0.116
-153.662	106.737	0.134	-0.157
-152.647	-70.560	-0.371	0.138
-151.633	-79.125	0.288	-0.096
-150.618	-63.681	0.144	0.058
-149.604	-159.750	0.248	0.013
-148.589	70.424	0.459	0.465
-147.574	-100.173	-0.187	-0.046
-146.560	-56.762	0.102	-0.044
-145.545	-150.574	0.278	0.021
-144.531	-200.000	0.027	0.124
-143.516	164.915	0.079	-0.109
-142.502	443.345	-0.038	-0.082
-141.487	800.000	0.041	-0.149
-140.472	800.000	0.155	-0.508
-139.458	-57.411	-0.074	0.032
-138.443	-20.919	-0.166	-0.100
-137.429	-159.567	0.415	0.023
-136.414	800.000	-0.041	-0.129
-135.399	-200.000	-0.036	0.233
-134.385	69.188	-0.190	-0.191
-133.370	-200.000	0.015	-0.096
-132.356	-1.782	0.171	0.118
-131.341	159.485	-0.176	-0.240
-130.326	-27.288	-0.160	-0.091
-129.312	135.321	0.048	-0.061
-128.297	270.203	-0.123	-0.211
-127.283	-200.000	0.002	0.164
-126.268	174.122	-0.122	-0.173
-125.253	267.140	-0.064	0.109
-124.239	109.914	0.102	-0.120
-123.224	800.000	-0.051	0.189
-122.210	-200.000	0.036	-0.190
-121.195	-148.768	0.382	0.030
