DTS Sentinel unit serial number:	SN413079Multiplexer serial number:	ORYXHardware model number:	OX4-SRSoftware version number:	ORYX F/W v4.00 Oryx Data Collector v3.7.2.0data status	okinstallation	princeton_trtdifferential loss correction	single-endedforward channel	channel 2reverse channel	N/Adate	2019/09/13time	16:59:35forward acquisition time	60.00reverse acquisition time	0.00gamma	496.2192k internal	0.2314k external	0.2314temperature offset calibration	1.0205default loss term (dB/km)	0.3790temperature slope calibration	1.0000multiplexer offset coefficient	1.0000multiplexer slope coefficient	1.0000fibre end	0.00T internal ref (°C)	34.89T ext. ref 1 (°C)	4.84T ext. ref 2 (°C)	32.58length (m)	temperature (°C)	Stokes	anti-Stokes-747.200	800.000	0.056	-0.179
-746.185	-29.897	0.043	-0.025
-745.171	800.000	0.109	-0.337
-744.156	127.574	0.067	0.086
-743.142	-10.664	0.102	0.068
-742.127	542.067	-0.124	-0.299
-741.112	-200.000	0.000	-0.030
-740.098	363.827	-0.041	0.083
-739.083	147.327	-0.068	0.092
-738.069	-170.138	-0.137	0.005
-737.054	-125.586	0.371	-0.057
-736.039	-88.480	-0.156	-0.047
-735.025	1.011	0.343	0.250
-734.010	-17.679	-0.309	-0.196
-732.996	800.000	-0.104	0.334
-731.981	800.000	-0.045	0.166
-730.966	-63.231	-0.186	-0.077
-729.952	662.178	-0.056	0.145
-728.937	-200.000	0.005	-0.174
-727.923	800.000	0.082	-0.331
-726.908	651.181	0.062	0.161
-725.894	362.175	-0.065	0.133
-724.879	74.822	0.164	0.175
-723.864	36.287	-0.185	-0.165
-722.850	-6.017	0.040	-0.028
-721.835	191.224	-0.165	-0.252
-720.821	146.105	-0.095	-0.130
-719.806	-54.335	-0.017	-0.008
-718.791	-67.255	-0.205	-0.082
-717.777	800.000	0.119	0.466
-716.762	711.163	-0.047	0.127
-715.748	-10.933	0.168	-0.112
-714.733	132.601	0.063	-0.082
-713.718	190.030	-0.241	0.367
-712.704	-22.957	-0.326	0.199
-711.689	39.762	-0.127	-0.115
-710.675	-200.000	0.055	-0.252
-709.660	739.010	-0.111	-0.301
-708.645	387.066	0.085	0.179
-707.631	133.516	-0.123	0.162
-706.616	448.089	-0.044	0.099
-705.602	800.000	-0.048	-0.139
-704.587	-112.566	-0.144	-0.029
-703.572	-200.000	0.020	-0.127
-702.558	-110.952	-0.116	-0.024
-701.543	-25.077	0.242	0.145
-700.529	-200.000	-0.034	-0.492
-699.514	-137.742	0.235	0.027
-698.499	-128.814	0.027	-0.004
-697.485	481.136	-0.103	-0.236
-696.470	-28.272	0.136	0.080
-695.456	-200.000	-0.019	0.131
-694.441	-110.902	0.126	-0.026
-693.426	-140.021	0.461	0.049
-692.412	-113.017	-0.201	-0.040
-691.397	-74.607	0.258	0.094
-690.383	-11.574	0.264	-0.176
-689.368	-22.221	-0.203	-0.125
-688.354	30.912	-0.187	-0.162
-687.339	137.345	-0.329	0.435
-686.324	47.215	0.131	0.124
-685.310	-29.769	-0.223	0.129
-684.295	-16.255	0.166	-0.107
-683.281	-71.531	-0.201	0.076
-682.266	66.176	0.316	-0.324
-681.251	13.480	-0.168	-0.132
-680.237	164.853	0.077	-0.110
-679.222	-70.522	0.204	-0.078
-678.208	800.000	-0.033	-0.105
-677.193	68.341	-0.228	0.236
-676.178	-28.935	0.137	-0.080
-675.164	-71.222	-0.196	0.074
-674.149	-80.015	0.164	0.056
-673.135	512.239	0.072	-0.170
-672.120	-87.359	-0.193	-0.059
-671.105	-23.949	0.190	-0.115
-670.091	532.122	-0.054	0.129
-669.076	-21.354	0.178	-0.110
-668.062	312.460	-0.086	-0.163
-667.047	-200.000	0.012	-0.302
-666.032	164.410	-0.064	-0.092
-665.018	-36.418	-0.240	0.131
-664.003	581.836	0.149	0.370
-662.989	-59.465	0.225	-0.098
-661.974	159.492	-0.104	0.146
-660.959	450.063	-0.084	0.186
-659.945	-114.948	-0.055	-0.011
-658.930	-58.825	0.244	-0.107
-657.916	346.874	-0.091	-0.182
-656.901	-78.314	-0.203	-0.071
-655.886	-40.745	-0.158	0.083
-654.872	-104.333	-0.211	-0.049
-653.857	-200.000	0.046	-0.303
-652.843	-200.000	-0.012	0.194
-651.828	62.110	-0.121	0.122
-650.814	-14.117	-0.167	-0.109
-649.799	-76.285	-0.130	-0.046
-648.784	22.306	0.180	-0.149
-647.770	237.255	-0.100	-0.167
-646.755	-16.339	0.070	0.045
-645.741	-139.418	0.173	-0.019
-644.726	36.616	-0.255	-0.227
-643.711	-171.446	-0.195	-0.007
-642.697	223.874	0.059	0.097
-641.682	84.947	-0.125	-0.138
-640.668	310.240	-0.140	0.264
-639.653	205.087	-0.118	-0.185
-638.638	22.458	0.164	-0.135
-637.624	-121.785	-0.316	-0.053
-636.609	793.881	0.229	-0.637
-635.595	-98.377	0.247	0.064
-634.580	-116.026	-0.144	-0.027
-633.565	800.000	0.042	0.120
-632.551	90.350	-0.308	0.347
-631.536	-85.834	0.327	0.102
-630.522	-200.000	-0.011	-0.374
-629.507	91.286	-0.242	0.274
-628.492	-200.000	0.000	-0.032
-627.478	-187.207	0.094	0.001
-626.463	-168.708	-0.090	0.003
-625.449	97.211	-0.176	-0.204
-624.434	800.000	-0.015	-0.060
-623.419	-53.465	0.241	-0.111
-622.405	141.097	-0.201	-0.268
-621.390	-95.220	0.049	-0.013
-620.376	800.000	0.030	-0.085
-619.361	-200.000	-0.051	0.324
-618.346	-72.166	-0.200	0.075
-617.332	800.000	-0.073	0.232
-616.317	-42.420	-0.544	-0.280
-615.303	-106.050	0.138	0.031
-614.288	-200.000	0.007	-0.105
-613.273	250.533	-0.064	-0.110
-612.259	80.622	0.320	-0.348
-611.244	-50.844	-0.133	0.063
-610.230	-98.112	-0.200	0.052
-609.215	458.873	-0.083	0.187
-608.201	40.627	-0.068	0.062
-607.186	4.226	0.287	0.212
-606.171	-200.000	0.033	-0.414
-605.157	207.046	0.076	0.119
-604.142	-65.831	0.188	-0.076
-603.128	800.000	-0.031	0.121
-602.113	105.593	-0.172	-0.205
-601.098	800.000	0.038	-0.118
-600.084	-54.866	0.029	-0.013
-599.069	12.727	-0.129	0.100
-598.055	506.742	-0.053	-0.124
-597.040	-33.823	-0.222	0.123
-596.025	-57.775	0.071	-0.031
-595.011	99.276	0.017	-0.020
-593.996	-9.944	-0.208	-0.139
-592.982	-200.000	0.201	0.001
-591.967	-96.146	-0.244	-0.065
-590.952	244.418	-0.098	0.166
-589.938	-200.000	0.011	-0.078
-588.923	-156.934	-0.110	0.007
-587.909	-76.159	-0.164	0.058
-586.894	4.353	0.084	0.062
-585.879	168.861	-0.067	0.096
-584.865	225.900	0.240	-0.392
-583.850	-92.851	-0.364	0.103
-582.836	-200.000	-0.002	-0.055
-581.821	-124.665	0.107	0.017
-580.806	-135.051	-0.264	0.032
-579.792	781.268	-0.080	0.220
-578.777	-142.301	0.475	0.047
-577.763	-200.000	0.035	-0.234
-576.748	99.890	0.253	-0.295
-575.733	38.890	0.210	0.189
-574.719	800.000	-0.033	-0.121
-573.704	-107.038	0.367	-0.082
-572.690	-200.000	0.007	-0.122
-571.675	-57.657	-0.330	0.145
-570.661	-121.539	0.517	0.086
-569.646	800.000	-0.036	0.152
-568.631	-1.967	-0.138	0.098
-567.617	800.000	0.032	0.101
-566.602	61.941	0.216	-0.217
-565.588	-21.366	-0.097	-0.059
-564.573	-200.000	0.015	0.088
-563.558	-200.000	0.345	0.001
-562.544	199.066	-0.082	0.126
-561.529	-123.069	0.353	-0.057
-560.515	-3.580	0.201	0.141
-559.500	-4.476	0.329	0.229
-558.485	300.722	-0.115	-0.215
-557.471	800.000	0.048	0.173
-556.456	-121.792	0.091	-0.015
-555.442	-124.276	-0.558	-0.088
-554.427	800.000	0.027	-0.101
-553.412	-200.000	-0.007	-0.070
-552.398	55.968	-0.124	0.121
-551.383	75.340	-0.061	0.065
-550.369	-21.547	-0.169	-0.103
-549.354	-89.097	0.441	-0.131
-548.339	-76.063	-0.345	0.123
-547.325	-180.432	0.218	-0.005
-546.310	-200.000	0.013	-0.095
-545.296	8.496	0.202	0.153
-544.281	136.031	0.067	-0.088
-543.266	-107.284	0.168	0.037
-542.252	-47.930	-0.224	-0.109
-541.237	800.000	0.095	-0.405
-540.223	-125.270	0.032	-0.005
-539.208	0.597	-0.246	-0.177
-538.193	182.784	0.123	-0.183
-537.179	-200.000	-0.003	-0.281
-536.164	-109.262	-0.224	0.048
-535.150	464.859	-0.071	-0.160
-534.135	245.673	-0.092	0.156
-533.121	-118.805	-0.112	-0.020
-532.106	242.620	0.060	0.102
-531.091	299.398	0.024	0.044
-530.077	-200.000	-0.013	-0.285
-529.062	-26.435	0.185	0.109
-528.048	39.796	0.206	-0.186
-527.033	377.390	-0.075	0.154
-526.018	27.819	0.193	0.164
-525.004	-90.543	-0.213	0.062
-523.989	10.266	-0.195	0.149
-522.975	800.000	0.042	-0.130
-521.960	-165.865	0.310	-0.013
-520.945	127.202	-0.147	-0.188
-519.931	-76.617	-0.126	-0.045
-518.916	800.000	-0.095	0.316
-517.902	-200.000	-0.016	-0.083
-516.887	20.433	0.133	0.108
-515.872	-175.915	-0.245	-0.007
-514.858	267.840	0.113	0.199
-513.843	-104.707	0.104	0.024
-512.829	-30.653	0.068	0.039
-511.814	-106.727	-0.403	0.090
-510.799	-30.852	-0.103	-0.059
-509.785	194.185	0.185	-0.281
-508.770	-53.015	0.153	0.071
-507.756	-87.789	-0.209	0.063
-506.741	132.879	0.059	-0.077
-505.726	-200.000	-0.033	0.303
-504.712	-39.480	0.114	0.060
-503.697	-109.121	-0.167	-0.036
-502.683	-150.289	0.122	-0.009
-501.668	346.381	-0.087	0.172
-500.653	-200.000	-0.025	0.139
-499.639	308.969	0.133	0.249
-498.624	-56.979	-0.396	-0.175
-497.610	6.741	-0.024	-0.018
-496.595	-80.997	-0.365	-0.121
-495.581	800.000	0.038	-0.127
-494.566	86.384	-0.121	-0.134
-493.551	-49.257	-0.164	0.078
-492.537	-200.000	-0.036	0.211
-491.522	386.955	0.096	0.199
-490.508	-200.000	-0.084	0.399
-489.493	-110.150	-0.147	0.031
-488.478	-0.699	0.082	-0.059
-487.464	-22.541	-0.142	-0.087
-486.449	-102.071	0.223	0.054
-485.435	-120.498	-0.113	-0.019
-484.420	-43.838	-0.153	-0.077
-483.405	158.814	0.054	0.076
-482.391	17.103	0.241	0.192
-481.376	120.849	0.172	0.215
-480.362	102.019	-0.127	0.148
-479.347	-33.517	-0.049	0.027
-478.332	-38.892	0.175	0.092
-477.318	100.626	0.171	0.199
-476.303	-117.391	-0.168	0.031
-475.289	267.698	-0.129	0.226
-474.274	-72.137	-0.357	0.133
-473.259	47.185	-0.222	0.207
-472.245	-101.276	0.355	-0.087
-471.230	23.911	-0.143	-0.118
-470.216	211.676	-0.173	0.273
-469.201	2.568	0.232	-0.168
-468.186	181.025	0.013	0.019
-467.172	101.033	0.017	-0.020
-466.157	539.738	0.115	-0.274
-465.143	-200.000	-0.020	-0.294
-464.128	-86.610	0.140	-0.043
-463.113	-36.557	-0.139	0.075
-462.099	-128.913	0.146	-0.021
-461.084	-128.184	-0.074	0.011
-460.070	-55.513	-0.108	-0.048
-459.055	233.293	-0.101	0.166
-458.040	-74.276	-0.318	-0.115
-457.026	55.912	0.215	-0.209
-456.011	119.920	-0.166	-0.206
-454.997	163.114	-0.096	-0.135
-453.982	68.908	-0.285	-0.294
-452.968	800.000	-0.024	0.071
-451.953	225.257	0.107	-0.174
-450.938	659.912	0.088	-0.226
-449.924	45.633	0.199	-0.184
-448.909	150.386	-0.025	0.034
-447.895	-31.968	0.304	0.171
-446.880	110.810	-0.044	-0.053
-445.865	402.361	-0.210	0.442
-444.851	144.647	-0.161	0.216
-443.836	-32.223	0.177	-0.099
-442.822	705.366	-0.076	-0.202
-441.807	-81.132	-0.286	0.095
-440.792	13.226	-0.108	-0.084
-439.778	77.680	-0.069	0.074
-438.763	-18.622	0.143	-0.089
-437.749	55.965	0.052	0.050
-436.734	800.000	0.047	0.161
-435.719	-85.805	-0.121	0.038
-434.705	800.000	0.025	0.073
-433.690	0.609	-0.171	-0.122
-432.676	72.816	0.196	0.205
-431.661	-73.372	-0.118	0.043
-430.646	-46.539	0.125	-0.062
-429.632	206.706	-0.034	0.053
-428.617	-200.000	0.006	-0.148
-427.603	-67.928	0.139	-0.054
-426.588	800.000	0.041	0.165
-425.573	-17.444	0.251	0.158
-424.559	-126.576	-0.017	0.002
-423.544	-153.253	0.145	0.010
-422.530	504.347	-0.166	0.384
-421.515	-88.488	0.370	-0.110
-420.500	525.510	-0.148	-0.349
-419.486	12.149	-0.266	-0.205
-418.471	800.000	0.040	-0.127
-417.457	88.745	0.062	0.069
-416.442	-200.000	-0.030	0.164
-415.428	-200.000	-0.004	0.035
-414.413	-115.021	0.352	0.067
-413.398	-200.000	-0.046	-0.226
-412.384	205.884	-0.218	-0.340
-411.369	169.290	0.096	-0.137
-410.355	-200.000	-0.005	0.344
-409.340	-200.000	0.053	0.290
-408.325	-47.721	-0.141	-0.068
-407.311	111.485	0.125	-0.151
-406.296	-110.281	-0.097	0.020
-405.282	64.326	0.170	-0.172
-404.267	18.947	0.219	-0.175
-403.252	-107.522	0.142	0.031
-402.238	-67.201	-0.282	-0.111
-401.223	-189.946	0.062	-0.001
-400.209	-121.088	-0.233	0.039
-399.194	450.624	-0.133	-0.293
-398.179	514.291	0.223	0.521
-397.165	80.812	0.151	0.163
-396.150	-43.838	-0.305	-0.154
-395.136	94.285	0.169	-0.192
-394.121	167.558	0.060	-0.085
-393.106	20.636	-0.227	-0.184
-392.092	80.788	-0.155	-0.167
-391.077	28.624	0.183	0.155
-390.063	119.286	0.173	0.215
-389.048	176.699	-0.251	0.365
-388.033	-151.789	0.042	0.003
-387.019	-200.000	-0.027	0.348
-386.004	-200.000	0.018	-0.256
-384.990	87.663	-0.096	0.106
-383.975	328.095	0.138	-0.265
-382.960	-151.353	-0.152	0.011
-381.946	800.000	-0.083	0.327
-380.931	708.428	-0.018	-0.048
-379.917	-200.000	0.017	0.198
-378.902	5.591	-0.037	0.027
-377.888	310.810	0.132	-0.246
-376.873	5.394	-0.278	0.205
-375.858	134.917	0.073	0.095
-374.844	46.468	0.134	0.124
-373.829	-122.268	0.160	-0.026
-372.815	609.738	0.033	-0.083
-371.800	800.000	0.076	-0.281
-370.785	-64.600	-0.316	-0.128
-369.771	37.773	0.193	0.171
-368.756	-129.516	-0.573	0.079
-367.742	-59.846	-0.114	-0.049
-366.727	-200.000	-0.005	0.069
-365.712	110.600	0.168	0.202
-364.698	-21.448	-0.237	-0.145
-363.683	357.062	0.087	0.174
-362.669	189.373	-0.100	0.150
-361.654	229.798	-0.146	-0.238
-360.639	-77.617	0.343	-0.119
-359.625	-200.000	0.006	-0.084
-358.610	-181.585	-0.186	0.004
-357.596	114.362	0.278	0.339
-356.581	75.058	0.128	0.135
-355.566	-53.495	0.307	-0.140
-354.552	800.000	-0.144	0.408
-353.537	532.544	0.120	-0.283
-352.523	-148.707	0.069	-0.006
-351.508	-177.709	-0.115	0.003
-350.493	67.665	0.220	-0.225
-349.479	-133.760	-0.264	-0.033
-348.464	-200.000	0.006	0.311
-347.450	-200.000	-0.003	0.313
-346.435	236.950	-0.022	0.036
-345.420	27.945	0.198	-0.166
-344.406	195.255	-0.095	-0.145
-343.391	-200.000	-0.021	-0.258
-342.377	-41.210	0.348	-0.179
-341.362	800.000	-0.033	0.105
-340.348	800.000	0.048	-0.196
-339.333	248.062	0.095	-0.160
-338.318	101.435	0.123	0.143
-337.304	-112.726	0.100	0.020
-336.289	59.875	0.058	0.058
-335.275	403.798	0.143	-0.300
-334.260	-200.000	0.111	0.723
-333.245	-200.000	-0.048	0.308
-332.231	-200.000	-0.052	0.448
-331.216	-200.000	-0.004	0.032
-330.202	-26.322	0.085	-0.050
-329.187	-69.354	-0.084	0.032
-328.172	-200.000	-0.004	-0.088
-327.158	-200.000	-0.015	0.070
-326.143	-110.593	-0.234	-0.048
-325.129	-200.000	0.002	0.112
-324.114	-200.000	0.015	-0.075
-323.099	-14.741	0.024	-0.016
-322.085	800.000	-0.102	0.413
-321.070	-20.334	-0.241	0.148
-320.056	-9.528	-0.280	-0.187
-319.041	-58.119	0.056	0.024
-318.026	592.196	-0.069	-0.170
-317.012	131.906	0.055	-0.070
-315.997	-47.831	0.068	-0.033
-314.983	738.026	-0.061	0.162
-313.968	-110.218	-0.307	-0.064
-312.953	-74.388	-0.131	-0.047
-311.939	156.389	-0.187	-0.257
-310.924	-108.220	-0.192	0.041
-309.910	457.771	0.199	-0.441
-308.895	-58.050	-0.211	0.092
-307.880	664.975	0.071	-0.183
-306.866	800.000	0.062	0.172
-305.851	-9.760	0.270	0.179
-304.837	-105.006	0.465	0.106
-303.822	-200.000	0.001	0.013
-302.807	800.000	-0.042	-0.163
-301.793	-200.000	0.028	-0.236
-300.778	800.000	-0.034	-0.112
-299.764	-38.512	-0.368	-0.194
-298.749	629.134	-0.136	0.342
-297.735	800.000	0.101	0.322
-296.720	90.154	0.206	0.230
-295.705	-21.769	-0.282	-0.171
-294.691	173.504	0.025	-0.037
-293.676	-200.000	0.001	-0.174
-292.662	-200.000	0.006	-0.222
-291.647	-200.000	-0.004	0.112
-290.632	673.405	-0.090	-0.232
-289.618	-42.731	0.095	-0.048
-288.603	-96.918	-0.153	-0.040
-287.589	70.021	0.100	-0.103
-286.574	376.324	0.034	-0.070
-285.559	-144.140	0.301	0.028
-284.545	-200.000	-0.023	-0.103
-283.530	800.000	0.059	-0.163
-282.516	-37.786	0.304	-0.161
-281.501	-125.722	0.309	0.047
-280.486	-200.000	-0.046	0.406
-279.472	4.611	0.215	0.157
-278.457	-119.158	0.264	0.046
-277.443	-20.395	-0.314	0.193
-276.428	-16.296	0.065	0.041
-275.413	621.580	-0.075	-0.187
-274.399	342.220	0.077	-0.150
-273.384	251.364	0.333	0.564
-272.370	210.563	-0.107	0.168
-271.355	-167.567	-0.137	-0.005
-270.340	154.509	0.053	-0.072
-269.326	-200.000	-0.009	0.140
-268.311	-185.650	-0.274	0.004
-267.297	800.000	-0.031	0.102
-266.282	-112.222	0.188	-0.038
-265.267	-200.000	0.017	0.238
-264.253	85.844	-0.260	0.284
-263.238	481.400	-0.038	0.086
-262.224	-58.916	0.044	0.019
-261.209	348.597	0.098	0.192
-260.195	14.934	-0.084	0.066
-259.180	305.296	-0.087	-0.161
-258.165	-52.048	0.103	-0.048
-257.151	-10.332	-0.206	0.136
-256.136	800.000	-0.043	-0.165
-255.122	499.843	0.059	0.136
-254.107	74.338	0.084	0.087
-253.092	242.736	0.099	0.165
-252.078	19.394	-0.163	-0.130
-251.063	189.415	-0.173	0.258
-250.049	43.786	-0.160	-0.145
-249.034	-200.000	0.068	-0.315
-248.019	-52.915	0.202	0.092
-247.005	800.000	0.107	-0.308
-245.990	0.895	-0.164	-0.117
-244.976	800.000	-0.063	-0.187
-243.961	67.271	-0.128	0.130
-242.946	-100.773	-0.157	0.038
-241.932	18.683	0.066	-0.053
-240.917	-24.911	-0.058	0.034
-239.903	-200.000	0.072	0.460
-238.888	-55.779	0.498	0.221
-237.873	32.885	-0.116	-0.100
-236.859	491.536	-0.147	0.335
-235.844	-58.386	-0.118	0.051
-234.830	-123.167	0.241	0.038
-233.815	-170.828	-0.119	-0.004
-232.800	26.960	0.128	-0.106
-231.786	-127.218	-0.066	0.010
-230.771	486.548	0.067	-0.151
-229.757	67.420	-0.312	-0.316
-228.742	-106.453	0.198	-0.044
-227.727	-18.760	0.129	-0.080
-226.713	-44.421	0.237	-0.118
-225.698	-83.854	-0.312	0.099
-224.684	-130.032	-0.222	-0.030
-223.669	-200.000	-0.031	0.138
-222.655	309.271	-0.077	-0.142
-221.640	-136.360	0.263	-0.030
-220.625	196.330	0.151	0.229
-219.611	-34.902	-0.172	-0.093
-218.596	-41.022	-0.144	0.074
-217.582	-134.847	0.173	0.021
-216.567	-109.632	0.206	0.043
-215.552	-200.000	-0.040	-0.190
-214.538	20.526	0.299	-0.240
-213.523	-43.517	-0.104	0.052
-212.509	42.706	-0.147	-0.133
-211.494	-200.000	-0.022	0.119
-210.479	-96.529	0.037	0.010
-209.465	303.968	-0.027	0.049
-208.450	239.874	0.202	0.335
-207.436	141.330	0.291	-0.382
-206.421	800.000	-0.034	-0.126
-205.406	-115.627	0.223	0.042
-204.392	334.121	-0.108	0.208
-203.377	138.919	0.115	0.150
-202.363	-78.131	0.080	-0.027
-201.348	478.848	-0.051	0.115
-200.333	109.480	0.130	-0.155
-199.319	800.000	-0.071	-0.251
-198.304	-200.000	0.016	0.159
-197.290	-200.000	0.080	0.383
-196.275	94.890	-0.157	0.177
-195.260	558.110	-0.096	-0.229
-194.246	-200.000	0.019	0.100
-193.231	-38.548	-0.009	-0.005
-192.217	-125.388	0.078	-0.012
-191.202	-126.993	-0.300	0.044
-190.187	800.000	0.015	-0.042
-189.173	-85.249	0.235	0.073
-188.158	552.161	0.031	-0.074
-187.144	-36.223	-0.145	-0.078
-186.129	800.000	0.028	0.110
-185.114	273.539	-0.080	0.141
-184.100	-161.208	-0.289	-0.015
-183.085	543.868	0.143	-0.340
-182.071	-116.373	-0.110	0.020
-181.056	-2.184	0.169	-0.118
-180.042	40.160	0.283	0.252
-179.027	-200.000	-0.091	-0.402
-178.012	-75.446	0.228	-0.080
-176.998	90.354	0.120	0.133
-175.983	36.176	0.215	-0.188
-174.969	264.370	0.199	-0.343
-173.954	239.301	-0.241	-0.398
-172.939	-200.000	-0.035	-0.299
-171.925	-200.000	0.025	0.124
-170.910	800.000	-0.088	0.267
-169.896	44.443	-0.141	-0.129
-168.881	4.902	-0.030	0.022
-167.866	25.164	0.091	-0.075
-166.852	-101.664	0.465	-0.112
-165.837	-13.385	-0.244	0.157
-164.823	-200.000	0.011	-0.061
-163.808	-87.255	0.185	0.056
-162.793	102.856	-0.046	-0.053
-161.779	70.239	0.058	0.059
-160.764	-149.471	0.223	-0.018
-159.750	153.533	-0.217	0.294
-158.735	-137.149	0.053	-0.006
-157.720	-76.328	0.426	-0.149
-156.706	-200.000	-0.037	-0.291
-155.691	18.698	-0.021	-0.017
-154.677	671.761	0.015	-0.039
-153.662	79.200	0.093	-0.099
-152.647	90.902	-0.249	0.277
-151.633	-117.677	-0.067	0.012
-150.618	563.048	-0.063	0.151
-149.604	35.980	-0.138	-0.120
-148.589	-56.039	0.268	0.118
-147.574	364.654	0.120	-0.239
-146.560	-124.586	0.176	-0.027
-145.545	705.590	-0.147	-0.385
-144.531	-57.258	-0.024	0.011
-143.516	-174.431	-0.147	0.004
-142.502	209.714	0.099	0.154
-141.487	-0.782	0.189	0.132
-140.472	56.500	0.247	0.238
-139.458	-200.000	-0.035	0.308
-138.443	800.000	0.026	-0.095
-137.429	-6.420	-0.315	-0.212
-136.414	800.000	-0.057	0.235
-135.399	-33.342	-0.235	0.129
-134.385	185.776	0.246	0.361
-133.370	-94.722	-0.280	0.075
-132.356	38.954	-0.221	0.195
-131.341	30.705	0.090	0.076
-130.326	-138.220	0.293	-0.032
-129.312	-200.000	-0.005	-0.429
-128.297	486.215	0.152	0.344
-127.283	-92.986	0.130	0.036
-126.268	633.247	-0.086	0.215
-125.253	-25.508	-0.243	0.142
-124.239	344.806	0.062	0.120
-123.224	800.000	-0.061	-0.168
-122.210	14.383	-0.227	0.176
-121.195	-106.301	-0.103	0.023
