DTS Sentinel unit serial number:	SN413079Multiplexer serial number:	ORYXHardware model number:	OX4-SRSoftware version number:	ORYX F/W v4.00 Oryx Data Collector v3.7.2.0data status	okinstallation	princeton_trtdifferential loss correction	single-endedforward channel	channel 2reverse channel	N/Adate	2019/09/12time	23:55:35forward acquisition time	60.00reverse acquisition time	0.00gamma	496.2192k internal	0.2332k external	0.2332temperature offset calibration	1.0180default loss term (dB/km)	0.3790temperature slope calibration	1.0000multiplexer offset coefficient	1.0000multiplexer slope coefficient	1.0000fibre end	0.00T internal ref (°C)	28.69T ext. ref 1 (°C)	3.80T ext. ref 2 (°C)	23.43length (m)	temperature (°C)	Stokes	anti-Stokes-747.200	800.000	0.048	-0.150
-746.185	-30.971	-0.329	-0.187
-745.171	-63.321	-0.251	0.104
-744.156	183.308	0.232	0.345
-743.142	800.000	0.038	0.129
-742.127	-200.000	-0.010	0.066
-741.112	-200.000	0.001	0.111
-740.098	413.038	0.178	0.380
-739.083	-17.782	0.341	0.215
-738.069	800.000	-0.122	0.482
-737.054	439.786	0.163	-0.358
-736.039	185.824	-0.087	0.130
-735.025	800.000	-0.017	-0.066
-734.010	-200.000	0.034	-0.189
-732.996	-102.292	-0.188	0.045
-731.981	109.589	-0.042	0.050
-730.966	-144.013	0.232	-0.022
-729.952	800.000	-0.095	0.279
-728.937	-136.659	-0.113	0.013
-727.923	144.591	-0.286	-0.384
-726.908	108.045	-0.078	0.093
-725.894	-82.336	-0.180	-0.059
-724.879	800.000	-0.055	-0.192
-723.864	-1.022	0.243	-0.173
-722.850	-90.287	-0.358	-0.105
-721.835	-63.394	-0.189	0.078
-720.821	-200.000	-0.043	-0.262
-719.806	214.017	-0.169	0.269
-718.791	62.495	-0.239	0.240
-717.777	-100.550	-0.211	0.052
-716.762	-19.002	-0.173	-0.108
-715.748	-24.396	-0.257	-0.154
-714.733	-123.852	-0.172	-0.027
-713.718	45.492	-0.059	-0.055
-712.704	-130.919	-0.218	0.029
-711.689	77.103	0.214	0.229
-710.675	-131.737	-0.077	0.010
-709.660	229.350	-0.218	-0.358
-708.645	800.000	-0.037	-0.127
-707.631	-200.000	0.000	-0.102
-706.616	97.446	0.090	0.104
-705.602	800.000	0.011	-0.042
-704.587	-46.964	0.290	-0.142
-703.572	-62.482	0.371	-0.155
-702.558	172.600	0.066	-0.096
-701.543	-44.660	0.219	0.110
-700.529	-27.461	-0.351	-0.205
-699.514	13.768	-0.154	-0.120
-698.499	144.625	0.131	-0.175
-697.485	800.000	-0.110	-0.419
-696.470	800.000	0.098	0.322
-695.456	-200.000	-0.061	-0.312
-694.441	264.996	0.045	0.078
-693.426	-63.109	-0.290	-0.120
-692.412	-63.780	-0.168	-0.069
-691.397	-141.006	-0.303	-0.031
-690.383	-75.399	-0.069	0.025
-689.368	800.000	-0.061	0.203
-688.354	-181.174	0.399	0.008
-687.339	-200.000	0.007	0.093
-686.324	242.495	0.080	0.135
-685.310	-200.000	-0.012	-0.110
-684.295	525.461	-0.111	-0.262
-683.281	-200.000	-0.047	-0.352
-682.266	88.717	0.153	0.171
-681.251	-78.783	-0.264	0.090
-680.237	365.508	0.057	-0.115
-679.222	-127.255	-0.264	-0.039
-678.208	-79.562	-0.180	0.061
-677.193	272.525	-0.160	-0.283
-676.178	-173.222	-0.404	-0.012
-675.164	146.510	0.108	0.146
-674.149	800.000	0.051	0.148
-673.135	-6.841	-0.079	-0.054
-672.120	800.000	-0.087	-0.376
-671.105	-28.328	0.266	-0.154
-670.091	53.782	0.103	0.099
-669.076	184.023	-0.073	0.108
-668.062	63.953	-0.162	-0.163
-667.047	-200.000	0.014	-0.161
-666.032	800.000	-0.027	-0.092
-665.018	800.000	0.060	-0.234
-664.003	323.182	-0.029	0.056
-662.989	-187.458	0.455	0.006
-661.974	-181.392	0.141	0.003
-660.959	800.000	0.022	-0.080
-659.945	329.594	-0.053	0.102
-658.930	800.000	-0.017	0.068
-657.916	31.489	0.117	-0.101
-656.901	114.666	-0.195	0.238
-655.886	800.000	0.017	-0.071
-654.872	-160.224	-0.238	-0.013
-653.857	-66.236	-0.126	-0.050
-652.843	36.692	-0.094	-0.083
-651.828	-200.000	0.004	-0.341
-650.814	-13.528	-0.293	0.191
-649.799	103.271	0.168	0.198
-648.784	2.313	0.301	0.218
-647.770	104.516	-0.087	-0.102
-646.755	-31.271	-0.403	0.227
-645.741	83.495	-0.353	0.386
-644.726	-99.588	0.090	0.023
-643.711	299.450	0.231	-0.426
-642.697	370.978	0.069	0.141
-641.682	2.565	0.195	-0.142
-640.668	-200.000	0.020	0.171
-639.653	-182.665	0.133	-0.002
-638.638	-200.000	0.032	0.385
-637.624	11.246	-0.233	0.178
-636.609	153.865	0.026	-0.036
-635.595	143.750	0.085	0.113
-634.580	48.050	-0.061	0.058
-633.565	800.000	-0.111	-0.377
-632.551	-200.000	-0.003	0.019
-631.536	-113.049	-0.203	0.040
-630.522	800.000	-0.094	0.285
-629.507	-69.986	-0.284	-0.108
-628.492	-40.046	0.081	-0.042
-627.478	79.086	-0.032	0.034
-626.463	311.407	0.121	0.228
-625.449	-200.000	0.008	0.040
-624.434	90.510	-0.350	-0.392
-623.419	-200.000	-0.017	-0.141
-622.405	114.002	-0.151	-0.184
-621.390	-16.875	-0.568	0.359
-620.376	-200.000	-0.014	-0.133
-619.361	384.501	0.101	0.208
-618.346	-36.185	-0.268	0.145
-617.332	-200.000	0.005	-0.083
-616.317	238.083	-0.230	-0.382
-615.303	125.341	0.092	-0.117
-614.288	71.989	-0.228	0.237
-613.273	607.246	-0.035	0.086
-612.259	-87.220	0.271	0.082
-611.244	621.628	-0.118	-0.297
-610.230	-200.000	-0.032	-0.244
-609.215	-197.193	0.148	-0.001
-608.201	122.858	0.104	0.131
-607.186	520.493	0.053	0.124
-606.171	126.880	-0.035	-0.044
-605.157	-200.000	0.005	-0.072
-604.142	800.000	0.016	-0.062
-603.128	36.818	-0.073	-0.064
-602.113	800.000	0.071	0.224
-601.098	-50.185	0.601	0.285
-600.084	790.755	-0.072	-0.198
-599.069	358.920	0.062	0.123
-598.055	800.000	0.068	0.212
-597.040	722.235	0.057	0.153
-596.025	-148.803	0.187	-0.015
-595.011	141.066	0.117	0.154
-593.996	-119.638	0.108	-0.019
-592.982	-9.770	-0.233	0.155
-591.967	637.561	0.118	0.300
-590.952	-200.000	0.002	-0.115
-589.938	-0.121	-0.144	0.103
-588.923	800.000	-0.024	0.096
-587.909	-200.000	-0.018	-0.127
-586.894	99.694	0.191	0.221
-585.879	-36.105	-0.024	-0.013
-584.865	-168.851	0.386	0.015
-583.850	-17.210	0.055	0.035
-582.836	800.000	-0.107	-0.328
-581.821	-123.437	-0.152	-0.024
-580.806	194.350	0.061	-0.093
-579.792	116.349	-0.114	-0.139
-578.777	-1.201	-0.127	-0.090
-577.763	71.566	-0.151	0.156
-576.748	-79.116	0.040	0.014
-575.733	-48.742	-0.354	0.170
-574.719	-48.317	-0.117	0.057
-573.704	32.918	-0.285	0.247
-572.690	-95.423	0.390	0.105
-571.675	35.714	0.177	-0.155
-570.661	297.045	-0.082	-0.150
-569.646	-63.929	0.384	0.157
-568.631	-52.988	-0.298	0.137
-567.617	-200.000	-0.052	-0.450
-566.602	76.927	0.167	-0.177
-565.588	-25.659	-0.244	-0.144
-564.573	450.876	-0.044	-0.096
-563.558	-23.207	0.089	-0.053
-562.544	-84.285	-0.154	-0.049
-561.529	-200.000	0.015	0.102
-560.515	416.452	-0.044	0.093
-559.500	800.000	-0.140	0.401
-558.485	-200.000	0.000	-0.110
-557.471	-72.742	-0.305	0.112
-556.456	-62.899	-0.164	-0.068
-555.442	-43.554	-0.059	-0.030
-554.427	-57.152	0.181	0.080
-553.412	-200.000	-0.067	0.452
-552.398	800.000	0.065	-0.229
-551.383	-66.138	-0.217	0.086
-550.369	72.846	0.173	0.180
-549.354	-200.000	-0.031	-0.250
-548.339	-157.036	0.206	-0.013
-547.325	100.185	-0.185	0.214
-546.310	800.000	0.065	-0.242
-545.296	800.000	0.054	-0.196
-544.281	-60.744	-0.062	0.026
-543.266	54.955	-0.262	-0.253
-542.252	261.718	-0.141	0.244
-541.237	118.791	0.127	0.157
-540.223	-32.956	0.295	-0.163
-539.208	800.000	-0.103	0.318
-538.193	28.053	0.115	-0.097
-537.179	240.945	0.195	-0.325
-536.164	-91.993	-0.254	0.072
-535.150	83.526	-0.070	-0.076
-534.135	70.137	0.130	-0.133
-533.121	35.122	0.339	0.297
-532.106	-54.720	0.295	-0.133
-531.091	-200.000	-0.015	0.276
-530.077	58.807	0.142	-0.139
-529.062	-113.694	0.218	0.042
-528.048	-200.000	-0.003	0.142
-527.033	-200.000	-0.038	-0.274
-526.018	-77.782	-0.026	0.009
-525.004	113.881	-0.191	-0.232
-523.989	277.342	0.057	-0.101
-522.975	-72.984	-0.250	-0.092
-521.960	-53.476	0.198	0.090
-520.945	31.143	-0.137	-0.118
-519.931	409.561	0.128	0.270
-518.916	-113.748	0.311	0.060
-517.902	-200.000	-0.029	0.198
-516.887	134.115	-0.075	0.096
-515.872	74.960	-0.102	0.107
-514.858	-15.191	-0.102	-0.065
-513.843	227.730	0.113	-0.184
-512.829	553.114	-0.137	-0.329
-511.814	800.000	-0.025	0.098
-510.799	2.967	-0.081	-0.058
-509.785	-63.290	-0.082	0.034
-508.770	-116.362	0.088	-0.016
-507.756	104.390	-0.118	-0.138
-506.741	-68.499	0.210	0.081
-505.726	-200.000	-0.080	0.394
-504.712	800.000	-0.041	0.120
-503.697	-200.000	-0.002	-0.062
-502.683	-47.720	-0.516	0.249
-501.668	-151.614	-0.548	0.040
-500.653	275.770	0.182	-0.322
-499.639	2.388	-0.176	-0.127
-498.624	230.258	0.224	-0.366
-497.610	-200.000	0.060	-0.311
-496.595	-200.000	0.042	-0.200
-495.581	26.688	0.161	-0.134
-494.566	-47.413	0.308	-0.149
-493.551	86.888	-0.124	-0.136
-492.537	30.371	-0.139	0.118
-491.522	-129.817	0.259	0.035
-490.508	-28.003	0.172	0.099
-489.493	-200.000	-0.032	0.000
-488.478	343.694	0.088	-0.172
-487.464	-200.000	-0.021	0.284
-486.449	-83.826	0.283	-0.090
-485.435	-99.272	0.138	-0.035
-484.420	-200.000	-0.060	0.301
-483.405	-146.755	-0.175	0.015
-482.391	-23.013	-0.420	0.252
-481.376	800.000	0.047	-0.178
-480.362	-27.429	-0.112	0.065
-479.347	204.457	-0.024	0.037
-478.332	-200.000	0.033	-0.164
-477.318	-200.000	0.027	0.317
-476.303	-162.580	-0.164	0.008
-475.289	800.000	0.060	-0.255
-474.274	148.250	-0.075	-0.101
-473.259	96.402	-0.196	-0.223
-472.245	261.979	0.116	0.200
-471.230	25.858	-0.089	0.074
-470.216	-200.000	-0.014	-0.387
-469.201	-113.900	0.198	-0.038
-468.186	29.917	-0.151	0.128
-467.172	-28.309	-0.175	0.101
-466.157	-200.000	-0.091	-0.463
-465.143	-105.583	-0.366	-0.082
-464.128	800.000	-0.060	-0.220
-463.113	-200.000	-0.023	0.209
-462.099	-200.000	0.008	0.088
-461.084	-9.184	0.299	-0.199
-460.070	-200.000	0.021	-0.179
-459.055	-77.405	-0.268	0.092
-458.040	377.073	0.111	0.225
-457.026	571.460	0.107	-0.260
-456.011	15.444	0.142	-0.111
-454.997	-17.686	-0.160	-0.100
-453.982	800.000	0.059	0.162
-452.968	-74.316	-0.087	0.031
-451.953	299.495	-0.137	-0.252
-450.938	-22.456	-0.102	0.061
-449.924	-200.000	-0.024	0.118
-448.909	-127.313	-0.120	0.017
-447.895	-102.320	-0.430	0.103
-446.880	-99.302	-0.286	-0.072
-445.865	-200.000	-0.022	0.411
-444.851	-146.106	0.297	-0.026
-443.836	-200.000	0.025	-0.261
-442.822	346.901	0.046	0.090
-441.807	184.403	-0.057	0.085
-440.792	312.990	-0.114	0.214
-439.778	800.000	0.041	-0.160
-438.763	792.778	0.117	0.320
-437.749	-200.000	0.044	0.223
-436.734	-69.498	-0.247	-0.094
-435.719	50.418	-0.448	-0.421
-434.705	214.842	0.136	-0.214
-433.690	-37.216	-0.246	0.131
-432.676	-200.000	0.040	-0.212
-431.661	-20.394	-0.228	-0.139
-430.646	-22.230	0.208	-0.125
-429.632	-79.074	0.226	-0.076
-428.617	-126.861	0.149	-0.022
-427.603	-69.053	-0.119	-0.046
-426.588	167.819	-0.095	0.135
-425.573	-168.630	0.300	0.011
-424.559	163.568	0.150	-0.209
-423.544	77.502	0.253	0.267
-422.530	96.278	0.184	-0.209
-421.515	800.000	0.043	-0.132
-420.500	800.000	0.086	-0.293
-419.486	230.414	-0.145	0.236
-418.471	-53.048	0.376	-0.172
-417.457	204.949	0.158	0.244
-416.442	800.000	-0.114	0.408
-415.428	-18.274	-0.123	0.077
-414.413	-37.769	-0.371	-0.196
-413.398	102.469	0.095	0.110
-412.384	-200.000	-0.012	-0.146
-411.369	143.943	-0.115	0.152
-410.355	310.383	-0.047	-0.088
-409.340	553.146	-0.052	0.125
-408.325	-113.087	-0.194	-0.038
-407.311	182.672	0.107	-0.157
-406.296	364.829	0.069	-0.138
-405.282	-135.486	-0.155	-0.018
-404.267	-118.511	0.291	0.051
-403.252	-57.338	0.471	-0.205
-402.238	253.067	-0.085	0.143
-401.223	-67.311	-0.191	-0.075
-400.209	800.000	-0.086	0.287
-399.194	49.589	0.267	0.250
-398.179	769.100	-0.117	0.317
-397.165	-200.000	-0.040	-0.375
-396.150	-200.000	-0.063	0.297
-395.136	375.809	0.166	0.336
-394.121	-200.000	-0.014	0.068
-393.106	-200.000	0.023	-0.310
-392.092	150.507	-0.045	-0.060
-391.077	-122.729	0.091	0.015
-390.063	800.000	0.031	-0.121
-389.048	-36.832	0.372	0.198
-388.033	75.469	0.306	-0.320
-387.019	0.672	0.279	-0.198
-386.004	-43.010	-0.189	0.095
-384.990	96.586	-0.019	0.022
-383.975	-28.458	-0.322	0.184
-382.960	-88.239	0.319	-0.095
-381.946	170.541	0.094	-0.134
-380.931	159.949	0.208	-0.287
-379.917	-77.817	0.165	0.057
-378.902	-93.776	0.126	0.034
-377.888	-171.155	-0.440	-0.015
-376.873	-42.518	0.273	0.138
-375.858	-43.923	0.135	-0.067
-374.844	484.131	-0.076	-0.171
-373.829	-200.000	-0.003	-0.043
-372.815	-120.434	-0.122	-0.021
-371.800	-132.728	-0.284	0.036
-370.785	-200.000	0.076	-0.363
-369.771	409.913	-0.096	-0.202
-368.756	-65.058	0.153	-0.061
-367.742	37.437	-0.316	0.278
-366.727	109.795	0.136	-0.161
-365.712	-61.127	-0.198	-0.083
-364.698	466.122	-0.052	0.116
-363.683	441.715	0.045	0.098
-362.669	-33.336	0.169	-0.092
-361.654	103.477	0.167	-0.194
-360.639	20.918	0.220	-0.176
-359.625	-14.049	-0.160	0.102
-358.610	-19.663	-0.173	-0.106
-357.596	108.225	-0.100	-0.118
-356.581	144.158	-0.099	0.130
-355.566	6.797	0.257	0.190
-354.552	-113.707	-0.248	0.048
-353.537	-174.601	0.414	0.012
-352.523	-101.550	0.099	-0.024
-351.508	133.759	-0.091	-0.117
-350.493	-44.649	-0.069	-0.034
-349.479	336.085	-0.063	-0.120
-348.464	-71.324	-0.375	0.139
-347.450	-138.364	-0.139	0.015
-346.435	-200.000	0.029	0.274
-345.420	-200.000	0.006	-0.247
-344.406	-37.583	-0.132	0.070
-343.391	800.000	-0.097	-0.338
-342.377	42.233	0.341	0.307
-341.362	148.573	-0.174	-0.232
-340.348	-31.823	-0.192	0.107
-339.333	17.200	0.369	0.290
-338.318	-200.000	-0.037	0.251
-337.304	-106.776	0.115	-0.025
-336.289	-64.411	0.123	-0.050
-335.275	72.259	0.084	0.086
-334.260	230.016	-0.088	-0.142
-333.245	800.000	-0.016	0.058
-332.231	-1.697	0.108	0.075
-331.216	-96.536	0.085	0.022
-330.202	-200.000	-0.025	-0.231
-329.187	800.000	0.150	-0.425
-328.172	152.508	-0.334	-0.451
-327.158	-156.235	0.442	-0.028
-326.143	414.054	0.064	0.135
-325.129	29.476	0.240	0.202
-324.114	47.391	0.209	0.193
-323.099	-23.428	-0.195	-0.116
-322.085	-162.467	-0.103	-0.005
-321.070	-70.212	0.327	0.123
-320.056	-17.108	-0.207	0.129
-319.041	342.839	-0.094	-0.182
-318.026	160.926	-0.177	-0.245
-317.012	80.289	0.054	0.058
-315.997	496.442	0.045	-0.103
-314.983	-23.760	0.156	-0.092
-313.968	706.122	0.062	-0.162
-312.953	-134.283	0.258	0.031
-311.939	-200.000	-0.012	-0.145
-310.924	52.254	-0.185	-0.175
-309.910	-149.899	0.142	-0.011
-308.895	140.706	-0.150	0.197
-307.880	-26.697	0.239	-0.138
-306.866	596.008	0.104	-0.255
-305.851	442.555	0.144	-0.313
-304.837	-46.499	0.168	-0.081
-303.822	-143.201	-0.136	-0.013
-302.807	38.920	-0.013	0.012
-301.793	719.290	-0.076	-0.199
-300.778	204.796	-0.153	0.235
-299.764	-162.893	-0.078	0.004
-298.749	-67.231	-0.289	-0.112
-297.735	-44.666	0.121	0.060
-296.720	-200.000	0.012	-0.071
-295.705	800.000	-0.036	-0.105
-294.691	-72.978	-0.101	0.037
-293.676	12.692	0.062	0.047
-292.662	-76.762	-0.282	0.098
-291.647	152.485	-0.077	-0.104
-290.632	-133.200	-0.253	0.032
-289.618	165.702	0.039	-0.054
-288.603	-200.000	0.013	0.284
-287.589	349.476	-0.099	-0.192
-286.574	800.000	0.068	0.249
-285.559	800.000	0.081	0.244
-284.545	34.239	0.274	0.236
-283.530	-200.000	-0.001	-0.245
-282.516	-88.088	-0.531	-0.157
-281.501	78.435	0.186	0.197
-280.486	774.912	-0.020	-0.054
-279.472	315.904	0.109	0.204
-278.457	229.381	0.124	0.199
-277.443	-104.229	0.218	0.050
-276.428	648.163	0.076	0.191
-275.413	-119.719	-0.377	-0.064
-274.399	20.034	-0.217	0.173
-273.384	-200.000	0.079	0.427
-272.370	800.000	-0.055	-0.198
-271.355	-200.000	0.063	0.340
-270.340	132.871	0.201	0.257
-269.326	91.641	0.263	0.292
-268.311	-57.875	-0.203	-0.088
-267.297	-45.722	0.201	-0.098
-266.282	-61.768	-0.280	-0.116
-265.267	16.256	-0.219	-0.171
-264.253	435.068	-0.073	0.158
-263.238	-23.388	-0.139	0.083
-262.224	-142.873	-0.362	0.035
-261.209	10.224	0.280	-0.210
-260.195	115.057	-0.032	0.038
-259.180	800.000	-0.035	-0.118
-258.165	27.779	0.056	0.046
-257.151	114.113	0.219	-0.263
-256.136	234.266	-0.173	-0.281
-255.122	800.000	0.096	-0.346
-254.107	142.502	0.026	0.034
-253.092	-95.990	0.111	0.029
-252.078	-57.559	0.277	0.120
-251.063	-131.356	0.115	0.015
-250.049	-38.557	-0.060	0.031
-249.034	3.300	-0.052	0.038
-248.019	122.216	-0.274	0.338
-247.005	371.607	0.159	-0.318
-245.990	179.876	-0.141	0.204
-244.976	11.037	-0.186	-0.140
-243.961	-170.756	-0.168	-0.006
-242.946	-108.768	-0.239	0.051
-241.932	-105.485	-0.228	0.051
-240.917	800.000	-0.078	-0.258
-239.903	410.703	-0.103	0.215
-238.888	-72.128	0.555	0.203
-237.873	118.365	0.113	0.138
-236.859	291.247	0.035	0.062
-235.844	-137.461	0.086	-0.010
-234.830	-11.927	0.169	0.109
-233.815	-85.230	0.311	0.096
-232.800	103.037	-0.104	-0.120
-231.786	-14.120	-0.176	0.112
-230.771	-200.000	0.002	-0.080
-229.757	-200.000	-0.002	-0.124
-228.742	66.628	-0.138	0.139
-227.727	-76.269	-0.035	-0.012
-226.713	800.000	-0.161	0.517
-225.698	776.521	-0.099	0.267
-224.684	-200.000	0.006	0.105
-223.669	-127.928	-0.386	-0.055
-222.655	253.861	-0.039	-0.066
-221.640	-12.466	0.294	0.189
-220.625	800.000	-0.040	-0.140
-219.611	185.057	-0.152	-0.223
-218.596	-90.455	0.152	0.044
-217.582	-124.511	0.490	0.075
-216.567	-88.293	-0.203	-0.060
-215.552	-171.768	0.263	-0.009
-214.538	159.967	0.292	0.400
-213.523	-19.675	-0.308	-0.188
-212.509	62.041	0.167	-0.164
-211.494	-62.279	0.381	-0.156
-210.479	-75.817	0.218	-0.076
-209.465	-200.000	0.017	-0.173
-208.450	-42.775	-0.274	-0.137
-207.436	41.650	-0.107	-0.096
-206.421	800.000	-0.063	0.258
-205.406	51.610	-0.228	0.214
-204.392	302.109	0.192	-0.349
-203.377	40.458	0.220	-0.195
-202.363	-103.003	-0.273	0.064
-201.348	800.000	-0.042	0.128
-200.333	452.242	0.089	-0.195
-199.319	176.096	0.120	0.172
-198.304	117.723	0.267	0.323
-197.290	800.000	-0.105	-0.300
-196.275	-119.185	0.423	-0.073
-195.260	-200.000	-0.022	-0.102
-194.246	-158.029	-0.152	0.009
-193.231	-200.000	0.045	0.326
-192.217	-167.187	-0.479	-0.019
-191.202	40.863	0.359	-0.319
-190.187	-44.869	0.239	-0.117
-189.173	6.266	0.141	-0.103
-188.158	-14.046	0.255	0.162
-187.144	477.644	0.020	0.045
-186.129	571.160	0.068	-0.163
-185.114	-54.635	-0.303	0.135
-184.100	18.717	-0.330	0.260
-183.085	-200.000	-0.038	0.408
-182.071	-83.020	0.156	0.049
-181.056	-148.331	0.423	-0.034
-180.042	-98.886	-0.179	0.045
-179.027	800.000	0.062	-0.171
-178.012	285.603	-0.158	0.281
-176.998	-200.000	-0.009	0.172
-175.983	54.366	0.135	-0.128
-174.969	325.600	-0.135	-0.253
-173.954	195.553	0.050	-0.074
-172.939	416.063	0.139	-0.293
-171.925	-64.985	0.315	-0.125
-170.910	182.147	-0.035	0.051
-169.896	509.983	-0.070	-0.159
-168.881	-200.000	0.048	-0.231
-167.866	-200.000	0.043	-0.272
-166.852	-131.102	0.212	-0.028
-165.837	23.273	-0.167	0.135
-164.823	-170.720	0.305	0.010
-163.808	-200.000	-0.002	0.027
-162.793	800.000	0.035	0.144
-161.779	78.644	-0.158	0.166
-160.764	-109.000	0.195	0.041
-159.750	-3.194	0.119	-0.082
-158.735	-120.114	-0.193	0.032
-157.720	474.340	-0.114	0.253
-156.706	74.579	-0.151	0.156
-155.691	383.887	-0.044	0.090
-154.677	37.239	0.216	-0.188
-153.662	-113.864	-0.309	0.059
-152.647	-80.349	0.092	0.030
-151.633	156.628	-0.179	0.243
-150.618	800.000	0.072	-0.274
-149.604	-111.909	0.088	0.018
-148.589	-200.000	0.057	0.325
-147.574	-190.852	-0.246	0.003
-146.560	-64.598	-0.158	-0.063
-145.545	-172.957	-0.136	-0.004
-144.531	205.993	0.149	0.227
-143.516	164.972	0.138	-0.191
-142.502	-151.012	0.269	-0.020
-141.487	-200.000	0.014	-0.072
-140.472	214.084	-0.055	-0.085
-139.458	-15.307	0.288	-0.181
-138.443	154.385	0.158	-0.213
-137.429	60.629	-0.311	-0.303
-136.414	209.173	0.043	0.066
-135.399	357.308	0.080	0.157
-134.385	-36.369	0.234	-0.124
-133.370	37.484	0.243	-0.212
-132.356	800.000	-0.010	-0.041
-131.341	44.807	-0.030	0.027
-130.326	-81.607	0.260	0.084
-129.312	-200.000	-0.008	0.272
-128.297	-200.000	-0.057	0.343
-127.283	800.000	-0.102	0.350
-126.268	468.492	-0.061	0.134
-125.253	-38.271	0.343	0.179
-124.239	-126.396	0.255	0.037
-123.224	-51.005	-0.326	-0.150
-122.210	-200.000	-0.015	0.086
