DTS Sentinel unit serial number:	SN413079Multiplexer serial number:	ORYXHardware model number:	OX4-SRSoftware version number:	ORYX F/W v4.00 Oryx Data Collector v3.7.2.0data status	okinstallation	princeton_trtdifferential loss correction	single-endedforward channel	channel 2reverse channel	N/Adate	2019/09/13time	02:59:35forward acquisition time	60.00reverse acquisition time	0.00gamma	496.2192k internal	0.2334k external	0.2334temperature offset calibration	1.0189default loss term (dB/km)	0.3790temperature slope calibration	1.0000multiplexer offset coefficient	1.0000multiplexer slope coefficient	1.0000fibre end	0.00T internal ref (°C)	27.41T ext. ref 1 (°C)	4.05T ext. ref 2 (°C)	22.22length (m)	temperature (°C)	Stokes	anti-Stokes-747.200	-156.061	0.189	0.012
-746.185	78.161	-0.222	0.238
-745.171	27.548	-0.089	-0.075
-744.156	-142.550	-0.169	-0.017
-743.142	-200.000	-0.023	-0.331
-742.127	94.086	0.116	0.133
-741.112	56.097	-0.210	-0.205
-740.098	-121.744	-0.194	0.032
-739.083	294.044	0.091	0.167
-738.069	-90.425	-0.144	0.042
-737.054	-125.850	0.088	0.013
-736.039	-152.037	0.047	0.003
-735.025	-13.759	-0.284	0.184
-734.010	289.591	-0.181	-0.330
-732.996	212.799	-0.279	-0.442
-731.981	-200.000	0.002	0.037
-730.966	144.591	-0.122	-0.164
-729.952	-141.943	-0.227	0.023
-728.937	16.348	-0.136	-0.108
-727.923	2.670	-0.127	-0.092
-726.908	-77.228	-0.111	0.039
-725.894	-57.227	-0.221	-0.098
-724.879	-12.801	0.178	-0.117
-723.864	-12.256	0.158	-0.104
-722.850	53.271	-0.085	0.082
-721.835	142.688	-0.175	-0.234
-720.821	183.014	0.106	-0.157
-719.806	292.935	0.146	-0.268
-718.791	-43.051	-0.249	0.127
-717.777	37.334	-0.101	0.090
-716.762	-32.617	0.093	0.052
-715.748	-57.785	0.313	0.137
-714.733	10.222	0.225	-0.172
-713.718	800.000	-0.038	-0.123
-712.704	-20.439	0.367	-0.226
-711.689	-61.314	-0.088	-0.037
-710.675	627.343	0.054	-0.137
-709.660	-145.215	-0.276	-0.025
-708.645	800.000	0.120	-0.410
-707.631	272.659	0.057	-0.102
-706.616	-115.962	0.265	-0.050
-705.602	-200.000	0.008	-0.087
-704.587	-200.000	-0.074	0.336
-703.572	33.057	-0.224	0.195
-702.558	93.732	0.078	-0.088
-701.543	22.527	0.320	-0.263
-700.529	-164.738	0.122	0.006
-699.514	-95.284	0.233	-0.063
-698.499	-78.462	0.127	-0.044
-697.485	11.554	0.139	-0.107
-696.470	-15.988	-0.189	-0.121
-695.456	-8.542	-0.101	0.068
-694.441	59.232	-0.093	-0.092
-693.426	-200.000	-0.037	-0.191
-692.412	-141.589	-0.279	0.028
-691.397	236.915	-0.061	0.101
-690.383	17.779	-0.091	0.073
-689.368	219.368	-0.033	0.053
-688.354	-129.091	0.404	0.057
-687.339	126.113	0.090	0.114
-686.324	31.247	0.231	-0.198
-685.310	159.408	-0.074	0.103
-684.295	-183.641	-0.258	-0.004
-683.281	36.290	-0.112	-0.099
-682.266	89.049	0.208	0.232
-681.251	22.200	0.080	-0.065
-680.237	-33.276	-0.266	0.148
-679.222	-118.108	0.489	-0.087
-678.208	-15.424	0.138	-0.088
-677.193	63.460	-0.056	-0.057
-676.178	-63.975	-0.087	-0.036
-675.164	-15.426	-0.163	-0.105
-674.149	-200.000	-0.005	0.296
-673.135	167.377	0.114	0.163
-672.120	-156.260	-0.401	-0.025
-671.105	-200.000	0.004	0.126
-670.091	800.000	-0.074	-0.206
-669.076	800.000	-0.003	0.011
-668.062	-200.000	0.003	0.413
-667.047	-160.923	-0.135	-0.007
-666.032	235.091	-0.113	-0.187
-665.018	-61.210	0.336	-0.142
-664.003	-170.284	-0.219	0.008
-662.989	-93.194	0.260	-0.072
-661.974	-16.146	-0.163	0.104
-660.959	318.054	0.055	0.104
-659.945	385.288	0.119	0.245
-658.930	192.531	-0.072	0.109
-657.916	-200.000	-0.014	0.161
-656.901	90.522	-0.120	-0.135
-655.886	-200.000	0.039	0.288
-654.872	-65.460	0.127	-0.051
-653.857	61.617	-0.114	0.114
-652.843	-87.394	0.325	-0.099
-651.828	-200.000	0.025	0.177
-650.814	-200.000	0.041	0.196
-649.799	13.974	0.037	-0.028
-648.784	726.355	-0.086	-0.230
-647.770	-156.285	-0.085	-0.005
-646.755	385.228	0.043	-0.088
-645.741	-200.000	0.011	-0.100
-644.726	-200.000	-0.020	-0.207
-643.711	-128.308	0.281	-0.040
-642.697	-117.822	0.092	-0.016
-641.682	-30.202	-0.169	-0.096
-640.668	357.451	0.153	-0.305
-639.653	-61.801	-0.083	-0.035
-638.638	273.151	-0.045	-0.080
-637.624	-106.699	0.139	0.031
-636.609	143.231	-0.182	0.243
-635.595	51.767	-0.272	-0.259
-634.580	-200.000	-0.002	0.063
-633.565	295.142	0.009	0.017
-632.551	-54.710	0.048	0.022
-631.536	74.643	-0.176	0.185
-630.522	556.367	0.069	0.165
-629.507	211.320	-0.094	-0.148
-628.492	800.000	0.123	-0.455
-627.478	-152.800	-0.307	-0.022
-626.463	52.261	-0.115	0.110
-625.449	97.430	-0.199	-0.228
-624.434	724.178	-0.091	0.242
-623.419	-200.000	0.041	0.448
-622.405	-61.503	0.393	0.165
-621.390	40.415	-0.236	0.213
-620.376	-200.000	0.000	-0.098
-619.361	40.377	-0.053	0.048
-618.346	-200.000	0.032	0.200
-617.332	-19.991	-0.184	-0.114
-616.317	40.107	-0.163	-0.146
-615.303	-114.724	-0.405	-0.077
-614.288	222.148	0.077	0.124
-613.273	147.831	0.095	0.128
-612.259	800.000	0.035	-0.106
-611.244	-39.059	0.162	-0.085
-610.230	800.000	-0.060	-0.195
-609.215	-102.033	0.446	-0.108
-608.201	-113.268	-0.088	-0.017
-607.186	59.657	-0.146	0.144
-606.171	800.000	-0.069	0.221
-605.157	800.000	0.101	-0.319
-604.142	147.045	-0.151	0.203
-603.128	-66.509	-0.108	-0.043
-602.113	15.677	0.033	-0.026
-601.098	-200.000	-0.009	-0.049
-600.084	-51.637	-0.407	-0.190
-599.069	632.015	-0.093	0.236
-598.055	24.254	-0.224	-0.185
-597.040	-65.693	-0.432	0.173
-596.025	-48.799	-0.143	0.069
-595.011	290.265	0.216	-0.392
-593.996	800.000	0.067	-0.259
-592.982	455.417	-0.193	-0.428
-591.967	-94.768	0.287	0.078
-590.952	61.725	0.089	0.088
-589.938	-107.887	-0.231	-0.050
-588.923	-117.101	-0.104	-0.019
-587.909	29.818	0.153	0.131
-586.894	85.215	-0.315	0.345
-585.879	-200.000	-0.010	0.320
-584.865	614.637	0.010	-0.024
-583.850	-54.770	0.139	-0.062
-582.836	-200.000	-0.026	-0.171
-581.821	-200.000	0.069	-0.344
-580.806	-133.944	0.357	-0.044
-579.792	333.912	-0.115	0.222
-578.777	-200.000	0.032	-0.153
-577.763	43.933	0.063	0.058
-576.748	132.436	0.086	-0.111
-575.733	-200.000	0.043	-0.281
-574.719	-97.784	-0.318	0.082
-573.704	800.000	-0.089	-0.263
-572.690	-190.346	-0.325	-0.004
-571.675	580.335	-0.060	-0.147
-570.661	86.215	0.085	-0.093
-569.646	60.279	-0.022	-0.022
-568.631	37.688	-0.163	0.144
-567.617	1.822	0.110	0.079
-566.602	2.095	-0.121	0.087
-565.588	800.000	0.027	-0.086
-564.573	130.524	-0.228	0.292
-563.558	800.000	0.054	-0.184
-562.544	-42.409	-0.218	0.111
-561.529	6.442	-0.164	0.122
-560.515	-167.104	0.135	-0.005
-559.500	92.633	0.095	0.107
-558.485	-78.453	0.228	0.078
-557.471	-27.300	-0.116	-0.067
-556.456	291.030	-0.051	0.093
-555.442	324.979	0.114	0.217
-554.427	18.365	-0.176	0.141
-553.412	-15.836	0.196	-0.124
-552.398	705.019	0.014	-0.036
-551.383	800.000	-0.083	0.335
-550.369	-200.000	-0.024	0.233
-549.354	-146.428	-0.339	-0.030
-548.339	-200.000	-0.005	-0.083
-547.325	63.847	0.057	0.057
-546.310	15.767	-0.237	0.186
-545.296	25.674	0.061	-0.050
-544.281	166.333	-0.083	0.118
-543.266	254.908	-0.140	-0.239
-542.252	-149.611	-0.221	-0.017
-541.237	-115.186	-0.032	-0.006
-540.223	-200.000	-0.006	-0.263
-539.208	718.701	-0.123	-0.326
-538.193	377.902	0.156	-0.318
-537.179	-200.000	0.001	-0.260
-536.164	-59.423	0.088	0.038
-535.150	800.000	0.062	-0.251
-534.135	362.694	0.173	0.346
-533.121	-200.000	-0.007	-0.201
-532.106	123.133	-0.069	-0.086
-531.091	630.152	-0.031	-0.079
-530.077	-200.000	0.000	-0.127
-529.062	296.173	0.096	-0.176
-528.048	-200.000	-0.002	0.027
-527.033	251.920	0.098	0.167
-526.018	800.000	0.141	-0.477
-525.004	136.930	-0.137	-0.179
-523.989	151.096	0.088	-0.120
-522.975	-200.000	0.007	0.041
-521.960	-200.000	0.002	-0.098
-520.945	-104.502	-0.387	-0.089
-519.931	-145.555	0.072	0.006
-518.916	-183.509	0.163	-0.003
-517.902	221.167	0.190	0.303
-516.887	-62.467	-0.242	0.100
-515.872	-110.718	0.064	-0.013
-514.858	-66.939	-0.262	0.103
-513.843	408.871	0.110	-0.232
-512.829	110.075	-0.228	-0.273
-511.814	553.805	0.152	-0.364
-510.799	233.549	0.181	-0.297
-509.785	-83.778	-0.116	-0.037
-508.770	-200.000	-0.035	0.174
-507.756	76.684	0.020	-0.021
-506.741	29.717	0.111	0.094
-505.726	157.028	0.073	-0.100
-504.712	-77.415	-0.113	0.039
-503.697	800.000	-0.047	-0.203
-502.683	800.000	0.056	-0.162
-501.668	-200.000	-0.086	-0.406
-500.653	137.294	0.169	-0.220
-499.639	162.410	0.071	0.099
-498.624	-132.099	-0.280	0.036
-497.610	-47.347	-0.241	0.117
-496.595	-126.295	-0.208	0.031
-495.581	-26.032	-0.099	-0.058
-494.566	-142.134	-0.271	0.027
-493.551	-118.648	0.168	-0.030
-492.537	215.160	0.142	-0.225
-491.522	5.602	-0.110	0.081
-490.508	-200.000	-0.023	-0.177
-489.493	142.177	-0.121	0.160
-488.478	-52.618	0.341	-0.157
-487.464	-200.000	0.015	-0.425
-486.449	-200.000	0.066	-0.423
-485.435	-200.000	-0.019	-0.176
-484.420	92.431	-0.061	0.069
-483.405	800.000	-0.075	-0.239
-482.391	26.721	0.379	0.316
-481.376	-102.409	0.240	-0.057
-480.362	-152.278	0.271	0.019
-479.347	220.025	0.044	-0.071
-478.332	-200.000	0.018	-0.244
-477.318	-200.000	-0.027	-0.156
-476.303	279.292	0.021	0.037
-475.289	-78.705	-0.100	0.034
-474.274	-34.043	-0.423	0.231
-473.259	337.595	-0.195	0.377
-472.245	284.260	-0.015	-0.026
-471.230	800.000	-0.081	0.277
-470.216	-200.000	-0.002	0.035
-469.201	-98.715	-0.230	0.058
-468.186	-200.000	0.067	0.422
-467.172	800.000	-0.063	-0.200
-466.157	-200.000	-0.028	-0.378
-465.143	-173.698	-0.146	0.004
-464.128	-35.474	0.258	-0.139
-463.113	14.390	-0.135	0.104
-462.099	-16.860	-0.310	0.195
-461.084	-99.526	0.367	0.092
-460.070	-27.508	0.162	0.094
-459.055	-136.775	0.309	-0.035
-458.040	-42.224	-0.399	-0.203
-457.026	621.522	0.078	0.196
-456.011	66.561	-0.229	-0.231
-454.997	576.941	0.161	-0.391
-453.982	233.046	0.069	-0.113
-452.968	-200.000	0.012	-0.074
-451.953	236.994	0.219	0.360
-450.938	-23.406	0.090	-0.054
-449.924	800.000	0.009	0.029
-448.909	35.893	-0.136	0.119
-447.895	266.070	0.164	-0.284
-446.880	37.134	-0.066	0.058
-445.865	-5.529	0.123	0.084
-444.851	74.590	-0.174	-0.181
-443.836	-43.242	0.052	0.026
-442.822	-108.640	0.048	-0.010
-441.807	-68.230	-0.235	-0.091
-440.792	-200.000	0.030	0.151
-439.778	340.367	0.061	0.118
-438.763	117.739	0.309	0.378
-437.749	168.224	-0.028	0.039
-436.734	55.259	0.154	-0.148
-435.719	56.287	0.047	-0.046
-434.705	501.344	-0.125	0.287
-433.690	17.573	0.162	-0.128
-432.676	-200.000	-0.004	-0.270
-431.661	800.000	0.107	-0.380
-430.646	800.000	-0.066	0.201
-429.632	800.000	0.019	0.066
-428.617	-76.303	0.219	-0.077
-427.603	-115.526	0.440	-0.082
-426.588	-200.000	0.003	-0.076
-425.573	800.000	0.101	0.339
-424.559	32.948	-0.271	-0.233
-423.544	-118.088	0.085	0.015
-422.530	94.251	0.173	0.195
-421.515	-118.268	0.230	0.041
-420.500	800.000	-0.060	-0.167
-419.486	-67.358	-0.179	0.070
-418.471	-145.668	0.032	-0.003
-417.457	99.919	-0.096	-0.111
-416.442	800.000	0.015	0.052
-415.428	-79.127	0.097	0.033
-414.413	-137.697	-0.314	0.035
-413.398	-87.279	0.274	-0.083
-412.384	-97.835	0.170	-0.044
-411.369	48.590	0.116	0.108
-410.355	100.092	0.170	0.195
-409.340	-200.000	0.047	0.221
-408.325	105.535	0.073	0.086
-407.311	-200.000	-0.006	0.136
-406.296	-114.429	0.474	0.090
-405.282	334.576	-0.246	-0.473
-404.267	425.966	-0.092	-0.196
-403.252	800.000	0.069	0.265
-402.238	169.702	-0.292	-0.413
-401.223	800.000	0.047	-0.174
-400.209	-176.088	0.039	-0.001
-399.194	349.993	0.082	0.160
-398.179	-157.749	0.297	-0.018
-397.165	-99.817	-0.233	-0.058
-396.150	-119.888	-0.057	0.010
-395.136	58.095	0.083	0.081
-394.121	-37.018	0.100	0.053
-393.106	-116.482	-0.025	0.005
-392.092	-67.018	0.420	0.164
-391.077	-47.607	0.127	0.061
-390.063	10.877	0.128	-0.097
-389.048	267.653	-0.134	0.232
-388.033	-90.156	0.099	-0.028
-387.019	-200.000	-0.010	0.151
-386.004	318.789	0.071	-0.134
-384.990	-178.809	-0.349	0.008
-383.975	-194.850	0.327	-0.003
-382.960	460.881	0.114	0.251
-381.946	800.000	-0.055	0.171
-380.931	4.190	-0.237	0.172
-379.917	-17.267	0.242	0.151
-378.902	-153.346	0.075	0.005
-377.888	-200.000	0.034	0.195
-376.873	259.336	0.082	-0.140
-375.858	-24.094	-0.248	0.147
-374.844	-200.000	-0.044	0.240
-373.829	-76.775	-0.347	0.120
-372.815	-20.353	0.080	0.049
-371.800	-24.215	-0.219	0.130
-370.785	-148.053	0.235	-0.019
-369.771	-97.163	0.124	-0.032
-368.756	-50.721	0.128	-0.060
-367.742	69.824	0.125	0.128
-366.727	-35.871	-0.402	-0.216
-365.712	-200.000	0.010	-0.082
-364.698	-54.165	-0.148	-0.067
-363.683	106.026	0.214	-0.250
-362.669	-147.977	-0.202	0.017
-361.654	800.000	0.072	0.207
-360.639	-200.000	-0.025	0.244
-359.625	11.151	0.099	0.075
-358.610	-62.823	-0.163	-0.067
-357.596	20.717	-0.177	-0.142
-356.581	-34.725	-0.165	0.089
-355.566	18.402	0.204	0.162
-354.552	-163.815	-0.230	-0.011
-353.537	79.380	0.198	0.210
-352.523	-61.423	0.231	-0.096
-351.508	-200.000	-0.003	0.179
-350.493	163.028	-0.120	0.167
-349.479	-174.405	0.166	-0.005
-348.464	-144.597	-0.234	-0.021
-347.450	-59.475	-0.168	0.071
-346.435	201.446	-0.117	0.178
-345.420	158.389	-0.114	0.157
-344.406	-40.967	0.282	-0.144
-343.391	-200.000	-0.029	-0.314
-342.377	-200.000	-0.066	0.313
-341.362	-111.385	0.192	0.039
-340.348	-78.556	-0.362	0.123
-339.333	551.141	0.137	-0.325
-338.318	161.193	0.173	-0.240
-337.304	-86.391	-0.204	0.062
-336.289	-200.000	-0.019	0.197
-335.275	425.998	-0.145	0.308
-334.260	-200.000	0.101	0.562
-333.245	-129.786	0.080	0.011
-332.231	800.000	0.048	-0.205
-331.216	177.140	-0.075	-0.108
-330.202	-30.411	-0.223	-0.125
-329.187	317.901	-0.133	0.249
-328.172	260.122	0.124	-0.212
-327.158	529.814	-0.076	-0.176
-326.143	-200.000	-0.010	-0.106
-325.129	-99.084	0.225	-0.056
-324.114	-200.000	0.027	-0.196
-323.099	800.000	-0.072	0.248
-322.085	-200.000	-0.038	0.405
-321.070	403.088	0.136	0.282
-320.056	495.409	0.148	0.337
-319.041	-46.909	-0.134	0.065
-318.026	-44.946	0.587	0.289
-317.012	553.708	0.108	0.257
-315.997	-200.000	0.008	0.133
-314.983	-3.988	0.050	0.034
-313.968	160.542	-0.195	-0.270
-312.953	260.982	0.216	-0.369
-311.939	-57.907	0.346	-0.149
-310.924	227.458	-0.079	-0.127
-309.910	219.025	0.124	0.197
-308.895	800.000	0.050	-0.146
-307.880	5.455	0.039	-0.028
-306.866	-93.707	0.130	0.035
-305.851	-200.000	-0.027	0.242
-304.837	9.764	0.199	-0.149
-303.822	105.217	-0.091	-0.106
-302.807	156.044	0.181	0.247
-301.793	786.981	0.044	0.119
-300.778	310.357	0.139	0.257
-299.764	62.323	0.077	-0.076
-298.749	800.000	0.072	0.256
-297.735	10.875	0.059	0.045
-296.720	210.387	0.072	0.112
-295.705	134.723	-0.123	0.158
-294.691	115.252	-0.128	-0.154
-293.676	37.343	0.154	0.134
-292.662	527.448	0.066	-0.154
-291.647	14.026	0.410	-0.315
-290.632	68.152	-0.387	-0.391
-289.618	800.000	-0.042	-0.179
-288.603	61.556	-0.088	0.087
-287.589	-200.000	-0.038	-0.192
-286.574	-171.813	0.340	-0.011
-285.559	-124.714	-0.159	-0.024
-284.545	563.615	-0.100	-0.239
-283.530	91.612	-0.060	-0.066
-282.516	-200.000	-0.013	0.402
-281.501	-160.111	-0.210	-0.011
-280.486	210.680	-0.152	-0.236
-279.472	800.000	-0.128	-0.363
-278.457	59.090	0.151	-0.146
-277.443	-36.905	-0.115	0.061
-276.428	-200.000	-0.372	0.000
-275.413	-93.305	0.260	0.071
-274.399	39.934	-0.218	0.194
-273.384	-10.699	0.351	-0.229
-272.370	800.000	0.115	-0.328
-271.355	-99.907	0.164	-0.040
-270.340	-125.836	0.254	0.038
-269.326	297.276	-0.052	-0.095
-268.311	-62.117	0.117	-0.048
-267.297	53.743	-0.103	0.098
-266.282	-68.450	0.404	-0.155
-265.267	-200.000	0.013	-0.123
-264.253	256.312	0.051	0.086
-263.238	-200.000	-0.002	0.476
-262.224	800.000	-0.046	0.173
-261.209	-53.277	0.094	0.042
-260.195	800.000	-0.077	0.280
-259.180	-118.369	0.148	-0.026
-258.165	-58.092	0.174	0.075
-257.151	-143.627	-0.401	-0.038
-256.136	144.823	-0.071	-0.094
-255.122	597.612	-0.050	-0.122
-254.107	1.214	-0.301	0.213
-253.092	496.283	-0.127	-0.287
-252.078	-139.141	-0.287	-0.031
-251.063	-69.938	-0.434	0.163
-250.049	-119.874	-0.201	-0.034
-249.034	-200.000	-0.011	-0.064
-248.019	-200.000	-0.021	-0.189
-247.005	800.000	0.017	-0.053
-245.990	6.712	0.048	0.035
-244.976	649.389	-0.088	-0.222
-243.961	-123.262	-0.401	-0.063
-242.946	239.340	-0.097	0.159
-241.932	238.822	0.106	0.174
-240.917	800.000	0.086	0.246
-239.903	-142.343	-0.180	0.018
-238.888	-200.000	0.040	0.389
-237.873	-200.000	-0.028	0.129
-236.859	-200.000	0.018	0.334
-235.844	179.012	-0.105	0.151
-234.830	687.691	0.036	-0.093
-233.815	-200.000	-0.035	-0.162
-232.800	-40.312	-0.259	-0.133
-231.786	-69.636	0.198	0.075
-230.771	373.422	-0.107	0.215
-229.757	17.761	0.306	0.240
-228.742	41.843	-0.175	0.156
-227.727	-15.096	0.127	-0.080
-226.713	124.070	0.213	0.263
-225.698	-131.125	-0.298	0.039
-224.684	-78.741	0.197	0.066
-223.669	-121.330	-0.114	0.019
-222.655	533.533	0.061	0.141
-221.640	205.974	-0.096	-0.147
-220.625	800.000	0.065	-0.192
-219.611	-200.000	0.011	0.118
-218.596	-200.000	-0.048	-0.327
-217.582	-136.658	-0.444	0.050
-216.567	183.544	0.132	0.192
-215.552	153.069	0.064	0.086
-214.538	-26.949	-0.117	0.067
-213.523	122.828	0.241	0.297
-212.509	-60.982	-0.193	0.080
-211.494	207.276	-0.084	0.130
-210.479	-185.000	0.019	-0.000
-209.465	-200.000	-0.001	-0.153
-208.450	-200.000	0.004	-0.174
-207.436	-136.714	0.309	0.035
-206.421	-200.000	0.035	-0.203
-205.406	-103.440	0.188	0.044
-204.392	79.508	-0.057	0.060
-203.377	800.000	0.092	0.264
-202.363	581.811	0.086	-0.208
-201.348	44.317	0.306	-0.276
-200.333	56.096	0.294	0.281
-199.319	-200.000	-0.011	0.119
-198.304	-140.083	0.364	-0.038
-197.290	-200.000	0.048	0.387
-196.275	330.270	0.173	0.327
-195.260	-200.000	0.051	0.265
-194.246	-200.000	0.008	-0.308
-193.231	-32.155	0.137	0.075
-192.217	132.135	0.037	-0.047
-191.202	-80.392	-0.405	0.133
-190.187	116.657	0.169	0.204
-189.173	-200.000	-0.063	-0.340
-188.158	-62.894	-0.274	0.111
-187.144	-200.000	-0.001	-0.069
-186.129	-167.383	-0.248	0.010
-185.114	409.114	-0.043	-0.089
-184.100	-107.387	-0.036	0.008
-183.085	-70.277	-0.237	0.089
-182.071	800.000	-0.086	0.337
-181.056	-162.696	0.185	0.009
-180.042	-101.359	0.228	0.055
-179.027	64.031	-0.430	-0.425
-178.012	-126.361	0.539	-0.079
-176.998	-63.881	0.293	-0.118
-175.983	-41.608	0.360	0.182
-174.969	271.209	0.202	-0.349
-173.954	10.712	-0.250	-0.187
-172.939	109.226	-0.095	0.111
-171.925	10.490	0.304	-0.227
-170.910	-6.602	0.159	-0.106
-169.896	-145.937	-0.411	0.036
-168.881	39.393	0.166	-0.146
-167.866	-6.077	0.371	0.249
-166.852	-158.893	-0.201	-0.011
-165.837	6.698	-0.404	0.295
-164.823	56.191	0.214	0.204
-163.808	-128.172	0.155	0.022
-162.793	10.962	0.047	-0.035
-161.779	-150.508	-0.248	-0.019
-160.764	53.323	0.095	-0.089
-159.750	0.152	0.185	-0.130
-158.735	-106.686	-0.054	0.012
-157.720	800.000	-0.108	0.323
-156.706	-164.057	0.206	0.009
-155.691	-10.706	-0.011	-0.007
-154.677	254.504	0.039	0.066
-153.662	15.777	-0.184	-0.142
-152.647	-73.442	-0.245	-0.088
-151.633	-147.925	0.125	0.010
-150.618	-112.899	0.145	0.028
-149.604	600.776	0.095	0.232
-148.589	-131.531	0.376	0.049
-147.574	20.813	-0.172	0.137
-146.560	103.447	0.188	-0.217
-145.545	45.083	-0.164	0.149
-144.531	-79.724	-0.170	-0.056
-143.516	104.629	-0.069	0.079
-142.502	-200.000	0.075	0.371
-141.487	800.000	-0.110	0.421
-140.472	-200.000	-0.070	0.374
-139.458	330.372	-0.094	-0.178
-138.443	85.102	0.188	0.203
-137.429	800.000	0.069	0.277
-136.414	37.841	0.040	0.035
-135.399	-200.000	-0.015	-0.136
-134.385	-147.133	0.069	-0.006
-133.370	800.000	0.043	0.132
-132.356	-198.036	-0.202	-0.001
-131.341	-29.638	-0.313	-0.175
-130.326	800.000	0.104	0.319
-129.312	-34.038	-0.072	0.039
-128.297	-109.547	0.119	-0.025
-127.283	19.239	-0.061	-0.048
-126.268	363.658	0.252	-0.497
-125.253	-87.263	0.272	0.081
-124.239	-200.000	0.026	0.366
-123.224	55.807	-0.139	-0.132
-122.210	-98.908	0.197	-0.049
-121.195	-7.003	0.199	-0.133
