DTS Sentinel unit serial number:	SN413079Multiplexer serial number:	ORYXHardware model number:	OX4-SRSoftware version number:	ORYX F/W v4.00 Oryx Data Collector v3.7.2.0data status	okinstallation	princeton_trtdifferential loss correction	single-endedforward channel	channel 2reverse channel	N/Adate	2019/09/13time	16:31:35forward acquisition time	60.00reverse acquisition time	0.00gamma	496.2192k internal	0.2315k external	0.2315temperature offset calibration	1.0213default loss term (dB/km)	0.3790temperature slope calibration	1.0000multiplexer offset coefficient	1.0000multiplexer slope coefficient	1.0000fibre end	0.00T internal ref (°C)	35.06T ext. ref 1 (°C)	4.89T ext. ref 2 (°C)	30.66length (m)	temperature (°C)	Stokes	anti-Stokes-747.200	576.059	0.142	-0.352
-746.185	-200.000	0.037	0.186
-745.171	223.257	-0.155	-0.254
-744.156	-74.639	-0.210	0.077
-743.142	20.509	0.051	0.042
-742.127	-50.051	-0.370	-0.177
-741.112	800.000	-0.011	0.046
-740.098	800.000	0.039	-0.139
-739.083	119.713	-0.149	-0.188
-738.069	12.016	0.059	-0.046
-737.054	-200.000	0.008	0.180
-736.039	43.320	-0.290	0.269
-735.025	-47.428	0.057	0.028
-734.010	-14.456	0.134	-0.087
-732.996	-200.000	-0.062	-0.397
-731.981	11.976	0.154	0.120
-730.966	-151.756	-0.280	0.021
-729.952	544.101	-0.171	-0.414
-728.937	-33.786	-0.152	-0.085
-727.923	-17.353	-0.263	-0.168
-726.908	122.555	-0.075	-0.095
-725.894	709.350	0.088	-0.236
-724.879	9.228	-0.066	-0.050
-723.864	800.000	0.039	0.166
-722.850	-18.496	-0.125	0.079
-721.835	-93.523	-0.126	-0.035
-720.821	281.148	0.059	-0.106
-719.806	800.000	-0.047	0.169
-718.791	-100.931	-0.289	-0.072
-717.777	-123.882	0.132	-0.021
-716.762	131.908	0.170	-0.222
-715.748	-200.000	-0.008	0.101
-714.733	-56.715	0.248	0.111
-713.718	-200.000	0.020	-0.366
-712.704	-172.577	-0.152	-0.005
-711.689	-176.635	-0.184	0.005
-710.675	199.017	0.088	0.136
-709.660	266.558	0.020	-0.035
-708.645	-200.000	-0.009	-0.142
-707.631	-99.223	0.072	-0.019
-706.616	-12.876	0.239	0.158
-705.602	251.786	-0.035	-0.060
-704.587	36.792	0.177	0.158
-703.572	8.262	-0.246	0.187
-702.558	688.801	-0.101	-0.268
-701.543	426.646	-0.064	-0.139
-700.529	-200.000	-0.002	0.032
-699.514	532.392	-0.033	-0.079
-698.499	-16.385	-0.090	0.058
-697.485	-24.705	0.254	-0.153
-696.470	-130.363	-0.391	0.054
-695.456	3.418	-0.112	-0.083
-694.441	-200.000	-0.015	-0.308
-693.426	391.663	-0.145	-0.306
-692.412	92.691	0.212	-0.242
-691.397	11.684	-0.333	-0.258
-690.383	-200.000	0.043	-0.269
-689.368	8.220	-0.169	0.129
-688.354	88.185	0.067	0.075
-687.339	-123.729	0.280	0.045
-686.324	-200.000	-0.019	-0.143
-685.310	-16.752	-0.087	-0.056
-684.295	-1.847	0.161	0.115
-683.281	-68.507	0.209	-0.082
-682.266	800.000	-0.033	-0.122
-681.251	15.222	-0.289	0.229
-680.237	11.084	0.254	0.197
-679.222	56.732	0.205	0.202
-678.208	49.627	0.248	0.236
-677.193	27.544	-0.054	-0.046
-676.178	-200.000	0.006	0.130
-675.164	-50.467	0.076	0.036
-674.149	52.945	-0.136	0.132
-673.135	-43.265	-0.173	-0.088
-672.120	24.677	0.061	0.051
-671.105	-119.724	-0.265	-0.046
-670.091	55.832	0.147	0.144
-669.076	588.256	0.124	-0.308
-668.062	-133.465	0.009	-0.001
-667.047	57.359	-0.288	-0.284
-666.032	33.423	0.198	-0.174
-665.018	800.000	0.008	-0.029
-664.003	-72.082	-0.094	-0.035
-662.989	-200.000	0.054	0.484
-661.974	-200.000	0.052	-0.271
-660.959	-200.000	-0.001	0.123
-659.945	-138.964	0.385	0.042
-658.930	333.481	-0.089	-0.174
-657.916	-108.858	-0.333	0.072
-656.901	-200.000	-0.030	-0.269
-655.886	61.125	0.274	-0.275
-654.872	-82.679	0.277	-0.091
-653.857	800.000	-0.149	0.429
-652.843	-128.212	0.492	-0.071
-651.828	-78.818	-0.218	0.075
-650.814	-54.441	0.210	0.096
-649.799	297.213	0.091	-0.169
-648.784	-74.443	-0.311	-0.113
-647.770	-139.156	-0.217	0.024
-646.755	246.912	0.052	-0.089
-645.741	73.017	0.123	-0.129
-644.726	126.531	-0.112	-0.143
-643.711	-25.064	-0.566	0.339
-642.697	303.286	-0.098	-0.184
-641.682	-135.741	0.257	-0.031
-640.668	-114.772	0.283	0.055
-639.653	37.916	-0.210	-0.188
-638.638	608.157	-0.072	-0.181
-637.624	-185.903	0.244	-0.004
-636.609	-80.030	-0.164	-0.055
-635.595	80.040	-0.189	-0.205
-634.580	-78.331	-0.129	0.045
-633.565	-124.507	-0.251	0.039
-632.551	72.977	-0.265	-0.280
-631.536	-107.833	-0.211	-0.046
-630.522	800.000	0.093	-0.276
-629.507	-62.437	-0.140	-0.059
-628.492	-200.000	0.025	0.169
-627.478	295.863	-0.079	-0.146
-626.463	-133.609	-0.149	0.019
-625.449	-200.000	-0.061	0.391
-624.434	101.874	-0.178	-0.209
-623.419	231.980	0.028	-0.046
-622.405	-200.000	0.019	0.246
-621.390	48.265	-0.217	-0.205
-620.376	20.385	-0.170	-0.139
-619.361	732.316	0.082	-0.222
-618.346	-200.000	0.030	0.266
-617.332	800.000	-0.043	-0.132
-616.317	411.107	0.091	-0.195
-615.303	14.759	0.006	0.005
-614.288	-200.000	-0.010	0.108
-613.273	-90.883	-0.079	-0.023
-612.259	302.982	-0.083	0.156
-611.244	800.000	-0.077	0.269
-610.230	-200.000	-0.353	-0.000
-609.215	-135.677	0.126	-0.015
-608.201	189.072	0.164	-0.247
-607.186	-168.960	0.168	-0.006
-606.171	562.938	-0.088	-0.214
-605.157	-174.224	0.110	-0.003
-604.142	41.286	-0.220	-0.200
-603.128	-161.002	-0.255	-0.013
-602.113	212.102	-0.176	-0.280
-601.098	800.000	-0.044	0.191
-600.084	-148.439	-0.263	0.022
-599.069	-171.807	-0.106	-0.004
-598.055	800.000	-0.117	-0.417
-597.040	-106.536	0.242	0.054
-596.025	-25.822	0.105	-0.062
-595.011	29.807	0.095	0.082
-593.996	-138.668	0.297	0.033
-592.982	-200.000	0.003	0.348
-591.967	-114.084	-0.392	0.077
-590.952	261.752	-0.158	0.276
-589.938	2.198	-0.215	0.157
-588.923	53.429	-0.119	0.115
-587.909	-200.000	-0.007	0.125
-586.894	800.000	-0.065	-0.285
-585.879	800.000	-0.051	-0.223
-584.865	256.543	0.111	-0.192
-583.850	376.692	0.122	0.250
-582.836	184.762	-0.137	-0.205
-581.821	800.000	0.016	0.058
-580.806	680.247	0.100	-0.263
-579.792	-140.815	-0.184	-0.019
-578.777	-43.412	-0.461	0.235
-577.763	793.518	0.054	0.151
-576.748	-200.000	0.003	-0.328
-575.733	-85.086	0.163	-0.052
-574.719	95.915	-0.181	0.208
-573.704	175.141	-0.137	-0.200
-572.690	11.587	-0.046	0.035
-571.675	-136.365	-0.087	-0.010
-570.661	-200.000	-0.002	0.143
-569.646	40.454	0.111	-0.101
-568.631	-85.573	-0.514	0.161
-567.617	19.974	-0.141	0.114
-566.602	800.000	0.031	0.123
-565.588	800.000	-0.040	-0.145
-564.573	800.000	-0.077	-0.250
-563.558	7.176	0.064	0.048
-562.544	228.296	0.179	-0.293
-561.529	-121.742	0.220	0.037
-560.515	112.364	-0.099	-0.121
-559.500	800.000	-0.112	0.321
-558.485	-57.781	0.180	0.079
-557.471	343.108	-0.036	-0.071
-556.456	-200.000	0.067	-0.394
-555.442	101.135	-0.195	-0.228
-554.427	-56.133	-0.240	0.107
-553.412	32.761	0.247	0.215
-552.398	295.192	0.098	-0.180
-551.383	800.000	-0.051	0.224
-550.369	250.956	-0.188	0.322
-549.354	-200.000	0.024	0.108
-548.339	29.019	0.088	-0.075
-547.325	-105.224	0.087	-0.020
-546.310	-200.000	-0.006	-0.066
-545.296	199.950	0.201	0.310
-544.281	53.801	0.113	0.109
-543.266	-3.336	0.114	-0.080
-542.252	-116.730	-0.127	0.024
-541.237	105.143	0.063	0.075
-540.223	418.120	-0.059	0.126
-539.208	284.130	-0.102	-0.185
-538.193	-79.588	0.164	0.056
-537.179	-200.000	-0.009	0.179
-536.164	92.927	-0.158	0.180
-535.150	67.669	0.103	-0.106
-534.135	-125.143	0.127	0.020
-533.121	800.000	0.073	0.230
-532.106	21.740	-0.140	-0.115
-531.091	110.434	0.370	0.447
-530.077	-39.024	-0.243	-0.129
-529.062	533.174	-0.096	0.228
-528.048	-200.000	0.051	-0.512
-527.033	75.868	0.081	0.086
-526.018	800.000	0.079	0.259
-525.004	800.000	0.059	-0.240
-523.989	314.188	-0.182	-0.344
-522.975	-77.613	-0.110	0.038
-521.960	146.549	0.091	-0.122
-520.945	70.815	-0.082	0.085
-519.931	167.619	-0.284	-0.406
-518.916	142.115	0.104	-0.138
-517.902	121.332	-0.127	0.159
-516.887	37.827	-0.212	0.190
-515.872	623.575	-0.079	-0.201
-514.858	-16.964	0.246	0.156
-513.843	800.000	0.074	0.288
-512.829	202.116	0.060	-0.093
-511.814	10.147	-0.037	0.028
-510.799	800.000	-0.095	0.269
-509.785	18.833	-0.167	0.134
-508.770	800.000	-0.056	0.233
-507.756	147.987	-0.123	-0.167
-506.741	667.976	0.105	-0.274
-505.726	-17.799	0.163	0.103
-504.712	800.000	-0.070	0.207
-503.697	161.955	0.145	0.204
-502.683	800.000	-0.061	-0.259
-501.668	-141.157	0.079	-0.008
-500.653	-200.000	-0.007	-0.220
-499.639	800.000	-0.091	0.282
-498.624	-166.995	-0.091	0.004
-497.610	46.102	0.098	-0.091
-496.595	41.285	0.198	-0.180
-495.581	-57.691	-0.233	-0.102
-494.566	-200.000	-0.016	0.381
-493.551	173.728	-0.138	-0.200
-492.537	-28.041	0.186	-0.108
-491.522	-149.466	-0.219	0.017
-490.508	67.240	0.115	0.118
-489.493	800.000	0.038	0.119
-488.478	-79.942	-0.445	-0.150
-487.464	-9.089	0.350	-0.235
-486.449	286.547	-0.105	0.189
-485.435	-200.000	-0.001	0.159
-484.420	689.968	-0.070	-0.183
-483.405	-77.965	-0.246	0.085
-482.391	-200.000	-0.047	0.275
-481.376	133.899	0.043	0.056
-480.362	9.964	-0.262	-0.199
-479.347	179.067	0.096	-0.140
-478.332	72.103	-0.080	-0.084
-477.318	-109.817	0.301	0.063
-476.303	-114.065	-0.379	0.074
-475.289	16.817	0.308	-0.244
-474.274	133.222	-0.073	0.094
-473.259	-2.918	-0.125	-0.088
-472.245	102.145	-0.086	0.101
-471.230	522.115	-0.067	0.158
-470.216	-116.480	-0.075	-0.014
-469.201	-165.377	0.312	0.014
-468.186	38.493	0.241	-0.215
-467.172	64.637	-0.121	-0.122
-466.157	-65.252	0.291	0.117
-465.143	800.000	0.060	0.193
-464.128	-62.422	-0.160	-0.067
-463.113	-127.696	-0.165	-0.024
-462.099	800.000	-0.033	-0.098
-461.084	-94.133	-0.346	0.095
-460.070	-4.020	-0.131	-0.091
-459.055	608.793	-0.033	-0.083
-458.040	411.210	0.136	0.290
-457.026	800.000	0.077	0.330
-456.011	800.000	-0.117	-0.326
-454.997	80.636	0.240	-0.260
-453.982	-200.000	0.023	0.255
-452.968	753.206	0.115	-0.312
-451.953	124.088	0.208	0.262
-450.938	-200.000	0.046	0.264
-449.924	-200.000	-0.006	0.261
-448.909	800.000	0.035	0.135
-447.895	-200.000	-0.001	-0.053
-446.880	-93.206	-0.146	-0.041
-445.865	161.597	-0.257	-0.360
-444.851	-121.555	0.313	0.052
-443.836	8.692	0.098	-0.074
-442.822	-118.757	0.526	0.093
-441.807	103.852	-0.145	-0.171
-440.792	521.925	0.053	0.125
-439.778	140.622	-0.178	-0.236
-438.763	122.518	-0.133	-0.167
-437.749	93.149	0.210	-0.238
-436.734	-200.000	0.001	0.060
-435.719	336.867	0.067	0.131
-434.705	-123.958	-0.375	0.059
-433.690	-9.699	0.167	-0.111
-432.676	40.477	0.017	0.015
-431.661	239.496	0.094	0.157
-430.646	328.919	-0.127	0.244
-429.632	-200.000	0.007	-0.071
-428.617	-121.691	0.178	0.029
-427.603	-118.455	-0.147	-0.026
-426.588	311.052	-0.019	-0.035
-425.573	140.245	0.118	0.156
-424.559	-154.263	0.212	0.014
-423.544	800.000	-0.045	-0.137
-422.530	-200.000	0.029	0.195
-421.515	131.530	0.098	0.126
-420.500	696.501	-0.141	0.370
-419.486	2.225	-0.119	0.086
-418.471	-29.192	-0.170	-0.098
-417.457	800.000	0.095	-0.309
-416.442	-49.224	0.337	0.161
-415.428	-75.480	-0.359	-0.128
-414.413	-172.476	0.109	0.003
-413.398	-101.620	0.311	0.075
-412.384	-98.888	-0.211	0.054
-411.369	800.000	-0.090	0.307
-410.355	800.000	0.011	-0.031
-409.340	467.960	-0.020	-0.045
-408.325	638.842	0.030	-0.077
-407.311	-74.729	-0.166	0.060
-406.296	272.113	-0.098	-0.173
-405.282	800.000	0.042	0.174
-404.267	-54.458	0.229	0.104
-403.252	27.854	-0.084	-0.071
-402.238	-99.724	0.248	0.062
-401.223	-200.000	-0.013	0.267
-400.209	-181.870	0.197	0.004
-399.194	800.000	0.107	-0.308
-398.179	47.266	0.073	-0.068
-397.165	-32.670	0.152	-0.085
-396.150	-200.000	-0.022	-0.185
-395.136	-88.303	0.046	-0.014
-394.121	32.157	0.256	-0.221
-393.106	-45.767	-0.242	0.119
-392.092	327.573	0.242	0.463
-391.077	-18.613	0.091	0.057
-390.063	-40.953	0.190	-0.098
-389.048	-147.865	0.175	0.015
-388.033	800.000	0.029	-0.096
-387.019	305.303	-0.200	-0.371
-386.004	275.330	0.112	0.199
-384.990	-200.000	0.011	-0.049
-383.975	-200.000	0.002	0.252
-382.960	596.181	-0.106	-0.263
-381.946	-145.941	0.390	-0.035
-380.931	-200.000	-0.021	0.122
-379.917	368.347	-0.022	0.045
-378.902	-200.000	-0.025	0.112
-377.888	-46.165	-0.158	-0.078
-376.873	-39.873	0.179	0.094
-375.858	800.000	-0.108	0.434
-374.844	-154.214	0.397	0.027
-373.829	278.883	0.185	-0.329
-372.815	-200.000	0.029	0.203
-371.800	38.108	0.448	0.398
-370.785	340.047	-0.115	-0.225
-369.771	-63.084	-0.273	-0.113
-368.756	6.285	0.093	0.069
-367.742	70.394	0.140	-0.145
-366.727	-200.000	-0.025	0.282
-365.712	-35.840	0.218	-0.118
-364.698	-15.820	0.132	-0.084
-363.683	254.151	0.100	0.170
-362.669	557.434	0.048	-0.115
-361.654	-89.442	-0.128	0.038
-360.639	-22.188	0.262	0.159
-359.625	-46.303	-0.073	0.036
-358.610	-200.000	-0.012	0.053
-357.596	-16.419	-0.074	0.047
-356.581	-200.000	0.046	0.301
-355.566	209.305	0.159	0.249
-354.552	-82.420	0.375	0.122
-353.537	81.020	0.073	0.079
-352.523	800.000	-0.058	-0.218
-351.508	203.292	0.065	0.100
-350.493	-154.272	0.256	-0.017
-349.479	-200.000	-0.060	0.266
-348.464	-200.000	-0.008	-0.057
-347.450	155.134	-0.037	0.051
-346.435	-200.000	0.033	0.304
-345.420	-200.000	0.003	0.271
-344.406	-200.000	-0.010	0.165
-343.391	-69.205	0.290	-0.111
-342.377	-200.000	0.032	0.156
-341.362	49.632	0.140	0.132
-340.348	31.935	-0.129	-0.111
-339.333	-17.854	0.110	-0.069
-338.318	166.300	-0.115	-0.162
-337.304	-98.296	-0.200	0.051
-336.289	330.151	-0.005	0.010
-335.275	334.469	-0.110	-0.212
-334.260	15.251	-0.233	-0.182
-333.245	421.819	0.070	0.149
-332.231	74.842	-0.022	0.023
-331.216	-3.866	0.194	-0.134
-330.202	-75.959	-0.395	-0.139
-329.187	-123.838	-0.096	-0.015
-328.172	800.000	0.145	0.400
-327.158	800.000	0.117	-0.334
-326.143	93.158	0.099	0.112
-325.129	31.175	-0.220	0.188
-324.114	17.619	0.124	-0.098
-323.099	-200.000	0.050	0.350
-322.085	-88.492	0.489	0.145
-321.070	-12.714	0.525	-0.341
-320.056	-38.346	-0.223	0.118
-319.041	93.355	-0.039	-0.045
-318.026	-87.450	0.040	0.012
-317.012	-200.000	-0.002	-0.228
-315.997	110.632	-0.155	0.186
-314.983	-63.327	-0.310	0.127
-313.968	-171.322	-0.302	-0.010
-312.953	-160.175	0.204	0.011
-311.939	-190.191	0.259	0.003
-310.924	17.279	-0.226	0.179
-309.910	-200.000	0.004	0.060
-308.895	-114.262	-0.019	0.004
-307.880	22.153	-0.108	-0.087
-306.866	154.806	-0.185	-0.254
-305.851	-200.000	-0.043	0.190
-304.837	-180.976	-0.198	-0.004
-303.822	-75.339	-0.342	-0.122
-302.807	-105.095	-0.309	0.070
-301.793	40.268	0.118	0.106
-300.778	164.478	-0.177	0.248
-299.764	-120.033	0.121	0.021
-298.749	-69.350	-0.351	0.134
-297.735	-200.000	0.068	-0.692
-296.720	-26.347	0.150	0.088
-295.705	118.203	0.164	0.201
-294.691	-200.000	0.065	0.535
-293.676	24.724	0.193	0.159
-292.662	-39.385	-0.069	-0.036
-291.647	197.344	-0.169	0.257
-290.632	103.639	-0.262	-0.306
-289.618	-200.000	0.001	-0.190
-288.603	-200.000	-0.000	-0.132
-287.589	-125.949	0.113	0.017
-286.574	428.538	-0.108	-0.232
-285.559	32.813	-0.071	-0.061
-284.545	-186.504	-0.373	-0.005
-283.530	-200.000	-0.016	0.071
-282.516	-190.630	-0.228	0.002
-281.501	-85.118	0.144	-0.045
-280.486	-162.135	-0.276	-0.014
-279.472	26.527	0.210	-0.175
-278.457	117.446	0.050	-0.061
-277.443	89.639	-0.032	-0.036
-276.428	-114.774	0.312	-0.059
-275.413	-200.000	-0.046	-0.345
-274.399	46.666	-0.070	-0.065
-273.384	-50.597	0.281	0.132
-272.370	63.096	-0.146	0.145
-271.355	268.670	0.253	0.442
-270.340	-57.383	-0.187	-0.082
-269.326	225.769	-0.178	-0.287
-268.311	151.772	-0.073	-0.099
-267.297	-200.000	0.001	-0.007
-266.282	-82.008	-0.277	0.090
-265.267	-200.000	0.041	0.257
-264.253	506.867	-0.084	-0.193
-263.238	290.139	0.099	0.178
-262.224	-200.000	-0.040	0.365
-261.209	31.518	-0.224	-0.192
-260.195	145.767	0.245	-0.326
-259.180	232.959	0.186	-0.304
-258.165	39.071	-0.240	-0.213
-257.151	-61.610	-0.052	0.022
-256.136	800.000	-0.077	0.230
-255.122	800.000	0.076	-0.262
-254.107	60.240	0.095	-0.094
-253.092	76.145	-0.108	-0.113
-252.078	800.000	-0.074	0.265
-251.063	-51.448	0.104	0.048
-250.049	-115.226	-0.214	-0.040
-249.034	72.738	0.024	0.025
-248.019	342.083	-0.067	0.130
-247.005	-92.207	-0.038	-0.011
-245.990	-200.000	0.001	0.148
-244.976	33.715	-0.244	-0.211
-243.961	410.679	-0.145	0.305
-242.946	-86.810	-0.021	-0.006
-241.932	-200.000	-0.056	-0.307
-240.917	-167.476	0.288	0.011
-239.903	11.963	0.041	0.032
-238.888	800.000	0.109	0.367
-237.873	-152.960	0.141	0.010
-236.859	-87.368	0.149	-0.045
-235.844	-87.932	0.052	0.015
-234.830	-12.236	0.161	0.104
-233.815	7.544	0.108	-0.081
-232.800	-88.082	0.039	-0.012
-231.786	-67.056	0.119	0.047
-230.771	-35.209	-0.019	0.010
-229.757	254.803	0.077	0.132
-228.742	-157.747	0.348	0.021
-227.727	-108.803	-0.133	0.028
-226.713	-71.803	-0.275	-0.102
-225.698	-66.287	0.099	0.039
-224.684	-126.304	0.091	0.014
-223.669	-200.000	0.018	-0.293
-222.655	325.358	0.083	-0.157
-221.640	126.622	0.224	-0.282
-220.625	-200.000	-0.007	0.212
-219.611	2.571	0.135	-0.097
-218.596	-69.217	0.094	-0.036
-217.582	-10.776	0.286	0.188
-216.567	-13.578	0.232	0.149
-215.552	800.000	-0.037	-0.138
-214.538	161.665	0.239	0.332
-213.523	19.435	-0.054	0.043
-212.509	-4.589	0.344	0.236
-211.494	-19.429	0.182	-0.112
-210.479	-200.000	-0.007	0.175
-209.465	450.234	0.066	-0.144
-208.450	104.459	-0.256	-0.300
-207.436	56.787	0.078	-0.075
-206.421	13.957	0.071	-0.054
-205.406	-200.000	0.018	-0.146
-204.392	-8.543	-0.239	-0.159
-203.377	-101.626	0.089	-0.021
-202.363	-131.265	-0.192	0.025
-201.348	-134.193	-0.235	-0.029
-200.333	77.661	0.094	-0.099
-199.319	-1.773	0.221	-0.154
-198.304	-19.660	0.120	0.074
-197.290	-81.702	0.203	0.066
-196.275	-75.387	-0.173	0.061
-195.260	30.213	0.210	-0.178
-194.246	455.489	0.107	0.234
-193.231	-123.347	0.261	0.041
-192.217	800.000	0.138	0.441
-191.202	-200.000	-0.015	-0.354
-190.187	-100.391	-0.143	0.035
-189.173	172.678	-0.037	0.053
-188.158	-176.076	-0.364	0.010
-187.144	-27.833	0.103	-0.059
-186.129	-200.000	0.017	0.176
-185.114	283.885	0.078	-0.139
-184.100	-73.069	-0.279	-0.101
-183.085	-40.850	-0.162	-0.083
-182.071	-136.950	0.296	0.034
-181.056	-92.324	-0.092	-0.026
-180.042	-75.075	-0.020	-0.007
-179.027	87.164	-0.075	0.083
-178.012	-71.209	-0.291	-0.108
-176.998	374.632	0.069	0.138
-175.983	557.705	-0.112	-0.268
-174.969	82.979	-0.127	-0.137
-173.954	-200.000	-0.039	-0.173
-172.939	-42.755	0.095	-0.048
-171.925	-64.308	0.093	-0.038
-170.910	217.681	-0.114	0.180
-169.896	769.676	0.089	0.240
-168.881	-100.331	0.364	-0.090
-167.866	-147.609	-0.113	0.009
-166.852	-200.000	-0.036	0.236
-165.837	-200.000	-0.010	-0.450
-164.823	30.407	0.192	0.162
-163.808	-123.362	0.185	-0.029
-162.793	-75.855	0.167	-0.059
-161.779	-200.000	0.013	-0.351
-160.764	-94.536	0.104	-0.028
-159.750	-79.684	-0.236	0.079
-158.735	-97.568	0.289	-0.074
-157.720	-79.213	0.272	-0.091
-156.706	18.861	0.232	-0.184
-155.691	-110.341	-0.095	-0.020
-154.677	8.823	-0.187	-0.139
-153.662	-200.000	0.002	-0.012
-152.647	-200.000	-0.014	0.099
-151.633	200.775	0.223	-0.339
-150.618	-87.788	-0.223	0.067
-149.604	29.968	0.204	-0.172
-148.589	268.009	-0.081	0.141
-147.574	64.686	-0.126	-0.126
-146.560	-158.012	-0.272	-0.016
-145.545	609.844	-0.023	0.057
-144.531	96.920	0.031	-0.035
-143.516	756.687	-0.032	0.085
-142.502	97.825	-0.130	-0.148
-141.487	-153.050	-0.164	-0.011
-140.472	-200.000	0.030	0.155
-139.458	-200.000	-0.003	0.191
-138.443	347.630	0.090	0.175
-137.429	-200.000	-0.021	0.251
-136.414	-114.086	0.042	-0.008
-135.399	2.454	0.161	0.115
-134.385	800.000	0.010	-0.039
-133.370	147.847	0.028	0.037
-132.356	128.789	-0.213	0.268
-131.341	53.696	0.247	-0.235
-130.326	-113.049	0.311	-0.061
-129.312	-64.814	0.177	0.071
-128.297	-82.285	-0.139	0.045
-127.283	-61.193	0.337	-0.141
-126.268	121.889	-0.260	0.321
-125.253	800.000	-0.041	0.138
-124.239	-69.095	-0.147	0.056
-123.224	-26.579	-0.137	-0.080
-122.210	117.462	-0.171	-0.208
-121.195	-200.000	0.004	0.184
-120.180	68.528	0.105	0.107
