DTS Sentinel unit serial number:	SN413079Multiplexer serial number:	ORYXHardware model number:	OX4-SRSoftware version number:	ORYX F/W v4.00 Oryx Data Collector v3.7.2.0data status	okinstallation	princeton_trtdifferential loss correction	single-endedforward channel	channel 2reverse channel	N/Adate	2019/09/18time	09:23:35forward acquisition time	60.00reverse acquisition time	0.00gamma	496.2192k internal	0.2338k external	0.2338temperature offset calibration	0.9979default loss term (dB/km)	0.3790temperature slope calibration	1.0000multiplexer offset coefficient	1.0000multiplexer slope coefficient	1.0000fibre end	0.00T internal ref (°C)	26.09T ext. ref 1 (°C)	0.26T ext. ref 2 (°C)	23.42length (m)	temperature (°C)	Stokes	anti-Stokes-747.200	156.180	-0.086	0.118
-746.185	-200.000	0.020	0.316
-745.171	-62.417	-0.199	-0.083
-744.156	-122.119	0.174	-0.029
-743.142	-60.199	-0.123	-0.053
-742.127	-200.000	0.004	0.083
-741.112	-200.000	0.013	0.194
-740.098	-51.462	-0.188	-0.088
-739.083	-200.000	-0.006	-0.165
-738.069	800.000	0.095	0.303
-737.054	-200.000	0.008	-0.061
-736.039	1.144	-0.279	0.201
-735.025	-200.000	0.065	0.432
-734.010	-200.000	-0.027	-0.122
-732.996	-200.000	-0.038	0.268
-731.981	-124.950	-0.319	-0.049
-730.966	-172.913	0.234	-0.007
-729.952	-128.493	-0.155	-0.022
-728.937	-101.326	-0.139	0.034
-727.923	718.410	-0.045	-0.120
-726.908	-200.000	0.012	-0.311
-725.894	-200.000	-0.029	-0.474
-724.879	536.579	-0.085	-0.202
-723.864	8.041	-0.280	-0.211
-722.850	-200.000	-0.010	0.115
-721.835	-200.000	0.058	-0.384
-720.821	250.241	-0.175	-0.298
-719.806	800.000	-0.042	-0.131
-718.791	175.401	-0.226	-0.328
-717.777	-146.797	-0.239	-0.021
-716.762	128.621	-0.167	0.213
-715.748	-6.567	-0.295	-0.202
-714.733	-77.480	-0.408	0.142
-713.718	260.286	-0.079	0.136
-712.704	-200.000	0.046	-0.213
-711.689	61.256	-0.158	-0.158
-710.675	-36.959	0.223	-0.120
-709.660	264.106	0.053	-0.093
-708.645	-142.155	0.288	-0.029
-707.631	-72.144	-0.255	0.095
-706.616	-190.528	0.249	-0.003
-705.602	-200.000	-0.030	0.161
-704.587	-2.595	-0.117	0.082
-703.572	164.221	-0.091	-0.129
-702.558	48.752	0.124	0.116
-701.543	-50.780	-0.140	-0.066
-700.529	155.487	-0.222	-0.306
-699.514	-30.049	-0.104	-0.059
-698.499	-200.000	-0.020	-0.097
-697.485	-11.979	-0.192	-0.126
-696.470	-200.000	-0.023	-0.288
-695.456	-91.125	-0.163	0.047
-694.441	460.483	0.131	-0.293
-693.426	132.362	0.038	0.050
-692.412	-36.247	-0.395	0.213
-691.397	24.373	0.083	0.069
-690.383	443.367	0.080	-0.175
-689.368	-200.000	0.003	-0.036
-688.354	133.033	-0.172	-0.222
-687.339	-148.236	-0.410	-0.034
-686.324	92.908	0.113	-0.128
-685.310	-133.132	0.268	-0.034
-684.295	800.000	-0.098	-0.353
-683.281	800.000	0.093	-0.355
-682.266	800.000	-0.013	-0.046
-681.251	-31.012	0.179	0.101
-680.237	-42.451	0.175	0.089
-679.222	118.658	0.135	0.167
-678.208	-74.633	0.145	-0.052
-677.193	586.173	-0.022	-0.054
-676.178	-200.000	-0.008	-0.261
-675.164	67.698	-0.147	-0.151
-674.149	-124.149	0.071	-0.011
-673.135	77.130	-0.058	0.062
-672.120	76.075	-0.338	-0.357
-671.105	-76.231	-0.429	-0.151
-670.091	-200.000	0.007	-0.164
-669.076	525.480	0.162	-0.382
-668.062	162.553	-0.205	-0.288
-667.047	227.750	0.070	-0.114
-666.032	-46.811	-0.094	0.046
-665.018	188.285	-0.230	-0.344
-664.003	-41.892	-0.297	-0.152
-662.989	-123.622	0.098	0.016
-661.974	-16.705	-0.012	-0.008
-660.959	14.506	-0.105	-0.082
-659.945	59.453	0.030	-0.030
-658.930	-119.872	0.096	-0.017
-657.916	-200.000	0.003	0.157
-656.901	-54.454	-0.123	0.056
-655.886	86.197	-0.266	-0.293
-654.872	800.000	0.039	0.126
-653.857	-123.174	-0.288	0.046
-652.843	-200.000	-0.017	0.208
-651.828	5.116	0.092	-0.067
-650.814	66.487	-0.077	-0.079
-649.799	800.000	0.038	-0.113
-648.784	614.643	0.118	0.295
-647.770	-93.579	-0.183	0.051
-646.755	363.929	-0.087	0.174
-645.741	19.086	0.243	0.195
-644.726	-20.475	-0.111	-0.068
-643.711	-23.804	-0.139	-0.083
-642.697	-1.229	0.075	-0.053
-641.682	800.000	-0.026	-0.087
-640.668	800.000	0.065	0.234
-639.653	-156.218	-0.386	0.024
-638.638	800.000	-0.062	-0.217
-637.624	119.858	-0.078	-0.096
-636.609	-200.000	0.045	0.263
-635.595	-130.436	-0.118	0.016
-634.580	-74.866	0.183	-0.065
-633.565	-146.155	-0.189	-0.017
-632.551	89.351	-0.182	0.203
-631.536	143.066	-0.061	-0.082
-630.522	152.687	-0.139	0.190
-629.507	298.808	0.138	0.254
-628.492	491.492	0.184	0.420
-627.478	800.000	-0.103	0.292
-626.463	-29.253	-0.079	0.045
-625.449	149.619	0.154	-0.208
-624.434	297.452	-0.064	-0.117
-623.419	208.487	-0.151	-0.236
-622.405	-200.000	0.047	-0.262
-621.390	156.928	-0.132	0.182
-620.376	-200.000	0.002	0.134
-619.361	166.404	-0.222	0.314
-618.346	-200.000	-0.030	-0.160
-617.332	22.422	0.111	-0.091
-616.317	-183.626	-0.092	0.002
-615.303	-200.000	0.005	-0.287
-614.288	-200.000	-0.003	-0.117
-613.273	171.398	-0.114	0.163
-612.259	-133.658	-0.126	-0.016
-611.244	-124.939	0.201	0.031
-610.230	-140.421	-0.157	-0.016
-609.215	-98.748	-0.178	0.045
-608.201	117.562	-0.115	-0.142
-607.186	-161.209	0.209	-0.011
-606.171	23.322	-0.247	-0.203
-605.157	330.751	0.085	0.164
-604.142	-200.000	-0.018	-0.168
-603.128	-75.588	-0.326	0.116
-602.113	110.983	-0.098	0.118
-601.098	-74.768	-0.182	0.065
-600.084	699.655	-0.047	0.125
-599.069	-14.353	-0.249	-0.160
-598.055	-35.024	-0.220	-0.120
-597.040	20.374	0.164	-0.132
-596.025	-96.377	0.101	0.027
-595.011	656.820	0.012	-0.030
-593.996	-152.391	-0.437	0.031
-592.982	24.206	-0.184	0.151
-591.967	-200.000	-0.014	0.318
-590.952	647.515	-0.139	0.355
-589.938	-147.359	-0.144	-0.012
-588.923	-59.051	0.302	0.130
-587.909	80.948	0.092	0.099
-586.894	-29.635	0.136	-0.077
-585.879	70.271	-0.203	-0.209
-584.865	-156.289	0.170	0.011
-583.850	-200.000	0.002	0.042
-582.836	-127.360	0.331	-0.048
-581.821	30.022	0.186	-0.158
-580.806	-200.000	-0.022	0.218
-579.792	-4.119	0.228	0.158
-578.777	-51.039	-0.227	0.106
-577.763	19.953	0.516	-0.415
-576.748	-108.130	-0.321	-0.069
-575.733	292.929	0.069	-0.125
-574.719	412.350	0.074	0.156
-573.704	800.000	-0.049	0.197
-572.690	-16.898	0.059	0.037
-571.675	-200.000	0.001	0.184
-570.661	-56.976	-0.298	-0.131
-569.646	800.000	0.031	0.126
-568.631	748.122	0.083	0.223
-567.617	-111.712	-0.290	0.059
-566.602	-200.000	0.002	-0.083
-565.588	-18.515	-0.271	0.169
-564.573	-18.412	-0.064	-0.040
-563.558	-53.165	0.259	0.118
-562.544	800.000	-0.072	-0.269
-561.529	-0.649	0.113	-0.080
-560.515	-200.000	0.001	-0.101
-559.500	-200.000	-0.015	-0.271
-558.485	423.598	0.227	0.486
-557.471	-43.825	-0.119	0.060
-556.456	-85.921	-0.147	0.045
-555.442	-59.685	0.085	0.036
-554.427	154.203	0.069	0.094
-553.412	-94.338	-0.452	0.123
-552.398	-102.469	0.260	-0.062
-551.383	-36.154	-0.207	0.111
-550.369	800.000	-0.049	-0.169
-549.354	-19.169	0.379	-0.235
-548.339	248.188	0.150	-0.253
-547.325	46.724	-0.081	0.075
-546.310	-200.000	-0.024	0.116
-545.296	260.547	-0.190	0.328
-544.281	71.599	-0.094	0.097
-543.266	800.000	0.024	-0.093
-542.252	-200.000	0.020	-0.116
-541.237	-148.075	-0.355	0.029
-540.223	800.000	0.005	0.013
-539.208	-27.146	-0.162	0.094
-538.193	198.481	0.178	0.271
-537.179	-200.000	0.035	0.231
-536.164	-71.912	-0.339	-0.125
-535.150	-163.933	-0.465	0.022
-534.135	-70.428	0.112	-0.042
-533.121	-136.246	0.349	-0.041
-532.106	-110.104	-0.183	-0.038
-531.091	242.150	-0.108	0.180
-530.077	-200.000	0.007	-0.093
-529.062	-137.857	-0.267	0.030
-528.048	-200.000	0.007	0.064
-527.033	88.289	0.224	0.248
-526.018	-200.000	-0.009	0.043
-525.004	66.527	-0.278	0.281
-523.989	57.352	0.139	-0.135
-522.975	-200.000	-0.003	-0.142
-521.960	-35.255	-0.121	-0.065
-520.945	474.416	0.064	-0.143
-519.931	14.818	0.134	0.104
-518.916	173.887	-0.047	0.067
-517.902	189.932	-0.064	0.096
-516.887	-99.437	-0.214	0.053
-515.872	-200.000	-0.005	-0.209
-514.858	-70.001	-0.133	0.050
-513.843	-46.927	0.062	-0.030
-512.829	88.730	0.279	-0.308
-511.814	158.872	-0.148	-0.204
-510.799	-82.673	-0.222	0.071
-509.785	-23.475	0.154	0.092
-508.770	95.493	-0.066	-0.075
-507.756	78.387	0.141	0.149
-506.741	-56.739	0.208	-0.091
-505.726	800.000	-0.048	-0.182
-504.712	236.642	0.164	0.271
-503.697	-28.463	-0.333	-0.191
-502.683	-100.621	-0.174	0.043
-501.668	71.988	-0.099	0.102
-500.653	800.000	-0.134	0.391
-499.639	101.561	-0.167	0.194
-498.624	-27.996	-0.152	-0.088
-497.610	-200.000	0.004	0.160
-496.595	-102.611	-0.378	-0.090
-495.581	-29.182	-0.241	-0.137
-494.566	75.444	-0.269	0.282
-493.551	12.742	-0.155	0.119
-492.537	-200.000	0.010	-0.262
-491.522	496.102	-0.159	-0.362
-490.508	-200.000	-0.018	-0.356
-489.493	-152.650	-0.157	0.011
-488.478	238.271	-0.041	-0.067
-487.464	684.351	-0.115	-0.297
-486.449	-98.283	0.190	-0.049
-485.435	146.892	0.089	0.118
-484.420	-74.686	-0.241	-0.086
-483.405	-3.176	0.216	0.149
-482.391	-98.032	-0.267	0.068
-481.376	241.332	-0.074	-0.123
-480.362	-119.444	0.321	-0.055
-479.347	127.365	0.230	-0.290
-478.332	800.000	-0.051	-0.156
-477.318	-74.503	0.286	-0.102
-476.303	-53.890	0.128	-0.058
-475.289	-200.000	0.009	0.066
-474.274	-156.849	0.064	-0.004
-473.259	-61.891	-0.129	-0.053
-472.245	-117.805	-0.185	-0.033
-471.230	-200.000	-0.019	-0.210
-470.216	-200.000	0.166	0.001
-469.201	-97.668	0.227	-0.058
-468.186	-46.503	0.265	0.129
-467.172	-89.330	-0.232	-0.068
-466.157	-84.963	0.167	-0.052
-465.143	-200.000	0.004	-0.111
-464.128	405.127	0.158	-0.331
-463.113	159.381	-0.089	-0.123
-462.099	-200.000	-0.007	0.106
-461.084	-76.765	0.165	0.057
-460.070	-38.117	0.207	0.109
-459.055	142.805	0.081	-0.107
-458.040	-200.000	0.002	0.084
-457.026	-164.552	-0.187	0.008
-456.011	-36.045	-0.202	-0.108
-454.997	361.081	-0.125	-0.248
-453.982	-200.000	0.014	0.128
-452.968	-200.000	-0.004	0.195
-451.953	-69.221	-0.348	-0.133
-450.938	-91.874	0.085	0.024
-449.924	19.982	0.198	-0.159
-448.909	-200.000	0.022	-0.169
-447.895	271.377	0.057	0.100
-446.880	800.000	-0.086	-0.258
-445.865	6.432	-0.137	-0.101
-444.851	-125.572	-0.169	0.025
-443.836	800.000	-0.157	-0.495
-442.822	800.000	-0.066	0.190
-441.807	-103.165	0.040	0.009
-440.792	800.000	-0.045	0.167
-439.778	-200.000	-0.043	0.190
-438.763	66.758	-0.019	-0.019
-437.749	800.000	0.028	0.099
-436.734	-160.744	0.116	-0.006
-435.719	45.732	0.303	-0.278
-434.705	-200.000	-0.058	0.313
-433.690	77.588	-0.106	0.112
-432.676	-200.000	0.040	-0.184
-431.661	-82.531	-0.281	-0.090
-430.646	-117.344	0.334	0.060
-429.632	800.000	0.149	0.445
-428.617	800.000	-0.086	0.277
-427.603	-38.187	0.264	0.139
-426.588	-133.591	-0.183	0.023
-425.573	-5.326	-0.147	-0.100
-424.559	-186.410	0.252	-0.004
-423.544	362.617	0.316	-0.629
-422.530	-200.000	-0.039	-0.234
-421.515	168.525	-0.067	0.094
-420.500	755.173	0.027	0.074
-419.486	-76.196	-0.077	-0.027
-418.471	-164.218	-0.468	-0.021
-417.457	-200.000	0.007	-0.179
-416.442	-105.034	0.283	0.064
-415.428	-31.965	0.310	0.172
-414.413	-34.667	-0.100	-0.054
-413.398	-81.308	0.203	-0.066
-412.384	-100.713	-0.126	0.031
-411.369	-200.000	0.009	-0.201
-410.355	-71.566	0.211	0.078
-409.340	225.190	0.192	0.308
-408.325	-96.003	0.222	0.058
-407.311	244.476	0.216	-0.359
-406.296	461.498	0.031	0.069
-405.282	692.695	-0.062	-0.162
-404.267	202.838	0.170	0.260
-403.252	-200.000	-0.033	-0.197
-402.238	288.903	0.045	-0.081
-401.223	758.542	-0.104	0.279
-400.209	800.000	-0.014	-0.058
-399.194	-131.872	0.130	-0.017
-398.179	-24.527	0.250	-0.148
-397.165	-153.311	-0.385	-0.027
-396.150	486.035	-0.144	-0.324
-395.136	-200.000	-0.010	-0.117
-394.121	800.000	-0.110	-0.335
-393.106	15.021	0.227	-0.176
-392.092	800.000	-0.053	0.194
-391.077	359.607	-0.066	0.130
-390.063	-61.704	-0.228	-0.095
-389.048	800.000	0.067	0.199
-388.033	49.486	-0.045	-0.042
-387.019	-200.000	0.023	-0.582
-386.004	800.000	0.040	0.115
-384.990	287.899	0.216	-0.387
-383.975	65.983	0.152	0.152
-382.960	407.630	-0.095	0.200
-381.946	-35.543	0.305	0.164
-380.931	-137.676	0.297	0.033
-379.917	348.988	-0.006	-0.011
-378.902	-51.089	0.385	0.179
-377.888	44.998	0.052	0.047
-376.873	800.000	0.044	-0.183
-375.858	-200.000	0.007	-0.105
-374.844	316.118	-0.138	0.259
-373.829	800.000	-0.013	-0.047
-372.815	-90.704	0.229	-0.065
-371.800	-74.893	0.142	-0.050
-370.785	-200.000	0.047	0.283
-369.771	-200.000	-0.024	-0.126
-368.756	-42.956	0.040	0.020
-367.742	-100.075	-0.065	-0.016
-366.727	89.290	0.070	-0.077
-365.712	-85.326	0.251	0.077
-364.698	-72.909	-0.212	-0.077
-363.683	703.749	-0.124	-0.324
-362.669	-200.000	0.002	0.018
-361.654	485.544	-0.089	-0.201
-360.639	415.745	-0.085	-0.179
-359.625	120.815	0.132	0.162
-358.610	118.484	0.112	-0.137
-357.596	360.903	-0.054	0.107
-356.581	5.293	0.179	0.131
-355.566	-125.855	0.220	0.033
-354.552	68.468	0.150	0.152
-353.537	-43.365	0.084	0.042
-352.523	290.110	-0.183	-0.329
-351.508	-200.000	-0.067	-0.395
-350.493	403.083	-0.100	0.207
-349.479	-76.767	0.181	-0.063
-348.464	-160.237	-0.077	0.004
-347.450	239.987	0.122	0.201
-346.435	383.195	0.181	-0.367
-345.420	-200.000	0.003	-0.037
-344.406	13.942	0.216	-0.166
-343.391	800.000	-0.074	0.279
-342.377	83.296	0.167	0.180
-341.362	-200.000	0.006	-0.085
-340.348	373.173	-0.065	-0.131
-339.333	-6.671	-0.170	-0.114
-338.318	-42.861	0.276	-0.139
-337.304	-3.643	-0.200	-0.138
-336.289	112.170	-0.115	0.138
-335.275	-93.790	-0.316	0.086
-334.260	121.833	0.096	0.118
-333.245	-20.679	-0.168	0.102
-332.231	-7.592	0.270	0.180
-331.216	259.710	-0.128	-0.218
-330.202	120.689	0.245	0.301
-329.187	-10.518	0.326	0.213
-328.172	-39.209	0.149	-0.077
-327.158	121.903	-0.099	-0.122
-326.143	-60.596	0.140	0.059
-325.129	65.680	-0.250	-0.250
-324.114	-200.000	0.051	-0.351
-323.099	81.513	0.312	-0.333
-322.085	63.017	-0.185	-0.183
-321.070	335.789	-0.080	-0.152
-320.056	-74.352	-0.249	0.089
-319.041	98.102	0.098	0.111
-318.026	-79.958	0.189	-0.062
-317.012	800.000	-0.038	-0.150
-315.997	265.992	0.085	0.147
-314.983	-144.732	-0.237	-0.022
-313.968	121.986	-0.326	0.402
-312.953	-80.753	0.306	-0.100
-311.939	307.949	-0.099	-0.182
-310.924	-200.000	-0.083	-0.407
-309.910	-30.213	0.351	0.197
-308.895	-200.000	0.035	0.304
-307.880	-93.766	-0.265	-0.072
-306.866	-159.635	0.114	0.006
-305.851	88.036	-0.101	0.110
-304.837	800.000	-0.034	-0.141
-303.822	-126.892	-0.309	0.045
-302.807	-38.385	-0.058	-0.030
-301.793	59.559	0.220	0.214
-300.778	29.616	0.197	-0.166
-299.764	800.000	0.110	-0.385
-298.749	-200.000	0.071	-0.399
-297.735	-200.000	-0.014	-0.150
-296.720	-67.378	0.445	-0.172
-295.705	15.298	0.069	-0.054
-294.691	-174.800	0.500	0.014
-293.676	-105.211	0.169	0.038
-292.662	-140.764	-0.056	-0.006
-291.647	-200.000	-0.006	0.128
-290.632	350.380	0.117	0.229
-289.618	-140.146	0.296	0.031
-288.603	106.418	0.110	-0.129
-287.589	-57.065	-0.172	-0.075
-286.574	143.854	0.227	0.299
-285.559	725.839	0.064	0.169
-284.545	120.018	-0.091	-0.111
-283.530	-61.197	-0.113	-0.047
-282.516	0.520	0.165	0.116
-281.501	260.920	0.230	-0.392
-280.486	119.500	-0.131	-0.160
-279.472	-166.675	-0.260	0.011
-278.457	4.685	0.176	-0.127
-277.443	-200.000	-0.049	0.293
-276.428	-73.915	-0.094	-0.034
-275.413	-91.879	0.212	0.059
-274.399	800.000	-0.114	0.312
-273.384	-185.853	0.287	-0.004
-272.370	13.419	0.119	0.091
-271.355	-188.708	-0.436	0.005
-270.340	-88.671	0.247	0.072
-269.326	-71.233	0.187	0.069
-268.311	-10.979	0.210	-0.136
-267.297	1.341	0.116	0.082
-266.282	-5.912	-0.071	0.048
-265.267	-200.000	0.002	0.027
-264.253	192.779	-0.116	0.173
-263.238	800.000	-0.058	-0.225
-262.224	325.300	-0.065	-0.121
-261.209	100.583	0.080	0.091
-260.195	-200.000	-0.003	-0.035
-259.180	-200.000	0.023	0.188
-258.165	-39.225	0.278	0.144
-257.151	-200.000	0.057	-0.261
-256.136	-200.000	-0.048	0.241
-255.122	800.000	-0.045	-0.148
-254.107	800.000	-0.022	-0.066
-253.092	-78.356	-0.174	-0.059
-252.078	800.000	0.119	-0.353
-251.063	-175.087	-0.285	0.008
-250.049	-46.636	-0.276	-0.133
-249.034	-200.000	0.016	0.270
-248.019	800.000	0.047	-0.153
-247.005	65.885	-0.300	0.299
-245.990	-89.285	0.391	-0.113
-244.976	800.000	0.007	-0.030
-243.961	-71.751	0.089	0.033
-242.946	76.058	-0.139	-0.144
-241.932	273.911	0.051	0.089
-240.917	-153.644	0.082	-0.006
-239.903	-200.000	-0.006	0.222
-238.888	135.868	0.132	-0.170
-237.873	15.316	-0.308	0.238
-236.859	-164.515	0.094	-0.004
-235.844	181.108	0.182	0.262
-234.830	153.014	-0.127	-0.171
-233.815	-103.456	-0.159	-0.037
-232.800	-157.284	-0.099	0.006
-231.786	-200.000	0.025	0.330
-230.771	800.000	0.093	0.300
-229.757	150.337	-0.142	0.189
-228.742	-200.000	-0.029	0.176
-227.727	-17.820	0.159	0.098
-226.713	72.611	0.071	0.073
-225.698	-51.352	-0.205	-0.094
-224.684	1.595	-0.197	-0.140
-223.669	-124.515	-0.137	0.021
-222.655	254.851	-0.092	-0.155
-221.640	344.612	-0.111	-0.215
-220.625	433.632	0.183	-0.392
-219.611	-200.000	-0.023	-0.109
-218.596	-40.685	0.120	-0.061
-217.582	-170.443	0.087	-0.003
-216.567	-96.367	0.213	-0.056
-215.552	-42.960	-0.178	-0.089
-214.538	164.897	0.176	0.244
-213.523	-150.521	0.118	-0.009
-212.509	-43.871	0.177	0.088
-211.494	117.570	0.025	0.031
-210.479	-61.312	-0.085	0.035
-209.465	-200.000	-0.023	-0.260
-208.450	-100.926	-0.062	-0.015
-207.436	-92.872	0.297	-0.081
-206.421	67.004	0.179	0.180
-205.406	-80.417	-0.144	0.047
-204.392	-59.446	0.243	0.103
-203.377	-184.656	-0.252	0.004
-202.363	-51.071	0.283	-0.131
-201.348	-167.692	0.445	0.017
-200.333	75.336	0.127	-0.131
-199.319	-200.000	0.006	0.257
-198.304	-46.087	0.178	-0.086
-197.290	661.529	-0.094	0.239
-196.275	800.000	-0.102	0.336
-195.260	114.520	-0.160	-0.191
-194.246	-55.362	-0.166	-0.073
-193.231	-23.876	-0.222	0.131
-192.217	800.000	-0.105	0.306
-191.202	421.308	-0.024	0.050
-190.187	-170.425	-0.335	0.012
-189.173	238.490	-0.069	0.113
-188.158	-1.477	-0.180	-0.125
-187.144	-15.057	0.172	-0.108
-186.129	57.491	-0.169	-0.162
-185.114	781.952	-0.158	0.426
-184.100	-163.032	0.348	-0.017
-183.085	-200.000	-0.003	0.147
-182.071	479.981	-0.076	0.170
-181.056	-200.000	0.024	0.118
-180.042	800.000	-0.021	-0.089
-179.027	763.301	-0.010	0.026
-178.012	-158.508	0.190	0.011
-176.998	-36.572	-0.349	0.184
-175.983	-149.376	-0.083	0.006
-174.969	800.000	-0.094	0.263
-173.954	-146.119	-0.190	0.016
-172.939	-52.474	0.155	0.070
-171.925	-80.341	0.064	-0.021
-170.910	69.538	0.151	0.153
-169.896	-34.790	0.057	0.031
-168.881	-200.000	0.044	-0.229
-167.866	-200.000	0.053	-0.360
-166.852	82.314	-0.152	0.161
-165.837	334.627	-0.122	0.231
-164.823	800.000	0.100	0.270
-163.808	96.134	-0.057	0.064
-162.793	-200.000	0.024	-0.162
-161.779	-14.358	0.109	-0.069
-160.764	13.187	-0.249	0.189
-159.750	203.365	0.040	-0.060
-158.735	76.363	0.061	-0.064
-157.720	800.000	0.053	0.189
-156.706	26.479	-0.070	-0.057
-155.691	294.406	-0.041	-0.073
-154.677	-142.471	0.180	0.017
-153.662	-54.720	-0.211	0.093
-152.647	-100.350	0.239	0.058
-151.633	0.699	-0.139	-0.097
-150.618	32.621	0.405	-0.344
-149.604	-68.939	-0.197	0.075
-148.589	-200.000	0.038	-0.217
-147.574	-67.712	-0.277	-0.106
-146.560	400.994	-0.038	0.079
-145.545	-87.914	-0.243	0.072
-144.531	-93.402	-0.271	0.074
-143.516	-101.144	-0.296	-0.071
-142.502	62.308	0.284	0.278
-141.487	800.000	0.113	0.399
-140.472	-200.000	-0.028	0.134
-139.458	-164.225	0.202	-0.009
-138.443	-125.557	0.251	-0.037
-137.429	67.052	-0.130	0.130
-136.414	-120.419	-0.108	0.018
-135.399	23.001	0.064	0.051
-134.385	-76.162	-0.188	-0.065
-133.370	-200.000	0.015	0.377
-132.356	706.938	-0.072	-0.187
-131.341	-200.000	-0.070	0.425
-130.326	42.695	-0.224	-0.200
-129.312	-175.833	-0.077	0.002
-128.297	800.000	-0.070	-0.190
-127.283	-200.000	-0.002	-0.207
-126.268	-40.558	0.358	-0.182
-125.253	-28.888	0.005	-0.003
-124.239	-200.000	0.023	0.098
-123.224	22.543	-0.235	-0.188
