DTS Sentinel unit serial number:	SN413079Multiplexer serial number:	ORYXHardware model number:	OX4-SRSoftware version number:	ORYX F/W v4.00 Oryx Data Collector v3.7.2.0data status	okinstallation	princeton_trtdifferential loss correction	single-endedforward channel	channel 2reverse channel	N/Adate	2019/09/18time	08:31:35forward acquisition time	60.00reverse acquisition time	0.00gamma	496.2192k internal	0.2341k external	0.2341temperature offset calibration	0.9977default loss term (dB/km)	0.3790temperature slope calibration	1.0000multiplexer offset coefficient	1.0000multiplexer slope coefficient	1.0000fibre end	0.00T internal ref (°C)	24.33T ext. ref 1 (°C)	0.22T ext. ref 2 (°C)	20.04length (m)	temperature (°C)	Stokes	anti-Stokes-747.200	590.293	0.036	0.089
-746.185	258.214	-0.186	0.321
-745.171	783.289	-0.081	0.223
-744.156	-200.000	-0.055	0.282
-743.142	-10.554	0.202	0.134
-742.127	3.583	-0.157	-0.115
-741.112	-20.248	-0.149	0.092
-740.098	104.162	-0.416	0.490
-739.083	558.387	-0.111	0.269
-738.069	-47.741	-0.275	-0.134
-737.054	155.677	0.126	-0.174
-736.039	-38.417	-0.058	0.031
-735.025	800.000	0.061	0.198
-734.010	-184.780	-0.214	0.003
-732.996	252.535	-0.148	-0.252
-731.981	132.619	-0.039	-0.051
-730.966	-27.339	0.253	0.147
-729.952	-97.747	-0.167	0.043
-728.937	-200.000	-0.003	0.235
-727.923	-127.142	0.135	0.020
-726.908	2.935	0.246	-0.179
-725.894	96.772	-0.237	-0.272
-724.879	-200.000	0.027	-0.282
-723.864	553.970	-0.017	0.041
-722.850	133.171	-0.078	0.101
-721.835	-200.000	-0.022	0.099
-720.821	252.348	0.170	0.289
-719.806	548.051	0.122	-0.291
-718.791	60.511	-0.204	-0.203
-717.777	-200.000	0.251	-0.001
-716.762	-200.000	-0.094	-0.476
-715.748	346.949	-0.041	0.081
-714.733	46.744	-0.146	0.136
-713.718	143.856	-0.155	-0.207
-712.704	-70.628	-0.174	0.066
-711.689	97.924	0.036	0.041
-710.675	-200.000	-0.009	-0.365
-709.660	800.000	0.129	-0.408
-708.645	50.217	-0.052	0.049
-707.631	-136.268	0.086	-0.010
-706.616	-200.000	0.046	-0.251
-705.602	610.730	0.159	-0.397
-704.587	135.053	0.364	-0.473
-703.572	-108.053	0.249	0.054
-702.558	-68.934	-0.379	0.146
-701.543	59.424	0.058	-0.057
-700.529	-90.117	0.149	0.043
-699.514	-129.389	-0.632	-0.088
-698.499	800.000	0.038	-0.151
-697.485	127.558	-0.242	-0.307
-696.470	800.000	0.094	-0.359
-695.456	-118.284	-0.398	0.071
-694.441	800.000	-0.038	-0.114
-693.426	158.168	0.089	0.124
-692.412	-200.000	0.022	-0.364
-691.397	734.242	0.071	-0.191
-690.383	-18.126	0.248	0.155
-689.368	195.760	-0.215	0.328
-688.354	-200.000	0.007	0.041
-687.339	59.166	0.088	0.086
-686.324	-200.000	-0.008	0.252
-685.310	-51.779	-0.053	0.025
-684.295	-141.817	0.162	-0.016
-683.281	421.404	-0.123	-0.264
-682.266	-200.000	0.023	-0.296
-681.251	800.000	-0.056	-0.232
-680.237	-132.002	-0.335	-0.044
-679.222	-41.884	-0.027	0.014
-678.208	-7.698	-0.166	0.112
-677.193	-6.955	0.231	0.157
-676.178	27.399	-0.160	-0.134
-675.164	-17.712	-0.070	-0.044
-674.149	-200.000	0.031	0.265
-673.135	-11.164	0.028	0.019
-672.120	-173.711	-0.174	0.005
-671.105	-137.783	-0.235	0.026
-670.091	-42.064	0.317	0.162
-669.076	800.000	0.060	0.199
-668.062	-105.228	0.084	0.019
-667.047	36.749	-0.292	-0.258
-666.032	-33.559	0.210	-0.116
-665.018	141.525	-0.223	-0.295
-664.003	-200.000	0.183	0.001
-662.989	-75.847	0.338	0.120
-661.974	-200.000	-0.016	-0.247
-660.959	90.204	0.172	-0.192
-659.945	32.952	0.089	-0.077
-658.930	289.002	0.098	0.177
-657.916	-135.827	0.160	0.019
-656.901	-200.000	-0.004	-0.124
-655.886	-200.000	-0.012	-0.197
-654.872	-200.000	0.018	0.119
-653.857	-125.884	-0.117	-0.018
-652.843	132.975	0.145	-0.187
-651.828	-74.276	0.263	-0.095
-650.814	386.068	0.035	0.072
-649.799	-41.373	0.139	0.071
-648.784	-140.486	-0.393	-0.041
-647.770	-3.202	0.088	-0.061
-646.755	-80.183	-0.214	-0.071
-645.741	800.000	0.054	-0.209
-644.726	-104.287	-0.087	0.020
-643.711	-125.917	0.105	-0.016
-642.697	529.429	0.078	-0.185
-641.682	636.660	-0.029	-0.073
-640.668	99.460	-0.047	-0.055
-639.653	356.247	0.090	0.178
-638.638	121.152	-0.087	0.108
-637.624	-81.832	-0.225	0.073
-636.609	-8.100	-0.183	-0.123
-635.595	-77.497	-0.188	-0.065
-634.580	371.048	0.070	-0.141
-633.565	-72.573	0.153	-0.056
-632.551	-161.264	0.134	-0.007
-631.536	176.660	0.066	-0.096
-630.522	580.406	0.045	0.110
-629.507	-200.000	-0.023	0.344
-628.492	253.449	0.107	-0.182
-627.478	-200.000	0.021	0.262
-626.463	17.833	0.202	0.161
-625.449	0.690	-0.176	0.126
-624.434	-91.883	0.123	-0.035
-623.419	187.246	-0.216	-0.321
-622.405	130.464	0.125	0.159
-621.390	-156.137	-0.564	0.035
-620.376	188.473	0.026	0.038
-619.361	353.561	0.080	-0.158
-618.346	-186.154	0.346	-0.005
-617.332	-46.575	0.003	0.001
-616.317	-200.000	-0.012	0.093
-615.303	800.000	0.087	-0.279
-614.288	-200.000	0.016	-0.474
-613.273	-39.432	0.067	0.035
-612.259	576.054	0.057	-0.140
-611.244	-200.000	0.006	-0.026
-610.230	-65.773	-0.294	-0.117
-609.215	-186.406	0.437	-0.006
-608.201	273.073	-0.105	0.185
-607.186	2.734	-0.146	-0.105
-606.171	168.959	0.107	-0.152
-605.157	57.500	0.311	-0.302
-604.142	13.982	-0.183	0.142
-603.128	-200.000	-0.032	-0.226
-602.113	-65.882	0.101	-0.040
-601.098	-113.581	-0.143	-0.028
-600.084	162.290	-0.082	0.115
-599.069	800.000	-0.021	0.073
-598.055	547.549	-0.140	0.335
-597.040	84.206	0.180	0.196
-596.025	46.256	0.125	-0.115
-595.011	-200.000	0.049	-0.268
-593.996	166.661	-0.043	-0.060
-592.982	367.255	0.144	-0.290
-591.967	120.640	0.224	-0.277
-590.952	512.345	0.050	-0.117
-589.938	-200.000	-0.015	0.320
-588.923	-160.411	0.145	-0.008
-587.909	-98.548	-0.224	-0.057
-586.894	-116.951	-0.386	-0.070
-585.879	-141.632	0.143	-0.014
-584.865	-74.097	0.288	-0.104
-583.850	-200.000	0.020	-0.444
-582.836	-200.000	0.018	-0.163
-581.821	-200.000	0.056	0.328
-580.806	-200.000	0.022	-0.163
-579.792	800.000	0.042	-0.167
-578.777	-149.856	-0.274	0.021
-577.763	800.000	-0.093	0.258
-576.748	800.000	0.128	-0.436
-575.733	131.843	-0.117	0.150
-574.719	393.892	-0.076	-0.157
-573.704	-135.730	0.146	-0.017
-572.690	343.870	0.093	0.181
-571.675	-179.082	0.173	0.004
-570.661	-49.732	-0.012	0.006
-569.646	31.423	0.136	-0.116
-568.631	622.603	0.161	0.403
-567.617	-7.009	-0.232	0.157
-566.602	32.116	0.303	0.260
-565.588	800.000	-0.138	0.413
-564.573	-200.000	-0.000	-0.103
-563.558	12.171	-0.196	0.150
-562.544	800.000	0.036	-0.135
-561.529	263.154	0.065	-0.112
-560.515	317.811	0.052	0.098
-559.500	242.519	0.142	0.237
-558.485	133.322	-0.206	-0.265
-557.471	-120.227	0.139	0.024
-556.456	221.268	-0.058	0.093
-555.442	-200.000	-0.000	-0.085
-554.427	-22.480	-0.062	0.038
-553.412	-152.220	0.297	0.021
-552.398	-32.509	0.079	0.044
-551.383	-5.460	0.196	0.134
-550.369	53.796	0.176	-0.168
-549.354	310.303	-0.066	-0.123
-548.339	-128.823	-0.515	-0.072
-547.325	800.000	-0.052	0.220
-546.310	19.281	0.185	-0.148
-545.296	-200.000	0.004	0.032
-544.281	-119.854	-0.343	-0.059
-543.266	-200.000	0.052	0.284
-542.252	-102.939	0.258	0.061
-541.237	-200.000	-0.012	0.072
-540.223	-23.447	0.124	0.074
-539.208	489.181	0.139	-0.317
-538.193	-66.747	0.254	-0.100
-537.179	-88.744	-0.119	-0.035
-536.164	-55.837	0.095	-0.042
-535.150	-20.999	0.194	-0.118
-534.135	195.935	0.038	-0.057
-533.121	708.433	0.057	-0.151
-532.106	-200.000	0.004	-0.202
-531.091	-200.000	-0.017	-0.174
-530.077	-106.645	0.283	0.062
-529.062	-95.679	-0.366	-0.097
-528.048	-145.251	0.225	-0.020
-527.033	440.480	-0.072	-0.157
-526.018	-27.939	-0.311	0.179
-525.004	-177.412	-0.218	-0.005
-523.989	800.000	-0.041	-0.120
-522.975	-34.136	-0.283	0.155
-521.960	-200.000	0.039	-0.238
-520.945	-63.627	0.175	0.071
-519.931	297.852	0.139	0.253
-518.916	-200.000	-0.079	0.355
-517.902	-146.754	-0.099	-0.008
-516.887	412.048	-0.104	0.219
-515.872	86.644	-0.200	-0.219
-514.858	-22.053	-0.061	0.037
-513.843	270.756	0.011	-0.019
-512.829	-60.266	0.265	-0.112
-511.814	-64.664	-0.110	-0.044
-510.799	88.435	-0.227	-0.250
-509.785	85.153	-0.141	0.154
-508.770	23.304	-0.224	0.183
-507.756	800.000	0.027	0.074
-506.741	-75.589	-0.332	0.117
-505.726	-60.987	-0.247	0.103
-504.712	-101.268	-0.447	0.108
-503.697	166.604	0.150	0.212
-502.683	-200.000	-0.037	-0.306
-501.668	-76.313	-0.308	-0.108
-500.653	327.882	0.171	0.326
-499.639	-63.208	-0.087	-0.036
-498.624	-129.761	0.342	-0.047
-497.610	84.040	-0.287	-0.311
-496.595	167.361	-0.052	-0.073
-495.581	461.555	0.251	-0.556
-494.566	-133.643	-0.156	0.019
-493.551	800.000	0.105	0.374
-492.537	56.295	0.089	-0.086
-491.522	248.488	0.016	0.027
-490.508	-75.289	-0.297	0.105
-489.493	800.000	-0.075	-0.233
-488.478	256.281	0.102	0.173
-487.464	56.661	-0.169	0.163
-486.449	69.202	0.187	-0.191
-485.435	27.928	-0.222	0.185
-484.420	-81.843	-0.148	0.048
-483.405	-200.000	0.006	-0.229
-482.391	-139.329	0.234	-0.025
-481.376	-58.507	-0.176	0.076
-480.362	800.000	0.058	0.211
-479.347	-24.161	-0.335	0.198
-478.332	-107.045	-0.130	0.029
-477.318	-200.000	-0.038	0.208
-476.303	56.409	0.233	-0.225
-475.289	-129.951	0.304	0.041
-474.274	-200.000	0.049	0.567
-473.259	115.117	0.099	0.120
-472.245	-15.724	-0.284	-0.180
-471.230	-15.956	0.134	0.085
-470.216	-44.007	0.304	0.151
-469.201	-34.099	-0.318	0.173
-468.186	-98.009	0.305	-0.078
-467.172	90.170	0.075	0.083
-466.157	-152.894	0.470	0.033
-465.143	-17.854	0.187	0.117
-464.128	231.257	0.147	-0.239
-463.113	210.307	-0.039	-0.061
-462.099	202.785	0.122	-0.186
-461.084	-200.000	-0.021	-0.127
-460.070	73.193	-0.185	-0.192
-459.055	50.011	0.110	-0.102
-458.040	-15.209	0.146	-0.093
-457.026	131.743	0.073	0.094
-456.011	-40.043	0.270	-0.139
-454.997	27.392	-0.411	-0.343
-453.982	-149.037	0.244	-0.019
-452.968	-36.122	0.130	-0.069
-451.953	-200.000	0.043	0.271
-450.938	-20.188	-0.173	-0.106
-449.924	-142.262	0.121	0.012
-448.909	-47.242	-0.044	0.021
-447.895	-53.779	0.085	0.039
-446.880	-128.187	0.344	0.049
-445.865	-200.000	0.022	0.127
-444.851	288.925	0.070	-0.126
-443.836	-112.758	-0.336	-0.066
-442.822	-109.459	0.057	0.012
-441.807	20.552	-0.130	0.104
-440.792	659.786	-0.138	0.353
-439.778	38.573	0.214	-0.189
-438.763	-119.459	-0.091	0.016
-437.749	211.938	-0.241	-0.377
-436.734	-1.814	-0.122	0.085
-435.719	131.361	-0.213	0.272
-434.705	-200.000	-0.001	0.419
-433.690	249.184	-0.125	0.210
-432.676	-200.000	-0.017	-0.353
-431.661	-25.781	-0.082	0.048
-430.646	-169.252	0.344	0.013
-429.632	389.850	-0.088	0.180
-428.617	-45.523	-0.441	-0.216
-427.603	-200.000	-0.012	-0.415
-426.588	-200.000	-0.015	-0.092
-425.573	703.667	-0.042	-0.109
-424.559	-67.522	0.173	-0.067
-423.544	-149.192	-0.306	0.024
-422.530	-200.000	-0.025	0.166
-421.515	-60.345	0.414	0.174
-420.500	-200.000	0.066	0.336
-419.486	-200.000	0.011	0.124
-418.471	-51.216	-0.179	0.083
-417.457	800.000	-0.050	-0.149
-416.442	-135.795	-0.191	-0.022
-415.428	690.792	-0.095	-0.247
-414.413	35.903	-0.020	0.017
-413.398	688.026	-0.062	0.162
-412.384	800.000	-0.035	0.108
-411.369	82.406	0.084	0.090
-410.355	800.000	0.035	0.139
-409.340	-200.000	0.021	-0.314
-408.325	-108.371	0.140	-0.030
-407.311	-200.000	0.002	0.050
-406.296	-45.874	0.406	0.198
-405.282	-100.324	-0.338	-0.083
-404.267	-35.701	0.120	-0.064
-403.252	108.930	-0.110	0.130
-402.238	-117.158	0.290	-0.052
-401.223	22.964	-0.351	0.284
-400.209	328.093	-0.154	0.293
-399.194	-134.162	-0.189	0.023
-398.179	-200.000	0.047	0.217
-397.165	427.863	-0.063	-0.134
-396.150	-24.958	0.134	-0.079
-395.136	339.316	0.125	-0.241
-394.121	-178.300	-0.108	0.002
-393.106	15.574	0.045	-0.035
-392.092	-46.395	0.173	-0.084
-391.077	-97.967	-0.121	-0.031
-390.063	-125.969	-0.371	-0.055
-389.048	-79.322	0.347	0.116
-388.033	305.063	0.054	0.100
-387.019	-20.233	0.182	-0.111
-386.004	-200.000	-0.025	-0.199
-384.990	-62.756	0.100	-0.041
-383.975	-200.000	0.020	-0.133
-382.960	800.000	0.050	-0.205
-381.946	621.376	-0.080	0.199
-380.931	368.698	0.054	0.108
-379.917	94.018	-0.038	-0.043
-378.902	-71.703	0.116	-0.043
-377.888	-118.559	-0.317	-0.055
-376.873	-200.000	0.022	0.201
-375.858	-144.980	-0.331	0.030
-374.844	61.120	-0.215	-0.211
-373.829	-200.000	-0.087	0.000
-372.815	-200.000	-0.041	0.191
-371.800	-12.181	0.140	0.091
-370.785	800.000	0.099	-0.328
-369.771	71.045	-0.239	0.245
-368.756	89.056	0.274	0.301
-367.742	32.106	0.100	0.085
-366.727	429.590	-0.093	-0.198
-365.712	800.000	-0.051	0.195
-364.698	800.000	0.026	-0.075
-363.683	-21.798	0.249	-0.150
-362.669	178.144	-0.069	0.099
-361.654	74.338	0.359	-0.372
-360.639	800.000	-0.021	-0.073
-359.625	80.488	0.188	-0.200
-358.610	-10.197	0.275	-0.180
-357.596	800.000	0.082	-0.225
-356.581	478.745	-0.081	0.180
-355.566	-5.260	0.174	0.118
-354.552	63.749	-0.184	0.182
-353.537	116.280	0.027	-0.033
-352.523	-67.846	-0.541	0.209
-351.508	-47.196	-0.077	-0.037
-350.493	800.000	0.063	0.268
-349.479	-96.470	-0.126	0.033
-348.464	257.838	0.116	-0.197
-347.450	800.000	0.052	-0.219
-346.435	762.419	0.059	-0.159
-345.420	-32.233	0.281	0.155
-344.406	-61.943	0.213	-0.088
-343.391	-142.006	-0.300	0.030
-342.377	-164.718	0.267	-0.012
-341.362	-45.744	-0.086	0.042
-340.348	-3.079	-0.045	-0.031
-339.333	-99.989	0.093	0.023
-338.318	-65.701	-0.130	0.051
-337.304	120.866	-0.131	0.161
-336.289	190.698	-0.020	0.030
-335.275	-200.000	-0.068	-0.371
-334.260	530.804	0.071	0.167
-333.245	800.000	0.044	0.190
-332.231	-142.438	0.165	-0.016
-331.216	38.827	0.140	0.123
-330.202	-200.000	-0.016	-0.268
-329.187	-34.615	-0.253	0.136
-328.172	118.048	-0.088	-0.107
-327.158	-200.000	-0.010	0.311
-326.143	-4.957	0.215	-0.146
-325.129	-53.132	-0.399	-0.181
-324.114	12.106	0.206	0.156
-323.099	239.390	0.034	0.055
-322.085	52.382	-0.199	-0.187
-321.070	-200.000	-0.023	0.134
-320.056	-37.168	0.373	0.197
-319.041	-61.388	-0.395	-0.164
-318.026	80.301	-0.089	0.094
-317.012	-9.623	0.202	-0.133
-315.997	-63.204	0.296	0.120
-314.983	-58.891	-0.338	0.144
-313.968	-200.000	-0.002	-0.225
-312.953	800.000	0.045	0.147
-311.939	144.514	-0.094	-0.123
-310.924	-200.000	0.000	-0.043
-309.910	28.657	-0.127	0.106
-308.895	569.312	0.068	0.163
-307.880	-80.417	0.046	0.015
-306.866	-77.576	0.163	-0.056
-305.851	-34.758	-0.215	0.116
-304.837	514.679	0.106	0.243
-303.822	-200.000	0.003	0.220
-302.807	-200.000	-0.044	-0.230
-301.793	557.754	-0.018	-0.043
-300.778	743.906	0.123	-0.327
-299.764	19.666	-0.100	-0.079
-298.749	-113.317	0.339	-0.066
-297.735	584.723	-0.120	-0.290
-296.720	-131.379	-0.073	0.009
-295.705	-143.070	-0.094	0.009
-294.691	800.000	0.098	0.300
-293.676	-157.705	-0.375	-0.022
-292.662	-57.132	0.037	-0.016
-291.647	800.000	0.045	0.160
-290.632	277.625	-0.095	0.166
-289.618	116.804	0.139	0.168
-288.603	800.000	-0.096	-0.358
-287.589	223.632	-0.126	-0.201
-286.574	-4.721	0.085	0.058
-285.559	-3.004	-0.190	-0.130
-284.545	-200.000	0.023	0.208
-283.530	227.330	0.134	0.214
-282.516	-87.968	-0.143	0.042
-281.501	422.665	-0.154	-0.325
-280.486	-128.125	-0.060	-0.008
-279.472	498.585	-0.056	0.127
-278.457	-200.000	0.020	-0.348
-277.443	-153.378	0.093	0.006
-276.428	-200.000	-0.024	-0.125
-275.413	103.334	-0.123	-0.142
-274.399	-27.931	0.397	0.226
-273.384	193.980	0.160	-0.239
-272.370	562.392	0.116	-0.276
-271.355	86.196	-0.209	-0.226
-270.340	-45.880	-0.172	0.083
-269.326	-75.383	0.110	-0.039
-268.311	6.687	-0.133	-0.097
-267.297	-200.000	-0.041	-0.298
-266.282	-102.129	-0.189	-0.045
-265.267	800.000	0.059	0.214
-264.253	502.449	-0.044	-0.101
-263.238	28.874	0.178	0.148
-262.224	76.089	-0.147	-0.153
-261.209	-98.981	0.218	0.054
-260.195	800.000	-0.083	0.351
-259.180	-74.362	-0.179	0.064
-258.165	-25.041	-0.129	0.075
-257.151	57.891	-0.015	-0.014
-256.136	-200.000	0.028	0.208
-255.122	-52.233	-0.097	-0.044
-254.107	54.377	0.135	0.128
-253.092	-4.046	-0.153	-0.104
-252.078	87.524	0.426	0.463
-251.063	800.000	-0.078	0.283
-250.049	-200.000	-0.003	0.024
-249.034	-45.563	-0.326	0.159
-248.019	-99.461	0.296	0.073
-247.005	112.081	0.154	0.183
-245.990	-29.553	-0.168	0.095
-244.976	-200.000	-0.038	-0.176
-243.961	-200.000	-0.067	-0.331
-242.946	74.147	0.153	0.158
-241.932	-22.301	0.217	-0.129
-240.917	-200.000	-0.004	0.122
-239.903	-172.542	0.149	-0.005
-238.888	800.000	0.032	-0.115
-237.873	-200.000	0.024	0.386
-236.859	249.378	-0.179	-0.297
-235.844	800.000	-0.052	-0.159
-234.830	8.450	0.309	0.228
-233.815	800.000	-0.038	-0.128
-232.800	23.998	-0.173	0.140
-231.786	-104.221	0.292	-0.067
-230.771	326.054	0.037	0.069
-229.757	176.016	-0.306	0.436
-228.742	-135.247	-0.129	0.015
-227.727	-13.321	0.114	-0.073
-226.713	-52.422	-0.301	-0.137
-225.698	476.239	-0.159	-0.352
-224.684	10.456	0.032	0.024
-223.669	63.362	-0.231	-0.228
-222.655	-58.258	0.363	-0.155
-221.640	-94.861	-0.165	0.044
-220.625	-200.000	-0.003	0.022
-219.611	255.198	-0.130	-0.219
-218.596	16.573	-0.237	0.184
-217.582	-104.897	-0.435	0.098
-216.567	260.261	0.037	0.063
-215.552	-43.863	-0.106	-0.052
-214.538	-129.876	-0.178	0.024
-213.523	346.585	-0.009	0.017
-212.509	27.449	0.177	0.146
-211.494	-32.062	-0.146	-0.080
-210.479	93.726	0.164	-0.182
-209.465	-20.967	-0.257	0.154
-208.450	-110.458	0.343	0.070
-207.436	-83.706	0.484	0.152
-206.421	-23.986	0.213	-0.125
-205.406	345.361	-0.110	-0.212
-204.392	-42.669	0.165	-0.082
-203.377	-145.601	0.128	0.011
-202.363	754.676	0.098	0.261
-201.348	753.957	0.149	-0.396
-200.333	124.736	-0.141	-0.174
-199.319	-20.646	-0.093	0.056
-198.304	0.039	-0.160	-0.112
-197.290	-69.990	0.349	0.130
-196.275	-200.000	-0.043	-0.299
-195.260	58.275	0.125	0.120
-194.246	8.575	0.241	-0.178
-193.231	-71.651	0.099	-0.036
-192.217	105.153	-0.122	0.141
-191.202	363.318	0.132	0.261
-190.187	38.542	0.180	0.158
-189.173	-200.000	0.048	0.283
-188.158	800.000	0.065	0.252
-187.144	40.226	0.326	0.287
-186.129	-111.376	-0.026	-0.005
-185.114	39.746	0.147	0.129
-184.100	-200.000	0.012	0.339
-183.085	-171.802	-0.138	0.004
-182.071	187.276	0.047	-0.069
-181.056	131.890	0.074	-0.094
-180.042	39.291	0.260	-0.228
-179.027	98.080	-0.241	-0.272
-178.012	-143.608	0.311	0.029
-176.998	57.199	0.163	-0.155
-175.983	251.463	-0.162	-0.270
-174.969	-200.000	0.014	-0.060
-173.954	182.633	-0.101	0.146
-172.939	87.426	0.116	0.125
-171.925	787.647	-0.110	0.296
-170.910	388.463	-0.044	-0.089
-169.896	21.048	-0.117	0.093
-168.881	-148.762	0.039	0.003
-167.866	-64.184	-0.051	0.020
-166.852	19.617	-0.105	0.083
-165.837	-48.486	-0.085	0.040
-164.823	-166.415	0.105	-0.004
-163.808	194.768	-0.274	-0.408
-162.793	-120.134	0.260	-0.044
-161.779	-200.000	0.002	0.192
-160.764	-62.373	-0.146	0.059
-159.750	126.760	-0.142	-0.176
-158.735	-32.315	0.088	-0.048
-157.720	23.845	-0.114	0.092
-156.706	240.749	-0.117	0.191
-155.691	-200.000	0.006	0.089
-154.677	800.000	-0.112	0.428
-153.662	-200.000	-0.015	-0.128
-152.647	-73.431	-0.099	0.035
-151.633	-110.790	0.267	-0.054
-150.618	784.366	-0.214	-0.575
-149.604	31.284	0.207	-0.174
-148.589	11.737	-0.020	-0.015
-147.574	115.233	0.110	-0.131
-146.560	59.127	-0.236	0.228
-145.545	-14.649	0.237	-0.149
-144.531	-116.672	-0.201	0.036
-143.516	-200.000	-0.014	0.244
-142.502	-57.573	0.215	0.092
-141.487	87.070	-0.054	0.058
-140.472	132.052	-0.237	0.298
-139.458	-61.814	0.257	-0.105
-138.443	266.604	0.098	-0.168
-137.429	-121.637	0.574	-0.093
-136.414	117.688	0.093	-0.112
-135.399	21.810	0.128	-0.102
-134.385	-10.281	0.175	-0.113
-133.370	-64.394	-0.025	-0.010
-132.356	-160.556	0.090	0.005
-131.341	-106.907	0.110	0.024
-130.326	-49.545	-0.333	-0.155
-129.312	-15.076	0.297	-0.186
-128.297	11.012	-0.308	-0.230
-127.283	-34.441	0.127	0.068
-126.268	334.620	-0.069	0.131
-125.253	73.921	0.078	0.080
-124.239	-45.509	0.151	0.073
-123.224	-152.835	-0.210	-0.015
-122.210	-39.564	-0.106	-0.054
-121.195	-26.015	0.352	-0.202
