DTS Sentinel unit serial number:	SN413079Multiplexer serial number:	ORYXHardware model number:	OX4-SRSoftware version number:	ORYX F/W v4.00 Oryx Data Collector v3.7.2.0data status	okinstallation	princeton_trtdifferential loss correction	single-endedforward channel	channel 2reverse channel	N/Adate	2019/09/18time	06:27:34forward acquisition time	60.00reverse acquisition time	0.00gamma	496.2192k internal	0.2348k external	0.2348temperature offset calibration	0.9985default loss term (dB/km)	0.3790temperature slope calibration	1.0000multiplexer offset coefficient	1.0000multiplexer slope coefficient	1.0000fibre end	0.00T internal ref (°C)	23.25T ext. ref 1 (°C)	0.19T ext. ref 2 (°C)	17.58length (m)	temperature (°C)	Stokes	anti-Stokes-747.200	800.000	0.068	0.293
-746.185	-85.035	-0.539	-0.169
-745.171	800.000	0.052	0.209
-744.156	-200.000	-0.071	0.387
-743.142	169.620	-0.160	0.228
-742.127	-200.000	0.018	0.096
-741.112	236.633	0.126	-0.209
-740.098	8.043	-0.164	-0.123
-739.083	-95.463	0.121	0.032
-738.069	47.145	0.228	0.212
-737.054	-2.669	-0.284	0.198
-736.039	304.353	-0.223	-0.413
-735.025	-154.907	0.227	-0.015
-734.010	413.978	-0.079	0.169
-732.996	-115.673	-0.220	0.041
-731.981	62.850	-0.377	0.377
-730.966	-134.158	-0.073	-0.009
-729.952	800.000	-0.032	0.105
-728.937	780.203	-0.060	0.164
-727.923	-152.524	-0.116	-0.008
-726.908	731.692	0.053	-0.142
-725.894	-131.772	-0.253	-0.033
-724.879	-190.289	-0.365	0.004
-723.864	800.000	0.060	0.182
-722.850	-200.000	-0.012	-0.179
-721.835	95.622	0.212	0.242
-720.821	-200.000	-0.063	-0.282
-719.806	-24.457	-0.206	-0.123
-718.791	225.133	0.123	-0.199
-717.777	-200.000	0.029	-0.232
-716.762	372.784	0.133	-0.269
-715.748	-80.279	0.036	-0.012
-714.733	319.805	0.287	0.543
-713.718	-109.132	-0.598	-0.127
-712.704	236.432	-0.128	-0.211
-711.689	-32.736	0.386	0.214
-710.675	-2.586	0.087	-0.061
-709.660	-7.840	-0.120	0.081
-708.645	-113.374	0.133	0.026
-707.631	800.000	-0.067	-0.278
-706.616	-200.000	-0.022	-0.193
-705.602	-93.025	0.162	-0.045
-704.587	432.682	-0.159	0.344
-703.572	279.723	0.078	0.138
-702.558	-200.000	0.000	-0.195
-701.543	-43.849	0.269	-0.135
-700.529	-200.000	-0.098	0.438
-699.514	3.638	0.107	-0.078
-698.499	-200.000	-0.032	-0.278
-697.485	117.967	0.253	0.311
-696.470	800.000	-0.084	0.236
-695.456	455.908	0.051	0.114
-694.441	-200.000	-0.015	-0.165
-693.426	-95.885	0.300	-0.080
-692.412	-200.000	-0.012	-0.057
-691.397	-200.000	0.016	0.211
-690.383	16.062	-0.437	0.343
-689.368	165.520	-0.221	-0.312
-688.354	142.490	0.259	0.343
-687.339	-167.137	0.264	-0.011
-686.324	800.000	-0.055	-0.194
-685.310	-72.110	-0.232	-0.086
-684.295	-162.694	-0.188	-0.009
-683.281	-152.460	-0.174	-0.012
-682.266	490.141	-0.117	0.267
-681.251	141.439	-0.269	0.355
-680.237	800.000	-0.023	0.100
-679.222	361.293	0.077	0.153
-678.208	87.985	0.012	-0.013
-677.193	-36.629	0.107	0.057
-676.178	-120.979	0.196	0.033
-675.164	-119.470	-0.230	-0.040
-674.149	167.750	0.105	0.149
-673.135	-200.000	-0.003	-0.150
-672.120	-200.000	-0.043	0.306
-671.105	451.545	0.033	0.072
-670.091	-148.360	-0.111	-0.009
-669.076	-200.000	-0.033	-0.151
-668.062	-200.000	-0.011	0.087
-667.047	-200.000	-0.028	-0.179
-666.032	675.459	0.062	-0.159
-665.018	125.551	0.192	0.241
-664.003	-98.969	0.070	-0.018
-662.989	-144.840	0.242	-0.022
-661.974	-57.090	0.226	0.099
-660.959	138.855	0.238	0.312
-659.945	11.161	0.115	-0.088
-658.930	56.801	-0.230	0.223
-657.916	417.215	0.175	-0.373
-656.901	-161.533	-0.371	0.019
-655.886	81.194	-0.279	-0.300
-654.872	33.435	-0.193	0.167
-653.857	312.756	0.211	0.395
-652.843	-200.000	0.002	0.104
-651.828	658.430	-0.133	0.342
-650.814	126.393	0.240	0.302
-649.799	785.805	0.129	-0.351
-648.784	375.118	0.098	-0.199
-647.770	800.000	-0.031	0.098
-646.755	800.000	-0.079	0.265
-645.741	46.825	-0.135	-0.124
-644.726	11.669	0.155	-0.118
-643.711	2.723	-0.200	-0.144
-642.697	-29.854	0.229	-0.130
-641.682	-77.924	-0.084	0.029
-640.668	333.589	0.043	-0.083
-639.653	204.684	-0.013	0.020
-638.638	144.999	0.034	0.045
-637.624	124.751	0.166	-0.208
-636.609	620.549	-0.048	0.120
-635.595	-131.097	-0.189	0.025
-634.580	130.306	0.147	-0.187
-633.565	-167.058	-0.223	0.009
-632.551	-1.668	-0.175	0.123
-631.536	125.588	-0.067	0.084
-630.522	-139.175	-0.055	-0.006
-629.507	-200.000	-0.029	0.489
-628.492	79.951	-0.211	0.225
-627.478	-99.297	0.155	0.039
-626.463	-62.925	0.319	0.131
-625.449	800.000	-0.028	0.090
-624.434	-200.000	0.007	-0.099
-623.419	-69.085	0.165	-0.063
-622.405	-200.000	0.047	-0.268
-621.390	-200.000	0.004	-0.035
-620.376	286.302	-0.164	0.295
-619.361	6.546	-0.126	-0.093
-618.346	-104.322	0.434	0.100
-617.332	15.885	0.106	0.083
-616.317	-15.411	-0.021	0.013
-615.303	34.724	0.305	0.265
-614.288	-21.156	0.225	0.137
-613.273	-37.798	0.024	-0.012
-612.259	155.675	-0.203	-0.277
-611.244	-200.000	0.047	-0.262
-610.230	-6.128	-0.203	0.138
-609.215	63.191	0.283	-0.282
-608.201	-17.028	0.216	-0.136
-607.186	-78.052	0.140	0.048
-606.171	-90.989	0.113	-0.032
-605.157	554.193	-0.075	0.179
-604.142	293.452	0.100	0.181
-603.128	-82.220	-0.104	-0.034
-602.113	-200.000	-0.009	0.089
-601.098	565.740	0.101	0.243
-600.084	202.292	-0.113	0.173
-599.069	663.685	0.045	-0.114
-598.055	-82.816	-0.085	0.027
-597.040	4.511	-0.246	-0.179
-596.025	-200.000	-0.020	0.107
-595.011	113.598	-0.102	0.123
-593.996	-65.221	0.020	0.008
-592.982	-200.000	-0.018	-0.200
-591.967	-113.250	0.196	-0.038
-590.952	193.432	-0.047	0.071
-589.938	356.815	-0.115	0.227
-588.923	-185.610	0.188	0.003
-587.909	-194.637	0.268	-0.002
-586.894	800.000	0.030	-0.083
-585.879	-181.192	-0.179	0.004
-584.865	163.612	-0.314	0.438
-583.850	60.981	-0.249	-0.245
-582.836	87.657	-0.298	0.327
-581.821	800.000	0.107	-0.316
-580.806	-59.533	0.166	0.071
-579.792	-15.609	0.178	0.113
-578.777	6.832	0.206	0.152
-577.763	84.326	0.149	-0.162
-576.748	-66.087	0.151	-0.060
-575.733	-34.951	0.163	0.089
-574.719	134.463	-0.074	-0.095
-573.704	-11.128	0.092	0.060
-572.690	-200.000	0.053	-0.357
-571.675	110.068	-0.064	0.076
-570.661	800.000	0.078	-0.256
-569.646	800.000	0.100	-0.289
-568.631	-200.000	-0.042	-0.206
-567.617	127.228	-0.163	-0.205
-566.602	-41.097	-0.192	0.098
-565.588	-125.245	-0.222	0.034
-564.573	155.670	-0.097	-0.133
-563.558	-97.781	0.193	-0.049
-562.544	-100.568	0.175	-0.043
-561.529	291.566	0.088	0.159
-560.515	800.000	0.093	-0.262
-559.500	-50.694	0.086	0.040
-558.485	-23.495	-0.286	0.171
-557.471	26.602	-0.071	0.059
-556.456	-49.463	-0.123	-0.058
-555.442	-54.737	-0.219	0.098
-554.427	-200.000	0.017	-0.078
-553.412	-200.000	-0.031	-0.138
-552.398	-172.034	-0.245	-0.008
-551.383	113.589	-0.228	0.274
-550.369	-73.252	0.210	-0.076
-549.354	-14.629	-0.196	-0.125
-548.339	800.000	-0.033	0.104
-547.325	-200.000	0.022	-0.323
-546.310	746.253	-0.167	0.445
-545.296	-49.665	-0.152	0.072
-544.281	-200.000	0.041	0.223
-543.266	-200.000	0.039	0.280
-542.252	-200.000	0.043	0.287
-541.237	127.367	-0.146	-0.184
-540.223	-68.193	-0.072	0.028
-539.208	-14.600	0.081	0.052
-538.193	-200.000	0.019	0.252
-537.179	-167.093	0.195	-0.008
-536.164	-147.828	-0.312	0.026
-535.150	-98.054	-0.189	0.048
-534.135	-200.000	0.022	-0.234
-533.121	126.660	-0.090	-0.113
-532.106	-121.224	0.235	0.039
-531.091	-200.000	-0.015	-0.192
-530.077	-55.329	-0.201	-0.089
-529.062	-172.151	-0.325	0.010
-528.048	456.005	0.174	-0.383
-527.033	-200.000	0.032	-0.184
-526.018	56.687	-0.059	-0.057
-525.004	-107.615	0.255	-0.055
-523.989	110.045	0.087	-0.104
-522.975	184.470	-0.299	-0.439
-521.960	84.519	-0.239	-0.259
-520.945	-68.485	0.174	0.067
-519.931	82.198	-0.082	-0.088
-518.916	-25.229	-0.225	0.132
-517.902	-104.944	0.157	-0.036
-516.887	800.000	0.072	-0.221
-515.872	162.152	-0.099	0.138
-514.858	417.786	-0.113	-0.240
-513.843	-88.676	0.148	-0.043
-512.829	-200.000	-0.043	0.300
-511.814	-96.316	0.235	-0.062
-510.799	-98.872	0.309	0.078
-509.785	-65.190	-0.220	-0.088
-508.770	70.127	0.093	0.095
-507.756	58.291	-0.278	-0.270
-506.741	-147.174	0.149	0.013
-505.726	-125.959	-0.076	-0.011
-504.712	800.000	-0.036	0.110
-503.697	63.575	0.087	-0.086
-502.683	-193.880	0.056	-0.000
-501.668	-28.548	0.169	0.096
-500.653	-91.592	-0.350	0.099
-499.639	208.104	0.228	0.353
-498.624	105.416	0.065	-0.076
-497.610	-32.643	-0.289	-0.159
-496.595	-128.802	0.151	0.021
-495.581	-165.934	0.242	0.010
-494.566	-144.913	-0.256	-0.023
-493.551	-180.710	-0.220	0.004
-492.537	-23.946	0.144	-0.085
-491.522	-200.000	0.065	-0.305
-490.508	36.483	0.169	0.148
-489.493	-53.392	-0.117	-0.053
-488.478	-200.000	0.031	0.175
-487.464	800.000	0.045	0.160
-486.449	50.324	0.239	0.223
-485.435	-200.000	-0.013	0.071
-484.420	569.011	-0.096	-0.231
-483.405	-29.097	-0.106	-0.060
-482.391	244.568	0.198	-0.328
-481.376	-174.281	0.114	-0.003
-480.362	19.093	-0.073	-0.058
-479.347	-76.348	-0.404	-0.141
-478.332	-200.000	-0.005	0.080
-477.318	800.000	-0.059	-0.169
-476.303	-73.218	-0.130	0.047
-475.289	-157.094	0.268	-0.016
-474.274	-200.000	-0.023	-0.126
-473.259	669.462	0.038	0.097
-472.245	800.000	-0.071	-0.220
-471.230	-90.487	0.307	0.088
-470.216	-200.000	0.021	-0.382
-469.201	64.176	0.023	-0.023
-468.186	-200.000	-0.058	0.302
-467.172	81.969	-0.180	-0.193
-466.157	-47.858	0.074	0.035
-465.143	-200.000	0.018	0.305
-464.128	-111.576	0.086	0.017
-463.113	-69.702	-0.212	0.080
-462.099	-31.124	-0.067	-0.037
-461.084	25.909	-0.147	0.121
-460.070	800.000	0.068	-0.263
-459.055	-140.442	0.275	-0.028
-458.040	-5.002	-0.336	-0.228
-457.026	89.450	-0.330	-0.363
-456.011	127.082	0.064	0.081
-454.997	-177.141	-0.253	-0.006
-453.982	285.132	0.034	-0.060
-452.968	800.000	0.025	0.070
-451.953	433.920	-0.082	-0.176
-450.938	-20.106	0.097	-0.059
-449.924	260.659	0.043	-0.073
-448.909	100.425	0.008	-0.009
-447.895	31.592	-0.184	-0.156
-446.880	-54.321	-0.226	-0.101
-445.865	-200.000	-0.006	0.258
-444.851	800.000	0.122	-0.380
-443.836	315.659	-0.139	-0.259
-442.822	-200.000	-0.057	0.347
-441.807	-200.000	-0.017	0.307
-440.792	-200.000	0.033	0.277
-439.778	-37.599	-0.035	-0.018
-438.763	-100.917	0.179	-0.043
-437.749	59.504	-0.105	0.102
-436.734	-200.000	0.015	-0.127
-435.719	155.673	-0.103	0.140
-434.705	106.151	0.098	0.114
-433.690	800.000	-0.121	0.401
-432.676	-72.654	0.292	-0.106
-431.661	-74.341	-0.106	0.038
-430.646	44.599	0.072	0.065
-429.632	800.000	0.055	0.183
-428.617	800.000	-0.100	0.331
-427.603	-200.000	-0.003	-0.075
-426.588	800.000	0.051	-0.142
-425.573	800.000	0.078	-0.219
-424.559	158.628	0.235	-0.321
-423.544	-200.000	0.007	0.046
-422.530	198.071	0.114	0.172
-421.515	-200.000	0.020	0.176
-420.500	-42.902	-0.147	0.074
-419.486	2.736	0.278	-0.199
-418.471	-200.000	0.032	0.149
-417.457	-200.000	-0.018	-0.152
-416.442	-94.070	-0.209	0.057
-415.428	-164.826	0.185	-0.008
-414.413	138.186	-0.045	0.059
-413.398	24.959	0.339	0.277
-412.384	-19.622	-0.271	0.165
-411.369	302.839	0.063	-0.115
-410.355	-71.901	0.342	-0.125
-409.340	-200.000	0.025	-0.235
-408.325	-47.252	0.199	0.096
-407.311	22.535	0.304	-0.246
-406.296	23.139	0.154	-0.125
-405.282	-69.411	-0.320	-0.121
-404.267	178.458	0.068	0.098
-403.252	-25.869	-0.097	-0.056
-402.238	-200.000	-0.009	-0.050
-401.223	-200.000	0.015	-0.095
-400.209	-47.294	0.325	0.156
-399.194	-59.996	-0.171	0.072
-398.179	800.000	-0.043	-0.143
-397.165	651.630	0.074	0.187
-396.150	-74.555	0.199	0.071
-395.136	44.000	-0.239	-0.216
-394.121	-96.570	0.165	-0.043
-393.106	-161.916	-0.307	-0.015
-392.092	800.000	0.072	-0.230
-391.077	-200.000	0.024	0.300
-390.063	164.162	-0.081	0.112
-389.048	800.000	0.018	-0.068
-388.033	-7.542	-0.141	-0.094
-387.019	-145.316	-0.144	-0.013
-386.004	-31.989	-0.174	0.096
-384.990	-184.453	-0.288	-0.005
-383.975	131.523	-0.181	0.229
-382.960	712.477	-0.013	-0.035
-381.946	-200.000	0.050	-0.289
-380.931	113.890	0.047	-0.056
-379.917	-78.370	-0.187	0.063
-378.902	-183.936	0.082	-0.001
-377.888	773.305	-0.076	0.205
-376.873	-13.949	0.094	-0.060
-375.858	-93.842	0.062	-0.017
-374.844	7.182	-0.211	0.155
-373.829	-32.622	-0.043	-0.023
-372.815	-42.280	-0.226	0.113
-371.800	-102.588	-0.303	0.071
-370.785	441.429	-0.051	0.110
-369.771	-179.892	0.295	0.006
-368.756	-98.212	-0.071	0.018
-367.742	-162.046	-0.087	0.004
-366.727	5.299	0.063	-0.046
-365.712	-109.199	-0.048	-0.010
-364.698	202.490	0.119	0.181
-363.683	-156.846	-0.118	-0.007
-362.669	121.400	-0.205	-0.252
-361.654	96.329	-0.187	0.211
-360.639	490.574	0.088	0.198
-359.625	-51.528	-0.171	-0.078
-358.610	66.409	0.061	-0.061
-357.596	-157.864	-0.079	0.005
-356.581	-87.089	-0.040	-0.012
-355.566	228.076	-0.108	-0.173
-354.552	29.390	-0.072	-0.060
-353.537	-200.000	0.007	0.172
-352.523	-200.000	0.012	0.089
-351.508	196.812	-0.146	-0.219
-350.493	800.000	-0.022	-0.084
-349.479	-151.674	-0.086	0.006
-348.464	94.774	-0.210	0.234
-347.450	555.219	0.063	-0.150
-346.435	800.000	-0.120	0.481
-345.420	-200.000	0.029	0.142
-344.406	-200.000	0.010	-0.131
-343.391	152.372	0.072	0.097
-342.377	-200.000	0.031	-0.258
-341.362	-52.519	-0.252	-0.114
-340.348	-200.000	0.005	-0.290
-339.333	-131.160	-0.150	0.020
-338.318	-130.542	-0.198	0.026
-337.304	-82.634	0.310	0.099
-336.289	800.000	-0.088	0.252
-335.275	-93.823	0.111	0.030
-334.260	-200.000	0.011	0.193
-333.245	-200.000	-0.057	0.385
-332.231	447.203	-0.096	-0.207
-331.216	-49.113	0.229	0.108
-330.202	-82.688	0.231	-0.074
-329.187	73.043	-0.162	0.167
-328.172	-42.882	0.412	0.206
-327.158	78.224	-0.328	-0.344
-326.143	-29.262	0.094	-0.053
-325.129	117.195	0.184	0.222
-324.114	574.282	-0.027	-0.065
-323.099	-103.562	-0.200	-0.046
-322.085	32.160	-0.019	0.016
-321.070	194.756	0.053	0.079
-320.056	42.321	0.326	0.292
-319.041	47.633	0.130	-0.119
-318.026	-97.138	-0.308	0.079
-317.012	-134.895	-0.150	0.018
-315.997	-200.000	0.448	0.001
-314.983	-93.818	-0.269	0.073
-313.968	-200.000	0.005	0.158
-312.953	321.489	0.053	-0.098
-311.939	29.853	0.081	0.068
-310.924	-200.000	0.003	-0.143
-309.910	-31.978	0.115	-0.063
-308.895	-106.274	-0.129	0.028
-307.880	-200.000	0.034	0.234
-306.866	800.000	0.024	0.091
-305.851	-200.000	-0.007	-0.471
-304.837	220.243	-0.051	0.080
-303.822	800.000	-0.051	0.185
-302.807	-103.675	0.403	-0.093
-301.793	178.084	-0.031	-0.045
-300.778	800.000	-0.043	-0.180
-299.764	-107.455	0.173	0.037
-298.749	-122.201	-0.113	-0.018
-297.735	-48.084	-0.148	0.070
-296.720	151.986	0.177	0.237
-295.705	-200.000	-0.028	0.138
-294.691	-200.000	-0.027	-0.208
-293.676	-135.496	0.247	0.029
-292.662	-43.865	-0.198	-0.098
-291.647	-200.000	0.016	-0.165
-290.632	800.000	0.032	-0.117
-289.618	91.043	0.182	-0.201
-288.603	122.735	-0.112	0.137
-287.589	-134.083	-0.159	-0.019
-286.574	100.400	-0.053	-0.061
-285.559	680.409	0.049	0.124
-284.545	-156.349	0.500	0.031
-283.530	317.050	-0.040	0.074
-282.516	215.933	0.055	0.086
-281.501	175.898	-0.099	-0.141
-280.486	-200.000	0.021	-0.109
-279.472	800.000	0.067	-0.278
-278.457	-58.024	-0.120	-0.051
-277.443	-156.391	0.235	-0.014
-276.428	-200.000	0.060	0.270
-275.413	1.880	-0.324	0.230
-274.399	-69.467	0.172	-0.065
-273.384	-129.606	-0.083	-0.011
-272.370	-58.071	0.289	-0.124
-271.355	800.000	-0.017	-0.062
-270.340	-95.242	0.155	-0.041
-269.326	-200.000	-0.028	-0.268
-268.311	389.960	0.096	0.194
-267.297	12.394	0.103	0.078
-266.282	278.839	-0.090	-0.158
-265.267	141.681	0.288	0.374
-264.253	-44.390	-0.263	-0.129
-263.238	-41.042	-0.447	-0.227
-262.224	545.029	0.083	-0.195
-261.209	36.694	0.337	0.292
-260.195	116.421	0.117	0.141
-259.180	38.488	0.185	-0.161
-258.165	1.764	0.063	-0.044
-257.151	-13.761	-0.046	-0.029
-256.136	-131.235	0.311	0.040
-255.122	-45.012	0.235	0.114
-254.107	-103.367	0.267	-0.062
-253.092	-200.000	-0.038	-0.246
-252.078	800.000	-0.217	0.706
-251.063	219.294	0.245	0.384
-250.049	-59.202	0.159	-0.067
-249.034	-103.182	-0.248	-0.057
-248.019	-97.073	0.187	-0.048
-247.005	27.944	-0.118	0.097
-245.990	51.006	-0.057	-0.053
-244.976	172.343	-0.204	0.287
-243.961	14.296	0.162	0.124
-242.946	-200.000	0.001	-0.171
-241.932	109.078	-0.154	-0.181
-240.917	-64.220	0.149	0.059
-239.903	-200.000	0.007	0.415
-238.888	95.328	-0.226	0.252
-237.873	-185.159	-0.321	0.005
-236.859	57.141	0.163	0.156
-235.844	-200.000	0.064	-0.442
-234.830	-63.478	-0.248	-0.100
-233.815	512.387	0.193	0.441
-232.800	169.337	0.188	0.263
-231.786	-200.000	0.025	-0.186
-230.771	-200.000	0.006	-0.165
-229.757	-22.854	0.125	0.074
-228.742	329.898	0.128	-0.241
-227.727	382.411	-0.126	-0.254
-226.713	-131.544	-0.474	-0.061
-225.698	-10.446	0.137	0.089
-224.684	-35.941	-0.102	0.054
-223.669	2.236	0.141	0.100
-222.655	244.174	0.092	0.151
-221.640	195.268	-0.190	0.283
-220.625	49.557	0.189	-0.174
-219.611	35.500	-0.131	-0.112
-218.596	-111.261	0.163	0.033
-217.582	90.464	0.387	0.424
-216.567	70.543	0.278	0.281
-215.552	-66.212	0.418	-0.163
-214.538	-67.039	-0.250	0.097
-213.523	-200.000	-0.033	-0.189
-212.509	-200.000	-0.005	-0.043
-211.494	-28.188	0.273	0.154
-210.479	-86.275	0.256	-0.077
-209.465	134.764	-0.096	-0.122
-208.450	157.489	-0.184	0.249
-207.436	71.866	0.087	0.088
-206.421	-2.947	-0.305	0.208
-205.406	-200.000	-0.016	-0.093
-204.392	267.668	0.145	-0.248
-203.377	132.123	0.143	-0.181
-202.363	-200.000	-0.036	-0.166
-201.348	-37.451	-0.111	0.058
-200.333	-200.000	-0.003	0.099
-199.319	-200.000	0.031	0.214
-198.304	-150.754	-0.215	0.016
-197.290	241.725	-0.163	-0.266
-196.275	-189.034	0.251	0.003
-195.260	-102.847	0.229	-0.053
-194.246	144.136	-0.039	0.051
-193.231	119.064	-0.122	0.147
-192.217	180.852	-0.214	-0.307
-191.202	33.362	0.246	-0.209
-190.187	-60.536	-0.123	-0.051
-189.173	800.000	0.023	0.074
-188.158	196.642	-0.228	0.339
-187.144	-151.048	-0.014	0.001
-186.129	29.421	0.442	-0.367
-185.114	643.491	0.051	-0.126
-184.100	-20.794	-0.288	0.172
-183.085	-20.249	0.083	-0.050
-182.071	-200.000	0.001	0.150
-181.056	127.327	0.154	0.191
-180.042	-200.000	-0.050	-0.259
-179.027	144.988	0.072	0.094
-178.012	540.940	0.063	-0.146
-176.998	-92.008	-0.236	-0.065
-175.983	110.278	-0.268	-0.314
-174.969	38.278	0.296	-0.257
-173.954	572.239	0.188	0.448
-172.939	-109.866	-0.267	0.055
-171.925	800.000	-0.062	-0.238
-170.910	0.825	0.138	-0.097
-169.896	800.000	0.089	0.263
-168.881	302.831	-0.173	0.313
-167.866	-200.000	0.046	-0.208
-166.852	-166.925	0.137	0.005
-165.837	3.947	0.313	0.223
-164.823	488.782	-0.128	0.286
-163.808	800.000	-0.066	-0.193
-162.793	-80.315	-0.267	-0.087
-161.779	-200.000	-0.021	0.344
-160.764	-200.000	-0.014	-0.206
-159.750	-148.514	0.221	-0.018
-158.735	168.043	-0.194	-0.270
-157.720	116.458	0.144	-0.173
-156.706	442.726	-0.109	0.234
-155.691	-200.000	-0.001	-0.097
-154.677	-54.084	-0.321	-0.143
-153.662	136.244	0.129	-0.165
-152.647	-37.504	-0.313	-0.163
-151.633	-154.209	-0.322	-0.021
-150.618	-80.297	0.034	0.011
-149.604	562.200	-0.098	0.231
-148.589	-39.256	0.290	0.149
-147.574	53.322	0.360	-0.337
-146.560	237.830	-0.093	-0.150
-145.545	800.000	-0.078	0.299
-144.531	-158.496	0.087	-0.005
-143.516	15.943	0.194	-0.149
-142.502	54.506	-0.075	-0.071
-141.487	5.857	0.337	0.244
-140.472	754.068	-0.096	0.252
-139.458	-52.522	0.179	0.081
-138.443	77.673	-0.079	-0.082
-137.429	-91.522	-0.200	0.056
-136.414	119.140	-0.054	0.065
-135.399	-49.275	0.047	-0.022
-134.385	613.441	0.063	0.154
-133.370	-200.000	-0.020	0.102
-132.356	380.573	0.074	0.149
-131.341	62.573	-0.077	0.075
-130.326	-200.000	0.015	0.092
-129.312	95.535	-0.116	-0.129
-128.297	131.098	-0.356	0.445
-127.283	-110.924	0.356	0.071
-126.268	-187.931	-0.070	-0.001
-125.253	-83.774	-0.127	0.039
-124.239	195.694	0.203	0.302
-123.224	710.423	0.049	0.125
-122.210	-200.000	0.004	0.102
-121.195	-200.000	-0.006	0.048
