DTS Sentinel unit serial number:	SN413079Multiplexer serial number:	ORYXHardware model number:	OX4-SRSoftware version number:	ORYX F/W v4.00 Oryx Data Collector v3.7.2.0data status	okinstallation	princeton_trtdifferential loss correction	single-endedforward channel	channel 2reverse channel	N/Adate	2019/09/12time	18:39:48forward acquisition time	15.00reverse acquisition time	0.00gamma	496.2192k internal	0.2324k external	0.2324temperature offset calibration	1.0134default loss term (dB/km)	0.3790temperature slope calibration	1.0000multiplexer offset coefficient	1.0000multiplexer slope coefficient	1.0000fibre end	0.00T internal ref (°C)	33.06T ext. ref 1 (°C)	2.96T ext. ref 2 (°C)	27.69length (m)	temperature (°C)	Stokes	anti-Stokes-747.200	629.053	0.074	0.189
-746.185	-200.000	-0.044	0.506
-745.171	-200.000	-0.021	1.008
-744.156	-200.000	-0.060	-0.629
-743.142	-200.000	-0.135	0.613
-742.127	-85.350	-0.412	-0.130
-741.112	800.000	-0.094	0.362
-740.098	16.611	0.466	0.372
-739.083	57.943	0.461	0.455
-738.069	-145.104	0.815	-0.075
-737.054	314.671	0.313	-0.596
-736.039	59.330	-0.223	-0.222
-735.025	-98.885	0.269	0.069
-734.010	62.997	-0.287	0.290
-732.996	-23.245	-0.391	0.238
-731.981	653.310	0.228	0.590
-730.966	-67.788	0.891	-0.351
-729.952	58.173	-0.190	0.187
-728.937	-81.506	0.421	0.140
-727.923	-40.252	-0.498	0.261
-726.908	-96.573	-0.458	0.122
-725.894	86.884	0.523	0.583
-724.879	-117.301	-0.352	-0.064
-723.864	-85.559	-1.092	0.343
-722.850	-89.646	0.214	0.063
-721.835	134.805	0.287	0.376
-720.821	-170.256	0.762	-0.027
-719.806	128.854	0.159	-0.205
-718.791	175.889	-0.497	0.728
-717.777	800.000	0.211	-0.831
-716.762	564.519	-0.167	0.407
-715.748	-200.000	0.046	0.477
-714.733	257.403	-0.382	0.663
-713.718	102.725	0.130	-0.153
-712.704	-123.427	0.619	-0.099
-711.689	238.277	-0.325	-0.544
-710.675	-108.924	-1.104	0.238
-709.660	-165.901	0.549	-0.024
-708.645	-102.273	-0.825	0.200
-707.631	-200.000	0.061	0.515
-706.616	800.000	0.257	-0.750
-705.602	89.607	-0.311	-0.350
-704.587	-48.707	0.576	-0.279
-703.572	2.077	-0.410	0.298
-702.558	-147.872	-0.500	-0.042
-701.543	385.120	0.101	0.209
-700.529	-99.786	0.914	-0.231
-699.514	800.000	0.189	0.598
-698.499	-200.000	-0.039	-0.434
-697.485	41.660	0.260	-0.238
-696.470	-0.808	-0.860	-0.614
-695.456	144.996	0.323	0.435
-694.441	47.745	0.558	0.525
-693.426	-200.000	0.044	-0.296
-692.412	-65.766	-0.532	-0.215
-691.397	-56.770	0.317	0.141
-690.383	162.805	-0.187	0.264
-689.368	201.639	-0.271	0.420
-688.354	-55.150	0.374	-0.170
-687.339	279.249	-0.383	0.689
-686.324	-68.045	0.868	0.341
-685.310	260.620	-0.483	0.841
-684.295	-41.539	-0.086	-0.045
-683.281	-27.612	-0.713	-0.417
-682.266	-53.806	0.237	0.109
-681.251	-114.537	-0.521	0.101
-680.237	-79.451	0.698	0.238
-679.222	-200.000	0.071	-0.900
-678.208	18.983	0.686	-0.554
-677.193	-106.124	-1.272	0.288
-676.178	-200.000	0.008	0.083
-675.164	-174.233	-0.465	-0.014
-674.149	-200.000	0.001	-0.085
-673.135	148.600	0.379	0.516
-672.120	243.590	0.308	0.521
-671.105	7.570	0.748	-0.563
-670.091	-200.000	-0.067	-0.650
-669.076	-200.000	-0.102	-0.627
-668.062	800.000	-0.102	-0.353
-667.047	-200.000	-0.066	0.689
-666.032	-200.000	-0.051	1.136
-665.018	153.794	0.529	0.729
-664.003	214.781	0.394	0.628
-662.989	-143.147	-0.716	0.069
-661.974	39.914	-0.353	-0.319
-660.959	-144.192	0.512	0.048
-659.945	-200.000	-0.023	-0.570
-658.930	179.796	0.554	0.817
-657.916	81.784	0.354	-0.385
-656.901	426.919	0.677	1.469
-655.886	466.496	0.278	0.628
-654.872	33.134	0.465	0.405
-653.857	337.607	-0.306	-0.599
-652.843	-63.210	0.855	0.355
-651.828	-35.275	0.448	-0.245
-650.814	-11.688	-0.406	-0.268
-649.799	-185.907	1.450	0.022
-648.784	-95.310	-0.442	0.120
-647.770	800.000	-0.195	0.750
-646.755	-200.000	-0.024	0.482
-645.741	800.000	0.049	0.195
-644.726	41.593	-0.559	-0.509
-643.711	-178.287	-0.857	-0.020
-642.697	174.240	-0.014	-0.020
-641.682	464.225	-0.277	0.622
-640.668	-200.000	-0.017	0.128
-639.653	306.697	0.273	0.510
-638.638	-35.374	-0.336	-0.184
-637.624	-45.417	-0.409	0.204
-636.609	31.570	-0.449	-0.388
-635.595	-20.040	0.273	-0.169
-634.580	-129.727	1.163	-0.161
-633.565	56.007	-0.514	-0.501
-632.551	-175.815	-0.100	-0.003
-631.536	800.000	-0.070	-0.249
-630.522	-7.490	-0.126	-0.085
-629.507	68.958	-0.101	0.104
-628.492	-82.772	-0.515	-0.167
-627.478	212.788	-0.219	-0.347
-626.463	800.000	0.154	0.665
-625.449	-7.012	-0.592	0.404
-624.434	532.734	0.339	0.805
-623.419	-37.274	-0.922	0.495
-622.405	257.612	-0.161	-0.279
-621.390	-64.878	0.292	0.119
-620.376	-103.987	-0.288	-0.068
-619.361	-200.000	-0.050	-0.424
-618.346	-200.000	-0.072	-0.363
-617.332	-14.533	-0.379	0.245
-616.317	-21.167	0.783	0.481
-615.303	268.830	0.442	0.779
-614.288	208.737	0.309	-0.485
-613.273	-131.506	-0.389	0.052
-612.259	-200.000	-0.005	-0.153
-611.244	-194.189	-1.092	-0.009
-610.230	114.646	-0.336	-0.411
-609.215	20.099	0.435	0.353
-608.201	-130.652	-0.899	-0.122
-607.186	-177.399	0.381	0.009
-606.171	800.000	0.153	-0.629
-605.157	-200.000	-0.001	-0.236
-604.142	-53.868	-1.042	0.477
-603.128	76.718	-0.592	-0.630
-602.113	-143.083	0.780	-0.076
-601.098	-137.263	0.489	-0.056
-600.084	254.773	-0.146	-0.252
-599.069	-160.340	0.474	-0.026
-598.055	235.789	-0.432	0.716
-597.040	94.149	-0.561	0.639
-596.025	-132.321	0.376	0.049
-595.011	800.000	0.123	-0.463
-593.996	713.631	-0.096	0.255
-592.982	288.928	-0.193	-0.351
-591.967	191.001	0.135	0.203
-590.952	-133.569	0.086	-0.011
-589.938	-15.798	-0.484	-0.310
-588.923	589.690	0.149	0.369
-587.909	161.368	-0.341	-0.479
-586.894	-60.890	-0.169	0.072
-585.879	64.041	-0.915	-0.923
-584.865	-199.224	0.573	-0.003
-583.850	-200.000	0.017	-0.170
-582.836	800.000	-0.113	-0.441
-581.821	261.075	0.597	1.037
-580.806	800.000	0.155	-0.510
-579.792	540.823	-0.132	-0.315
-578.777	765.923	-0.106	-0.289
-577.763	800.000	0.270	-0.898
-576.748	-200.000	0.097	-0.479
-575.733	-174.304	-0.081	-0.002
-574.719	443.856	-0.192	0.422
-573.704	-200.000	-0.029	0.163
-572.690	54.220	-0.512	0.494
-571.675	100.054	-0.217	0.252
-570.661	37.218	0.920	-0.817
-569.646	-143.173	-0.414	0.040
-568.631	-132.628	0.238	0.031
-567.617	14.224	0.843	0.658
-566.602	11.831	0.708	-0.546
-565.588	32.681	-0.443	-0.384
-564.573	664.883	0.083	0.214
-563.558	-102.249	0.330	0.080
-562.544	800.000	-0.058	-0.186
-561.529	454.089	0.387	0.858
-560.515	438.343	0.409	-0.895
-559.500	-48.450	1.068	-0.515
-558.485	-44.829	0.174	0.087
-557.471	268.119	0.090	-0.158
-556.456	-200.000	-0.018	0.706
-555.442	-84.861	-0.243	-0.076
-554.427	-42.606	-0.238	0.122
-553.412	800.000	0.131	0.487
-552.398	-17.686	0.522	0.328
-551.383	653.901	0.194	-0.499
-550.369	92.459	0.509	-0.575
-549.354	149.307	-0.373	-0.505
-548.339	-170.700	-0.491	0.017
-547.325	114.622	-0.634	-0.774
-546.310	105.461	-0.127	-0.150
-545.296	-47.242	0.723	-0.353
-544.281	800.000	0.207	0.610
-543.266	-85.741	0.596	0.185
-542.252	-200.000	0.109	0.689
-541.237	375.602	-0.080	-0.163
-540.223	800.000	-0.083	0.331
-539.208	82.137	0.197	0.214
-538.193	800.000	-0.107	-0.403
-537.179	-200.000	-0.037	0.205
-536.164	201.775	-0.209	-0.322
-535.150	81.128	-0.083	-0.089
-534.135	-73.179	-0.431	-0.158
-533.121	236.990	0.210	-0.348
-532.106	-108.553	-0.646	0.139
-531.091	10.904	0.203	0.155
-530.077	-200.000	-0.074	-0.575
-529.062	782.551	0.287	0.788
-528.048	167.120	0.272	0.387
-527.033	-14.542	0.614	-0.395
-526.018	-175.621	-0.360	0.010
-525.004	-142.747	0.163	0.016
-523.989	-145.357	0.169	0.015
-522.975	59.785	-0.195	0.192
-521.960	317.594	-0.150	0.284
-520.945	-50.420	-0.440	-0.208
-519.931	-200.000	0.156	-1.052
-518.916	10.221	-0.314	-0.239
-517.902	-89.489	-0.416	-0.122
-516.887	800.000	0.004	0.015
-515.872	-60.474	-0.428	0.182
-514.858	176.897	0.225	0.327
-513.843	-44.140	0.317	0.159
-512.829	59.677	-0.401	-0.396
-511.814	44.262	-0.347	0.319
-510.799	800.000	-0.134	0.561
-509.785	91.754	0.787	0.885
-508.770	-80.190	0.996	0.334
-507.756	-127.099	0.750	0.110
-506.741	433.973	-0.322	-0.700
-505.726	33.626	0.406	0.353
-504.712	67.612	-0.458	0.468
-503.697	-108.752	-0.571	-0.122
-502.683	11.604	-0.067	-0.051
-501.668	168.632	-0.419	-0.596
-500.653	236.623	-0.367	0.608
-499.639	19.201	-0.130	-0.104
-498.624	-33.322	-0.517	0.286
-497.610	116.195	0.312	-0.382
-496.595	279.105	-0.054	0.096
-495.581	-67.572	0.372	0.146
-494.566	543.915	0.208	-0.496
-493.551	800.000	-0.177	0.692
-492.537	-52.828	0.521	0.240
-491.522	186.229	0.422	0.627
-490.508	-128.417	1.087	-0.154
-489.493	800.000	0.263	-1.102
-488.478	519.822	-0.124	-0.290
-487.464	800.000	0.173	0.496
-486.449	4.616	-0.354	-0.260
-485.435	-189.200	0.961	-0.011
-484.420	199.342	0.262	-0.401
-483.405	-200.000	0.096	-0.426
-482.391	16.033	-0.926	0.729
-481.376	-200.000	0.019	-0.370
-480.362	148.027	0.191	-0.258
-479.347	-22.148	-0.173	-0.105
-478.332	-16.240	0.686	-0.435
-477.318	108.106	-0.153	0.182
-476.303	82.627	-0.110	0.119
-475.289	44.909	-0.127	-0.117
-474.274	-76.480	-0.808	0.284
-473.259	-109.550	-0.425	-0.090
-472.245	-94.288	-0.483	-0.132
-471.230	167.696	0.259	-0.368
-470.216	-200.000	0.085	-0.372
-469.201	800.000	0.130	-0.362
-468.186	800.000	0.193	0.543
-467.172	47.945	-0.762	0.711
-466.157	-158.689	1.195	-0.068
-465.143	-200.000	-0.073	0.619
-464.128	300.669	-0.341	0.628
-463.113	-90.660	0.330	0.095
-462.099	-37.715	-0.689	0.366
-461.084	-58.520	0.225	0.097
-460.070	800.000	-0.119	0.485
-459.055	-200.000	0.079	-0.349
-458.040	-89.270	0.371	0.109
-457.026	290.704	-0.124	0.225
-456.011	-111.273	0.811	0.165
-454.997	-70.558	0.503	-0.190
-453.982	105.072	-0.412	-0.485
-452.968	-200.000	0.065	-0.335
-451.953	-200.000	-0.181	0.889
-450.938	-90.722	-0.301	0.087
-449.924	-86.290	0.447	0.137
-448.909	-200.000	-0.032	0.443
-447.895	-107.170	0.127	-0.028
-446.880	800.000	-0.157	-0.635
-445.865	-100.181	-0.953	-0.237
-444.851	735.403	0.192	0.512
-443.836	416.292	-0.418	-0.891
-442.822	-118.589	-0.666	0.117
-441.807	-200.000	0.404	-0.000
-440.792	31.961	-0.808	0.695
-439.778	800.000	0.167	0.495
-438.763	-55.733	-0.598	0.267
-437.749	124.383	0.199	0.250
-436.734	-44.589	0.512	0.255
-435.719	800.000	0.167	-0.488
-434.705	223.174	0.413	-0.665
-433.690	109.862	0.068	-0.081
-432.676	-134.610	0.551	0.067
-431.661	16.893	-0.482	-0.381
-430.646	29.097	-0.456	-0.386
-429.632	-200.000	0.017	0.677
-428.617	262.891	0.366	0.633
-427.603	-32.450	-1.405	-0.781
-426.588	-29.798	0.470	0.267
-425.573	90.328	-0.457	0.510
-424.559	45.212	0.196	0.180
-423.544	196.513	-0.332	-0.505
-422.530	276.933	-0.342	-0.606
-421.515	-17.573	-0.883	-0.554
-420.500	-116.152	-0.346	0.064
-419.486	-134.097	-0.989	-0.122
-418.471	-81.223	0.056	0.018
-417.457	110.252	0.155	-0.186
-416.442	-200.000	-0.145	0.934
-415.428	-200.000	0.149	0.749
-414.413	107.357	-0.144	-0.170
-413.398	-17.316	0.773	-0.486
-412.384	800.000	-0.142	0.521
-411.369	421.094	-0.143	-0.306
-410.355	-117.043	-0.530	-0.096
-409.340	170.137	-0.227	0.323
-408.325	-16.011	-0.226	0.143
-407.311	-200.000	0.044	-0.569
-406.296	-50.276	0.606	0.285
-405.282	274.951	0.299	-0.527
-404.267	800.000	0.106	0.341
-403.252	59.257	-0.077	0.075
-402.238	24.359	-0.502	-0.413
-401.223	32.205	-0.533	0.458
-400.209	-140.032	-0.496	-0.052
-399.194	800.000	-0.063	0.255
-398.179	75.636	0.342	0.360
-397.165	669.162	-0.058	0.150
-396.150	-200.000	0.004	-0.235
-395.136	52.013	-0.214	-0.203
-394.121	226.861	-0.298	0.483
-393.106	-146.471	0.496	-0.043
-392.092	139.008	0.567	-0.742
-391.077	800.000	0.235	-0.911
-390.063	292.151	-0.304	0.552
-389.048	-132.704	0.769	-0.098
-388.033	-52.106	0.350	0.162
-387.019	-33.989	0.912	-0.500
-386.004	145.463	-0.209	-0.278
-384.990	-200.000	0.044	0.226
-383.975	479.162	0.189	-0.427
-382.960	-88.018	-0.610	-0.182
-381.946	-200.000	-0.147	-0.752
-380.931	-113.981	-0.470	0.091
-379.917	49.865	-0.263	0.247
-378.902	800.000	0.264	1.128
-377.888	728.815	0.277	-0.737
-376.873	800.000	-0.148	-0.464
-375.858	9.743	0.656	-0.495
-374.844	111.410	0.591	-0.709
-373.829	800.000	-0.069	-0.280
-372.815	167.694	0.205	-0.290
-371.800	-172.631	-0.052	-0.002
-370.785	800.000	0.204	0.646
-369.771	-79.655	0.688	-0.231
-368.756	800.000	0.019	-0.069
-367.742	488.401	0.125	0.284
-366.727	-152.779	0.740	0.052
-365.712	-52.043	0.825	-0.381
-364.698	41.297	-0.462	-0.416
-363.683	800.000	-0.169	-0.661
-362.669	-200.000	0.008	0.050
-361.654	-156.654	-0.644	0.040
-360.639	-200.000	0.064	0.580
-359.625	-115.071	0.596	0.112
-358.610	-108.076	0.325	0.070
-357.596	-75.952	0.833	0.293
-356.581	35.157	0.196	-0.171
-355.566	-46.825	-1.001	-0.487
-354.552	-200.000	-0.043	-0.435
-353.537	258.194	-0.182	-0.312
-352.523	-103.595	-0.627	-0.146
-351.508	-162.074	-0.364	-0.018
-350.493	221.306	-0.644	-1.028
-349.479	-23.974	-0.556	-0.330
-348.464	399.823	-0.252	0.524
-347.450	-200.000	0.048	-0.300
-346.435	45.598	-0.146	-0.134
-345.420	38.518	0.493	-0.437
-344.406	-120.088	-1.124	-0.191
-343.391	800.000	-0.080	-0.236
-342.377	-82.795	-0.271	-0.087
-341.362	-137.364	0.385	-0.043
-340.348	-44.704	0.574	0.285
-339.333	-107.973	-0.595	0.128
-338.318	590.840	0.296	0.726
-337.304	-107.076	0.693	0.152
-336.289	-200.000	0.072	0.530
-335.275	-21.093	-0.276	0.168
-334.260	-67.313	-1.068	0.417
-333.245	-124.580	-0.668	0.103
-332.231	-200.000	-0.060	0.402
-331.216	24.422	-0.423	0.347
-330.202	-5.316	0.818	0.558
-329.187	800.000	0.129	-0.360
-328.172	-93.679	-1.170	-0.321
-327.158	139.063	-0.931	1.216
-326.143	-92.111	-0.517	0.145
-325.129	84.616	0.633	-0.688
-324.114	-200.000	0.018	-0.097
-323.099	-78.002	-0.219	-0.075
-322.085	-200.000	-0.029	0.631
-321.070	-99.756	0.604	0.150
-320.056	11.278	0.123	-0.093
-319.041	800.000	-0.234	-0.938
-318.026	-14.879	0.569	0.362
-317.012	-80.547	0.893	0.295
-315.997	147.770	0.286	0.383
-314.983	-128.788	-0.886	-0.124
-313.968	-13.591	-0.469	0.301
-312.953	-31.735	0.618	-0.344
-311.939	485.854	0.003	-0.007
-310.924	87.705	0.249	0.274
-309.910	-140.053	0.637	-0.067
-308.895	343.666	-0.329	-0.640
-307.880	155.735	-0.195	-0.267
-306.866	57.655	0.383	0.371
-305.851	50.709	-0.497	0.467
-304.837	-4.931	0.358	0.245
-303.822	99.729	-0.512	0.589
-302.807	75.377	-0.570	-0.596
-301.793	-200.000	-0.023	-0.110
-300.778	-74.690	0.118	0.042
-299.764	-148.949	1.122	0.090
-298.749	-10.314	-0.276	-0.181
-297.735	484.403	-0.171	-0.385
-296.720	137.988	0.373	-0.485
-295.705	-193.712	1.113	-0.009
-294.691	-0.750	0.419	0.294
-293.676	-25.813	1.117	-0.653
-292.662	-45.776	0.567	-0.278
-291.647	26.840	-0.528	0.439
-290.632	349.283	-0.201	0.394
-289.618	36.114	0.490	-0.428
-288.603	-151.666	0.576	0.042
-287.589	244.142	-0.181	0.301
-286.574	-59.678	-0.427	-0.182
-285.559	800.000	-0.002	-0.007
-284.545	-120.132	0.441	-0.075
-283.530	34.553	-0.053	-0.046
-282.516	-116.122	-0.299	-0.055
-281.501	736.856	-0.345	-0.917
-280.486	-200.000	-0.052	-0.558
-279.472	-62.260	0.160	0.066
-278.457	-4.657	0.454	-0.310
-277.443	-74.982	0.153	-0.054
-276.428	-200.000	-0.175	0.784
-275.413	181.238	0.249	0.363
-274.399	253.888	-0.087	0.147
-273.384	82.914	-0.211	-0.227
-272.370	-200.000	-0.050	-0.355
-271.355	-51.593	0.293	-0.135
-270.340	-200.000	0.022	-0.520
-269.326	-200.000	0.087	0.672
-268.311	-97.935	-0.190	-0.048
-267.297	-200.000	-0.255	-1.181
-266.282	-120.989	-0.207	0.034
-265.267	-19.729	-0.704	0.431
-264.253	169.046	-0.104	-0.147
-263.238	-15.178	-0.624	0.396
-262.224	16.754	0.297	-0.233
-261.209	-114.742	0.862	-0.163
-260.195	-155.834	-0.612	-0.039
-259.180	316.506	-0.211	-0.395
-258.165	-107.325	-0.170	0.037
-257.151	-75.156	0.366	0.130
-256.136	24.223	-0.433	-0.354
-255.122	-27.226	0.288	-0.166
-254.107	-88.113	-0.192	0.057
-253.092	-200.000	0.118	1.248
-252.078	-124.281	-0.637	0.099
-251.063	314.152	-0.200	-0.373
-250.049	-200.000	-0.188	0.915
-249.034	451.344	0.298	0.651
-248.019	-155.112	1.268	0.082
-247.005	800.000	0.047	-0.160
-245.990	800.000	0.065	-0.220
-244.976	-18.719	0.109	-0.067
-243.961	233.771	-0.121	0.197
-242.946	-200.000	-0.034	0.715
-241.932	216.884	-0.370	-0.583
-240.917	-55.836	0.427	-0.189
-239.903	-122.354	-0.881	0.142
-238.888	-200.000	-0.099	-0.936
-237.873	-184.254	0.542	-0.009
-236.859	482.994	0.413	0.930
-235.844	-162.519	0.627	0.031
-234.830	13.313	0.270	0.207
-233.815	-121.367	0.253	0.042
-232.800	-133.751	-0.246	-0.030
-231.786	-105.141	0.965	0.218
-230.771	-200.000	0.077	-0.601
-229.757	-113.373	-0.397	-0.077
-228.742	114.285	0.363	-0.437
-227.727	-60.843	-0.786	-0.329
-226.713	-57.001	-0.807	-0.352
-225.698	-9.607	-0.368	-0.243
-224.684	196.969	-0.242	0.365
-223.669	-5.859	-0.270	0.183
-222.655	22.529	0.498	-0.403
-221.640	-133.280	-0.132	0.017
-220.625	-200.000	0.008	0.255
-219.611	-123.490	0.936	0.147
-218.596	-69.126	-0.192	0.073
-217.582	91.646	-0.557	0.620
-216.567	800.000	0.226	0.966
-215.552	202.672	0.223	-0.340
-214.538	-150.938	-0.489	-0.037
-213.523	-103.414	0.487	0.113
-212.509	-200.000	-0.020	0.274
-211.494	157.838	-0.343	-0.470
-210.479	126.068	0.332	0.415
-209.465	-103.061	-0.449	0.105
-208.450	18.439	0.142	-0.112
-207.436	98.088	-0.320	0.364
-206.421	-200.000	-0.003	-0.023
-205.406	45.451	0.355	-0.324
-204.392	9.746	0.515	0.386
-203.377	-200.000	-0.036	-0.503
-202.363	800.000	-0.075	-0.226
-201.348	800.000	0.230	-0.896
-200.333	12.777	-0.328	0.251
-199.319	-64.435	0.364	0.146
-198.304	-195.203	-0.670	0.005
-197.290	-65.266	0.174	0.069
-196.275	-200.000	0.018	0.259
-195.260	-75.683	0.888	0.312
-194.246	-161.060	-0.203	-0.010
-193.231	800.000	0.161	-0.452
-192.217	-200.000	0.027	-0.636
-191.202	-200.000	0.017	1.138
-190.187	-62.820	0.417	-0.171
-189.173	-56.341	-0.216	0.095
-188.158	-200.000	0.017	0.249
-187.144	-124.017	-0.372	0.058
-186.129	103.802	0.483	-0.560
-185.114	-83.719	-1.202	0.379
-184.100	800.000	0.076	-0.300
-183.085	-14.539	0.489	0.311
-182.071	-32.632	-0.720	-0.396
-181.056	-81.346	0.450	-0.147
-180.042	-200.000	0.018	0.913
-179.027	336.863	0.275	0.527
-178.012	396.052	0.153	-0.315
-176.998	800.000	-0.433	1.202
-175.983	-200.000	0.105	1.393
-174.969	-30.104	-0.176	0.099
-173.954	0.585	0.239	-0.169
-172.939	800.000	-0.041	-0.161
-171.925	141.813	0.339	-0.443
-170.910	409.640	-0.259	0.541
-169.896	-48.099	0.452	-0.216
-168.881	-14.107	-0.377	0.240
-167.866	-184.133	0.277	0.005
-166.852	359.046	0.127	-0.251
-165.837	366.867	-0.316	-0.630
-164.823	143.756	0.164	-0.215
-163.808	-8.412	0.267	-0.177
-162.793	93.964	0.433	-0.485
-161.779	48.444	0.153	0.141
-160.764	572.218	-0.223	0.536
-159.750	320.821	-0.186	-0.349
-158.735	181.798	-0.307	-0.445
-157.720	-65.613	-0.287	0.114
-156.706	800.000	0.353	1.119
-155.691	-76.809	-0.024	-0.008
-154.677	-200.000	0.035	-0.233
-153.662	550.824	0.196	-0.463
-152.647	-172.312	-0.129	0.004
-151.633	32.022	0.567	0.482
-150.618	391.788	0.253	-0.519
-149.604	-112.884	0.575	-0.112
-148.589	800.000	0.236	-0.795
-147.574	-120.315	0.455	-0.076
-146.560	196.313	-0.291	-0.436
-145.545	-200.000	0.044	-0.710
-144.531	2.019	-0.548	0.390
-143.516	-140.426	-0.572	-0.059
-142.502	14.953	-0.722	-0.557
-141.487	122.269	0.294	0.362
-140.472	-200.000	-0.022	0.167
-139.458	-129.161	-0.338	0.047
-138.443	-136.164	0.453	0.052
-137.429	-51.250	0.633	0.292
-136.414	108.229	0.240	0.282
-135.399	-200.000	-0.065	0.578
-134.385	-90.541	0.469	0.134
-133.370	-37.119	0.510	-0.269
-132.356	-200.000	-0.167	-1.450
-131.341	159.362	0.189	0.260
-130.326	800.000	0.192	0.676
-129.312	297.198	0.128	0.231
-128.297	-200.000	-0.019	-0.149
-127.283	20.488	-0.308	0.245
-126.268	-91.507	-0.178	0.050
-125.253	164.202	-0.274	0.381
-124.239	118.198	-0.162	0.197
-123.224	-10.739	-0.138	-0.090
-122.210	332.424	-0.124	0.236
-121.195	167.248	0.460	0.643
