DTS Sentinel unit serial number:	SN413079Multiplexer serial number:	ORYXHardware model number:	OX4-SRSoftware version number:	ORYX F/W v4.00 Oryx Data Collector v3.7.2.0data status	okinstallation	princeton_trtdifferential loss correction	single-endedforward channel	channel 2reverse channel	N/Adate	2019/09/11time	07:33:10forward acquisition time	60.00reverse acquisition time	0.00gamma	496.2192k internal	0.2326k external	0.2326temperature offset calibration	0.9940default loss term (dB/km)	0.3790temperature slope calibration	1.0000multiplexer offset coefficient	1.0000multiplexer slope coefficient	1.0000fibre end	0.00T internal ref (°C)	31.19T ext. ref 1 (°C)	-0.04T ext. ref 2 (°C)	27.58length (m)	temperature (°C)	Stokes	anti-Stokes-747.200	-60.573	-0.310	-0.133
-746.185	-200.000	-0.015	0.385
-745.171	57.488	-0.283	0.279
-744.156	153.063	-0.203	0.280
-743.142	-200.000	-0.021	0.230
-742.127	-200.000	0.030	0.275
-741.112	0.754	-0.231	0.167
-740.098	-95.844	-0.117	-0.031
-739.083	78.952	0.166	-0.180
-738.069	-68.144	-0.619	0.243
-737.054	-50.050	-0.223	-0.106
-736.039	-0.477	-0.034	-0.024
-735.025	-143.134	0.229	0.022
-734.010	18.844	0.087	0.070
-732.996	63.215	-0.128	0.130
-731.981	-104.063	-0.352	-0.083
-730.966	-93.292	-0.209	-0.059
-729.952	-134.370	-0.229	-0.028
-728.937	-27.215	-0.203	-0.119
-727.923	-78.782	-0.363	0.125
-726.908	-148.332	0.346	-0.029
-725.894	181.860	-0.233	-0.346
-724.879	161.777	0.159	-0.224
-723.864	-21.780	-0.286	-0.175
-722.850	800.000	0.004	-0.013
-721.835	-116.381	0.217	0.040
-720.821	86.619	0.114	-0.127
-719.806	-150.879	-0.021	-0.002
-718.791	-166.107	0.257	-0.011
-717.777	15.577	0.181	-0.143
-716.762	-33.613	0.140	-0.078
-715.748	207.567	0.201	0.316
-714.733	24.410	0.267	0.223
-713.718	-60.049	0.209	-0.090
-712.704	119.013	-0.120	-0.150
-711.689	126.906	-0.192	0.245
-710.675	79.209	0.110	0.119
-709.660	289.436	-0.243	0.444
-708.645	220.388	-0.028	-0.045
-707.631	-45.702	-0.119	0.059
-706.616	419.548	0.081	0.174
-705.602	390.201	-0.074	0.155
-704.587	-86.488	0.291	-0.090
-703.572	-200.000	-0.014	-0.163
-702.558	87.201	-0.088	0.098
-701.543	-47.360	-0.083	0.041
-700.529	96.072	-0.094	0.109
-699.514	-142.988	0.236	0.023
-698.499	-162.661	-0.351	-0.017
-697.485	-52.281	0.217	0.101
-696.470	-87.948	-0.095	0.029
-695.456	551.927	-0.150	0.362
-694.441	-83.815	-0.081	-0.026
-693.426	-38.923	-0.391	0.207
-692.412	-200.000	-0.020	-0.138
-691.397	-106.416	0.170	0.038
-690.383	-200.000	-0.002	0.062
-689.368	664.314	-0.129	0.334
-688.354	-40.898	0.246	-0.128
-687.339	363.962	-0.150	-0.304
-686.324	-96.155	0.096	-0.026
-685.310	-200.000	0.030	-0.327
-684.295	18.912	-0.252	0.203
-683.281	-132.020	0.051	0.007
-682.266	-200.000	0.035	0.215
-681.251	-51.419	-0.059	-0.028
-680.237	-112.388	-0.130	0.026
-679.222	-60.610	0.191	0.081
-678.208	239.333	-0.180	0.301
-677.193	-143.684	0.149	0.014
-676.178	234.483	-0.149	-0.247
-675.164	-200.000	0.063	-0.325
-674.149	586.549	-0.089	-0.219
-673.135	-82.543	-0.119	0.039
-672.120	-200.000	-0.011	-0.366
-671.105	-116.273	0.419	0.078
-670.091	-8.185	0.329	-0.223
-669.076	800.000	0.066	-0.239
-668.062	306.941	-0.243	-0.454
-667.047	-150.074	-0.603	-0.047
-666.032	-35.841	-0.323	-0.176
-665.018	-200.000	-0.037	0.204
-664.003	-200.000	0.016	-0.239
-662.989	251.824	-0.077	0.131
-661.974	188.587	-0.248	0.373
-660.959	-160.045	-0.230	-0.013
-659.945	-200.000	0.041	0.258
-658.930	394.669	-0.079	-0.166
-657.916	800.000	0.012	0.038
-656.901	-74.937	-0.173	-0.062
-655.886	28.424	-0.289	0.246
-654.872	800.000	-0.073	0.309
-653.857	-200.000	-0.013	-0.245
-652.843	157.363	0.192	-0.267
-651.828	-10.736	0.178	-0.118
-650.814	57.349	0.214	0.210
-649.799	-139.382	0.145	-0.016
-648.784	-200.000	-0.006	-0.110
-647.770	41.711	0.174	-0.158
-646.755	-38.981	-0.125	0.066
-645.741	-61.121	0.262	0.111
-644.726	-60.425	-0.201	0.086
-643.711	-200.000	-0.074	0.491
-642.697	148.177	-0.019	0.025
-641.682	-143.874	0.222	-0.021
-640.668	64.030	-0.096	0.097
-639.653	-150.434	0.159	0.012
-638.638	-58.796	-0.176	-0.076
-637.624	-200.000	0.081	-0.469
-636.609	226.164	0.122	-0.198
-635.595	800.000	0.072	0.233
-634.580	-75.243	0.290	0.104
-633.565	157.019	-0.188	0.261
-632.551	-74.000	-0.444	-0.162
-631.536	-73.252	0.200	-0.073
-630.522	328.651	-0.129	0.249
-629.507	93.110	0.081	-0.092
-628.492	-200.000	0.048	0.606
-627.478	-5.489	0.156	0.108
-626.463	-0.778	-0.245	-0.174
-625.449	45.625	0.141	-0.131
-624.434	-33.589	-0.363	-0.201
-623.419	-28.125	-0.184	0.107
-622.405	190.300	0.186	0.280
-621.390	-65.934	0.125	-0.050
-620.376	233.215	0.154	0.253
-619.361	-200.000	0.003	0.108
-618.346	-66.764	0.324	-0.129
-617.332	210.131	-0.142	-0.224
-616.317	-200.000	0.028	-0.285
-615.303	179.163	-0.056	0.082
-614.288	67.209	-0.222	0.227
-613.273	-21.580	0.113	0.069
-612.259	-79.442	0.192	-0.065
-611.244	-200.000	-0.016	-0.237
-610.230	-200.000	-0.053	-0.235
-609.215	-200.000	-0.028	-0.179
-608.201	-154.548	0.237	-0.016
-607.186	-116.468	0.147	0.027
-606.171	85.517	-0.136	-0.150
-605.157	478.232	0.026	0.058
-604.142	-62.115	0.287	-0.120
-603.128	-87.769	0.117	-0.035
-602.113	159.310	0.180	-0.251
-601.098	800.000	-0.018	0.069
-600.084	319.372	0.139	0.264
-599.069	-200.000	-0.014	-0.071
-598.055	166.864	0.073	-0.105
-597.040	-200.000	-0.020	-0.118
-596.025	-33.079	-0.115	0.064
-595.011	-173.393	0.190	0.006
-593.996	-200.000	-0.012	-0.147
-592.982	72.143	0.166	-0.173
-591.967	-112.915	0.238	0.047
-590.952	-134.021	-0.123	-0.015
-589.938	-106.434	-0.385	0.086
-588.923	-6.312	0.176	0.120
-587.909	-38.011	-0.301	-0.160
-586.894	565.092	0.044	-0.107
-585.879	-125.206	-0.395	-0.061
-584.865	398.636	-0.091	0.190
-583.850	118.313	-0.175	-0.216
-582.836	-173.110	0.102	-0.003
-581.821	-81.589	0.050	0.016
-580.806	318.307	0.171	0.324
-579.792	-86.474	0.229	0.071
-578.777	-125.036	-0.035	0.005
-577.763	85.959	0.096	-0.106
-576.748	14.026	0.113	0.088
-575.733	-44.986	-0.330	0.164
-574.719	-200.000	-0.017	-0.143
-573.704	-200.000	0.046	-0.280
-572.690	118.595	-0.102	0.126
-571.675	800.000	0.092	-0.341
-570.661	800.000	0.048	0.134
-569.646	378.300	-0.042	-0.086
-568.631	-118.377	-0.327	0.058
-567.617	77.032	0.217	-0.230
-566.602	-65.669	0.130	0.052
-565.588	-200.000	0.023	0.184
-564.573	-154.143	-0.271	-0.018
-563.558	367.060	-0.098	0.198
-562.544	800.000	-0.039	-0.109
-561.529	-140.316	-0.286	-0.030
-560.515	267.886	0.004	0.007
-559.500	13.311	-0.139	-0.108
-558.485	800.000	-0.067	0.245
-557.471	85.265	-0.151	0.166
-556.456	582.460	-0.027	0.067
-555.442	377.642	-0.039	0.079
-554.427	800.000	0.024	-0.067
-553.412	-123.920	-0.270	-0.043
-552.398	-153.338	-0.126	-0.009
-551.383	-159.396	-0.116	-0.007
-550.369	565.224	-0.066	0.159
-549.354	800.000	0.026	-0.110
-548.339	25.334	-0.276	0.230
-547.325	100.140	-0.177	0.205
-546.310	-158.463	-0.117	0.007
-545.296	-13.124	-0.217	-0.141
-544.281	621.292	-0.073	-0.184
-543.266	234.857	0.153	0.252
-542.252	-158.029	-0.018	-0.001
-541.237	27.724	0.093	-0.078
-540.223	-36.325	-0.147	0.079
-539.208	87.310	0.156	-0.173
-538.193	-154.431	0.334	-0.022
-537.179	-69.460	0.082	0.031
-536.164	70.052	-0.187	0.193
-535.150	800.000	0.045	0.158
-534.135	-17.610	0.247	-0.155
-533.121	78.547	-0.190	-0.203
-532.106	-17.152	-0.131	0.083
-531.091	-65.637	-0.067	-0.027
-530.077	-153.604	-0.139	0.010
-529.062	-166.924	0.098	0.004
-528.048	-101.790	-0.308	-0.075
-527.033	-200.000	-0.030	0.363
-526.018	800.000	-0.075	-0.307
-525.004	-151.630	0.249	0.018
-523.989	800.000	-0.037	-0.129
-522.975	95.156	-0.093	-0.106
-521.960	-200.000	-0.040	-0.197
-520.945	-29.951	-0.403	-0.230
-519.931	153.147	0.148	0.202
-518.916	-200.000	-0.023	0.199
-517.902	-200.000	-0.029	0.132
-516.887	235.906	0.090	-0.148
-515.872	-200.000	0.019	-0.319
-514.858	800.000	-0.067	-0.269
-513.843	52.765	-0.240	0.229
-512.829	-200.000	-0.052	-0.455
-511.814	-138.634	0.160	-0.018
-510.799	-99.715	-0.153	0.038
-509.785	-81.295	-0.381	0.126
-508.770	-160.280	-0.148	-0.008
-507.756	-94.192	-0.059	0.016
-506.741	-200.000	0.011	0.103
-505.726	132.204	0.173	-0.223
-504.712	452.186	-0.095	0.210
-503.697	513.468	-0.199	0.463
-502.683	36.956	-0.267	0.236
-501.668	270.680	0.113	0.199
-500.653	-48.099	-0.208	-0.100
-499.639	-200.000	-0.003	-0.063
-498.624	-124.492	0.151	0.023
-497.610	800.000	-0.084	0.368
-496.595	-163.830	-0.295	-0.014
-495.581	232.704	-0.250	-0.411
-494.566	64.628	0.175	-0.176
-493.551	-76.468	0.101	-0.036
-492.537	108.076	-0.128	-0.152
-491.522	-85.524	0.375	0.117
-490.508	91.321	0.123	0.138
-489.493	-86.179	0.149	-0.046
-488.478	800.000	-0.066	-0.182
-487.464	-113.272	0.103	0.020
-486.449	-128.756	0.449	0.063
-485.435	800.000	0.049	-0.191
-484.420	-44.165	-0.139	0.070
-483.405	-80.034	0.227	-0.076
-482.391	186.425	0.142	0.211
-481.376	800.000	0.028	0.093
-480.362	53.618	-0.209	0.201
-479.347	-138.212	-0.028	-0.003
-478.332	-69.721	-0.185	-0.071
-477.318	800.000	-0.043	-0.120
-476.303	-86.023	-0.164	-0.051
-475.289	-181.965	-0.218	0.004
-474.274	11.960	0.286	-0.219
-473.259	-30.519	0.106	-0.060
-472.245	-14.784	-0.162	-0.104
-471.230	84.000	-0.100	-0.108
-470.216	373.781	-0.143	0.290
-469.201	27.037	-0.049	0.041
-468.186	-200.000	-0.026	0.131
-467.172	-200.000	-0.020	-0.303
-466.157	-19.650	0.258	0.159
-465.143	-18.642	0.064	-0.040
-464.128	-83.006	-0.151	0.049
-463.113	-77.262	0.289	-0.100
-462.099	229.271	-0.223	0.362
-461.084	-171.226	0.248	-0.008
-460.070	-200.000	-0.009	0.214
-459.055	206.657	0.093	-0.144
-458.040	385.835	0.100	0.206
-457.026	135.407	0.137	-0.178
-456.011	-200.000	0.018	-0.313
-454.997	-112.054	-0.174	0.035
-453.982	328.760	-0.120	0.229
-452.968	148.461	0.046	-0.062
-451.953	-68.991	-0.151	0.058
-450.938	34.974	0.172	-0.151
-449.924	-200.000	0.060	-0.371
-448.909	-3.231	0.238	0.165
-447.895	-200.000	-0.008	0.088
-446.880	59.965	0.070	0.068
-445.865	60.004	0.114	-0.112
-444.851	-64.131	0.417	0.170
-443.836	-111.764	-0.181	-0.036
-442.822	-166.921	-0.236	-0.010
-441.807	74.939	-0.029	0.030
-440.792	77.247	0.074	0.079
-439.778	-79.106	0.126	-0.043
-438.763	237.363	0.063	-0.104
-437.749	-145.676	0.473	-0.042
-436.734	-106.186	0.110	0.025
-435.719	264.922	0.058	0.101
-434.705	618.221	-0.049	-0.124
-433.690	30.480	0.171	-0.145
-432.676	-110.790	0.084	0.017
-431.661	-200.000	-0.054	0.314
-430.646	138.647	0.188	0.245
-429.632	663.043	-0.028	-0.072
-428.617	21.162	0.098	0.079
-427.603	512.798	0.065	-0.152
-426.588	-76.797	0.020	-0.007
-425.573	355.349	0.065	-0.130
-424.559	800.000	0.116	0.363
-423.544	27.509	0.173	-0.145
-422.530	222.356	-0.028	-0.044
-421.515	800.000	0.053	-0.154
-420.500	-99.807	0.217	-0.054
-419.486	412.285	-0.081	-0.171
-418.471	-36.633	-0.143	-0.077
-417.457	-84.705	0.239	0.075
-416.442	-51.441	-0.326	-0.152
-415.428	98.197	-0.165	-0.190
-414.413	800.000	-0.050	-0.183
-413.398	-5.392	-0.060	-0.041
-412.384	-200.000	0.046	0.515
-411.369	-200.000	0.033	0.218
-410.355	100.887	-0.127	0.147
-409.340	800.000	-0.036	0.127
-408.325	-168.198	-0.220	-0.008
-407.311	195.533	-0.079	0.120
-406.296	262.110	0.044	-0.076
-405.282	88.177	-0.123	0.136
-404.267	729.399	0.063	-0.168
-403.252	-34.024	0.079	0.043
-402.238	-159.854	0.272	-0.015
-401.223	233.524	0.098	-0.160
-400.209	13.745	0.069	-0.054
-399.194	-167.205	0.161	-0.007
-398.179	-69.411	-0.211	0.081
-397.165	-200.000	-0.023	-0.196
-396.150	535.878	-0.030	0.072
-395.136	-200.000	0.081	0.373
-394.121	-113.663	-0.311	-0.060
-393.106	-22.486	-0.114	-0.069
-392.092	75.354	-0.096	0.100
-391.077	-200.000	0.029	0.159
-390.063	10.137	-0.119	0.090
-389.048	79.382	-0.179	-0.191
-388.033	352.499	-0.093	-0.184
-387.019	61.358	-0.099	-0.098
-386.004	-4.629	0.140	-0.096
-384.990	-200.000	-0.021	-0.409
-383.975	-31.344	-0.246	-0.138
-382.960	660.728	-0.090	-0.231
-381.946	25.851	-0.151	-0.125
-380.931	800.000	0.082	-0.314
-379.917	-22.299	0.219	0.132
-378.902	-52.173	-0.219	-0.101
-377.888	800.000	-0.065	-0.194
-376.873	213.534	-0.175	-0.275
-375.858	-200.000	0.025	0.123
-374.844	23.238	0.347	0.283
-373.829	-200.000	-0.008	-0.353
-372.815	-200.000	-0.035	-0.177
-371.800	-18.996	-0.196	-0.121
-370.785	140.262	-0.140	0.184
-369.771	-9.867	-0.226	0.149
-368.756	2.232	0.043	0.031
-367.742	-187.082	-0.436	-0.006
-366.727	60.637	0.225	0.222
-365.712	-200.000	-0.020	0.351
-364.698	509.588	-0.071	0.165
-363.683	-200.000	0.032	-0.169
-362.669	800.000	-0.057	-0.200
-361.654	-200.000	0.006	-0.030
-360.639	-200.000	-0.040	-0.209
-359.625	167.886	0.194	0.274
-358.610	94.693	0.116	0.131
-357.596	266.554	-0.060	0.104
-356.581	-48.234	-0.375	-0.180
-355.566	549.978	0.118	-0.282
-354.552	131.465	0.336	-0.429
-353.537	6.677	0.092	0.068
-352.523	168.798	0.064	0.090
-351.508	2.410	0.098	-0.070
-350.493	-200.000	-0.072	-0.430
-349.479	341.199	0.114	-0.221
-348.464	290.727	-0.024	-0.043
-347.450	-145.727	-0.310	-0.027
-346.435	-73.237	0.253	0.092
-345.420	418.544	0.086	-0.182
-344.406	-200.000	0.012	0.068
-343.391	-169.920	0.284	-0.010
-342.377	-11.511	0.184	-0.120
-341.362	-200.000	-0.015	0.089
-340.348	74.109	0.069	0.072
-339.333	-200.000	-0.038	0.180
-338.318	302.804	0.193	0.354
-337.304	-94.707	0.058	0.016
-336.289	-200.000	-0.022	0.303
-335.275	53.885	0.065	0.062
-334.260	701.362	-0.059	-0.154
-333.245	-80.946	-0.105	0.035
-332.231	96.421	-0.150	-0.171
-331.216	-65.665	-0.235	0.094
-330.202	-200.000	-0.000	0.135
-329.187	-76.815	0.136	-0.047
-328.172	-200.000	-0.008	-0.083
-327.158	-12.215	0.309	0.200
-326.143	-151.436	-0.358	-0.026
-325.129	-200.000	-0.059	0.376
-324.114	-200.000	-0.008	0.138
-323.099	272.971	0.113	0.197
-322.085	800.000	-0.032	-0.139
-321.070	138.059	0.217	-0.282
-320.056	-200.000	-0.001	-0.409
-319.041	800.000	-0.066	-0.236
-318.026	120.934	0.151	-0.186
-317.012	293.534	0.135	0.244
-315.997	-200.000	0.293	0.001
-314.983	-129.232	-0.179	-0.025
-313.968	-3.185	0.189	0.130
-312.953	-74.896	-0.562	-0.200
-311.939	63.563	-0.169	0.169
-310.924	37.357	0.158	-0.139
-309.910	171.300	-0.057	0.081
-308.895	-86.445	0.267	-0.081
-307.880	-190.870	-0.126	-0.001
-306.866	57.739	0.045	0.043
-305.851	341.328	-0.022	-0.042
-304.837	-34.755	-0.148	-0.080
-303.822	-73.537	0.096	0.035
-302.807	90.573	0.079	0.088
-301.793	111.017	0.098	0.117
-300.778	42.699	-0.184	0.166
-299.764	74.202	0.272	0.283
-298.749	-17.504	0.106	0.066
-297.735	142.190	-0.125	0.164
-296.720	182.065	0.086	-0.126
-295.705	800.000	-0.084	0.340
-294.691	-63.283	-0.323	-0.132
-293.676	-58.482	-0.302	-0.130
-292.662	-59.148	-0.124	-0.053
-291.647	80.698	-0.105	-0.113
-290.632	7.888	-0.204	-0.152
-289.618	-106.181	0.051	0.011
-288.603	800.000	0.102	0.278
-287.589	-200.000	0.013	0.195
-286.574	-61.707	-0.394	-0.163
-285.559	-200.000	-0.002	0.070
-284.545	-118.600	-0.169	0.030
-283.530	-200.000	-0.014	-0.166
-282.516	-200.000	-0.056	-0.329
-281.501	-200.000	0.030	-0.136
-280.486	-200.000	0.047	0.208
-279.472	356.980	-0.088	-0.173
-278.457	220.367	0.117	0.185
-277.443	740.152	-0.035	-0.093
-276.428	-81.863	-0.408	-0.132
-275.413	200.502	-0.201	-0.306
-274.399	637.743	0.037	-0.093
-273.384	-118.277	0.210	0.037
-272.370	580.089	-0.041	-0.100
-271.355	-99.792	-0.223	-0.055
-270.340	-17.949	0.178	-0.110
-269.326	384.684	0.060	0.122
-268.311	-200.000	-0.013	0.332
-267.297	60.293	0.320	-0.313
-266.282	273.529	-0.070	-0.123
-265.267	11.357	0.142	0.108
-264.253	800.000	-0.044	0.129
-263.238	-200.000	0.007	-0.134
-262.224	-135.095	-0.457	-0.054
-261.209	189.987	0.127	0.188
-260.195	-57.309	0.286	0.125
-259.180	241.707	-0.063	0.103
-258.165	146.410	-0.226	0.300
-257.151	-30.602	0.265	0.148
-256.136	-79.277	0.184	-0.062
-255.122	-54.549	0.109	-0.049
-254.107	328.049	-0.129	-0.245
-253.092	277.576	-0.157	-0.276
-252.078	301.664	0.066	-0.121
-251.063	60.603	0.220	-0.216
-250.049	-86.867	0.195	0.059
-249.034	262.965	-0.037	0.063
-248.019	-200.000	0.032	-0.223
-247.005	800.000	-0.056	0.156
-245.990	-98.810	0.332	-0.084
-244.976	-143.398	-0.386	0.037
-243.961	415.831	0.103	0.218
-242.946	-95.318	0.192	0.051
-241.932	-48.108	0.330	0.158
-240.917	-58.650	0.153	0.066
-239.903	-155.985	0.331	-0.021
-238.888	-200.000	-0.064	-0.280
-237.873	2.880	-0.281	0.202
-236.859	-108.381	0.081	-0.017
-235.844	-200.000	-0.001	-0.094
-234.830	25.272	0.052	-0.043
-233.815	-132.786	0.145	0.018
-232.800	499.758	-0.167	0.380
-231.786	504.716	-0.166	0.380
-230.771	-200.000	-0.030	0.261
-229.757	38.267	-0.159	0.140
-228.742	147.989	-0.108	0.145
-227.727	43.304	-0.203	0.183
-226.713	-200.000	0.066	0.345
-225.698	59.374	0.232	0.226
-224.684	-163.216	-0.090	-0.004
-223.669	584.899	0.068	-0.166
-222.655	-144.260	0.197	0.018
-221.640	-151.476	-0.208	0.015
-220.625	-90.048	0.154	0.044
-219.611	-0.602	-0.167	0.117
-218.596	44.362	-0.146	-0.133
-217.582	727.476	0.048	0.127
-216.567	-51.344	0.304	0.140
-215.552	-40.219	0.176	0.090
-214.538	-75.876	-0.053	0.019
-213.523	-85.130	0.148	-0.046
-212.509	-200.000	-0.003	0.083
-211.494	765.796	0.098	-0.264
-210.479	-166.187	0.166	-0.007
-209.465	38.748	0.173	-0.152
-208.450	53.038	0.239	0.226
-207.436	-182.497	-0.401	-0.007
-206.421	-70.304	-0.048	-0.018
-205.406	699.827	-0.184	-0.479
-204.392	-108.273	0.240	-0.051
-203.377	16.668	-0.257	-0.201
-202.363	-122.105	-0.158	-0.026
-201.348	5.176	0.230	-0.167
-200.333	800.000	-0.080	0.261
-199.319	-159.880	0.272	-0.015
-198.304	145.667	-0.172	0.227
-197.290	4.604	-0.105	0.076
-196.275	-124.325	0.267	-0.041
-195.260	-70.203	-0.024	0.009
-194.246	107.054	-0.200	0.234
-193.231	-200.000	-0.010	0.210
-192.217	-8.063	-0.119	-0.079
-191.202	63.431	0.385	-0.381
-190.187	647.670	0.061	0.155
-189.173	-112.836	0.433	0.085
-188.158	-200.000	0.039	-0.265
-187.144	-161.058	-0.414	-0.021
-186.129	-200.000	0.034	0.165
-185.114	686.918	-0.178	0.458
-184.100	800.000	0.055	0.178
-183.085	-35.129	-0.136	0.073
-182.071	-81.469	-0.201	0.065
-181.056	-200.000	-0.036	-0.164
-180.042	-4.994	0.280	-0.190
-179.027	24.076	-0.332	0.270
-178.012	-104.743	0.114	0.026
-176.998	-200.000	-0.013	-0.189
-175.983	-144.163	0.112	-0.010
-174.969	122.978	-0.131	-0.162
-173.954	-200.000	-0.039	0.257
-172.939	268.798	0.158	0.273
-171.925	-132.748	-0.127	-0.016
-170.910	800.000	-0.015	-0.056
-169.896	-137.634	0.235	-0.026
-168.881	40.298	-0.374	-0.332
-167.866	216.302	0.118	0.185
-166.852	-57.008	-0.036	-0.016
-165.837	-133.255	0.356	0.044
-164.823	-98.985	-0.193	-0.048
-163.808	300.798	0.072	-0.132
-162.793	-82.149	-0.190	-0.061
-161.779	414.750	-0.040	-0.084
-160.764	-178.178	0.422	-0.010
-159.750	-52.319	0.246	0.112
-158.735	-62.837	0.182	0.074
-157.720	-83.931	0.198	-0.062
-156.706	20.062	0.068	-0.054
-155.691	123.097	-0.057	-0.071
-154.677	233.167	0.077	-0.125
-153.662	800.000	0.048	0.206
-152.647	-28.080	-0.123	-0.070
-151.633	-3.405	0.109	-0.075
-150.618	567.279	0.019	0.045
-149.604	-200.000	0.008	0.230
-148.589	-134.827	0.341	0.041
-147.574	125.523	0.090	-0.112
-146.560	-33.833	0.131	0.071
-145.545	38.547	-0.076	0.067
-144.531	507.201	-0.128	-0.293
-143.516	-64.004	-0.287	0.115
-142.502	296.399	-0.122	0.220
-141.487	-56.428	-0.249	-0.109
-140.472	381.163	-0.068	0.138
-139.458	-90.955	-0.069	-0.020
-138.443	91.761	0.095	-0.105
-137.429	165.673	0.120	0.167
-136.414	1.012	-0.107	0.076
-135.399	208.360	0.122	-0.188
-134.385	244.743	-0.127	-0.210
-133.370	294.708	-0.121	-0.219
-132.356	-54.567	0.176	-0.078
-131.341	316.405	-0.080	-0.149
-130.326	-160.149	-0.144	0.008
-129.312	-200.000	0.014	0.216
-128.297	14.359	0.192	-0.147
-127.283	-185.159	0.137	0.002
-126.268	23.294	0.240	-0.194
-125.253	-30.047	0.194	-0.109
-124.239	-200.000	-0.017	-0.076
-123.224	-200.000	0.037	0.196
-122.210	-200.000	0.007	-0.038
