DTS Sentinel unit serial number:	SN413079Multiplexer serial number:	ORYXHardware model number:	OX4-SRSoftware version number:	ORYX F/W v4.00 Oryx Data Collector v3.7.2.0data status	okinstallation	princeton_trtdifferential loss correction	single-endedforward channel	channel 2reverse channel	N/Adate	2019/09/14time	11:19:35forward acquisition time	60.00reverse acquisition time	0.00gamma	496.2192k internal	0.2311k external	0.2311temperature offset calibration	1.0151default loss term (dB/km)	0.3790temperature slope calibration	1.0000multiplexer offset coefficient	1.0000multiplexer slope coefficient	1.0000fibre end	0.00T internal ref (°C)	36.62T ext. ref 1 (°C)	4.50T ext. ref 2 (°C)	32.96length (m)	temperature (°C)	Stokes	anti-Stokes-747.200	-200.000	-0.014	0.306
-746.185	-123.369	-0.165	0.027
-745.171	-200.000	-0.098	0.518
-744.156	360.472	0.108	0.219
-743.142	96.616	-0.146	0.170
-742.127	112.097	0.148	0.181
-741.112	-120.529	0.210	0.036
-740.098	-115.585	-0.376	0.072
-739.083	-200.000	0.012	-0.209
-738.069	-200.000	0.051	0.425
-737.054	133.504	-0.154	0.203
-736.039	-200.000	0.006	0.030
-735.025	96.424	-0.177	0.205
-734.010	-200.000	-0.021	0.297
-732.996	171.174	-0.112	0.163
-731.981	-200.000	-0.050	-0.369
-730.966	800.000	-0.028	-0.123
-729.952	800.000	-0.047	-0.173
-728.937	-200.000	-0.022	-0.240
-727.923	170.243	0.199	-0.289
-726.908	-122.174	-0.243	0.040
-725.894	64.614	-0.144	-0.147
-724.879	49.302	-0.327	0.312
-723.864	-123.635	0.150	-0.024
-722.850	-200.000	-0.028	-0.243
-721.835	-137.822	-0.481	0.055
-720.821	157.541	-0.096	-0.135
-719.806	-7.811	0.150	-0.102
-718.791	131.226	-0.118	-0.154
-717.777	-69.517	0.236	0.092
-716.762	-200.000	0.048	-0.315
-715.748	-48.126	-0.276	-0.135
-714.733	-200.000	0.035	0.169
-713.718	800.000	0.059	-0.207
-712.704	-200.000	0.012	0.158
-711.689	43.231	-0.225	-0.208
-710.675	-94.051	-0.211	0.059
-709.660	297.616	-0.125	-0.233
-708.645	13.116	0.034	0.027
-707.631	-200.000	-0.032	-0.242
-706.616	12.174	0.249	0.194
-705.602	-200.000	0.007	0.034
-704.587	-200.000	-0.034	0.179
-703.572	33.914	-0.290	-0.255
-702.558	800.000	-0.095	-0.321
-701.543	800.000	-0.032	-0.139
-700.529	-200.000	0.014	-0.091
-699.514	-16.298	-0.226	-0.145
-698.499	100.910	0.136	0.160
-697.485	295.814	0.066	-0.123
-696.470	-104.322	0.223	-0.052
-695.456	-148.031	0.175	0.015
-694.441	-179.578	-0.156	-0.003
-693.426	135.108	-0.033	-0.043
-692.412	-37.102	0.225	-0.122
-691.397	-97.806	-0.166	0.044
-690.383	456.978	0.083	0.186
-689.368	-137.731	-0.104	-0.012
-688.354	279.959	-0.184	-0.334
-687.339	-1.038	-0.184	-0.131
-686.324	147.447	-0.207	-0.282
-685.310	800.000	-0.083	-0.279
-684.295	800.000	-0.055	0.210
-683.281	-41.094	0.193	0.101
-682.266	-200.000	-0.069	0.478
-681.251	-168.311	0.275	0.011
-680.237	-200.000	-0.028	-0.307
-679.222	328.505	-0.014	-0.028
-678.208	19.639	-0.081	0.066
-677.193	-91.601	0.307	0.088
-676.178	444.444	-0.087	-0.193
-675.164	-200.000	0.001	-0.264
-674.149	800.000	0.044	-0.191
-673.135	288.112	0.129	0.237
-672.120	-113.569	-0.242	0.048
-671.105	-200.000	-0.020	-0.269
-670.091	248.932	0.100	-0.172
-669.076	-69.954	0.354	0.137
-668.062	42.481	0.184	0.169
-667.047	110.305	0.138	0.167
-666.032	-200.000	-0.015	-0.161
-665.018	-109.861	-0.316	-0.067
-664.003	-144.195	0.004	-0.000
-662.989	-62.476	0.093	0.039
-661.974	-18.404	-0.172	0.109
-660.959	105.686	0.165	0.197
-659.945	128.674	-0.158	0.204
-658.930	77.867	-0.101	-0.108
-657.916	-200.000	-0.099	0.467
-656.901	-140.089	0.034	-0.004
-655.886	125.080	-0.140	-0.179
-654.872	800.000	-0.048	0.152
-653.857	-53.449	-0.189	-0.088
-652.843	-200.000	-0.029	0.181
-651.828	-200.000	-0.016	0.175
-650.814	-200.000	0.130	0.000
-649.799	90.825	-0.202	-0.229
-648.784	-17.835	-0.022	0.014
-647.770	800.000	0.067	-0.239
-646.755	-129.288	0.344	0.048
-645.741	-40.502	-0.353	-0.186
-644.726	144.021	-0.136	0.184
-643.711	-200.000	-0.024	-0.244
-642.697	61.163	0.220	-0.221
-641.682	-38.094	-0.063	-0.034
-640.668	211.576	0.180	0.286
-639.653	-6.864	-0.347	-0.239
-638.638	32.762	0.263	0.230
-637.624	300.495	-0.061	0.114
-636.609	-153.412	-0.280	0.020
-635.595	91.893	0.259	-0.295
-634.580	-126.254	0.012	0.002
-633.565	-200.000	0.004	-0.090
-632.551	407.113	0.182	-0.388
-631.536	-143.621	0.259	0.025
-630.522	386.672	0.079	0.165
-629.507	800.000	0.064	0.258
-628.492	-200.000	0.002	-0.161
-627.478	-200.000	0.002	0.235
-626.463	-174.636	-0.152	-0.004
-625.449	-200.000	0.065	-0.357
-624.434	-20.882	0.023	-0.014
-623.419	-200.000	-0.047	0.391
-622.405	800.000	0.067	0.194
-621.390	-200.000	-0.013	-0.098
-620.376	-118.368	0.311	-0.056
-619.361	230.638	0.119	-0.197
-618.346	-186.502	0.077	-0.001
-617.332	800.000	0.033	0.126
-616.317	-200.000	0.013	0.059
-615.303	-33.428	-0.275	-0.154
-614.288	-62.396	-0.048	0.020
-613.273	-200.000	0.072	-0.407
-612.259	131.183	-0.169	-0.220
-611.244	-132.981	-0.332	0.043
-610.230	-94.056	0.209	0.058
-609.215	40.779	0.101	-0.092
-608.201	800.000	0.079	-0.224
-607.186	-72.108	0.238	0.089
-606.171	-200.000	0.016	0.132
-605.157	-14.317	0.162	-0.106
-604.142	166.439	-0.045	-0.065
-603.128	212.378	-0.093	-0.147
-602.113	800.000	0.112	0.334
-601.098	-11.287	-0.088	0.058
-600.084	160.991	-0.044	0.062
-599.069	800.000	0.121	0.355
-598.055	-42.845	-0.132	-0.068
-597.040	125.816	-0.173	-0.221
-596.025	-200.000	-0.001	-0.012
-595.011	-93.792	0.125	0.035
-593.996	-200.000	-0.013	0.346
-592.982	-58.251	0.227	-0.100
-591.967	-200.000	0.083	0.389
-590.952	20.154	-0.216	0.176
-589.938	-65.140	-0.305	0.124
-588.923	-200.000	-0.004	0.103
-587.909	-200.000	-0.019	0.236
-586.894	-118.686	-0.125	-0.022
-585.879	286.893	-0.085	0.156
-584.865	-52.082	-0.188	0.088
-583.850	800.000	0.104	-0.404
-582.836	800.000	0.053	0.221
-581.821	-89.659	0.073	-0.022
-580.806	35.074	-0.056	-0.050
-579.792	214.820	0.046	-0.073
-578.777	800.000	-0.125	0.418
-577.763	-67.484	0.177	-0.070
-576.748	-4.834	-0.107	-0.074
-575.733	-174.560	0.353	0.010
-574.719	-95.136	-0.046	0.012
-573.704	-199.856	-0.162	-0.001
-572.690	174.525	-0.051	0.074
-571.675	800.000	0.091	-0.266
-570.661	432.494	0.078	-0.172
-569.646	82.482	0.223	0.244
-568.631	-79.934	-0.534	0.181
-567.617	127.826	-0.095	0.122
-566.602	-74.599	0.073	0.027
-565.588	115.517	0.073	-0.090
-564.573	-92.325	0.042	-0.012
-563.558	-51.833	-0.135	-0.064
-562.544	-144.419	-0.240	-0.022
-561.529	340.425	-0.074	0.145
-560.515	246.140	0.048	0.082
-559.500	-200.000	-0.063	-0.489
-558.485	142.725	0.229	-0.306
-557.471	800.000	-0.082	-0.327
-556.456	-200.000	-0.029	-0.129
-555.442	-126.722	-0.115	-0.017
-554.427	-200.000	-0.018	0.290
-553.412	-116.095	-0.131	-0.025
-552.398	-48.551	0.200	-0.097
-551.383	800.000	0.022	-0.065
-550.369	-200.000	0.057	0.301
-549.354	147.195	-0.151	0.204
-548.339	-149.234	0.302	0.024
-547.325	-85.559	0.104	0.033
-546.310	-68.961	0.175	-0.068
-545.296	800.000	-0.112	-0.376
-544.281	800.000	0.037	-0.122
-543.266	477.168	0.008	0.019
-542.252	479.243	0.025	0.057
-541.237	800.000	-0.082	-0.359
-540.223	53.275	-0.078	-0.075
-539.208	-69.199	0.045	-0.017
-538.193	-1.166	0.147	-0.104
-537.179	55.473	0.181	0.176
-536.164	162.422	0.223	-0.315
-535.150	-127.814	0.175	0.025
-534.135	-59.308	0.326	-0.141
-533.121	-153.133	-0.285	0.020
-532.106	-200.000	0.063	0.401
-531.091	-49.753	0.040	0.019
-530.077	-151.382	-0.375	0.028
-529.062	-200.000	0.045	-0.426
-528.048	-44.432	0.042	0.021
-527.033	158.847	0.196	0.274
-526.018	800.000	0.106	0.334
-525.004	-44.271	-0.175	0.088
-523.989	-48.838	-0.167	-0.081
-522.975	-200.000	0.369	-0.000
-521.960	-53.112	-0.295	-0.136
-520.945	-16.080	-0.340	-0.217
-519.931	45.760	0.069	0.064
-518.916	37.735	-0.199	-0.178
-517.902	-158.474	-0.096	0.006
-516.887	266.041	-0.095	0.166
-515.872	-112.728	0.290	-0.058
-514.858	577.312	-0.041	-0.100
-513.843	-110.193	-0.194	-0.041
-512.829	-200.000	-0.006	0.087
-511.814	-80.707	-0.234	-0.078
-510.799	229.818	0.017	0.028
-509.785	-166.648	-0.569	-0.024
-508.770	-129.685	0.122	0.017
-507.756	143.550	-0.074	-0.099
-506.741	54.915	-0.036	0.035
-505.726	0.750	-0.048	-0.034
-504.712	23.153	0.465	-0.384
-503.697	-91.799	-0.187	0.053
-502.683	152.659	-0.181	-0.249
-501.668	-42.590	0.169	-0.086
-500.653	-200.000	0.036	0.193
-499.639	180.397	0.099	-0.146
-498.624	-100.959	-0.155	-0.038
-497.610	356.673	-0.131	-0.263
-496.595	800.000	-0.074	0.325
-495.581	-167.155	-0.212	-0.009
-494.566	45.090	0.159	-0.147
-493.551	-107.565	-0.166	-0.037
-492.537	4.150	-0.141	0.104
-491.522	-77.575	0.340	-0.118
-490.508	32.632	-0.127	-0.110
-489.493	-57.806	-0.355	-0.156
-488.478	800.000	-0.183	-0.608
-487.464	-108.933	-0.362	-0.078
-486.449	-71.331	0.162	0.061
-485.435	-130.177	0.122	0.017
-484.420	-103.240	-0.065	-0.016
-483.405	-86.271	-0.109	-0.034
-482.391	331.721	0.087	-0.169
-481.376	-73.527	-0.370	-0.136
-480.362	-184.148	-0.076	-0.001
-479.347	-200.000	0.002	-0.055
-478.332	-184.303	0.193	0.003
-477.318	-1.100	-0.107	-0.076
-476.303	-42.467	0.071	-0.036
-475.289	800.000	0.099	-0.350
-474.274	-200.000	0.002	-0.374
-473.259	-139.570	-0.246	0.026
-472.245	-200.000	0.037	-0.201
-471.230	199.022	0.136	0.210
-470.216	-157.776	-0.133	0.008
-469.201	-25.581	-0.218	-0.129
-468.186	27.279	-0.103	0.087
-467.172	-3.431	-0.311	-0.217
-466.157	106.307	-0.027	0.033
-465.143	-200.000	-0.059	0.305
-464.128	50.276	-0.147	0.139
-463.113	-200.000	0.006	-0.052
-462.099	-200.000	0.016	0.116
-461.084	-53.904	0.094	0.043
-460.070	-185.419	0.303	0.005
-459.055	-30.032	0.150	0.086
-458.040	800.000	0.071	0.225
-457.026	800.000	-0.139	-0.538
-456.011	-200.000	0.022	0.281
-454.997	85.308	0.107	-0.117
-453.982	130.785	0.268	-0.346
-452.968	530.833	0.050	-0.118
-451.953	81.337	-0.246	0.267
-450.938	36.323	0.068	-0.060
-449.924	-103.909	-0.240	0.056
-448.909	-200.000	-0.006	-0.033
-447.895	-200.000	0.016	0.198
-446.880	-121.997	-0.127	-0.021
-445.865	197.708	0.067	0.103
-444.851	-18.145	0.158	-0.099
-443.836	-200.000	0.001	0.368
-442.822	-139.794	0.080	0.009
-441.807	-78.776	-0.212	0.073
-440.792	164.512	-0.200	0.283
-439.778	720.966	-0.076	0.202
-438.763	167.076	0.202	-0.288
-437.749	34.706	-0.149	-0.131
-436.734	-200.000	-0.007	0.148
-435.719	27.642	-0.056	0.047
-434.705	-69.593	-0.068	-0.026
-433.690	-69.103	-0.075	-0.029
-432.676	109.806	-0.138	0.166
-431.661	20.618	-0.305	0.247
-430.646	82.132	0.206	-0.224
-429.632	-22.177	-0.271	-0.165
-428.617	-115.757	0.036	-0.007
-427.603	-2.532	0.315	-0.221
-426.588	-145.235	-0.094	0.009
-425.573	-45.638	-0.265	-0.131
-424.559	133.272	-0.004	-0.005
-423.544	-78.010	-0.309	-0.107
-422.530	364.519	0.041	-0.084
-421.515	-103.019	-0.187	-0.044
-420.500	-142.812	-0.275	0.027
-419.486	-54.691	0.042	-0.019
-418.471	462.891	-0.067	0.150
-417.457	291.622	0.027	-0.050
-416.442	102.999	0.082	-0.096
-415.428	242.444	0.115	-0.192
-414.413	13.184	0.191	0.148
-413.398	800.000	0.010	0.032
-412.384	-200.000	-0.006	0.270
-411.369	-16.891	0.065	-0.041
-410.355	-200.000	-0.010	-0.048
-409.340	99.187	-0.026	0.030
-408.325	66.607	0.248	0.252
-407.311	-54.208	0.215	-0.098
-406.296	200.787	-0.140	0.216
-405.282	-129.570	0.401	-0.056
-404.267	32.630	0.103	0.089
-403.252	417.752	-0.041	0.087
-402.238	800.000	0.115	0.324
-401.223	-177.570	0.058	-0.001
-400.209	800.000	0.041	0.116
-399.194	800.000	-0.017	0.049
-398.179	-21.046	-0.192	-0.117
-397.165	227.497	-0.095	-0.155
-396.150	-39.755	0.087	-0.045
-395.136	-78.345	-0.194	0.067
-394.121	-145.331	0.053	-0.005
-393.106	0.734	-0.213	-0.153
-392.092	324.020	0.075	-0.144
-391.077	5.433	-0.163	-0.120
-390.063	-200.000	0.042	-0.263
-389.048	188.599	0.076	0.114
-388.033	175.859	0.088	0.128
-387.019	-61.171	0.089	0.038
-386.004	-101.783	0.446	-0.108
-384.990	-200.000	-0.008	0.090
-383.975	-92.382	-0.161	0.045
-382.960	-36.480	0.129	-0.070
-381.946	690.202	0.113	-0.296
-380.931	-113.709	-0.389	0.076
-379.917	-25.387	0.305	-0.181
-378.902	107.213	-0.123	-0.146
-377.888	800.000	0.021	-0.061
-376.873	-9.166	-0.131	0.088
-375.858	262.033	0.105	-0.181
-374.844	-85.489	0.093	0.029
-373.829	-58.008	0.163	-0.071
-372.815	-95.552	-0.116	-0.031
-371.800	-200.000	-0.014	-0.063
-370.785	-200.000	0.001	0.021
-369.771	11.162	0.162	-0.124
-368.756	-164.476	-0.132	-0.006
-367.742	-200.000	0.022	0.115
-366.727	-98.522	-0.222	-0.057
-365.712	-121.228	-0.154	-0.026
-364.698	70.468	0.109	0.113
-363.683	205.601	-0.180	0.279
-362.669	140.910	0.220	0.291
-361.654	-40.188	-0.248	-0.129
-360.639	-72.008	0.231	-0.086
-359.625	-52.789	-0.129	-0.060
-358.610	-16.943	0.108	0.068
-357.596	-200.000	0.046	0.318
-356.581	-53.791	0.244	0.111
-355.566	-124.692	-0.413	0.064
-354.552	-200.000	0.028	0.130
-353.537	-45.942	0.280	0.138
-352.523	-157.956	-0.207	0.012
-351.508	255.946	0.064	0.109
-350.493	-30.094	-0.111	-0.063
-349.479	58.025	-0.219	-0.214
-348.464	211.464	0.099	0.156
-347.450	-67.421	0.241	0.095
-346.435	80.491	-0.148	-0.159
-345.420	-200.000	-0.014	-0.217
-344.406	-200.000	-0.010	0.097
-343.391	16.837	-0.357	0.282
-342.377	332.892	-0.135	0.262
-341.362	-71.410	-0.137	0.051
-340.348	43.080	0.039	0.035
-339.333	-178.473	0.299	0.007
-338.318	43.961	-0.124	-0.114
-337.304	-27.074	-0.244	-0.142
-336.289	-200.000	-0.054	-0.418
-335.275	37.631	-0.152	0.134
-334.260	-200.000	-0.021	0.234
-333.245	153.113	0.187	-0.256
-332.231	800.000	0.013	0.044
-331.216	559.910	-0.096	0.232
-330.202	63.293	0.116	0.117
-329.187	800.000	0.022	-0.065
-328.172	-39.388	-0.239	-0.125
-327.158	451.832	-0.047	-0.104
-326.143	-200.000	0.015	-0.301
-325.129	748.647	0.039	0.104
-324.114	-44.270	-0.091	-0.045
-323.099	800.000	-0.099	0.297
-322.085	-144.375	0.140	-0.013
-321.070	684.734	0.066	0.172
-320.056	-200.000	-0.009	0.122
-319.041	-34.701	0.306	-0.167
-318.026	18.747	-0.169	0.135
-317.012	-21.554	0.270	0.164
-315.997	-108.123	-0.152	-0.033
-314.983	-132.190	-0.297	-0.038
-313.968	-34.305	-0.309	0.169
-312.953	800.000	0.047	0.131
-311.939	-119.489	-0.091	-0.016
-310.924	-145.131	0.156	-0.014
-309.910	353.246	-0.063	-0.124
-308.895	-85.260	-0.198	0.062
-307.880	-75.519	-0.346	0.123
-306.866	133.322	0.103	0.133
-305.851	84.787	0.156	0.171
-304.837	64.453	0.056	-0.056
-303.822	313.744	-0.168	-0.315
-302.807	-117.518	0.111	0.020
-301.793	89.525	-0.201	-0.224
-300.778	-96.345	-0.160	-0.042
-299.764	4.247	0.146	-0.107
-298.749	-200.000	0.040	0.190
-297.735	800.000	-0.120	-0.402
-296.720	51.629	-0.150	-0.143
-295.705	-53.471	-0.187	-0.085
-294.691	-26.684	0.080	0.047
-293.676	39.518	0.324	-0.289
-292.662	385.775	0.090	0.186
-291.647	472.148	-0.118	0.266
-290.632	800.000	0.118	0.424
-289.618	-13.181	-0.189	-0.122
-288.603	-18.406	-0.146	0.091
-287.589	574.041	-0.045	0.110
-286.574	333.758	0.087	0.168
-285.559	621.893	-0.094	0.236
-284.545	280.088	-0.067	-0.119
-283.530	-180.849	0.128	0.003
-282.516	195.479	-0.091	0.138
-281.501	-102.557	0.197	0.047
-280.486	-2.708	0.211	0.147
-279.472	-56.197	0.169	0.075
-278.457	14.526	0.242	0.189
-277.443	800.000	0.064	0.248
-276.428	81.397	0.214	0.230
-275.413	12.548	0.198	-0.152
-274.399	533.285	0.136	-0.321
-273.384	13.013	-0.225	-0.173
-272.370	34.679	-0.254	-0.222
-271.355	-25.995	-0.089	0.052
-270.340	44.861	0.257	0.235
-269.326	-124.969	0.418	-0.064
-268.311	-25.620	-0.392	0.231
-267.297	-66.383	0.162	0.064
-266.282	34.669	0.193	-0.168
-265.267	43.155	0.132	-0.120
-264.253	-200.000	0.015	0.253
-263.238	-2.343	-0.197	0.137
-262.224	19.467	-0.127	-0.101
-261.209	-127.961	0.071	0.010
-260.195	-25.087	-0.205	0.121
-259.180	-115.669	0.270	0.050
-258.165	-23.701	0.080	0.048
-257.151	296.447	-0.169	-0.309
-256.136	23.692	-0.231	-0.189
-255.122	-25.314	-0.285	0.168
-254.107	-96.644	0.333	0.087
-253.092	21.583	0.135	0.110
-252.078	204.634	-0.153	0.237
-251.063	83.904	0.224	0.243
-250.049	-154.693	0.516	-0.034
-249.034	0.672	-0.244	0.174
-248.019	-161.289	-0.123	0.006
-247.005	163.897	-0.030	-0.041
-245.990	343.097	0.112	-0.219
-244.976	175.943	0.155	0.224
-243.961	-200.000	-0.018	0.134
-242.946	-99.809	0.147	0.037
-241.932	-200.000	0.004	0.075
-240.917	-63.083	0.089	-0.037
-239.903	147.526	-0.176	0.236
-238.888	-200.000	-0.015	0.242
-237.873	-6.695	0.068	0.046
-236.859	410.966	-0.144	-0.304
-235.844	348.647	-0.126	0.248
-234.830	70.575	0.178	0.183
-233.815	-200.000	0.005	-0.136
-232.800	-103.939	-0.061	-0.014
-231.786	116.364	0.096	0.117
-230.771	11.005	0.259	-0.197
-229.757	43.110	0.174	0.158
-228.742	-104.949	0.266	-0.061
-227.727	800.000	-0.088	0.325
-226.713	-55.504	-0.280	-0.125
-225.698	-200.000	0.016	-0.276
-224.684	133.263	0.103	-0.133
-223.669	79.270	0.090	-0.096
-222.655	-108.965	-0.279	-0.059
-221.640	114.762	0.068	-0.083
-220.625	-77.716	0.028	-0.010
-219.611	-89.925	0.412	0.120
-218.596	-82.461	0.071	-0.023
-217.582	800.000	-0.043	0.142
-216.567	154.599	-0.124	-0.169
-215.552	-70.834	0.287	-0.108
-214.538	-200.000	0.039	0.262
-213.523	179.420	-0.084	0.122
-212.509	260.653	-0.109	0.188
-211.494	62.996	0.300	0.299
-210.479	-200.000	0.005	0.091
-209.465	-58.588	0.456	-0.197
-208.450	399.149	-0.171	0.357
-207.436	-132.974	-0.394	-0.050
-206.421	-119.126	0.275	0.048
-205.406	154.465	0.021	0.028
-204.392	84.353	-0.250	-0.271
-203.377	800.000	0.033	0.137
-202.363	-200.000	0.001	0.270
-201.348	-200.000	-0.017	-0.192
-200.333	-200.000	0.047	-0.238
-199.319	797.972	0.121	-0.333
-198.304	-92.914	0.347	0.096
-197.290	325.283	0.082	-0.155
-196.275	-74.497	0.322	-0.115
-195.260	-29.770	-0.273	-0.154
-194.246	469.850	0.196	0.437
-193.231	-176.389	0.102	0.003
-192.217	-200.000	0.029	-0.213
-191.202	-157.141	-0.340	-0.021
-190.187	-101.181	0.218	-0.053
-189.173	-18.539	-0.104	-0.064
-188.158	800.000	-0.024	0.073
-187.144	32.744	0.134	-0.115
-186.129	243.438	0.197	0.328
-185.114	63.409	-0.053	-0.052
-184.100	-71.175	0.210	0.078
-183.085	43.257	0.147	0.133
-182.071	263.441	0.048	-0.083
-181.056	800.000	0.041	-0.144
-180.042	-163.289	0.314	-0.015
-179.027	800.000	0.041	0.140
-178.012	318.714	0.141	0.266
-176.998	-200.000	-0.324	-0.001
-175.983	800.000	0.072	0.226
-174.969	-19.800	-0.124	-0.076
-173.954	109.392	-0.077	0.092
-172.939	-22.720	0.169	-0.101
-171.925	211.972	-0.135	-0.211
-170.910	-200.000	-0.020	-0.113
-169.896	800.000	-0.124	-0.362
-168.881	-200.000	-0.022	0.139
-167.866	-55.640	-0.306	0.136
-166.852	59.199	0.293	0.286
-165.837	197.164	-0.041	-0.063
-164.823	-158.916	-0.408	-0.023
-163.808	-82.469	0.182	0.058
-162.793	14.186	0.138	0.107
-161.779	-200.000	0.016	0.134
-160.764	-88.574	0.342	-0.101
-159.750	-200.000	-0.033	-0.303
-158.735	56.428	-0.113	0.109
-157.720	295.281	0.080	-0.145
-156.706	-149.315	0.247	0.020
-155.691	-200.000	-0.024	-0.145
-154.677	413.171	0.085	-0.180
-153.662	-136.130	-0.237	-0.028
-152.647	-29.032	0.106	0.060
-151.633	-200.000	0.033	0.155
-150.618	-167.860	-0.398	0.016
-149.604	-71.840	0.115	0.042
-148.589	-37.660	0.103	0.054
-147.574	179.694	0.167	-0.243
-146.560	24.926	0.253	-0.208
-145.545	-87.083	-0.240	-0.072
-144.531	-78.258	0.150	0.051
-143.516	422.642	-0.027	0.058
-142.502	-78.204	-0.143	0.049
-141.487	441.184	-0.081	-0.175
-140.472	-200.000	0.009	-0.061
-139.458	652.351	-0.007	-0.017
-138.443	-104.408	-0.174	-0.040
-137.429	25.052	0.273	-0.225
-136.414	-200.000	0.022	-0.328
-135.399	159.466	-0.122	-0.168
-134.385	-46.744	0.148	-0.072
-133.370	625.385	-0.081	0.203
-132.356	22.073	0.271	0.219
-131.341	-200.000	0.015	0.067
-130.326	-122.152	-0.295	0.048
-129.312	473.758	-0.092	-0.205
-128.297	-130.430	-0.346	0.046
-127.283	274.315	-0.104	0.183
-126.268	-123.205	0.223	-0.035
-125.253	363.148	0.084	0.168
-124.239	-200.000	-0.083	0.480
-123.224	328.603	0.122	0.231
-122.210	-39.521	0.204	0.106
