DTS Sentinel unit serial number:	SN413079Multiplexer serial number:	ORYXHardware model number:	OX4-SRSoftware version number:	ORYX F/W v4.00 Oryx Data Collector v3.7.2.0data status	okinstallation	princeton_trtdifferential loss correction	single-endedforward channel	channel 2reverse channel	N/Adate	2019/09/18time	09:07:35forward acquisition time	60.00reverse acquisition time	0.00gamma	496.2192k internal	0.2339k external	0.2339temperature offset calibration	0.9976default loss term (dB/km)	0.3790temperature slope calibration	1.0000multiplexer offset coefficient	1.0000multiplexer slope coefficient	1.0000fibre end	0.00T internal ref (°C)	25.36T ext. ref 1 (°C)	0.23T ext. ref 2 (°C)	22.63length (m)	temperature (°C)	Stokes	anti-Stokes-747.200	61.545	-0.245	0.245
-746.185	-52.130	-0.301	-0.140
-745.171	48.653	0.163	0.153
-744.156	86.623	-0.255	0.282
-743.142	-81.456	-0.203	0.067
-742.127	-17.513	-0.264	0.166
-741.112	-32.895	-0.156	-0.087
-740.098	-105.501	0.017	0.004
-739.083	-200.000	0.005	-0.056
-738.069	-110.782	-0.361	-0.075
-737.054	800.000	0.072	-0.218
-736.039	-175.396	0.022	0.001
-735.025	81.179	0.217	0.235
-734.010	-139.045	-0.313	-0.034
-732.996	23.870	-0.161	0.133
-731.981	-13.227	-0.130	0.085
-730.966	800.000	0.052	0.217
-729.952	-200.000	0.001	-0.125
-728.937	297.628	0.052	-0.096
-727.923	120.775	-0.078	0.097
-726.908	6.294	0.246	0.183
-725.894	78.310	-0.226	-0.242
-724.879	-200.000	0.015	-0.168
-723.864	800.000	-0.069	0.208
-722.850	1.968	0.170	0.123
-721.835	-0.064	-0.228	-0.163
-720.821	144.446	-0.167	-0.224
-719.806	340.943	0.101	0.198
-718.791	3.753	-0.093	0.068
-717.777	-189.202	0.262	-0.003
-716.762	-1.068	0.211	0.150
-715.748	532.965	0.124	0.294
-714.733	-200.000	0.013	0.064
-713.718	800.000	0.076	0.270
-712.704	-66.069	-0.280	0.112
-711.689	-90.956	0.330	0.095
-710.675	800.000	0.046	-0.190
-709.660	-200.000	-0.006	0.550
-708.645	142.122	-0.124	0.165
-707.631	63.419	-0.189	0.190
-706.616	57.098	-0.195	-0.190
-705.602	-62.644	0.182	-0.075
-704.587	127.280	0.280	-0.356
-703.572	-179.627	-0.184	0.004
-702.558	28.896	0.177	0.150
-701.543	-168.702	-0.262	0.010
-700.529	-132.832	0.126	-0.016
-699.514	192.475	0.063	0.096
-698.499	-47.839	0.241	0.117
-697.485	800.000	0.051	-0.148
-696.470	114.131	-0.072	-0.088
-695.456	14.054	-0.121	0.094
-694.441	-107.891	-0.157	0.034
-693.426	-44.461	-0.165	0.083
-692.412	374.243	0.094	-0.192
-691.397	-200.000	-0.027	0.151
-690.383	181.257	-0.231	0.340
-689.368	-60.934	-0.152	-0.065
-688.354	800.000	0.055	0.166
-687.339	-24.480	-0.564	-0.336
-686.324	800.000	-0.020	0.067
-685.310	25.583	-0.135	-0.112
-684.295	-127.659	-0.335	-0.049
-683.281	-71.170	-0.341	0.128
-682.266	-104.433	-0.386	0.089
-681.251	800.000	0.074	0.221
-680.237	-141.171	0.172	0.018
-679.222	-200.000	-0.032	-0.226
-678.208	66.442	-0.277	-0.282
-677.193	130.870	-0.055	0.071
-676.178	-60.976	-0.392	0.166
-675.164	-29.869	0.121	0.069
-674.149	554.458	-0.059	-0.141
-673.135	-36.745	-0.195	0.105
-672.120	800.000	0.082	0.312
-671.105	47.290	0.213	0.198
-670.091	-109.728	-0.160	-0.034
-669.076	-149.285	-0.167	0.013
-668.062	25.088	0.161	0.134
-667.047	-200.000	-0.011	0.101
-666.032	-159.143	-0.180	0.010
-665.018	-41.788	0.170	0.087
-664.003	800.000	0.085	0.324
-662.989	800.000	-0.058	0.237
-661.974	396.656	-0.185	-0.387
-660.959	2.148	-0.077	-0.056
-659.945	197.945	0.168	0.256
-658.930	183.933	0.083	0.123
-657.916	-200.000	0.030	0.213
-656.901	-7.400	-0.322	0.218
-655.886	-21.174	-0.041	0.025
-654.872	353.930	-0.058	-0.116
-653.857	7.061	0.110	-0.082
-652.843	156.110	0.234	-0.323
-651.828	404.602	0.049	-0.104
-650.814	-18.749	-0.241	0.150
-649.799	-200.000	0.014	0.098
-648.784	-171.613	-0.103	-0.003
-647.770	607.680	0.063	0.157
-646.755	43.024	-0.301	-0.275
-645.741	-92.279	0.242	-0.068
-644.726	-11.883	0.205	0.135
-643.711	800.000	0.060	0.175
-642.697	-166.059	0.206	-0.009
-641.682	800.000	0.076	0.293
-640.668	-117.993	0.260	-0.046
-639.653	-200.000	-0.065	-0.361
-638.638	-59.446	0.292	-0.125
-637.624	-148.306	-0.135	0.011
-636.609	-46.781	-0.053	0.026
-635.595	-11.632	0.186	-0.122
-634.580	-200.000	0.059	-0.318
-633.565	372.213	0.173	-0.350
-632.551	2.881	0.110	-0.080
-631.536	-116.232	-0.412	-0.076
-630.522	-103.724	0.125	0.029
-629.507	-60.956	0.199	-0.084
-628.492	96.815	-0.136	-0.155
-627.478	44.013	0.099	-0.091
-626.463	157.839	0.228	-0.315
-625.449	80.162	0.077	-0.082
-624.434	-200.000	-0.043	-0.371
-623.419	800.000	0.041	0.168
-622.405	-106.345	0.388	-0.087
-621.390	-48.091	0.054	0.026
-620.376	272.524	-0.113	-0.198
-619.361	647.336	-0.155	-0.396
-618.346	-26.801	-0.355	-0.207
-617.332	520.684	-0.098	0.229
-616.317	-52.867	0.101	-0.047
-615.303	112.896	0.170	0.206
-614.288	-131.001	-0.366	-0.049
-613.273	-200.000	-0.045	-0.410
-612.259	-18.955	-0.160	-0.100
-611.244	142.346	0.058	0.077
-610.230	-200.000	0.030	-0.210
-609.215	604.176	-0.057	-0.142
-608.201	161.327	-0.027	-0.038
-607.186	-46.976	-0.185	0.090
-606.171	-141.438	-0.062	-0.006
-605.157	-38.641	-0.138	-0.073
-604.142	318.152	-0.106	0.201
-603.128	-94.320	-0.257	-0.070
-602.113	-96.897	0.269	-0.070
-601.098	26.526	-0.093	0.078
-600.084	664.037	0.111	0.286
-599.069	77.193	0.264	-0.280
-598.055	-200.000	-0.007	0.103
-597.040	416.053	0.117	-0.249
-596.025	38.976	-0.143	-0.128
-595.011	800.000	-0.070	-0.247
-593.996	-200.000	0.025	-0.211
-592.982	0.844	0.146	-0.104
-591.967	800.000	-0.016	0.060
-590.952	63.490	-0.140	-0.140
-589.938	22.485	-0.208	-0.170
-588.923	-129.215	-0.218	-0.030
-587.909	-200.000	0.009	-0.124
-586.894	55.661	-0.289	-0.279
-585.879	-115.130	-0.340	-0.064
-584.865	97.288	-0.144	0.164
-583.850	-159.793	-0.073	0.004
-582.836	-152.607	-0.039	0.003
-581.821	253.174	0.084	-0.143
-580.806	-200.000	0.025	0.113
-579.792	31.144	-0.133	-0.114
-578.777	-90.145	-0.258	-0.075
-577.763	91.963	-0.179	-0.201
-576.748	299.316	-0.069	-0.126
-575.733	800.000	0.092	0.275
-574.719	61.590	0.380	-0.377
-573.704	185.705	-0.178	-0.264
-572.690	19.563	0.302	0.242
-571.675	149.680	0.167	0.225
-570.661	800.000	0.062	0.249
-569.646	88.359	-0.286	-0.316
-568.631	408.669	-0.071	0.150
-567.617	46.154	-0.243	0.225
-566.602	-200.000	0.005	-0.308
-565.588	579.397	0.074	0.181
-564.573	610.588	-0.071	0.176
-563.558	247.797	-0.036	0.061
-562.544	-19.916	0.214	-0.132
-561.529	525.173	-0.054	0.126
-560.515	-200.000	0.030	0.195
-559.500	24.465	-0.063	0.052
-558.485	-167.436	0.339	-0.014
-557.471	-45.413	0.084	-0.041
-556.456	694.177	-0.068	-0.178
-555.442	375.100	-0.092	-0.187
-554.427	313.942	-0.077	-0.144
-553.412	-200.000	-0.034	-0.230
-552.398	-89.449	-0.330	-0.097
-551.383	-76.297	0.114	-0.040
-550.369	-55.705	-0.127	0.056
-549.354	-200.000	0.002	0.370
-548.339	-99.802	-0.187	0.047
-547.325	-200.000	0.022	-0.127
-546.310	800.000	-0.063	-0.190
-545.296	22.467	-0.245	-0.200
-544.281	-122.153	-0.136	-0.022
-543.266	64.298	-0.073	0.073
-542.252	54.912	-0.161	-0.155
-541.237	76.178	0.116	0.122
-540.223	463.175	0.093	-0.208
-539.208	-4.676	0.098	0.067
-538.193	161.846	0.149	0.207
-537.179	-82.705	-0.375	-0.121
-536.164	800.000	-0.018	0.066
-535.150	-33.763	0.121	0.066
-534.135	154.251	-0.252	0.344
-533.121	-200.000	-0.044	-0.369
-532.106	238.023	0.170	-0.281
-531.091	800.000	-0.047	-0.138
-530.077	18.999	0.030	-0.024
-529.062	-200.000	0.005	-0.073
-528.048	800.000	-0.059	-0.252
-527.033	-33.545	-0.348	0.191
-526.018	58.130	-0.048	0.047
-525.004	83.750	0.073	0.079
-523.989	-93.707	0.241	-0.066
-522.975	89.601	-0.309	-0.343
-521.960	-19.688	-0.325	0.200
-520.945	66.757	0.061	-0.062
-519.931	73.487	-0.117	-0.122
-518.916	64.360	-0.213	-0.213
-517.902	54.700	0.092	0.088
-516.887	213.810	-0.147	0.231
-515.872	800.000	0.028	0.096
-514.858	-127.955	0.206	0.029
-513.843	767.916	0.052	-0.140
-512.829	-87.987	0.248	0.074
-511.814	800.000	0.065	-0.272
-510.799	-89.562	0.238	-0.070
-509.785	-161.480	0.256	-0.013
-508.770	800.000	-0.044	0.126
-507.756	92.059	0.109	0.122
-506.741	564.907	-0.132	-0.318
-505.726	-200.000	0.014	0.208
-504.712	360.144	-0.159	0.316
-503.697	-109.853	0.188	0.039
-502.683	-125.947	-0.165	-0.025
-501.668	-200.000	0.024	0.348
-500.653	-200.000	-0.012	0.230
-499.639	-112.852	0.352	0.069
-498.624	-200.000	-0.053	0.324
-497.610	800.000	-0.105	0.328
-496.595	-200.000	-0.021	0.116
-495.581	800.000	0.058	-0.190
-494.566	-78.718	-0.282	0.096
-493.551	-200.000	-0.058	0.462
-492.537	-200.000	-0.005	-0.340
-491.522	-89.934	0.193	0.056
-490.508	200.315	0.114	0.174
-489.493	-53.323	0.236	-0.108
-488.478	-34.883	0.260	0.141
-487.464	800.000	0.037	-0.111
-486.449	-100.187	0.210	0.052
-485.435	-56.896	-0.383	-0.168
-484.420	125.171	-0.176	-0.221
-483.405	800.000	0.100	-0.327
-482.391	-28.189	-0.155	-0.089
-481.376	-200.000	-0.026	-0.189
-480.362	-28.408	-0.133	0.076
-479.347	-14.709	0.116	0.074
-478.332	86.613	-0.109	0.120
-477.318	353.380	0.176	0.347
-476.303	-40.273	0.081	0.042
-475.289	-86.325	-0.156	-0.048
-474.274	-180.104	0.127	0.003
-473.259	128.503	0.073	0.093
-472.245	-200.000	-0.013	-0.279
-471.230	664.293	0.104	-0.267
-470.216	-24.218	-0.342	0.203
-469.201	146.619	0.263	0.350
-468.186	153.079	0.090	0.122
-467.172	44.167	0.065	0.059
-466.157	-153.928	-0.026	0.002
-465.143	-8.959	-0.133	-0.089
-464.128	526.315	0.033	0.077
-463.113	46.886	-0.366	0.338
-462.099	800.000	0.073	-0.254
-461.084	-48.696	0.349	0.166
-460.070	-200.000	0.019	-0.263
-459.055	345.796	0.050	-0.097
-458.040	631.912	0.029	0.072
-457.026	766.508	-0.026	0.070
-456.011	277.787	-0.110	-0.194
-454.997	-89.779	-0.254	-0.074
-453.982	-5.041	-0.139	0.095
-452.968	63.106	0.264	-0.263
-451.953	-24.984	0.158	-0.093
-450.938	800.000	-0.030	0.110
-449.924	-151.609	-0.138	0.010
-448.909	14.690	0.136	-0.105
-447.895	800.000	0.074	0.289
-446.880	-43.990	0.370	-0.185
-445.865	-39.275	-0.383	0.199
-444.851	-105.175	-0.098	0.022
-443.836	108.436	-0.277	-0.327
-442.822	-140.044	0.343	0.036
-441.807	119.826	-0.187	0.230
-440.792	-27.426	-0.225	0.130
-439.778	-159.945	-0.071	-0.004
-438.763	-73.845	-0.107	0.039
-437.749	-200.000	-0.012	-0.280
-436.734	431.327	-0.101	0.216
-435.719	-16.084	-0.056	-0.036
-434.705	565.130	0.008	-0.020
-433.690	-200.000	0.003	0.185
-432.676	219.802	0.103	-0.163
-431.661	-77.471	0.283	-0.097
-430.646	-200.000	-0.059	-0.341
-429.632	107.768	-0.138	-0.163
-428.617	17.646	0.371	0.292
-427.603	800.000	0.115	0.326
-426.588	282.100	-0.070	-0.124
-425.573	303.234	0.193	0.354
-424.559	234.203	0.191	-0.313
-423.544	-123.254	0.120	-0.019
-422.530	-188.973	-0.132	0.002
-421.515	-200.000	0.039	0.176
-420.500	-200.000	-0.055	0.276
-419.486	-30.740	-0.171	-0.096
-418.471	-35.425	0.644	0.346
-417.457	191.444	0.070	-0.104
-416.442	-99.884	-0.127	-0.031
-415.428	255.189	0.048	-0.081
-414.413	800.000	0.044	-0.137
-413.398	-27.088	-0.078	0.045
-412.384	219.463	0.099	-0.157
-411.369	-13.563	0.124	0.079
-410.355	-61.836	-0.249	0.103
-409.340	38.567	0.428	-0.378
-408.325	-200.000	0.021	-0.301
-407.311	147.708	-0.151	-0.202
-406.296	-200.000	0.031	-0.249
-405.282	-69.216	-0.139	0.053
-404.267	151.001	0.206	-0.278
-403.252	-146.363	-0.180	-0.016
-402.238	681.955	-0.111	-0.287
-401.223	91.884	-0.183	-0.203
-400.209	75.170	-0.234	-0.244
-399.194	-42.471	0.080	0.040
-398.179	661.405	0.051	-0.130
-397.165	-24.877	0.241	-0.142
-396.150	-150.873	-0.443	0.033
-395.136	-39.669	-0.047	-0.024
-394.121	223.913	0.204	0.326
-393.106	-13.440	0.183	0.118
-392.092	49.599	0.091	-0.084
-391.077	-168.159	-0.039	-0.001
-390.063	-41.176	-0.119	-0.061
-389.048	47.741	-0.211	0.195
-388.033	166.882	0.221	-0.310
-387.019	-115.129	-0.155	0.029
-386.004	-89.250	-0.076	0.022
-384.990	800.000	-0.088	0.277
-383.975	-200.000	-0.021	0.291
-382.960	-78.520	0.200	-0.068
-381.946	800.000	0.067	-0.214
-380.931	231.089	0.087	0.140
-379.917	-200.000	-0.001	-0.070
-378.902	260.101	0.092	-0.157
-377.888	338.092	-0.150	0.289
-376.873	-134.414	0.098	0.012
-375.858	62.387	-0.030	-0.029
-374.844	42.321	0.091	-0.082
-373.829	42.966	0.127	0.115
-372.815	8.026	-0.208	-0.155
-371.800	225.098	0.239	-0.383
-370.785	-76.944	-0.378	0.131
-369.771	-75.203	-0.335	-0.118
-368.756	124.903	-0.246	0.307
-367.742	800.000	-0.003	0.010
-366.727	-115.219	-0.349	0.065
-365.712	-92.632	0.227	-0.063
-364.698	800.000	0.062	-0.176
-363.683	-84.020	-0.244	0.077
-362.669	-136.948	0.366	0.042
-361.654	-33.351	0.287	-0.157
-360.639	-111.776	-0.173	0.035
-359.625	-31.513	-0.153	0.085
-358.610	-99.875	-0.198	0.049
-357.596	240.813	0.113	-0.186
-356.581	-136.950	-0.422	-0.048
-355.566	90.944	0.175	-0.194
-354.552	-20.670	-0.286	-0.174
-353.537	-87.515	-0.029	0.009
-352.523	-148.371	0.283	0.023
-351.508	-200.000	0.004	-0.103
-350.493	8.793	0.070	-0.052
-349.479	-200.000	-0.004	0.288
-348.464	-85.002	-0.259	0.080
-347.450	783.949	0.064	0.173
-346.435	-200.000	0.044	-0.254
-345.420	257.915	0.081	-0.138
-344.406	207.844	0.021	-0.032
-343.391	292.893	-0.088	0.158
-342.377	75.126	0.189	-0.196
-341.362	-87.834	-0.023	-0.007
-340.348	72.361	0.159	-0.163
-339.333	-191.700	-0.157	-0.002
-338.318	-200.000	0.037	0.204
-337.304	800.000	0.061	0.206
-336.289	-64.862	0.399	0.159
-335.275	298.775	0.098	0.178
-334.260	528.724	0.058	0.136
-333.245	-153.721	0.039	0.003
-332.231	-67.796	-0.196	0.076
-331.216	445.142	0.023	0.051
-330.202	323.870	-0.104	0.196
-329.187	-27.531	-0.430	0.247
-328.172	-104.727	-0.347	-0.079
-327.158	153.294	0.268	0.361
-326.143	36.355	-0.196	0.171
-325.129	-10.614	-0.233	0.152
-324.114	227.029	0.070	-0.113
-323.099	800.000	-0.050	0.137
-322.085	30.811	-0.161	0.136
-321.070	124.726	0.182	0.226
-320.056	-113.997	0.218	-0.042
-319.041	-131.917	-0.070	0.009
-318.026	274.971	0.105	-0.183
-317.012	1.872	0.250	0.178
-315.997	-22.315	-0.130	-0.078
-314.983	-82.983	-0.351	0.112
-313.968	247.724	0.096	0.160
-312.953	10.659	0.310	-0.233
-311.939	800.000	-0.092	-0.382
-310.924	138.056	0.172	-0.223
-309.910	-200.000	-0.005	-0.184
-308.895	33.857	0.093	-0.080
-307.880	-114.898	-0.081	0.015
-306.866	-49.653	-0.224	-0.105
-305.851	800.000	0.063	-0.250
-304.837	-106.601	-0.155	0.034
-303.822	-78.940	-0.152	0.051
-302.807	-54.879	-0.274	-0.122
-301.793	-200.000	0.007	0.251
-300.778	523.426	0.074	0.172
-299.764	294.769	0.107	0.193
-298.749	-200.000	0.009	0.140
-297.735	-145.493	0.231	0.020
-296.720	800.000	0.045	0.134
-295.705	-103.572	0.192	-0.044
-294.691	800.000	0.061	-0.191
-293.676	800.000	-0.100	0.332
-292.662	40.201	-0.265	0.235
-291.647	654.766	0.017	-0.042
-290.632	800.000	-0.061	-0.226
-289.618	-99.995	-0.168	-0.041
-288.603	206.201	-0.069	-0.105
-287.589	-62.422	0.422	-0.173
-286.574	334.991	-0.056	0.106
-285.559	800.000	0.007	-0.025
-284.545	54.135	-0.236	0.224
-283.530	-179.540	0.200	-0.004
-282.516	800.000	0.069	-0.245
-281.501	800.000	0.040	-0.134
-280.486	-90.204	0.224	-0.064
-279.472	424.914	0.088	-0.186
-278.457	-79.050	-0.073	-0.024
-277.443	-16.445	0.245	0.153
-276.428	-60.145	0.292	-0.123
-275.413	-18.314	-0.174	0.107
-274.399	81.328	-0.154	0.164
-273.384	800.000	-0.063	-0.216
-272.370	38.300	0.124	0.108
-271.355	-166.535	0.278	0.011
-270.340	-38.529	-0.177	-0.092
-269.326	-107.021	0.209	0.045
-268.311	-31.887	-0.263	0.145
-267.297	-4.924	-0.200	0.136
-266.282	800.000	-0.056	-0.238
-265.267	-173.479	0.195	-0.006
-264.253	352.123	0.083	0.161
-263.238	800.000	0.101	-0.281
-262.224	20.428	-0.207	0.165
-261.209	289.361	0.148	0.265
-260.195	215.321	0.122	0.190
-259.180	-19.565	-0.263	-0.160
-258.165	800.000	0.038	0.106
-257.151	149.132	0.034	-0.046
-256.136	-143.202	-0.503	-0.048
-255.122	-200.000	0.010	-0.078
-254.107	-83.227	0.364	0.115
-253.092	223.539	0.244	0.387
-252.078	-200.000	-0.036	-0.355
-251.063	-82.732	-0.157	-0.050
-250.049	800.000	0.058	0.157
-249.034	40.643	0.279	0.247
-248.019	-151.855	-0.164	0.012
-247.005	122.863	-0.073	0.089
-245.990	154.758	0.093	0.126
-244.976	363.647	-0.104	0.205
-243.961	208.068	0.155	0.238
-242.946	-150.112	-0.282	-0.022
-241.932	275.365	-0.085	0.149
-240.917	-152.383	0.220	0.016
-239.903	151.974	-0.160	0.214
-238.888	74.291	0.228	0.236
-237.873	96.890	0.180	-0.203
-236.859	-59.776	0.309	0.130
-235.844	-156.437	0.209	0.013
-234.830	209.483	-0.171	-0.263
-233.815	-200.000	-0.005	0.399
-232.800	-28.147	-0.225	0.128
-231.786	144.083	-0.015	0.020
-230.771	-2.577	-0.213	-0.147
-229.757	-3.787	-0.221	-0.151
-228.742	76.430	-0.054	0.056
-227.727	-132.604	-0.297	0.037
-226.713	-9.650	-0.106	-0.070
-225.698	-200.000	-0.079	0.580
-224.684	-200.000	-0.026	0.223
-223.669	378.128	0.032	-0.064
-222.655	-23.376	0.128	0.075
-221.640	30.135	-0.017	-0.014
-220.625	164.779	-0.017	0.023
-219.611	-200.000	0.012	-0.185
-218.596	575.847	-0.026	-0.062
-217.582	-3.102	-0.205	0.141
-216.567	36.009	0.207	0.179
-215.552	-200.000	-0.008	0.116
-214.538	612.671	0.115	0.284
-213.523	-13.388	0.298	-0.190
-212.509	-16.427	0.042	0.026
-211.494	-200.000	0.012	0.226
-210.479	137.011	0.216	0.277
-209.465	-200.000	-0.006	0.049
-208.450	-123.439	0.385	-0.060
-207.436	-43.091	-0.160	0.080
-206.421	-81.602	0.033	0.011
-205.406	-26.238	0.273	0.158
-204.392	-51.022	0.357	0.164
-203.377	-200.000	-0.024	-0.139
-202.363	207.549	-0.030	-0.046
-201.348	-200.000	-0.055	-0.369
-200.333	-48.603	0.348	-0.164
-199.319	800.000	0.053	0.189
-198.304	-104.659	-0.138	0.031
-197.290	-111.237	-0.267	-0.054
-196.275	800.000	0.084	0.311
-195.260	-41.729	-0.137	0.069
-194.246	96.523	-0.052	0.058
-193.231	-67.899	-0.151	0.058
-192.217	8.467	0.243	0.179
-191.202	-55.881	-0.193	0.084
-190.187	12.462	-0.309	-0.234
-189.173	-48.376	-0.119	0.056
-188.158	800.000	-0.038	-0.106
-187.144	-15.192	0.113	-0.071
-186.129	-200.000	-0.028	0.348
-185.114	198.756	0.091	0.136
-184.100	800.000	0.169	0.513
-183.085	800.000	-0.070	0.229
-182.071	-69.533	-0.215	0.081
-181.056	-128.756	-0.142	0.020
-180.042	800.000	0.099	0.366
-179.027	-74.396	0.050	-0.018
-178.012	-97.386	-0.164	0.042
-176.998	800.000	0.056	-0.181
-175.983	800.000	0.049	0.202
-174.969	-200.000	-0.000	-0.204
-173.954	39.760	0.063	-0.056
-172.939	-134.459	0.147	-0.018
-171.925	-200.000	0.009	-0.102
-170.910	29.160	0.125	-0.104
-169.896	-57.106	-0.078	-0.034
-168.881	155.860	-0.182	-0.246
-167.866	-200.000	0.113	-0.501
-166.852	800.000	0.038	-0.104
-165.837	-131.959	0.462	0.059
-164.823	-66.588	-0.373	0.145
-163.808	-74.757	0.306	-0.108
-162.793	-200.000	0.018	0.123
-161.779	-200.000	-0.001	0.081
-160.764	-134.200	-0.171	0.021
-159.750	13.779	0.197	-0.150
-158.735	-76.209	0.366	0.126
-157.720	-132.939	0.228	0.028
-156.706	800.000	-0.071	0.197
-155.691	-122.792	0.295	-0.047
-154.677	42.271	0.123	-0.110
-153.662	151.582	-0.085	0.114
-152.647	-166.286	-0.081	0.003
-151.633	343.230	-0.144	0.277
-150.618	-154.383	-0.225	0.015
-149.604	-110.217	0.486	-0.099
-148.589	148.946	0.051	-0.067
-147.574	-74.575	-0.160	0.056
-146.560	-104.006	0.111	0.025
-145.545	-133.454	-0.199	-0.024
-144.531	148.299	0.201	0.265
-143.516	396.972	-0.167	0.341
-142.502	25.701	0.271	-0.221
-141.487	-22.767	-0.229	0.136
-140.472	-97.860	0.291	-0.074
-139.458	-145.287	-0.219	0.019
-138.443	27.951	0.175	-0.145
-137.429	381.871	0.022	0.045
-136.414	107.486	0.030	-0.035
-135.399	99.178	0.195	0.221
-134.385	-36.616	0.129	0.068
-133.370	800.000	0.071	0.207
-132.356	-52.497	0.136	-0.061
-131.341	35.979	0.137	0.118
-130.326	-34.085	-0.255	-0.137
-129.312	800.000	0.132	0.408
-128.297	800.000	-0.098	0.281
-127.283	346.179	0.068	0.131
-126.268	-200.000	-0.030	0.129
-125.253	-134.979	0.258	0.031
-124.239	-93.510	-0.072	-0.019
-123.224	-132.856	-0.195	-0.024
-122.210	96.837	0.293	0.328
-121.195	-200.000	0.016	0.340
-120.180	-200.000	-0.024	0.238
