DTS Sentinel unit serial number:	SN413079Multiplexer serial number:	ORYXHardware model number:	OX4-SRSoftware version number:	ORYX F/W v4.00 Oryx Data Collector v3.7.2.0data status	okinstallation	princeton_trtdifferential loss correction	single-endedforward channel	channel 2reverse channel	N/Adate	2019/09/12time	16:37:11forward acquisition time	60.00reverse acquisition time	0.00gamma	496.2192k internal	0.2322k external	0.2322temperature offset calibration	1.0116default loss term (dB/km)	0.3790temperature slope calibration	1.0000multiplexer offset coefficient	1.0000multiplexer slope coefficient	1.0000fibre end	0.00T internal ref (°C)	36.89T ext. ref 1 (°C)	2.69T ext. ref 2 (°C)	29.58length (m)	temperature (°C)	Stokes	anti-Stokes-747.200	198.452	0.112	-0.174
-746.185	-142.689	-0.016	0.002
-745.171	-33.085	0.266	-0.149
-744.156	-138.877	-0.435	0.048
-743.142	421.556	0.078	-0.169
-742.127	700.205	0.071	0.190
-741.112	78.026	-0.261	-0.281
-740.098	-82.350	-0.366	-0.120
-739.083	138.000	-0.217	-0.287
-738.069	59.385	-0.160	0.159
-737.054	22.812	0.194	-0.161
-736.039	101.365	0.061	-0.072
-735.025	36.574	0.259	0.231
-734.010	-200.000	0.022	0.162
-732.996	93.439	-0.322	-0.368
-731.981	42.474	0.085	-0.079
-730.966	-200.000	-0.016	0.284
-729.952	192.886	0.157	0.240
-728.937	-200.000	0.048	-0.354
-727.923	800.000	-0.044	-0.155
-726.908	81.719	-0.168	-0.184
-725.894	25.938	0.264	-0.223
-724.879	-200.000	-0.014	0.091
-723.864	-58.975	-0.246	0.107
-722.850	522.043	0.107	-0.253
-721.835	32.439	-0.106	-0.092
-720.821	277.823	-0.147	0.264
-719.806	-55.687	0.038	0.017
-718.791	-61.330	0.202	0.086
-717.777	39.597	-0.174	-0.157
-716.762	-200.000	0.019	0.146
-715.748	-200.000	0.013	0.131
-714.733	800.000	-0.034	-0.144
-713.718	-200.000	-0.008	0.138
-712.704	-86.446	-0.091	0.028
-711.689	-150.284	0.289	0.022
-710.675	-22.533	-0.021	-0.013
-709.660	800.000	0.013	0.041
-708.645	-200.000	-0.019	-0.136
-707.631	111.829	0.020	-0.024
-706.616	-73.228	-0.302	0.112
-705.602	105.066	-0.077	0.092
-704.587	-104.779	0.072	0.017
-703.572	8.449	-0.069	0.052
-702.558	19.767	0.327	-0.265
-701.543	125.143	-0.067	0.085
-700.529	92.123	0.118	0.133
-699.514	-200.000	-0.031	-0.320
-698.499	-200.000	-0.193	0.000
-697.485	-200.000	-0.044	-0.206
-696.470	65.192	-0.086	-0.087
-695.456	709.367	0.086	-0.229
-694.441	51.882	-0.094	0.091
-693.426	379.239	-0.105	-0.216
-692.412	237.099	0.159	-0.265
-691.397	-33.655	0.373	0.208
-690.383	-200.000	-0.010	-0.172
-689.368	-78.534	-0.081	0.028
-688.354	132.224	-0.023	-0.030
-687.339	73.836	0.109	-0.116
-686.324	-71.720	0.276	-0.104
-685.310	3.216	-0.276	0.202
-684.295	-200.000	0.034	-0.293
-683.281	148.076	0.288	-0.391
-682.266	-180.149	-0.278	-0.006
-681.251	187.369	0.062	-0.093
-680.237	800.000	-0.066	0.240
-679.222	277.636	0.050	-0.091
-678.208	-200.000	-0.014	0.162
-677.193	113.361	0.070	-0.085
-676.178	57.591	-0.142	0.140
-675.164	-200.000	0.043	0.212
-674.149	150.967	-0.051	0.069
-673.135	-24.293	0.200	0.120
-672.120	800.000	-0.026	0.086
-671.105	259.594	0.126	0.219
-670.091	-200.000	0.011	-0.088
-669.076	531.743	0.070	0.166
-668.062	416.363	-0.071	-0.153
-667.047	-200.000	-0.035	-0.307
-666.032	46.549	-0.201	0.188
-665.018	-200.000	-0.013	0.301
-664.003	-58.001	-0.509	0.224
-662.989	-133.790	-0.236	-0.030
-661.974	-200.000	0.030	0.319
-660.959	132.891	-0.167	-0.218
-659.945	800.000	-0.060	-0.182
-658.930	-200.000	0.010	-0.060
-657.916	-75.292	0.065	0.023
-656.901	289.562	0.139	0.253
-655.886	25.593	0.314	-0.264
-654.872	-81.512	-0.197	-0.065
-653.857	237.456	-0.042	0.070
-652.843	-26.538	-0.146	-0.086
-651.828	-44.284	-0.140	0.071
-650.814	203.909	-0.047	-0.074
-649.799	-93.185	-0.290	0.081
-648.784	29.433	-0.245	-0.209
-647.770	-200.000	-0.023	-0.457
-646.755	65.900	-0.288	0.294
-645.741	27.148	-0.173	-0.146
-644.726	-200.000	0.077	-0.389
-643.711	-186.355	-0.285	-0.004
-642.697	75.135	-0.114	0.121
-641.682	-143.640	-0.138	0.013
-640.668	-200.000	-0.037	0.255
-639.653	-200.000	-0.021	-0.108
-638.638	106.113	0.112	-0.133
-637.624	800.000	-0.078	-0.283
-636.609	800.000	0.028	-0.079
-635.595	126.176	0.086	-0.109
-634.580	-200.000	0.030	-0.323
-633.565	231.634	-0.085	0.140
-632.551	-56.269	0.190	0.085
-631.536	800.000	0.069	-0.208
-630.522	-200.000	-0.008	0.135
-629.507	-200.000	0.001	-0.132
-628.492	-83.437	-0.316	0.102
-627.478	39.060	-0.044	-0.039
-626.463	84.312	-0.098	0.108
-625.449	473.888	-0.105	-0.238
-624.434	-200.000	0.001	0.074
-623.419	-66.847	-0.348	-0.138
-622.405	-87.857	0.251	0.076
-621.390	-34.232	0.321	-0.177
-620.376	-111.095	-0.107	-0.022
-619.361	-155.351	0.582	-0.038
-618.346	800.000	0.081	0.330
-617.332	-53.680	0.143	-0.066
-616.317	-39.802	-0.255	-0.134
-615.303	-200.000	-0.082	0.473
-614.288	-48.119	-0.136	0.066
-613.273	-200.000	0.086	0.560
-612.259	800.000	-0.050	-0.144
-611.244	-184.513	0.292	0.005
-610.230	800.000	0.098	-0.421
-609.215	86.083	-0.227	-0.252
-608.201	-6.854	-0.116	-0.079
-607.186	-175.872	0.117	0.003
-606.171	-200.000	0.005	0.028
-605.157	-200.000	-0.030	-0.183
-604.142	-200.000	-0.001	0.020
-603.128	-110.588	0.421	0.088
-602.113	11.694	-0.102	0.079
-601.098	-66.286	0.216	0.086
-600.084	-102.177	-0.277	0.067
-599.069	100.499	0.279	0.325
-598.055	-105.921	0.148	-0.033
-597.040	117.367	-0.025	-0.031
-596.025	382.102	-0.047	0.097
-595.011	168.971	0.116	-0.166
-593.996	800.000	0.041	0.117
-592.982	-94.272	0.312	0.086
-591.967	800.000	-0.069	0.253
-590.952	-200.000	-0.010	-0.071
-589.938	44.334	0.148	-0.136
-588.923	761.596	-0.008	-0.022
-587.909	15.597	-0.206	-0.163
-586.894	800.000	-0.023	-0.087
-585.879	800.000	-0.065	-0.195
-584.865	-1.488	0.186	-0.132
-583.850	90.880	-0.135	-0.152
-582.836	-30.439	-0.319	0.182
-581.821	-168.702	0.143	0.005
-580.806	69.338	-0.074	0.077
-579.792	-136.832	0.292	-0.034
-578.777	-90.993	-0.475	-0.137
-577.763	-44.652	-0.165	-0.083
-576.748	800.000	0.083	0.273
-575.733	-145.290	-0.362	-0.033
-574.719	-56.101	0.173	-0.077
-573.704	87.240	-0.222	-0.247
-572.690	800.000	0.087	-0.319
-571.675	-200.000	-0.003	-0.124
-570.661	-122.226	-0.162	-0.027
-569.646	-64.543	-0.130	0.053
-568.631	-89.555	-0.227	0.067
-567.617	741.823	0.030	-0.080
-566.602	-16.412	0.113	-0.072
-565.588	-165.669	0.214	0.009
-564.573	800.000	-0.129	-0.386
-563.558	107.449	0.108	0.128
-562.544	46.607	-0.034	-0.032
-561.529	128.577	-0.258	-0.330
-560.515	-122.686	-0.179	-0.029
-559.500	-200.000	-0.025	-0.118
-558.485	-152.809	0.431	-0.031
-557.471	-200.000	0.022	0.268
-556.456	25.579	0.093	0.078
-555.442	81.161	-0.201	0.218
-554.427	-118.037	0.209	0.037
-553.412	157.657	-0.129	0.180
-552.398	-200.000	0.000	-0.164
-551.383	800.000	-0.073	-0.249
-550.369	-200.000	-0.005	0.022
-549.354	800.000	0.077	0.316
-548.339	800.000	0.070	-0.217
-547.325	53.707	-0.084	0.080
-546.310	374.683	0.174	0.355
-545.296	20.109	-0.174	-0.141
-544.281	583.145	-0.100	0.245
-543.266	-22.339	0.265	-0.161
-542.252	-200.000	-0.073	-0.495
-541.237	7.801	-0.247	-0.185
-540.223	118.833	-0.134	-0.166
-539.208	-158.859	0.175	0.010
-538.193	-200.000	-0.008	0.280
-537.179	-200.000	-0.009	-0.083
-536.164	-200.000	0.027	-0.171
-535.150	-200.000	-0.014	-0.167
-534.135	-100.089	-0.221	-0.055
-533.121	-68.591	0.232	-0.090
-532.106	283.140	-0.070	-0.126
-531.091	-200.000	-0.006	-0.112
-530.077	-83.925	-0.247	0.079
-529.062	800.000	0.053	-0.171
-528.048	-200.000	-0.016	-0.397
-527.033	-200.000	-0.035	-0.311
-526.018	-200.000	-0.037	-0.345
-525.004	-147.339	0.179	0.015
-523.989	556.401	0.099	-0.239
-522.975	498.024	0.075	0.173
-521.960	-200.000	0.009	0.084
-520.945	135.886	-0.036	0.047
-519.931	-200.000	-0.012	-0.175
-518.916	-200.000	-0.026	-0.156
-517.902	-97.444	0.372	0.097
-516.887	13.397	0.046	0.035
-515.872	44.726	-0.127	-0.117
-514.858	800.000	-0.029	-0.100
-513.843	360.011	-0.142	-0.284
-512.829	-133.432	-0.255	0.032
-511.814	800.000	-0.063	0.194
-510.799	-116.140	0.126	-0.023
-509.785	-76.229	-0.133	-0.047
-508.770	22.880	0.141	0.116
-507.756	800.000	0.044	0.162
-506.741	-79.222	0.358	0.122
-505.726	-117.015	0.187	-0.034
-504.712	49.678	-0.224	-0.212
-503.697	-35.681	0.262	0.142
-502.683	146.384	0.065	0.087
-501.668	800.000	-0.082	-0.260
-500.653	55.684	0.102	-0.099
-499.639	-64.931	-0.296	0.120
-498.624	254.784	0.126	0.215
-497.610	37.769	-0.440	-0.391
-496.595	-40.591	0.173	-0.090
-495.581	-200.000	0.030	0.139
-494.566	635.612	0.051	-0.130
-493.551	-91.911	-0.219	0.062
-492.537	164.682	-0.138	-0.195
-491.522	69.152	-0.240	-0.246
-490.508	-52.877	0.197	-0.091
-489.493	-198.017	-0.346	-0.002
-488.478	407.385	0.185	0.391
-487.464	731.623	0.042	-0.111
-486.449	-29.661	-0.296	0.169
-485.435	-200.000	-0.005	-0.102
-484.420	-151.930	-0.210	0.015
-483.405	-55.440	-0.087	0.039
-482.391	-91.493	0.171	0.049
-481.376	146.364	-0.107	-0.143
-480.362	800.000	0.111	0.312
-479.347	264.946	0.139	0.242
-478.332	297.192	0.116	-0.214
-477.318	-100.461	0.180	-0.044
-476.303	-48.813	0.237	0.114
-475.289	30.678	0.282	0.241
-474.274	89.730	-0.106	-0.118
-473.259	-16.398	-0.150	-0.095
-472.245	450.140	-0.219	-0.483
-471.230	-200.000	-0.060	-0.689
-470.216	-60.077	-0.234	-0.100
-469.201	-65.702	-0.201	0.081
-468.186	-200.000	0.009	0.330
-467.172	72.144	-0.192	0.199
-466.157	-200.000	0.021	-0.418
-465.143	379.939	0.100	0.204
-464.128	-25.841	-0.233	0.137
-463.113	70.761	-0.196	0.203
-462.099	360.978	-0.087	0.174
-461.084	-200.000	0.014	-0.318
-460.070	-170.791	0.325	-0.011
-459.055	30.165	-0.089	0.076
-458.040	72.738	-0.083	0.086
-457.026	800.000	-0.084	0.264
-456.011	-76.827	0.173	0.060
-454.997	54.303	0.020	0.019
-453.982	-200.000	-0.008	-0.144
-452.968	-200.000	-0.013	-0.103
-451.953	-132.069	0.089	-0.012
-450.938	-118.308	0.267	-0.047
-449.924	101.200	0.227	0.264
-448.909	156.635	0.146	0.202
-447.895	309.210	-0.078	-0.145
-446.880	552.936	-0.114	-0.273
-445.865	-200.000	-0.031	0.260
-444.851	-16.417	0.221	-0.140
-443.836	-19.866	-0.324	-0.200
-442.822	-8.700	0.146	-0.098
-441.807	-108.351	0.242	0.052
-440.792	-28.628	-0.111	-0.064
-439.778	-70.234	-0.100	0.038
-438.763	-200.000	-0.047	0.236
-437.749	14.388	-0.344	-0.268
-436.734	-77.922	-0.353	0.121
-435.719	-16.006	0.265	-0.168
-434.705	105.621	-0.196	0.232
-433.690	714.495	0.084	0.221
-432.676	-200.000	0.024	-0.180
-431.661	-140.285	-0.173	0.018
-430.646	-40.964	0.034	-0.018
-429.632	6.674	0.259	0.193
-428.617	-6.699	0.106	0.072
-427.603	-52.323	0.138	-0.064
-426.588	273.397	-0.141	-0.248
-425.573	135.721	0.133	0.173
-424.559	-46.262	0.289	0.142
-423.544	100.726	-0.116	-0.134
-422.530	800.000	0.126	0.356
-421.515	-200.000	0.015	-0.424
-420.500	-200.000	0.047	0.237
-419.486	-200.000	0.032	0.407
-418.471	-200.000	0.036	0.259
-417.457	201.215	0.277	-0.426
-416.442	301.677	-0.122	-0.224
-415.428	-125.226	-0.166	-0.025
-414.413	-67.887	-0.164	0.064
-413.398	-200.000	0.005	-0.054
-412.384	-1.207	0.491	-0.346
-411.369	-126.756	-0.103	-0.015
-410.355	-200.000	-0.039	0.332
-409.340	-200.000	-0.040	0.239
-408.325	-52.391	-0.205	0.095
-407.311	-109.173	0.196	0.042
-406.296	342.501	0.064	-0.124
-405.282	-184.033	-0.341	-0.006
-404.267	-30.003	-0.124	-0.070
-403.252	122.893	0.262	0.327
-402.238	-75.472	-0.162	-0.058
-401.223	-4.852	0.144	-0.099
-400.209	-200.000	0.013	-0.269
-399.194	186.665	-0.124	0.184
-398.179	800.000	0.056	0.221
-397.165	-158.605	-0.130	-0.007
-396.150	-89.410	0.313	-0.092
-395.136	-105.854	0.390	-0.088
-394.121	-200.000	0.002	0.541
-393.106	-200.000	-0.051	0.256
-392.092	-69.319	-0.185	-0.071
-391.077	-103.505	0.484	-0.113
-390.063	51.679	-0.201	-0.190
-389.048	-70.561	0.160	0.060
-388.033	-100.027	0.359	-0.089
-387.019	800.000	0.037	-0.115
-386.004	-200.000	0.104	0.470
-384.990	39.094	-0.065	0.058
-383.975	-200.000	0.039	-0.267
-382.960	771.086	0.068	0.183
-381.946	-200.000	0.015	-0.126
-380.931	800.000	-0.024	-0.097
-379.917	-129.501	-0.115	-0.016
-378.902	-17.878	-0.314	-0.196
-377.888	-200.000	-0.012	0.263
-376.873	-3.531	-0.122	0.085
-375.858	128.070	0.266	0.336
-374.844	-18.326	0.159	0.099
-373.829	-24.517	0.152	-0.090
-372.815	17.566	-0.282	0.223
-371.800	415.427	-0.064	-0.135
-370.785	-22.542	-0.123	-0.074
-369.771	-200.000	-0.002	-0.087
-368.756	31.610	0.075	-0.064
-367.742	-49.335	-0.210	0.100
-366.727	274.074	-0.147	0.258
-365.712	128.145	-0.181	0.229
-364.698	-96.703	0.220	0.058
-363.683	-108.573	0.218	-0.047
-362.669	-200.000	-0.007	-0.129
-361.654	194.215	0.094	-0.142
-360.639	-47.688	-0.271	-0.131
-359.625	-24.723	0.269	0.159
-358.610	-200.000	0.068	-0.304
-357.596	-100.243	0.353	-0.087
-356.581	-200.000	0.072	-0.345
-355.566	-89.160	0.311	-0.091
-354.552	-162.010	0.223	-0.011
-353.537	-131.131	0.107	0.014
-352.523	454.568	-0.065	-0.144
-351.508	14.663	0.163	0.127
-350.493	-112.661	-0.071	-0.014
-349.479	800.000	-0.040	0.119
-348.464	5.307	0.157	-0.115
-347.450	-137.012	0.074	-0.008
-346.435	-111.466	-0.037	-0.007
-345.420	-200.000	0.008	-0.197
-344.406	800.000	0.082	-0.235
-343.391	-12.629	-0.287	-0.186
-342.377	345.673	-0.082	-0.160
-341.362	794.539	-0.091	0.249
-340.348	-111.708	0.279	-0.056
-339.333	61.022	0.132	-0.130
-338.318	122.900	0.077	0.096
-337.304	-68.032	0.219	-0.085
-336.289	-48.725	0.220	0.105
-335.275	-200.000	0.074	0.405
-334.260	-3.209	-0.236	0.164
-333.245	-200.000	-0.010	0.172
-332.231	-47.514	-0.223	-0.108
-331.216	80.645	-0.131	-0.141
-330.202	-98.409	0.099	0.025
-329.187	-55.683	0.173	0.077
-328.172	98.859	-0.297	0.340
-327.158	25.061	0.183	0.151
-326.143	620.697	-0.143	0.358
-325.129	86.163	0.139	0.152
-324.114	428.377	-0.092	-0.197
-323.099	-112.848	0.148	0.029
-322.085	-3.570	0.237	0.164
-321.070	663.546	0.055	0.142
-320.056	-80.197	0.030	0.010
-319.041	-120.175	-0.073	-0.012
-318.026	104.508	0.055	0.065
-317.012	-200.000	-0.045	0.285
-315.997	800.000	0.064	0.181
-314.983	23.369	0.148	-0.121
-313.968	800.000	0.118	0.407
-312.953	-156.062	-0.180	0.011
-311.939	-200.000	-0.012	-0.340
-310.924	47.353	0.148	-0.137
-309.910	108.116	0.241	0.285
-308.895	-115.096	-0.051	0.010
-307.880	108.173	0.164	0.195
-306.866	-103.162	-0.189	0.045
-305.851	252.058	0.111	0.188
-304.837	13.196	0.232	-0.179
-303.822	13.684	0.030	-0.023
-302.807	-110.938	0.228	0.047
-301.793	800.000	0.039	0.110
-300.778	-20.541	-0.192	0.117
-299.764	365.987	-0.110	0.221
-298.749	-200.000	-0.019	0.195
-297.735	477.288	-0.121	-0.271
-296.720	231.052	0.094	0.152
-295.705	111.273	-0.043	0.051
-294.691	89.131	0.057	-0.063
-293.676	360.344	0.155	-0.308
-292.662	-71.443	0.168	-0.063
-291.647	-111.235	0.334	-0.068
-290.632	-200.000	-0.023	0.174
-289.618	800.000	0.046	0.152
-288.603	7.724	-0.324	0.241
-287.589	25.242	0.023	-0.019
-286.574	800.000	-0.096	-0.277
-285.559	-119.992	0.162	-0.028
-284.545	161.233	-0.068	0.094
-283.530	-37.584	0.173	-0.091
-282.516	-168.775	0.294	0.011
-281.501	-200.000	-0.001	0.289
-280.486	-154.944	-0.072	-0.005
-279.472	-86.513	-0.137	0.042
-278.457	-200.000	-0.037	0.185
-277.443	-74.430	0.423	-0.151
-276.428	-126.478	0.225	0.033
-275.413	186.437	0.190	-0.280
-274.399	624.148	-0.033	0.082
-273.384	50.458	-0.049	-0.046
-272.370	-12.003	-0.304	0.198
-271.355	-41.677	0.039	0.020
-270.340	57.580	0.098	0.095
-269.326	-114.113	-0.538	0.103
-268.311	-164.067	-0.254	-0.012
-267.297	-200.000	0.058	-0.257
-266.282	-28.392	-0.188	-0.108
-265.267	-58.030	0.137	-0.059
-264.253	-42.696	-0.118	-0.059
-263.238	136.986	-0.113	0.146
-262.224	800.000	0.037	-0.151
-261.209	-120.687	0.023	-0.004
-260.195	-70.694	-0.146	-0.055
-259.180	-58.093	0.230	0.099
-258.165	17.931	0.136	-0.108
-257.151	-104.744	-0.202	0.046
-256.136	-62.524	-0.060	-0.025
-255.122	166.808	0.190	0.267
-254.107	9.628	-0.086	-0.064
-253.092	800.000	0.025	0.093
-252.078	-21.932	0.203	0.122
-251.063	12.554	0.225	-0.172
-250.049	-54.808	0.205	0.092
-249.034	10.110	0.171	-0.128
-248.019	79.761	0.181	-0.193
-247.005	-200.000	0.003	-0.090
-245.990	-56.193	-0.220	0.097
-244.976	102.673	-0.142	0.165
-243.961	390.505	0.073	-0.149
-242.946	65.104	-0.087	-0.087
-241.932	250.979	-0.259	0.436
-240.917	-167.318	-0.198	-0.008
-239.903	-200.000	-0.049	0.256
-238.888	800.000	0.077	-0.326
-237.873	408.719	-0.146	-0.305
-236.859	33.970	-0.157	0.135
-235.844	-169.462	0.140	0.005
-234.830	10.149	-0.144	0.108
-233.815	688.715	-0.128	0.331
-232.800	331.218	0.144	0.274
-231.786	447.100	0.095	0.207
-230.771	800.000	0.021	-0.059
-229.757	-52.181	0.189	-0.087
-228.742	-8.123	0.033	0.022
-227.727	-72.336	0.142	-0.052
-226.713	82.184	-0.119	0.127
-225.698	29.546	-0.171	0.144
-224.684	164.199	-0.271	0.378
-223.669	468.788	-0.058	0.129
-222.655	-126.070	0.240	0.036
-221.640	-200.000	0.014	0.063
-220.625	31.221	0.165	0.140
-219.611	-27.542	-0.140	0.080
-218.596	-132.802	-0.206	0.026
-217.582	-110.120	-0.234	-0.048
-216.567	-22.516	0.179	-0.107
-215.552	-67.733	0.225	-0.087
-214.538	-200.000	-0.029	-0.299
-213.523	126.961	0.079	-0.099
-212.509	28.084	0.005	0.004
-211.494	-200.000	-0.012	0.448
-210.479	800.000	0.039	0.155
-209.465	800.000	0.113	-0.340
-208.450	800.000	0.114	0.314
-207.436	-200.000	0.024	-0.120
-206.421	-9.048	-0.302	-0.200
-205.406	-101.742	-0.278	-0.067
-204.392	44.797	-0.024	-0.022
-203.377	14.088	-0.208	0.160
-202.363	58.906	-0.164	-0.159
-201.348	-132.058	-0.132	-0.017
-200.333	37.212	0.202	-0.177
-199.319	157.820	-0.280	-0.383
-198.304	291.609	0.144	0.260
-197.290	-119.966	0.129	0.022
-196.275	60.282	-0.112	-0.109
-195.260	69.425	0.081	0.082
-194.246	-200.000	-0.002	0.123
-193.231	-43.018	0.141	0.071
-192.217	-18.794	0.167	0.103
-191.202	-50.970	0.125	0.058
-190.187	173.609	-0.129	-0.184
-189.173	800.000	-0.115	-0.321
-188.158	178.509	-0.195	-0.281
-187.144	-200.000	-0.017	-0.078
-186.129	-34.879	-0.241	-0.130
-185.114	32.890	-0.173	0.148
-184.100	-200.000	0.005	0.124
-183.085	59.068	0.125	0.122
-182.071	-88.057	-0.126	-0.037
-181.056	-111.320	0.166	-0.033
-180.042	-132.693	0.262	-0.033
-179.027	-114.945	-0.234	0.044
-178.012	91.131	0.115	0.127
-176.998	68.029	0.153	-0.154
-175.983	-150.855	-0.164	0.012
-174.969	495.510	-0.053	0.119
-173.954	-130.345	-0.309	-0.041
-172.939	307.974	-0.045	0.082
-171.925	236.498	0.118	0.193
-170.910	11.614	0.039	-0.030
-169.896	-129.615	-0.268	-0.037
-168.881	800.000	-0.105	0.365
-167.866	800.000	0.103	-0.425
-166.852	800.000	0.078	-0.264
-165.837	247.712	-0.360	0.602
-164.823	82.383	-0.036	-0.038
-163.808	36.298	0.089	-0.078
-162.793	39.852	0.227	0.201
-161.779	412.903	0.058	-0.122
-160.764	-23.606	0.075	0.045
-159.750	495.771	-0.044	0.100
-158.735	-143.080	-0.482	0.046
-157.720	-107.952	-0.296	0.063
-156.706	-200.000	-0.002	-0.253
-155.691	-21.317	0.138	0.083
-154.677	-200.000	0.057	0.305
-153.662	-5.495	0.171	-0.116
-152.647	-108.071	-0.215	0.046
-151.633	52.771	-0.203	0.192
-150.618	-67.917	0.046	-0.018
-149.604	735.953	0.038	0.100
-148.589	-200.000	-0.004	-0.128
-147.574	91.870	0.193	0.215
-146.560	-200.000	0.000	-0.053
-145.545	-200.000	-0.015	0.222
-144.531	38.022	-0.052	0.045
-143.516	739.831	0.087	-0.230
-142.502	7.527	-0.296	0.218
-141.487	-22.812	0.296	-0.176
-140.472	800.000	-0.080	-0.300
-139.458	96.178	0.136	-0.153
-138.443	-200.000	-0.005	0.131
-137.429	0.493	-0.227	0.160
-136.414	581.481	0.128	0.309
-135.399	-134.464	0.163	-0.020
-134.385	-77.536	-0.147	-0.050
-133.370	-119.036	0.195	-0.034
-132.356	-200.000	0.005	0.207
-131.341	-200.000	-0.016	-0.104
-130.326	8.041	0.353	0.261
-129.312	800.000	0.036	0.142
-128.297	-102.913	-0.163	-0.038
-127.283	39.002	-0.167	-0.147
-126.268	-14.673	-0.301	-0.191
-125.253	-77.918	-0.267	0.091
-124.239	86.588	0.121	0.132
-123.224	-133.819	-0.143	-0.018
-122.210	-142.250	0.132	0.013
