DTS Sentinel unit serial number:	SN413079Multiplexer serial number:	ORYXHardware model number:	OX4-SRSoftware version number:	ORYX F/W v4.00 Oryx Data Collector v3.7.2.0data status	okinstallation	princeton_trtdifferential loss correction	single-endedforward channel	channel 2reverse channel	N/Adate	2019/09/16time	12:59:35forward acquisition time	60.00reverse acquisition time	0.00gamma	496.2192k internal	0.2301k external	0.2301temperature offset calibration	0.9945default loss term (dB/km)	0.3790temperature slope calibration	1.0000multiplexer offset coefficient	1.0000multiplexer slope coefficient	1.0000fibre end	0.00T internal ref (°C)	40.56T ext. ref 1 (°C)	13.59T ext. ref 2 (°C)	37.60length (m)	temperature (°C)	Stokes	anti-Stokes-747.200	-192.426	0.195	-0.002
-746.185	800.000	-0.091	0.273
-745.171	-200.000	0.004	-0.063
-744.156	-76.471	-0.064	0.023
-743.142	-24.401	0.114	-0.069
-742.127	-200.000	-0.031	0.392
-741.112	-117.591	-0.156	0.029
-740.098	93.444	-0.097	0.112
-739.083	-62.152	-0.196	0.083
-738.069	194.528	-0.157	0.242
-737.054	489.316	-0.106	-0.246
-736.039	-14.034	-0.179	-0.118
-735.025	-200.000	0.039	-0.195
-734.010	800.000	-0.008	-0.033
-732.996	-42.001	-0.154	-0.080
-731.981	26.448	-0.199	0.170
-730.966	33.671	0.126	-0.111
-729.952	-1.016	-0.221	0.159
-728.937	-43.620	0.026	-0.014
-727.923	379.218	-0.055	-0.116
-726.908	800.000	-0.046	-0.192
-725.894	-91.898	-0.396	-0.115
-724.879	800.000	-0.082	-0.307
-723.864	-3.936	0.036	-0.025
-722.850	800.000	0.046	0.156
-721.835	-22.726	-0.121	-0.074
-720.821	-200.000	0.012	0.075
-719.806	-200.000	-0.010	-0.187
-718.791	423.793	-0.046	0.101
-717.777	20.058	-0.055	0.045
-716.762	572.130	0.097	0.240
-715.748	511.987	-0.112	0.265
-714.733	-11.606	-0.091	0.061
-713.718	50.995	-0.084	-0.081
-712.704	-200.000	0.007	-0.205
-711.689	35.421	-0.027	0.024
-710.675	121.235	-0.158	0.201
-709.660	-6.809	0.113	0.078
-708.645	-85.556	0.239	-0.076
-707.631	-94.325	0.463	0.129
-706.616	-116.355	0.481	0.091
-705.602	177.407	-0.258	-0.383
-704.587	472.166	0.168	-0.384
-703.572	412.179	0.172	-0.371
-702.558	-116.271	-0.118	-0.022
-701.543	169.468	0.079	0.115
-700.529	414.252	-0.072	0.156
-699.514	-26.727	0.166	0.099
-698.499	-72.670	-0.312	-0.117
-697.485	799.607	0.062	-0.174
-696.470	-89.849	0.210	0.062
-695.456	-125.489	-0.322	-0.050
-694.441	-100.724	-0.109	-0.027
-693.426	557.401	-0.083	-0.203
-692.412	250.988	0.093	-0.161
-691.397	-166.501	0.284	-0.012
-690.383	-4.750	-0.250	0.176
-689.368	-33.894	0.142	-0.079
-688.354	139.782	-0.088	-0.118
-687.339	-146.161	-0.122	-0.011
-686.324	-157.462	0.353	-0.022
-685.310	48.396	0.176	-0.167
-684.295	-167.389	-0.089	-0.004
-683.281	93.146	-0.095	0.110
-682.266	37.583	0.187	0.168
-681.251	-166.586	0.257	0.011
-680.237	-200.000	0.061	-0.279
-679.222	20.845	0.046	-0.038
-678.208	286.431	0.049	-0.091
-677.193	76.611	0.126	-0.136
-676.178	-200.000	-0.058	0.315
-675.164	429.967	-0.034	-0.076
-674.149	800.000	-0.079	0.319
-673.135	-200.000	-0.019	0.270
-672.120	310.992	0.014	-0.026
-671.105	354.040	-0.049	-0.099
-670.091	-14.617	-0.158	0.103
-669.076	227.611	-0.265	-0.438
-668.062	-44.046	-0.114	-0.058
-667.047	74.942	-0.014	-0.014
-666.032	-89.558	-0.248	-0.074
-665.018	94.751	0.277	-0.321
-664.003	-7.601	0.070	-0.048
-662.989	-200.000	-0.009	-0.039
-661.974	-200.000	-0.035	-0.179
-660.959	-64.677	0.313	0.129
-659.945	84.156	-0.094	-0.104
-658.930	-200.000	0.022	0.167
-657.916	98.106	-0.084	-0.099
-656.901	448.220	0.093	-0.209
-655.886	-65.010	0.046	0.019
-654.872	-200.000	-0.011	0.130
-653.857	-15.511	0.269	0.175
-652.843	-106.952	0.400	0.090
-651.828	537.284	0.093	0.224
-650.814	286.505	0.134	0.246
-649.799	-200.000	-0.007	0.285
-648.784	-120.394	0.200	0.035
-647.770	-12.410	-0.111	-0.074
-646.755	-143.457	0.190	-0.018
-645.741	-79.051	-0.077	0.027
-644.726	-94.012	0.207	0.058
-643.711	371.399	0.032	0.066
-642.697	397.620	0.069	-0.147
-641.682	-200.000	-0.042	-0.206
-640.668	-200.000	-0.013	-0.071
-639.653	315.614	-0.082	-0.158
-638.638	235.321	-0.136	-0.229
-637.624	-200.000	0.002	-0.185
-636.609	38.423	0.128	-0.116
-635.595	26.992	-0.161	-0.137
-634.580	-52.031	0.200	-0.095
-633.565	-200.000	-0.013	-0.064
-632.551	246.024	-0.070	0.120
-631.536	61.287	0.211	0.213
-630.522	-5.742	0.068	0.048
-629.507	-139.251	-0.098	0.011
-628.492	313.795	0.058	0.110
-627.478	800.000	-0.027	-0.118
-626.463	382.612	-0.049	-0.101
-625.449	-22.486	0.175	-0.107
-624.434	-21.283	0.127	0.079
-623.419	-200.000	0.027	0.205
-622.405	-70.653	0.160	0.061
-621.390	-80.989	0.152	-0.051
-620.376	42.031	-0.205	0.189
-619.361	19.606	0.189	-0.154
-618.346	-200.000	-0.010	-0.075
-617.332	-67.620	-0.254	0.101
-616.317	273.263	0.097	0.175
-615.303	23.535	-0.232	0.194
-614.288	16.304	-0.320	0.256
-613.273	-200.000	0.047	0.391
-612.259	-94.240	0.227	-0.063
-611.244	-11.007	0.061	-0.041
-610.230	93.625	0.137	-0.158
-609.215	-147.094	0.180	-0.016
-608.201	137.708	-0.228	-0.303
-607.186	58.702	0.216	0.215
-606.171	-93.585	-0.261	-0.073
-605.157	-200.000	0.027	0.126
-604.142	-30.299	-0.039	0.022
-603.128	239.526	-0.183	-0.308
-602.113	174.431	-0.321	-0.470
-601.098	800.000	0.080	0.327
-600.084	-40.969	0.182	-0.095
-599.069	800.000	-0.042	-0.141
-598.055	-35.076	-0.037	-0.020
-597.040	137.765	0.080	0.107
-596.025	16.946	-0.261	0.210
-595.011	-200.000	-0.004	-0.152
-593.996	-31.680	0.082	-0.047
-592.982	-186.760	0.079	-0.001
-591.967	257.436	0.106	-0.184
-590.952	-119.260	-0.173	-0.030
-589.938	647.291	-0.122	0.315
-588.923	-154.211	-0.068	-0.005
-587.909	84.349	-0.110	0.122
-586.894	800.000	0.019	0.085
-585.879	800.000	-0.078	0.274
-584.865	800.000	0.050	0.191
-583.850	800.000	-0.058	0.254
-582.836	86.309	-0.224	0.250
-581.821	-200.000	0.016	-0.166
-580.806	-200.000	-0.013	0.063
-579.792	191.774	-0.055	0.084
-578.777	-148.266	-0.217	0.018
-577.763	-133.109	0.180	-0.023
-576.748	52.291	0.234	-0.226
-575.733	-28.735	-0.211	0.123
-574.719	94.192	0.164	0.189
-573.704	167.625	0.308	-0.444
-572.690	162.157	0.088	-0.124
-571.675	-173.644	-0.404	-0.012
-570.661	4.525	-0.176	-0.130
-569.646	-200.000	0.025	0.177
-568.631	184.342	-0.081	-0.122
-567.617	170.570	-0.116	-0.168
-566.602	121.101	-0.044	-0.056
-565.588	314.858	0.151	0.289
-564.573	144.748	-0.061	-0.083
-563.558	-200.000	-0.030	-0.321
-562.544	-15.979	0.109	0.070
-561.529	399.157	-0.134	0.283
-560.515	-200.000	0.017	0.227
-559.500	-29.125	0.289	0.167
-558.485	20.047	0.117	-0.095
-557.471	78.539	0.221	-0.239
-556.456	-129.982	0.433	-0.060
-555.442	800.000	0.050	-0.183
-554.427	117.000	-0.219	-0.272
-553.412	251.095	-0.051	-0.088
-552.398	-200.000	0.134	-0.656
-551.383	6.518	-0.070	0.053
-550.369	-41.442	0.031	0.016
-549.354	-41.617	0.424	0.221
-548.339	-67.889	0.077	-0.030
-547.325	-156.454	0.422	0.027
-546.310	-166.617	0.315	0.013
-545.296	213.275	-0.143	-0.228
-544.281	800.000	0.033	0.132
-543.266	-200.000	0.034	-0.333
-542.252	800.000	0.016	-0.049
-541.237	-66.404	0.072	-0.029
-540.223	136.314	0.125	0.165
-539.208	-9.023	0.146	0.099
-538.193	-35.705	0.174	-0.095
-537.179	621.485	-0.061	-0.155
-536.164	10.991	0.259	0.201
-535.150	323.758	-0.062	0.120
-534.135	124.874	0.110	0.140
-533.121	-200.000	0.023	0.278
-532.106	318.523	0.096	0.183
-531.091	50.628	0.163	0.156
-530.077	800.000	-0.061	0.268
-529.062	-113.056	0.355	-0.071
-528.048	57.518	0.069	0.068
-527.033	323.280	0.044	-0.084
-526.018	-25.776	0.238	0.142
-525.004	-118.625	0.086	-0.015
-523.989	421.461	-0.016	0.034
-522.975	-56.605	0.316	-0.142
-521.960	-102.036	-0.274	-0.067
-520.945	38.479	-0.080	0.072
-519.931	-190.668	-0.282	-0.003
-518.916	-173.871	-0.598	0.018
-517.902	-139.872	-0.230	-0.025
-516.887	-33.147	-0.173	-0.097
-515.872	16.948	0.101	-0.081
-514.858	312.933	0.188	0.356
-513.843	41.154	-0.099	0.091
-512.829	57.353	-0.191	-0.189
-511.814	-200.000	0.006	-0.193
-510.799	139.073	0.147	0.195
-509.785	-147.118	-0.131	-0.011
-508.770	-56.165	0.321	0.144
-507.756	-200.000	0.035	0.190
-506.741	800.000	-0.028	0.096
-505.726	800.000	0.073	-0.205
-504.712	90.946	-0.120	0.136
-503.697	-3.074	-0.157	-0.111
-502.683	-200.000	-0.006	-0.048
-501.668	-50.219	0.148	0.070
-500.653	796.606	-0.091	0.254
-499.639	136.442	0.085	0.112
-498.624	-156.362	0.142	-0.009
-497.610	-61.930	-0.138	0.058
-496.595	800.000	-0.058	-0.210
-495.581	-200.000	-0.010	-0.047
-494.566	94.068	0.116	-0.133
-493.551	-11.494	-0.365	-0.243
-492.537	-200.000	-0.023	0.168
-491.522	493.221	-0.106	0.245
-490.508	-38.126	-0.096	-0.051
-489.493	800.000	0.074	0.283
-488.478	-200.000	-0.000	-0.061
-487.464	-131.679	0.311	-0.041
-486.449	-90.382	-0.112	0.033
-485.435	316.880	0.140	0.268
-484.420	-200.000	-0.004	-0.223
-483.405	198.469	-0.222	-0.342
-482.391	800.000	0.042	0.146
-481.376	-31.137	0.333	-0.190
-480.362	53.347	-0.255	-0.247
-479.347	-80.370	-0.119	-0.040
-478.332	-200.000	-0.009	0.046
-477.318	-144.602	0.169	0.016
-476.303	124.873	0.078	-0.099
-475.289	436.482	-0.027	0.059
-474.274	184.466	0.024	0.036
-473.259	84.394	0.140	-0.154
-472.245	-68.174	0.070	-0.027
-471.230	800.000	0.050	-0.158
-470.216	107.931	-0.188	0.226
-469.201	35.545	0.076	0.067
-468.186	800.000	-0.058	-0.166
-467.172	-139.844	0.185	-0.020
-466.157	-29.958	-0.059	0.034
-465.143	-200.000	0.020	0.320
-464.128	644.313	-0.182	-0.469
-463.113	-33.962	0.105	-0.058
-462.099	-64.888	0.306	0.125
-461.084	-58.056	0.343	-0.151
-460.070	631.297	0.070	-0.179
-459.055	800.000	-0.048	-0.139
-458.040	800.000	0.034	-0.142
-457.026	-186.639	0.223	0.003
-456.011	-200.000	-0.003	0.235
-454.997	210.854	0.028	0.045
-453.982	209.967	-0.205	-0.324
-452.968	-200.000	-0.000	-0.053
-451.953	113.155	-0.092	-0.112
-450.938	-56.987	-0.409	0.182
-449.924	800.000	-0.016	-0.049
-448.909	-200.000	-0.034	-0.202
-447.895	62.856	-0.255	0.257
-446.880	-200.000	0.016	-0.326
-445.865	800.000	-0.042	0.144
-444.851	26.771	0.164	-0.139
-443.836	242.262	-0.122	0.205
-442.822	5.710	0.249	-0.185
-441.807	242.443	-0.162	0.273
-440.792	-107.785	0.141	0.031
-439.778	-200.000	0.101	-0.527
-438.763	45.150	-0.173	-0.160
-437.749	49.505	0.024	-0.023
-436.734	-1.486	-0.302	0.215
-435.719	43.216	-0.143	0.132
-434.705	30.434	-0.139	-0.119
-433.690	-200.000	-0.044	-0.302
-432.676	-67.452	0.246	0.097
-431.661	-66.438	-0.062	0.025
-430.646	-164.621	0.076	0.003
-429.632	-54.736	-0.333	0.151
-428.617	162.035	-0.128	0.180
-427.603	385.454	-0.095	-0.197
-426.588	173.515	-0.101	0.147
-425.573	-44.494	0.348	0.175
-424.559	-200.000	0.032	-0.142
-423.544	-94.165	-0.338	0.093
-422.530	61.898	-0.082	-0.082
-421.515	-121.635	0.221	-0.037
-420.500	652.803	0.123	0.317
-419.486	-49.009	-0.272	0.131
-418.471	218.079	0.160	0.256
-417.457	-32.935	0.370	-0.207
-416.442	19.383	-0.171	0.138
-415.428	273.792	0.121	-0.215
-414.413	91.024	-0.180	-0.204
-413.398	102.564	-0.056	-0.065
-412.384	-113.077	0.448	-0.089
-411.369	800.000	0.041	0.132
-410.355	800.000	0.050	-0.155
-409.340	800.000	0.044	0.163
-408.325	63.574	-0.158	0.159
-407.311	15.566	0.230	0.182
-406.296	-62.805	0.132	0.055
-405.282	219.453	-0.174	0.280
-404.267	238.836	-0.126	-0.210
-403.252	-119.299	-0.278	0.049
-402.238	-92.681	-0.086	0.024
-401.223	-200.000	-0.007	0.360
-400.209	800.000	0.027	-0.087
-399.194	-38.748	0.172	-0.091
-398.179	-200.000	-0.008	0.043
-397.165	800.000	0.052	0.208
-396.150	64.916	0.137	0.140
-395.136	-74.086	0.350	-0.128
-394.121	-11.501	0.155	-0.102
-393.106	-76.003	-0.123	-0.044
-392.092	93.825	-0.252	0.287
-391.077	-200.000	-0.000	0.083
-390.063	-200.000	0.018	0.197
-389.048	-5.345	-0.165	0.114
-388.033	800.000	-0.039	0.112
-387.019	211.106	-0.134	-0.212
-386.004	-200.000	0.014	-0.090
-384.990	-31.751	-0.154	0.087
-383.975	-200.000	0.011	-0.306
-382.960	-142.898	0.209	0.020
-381.946	475.595	-0.093	0.210
-380.931	-52.565	-0.171	0.079
-379.917	125.539	-0.242	-0.307
-378.902	102.147	-0.174	0.205
-377.888	800.000	-0.101	0.415
-376.873	767.365	0.112	0.307
-375.858	90.092	0.245	-0.275
-374.844	-25.418	0.106	0.063
-373.829	69.860	0.157	0.162
-372.815	-126.678	0.012	0.002
-371.800	-77.726	-0.197	0.069
-370.785	800.000	0.032	0.101
-369.771	-200.000	-0.070	-0.337
-368.756	-164.275	-0.252	-0.012
-367.742	-200.000	-0.013	0.212
-366.727	287.270	-0.149	0.271
-365.712	-6.198	-0.250	0.171
-364.698	-98.609	0.151	0.039
-363.683	-71.166	0.223	-0.084
-362.669	36.449	-0.180	-0.160
-361.654	33.241	-0.226	-0.197
-360.639	159.803	0.356	-0.498
-359.625	-124.760	0.214	0.033
-358.610	-200.000	0.001	0.131
-357.596	-65.078	-0.523	0.212
-356.581	-200.000	0.049	0.243
-355.566	-75.235	0.189	-0.068
-354.552	-14.879	0.308	0.198
-353.537	444.708	-0.093	0.205
-352.523	800.000	0.022	0.089
-351.508	574.673	-0.049	-0.120
-350.493	-200.000	0.030	0.393
-349.479	35.130	-0.035	-0.031
-348.464	19.684	-0.064	0.052
-347.450	-117.176	-0.134	0.025
-346.435	543.591	-0.090	-0.215
-345.420	-49.184	0.271	-0.130
-344.406	-139.600	-0.206	0.022
-343.391	81.862	-0.051	0.055
-342.377	800.000	-0.112	-0.357
-341.362	-31.326	0.153	-0.086
-340.348	78.737	0.112	0.121
-339.333	218.112	-0.164	-0.263
-338.318	455.012	0.030	-0.067
-337.304	10.019	-0.157	-0.120
-336.289	282.701	0.078	0.141
-335.275	-200.000	0.040	-0.208
-334.260	-110.070	0.372	-0.078
-333.245	16.489	-0.036	0.029
-332.231	-28.510	-0.212	-0.123
-331.216	455.245	-0.102	-0.226
-330.202	-61.638	-0.171	-0.072
-329.187	11.553	-0.042	-0.032
-328.172	5.093	-0.125	-0.092
-327.158	-15.558	0.123	-0.079
-326.143	-133.687	-0.176	-0.022
-325.129	-14.367	0.088	0.057
-324.114	-200.000	0.022	0.112
-323.099	28.518	-0.099	0.084
-322.085	-200.000	0.002	0.168
-321.070	141.027	-0.146	0.194
-320.056	-200.000	-0.006	-0.277
-319.041	800.000	-0.075	-0.269
-318.026	35.630	0.260	-0.229
-317.012	8.020	0.195	0.147
-315.997	800.000	-0.044	0.145
-314.983	54.462	0.181	-0.175
-313.968	800.000	0.048	0.156
-312.953	-200.000	0.043	-0.457
-311.939	-76.797	-0.213	-0.075
-310.924	3.835	-0.185	0.135
-309.910	-74.773	0.192	-0.069
-308.895	800.000	0.128	-0.386
-307.880	86.397	-0.309	-0.342
-306.866	-119.213	0.095	0.017
-305.851	779.826	-0.108	0.295
-304.837	-200.000	-0.051	-0.336
-303.822	-31.419	-0.101	0.057
-302.807	-165.185	0.270	-0.012
-301.793	98.114	-0.105	-0.121
-300.778	458.598	0.148	0.330
-299.764	-70.892	0.343	0.129
-298.749	800.000	-0.045	-0.143
-297.735	391.929	-0.197	-0.410
-296.720	21.263	-0.091	0.074
-295.705	-45.367	0.336	-0.167
-294.691	62.393	0.149	0.149
-293.676	275.091	0.127	-0.225
-292.662	75.796	0.135	-0.143
-291.647	239.514	-0.119	-0.199
-290.632	800.000	-0.070	0.291
-289.618	-200.000	-0.002	0.034
-288.603	-26.988	-0.293	-0.171
-287.589	-165.468	0.147	0.006
-286.574	-200.000	0.011	-0.068
-285.559	-14.766	-0.399	-0.257
-284.545	-200.000	0.035	0.395
-283.530	-36.534	0.157	-0.085
-282.516	35.911	0.158	0.139
-281.501	800.000	-0.049	-0.154
-280.486	73.603	-0.032	0.034
-279.472	-23.823	0.133	0.080
-278.457	-116.722	-0.242	0.044
-277.443	-121.592	0.221	-0.037
-276.428	7.900	-0.121	0.091
-275.413	80.272	-0.177	0.191
-274.399	-8.434	0.048	0.032
-273.384	22.680	0.243	-0.200
-272.370	10.465	0.175	0.134
-271.355	193.740	0.224	-0.340
-270.340	-154.182	-0.327	0.022
-269.326	-200.000	-0.048	0.245
-268.311	-200.000	-0.002	0.154
-267.297	-6.356	-0.010	0.007
-266.282	-24.018	-0.190	0.114
-265.267	-6.751	-0.086	0.058
-264.253	786.043	0.047	-0.130
-263.238	-123.389	-0.246	-0.039
-262.224	-200.000	-0.195	-0.000
-261.209	-200.000	-0.045	0.239
-260.195	386.139	-0.052	-0.108
-259.180	170.719	0.153	0.219
-258.165	569.759	0.114	0.279
-257.151	-155.913	-0.402	-0.026
-256.136	-76.738	0.120	0.042
-255.122	-48.500	-0.187	-0.090
-254.107	800.000	0.070	0.231
-253.092	95.839	-0.069	-0.079
-252.078	97.406	-0.307	-0.353
-251.063	800.000	0.116	0.323
-250.049	800.000	-0.067	0.209
-249.034	49.192	0.208	0.195
-248.019	-10.942	-0.269	-0.178
-247.005	-47.671	-0.348	0.169
-245.990	-75.806	-0.144	0.051
-244.976	-200.000	-0.023	-0.351
-243.961	55.972	0.077	0.075
-242.946	-200.000	-0.025	0.146
-241.932	-193.248	0.144	-0.001
-240.917	305.428	-0.138	0.257
-239.903	-71.061	0.165	-0.062
-238.888	-91.351	-0.149	-0.043
-237.873	275.524	0.064	-0.113
-236.859	136.502	-0.059	0.077
-235.844	-67.921	-0.329	0.128
-234.830	-103.687	-0.210	0.049
-233.815	127.002	-0.260	0.330
-232.800	-200.000	0.019	-0.272
-231.786	800.000	-0.044	0.183
-230.771	442.670	0.183	-0.401
-229.757	-174.021	0.124	-0.004
-228.742	46.674	-0.169	-0.157
-227.727	308.438	0.067	0.125
-226.713	9.782	-0.079	0.060
-225.698	32.844	0.260	0.225
-224.684	-82.800	0.158	0.051
-223.669	262.883	-0.086	0.148
-222.655	800.000	-0.080	-0.275
-221.640	256.532	-0.102	-0.174
-220.625	-55.580	0.253	-0.113
-219.611	-122.264	0.206	0.034
-218.596	-93.430	0.231	0.064
-217.582	57.884	-0.159	-0.156
-216.567	386.870	-0.043	-0.089
-215.552	25.137	-0.117	0.097
-214.538	-30.282	-0.030	0.017
-213.523	-172.385	0.184	-0.006
-212.509	433.565	-0.057	-0.123
-211.494	408.414	0.064	-0.134
-210.479	-150.421	-0.020	-0.002
-209.465	-102.732	-0.260	0.062
-208.450	4.531	-0.319	0.234
-207.436	-151.776	0.482	0.035
-206.421	-200.000	0.052	0.250
-205.406	166.375	-0.072	-0.102
-204.392	-200.000	-0.020	-0.138
-203.377	134.095	-0.137	-0.178
-202.363	-7.598	0.231	-0.156
-201.348	-124.769	-0.220	0.034
-200.333	84.239	-0.210	-0.229
-199.319	800.000	0.059	0.229
-198.304	372.830	0.067	-0.135
-197.290	293.614	0.124	0.226
-196.275	23.803	-0.063	-0.052
-195.260	-134.290	-0.233	0.029
-194.246	-92.571	0.332	0.093
-193.231	-200.000	0.017	-0.208
-192.217	-200.000	0.005	-0.464
-191.202	800.000	-0.063	-0.213
-190.187	556.300	0.023	0.056
-189.173	164.165	-0.046	0.065
-188.158	-200.000	0.030	-0.150
-187.144	26.714	0.468	-0.391
-186.129	370.845	0.215	0.435
-185.114	126.117	-0.076	-0.096
-184.100	5.076	-0.224	0.165
-183.085	-120.604	-0.297	-0.050
-182.071	-136.030	-0.189	-0.022
-181.056	-46.319	0.341	-0.167
-180.042	-124.713	-0.065	0.010
-179.027	10.824	0.172	0.131
-178.012	49.246	-0.148	0.139
-176.998	17.212	-0.232	0.183
-175.983	287.410	0.016	-0.029
-174.969	-31.124	-0.234	0.131
-173.954	-58.509	-0.265	0.115
-172.939	159.447	0.128	-0.178
-171.925	-200.000	0.089	0.482
-170.910	430.546	0.069	0.148
-169.896	98.745	-0.175	-0.201
-168.881	-200.000	-0.032	-0.228
-167.866	467.781	0.085	0.190
-166.852	81.724	-0.037	0.040
-165.837	43.444	0.215	-0.196
-164.823	117.095	0.039	-0.047
-163.808	-67.598	0.285	0.111
-162.793	-116.250	-0.134	-0.025
-161.779	-122.770	0.434	0.070
-160.764	-9.007	-0.288	-0.192
-159.750	51.063	-0.055	0.052
-158.735	-200.000	0.004	0.060
-157.720	-135.934	0.020	0.002
-156.706	196.098	0.053	-0.080
-155.691	-16.393	0.235	0.149
-154.677	209.198	0.082	-0.128
-153.662	-90.524	0.020	0.006
-152.647	65.988	-0.207	0.209
-151.633	-153.837	0.145	0.010
-150.618	-139.926	0.167	-0.018
-149.604	33.374	0.177	0.153
-148.589	800.000	0.089	0.248
-147.574	-74.326	0.183	-0.066
-146.560	-133.577	-0.313	0.039
-145.545	-135.334	-0.115	0.014
-144.531	161.829	-0.043	-0.060
-143.516	-115.548	-0.364	-0.068
-142.502	156.659	0.114	0.157
-141.487	-67.410	0.078	-0.030
-140.472	198.283	-0.125	0.190
-139.458	-14.290	-0.279	-0.179
-138.443	-54.416	0.513	-0.232
-137.429	-63.161	-0.308	0.126
-136.414	61.280	-0.143	0.142
-135.399	800.000	0.024	0.088
-134.385	408.157	-0.035	-0.074
-133.370	-200.000	0.003	-0.284
-132.356	18.153	0.019	-0.015
-131.341	566.424	-0.097	0.235
-130.326	-6.955	0.252	0.170
-129.312	-37.519	0.322	-0.171
-128.297	-100.451	-0.198	0.049
-127.283	-200.000	0.001	-0.076
-126.268	-200.000	-0.054	0.336
-125.253	800.000	0.059	-0.254
-124.239	-34.721	0.257	0.140
-123.224	-138.914	-0.164	-0.018
-122.210	-41.239	-0.278	0.143
-121.195	800.000	0.035	-0.096
-120.180	-135.604	0.048	-0.006
