DTS Sentinel unit serial number:	SN413079Multiplexer serial number:	ORYXHardware model number:	OX4-SRSoftware version number:	ORYX F/W v4.00 Oryx Data Collector v3.7.2.0data status	okinstallation	princeton_trtdifferential loss correction	single-endedforward channel	channel 2reverse channel	N/Adate	2019/09/18time	08:55:34forward acquisition time	60.00reverse acquisition time	0.00gamma	496.2192k internal	0.2339k external	0.2339temperature offset calibration	0.9980default loss term (dB/km)	0.3790temperature slope calibration	1.0000multiplexer offset coefficient	1.0000multiplexer slope coefficient	1.0000fibre end	0.00T internal ref (°C)	24.94T ext. ref 1 (°C)	0.24T ext. ref 2 (°C)	21.18length (m)	temperature (°C)	Stokes	anti-Stokes-747.200	-4.234	0.178	-0.124
-746.185	53.593	-0.099	-0.095
-745.171	3.561	0.101	0.074
-744.156	739.425	-0.074	-0.198
-743.142	415.529	-0.123	0.262
-742.127	-153.482	-0.243	0.017
-741.112	800.000	0.065	0.200
-740.098	-45.029	0.184	0.092
-739.083	119.352	-0.243	0.302
-738.069	-122.621	-0.198	0.032
-737.054	89.475	0.189	0.212
-736.039	-57.544	-0.155	-0.068
-735.025	41.503	0.183	0.166
-734.010	666.999	-0.066	-0.172
-732.996	344.809	-0.096	0.189
-731.981	-200.000	0.021	-0.194
-730.966	-200.000	-0.034	-0.155
-729.952	-115.846	-0.502	-0.094
-728.937	-168.116	-0.327	0.013
-727.923	186.528	-0.071	-0.107
-726.908	81.965	0.053	-0.058
-725.894	-78.193	-0.228	-0.078
-724.879	800.000	-0.036	-0.123
-723.864	-71.215	-0.197	-0.074
-722.850	37.048	0.228	-0.202
-721.835	99.582	0.088	-0.102
-720.821	-53.889	-0.019	-0.008
-719.806	150.251	-0.214	-0.291
-718.791	16.247	-0.047	-0.037
-717.777	77.748	0.248	-0.265
-716.762	-156.497	-0.178	-0.011
-715.748	-200.000	-0.000	0.053
-714.733	-71.783	-0.313	-0.117
-713.718	-98.803	0.324	-0.083
-712.704	105.969	-0.406	-0.481
-711.689	-101.911	-0.227	0.055
-710.675	83.874	0.084	-0.092
-709.660	158.413	-0.336	0.467
-708.645	-40.525	-0.097	0.050
-707.631	-76.355	0.309	0.109
-706.616	800.000	-0.135	-0.421
-705.602	-151.612	-0.416	-0.031
-704.587	-76.456	0.224	0.079
-703.572	-148.372	-0.391	0.032
-702.558	-62.592	0.342	0.142
-701.543	314.615	0.268	-0.506
-700.529	78.436	-0.207	-0.221
-699.514	241.466	0.081	-0.136
-698.499	-45.130	-0.133	0.066
-697.485	-28.897	-0.155	-0.089
-696.470	548.444	-0.122	0.293
-695.456	-58.478	-0.452	0.197
-694.441	-200.000	0.021	0.108
-693.426	-55.931	-0.117	0.052
-692.412	23.466	0.144	0.118
-691.397	-200.000	0.031	-0.295
-690.383	-200.000	-0.004	-0.031
-689.368	800.000	-0.050	-0.216
-688.354	200.348	0.052	0.081
-687.339	800.000	0.070	-0.298
-686.324	54.890	-0.305	-0.295
-685.310	-70.704	-0.167	-0.063
-684.295	-200.000	0.039	-0.192
-683.281	-41.227	-0.351	0.181
-682.266	-148.264	0.279	-0.023
-681.251	-200.000	-0.001	0.302
-680.237	73.979	-0.186	-0.195
-679.222	208.400	0.082	-0.128
-678.208	99.794	0.249	-0.289
-677.193	-27.886	-0.224	0.130
-676.178	-118.725	0.082	-0.015
-675.164	800.000	-0.025	0.093
-674.149	-76.264	-0.245	0.086
-673.135	800.000	0.025	-0.091
-672.120	359.495	-0.153	0.305
-671.105	-67.817	-0.175	0.069
-670.091	276.025	-0.330	0.585
-669.076	174.293	-0.141	-0.204
-668.062	800.000	0.081	-0.253
-667.047	-166.812	-0.179	0.007
-666.032	-200.000	-0.043	-0.227
-665.018	-131.738	-0.137	-0.018
-664.003	-52.619	-0.428	-0.197
-662.989	-184.112	-0.469	0.008
-661.974	-167.106	0.580	0.024
-660.959	-89.541	-0.472	-0.139
-659.945	-127.732	0.168	-0.024
-658.930	-16.421	-0.208	0.132
-657.916	-37.667	-0.160	0.085
-656.901	-113.546	0.167	0.033
-655.886	-86.253	0.136	-0.042
-654.872	800.000	0.085	-0.285
-653.857	-26.786	-0.153	0.089
-652.843	1.255	-0.315	0.226
-651.828	-122.158	0.133	-0.022
-650.814	-200.000	0.003	0.109
-649.799	-108.940	0.029	-0.006
-648.784	800.000	0.048	-0.204
-647.770	-196.788	0.136	-0.001
-646.755	-200.000	0.012	0.126
-645.741	389.915	-0.117	-0.242
-644.726	-172.660	-0.112	0.004
-643.711	-121.472	0.332	0.055
-642.697	-18.671	0.039	-0.024
-641.682	68.265	0.140	-0.143
-640.668	300.964	0.130	0.240
-639.653	178.138	0.119	-0.174
-638.638	-142.689	-0.207	-0.020
-637.624	-19.902	0.290	0.179
-636.609	166.862	-0.212	0.301
-635.595	17.252	-0.106	0.084
-634.580	-61.959	-0.361	-0.151
-633.565	442.440	-0.087	-0.191
-632.551	-5.005	-0.208	0.143
-631.536	7.386	0.246	0.184
-630.522	-102.333	-0.187	0.045
-629.507	-200.000	0.002	-0.032
-628.492	800.000	-0.059	-0.240
-627.478	-133.501	-0.285	0.036
-626.463	94.492	0.059	-0.067
-625.449	41.964	-0.112	-0.101
-624.434	-135.948	0.060	-0.007
-623.419	680.129	0.103	-0.268
-622.405	-157.111	-0.274	-0.017
-621.390	-200.000	0.021	0.203
-620.376	100.411	-0.284	-0.329
-619.361	-153.251	-0.315	0.022
-618.346	10.818	0.086	-0.065
-617.332	-36.822	0.152	-0.081
-616.317	-170.055	-0.065	0.002
-615.303	487.391	0.106	0.242
-614.288	124.394	0.198	0.248
-613.273	-151.981	-0.336	-0.024
-612.259	58.908	-0.201	0.197
-611.244	-200.000	-0.018	0.133
-610.230	-68.832	0.221	-0.085
-609.215	-121.221	-0.168	0.028
-608.201	-129.940	0.427	0.058
-607.186	45.761	-0.309	0.285
-606.171	-173.187	-0.450	0.014
-605.157	148.115	-0.061	-0.083
-604.142	-200.000	0.046	-0.337
-603.128	-200.000	-0.042	-0.263
-602.113	212.028	0.096	0.150
-601.098	-200.000	0.257	0.001
-600.084	-21.611	-0.074	-0.045
-599.069	514.098	-0.111	-0.258
-598.055	-90.705	0.237	0.068
-597.040	453.253	0.188	-0.414
-596.025	291.471	0.097	-0.175
-595.011	-97.658	0.197	-0.051
-593.996	-112.824	-0.255	0.051
-592.982	-29.913	-0.161	0.092
-591.967	60.849	-0.186	-0.184
-590.952	-47.799	0.167	-0.081
-589.938	292.343	0.211	0.382
-588.923	-56.301	-0.096	0.043
-587.909	800.000	0.046	-0.199
-586.894	23.507	0.241	0.197
-585.879	-92.256	-0.148	0.042
-584.865	-106.066	-0.439	0.098
-583.850	-200.000	-0.014	0.121
-582.836	98.809	-0.212	0.244
-581.821	53.110	0.221	-0.211
-580.806	384.992	-0.109	0.225
-579.792	144.134	-0.149	-0.198
-578.777	-51.134	0.075	0.035
-577.763	503.962	-0.080	0.183
-576.748	-12.599	0.418	-0.272
-575.733	126.186	-0.131	0.165
-574.719	800.000	-0.055	-0.198
-573.704	458.678	-0.069	0.154
-572.690	-98.969	0.226	-0.057
-571.675	560.030	0.184	-0.443
-570.661	-120.535	-0.136	0.023
-569.646	603.089	0.190	-0.471
-568.631	70.597	0.194	0.200
-567.617	-184.070	-0.220	0.004
-566.602	33.038	0.152	0.131
-565.588	684.676	0.041	-0.107
-564.573	-155.293	-0.075	0.005
-563.558	43.975	0.061	0.056
-562.544	-42.194	-0.075	-0.038
-561.529	591.197	0.114	-0.281
-560.515	-11.098	-0.114	-0.075
-559.500	19.346	-0.241	0.193
-558.485	-41.213	0.157	0.081
-557.471	-200.000	-0.019	0.087
-556.456	148.413	0.073	0.098
-555.442	-200.000	-0.011	0.180
-554.427	-200.000	0.020	-0.097
-553.412	81.525	0.156	-0.168
-552.398	-200.000	-0.096	0.449
-551.383	-200.000	-0.002	0.167
-550.369	42.736	0.080	-0.072
-549.354	-200.000	-0.013	-0.143
-548.339	-11.300	0.169	-0.111
-547.325	-102.922	0.144	0.034
-546.310	-39.795	-0.119	-0.062
-545.296	800.000	0.068	0.248
-544.281	-137.445	-0.165	0.019
-543.266	-12.682	0.300	-0.195
-542.252	-78.754	-0.034	-0.011
-541.237	-180.695	0.192	-0.004
-540.223	117.414	0.088	-0.108
-539.208	800.000	-0.121	-0.357
-538.193	-69.238	-0.047	0.018
-537.179	200.077	-0.050	-0.076
-536.164	234.274	0.186	-0.305
-535.150	55.261	-0.125	-0.120
-534.135	-56.200	-0.146	-0.065
-533.121	108.720	0.111	-0.132
-532.106	-50.792	0.111	-0.052
-531.091	58.586	0.183	0.179
-530.077	46.531	-0.246	-0.227
-529.062	64.185	0.156	0.156
-528.048	-200.000	0.012	0.139
-527.033	328.540	-0.120	-0.228
-526.018	-95.206	-0.178	-0.048
-525.004	-80.438	0.287	-0.095
-523.989	-200.000	0.018	-0.088
-522.975	-102.964	0.101	-0.024
-521.960	-141.547	0.210	-0.021
-520.945	-200.000	0.010	0.128
-519.931	89.638	-0.122	-0.136
-518.916	800.000	-0.028	0.118
-517.902	105.295	-0.087	0.102
-516.887	146.487	0.097	0.129
-515.872	-6.202	-0.325	0.221
-514.858	-93.939	0.319	-0.087
-513.843	31.561	0.264	-0.226
-512.829	-48.009	0.302	-0.145
-511.814	-64.760	0.323	-0.130
-510.799	-85.674	-0.535	-0.165
-509.785	-177.584	-0.435	-0.011
-508.770	487.055	0.081	0.183
-507.756	-30.646	0.132	0.074
-506.741	716.639	0.084	-0.223
-505.726	-76.485	-0.097	-0.034
-504.712	488.136	-0.108	0.244
-503.697	800.000	-0.118	0.352
-502.683	800.000	0.063	0.204
-501.668	96.455	0.173	0.197
-500.653	395.391	-0.100	-0.207
-499.639	659.138	-0.087	0.224
-498.624	49.973	-0.049	0.046
-497.610	-48.487	0.190	0.091
-496.595	-28.477	0.366	0.209
-495.581	-200.000	-0.019	0.200
-494.566	-64.608	0.122	-0.049
-493.551	346.003	-0.028	0.054
-492.537	-200.000	0.004	0.091
-491.522	117.330	-0.088	0.107
-490.508	200.428	0.059	-0.090
-489.493	601.503	-0.173	0.428
-488.478	111.941	0.171	0.205
-487.464	138.137	-0.031	0.040
-486.449	-26.438	-0.155	-0.091
-485.435	-200.000	0.006	0.370
-484.420	-161.674	0.411	0.021
-483.405	102.525	0.110	0.128
-482.391	434.842	0.080	-0.172
-481.376	-104.918	-0.065	0.015
-480.362	52.577	0.155	-0.147
-479.347	-46.960	-0.157	0.076
-478.332	78.471	0.021	-0.023
-477.318	411.683	0.020	-0.043
-476.303	3.328	-0.350	0.253
-475.289	-200.000	-0.000	0.154
-474.274	-10.947	0.241	-0.158
-473.259	760.912	0.077	-0.208
-472.245	-146.808	-0.079	-0.007
-471.230	13.040	-0.427	-0.328
-470.216	-200.000	-0.050	-0.275
-469.201	297.504	0.106	0.194
-468.186	382.479	-0.055	-0.111
-467.172	358.164	0.266	0.528
-466.157	-75.651	-0.142	0.050
-465.143	-77.184	-0.138	0.048
-464.128	-200.000	-0.010	0.291
-463.113	-72.649	-0.315	0.115
-462.099	800.000	0.031	0.090
-461.084	-101.989	0.052	-0.012
-460.070	-200.000	-0.021	0.150
-459.055	490.030	-0.073	-0.166
-458.040	415.343	-0.006	0.014
-457.026	-6.521	0.351	0.237
-456.011	494.813	-0.101	0.230
-454.997	-4.275	0.115	0.079
-453.982	343.912	-0.054	-0.106
-452.968	-112.541	-0.183	-0.036
-451.953	-131.605	-0.170	0.022
-450.938	130.992	0.187	0.238
-449.924	208.594	-0.185	0.287
-448.909	-76.979	0.233	0.081
-447.895	-47.083	-0.364	-0.176
-446.880	-98.297	-0.068	0.017
-445.865	-200.000	0.081	-0.392
-444.851	174.574	-0.287	0.411
-443.836	-10.889	-0.061	0.040
-442.822	-85.252	-0.238	-0.074
-441.807	155.255	0.074	0.101
-440.792	268.793	0.051	0.088
-439.778	204.095	0.152	0.234
-438.763	-200.000	-0.002	0.061
-437.749	-83.568	0.243	0.077
-436.734	-113.193	-0.259	0.051
-435.719	-64.081	0.260	-0.105
-434.705	-110.057	0.272	0.056
-433.690	7.387	-0.280	0.207
-432.676	494.507	-0.137	-0.312
-431.661	163.292	-0.150	0.209
-430.646	-163.253	0.165	0.008
-429.632	800.000	-0.072	0.209
-428.617	41.501	0.112	-0.101
-427.603	-80.203	0.077	-0.025
-426.588	333.624	-0.174	-0.334
-425.573	-177.884	0.046	-0.001
-424.559	-200.000	0.002	0.131
-423.544	-200.000	-0.024	-0.111
-422.530	-116.753	-0.067	0.012
-421.515	800.000	0.074	-0.235
-420.500	-164.701	-0.123	0.005
-419.486	-122.754	-0.145	0.023
-418.471	-200.000	0.065	0.382
-417.457	144.192	-0.265	0.350
-416.442	-200.000	0.020	-0.157
-415.428	45.027	-0.049	-0.045
-414.413	800.000	-0.125	-0.366
-413.398	-109.402	0.052	0.011
-412.384	128.828	-0.049	0.062
-411.369	-200.000	-0.057	0.298
-410.355	493.732	-0.082	0.187
-409.340	1.179	-0.388	0.276
-408.325	-200.000	-0.058	-0.341
-407.311	-148.998	-0.296	-0.024
-406.296	800.000	0.047	-0.149
-405.282	291.087	0.055	0.098
-404.267	-2.377	-0.255	0.177
-403.252	-73.351	-0.136	0.049
-402.238	-92.668	-0.405	-0.112
-401.223	56.474	0.228	0.219
-400.209	249.045	-0.103	0.173
-399.194	-166.843	-0.388	0.016
-398.179	315.934	-0.027	-0.050
-397.165	-44.106	-0.360	-0.179
-396.150	350.325	-0.047	0.091
-395.136	-39.028	-0.183	0.095
-394.121	-200.000	-0.013	-0.256
-393.106	-200.000	0.007	0.111
-392.092	42.450	-0.232	0.209
-391.077	-62.534	-0.051	0.021
-390.063	149.272	-0.120	-0.161
-389.048	20.497	0.170	-0.136
-388.033	-4.783	-0.314	0.214
-387.019	-98.582	0.334	0.084
-386.004	-6.954	0.209	-0.140
-384.990	-200.000	0.051	-0.522
-383.975	-86.496	-0.499	-0.152
-382.960	-200.000	0.050	-0.371
-381.946	366.295	0.106	-0.212
-380.931	14.673	-0.220	0.170
-379.917	-183.569	-0.358	-0.006
-378.902	-200.000	-0.012	-0.520
-377.888	800.000	0.092	-0.389
-376.873	111.268	-0.236	0.282
-375.858	-65.682	-0.161	-0.064
-374.844	-200.000	-0.028	-0.169
-373.829	-8.547	0.176	0.117
-372.815	-200.000	-0.004	-0.030
-371.800	86.339	0.104	0.114
-370.785	-85.278	0.282	0.087
-369.771	-188.742	0.269	0.003
-368.756	-61.651	0.149	0.062
-367.742	-26.638	-0.181	-0.105
-366.727	-89.739	0.254	0.074
-365.712	329.326	0.098	0.187
-364.698	33.927	0.412	0.355
-363.683	278.286	0.099	-0.175
-362.669	-49.336	-0.099	0.047
-361.654	-19.483	0.179	0.110
-360.639	800.000	-0.097	-0.268
-359.625	-117.201	0.270	-0.048
-358.610	-24.002	-0.227	0.134
-357.596	-193.490	-0.225	0.002
-356.581	-79.928	-0.187	-0.062
-355.566	-200.000	-0.023	0.176
-354.552	441.102	0.158	-0.341
-353.537	-200.000	-0.025	0.136
-352.523	90.846	-0.066	-0.073
-351.508	138.389	-0.126	-0.164
-350.493	173.375	-0.080	0.114
-349.479	-55.836	-0.268	-0.118
-348.464	-148.676	-0.236	0.019
-347.450	110.200	0.044	0.052
-346.435	73.231	0.261	-0.269
-345.420	-106.336	0.123	0.027
-344.406	-68.334	-0.277	0.106
-343.391	-131.400	-0.443	0.058
-342.377	-154.452	0.436	-0.029
-341.362	161.076	-0.118	0.162
-340.348	-97.274	-0.252	-0.065
-339.333	17.553	-0.199	-0.156
-338.318	-21.901	0.247	-0.148
-337.304	-80.801	-0.195	-0.064
-336.289	-200.000	-0.069	-0.332
-335.275	-179.066	0.328	0.007
-334.260	-166.979	0.086	-0.003
-333.245	172.243	0.080	-0.114
-332.231	144.292	-0.279	0.367
-331.216	46.102	-0.058	0.053
-330.202	-65.193	-0.189	0.075
-329.187	11.752	0.197	0.149
-328.172	-37.983	-0.258	0.135
-327.158	159.160	0.159	-0.219
-326.143	-200.000	-0.054	0.339
-325.129	-100.925	-0.213	-0.052
-324.114	-200.000	0.048	-0.404
-323.099	-46.156	0.339	0.164
-322.085	-200.000	-0.014	-0.072
-321.070	609.718	0.077	-0.190
-320.056	-77.334	0.271	0.093
-319.041	198.643	-0.079	-0.119
-318.026	-21.832	0.261	0.156
-317.012	13.982	0.199	0.153
-315.997	-82.297	0.275	0.088
-314.983	-110.418	0.171	0.035
-313.968	346.657	0.087	-0.169
-312.953	-27.806	0.384	0.220
-311.939	-200.000	0.048	0.210
-310.924	-200.000	0.042	-0.303
-309.910	68.241	-0.074	-0.075
-308.895	-135.556	0.148	0.017
-307.880	-200.000	-0.045	0.211
-306.866	-27.961	0.315	0.180
-305.851	562.598	-0.083	0.199
-304.837	-6.545	0.267	-0.180
-303.822	-80.310	-0.292	-0.096
-302.807	-8.552	0.375	-0.248
-301.793	-71.731	0.419	-0.154
-300.778	177.409	-0.075	-0.107
-299.764	-12.644	-0.164	-0.105
-298.749	-200.000	-0.014	0.085
-297.735	-200.000	-0.008	-0.084
-296.720	560.487	-0.069	-0.164
-295.705	-111.021	0.149	0.030
-294.691	-56.298	-0.177	0.078
-293.676	-200.000	0.015	-0.241
-292.662	-185.433	0.207	-0.003
-291.647	195.242	-0.154	0.230
-290.632	-200.000	-0.001	0.066
-289.618	109.357	0.265	0.312
-288.603	-200.000	-0.008	-0.066
-287.589	191.440	0.102	0.151
-286.574	-1.696	0.203	-0.141
-285.559	17.912	0.070	-0.055
-284.545	-200.000	0.007	-0.341
-283.530	-113.269	-0.103	-0.020
-282.516	-144.029	-0.056	-0.005
-281.501	-200.000	-0.007	-0.134
-280.486	-200.000	-0.013	0.076
-279.472	216.128	-0.051	-0.079
-278.457	-200.000	-0.015	-0.201
-277.443	-139.291	0.110	0.012
-276.428	-200.000	0.034	-0.429
-275.413	-119.806	0.308	0.052
-274.399	37.290	-0.107	0.093
-273.384	49.269	0.258	0.239
-272.370	-200.000	-0.014	0.225
-271.355	800.000	0.132	-0.380
-270.340	-200.000	0.033	-0.228
-269.326	-13.804	0.284	-0.181
-268.311	185.022	0.143	-0.209
-267.297	-44.294	0.078	-0.038
-266.282	153.653	0.306	0.412
-265.267	6.135	0.107	-0.078
-264.253	-0.777	0.289	0.202
-263.238	800.000	-0.035	-0.111
-262.224	-200.000	0.028	0.263
-261.209	-87.949	-0.118	-0.035
-260.195	-72.203	-0.039	-0.014
-259.180	-6.346	-0.097	-0.065
-258.165	-175.881	-0.085	0.002
-257.151	253.902	0.238	0.401
-256.136	187.013	0.205	0.301
-255.122	487.568	0.012	-0.026
-254.107	-200.000	0.008	-0.101
-253.092	434.451	0.068	-0.145
-252.078	-140.333	-0.209	-0.022
-251.063	-167.311	0.203	-0.008
-250.049	59.651	-0.190	-0.184
-249.034	8.038	-0.060	0.045
-248.019	-200.000	0.017	-0.330
-247.005	192.543	-0.038	0.057
-245.990	281.051	-0.182	-0.320
-244.976	-200.000	0.007	-0.262
-243.961	-31.164	0.063	-0.035
-242.946	800.000	-0.022	-0.075
-241.932	-200.000	-0.017	0.078
-240.917	-148.296	0.248	0.020
-239.903	637.102	-0.098	0.245
-238.888	78.167	0.252	0.265
-237.873	-95.926	-0.161	-0.042
-236.859	128.555	-0.173	-0.217
-235.844	466.923	0.155	-0.342
-234.830	-8.228	-0.300	-0.199
-233.815	800.000	-0.132	-0.359
-232.800	194.942	-0.103	0.154
-231.786	569.997	0.065	-0.156
-230.771	114.641	0.018	-0.021
-229.757	-50.818	0.230	0.106
-228.742	343.602	0.141	-0.272
-227.727	-105.584	-0.249	0.055
-226.713	-108.035	-0.208	0.044
-225.698	218.989	0.046	0.073
-224.684	727.806	0.082	-0.214
-223.669	432.680	0.103	-0.220
-222.655	-109.185	-0.105	-0.022
-221.640	721.394	-0.085	0.223
-220.625	340.973	0.018	0.034
-219.611	-200.000	-0.011	-0.113
-218.596	-62.981	-0.258	-0.105
-217.582	800.000	0.091	0.282
-216.567	800.000	0.126	0.489
-215.552	15.557	0.086	-0.067
-214.538	-87.149	-0.176	-0.053
-213.523	-50.086	-0.027	-0.013
-212.509	-137.937	0.623	0.068
-211.494	-92.377	-0.074	0.020
-210.479	-31.406	-0.038	-0.021
-209.465	-11.181	-0.087	-0.056
-208.450	410.824	-0.046	0.096
-207.436	131.123	0.238	0.301
-206.421	-200.000	0.007	-0.234
-205.406	-200.000	-0.060	-0.309
-204.392	800.000	-0.061	-0.171
-203.377	800.000	-0.060	-0.214
-202.363	594.686	-0.110	0.267
-201.348	-53.248	0.164	0.074
-200.333	-42.454	-0.032	-0.016
-199.319	28.841	0.209	-0.174
-198.304	800.000	-0.065	0.200
-197.290	71.350	-0.175	-0.178
-196.275	234.469	0.080	-0.130
-195.260	-200.000	0.008	0.166
-194.246	16.838	0.076	-0.059
-193.231	65.683	-0.207	-0.206
-192.217	-35.705	-0.176	0.094
-191.202	195.917	-0.127	0.190
-190.187	-160.807	-0.164	-0.009
-189.173	12.106	0.098	0.074
-188.158	-39.092	0.082	0.042
-187.144	-23.239	-0.225	0.133
-186.129	-86.257	-0.034	-0.010
-185.114	515.540	-0.073	-0.167
-184.100	-20.126	0.149	-0.090
-183.085	7.803	0.185	0.136
-182.071	-182.334	-0.043	-0.001
-181.056	391.716	0.116	-0.236
-180.042	-168.474	-0.242	-0.009
-179.027	-200.000	-0.055	-0.374
-178.012	1.875	-0.038	0.027
-176.998	-89.696	0.151	0.043
-175.983	-200.000	0.002	0.187
-174.969	-126.073	0.279	0.041
-173.954	215.254	-0.118	0.184
-172.939	598.228	-0.029	-0.070
-171.925	-22.741	-0.092	0.055
-170.910	96.454	0.231	0.260
-169.896	5.783	-0.225	0.163
-168.881	22.011	0.168	0.135
-167.866	-57.929	-0.351	0.150
-166.852	-200.000	0.029	0.160
-165.837	-118.928	0.211	-0.036
-164.823	113.479	-0.088	0.105
-163.808	719.751	-0.037	-0.096
-162.793	-200.000	0.004	-0.044
-161.779	-98.273	-0.068	-0.017
-160.764	71.853	-0.199	-0.203
-159.750	-149.781	0.376	-0.029
-158.735	-163.625	0.320	0.015
-157.720	-139.141	0.150	-0.016
-156.706	800.000	0.065	0.263
-155.691	153.886	-0.055	-0.074
-154.677	269.742	-0.035	0.059
-153.662	106.750	-0.137	0.159
-152.647	109.904	-0.274	0.322
-151.633	800.000	-0.020	0.062
-150.618	212.783	-0.068	-0.105
-149.604	800.000	-0.016	0.045
-148.589	-7.193	0.215	0.143
-147.574	800.000	-0.071	0.204
-146.560	98.651	-0.078	0.088
-145.545	231.710	0.039	-0.062
-144.531	-34.124	0.250	0.135
-143.516	15.430	-0.437	-0.336
-142.502	35.677	0.074	-0.063
-141.487	460.962	0.133	-0.290
-140.472	-137.667	0.429	-0.047
-139.458	82.431	0.138	-0.147
-138.443	123.617	0.101	0.124
-137.429	-200.000	-0.053	-0.339
-136.414	-200.000	-0.003	-0.095
-135.399	800.000	0.055	0.234
-134.385	-165.695	0.087	0.004
-133.370	-9.794	0.260	-0.170
-132.356	800.000	-0.046	-0.187
-131.341	112.923	-0.117	-0.139
-130.326	32.850	-0.102	0.087
-129.312	25.607	-0.091	-0.074
-128.297	64.277	-0.082	-0.081
-127.283	-200.000	0.027	-0.157
-126.268	-150.931	-0.309	0.023
-125.253	252.109	-0.052	-0.086
-124.239	-69.583	-0.308	0.115
-123.224	-92.167	0.175	0.048
-122.210	-141.225	-0.235	0.023
