DTS Sentinel unit serial number:	SN413079Multiplexer serial number:	ORYXHardware model number:	OX4-SRSoftware version number:	ORYX F/W v4.00 Oryx Data Collector v3.7.2.0data status	okinstallation	princeton_trtdifferential loss correction	single-endedforward channel	channel 2reverse channel	N/Adate	2019/09/14time	11:23:35forward acquisition time	60.00reverse acquisition time	0.00gamma	496.2192k internal	0.2311k external	0.2311temperature offset calibration	1.0155default loss term (dB/km)	0.3790temperature slope calibration	1.0000multiplexer offset coefficient	1.0000multiplexer slope coefficient	1.0000fibre end	0.00T internal ref (°C)	36.69T ext. ref 1 (°C)	4.53T ext. ref 2 (°C)	32.78length (m)	temperature (°C)	Stokes	anti-Stokes-747.200	204.207	-0.119	-0.188
-746.185	-176.343	-0.086	0.002
-745.171	55.428	0.428	-0.421
-744.156	150.081	-0.164	0.226
-743.142	328.444	0.108	0.210
-742.127	-200.000	-0.078	0.437
-741.112	89.302	0.171	0.194
-740.098	-200.000	0.006	0.349
-739.083	-64.074	0.427	-0.177
-738.069	-63.148	0.501	0.210
-737.054	-52.864	0.290	0.136
-736.039	-200.000	0.004	0.202
-735.025	125.565	0.157	0.201
-734.010	-200.000	0.021	-0.108
-732.996	-131.350	-0.254	-0.034
-731.981	-200.000	0.022	-0.272
-730.966	-200.000	0.007	0.192
-729.952	123.914	-0.088	-0.112
-728.937	-200.000	0.027	-0.473
-727.923	134.760	-0.148	-0.195
-726.908	-61.143	-0.269	0.115
-725.894	-200.000	-0.033	0.159
-724.879	109.327	0.237	0.288
-723.864	543.637	-0.103	-0.249
-722.850	-115.257	0.107	-0.020
-721.835	-138.894	0.129	-0.014
-720.821	-200.000	-0.006	0.154
-719.806	800.000	-0.027	-0.099
-718.791	-103.855	0.116	-0.027
-717.777	-200.000	-0.009	-0.115
-716.762	380.754	0.077	-0.160
-715.748	800.000	-0.050	-0.183
-714.733	-99.239	-0.022	0.006
-713.718	223.890	-0.010	0.016
-712.704	-7.363	0.123	-0.085
-711.689	83.904	-0.114	-0.126
-710.675	-200.000	0.018	0.148
-709.660	277.464	0.216	-0.390
-708.645	618.941	-0.033	0.083
-707.631	354.879	-0.081	-0.162
-706.616	609.774	-0.106	-0.269
-705.602	-200.000	0.014	-0.458
-704.587	297.191	-0.196	0.364
-703.572	10.195	0.222	0.171
-702.558	5.301	-0.176	-0.132
-701.543	-121.032	0.335	-0.057
-700.529	-32.143	-0.049	-0.028
-699.514	-200.000	0.013	0.111
-698.499	-200.000	0.007	-0.077
-697.485	-200.000	0.007	-0.299
-696.470	-13.151	-0.464	-0.306
-695.456	-90.463	-0.223	0.066
-694.441	-56.383	0.220	0.099
-693.426	186.958	-0.026	-0.039
-692.412	-42.599	0.390	-0.201
-691.397	-76.073	0.188	-0.067
-690.383	-59.765	-0.029	-0.013
-689.368	361.802	0.160	0.325
-688.354	-155.388	-0.251	-0.016
-687.339	255.543	0.138	0.240
-686.324	259.755	-0.193	-0.337
-685.310	800.000	0.031	0.110
-684.295	-105.917	-0.331	0.076
-683.281	1.640	-0.323	-0.236
-682.266	-66.043	-0.279	-0.113
-681.251	-68.376	0.137	0.054
-680.237	-25.484	-0.129	0.077
-679.222	-107.434	0.347	-0.077
-678.208	800.000	-0.126	-0.423
-677.193	130.962	0.160	-0.208
-676.178	141.507	-0.014	0.018
-675.164	-35.357	-0.243	0.133
-674.149	203.951	0.074	-0.116
-673.135	422.041	-0.089	0.194
-672.120	-18.260	-0.124	0.079
-671.105	-73.949	-0.217	0.080
-670.091	-11.600	0.226	-0.150
-669.076	-200.000	-0.042	0.189
-668.062	8.260	-0.376	-0.286
-667.047	800.000	0.113	-0.382
-666.032	-185.286	0.065	0.001
-665.018	512.556	0.052	-0.122
-664.003	-56.757	0.096	-0.043
-662.989	163.653	-0.083	-0.118
-661.974	-200.000	-0.065	0.419
-660.959	770.912	-0.256	0.705
-659.945	657.643	-0.107	-0.279
-658.930	-78.484	-0.234	0.081
-657.916	-25.500	0.128	-0.076
-656.901	56.412	-0.151	-0.148
-655.886	358.442	-0.100	0.201
-654.872	-37.416	-0.244	-0.132
-653.857	-102.946	0.337	0.081
-652.843	-145.909	-0.227	0.020
-651.828	-63.300	0.278	0.116
-650.814	800.000	-0.022	-0.094
-649.799	156.193	-0.208	-0.290
-648.784	59.225	-0.202	-0.201
-647.770	-200.000	0.029	-0.252
-646.755	-45.392	-0.089	0.045
-645.741	217.299	0.142	0.229
-644.726	-6.813	-0.098	0.067
-643.711	-200.000	-0.014	-0.216
-642.697	-27.014	0.088	-0.052
-641.682	-11.308	-0.150	0.100
-640.668	-68.376	-0.414	-0.163
-639.653	178.402	-0.116	-0.171
-638.638	-200.000	-0.039	-0.173
-637.624	-91.941	-0.202	-0.058
-636.609	-200.000	-0.075	0.355
-635.595	199.973	0.103	0.160
-634.580	-126.478	-0.219	0.033
-633.565	-134.540	0.186	0.023
-632.551	-116.841	-0.127	0.023
-631.536	154.357	0.174	0.242
-630.522	311.057	0.175	-0.332
-629.507	-48.080	0.231	0.113
-628.492	-57.783	-0.201	-0.089
-627.478	-8.991	0.094	-0.064
-626.463	-44.936	0.029	-0.014
-625.449	-39.217	-0.149	-0.079
-624.434	-74.842	-0.443	-0.161
-623.419	-200.000	-0.011	-0.120
-622.405	-200.000	0.007	0.200
-621.390	84.369	0.298	0.329
-620.376	-41.829	-0.237	0.123
-619.361	218.446	0.199	0.322
-618.346	50.103	-0.161	0.153
-617.332	-163.586	0.170	0.008
-616.317	200.374	0.182	0.282
-615.303	800.000	0.128	-0.406
-614.288	-185.337	-0.188	-0.003
-613.273	-200.000	-0.017	-0.306
-612.259	5.936	-0.265	-0.198
-611.244	-106.061	0.250	0.057
-610.230	-200.000	-0.009	-0.176
-609.215	128.470	-0.236	0.303
-608.201	121.936	0.082	0.103
-607.186	-41.111	-0.184	-0.096
-606.171	-30.985	-0.033	0.019
-605.157	800.000	0.113	0.351
-604.142	736.498	-0.030	0.082
-603.128	800.000	0.057	0.227
-602.113	-31.239	-0.149	-0.085
-601.098	39.558	0.134	-0.121
-600.084	93.353	0.359	-0.410
-599.069	-57.010	-0.256	-0.114
-598.055	-177.125	0.290	0.007
-597.040	800.000	0.033	0.134
-596.025	-20.073	-0.221	-0.138
-595.011	-74.160	-0.248	-0.090
-593.996	-72.695	0.215	-0.080
-592.982	-200.000	0.055	-0.439
-591.967	-61.690	0.218	0.092
-590.952	133.992	-0.173	0.226
-589.938	317.502	-0.045	-0.085
-588.923	61.607	-0.236	0.237
-587.909	100.385	-0.072	0.085
-586.894	-54.449	0.222	0.102
-585.879	459.701	0.019	-0.044
-584.865	90.339	0.167	0.188
-583.850	-200.000	0.047	0.223
-582.836	3.230	-0.198	-0.145
-581.821	248.475	-0.041	-0.071
-580.806	-42.630	-0.203	-0.104
-579.792	-36.718	0.055	-0.030
-578.777	39.311	0.061	-0.055
-577.763	99.571	-0.096	0.112
-576.748	-114.976	0.240	-0.046
-575.733	-23.827	0.161	0.097
-574.719	10.536	0.133	-0.102
-573.704	-119.264	-0.251	0.044
-572.690	97.875	-0.165	0.191
-571.675	-200.000	-0.031	0.190
-570.661	-57.277	0.148	-0.066
-569.646	800.000	0.057	0.237
-568.631	-67.798	0.228	-0.090
-567.617	28.917	-0.239	-0.204
-566.602	800.000	-0.018	-0.063
-565.588	-50.619	-0.024	0.012
-564.573	-166.651	0.359	-0.015
-563.558	165.327	0.143	-0.203
-562.544	-200.000	0.014	0.158
-561.529	278.434	-0.090	0.162
-560.515	-200.000	0.001	-0.084
-559.500	-20.102	-0.235	-0.146
-558.485	-28.521	-0.208	0.121
-557.471	-124.905	0.246	0.038
-556.456	57.500	-0.225	0.222
-555.442	-26.602	0.205	0.121
-554.427	-50.826	0.253	0.120
-553.412	-14.304	-0.264	-0.172
-552.398	-124.191	-0.066	-0.010
-551.383	-138.481	0.220	0.024
-550.369	264.260	-0.157	0.275
-549.354	698.766	0.128	0.339
-548.339	-41.227	0.150	0.078
-547.325	-200.000	0.015	-0.156
-546.310	-119.748	0.149	0.026
-545.296	-32.238	-0.170	0.096
-544.281	800.000	0.064	0.269
-543.266	184.172	0.108	0.161
-542.252	-101.412	0.381	-0.094
-541.237	-200.000	-0.003	-0.192
-540.223	-200.000	-0.090	0.463
-539.208	239.720	-0.070	0.118
-538.193	200.893	-0.108	0.167
-537.179	27.521	0.223	0.189
-536.164	-69.075	-0.061	0.024
-535.150	-2.932	0.276	0.194
-534.135	-122.601	0.351	-0.057
-533.121	-63.143	-0.313	-0.130
-532.106	171.097	-0.155	-0.224
-531.091	-117.564	0.464	-0.084
-530.077	-200.000	-0.010	0.163
-529.062	446.540	0.116	-0.256
-528.048	321.427	0.141	-0.269
-527.033	-78.659	-0.115	-0.040
-526.018	-54.408	-0.208	0.095
-525.004	-34.880	0.407	-0.224
-523.989	638.431	-0.071	-0.183
-522.975	-200.000	0.042	-0.251
-521.960	442.899	0.063	-0.138
-520.945	-200.000	0.003	-0.092
-519.931	45.999	0.139	0.129
-518.916	43.008	-0.265	0.243
-517.902	800.000	0.123	0.427
-516.887	800.000	0.051	0.163
-515.872	-69.654	0.259	-0.100
-514.858	-200.000	-0.049	-0.282
-513.843	800.000	0.089	-0.268
-512.829	226.595	0.166	0.270
-511.814	48.915	-0.198	0.187
-510.799	-200.000	-0.021	0.187
-509.785	10.729	0.110	0.084
-508.770	800.000	-0.067	0.243
-507.756	-142.867	0.142	0.014
-506.741	96.240	-0.044	-0.050
-505.726	3.488	0.216	0.158
-504.712	449.083	0.143	-0.318
-503.697	-160.916	0.137	0.007
-502.683	36.784	-0.160	0.142
-501.668	-155.111	0.112	0.007
-500.653	-137.269	-0.288	0.033
-499.639	-117.635	-0.135	0.024
-498.624	-116.587	-0.094	-0.017
-497.610	-90.631	-0.346	0.101
-496.595	-188.554	0.264	0.003
-495.581	800.000	0.174	0.620
-494.566	-200.000	0.055	0.381
-493.551	473.537	0.005	0.012
-492.537	622.722	-0.038	-0.096
-491.522	-200.000	-0.057	-0.509
-490.508	456.404	0.150	-0.335
-489.493	-146.723	0.116	0.010
-488.478	-58.472	0.119	0.052
-487.464	-200.000	-0.043	-0.398
-486.449	800.000	-0.095	0.352
-485.435	-78.911	-0.190	-0.065
-484.420	-103.165	0.034	0.008
-483.405	-119.924	-0.030	-0.005
-482.391	263.292	0.097	0.169
-481.376	800.000	0.053	0.199
-480.362	-88.582	-0.182	-0.054
-479.347	-200.000	0.003	-0.315
-478.332	800.000	-0.019	0.071
-477.318	-66.743	-0.194	-0.077
-476.303	-5.049	-0.166	0.115
-475.289	-167.329	-0.096	-0.004
-474.274	-200.000	0.069	-0.351
-473.259	-155.779	0.194	0.012
-472.245	64.195	0.027	0.028
-471.230	-68.696	-0.269	0.104
-470.216	-68.020	0.299	-0.117
-469.201	57.563	0.170	0.167
-468.186	-200.000	0.022	0.185
-467.172	466.764	-0.021	-0.047
-466.157	-49.199	0.135	-0.065
-465.143	-137.844	-0.025	0.003
-464.128	190.722	0.070	-0.106
-463.113	139.368	-0.269	-0.355
-462.099	49.912	0.051	-0.049
-461.084	319.079	0.163	0.310
-460.070	-99.331	-0.225	-0.057
-459.055	-89.038	-0.346	-0.103
-458.040	225.495	0.091	0.148
-457.026	22.102	0.103	-0.085
-456.011	57.316	0.171	-0.168
-454.997	-25.399	0.322	0.191
-453.982	-156.078	-0.093	-0.006
-452.968	-194.572	-0.395	-0.003
-451.953	-200.000	0.016	-0.110
-450.938	-179.790	-0.239	0.005
-449.924	-162.922	-0.306	-0.015
-448.909	22.416	0.209	0.172
-447.895	97.049	-0.078	-0.090
-446.880	32.492	0.102	0.088
-445.865	-200.000	0.009	0.198
-444.851	-100.310	-0.155	0.039
-443.836	-141.117	-0.389	-0.040
-442.822	-200.000	0.035	-0.327
-441.807	-100.729	0.044	0.011
-440.792	608.691	0.117	-0.292
-439.778	139.754	0.011	-0.015
-438.763	56.406	-0.245	-0.239
-437.749	-200.000	-0.017	-0.143
-436.734	132.706	-0.089	0.115
-435.719	-146.293	-0.189	0.017
-434.705	173.490	-0.151	-0.218
-433.690	-157.461	0.302	-0.018
-432.676	694.933	0.157	0.414
-431.661	-33.019	0.275	0.153
-430.646	800.000	-0.063	-0.237
-429.632	47.540	0.247	-0.231
-428.617	-200.000	0.031	0.139
-427.603	-109.893	-0.341	0.072
-426.588	-120.504	0.124	0.021
-425.573	7.506	-0.102	-0.076
-424.559	-200.000	-0.020	-0.111
-423.544	236.242	0.279	-0.462
-422.530	-15.157	0.240	-0.154
-421.515	-30.470	-0.083	0.047
-420.500	-200.000	0.041	-0.208
-419.486	-200.000	0.033	-0.191
-418.471	-46.938	0.466	-0.228
-417.457	800.000	-0.101	-0.298
-416.442	-172.738	0.108	0.003
-415.428	-200.000	0.012	-0.431
-414.413	224.474	0.150	-0.242
-413.398	-29.995	-0.129	0.074
-412.384	800.000	0.039	-0.157
-411.369	-45.310	-0.088	0.044
-410.355	800.000	-0.070	-0.219
-409.340	250.444	-0.155	0.264
-408.325	81.728	0.005	-0.005
-407.311	-148.944	0.262	-0.021
-406.296	-99.074	-0.166	0.042
-405.282	800.000	-0.045	0.147
-404.267	-105.547	0.061	-0.014
-403.252	-53.452	-0.211	-0.097
-402.238	-149.185	-0.246	-0.020
-401.223	-112.139	-0.140	-0.028
-400.209	-45.608	0.400	0.198
-399.194	14.489	-0.350	0.274
-398.179	49.278	-0.037	-0.035
-397.165	-103.890	0.226	0.053
-396.150	-113.364	-0.273	-0.054
-395.136	-75.797	0.149	-0.053
-394.121	-200.000	0.052	-0.282
-393.106	185.976	-0.114	-0.169
-392.092	-34.406	-0.203	-0.111
-391.077	-23.440	0.234	-0.141
-390.063	107.400	0.038	0.045
-389.048	-74.668	-0.353	-0.127
-388.033	165.823	-0.187	0.264
-387.019	220.663	-0.080	-0.129
-386.004	44.409	-0.100	0.092
-384.990	-41.107	-0.158	0.082
-383.975	-200.000	-0.046	-0.238
-382.960	-11.396	-0.339	-0.223
-381.946	63.524	-0.042	0.042
-380.931	-142.661	0.155	0.015
-379.917	348.121	-0.125	-0.246
-378.902	-200.000	0.004	0.193
-377.888	6.882	-0.150	-0.112
-376.873	470.517	0.139	0.313
-375.858	-15.382	-0.411	-0.263
-374.844	779.813	0.061	-0.168
-373.829	-151.650	0.231	-0.017
-372.815	40.226	-0.058	0.053
-371.800	-98.136	-0.250	-0.064
-370.785	-11.239	0.226	0.149
-369.771	35.716	-0.133	-0.117
-368.756	800.000	-0.049	-0.167
-367.742	76.280	-0.056	-0.060
-366.727	800.000	0.067	-0.191
-365.712	-200.000	-0.304	0.001
-364.698	97.838	-0.168	0.194
-363.683	-200.000	0.022	-0.116
-362.669	489.045	-0.055	0.125
-361.654	722.885	-0.083	0.221
-360.639	32.962	0.189	-0.164
-359.625	-200.000	0.040	-0.205
-358.610	307.333	0.288	-0.537
-357.596	447.951	-0.075	0.165
-356.581	190.394	0.030	0.045
-355.566	-96.361	-0.316	-0.084
-354.552	275.171	-0.193	0.341
-353.537	230.969	-0.138	-0.226
-352.523	139.549	0.332	-0.438
-351.508	-129.312	-0.170	-0.024
-350.493	-200.000	-0.015	0.360
-349.479	-200.000	0.013	0.133
-348.464	-70.469	0.180	-0.068
-347.450	-23.917	0.091	-0.054
-346.435	68.934	-0.098	0.101
-345.420	60.357	-0.170	0.169
-344.406	139.636	-0.080	0.105
-343.391	-200.000	-0.016	0.156
-342.377	76.863	0.114	-0.121
-341.362	-100.393	0.156	0.039
-340.348	-200.000	0.007	0.202
-339.333	-200.000	0.026	-0.230
-338.318	-2.791	0.238	-0.166
-337.304	175.772	-0.091	0.132
-336.289	-36.856	0.167	0.090
-335.275	-77.049	-0.166	0.058
-334.260	-200.000	0.024	-0.117
-333.245	800.000	0.134	0.403
-332.231	-19.225	0.205	0.127
-331.216	-200.000	-0.032	-0.222
-330.202	-200.000	0.009	0.323
-329.187	-58.376	0.345	0.150
-328.172	-162.399	-0.179	-0.009
-327.158	113.866	-0.186	-0.226
-326.143	102.442	0.161	0.188
-325.129	447.058	-0.163	0.357
-324.114	618.749	0.132	-0.331
-323.099	-71.636	0.356	-0.133
-322.085	-23.526	-0.039	0.024
-321.070	16.176	-0.259	0.204
-320.056	566.109	0.081	0.197
-319.041	-71.642	0.055	-0.021
-318.026	75.799	0.190	-0.200
-317.012	-163.578	0.238	0.011
-315.997	-40.544	0.162	0.084
-314.983	119.850	-0.095	0.118
-313.968	800.000	-0.039	-0.113
-312.953	-200.000	0.010	0.217
-311.939	205.090	0.167	-0.258
-310.924	-49.512	0.236	-0.112
-309.910	-200.000	-0.012	0.061
-308.895	330.328	-0.113	-0.218
-307.880	708.030	0.060	-0.159
-306.866	311.806	-0.053	-0.100
-305.851	-56.809	-0.283	-0.125
-304.837	-200.000	-0.056	0.413
-303.822	-150.397	0.435	0.033
-302.807	-74.219	0.184	-0.066
-301.793	-70.323	-0.189	0.072
-300.778	800.000	0.086	0.259
-299.764	-200.000	0.006	-0.030
-298.749	295.262	0.012	-0.023
-297.735	-49.921	-0.131	0.062
-296.720	-170.482	0.056	-0.002
-295.705	-110.665	0.328	0.068
-294.691	485.252	-0.141	0.321
-293.676	98.696	0.081	-0.094
-292.662	106.167	0.123	-0.145
-291.647	85.040	0.180	-0.197
-290.632	-200.000	0.028	0.250
-289.618	-200.000	0.036	0.278
-288.603	108.521	-0.142	0.169
-287.589	301.080	0.116	-0.214
-286.574	-118.384	0.112	0.020
-285.559	170.939	-0.070	0.100
-284.545	9.317	0.297	-0.224
-283.530	147.891	0.075	-0.100
-282.516	135.760	-0.142	-0.184
-281.501	106.152	0.028	0.033
-280.486	-176.875	-0.248	-0.006
-279.472	87.039	-0.196	0.215
-278.457	800.000	0.036	-0.151
-277.443	-30.450	-0.079	0.045
-276.428	-186.749	-0.369	0.005
-275.413	127.307	-0.160	0.202
-274.399	344.074	0.045	0.088
-273.384	-27.252	0.226	-0.131
-272.370	-200.000	-0.054	-0.354
-271.355	-29.253	0.152	-0.087
-270.340	789.323	-0.092	-0.252
-269.326	223.636	0.104	0.167
-268.311	-200.000	0.033	-0.168
-267.297	-95.611	0.150	0.040
-266.282	-115.076	0.242	0.046
-265.267	90.383	-0.123	-0.137
-264.253	-91.057	-0.179	-0.051
-263.238	-47.259	-0.256	-0.124
-262.224	800.000	-0.051	-0.149
-261.209	-91.414	-0.124	-0.035
-260.195	66.881	0.121	0.122
-259.180	324.576	0.016	-0.031
-258.165	-200.000	-0.103	-0.513
-257.151	800.000	-0.018	0.063
-256.136	-200.000	-0.031	-0.189
-255.122	-200.000	0.034	-0.251
-254.107	20.832	0.370	-0.298
-253.092	-103.960	0.191	-0.044
-252.078	-100.212	-0.386	-0.096
-251.063	3.606	-0.159	0.115
-250.049	-156.209	-0.064	-0.004
-249.034	800.000	0.053	-0.201
-248.019	95.998	-0.164	0.187
-247.005	40.209	-0.154	-0.138
-245.990	-200.000	0.002	-0.082
-244.976	120.830	0.031	-0.038
-243.961	800.000	-0.043	0.123
-242.946	253.771	0.115	0.195
-241.932	94.192	-0.113	-0.127
-240.917	-156.574	-0.242	-0.015
-239.903	-200.000	0.089	-0.414
-238.888	-38.446	0.231	0.122
-237.873	335.288	-0.125	-0.242
-236.859	-160.052	0.121	0.007
-235.844	800.000	-0.123	0.354
-234.830	-35.149	-0.196	-0.106
-233.815	-51.354	-0.255	0.118
-232.800	502.319	-0.137	-0.315
-231.786	-157.443	0.117	-0.007
-230.771	221.576	-0.127	0.203
-229.757	-137.380	0.022	0.002
-228.742	-23.340	0.158	-0.094
-227.727	-108.910	0.437	0.093
-226.713	568.779	-0.053	-0.128
-225.698	-8.057	-0.056	-0.037
-224.684	647.253	0.127	0.322
-223.669	-93.792	-0.237	-0.065
-222.655	-200.000	0.002	0.084
-221.640	146.459	-0.092	0.123
-220.625	800.000	-0.105	0.306
-219.611	-200.000	0.008	0.184
-218.596	-200.000	0.002	-0.134
-217.582	-53.203	-0.219	0.100
-216.567	489.783	-0.077	0.175
-215.552	156.847	0.189	0.260
-214.538	19.188	-0.371	-0.296
-213.523	253.512	0.151	0.256
-212.509	800.000	0.092	0.341
-211.494	56.366	0.208	0.201
-210.479	800.000	-0.065	0.232
-209.465	-200.000	0.064	0.328
-208.450	21.897	0.105	0.085
-207.436	-200.000	0.038	-0.178
-206.421	188.921	0.075	0.112
-205.406	388.068	0.064	0.131
-204.392	-85.305	0.252	-0.078
-203.377	-193.195	0.290	-0.003
-202.363	-100.067	0.268	-0.066
-201.348	-200.000	0.006	0.145
-200.333	39.883	0.293	-0.262
-199.319	527.301	-0.034	-0.079
-198.304	-97.449	-0.067	0.017
-197.290	800.000	-0.029	-0.116
-196.275	-41.979	-0.377	0.192
-195.260	-35.294	-0.062	-0.033
-194.246	57.112	0.164	-0.159
-193.231	-200.000	0.007	-0.070
-192.217	-200.000	0.035	0.328
-191.202	-102.584	-0.192	-0.046
-190.187	157.116	-0.074	0.101
-189.173	-138.646	0.272	-0.030
-188.158	89.871	-0.078	0.087
-187.144	33.301	-0.169	0.146
-186.129	-48.637	-0.229	0.109
-185.114	748.760	-0.094	0.252
-184.100	-103.756	-0.099	-0.023
-183.085	76.468	0.081	0.085
-182.071	3.654	0.120	0.087
-181.056	70.466	-0.143	-0.147
-180.042	-31.137	-0.039	-0.022
-179.027	-141.045	-0.107	-0.011
-178.012	-18.597	-0.083	-0.051
-176.998	-161.724	0.211	-0.011
-175.983	555.293	-0.109	0.260
-174.969	800.000	-0.067	-0.261
-173.954	581.826	-0.112	0.272
-172.939	299.251	-0.061	-0.112
-171.925	-18.275	-0.109	0.068
-170.910	-29.008	0.507	0.289
-169.896	253.733	0.097	0.164
-168.881	800.000	-0.060	0.240
-167.866	-109.143	-0.286	-0.060
-166.852	-94.957	-0.110	0.029
-165.837	-94.800	-0.233	0.063
-164.823	-4.751	0.139	-0.095
-163.808	-136.316	-0.385	-0.045
-162.793	-119.324	-0.059	0.010
-161.779	-103.557	-0.218	0.051
-160.764	-62.184	0.234	-0.097
-159.750	-184.498	0.425	0.007
-158.735	-43.454	-0.409	0.205
-157.720	-86.406	0.384	-0.117
-156.706	-200.000	0.142	0.000
-155.691	41.176	-0.107	0.096
-154.677	64.064	-0.052	0.052
-153.662	46.613	0.162	-0.149
-152.647	-128.803	0.273	-0.038
-151.633	-144.564	0.193	0.018
-150.618	800.000	0.015	0.048
-149.604	-32.200	0.073	-0.040
-148.589	-124.678	-0.168	-0.026
-147.574	-129.650	0.065	0.009
-146.560	52.469	-0.098	-0.093
-145.545	-66.100	0.128	-0.051
-144.531	-73.561	0.139	-0.050
-143.516	29.534	0.207	0.175
-142.502	197.107	-0.216	-0.327
-141.487	800.000	0.068	-0.198
-140.472	748.317	-0.030	-0.081
-139.458	42.763	-0.065	0.059
-138.443	-14.192	-0.269	-0.172
-137.429	-125.185	0.294	0.045
-136.414	-29.183	0.118	0.067
-135.399	-200.000	0.000	-0.021
-134.385	800.000	-0.040	-0.156
-133.370	-85.070	0.098	0.030
-132.356	-106.672	0.443	-0.098
-131.341	-113.214	0.025	0.005
-130.326	-41.631	-0.071	-0.036
-129.312	800.000	0.041	0.160
-128.297	142.275	-0.056	-0.074
-127.283	-200.000	0.023	0.302
-126.268	-141.577	-0.202	-0.020
-125.253	-200.000	0.002	-0.032
-124.239	-200.000	0.015	-0.156
-123.224	-107.488	0.371	0.081
-122.210	584.602	0.099	-0.241
