DTS Sentinel unit serial number:	SN413079Multiplexer serial number:	ORYXHardware model number:	OX4-SRSoftware version number:	ORYX F/W v4.00 Oryx Data Collector v3.7.2.0data status	okinstallation	princeton_trtdifferential loss correction	single-endedforward channel	channel 2reverse channel	N/Adate	2019/09/14time	19:51:34forward acquisition time	60.00reverse acquisition time	0.00gamma	496.2192k internal	0.2320k external	0.2320temperature offset calibration	1.0097default loss term (dB/km)	0.3790temperature slope calibration	1.0000multiplexer offset coefficient	1.0000multiplexer slope coefficient	1.0000fibre end	0.00T internal ref (°C)	34.25T ext. ref 1 (°C)	4.87T ext. ref 2 (°C)	28.49length (m)	temperature (°C)	Stokes	anti-Stokes-747.200	122.544	-0.122	-0.154
-746.185	800.000	-0.068	0.287
-745.171	-42.912	-0.113	-0.058
-744.156	-200.000	0.006	-0.279
-743.142	800.000	-0.079	-0.241
-742.127	55.921	-0.295	0.289
-741.112	172.920	0.122	-0.178
-740.098	-200.000	0.028	-0.184
-739.083	-154.050	0.079	-0.005
-738.069	246.413	0.033	0.057
-737.054	-200.000	-0.057	-0.274
-736.039	-157.246	-0.356	-0.022
-735.025	-16.153	0.174	-0.112
-734.010	95.567	0.224	0.258
-732.996	-78.949	-0.255	-0.088
-731.981	21.037	-0.351	-0.288
-730.966	-200.000	0.004	0.290
-729.952	-47.576	-0.307	0.151
-728.937	-46.374	-0.395	-0.196
-727.923	152.073	-0.108	0.148
-726.908	177.641	-0.196	-0.289
-725.894	-26.549	-0.076	-0.045
-724.879	-200.000	-0.022	0.226
-723.864	-50.359	-0.279	0.133
-722.850	421.871	-0.065	0.141
-721.835	800.000	0.060	0.217
-720.821	-136.317	0.237	-0.028
-719.806	-200.000	-0.042	0.264
-718.791	-99.958	-0.299	-0.075
-717.777	-33.491	-0.183	-0.102
-716.762	-48.788	-0.122	0.059
-715.748	0.613	-0.453	0.327
-714.733	-96.909	0.050	-0.013
-713.718	14.951	-0.077	0.061
-712.704	-7.706	0.126	-0.086
-711.689	-54.672	-0.036	0.016
-710.675	4.196	0.188	0.139
-709.660	-18.348	-0.328	-0.207
-708.645	-54.309	0.132	-0.060
-707.631	-48.248	-0.053	-0.026
-706.616	-200.000	0.002	0.165
-705.602	236.215	-0.200	-0.334
-704.587	-154.417	0.029	0.002
-703.572	-95.943	-0.203	-0.055
-702.558	104.782	-0.141	-0.168
-701.543	-200.000	0.001	0.185
-700.529	-200.000	0.004	-0.124
-699.514	-165.017	-0.333	0.015
-698.499	198.016	0.078	-0.121
-697.485	-187.228	0.194	-0.003
-696.470	104.772	-0.227	-0.270
-695.456	-189.928	-0.170	0.002
-694.441	140.421	-0.082	0.109
-693.426	-61.832	0.111	-0.047
-692.412	-44.407	-0.107	-0.054
-691.397	23.294	0.282	-0.234
-690.383	-200.000	-0.009	-0.196
-689.368	-66.450	-0.100	0.040
-688.354	339.159	0.294	0.578
-687.339	-83.865	0.264	0.085
-686.324	-16.832	0.281	0.179
-685.310	544.045	-0.117	0.281
-684.295	93.316	0.168	-0.192
-683.281	800.000	-0.022	-0.062
-682.266	800.000	-0.044	-0.195
-681.251	191.783	0.097	0.147
-680.237	800.000	-0.101	-0.300
-679.222	-107.351	0.234	0.052
-678.208	-98.302	0.107	0.028
-677.193	800.000	-0.059	0.238
-676.178	-113.395	-0.138	0.027
-675.164	-186.892	-0.169	0.002
-674.149	-200.000	-0.049	-0.336
-673.135	-163.906	-0.107	-0.005
-672.120	152.427	0.069	-0.095
-671.105	471.079	-0.056	-0.128
-670.091	50.639	-0.159	-0.152
-669.076	31.188	-0.193	0.167
-668.062	5.537	0.167	-0.124
-667.047	800.000	0.069	0.216
-666.032	-5.145	-0.165	-0.114
-665.018	244.632	0.154	0.261
-664.003	-200.000	0.019	0.243
-662.989	129.173	-0.278	0.358
-661.974	-101.086	-0.075	-0.019
-660.959	-24.194	0.283	-0.171
-659.945	-200.000	-0.026	-0.281
-658.930	-14.214	-0.124	-0.081
-657.916	-154.387	-0.251	0.017
-656.901	55.244	0.028	-0.028
-655.886	800.000	0.114	-0.387
-654.872	-97.864	0.215	-0.056
-653.857	-83.162	0.119	0.038
-652.843	800.000	-0.015	-0.044
-651.828	-200.000	0.069	0.314
-650.814	23.878	0.103	-0.086
-649.799	674.659	0.138	-0.361
-648.784	-7.532	0.245	0.167
-647.770	26.079	0.181	-0.152
-646.755	800.000	0.102	0.289
-645.741	86.172	0.110	0.122
-644.726	52.714	-0.116	0.111
-643.711	79.999	-0.168	-0.182
-642.697	-29.717	-0.269	0.154
-641.682	117.489	-0.384	0.475
-640.668	439.613	0.168	-0.369
-639.653	555.670	-0.113	0.273
-638.638	-200.000	0.041	-0.396
-637.624	-68.969	-0.040	0.015
-636.609	23.062	0.142	0.117
-635.595	-46.949	-0.124	-0.061
-634.580	9.289	0.095	-0.072
-633.565	121.363	-0.183	0.229
-632.551	14.007	-0.110	0.086
-631.536	-102.716	-0.223	0.053
-630.522	147.575	-0.040	0.054
-629.507	108.822	0.082	0.099
-628.492	800.000	0.047	0.189
-627.478	-200.000	-0.009	-0.116
-626.463	-200.000	0.002	0.030
-625.449	-141.724	0.460	-0.047
-624.434	-18.560	0.252	-0.158
-623.419	800.000	-0.063	0.244
-622.405	-200.000	0.066	-0.307
-621.390	54.186	-0.053	0.052
-620.376	-200.000	-0.039	-0.265
-619.361	-110.514	-0.142	0.030
-618.346	67.586	0.065	-0.066
-617.332	-162.238	0.285	-0.014
-616.317	-104.895	0.237	0.055
-615.303	800.000	-0.090	0.261
-614.288	-106.732	0.207	0.046
-613.273	-81.451	0.400	0.132
-612.259	-65.276	-0.249	0.101
-611.244	-200.000	-0.025	0.208
-610.230	170.800	-0.116	-0.167
-609.215	59.576	-0.187	-0.186
-608.201	-74.406	-0.155	-0.056
-607.186	-200.000	-0.024	-0.215
-606.171	-111.595	-0.041	0.008
-605.157	250.618	-0.090	0.153
-604.142	284.792	0.066	0.120
-603.128	21.071	-0.332	-0.271
-602.113	-42.740	-0.284	-0.145
-601.098	-68.954	0.304	-0.118
-600.084	134.827	0.144	0.188
-599.069	-136.302	-0.105	0.012
-598.055	198.941	0.056	0.087
-597.040	112.469	-0.221	-0.269
-596.025	142.875	0.161	-0.216
-595.011	800.000	-0.025	-0.073
-593.996	-200.000	0.080	-0.403
-592.982	-200.000	-0.016	-0.091
-591.967	206.201	-0.103	0.161
-590.952	-8.464	0.239	-0.161
-589.938	152.670	-0.107	0.147
-588.923	-51.912	0.136	0.064
-587.909	324.179	-0.057	-0.110
-586.894	-175.692	-0.139	0.004
-585.879	138.703	0.186	0.246
-584.865	-107.596	-0.084	0.018
-583.850	89.752	-0.091	-0.102
-582.836	-200.000	-0.023	-0.150
-581.821	-200.000	-0.013	-0.273
-580.806	800.000	-0.029	-0.106
-579.792	686.069	0.042	0.110
-578.777	800.000	0.075	-0.256
-577.763	728.008	-0.069	0.184
-576.748	90.517	-0.150	0.169
-575.733	-44.759	-0.107	-0.054
-574.719	-165.973	-0.029	0.001
-573.704	218.700	-0.186	0.299
-572.690	237.274	-0.131	-0.219
-571.675	18.914	-0.040	0.032
-570.661	-200.000	0.043	-0.199
-569.646	-113.675	-0.480	-0.094
-568.631	-200.000	0.017	0.167
-567.617	-101.052	-0.246	-0.061
-566.602	-60.593	-0.194	-0.083
-565.588	34.560	0.064	-0.056
-564.573	-75.666	-0.236	-0.084
-563.558	220.398	0.159	-0.256
-562.544	200.154	-0.093	0.143
-561.529	-84.198	0.062	0.020
-560.515	-14.596	-0.034	-0.022
-559.500	-128.140	-0.138	0.020
-558.485	-44.635	0.071	0.035
-557.471	784.553	-0.126	-0.346
-556.456	-12.853	-0.246	0.161
-555.442	800.000	0.079	0.316
-554.427	307.048	0.169	0.316
-553.412	-21.840	0.337	-0.206
-552.398	-93.758	-0.030	-0.008
-551.383	-200.000	0.032	-0.439
-550.369	-56.502	0.337	0.150
-549.354	-82.714	-0.220	-0.071
-548.339	-200.000	-0.016	0.142
-547.325	-118.343	-0.161	-0.029
-546.310	800.000	0.037	0.112
-545.296	-118.986	0.392	0.069
-544.281	143.241	-0.338	-0.452
-543.266	9.287	0.197	-0.150
-542.252	50.510	-0.105	-0.099
-541.237	462.773	0.058	0.129
-540.223	-56.273	-0.180	0.080
-539.208	-161.408	-0.226	0.012
-538.193	-120.794	-0.585	-0.099
-537.179	16.934	0.283	-0.225
-536.164	328.481	-0.127	-0.244
-535.150	-200.000	-0.038	0.194
-534.135	-49.345	-0.158	-0.076
-533.121	-65.567	0.192	-0.077
-532.106	-200.000	-0.021	0.119
-531.091	267.262	0.111	0.196
-530.077	800.000	-0.036	0.141
-529.062	59.008	-0.132	-0.131
-528.048	258.107	0.062	-0.108
-527.033	200.134	0.060	-0.093
-526.018	-200.000	0.014	-0.111
-525.004	-138.302	-0.055	0.006
-523.989	87.189	0.064	0.071
-522.975	-40.749	-0.119	0.062
-521.960	-200.000	0.036	0.170
-520.945	663.396	-0.037	-0.097
-519.931	-200.000	-0.012	-0.078
-518.916	800.000	-0.031	0.136
-517.902	800.000	-0.076	0.236
-516.887	-120.184	-0.117	0.020
-515.872	-200.000	0.034	-0.243
-514.858	310.698	0.130	0.244
-513.843	103.996	0.333	-0.392
-512.829	-75.109	0.174	0.062
-511.814	-200.000	-0.002	0.115
-510.799	45.296	-0.082	0.076
-509.785	800.000	-0.025	0.107
-508.770	27.913	0.219	0.185
-507.756	-70.563	-0.249	0.094
-506.741	14.433	-0.228	-0.178
-505.726	2.424	-0.152	-0.110
-504.712	-125.227	-0.276	0.042
-503.697	-112.365	-0.126	0.025
-502.683	800.000	0.047	-0.133
-501.668	50.279	-0.178	0.169
-500.653	-61.130	-0.143	0.060
-499.639	-139.623	0.415	-0.044
-498.624	72.969	-0.172	0.180
-497.610	-121.612	0.043	0.007
-496.595	-10.006	-0.301	-0.201
-495.581	-200.000	-0.004	0.390
-494.566	-19.149	-0.256	-0.159
-493.551	89.999	0.072	0.081
-492.537	6.072	0.356	0.264
-491.522	202.962	-0.186	0.287
-490.508	88.787	-0.138	0.154
-489.493	-2.882	0.080	-0.056
-488.478	54.211	0.101	0.097
-487.464	800.000	-0.027	0.097
-486.449	-22.768	0.283	-0.171
-485.435	14.716	-0.039	0.031
-484.420	11.148	-0.325	0.249
-483.405	199.155	0.183	-0.280
-482.391	-85.325	0.054	-0.017
-481.376	130.998	0.278	-0.357
-480.362	-26.139	-0.375	-0.221
-479.347	-57.781	-0.155	0.068
-478.332	143.147	0.141	0.188
-477.318	-200.000	-0.019	-0.178
-476.303	156.670	-0.112	-0.154
-475.289	-131.023	0.448	-0.060
-474.274	154.028	-0.112	-0.154
-473.259	-200.000	0.052	-0.329
-472.245	-157.539	-0.235	-0.014
-471.230	-200.000	-0.040	0.393
-470.216	-85.812	-0.364	0.113
-469.201	-200.000	-0.060	-0.280
-468.186	-200.000	0.033	0.515
-467.172	19.429	-0.272	-0.219
-466.157	-82.056	0.072	0.024
-465.143	180.986	-0.178	-0.262
-464.128	-149.416	0.216	-0.017
-463.113	-200.000	0.034	-0.339
-462.099	60.855	-0.077	-0.076
-461.084	800.000	-0.127	0.412
-460.070	-132.028	0.354	0.046
-459.055	-200.000	0.035	-0.277
-458.040	645.416	-0.030	0.077
-457.026	-178.177	-0.243	-0.006
-456.011	256.746	0.037	0.063
-454.997	380.469	-0.074	-0.151
-453.982	-31.916	0.335	-0.187
-452.968	800.000	-0.064	0.248
-451.953	-200.000	-0.054	0.242
-450.938	186.734	-0.118	0.176
-449.924	309.624	-0.004	-0.007
-448.909	672.104	-0.124	0.320
-447.895	800.000	-0.067	0.197
-446.880	179.304	-0.118	0.173
-445.865	-114.805	0.503	-0.096
-444.851	424.723	-0.039	-0.083
-443.836	377.535	-0.089	-0.182
-442.822	357.790	0.139	0.277
-441.807	-70.427	-0.188	0.071
-440.792	36.609	0.139	-0.123
-439.778	103.074	0.181	0.211
-438.763	-200.000	0.024	0.328
-437.749	536.382	-0.081	-0.192
-436.734	66.413	-0.192	-0.195
-435.719	800.000	-0.053	-0.205
-434.705	-54.643	-0.138	-0.062
-433.690	800.000	-0.105	-0.450
-432.676	-146.784	0.178	0.015
-431.661	-132.052	0.071	-0.009
-430.646	91.060	-0.096	-0.107
-429.632	75.091	0.200	0.211
-428.617	-200.000	0.027	-0.120
-427.603	113.418	0.090	-0.109
-426.588	800.000	0.051	0.143
-425.573	247.796	0.096	0.162
-424.559	-88.208	0.206	-0.061
-423.544	-102.486	-0.098	-0.023
-422.530	-87.330	-0.141	0.043
-421.515	800.000	0.043	0.151
-420.500	94.939	-0.109	0.124
-419.486	23.501	-0.249	-0.205
-418.471	-70.777	-0.394	0.148
-417.457	-79.453	0.130	0.044
-416.442	800.000	-0.035	-0.105
-415.428	-0.683	-0.085	0.060
-414.413	345.880	0.111	0.218
-413.398	163.298	0.158	0.222
-412.384	-200.000	0.046	-0.221
-411.369	800.000	-0.019	-0.069
-410.355	226.672	0.217	0.352
-409.340	-200.000	0.033	0.348
-408.325	-126.005	0.234	0.035
-407.311	-89.209	0.122	-0.036
-406.296	-33.941	0.212	-0.116
-405.282	54.839	-0.057	-0.055
-404.267	-84.629	0.224	-0.070
-403.252	565.247	0.115	-0.278
-402.238	126.197	-0.176	0.222
-401.223	-58.148	0.264	-0.115
-400.209	-97.642	-0.204	0.053
-399.194	-88.956	-0.215	0.063
-398.179	330.411	-0.051	0.098
-397.165	-37.807	-0.130	0.069
-396.150	-82.918	-0.311	-0.100
-395.136	259.701	0.184	0.317
-394.121	-152.245	-0.275	-0.020
-393.106	64.928	-0.038	-0.039
-392.092	-88.993	-0.141	0.042
-391.077	-88.956	0.144	-0.042
-390.063	-135.026	-0.256	0.031
-389.048	800.000	0.090	-0.269
-388.033	-100.490	0.135	-0.033
-387.019	60.258	-0.330	-0.325
-386.004	364.585	0.068	-0.135
-384.990	-63.459	0.247	0.101
-383.975	-154.366	-0.141	-0.009
-382.960	800.000	0.142	0.394
-381.946	158.748	0.161	-0.223
-380.931	-200.000	-0.035	0.321
-379.917	-194.009	-0.078	0.001
-378.902	597.197	0.055	-0.137
-377.888	149.474	0.026	-0.035
-376.873	-200.000	0.035	-0.462
-375.858	144.985	-0.152	0.203
-374.844	-200.000	-0.008	0.082
-373.829	179.939	-0.059	0.087
-372.815	-92.883	-0.323	0.090
-371.800	-21.753	0.262	0.159
-370.785	-54.968	0.141	0.063
-369.771	-200.000	-0.018	0.168
-368.756	43.243	0.166	-0.151
-367.742	-78.825	-0.288	-0.098
-366.727	800.000	0.044	0.160
-365.712	-107.163	-0.236	-0.052
-364.698	-40.006	0.083	-0.043
-363.683	134.164	-0.040	0.051
-362.669	-200.000	-0.029	0.140
-361.654	-118.593	0.079	0.014
-360.639	346.869	0.075	-0.146
-359.625	333.749	0.051	-0.098
-358.610	800.000	0.039	-0.128
-357.596	-68.032	0.147	-0.057
-356.581	237.238	0.144	0.237
-355.566	-94.518	-0.001	-0.000
-354.552	-200.000	0.038	0.194
-353.537	379.031	0.103	-0.210
-352.523	800.000	-0.040	-0.141
-351.508	-1.436	0.272	-0.191
-350.493	20.651	-0.083	0.067
-349.479	800.000	0.054	-0.166
-348.464	-200.000	-0.036	-0.256
-347.450	-29.486	-0.290	0.165
-346.435	8.160	0.134	-0.101
-345.420	345.224	-0.007	0.014
-344.406	-200.000	-0.020	-0.140
-343.391	-97.655	-0.279	0.072
-342.377	137.461	0.088	0.114
-341.362	493.225	0.093	0.212
-340.348	-23.105	0.041	-0.025
-339.333	24.151	0.268	0.220
-338.318	-123.851	0.137	-0.021
-337.304	119.893	-0.092	-0.114
-336.289	-39.411	-0.040	-0.021
-335.275	257.292	0.060	-0.102
-334.260	24.487	-0.060	0.049
-333.245	-79.741	0.236	0.079
-332.231	-200.000	0.011	-0.074
-331.216	-5.663	0.297	0.203
-330.202	41.310	-0.277	-0.249
-329.187	-14.571	-0.071	0.045
-328.172	-136.946	0.066	-0.008
-327.158	-200.000	0.027	-0.215
-326.143	-27.247	0.352	-0.204
-325.129	-3.231	-0.071	-0.049
-324.114	-48.564	0.209	-0.100
-323.099	424.011	0.123	-0.262
-322.085	-166.749	-0.339	-0.014
-321.070	234.627	0.160	-0.262
-320.056	378.365	0.125	-0.253
-319.041	330.542	-0.058	-0.110
-318.026	-200.000	-0.017	-0.171
-317.012	-74.155	0.163	0.059
-315.997	292.151	-0.028	0.052
-314.983	-126.352	-0.162	0.024
-313.968	-200.000	0.021	-0.110
-312.953	-104.497	-0.388	0.089
-311.939	-128.846	0.249	-0.035
-310.924	-37.329	0.132	0.070
-309.910	-93.424	0.230	0.063
-308.895	-77.295	0.075	0.026
-307.880	-10.644	0.078	-0.051
-306.866	-107.015	0.058	-0.013
-305.851	-32.596	-0.133	-0.073
-304.837	-105.836	0.453	0.102
-303.822	-134.707	0.226	-0.027
-302.807	40.187	0.343	0.307
-301.793	32.079	-0.164	0.140
-300.778	67.508	0.081	0.083
-299.764	762.157	-0.088	-0.236
-298.749	69.089	0.140	-0.143
-297.735	-48.303	0.305	0.146
-296.720	24.254	0.122	-0.100
-295.705	-78.484	0.279	0.095
-294.691	131.214	0.287	-0.367
-293.676	-200.000	-0.001	-0.231
-292.662	296.488	0.086	0.157
-291.647	102.936	-0.208	-0.242
-290.632	-162.517	-0.164	0.008
-289.618	800.000	0.091	0.303
-288.603	117.603	0.069	0.084
-287.589	800.000	-0.064	-0.187
-286.574	800.000	-0.057	-0.181
-285.559	-140.942	0.044	-0.004
-284.545	-143.803	-0.459	-0.043
-283.530	-200.000	-0.202	0.000
-282.516	-169.928	-0.118	0.004
-281.501	212.158	0.173	0.271
-280.486	800.000	-0.050	-0.188
-279.472	800.000	-0.076	-0.309
-278.457	-17.668	0.103	0.064
-277.443	-111.876	-0.089	-0.018
-276.428	-112.529	0.327	-0.065
-275.413	-32.538	0.085	0.047
-274.399	-4.252	0.228	0.156
-273.384	-108.830	0.207	0.044
-272.370	249.224	-0.218	0.366
-271.355	-200.000	-0.232	-0.001
-270.340	-131.756	0.289	0.038
-269.326	-150.296	0.095	0.007
-268.311	-108.092	0.122	0.026
-267.297	73.959	-0.039	0.041
-266.282	76.554	-0.175	0.184
-265.267	64.423	-0.258	0.258
-264.253	-160.569	0.524	0.028
-263.238	442.862	0.046	-0.100
-262.224	138.836	0.099	-0.129
-261.209	-4.427	0.006	-0.004
-260.195	94.298	0.228	0.257
-259.180	188.382	0.116	0.172
-258.165	211.055	-0.025	0.040
-257.151	-34.880	-0.231	-0.125
-256.136	800.000	0.049	-0.157
-255.122	-105.769	-0.334	-0.075
-254.107	-200.000	-0.036	-0.375
-253.092	-200.000	-0.014	0.082
-252.078	194.485	-0.080	0.121
-251.063	104.414	-0.182	-0.213
-250.049	177.753	0.007	0.010
-249.034	576.186	-0.097	-0.235
-248.019	132.565	-0.118	0.151
-247.005	-7.924	0.103	-0.069
-245.990	-200.000	-0.001	-0.226
-244.976	-128.375	-0.143	0.020
-243.961	800.000	0.093	-0.292
-242.946	56.252	0.230	-0.221
-241.932	-149.947	0.306	-0.024
-240.917	112.574	-0.202	0.243
-239.903	-80.282	-0.046	0.015
-238.888	-17.057	-0.248	-0.155
-237.873	2.527	0.068	0.049
-236.859	-104.062	0.124	-0.029
-235.844	-38.568	0.197	0.103
-234.830	-28.518	0.119	0.068
-233.815	249.783	0.170	-0.287
-232.800	441.773	0.117	0.253
-231.786	-200.000	0.029	-0.176
-230.771	-200.000	-0.030	-0.232
-229.757	8.636	-0.068	-0.051
-228.742	292.640	0.114	0.206
-227.727	767.078	0.074	-0.201
-226.713	800.000	-0.085	0.299
-225.698	-66.696	-0.140	-0.055
-224.684	-148.145	0.302	-0.025
-223.669	-83.832	0.329	0.104
-222.655	-73.262	0.241	0.087
-221.640	-29.990	-0.108	-0.061
-220.625	-49.191	-0.149	0.070
-219.611	107.698	0.198	-0.234
-218.596	715.608	-0.065	0.171
-217.582	333.954	0.070	0.134
-216.567	-39.308	0.187	0.097
-215.552	708.053	0.101	-0.264
-214.538	-51.156	0.275	0.128
-213.523	-80.618	-0.297	0.098
-212.509	443.404	0.180	0.392
-211.494	365.933	0.213	0.426
-210.479	800.000	-0.073	0.232
-209.465	-130.967	-0.372	-0.049
-208.450	-155.544	-0.137	-0.009
-207.436	-136.899	0.237	0.027
-206.421	303.489	-0.123	-0.226
-205.406	-200.000	0.012	-0.077
-204.392	-90.442	-0.184	0.053
-203.377	472.369	0.062	-0.138
-202.363	-139.750	-0.330	-0.035
-201.348	-200.000	0.025	-0.126
-200.333	467.575	0.102	-0.226
-199.319	-79.143	0.084	-0.028
-198.304	-88.015	-0.157	-0.047
-197.290	-28.839	0.224	0.127
-196.275	-101.954	-0.031	-0.007
-195.260	800.000	-0.055	0.166
-194.246	800.000	-0.061	-0.229
-193.231	-200.000	0.007	-0.060
-192.217	-200.000	0.002	0.389
-191.202	800.000	-0.022	0.071
-190.187	-124.769	-0.171	-0.026
-189.173	-111.443	0.190	-0.038
-188.158	-32.145	0.161	0.089
-187.144	-200.000	0.004	0.154
-186.129	-108.282	-0.313	0.067
-185.114	73.580	0.156	0.161
-184.100	81.692	0.168	0.180
-183.085	-200.000	-0.024	-0.115
-182.071	58.718	-0.232	0.226
-181.056	-29.436	-0.232	0.131
-180.042	52.878	-0.130	-0.123
-179.027	-200.000	-0.001	-0.151
-178.012	240.462	-0.104	0.172
-176.998	84.798	-0.294	0.319
-175.983	-24.502	-0.036	-0.021
-174.969	178.139	0.166	0.239
-173.954	5.021	-0.137	-0.100
-172.939	-52.866	-0.287	0.131
-171.925	-119.449	-0.218	0.037
-170.910	-152.107	0.046	0.003
-169.896	-103.647	-0.068	0.016
-168.881	-67.823	-0.223	0.086
-167.866	800.000	0.091	-0.249
-166.852	-129.276	-0.429	-0.059
-165.837	208.118	-0.138	0.214
-164.823	167.481	-0.039	-0.055
-163.808	-200.000	0.032	0.217
-162.793	42.027	0.214	-0.192
-161.779	-34.531	0.188	-0.102
-160.764	-200.000	-0.036	-0.262
-159.750	-200.000	-0.036	0.212
-158.735	800.000	-0.084	-0.248
-157.720	-131.534	0.282	-0.037
-156.706	457.868	0.136	0.298
-155.691	-78.978	-0.289	0.097
-154.677	-0.904	0.257	0.180
-153.662	-200.000	0.028	0.312
-152.647	82.715	0.169	0.182
-151.633	-200.000	-0.032	-0.281
-150.618	339.128	-0.089	0.172
-149.604	-93.253	0.200	0.055
-148.589	592.014	0.087	-0.212
-147.574	316.588	-0.043	0.081
-146.560	107.702	-0.105	-0.124
-145.545	-200.000	0.003	-0.121
-144.531	-200.000	0.009	0.082
-143.516	-200.000	0.009	0.059
-142.502	262.158	0.095	0.163
-141.487	-200.000	-0.042	0.339
-140.472	-200.000	0.026	0.174
-139.458	-143.300	-0.200	0.019
-138.443	800.000	0.075	-0.260
-137.429	729.959	0.047	-0.125
-136.414	-52.856	0.325	0.148
-135.399	5.263	-0.092	-0.067
-134.385	714.317	0.130	0.341
-133.370	83.716	0.196	-0.212
-132.356	-200.000	-0.045	0.362
-131.341	-112.544	0.477	0.094
-130.326	-43.963	0.233	0.116
-129.312	-200.000	0.016	0.247
-128.297	-200.000	-0.037	0.433
-127.283	711.050	0.075	-0.196
-126.268	-53.523	-0.044	0.020
-125.253	-114.088	-0.150	-0.029
-124.239	-56.084	0.243	0.107
-123.224	28.776	-0.080	0.067
-122.210	-80.994	0.186	0.061
