DTS Sentinel unit serial number:	SN413079Multiplexer serial number:	ORYXHardware model number:	OX4-SRSoftware version number:	ORYX F/W v4.00 Oryx Data Collector v3.7.2.0data status	okinstallation	princeton_trtdifferential loss correction	single-endedforward channel	channel 2reverse channel	N/Adate	2019/09/10time	22:01:10forward acquisition time	60.00reverse acquisition time	0.00gamma	496.2192k internal	0.2330k external	0.2330temperature offset calibration	0.9947default loss term (dB/km)	0.3790temperature slope calibration	1.0000multiplexer offset coefficient	1.0000multiplexer slope coefficient	1.0000fibre end	0.00T internal ref (°C)	30.69T ext. ref 1 (°C)	-0.31T ext. ref 2 (°C)	23.92length (m)	temperature (°C)	Stokes	anti-Stokes-747.200	146.703	0.052	-0.070
-746.185	-200.000	-0.014	0.294
-745.171	-61.868	-0.233	0.098
-744.156	214.547	0.225	0.358
-743.142	-200.000	0.049	-0.278
-742.127	51.968	-0.432	0.414
-741.112	799.598	0.054	0.149
-740.098	-90.496	-0.212	0.062
-739.083	487.317	0.053	0.122
-738.069	-153.015	-0.127	0.009
-737.054	-33.012	0.110	-0.061
-736.039	167.492	0.243	-0.347
-735.025	388.942	-0.016	0.034
-734.010	-190.583	-0.147	0.002
-732.996	-50.450	0.119	0.057
-731.981	800.000	0.040	0.161
-730.966	800.000	0.056	-0.214
-729.952	-77.498	-0.150	-0.052
-728.937	-43.774	-0.268	-0.136
-727.923	-198.405	-0.147	0.001
-726.908	-45.474	-0.183	-0.091
-725.894	85.088	-0.214	0.236
-724.879	678.509	-0.067	-0.174
-723.864	562.002	0.108	0.263
-722.850	-151.350	0.215	-0.016
-721.835	-200.000	0.061	0.391
-720.821	-64.372	0.398	-0.163
-719.806	347.340	-0.054	-0.108
-718.791	-200.000	0.009	0.158
-717.777	-26.410	0.206	0.121
-716.762	148.444	-0.117	0.159
-715.748	65.713	-0.152	0.155
-714.733	291.493	0.136	-0.248
-713.718	191.917	-0.079	-0.120
-712.704	230.650	-0.009	0.014
-711.689	8.210	0.386	0.292
-710.675	170.174	-0.137	-0.197
-709.660	69.909	-0.176	-0.182
-708.645	-200.000	0.029	0.130
-707.631	800.000	0.073	-0.287
-706.616	-103.351	0.234	-0.056
-705.602	-200.000	-0.069	-0.515
-704.587	800.000	-0.013	-0.053
-703.572	-89.937	-0.191	-0.056
-702.558	-143.653	0.400	-0.038
-701.543	-91.982	0.217	0.062
-700.529	-160.782	0.410	0.022
-699.514	442.902	-0.124	-0.274
-698.499	-44.080	0.124	0.063
-697.485	-164.992	-0.206	-0.009
-696.470	280.821	-0.255	-0.459
-695.456	-46.478	0.260	-0.128
-694.441	112.351	0.084	-0.102
-693.426	146.978	0.073	-0.098
-692.412	-200.000	0.039	-0.291
-691.397	98.589	0.129	-0.150
-690.383	16.473	-0.236	-0.188
-689.368	550.144	-0.024	0.057
-688.354	-79.756	0.152	-0.052
-687.339	-157.917	0.256	-0.015
-686.324	63.055	-0.146	-0.146
-685.310	32.963	0.109	-0.095
-684.295	167.654	0.127	-0.182
-683.281	95.486	-0.012	0.014
-682.266	-113.777	0.109	0.021
-681.251	-106.261	-0.396	-0.089
-680.237	49.511	0.167	0.158
-679.222	-200.000	-0.013	0.117
-678.208	165.599	0.047	-0.066
-677.193	-76.364	-0.083	0.029
-676.178	589.261	-0.085	0.209
-675.164	214.870	0.149	0.237
-674.149	-27.988	-0.045	0.026
-673.135	114.635	-0.160	0.196
-672.120	560.879	-0.026	-0.062
-671.105	-154.742	-0.364	-0.024
-670.091	10.421	-0.225	-0.172
-669.076	251.303	-0.221	-0.378
-668.062	30.634	0.203	0.175
-667.047	800.000	-0.037	-0.138
-666.032	-200.000	0.004	-0.219
-665.018	48.928	-0.140	0.132
-664.003	-113.964	0.296	0.058
-662.989	800.000	0.082	-0.286
-661.974	-200.000	0.038	-0.214
-660.959	-200.000	0.044	-0.236
-659.945	-2.837	-0.162	0.113
-658.930	31.291	-0.159	0.137
-657.916	-105.536	0.303	-0.069
-656.901	119.837	-0.057	-0.070
-655.886	369.354	0.157	0.320
-654.872	158.118	0.294	0.409
-653.857	-79.253	-0.493	0.168
-652.843	800.000	-0.021	0.071
-651.828	-55.213	0.162	0.073
-650.814	-22.632	-0.295	0.179
-649.799	-112.892	0.097	-0.019
-648.784	-14.417	-0.131	0.084
-647.770	-200.000	0.046	-0.217
-646.755	54.120	0.232	-0.224
-645.741	-164.377	-0.062	0.003
-644.726	510.570	-0.117	0.273
-643.711	-166.881	-0.293	0.012
-642.697	-180.509	0.188	-0.004
-641.682	371.436	-0.131	0.267
-640.668	373.188	-0.066	0.135
-639.653	800.000	-0.054	-0.168
-638.638	191.670	0.052	-0.078
-637.624	-200.000	0.018	0.110
-636.609	767.850	-0.023	0.063
-635.595	694.669	-0.057	-0.151
-634.580	-77.255	-0.142	-0.050
-633.565	-200.000	-0.033	-0.278
-632.551	-3.540	0.055	0.038
-631.536	22.794	-0.303	-0.249
-630.522	129.194	0.182	-0.233
-629.507	68.494	0.163	0.168
-628.492	65.056	-0.315	-0.319
-627.478	-104.499	0.230	-0.053
-626.463	-200.000	0.000	0.199
-625.449	94.892	0.141	0.161
-624.434	-161.127	-0.400	-0.021
-623.419	-88.450	-0.164	-0.049
-622.405	475.569	0.022	0.051
-621.390	400.594	0.078	-0.163
-620.376	-180.643	0.135	0.003
-619.361	-50.157	0.162	0.077
-618.346	800.000	-0.019	-0.057
-617.332	-116.866	0.255	-0.047
-616.317	-200.000	-0.071	-0.376
-615.303	19.718	0.092	-0.074
-614.288	-200.000	0.016	0.092
-613.273	-134.990	-0.092	0.011
-612.259	-70.354	-0.219	-0.083
-611.244	-178.389	-0.313	0.007
-610.230	-36.027	-0.351	-0.190
-609.215	-47.487	-0.249	-0.121
-608.201	-8.162	-0.189	-0.127
-607.186	-113.945	-0.128	0.025
-606.171	-25.193	0.182	0.108
-605.157	-200.000	0.004	-0.268
-604.142	800.000	-0.074	-0.298
-603.128	-200.000	-0.057	-0.315
-602.113	7.497	0.154	-0.115
-601.098	26.580	0.279	0.233
-600.084	2.866	-0.120	-0.088
-599.069	-200.000	0.379	0.002
-598.055	-11.468	-0.132	-0.087
-597.040	309.132	0.190	-0.356
-596.025	82.231	0.160	0.174
-595.011	38.169	-0.120	-0.107
-593.996	-136.457	-0.053	-0.006
-592.982	-18.219	0.126	0.079
-591.967	-124.223	-0.115	-0.018
-590.952	98.126	-0.138	0.159
-589.938	53.328	-0.140	0.134
-588.923	159.854	-0.105	0.147
-587.909	800.000	-0.012	0.036
-586.894	-200.000	-0.059	0.397
-585.879	-78.146	-0.331	0.114
-584.865	-12.768	0.092	-0.060
-583.850	800.000	0.054	-0.220
-582.836	-200.000	0.013	0.323
-581.821	800.000	-0.056	0.194
-580.806	-200.000	0.014	0.178
-579.792	202.081	-0.188	-0.290
-578.777	235.970	0.081	-0.134
-577.763	-23.170	0.322	-0.194
-576.748	142.597	-0.114	0.151
-575.733	130.074	0.293	0.375
-574.719	-106.240	0.121	0.027
-573.704	-15.516	-0.463	-0.295
-572.690	-158.337	-0.141	0.008
-571.675	32.992	0.268	0.232
-570.661	-1.745	-0.257	-0.181
-569.646	333.514	-0.069	0.133
-568.631	53.099	-0.258	-0.247
-567.617	-46.826	0.086	0.042
-566.602	97.396	0.175	-0.201
-565.588	-114.529	0.115	0.022
-564.573	-28.298	0.162	-0.093
-563.558	-200.000	-0.011	0.505
-562.544	-200.000	0.032	-0.240
-561.529	250.983	0.110	-0.187
-560.515	181.838	-0.088	-0.130
-559.500	137.883	0.097	-0.127
-558.485	-122.538	0.013	-0.002
-557.471	-200.000	-0.014	0.306
-556.456	261.578	0.105	-0.182
-555.442	-73.069	0.053	-0.019
-554.427	-0.612	-0.101	0.072
-553.412	153.653	-0.159	0.218
-552.398	592.896	0.071	-0.174
-551.383	247.315	0.132	-0.224
-550.369	-122.255	-0.345	0.056
-549.354	-100.182	0.134	0.033
-548.339	199.338	-0.086	0.131
-547.325	-39.177	-0.343	-0.180
-546.310	-67.896	-0.093	-0.036
-545.296	800.000	-0.043	-0.169
-544.281	162.904	0.096	-0.134
-543.266	5.993	0.211	-0.156
-542.252	531.429	0.056	0.133
-541.237	29.612	-0.124	0.105
-540.223	-16.357	-0.237	0.150
-539.208	800.000	0.027	0.100
-538.193	-99.372	-0.311	-0.078
-537.179	-104.010	-0.328	-0.076
-536.164	491.572	0.168	0.384
-535.150	-151.488	0.215	-0.016
-534.135	718.029	-0.065	0.173
-533.121	-200.000	-0.053	0.288
-532.106	800.000	0.071	0.261
-531.091	589.150	0.089	-0.218
-530.077	800.000	-0.017	0.075
-529.062	-200.000	0.049	-0.237
-528.048	-37.157	-0.108	0.058
-527.033	198.441	-0.129	0.197
-526.018	-110.443	-0.319	-0.066
-525.004	111.881	0.158	0.190
-523.989	-74.060	0.220	-0.079
-522.975	59.222	0.093	-0.092
-521.960	75.577	0.140	-0.148
-520.945	-90.187	-0.072	-0.021
-519.931	450.447	-0.044	-0.098
-518.916	-200.000	-0.014	-0.070
-517.902	-0.054	0.239	0.170
-516.887	-123.401	0.353	0.056
-515.872	-200.000	0.006	-0.237
-514.858	6.839	-0.193	0.144
-513.843	-160.136	0.392	0.021
-512.829	-200.000	0.003	0.104
-511.814	-62.992	0.092	0.038
-510.799	21.242	-0.106	-0.086
-509.785	-200.000	-0.003	0.049
-508.770	689.736	0.036	0.095
-507.756	124.329	-0.058	-0.073
-506.741	-200.000	-0.003	-0.211
-505.726	225.754	0.209	-0.338
-504.712	-200.000	0.047	-0.248
-503.697	11.236	0.188	0.144
-502.683	-105.609	0.256	0.058
-501.668	426.274	-0.112	0.241
-500.653	-108.869	-0.089	0.019
-499.639	-20.429	0.156	-0.096
-498.624	38.314	0.081	0.072
-497.610	-200.000	-0.017	-0.531
-496.595	-88.416	0.168	-0.050
-495.581	-200.000	-0.025	0.163
-494.566	-76.675	0.131	0.046
-493.551	20.761	-0.083	0.067
-492.537	-51.173	0.253	0.118
-491.522	-1.584	0.134	-0.094
-490.508	21.330	-0.077	0.062
-489.493	-200.000	0.039	0.482
-488.478	-200.000	0.017	0.228
-487.464	-18.758	-0.450	0.279
-486.449	52.207	-0.071	-0.068
-485.435	46.347	-0.104	0.096
-484.420	-173.530	-0.165	-0.005
-483.405	800.000	-0.074	0.229
-482.391	-95.369	-0.101	-0.027
-481.376	-171.320	-0.095	0.003
-480.362	68.690	-0.518	0.530
-479.347	800.000	-0.035	0.113
-478.332	-200.000	-0.058	0.374
-477.318	800.000	0.082	0.282
-476.303	78.140	0.132	-0.140
-475.289	-200.000	0.003	0.221
-474.274	675.344	-0.190	0.493
-473.259	800.000	0.032	0.109
-472.245	102.312	-0.188	0.219
-471.230	800.000	0.037	0.107
-470.216	-200.000	0.024	-0.401
-469.201	99.945	0.120	0.138
-468.186	800.000	-0.126	-0.445
-467.172	35.233	-0.243	-0.212
-466.157	800.000	0.053	0.204
-465.143	-200.000	-0.003	-0.263
-464.128	800.000	-0.144	0.457
-463.113	-200.000	-0.083	-0.412
-462.099	-8.830	0.234	-0.156
-461.084	677.956	-0.069	-0.179
-460.070	218.903	0.289	-0.460
-459.055	-130.839	0.244	-0.033
-458.040	121.581	-0.246	0.305
-457.026	-39.446	-0.175	-0.091
-456.011	31.416	0.178	-0.152
-454.997	633.606	0.022	0.055
-453.982	-57.137	0.061	0.027
-452.968	594.711	0.072	-0.177
-451.953	107.872	0.058	-0.069
-450.938	297.545	0.122	0.222
-449.924	-72.986	-0.152	0.055
-448.909	800.000	-0.051	-0.160
-447.895	115.067	0.301	0.366
-446.880	-118.647	-0.156	0.027
-445.865	-132.862	-0.259	0.033
-444.851	6.180	-0.172	0.127
-443.836	102.899	0.129	-0.151
-442.822	26.601	0.089	-0.075
-441.807	150.857	0.093	-0.126
-440.792	103.162	-0.046	-0.053
-439.778	1.262	-0.191	-0.136
-438.763	800.000	-0.097	0.274
-437.749	-28.664	0.182	0.104
-436.734	6.953	0.273	-0.202
-435.719	-29.281	-0.260	0.148
-434.705	-200.000	-0.011	-0.255
-433.690	-18.915	-0.176	-0.109
-432.676	-35.829	0.383	-0.206
-431.661	74.333	-0.355	-0.371
-430.646	321.973	-0.133	0.252
-429.632	-69.164	0.100	0.038
-428.617	-100.279	-0.314	0.078
-427.603	-12.096	0.386	0.252
-426.588	4.344	0.095	-0.069
-425.573	180.563	0.023	-0.033
-424.559	-200.000	0.001	0.148
-423.544	800.000	0.047	0.164
-422.530	-157.450	-0.105	0.006
-421.515	-200.000	-0.005	-0.333
-420.500	346.601	-0.144	-0.282
-419.486	-23.224	-0.305	0.183
-418.471	217.935	0.054	0.086
-417.457	800.000	-0.081	-0.269
-416.442	-200.000	-0.043	0.208
-415.428	-69.833	-0.196	-0.074
-414.413	198.602	0.165	-0.251
-413.398	-1.310	-0.095	-0.067
-412.384	-99.502	0.242	-0.061
-411.369	102.343	0.065	-0.076
-410.355	-106.704	0.171	0.038
-409.340	-200.000	-0.017	-0.356
-408.325	429.163	0.207	0.445
-407.311	800.000	0.081	-0.296
-406.296	423.317	-0.165	-0.352
-405.282	-34.445	-0.122	-0.066
-404.267	-119.742	-0.071	-0.012
-403.252	110.160	0.178	-0.213
-402.238	-200.000	0.013	-0.108
-401.223	351.085	0.060	-0.118
-400.209	67.007	-0.226	0.229
-399.194	-148.702	-0.491	-0.040
-398.179	-100.330	0.209	-0.052
-397.165	-200.000	-0.021	0.236
-396.150	-66.072	-0.208	-0.083
-395.136	156.142	-0.095	0.130
-394.121	113.432	0.053	-0.064
-393.106	-126.555	-0.359	-0.053
-392.092	447.974	-0.076	0.167
-391.077	-93.981	-0.260	-0.071
-390.063	800.000	-0.057	0.235
-389.048	27.901	-0.279	-0.233
-388.033	92.595	-0.046	0.052
-387.019	46.573	0.120	0.110
-386.004	-200.000	0.006	-0.234
-384.990	513.304	0.179	-0.414
-383.975	-67.823	-0.172	0.067
-382.960	-200.000	0.020	0.328
-381.946	-96.342	-0.128	-0.034
-380.931	-58.731	-0.175	0.075
-379.917	-200.000	-0.129	-0.000
-378.902	94.797	0.051	-0.057
-377.888	800.000	0.080	-0.267
-376.873	316.057	-0.118	0.221
-375.858	800.000	0.051	-0.212
-374.844	-27.479	-0.244	0.141
-373.829	269.231	0.044	0.076
-372.815	97.651	0.252	-0.288
-371.800	-43.357	-0.158	-0.079
-370.785	57.473	0.042	-0.041
-369.771	-16.841	0.156	-0.098
-368.756	41.792	0.065	-0.058
-367.742	800.000	-0.055	0.216
-366.727	-97.208	0.347	0.090
-365.712	-200.000	0.060	0.346
-364.698	800.000	-0.028	-0.087
-363.683	-132.081	-0.181	-0.023
-362.669	138.424	-0.062	-0.081
-361.654	-200.000	0.026	-0.157
-360.639	800.000	-0.014	0.041
-359.625	-82.109	-0.299	-0.097
-358.610	454.612	-0.090	0.197
-357.596	-200.000	0.031	-0.293
-356.581	-177.020	0.105	0.003
-355.566	-70.762	-0.263	0.099
-354.552	-200.000	0.018	-0.283
-353.537	-200.000	-0.030	0.161
-352.523	437.555	-0.140	0.302
-351.508	-200.000	0.002	-0.015
-350.493	800.000	-0.085	0.254
-349.479	509.871	-0.049	-0.113
-348.464	-158.144	0.131	-0.008
-347.450	-200.000	-0.018	-0.117
-346.435	153.970	-0.196	-0.266
-345.420	-49.805	0.107	0.050
-344.406	-166.080	0.512	0.022
-343.391	78.613	-0.424	-0.449
-342.377	141.302	0.237	-0.311
-341.362	11.786	-0.212	-0.161
-340.348	749.220	0.122	0.327
-339.333	124.485	-0.009	-0.011
-338.318	-200.000	0.006	-0.129
-337.304	-66.595	0.160	-0.063
-336.289	-42.589	0.038	0.019
-335.275	-93.029	-0.309	0.085
-334.260	-1.499	0.133	-0.093
-333.245	-26.725	0.431	-0.250
-332.231	-130.706	-0.157	-0.021
-331.216	800.000	0.063	-0.202
-330.202	469.819	0.083	0.185
-329.187	-200.000	-0.020	0.091
-328.172	53.580	-0.085	0.081
-327.158	167.079	-0.243	-0.342
-326.143	-200.000	-0.003	0.059
-325.129	14.293	-0.132	0.102
-324.114	-68.465	-0.120	0.046
-323.099	-6.732	0.114	0.077
-322.085	165.463	-0.029	0.040
-321.070	-200.000	-0.008	-0.488
-320.056	-22.040	0.219	-0.132
-319.041	-5.482	0.222	0.151
-318.026	32.462	0.196	-0.168
-317.012	-55.850	0.231	0.102
-315.997	19.256	0.117	0.093
-314.983	-91.722	-0.113	-0.032
-313.968	-182.647	0.302	0.005
-312.953	-52.038	-0.226	-0.104
-311.939	-200.000	-0.032	0.253
-310.924	86.412	0.065	0.070
-309.910	-200.000	-0.013	0.178
-308.895	2.791	-0.326	-0.234
-307.880	-200.000	0.019	0.132
-306.866	-99.976	0.118	0.029
-305.851	431.473	0.089	-0.192
-304.837	329.553	-0.126	0.240
-303.822	-200.000	0.005	-0.202
-302.807	20.223	0.155	0.124
-301.793	35.328	-0.223	-0.194
-300.778	79.217	0.139	0.147
-299.764	311.269	0.117	0.217
-298.749	-117.226	-0.187	0.034
-297.735	25.583	0.073	0.060
-296.720	-151.425	0.118	0.009
-295.705	375.580	0.098	0.198
-294.691	-200.000	-0.011	0.095
-293.676	-171.868	-0.090	0.003
-292.662	-49.919	-0.209	0.098
-291.647	-126.833	-0.179	-0.026
-290.632	79.697	0.048	-0.051
-289.618	-200.000	-0.001	-0.054
-288.603	800.000	-0.098	0.298
-287.589	-145.058	0.130	0.012
-286.574	2.038	-0.087	0.062
-285.559	265.213	0.174	0.301
-284.545	143.843	0.247	0.326
-283.530	800.000	0.021	0.078
-282.516	800.000	-0.051	0.175
-281.501	198.857	0.147	-0.222
-280.486	-56.966	0.248	-0.108
-279.472	54.866	-0.321	0.306
-278.457	-47.882	-0.332	0.159
-277.443	-46.623	0.195	-0.095
-276.428	-46.815	0.333	-0.161
-275.413	102.050	0.089	-0.102
-274.399	-4.600	0.127	-0.086
-273.384	384.111	0.149	-0.303
-272.370	-200.000	-0.038	0.486
-271.355	-200.000	0.012	0.192
-270.340	-70.681	0.281	0.105
-269.326	-48.374	0.230	-0.109
-268.311	-40.855	-0.321	0.164
-267.297	6.665	0.238	-0.175
-266.282	111.771	0.137	0.164
-265.267	-86.478	-0.230	-0.070
-264.253	51.533	-0.252	0.237
-263.238	800.000	0.121	-0.344
-262.224	-108.717	-0.312	0.066
-261.209	-3.415	-0.298	0.205
-260.195	-126.076	0.231	0.034
-259.180	319.425	-0.121	0.226
-258.165	433.717	-0.130	0.278
-257.151	-34.812	0.278	0.150
-256.136	-200.000	0.023	0.117
-255.122	-23.775	-0.086	0.051
-254.107	419.794	-0.110	0.232
-253.092	-200.000	-0.006	0.060
-252.078	-95.734	-0.145	0.038
-251.063	-12.506	-0.075	-0.049
-250.049	-12.605	0.174	0.112
-249.034	-94.519	-0.239	-0.064
-248.019	-200.000	-0.070	0.307
-247.005	-200.000	0.042	0.184
-245.990	-22.369	0.069	-0.041
-244.976	-41.546	-0.052	-0.027
-243.961	46.778	0.151	-0.138
-242.946	800.000	0.036	0.106
-241.932	-27.139	0.369	-0.213
-240.917	53.814	0.070	0.066
-239.903	-75.071	-0.214	0.076
-238.888	477.396	0.006	0.014
-237.873	-78.152	0.162	0.055
-236.859	71.074	0.278	0.284
-235.844	-89.136	-0.240	-0.070
-234.830	141.213	-0.283	0.369
-233.815	-18.987	-0.087	-0.053
-232.800	241.271	0.105	0.173
-231.786	240.609	-0.053	0.087
-230.771	-51.389	-0.257	-0.119
-229.757	800.000	-0.026	-0.077
-228.742	-129.999	0.326	0.044
-227.727	127.192	0.132	-0.165
-226.713	-86.177	-0.085	-0.026
-225.698	800.000	-0.031	0.111
-224.684	-99.936	-0.190	0.047
-223.669	800.000	0.053	-0.220
-222.655	-81.540	0.299	0.097
-221.640	-140.146	0.181	-0.019
-220.625	-200.000	-0.011	-0.302
-219.611	-200.000	0.026	-0.262
-218.596	641.540	-0.111	0.278
-217.582	5.880	0.305	0.223
-216.567	-102.298	0.250	0.059
-215.552	-78.873	0.406	-0.136
-214.538	-92.104	-0.062	-0.017
-213.523	-92.630	-0.163	-0.045
-212.509	-117.280	0.357	0.064
-211.494	-7.507	-0.125	0.084
-210.479	616.949	0.144	-0.357
-209.465	800.000	0.049	0.194
-208.450	-200.000	0.006	-0.096
-207.436	-91.653	0.211	-0.059
-206.421	322.869	0.013	-0.025
-205.406	-135.150	0.271	0.032
-204.392	-23.391	0.167	0.099
-203.377	-200.000	-0.053	-0.656
-202.363	-55.928	-0.127	-0.056
-201.348	-145.824	0.026	0.002
-200.333	-200.000	-0.100	-0.447
-199.319	-116.352	-0.406	-0.074
-198.304	-200.000	-0.009	0.155
-197.290	-200.000	-0.004	0.083
-196.275	-190.376	-0.327	0.004
-195.260	-127.523	0.366	0.052
-194.246	66.909	0.069	0.069
-193.231	425.928	0.210	0.447
-192.217	-43.039	0.138	-0.069
-191.202	99.599	0.220	0.251
-190.187	-200.000	-0.001	0.247
-189.173	6.339	-0.220	-0.161
-188.158	664.916	0.109	-0.278
-187.144	488.288	0.083	-0.186
-186.129	289.378	0.176	0.314
-185.114	-9.410	0.151	0.099
-184.100	-200.000	0.019	-0.179
-183.085	14.321	0.175	-0.135
-182.071	45.736	0.211	0.192
-181.056	83.949	-0.070	0.076
-180.042	49.831	-0.191	-0.177
-179.027	268.144	0.093	-0.160
-178.012	-200.000	-0.031	-0.341
-176.998	17.385	0.089	-0.070
-175.983	592.988	0.050	-0.123
-174.969	299.718	0.180	-0.326
-173.954	-84.370	-0.210	0.066
-172.939	45.270	-0.202	0.184
-171.925	-124.630	0.339	0.052
-170.910	364.695	-0.036	-0.070
-169.896	-200.000	-0.040	0.372
-168.881	-79.920	-0.108	-0.036
-167.866	-155.578	0.050	-0.003
-166.852	741.450	0.063	0.166
-165.837	21.250	-0.050	-0.040
-164.823	93.514	0.146	0.163
-163.808	107.206	0.197	-0.231
-162.793	-200.000	0.026	-0.138
-161.779	35.425	0.055	0.047
-160.764	-132.015	0.041	-0.005
-159.750	-18.828	-0.396	-0.243
-158.735	62.145	0.015	-0.014
-157.720	429.869	0.133	0.283
-156.706	157.272	0.143	0.195
-155.691	-200.000	0.034	-0.162
-154.677	-0.063	0.199	0.139
-153.662	-200.000	-0.039	-0.179
-152.647	194.304	-0.159	-0.237
-151.633	-200.000	0.047	0.296
-150.618	-18.458	0.263	-0.162
-149.604	249.040	-0.204	0.340
-148.589	6.226	-0.140	0.102
-147.574	180.805	0.071	0.102
-146.560	470.861	0.175	-0.387
-145.545	-200.000	0.014	0.183
-144.531	-19.258	0.270	0.165
-143.516	-200.000	0.016	0.185
-142.502	-59.374	-0.335	0.142
-141.487	-185.717	-0.143	-0.002
-140.472	-200.000	0.022	-0.118
-139.458	-11.696	0.057	-0.037
-138.443	148.125	0.155	0.206
-137.429	-27.909	-0.100	-0.057
-136.414	72.389	0.130	0.133
-135.399	-60.854	0.172	-0.072
-134.385	344.003	-0.108	-0.208
-133.370	-200.000	-0.062	-0.316
-132.356	-200.000	0.023	0.132
-131.341	367.187	0.045	-0.090
-130.326	-157.997	0.244	0.014
-129.312	-21.084	-0.101	0.061
-128.297	-69.446	-0.123	-0.046
-127.283	-200.000	0.001	0.312
-126.268	-118.427	0.140	0.024
-125.253	126.149	-0.112	-0.139
-124.239	324.790	0.064	-0.120
-123.224	800.000	-0.139	-0.377
-122.210	800.000	-0.047	-0.145
-121.195	-20.375	-0.322	0.195
-120.180	-200.000	-0.048	0.258
