DTS Sentinel unit serial number:	SN413079Multiplexer serial number:	ORYXHardware model number:	OX4-SRSoftware version number:	ORYX F/W v4.00 Oryx Data Collector v3.7.2.0data status	okinstallation	princeton_trtdifferential loss correction	single-endedforward channel	channel 2reverse channel	N/Adate	2019/09/17time	08:11:34forward acquisition time	60.00reverse acquisition time	0.00gamma	496.2192k internal	0.2334k external	0.2334temperature offset calibration	0.9971default loss term (dB/km)	0.3790temperature slope calibration	1.0000multiplexer offset coefficient	1.0000multiplexer slope coefficient	1.0000fibre end	0.00T internal ref (°C)	27.37T ext. ref 1 (°C)	0.12T ext. ref 2 (°C)	22.62length (m)	temperature (°C)	Stokes	anti-Stokes-747.200	180.774	-0.073	-0.108
-746.185	121.989	-0.093	0.117
-745.171	-87.127	0.118	0.036
-744.156	-200.000	-0.003	0.146
-743.142	140.177	-0.073	-0.097
-742.127	800.000	-0.045	0.144
-741.112	-133.178	0.108	-0.014
-740.098	-82.814	-0.277	0.090
-739.083	-101.225	-0.532	-0.131
-738.069	-200.000	-0.047	0.296
-737.054	-48.195	-0.078	0.038
-736.039	-152.966	-0.210	0.015
-735.025	-200.000	0.001	-0.025
-734.010	-200.000	-0.003	-0.123
-732.996	168.517	-0.055	-0.079
-731.981	-107.105	-0.132	0.029
-730.966	-125.449	-0.395	-0.060
-729.952	8.136	0.156	-0.118
-728.937	800.000	-0.054	-0.231
-727.923	-140.187	-0.126	0.013
-726.908	-176.550	0.323	0.008
-725.894	-26.402	-0.241	0.142
-724.879	-149.071	0.177	0.014
-723.864	126.949	0.032	-0.040
-722.850	42.892	-0.230	-0.210
-721.835	-200.000	-0.056	-0.271
-720.821	-136.290	-0.315	-0.037
-719.806	121.646	0.101	-0.127
-718.791	-200.000	-0.209	0.000
-717.777	800.000	-0.043	0.163
-716.762	-8.515	0.250	-0.169
-715.748	-25.245	-0.221	-0.132
-714.733	-200.000	-0.008	0.061
-713.718	-200.000	-0.029	-0.257
-712.704	374.629	-0.137	-0.280
-711.689	-30.305	-0.241	-0.138
-710.675	107.701	-0.206	0.246
-709.660	-53.697	0.400	-0.184
-708.645	16.054	0.240	-0.190
-707.631	800.000	0.094	0.340
-706.616	58.629	-0.081	-0.080
-705.602	-45.516	0.163	-0.081
-704.587	-24.600	-0.205	0.123
-703.572	-148.773	0.211	-0.017
-702.558	-86.258	0.485	0.150
-701.543	-200.000	0.015	0.181
-700.529	584.968	0.103	-0.253
-699.514	748.457	0.098	0.264
-698.499	411.836	-0.084	-0.178
-697.485	523.065	0.172	-0.406
-696.470	-5.503	0.304	-0.209
-695.456	-200.000	0.018	0.112
-694.441	-139.922	-0.306	-0.032
-693.426	480.165	0.086	0.195
-692.412	-105.114	-0.489	0.112
-691.397	57.572	0.079	0.078
-690.383	216.263	0.126	-0.200
-689.368	-97.604	-0.208	0.054
-688.354	471.541	-0.224	0.505
-687.339	-16.047	-0.146	0.093
-686.324	-95.373	-0.161	0.043
-685.310	24.461	0.278	0.230
-684.295	110.697	0.162	-0.195
-683.281	763.588	0.145	-0.395
-682.266	-200.000	0.022	-0.369
-681.251	185.060	0.227	-0.338
-680.237	316.218	-0.056	0.107
-679.222	172.498	-0.184	-0.265
-678.208	179.388	-0.159	0.234
-677.193	107.878	0.054	0.064
-676.178	-25.815	-0.231	-0.136
-675.164	122.934	0.116	-0.145
-674.149	707.710	-0.037	0.098
-673.135	482.451	0.088	-0.201
-672.120	800.000	-0.036	0.119
-671.105	278.439	0.136	-0.243
-670.091	47.134	-0.280	-0.261
-669.076	439.220	-0.048	0.106
-668.062	-120.820	-0.245	-0.041
-667.047	-200.000	0.053	0.257
-666.032	-16.727	-0.332	0.211
-665.018	58.297	-0.249	0.245
-664.003	-200.000	0.029	0.267
-662.989	208.782	-0.054	-0.084
-661.974	139.974	-0.187	0.247
-660.959	800.000	0.076	0.233
-659.945	-17.728	-0.251	-0.158
-658.930	-22.536	0.598	0.363
-657.916	-0.619	-0.059	-0.042
-656.901	424.794	0.039	-0.085
-655.886	336.308	0.072	0.139
-654.872	800.000	0.053	-0.181
-653.857	-54.560	-0.195	0.089
-652.843	-200.000	0.060	0.319
-651.828	24.232	-0.178	0.147
-650.814	11.470	-0.090	-0.069
-649.799	140.680	-0.130	-0.171
-648.784	61.652	-0.074	-0.074
-647.770	800.000	-0.042	0.144
-646.755	-200.000	0.028	0.388
-645.741	-87.520	-0.165	0.050
-644.726	-7.737	0.172	0.116
-643.711	85.164	0.309	-0.339
-642.697	-171.378	-0.143	0.005
-641.682	145.734	-0.162	-0.217
-640.668	-143.673	-0.156	-0.015
-639.653	-110.054	0.113	-0.024
-638.638	292.638	-0.005	0.008
-637.624	-200.000	-0.004	-0.247
-636.609	301.243	0.013	0.024
-635.595	439.165	0.094	-0.205
-634.580	-200.000	-0.034	-0.300
-633.565	-146.002	-0.178	0.016
-632.551	-200.000	0.081	0.370
-631.536	350.598	0.061	-0.121
-630.522	90.695	-0.191	0.214
-629.507	-109.882	-0.046	0.010
-628.492	-92.111	-0.136	0.038
-627.478	-200.000	0.017	-0.122
-626.463	-107.454	-0.045	-0.010
-625.449	93.161	0.044	0.050
-624.434	-88.662	0.147	0.044
-623.419	-51.160	-0.032	-0.015
-622.405	-75.387	-0.145	-0.052
-621.390	318.072	0.083	0.158
-620.376	3.214	0.072	0.053
-619.361	800.000	0.055	0.229
-618.346	800.000	-0.075	0.216
-617.332	-77.645	-0.310	-0.107
-616.317	425.680	-0.154	-0.333
-615.303	-114.059	-0.153	0.030
-614.288	70.916	0.187	0.194
-613.273	-148.906	0.255	-0.021
-612.259	374.188	-0.113	0.230
-611.244	179.009	-0.073	-0.107
-610.230	369.708	0.104	-0.210
-609.215	105.731	0.045	-0.053
-608.201	-200.000	-0.041	-0.291
-607.186	-103.524	-0.149	0.035
-606.171	285.572	-0.034	0.062
-605.157	576.163	-0.123	0.301
-604.142	180.691	-0.119	0.175
-603.128	800.000	-0.103	-0.418
-602.113	69.514	-0.123	-0.127
-601.098	800.000	0.053	-0.169
-600.084	-200.000	0.001	-0.106
-599.069	-200.000	0.005	0.145
-598.055	-100.922	-0.230	0.057
-597.040	-18.585	-0.068	-0.042
-596.025	-46.921	-0.115	0.056
-595.011	-39.690	0.170	0.089
-593.996	800.000	-0.040	0.170
-592.982	-118.887	-0.157	-0.028
-591.967	-200.000	-0.077	0.440
-590.952	-144.770	-0.216	0.020
-589.938	54.022	-0.259	-0.249
-588.923	7.830	-0.142	-0.106
-587.909	-200.000	-0.020	-0.309
-586.894	-200.000	-0.029	-0.200
-585.879	-6.700	0.046	0.031
-584.865	-100.689	0.330	-0.081
-583.850	-98.878	0.321	-0.082
-582.836	-200.000	-0.015	-0.279
-581.821	800.000	-0.142	0.398
-580.806	800.000	-0.073	-0.205
-579.792	-12.449	0.491	-0.321
-578.777	23.309	-0.276	0.227
-577.763	-37.460	0.209	-0.111
-576.748	-200.000	0.003	0.204
-575.733	800.000	0.096	-0.396
-574.719	-200.000	0.015	0.378
-573.704	294.022	-0.185	-0.337
-572.690	45.051	-0.104	0.096
-571.675	800.000	0.029	-0.098
-570.661	58.278	-0.210	-0.206
-569.646	-99.290	-0.088	-0.022
-568.631	-132.816	-0.141	0.018
-567.617	-200.000	-0.031	-0.335
-566.602	176.636	-0.122	-0.177
-565.588	-74.926	-0.341	-0.122
-564.573	-200.000	0.030	0.180
-563.558	800.000	-0.069	-0.298
-562.544	800.000	-0.046	0.167
-561.529	-139.810	0.174	0.018
-560.515	-79.195	-0.493	0.167
-559.500	241.157	0.114	0.190
-558.485	800.000	-0.043	0.175
-557.471	47.734	0.171	-0.159
-556.456	95.235	-0.079	0.090
-555.442	-77.927	0.090	-0.031
-554.427	-200.000	0.025	-0.275
-553.412	-42.378	-0.350	-0.178
-552.398	-59.361	0.127	-0.055
-551.383	198.783	-0.160	-0.244
-550.369	-42.169	-0.201	0.102
-549.354	-118.842	0.109	0.019
-548.339	136.368	0.304	-0.396
-547.325	47.824	0.172	0.160
-546.310	-51.193	-0.132	-0.062
-545.296	787.970	-0.022	0.060
-544.281	-88.202	0.345	0.103
-543.266	124.856	-0.222	0.278
-542.252	800.000	0.168	-0.483
-541.237	-162.065	-0.420	0.021
-540.223	10.004	0.133	-0.100
-539.208	291.141	0.129	-0.233
-538.193	800.000	-0.121	0.421
-537.179	-142.905	-0.222	0.022
-536.164	286.047	-0.196	-0.353
-535.150	800.000	0.024	-0.103
-534.135	367.308	-0.073	0.147
-533.121	800.000	0.061	-0.246
-532.106	-1.658	0.230	-0.161
-531.091	291.167	0.095	0.173
-530.077	40.054	-0.142	-0.127
-529.062	800.000	-0.085	-0.271
-528.048	-200.000	0.026	-0.177
-527.033	172.402	0.189	-0.271
-526.018	310.141	-0.125	-0.233
-525.004	-182.677	-0.227	-0.004
-523.989	-47.536	-0.125	0.061
-522.975	599.847	0.036	-0.088
-521.960	56.704	0.084	-0.082
-520.945	800.000	-0.087	-0.297
-519.931	36.606	-0.049	-0.043
-518.916	51.362	0.077	-0.073
-517.902	-119.067	0.150	0.026
-516.887	713.479	-0.057	-0.150
-515.872	85.459	0.102	-0.112
-514.858	263.048	0.112	-0.194
-513.843	-126.658	-0.159	0.023
-512.829	800.000	0.084	-0.275
-511.814	-85.237	0.143	-0.044
-510.799	800.000	0.039	-0.157
-509.785	-18.444	0.037	-0.023
-508.770	-136.526	0.275	0.032
-507.756	80.415	0.079	0.085
-506.741	800.000	0.056	-0.190
-505.726	266.456	0.012	-0.021
-504.712	-73.214	0.110	-0.040
-503.697	-200.000	-0.028	0.350
-502.683	526.190	-0.099	0.231
-501.668	-62.520	-0.211	-0.087
-500.653	-200.000	0.037	-0.174
-499.639	153.361	-0.125	0.171
-498.624	800.000	0.107	-0.316
-497.610	52.564	-0.115	0.109
-496.595	800.000	-0.051	0.214
-495.581	-146.357	0.527	-0.046
-494.566	98.532	-0.029	-0.033
-493.551	50.893	-0.295	0.279
-492.537	9.446	-0.204	-0.153
-491.522	800.000	-0.040	-0.125
-490.508	115.578	0.074	-0.090
-489.493	142.735	0.129	0.171
-488.478	474.608	0.154	0.345
-487.464	-200.000	-0.090	0.402
-486.449	42.466	-0.062	-0.056
-485.435	-62.524	0.126	-0.052
-484.420	224.746	0.065	-0.104
-483.405	52.593	0.153	0.146
-482.391	606.394	0.115	0.285
-481.376	-134.688	0.022	-0.003
-480.362	10.364	0.116	-0.088
-479.347	-200.000	-0.063	-0.292
-478.332	91.245	-0.163	0.183
-477.318	-24.420	0.198	-0.118
-476.303	-117.123	0.168	-0.031
-475.289	800.000	-0.081	0.298
-474.274	408.451	0.148	-0.312
-473.259	-42.750	0.143	0.072
-472.245	72.436	-0.239	-0.248
-471.230	800.000	0.059	-0.240
-470.216	800.000	-0.117	0.424
-469.201	-34.441	0.341	0.186
-468.186	-200.000	-0.035	0.167
-467.172	-35.350	0.166	0.090
-466.157	202.032	0.096	-0.148
-465.143	342.997	0.165	-0.320
-464.128	49.637	0.113	0.106
-463.113	81.989	-0.251	0.271
-462.099	-19.744	0.119	0.073
-461.084	571.788	0.074	-0.179
-460.070	94.222	0.185	0.209
-459.055	800.000	-0.050	-0.152
-458.040	-200.000	0.021	-0.097
-457.026	22.316	0.179	0.145
-456.011	800.000	0.129	0.406
-454.997	156.423	-0.141	0.194
-453.982	-200.000	0.029	-0.213
-452.968	800.000	0.059	-0.225
-451.953	107.954	-0.027	-0.032
-450.938	332.019	-0.104	-0.199
-449.924	-200.000	0.014	0.153
-448.909	-83.985	-0.546	-0.173
-447.895	726.421	0.099	0.262
-446.880	-40.682	0.131	-0.068
-445.865	-175.799	0.018	0.000
-444.851	-150.016	0.131	0.010
-443.836	118.174	-0.084	0.103
-442.822	131.015	0.108	0.138
-441.807	36.298	-0.120	-0.105
-440.792	-95.426	0.176	0.047
-439.778	-4.458	0.047	-0.032
-438.763	-157.230	0.075	0.005
-437.749	-91.306	0.304	-0.086
-436.734	-48.073	0.266	0.128
-435.719	25.216	0.178	-0.147
-434.705	46.382	-0.325	0.299
-433.690	-200.000	0.049	-0.322
-432.676	454.740	-0.044	-0.097
-431.661	-97.470	0.476	0.123
-430.646	272.203	0.061	0.106
-429.632	-58.205	0.386	0.167
-428.617	461.453	0.122	-0.269
-427.603	-106.627	0.166	-0.037
-426.588	-73.808	-0.559	-0.202
-425.573	-147.318	-0.255	-0.021
-424.559	102.378	0.084	-0.098
-423.544	662.675	-0.116	0.297
-422.530	-151.627	-0.171	-0.013
-421.515	-39.116	-0.251	-0.131
-420.500	-95.501	-0.055	0.015
-419.486	92.264	-0.085	0.095
-418.471	179.742	0.142	-0.207
-417.457	-63.164	0.443	-0.181
-416.442	-200.000	0.036	-0.207
-415.428	18.604	0.275	-0.218
-414.413	537.564	0.040	-0.095
-413.398	-200.000	-0.060	-0.287
-412.384	-200.000	0.053	-0.311
-411.369	144.087	0.235	0.311
-410.355	115.416	0.056	0.068
-409.340	-8.560	-0.442	0.294
-408.325	180.825	-0.241	-0.351
-407.311	56.044	-0.046	-0.044
-406.296	-76.013	-0.178	0.062
-405.282	-200.000	0.025	-0.330
-404.267	-20.627	0.205	-0.125
-403.252	47.083	-0.227	0.210
-402.238	479.801	0.038	0.085
-401.223	516.492	-0.132	0.306
-400.209	-53.185	0.138	0.063
-399.194	0.060	-0.023	0.016
-398.179	-200.000	0.045	0.297
-397.165	42.846	-0.205	0.185
-396.150	-69.815	0.177	-0.067
-395.136	-115.652	0.199	0.037
-394.121	-101.214	0.162	-0.039
-393.106	326.823	0.100	0.189
-392.092	-200.000	-0.010	0.402
-391.077	-4.260	-0.295	-0.202
-390.063	800.000	0.006	0.023
-389.048	-100.559	-0.166	-0.041
-388.033	-200.000	0.067	-0.564
-387.019	26.028	0.077	-0.064
-386.004	-87.940	-0.194	0.058
-384.990	301.020	0.023	0.042
-383.975	619.244	0.216	0.537
-382.960	-41.164	0.490	-0.251
-381.946	-61.285	0.299	0.125
-380.931	-115.163	-0.195	0.037
-379.917	-200.000	0.064	0.412
-378.902	781.062	-0.079	0.215
-377.888	-200.000	0.010	-0.049
-376.873	-200.000	-0.041	-0.335
-375.858	-82.380	-0.241	-0.078
-374.844	-88.490	0.252	0.075
-373.829	-167.990	-0.343	-0.013
-372.815	800.000	0.012	-0.034
-371.800	251.452	0.076	0.128
-370.785	55.438	-0.101	0.097
-369.771	26.354	-0.234	-0.194
-368.756	-68.569	0.245	0.094
-367.742	120.881	-0.199	0.246
-366.727	-4.798	-0.105	-0.071
-365.712	-144.503	0.126	-0.012
-364.698	-40.456	0.302	-0.155
-363.683	-6.066	-0.293	0.198
-362.669	159.968	0.223	0.308
-361.654	-200.000	-0.008	-0.174
-360.639	168.172	0.285	-0.402
-359.625	-31.898	-0.210	0.117
-358.610	-78.673	-0.181	-0.061
-357.596	96.281	0.181	-0.205
-356.581	501.150	0.057	0.130
-355.566	-45.877	0.438	-0.214
-354.552	-130.415	-0.203	-0.027
-353.537	436.591	-0.075	-0.161
-352.523	275.050	0.200	-0.351
-351.508	671.794	0.013	-0.033
-350.493	800.000	-0.030	-0.118
-349.479	-200.000	0.002	0.127
-348.464	728.552	0.045	-0.120
-347.450	-154.981	0.106	0.007
-346.435	216.258	-0.147	-0.231
-345.420	-200.000	0.008	-0.262
-344.406	-68.685	-0.186	0.071
-343.391	16.289	0.030	0.023
-342.377	-29.027	-0.085	-0.048
-341.362	800.000	0.052	-0.155
-340.348	-173.670	0.119	-0.004
-339.333	544.890	0.182	-0.429
-338.318	-200.000	0.007	0.360
-337.304	800.000	0.037	0.142
-336.289	-178.622	-0.093	0.002
-335.275	-39.555	-0.089	-0.046
-334.260	-200.000	-0.000	-0.114
-333.245	274.990	0.081	0.142
-332.231	800.000	0.022	0.070
-331.216	-31.834	-0.056	-0.031
-330.202	301.073	-0.117	0.213
-329.187	-53.243	0.322	-0.146
-328.172	-133.285	-0.201	0.025
-327.158	-42.641	-0.136	0.069
-326.143	210.437	0.154	0.240
-325.129	-72.265	0.108	-0.040
-324.114	800.000	-0.066	-0.181
-323.099	-67.716	0.279	-0.108
-322.085	-43.523	-0.175	0.088
-321.070	297.725	0.064	0.117
-320.056	255.630	0.119	0.202
-319.041	-86.022	-0.126	-0.038
-318.026	800.000	0.029	-0.100
-317.012	779.512	0.125	0.339
-315.997	176.313	-0.138	0.198
-314.983	13.974	-0.183	-0.141
-313.968	151.818	-0.123	0.166
-312.953	-11.551	-0.061	0.040
-311.939	-200.000	0.021	0.160
-310.924	-27.842	-0.289	0.166
-309.910	-200.000	0.025	-0.148
-308.895	135.885	0.278	0.358
-307.880	28.740	0.111	0.093
-306.866	184.456	0.074	0.108
-305.851	-41.249	0.054	-0.027
-304.837	-42.740	0.314	-0.158
-303.822	497.957	0.122	-0.278
-302.807	700.476	0.073	0.190
-301.793	-200.000	0.019	0.130
-300.778	-200.000	-0.016	0.553
-299.764	-200.000	0.012	0.172
-298.749	-200.000	-0.032	0.157
-297.735	-134.330	-0.025	-0.003
-296.720	-200.000	-0.002	-0.249
-295.705	179.285	-0.074	0.107
-294.691	196.474	-0.120	0.181
-293.676	-12.945	0.279	0.179
-292.662	-141.165	-0.329	-0.033
-291.647	-107.859	0.222	-0.048
-290.632	158.946	-0.136	0.186
-289.618	254.411	-0.131	0.221
-288.603	11.118	-0.142	0.108
-287.589	186.129	0.070	0.103
-286.574	74.625	0.104	-0.108
-285.559	-158.475	-0.117	0.007
-284.545	62.588	0.089	-0.088
-283.530	-35.028	-0.167	-0.090
-282.516	-130.034	0.361	-0.049
-281.501	-165.335	-0.386	-0.017
-280.486	-156.333	0.440	0.027
-279.472	210.909	0.062	0.097
-278.457	-80.830	0.453	-0.148
-277.443	-200.000	0.001	-0.152
-276.428	-32.914	-0.154	-0.084
-275.413	-200.000	0.005	-0.100
-274.399	-200.000	-0.028	-0.284
-273.384	701.517	0.048	0.125
-272.370	55.940	0.147	0.140
-271.355	800.000	-0.093	0.255
-270.340	-152.160	0.370	0.026
-269.326	-111.810	-0.030	-0.006
-268.311	-90.730	0.210	0.060
-267.297	-63.858	0.116	0.047
-266.282	5.074	0.163	0.118
-265.267	-183.669	0.230	0.004
-264.253	407.338	0.107	-0.224
-263.238	-50.252	-0.197	-0.092
-262.224	-66.635	-0.198	0.078
-261.209	800.000	0.041	-0.168
-260.195	-144.407	-0.531	-0.049
-259.180	675.732	-0.161	-0.413
-258.165	104.822	0.171	0.199
-257.151	-146.628	-0.238	0.020
-256.136	196.645	-0.243	0.366
-255.122	155.563	-0.152	0.206
-254.107	103.794	-0.237	-0.274
-253.092	800.000	-0.051	0.160
-252.078	-140.847	-0.309	0.031
-251.063	108.461	-0.147	-0.173
-250.049	44.705	0.197	-0.179
-249.034	-78.223	0.280	0.095
-248.019	-200.000	0.023	-0.372
-247.005	22.402	-0.226	0.182
-245.990	800.000	0.016	-0.065
-244.976	-200.000	0.053	-0.262
-243.961	39.773	-0.142	-0.126
-242.946	-62.831	0.226	-0.092
-241.932	-90.278	0.008	-0.002
-240.917	-16.117	-0.529	0.331
-239.903	800.000	-0.098	0.307
-238.888	-200.000	0.008	-0.175
-237.873	-0.609	0.132	0.092
-236.859	-98.964	-0.196	0.049
-235.844	-200.000	-0.019	-0.094
-234.830	-200.000	0.042	-0.199
-233.815	441.117	-0.099	0.213
-232.800	800.000	0.116	0.460
-231.786	557.228	0.053	0.127
-230.771	-53.310	-0.075	0.034
-229.757	-89.543	0.310	0.090
-228.742	-47.174	-0.395	0.190
-227.727	-122.563	-0.343	-0.055
-226.713	-200.000	0.007	0.112
-225.698	-134.716	-0.133	0.016
-224.684	109.202	0.056	0.066
-223.669	800.000	-0.033	-0.093
-222.655	-40.978	-0.058	-0.030
-221.640	-87.784	-0.177	-0.052
-220.625	-42.676	-0.068	0.034
-219.611	-128.789	0.037	-0.005
-218.596	-71.065	0.124	0.046
-217.582	-200.000	-0.029	-0.226
-216.567	211.636	0.124	0.193
-215.552	-200.000	0.009	0.143
-214.538	800.000	0.073	-0.228
-213.523	163.183	0.067	-0.092
-212.509	-122.776	-0.163	-0.026
-211.494	-153.982	0.070	-0.005
-210.479	54.872	0.040	0.038
-209.465	-21.377	-0.050	-0.030
-208.450	133.157	0.088	0.111
-207.436	-23.822	-0.204	-0.120
-206.421	62.165	0.111	0.109
-205.406	-114.926	-0.297	-0.056
-204.392	193.615	0.067	-0.099
-203.377	173.588	0.106	0.150
-202.363	-200.000	-0.025	-0.329
-201.348	199.620	-0.038	-0.057
-200.333	-73.715	0.179	0.064
-199.319	-41.921	-0.308	-0.155
-198.304	-52.134	-0.195	0.089
-197.290	191.758	0.240	-0.355
-196.275	800.000	-0.018	0.069
-195.260	104.550	-0.082	0.095
-194.246	-200.000	-0.056	0.316
-193.231	220.230	0.115	-0.182
-192.217	-200.000	-0.035	0.235
-191.202	800.000	0.020	-0.061
-190.187	742.262	-0.058	-0.153
-189.173	57.778	-0.212	0.204
-188.158	-84.994	-0.180	0.055
-187.144	-111.497	0.286	0.057
-186.129	143.261	0.084	-0.109
-185.114	53.383	-0.176	-0.166
-184.100	-108.753	0.029	0.006
-183.085	-200.000	-0.030	0.206
-182.071	-200.000	0.042	0.422
-181.056	55.644	-0.223	0.212
-180.042	9.414	-0.057	-0.042
-179.027	-62.071	-0.177	0.073
-178.012	5.125	-0.227	-0.165
-176.998	285.102	0.196	0.346
-175.983	91.335	-0.133	-0.147
-174.969	800.000	0.084	0.293
-173.954	65.291	0.228	-0.226
-172.939	-81.638	0.144	-0.047
-171.925	-102.139	-0.101	0.024
-170.910	-94.555	0.294	0.079
-169.896	380.988	0.086	0.173
-168.881	-200.000	-0.018	0.102
-167.866	145.380	0.043	0.056
-166.852	67.570	0.231	0.231
-165.837	14.741	0.297	0.228
-164.823	-17.529	0.071	-0.044
-163.808	113.649	0.095	0.113
-162.793	202.181	0.047	0.071
-161.779	148.533	0.142	-0.188
-160.764	-200.000	-0.045	0.286
-159.750	778.144	0.070	0.187
-158.735	492.644	0.047	0.106
-157.720	9.965	0.149	-0.111
-156.706	-52.395	-0.407	0.185
-155.691	90.494	-0.255	0.281
-154.677	-200.000	0.023	0.286
-153.662	-8.551	0.210	-0.138
-152.647	64.096	0.176	-0.174
-151.633	-76.150	-0.112	0.039
-150.618	800.000	-0.074	-0.218
-149.604	177.449	0.058	-0.083
-148.589	-102.089	-0.011	0.003
-147.574	-200.000	-0.231	0.000
-146.560	-200.000	0.010	0.275
-145.545	-200.000	0.007	-0.160
-144.531	800.000	0.024	-0.098
-143.516	331.236	-0.076	-0.144
-142.502	148.908	0.291	0.386
-141.487	-117.292	-0.107	0.019
-140.472	402.488	-0.099	-0.204
-139.458	472.069	-0.049	0.108
-138.443	12.743	0.098	-0.074
-137.429	-200.000	-0.042	-0.339
-136.414	333.084	0.101	0.191
-135.399	76.049	0.039	-0.040
-134.385	-100.399	-0.154	0.037
-133.370	126.301	-0.125	-0.155
-132.356	195.476	0.177	0.264
-131.341	-200.000	0.003	-0.045
-130.326	121.554	-0.253	-0.310
-129.312	470.545	-0.087	0.193
-128.297	10.665	0.075	-0.056
-127.283	27.018	0.066	0.054
-126.268	-8.442	-0.125	0.083
-125.253	-39.718	-0.075	-0.038
-124.239	74.712	0.178	-0.184
-123.224	180.999	-0.151	0.217
-122.210	-138.776	-0.280	0.030
-121.195	-65.465	0.104	-0.041
