DTS Sentinel unit serial number:	SN413079Multiplexer serial number:	ORYXHardware model number:	OX4-SRSoftware version number:	ORYX F/W v4.00 Oryx Data Collector v3.7.2.0data status	okinstallation	princeton_trtdifferential loss correction	single-endedforward channel	channel 2reverse channel	N/Adate	2019/09/18time	21:55:35forward acquisition time	60.00reverse acquisition time	0.00gamma	496.2192k internal	0.2347k external	0.2347temperature offset calibration	1.0019default loss term (dB/km)	0.3790temperature slope calibration	1.0000multiplexer offset coefficient	1.0000multiplexer slope coefficient	1.0000fibre end	0.00T internal ref (°C)	24.67T ext. ref 1 (°C)	0.81T ext. ref 2 (°C)	18.25length (m)	temperature (°C)	Stokes	anti-Stokes-747.200	-43.148	-0.176	0.089
-746.185	-25.313	0.228	0.135
-745.171	-138.127	0.206	-0.023
-744.156	800.000	0.089	0.286
-743.142	-127.347	-0.218	0.032
-742.127	40.318	-0.431	0.388
-741.112	-200.000	-0.018	0.126
-740.098	-88.093	0.205	0.061
-739.083	-200.000	-0.067	-0.463
-738.069	676.653	-0.154	0.401
-737.054	-200.000	0.020	0.339
-736.039	-155.016	-0.523	-0.034
-735.025	-200.000	0.013	0.129
-734.010	184.813	-0.141	-0.209
-732.996	-25.108	0.143	-0.085
-731.981	-76.252	-0.212	-0.075
-730.966	-200.000	0.062	-0.355
-729.952	-117.935	-0.298	0.053
-728.937	62.889	0.049	0.049
-727.923	-200.000	-0.015	0.360
-726.908	547.460	0.093	-0.223
-725.894	-33.322	-0.102	-0.056
-724.879	113.363	0.178	-0.216
-723.864	-200.000	-0.058	0.323
-722.850	-147.531	0.309	-0.026
-721.835	-69.541	0.077	0.029
-720.821	-200.000	0.035	0.296
-719.806	-14.630	-0.389	-0.250
-718.791	-200.000	0.014	-0.156
-717.777	-29.803	-0.096	0.055
-716.762	-199.631	-0.211	-0.001
-715.748	100.291	0.200	-0.232
-714.733	800.000	0.095	0.367
-713.718	-200.000	-0.019	-0.096
-712.704	31.131	-0.028	-0.024
-711.689	-200.000	-0.047	-0.400
-710.675	432.111	-0.020	0.044
-709.660	165.395	-0.220	-0.311
-708.645	199.568	0.053	0.081
-707.631	139.316	-0.182	-0.239
-706.616	155.249	-0.339	-0.465
-705.602	197.628	0.049	-0.075
-704.587	125.051	0.144	0.182
-703.572	-65.077	0.171	-0.069
-702.558	511.438	-0.039	0.090
-701.543	800.000	0.085	-0.297
-700.529	22.241	-0.172	-0.140
-699.514	-200.000	0.012	0.263
-698.499	9.225	-0.229	-0.172
-697.485	253.298	0.062	-0.106
-696.470	87.562	0.059	0.066
-695.456	-110.679	-0.100	-0.021
-694.441	-200.000	-0.050	-0.376
-693.426	-138.878	0.173	-0.019
-692.412	-144.530	-0.196	0.018
-691.397	402.274	0.081	0.169
-690.383	-83.749	-0.096	-0.030
-689.368	119.077	-0.142	-0.176
-688.354	530.917	0.164	-0.386
-687.339	-51.681	-0.442	0.206
-686.324	-172.426	-0.128	-0.004
-685.310	-200.000	-0.033	0.159
-684.295	-200.000	0.036	-0.181
-683.281	546.252	0.117	-0.279
-682.266	272.573	-0.153	0.269
-681.251	239.714	0.147	0.244
-680.237	800.000	0.073	-0.211
-679.222	-47.923	0.130	-0.063
-678.208	295.730	-0.042	0.077
-677.193	217.926	-0.070	-0.111
-676.178	536.732	0.173	0.410
-675.164	-167.133	-0.302	-0.012
-674.149	291.172	0.116	-0.210
-673.135	104.552	-0.172	-0.202
-672.120	23.369	0.187	-0.153
-671.105	184.734	0.115	-0.171
-670.091	83.411	-0.178	-0.193
-669.076	67.141	0.101	-0.102
-668.062	-51.391	0.247	0.115
-667.047	-200.000	0.000	0.030
-666.032	-200.000	0.040	0.191
-665.018	160.294	-0.107	0.149
-664.003	800.000	0.029	0.084
-662.989	-38.425	0.343	0.181
-661.974	-79.283	-0.239	-0.081
-660.959	169.135	0.111	0.158
-659.945	-106.446	-0.353	0.079
-658.930	276.659	-0.147	0.260
-657.916	14.136	-0.121	-0.094
-656.901	-138.020	0.209	-0.023
-655.886	-98.690	0.429	0.109
-654.872	-101.134	-0.018	0.004
-653.857	800.000	-0.065	-0.228
-652.843	212.125	-0.051	-0.080
-651.828	-114.196	-0.243	-0.047
-650.814	382.761	0.053	-0.109
-649.799	-69.921	-0.468	0.178
-648.784	-175.140	0.433	0.012
-647.770	378.993	-0.047	0.097
-646.755	800.000	-0.033	0.105
-645.741	-113.217	-0.235	0.046
-644.726	-108.563	-0.199	0.043
-643.711	316.466	-0.091	-0.170
-642.697	800.000	0.041	0.163
-641.682	-200.000	-0.108	-0.485
-640.668	-91.348	-0.312	-0.089
-639.653	388.068	-0.066	0.136
-638.638	-200.000	0.014	0.101
-637.624	-9.292	0.333	-0.222
-636.609	75.704	0.221	-0.232
-635.595	-87.644	-0.126	-0.038
-634.580	-63.274	-0.275	-0.113
-633.565	-200.000	-0.000	-0.142
-632.551	69.123	-0.097	-0.099
-631.536	49.649	0.223	0.209
-630.522	-123.309	-0.156	0.025
-629.507	-26.494	0.141	-0.082
-628.492	800.000	0.051	-0.141
-627.478	800.000	-0.072	0.204
-626.463	432.853	0.112	-0.243
-625.449	83.252	0.221	0.239
-624.434	-200.000	-0.005	-0.120
-623.419	12.552	0.389	-0.299
-622.405	-151.479	-0.395	0.029
-621.390	145.735	-0.182	-0.243
-620.376	-200.000	0.005	-0.024
-619.361	600.524	-0.128	-0.316
-618.346	377.142	0.103	-0.210
-617.332	-200.000	-0.010	0.095
-616.317	-32.628	-0.084	0.047
-615.303	63.659	0.223	0.222
-614.288	124.618	-0.135	0.169
-613.273	-51.938	-0.193	0.089
-612.259	-70.276	0.255	-0.096
-611.244	-69.159	-0.306	0.117
-610.230	497.898	-0.192	0.439
-609.215	145.359	0.263	0.350
-608.201	43.430	0.102	0.093
-607.186	-68.600	0.255	0.098
-606.171	425.944	-0.120	-0.257
-605.157	-200.000	-0.075	-0.402
-604.142	276.589	0.142	0.252
-603.128	529.029	-0.186	-0.436
-602.113	-101.681	-0.199	-0.048
-601.098	800.000	0.056	-0.159
-600.084	-200.000	0.045	-0.361
-599.069	-11.105	-0.099	-0.065
-598.055	-111.302	-0.427	-0.087
-597.040	-160.695	0.082	-0.004
-596.025	44.745	0.085	0.077
-595.011	-200.000	0.020	-0.232
-593.996	-200.000	-0.000	-0.039
-592.982	-200.000	0.002	0.202
-591.967	253.796	0.035	-0.060
-590.952	-76.934	-0.074	-0.026
-589.938	7.929	0.183	-0.137
-588.923	345.157	0.077	-0.150
-587.909	-25.359	0.109	-0.064
-586.894	800.000	-0.070	0.263
-585.879	118.736	0.165	-0.202
-584.865	117.281	-0.064	-0.078
-583.850	178.931	-0.199	-0.289
-582.836	-87.854	0.108	0.032
-581.821	378.477	0.066	0.135
-580.806	800.000	0.146	-0.483
-579.792	-108.374	0.137	0.029
-578.777	-57.679	-0.409	0.178
-577.763	-114.217	0.149	-0.029
-576.748	-46.763	-0.184	0.090
-575.733	86.530	0.123	-0.135
-574.719	95.783	-0.044	0.050
-573.704	-14.264	-0.468	-0.299
-572.690	-200.000	-0.025	-0.144
-571.675	230.498	0.202	0.328
-570.661	407.445	-0.037	0.077
-569.646	-89.238	-0.210	-0.062
-568.631	-18.027	-0.118	-0.073
-567.617	-22.809	0.068	-0.041
-566.602	144.005	-0.157	0.208
-565.588	42.388	-0.187	-0.169
-564.573	233.481	0.179	0.293
-563.558	-200.000	0.014	-0.138
-562.544	800.000	0.090	-0.271
-561.529	64.472	-0.062	-0.062
-560.515	-80.064	0.346	0.115
-559.500	-200.000	-0.272	0.000
-558.485	800.000	-0.079	0.232
-557.471	-154.461	-0.017	-0.001
-556.456	-59.786	0.087	-0.037
-555.442	800.000	-0.017	-0.061
-554.427	683.357	-0.064	0.165
-553.412	695.708	0.153	0.399
-552.398	-200.000	-0.043	-0.193
-551.383	-200.000	-0.101	0.454
-550.369	275.944	-0.142	0.250
-549.354	166.061	0.193	-0.271
-548.339	491.564	0.062	-0.141
-547.325	308.389	-0.115	-0.213
-546.310	-200.000	0.028	0.171
-545.296	374.796	-0.187	0.379
-544.281	91.261	0.090	-0.100
-543.266	-52.988	-0.385	-0.176
-542.252	154.872	-0.106	0.144
-541.237	432.643	0.261	0.561
-540.223	-84.529	0.281	-0.088
-539.208	800.000	0.086	-0.295
-538.193	-53.795	-0.146	-0.066
-537.179	-72.344	0.219	0.080
-536.164	696.150	-0.061	0.160
-535.150	61.608	0.112	-0.111
-534.135	6.149	-0.145	0.106
-533.121	-200.000	0.011	0.146
-532.106	177.335	0.135	0.195
-531.091	-31.822	-0.114	-0.063
-530.077	-200.000	0.001	-0.083
-529.062	-35.963	-0.383	0.205
-528.048	-200.000	0.026	-0.431
-527.033	-83.481	0.273	-0.087
-526.018	172.061	-0.035	0.051
-525.004	800.000	-0.058	-0.186
-523.989	-126.404	0.103	0.015
-522.975	57.173	-0.137	0.132
-521.960	-27.676	0.282	0.162
-520.945	93.700	-0.079	0.089
-519.931	-200.000	0.009	-0.161
-518.916	232.367	-0.048	-0.078
-517.902	21.386	-0.158	-0.127
-516.887	800.000	0.056	-0.232
-515.872	-53.811	-0.241	-0.109
-514.858	-115.042	0.525	-0.099
-513.843	305.813	0.074	-0.135
-512.829	-200.000	0.029	-0.243
-511.814	-200.000	0.014	-0.388
-510.799	-125.087	-0.029	-0.004
-509.785	-19.063	0.213	0.131
-508.770	628.423	-0.054	-0.134
-507.756	-118.691	-0.190	-0.033
-506.741	800.000	0.090	0.363
-505.726	-200.000	-0.292	-0.001
-504.712	-181.109	0.252	0.005
-503.697	-98.943	-0.156	0.039
-502.683	-53.900	0.039	0.017
-501.668	13.198	-0.150	0.115
-500.653	53.717	0.189	0.180
-499.639	517.570	-0.035	-0.081
-498.624	-200.000	-0.027	0.140
-497.610	-177.410	0.069	-0.002
-496.595	-115.027	0.302	-0.057
-495.581	172.371	0.110	0.157
-494.566	122.608	0.302	-0.374
-493.551	-50.763	-0.365	0.170
-492.537	225.366	0.067	0.107
-491.522	-1.354	-0.023	0.016
-490.508	-60.375	-0.065	-0.028
-489.493	-32.136	0.128	0.071
-488.478	-105.467	-0.294	-0.066
-487.464	800.000	0.105	0.345
-486.449	95.679	0.046	0.052
-485.435	-200.000	0.073	-0.367
-484.420	-106.286	-0.111	0.025
-483.405	-93.970	0.312	-0.085
-482.391	-200.000	0.072	0.365
-481.376	330.273	0.134	-0.256
-480.362	-77.223	-0.134	-0.046
-479.347	-67.875	0.407	0.157
-478.332	233.575	-0.294	-0.478
-477.318	-83.377	-0.217	0.069
-476.303	-200.000	0.003	0.141
-475.289	-200.000	-0.020	-0.146
-474.274	-25.840	0.176	0.103
-473.259	-0.918	0.297	-0.208
-472.245	-59.900	-0.112	0.047
-471.230	-58.949	0.348	0.149
-470.216	800.000	0.125	0.430
-469.201	323.150	-0.125	-0.236
-468.186	800.000	-0.060	0.194
-467.172	-51.206	-0.340	0.157
-466.157	-200.000	0.005	0.035
-465.143	617.322	-0.018	0.044
-464.128	-29.805	-0.159	-0.090
-463.113	800.000	0.023	-0.096
-462.099	-39.186	-0.051	-0.027
-461.084	-56.874	0.119	0.052
-460.070	524.665	0.185	-0.430
-459.055	-200.000	0.008	0.170
-458.040	-200.000	-0.022	0.162
-457.026	-200.000	-0.054	0.234
-456.011	9.806	-0.351	-0.263
-454.997	461.396	0.020	-0.044
-453.982	197.886	-0.141	0.213
-452.968	155.146	0.171	0.233
-451.953	257.047	0.028	-0.048
-450.938	338.828	0.188	0.362
-449.924	800.000	-0.111	-0.346
-448.909	35.430	-0.255	-0.221
-447.895	6.259	0.167	0.122
-446.880	-128.513	-0.284	-0.040
-445.865	25.025	0.228	0.187
-444.851	299.270	-0.078	0.141
-443.836	341.561	0.128	-0.248
-442.822	264.869	-0.106	-0.182
-441.807	-136.269	0.427	0.049
-440.792	189.407	0.196	-0.290
-439.778	124.618	0.320	0.398
-438.763	-170.948	0.133	-0.004
-437.749	379.943	-0.121	-0.244
-436.734	800.000	0.148	-0.408
-435.719	-109.751	0.188	-0.039
-434.705	800.000	-0.065	0.200
-433.690	39.148	0.132	-0.117
-432.676	448.274	0.098	-0.213
-431.661	-128.296	-0.042	0.006
-430.646	-49.848	0.241	-0.113
-429.632	-200.000	-0.013	0.069
-428.617	176.343	-0.147	0.210
-427.603	-200.000	0.001	-0.227
-426.588	-72.060	-0.210	0.077
-425.573	-179.651	0.329	0.007
-424.559	512.072	-0.137	-0.316
-423.544	-56.103	0.215	-0.094
-422.530	-200.000	-0.013	-0.222
-421.515	800.000	-0.112	0.398
-420.500	-128.398	0.116	-0.016
-419.486	-67.688	0.040	-0.015
-418.471	-38.417	0.240	0.125
-417.457	-100.578	-0.167	-0.041
-416.442	-73.365	-0.374	0.135
-415.428	-134.334	0.168	0.020
-414.413	-19.646	-0.146	0.089
-413.398	-167.116	0.168	-0.007
-412.384	-35.399	0.181	0.097
-411.369	13.130	-0.119	-0.091
-410.355	103.487	-0.185	-0.214
-409.340	467.153	-0.164	0.362
-408.325	-90.286	0.335	0.096
-407.311	225.504	0.094	0.149
-406.296	-71.768	-0.090	-0.033
-405.282	57.859	0.149	0.144
-404.267	-0.151	0.227	0.159
-403.252	-20.674	0.132	0.080
-402.238	-200.000	0.086	0.439
-401.223	-153.568	-0.325	-0.022
-400.209	329.822	0.086	-0.163
-399.194	-18.195	-0.033	0.020
-398.179	61.150	-0.196	0.192
-397.165	-200.000	0.012	0.180
-396.150	-109.253	0.234	0.049
-395.136	43.435	-0.183	-0.165
-394.121	147.684	0.067	-0.088
-393.106	525.382	-0.104	0.240
-392.092	-200.000	-0.060	0.328
-391.077	89.511	0.022	0.025
-390.063	-19.393	0.037	-0.023
-389.048	-111.235	-0.088	-0.018
-388.033	424.235	-0.103	0.218
-387.019	-55.486	0.261	0.115
-386.004	153.284	0.203	0.274
-384.990	4.802	0.379	0.274
-383.975	-7.896	0.146	-0.097
-382.960	23.539	0.166	0.135
-381.946	-24.242	0.172	-0.101
-380.931	66.520	0.064	-0.064
-379.917	159.484	-0.139	0.190
-378.902	-200.000	0.018	-0.526
-377.888	386.871	0.067	0.136
-376.873	-106.888	0.613	0.134
-375.858	-29.744	0.361	-0.203
-374.844	42.059	-0.109	-0.098
-373.829	-23.837	0.260	-0.153
-372.815	-10.526	-0.276	-0.180
-371.800	-200.000	0.065	-0.313
-370.785	-49.319	0.330	-0.155
-369.771	516.035	-0.052	-0.119
-368.756	23.557	-0.308	-0.250
-367.742	-200.000	-0.035	-0.237
-366.727	-200.000	-0.016	0.096
-365.712	100.366	0.105	-0.120
-364.698	800.000	-0.011	-0.045
-363.683	292.482	-0.148	-0.266
-362.669	-39.217	-0.195	-0.101
-361.654	174.838	0.114	0.163
-360.639	-200.000	0.006	-0.242
-359.625	522.135	-0.080	-0.186
-358.610	-88.554	0.058	0.017
-357.596	-13.168	-0.107	-0.068
-356.581	365.727	-0.084	0.168
-355.566	15.570	0.148	0.114
-354.552	263.351	0.012	0.021
-353.537	76.178	0.153	-0.160
-352.523	-200.000	-0.057	-0.263
-351.508	62.080	-0.015	-0.015
-350.493	-121.961	0.235	0.038
-349.479	800.000	0.016	-0.049
-348.464	280.554	-0.063	-0.111
-347.450	504.926	0.065	0.148
-346.435	103.861	-0.207	-0.239
-345.420	203.850	-0.072	0.110
-344.406	120.154	0.066	-0.080
-343.391	373.157	0.016	0.032
-342.377	-121.997	0.076	-0.012
-341.362	-183.962	0.299	-0.005
-340.348	78.366	0.084	-0.088
-339.333	-161.021	0.153	-0.008
-338.318	-88.926	0.260	-0.076
-337.304	-153.984	-0.254	0.017
-336.289	-139.495	-0.243	0.026
-335.275	-89.306	-0.246	0.071
-334.260	-5.414	-0.279	0.188
-333.245	-24.040	-0.202	0.119
-332.231	-109.137	-0.170	-0.036
-331.216	-200.000	-0.004	0.170
-330.202	-26.839	-0.156	-0.090
-329.187	60.731	-0.173	0.169
-328.172	-93.506	-0.292	0.079
-327.158	-99.876	-0.260	0.064
-326.143	-200.000	-0.013	-0.235
-325.129	800.000	-0.005	-0.019
-324.114	-4.064	0.082	0.056
-323.099	119.466	-0.140	0.171
-322.085	292.352	-0.131	0.234
-321.070	-200.000	0.012	0.066
-320.056	138.581	-0.157	-0.202
-319.041	-187.507	0.241	-0.003
-318.026	-33.562	0.111	-0.060
-317.012	50.332	-0.266	0.247
-315.997	-6.646	0.052	0.035
-314.983	407.970	-0.138	-0.287
-313.968	92.861	0.183	-0.203
-312.953	-177.743	0.121	-0.003
-311.939	24.219	0.302	-0.245
-310.924	67.566	0.144	-0.144
-309.910	52.763	-0.112	0.105
-308.895	471.997	-0.096	-0.213
-307.880	354.221	0.117	0.227
-306.866	-7.592	0.264	-0.176
-305.851	144.627	0.405	0.531
-304.837	-200.000	0.055	0.251
-303.822	800.000	-0.046	-0.156
-302.807	-169.729	0.287	0.010
-301.793	-47.283	-0.176	0.084
-300.778	245.028	-0.205	-0.339
-299.764	800.000	-0.134	0.401
-298.749	-41.937	0.287	0.144
-297.735	8.244	0.068	-0.050
-296.720	475.298	0.024	-0.054
-295.705	-94.977	-0.224	-0.059
-294.691	88.182	-0.156	0.170
-293.676	67.754	-0.121	-0.121
-292.662	-23.639	-0.094	-0.055
-291.647	475.353	0.126	0.279
-290.632	800.000	-0.037	-0.140
-289.618	-200.000	-0.075	-0.385
-288.603	60.717	0.200	0.194
-287.589	-151.881	-0.189	0.014
-286.574	-200.000	-0.010	0.076
-285.559	-31.742	-0.298	0.164
-284.545	-125.567	0.069	-0.010
-283.530	351.263	-0.169	0.329
-282.516	680.624	-0.045	0.116
-281.501	186.640	-0.142	-0.208
-280.486	-200.000	0.030	-0.146
-279.472	291.798	-0.010	-0.018
-278.457	144.339	-0.170	0.222
-277.443	-102.453	0.397	0.093
-276.428	103.579	-0.155	-0.179
-275.413	-42.748	0.031	0.016
-274.399	278.695	0.125	-0.219
-273.384	36.577	-0.203	0.176
-272.370	42.716	-0.194	-0.173
-271.355	-200.000	-0.006	0.034
-270.340	352.880	-0.082	-0.161
-269.326	367.738	-0.100	0.198
-268.311	-0.408	0.048	-0.033
-267.297	183.596	0.112	0.162
-266.282	103.271	-0.050	-0.058
-265.267	800.000	0.055	0.233
-264.253	-200.000	0.013	-0.322
-263.238	-46.107	0.083	-0.040
-262.224	-200.000	0.223	0.000
-261.209	-30.739	-0.455	-0.252
-260.195	800.000	-0.116	0.349
-259.180	-141.099	-0.354	0.036
-258.165	-80.614	0.130	-0.042
-257.151	167.214	-0.214	0.297
-256.136	-89.768	-0.074	-0.021
-255.122	-47.610	-0.192	0.091
-254.107	-52.208	-0.235	-0.107
-253.092	-200.000	-0.055	-0.312
-252.078	367.059	0.221	-0.438
-251.063	-18.912	0.156	-0.095
-250.049	-200.000	-0.003	-0.150
-249.034	-101.642	-0.304	-0.072
-248.019	358.520	0.121	-0.238
-247.005	-200.000	-0.007	-0.195
-245.990	66.854	0.186	-0.186
-244.976	309.225	0.154	0.282
-243.961	-86.717	-0.255	-0.076
-242.946	-124.088	0.228	0.035
-241.932	-24.056	-0.052	0.031
-240.917	-60.516	0.129	-0.054
-239.903	321.269	0.028	0.052
-238.888	-145.603	0.503	0.044
-237.873	-200.000	0.027	-0.146
-236.859	30.348	-0.105	0.088
-235.844	60.335	0.100	-0.097
-234.830	198.260	0.182	-0.273
-233.815	86.908	-0.172	-0.186
-232.800	800.000	-0.038	0.134
-231.786	800.000	-0.110	0.396
-230.771	-81.054	0.341	0.110
-229.757	-200.000	0.021	0.237
-228.742	-54.710	0.301	0.133
-227.727	800.000	-0.081	0.239
-226.713	-45.023	-0.157	-0.077
-225.698	6.747	0.168	0.122
-224.684	800.000	-0.078	-0.255
-223.669	42.377	0.098	0.087
-222.655	705.003	0.075	0.193
-221.640	-120.206	-0.178	-0.030
-220.625	59.287	-0.196	-0.189
-219.611	-200.000	-0.089	0.474
-218.596	324.324	-0.045	-0.084
-217.582	-8.136	0.356	-0.235
-216.567	-77.381	-0.265	0.090
-215.552	91.006	-0.187	0.205
-214.538	-135.193	-0.071	0.008
-213.523	5.305	0.170	0.122
-212.509	254.251	0.145	0.243
-211.494	800.000	-0.173	-0.469
-210.479	437.647	0.161	-0.343
-209.465	-106.488	-0.189	-0.041
-208.450	91.463	-0.058	0.064
-207.436	-82.067	0.364	0.116
-206.421	-200.000	0.036	0.238
-205.406	476.484	0.090	0.200
-204.392	-200.000	-0.001	-0.123
-203.377	800.000	-0.044	0.159
-202.363	-168.257	0.072	-0.003
-201.348	717.175	-0.048	0.125
-200.333	-92.363	0.052	0.014
-199.319	97.701	0.077	-0.086
-198.304	-200.000	-0.017	0.387
-197.290	-152.242	-0.112	-0.008
-196.275	364.568	0.131	0.258
-195.260	400.194	-0.125	0.257
-194.246	60.435	0.292	-0.283
-193.231	-3.401	-0.102	-0.069
-192.217	105.795	0.145	0.168
-191.202	244.227	-0.106	0.174
-190.187	-9.746	-0.290	-0.189
-189.173	-200.000	-0.047	0.436
-188.158	-118.244	-0.081	0.014
-187.144	27.910	-0.277	-0.228
-186.129	-103.887	0.141	0.032
-185.114	10.716	0.145	0.108
-184.100	2.606	0.286	0.203
-183.085	77.248	0.120	0.124
-182.071	800.000	0.033	-0.092
-181.056	-13.855	0.171	0.108
-180.042	-98.480	-0.133	-0.033
-179.027	-135.524	0.214	-0.025
-178.012	-92.746	-0.218	-0.060
-176.998	58.246	0.079	0.075
-175.983	528.409	0.132	0.305
-174.969	161.649	-0.090	-0.123
-173.954	-53.725	-0.134	0.060
-172.939	-82.441	-0.240	0.076
-171.925	-44.354	0.053	0.026
-170.910	-39.209	-0.206	0.106
-169.896	313.707	-0.088	-0.163
-168.881	-200.000	-0.009	-0.128
-167.866	151.474	-0.200	-0.267
-166.852	120.480	0.217	0.264
-165.837	14.954	-0.178	0.136
-164.823	327.711	-0.049	0.092
-163.808	634.776	0.083	0.205
-162.793	-33.235	-0.192	-0.104
-161.779	-79.433	0.226	-0.075
-160.764	800.000	-0.060	0.229
-159.750	177.257	-0.083	-0.117
-158.735	353.957	-0.071	0.138
-157.720	-200.000	0.024	-0.240
-156.706	-174.609	-0.446	0.012
-155.691	-200.000	-0.053	0.293
-154.677	243.542	-0.057	-0.093
-153.662	-103.513	-0.098	-0.022
-152.647	-200.000	-0.025	-0.185
-151.633	-17.927	-0.323	-0.197
-150.618	29.849	-0.314	0.261
-149.604	-118.207	-0.102	-0.018
-148.589	-200.000	0.017	-0.169
-147.574	-39.284	-0.287	0.147
-146.560	-90.362	0.236	0.067
-145.545	55.112	0.102	0.097
-144.531	800.000	-0.048	-0.174
-143.516	21.083	-0.028	0.022
-142.502	-55.643	0.273	-0.119
-141.487	285.805	-0.087	0.154
-140.472	-0.614	0.081	-0.056
-139.458	219.349	-0.063	0.098
-138.443	-200.000	0.042	0.451
-137.429	800.000	0.097	-0.290
-136.414	1.050	-0.154	0.107
-135.399	-34.045	0.150	0.081
-134.385	-186.383	-0.261	0.004
-133.370	-50.017	0.142	-0.066
-132.356	192.428	0.147	0.217
-131.341	800.000	0.045	0.183
-130.326	-26.866	-0.076	0.044
-129.312	-200.000	-0.007	0.169
-128.297	-82.995	0.113	-0.035
-127.283	800.000	-0.126	-0.363
-126.268	-51.289	0.218	0.099
-125.253	-2.590	-0.132	-0.090
-124.239	-67.691	0.291	-0.111
-123.224	-151.378	-0.132	0.010
-122.210	800.000	-0.063	-0.176
-121.195	99.534	0.193	-0.218
