DTS Sentinel unit serial number:	SN413079Multiplexer serial number:	ORYXHardware model number:	OX4-SRSoftware version number:	ORYX F/W v4.00 Oryx Data Collector v3.7.2.0data status	okinstallation	princeton_trtdifferential loss correction	single-endedforward channel	channel 2reverse channel	N/Adate	2019/09/13time	02:23:35forward acquisition time	60.00reverse acquisition time	0.00gamma	496.2192k internal	0.2334k external	0.2334temperature offset calibration	1.0185default loss term (dB/km)	0.3790temperature slope calibration	1.0000multiplexer offset coefficient	1.0000multiplexer slope coefficient	1.0000fibre end	0.00T internal ref (°C)	27.50T ext. ref 1 (°C)	3.94T ext. ref 2 (°C)	22.26length (m)	temperature (°C)	Stokes	anti-Stokes-747.200	-107.734	-0.055	0.012
-746.185	254.355	0.057	-0.097
-745.171	-60.356	0.050	0.021
-744.156	-110.965	-0.172	-0.035
-743.142	-72.791	0.306	0.113
-742.127	278.098	-0.168	0.300
-741.112	282.348	-0.057	-0.102
-740.098	63.042	-0.197	0.198
-739.083	-39.719	0.169	-0.089
-738.069	-81.453	-0.417	0.138
-737.054	708.969	-0.069	-0.183
-736.039	-25.090	0.026	-0.015
-735.025	233.902	0.151	-0.250
-734.010	584.287	-0.067	-0.165
-732.996	106.802	0.055	-0.066
-731.981	-79.530	-0.096	0.033
-730.966	-200.000	0.025	-0.130
-729.952	-200.000	0.026	-0.479
-728.937	-144.530	-0.226	0.021
-727.923	411.231	0.073	0.156
-726.908	-39.472	-0.061	-0.032
-725.894	-3.959	-0.067	-0.047
-724.879	-200.000	0.038	-0.195
-723.864	-37.076	-0.385	-0.207
-722.850	406.262	0.083	-0.176
-721.835	784.049	0.043	-0.118
-720.821	-189.144	-0.331	-0.004
-719.806	-92.185	-0.170	0.048
-718.791	77.084	-0.251	-0.267
-717.777	409.252	-0.039	-0.082
-716.762	-71.984	-0.332	-0.124
-715.748	800.000	0.121	0.407
-714.733	-19.484	-0.149	0.093
-713.718	435.237	0.091	0.200
-712.704	-82.426	0.065	0.021
-711.689	-200.000	-0.021	-0.312
-710.675	800.000	-0.135	-0.441
-709.660	-107.073	0.539	-0.119
-708.645	-200.000	0.006	-0.235
-707.631	-95.019	0.275	-0.075
-706.616	161.952	-0.218	-0.306
-705.602	148.594	0.064	0.087
-704.587	-103.775	0.390	0.092
-703.572	-129.871	-0.374	0.051
-702.558	191.495	-0.044	0.066
-701.543	62.830	0.207	0.208
-700.529	800.000	-0.088	0.274
-699.514	-72.174	-0.222	0.083
-698.499	-56.198	-0.108	0.048
-697.485	247.164	0.173	0.294
-696.470	659.284	-0.046	0.118
-695.456	-147.142	0.163	-0.014
-694.441	-154.934	0.234	0.015
-693.426	-64.994	-0.224	-0.091
-692.412	800.000	-0.051	0.181
-691.397	-74.426	0.259	0.094
-690.383	-40.399	0.172	0.089
-689.368	-29.710	-0.097	0.055
-688.354	111.312	-0.156	-0.188
-687.339	-200.000	0.023	0.125
-686.324	-66.526	-0.177	-0.070
-685.310	-98.299	0.154	-0.040
-684.295	83.185	-0.223	-0.244
-683.281	-154.626	-0.142	0.010
-682.266	-200.000	-0.014	-0.300
-681.251	219.666	-0.141	-0.227
-680.237	-200.000	-0.009	0.064
-679.222	-130.802	0.295	-0.040
-678.208	-86.322	0.258	0.080
-677.193	-36.733	-0.317	0.171
-676.178	-200.000	-0.031	-0.249
-675.164	-36.224	0.143	0.077
-674.149	-52.917	-0.202	0.093
-673.135	98.019	-0.087	0.101
-672.120	-7.084	-0.166	-0.113
-671.105	-26.751	-0.084	0.049
-670.091	-26.952	-0.175	0.102
-669.076	91.286	-0.054	-0.060
-668.062	800.000	0.046	0.151
-667.047	-75.439	-0.075	0.027
-666.032	113.412	-0.190	-0.231
-665.018	186.768	0.104	0.156
-664.003	-200.000	0.031	-0.225
-662.989	-85.205	-0.221	-0.069
-661.974	-200.000	-0.025	-0.177
-660.959	394.390	0.091	-0.191
-659.945	-95.771	-0.386	0.103
-658.930	-95.918	-0.093	0.025
-657.916	292.607	0.151	-0.275
-656.901	-16.147	-0.387	-0.246
-655.886	-200.000	0.070	-0.324
-654.872	800.000	-0.119	-0.464
-653.857	-121.738	-0.341	0.057
-652.843	104.094	0.129	0.152
-651.828	279.665	0.184	-0.330
-650.814	154.666	0.207	-0.285
-649.799	-97.792	-0.149	-0.039
-648.784	-7.280	0.058	0.040
-647.770	-55.915	-0.247	-0.111
-646.755	-167.558	0.018	-0.001
-645.741	-140.698	0.265	0.027
-644.726	-113.550	-0.277	-0.054
-643.711	104.081	-0.274	-0.322
-642.697	-101.388	0.120	0.029
-641.682	-141.940	-0.138	0.014
-640.668	149.038	0.133	-0.179
-639.653	-139.195	-0.222	-0.024
-638.638	-50.823	0.079	0.037
-637.624	-200.000	0.001	-0.028
-636.609	145.375	-0.100	-0.135
-635.595	-160.435	0.139	0.007
-634.580	800.000	-0.017	0.059
-633.565	-38.140	0.135	-0.071
-632.551	26.567	-0.187	-0.156
-631.536	103.669	-0.195	0.230
-630.522	-152.588	0.166	0.012
-629.507	-200.000	-0.168	0.001
-628.492	16.162	0.118	-0.093
-627.478	15.951	0.330	-0.260
-626.463	376.771	-0.082	-0.168
-625.449	309.447	-0.041	-0.076
-624.434	143.182	0.240	0.319
-623.419	452.315	0.056	-0.124
-622.405	67.304	-0.084	0.085
-621.390	14.696	-0.261	0.204
-620.376	-20.098	0.186	-0.114
-619.361	800.000	0.014	0.046
-618.346	574.313	0.092	0.225
-617.332	522.471	-0.065	0.153
-616.317	-12.855	-0.266	0.174
-615.303	-200.000	0.008	-0.094
-614.288	-7.134	-0.208	-0.141
-613.273	249.477	0.163	-0.277
-612.259	92.871	0.097	0.109
-611.244	-200.000	-0.064	-0.360
-610.230	400.006	0.065	-0.135
-609.215	106.874	0.122	-0.144
-608.201	800.000	-0.120	0.435
-607.186	39.602	-0.261	0.234
-606.171	18.179	-0.118	-0.094
-605.157	271.320	-0.094	-0.165
-604.142	-200.000	-0.068	-0.341
-603.128	-141.525	-0.309	0.031
-602.113	-59.990	0.206	-0.088
-601.098	-200.000	-0.035	0.234
-600.084	56.852	-0.262	-0.255
-599.069	-139.260	-0.301	0.032
-598.055	76.431	0.150	0.158
-597.040	-200.000	0.074	0.382
-596.025	-123.963	-0.138	-0.022
-595.011	-108.591	-0.168	-0.036
-593.996	-45.869	0.329	-0.163
-592.982	-145.476	0.107	-0.010
-591.967	800.000	0.014	0.039
-590.952	-54.052	0.189	0.086
-589.938	-102.841	-0.104	-0.025
-588.923	-185.757	0.211	0.003
-587.909	142.523	-0.193	0.256
-586.894	-85.106	-0.263	0.082
-585.879	29.983	0.441	-0.376
-584.865	-42.321	0.106	0.054
-583.850	-73.299	-0.538	-0.196
-582.836	388.875	-0.096	0.198
-581.821	-68.967	-0.051	-0.020
-580.806	800.000	-0.017	0.066
-579.792	-138.224	0.339	0.038
-578.777	-122.237	-0.070	-0.011
-577.763	-200.000	-0.020	-0.168
-576.748	-164.314	-0.208	0.010
-575.733	-38.870	0.112	0.059
-574.719	-200.000	0.035	-0.185
-573.704	46.718	0.267	-0.247
-572.690	-62.225	0.174	0.072
-571.675	-7.423	0.290	-0.196
-570.661	-111.887	-0.106	-0.021
-569.646	-61.176	0.153	0.065
-568.631	-37.022	-0.087	0.047
-567.617	800.000	-0.083	-0.305
-566.602	-78.976	-0.120	0.041
-565.588	93.629	-0.006	-0.007
-564.573	341.352	0.100	0.195
-563.558	-200.000	-0.020	-0.334
-562.544	460.689	0.086	-0.191
-561.529	-119.226	-0.157	0.027
-560.515	-200.000	0.007	-0.245
-559.500	178.170	0.074	-0.108
-558.485	-200.000	0.006	-0.104
-557.471	109.972	-0.130	0.155
-556.456	67.685	0.037	0.038
-555.442	31.597	-0.127	0.109
-554.427	-48.630	-0.076	0.037
-553.412	-68.860	0.224	0.086
-552.398	-148.088	0.304	-0.025
-551.383	800.000	0.038	0.128
-550.369	-8.847	-0.292	-0.195
-549.354	624.308	-0.130	-0.327
-548.339	-200.000	-0.009	-0.238
-547.325	241.386	0.107	0.178
-546.310	-200.000	0.004	-0.040
-545.296	-108.324	-0.216	-0.046
-544.281	-200.000	-0.016	0.091
-543.266	-200.000	-0.065	0.374
-542.252	529.812	-0.174	-0.410
-541.237	-11.577	0.402	-0.264
-540.223	149.084	0.083	0.112
-539.208	-200.000	-0.014	-0.320
-538.193	-200.000	0.033	-0.144
-537.179	355.947	-0.100	0.198
-536.164	-200.000	0.003	0.138
-535.150	98.032	-0.182	0.208
-534.135	-168.653	0.154	0.006
-533.121	11.361	0.106	0.081
-532.106	-7.631	0.211	0.142
-531.091	-104.607	0.268	-0.062
-530.077	-110.003	0.094	-0.020
-529.062	-85.507	0.230	0.071
-528.048	800.000	0.039	-0.140
-527.033	-146.282	-0.138	0.012
-526.018	-128.745	-0.243	0.034
-525.004	88.491	0.091	0.100
-523.989	-200.000	-0.010	-0.408
-522.975	251.140	-0.047	0.080
-521.960	614.114	-0.085	-0.212
-520.945	373.306	0.062	0.126
-519.931	-200.000	-0.077	-0.342
-518.916	-200.000	-0.073	0.396
-517.902	-200.000	0.005	-0.127
-516.887	9.523	0.077	-0.058
-515.872	-200.000	0.027	-0.133
-514.858	-46.655	0.214	0.104
-513.843	56.487	-0.205	0.199
-512.829	800.000	0.024	0.099
-511.814	-58.805	0.034	0.015
-510.799	-200.000	-0.017	-0.236
-509.785	-60.252	-0.168	-0.071
-508.770	331.516	-0.024	0.047
-507.756	-200.000	-0.003	0.030
-506.741	80.395	-0.071	-0.076
-505.726	800.000	0.074	0.214
-504.712	24.856	0.198	-0.164
-503.697	-41.650	-0.191	-0.098
-502.683	51.572	-0.176	0.166
-501.668	28.977	0.120	0.101
-500.653	-11.561	0.101	0.066
-499.639	800.000	-0.133	0.417
-498.624	-200.000	-0.065	-0.307
-497.610	108.547	0.165	-0.196
-496.595	-200.000	0.066	0.315
-495.581	187.631	-0.138	-0.205
-494.566	-13.368	-0.187	-0.121
-493.551	-127.243	-0.168	-0.024
-492.537	-135.910	0.200	0.023
-491.522	-54.509	0.188	-0.085
-490.508	-200.000	0.021	-0.132
-489.493	0.074	0.252	-0.179
-488.478	-56.701	-0.360	0.159
-487.464	279.960	0.136	-0.242
-486.449	-84.389	-0.223	0.070
-485.435	-200.000	-0.016	-0.328
-484.420	168.785	0.282	0.400
-483.405	96.359	0.274	0.311
-482.391	-200.000	-0.053	-0.240
-481.376	-200.000	0.026	-0.254
-480.362	-12.804	0.328	-0.212
-479.347	-45.423	0.317	-0.156
-478.332	-155.985	-0.040	0.003
-477.318	74.239	-0.088	0.092
-476.303	-78.135	-0.149	0.051
-475.289	800.000	-0.049	0.195
-474.274	20.981	0.058	-0.047
-473.259	-166.931	-0.205	0.008
-472.245	-200.000	-0.021	-0.102
-471.230	52.903	0.121	-0.115
-470.216	231.105	-0.059	0.096
-469.201	-120.449	-0.276	0.047
-468.186	44.954	0.126	0.115
-467.172	195.833	0.200	-0.302
-466.157	-200.000	-0.012	0.167
-465.143	-15.800	0.329	0.208
-464.128	-117.790	-0.103	0.018
-463.113	800.000	-0.028	-0.089
-462.099	50.689	-0.168	-0.158
-461.084	183.266	-0.065	-0.095
-460.070	-147.282	-0.038	-0.003
-459.055	91.662	-0.112	0.125
-458.040	-87.454	-0.326	-0.098
-457.026	-127.831	0.215	0.031
-456.011	6.628	-0.042	0.031
-454.997	149.199	0.118	-0.158
-453.982	147.596	0.114	-0.153
-452.968	-75.888	-0.110	-0.039
-451.953	-200.000	-0.011	0.201
-450.938	-49.128	-0.420	-0.200
-449.924	-200.000	0.005	0.020
-448.909	170.199	0.069	0.097
-447.895	-76.285	-0.188	0.066
-446.880	-36.523	-0.121	-0.065
-445.865	50.061	0.149	-0.140
-444.851	-119.114	-0.200	-0.035
-443.836	-38.741	-0.213	-0.112
-442.822	260.022	-0.082	-0.140
-441.807	59.621	0.062	0.061
-440.792	-152.767	0.381	0.027
-439.778	210.448	-0.093	-0.146
-438.763	393.856	0.084	0.173
-437.749	-200.000	0.019	-0.119
-436.734	29.165	0.247	0.208
-435.719	597.079	0.119	-0.292
-434.705	0.297	0.188	-0.133
-433.690	11.153	0.053	0.040
-432.676	732.247	-0.080	0.213
-431.661	269.746	0.143	0.250
-430.646	59.425	0.138	0.135
-429.632	-75.512	-0.194	-0.069
-428.617	-76.928	-0.110	0.038
-427.603	-149.137	0.119	-0.009
-426.588	145.098	-0.251	0.333
-425.573	615.784	-0.057	0.142
-424.559	-181.907	0.147	-0.003
-423.544	275.965	-0.071	0.125
-422.530	285.660	-0.055	0.098
-421.515	70.131	0.075	0.077
-420.500	-6.737	-0.102	0.069
-419.486	24.101	-0.300	-0.246
-418.471	-178.946	-0.230	-0.005
-417.457	800.000	-0.061	-0.260
-416.442	638.946	0.009	0.022
-415.428	65.584	0.080	0.080
-414.413	-200.000	0.023	0.119
-413.398	257.958	0.130	-0.221
-412.384	-200.000	-0.057	-0.329
-411.369	268.862	0.106	-0.184
-410.355	-121.569	0.256	-0.042
-409.340	-200.000	0.019	0.162
-408.325	-70.722	-0.071	0.027
-407.311	180.642	-0.126	0.184
-406.296	-200.000	-0.052	-0.338
-405.282	-25.178	-0.286	-0.168
-404.267	-200.000	0.020	-0.176
-403.252	-168.523	-0.278	0.011
-402.238	-9.655	0.077	0.051
-401.223	-105.379	-0.168	-0.038
-400.209	13.446	0.105	-0.081
-399.194	72.679	0.147	0.152
-398.179	-23.958	0.181	0.107
-397.165	-111.328	-0.317	0.064
-396.150	124.446	-0.120	0.149
-395.136	132.786	0.113	-0.145
-394.121	75.973	-0.070	-0.074
-393.106	251.093	0.106	-0.179
-392.092	-91.942	0.257	-0.072
-391.077	92.466	0.156	-0.175
-390.063	242.033	-0.142	0.236
-389.048	289.636	0.116	-0.208
-388.033	-163.268	-0.238	0.011
-387.019	-200.000	0.018	0.241
-386.004	646.495	-0.112	0.284
-384.990	164.740	-0.078	0.110
-383.975	-95.078	-0.203	0.054
-382.960	109.549	-0.219	-0.260
-381.946	-114.897	0.179	0.034
-380.931	800.000	-0.046	-0.173
-379.917	243.834	-0.205	-0.340
-378.902	164.991	-0.179	0.251
-377.888	-34.909	-0.156	-0.084
-376.873	288.383	0.186	-0.334
-375.858	-200.000	-0.016	-0.091
-374.844	-150.763	0.473	0.036
-373.829	-83.359	-0.094	0.030
-372.815	220.136	0.053	0.084
-371.800	483.785	-0.114	0.256
-370.785	194.642	-0.131	0.196
-369.771	800.000	-0.085	0.285
-368.756	-179.344	-0.170	0.004
-367.742	52.220	-0.013	-0.012
-366.727	-66.725	0.141	-0.055
-365.712	800.000	-0.068	-0.258
-364.698	110.439	0.092	0.110
-363.683	450.700	0.040	-0.087
-362.669	461.681	-0.198	0.438
-361.654	-200.000	-0.012	0.061
-360.639	-175.379	0.050	0.001
-359.625	-200.000	-0.026	0.121
-358.610	58.385	-0.173	-0.168
-357.596	-94.906	-0.216	0.058
-356.581	231.688	-0.169	0.275
-355.566	-30.675	0.078	0.043
-354.552	-36.724	0.038	-0.020
-353.537	-200.000	-0.024	-0.216
-352.523	-99.400	0.013	0.003
-351.508	-200.000	-0.011	-0.215
-350.493	-52.170	0.210	-0.096
-349.479	222.959	-0.064	0.102
-348.464	800.000	-0.115	0.378
-347.450	44.320	-0.312	0.283
-346.435	30.550	0.145	-0.123
-345.420	-90.325	-0.287	-0.083
-344.406	-29.193	0.087	0.049
-343.391	348.551	0.095	-0.186
-342.377	-200.000	-0.017	0.232
-341.362	-200.000	-0.002	-0.087
-340.348	425.244	0.077	-0.165
-339.333	-200.000	-0.028	0.208
-338.318	-200.000	-0.013	-0.236
-337.304	-184.716	0.007	-0.000
-336.289	239.595	-0.083	0.137
-335.275	-200.000	-0.041	0.296
-334.260	-116.120	0.208	0.038
-333.245	-148.989	-0.289	0.023
-332.231	-159.926	-0.397	0.022
-331.216	-200.000	0.005	0.231
-330.202	-105.442	0.346	0.078
-329.187	800.000	-0.044	0.154
-328.172	-37.989	0.125	0.066
-327.158	-46.412	0.211	0.102
-326.143	800.000	-0.027	-0.079
-325.129	800.000	0.021	-0.078
-324.114	-169.215	-0.174	-0.006
-323.099	134.519	0.199	0.256
-322.085	-200.000	-0.028	-0.291
-321.070	-63.500	-0.106	0.043
-320.056	488.616	-0.066	0.149
-319.041	-200.000	0.048	-0.223
-318.026	-138.406	0.077	-0.008
-317.012	-200.000	0.027	-0.231
-315.997	174.262	-0.088	-0.126
-314.983	149.525	-0.122	-0.164
-313.968	-180.452	0.261	0.005
-312.953	8.838	0.188	0.140
-311.939	28.815	0.265	0.222
-310.924	-23.529	-0.232	0.138
-309.910	-164.856	0.241	0.011
-308.895	800.000	-0.007	0.024
-307.880	433.410	0.030	-0.063
-306.866	-200.000	0.116	0.523
-305.851	-127.037	-0.203	-0.030
-304.837	-30.195	-0.196	0.110
-303.822	-72.779	-0.223	0.081
-302.807	-5.575	-0.152	0.103
-301.793	-53.023	0.215	0.098
-300.778	800.000	0.033	-0.125
-299.764	-200.000	0.017	0.219
-298.749	-200.000	0.078	-0.422
-297.735	-200.000	-0.013	0.084
-296.720	314.095	0.058	0.108
-295.705	399.667	0.149	0.308
-294.691	103.151	0.253	-0.293
-293.676	247.126	-0.052	0.087
-292.662	-200.000	-0.035	0.292
-291.647	-200.000	0.012	-0.279
-290.632	270.382	-0.056	0.097
-289.618	-55.228	-0.243	-0.108
-288.603	158.421	-0.214	-0.293
-287.589	311.343	-0.125	0.232
-286.574	-124.038	-0.116	0.018
-285.559	380.283	0.190	0.384
-284.545	-111.372	-0.151	-0.030
-283.530	-32.263	-0.227	-0.125
-282.516	-80.894	0.255	0.083
-281.501	-200.000	0.007	-0.051
-280.486	-56.761	0.332	-0.145
-279.472	44.574	-0.063	-0.057
-278.457	80.987	-0.052	0.055
-277.443	800.000	0.042	-0.162
-276.428	-123.258	-0.391	0.062
-275.413	-200.000	-0.025	-0.124
-274.399	26.682	0.201	0.166
-273.384	-92.116	0.213	-0.059
-272.370	8.620	0.192	0.143
-271.355	106.682	0.036	0.042
-270.340	638.298	0.059	-0.147
-269.326	800.000	0.068	0.245
-268.311	-80.988	0.192	-0.063
-267.297	-37.792	-0.177	0.093
-266.282	107.186	0.269	0.315
-265.267	-200.000	0.009	-0.228
-264.253	-200.000	0.030	0.141
-263.238	-73.615	0.080	-0.029
-262.224	83.993	0.038	0.041
-261.209	800.000	0.069	-0.211
-260.195	-40.254	0.029	0.015
-259.180	800.000	0.054	-0.153
-258.165	800.000	-0.108	0.324
-257.151	-114.434	-0.368	0.070
-256.136	800.000	0.091	-0.372
-255.122	-128.713	-0.385	0.054
-254.107	48.437	0.103	0.095
-253.092	159.041	0.141	0.193
-252.078	-109.884	-0.065	0.013
-251.063	326.215	0.085	-0.160
-250.049	-114.444	-0.192	-0.036
-249.034	-200.000	-0.035	0.189
-248.019	-200.000	-0.015	0.085
-247.005	12.819	0.198	0.151
-245.990	-54.443	0.253	0.113
-244.976	800.000	0.082	-0.354
-243.961	-32.875	-0.257	-0.141
-242.946	-47.749	0.259	0.124
-241.932	-41.429	0.121	-0.061
-240.917	-154.807	-0.139	0.009
-239.903	800.000	-0.073	0.216
-238.888	71.403	-0.127	0.130
-237.873	452.606	0.139	-0.303
-236.859	39.965	0.254	0.224
-235.844	68.698	-0.102	0.103
-234.830	-12.157	-0.028	-0.018
-233.815	-184.757	0.280	-0.004
-232.800	-77.631	-0.200	0.068
-231.786	-92.372	0.353	-0.098
-230.771	206.437	0.172	0.264
-229.757	-33.220	0.065	0.036
-228.742	-81.148	0.111	0.036
-227.727	-73.534	-0.154	0.056
-226.713	-176.131	-0.120	0.003
-225.698	-31.828	0.145	0.080
-224.684	628.696	0.107	0.266
-223.669	-200.000	0.002	-0.187
-222.655	91.073	-0.159	-0.176
-221.640	-84.660	0.362	0.112
-220.625	-146.444	-0.331	-0.028
-219.611	-200.000	-0.062	-0.340
-218.596	87.314	-0.268	-0.292
-217.582	539.023	-0.090	-0.210
-216.567	783.086	0.059	-0.158
-215.552	-78.202	0.171	0.058
-214.538	800.000	0.050	-0.153
-213.523	-175.754	0.273	-0.007
-212.509	-21.744	-0.219	0.131
-211.494	-65.134	0.202	0.080
-210.479	-78.256	-0.210	-0.071
-209.465	-60.507	-0.178	0.075
-208.450	-0.633	-0.262	0.183
-207.436	332.206	0.011	0.021
-206.421	-10.817	-0.265	0.173
-205.406	599.275	-0.114	-0.279
-204.392	-30.036	0.083	-0.047
-203.377	-27.989	0.179	-0.102
-202.363	-31.976	0.403	0.222
-201.348	800.000	0.100	-0.399
-200.333	-148.484	0.153	0.012
-199.319	-9.575	-0.194	0.127
-198.304	45.924	-0.254	-0.231
-197.290	-106.396	0.277	0.061
-196.275	83.490	0.073	-0.078
-195.260	129.023	0.031	0.039
-194.246	-36.853	0.358	-0.189
-193.231	-58.309	-0.137	0.059
-192.217	-103.410	0.207	0.048
-191.202	-69.762	-0.067	-0.025
-190.187	-9.485	-0.312	-0.205
-189.173	-200.000	-0.003	-0.157
-188.158	-200.000	0.026	-0.210
-187.144	-200.000	0.078	0.339
-186.129	-200.000	-0.024	-0.136
-185.114	-45.391	-0.183	-0.089
-184.100	-3.487	-0.039	-0.027
-183.085	-200.000	-0.029	0.206
-182.071	167.079	-0.147	0.205
-181.056	-89.425	0.339	-0.098
-180.042	-66.308	-0.269	0.105
-179.027	332.196	-0.302	0.573
-178.012	149.493	0.187	0.249
-176.998	-200.000	0.028	0.174
-175.983	-84.812	-0.267	0.082
-174.969	-148.451	-0.125	-0.010
-173.954	-55.387	0.145	0.064
-172.939	-200.000	0.048	0.216
-171.925	-63.085	-0.091	-0.037
-170.910	-17.808	0.329	0.203
-169.896	90.312	0.120	-0.132
-168.881	11.282	0.205	0.154
-167.866	-90.203	0.089	0.025
-166.852	321.981	0.053	-0.099
-165.837	140.215	0.144	-0.187
-164.823	369.184	0.148	0.294
-163.808	-152.479	0.232	0.016
-162.793	237.220	-0.067	0.110
-161.779	631.520	-0.080	0.198
-160.764	-12.144	0.115	0.074
-159.750	24.237	0.188	-0.152
-158.735	-133.039	0.178	0.022
-157.720	-68.251	0.199	-0.076
-156.706	44.956	-0.138	-0.125
-155.691	-63.949	-0.089	-0.036
-154.677	100.802	0.073	0.084
-153.662	14.353	-0.228	0.175
-152.647	109.647	0.152	-0.179
-151.633	46.998	0.237	0.217
-150.618	300.389	-0.082	0.148
-149.604	800.000	-0.014	-0.040
-148.589	109.956	0.028	0.033
-147.574	-200.000	0.002	0.092
-146.560	-199.671	-0.139	-0.001
-145.545	78.120	0.207	-0.217
-144.531	-200.000	0.030	0.349
-143.516	14.627	-0.032	0.025
-142.502	-82.325	-0.152	0.048
-141.487	73.290	0.035	-0.036
-140.472	800.000	-0.034	-0.130
-139.458	563.386	-0.083	0.197
-138.443	800.000	-0.034	0.094
-137.429	259.537	0.186	-0.316
-136.414	-137.921	-0.170	-0.019
-135.399	-142.629	0.280	0.027
-134.385	-68.535	0.342	0.130
-133.370	-188.841	-0.324	0.004
-132.356	44.592	-0.325	0.293
-131.341	73.958	0.038	0.039
-130.326	-200.000	-0.011	0.377
-129.312	-47.222	0.100	0.048
-128.297	-150.802	0.128	0.010
-127.283	-200.000	-0.010	-0.153
-126.268	107.282	-0.044	-0.051
-125.253	-61.660	-0.014	0.006
-124.239	-57.977	0.191	0.082
-123.224	800.000	-0.092	0.289
-122.210	-127.637	0.355	0.050
-121.195	-107.983	0.186	-0.040
