DTS Sentinel unit serial number:	SN413079Multiplexer serial number:	ORYXHardware model number:	OX4-SRSoftware version number:	ORYX F/W v4.00 Oryx Data Collector v3.7.2.0data status	okinstallation	princeton_trtdifferential loss correction	single-endedforward channel	channel 2reverse channel	N/Adate	2019/09/18time	13:39:35forward acquisition time	60.00reverse acquisition time	0.00gamma	496.2192k internal	0.2319k external	0.2319temperature offset calibration	0.9995default loss term (dB/km)	0.3790temperature slope calibration	1.0000multiplexer offset coefficient	1.0000multiplexer slope coefficient	1.0000fibre end	0.00T internal ref (°C)	34.44T ext. ref 1 (°C)	0.63T ext. ref 2 (°C)	30.53length (m)	temperature (°C)	Stokes	anti-Stokes-747.200	-76.802	0.127	-0.045
-746.185	-200.000	0.059	0.448
-745.171	-21.057	0.190	0.118
-744.156	516.325	0.045	0.107
-743.142	381.907	-0.029	-0.060
-742.127	-200.000	0.093	0.486
-741.112	-100.327	0.118	-0.030
-740.098	-43.356	-0.281	0.144
-739.083	800.000	0.034	-0.128
-738.069	-79.011	-0.190	0.065
-737.054	-200.000	-0.035	0.165
-736.039	-117.735	-0.142	-0.026
-735.025	91.422	-0.093	0.106
-734.010	7.881	-0.440	0.334
-732.996	83.233	0.057	-0.063
-731.981	79.149	-0.179	0.194
-730.966	-10.563	-0.034	0.023
-729.952	76.573	-0.123	0.131
-728.937	-32.552	-0.126	0.071
-727.923	48.975	0.184	0.175
-726.908	-200.000	-0.046	-0.317
-725.894	68.384	0.099	0.103
-724.879	-52.605	-0.189	0.088
-723.864	330.420	0.096	0.187
-722.850	458.312	-0.118	0.265
-721.835	267.455	-0.101	0.179
-720.821	800.000	-0.090	0.393
-719.806	-80.450	-0.459	0.155
-718.791	-62.944	0.138	-0.058
-717.777	94.644	-0.249	-0.287
-716.762	47.302	-0.080	0.075
-715.748	-101.498	-0.372	0.091
-714.733	-111.566	-0.291	-0.060
-713.718	800.000	0.033	0.122
-712.704	222.455	-0.140	0.228
-711.689	-200.000	0.021	-0.150
-710.675	-98.129	0.177	-0.046
-709.660	-200.000	0.068	0.382
-708.645	-74.560	0.282	-0.102
-707.631	-54.924	-0.086	-0.039
-706.616	-125.679	0.118	-0.018
-705.602	534.422	0.074	0.176
-704.587	-58.776	0.275	0.120
-703.572	47.864	-0.067	0.063
-702.558	-143.779	-0.036	0.003
-701.543	-66.972	0.273	-0.109
-700.529	71.977	0.120	0.126
-699.514	-200.000	0.032	-0.153
-698.499	-70.399	-0.346	0.132
-697.485	540.881	-0.042	-0.101
-696.470	678.702	-0.071	-0.187
-695.456	-200.000	-0.033	0.286
-694.441	689.051	-0.042	-0.110
-693.426	-79.620	-0.250	-0.085
-692.412	-187.913	0.523	0.007
-691.397	-200.000	0.028	-0.316
-690.383	-200.000	-0.020	0.137
-689.368	800.000	0.006	-0.020
-688.354	800.000	0.042	0.121
-687.339	-169.148	0.034	0.001
-686.324	-106.986	-0.092	-0.021
-685.310	-12.657	-0.335	-0.221
-684.295	-81.468	-0.227	-0.075
-683.281	-200.000	0.012	-0.203
-682.266	-144.785	-0.165	-0.015
-681.251	414.707	-0.040	-0.085
-680.237	66.568	0.069	0.070
-679.222	800.000	0.023	-0.063
-678.208	800.000	-0.028	-0.107
-677.193	52.442	0.281	0.270
-676.178	647.275	-0.123	0.318
-675.164	6.298	0.174	0.130
-674.149	-119.615	-0.468	0.082
-673.135	42.849	-0.146	0.135
-672.120	800.000	0.044	0.152
-671.105	80.467	-0.124	-0.135
-670.091	-35.601	0.288	-0.158
-669.076	134.445	0.164	-0.215
-668.062	-30.674	-0.319	-0.182
-667.047	-2.586	0.137	-0.096
-666.032	-177.315	-0.138	0.003
-665.018	41.596	-0.070	0.063
-664.003	100.249	0.194	-0.227
-662.989	-12.572	-0.061	-0.040
-661.974	186.456	0.013	-0.019
-660.959	-129.215	-0.329	-0.046
-659.945	-77.585	0.354	0.124
-658.930	-118.614	0.083	0.015
-657.916	800.000	0.006	-0.025
-656.901	95.194	-0.198	0.227
-655.886	9.331	-0.069	0.053
-654.872	-95.381	-0.241	-0.065
-653.857	-200.000	0.012	0.166
-652.843	-200.000	-0.010	0.077
-651.828	800.000	0.052	0.146
-650.814	-59.242	0.226	0.098
-649.799	-6.493	-0.063	-0.043
-648.784	93.370	-0.203	-0.232
-647.770	-200.000	-0.017	0.116
-646.755	-200.000	-0.025	-0.276
-645.741	-73.562	0.460	-0.169
-644.726	12.311	-0.197	-0.153
-643.711	-2.595	0.097	-0.069
-642.697	-55.929	-0.320	-0.144
-641.682	-96.015	0.205	-0.055
-640.668	800.000	-0.049	-0.192
-639.653	-200.000	0.031	0.140
-638.638	800.000	0.061	0.255
-637.624	-25.194	-0.224	0.134
-636.609	800.000	0.024	0.093
-635.595	45.933	0.173	-0.161
-634.580	29.884	0.320	0.275
-633.565	-200.000	-0.046	-0.217
-632.551	-200.000	0.017	-0.121
-631.536	800.000	-0.074	-0.213
-630.522	-118.634	-0.315	0.056
-629.507	-87.511	-0.270	-0.082
-628.492	-115.693	-0.116	-0.022
-627.478	800.000	0.027	-0.109
-626.463	481.438	-0.108	-0.248
-625.449	309.670	-0.101	-0.191
-624.434	-200.000	0.024	0.122
-623.419	-82.741	-0.255	-0.083
-622.405	-54.276	0.379	0.173
-621.390	344.363	-0.065	-0.128
-620.376	-78.348	0.154	-0.053
-619.361	57.111	-0.041	-0.040
-618.346	152.516	-0.061	0.084
-617.332	-78.746	0.113	-0.039
-616.317	-67.401	-0.137	0.054
-615.303	-40.652	-0.088	-0.046
-614.288	-200.000	-0.007	0.039
-613.273	41.041	0.138	0.126
-612.259	329.568	-0.017	-0.033
-611.244	-28.694	-0.272	0.157
-610.230	800.000	0.031	0.122
-609.215	800.000	0.061	0.185
-608.201	-141.341	-0.222	0.023
-607.186	-58.095	-0.406	0.178
-606.171	-106.958	0.321	0.072
-605.157	209.680	-0.173	-0.273
-604.142	221.731	-0.088	0.142
-603.128	61.474	-0.107	0.107
-602.113	87.081	0.183	0.204
-601.098	800.000	0.057	-0.247
-600.084	4.147	-0.224	0.165
-599.069	-107.754	0.181	-0.040
-598.055	151.473	-0.073	0.100
-597.040	105.951	-0.206	-0.245
-596.025	447.131	-0.111	-0.245
-595.011	-106.352	0.163	-0.037
-593.996	-162.570	-0.047	0.002
-592.982	-12.256	0.215	-0.141
-591.967	-200.000	0.034	0.369
-590.952	-58.241	0.127	-0.056
-589.938	-200.000	-0.011	0.082
-588.923	-54.998	0.097	-0.044
-587.909	-200.000	-0.041	0.557
-586.894	-32.049	0.238	0.134
-585.879	123.310	-0.033	-0.041
-584.865	800.000	-0.069	0.257
-583.850	410.447	0.067	-0.142
-582.836	-53.319	0.158	-0.073
-581.821	708.743	0.054	0.143
-580.806	594.420	-0.128	-0.318
-579.792	-138.124	0.296	0.033
-578.777	-10.632	-0.163	0.109
-577.763	-32.508	0.212	-0.119
-576.748	-26.880	-0.146	0.086
-575.733	-200.000	-0.006	-0.166
-574.719	-41.358	-0.255	0.132
-573.704	-199.220	0.148	-0.001
-572.690	-61.337	0.064	0.027
-571.675	-49.097	0.174	0.084
-570.661	-84.312	0.160	0.051
-569.646	239.114	-0.166	0.278
-568.631	800.000	-0.013	-0.053
-567.617	20.598	0.085	0.069
-566.602	91.965	0.072	0.081
-565.588	-200.000	-0.016	-0.271
-564.573	-107.871	0.309	0.068
-563.558	137.364	-0.108	0.142
-562.544	-127.721	-0.363	0.053
-561.529	-59.295	0.193	-0.083
-560.515	-53.793	-0.109	-0.050
-559.500	184.488	0.041	0.062
-558.485	-64.390	0.185	0.075
-557.471	80.091	-0.064	0.069
-556.456	-83.073	0.241	-0.078
-555.442	800.000	-0.078	-0.230
-554.427	-78.291	0.159	0.055
-553.412	-130.665	-0.148	0.020
-552.398	-65.039	-0.124	0.050
-551.383	-73.231	0.260	0.096
-550.369	-76.693	-0.395	0.139
-549.354	282.252	0.087	-0.157
-548.339	54.697	-0.101	0.098
-547.325	800.000	0.049	0.198
-546.310	-79.379	0.126	-0.043
-545.296	548.340	-0.106	-0.256
-544.281	58.226	0.040	-0.039
-543.266	404.979	-0.135	-0.285
-542.252	109.571	0.047	-0.057
-541.237	-23.776	-0.221	-0.133
-540.223	-98.082	0.141	0.036
-539.208	-200.000	-0.017	0.121
-538.193	-97.324	-0.211	-0.055
-537.179	280.857	0.197	-0.353
-536.164	268.717	-0.130	-0.229
-535.150	13.550	0.172	0.134
-534.135	-151.946	-0.114	0.008
-533.121	-147.939	-0.033	-0.003
-532.106	73.463	-0.039	0.041
-531.091	-200.000	-0.033	0.169
-530.077	3.180	0.192	-0.140
-529.062	18.378	0.265	-0.213
-528.048	394.455	-0.067	0.140
-527.033	-114.673	-0.230	-0.044
-526.018	-173.995	0.172	0.005
-525.004	-17.804	-0.135	-0.085
-523.989	-14.266	-0.059	0.038
-522.975	606.610	-0.072	0.181
-521.960	372.825	0.151	0.308
-520.945	-12.084	-0.182	-0.119
-519.931	-200.000	-0.059	0.388
-518.916	72.392	-0.125	-0.131
-517.902	145.025	-0.238	-0.319
-516.887	-110.237	-0.074	0.015
-515.872	-121.581	-0.323	0.054
-514.858	30.125	-0.042	-0.036
-513.843	-46.635	-0.181	-0.089
-512.829	144.218	0.104	-0.140
-511.814	125.767	0.209	-0.265
-510.799	342.809	-0.128	-0.250
-509.785	-102.428	-0.264	-0.063
-508.770	-14.226	-0.149	-0.096
-507.756	437.150	-0.140	-0.305
-506.741	800.000	-0.058	-0.184
-505.726	409.835	-0.060	-0.128
-504.712	30.405	0.097	-0.083
-503.697	-200.000	-0.001	0.182
-502.683	-90.627	0.233	-0.067
-501.668	-200.000	0.015	-0.088
-500.653	80.943	0.243	-0.262
-499.639	144.933	-0.124	-0.166
-498.624	-200.000	0.029	-0.168
-497.610	-116.270	0.145	-0.027
-496.595	-104.192	0.160	-0.037
-495.581	44.897	-0.086	-0.079
-494.566	-200.000	0.056	0.247
-493.551	-104.568	0.054	0.013
-492.537	120.057	-0.122	0.152
-491.522	523.211	0.038	-0.088
-490.508	-116.534	-0.071	0.013
-489.493	-190.548	0.154	0.002
-488.478	800.000	0.114	0.364
-487.464	-87.836	0.265	0.080
-486.449	58.762	-0.129	-0.127
-485.435	-155.016	0.505	-0.033
-484.420	-166.128	-0.146	0.006
-483.405	-54.324	-0.407	-0.185
-482.391	67.224	0.117	-0.120
-481.376	-200.000	-0.047	0.248
-480.362	97.139	0.280	0.321
-479.347	99.065	0.147	-0.170
-478.332	572.574	0.103	0.252
-477.318	373.543	-0.168	-0.342
-476.303	151.308	0.163	-0.222
-475.289	86.078	0.104	0.114
-474.274	-76.806	-0.200	-0.070
-473.259	265.744	-0.229	-0.400
-472.245	-68.186	0.139	0.054
-471.230	83.457	-0.241	-0.263
-470.216	61.629	0.198	-0.198
-469.201	-200.000	-0.043	-0.302
-468.186	-129.426	-0.483	0.067
-467.172	-97.910	-0.328	-0.085
-466.157	407.118	0.011	0.023
-465.143	4.837	0.101	-0.075
-464.128	-200.000	-0.036	0.185
-463.113	55.576	-0.266	0.257
-462.099	313.953	-0.109	-0.206
-461.084	330.921	0.183	0.353
-460.070	-54.523	0.172	-0.078
-459.055	68.102	-0.062	-0.063
-458.040	-90.293	-0.257	-0.075
-457.026	-41.706	0.132	0.068
-456.011	-45.949	0.105	0.052
-454.997	31.155	0.198	-0.170
-453.982	-79.874	-0.248	0.084
-452.968	162.327	-0.068	0.096
-451.953	423.269	-0.204	0.439
-450.938	116.424	0.264	0.323
-449.924	-55.062	-0.246	0.111
-448.909	209.845	0.143	0.225
-447.895	480.538	0.008	-0.019
-446.880	-66.721	0.446	-0.177
-445.865	-70.363	-0.176	0.067
-444.851	267.038	0.039	-0.068
-443.836	800.000	0.088	0.291
-442.822	412.446	0.106	-0.225
-441.807	18.416	-0.062	0.050
-440.792	-200.000	-0.008	0.110
-439.778	430.003	0.151	0.326
-438.763	800.000	0.085	-0.244
-437.749	353.185	-0.011	-0.022
-436.734	-200.000	-0.051	-0.417
-435.719	-200.000	0.057	-0.460
-434.705	-104.313	0.074	0.017
-433.690	-200.000	-0.024	-0.333
-432.676	386.561	0.120	-0.247
-431.661	49.998	0.146	-0.138
-430.646	-130.671	0.149	-0.020
-429.632	800.000	-0.108	0.309
-428.617	-22.753	-0.082	-0.050
-427.603	16.724	0.253	0.200
-426.588	526.779	0.168	0.396
-425.573	119.362	0.014	-0.018
-424.559	-71.579	0.174	0.065
-423.544	83.124	-0.152	-0.165
-422.530	-82.659	-0.051	0.017
-421.515	31.948	0.120	0.104
-420.500	-28.084	0.194	-0.112
-419.486	-84.003	0.040	0.013
-418.471	800.000	0.022	0.067
-417.457	-123.718	0.198	-0.031
-416.442	117.533	-0.112	-0.137
-415.428	-61.845	0.147	0.061
-414.413	-30.200	-0.347	-0.197
-413.398	14.629	0.329	0.257
-412.384	26.597	0.096	-0.080
-411.369	-91.609	-0.061	0.017
-410.355	-152.953	-0.406	-0.029
-409.340	-200.000	0.022	0.134
-408.325	-200.000	0.006	-0.067
-407.311	-152.551	-0.164	0.012
-406.296	800.000	0.130	-0.370
-405.282	800.000	-0.062	0.239
-404.267	272.349	-0.130	0.228
-403.252	233.516	0.146	0.240
-402.238	151.020	0.051	0.069
-401.223	-200.000	0.009	-0.123
-400.209	-29.776	0.205	0.117
-399.194	113.832	0.148	0.180
-398.179	-200.000	-0.057	-0.442
-397.165	-10.458	-0.160	0.106
-396.150	-90.384	0.426	0.123
-395.136	-147.394	0.428	0.036
-394.121	61.051	0.146	-0.144
-393.106	11.075	-0.181	0.138
-392.092	396.156	0.083	-0.174
-391.077	81.315	0.151	-0.163
-390.063	800.000	-0.056	-0.191
-389.048	-200.000	-0.034	-0.211
-388.033	22.023	-0.107	0.087
-387.019	122.291	-0.154	0.192
-386.004	-67.616	-0.136	-0.053
-384.990	-200.000	0.013	-0.150
-383.975	156.819	0.122	-0.169
-382.960	109.709	0.231	0.276
-381.946	248.777	0.170	0.287
-380.931	-14.230	-0.349	0.224
-379.917	60.342	-0.075	0.074
-378.902	-81.537	0.079	-0.026
-377.888	800.000	-0.087	-0.280
-376.873	382.302	-0.039	0.081
-375.858	-58.737	-0.052	0.022
-374.844	-182.071	0.287	-0.005
-373.829	9.414	0.171	-0.129
-372.815	83.047	-0.232	0.252
-371.800	-73.304	-0.334	-0.122
-370.785	-200.000	-0.028	0.210
-369.771	201.417	0.154	0.236
-368.756	-129.886	-0.119	-0.016
-367.742	62.490	0.174	0.173
-366.727	28.139	-0.054	-0.046
-365.712	-98.915	0.310	-0.078
-364.698	800.000	0.093	-0.343
-363.683	-200.000	0.028	0.438
-362.669	207.854	-0.114	-0.178
-361.654	-110.885	-0.140	0.029
-360.639	22.984	-0.265	0.216
-359.625	202.595	0.241	0.370
-358.610	196.561	-0.168	-0.255
-357.596	-166.134	0.331	0.014
-356.581	7.337	0.153	-0.114
-355.566	-66.970	-0.240	-0.095
-354.552	-59.925	-0.279	0.119
-353.537	-200.000	-0.015	-0.255
-352.523	78.511	-0.045	0.047
-351.508	-137.324	-0.231	-0.026
-350.493	800.000	-0.111	0.312
-349.479	-135.008	0.381	0.046
-348.464	-2.131	0.104	0.073
-347.450	-200.000	-0.029	-0.193
-346.435	-41.957	-0.126	-0.064
-345.420	-200.000	0.018	0.138
-344.406	-56.052	0.066	0.029
-343.391	42.353	0.118	-0.107
-342.377	-14.329	0.366	-0.235
-341.362	418.409	-0.171	0.364
-340.348	-135.685	-0.152	0.018
-339.333	-101.115	-0.228	0.056
-338.318	42.813	0.037	-0.034
-337.304	-200.000	-0.041	-0.331
-336.289	120.785	-0.078	0.097
-335.275	-7.143	0.275	0.186
-334.260	184.347	-0.096	-0.142
-333.245	83.639	-0.186	-0.202
-332.231	-51.807	-0.120	0.055
-331.216	-200.000	-0.002	0.014
-330.202	25.661	0.236	0.195
-329.187	641.310	0.149	0.379
-328.172	-144.190	-0.118	0.011
-327.158	14.464	0.158	0.122
-326.143	360.525	0.204	-0.406
-325.129	-46.525	-0.266	0.130
-324.114	541.300	0.069	0.164
-323.099	5.280	0.221	0.162
-322.085	-115.311	0.176	-0.033
-321.070	-5.805	-0.257	0.175
-320.056	-45.823	0.259	-0.127
-319.041	-28.935	0.113	-0.064
-318.026	-78.655	0.025	-0.008
-317.012	800.000	-0.056	0.153
-315.997	-133.252	0.088	0.011
-314.983	800.000	0.142	0.397
-313.968	800.000	-0.053	0.164
-312.953	800.000	0.119	0.410
-311.939	490.402	0.105	0.238
-310.924	-50.956	-0.078	0.036
-309.910	595.709	0.139	0.343
-308.895	-200.000	-0.003	0.163
-307.880	-5.011	0.155	0.106
-306.866	800.000	0.026	-0.098
-305.851	-9.181	-0.104	-0.069
-304.837	28.285	0.136	-0.114
-303.822	36.191	-0.201	-0.176
-302.807	-27.913	-0.066	0.038
-301.793	-200.000	-0.037	0.164
-300.778	412.282	-0.080	-0.168
-299.764	285.991	-0.142	-0.255
-298.749	-71.476	-0.139	0.052
-297.735	296.823	-0.144	0.262
-296.720	-200.000	-0.007	0.244
-295.705	-77.196	0.110	0.038
-294.691	18.743	-0.171	-0.136
-293.676	618.498	-0.037	-0.092
-292.662	-200.000	-0.029	0.253
-291.647	-36.179	0.012	0.006
-290.632	159.163	-0.158	0.218
-289.618	-200.000	-0.018	0.209
-288.603	800.000	0.043	0.144
-287.589	-200.000	0.015	0.073
-286.574	-124.222	-0.115	0.018
-285.559	32.429	-0.295	0.253
-284.545	-70.657	-0.289	0.108
-283.530	145.305	-0.074	-0.099
-282.516	-107.989	-0.291	0.063
-281.501	-66.659	0.210	0.083
-280.486	732.944	-0.173	-0.459
-279.472	-5.806	-0.148	-0.100
-278.457	-200.000	-0.045	0.214
-277.443	-200.000	0.001	0.111
-276.428	132.320	0.216	0.276
-275.413	654.291	0.030	0.077
-274.399	800.000	-0.074	0.230
-273.384	-55.250	0.101	0.045
-272.370	-69.297	-0.321	-0.123
-271.355	137.059	-0.315	-0.408
-270.340	-58.645	-0.205	-0.088
-269.326	-59.467	-0.094	-0.040
-268.311	455.181	-0.145	0.319
-267.297	-23.198	0.196	-0.117
-266.282	391.413	0.055	0.114
-265.267	800.000	-0.035	-0.149
-264.253	304.045	0.044	-0.082
-263.238	123.450	0.019	0.024
-262.224	-93.361	0.150	-0.041
-261.209	171.095	0.214	-0.305
-260.195	-200.000	0.030	-0.172
-259.180	-200.000	-0.027	-0.196
-258.165	800.000	-0.059	0.256
-257.151	465.857	0.063	-0.141
-256.136	-168.090	0.241	-0.009
-255.122	-169.709	-0.143	0.005
-254.107	322.231	0.152	0.287
-253.092	15.061	0.059	-0.046
-252.078	579.067	0.106	-0.259
-251.063	-200.000	0.035	-0.240
-250.049	-185.496	0.185	-0.003
-249.034	138.478	-0.088	0.114
-248.019	267.041	-0.026	-0.046
-247.005	800.000	-0.107	-0.387
-245.990	-200.000	-0.030	-0.155
-244.976	62.851	0.207	-0.206
-243.961	-200.000	-0.036	0.450
-242.946	112.813	-0.105	0.126
-241.932	131.982	-0.168	-0.215
-240.917	800.000	0.140	0.452
-239.903	-142.196	0.095	0.009
-238.888	116.871	-0.150	0.182
-237.873	109.548	0.176	-0.210
-236.859	-26.382	-0.130	-0.076
-235.844	111.568	-0.017	-0.020
-234.830	711.474	-0.103	0.271
-233.815	-107.548	-0.181	-0.039
-232.800	73.578	0.230	-0.239
-231.786	800.000	0.049	0.195
-230.771	-11.400	-0.198	-0.129
-229.757	-86.297	-0.294	-0.090
-228.742	-13.027	0.398	0.257
-227.727	254.044	-0.148	0.250
-226.713	139.641	-0.123	-0.161
-225.698	-81.809	0.165	-0.054
-224.684	-200.000	0.022	-0.162
-223.669	-87.694	-0.151	0.045
-222.655	-25.720	0.151	0.088
-221.640	-158.983	0.338	0.019
-220.625	-200.000	0.013	0.072
-219.611	595.651	0.123	0.302
-218.596	-200.000	0.025	-0.200
-217.582	-200.000	0.010	-0.174
-216.567	-200.000	-0.160	0.000
-215.552	-67.658	-0.086	-0.034
-214.538	27.755	-0.343	-0.286
-213.523	237.569	0.110	-0.180
-212.509	48.965	0.230	0.214
-211.494	800.000	0.078	0.231
-210.479	293.959	0.142	0.256
-209.465	-58.387	-0.125	-0.054
-208.450	516.567	0.127	0.293
-207.436	127.447	0.195	0.246
-206.421	-91.923	-0.349	-0.098
-205.406	-200.000	-0.076	0.346
-204.392	-200.000	-0.005	-0.032
-203.377	3.784	0.218	0.158
-202.363	-36.184	0.084	-0.045
-201.348	-200.000	0.038	-0.170
-200.333	13.073	-0.270	-0.207
-199.319	-98.632	0.071	-0.018
-198.304	-72.581	-0.169	0.062
-197.290	-162.975	0.213	-0.010
-196.275	-22.160	0.289	0.174
-195.260	-76.106	-0.260	-0.091
-194.246	-166.349	-0.311	-0.013
-193.231	255.822	-0.067	-0.114
-192.217	800.000	0.042	-0.146
-191.202	-200.000	-0.011	-0.256
-190.187	800.000	-0.056	0.158
-189.173	107.676	-0.141	-0.166
-188.158	-200.000	-0.059	-0.461
-187.144	86.374	-0.160	-0.175
-186.129	-200.000	-0.005	-0.319
-185.114	659.703	0.011	-0.027
-184.100	12.922	-0.267	-0.204
-183.085	800.000	-0.033	0.130
-182.071	-111.090	0.110	0.022
-181.056	-118.842	-0.022	0.004
-180.042	-106.340	0.354	0.078
-179.027	-200.000	-0.000	0.563
-178.012	-121.277	0.112	0.019
-176.998	800.000	-0.009	0.035
-175.983	-200.000	-0.025	-0.163
-174.969	-121.445	-0.251	-0.041
-173.954	-77.193	0.117	-0.040
-172.939	800.000	0.111	-0.338
-171.925	584.840	-0.081	-0.198
-170.910	-133.918	-0.268	0.033
-169.896	662.447	-0.112	-0.285
-168.881	-200.000	0.025	0.224
-167.866	-164.283	-0.289	-0.013
-166.852	718.266	0.219	0.574
-165.837	-98.878	-0.211	0.053
-164.823	501.805	-0.086	-0.196
-163.808	134.539	0.270	-0.347
-162.793	635.969	-0.156	-0.392
-161.779	-73.988	0.120	-0.043
-160.764	-200.000	0.015	-0.220
-159.750	292.955	-0.026	0.046
-158.735	-28.862	0.263	-0.149
-157.720	-178.853	0.240	-0.005
-156.706	-104.768	0.048	-0.011
-155.691	158.112	-0.178	0.243
-154.677	165.216	0.049	0.069
-153.662	51.142	0.149	-0.139
-152.647	-200.000	0.048	0.332
-151.633	-140.268	0.452	-0.047
-150.618	-133.221	0.212	0.026
-149.604	646.064	0.024	0.062
-148.589	-12.803	0.198	0.128
-147.574	-200.000	0.266	0.000
-146.560	800.000	-0.056	0.174
-145.545	-155.809	0.388	0.024
-144.531	-7.225	-0.177	-0.118
-143.516	-200.000	-0.059	0.438
-142.502	-200.000	-0.060	0.304
-141.487	-134.608	0.255	0.031
-140.472	-200.000	0.001	0.160
-139.458	-2.853	0.041	-0.028
-138.443	206.161	-0.110	-0.169
-137.429	-200.000	-0.042	-0.300
-136.414	65.902	-0.089	-0.089
-135.399	160.154	0.139	0.191
-134.385	51.955	-0.155	-0.146
-133.370	800.000	0.055	-0.184
-132.356	-200.000	0.005	0.025
-131.341	94.090	0.129	0.145
-130.326	33.165	-0.442	-0.379
-129.312	-118.918	0.250	0.043
-128.297	118.416	-0.132	0.161
-127.283	322.320	0.060	-0.112
-126.268	29.705	-0.036	-0.031
-125.253	800.000	-0.018	0.063
-124.239	273.182	0.111	-0.193
-123.224	750.602	0.172	0.458
-122.210	-98.908	-0.166	-0.042
-121.195	35.016	-0.278	-0.240
