DTS Sentinel unit serial number:	SN413079Multiplexer serial number:	ORYXHardware model number:	OX4-SRSoftware version number:	ORYX F/W v4.00 Oryx Data Collector v3.7.2.0data status	okinstallation	princeton_trtdifferential loss correction	single-endedforward channel	channel 2reverse channel	N/Adate	2019/09/18time	22:55:35forward acquisition time	60.00reverse acquisition time	0.00gamma	496.2192k internal	0.2349k external	0.2349temperature offset calibration	1.0019default loss term (dB/km)	0.3790temperature slope calibration	1.0000multiplexer offset coefficient	1.0000multiplexer slope coefficient	1.0000fibre end	0.00T internal ref (°C)	24.06T ext. ref 1 (°C)	0.78T ext. ref 2 (°C)	17.99length (m)	temperature (°C)	Stokes	anti-Stokes-747.200	-125.998	0.160	-0.024
-746.185	-166.209	-0.286	0.012
-745.171	283.796	-0.078	0.139
-744.156	-169.766	-0.167	0.006
-743.142	-92.011	0.095	-0.027
-742.127	17.822	-0.262	0.208
-741.112	140.287	-0.130	-0.171
-740.098	230.338	0.132	0.215
-739.083	-89.669	-0.253	-0.074
-738.069	-120.561	-0.181	0.031
-737.054	-200.000	0.047	0.307
-736.039	317.669	-0.073	-0.138
-735.025	-64.684	0.399	-0.161
-734.010	150.489	-0.173	-0.235
-732.996	-94.610	-0.083	0.022
-731.981	-200.000	-0.063	-0.348
-730.966	-159.401	0.113	0.006
-729.952	38.211	0.258	-0.230
-728.937	327.701	-0.102	-0.196
-727.923	492.267	-0.066	0.150
-726.908	-200.000	-0.010	-0.156
-725.894	800.000	-0.103	-0.319
-724.879	-200.000	0.008	-0.205
-723.864	229.262	-0.145	0.236
-722.850	800.000	0.057	-0.229
-721.835	-114.150	-0.071	-0.014
-720.821	411.869	0.010	-0.022
-719.806	-152.165	-0.173	-0.013
-718.791	42.184	0.145	-0.132
-717.777	-79.061	-0.117	0.040
-716.762	-44.480	0.169	0.085
-715.748	-45.726	-0.187	-0.092
-714.733	201.801	-0.206	0.316
-713.718	800.000	0.058	-0.183
-712.704	800.000	-0.056	0.204
-711.689	-115.921	0.098	-0.018
-710.675	51.163	-0.175	-0.166
-709.660	237.418	0.201	0.332
-708.645	-10.085	0.068	0.045
-707.631	-75.997	-0.261	-0.092
-706.616	-200.000	-0.039	-0.393
-705.602	-20.668	0.315	-0.193
-704.587	-4.352	0.162	-0.112
-703.572	-136.018	0.131	-0.015
-702.558	92.788	-0.117	0.132
-701.543	333.639	0.130	-0.251
-700.529	429.190	0.061	-0.132
-699.514	-37.952	0.120	-0.064
-698.499	-200.000	0.043	-0.275
-697.485	75.893	0.027	0.028
-696.470	-19.049	-0.084	-0.052
-695.456	3.573	0.147	0.107
-694.441	274.268	0.114	-0.202
-693.426	-89.410	-0.175	0.051
-692.412	-22.204	-0.144	0.087
-691.397	800.000	-0.049	0.158
-690.383	-146.387	0.356	0.031
-689.368	-200.000	0.006	-0.108
-688.354	-96.590	-0.210	0.055
-687.339	154.769	-0.293	0.402
-686.324	299.278	-0.127	0.232
-685.310	316.134	0.042	-0.080
-684.295	451.001	0.056	-0.124
-683.281	-200.000	-0.016	-0.300
-682.266	-13.530	-0.064	0.042
-681.251	-147.002	-0.074	0.006
-680.237	170.344	0.043	-0.061
-679.222	589.409	0.068	-0.166
-678.208	-27.329	0.124	-0.072
-677.193	746.781	0.056	-0.149
-676.178	330.528	-0.124	0.237
-675.164	544.355	-0.034	-0.080
-674.149	-200.000	0.065	0.377
-673.135	-22.429	-0.332	0.200
-672.120	-133.284	0.325	0.041
-671.105	253.481	-0.092	-0.157
-670.091	-200.000	0.001	-0.028
-669.076	-55.449	0.150	-0.067
-668.062	-200.000	-0.067	-0.502
-667.047	265.773	-0.016	0.027
-666.032	-200.000	-0.044	-0.281
-665.018	-88.862	-0.052	-0.015
-664.003	-26.308	0.145	0.085
-662.989	229.191	0.109	-0.177
-661.974	800.000	0.065	0.208
-660.959	158.724	-0.120	-0.166
-659.945	-28.556	-0.164	-0.094
-658.930	-200.000	0.061	0.271
-657.916	515.422	-0.031	0.072
-656.901	156.220	-0.064	-0.088
-655.886	-120.640	0.194	0.033
-654.872	-42.088	0.293	-0.149
-653.857	-200.000	0.032	0.223
-652.843	-200.000	0.011	-0.174
-651.828	287.006	0.101	-0.182
-650.814	-156.850	0.130	-0.008
-649.799	-109.962	-0.277	-0.058
-648.784	-200.000	-0.000	-0.141
-647.770	12.758	-0.189	-0.145
-646.755	-115.616	-0.304	-0.057
-645.741	-108.105	-0.248	0.053
-644.726	-89.337	0.172	0.050
-643.711	-77.171	-0.247	0.085
-642.697	-133.269	0.135	-0.017
-641.682	-200.000	-0.057	0.439
-640.668	177.048	0.118	-0.170
-639.653	-139.665	-0.327	-0.035
-638.638	-200.000	-0.002	0.010
-637.624	83.593	-0.234	0.254
-636.609	114.820	0.233	-0.283
-635.595	800.000	-0.092	-0.309
-634.580	110.333	-0.069	0.082
-633.565	-61.981	0.105	-0.044
-632.551	-200.000	0.023	0.184
-631.536	-126.757	-0.449	-0.066
-630.522	-32.205	0.234	0.130
-629.507	-33.780	-0.184	0.101
-628.492	63.757	0.255	-0.254
-627.478	585.226	0.151	-0.369
-626.463	-106.205	-0.389	0.087
-625.449	246.155	-0.216	0.362
-624.434	-30.388	0.026	-0.014
-623.419	-200.000	0.117	-0.554
-622.405	8.523	0.127	0.095
-621.390	-96.991	0.150	-0.039
-620.376	159.722	-0.098	-0.136
-619.361	800.000	-0.084	0.329
-618.346	631.837	-0.177	0.444
-617.332	800.000	-0.020	-0.058
-616.317	119.600	-0.047	-0.058
-615.303	-200.000	-0.021	0.240
-614.288	522.382	-0.089	-0.208
-613.273	-46.771	0.044	0.021
-612.259	-63.585	-0.161	0.066
-611.244	-10.770	0.173	0.114
-610.230	-1.232	-0.147	0.103
-609.215	43.167	-0.133	0.121
-608.201	-44.515	0.204	-0.101
-607.186	11.701	-0.233	0.177
-606.171	-155.839	0.036	0.002
-605.157	-16.286	-0.189	0.119
-604.142	-200.000	-0.024	0.118
-603.128	-200.000	0.020	0.117
-602.113	-13.739	-0.033	-0.021
-601.098	-200.000	-0.308	0.001
-600.084	4.980	-0.111	0.081
-599.069	-60.571	-0.119	0.050
-598.055	800.000	-0.125	0.408
-597.040	132.824	-0.165	-0.211
-596.025	-176.699	0.119	-0.003
-595.011	70.261	0.183	0.188
-593.996	100.180	-0.136	-0.157
-592.982	-140.502	-0.274	-0.028
-591.967	211.192	-0.075	-0.117
-590.952	-200.000	0.033	0.230
-589.938	-67.886	-0.126	-0.049
-588.923	-200.000	-0.053	-0.245
-587.909	-200.000	-0.062	0.276
-586.894	-156.596	-0.100	-0.006
-585.879	-143.641	0.171	0.016
-584.865	-86.275	-0.248	0.076
-583.850	213.670	-0.130	0.205
-582.836	195.375	0.029	-0.044
-581.821	403.631	0.027	-0.056
-580.806	28.408	-0.188	-0.158
-579.792	239.841	-0.160	-0.265
-578.777	-200.000	0.002	0.170
-577.763	-200.000	0.135	-0.001
-576.748	89.804	0.041	-0.046
-575.733	-113.995	-0.269	0.052
-574.719	57.267	-0.018	0.018
-573.704	-131.422	0.477	0.063
-572.690	36.068	-0.383	0.334
-571.675	-87.850	0.039	0.012
-570.661	36.510	-0.199	-0.174
-569.646	-75.265	-0.147	0.052
-568.631	-26.897	0.175	0.101
-567.617	-19.143	-0.167	-0.103
-566.602	-96.709	-0.304	0.079
-565.588	-104.783	-0.132	0.030
-564.573	-128.939	0.086	-0.012
-563.558	-70.010	-0.236	0.089
-562.544	-158.651	0.193	0.011
-561.529	505.422	-0.129	-0.297
-560.515	-63.349	0.220	-0.090
-559.500	2.975	-0.165	0.119
-558.485	-200.000	0.014	0.131
-557.471	-190.487	-0.075	-0.001
-556.456	-200.000	-0.003	0.052
-555.442	-18.331	0.282	0.175
-554.427	-77.779	0.162	-0.056
-553.412	-26.352	0.274	0.159
-552.398	-130.834	-0.111	0.015
-551.383	255.711	0.047	0.080
-550.369	800.000	-0.054	-0.218
-549.354	-97.472	0.303	0.078
-548.339	-88.662	-0.301	-0.089
-547.325	-144.326	-0.329	0.030
-546.310	-200.000	-0.019	-0.179
-545.296	800.000	-0.070	0.198
-544.281	-200.000	-0.042	-0.387
-543.266	-200.000	-0.011	0.059
-542.252	225.740	-0.030	0.048
-541.237	134.761	-0.098	0.126
-540.223	800.000	-0.010	-0.030
-539.208	36.085	-0.171	0.150
-538.193	-0.542	0.147	-0.104
-537.179	175.660	0.101	0.145
-536.164	64.176	-0.167	-0.167
-535.150	-34.116	-0.042	0.023
-534.135	11.423	0.346	0.262
-533.121	341.315	-0.128	-0.248
-532.106	-48.173	0.248	0.119
-531.091	-200.000	-0.003	-0.097
-530.077	72.016	-0.241	-0.248
-529.062	166.573	0.242	0.340
-528.048	155.411	0.206	0.281
-527.033	-49.405	-0.182	0.086
-526.018	564.510	-0.114	0.273
-525.004	599.354	-0.181	-0.445
-523.989	-200.000	-0.058	-0.339
-522.975	-157.285	-0.306	-0.018
-521.960	-96.064	0.394	0.104
-520.945	-200.000	0.061	0.267
-519.931	800.000	-0.042	-0.155
-518.916	256.859	0.037	-0.063
-517.902	-56.401	0.079	-0.035
-516.887	-76.519	-0.363	0.126
-515.872	-200.000	-0.011	-0.062
-514.858	594.367	-0.025	-0.060
-513.843	800.000	0.023	-0.099
-512.829	800.000	0.063	0.177
-511.814	-155.320	0.068	0.004
-510.799	-200.000	0.058	-0.000
-509.785	800.000	0.074	-0.227
-508.770	-19.427	-0.110	-0.068
-507.756	166.545	0.097	0.136
-506.741	9.335	0.080	-0.060
-505.726	-115.962	-0.246	0.045
-504.712	442.845	0.073	-0.159
-503.697	-129.222	0.248	0.034
-502.683	534.569	0.130	0.304
-501.668	-56.200	-0.288	-0.127
-500.653	-97.718	0.036	-0.009
-499.639	-32.525	0.433	-0.239
-498.624	-59.053	0.053	0.023
-497.610	800.000	0.163	-0.477
-496.595	-200.000	-0.017	-0.279
-495.581	-35.234	0.270	-0.146
-494.566	-78.554	-0.172	0.058
-493.551	254.666	0.135	-0.229
-492.537	-42.246	0.159	-0.080
-491.522	-200.000	-0.018	-0.103
-490.508	-200.000	0.003	-0.061
-489.493	-41.236	-0.100	0.051
-488.478	-39.779	0.086	0.044
-487.464	-200.000	-0.037	-0.330
-486.449	-54.302	-0.198	-0.089
-485.435	-200.000	-0.073	-0.337
-484.420	25.676	0.123	-0.102
-483.405	733.488	-0.138	-0.364
-482.391	-15.382	0.076	0.048
-481.376	406.379	0.101	0.210
-480.362	176.167	0.170	-0.244
-479.347	-200.000	-0.034	-0.227
-478.332	-106.889	-0.294	-0.064
-477.318	-130.577	-0.098	0.013
-476.303	-71.674	0.243	0.090
-475.289	-75.074	-0.121	0.043
-474.274	189.702	0.133	-0.198
-473.259	-41.904	0.044	0.022
-472.245	-150.488	-0.297	0.022
-471.230	800.000	-0.054	0.231
-470.216	-108.649	-0.410	-0.087
-469.201	136.002	0.070	-0.090
-468.186	98.869	0.259	-0.296
-467.172	-9.618	-0.198	0.130
-466.157	264.257	0.017	-0.030
-465.143	-200.000	-0.023	0.242
-464.128	-160.682	-0.146	0.008
-463.113	68.271	0.037	-0.037
-462.099	-79.775	-0.295	-0.098
-461.084	147.923	-0.189	0.251
-460.070	120.214	-0.147	0.181
-459.055	40.426	-0.076	0.068
-458.040	-84.393	0.261	-0.081
-457.026	-170.331	-0.076	-0.003
-456.011	13.025	-0.224	0.171
-454.997	51.777	0.277	-0.260
-453.982	800.000	-0.031	0.131
-452.968	-200.000	0.019	0.197
-451.953	30.601	-0.027	-0.023
-450.938	7.756	-0.397	0.293
-449.924	-64.659	0.126	0.050
-448.909	-81.520	0.296	0.096
-447.895	141.878	-0.071	-0.093
-446.880	42.926	-0.201	0.181
-445.865	19.677	0.183	-0.146
-444.851	79.450	0.102	0.108
-443.836	-32.336	0.202	0.111
-442.822	82.175	0.198	0.212
-441.807	205.559	0.142	-0.218
-440.792	-200.000	-0.002	0.342
-439.778	335.486	0.166	-0.318
-438.763	571.017	0.019	0.046
-437.749	708.329	0.125	-0.325
-436.734	800.000	0.020	-0.080
-435.719	-113.794	-0.325	-0.062
-434.705	-31.129	-0.152	-0.084
-433.690	723.421	-0.019	0.050
-432.676	50.499	-0.080	0.074
-431.661	9.011	-0.354	-0.264
-430.646	-77.390	-0.164	-0.056
-429.632	800.000	0.049	0.168
-428.617	-200.000	0.008	-0.237
-427.603	67.997	-0.149	-0.151
-426.588	98.180	0.248	-0.282
-425.573	-200.000	0.017	-0.300
-424.559	64.877	-0.164	0.164
-423.544	352.456	-0.088	0.173
-422.530	-44.789	-0.254	-0.125
-421.515	132.675	0.233	-0.296
-420.500	-200.000	0.026	0.215
-419.486	-87.229	0.314	0.094
-418.471	-123.913	-0.128	0.020
-417.457	-200.000	-0.035	0.194
-416.442	800.000	0.056	0.242
-415.428	534.163	-0.045	-0.105
-414.413	-84.702	-0.194	-0.060
-413.398	800.000	0.093	-0.260
-412.384	99.925	0.236	0.270
-411.369	-91.700	-0.191	-0.054
-410.355	-200.000	0.000	0.184
-409.340	10.123	0.177	0.133
-408.325	-146.676	-0.170	-0.014
-407.311	-118.611	-0.270	-0.047
-406.296	46.807	0.141	-0.129
-405.282	-42.368	0.266	0.134
-404.267	-154.348	-0.313	-0.021
-403.252	-63.039	0.154	0.063
-402.238	241.434	0.047	-0.078
-401.223	800.000	0.089	-0.319
-400.209	279.814	-0.016	-0.028
-399.194	-200.000	-0.049	-0.273
-398.179	73.552	0.087	0.089
-397.165	-41.466	0.174	0.088
-396.150	731.607	-0.044	0.116
-395.136	-42.429	-0.019	-0.010
-394.121	800.000	-0.081	0.280
-393.106	-200.000	-0.014	0.384
-392.092	-57.549	0.288	0.124
-391.077	800.000	-0.071	0.240
-390.063	89.184	-0.100	-0.110
-389.048	-76.856	-0.325	-0.112
-388.033	391.793	-0.046	-0.094
-387.019	800.000	0.045	0.176
-386.004	-44.438	-0.234	0.115
-384.990	-123.559	-0.178	-0.028
-383.975	-64.397	0.187	-0.075
-382.960	-200.000	-0.003	0.113
-381.946	-200.000	-0.017	0.212
-380.931	-200.000	-0.042	0.349
-379.917	800.000	0.057	0.207
-378.902	13.211	0.123	-0.093
-377.888	374.134	-0.086	-0.172
-376.873	192.075	0.031	-0.045
-375.858	455.128	-0.048	0.105
-374.844	94.231	-0.242	-0.270
-373.829	800.000	0.061	-0.189
-372.815	-34.254	0.205	0.111
-371.800	426.521	0.129	-0.274
-370.785	-200.000	-0.035	0.268
-369.771	38.590	0.242	0.212
-368.756	65.000	0.154	-0.153
-367.742	-114.613	-0.280	0.053
-366.727	68.265	-0.173	-0.174
-365.712	107.114	0.087	-0.101
-364.698	128.283	0.361	0.452
-363.683	664.546	0.172	0.437
-362.669	-124.263	0.238	-0.037
-361.654	117.798	0.052	0.062
-360.639	-12.656	-0.066	0.043
-359.625	12.858	-0.212	-0.161
-358.610	-43.339	0.112	-0.056
-357.596	-46.538	0.238	0.115
-356.581	115.589	-0.068	-0.082
-355.566	800.000	-0.046	0.136
-354.552	800.000	-0.053	0.163
-353.537	402.939	0.114	0.236
-352.523	-28.165	0.137	0.078
-351.508	-139.458	-0.316	0.033
-350.493	-177.387	-0.120	0.003
-349.479	800.000	0.013	0.040
-348.464	479.416	0.138	-0.307
-347.450	22.605	0.154	-0.124
-346.435	158.754	-0.179	0.244
-345.420	-108.017	-0.423	-0.090
-344.406	99.195	0.023	0.026
-343.391	-108.995	0.194	-0.041
-342.377	262.887	0.116	0.198
-341.362	301.684	-0.045	-0.082
-340.348	-200.000	0.064	-0.279
-339.333	-200.000	0.004	0.067
-338.318	-157.650	0.327	-0.019
-337.304	69.820	-0.245	0.248
-336.289	-110.761	-0.299	-0.061
-335.275	725.367	0.052	-0.135
-334.260	-164.803	0.106	0.005
-333.245	-119.458	0.301	-0.051
-332.231	800.000	-0.075	-0.300
-331.216	-134.171	-0.085	-0.010
-330.202	411.467	-0.062	-0.130
-329.187	253.623	0.238	-0.400
-328.172	-199.830	0.316	0.002
-327.158	161.602	0.102	-0.141
-326.143	73.959	-0.297	-0.306
-325.129	266.890	-0.153	-0.263
-324.114	258.774	-0.206	-0.348
-323.099	227.597	-0.097	0.155
-322.085	-35.581	0.048	0.026
-321.070	-51.923	-0.317	-0.145
-320.056	21.896	-0.042	0.034
-319.041	208.366	-0.141	-0.217
-318.026	346.769	-0.099	0.191
-317.012	249.565	0.071	0.119
-315.997	800.000	0.086	0.241
-314.983	-23.682	0.235	-0.139
-313.968	-86.604	-0.246	-0.074
-312.953	42.754	0.213	-0.191
-311.939	-100.890	-0.015	-0.004
-310.924	90.265	0.045	0.049
-309.910	800.000	-0.078	0.286
-308.895	-21.507	-0.099	-0.059
-307.880	-168.009	0.184	0.007
-306.866	800.000	-0.084	-0.293
-305.851	-200.000	-0.020	-0.166
-304.837	212.977	-0.086	0.134
-303.822	-200.000	0.006	0.270
-302.807	-103.518	0.362	-0.083
-301.793	800.000	-0.093	-0.303
-300.778	49.059	0.207	-0.191
-299.764	-147.318	0.079	0.007
-298.749	-15.022	0.434	0.273
-297.735	71.537	-0.096	0.097
-296.720	-74.908	0.236	-0.083
-295.705	621.860	0.092	-0.228
-294.691	182.129	0.274	-0.396
-293.676	44.048	0.139	0.125
-292.662	-200.000	0.025	-0.218
-291.647	-200.000	-0.008	0.134
-290.632	-200.000	0.016	-0.185
-289.618	184.310	-0.049	-0.070
-288.603	800.000	-0.027	0.083
-287.589	-87.486	0.168	0.050
-286.574	-122.859	-0.123	-0.020
-285.559	-200.000	0.015	-0.198
-284.545	-200.000	0.010	0.252
-283.530	-200.000	0.016	0.073
-282.516	578.942	0.101	0.243
-281.501	-1.604	-0.342	0.236
-280.486	-42.076	0.273	-0.137
-279.472	-15.156	-0.325	0.204
-278.457	-200.000	-0.040	0.261
-277.443	-200.000	-0.012	0.281
-276.428	800.000	0.135	-0.459
-275.413	195.044	-0.160	0.238
-274.399	800.000	0.070	0.238
-273.384	-86.334	0.065	-0.019
-272.370	14.887	0.278	0.213
-271.355	21.346	0.120	-0.095
-270.340	800.000	-0.071	0.220
-269.326	-55.301	0.300	0.132
-268.311	-54.133	0.155	-0.069
-267.297	-121.189	0.315	0.052
-266.282	-83.794	0.295	-0.092
-265.267	-200.000	0.013	-0.390
-264.253	781.189	-0.131	0.352
-263.238	178.269	0.153	0.218
-262.224	570.315	-0.032	0.077
-261.209	800.000	-0.070	-0.265
-260.195	-200.000	0.001	-0.110
-259.180	129.743	0.286	-0.358
-258.165	59.281	-0.114	0.110
-257.151	-133.337	-0.103	-0.013
-256.136	4.024	-0.066	0.047
-255.122	-18.387	0.230	-0.141
-254.107	147.801	0.116	-0.153
-253.092	-98.933	-0.187	-0.046
-252.078	-200.000	0.016	0.068
-251.063	-200.000	0.065	0.426
-250.049	104.229	-0.161	-0.186
-249.034	-200.000	0.033	-0.227
-248.019	-71.585	0.067	-0.025
-247.005	-162.715	0.329	-0.016
-245.990	-151.619	-0.206	-0.015
-244.976	-16.201	0.198	0.123
-243.961	25.871	-0.094	-0.077
-242.946	800.000	0.030	-0.086
-241.932	58.442	0.160	0.154
-240.917	79.917	-0.242	0.255
-239.903	-101.648	0.213	-0.051
-238.888	-134.895	0.496	0.059
-237.873	-47.512	0.175	-0.083
-236.859	-200.000	0.065	-0.312
-235.844	800.000	0.123	0.392
-234.830	-16.550	0.217	-0.135
-233.815	-138.750	-0.209	0.022
-232.800	576.092	-0.121	-0.290
-231.786	184.172	-0.118	-0.172
-230.771	-200.000	0.028	0.179
-229.757	-52.629	0.352	-0.159
-228.742	60.995	-0.210	-0.204
-227.727	-56.509	0.466	0.202
-226.713	800.000	-0.125	-0.341
-225.698	-200.000	0.009	-0.088
-224.684	26.471	0.073	-0.060
-223.669	800.000	0.156	-0.438
-222.655	-69.832	-0.242	-0.090
-221.640	800.000	-0.041	0.114
-220.625	-141.364	0.256	-0.025
-219.611	35.713	0.092	0.080
-218.596	-79.097	0.217	-0.072
-217.582	-75.576	0.022	-0.008
-216.567	800.000	0.013	-0.052
-215.552	-147.399	0.081	0.007
-214.538	-188.508	-0.163	-0.002
-213.523	390.594	-0.040	0.081
-212.509	30.851	0.206	0.172
-211.494	-200.000	-0.061	0.281
-210.479	-200.000	0.023	-0.104
-209.465	-119.707	0.334	-0.056
-208.450	800.000	0.157	0.429
-207.436	287.366	-0.301	0.532
-206.421	180.062	0.123	0.176
-205.406	-43.745	-0.158	-0.078
-204.392	32.499	-0.277	0.234
-203.377	-57.436	0.349	0.150
-202.363	-200.000	-0.060	0.407
-201.348	-46.556	-0.154	0.074
-200.333	560.520	-0.047	-0.112
-199.319	-133.955	0.167	-0.020
-198.304	-200.000	-0.331	-0.001
-197.290	624.624	0.047	-0.115
-196.275	60.894	-0.131	-0.127
-195.260	-200.000	0.010	0.162
-194.246	179.995	0.156	0.224
-193.231	341.124	0.091	-0.174
-192.217	-200.000	-0.068	-0.410
-191.202	553.965	0.052	0.121
-190.187	-156.326	-0.212	0.013
-189.173	-78.843	0.116	-0.039
-188.158	-200.000	-0.055	0.262
-187.144	-200.000	-0.013	0.087
-186.129	9.290	-0.292	-0.216
-185.114	248.969	0.062	-0.103
-184.100	232.224	0.059	-0.095
-183.085	800.000	0.029	-0.119
-182.071	37.485	0.090	-0.078
-181.056	-200.000	0.022	-0.115
-180.042	98.852	-0.068	0.076
-179.027	612.082	0.034	0.084
-178.012	279.224	-0.047	-0.081
-176.998	-141.358	-0.038	0.004
-175.983	-38.779	0.153	-0.079
-174.969	-200.000	-0.012	0.193
-173.954	103.612	0.248	0.284
-172.939	137.415	-0.185	0.236
-171.925	-133.261	0.193	-0.024
-170.910	21.820	-0.164	-0.131
-169.896	-200.000	-0.002	0.163
-168.881	-200.000	-0.009	0.140
-167.866	-18.365	-0.235	0.143
-166.852	89.249	0.100	0.109
-165.837	99.584	-0.073	0.083
-164.823	197.493	-0.085	0.127
-163.808	-194.429	0.236	-0.002
-162.793	135.741	-0.040	-0.051
-161.779	266.975	-0.141	0.241
-160.764	156.425	0.380	-0.512
-159.750	-24.282	-0.206	0.120
-158.735	51.184	-0.336	-0.311
-157.720	75.653	0.128	-0.132
-156.706	-154.934	0.167	0.011
-155.691	102.257	0.191	0.218
-154.677	-56.676	-0.168	-0.072
-153.662	226.958	-0.104	-0.164
-152.647	-18.452	0.251	-0.153
-151.633	-133.926	0.374	0.045
-150.618	-106.745	0.312	-0.068
-149.604	74.742	0.149	0.153
-148.589	144.765	-0.042	0.055
-147.574	407.600	-0.088	-0.182
-146.560	15.197	0.111	0.085
-145.545	86.087	-0.121	0.130
-144.531	-108.717	-0.204	-0.043
-143.516	-94.832	0.068	0.018
-142.502	-93.065	0.148	0.040
-141.487	-6.683	0.177	-0.117
-140.472	-200.000	0.027	-0.169
-139.458	326.802	-0.060	-0.112
-138.443	550.148	-0.105	-0.246
-137.429	-200.000	-0.055	0.246
-136.414	-143.874	-0.132	-0.012
-135.399	186.835	0.165	-0.240
-134.385	-200.000	-0.027	0.202
-133.370	-146.029	-0.078	-0.007
-132.356	-109.288	0.244	-0.051
-131.341	18.985	-0.223	0.174
-130.326	233.618	-0.168	0.270
-129.312	-146.828	0.195	-0.016
-128.297	-62.805	0.161	0.065
-127.283	567.864	-0.063	-0.149
-126.268	-40.919	0.230	0.116
-125.253	144.430	0.028	0.037
-124.239	-16.308	0.188	0.116
-123.224	362.406	-0.084	0.165
-122.210	800.000	0.076	0.300
