DTS Sentinel unit serial number:	SN413079Multiplexer serial number:	ORYXHardware model number:	OX4-SRSoftware version number:	ORYX F/W v4.00 Oryx Data Collector v3.7.2.0data status	okinstallation	princeton_trtdifferential loss correction	single-endedforward channel	channel 2reverse channel	N/Adate	2019/09/17time	11:51:34forward acquisition time	60.00reverse acquisition time	0.00gamma	496.2192k internal	0.2323k external	0.2323temperature offset calibration	0.9988default loss term (dB/km)	0.3790temperature slope calibration	1.0000multiplexer offset coefficient	1.0000multiplexer slope coefficient	1.0000fibre end	0.00T internal ref (°C)	30.98T ext. ref 1 (°C)	0.41T ext. ref 2 (°C)	26.91length (m)	temperature (°C)	Stokes	anti-Stokes-747.200	-69.090	-0.036	-0.014
-746.185	275.390	-0.127	0.228
-745.171	54.756	-0.179	0.175
-744.156	-115.365	-0.257	0.049
-743.142	766.026	0.142	-0.390
-742.127	-200.000	0.007	0.223
-741.112	296.487	-0.061	0.112
-740.098	146.466	-0.177	0.239
-739.083	-161.614	0.245	-0.013
-738.069	11.733	0.384	0.298
-737.054	-35.458	-0.151	-0.083
-736.039	172.527	0.216	0.314
-735.025	-93.116	0.132	0.037
-734.010	-161.342	-0.157	0.008
-732.996	-30.336	-0.338	-0.193
-731.981	159.896	0.190	-0.267
-730.966	275.654	0.114	0.203
-729.952	117.391	0.128	0.159
-728.937	-200.000	-0.008	-0.082
-727.923	-200.000	-0.046	0.330
-726.908	-181.627	0.110	0.002
-725.894	800.000	0.041	-0.177
-724.879	179.043	-0.097	-0.143
-723.864	32.736	-0.179	-0.156
-722.850	144.709	-0.053	0.072
-721.835	25.601	-0.463	0.389
-720.821	-73.133	0.413	-0.153
-719.806	49.071	-0.298	-0.282
-718.791	800.000	-0.088	-0.251
-717.777	800.000	0.032	-0.138
-716.762	-200.000	-0.018	0.205
-715.748	-200.000	-0.009	-0.087
-714.733	-200.000	-0.083	0.400
-713.718	-200.000	-0.045	-0.221
-712.704	144.718	-0.014	0.019
-711.689	-96.508	-0.130	-0.034
-710.675	-23.679	-0.159	0.096
-709.660	-200.000	0.074	-0.348
-708.645	12.460	0.039	0.030
-707.631	165.065	0.049	-0.069
-706.616	70.222	0.179	0.187
-705.602	-15.431	0.141	-0.091
-704.587	195.556	-0.110	0.168
-703.572	264.442	-0.109	-0.191
-702.558	-55.810	-0.499	0.225
-701.543	-113.015	0.373	0.074
-700.529	800.000	-0.047	-0.165
-699.514	110.360	-0.185	-0.224
-698.499	121.387	0.097	-0.122
-697.485	800.000	0.031	0.123
-696.470	-9.745	0.082	-0.055
-695.456	800.000	-0.045	-0.182
-694.441	800.000	0.040	0.135
-693.426	800.000	0.029	0.092
-692.412	-200.000	0.026	0.230
-691.397	45.343	-0.044	-0.041
-690.383	20.094	-0.229	-0.186
-689.368	55.256	0.075	0.073
-688.354	133.234	-0.229	0.298
-687.339	220.366	-0.066	0.107
-686.324	-93.985	-0.117	-0.032
-685.310	-74.924	-0.086	-0.031
-684.295	800.000	0.061	0.197
-683.281	-45.910	0.187	-0.093
-682.266	84.233	0.157	-0.173
-681.251	-200.000	0.016	0.266
-680.237	-48.664	0.108	0.052
-679.222	665.668	0.017	-0.044
-678.208	-0.490	-0.117	-0.083
-677.193	-26.066	0.078	0.046
-676.178	21.719	-0.264	0.216
-675.164	63.719	0.424	0.429
-674.149	-124.578	-0.302	0.047
-673.135	326.455	0.063	-0.121
-672.120	-149.981	0.135	0.011
-671.105	-29.133	-0.290	-0.167
-670.091	-200.000	0.038	-0.342
-669.076	-29.257	-0.079	-0.045
-668.062	800.000	0.062	-0.237
-667.047	-200.000	0.060	0.370
-666.032	-46.358	0.270	-0.134
-665.018	-54.936	0.253	-0.115
-664.003	-29.000	-0.325	-0.188
-662.989	-96.707	-0.055	0.014
-661.974	73.132	0.088	-0.093
-660.959	400.188	-0.069	-0.145
-659.945	-182.266	-0.273	-0.005
-658.930	-49.262	-0.286	-0.137
-657.916	191.838	0.073	0.111
-656.901	-135.447	-0.337	-0.040
-655.886	-57.116	-0.131	0.058
-654.872	44.263	0.064	0.059
-653.857	-137.317	-0.037	-0.004
-652.843	-200.000	0.002	0.095
-651.828	-32.443	-0.405	0.227
-650.814	-200.000	-0.050	0.334
-649.799	466.833	-0.022	0.049
-648.784	-200.000	-0.009	-0.045
-647.770	-64.943	-0.270	0.110
-646.755	57.577	0.238	0.234
-645.741	49.664	0.107	-0.102
-644.726	-171.780	-0.519	0.017
-643.711	-200.000	-0.007	0.150
-642.697	394.167	-0.060	-0.125
-641.682	-104.361	0.206	-0.048
-640.668	279.358	-0.081	0.145
-639.653	-127.734	0.373	-0.054
-638.638	-32.642	0.276	-0.155
-637.624	-25.002	0.150	-0.090
-636.609	-15.913	-0.137	-0.088
-635.595	263.549	-0.106	0.186
-634.580	800.000	0.092	-0.362
-633.565	-51.729	-0.484	-0.227
-632.551	-6.382	-0.015	-0.010
-631.536	-56.401	-0.331	0.148
-630.522	79.175	-0.202	-0.217
-629.507	44.628	-0.073	0.067
-628.492	-31.818	0.370	-0.208
-627.478	-66.210	-0.169	-0.068
-626.463	648.508	-0.081	-0.208
-625.449	50.946	0.084	0.080
-624.434	800.000	0.061	0.223
-623.419	7.609	0.194	-0.146
-622.405	123.448	0.184	0.232
-621.390	154.292	0.069	-0.095
-620.376	311.623	-0.102	-0.193
-619.361	68.797	-0.365	-0.377
-618.346	-87.640	-0.416	0.126
-617.332	-200.000	0.024	-0.329
-616.317	-200.000	-0.064	-0.301
-615.303	800.000	0.052	-0.201
-614.288	163.799	0.087	0.123
-613.273	0.367	-0.181	0.130
-612.259	-106.558	-0.310	-0.069
-611.244	74.759	-0.116	0.123
-610.230	10.413	-0.230	0.176
-609.215	-200.000	0.006	-0.054
-608.201	101.074	0.169	-0.197
-607.186	-200.000	0.011	0.056
-606.171	-200.000	0.026	0.179
-605.157	-15.478	-0.178	0.114
-604.142	-200.000	0.009	-0.097
-603.128	-89.241	0.208	0.062
-602.113	-155.131	-0.159	0.010
-601.098	-85.280	-0.343	-0.108
-600.084	800.000	0.038	-0.121
-599.069	-107.443	-0.048	0.011
-598.055	-68.744	0.227	0.088
-597.040	41.336	-0.244	-0.221
-596.025	-63.083	0.177	-0.073
-595.011	98.409	0.213	-0.246
-593.996	29.336	-0.041	-0.035
-592.982	-75.153	0.126	-0.045
-591.967	31.964	-0.103	0.089
-590.952	-200.000	-0.063	-0.313
-589.938	454.178	0.028	-0.062
-588.923	-180.825	0.295	0.006
-587.909	-200.000	0.053	0.250
-586.894	-34.401	0.120	0.066
-585.879	230.082	0.090	0.148
-584.865	800.000	-0.052	-0.150
-583.850	-200.000	0.002	-0.293
-582.836	-200.000	0.023	-0.426
-581.821	226.194	0.041	-0.066
-580.806	-149.113	0.309	-0.025
-579.792	-200.000	-0.023	-0.357
-578.777	411.404	0.012	0.026
-577.763	528.306	-0.184	0.436
-576.748	60.567	-0.286	-0.284
-575.733	-54.896	0.229	0.104
-574.719	-200.000	-0.062	-0.297
-573.704	89.792	-0.212	0.238
-572.690	-2.862	0.099	0.069
-571.675	-200.000	0.025	-0.203
-570.661	-200.000	-0.037	-0.223
-569.646	-32.193	0.348	0.195
-568.631	-200.000	0.011	0.124
-567.617	800.000	-0.052	0.155
-566.602	152.719	-0.273	-0.374
-565.588	-9.937	-0.106	-0.071
-564.573	126.167	0.129	0.163
-563.558	-110.606	0.268	0.056
-562.544	-200.000	0.005	0.222
-561.529	62.040	-0.091	0.091
-560.515	87.791	0.169	-0.187
-559.500	50.513	0.146	0.139
-558.485	213.564	-0.041	0.065
-557.471	800.000	0.032	0.120
-556.456	-134.414	-0.049	0.006
-555.442	800.000	-0.016	0.061
-554.427	-86.090	-0.060	-0.019
-553.412	-113.691	0.233	-0.046
-552.398	800.000	0.063	0.178
-551.383	167.607	-0.066	-0.095
-550.369	-128.255	-0.144	0.021
-549.354	-176.967	-0.062	-0.002
-548.339	-133.467	-0.166	0.021
-547.325	-94.803	-0.092	0.025
-546.310	-200.000	0.092	-0.428
-545.296	339.725	-0.083	0.162
-544.281	356.758	-0.032	-0.065
-543.266	298.186	-0.115	-0.212
-542.252	409.442	0.068	0.144
-541.237	-200.000	-0.003	0.408
-540.223	75.838	0.058	-0.061
-539.208	262.617	-0.137	0.238
-538.193	-149.259	0.288	0.023
-537.179	60.471	-0.022	0.022
-536.164	415.243	0.053	0.112
-535.150	-109.166	-0.132	0.028
-534.135	800.000	-0.034	0.115
-533.121	26.860	-0.304	-0.255
-532.106	271.691	0.102	-0.180
-531.091	-71.139	-0.211	-0.079
-530.077	84.811	-0.142	0.156
-529.062	79.208	0.179	0.192
-528.048	261.010	0.115	0.198
-527.033	-96.874	0.151	0.040
-526.018	-200.000	-0.006	0.246
-525.004	-50.408	0.025	-0.012
-523.989	81.363	-0.173	0.188
-522.975	15.642	-0.240	-0.189
-521.960	-149.985	-0.223	-0.017
-520.945	-200.000	0.041	-0.293
-519.931	198.489	-0.219	0.335
-518.916	-79.156	0.129	0.044
-517.902	318.525	-0.048	0.091
-516.887	318.493	-0.119	-0.225
-515.872	193.995	-0.071	-0.108
-514.858	-45.948	-0.205	-0.101
-513.843	288.763	-0.099	0.180
-512.829	-67.300	0.226	0.089
-511.814	380.952	-0.118	0.241
-510.799	-55.728	-0.297	0.133
-509.785	306.195	0.065	0.120
-508.770	23.366	0.166	-0.137
-507.756	-200.000	0.072	0.390
-506.741	-200.000	-0.031	0.454
-505.726	178.270	-0.136	0.198
-504.712	588.462	-0.097	-0.240
-503.697	-143.705	-0.278	0.026
-502.683	-111.508	-0.037	0.007
-501.668	68.018	0.026	-0.026
-500.653	-200.000	-0.016	-0.145
-499.639	-200.000	-0.006	0.052
-498.624	14.156	-0.099	0.077
-497.610	-131.447	-0.378	-0.050
-496.595	-200.000	-0.011	-0.424
-495.581	-132.586	-0.233	-0.030
-494.566	-4.970	-0.235	0.162
-493.551	11.830	-0.093	-0.071
-492.537	-87.575	0.126	-0.038
-491.522	88.063	0.204	0.226
-490.508	-109.808	0.014	-0.003
-489.493	-142.539	0.219	-0.021
-488.478	-149.469	0.231	-0.018
-487.464	-87.187	0.442	-0.134
-486.449	-52.184	-0.348	-0.161
-485.435	-27.449	0.096	0.056
-484.420	132.432	0.176	0.227
-483.405	26.919	-0.320	0.268
-482.391	94.877	-0.158	-0.179
-481.376	800.000	0.110	0.357
-480.362	233.106	-0.184	-0.303
-479.347	-200.000	-0.006	-0.376
-478.332	-195.467	0.093	-0.001
-477.318	268.883	0.077	0.135
-476.303	-4.594	0.164	0.113
-475.289	-70.012	0.112	0.043
-474.274	80.066	-0.175	-0.188
-473.259	-200.000	0.027	0.147
-472.245	17.561	0.169	0.134
-471.230	-25.001	-0.078	0.046
-470.216	350.550	-0.048	0.094
-469.201	-107.260	-0.179	0.039
-468.186	-28.604	0.202	-0.117
-467.172	-86.782	0.297	0.091
-466.157	-200.000	0.017	-0.157
-465.143	6.040	-0.084	-0.063
-464.128	458.310	-0.096	-0.214
-463.113	59.066	-0.052	0.051
-462.099	62.031	0.097	-0.096
-461.084	-129.034	-0.078	-0.011
-460.070	181.058	-0.073	0.107
-459.055	97.578	0.103	-0.118
-458.040	-178.585	0.249	-0.006
-457.026	800.000	0.083	-0.330
-456.011	-200.000	-0.007	-0.076
-454.997	800.000	0.100	-0.320
-453.982	-200.000	0.024	0.218
-452.968	416.177	0.064	0.136
-451.953	2.585	0.282	0.204
-450.938	299.668	0.038	0.070
-449.924	-132.669	-0.278	-0.036
-448.909	361.339	0.115	0.231
-447.895	-180.023	-0.191	0.004
-446.880	140.737	0.088	0.117
-445.865	-166.462	0.080	-0.003
-444.851	-91.077	0.201	-0.057
-443.836	80.975	0.047	-0.050
-442.822	-200.000	0.024	-0.220
-441.807	46.681	0.190	-0.176
-440.792	800.000	-0.085	0.291
-439.778	800.000	-0.107	-0.356
-438.763	486.452	-0.111	-0.252
-437.749	-131.512	0.267	-0.035
-436.734	-125.434	0.191	0.029
-435.719	250.422	0.085	-0.144
-434.705	-200.000	-0.010	0.129
-433.690	-54.512	0.038	0.017
-432.676	89.673	0.084	0.093
-431.661	176.667	-0.177	-0.257
-430.646	-14.917	-0.080	0.051
-429.632	-89.897	0.040	0.012
-428.617	800.000	-0.036	0.141
-427.603	700.917	-0.010	0.027
-426.588	112.465	0.052	0.063
-425.573	-57.526	-0.425	0.186
-424.559	-140.258	0.224	-0.023
-423.544	392.876	0.167	-0.347
-422.530	87.729	-0.181	-0.200
-421.515	-36.933	-0.244	0.131
-420.500	-62.661	0.235	-0.097
-419.486	186.096	-0.076	-0.113
-418.471	-195.979	-0.137	-0.001
-417.457	-161.481	-0.371	0.019
-416.442	-200.000	-0.038	0.181
-415.428	47.024	0.210	-0.194
-414.413	-31.739	-0.101	0.056
-413.398	-200.000	-0.002	-0.124
-412.384	-92.395	0.087	-0.024
-411.369	133.273	-0.067	-0.087
-410.355	-88.757	0.115	-0.034
-409.340	63.469	0.078	0.078
-408.325	800.000	0.046	0.174
-407.311	236.904	0.182	-0.301
-406.296	-200.000	0.009	-0.149
-405.282	-200.000	-0.009	0.416
-404.267	157.253	0.225	0.311
-403.252	-200.000	-0.080	0.484
-402.238	-192.903	-0.371	-0.003
-401.223	-152.869	0.127	-0.009
-400.209	-67.749	0.309	-0.120
-399.194	800.000	0.048	-0.197
-398.179	-152.962	-0.210	-0.015
-397.165	48.055	-0.190	-0.177
-396.150	800.000	0.172	-0.500
-395.136	-11.166	0.253	-0.166
-394.121	31.968	0.110	0.094
-393.106	-67.796	-0.108	0.042
-392.092	128.528	-0.156	-0.198
-391.077	800.000	-0.117	-0.395
-390.063	-131.154	0.318	-0.042
-389.048	126.487	-0.169	0.213
-388.033	-51.818	0.148	0.068
-387.019	-126.440	0.235	0.035
-386.004	15.326	-0.225	-0.176
-384.990	702.264	-0.061	-0.161
-383.975	-28.943	0.086	0.049
-382.960	21.333	0.047	0.038
-381.946	316.785	0.069	-0.130
-380.931	111.817	-0.137	0.165
-379.917	-66.936	-0.104	0.041
-378.902	137.851	-0.192	0.250
-377.888	-102.079	-0.382	0.092
-376.873	-200.000	0.017	-0.296
-375.858	-67.362	0.366	0.143
-374.844	-28.197	-0.047	0.027
-373.829	724.625	0.054	0.143
-372.815	8.455	-0.207	-0.155
-371.800	-150.253	0.101	0.008
-370.785	589.195	-0.039	-0.095
-369.771	-97.826	0.192	0.049
-368.756	-118.103	-0.065	0.011
-367.742	800.000	0.202	-0.656
-366.727	105.048	-0.112	0.132
-365.712	-40.485	-0.247	-0.127
-364.698	-200.000	-0.008	-0.383
-363.683	-22.991	-0.455	0.273
-362.669	-52.418	-0.406	-0.187
-361.654	-62.754	0.058	-0.024
-360.639	13.871	0.259	0.201
-359.625	736.014	0.084	-0.224
-358.610	673.152	0.049	0.126
-357.596	-167.274	0.157	-0.006
-356.581	211.693	0.236	0.370
-355.566	-200.000	-0.038	-0.203
-354.552	-180.321	0.181	0.004
-353.537	482.008	0.057	-0.128
-352.523	240.964	0.214	0.356
-351.508	-200.000	-0.018	0.119
-350.493	-70.073	-0.395	0.150
-349.479	-55.924	0.140	0.062
-348.464	54.743	0.182	0.174
-347.450	-75.696	0.121	-0.043
-346.435	79.848	-0.089	0.095
-345.420	-200.000	-0.003	0.126
-344.406	-116.155	0.293	-0.054
-343.391	800.000	-0.027	-0.110
-342.377	-200.000	0.073	-0.354
-341.362	1.461	0.273	-0.195
-340.348	276.185	-0.068	0.120
-339.333	-48.277	0.177	-0.085
-338.318	-125.416	0.198	0.030
-337.304	-29.717	-0.118	-0.067
-336.289	-54.392	-0.192	0.087
-335.275	-140.735	-0.096	0.010
-334.260	119.077	-0.396	0.486
-333.245	-93.100	0.209	-0.058
-332.231	195.502	-0.043	0.065
-331.216	10.895	0.476	-0.361
-330.202	103.172	-0.164	-0.191
-329.187	-36.053	0.258	-0.139
-328.172	293.819	-0.032	-0.059
-327.158	-78.175	-0.227	0.077
-326.143	67.320	-0.108	0.109
-325.129	-200.000	-0.008	0.098
-324.114	-65.016	0.282	0.113
-323.099	-85.608	-0.042	0.013
-322.085	552.650	0.011	0.025
-321.070	120.145	-0.183	0.226
-320.056	69.175	-0.153	-0.157
-319.041	599.196	-0.043	-0.106
-318.026	-134.265	0.113	0.014
-317.012	800.000	0.017	0.069
-315.997	-144.000	-0.023	-0.002
-314.983	-200.000	-0.047	0.265
-313.968	117.035	0.130	-0.159
-312.953	254.172	0.114	0.193
-311.939	-8.537	-0.096	-0.064
-310.924	-132.561	-0.091	-0.012
-309.910	-106.440	0.340	-0.075
-308.895	-31.694	-0.382	-0.213
-307.880	-40.683	0.257	0.132
-306.866	-52.917	0.020	-0.009
-305.851	-200.000	-0.041	0.192
-304.837	5.158	0.177	-0.129
-303.822	-200.000	0.065	0.357
-302.807	363.840	-0.157	0.313
-301.793	131.668	-0.254	0.324
-300.778	-52.867	-0.107	0.049
-299.764	-62.347	0.078	-0.032
-298.749	800.000	0.060	-0.191
-297.735	-200.000	0.017	0.202
-296.720	-200.000	-0.054	0.256
-295.705	-80.012	-0.220	0.073
-294.691	-180.405	-0.234	-0.005
-293.676	800.000	-0.110	-0.371
-292.662	-52.691	0.080	0.037
-291.647	254.970	0.119	0.202
-290.632	-200.000	0.002	-0.091
-289.618	90.881	0.103	0.115
-288.603	-150.981	-0.334	-0.025
-287.589	-84.828	-0.058	0.018
-286.574	-35.848	0.110	-0.059
-285.559	-200.000	0.017	0.099
-284.545	-170.939	0.239	0.008
-283.530	106.507	-0.033	-0.039
-282.516	129.226	0.157	0.198
-281.501	-86.029	0.295	-0.090
-280.486	-10.087	-0.137	0.091
-279.472	135.523	0.117	-0.150
-278.457	-36.426	-0.221	0.118
-277.443	-123.956	0.246	-0.038
-276.428	-200.000	0.059	0.374
-275.413	-87.596	0.175	-0.052
-274.399	-26.000	-0.314	0.183
-273.384	-139.812	-0.302	0.032
-272.370	-200.000	-0.069	-0.311
-271.355	800.000	0.040	0.120
-270.340	17.472	0.043	-0.034
-269.326	-122.150	-0.408	0.066
-268.311	-200.000	0.091	-0.396
-267.297	163.149	0.068	0.095
-266.282	-25.419	-0.256	0.150
-265.267	-27.339	-0.106	-0.061
-264.253	800.000	0.115	0.493
-263.238	259.936	0.120	0.205
-262.224	-157.812	0.138	-0.008
-261.209	-102.317	-0.179	0.043
-260.195	-60.267	0.219	-0.092
-259.180	-191.677	-0.217	0.002
-258.165	-200.000	-0.013	0.228
-257.151	-62.208	-0.189	-0.078
-256.136	-200.000	0.023	-0.248
-255.122	-200.000	-0.013	0.335
-254.107	-200.000	-0.009	-0.080
-253.092	29.049	0.202	-0.170
-252.078	-200.000	0.093	-0.449
-251.063	316.311	0.189	-0.353
-250.049	223.996	0.058	0.093
-249.034	-200.000	0.019	-0.272
-248.019	97.360	0.243	0.277
-247.005	536.019	-0.088	0.206
-245.990	-113.973	-0.132	-0.025
-244.976	141.433	0.214	-0.280
-243.961	-79.178	0.333	-0.112
-242.946	800.000	0.090	0.358
-241.932	-200.000	-0.030	0.154
-240.917	-89.626	-0.251	-0.073
-239.903	-0.020	-0.120	0.084
-238.888	37.499	-0.311	0.273
-237.873	146.714	0.036	-0.048
-236.859	125.464	-0.161	-0.201
-235.844	-75.557	-0.309	-0.109
-234.830	199.945	0.055	0.084
-233.815	-200.000	0.043	-0.271
-232.800	-90.246	0.158	0.046
-231.786	-170.595	0.443	0.015
-230.771	373.552	-0.215	-0.434
-229.757	-76.926	-0.055	-0.019
-228.742	57.671	-0.253	0.245
-227.727	-81.394	0.155	0.051
-226.713	219.046	0.158	-0.250
-225.698	780.781	-0.099	0.267
-224.684	732.651	0.031	0.081
-223.669	54.276	-0.163	0.155
-222.655	-47.499	-0.227	0.109
-221.640	-200.000	0.018	-0.133
-220.625	-18.642	-0.156	-0.096
-219.611	-200.000	0.005	0.083
-218.596	-99.304	0.201	-0.050
-217.582	217.747	0.050	0.078
-216.567	-128.011	0.316	0.045
-215.552	-89.977	-0.111	-0.032
-214.538	-200.000	0.030	-0.181
-213.523	55.929	-0.234	-0.224
-212.509	267.668	-0.142	-0.246
-211.494	-33.539	0.284	0.155
-210.479	42.997	-0.161	0.145
-209.465	17.774	0.033	0.026
-208.450	390.345	0.179	0.367
-207.436	-200.000	-0.010	0.254
-206.421	336.645	0.114	-0.218
-205.406	800.000	0.028	0.112
-204.392	369.943	0.089	0.179
-203.377	-117.386	0.041	-0.007
-202.363	-98.763	0.154	-0.039
-201.348	800.000	0.054	-0.185
-200.333	800.000	-0.019	-0.055
-199.319	259.372	0.107	0.182
-198.304	-12.182	-0.008	-0.005
-197.290	-157.867	0.131	-0.008
-196.275	96.918	0.170	-0.192
-195.260	-60.725	-0.578	0.242
-194.246	-52.781	0.128	0.058
-193.231	-131.379	-0.133	0.017
-192.217	-200.000	0.012	-0.063
-191.202	702.203	0.054	0.140
-190.187	-91.728	0.266	0.075
-189.173	-148.836	-0.487	0.039
-188.158	-38.515	0.064	0.034
-187.144	240.979	-0.153	-0.253
-186.129	-200.000	0.002	-0.131
-185.114	70.531	0.171	0.175
-184.100	-122.699	-0.082	0.013
-183.085	-41.971	-0.080	-0.040
-182.071	196.285	-0.155	-0.233
-181.056	181.448	0.104	0.152
-180.042	-43.215	0.291	0.146
-179.027	-146.954	-0.191	0.016
-178.012	139.233	-0.129	0.168
-176.998	-12.147	-0.127	0.082
-175.983	-61.592	0.260	-0.108
-174.969	-15.912	-0.131	-0.082
-173.954	-200.000	-0.017	0.125
-172.939	-46.927	0.231	-0.112
-171.925	101.025	0.302	0.347
-170.910	-30.719	-0.178	0.100
-169.896	21.084	0.198	-0.159
-168.881	-200.000	0.039	0.174
-167.866	102.792	0.147	-0.170
-166.852	-200.000	0.043	-0.386
-165.837	-113.177	0.299	0.058
-164.823	-200.000	-0.027	-0.169
-163.808	-142.548	-0.160	-0.016
-162.793	-117.939	0.322	0.057
-161.779	-200.000	0.088	0.421
-160.764	26.368	0.220	0.182
-159.750	50.242	0.114	0.106
-158.735	87.304	0.165	0.180
-157.720	121.434	0.110	-0.135
-156.706	516.321	-0.085	-0.197
-155.691	800.000	-0.033	0.136
-154.677	800.000	0.076	-0.222
-153.662	-200.000	0.008	0.255
-152.647	-139.430	-0.200	0.021
-151.633	-200.000	0.020	-0.143
-150.618	-47.569	0.215	-0.103
-149.604	-200.000	0.025	-0.177
-148.589	-74.942	-0.376	0.133
-147.574	250.604	0.068	-0.114
-146.560	141.108	-0.077	-0.101
-145.545	-102.761	0.098	-0.023
-144.531	-128.888	0.180	0.025
-143.516	-200.000	0.052	-0.260
-142.502	-19.080	-0.105	-0.064
-141.487	-165.299	0.101	-0.004
-140.472	-140.927	-0.128	-0.013
-139.458	-26.021	0.150	0.087
-138.443	-121.727	-0.169	-0.028
-137.429	122.172	-0.021	-0.026
-136.414	256.011	0.140	0.236
-135.399	130.667	-0.058	0.074
-134.385	-116.697	-0.224	0.041
-133.370	-200.000	-0.033	0.283
-132.356	-108.259	-0.472	0.100
-131.341	361.391	0.103	0.203
-130.326	611.948	0.048	0.118
-129.312	-131.729	0.098	0.013
-128.297	-200.000	-0.044	-0.225
-127.283	-0.520	0.439	0.307
-126.268	222.239	-0.119	0.189
-125.253	-200.000	-0.030	0.262
-124.239	-188.230	0.148	-0.002
-123.224	36.767	-0.146	-0.127
-122.210	-69.654	0.308	0.116
-121.195	48.383	-0.123	-0.113
