DTS Sentinel unit serial number:	SN413079Multiplexer serial number:	ORYXHardware model number:	OX4-SRSoftware version number:	ORYX F/W v4.00 Oryx Data Collector v3.7.2.0data status	okinstallation	princeton_trtdifferential loss correction	single-endedforward channel	channel 2reverse channel	N/Adate	2019/09/13time	03:59:35forward acquisition time	60.00reverse acquisition time	0.00gamma	496.2192k internal	0.2336k external	0.2336temperature offset calibration	1.0190default loss term (dB/km)	0.3790temperature slope calibration	1.0000multiplexer offset coefficient	1.0000multiplexer slope coefficient	1.0000fibre end	0.00T internal ref (°C)	27.02T ext. ref 1 (°C)	4.07T ext. ref 2 (°C)	21.31length (m)	temperature (°C)	Stokes	anti-Stokes-747.200	-69.040	-0.309	0.120
-746.185	465.284	-0.142	0.320
-745.171	-84.870	0.179	-0.056
-744.156	-90.969	-0.216	0.062
-743.142	12.146	0.228	0.176
-742.127	-34.083	0.325	-0.179
-741.112	-60.580	-0.164	0.070
-740.098	18.785	0.242	0.195
-739.083	-41.810	-0.124	0.064
-738.069	368.209	-0.162	0.329
-737.054	558.339	-0.115	0.278
-736.039	-17.915	0.218	-0.137
-735.025	276.547	0.045	-0.081
-734.010	-60.435	-0.071	0.030
-732.996	-200.000	0.008	-0.173
-731.981	-141.881	-0.117	0.012
-730.966	-57.248	0.047	0.021
-729.952	-46.121	-0.123	0.061
-728.937	-200.000	-0.007	0.066
-727.923	-30.625	0.138	-0.079
-726.908	203.564	0.163	-0.254
-725.894	64.798	-0.517	-0.524
-724.879	42.082	0.084	0.077
-723.864	-123.057	-0.202	-0.032
-722.850	-105.686	-0.238	0.054
-721.835	124.899	-0.186	-0.235
-720.821	800.000	-0.056	-0.175
-719.806	503.934	-0.138	-0.320
-718.791	-146.172	-0.423	0.037
-717.777	-200.000	-0.025	0.502
-716.762	83.388	-0.299	0.327
-715.748	426.179	-0.093	-0.200
-714.733	800.000	-0.056	-0.230
-713.718	271.127	0.088	-0.155
-712.704	563.401	0.064	0.156
-711.689	-35.711	-0.240	-0.131
-710.675	15.213	-0.315	0.248
-709.660	800.000	-0.050	-0.187
-708.645	-43.392	0.192	0.097
-707.631	36.039	-0.165	-0.146
-706.616	-200.000	-0.036	-0.448
-705.602	219.554	0.120	0.192
-704.587	-40.033	-0.088	0.046
-703.572	53.329	0.178	-0.171
-702.558	69.206	0.206	0.213
-701.543	483.505	-0.067	-0.152
-700.529	-128.373	0.048	0.007
-699.514	800.000	0.064	-0.186
-698.499	231.308	0.138	0.227
-697.485	800.000	0.103	-0.313
-696.470	755.230	-0.035	-0.095
-695.456	-128.853	0.176	0.025
-694.441	-200.000	-0.013	-0.226
-693.426	-165.056	-0.220	-0.010
-692.412	-55.782	0.039	0.017
-691.397	-6.043	-0.196	0.134
-690.383	-69.438	-0.046	-0.018
-689.368	-87.947	0.328	0.099
-688.354	-75.547	0.065	0.023
-687.339	23.152	0.391	-0.322
-686.324	-128.487	0.046	0.007
-685.310	69.760	-0.075	-0.077
-684.295	169.478	0.071	-0.102
-683.281	-200.000	0.025	0.108
-682.266	-47.900	0.055	-0.027
-681.251	800.000	-0.032	0.100
-680.237	-71.126	0.185	-0.070
-679.222	-63.301	0.350	0.144
-678.208	-129.464	-0.330	0.046
-677.193	-26.833	0.108	-0.063
-676.178	301.654	-0.134	0.248
-675.164	365.933	-0.104	0.209
-674.149	-88.570	-0.299	0.089
-673.135	-85.250	0.033	-0.010
-672.120	-58.309	0.440	0.192
-671.105	-200.000	0.020	-0.371
-670.091	-200.000	0.062	-0.299
-669.076	-200.000	0.000	-0.292
-668.062	-53.605	-0.065	0.030
-667.047	-115.931	-0.276	-0.052
-666.032	-141.970	-0.314	-0.031
-665.018	439.715	-0.131	0.287
-664.003	-200.000	-0.016	0.098
-662.989	18.016	-0.256	0.204
-661.974	-20.650	0.140	-0.086
-660.959	201.504	0.117	-0.180
-659.945	800.000	0.032	0.090
-658.930	-13.571	0.163	0.106
-657.916	678.495	-0.135	-0.351
-656.901	-200.000	-0.034	-0.286
-655.886	71.835	-0.195	-0.203
-654.872	321.116	0.016	-0.030
-653.857	-125.245	-0.399	-0.061
-652.843	-28.108	0.108	-0.062
-651.828	-37.206	0.199	-0.107
-650.814	800.000	-0.028	-0.118
-649.799	75.812	0.073	0.077
-648.784	-114.255	-0.252	0.049
-647.770	326.950	-0.073	-0.139
-646.755	-158.619	-0.405	-0.023
-645.741	-44.205	-0.088	0.044
-644.726	800.000	0.045	0.146
-643.711	-200.000	0.034	0.186
-642.697	22.945	0.325	-0.267
-641.682	-49.923	-0.333	0.158
-640.668	800.000	0.023	-0.094
-639.653	442.499	-0.036	0.078
-638.638	25.360	-0.038	-0.032
-637.624	-133.686	-0.250	0.031
-636.609	-200.000	0.015	-0.290
-635.595	86.861	-0.166	0.183
-634.580	-41.337	0.123	-0.064
-633.565	-200.000	-0.010	-0.479
-632.551	186.397	-0.190	-0.283
-631.536	54.451	0.023	-0.022
-630.522	117.430	0.090	0.111
-629.507	107.136	-0.180	-0.214
-628.492	-136.549	-0.158	-0.018
-627.478	-193.176	-0.076	0.001
-626.463	-49.723	0.134	0.064
-625.449	-39.699	-0.085	-0.044
-624.434	1.616	-0.117	-0.084
-623.419	-200.000	-0.088	-0.409
-622.405	800.000	-0.078	0.280
-621.390	800.000	-0.072	-0.232
-620.376	-87.337	0.496	0.150
-619.361	-100.206	0.275	-0.068
-618.346	319.109	0.055	-0.105
-617.332	36.899	0.132	-0.117
-616.317	-11.855	0.201	0.132
-615.303	-101.889	0.355	0.086
-614.288	-200.000	-0.010	0.112
-613.273	-125.544	0.325	-0.049
-612.259	-200.000	-0.011	0.322
-611.244	-157.814	-0.299	0.018
-610.230	800.000	0.038	-0.132
-609.215	-133.871	0.304	0.038
-608.201	-200.000	0.042	0.484
-607.186	-200.000	0.023	0.151
-606.171	-94.412	-0.317	0.086
-605.157	-200.000	0.017	-0.135
-604.142	592.012	-0.123	-0.304
-603.128	-3.802	0.296	-0.205
-602.113	310.062	-0.079	-0.148
-601.098	21.493	-0.136	0.111
-600.084	-103.432	-0.051	0.012
-599.069	-200.000	-0.016	-0.338
-598.055	-200.000	-0.019	0.235
-597.040	-112.772	0.099	-0.020
-596.025	545.356	0.079	-0.189
-595.011	-131.048	-0.293	-0.039
-593.996	183.679	-0.212	-0.313
-592.982	-2.130	0.084	0.059
-591.967	-31.954	-0.231	-0.129
-590.952	86.762	0.104	-0.115
-589.938	-105.319	-0.166	0.038
-588.923	369.718	0.085	-0.171
-587.909	109.883	-0.278	-0.333
-586.894	800.000	0.040	-0.120
-585.879	800.000	0.092	-0.309
-584.865	-85.884	-0.023	-0.007
-583.850	-102.061	0.050	-0.012
-582.836	426.883	0.076	-0.164
-581.821	-121.114	-0.374	-0.062
-580.806	167.487	-0.151	-0.214
-579.792	-121.785	0.472	0.078
-578.777	-67.493	-0.234	-0.092
-577.763	281.540	0.089	0.160
-576.748	40.751	0.066	0.059
-575.733	800.000	-0.072	0.228
-574.719	110.868	-0.085	-0.102
-573.704	367.540	-0.112	0.226
-572.690	58.419	-0.246	0.241
-571.675	-200.000	-0.015	0.215
-570.661	340.068	0.038	-0.074
-569.646	-200.000	0.004	-0.133
-568.631	45.193	0.134	-0.123
-567.617	-200.000	-0.007	0.071
-566.602	-200.000	-0.024	0.218
-565.588	409.181	0.094	-0.198
-564.573	104.609	0.208	-0.245
-563.558	-200.000	-0.003	-0.018
-562.544	-93.619	0.214	0.059
-561.529	-12.843	-0.223	0.145
-560.515	-200.000	0.039	0.404
-559.500	-72.447	-0.156	-0.058
-558.485	-96.092	-0.149	-0.039
-557.471	-200.000	-0.039	-0.340
-556.456	-200.000	-0.037	-0.187
-555.442	800.000	0.069	-0.260
-554.427	1.573	0.117	0.084
-553.412	-200.000	-0.020	0.221
-552.398	-200.000	-0.050	0.303
-551.383	-12.211	0.083	-0.054
-550.369	51.637	-0.325	-0.308
-549.354	92.086	0.188	-0.211
-548.339	25.611	0.104	-0.086
-547.325	220.700	-0.172	0.275
-546.310	773.964	0.038	-0.105
-545.296	-146.871	0.429	-0.037
-544.281	-145.991	-0.097	-0.009
-543.266	234.975	-0.214	0.353
-542.252	-166.077	-0.215	0.009
-541.237	34.633	-0.293	0.255
-540.223	379.334	0.030	0.062
-539.208	-126.176	-0.033	0.005
-538.193	-6.124	0.174	0.118
-537.179	-28.933	-0.072	0.041
-536.164	-53.881	0.210	0.096
-535.150	94.845	-0.442	0.500
-534.135	451.381	0.011	0.025
-533.121	295.779	-0.098	0.179
-532.106	-200.000	0.022	-0.109
-531.091	-191.083	0.288	0.003
-530.077	776.080	-0.074	0.200
-529.062	-146.900	-0.147	0.013
-528.048	-110.226	-0.306	0.063
-527.033	21.465	0.086	-0.070
-526.018	-66.439	-0.259	-0.103
-525.004	-61.616	0.023	0.010
-523.989	-115.668	0.307	-0.057
-522.975	-68.803	0.244	-0.094
-521.960	-200.000	-0.071	-0.320
-520.945	160.469	0.070	-0.097
-519.931	-29.677	-0.204	-0.116
-518.916	-176.239	-0.387	-0.010
-517.902	-139.249	0.251	0.027
-516.887	-115.368	-0.062	0.012
-515.872	-27.210	-0.073	0.042
-514.858	86.771	-0.154	0.170
-513.843	800.000	-0.091	-0.326
-512.829	-83.945	0.423	0.134
-511.814	789.492	0.077	-0.210
-510.799	90.896	-0.041	0.045
-509.785	573.688	-0.144	0.348
-508.770	49.264	0.089	-0.083
-507.756	792.919	-0.091	0.248
-506.741	-81.300	0.395	-0.130
-505.726	219.894	0.178	0.284
-504.712	-10.532	-0.382	0.252
-503.697	99.142	0.126	0.145
-502.683	800.000	0.056	-0.156
-501.668	-52.349	0.379	0.175
-500.653	800.000	0.051	-0.175
-499.639	-200.000	-0.024	-0.155
-498.624	-122.051	0.137	0.022
-497.610	203.784	-0.057	-0.087
-496.595	5.815	-0.174	-0.128
-495.581	-200.000	-0.001	0.060
-494.566	-200.000	-0.050	-0.224
-493.551	265.097	0.140	-0.243
-492.537	108.717	0.123	-0.146
-491.522	-118.864	-0.096	0.017
-490.508	720.354	0.168	-0.443
-489.493	278.405	0.140	-0.248
-488.478	-139.810	-0.173	-0.018
-487.464	6.359	-0.255	0.188
-486.449	-52.500	-0.336	-0.154
-485.435	-124.366	0.277	-0.043
-484.420	305.703	0.023	-0.042
-483.405	-92.148	-0.105	0.029
-482.391	67.129	0.137	-0.139
-481.376	-76.055	0.125	0.044
-480.362	414.274	-0.028	-0.060
-479.347	-132.740	0.261	-0.033
-478.332	-86.081	-0.319	0.098
-477.318	714.853	0.087	-0.228
-476.303	-108.468	-0.159	0.034
-475.289	-200.000	-0.019	0.200
-474.274	-67.068	-0.116	0.046
-473.259	109.192	-0.206	0.245
-472.245	-134.911	0.065	-0.008
-471.230	256.232	-0.073	-0.125
-470.216	662.236	-0.107	0.273
-469.201	-150.690	0.244	0.018
-468.186	146.233	0.220	-0.293
-467.172	402.440	-0.018	0.038
-466.157	-74.585	0.190	-0.068
-465.143	67.906	0.152	0.154
-464.128	-94.959	-0.100	-0.027
-463.113	-54.856	0.113	0.051
-462.099	-119.071	-0.303	-0.053
-461.084	-96.136	0.212	0.056
-460.070	-200.000	0.002	-0.293
-459.055	800.000	-0.150	0.419
-458.040	-16.817	-0.246	0.155
-457.026	-73.775	-0.100	-0.036
-456.011	-52.205	0.272	0.125
-454.997	-51.732	0.068	0.031
-453.982	198.117	0.045	-0.069
-452.968	57.082	0.325	0.315
-451.953	587.795	0.163	0.398
-450.938	365.494	0.126	0.253
-449.924	-39.114	-0.019	-0.010
-448.909	-26.802	-0.095	0.055
-447.895	-154.749	-0.185	-0.012
-446.880	240.097	-0.308	0.510
-445.865	800.000	-0.078	0.310
-444.851	-200.000	0.016	0.187
-443.836	-40.070	-0.019	-0.010
-442.822	67.439	-0.019	0.019
-441.807	742.818	0.052	-0.138
-440.792	445.470	-0.033	0.071
-439.778	81.120	-0.099	0.106
-438.763	-200.000	0.020	-0.384
-437.749	-46.309	-0.186	-0.091
-436.734	60.269	0.038	-0.037
-435.719	-81.507	-0.245	0.080
-434.705	-56.985	-0.343	-0.150
-433.690	-200.000	0.019	0.159
-432.676	-76.154	0.121	-0.043
-431.661	800.000	0.040	-0.123
-430.646	-8.339	0.020	0.014
-429.632	384.713	0.156	0.319
-428.617	800.000	-0.103	-0.363
-427.603	-60.258	0.123	-0.052
-426.588	800.000	-0.073	0.268
-425.573	-34.391	0.154	-0.084
-424.559	-14.056	-0.141	-0.090
-423.544	629.371	-0.068	0.172
-422.530	-125.027	-0.238	0.036
-421.515	120.195	0.089	-0.110
-420.500	800.000	-0.147	-0.431
-419.486	800.000	-0.022	0.076
-418.471	-200.000	0.024	-0.264
-417.457	64.305	0.065	-0.065
-416.442	-183.545	-0.265	-0.005
-415.428	126.334	-0.273	0.343
-414.413	241.897	0.077	0.128
-413.398	800.000	-0.038	-0.103
-412.384	-99.921	0.221	0.055
-411.369	-80.761	0.072	-0.024
-410.355	-76.861	-0.165	-0.057
-409.340	800.000	-0.047	0.130
-408.325	800.000	0.057	-0.180
-407.311	22.922	-0.144	-0.117
-406.296	-200.000	0.022	0.162
-405.282	81.922	0.144	0.155
-404.267	-200.000	-0.031	-0.137
-403.252	-200.000	0.007	-0.208
-402.238	29.355	0.218	0.184
-401.223	-200.000	0.023	-0.121
-400.209	394.909	0.079	-0.164
-399.194	528.332	0.077	0.181
-398.179	-11.067	-0.180	-0.118
-397.165	732.523	0.031	-0.082
-396.150	91.898	-0.197	0.220
-395.136	-123.297	-0.259	-0.041
-394.121	359.078	-0.062	-0.123
-393.106	42.852	-0.312	-0.282
-392.092	-111.358	-0.149	-0.030
-391.077	-56.742	-0.076	-0.033
-390.063	-69.553	0.226	0.086
-389.048	285.688	0.176	-0.315
-388.033	-122.269	-0.278	-0.045
-387.019	-44.356	0.576	0.286
-386.004	164.684	-0.058	-0.081
-384.990	800.000	-0.054	0.195
-383.975	-200.000	0.053	-0.266
-382.960	-118.855	0.340	0.059
-381.946	-200.000	0.044	0.229
-380.931	251.921	0.157	0.264
-379.917	41.147	0.233	0.209
-378.902	248.283	0.041	0.069
-377.888	-200.000	0.029	0.000
-376.873	100.507	-0.341	-0.392
-375.858	105.386	-0.053	-0.062
-374.844	210.305	0.126	-0.196
-373.829	2.352	0.091	0.065
-372.815	-41.732	0.196	0.099
-371.800	-105.498	0.280	0.063
-370.785	94.120	-0.039	0.044
-369.771	206.098	0.163	0.251
-368.756	-200.000	-0.011	-0.249
-367.742	3.841	-0.176	-0.128
-366.727	-81.816	-0.196	0.064
-365.712	359.006	0.112	-0.222
-364.698	55.396	0.226	0.216
-363.683	219.563	0.079	-0.126
-362.669	800.000	0.035	-0.128
-361.654	-187.018	0.082	0.001
-360.639	106.527	-0.249	0.292
-359.625	-113.344	-0.168	0.033
-358.610	-105.239	-0.074	0.017
-357.596	-200.000	-0.013	0.065
-356.581	-146.082	0.216	-0.019
-355.566	18.183	0.212	0.167
-354.552	-159.637	0.114	0.006
-353.537	192.375	0.044	0.065
-352.523	800.000	0.070	-0.262
-351.508	-200.000	-0.011	0.133
-350.493	580.196	0.185	-0.449
-349.479	490.709	0.037	0.083
-348.464	288.989	-0.301	0.539
-347.450	623.144	0.102	0.253
-346.435	800.000	-0.018	0.062
-345.420	195.187	-0.061	0.092
-344.406	-19.378	0.086	-0.053
-343.391	126.273	0.071	0.089
-342.377	-178.784	0.125	-0.003
-341.362	800.000	-0.106	-0.314
-340.348	-200.000	-0.009	-0.180
-339.333	107.218	0.194	0.228
-338.318	38.954	0.089	0.078
-337.304	-103.677	-0.351	-0.081
-336.289	238.101	0.062	-0.101
-335.275	-135.219	-0.282	-0.033
-334.260	424.693	-0.099	0.210
-333.245	-127.643	-0.168	-0.024
-332.231	-106.066	0.242	-0.054
-331.216	-200.000	-0.000	-0.280
-330.202	222.298	0.050	-0.080
-329.187	-200.000	-0.069	-0.410
-328.172	800.000	0.065	0.278
-327.158	-200.000	0.029	0.185
-326.143	-108.427	-0.139	-0.030
-325.129	-200.000	-0.100	-0.790
-324.114	-200.000	0.026	-0.122
-323.099	-200.000	0.003	0.138
-322.085	84.043	-0.140	-0.151
-321.070	-126.654	-0.267	-0.039
-320.056	-70.628	0.361	0.135
-319.041	178.306	0.035	-0.051
-318.026	-37.186	0.301	-0.159
-317.012	190.259	0.135	-0.200
-315.997	233.058	-0.150	-0.243
-314.983	-200.000	-0.057	-0.300
-313.968	33.469	-0.170	0.146
-312.953	-200.000	-0.017	0.521
-311.939	-56.515	-0.222	-0.097
-310.924	8.440	-0.111	-0.082
-309.910	-99.931	-0.115	-0.028
-308.895	205.748	-0.086	0.131
-307.880	800.000	0.032	0.090
-306.866	-87.051	0.054	-0.016
-305.851	-200.000	-0.008	0.045
-304.837	-10.046	0.308	-0.202
-303.822	176.935	0.109	-0.157
-302.807	-200.000	0.075	-0.327
-301.793	628.108	0.051	-0.128
-300.778	486.259	-0.080	0.180
-299.764	-35.280	0.237	0.127
-298.749	-99.786	0.244	0.060
-297.735	800.000	-0.058	0.193
-296.720	-27.024	-0.215	0.124
-295.705	-28.761	0.170	0.097
-294.691	305.677	0.102	0.187
-293.676	800.000	0.042	-0.117
-292.662	-75.096	-0.206	0.073
-291.647	-160.570	-0.214	0.011
-290.632	154.326	-0.230	0.312
-289.618	-38.716	0.177	-0.092
-288.603	800.000	-0.046	0.182
-287.589	800.000	0.131	0.380
-286.574	259.398	-0.154	0.262
-285.559	-31.224	0.160	-0.089
-284.545	-11.644	0.276	-0.179
-283.530	24.093	0.054	0.044
-282.516	20.285	-0.080	-0.064
-281.501	-103.305	0.362	-0.084
-280.486	-78.443	-0.341	0.115
-279.472	551.351	0.147	-0.347
-278.457	-200.000	0.007	0.087
-277.443	22.663	0.312	-0.252
-276.428	109.335	-0.235	0.277
-275.413	-59.667	0.367	0.155
-274.399	-148.884	0.332	-0.026
-273.384	-71.856	-0.441	0.162
-272.370	92.287	0.261	-0.290
-271.355	800.000	-0.090	0.290
-270.340	-1.286	0.221	0.154
-269.326	-70.386	0.077	-0.029
-268.311	-126.943	0.054	0.008
-267.297	-117.693	-0.212	-0.038
-266.282	800.000	0.027	0.113
-265.267	307.840	0.145	-0.266
-264.253	-121.157	-0.224	-0.037
-263.238	-20.708	-0.195	0.118
-262.224	55.459	0.179	-0.171
-261.209	126.143	0.081	-0.101
-260.195	-94.949	-0.325	-0.087
-259.180	20.422	-0.174	0.138
-258.165	460.196	-0.041	-0.090
-257.151	127.847	0.141	0.177
-256.136	800.000	-0.111	-0.381
-255.122	226.983	-0.203	-0.325
-254.107	-200.000	-0.030	0.202
-253.092	-200.000	0.019	0.263
-252.078	-200.000	0.030	0.254
-251.063	800.000	-0.062	-0.175
-250.049	445.256	-0.157	-0.339
-249.034	800.000	0.036	-0.154
-248.019	-133.800	0.182	-0.022
-247.005	169.392	0.035	-0.049
-245.990	800.000	-0.045	0.169
-244.976	226.803	-0.111	0.178
-243.961	-115.862	-0.083	-0.015
-242.946	38.185	-0.117	-0.103
-241.932	-162.577	0.286	0.014
-240.917	800.000	0.055	0.178
-239.903	-57.089	-0.101	0.044
-238.888	-80.532	0.420	-0.138
-237.873	548.409	0.031	-0.073
-236.859	224.373	0.203	0.324
-235.844	-22.712	-0.262	0.156
-234.830	48.171	-0.209	0.192
-233.815	172.648	-0.252	-0.358
-232.800	-128.181	0.302	-0.042
-231.786	58.851	0.140	0.136
-230.771	447.937	0.106	0.230
-229.757	182.044	-0.139	-0.201
-228.742	763.926	-0.121	-0.324
-227.727	151.908	0.052	0.070
-226.713	-136.849	-0.287	-0.032
-225.698	-75.201	0.164	-0.058
-224.684	-65.133	-0.239	-0.095
-223.669	-59.260	0.109	0.046
-222.655	30.735	-0.116	0.098
-221.640	-200.000	0.026	0.172
-220.625	670.358	0.009	0.023
-219.611	-16.833	-0.035	-0.022
-218.596	-52.651	0.092	-0.042
-217.582	381.268	-0.021	-0.042
-216.567	197.021	-0.164	-0.245
-215.552	18.569	0.098	0.077
-214.538	800.000	0.104	0.336
-213.523	69.238	0.207	0.209
-212.509	129.242	0.030	-0.038
-211.494	-120.490	-0.271	-0.045
-210.479	800.000	0.039	0.108
-209.465	-61.003	-0.306	0.127
-208.450	-3.549	0.225	0.154
-207.436	800.000	-0.061	0.197
-206.421	-103.151	0.297	-0.069
-205.406	-200.000	-0.019	0.099
-204.392	-97.768	-0.182	0.046
-203.377	-166.188	0.162	-0.007
-202.363	-200.000	-0.021	-0.316
-201.348	-200.000	0.014	0.366
-200.333	-200.000	0.001	0.037
-199.319	-2.022	0.335	0.232
-198.304	176.952	-0.064	0.092
-197.290	-200.000	0.017	-0.146
-196.275	176.476	-0.050	-0.072
-195.260	93.957	0.184	-0.205
-194.246	-79.161	-0.120	0.040
-193.231	708.450	0.097	0.253
-192.217	-96.124	-0.340	-0.089
-191.202	446.790	-0.115	-0.250
-190.187	33.413	-0.126	-0.107
-189.173	198.311	0.231	0.347
-188.158	110.532	0.153	0.180
-187.144	-99.273	0.295	0.073
-186.129	-60.707	0.346	-0.144
-185.114	-19.864	-0.220	-0.134
-184.100	9.456	-0.109	-0.081
-183.085	128.427	-0.173	0.216
-182.071	63.402	-0.198	-0.195
-181.056	-74.450	0.336	-0.119
-180.042	31.976	-0.240	0.203
-179.027	-4.718	0.166	0.113
-178.012	287.649	0.097	-0.172
-176.998	98.017	-0.176	-0.199
-175.983	-200.000	0.007	-0.070
-174.969	-200.000	0.007	0.166
-173.954	717.701	0.011	0.029
-172.939	-93.570	0.062	0.017
-171.925	158.495	0.104	0.142
-170.910	-150.976	0.279	-0.021
-169.896	-22.466	0.195	0.116
-168.881	20.381	-0.352	0.280
-167.866	800.000	-0.019	-0.073
-166.852	-112.139	0.289	-0.057
-165.837	317.146	-0.022	-0.042
-164.823	-79.697	-0.211	-0.070
-163.808	98.991	0.070	0.080
-162.793	-92.860	-0.312	-0.086
-161.779	-137.894	-0.120	0.013
-160.764	159.514	-0.153	-0.210
-159.750	-200.000	-0.204	0.000
-158.735	5.647	0.260	-0.189
-157.720	800.000	0.091	0.250
-156.706	16.653	0.061	0.047
-155.691	-51.456	0.172	-0.079
-154.677	318.962	0.071	0.132
-153.662	768.776	0.023	-0.060
-152.647	-82.666	0.170	0.054
-151.633	66.909	0.138	0.138
-150.618	-200.000	-0.035	0.395
-149.604	-158.557	0.165	0.009
-148.589	54.686	0.228	0.216
-147.574	-190.173	-0.204	-0.002
-146.560	194.193	-0.188	-0.280
-145.545	-120.091	0.150	-0.025
-144.531	-105.195	-0.192	-0.043
-143.516	487.186	0.030	-0.068
-142.502	59.495	-0.128	0.123
-141.487	-200.000	-0.041	-0.395
-140.472	-127.294	-0.192	-0.028
-139.458	6.296	-0.240	-0.175
-138.443	102.628	-0.142	0.162
-137.429	-85.853	-0.227	0.069
-136.414	800.000	-0.089	-0.245
-135.399	-78.289	0.066	0.022
-134.385	237.578	-0.112	0.183
-133.370	272.059	-0.008	0.014
-132.356	390.582	0.092	0.187
-131.341	508.580	0.078	0.178
-130.326	-200.000	-0.016	-0.087
-129.312	-83.740	0.267	0.083
-128.297	-100.224	0.376	0.092
-127.283	-25.016	0.240	0.140
-126.268	-200.000	-0.010	-0.196
-125.253	188.492	-0.128	-0.187
-124.239	-28.958	0.095	-0.054
-123.224	800.000	0.081	-0.227
-122.210	-200.000	-0.004	0.139
-121.195	345.111	0.146	-0.282
