DTS Sentinel unit serial number:	SN413079Multiplexer serial number:	ORYXHardware model number:	OX4-SRSoftware version number:	ORYX F/W v4.00 Oryx Data Collector v3.7.2.0data status	okinstallation	princeton_trtdifferential loss correction	single-endedforward channel	channel 2reverse channel	N/Adate	2019/09/17time	21:07:35forward acquisition time	60.00reverse acquisition time	0.00gamma	496.2192k internal	0.2338k external	0.2338temperature offset calibration	0.9983default loss term (dB/km)	0.3790temperature slope calibration	1.0000multiplexer offset coefficient	1.0000multiplexer slope coefficient	1.0000fibre end	0.00T internal ref (°C)	28.25T ext. ref 1 (°C)	0.19T ext. ref 2 (°C)	19.80length (m)	temperature (°C)	Stokes	anti-Stokes-747.200	800.000	0.051	-0.217
-746.185	-54.968	0.092	0.042
-745.171	0.782	0.205	-0.147
-744.156	52.910	-0.061	-0.059
-743.142	-59.561	0.093	-0.040
-742.127	83.442	0.266	0.291
-741.112	579.175	0.068	-0.166
-740.098	201.525	-0.291	0.450
-739.083	800.000	0.061	0.212
-738.069	-115.550	0.219	-0.041
-737.054	-37.304	-0.181	0.097
-736.039	-139.632	-0.332	0.035
-735.025	800.000	-0.101	0.365
-734.010	39.269	0.228	0.205
-732.996	800.000	-0.072	0.200
-731.981	228.258	-0.066	0.107
-730.966	-200.000	0.035	-0.257
-729.952	-61.557	-0.205	-0.086
-728.937	-200.000	-0.037	0.215
-727.923	97.393	0.220	-0.253
-726.908	-200.000	0.002	0.074
-725.894	152.947	-0.117	-0.160
-724.879	256.669	0.094	-0.162
-723.864	-200.000	-0.015	0.124
-722.850	-66.823	0.193	-0.076
-721.835	-82.428	0.299	-0.097
-720.821	-2.619	-0.273	-0.191
-719.806	-57.065	0.086	0.038
-718.791	800.000	-0.021	-0.082
-717.777	26.040	0.247	0.206
-716.762	800.000	-0.034	0.099
-715.748	-128.458	-0.343	0.049
-714.733	-114.317	0.301	-0.058
-713.718	314.310	-0.071	0.134
-712.704	187.855	0.147	-0.220
-711.689	800.000	-0.122	-0.354
-710.675	53.313	0.146	-0.140
-709.660	695.395	-0.090	0.236
-708.645	-200.000	0.001	0.141
-707.631	110.698	0.050	-0.061
-706.616	386.507	0.069	-0.143
-705.602	-76.708	-0.157	0.055
-704.587	-3.019	0.283	-0.198
-703.572	459.802	-0.111	0.248
-702.558	-128.933	0.232	-0.033
-701.543	800.000	-0.071	0.237
-700.529	-10.441	0.212	-0.141
-699.514	45.629	0.088	-0.082
-698.499	333.491	-0.150	-0.290
-697.485	800.000	0.042	-0.127
-696.470	382.630	0.002	0.004
-695.456	-148.829	0.359	-0.029
-694.441	-94.288	0.119	-0.033
-693.426	76.241	0.144	0.153
-692.412	-200.000	0.000	-0.219
-691.397	326.105	-0.177	-0.339
-690.383	-39.395	-0.343	0.180
-689.368	55.018	-0.364	0.352
-688.354	-200.000	-0.091	0.546
-687.339	30.427	0.266	0.228
-686.324	800.000	-0.102	-0.368
-685.310	-91.364	-0.146	-0.042
-684.295	22.173	0.079	-0.064
-683.281	-200.000	0.057	0.330
-682.266	-200.000	-0.028	0.202
-681.251	74.706	0.202	0.213
-680.237	425.277	-0.140	0.302
-679.222	-200.000	-0.050	0.233
-678.208	154.060	0.212	0.291
-677.193	-0.659	-0.262	0.186
-676.178	98.839	0.049	0.057
-675.164	43.126	0.279	-0.255
-674.149	176.283	-0.120	0.174
-673.135	-132.203	0.376	0.049
-672.120	13.756	0.116	0.090
-671.105	56.980	-0.123	-0.120
-670.091	-29.033	0.172	-0.099
-669.076	800.000	0.038	-0.152
-668.062	-43.156	-0.145	0.073
-667.047	-200.000	0.023	0.208
-666.032	-119.763	0.148	-0.025
-665.018	-200.000	0.037	-0.400
-664.003	398.703	0.159	0.333
-662.989	340.182	0.158	0.309
-661.974	-200.000	-0.055	-0.544
-660.959	-200.000	-0.063	-0.426
-659.945	-5.521	0.225	-0.154
-658.930	137.259	0.038	0.050
-657.916	-200.000	0.016	0.123
-656.901	-172.472	-0.286	-0.009
-655.886	154.376	-0.148	-0.203
-654.872	-84.207	-0.361	-0.114
-653.857	-157.087	-0.087	-0.005
-652.843	-67.687	0.103	-0.040
-651.828	142.458	-0.212	0.281
-650.814	-117.081	0.082	-0.015
-649.799	-88.314	-0.208	-0.062
-648.784	97.252	0.297	-0.340
-647.770	21.279	0.059	-0.048
-646.755	103.034	0.222	-0.260
-645.741	81.102	-0.190	-0.205
-644.726	441.069	-0.053	0.116
-643.711	-35.670	-0.137	-0.074
-642.697	-56.946	0.360	-0.159
-641.682	-17.590	-0.151	-0.095
-640.668	-15.637	0.186	-0.118
-639.653	800.000	-0.024	-0.081
-638.638	800.000	0.066	0.188
-637.624	-78.876	-0.147	-0.050
-636.609	-17.418	-0.146	0.092
-635.595	-100.281	-0.592	0.147
-634.580	3.011	-0.162	0.117
-633.565	418.755	-0.091	0.194
-632.551	34.931	-0.047	0.041
-631.536	30.913	-0.247	-0.211
-630.522	269.686	-0.174	0.306
-629.507	-113.819	0.061	0.012
-628.492	800.000	0.133	-0.516
-627.478	-200.000	0.081	0.359
-626.463	-51.167	-0.108	0.051
-625.449	-45.293	0.109	-0.054
-624.434	-151.360	-0.227	0.017
-623.419	-200.000	0.020	0.353
-622.405	403.209	-0.063	0.132
-621.390	128.336	0.221	-0.281
-620.376	143.453	-0.165	0.219
-619.361	173.335	0.197	0.284
-618.346	-200.000	-0.018	0.242
-617.332	177.338	0.200	-0.290
-616.317	-85.160	-0.493	0.154
-615.303	767.044	0.081	0.219
-614.288	-57.167	-0.320	-0.141
-613.273	-144.058	0.323	0.030
-612.259	-200.000	0.013	-0.058
-611.244	-200.000	-0.010	0.056
-610.230	-100.291	-0.335	0.083
-609.215	-200.000	-0.002	0.030
-608.201	800.000	0.036	-0.120
-607.186	753.191	0.119	-0.322
-606.171	116.857	0.118	0.145
-605.157	-133.996	0.248	-0.031
-604.142	-17.124	-0.261	-0.164
-603.128	626.180	0.076	0.191
-602.113	217.883	-0.033	-0.053
-601.098	-71.971	0.135	0.050
-600.084	73.200	-0.288	0.301
-599.069	-152.801	0.193	0.014
-598.055	53.827	-0.145	-0.139
-597.040	-58.528	0.249	-0.108
-596.025	402.489	-0.073	-0.153
-595.011	-104.520	0.265	-0.061
-593.996	-66.237	-0.267	-0.106
-592.982	-30.020	-0.135	0.077
-591.967	-20.978	0.320	-0.196
-590.952	74.744	-0.206	0.216
-589.938	-200.000	-0.068	-0.300
-588.923	-89.055	0.091	-0.027
-587.909	-92.341	-0.024	0.007
-586.894	-200.000	-0.027	-0.162
-585.879	-97.382	-0.039	0.010
-584.865	-56.090	0.194	0.086
-583.850	11.719	-0.052	-0.039
-582.836	-183.324	0.512	0.009
-581.821	482.608	0.060	-0.137
-580.806	-200.000	0.051	-0.292
-579.792	-200.000	0.028	-0.433
-578.777	46.410	0.118	-0.109
-577.763	-19.486	-0.111	0.069
-576.748	643.585	-0.036	-0.091
-575.733	709.132	-0.027	0.071
-574.719	-84.340	-0.206	-0.065
-573.704	352.504	0.079	-0.155
-572.690	800.000	-0.018	-0.056
-571.675	74.920	-0.088	0.092
-570.661	5.324	0.067	-0.049
-569.646	800.000	-0.109	-0.327
-568.631	-149.269	0.251	-0.020
-567.617	-200.000	0.055	-0.318
-566.602	-157.662	-0.292	0.017
-565.588	-200.000	0.020	0.123
-564.573	-68.797	-0.082	-0.032
-563.558	620.043	-0.124	0.310
-562.544	79.728	0.176	-0.189
-561.529	-27.323	-0.186	0.108
-560.515	26.763	-0.320	0.267
-559.500	-90.003	0.206	-0.060
-558.485	-103.359	0.202	0.047
-557.471	-100.719	0.271	0.067
-556.456	193.359	0.242	0.364
-555.442	-83.962	0.141	-0.045
-554.427	-200.000	0.011	0.224
-553.412	-200.000	-0.004	0.163
-552.398	128.860	0.102	0.130
-551.383	-41.168	-0.281	-0.144
-550.369	800.000	0.123	0.418
-549.354	-88.468	0.182	0.054
-548.339	-200.000	0.021	-0.254
-547.325	-108.329	0.208	0.045
-546.310	-162.629	-0.155	0.008
-545.296	-67.105	-0.234	0.092
-544.281	-200.000	0.016	0.153
-543.266	51.258	-0.371	0.350
-542.252	-32.675	-0.129	0.072
-541.237	70.575	-0.157	0.161
-540.223	-158.545	-0.217	0.012
-539.208	-108.536	-0.017	0.004
-538.193	-98.952	-0.207	0.052
-537.179	-21.378	-0.159	0.097
-536.164	50.087	0.222	0.208
-535.150	444.138	0.026	0.057
-534.135	-28.786	0.156	0.089
-533.121	14.925	0.313	0.244
-532.106	-112.205	-0.138	0.027
-531.091	68.470	0.086	-0.088
-530.077	-200.000	-0.036	-0.179
-529.062	333.862	0.045	-0.087
-528.048	-66.331	0.187	-0.074
-527.033	39.226	0.014	-0.012
-526.018	208.743	-0.203	-0.315
-525.004	-59.895	-0.257	0.109
-523.989	-151.435	0.349	0.026
-522.975	-35.834	-0.114	0.061
-521.960	198.479	0.207	-0.315
-520.945	-113.075	0.241	0.047
-519.931	-45.704	0.165	-0.081
-518.916	-26.453	-0.260	-0.152
-517.902	-200.000	0.347	-0.001
-516.887	-111.642	-0.225	-0.045
-515.872	-122.323	-0.210	0.034
-514.858	151.935	0.029	0.039
-513.843	-7.701	-0.214	-0.144
-512.829	-47.280	0.081	-0.039
-511.814	14.102	0.088	0.068
-510.799	334.526	-0.201	-0.387
-509.785	-84.838	-0.470	-0.147
-508.770	-18.477	-0.340	0.211
-507.756	-73.049	0.117	-0.043
-506.741	423.638	0.073	0.155
-505.726	-56.145	0.140	0.062
-504.712	-62.660	0.154	0.064
-503.697	390.709	0.122	-0.251
-502.683	-121.548	-0.198	-0.033
-501.668	42.908	-0.078	-0.071
-500.653	-164.571	0.046	-0.002
-499.639	-200.000	-0.008	0.129
-498.624	-161.358	0.257	-0.013
-497.610	11.597	0.159	0.121
-496.595	-57.210	-0.126	0.055
-495.581	139.205	-0.140	-0.183
-494.566	-32.557	0.182	0.101
-493.551	-104.293	0.117	-0.027
-492.537	228.378	-0.049	0.080
-491.522	-160.450	0.257	0.014
-490.508	64.511	0.186	-0.186
-489.493	265.608	0.029	-0.050
-488.478	46.435	-0.212	0.196
-487.464	-119.967	-0.273	0.047
-486.449	-200.000	0.173	-0.001
-485.435	118.299	-0.167	-0.205
-484.420	800.000	0.052	0.177
-483.405	-83.234	0.398	-0.127
-482.391	67.446	0.038	0.039
-481.376	-46.014	-0.362	0.177
-480.362	-19.588	-0.434	0.267
-479.347	307.575	-0.066	-0.121
-478.332	-200.000	-0.040	0.231
-477.318	121.505	-0.277	-0.343
-476.303	-194.640	-0.132	0.001
-475.289	-108.651	0.123	-0.026
-474.274	373.626	0.054	-0.109
-473.259	3.602	0.131	-0.095
-472.245	-9.481	-0.118	-0.078
-471.230	21.704	0.025	0.020
-470.216	-184.325	0.501	-0.008
-469.201	-113.924	-0.323	0.062
-468.186	22.708	-0.250	0.203
-467.172	-200.000	-0.001	0.016
-466.157	390.399	0.208	-0.427
-465.143	254.405	0.175	0.297
-464.128	800.000	0.079	0.280
-463.113	800.000	0.016	0.052
-462.099	-200.000	-0.025	0.229
-461.084	73.988	0.160	0.167
-460.070	-193.031	-0.268	-0.002
-459.055	-22.998	-0.211	0.126
-458.040	-200.000	0.025	0.235
-457.026	-160.361	-0.402	-0.021
-456.011	-37.974	-0.084	-0.044
-454.997	-86.065	0.204	0.062
-453.982	747.307	0.062	-0.166
-452.968	-36.366	-0.153	0.082
-451.953	9.184	-0.195	0.146
-450.938	-194.804	-0.265	-0.002
-449.924	170.924	0.185	-0.263
-448.909	-143.024	0.211	-0.020
-447.895	149.893	-0.167	-0.225
-446.880	-137.800	0.156	-0.017
-445.865	-61.238	0.224	0.093
-444.851	-142.102	0.593	-0.058
-443.836	-4.378	0.212	0.145
-442.822	-98.109	-0.227	0.058
-441.807	335.102	0.105	-0.203
-440.792	-200.000	0.003	-0.127
-439.778	-200.000	0.015	-0.259
-438.763	800.000	-0.092	-0.254
-437.749	800.000	-0.102	-0.318
-436.734	-75.932	-0.176	0.062
-435.719	-66.837	-0.176	0.069
-434.705	-200.000	0.049	0.241
-433.690	-179.325	-0.284	0.006
-432.676	-72.797	0.248	-0.091
-431.661	252.546	-0.149	0.252
-430.646	172.226	-0.239	-0.341
-429.632	-56.594	-0.040	0.017
-428.617	293.047	-0.057	-0.103
-427.603	94.276	-0.183	0.206
-426.588	-200.000	0.003	0.164
-425.573	-112.404	0.383	0.076
-424.559	-62.590	0.111	0.046
-423.544	-22.754	0.318	-0.190
-422.530	-117.531	0.295	-0.053
-421.515	-11.484	0.170	-0.111
-420.500	114.076	-0.202	0.244
-419.486	-166.039	-0.246	0.010
-418.471	32.662	0.189	-0.162
-417.457	91.140	-0.099	-0.110
-416.442	177.936	0.112	-0.162
-415.428	-61.379	0.194	-0.081
-414.413	674.160	0.051	-0.132
-413.398	240.107	-0.128	-0.211
-412.384	-83.631	0.355	0.112
-411.369	113.047	0.034	-0.041
-410.355	107.391	-0.298	0.350
-409.340	26.902	-0.109	-0.090
-408.325	70.287	-0.161	0.164
-407.311	-80.727	0.268	0.088
-406.296	-42.216	-0.298	0.151
-405.282	-101.729	0.180	0.043
-404.267	34.063	-0.292	0.252
-403.252	343.684	0.182	-0.353
-402.238	800.000	0.026	0.094
-401.223	-125.323	-0.032	-0.005
-400.209	331.545	0.093	-0.177
-399.194	-132.691	0.204	0.026
-398.179	0.027	-0.286	-0.201
-397.165	247.522	0.166	0.277
-396.150	209.499	0.261	-0.404
-395.136	-47.168	0.175	-0.085
-394.121	189.258	0.181	-0.268
-393.106	-200.000	0.020	-0.209
-392.092	-43.267	0.257	-0.129
-391.077	-112.894	-0.104	0.020
-390.063	-200.000	-0.014	-0.076
-389.048	65.504	0.058	-0.058
-388.033	-19.526	0.202	-0.124
-387.019	-200.000	-0.000	0.356
-386.004	542.403	0.109	0.258
-384.990	224.664	-0.230	-0.368
-383.975	53.204	0.227	-0.215
-382.960	345.408	-0.058	-0.113
-381.946	6.092	-0.292	-0.214
-380.931	210.322	-0.139	-0.215
-379.917	142.312	-0.220	0.289
-378.902	-101.475	-0.368	0.089
-377.888	499.559	0.022	0.050
-376.873	-96.686	0.141	0.037
-375.858	145.513	-0.112	-0.148
-374.844	37.476	-0.241	0.211
-373.829	311.346	0.084	0.155
-372.815	-3.750	0.136	-0.093
-371.800	-17.170	-0.144	-0.090
-370.785	-143.598	0.022	0.002
-369.771	-200.000	0.003	0.281
-368.756	645.999	-0.054	-0.135
-367.742	-103.113	0.044	0.010
-366.727	111.978	0.137	-0.164
-365.712	800.000	-0.022	0.072
-364.698	800.000	-0.045	0.128
-363.683	-142.090	0.305	-0.030
-362.669	222.201	0.074	0.118
-361.654	-166.732	0.213	-0.009
-360.639	53.079	0.473	0.447
-359.625	800.000	0.090	0.298
-358.610	19.309	0.265	0.210
-357.596	-77.635	0.059	-0.020
-356.581	-200.000	0.025	-0.171
-355.566	18.434	-0.091	0.072
-354.552	-168.381	-0.386	0.015
-353.537	-24.970	-0.075	0.044
-352.523	800.000	0.077	-0.318
-351.508	-88.110	-0.144	0.043
-350.493	83.048	0.336	-0.361
-349.479	23.388	0.077	-0.063
-348.464	800.000	0.059	-0.198
-347.450	60.937	-0.131	-0.128
-346.435	-67.187	-0.502	-0.195
-345.420	-135.109	0.288	0.034
-344.406	604.975	0.120	-0.295
-343.391	-117.327	-0.368	0.066
-342.377	25.988	0.080	-0.066
-341.362	683.944	0.073	0.188
-340.348	73.562	0.218	-0.226
-339.333	-158.854	0.194	-0.011
-338.318	800.000	0.019	0.072
-337.304	27.516	0.144	0.120
-336.289	19.393	0.067	0.053
-335.275	-103.429	-0.388	-0.090
-334.260	553.113	0.013	-0.030
-333.245	109.786	-0.058	-0.069
-332.231	-125.650	-0.143	-0.021
-331.216	374.173	0.070	0.142
-330.202	262.284	0.016	-0.028
-329.187	-93.709	-0.041	0.011
-328.172	330.815	-0.197	0.375
-327.158	-57.957	0.136	-0.059
-326.143	-200.000	-0.034	0.208
-325.129	41.063	-0.182	-0.163
-324.114	-200.000	-0.012	0.315
-323.099	800.000	-0.114	0.321
-322.085	460.456	-0.055	-0.121
-321.070	163.180	-0.161	-0.224
-320.056	41.908	0.067	0.060
-319.041	114.866	-0.105	0.126
-318.026	-103.022	0.330	0.077
-317.012	-156.578	-0.409	-0.025
-315.997	494.039	-0.015	-0.034
-314.983	224.086	-0.118	-0.188
-313.968	-138.161	0.111	-0.012
-312.953	-41.102	-0.404	-0.206
-311.939	-3.587	0.185	-0.127
-310.924	-200.000	-0.001	-0.193
-309.910	800.000	0.077	-0.214
-308.895	800.000	-0.066	-0.271
-307.880	-42.064	0.212	-0.107
-306.866	-17.149	-0.348	0.217
-305.851	124.293	-0.357	0.443
-304.837	800.000	-0.055	-0.152
-303.822	150.715	-0.231	0.310
-302.807	-138.096	0.430	-0.047
-301.793	-169.768	-0.137	0.005
-300.778	200.439	-0.085	0.129
-299.764	406.422	-0.116	0.241
-298.749	-66.970	-0.082	-0.032
-297.735	-26.807	0.414	-0.239
-296.720	-200.000	-0.011	-0.154
-295.705	325.695	0.048	-0.090
-294.691	-200.000	-0.025	0.234
-293.676	-100.189	0.232	-0.057
-292.662	-148.692	0.199	-0.016
-291.647	-27.588	-0.130	-0.075
-290.632	-12.541	-0.201	0.129
-289.618	800.000	-0.078	0.227
-288.603	-200.000	-0.002	0.076
-287.589	73.873	-0.126	-0.130
-286.574	565.556	0.066	-0.157
-285.559	62.077	0.270	-0.265
-284.545	800.000	-0.080	-0.280
-283.530	-24.462	0.117	-0.069
-282.516	7.365	0.044	0.033
-281.501	157.798	-0.023	-0.031
-280.486	235.891	0.045	-0.073
-279.472	-97.622	0.119	-0.030
-278.457	800.000	-0.037	0.149
-277.443	-119.544	0.469	0.080
-276.428	-86.177	-0.096	0.029
-275.413	-128.847	0.361	0.050
-274.399	-99.210	-0.041	-0.010
-273.384	-200.000	-0.021	-0.124
-272.370	541.319	-0.080	0.188
-271.355	20.346	0.196	0.156
-270.340	-200.000	0.036	-0.172
-269.326	-115.764	0.306	-0.057
-268.311	800.000	0.068	-0.276
-267.297	-150.297	0.109	-0.008
-266.282	330.757	0.182	0.346
-265.267	66.598	0.063	-0.063
-264.253	800.000	-0.028	-0.082
-263.238	-27.274	-0.272	0.156
-262.224	379.560	-0.080	-0.162
-261.209	-137.662	-0.233	-0.026
-260.195	-58.219	0.245	-0.105
-259.180	-19.056	0.093	0.057
-258.165	-200.000	-0.063	0.422
-257.151	-200.000	-0.030	-0.145
-256.136	34.846	-0.302	-0.260
-255.122	-7.065	0.167	0.112
-254.107	45.341	0.275	0.250
-253.092	479.740	0.119	0.266
-252.078	280.522	-0.127	0.223
-251.063	361.701	-0.012	-0.024
-250.049	-117.773	0.181	-0.032
-249.034	-200.000	-0.002	-0.300
-248.019	765.243	-0.017	-0.045
-247.005	-53.568	0.174	-0.078
-245.990	101.359	-0.156	-0.179
-244.976	2.730	-0.149	-0.107
-243.961	-98.953	-0.185	0.046
-242.946	-131.125	-0.391	0.051
-241.932	-200.000	0.020	-0.261
-240.917	67.895	-0.202	0.203
-239.903	-104.040	-0.020	0.005
-238.888	48.554	0.109	-0.100
-237.873	-200.000	-0.006	-0.601
-236.859	800.000	0.061	-0.241
-235.844	-143.633	0.259	0.024
-234.830	563.819	-0.125	0.298
-233.815	-200.000	0.036	0.193
-232.800	-42.013	0.202	-0.102
-231.786	1.478	-0.373	0.264
-230.771	56.114	0.175	0.167
-229.757	15.318	0.276	0.213
-228.742	-135.012	-0.052	0.006
-227.727	-163.841	-0.339	0.016
-226.713	-22.538	0.175	0.104
-225.698	-38.472	0.263	-0.137
-224.684	162.840	-0.132	0.182
-223.669	-99.471	-0.261	-0.064
-222.655	-200.000	-0.091	0.498
-221.640	445.210	-0.044	0.094
-220.625	-20.629	0.158	0.096
-219.611	-159.948	-0.249	0.013
-218.596	-141.044	-0.066	0.007
-217.582	-200.000	0.034	0.459
-216.567	-200.000	-0.021	0.172
-215.552	-200.000	0.027	0.238
-214.538	90.019	-0.136	0.150
-213.523	-191.123	0.157	-0.002
-212.509	27.297	0.352	-0.291
-211.494	-88.591	0.082	-0.024
-210.479	-137.746	0.153	0.017
-209.465	800.000	-0.058	-0.168
-208.450	342.867	-0.070	-0.135
-207.436	-69.898	-0.032	-0.012
-206.421	263.156	-0.005	-0.009
-205.406	97.832	-0.091	-0.103
-204.392	113.716	0.108	-0.129
-203.377	-40.863	0.095	0.048
-202.363	33.890	0.153	0.131
-201.348	-115.798	0.364	-0.067
-200.333	-38.072	0.291	-0.152
-199.319	72.984	-0.113	0.116
-198.304	-200.000	-0.011	-0.136
-197.290	82.531	0.068	0.073
-196.275	-121.018	-0.194	0.032
-195.260	-8.781	-0.203	-0.133
-194.246	82.431	0.195	0.208
-193.231	31.959	0.332	0.281
-192.217	-200.000	-0.014	-0.095
-191.202	-123.193	-0.303	-0.048
-190.187	800.000	-0.040	-0.144
-189.173	-29.757	0.063	0.035
-188.158	267.719	0.149	-0.256
-187.144	-115.633	-0.235	-0.043
-186.129	54.010	-0.202	-0.191
-185.114	66.972	-0.170	0.170
-184.100	-200.000	0.057	0.277
-183.085	-76.469	0.021	0.007
-182.071	22.215	-0.294	0.236
-181.056	-67.928	-0.269	0.103
-180.042	63.934	0.217	0.214
-179.027	800.000	0.078	0.271
-178.012	358.261	0.014	0.028
-176.998	-154.700	-0.229	-0.015
-175.983	-200.000	0.010	-0.222
-174.969	382.918	0.100	-0.202
-173.954	-44.444	0.137	0.067
-172.939	173.845	0.111	-0.157
-171.925	-41.633	-0.509	0.256
-170.910	-116.565	0.140	0.025
-169.896	161.000	0.249	0.341
-168.881	800.000	0.048	0.167
-167.866	-22.476	-0.138	0.082
-166.852	-99.232	-0.040	0.010
-165.837	23.441	-0.237	-0.191
-164.823	610.827	-0.052	-0.127
-163.808	267.609	-0.215	0.369
-162.793	-200.000	0.032	0.184
-161.779	-200.000	-0.027	0.137
-160.764	-138.747	0.225	0.024
-159.750	-117.333	-0.149	-0.027
-158.735	800.000	-0.036	0.153
-157.720	-46.587	-0.114	-0.055
-156.706	-10.526	0.164	-0.107
-155.691	163.262	0.100	-0.138
-154.677	-200.000	-0.005	-0.105
-153.662	18.508	0.107	-0.083
-152.647	800.000	0.031	-0.093
-151.633	800.000	-0.101	-0.384
-150.618	-159.205	0.252	-0.014
-149.604	240.273	0.132	-0.215
-148.589	204.137	-0.194	0.294
-147.574	-45.764	0.144	-0.070
-146.560	-60.335	-0.127	-0.053
-145.545	-3.774	0.223	0.152
-144.531	255.915	-0.221	0.372
-143.516	-23.493	-0.103	0.060
-142.502	122.058	-0.033	0.040
-141.487	26.742	0.147	0.121
-140.472	408.934	-0.061	0.127
-139.458	-25.235	0.060	-0.035
-138.443	-16.340	0.371	0.231
-137.429	744.880	0.105	0.278
-136.414	-200.000	0.005	0.262
-135.399	-200.000	-0.026	-0.259
-134.385	-79.961	0.368	0.121
-133.370	-114.259	0.239	0.045
-132.356	37.570	0.149	-0.129
-131.341	800.000	0.059	-0.186
-130.326	212.963	0.212	-0.329
-129.312	-200.000	0.039	0.176
-128.297	501.121	0.171	0.388
-127.283	85.540	0.013	-0.014
-126.268	78.719	-0.078	0.082
-125.253	-73.091	-0.331	0.119
-124.239	-77.616	0.210	0.071
-123.224	50.381	0.220	-0.204
-122.210	-122.297	-0.036	0.006
-121.195	-55.350	0.126	0.055
-120.180	-176.266	0.332	0.008
