DTS Sentinel unit serial number:	SN413079Multiplexer serial number:	ORYXHardware model number:	OX4-SRSoftware version number:	ORYX F/W v4.00 Oryx Data Collector v3.7.2.0data status	okinstallation	princeton_trtdifferential loss correction	single-endedforward channel	channel 2reverse channel	N/Adate	2019/09/12time	08:09:11forward acquisition time	60.00reverse acquisition time	0.00gamma	496.2192k internal	0.2319k external	0.2319temperature offset calibration	1.0064default loss term (dB/km)	0.3790temperature slope calibration	1.0000multiplexer offset coefficient	1.0000multiplexer slope coefficient	1.0000fibre end	0.00T internal ref (°C)	33.22T ext. ref 1 (°C)	1.69T ext. ref 2 (°C)	29.76length (m)	temperature (°C)	Stokes	anti-Stokes-747.200	-154.120	-0.044	-0.003
-746.185	-200.000	0.032	0.466
-745.171	65.482	0.246	-0.252
-744.156	-130.708	-0.249	-0.034
-743.142	-115.575	-0.239	-0.045
-742.127	-200.000	0.260	0.001
-741.112	-36.112	0.116	0.063
-740.098	164.573	0.256	0.364
-739.083	113.760	-0.085	-0.105
-738.069	-69.842	0.181	0.070
-737.054	242.218	0.127	0.215
-736.039	103.067	0.187	0.221
-735.025	-29.367	-0.171	0.099
-734.010	-200.000	0.010	-0.077
-732.996	-19.492	-0.270	-0.169
-731.981	-200.000	0.032	-0.146
-730.966	-67.377	-0.047	0.019
-729.952	-51.224	-0.265	-0.126
-728.937	-4.511	-0.352	-0.246
-727.923	-200.000	-0.015	-0.151
-726.908	572.152	0.018	0.046
-725.894	-200.000	0.066	0.409
-724.879	182.023	0.172	0.257
-723.864	-160.888	-0.026	0.001
-722.850	77.088	-0.266	0.286
-721.835	800.000	-0.111	-0.318
-720.821	-39.143	0.074	0.039
-719.806	-69.671	-0.188	0.073
-718.791	281.914	-0.140	0.253
-717.777	-99.646	0.014	-0.003
-716.762	-86.520	-0.377	0.117
-715.748	-40.011	0.215	-0.113
-714.733	-144.566	-0.237	-0.022
-713.718	-138.581	-0.232	-0.026
-712.704	-134.975	-0.158	-0.019
-711.689	-122.994	-0.222	0.036
-710.675	14.890	-0.208	-0.164
-709.660	-200.000	0.038	-0.186
-708.645	-12.639	0.151	-0.099
-707.631	-25.605	-0.200	-0.119
-706.616	-11.859	0.210	0.139
-705.602	-68.640	0.122	-0.048
-704.587	-94.405	-0.186	0.051
-703.572	-200.000	0.009	0.095
-702.558	-86.921	0.082	0.025
-701.543	-37.205	-0.075	0.041
-700.529	309.989	-0.130	-0.245
-699.514	-200.000	-0.023	-0.252
-698.499	181.965	-0.219	0.326
-697.485	-13.212	-0.170	-0.111
-696.470	-139.394	-0.060	-0.007
-695.456	-116.639	-0.360	-0.067
-694.441	27.216	0.102	-0.086
-693.426	-162.897	0.134	0.007
-692.412	3.220	-0.195	0.143
-691.397	772.544	-0.040	0.110
-690.383	731.382	0.068	-0.184
-689.368	-195.995	-0.241	-0.002
-688.354	323.102	0.239	0.460
-687.339	478.107	0.120	0.273
-686.324	242.856	0.055	0.093
-685.310	22.630	-0.075	-0.062
-684.295	386.296	-0.071	0.148
-683.281	95.745	-0.202	-0.232
-682.266	-200.000	0.034	0.197
-681.251	-200.000	-0.021	0.185
-680.237	3.837	0.290	-0.214
-679.222	800.000	-0.076	-0.247
-678.208	-118.100	0.172	0.031
-677.193	-200.000	-0.004	0.205
-676.178	-136.881	-0.196	0.023
-675.164	44.817	0.158	-0.147
-674.149	-78.762	-0.542	-0.187
-673.135	-62.641	0.096	-0.040
-672.120	-94.250	-0.039	-0.011
-671.105	-118.703	0.258	0.046
-670.091	113.799	-0.243	0.297
-669.076	-161.357	-0.220	-0.012
-668.062	11.043	-0.233	0.179
-667.047	-200.000	-0.005	0.073
-666.032	-114.867	0.123	0.024
-665.018	16.267	0.182	0.145
-664.003	-54.135	-0.121	0.055
-662.989	-200.000	0.009	-0.107
-661.974	38.924	-0.099	-0.089
-660.959	-8.235	-0.252	-0.171
-659.945	-158.162	-0.595	0.035
-658.930	78.688	0.104	0.112
-657.916	118.796	-0.133	-0.165
-656.901	-93.517	-0.137	0.038
-655.886	-77.571	0.173	0.060
-654.872	18.727	0.046	0.037
-653.857	-6.992	-0.119	0.081
-652.843	5.937	0.070	0.052
-651.828	99.330	0.256	0.298
-650.814	129.030	-0.080	0.103
-649.799	258.972	-0.202	-0.352
-648.784	-33.029	-0.095	0.053
-647.770	800.000	0.041	-0.180
-646.755	24.892	0.141	-0.118
-645.741	-109.863	-0.050	-0.011
-644.726	800.000	-0.044	0.155
-643.711	128.348	-0.236	-0.303
-642.697	-13.743	0.037	-0.024
-641.682	-21.450	0.298	-0.183
-640.668	21.178	0.252	0.206
-639.653	-200.000	0.052	-0.351
-638.638	-86.529	-0.200	-0.062
-637.624	672.405	0.014	0.036
-636.609	-51.990	-0.280	0.131
-635.595	73.912	-0.046	0.049
-634.580	-67.749	-0.146	-0.058
-633.565	-200.000	-0.076	-0.449
-632.551	800.000	0.058	-0.169
-631.536	-200.000	-0.023	0.117
-630.522	-86.926	0.082	-0.025
-629.507	-10.222	0.155	0.104
-628.492	-160.553	-0.136	0.007
-627.478	-42.216	0.105	-0.054
-626.463	756.826	0.020	0.055
-625.449	-1.388	-0.126	-0.089
-624.434	-1.468	-0.212	0.150
-623.419	-200.000	0.012	-0.101
-622.405	-127.574	0.523	0.076
-621.390	-33.244	-0.213	0.119
-620.376	-42.675	0.177	-0.091
-619.361	-109.666	-0.297	0.063
-618.346	-200.000	-0.022	0.310
-617.332	338.138	-0.160	0.314
-616.317	-35.071	-0.233	0.128
-615.303	-200.000	0.010	0.230
-614.288	-110.186	0.099	-0.021
-613.273	-200.000	-0.006	-0.310
-612.259	275.038	-0.181	0.323
-611.244	800.000	0.043	0.167
-610.230	-24.065	-0.150	0.090
-609.215	29.271	0.158	0.135
-608.201	-69.789	-0.340	0.131
-607.186	-84.921	-0.227	0.072
-606.171	149.772	-0.141	-0.192
-605.157	62.358	0.250	-0.251
-604.142	-111.897	0.286	0.058
-603.128	800.000	0.038	0.121
-602.113	-22.854	0.250	-0.151
-601.098	800.000	0.010	0.032
-600.084	-128.887	-0.227	0.032
-599.069	-122.569	-0.152	-0.025
-598.055	106.496	0.161	0.192
-597.040	424.322	-0.133	0.287
-596.025	-200.000	0.003	0.353
-595.011	-138.854	-0.238	0.026
-593.996	-25.281	-0.382	-0.227
-592.982	-147.976	0.358	-0.030
-591.967	-166.021	0.154	0.007
-590.952	-200.000	-0.016	0.165
-589.938	-123.022	0.125	-0.020
-588.923	17.680	0.268	-0.214
-587.909	-88.147	0.206	-0.062
-586.894	581.400	-0.023	0.058
-585.879	664.683	-0.154	-0.399
-584.865	-200.000	0.060	0.427
-583.850	-98.139	-0.238	0.061
-582.836	41.665	0.192	0.175
-581.821	-85.515	0.256	-0.080
-580.806	139.894	-0.141	0.187
-579.792	800.000	0.103	-0.309
-578.777	-200.000	-0.011	0.161
-577.763	-37.135	0.057	0.030
-576.748	68.031	-0.313	-0.322
-575.733	-73.063	-0.392	0.144
-574.719	-200.000	-0.023	0.144
-573.704	800.000	0.072	0.229
-572.690	-136.531	0.145	0.017
-571.675	680.130	0.108	-0.282
-570.661	110.512	-0.236	-0.285
-569.646	697.240	-0.090	0.239
-568.631	-8.907	-0.374	-0.252
-567.617	-64.030	0.160	0.065
-566.602	-83.737	0.348	-0.112
-565.588	-75.307	0.328	-0.117
-564.573	-165.987	0.419	-0.018
-563.558	140.696	-0.148	-0.197
-562.544	-68.311	-0.244	0.095
-561.529	800.000	0.081	0.346
-560.515	-200.000	-0.012	-0.088
-559.500	-180.043	0.233	0.005
-558.485	21.079	0.244	-0.199
-557.471	800.000	0.053	0.215
-556.456	469.929	-0.059	0.133
-555.442	-200.000	-0.016	0.151
-554.427	-57.666	0.138	0.061
-553.412	-37.520	-0.248	0.133
-552.398	120.473	-0.078	0.098
-551.383	184.108	0.062	-0.092
-550.369	-91.512	-0.152	0.044
-549.354	418.795	-0.085	0.182
-548.339	488.778	-0.094	0.215
-547.325	-113.886	-0.275	0.054
-546.310	-200.000	0.093	-0.553
-545.296	198.553	-0.027	-0.041
-544.281	-200.000	-0.050	0.261
-543.266	182.980	-0.130	0.193
-542.252	-33.881	0.360	0.199
-541.237	-102.609	-0.237	0.057
-540.223	-108.873	-0.218	0.047
-539.208	3.908	-0.197	0.144
-538.193	800.000	0.075	-0.299
-537.179	356.427	-0.095	0.190
-536.164	-175.796	-0.194	-0.005
-535.150	800.000	-0.049	-0.165
-534.135	-104.781	0.096	0.022
-533.121	-115.655	-0.073	0.014
-532.106	121.077	-0.103	-0.129
-531.091	-200.000	0.331	0.001
-530.077	-124.572	0.143	-0.022
-529.062	-115.912	-0.290	0.054
-528.048	-126.014	-0.260	0.039
-527.033	-30.220	-0.059	0.034
-526.018	-96.738	0.067	0.018
-525.004	-3.723	-0.388	0.270
-523.989	800.000	0.068	0.290
-522.975	-147.789	-0.254	-0.021
-521.960	-45.574	0.426	-0.212
-520.945	-4.214	-0.072	0.050
-519.931	186.125	-0.247	-0.369
-518.916	268.405	0.031	0.055
-517.902	-200.000	-0.004	-0.195
-516.887	-200.000	0.033	0.157
-515.872	800.000	0.176	0.498
-514.858	800.000	0.131	-0.381
-513.843	11.997	-0.211	0.163
-512.829	647.719	0.108	0.277
-511.814	173.703	0.086	-0.124
-510.799	-146.424	-0.091	-0.008
-509.785	208.882	0.221	-0.347
-508.770	800.000	-0.148	-0.434
-507.756	131.434	-0.130	-0.168
-506.741	80.182	0.159	-0.171
-505.726	509.394	0.031	0.072
-504.712	-200.000	0.006	0.060
-503.697	-148.482	-0.065	-0.005
-502.683	-147.285	0.170	0.014
-501.668	397.414	0.059	0.124
-500.653	800.000	-0.081	0.260
-499.639	-200.000	-0.105	-0.487
-498.624	-200.000	-0.043	-0.346
-497.610	-86.004	0.180	0.056
-496.595	-170.805	-0.201	-0.007
-495.581	-108.027	-0.181	0.039
-494.566	800.000	-0.011	-0.046
-493.551	-117.864	-0.277	-0.050
-492.537	44.935	0.178	0.164
-491.522	800.000	0.038	0.105
-490.508	88.648	0.169	0.189
-489.493	-44.846	-0.118	-0.059
-488.478	-56.026	0.155	-0.069
-487.464	-14.310	-0.139	-0.090
-486.449	163.658	0.168	-0.237
-485.435	-31.921	-0.171	0.096
-484.420	-184.024	-0.110	0.002
-483.405	-111.630	-0.261	-0.053
-482.391	190.499	0.085	0.128
-481.376	377.203	-0.098	0.201
-480.362	226.295	-0.194	-0.315
-479.347	298.160	0.160	0.295
-478.332	360.324	0.174	-0.348
-477.318	-119.851	0.165	0.028
-476.303	-125.661	-0.067	-0.010
-475.289	-69.807	-0.210	0.080
-474.274	86.650	0.092	-0.102
-473.259	-103.220	-0.142	0.034
-472.245	-75.294	0.146	0.052
-471.230	21.045	0.056	-0.045
-470.216	-200.000	0.028	0.231
-469.201	-200.000	-0.087	-0.403
-468.186	-200.000	-0.013	0.229
-467.172	77.907	-0.310	0.331
-466.157	503.497	0.077	-0.179
-465.143	-35.603	0.282	0.153
-464.128	486.096	0.012	-0.027
-463.113	-9.496	0.182	-0.121
-462.099	15.150	0.052	-0.041
-461.084	-108.047	0.033	0.007
-460.070	-93.925	0.344	-0.095
-459.055	800.000	-0.026	-0.108
-458.040	725.709	0.057	-0.151
-457.026	800.000	-0.039	-0.145
-456.011	-35.598	-0.280	-0.152
-454.997	95.501	-0.169	-0.192
-453.982	-79.404	-0.130	0.044
-452.968	-16.846	0.100	-0.063
-451.953	22.210	0.113	-0.092
-450.938	200.732	-0.189	-0.291
-449.924	800.000	0.029	-0.092
-448.909	105.136	0.018	0.022
-447.895	-138.217	-0.254	0.028
-446.880	271.828	0.081	0.142
-445.865	-116.578	-0.163	-0.030
-444.851	-109.327	0.365	0.077
-443.836	147.848	0.125	0.169
-442.822	-137.132	0.187	-0.021
-441.807	-200.000	-0.030	0.198
-440.792	26.287	-0.294	0.245
-439.778	-200.000	0.036	-0.279
-438.763	-200.000	-0.035	-0.246
-437.749	42.084	-0.107	0.097
-436.734	800.000	0.188	0.530
-435.719	-200.000	-0.042	0.322
-434.705	-106.049	-0.296	-0.067
-433.690	-46.160	0.084	0.041
-432.676	-200.000	0.025	0.118
-431.661	-59.934	0.116	-0.049
-430.646	-162.436	0.308	0.015
-429.632	56.479	-0.223	0.216
-428.617	800.000	-0.022	-0.067
-427.603	341.938	-0.070	0.136
-426.588	-163.893	-0.252	-0.012
-425.573	-137.012	0.331	0.038
-424.559	800.000	0.040	0.145
-423.544	-122.956	-0.108	-0.017
-422.530	399.219	0.189	-0.396
-421.515	189.683	0.135	-0.203
-420.500	114.763	0.110	-0.134
-419.486	66.066	0.162	-0.164
-418.471	800.000	0.041	0.157
-417.457	-150.279	-0.134	-0.010
-416.442	-6.641	-0.101	0.068
-415.428	116.775	-0.149	-0.182
-414.413	61.620	0.301	0.299
-413.398	76.311	-0.081	-0.086
-412.384	-200.000	0.011	-0.071
-411.369	-200.000	-0.036	0.218
-410.355	434.807	-0.019	-0.040
-409.340	-174.284	-0.223	0.006
-408.325	-148.417	-0.329	0.027
-407.311	-106.692	0.220	-0.049
-406.296	-200.000	0.021	-0.277
-405.282	-41.256	0.303	0.156
-404.267	800.000	-0.070	-0.225
-403.252	16.221	0.099	0.078
-402.238	-200.000	-0.051	0.238
-401.223	-46.104	-0.264	-0.130
-400.209	-52.827	-0.238	0.109
-399.194	-200.000	0.023	0.102
-398.179	-6.760	-0.222	-0.151
-397.165	-177.908	0.196	-0.005
-396.150	-46.787	0.350	-0.171
-395.136	-132.090	-0.333	0.043
-394.121	342.575	0.130	0.254
-393.106	69.168	-0.129	-0.132
-392.092	-0.388	-0.170	0.120
-391.077	-200.000	-0.029	0.319
-390.063	-200.000	-0.037	-0.171
-389.048	-200.000	0.005	-0.037
-388.033	95.730	0.211	-0.241
-387.019	1.940	0.056	0.041
-386.004	-149.399	-0.249	-0.020
-384.990	-112.139	0.056	-0.011
-383.975	-200.000	-0.011	0.091
-382.960	-200.000	0.075	0.344
-381.946	-47.238	-0.197	0.096
-380.931	-200.000	-0.330	0.000
-379.917	-19.269	0.226	-0.140
-378.902	-83.239	-0.220	0.071
-377.888	-49.112	-0.415	-0.198
-376.873	349.639	0.132	-0.261
-375.858	800.000	0.052	0.154
-374.844	74.127	-0.071	0.075
-373.829	-51.258	-0.151	0.070
-372.815	-115.403	0.245	-0.046
-371.800	-90.195	-0.179	-0.052
-370.785	253.197	-0.124	-0.211
-369.771	-200.000	-0.014	-0.099
-368.756	-57.736	0.287	-0.125
-367.742	-200.000	0.016	0.165
-366.727	326.405	0.106	-0.203
-365.712	-76.831	-0.190	-0.066
-364.698	626.865	0.024	0.060
-363.683	800.000	0.019	-0.054
-362.669	723.048	0.010	-0.028
-361.654	-132.404	0.425	0.055
-360.639	84.484	0.162	0.177
-359.625	-79.048	-0.362	0.123
-358.610	-50.179	0.178	0.084
-357.596	489.419	-0.122	0.278
-356.581	78.512	-0.086	-0.092
-355.566	-23.645	0.290	-0.174
-354.552	0.890	-0.196	0.140
-353.537	-118.075	0.249	0.044
-352.523	3.288	-0.029	0.021
-351.508	325.810	0.073	0.140
-350.493	319.671	-0.036	0.068
-349.479	-51.605	0.289	-0.134
-348.464	-80.122	-0.255	0.085
-347.450	-77.599	-0.192	0.066
-346.435	156.401	0.070	-0.096
-345.420	-200.000	-0.490	-0.001
-344.406	42.642	0.234	-0.212
-343.391	-48.149	0.088	0.043
-342.377	-200.000	-0.004	0.314
-341.362	-75.807	-0.237	-0.084
-340.348	155.757	0.150	-0.206
-339.333	-187.421	-0.157	-0.002
-338.318	147.174	0.074	0.100
-337.304	272.982	0.054	-0.095
-336.289	402.173	0.088	0.184
-335.275	124.271	-0.095	0.118
-334.260	-137.705	-0.092	-0.010
-333.245	800.000	0.031	0.099
-332.231	-200.000	-0.031	-0.210
-331.216	-121.720	-0.224	-0.037
-330.202	-200.000	0.056	-0.357
-329.187	74.767	-0.093	-0.097
-328.172	145.942	0.166	-0.221
-327.158	120.283	0.173	-0.214
-326.143	-179.276	0.098	-0.002
-325.129	-47.094	-0.164	-0.080
-324.114	-136.088	-0.120	0.014
-323.099	-43.070	-0.174	0.088
-322.085	-65.367	0.143	-0.057
-321.070	401.131	-0.081	0.169
-320.056	37.292	0.077	0.068
-319.041	-200.000	0.008	0.340
-318.026	800.000	0.099	-0.390
-317.012	-58.236	0.081	0.035
-315.997	-86.369	0.116	-0.035
-314.983	-53.609	0.273	0.124
-313.968	-200.000	0.013	-0.171
-312.953	-200.000	-0.017	0.446
-311.939	-147.887	-0.271	-0.022
-310.924	-66.834	-0.328	0.129
-309.910	57.047	-0.091	0.088
-308.895	731.509	-0.079	0.211
-307.880	297.253	0.139	-0.253
-306.866	-44.306	-0.327	0.163
-305.851	-200.000	-0.008	0.128
-304.837	35.531	0.222	-0.194
-303.822	278.925	0.051	0.091
-302.807	225.846	0.022	-0.036
-301.793	-200.000	-0.003	-0.173
-300.778	-200.000	0.002	-0.111
-299.764	-134.058	0.328	-0.040
-298.749	234.258	-0.144	0.235
-297.735	-90.833	0.246	-0.070
-296.720	-200.000	0.011	0.177
-295.705	306.643	0.244	-0.452
-294.691	-75.328	-0.164	-0.058
-293.676	-27.340	-0.051	0.029
-292.662	191.694	-0.139	-0.207
-291.647	-49.996	0.218	-0.103
-290.632	-131.408	0.272	0.036
-289.618	800.000	0.046	0.148
-288.603	-200.000	0.006	0.156
-287.589	-121.015	0.230	0.038
-286.574	-163.101	0.136	0.007
-285.559	800.000	0.077	0.221
-284.545	-161.697	0.059	-0.003
-283.530	10.695	0.209	0.158
-282.516	-98.302	0.114	-0.029
-281.501	-19.821	0.208	-0.128
-280.486	87.006	-0.042	0.046
-279.472	-144.531	0.180	0.017
-278.457	-200.000	-0.032	0.323
-277.443	182.582	0.122	0.179
-276.428	-200.000	0.010	0.106
-275.413	-200.000	-0.039	-0.203
-274.399	347.519	0.218	0.426
-273.384	-48.833	-0.238	-0.113
-272.370	800.000	0.202	-0.570
-271.355	37.161	0.149	0.131
-270.340	-62.810	-0.066	-0.027
-269.326	-200.000	0.058	0.342
-268.311	-200.000	-0.008	-0.319
-267.297	-10.576	-0.298	-0.196
-266.282	-200.000	-0.007	0.124
-265.267	800.000	-0.063	0.256
-264.253	-44.115	0.083	0.042
-263.238	342.082	-0.095	-0.185
-262.224	-60.728	-0.117	0.049
-261.209	-200.000	0.014	-0.088
-260.195	335.443	0.081	-0.155
-259.180	-200.000	-0.016	-0.142
-258.165	-11.059	0.281	0.184
-257.151	-41.827	-0.287	0.146
-256.136	800.000	-0.005	0.015
-255.122	61.302	-0.071	0.070
-254.107	-200.000	-0.049	0.302
-253.092	-200.000	0.050	0.482
-252.078	15.293	0.021	0.016
-251.063	-95.858	-0.181	0.048
-250.049	4.992	-0.251	0.184
-249.034	83.842	-0.225	0.243
-248.019	-58.725	0.121	0.052
-247.005	-115.804	-0.151	-0.028
-245.990	-200.000	0.001	0.079
-244.976	248.034	0.035	0.059
-243.961	26.728	-0.078	-0.065
-242.946	118.603	-0.086	-0.106
-241.932	30.023	-0.049	0.041
-240.917	-200.000	-0.020	0.224
-239.903	48.857	0.084	-0.079
-238.888	44.663	-0.196	-0.179
-237.873	800.000	-0.036	-0.124
-236.859	800.000	0.073	-0.199
-235.844	-200.000	0.001	-0.017
-234.830	58.616	-0.105	0.102
-233.815	15.085	-0.246	0.191
-232.800	6.228	-0.304	0.224
-231.786	800.000	-0.088	-0.303
-230.771	127.956	0.151	-0.190
-229.757	-54.296	-0.133	0.060
-228.742	26.932	0.072	-0.060
-227.727	-83.681	0.195	-0.062
-226.713	-101.520	0.144	-0.035
-225.698	-107.591	-0.167	0.036
-224.684	800.000	-0.047	0.147
-223.669	170.941	0.277	-0.394
-222.655	20.008	0.090	0.072
-221.640	384.801	0.173	-0.354
-220.625	-200.000	-0.014	-0.154
-219.611	-200.000	0.052	0.253
-218.596	363.947	0.129	0.257
-217.582	23.151	0.359	-0.292
-216.567	-200.000	-0.016	-0.227
-215.552	800.000	-0.054	0.205
-214.538	-200.000	0.006	-0.114
-213.523	-178.964	0.087	-0.002
-212.509	-200.000	-0.073	-0.317
-211.494	-200.000	-0.034	0.213
-210.479	-111.455	-0.191	0.039
-209.465	-200.000	-0.012	-0.065
-208.450	25.988	0.180	0.149
-207.436	-17.022	0.356	0.222
-206.421	692.491	0.076	-0.197
-205.406	0.406	0.227	0.161
-204.392	-105.879	0.101	-0.023
-203.377	-97.050	0.253	-0.066
-202.363	387.409	0.099	0.203
-201.348	28.606	0.228	-0.191
-200.333	-88.338	0.153	-0.045
-199.319	-86.708	0.039	0.012
-198.304	-70.213	0.073	0.027
-197.290	-200.000	-0.005	-0.063
-196.275	759.471	-0.036	0.096
-195.260	86.939	-0.220	-0.241
-194.246	53.648	0.087	-0.083
-193.231	-80.714	-0.165	-0.054
-192.217	-200.000	-0.005	-0.044
-191.202	138.968	0.138	0.179
-190.187	-126.457	-0.072	0.011
-189.173	-171.829	-0.201	0.007
-188.158	-65.002	0.271	-0.108
-187.144	-76.778	-0.282	0.098
-186.129	-106.271	0.086	-0.019
-185.114	53.579	0.296	0.281
-184.100	-200.000	-0.007	-0.399
-183.085	465.886	-0.077	-0.171
-182.071	-200.000	-0.029	0.308
-181.056	50.106	0.213	0.199
-180.042	702.044	-0.039	0.101
-179.027	92.736	0.102	-0.114
-178.012	-25.645	-0.364	-0.212
-176.998	52.853	-0.039	-0.037
-175.983	428.170	0.117	0.250
-174.969	800.000	-0.125	-0.473
-173.954	78.799	0.164	-0.174
-172.939	17.462	-0.223	0.175
-171.925	-10.316	-0.063	-0.041
-170.910	36.600	0.234	0.204
-169.896	-81.453	-0.209	0.068
-168.881	-79.170	0.338	-0.113
-167.866	59.845	0.154	0.151
-166.852	-99.266	0.140	0.035
-165.837	214.226	0.123	-0.192
-164.823	-80.773	0.204	0.067
-163.808	-124.381	-0.246	-0.038
-162.793	-34.112	0.323	-0.176
-161.779	47.929	-0.180	-0.166
-160.764	-54.425	0.381	-0.171
-159.750	31.189	-0.203	0.172
-158.735	190.898	-0.089	-0.133
-157.720	174.845	-0.122	-0.175
-156.706	-200.000	-0.015	-0.257
-155.691	-29.875	0.086	-0.048
-154.677	61.643	0.107	0.106
-153.662	800.000	-0.076	-0.250
-152.647	-200.000	-0.031	0.151
-151.633	189.993	-0.089	-0.132
-150.618	-200.000	0.034	-0.387
-149.604	-79.540	0.404	0.135
-148.589	-200.000	-0.035	0.364
-147.574	500.931	0.106	-0.242
-146.560	37.494	0.191	0.167
-145.545	-165.617	-0.088	-0.004
-144.531	-200.000	-0.037	0.162
-143.516	36.511	0.048	-0.042
-142.502	34.212	-0.052	-0.045
-141.487	-102.034	0.089	0.021
-140.472	-84.152	0.142	-0.045
-139.458	60.826	-0.157	0.154
-138.443	800.000	-0.099	-0.332
-137.429	-36.711	0.205	0.109
-136.414	-200.000	0.021	-0.235
-135.399	110.421	-0.168	0.200
-134.385	312.546	0.099	0.184
-133.370	-15.658	-0.204	-0.128
-132.356	-61.436	0.119	-0.050
-131.341	784.077	-0.129	0.348
-130.326	415.199	0.041	0.086
-129.312	-200.000	0.033	-0.212
-128.297	-22.516	-0.205	-0.122
-127.283	627.053	0.009	0.021
-126.268	-200.000	-0.012	-0.254
-125.253	800.000	-0.045	-0.131
-124.239	-200.000	0.022	0.151
-123.224	-71.050	0.032	0.012
-122.210	-200.000	-0.031	-0.143
-121.195	124.830	0.100	-0.124
