DTS Sentinel unit serial number:	SN413079Multiplexer serial number:	ORYXHardware model number:	OX4-SRSoftware version number:	ORYX F/W v4.00 Oryx Data Collector v3.7.2.0data status	okinstallation	princeton_trtdifferential loss correction	single-endedforward channel	channel 2reverse channel	N/Adate	2019/09/15time	19:11:35forward acquisition time	60.00reverse acquisition time	0.00gamma	496.2192k internal	0.2302k external	0.2302temperature offset calibration	0.9931default loss term (dB/km)	0.3790temperature slope calibration	1.0000multiplexer offset coefficient	1.0000multiplexer slope coefficient	1.0000fibre end	0.00T internal ref (°C)	40.89T ext. ref 1 (°C)	7.13T ext. ref 2 (°C)	30.18length (m)	temperature (°C)	Stokes	anti-Stokes-747.200	282.456	-0.066	0.120
-746.185	-89.349	-0.302	0.091
-745.171	39.997	-0.247	-0.226
-744.156	-49.571	-0.079	-0.039
-743.142	800.000	0.100	-0.314
-742.127	156.714	-0.073	0.103
-741.112	596.436	0.095	0.240
-740.098	800.000	0.034	0.098
-739.083	-150.296	-0.185	-0.015
-738.069	631.575	0.023	0.058
-737.054	-87.588	-0.388	0.120
-736.039	5.661	0.207	0.156
-735.025	-41.812	0.277	0.145
-734.010	414.706	0.137	-0.298
-732.996	15.314	-0.275	-0.220
-731.981	-200.000	0.001	-0.113
-730.966	-110.475	0.074	0.016
-729.952	123.633	-0.071	0.091
-728.937	-33.209	0.174	0.098
-727.923	800.000	-0.073	-0.221
-726.908	251.683	-0.074	-0.128
-725.894	698.876	-0.076	-0.204
-724.879	-139.048	-0.167	-0.018
-723.864	41.999	0.050	0.047
-722.850	281.174	0.150	-0.274
-721.835	-90.993	-0.146	-0.043
-720.821	800.000	0.060	-0.192
-719.806	800.000	-0.087	0.248
-718.791	-74.530	-0.242	0.089
-717.777	-200.000	-0.034	0.319
-716.762	-4.405	0.395	0.278
-715.748	-137.736	0.095	0.011
-714.733	67.926	-0.144	0.150
-713.718	54.471	0.114	0.112
-712.704	-113.599	-0.312	-0.062
-711.689	-8.242	0.244	-0.167
-710.675	-103.292	-0.361	-0.087
-709.660	217.061	-0.031	-0.050
-708.645	3.997	-0.384	-0.286
-707.631	-200.000	0.025	0.310
-706.616	216.225	-0.041	-0.067
-705.602	-21.350	-0.140	-0.087
-704.587	-24.955	-0.092	0.056
-703.572	-146.953	0.271	-0.024
-702.558	800.000	-0.022	-0.080
-701.543	-10.040	0.128	0.087
-700.529	-37.264	-0.068	0.037
-699.514	-200.000	0.020	-0.323
-698.499	-3.069	0.096	-0.068
-697.485	800.000	-0.045	-0.128
-696.470	-200.000	0.039	0.177
-695.456	-29.113	0.245	-0.143
-694.441	70.548	-0.073	-0.077
-693.426	154.382	0.152	-0.212
-692.412	-130.123	0.346	-0.048
-691.397	-136.025	-0.250	0.030
-690.383	711.742	-0.101	-0.271
-689.368	620.396	0.062	0.160
-688.354	-62.145	0.284	0.120
-687.339	-110.624	0.211	0.044
-686.324	-82.377	-0.223	0.074
-685.310	800.000	0.063	-0.268
-684.295	-200.000	-0.019	-0.168
-683.281	21.183	0.103	-0.085
-682.266	-108.134	-0.082	0.018
-681.251	171.548	0.083	-0.121
-680.237	160.304	-0.086	-0.121
-679.222	-200.000	-0.023	-0.181
-678.208	800.000	-0.058	0.163
-677.193	290.219	0.045	0.083
-676.178	481.637	-0.019	-0.044
-675.164	-85.555	0.326	0.103
-674.149	-68.952	-0.372	-0.146
-673.135	333.764	0.196	-0.386
-672.120	7.523	0.128	0.097
-671.105	4.820	0.049	0.036
-670.091	26.102	0.200	-0.170
-669.076	-99.044	0.159	0.041
-668.062	265.382	-0.024	-0.042
-667.047	129.996	0.085	-0.110
-666.032	800.000	0.055	-0.236
-665.018	641.420	0.094	-0.242
-664.003	800.000	-0.021	-0.082
-662.989	222.119	-0.173	-0.282
-661.974	-133.730	0.205	0.026
-660.959	-9.473	0.079	0.053
-659.945	-200.000	-0.013	-0.258
-658.930	45.618	0.130	0.122
-657.916	800.000	0.053	0.177
-656.901	108.499	0.062	-0.075
-655.886	-200.000	0.032	0.159
-654.872	-154.515	0.266	-0.018
-653.857	-134.340	-0.194	0.024
-652.843	98.175	0.092	0.108
-651.828	226.860	-0.038	0.063
-650.814	-64.635	0.311	-0.128
-649.799	-200.000	-0.007	-0.122
-648.784	-9.262	0.165	0.112
-647.770	54.244	-0.133	-0.130
-646.755	1.338	-0.290	0.211
-645.741	-121.699	0.303	0.051
-644.726	-200.000	-0.012	-0.229
-643.711	288.845	0.152	-0.280
-642.697	-78.359	0.135	-0.047
-641.682	76.656	-0.013	-0.014
-640.668	-64.534	0.254	-0.105
-639.653	-200.000	0.033	-0.269
-638.638	119.520	-0.042	-0.053
-637.624	54.319	0.152	-0.149
-636.609	2.055	-0.217	-0.159
-635.595	-27.043	0.156	-0.092
-634.580	-91.448	0.118	0.034
-633.565	-200.000	-0.050	-0.255
-632.551	428.396	0.130	-0.285
-631.536	-79.936	-0.161	0.055
-630.522	255.598	-0.251	0.437
-629.507	14.385	0.084	0.066
-628.492	-35.190	-0.146	-0.081
-627.478	-29.511	-0.077	-0.045
-626.463	303.783	-0.126	-0.238
-625.449	144.881	0.332	0.450
-624.434	-56.036	0.132	0.060
-623.419	800.000	-0.018	-0.072
-622.405	800.000	-0.100	-0.338
-621.390	374.502	0.202	-0.418
-620.376	123.150	0.201	-0.255
-619.361	-55.258	0.039	0.018
-618.346	-200.000	-0.049	-0.293
-617.332	-74.552	-0.117	-0.043
-616.317	481.684	-0.126	-0.290
-615.303	-200.000	0.039	-0.239
-614.288	25.689	0.298	-0.252
-613.273	118.992	-0.094	-0.117
-612.259	27.336	-0.223	0.190
-611.244	-70.047	0.202	-0.078
-610.230	-65.080	0.322	0.132
-609.215	84.913	-0.035	0.039
-608.201	-131.421	-0.223	0.030
-607.186	-200.000	0.000	0.002
-606.171	800.000	0.059	0.198
-605.157	-179.017	-0.294	0.007
-604.142	30.486	0.263	0.228
-603.128	326.511	0.045	0.088
-602.113	19.412	-0.229	0.187
-601.098	-113.850	0.217	-0.043
-600.084	7.407	0.121	0.092
-599.069	-200.000	0.038	0.532
-598.055	-93.932	-0.267	-0.074
-597.040	-65.605	-0.158	-0.064
-596.025	559.182	-0.049	-0.119
-595.011	37.503	0.123	0.110
-593.996	-6.224	0.070	-0.048
-592.982	-125.688	-0.369	-0.057
-591.967	-200.000	-0.018	0.305
-590.952	10.466	0.312	0.241
-589.938	270.905	0.152	0.271
-588.923	153.228	-0.321	0.445
-587.909	-200.000	-0.008	0.059
-586.894	172.925	0.129	-0.188
-585.879	-5.641	0.219	0.152
-584.865	3.407	0.095	0.070
-583.850	-4.003	-0.191	0.134
-582.836	157.433	-0.012	-0.017
-581.821	79.023	-0.251	-0.272
-580.806	-161.604	0.305	-0.016
-579.792	-200.000	0.011	-0.175
-578.777	602.436	0.124	-0.312
-577.763	800.000	0.059	-0.178
-576.748	800.000	0.097	-0.333
-575.733	-157.692	0.193	-0.012
-574.719	-59.217	0.110	0.048
-573.704	-30.843	0.141	-0.081
-572.690	800.000	-0.092	-0.266
-571.675	-200.000	0.036	-0.174
-570.661	-39.887	0.357	0.189
-569.646	13.899	0.116	-0.092
-568.631	-127.868	-0.054	-0.008
-567.617	199.643	-0.087	0.135
-566.602	57.851	-0.066	-0.066
-565.588	333.642	0.107	-0.210
-564.573	36.832	0.193	-0.173
-563.558	-200.000	-0.032	0.201
-562.544	-148.715	-0.177	-0.015
-561.529	-66.774	-0.255	-0.102
-560.515	-200.000	-0.016	0.108
-559.500	-200.000	0.006	-0.272
-558.485	-19.881	-0.171	-0.107
-557.471	-200.000	-0.013	-0.169
-556.456	800.000	-0.027	-0.097
-555.442	-17.406	0.082	-0.052
-554.427	293.912	0.088	0.162
-553.412	167.975	-0.127	0.183
-552.398	-81.008	-0.329	-0.110
-551.383	-200.000	-0.001	0.044
-550.369	2.896	0.272	-0.200
-549.354	267.639	0.133	0.236
-548.339	241.277	-0.141	-0.238
-547.325	-40.480	0.158	0.083
-546.310	800.000	-0.069	0.271
-545.296	-200.000	0.001	-0.090
-544.281	-114.464	-0.283	-0.055
-543.266	75.183	0.057	0.060
-542.252	-149.496	0.323	0.026
-541.237	54.877	-0.332	-0.324
-540.223	55.965	0.084	0.082
-539.208	-101.894	-0.287	-0.070
-538.193	255.178	-0.189	0.328
-537.179	-143.866	-0.331	-0.032
-536.164	-109.193	-0.135	0.029
-535.150	800.000	-0.053	-0.224
-534.135	168.840	-0.050	-0.072
-533.121	22.955	-0.347	-0.287
-532.106	-158.277	-0.249	-0.015
-531.091	-183.104	-0.088	-0.002
-530.077	141.720	0.099	0.133
-529.062	86.642	0.119	-0.133
-528.048	-128.824	0.201	-0.029
-527.033	-124.713	-0.341	0.053
-526.018	-68.326	0.121	0.048
-525.004	214.593	-0.024	-0.038
-523.989	-54.881	-0.097	0.044
-522.975	197.863	-0.053	-0.082
-521.960	-200.000	0.006	-0.428
-520.945	536.776	-0.106	-0.253
-519.931	318.082	0.048	-0.092
-518.916	-83.356	0.187	0.060
-517.902	-131.434	-0.247	0.033
-516.887	-31.029	-0.336	0.192
-515.872	247.828	0.129	0.220
-514.858	121.784	-0.268	0.337
-513.843	8.557	0.179	0.136
-512.829	31.118	0.094	0.082
-511.814	-79.907	-0.289	0.098
-510.799	-29.156	-0.041	-0.024
-509.785	-200.000	0.049	0.379
-508.770	28.829	-0.017	-0.014
-507.756	-126.963	-0.039	-0.006
-506.741	-200.000	-0.017	0.191
-505.726	-103.237	0.272	-0.065
-504.712	-26.267	-0.078	-0.046
-503.697	-200.000	-0.026	0.407
-502.683	-92.640	-0.271	0.077
-501.668	607.351	-0.043	0.108
-500.653	19.048	0.170	-0.137
-499.639	-200.000	0.019	0.235
-498.624	-95.308	-0.111	-0.030
-497.610	-200.000	-0.039	0.185
-496.595	-128.470	0.211	-0.030
-495.581	800.000	-0.079	-0.286
-494.566	134.861	0.150	-0.196
-493.551	-200.000	0.020	-0.331
-492.537	-175.891	0.141	-0.004
-491.522	-154.037	-0.302	-0.021
-490.508	-200.000	0.088	-0.539
-489.493	156.367	-0.151	0.210
-488.478	-62.670	-0.039	-0.016
-487.464	-31.570	0.240	0.136
-486.449	101.885	0.101	0.119
-485.435	800.000	0.019	0.068
-484.420	130.528	0.232	0.300
-483.405	668.058	0.017	0.043
-482.391	-200.000	0.035	-0.393
-481.376	121.709	-0.083	-0.105
-480.362	800.000	-0.078	0.304
-479.347	203.380	-0.111	-0.174
-478.332	-200.000	0.053	-0.256
-477.318	-68.015	-0.522	0.205
-476.303	235.022	0.060	-0.101
-475.289	-200.000	-0.016	-0.092
-474.274	-111.207	0.069	0.014
-473.259	228.175	0.031	0.051
-472.245	-200.000	-0.026	0.167
-471.230	-200.000	-0.020	0.157
-470.216	800.000	0.104	0.298
-469.201	92.580	-0.138	-0.157
-468.186	88.708	-0.208	0.233
-467.172	56.939	-0.219	0.215
-466.157	-122.936	0.291	-0.047
-465.143	-200.000	0.003	-0.213
-464.128	715.875	-0.109	0.292
-463.113	-82.230	-0.223	0.073
-462.099	-85.028	-0.164	0.052
-461.084	800.000	0.011	0.046
-460.070	-33.092	-0.232	-0.130
-459.055	-118.655	-0.133	-0.024
-458.040	-78.589	-0.398	0.137
-457.026	-64.058	0.105	-0.043
-456.011	262.659	-0.041	0.071
-454.997	-200.000	-0.021	-0.314
-453.982	-130.852	0.144	-0.019
-452.968	-182.593	-0.296	-0.005
-451.953	-200.000	-0.030	-0.311
-450.938	23.319	-0.357	-0.295
-449.924	-114.492	-0.114	0.022
-448.909	-110.471	0.169	0.035
-447.895	760.833	0.100	0.272
-446.880	80.151	0.135	0.147
-445.865	139.872	0.185	0.246
-444.851	70.321	-0.188	-0.195
-443.836	-70.383	0.087	-0.033
-442.822	37.934	0.153	0.137
-441.807	-200.000	-0.021	-0.109
-440.792	27.021	-0.220	0.186
-439.778	449.391	0.035	-0.077
-438.763	-54.896	0.290	0.132
-437.749	214.878	0.080	0.128
-436.734	121.804	-0.113	0.142
-435.719	259.454	-0.152	0.264
-434.705	187.923	0.009	0.013
-433.690	-129.556	0.602	-0.084
-432.676	2.824	-0.279	-0.204
-431.661	259.316	-0.153	-0.265
-430.646	547.506	-0.144	0.347
-429.632	-76.110	0.145	0.052
-428.617	722.495	0.068	-0.183
-427.603	800.000	-0.029	0.122
-426.588	127.430	-0.176	0.225
-425.573	-128.462	-0.152	-0.022
-424.559	-66.896	0.185	0.074
-423.544	-200.000	0.019	0.135
-422.530	13.752	-0.138	0.108
-421.515	-117.598	0.283	-0.051
-420.500	179.559	0.148	0.218
-419.486	67.839	0.073	0.075
-418.471	49.710	0.087	-0.082
-417.457	-200.000	0.024	-0.184
-416.442	70.716	-0.132	-0.137
-415.428	98.299	0.046	-0.054
-414.413	-87.762	0.151	-0.046
-413.398	-50.946	0.150	0.071
-412.384	-71.337	-0.310	0.117
-411.369	368.358	0.067	0.135
-410.355	800.000	0.039	0.170
-409.340	-2.397	0.154	-0.108
-408.325	472.780	-0.070	0.159
-407.311	-60.750	0.085	0.036
-406.296	30.077	-0.230	-0.198
-405.282	-49.163	0.170	-0.082
-404.267	-60.309	0.466	0.199
-403.252	-200.000	-0.002	-0.127
-402.238	-0.895	-0.096	-0.068
-401.223	147.613	-0.243	-0.329
-400.209	55.205	0.172	-0.168
-399.194	12.288	0.332	0.257
-398.179	113.689	-0.028	0.034
-397.165	-200.000	0.025	0.174
-396.150	-120.293	-0.276	0.047
-395.136	-200.000	0.548	-0.002
-394.121	-114.682	-0.487	0.094
-393.106	111.547	-0.134	0.162
-392.092	98.921	0.271	0.314
-391.077	-200.000	0.011	0.334
-390.063	-144.591	-0.364	-0.034
-389.048	-25.592	0.377	0.224
-388.033	-108.618	0.357	0.077
-387.019	-172.311	-0.173	0.006
-386.004	-141.214	-0.137	0.014
-384.990	800.000	-0.087	-0.245
-383.975	-200.000	0.011	-0.296
-382.960	-200.000	0.007	-0.240
-381.946	126.448	0.010	-0.013
-380.931	800.000	-0.063	-0.215
-379.917	205.148	-0.181	-0.282
-378.902	-39.211	-0.360	-0.190
-377.888	-143.418	0.078	0.007
-376.873	800.000	-0.101	-0.327
-375.858	277.665	-0.145	-0.259
-374.844	-41.105	-0.049	-0.025
-373.829	4.917	0.269	-0.199
-372.815	556.399	-0.089	-0.214
-371.800	-123.440	-0.195	-0.031
-370.785	32.251	0.365	0.317
-369.771	-200.000	0.004	-0.027
-368.756	46.705	-0.107	-0.100
-367.742	636.096	-0.071	-0.180
-366.727	-200.000	0.062	0.448
-365.712	-200.000	0.032	-0.215
-364.698	-14.360	-0.047	-0.031
-363.683	21.956	0.155	0.127
-362.669	-86.401	-0.385	0.119
-361.654	30.005	-0.269	0.230
-360.639	800.000	-0.123	0.408
-359.625	800.000	-0.053	0.163
-358.610	82.342	-0.016	0.017
-357.596	103.855	-0.064	0.075
-356.581	-66.435	0.185	-0.074
-355.566	340.187	0.094	-0.185
-354.552	-104.716	-0.199	0.046
-353.537	673.647	0.128	0.333
-352.523	800.000	-0.054	0.155
-351.508	742.944	-0.021	0.057
-350.493	-92.584	0.170	0.048
-349.479	-115.903	-0.231	-0.043
-348.464	-200.000	0.058	0.264
-347.450	28.160	0.047	0.040
-346.435	187.181	0.131	0.195
-345.420	30.428	-0.160	-0.137
-344.406	-93.191	0.084	0.023
-343.391	-63.447	-0.158	-0.065
-342.377	800.000	0.044	-0.134
-341.362	175.209	0.046	0.066
-340.348	-49.521	0.104	-0.050
-339.333	-200.000	-0.003	-0.217
-338.318	338.097	-0.162	0.316
-337.304	601.072	-0.095	0.237
-336.289	-30.094	-0.168	-0.096
-335.275	105.210	0.050	0.059
-334.260	180.672	0.171	-0.252
-333.245	-82.011	0.257	0.084
-332.231	-200.000	0.002	0.067
-331.216	-64.003	-0.013	0.005
-330.202	233.782	-0.085	-0.141
-329.187	17.428	-0.246	-0.196
-328.172	523.985	-0.046	0.108
-327.158	-200.000	-0.046	0.251
-326.143	-200.000	0.001	0.060
-325.129	-78.839	0.057	0.019
-324.114	-122.172	-0.329	0.054
-323.099	-24.413	0.143	0.086
-322.085	82.020	0.034	-0.036
-321.070	-200.000	0.015	-0.173
-320.056	149.461	-0.169	-0.230
-319.041	236.943	0.165	-0.274
-318.026	-122.806	-0.456	0.074
-317.012	-29.775	0.306	-0.175
-315.997	11.611	0.095	0.073
-314.983	-51.397	0.176	0.083
-313.968	-200.000	-0.012	0.104
-312.953	-200.000	-0.043	-0.340
-311.939	458.928	0.059	-0.130
-310.924	697.493	-0.048	-0.125
-309.910	37.058	0.098	0.087
-308.895	-129.135	-0.515	0.072
-307.880	-200.000	0.021	-0.138
-306.866	-200.000	0.011	-0.507
-305.851	800.000	0.037	-0.133
-304.837	-200.000	-0.003	-0.087
-303.822	216.204	0.250	-0.398
-302.807	250.859	-0.124	-0.210
-301.793	-90.927	0.177	-0.051
-300.778	-200.000	0.013	0.225
-299.764	-40.753	-0.103	-0.054
-298.749	-105.529	0.064	-0.015
-297.735	-85.765	-0.159	-0.050
-296.720	-153.098	-0.378	0.027
-295.705	23.992	0.159	0.131
-294.691	233.330	0.132	0.217
-293.676	114.873	0.099	0.121
-292.662	264.057	0.233	-0.407
-291.647	-158.830	-0.503	-0.029
-290.632	-93.766	-0.227	0.063
-289.618	4.493	0.122	0.089
-288.603	114.358	0.134	0.163
-287.589	-47.219	-0.228	0.111
-286.574	35.577	0.284	-0.250
-285.559	-200.000	-0.003	0.033
-284.545	63.088	-0.149	-0.149
-283.530	-146.568	0.170	0.015
-282.516	-200.000	-0.011	-0.218
-281.501	-200.000	-0.005	-0.274
-280.486	-79.732	0.177	0.060
-279.472	-200.000	0.013	-0.062
-278.457	172.097	-0.132	0.189
-277.443	800.000	0.078	0.231
-276.428	-200.000	-0.020	0.113
-275.413	-54.894	-0.158	-0.072
-274.399	208.159	-0.032	0.050
-273.384	-74.461	0.315	-0.114
-272.370	252.311	0.193	0.330
-271.355	204.133	-0.044	-0.068
-270.340	6.831	-0.052	-0.039
-269.326	62.476	0.127	-0.127
-268.311	281.552	0.088	0.158
-267.297	129.412	0.141	0.180
-266.282	196.379	-0.185	-0.282
-265.267	-200.000	0.005	0.062
-264.253	-200.000	0.025	0.251
-263.238	405.788	0.125	0.265
-262.224	-117.727	-0.075	0.014
-261.209	-43.636	0.172	-0.087
-260.195	-200.000	-0.030	0.208
-259.180	-8.824	0.207	0.139
-258.165	-160.913	0.299	0.016
-257.151	-200.000	-0.007	-0.265
-256.136	-146.488	-0.228	-0.020
-255.122	-152.524	0.393	0.028
-254.107	-53.700	-0.516	-0.236
-253.092	194.176	0.162	-0.246
-252.078	-161.770	-0.056	0.003
-251.063	-200.000	-0.054	0.289
-250.049	-200.000	0.038	0.350
-249.034	-161.890	-0.192	0.010
-248.019	25.699	0.072	-0.060
-247.005	322.544	0.079	0.150
-245.990	399.203	0.131	-0.274
-244.976	-200.000	0.019	-0.280
-243.961	41.921	-0.086	0.078
-242.946	-20.804	-0.085	0.052
-241.932	698.665	0.156	-0.410
-240.917	97.741	0.143	-0.164
-239.903	-24.639	0.140	0.083
-238.888	-200.000	0.006	-0.097
-237.873	-200.000	-0.016	-0.138
-236.859	-200.000	-0.030	-0.216
-235.844	-57.699	0.124	0.054
-234.830	800.000	0.144	0.480
-233.815	-109.554	0.088	0.019
-232.800	-145.949	0.165	-0.015
-231.786	-73.438	-0.094	0.034
-230.771	-200.000	-0.030	0.184
-229.757	-125.389	0.556	0.085
-228.742	-9.979	-0.080	-0.053
-227.727	-152.990	-0.286	-0.020
-226.713	-130.246	-0.207	0.028
-225.698	465.590	-0.073	0.162
-224.684	800.000	0.079	0.277
-223.669	800.000	-0.087	0.241
-222.655	-181.924	-0.442	-0.008
-221.640	30.421	0.179	-0.153
-220.625	-97.416	-0.296	0.077
-219.611	-43.762	0.487	0.245
-218.596	66.760	-0.105	0.107
-217.582	612.461	0.107	-0.268
-216.567	800.000	-0.089	-0.306
-215.552	-90.125	0.371	0.108
-214.538	-200.000	-0.005	-0.126
-213.523	171.722	-0.179	-0.257
-212.509	-14.931	-0.115	0.074
-211.494	-121.164	0.142	0.024
-210.479	777.795	0.066	-0.179
-209.465	-57.271	0.375	-0.165
-208.450	31.758	0.150	-0.129
-207.436	-200.000	-0.003	0.028
-206.421	-108.771	0.262	0.056
-205.406	463.756	-0.077	-0.171
-204.392	-123.697	-0.223	0.035
-203.377	-200.000	0.026	-0.270
-202.363	-92.114	-0.279	0.079
-201.348	712.644	-0.177	-0.469
-200.333	67.535	0.295	-0.301
-199.319	484.603	-0.014	0.031
-198.304	-78.101	0.059	0.020
-197.290	401.975	-0.139	0.292
-196.275	-200.000	-0.004	0.199
-195.260	95.546	0.104	0.118
-194.246	-46.445	-0.248	0.121
-193.231	-200.000	0.419	0.002
-192.217	-200.000	0.003	-0.145
-191.202	-91.116	0.412	-0.118
-190.187	655.260	-0.121	0.309
-189.173	25.616	-0.115	0.096
-188.158	546.988	-0.073	-0.175
-187.144	-37.366	0.208	-0.111
-186.129	-71.547	0.120	0.045
-185.114	91.730	-0.108	0.121
-184.100	-129.166	-0.217	0.030
-183.085	-160.998	-0.120	0.006
-182.071	163.705	0.199	0.279
-181.056	-83.366	-0.256	0.082
-180.042	475.171	-0.088	-0.198
-179.027	800.000	-0.073	0.274
-178.012	503.223	-0.099	0.229
-176.998	266.126	0.125	0.218
-175.983	-16.939	0.183	-0.115
-174.969	-107.437	0.205	-0.045
-173.954	-71.459	-0.299	0.112
-172.939	800.000	-0.023	0.086
-171.925	-113.210	-0.111	0.022
-170.910	22.563	-0.099	-0.081
-169.896	-103.499	-0.274	0.064
-168.881	559.884	0.165	0.396
-167.866	3.319	0.053	-0.038
-166.852	-37.268	0.187	0.100
-165.837	-52.567	0.243	-0.112
-164.823	-200.000	0.054	0.275
-163.808	-200.000	-0.014	-0.080
-162.793	144.498	-0.060	0.080
-161.779	800.000	-0.014	0.049
-160.764	-64.443	-0.213	-0.086
-159.750	-139.661	0.156	0.017
-158.735	800.000	-0.061	0.199
-157.720	286.370	0.074	0.133
-156.706	800.000	0.127	0.394
-155.691	108.194	0.182	0.216
-154.677	70.737	0.167	-0.172
-153.662	-129.991	0.254	0.035
-152.647	21.539	0.139	-0.113
-151.633	-128.220	0.078	0.011
-150.618	-200.000	-0.008	-0.034
-149.604	-200.000	0.052	0.473
-148.589	-75.504	-0.319	0.113
-147.574	318.401	-0.054	0.102
-146.560	-148.757	-0.106	-0.009
-145.545	244.416	0.082	0.137
-144.531	-108.615	0.201	0.043
-143.516	181.315	-0.181	0.265
-142.502	-71.736	0.288	0.107
-141.487	56.629	-0.136	0.131
-140.472	510.338	-0.028	0.066
-139.458	-73.833	0.113	-0.041
-138.443	-200.000	-0.016	0.274
-137.429	-110.569	-0.204	0.042
-136.414	-123.262	0.226	0.036
-135.399	213.199	-0.039	-0.061
-134.385	69.292	-0.222	-0.228
-133.370	8.567	0.167	0.125
-132.356	800.000	0.054	0.169
-131.341	1.494	0.228	0.163
-130.326	-89.471	-0.327	0.096
-129.312	800.000	0.049	-0.192
-128.297	219.012	-0.084	-0.133
-127.283	800.000	0.048	0.194
-126.268	699.770	0.102	0.268
-125.253	800.000	-0.021	-0.084
-124.239	-150.711	0.184	-0.014
-123.224	-83.144	-0.327	-0.105
-122.210	-34.146	0.147	0.081
-121.195	-53.017	0.333	-0.152
