DTS Sentinel unit serial number:	SN413079Multiplexer serial number:	ORYXHardware model number:	OX4-SRSoftware version number:	ORYX F/W v4.00 Oryx Data Collector v3.7.2.0data status	okinstallation	princeton_trtdifferential loss correction	single-endedforward channel	channel 2reverse channel	N/Adate	2019/09/12time	19:11:49forward acquisition time	15.00reverse acquisition time	0.00gamma	496.2192k internal	0.2325k external	0.2325temperature offset calibration	1.0136default loss term (dB/km)	0.3790temperature slope calibration	1.0000multiplexer offset coefficient	1.0000multiplexer slope coefficient	1.0000fibre end	0.00T internal ref (°C)	32.56T ext. ref 1 (°C)	3.18T ext. ref 2 (°C)	27.14length (m)	temperature (°C)	Stokes	anti-Stokes-747.200	-126.904	0.501	-0.075
-746.185	31.441	-0.248	0.215
-745.171	51.200	0.653	-0.625
-744.156	103.616	-0.231	0.273
-743.142	293.075	-0.313	0.577
-742.127	-32.662	0.691	-0.388
-741.112	72.921	-0.363	-0.383
-740.098	-162.709	-0.543	0.027
-739.083	-38.088	0.697	0.373
-738.069	652.327	0.185	0.479
-737.054	-200.000	0.004	-0.024
-736.039	-44.162	0.376	0.190
-735.025	-138.644	0.963	-0.106
-734.010	-31.136	0.340	-0.193
-732.996	-200.000	-0.081	-1.049
-731.981	44.010	0.133	-0.123
-730.966	451.353	0.098	-0.219
-729.952	-125.292	-0.810	-0.125
-728.937	292.239	0.105	0.192
-727.923	4.812	-0.524	-0.388
-726.908	503.294	-0.552	-1.287
-725.894	800.000	0.051	-0.227
-724.879	-73.962	0.259	-0.095
-723.864	47.857	0.428	0.403
-722.850	616.255	0.136	0.344
-721.835	-47.302	-0.444	-0.218
-720.821	-73.208	0.687	0.254
-719.806	-200.000	-0.036	-0.213
-718.791	-200.000	-0.072	0.744
-717.777	438.634	-0.311	0.684
-716.762	800.000	0.046	-0.167
-715.748	386.624	0.277	-0.577
-714.733	-56.507	-0.424	-0.189
-713.718	800.000	0.263	0.820
-712.704	-200.000	0.129	0.757
-711.689	-50.646	0.184	0.087
-710.675	-163.507	-0.635	0.030
-709.660	-200.000	0.117	-0.721
-708.645	-71.406	-0.900	0.340
-707.631	-200.000	0.011	0.834
-706.616	762.169	0.123	-0.337
-705.602	192.764	0.519	-0.790
-704.587	800.000	0.144	-0.537
-703.572	16.220	-0.245	-0.194
-702.558	-39.624	0.782	0.412
-701.543	800.000	0.105	-0.419
-700.529	-152.064	-0.508	-0.037
-699.514	800.000	0.080	-0.223
-698.499	48.973	0.366	-0.346
-697.485	45.289	0.533	-0.496
-696.470	-200.000	0.041	-0.220
-695.456	447.199	-0.207	-0.459
-694.441	209.138	-0.425	0.670
-693.426	-200.000	-0.023	-0.727
-692.412	800.000	0.087	0.358
-691.397	50.429	-0.362	0.345
-690.383	-200.000	0.014	0.527
-689.368	800.000	-0.104	-0.340
-688.354	0.901	0.663	0.478
-687.339	-104.487	-0.151	0.035
-686.324	301.649	0.163	0.304
-685.310	10.812	0.470	-0.362
-684.295	-36.165	-0.184	0.100
-683.281	800.000	-0.211	0.701
-682.266	800.000	-0.217	0.609
-681.251	-200.000	-0.047	0.590
-680.237	84.706	-0.325	0.358
-679.222	89.061	-0.074	-0.083
-678.208	-129.959	0.509	0.070
-677.193	-200.000	0.011	-0.239
-676.178	-31.910	1.086	0.613
-675.164	800.000	0.145	-0.601
-674.149	-90.272	0.203	-0.059
-673.135	23.453	0.704	-0.583
-672.120	-200.000	-0.142	-0.749
-671.105	-135.592	-0.718	-0.086
-670.091	125.863	0.421	-0.535
-669.076	-200.000	0.009	-0.590
-668.062	-200.000	0.033	-0.436
-667.047	-16.164	0.405	-0.259
-666.032	-78.753	0.645	-0.221
-665.018	-9.711	-0.545	0.366
-664.003	-134.608	0.707	0.087
-662.989	-200.000	0.075	0.335
-661.974	309.680	0.322	0.606
-660.959	800.000	0.263	0.735
-659.945	412.870	-0.482	-1.031
-658.930	-11.512	0.659	0.436
-657.916	-200.000	0.038	-0.465
-656.901	-57.710	-0.715	0.315
-655.886	-74.054	-0.865	0.315
-654.872	-58.841	0.974	-0.424
-653.857	180.158	0.319	-0.471
-652.843	-73.594	0.804	-0.295
-651.828	22.822	-0.212	-0.175
-650.814	800.000	-0.140	-0.501
-649.799	140.150	-0.072	0.095
-648.784	166.403	-0.165	-0.235
-647.770	-121.528	0.664	0.111
-646.755	-197.734	0.426	-0.003
-645.741	-175.280	-0.330	0.009
-644.726	-20.214	0.394	-0.244
-643.711	-200.000	-0.099	-0.986
-642.697	-64.368	0.394	-0.161
-641.682	-53.097	-0.370	-0.171
-640.668	225.215	0.180	0.293
-639.653	-121.107	0.507	-0.085
-638.638	97.140	0.664	-0.766
-637.624	484.178	-0.362	-0.828
-636.609	800.000	-0.093	-0.405
-635.595	-37.052	-0.294	-0.158
-634.580	-61.087	0.463	-0.196
-633.565	-200.000	0.015	0.140
-632.551	-107.354	0.390	-0.086
-631.536	141.861	0.384	-0.512
-630.522	-127.117	-0.785	-0.115
-629.507	378.520	-0.421	-0.866
-628.492	-75.845	0.456	-0.162
-627.478	112.051	0.536	-0.650
-626.463	-61.866	-0.614	-0.258
-625.449	800.000	-0.205	-0.736
-624.434	6.660	-0.387	0.289
-623.419	189.071	-0.200	0.301
-622.405	-200.000	-0.201	-1.012
-621.390	-99.922	-0.282	-0.071
-620.376	-71.159	-0.386	0.146
-619.361	-14.368	-0.454	0.294
-618.346	800.000	0.084	0.353
-617.332	154.870	-0.536	0.740
-616.317	5.094	0.401	0.296
-615.303	-28.100	0.485	-0.282
-614.288	-37.622	0.339	0.181
-613.273	800.000	-0.132	-0.417
-612.259	234.870	0.669	-1.107
-611.244	795.775	0.323	-0.895
-610.230	430.927	0.079	-0.171
-609.215	250.488	0.107	0.182
-608.201	-200.000	-0.064	0.445
-607.186	-102.469	0.592	0.142
-606.171	-200.000	0.038	0.358
-605.157	182.084	-0.210	-0.311
-604.142	18.844	-0.411	-0.331
-603.128	-75.471	0.631	0.226
-602.113	-200.000	0.019	-0.614
-601.098	90.363	0.205	0.230
-600.084	800.000	-0.296	0.886
-599.069	-72.154	-1.133	-0.422
-598.055	-60.987	-0.353	-0.150
-597.040	-88.946	-0.756	-0.225
-596.025	50.054	-0.283	-0.268
-595.011	-60.038	-0.515	-0.221
-593.996	-99.086	0.226	-0.057
-592.982	155.325	-0.457	-0.632
-591.967	-58.762	-0.933	-0.405
-590.952	-200.000	0.065	0.506
-589.938	639.915	-0.184	-0.471
-588.923	86.535	0.383	-0.423
-587.909	-21.008	-0.853	-0.524
-586.894	275.103	-0.178	0.317
-585.879	29.718	-0.146	-0.125
-584.865	-200.000	0.058	-0.850
-583.850	53.948	-0.394	-0.380
-582.836	-140.713	0.355	0.037
-581.821	599.420	0.366	-0.910
-580.806	-200.000	0.006	-0.898
-579.792	267.535	0.130	-0.228
-578.777	15.231	-0.444	0.349
-577.763	244.358	-0.462	-0.777
-576.748	-45.649	-0.228	0.113
-575.733	477.319	-0.360	-0.817
-574.719	178.823	0.382	0.560
-573.704	-10.037	0.238	-0.159
-572.690	-200.000	0.063	0.277
-571.675	-181.916	0.261	0.005
-570.661	702.147	-0.216	-0.571
-569.646	-36.794	0.931	-0.501
-568.631	237.536	-0.565	0.939
-567.617	-21.847	-0.565	0.344
-566.602	4.578	-0.420	0.309
-565.588	7.714	0.330	-0.247
-564.573	-36.525	-0.748	0.403
-563.558	-191.583	-0.230	0.002
-562.544	-75.789	0.111	-0.039
-561.529	362.255	0.189	0.380
-560.515	-108.378	0.750	0.162
-559.500	800.000	0.038	-0.141
-558.485	-79.884	0.612	-0.206
-557.471	236.975	0.262	0.435
-556.456	3.808	0.503	-0.368
-555.442	-108.584	-0.562	-0.121
-554.427	800.000	-0.138	-0.474
-553.412	556.309	0.199	0.481
-552.398	-155.190	0.804	0.053
-551.383	357.147	-0.077	0.154
-550.369	800.000	-0.210	0.654
-549.354	222.048	0.368	-0.593
-548.339	-21.881	0.163	-0.099
-547.325	-80.760	-0.246	0.082
-546.310	-200.000	0.000	-0.540
-545.296	-200.000	0.208	1.224
-544.281	251.505	-0.205	0.350
-543.266	-171.113	0.626	-0.021
-542.252	79.487	0.871	0.936
-541.237	-200.000	0.002	-0.046
-540.223	-158.564	0.437	0.025
-539.208	-119.253	-0.212	-0.037
-538.193	53.100	0.179	0.172
-537.179	112.666	-0.486	-0.589
-536.164	-200.000	-0.131	-0.626
-535.150	-51.629	-0.656	-0.306
-534.135	69.930	-0.665	0.686
-533.121	-89.189	-0.071	-0.021
-532.106	-103.874	-0.525	0.123
-531.091	-200.000	0.003	0.017
-530.077	449.075	-0.027	-0.059
-529.062	-100.099	0.552	-0.137
-528.048	-155.931	0.491	0.031
-527.033	-78.415	-0.151	-0.052
-526.018	-108.764	0.975	-0.209
-525.004	800.000	0.254	-0.716
-523.989	279.919	-0.191	0.342
-522.975	13.856	0.290	-0.226
-521.960	800.000	-0.300	0.832
-520.945	-165.801	-0.807	0.035
-519.931	-200.000	-0.070	-0.316
-518.916	399.842	0.262	0.549
-517.902	-143.788	-0.763	0.072
-516.887	-136.058	0.137	-0.016
-515.872	-124.985	0.433	-0.067
-514.858	-152.828	-0.661	-0.047
-513.843	-105.121	0.625	-0.143
-512.829	-200.000	0.083	-0.467
-511.814	51.075	0.179	0.170
-510.799	-53.434	0.774	-0.354
-509.785	69.327	-0.061	-0.063
-508.770	-30.442	0.572	0.324
-507.756	221.805	0.548	-0.882
-506.741	48.454	0.549	-0.514
-505.726	-200.000	0.030	-0.578
-504.712	800.000	-0.120	0.441
-503.697	68.475	0.613	0.628
-502.683	800.000	0.241	-0.785
-501.668	-200.000	0.101	-0.891
-500.653	-99.538	0.786	0.198
-499.639	160.443	-0.136	-0.190
-498.624	61.872	-0.379	0.377
-497.610	-9.373	0.751	0.501
-496.595	-111.193	-0.690	0.141
-495.581	-200.000	0.067	-0.652
-494.566	-55.681	-1.059	-0.473
-493.551	-128.240	-1.093	-0.156
-492.537	-200.000	-0.141	-0.675
-491.522	-82.295	0.544	-0.177
-490.508	800.000	0.239	-0.670
-489.493	34.314	-0.369	0.322
-488.478	11.144	-0.409	-0.313
-487.464	800.000	-0.064	-0.266
-486.449	800.000	-0.164	-0.488
-485.435	-30.720	-0.851	0.481
-484.420	-200.000	-0.058	-0.545
-483.405	-111.685	0.452	-0.092
-482.391	-192.136	-0.062	-0.001
-481.376	800.000	0.189	0.577
-480.362	-3.533	0.726	0.504
-479.347	191.849	-0.210	-0.316
-478.332	800.000	0.160	-0.499
-477.318	-200.000	0.145	-0.713
-476.303	224.072	-0.795	1.282
-475.289	800.000	0.114	0.387
-474.274	-45.597	0.155	0.077
-473.259	-50.857	0.645	0.303
-472.245	-3.509	-0.298	-0.207
-471.230	258.147	-0.383	0.659
-470.216	-114.862	-0.300	-0.057
-469.201	-21.838	-0.372	0.226
-468.186	-39.175	-0.096	0.050
-467.172	-70.373	0.591	0.224
-466.157	-123.285	-1.188	0.190
-465.143	77.832	-0.678	0.721
-464.128	24.670	0.301	0.249
-463.113	244.532	-0.032	0.054
-462.099	262.308	-0.259	-0.448
-461.084	-200.000	-0.990	0.004
-460.070	-115.034	-0.579	-0.110
-459.055	14.365	-0.223	-0.174
-458.040	-13.388	0.555	0.359
-457.026	9.854	-0.400	0.303
-456.011	386.959	0.022	0.045
-454.997	36.733	0.321	-0.283
-453.982	-65.888	0.354	-0.141
-452.968	-75.822	-0.460	-0.163
-451.953	-173.259	-0.347	0.011
-450.938	-74.792	0.282	0.101
-449.924	-200.000	0.130	-0.686
-448.909	800.000	-0.320	1.039
-447.895	-200.000	-0.002	0.199
-446.880	29.547	-0.303	-0.257
-445.865	674.227	-0.233	-0.602
-444.851	-37.806	0.409	0.217
-443.836	-200.000	-0.025	-0.387
-442.822	-173.816	-0.633	0.019
-441.807	489.484	-0.397	0.905
-440.792	0.650	-0.344	-0.245
-439.778	-41.034	-0.617	0.318
-438.763	-60.698	0.691	0.292
-437.749	-84.065	-0.631	0.200
-436.734	-158.809	0.147	0.008
-435.719	-2.437	-0.739	0.516
-434.705	38.341	-1.313	-1.166
-433.690	-145.557	-0.309	-0.028
-432.676	-25.128	-0.468	-0.277
-431.661	43.669	0.591	-0.539
-430.646	208.759	0.456	0.711
-429.632	-115.857	-0.564	0.105
-428.617	-153.208	0.545	-0.038
-427.603	-171.098	0.957	0.032
-426.588	101.347	-0.185	-0.215
-425.573	605.087	-0.123	0.306
-424.559	-58.285	-0.409	0.177
-423.544	-98.479	-0.538	0.137
-422.530	-200.000	0.063	-0.487
-421.515	-200.000	-0.091	-0.445
-420.500	471.291	-0.158	-0.355
-419.486	800.000	0.611	1.902
-418.471	-200.000	0.130	-1.085
-417.457	8.752	1.049	0.788
-416.442	-200.000	-0.162	0.964
-415.428	-27.612	-0.692	0.400
-414.413	246.622	-0.381	-0.640
-413.398	-200.000	0.045	-0.196
-412.384	94.049	-0.193	-0.218
-411.369	-32.608	0.719	0.399
-410.355	-103.866	0.539	0.125
-409.340	236.792	0.213	-0.352
-408.325	88.223	-0.461	-0.509
-407.311	-200.000	-0.029	-0.193
-406.296	800.000	0.193	0.768
-405.282	138.193	-0.215	0.281
-404.267	-100.241	-0.453	0.112
-403.252	328.436	0.224	-0.429
-402.238	124.971	-0.479	0.601
-401.223	109.927	-0.136	-0.163
-400.209	281.165	-0.074	-0.132
-399.194	-200.000	0.018	0.911
-398.179	13.896	-0.172	0.133
-397.165	97.897	0.540	0.619
-396.150	-200.000	-0.036	-0.273
-395.136	800.000	0.190	-0.781
-394.121	-131.945	0.690	-0.090
-393.106	-18.570	-0.337	-0.209
-392.092	178.235	-0.212	-0.308
-391.077	-200.000	-0.025	0.191
-390.063	800.000	0.078	-0.301
-389.048	800.000	0.270	0.753
-388.033	-122.891	0.423	-0.068
-387.019	-48.177	-0.400	0.192
-386.004	385.033	-0.172	0.353
-384.990	-146.269	-0.748	-0.065
-383.975	-39.795	0.738	-0.384
-382.960	216.655	0.262	0.414
-381.946	631.706	-0.239	-0.602
-380.931	-125.515	-0.405	-0.061
-379.917	800.000	-0.134	0.406
-378.902	-88.847	0.776	0.229
-377.888	-138.354	0.364	0.040
-376.873	23.062	-0.570	0.465
-375.858	23.855	0.206	-0.169
-374.844	-200.000	-0.017	-0.134
-373.829	25.018	0.415	0.342
-372.815	-155.419	-0.106	-0.007
-371.800	55.283	0.330	0.318
-370.785	11.698	0.625	-0.477
-369.771	800.000	0.064	0.256
-368.756	1.227	0.526	-0.376
-367.742	-200.000	0.120	0.608
-366.727	245.657	0.451	0.754
-365.712	-200.000	0.077	0.604
-364.698	-5.888	-0.208	0.142
-363.683	-200.000	0.041	-0.508
-362.669	-200.000	0.005	0.049
-361.654	112.749	-0.269	0.324
-360.639	450.694	-0.168	-0.368
-359.625	-21.346	-0.414	0.251
-358.610	-102.649	0.365	0.087
-357.596	-200.000	-0.747	0.003
-356.581	-200.000	0.041	0.758
-355.566	-200.000	0.062	0.361
-354.552	-200.000	0.087	-0.757
-353.537	-200.000	-0.132	-0.793
-352.523	-69.673	-0.266	-0.101
-351.508	-73.842	0.825	-0.298
-350.493	113.917	0.582	0.704
-349.479	393.187	-0.179	0.370
-348.464	-68.352	0.759	-0.293
-347.450	800.000	0.133	-0.548
-346.435	113.738	-0.340	-0.410
-345.420	-104.712	0.685	0.157
-344.406	793.639	0.044	0.119
-343.391	-39.528	-0.576	0.300
-342.377	-172.747	-0.494	0.015
-341.362	523.938	0.103	-0.241
-340.348	-16.064	-0.557	-0.352
-339.333	-18.915	-0.244	0.151
-338.318	188.799	-0.082	-0.122
-337.304	166.204	0.760	1.069
-336.289	-146.814	0.424	-0.036
-335.275	-13.796	-0.076	0.049
-334.260	-68.335	0.773	-0.298
-333.245	48.048	-0.517	-0.480
-332.231	-200.000	-0.129	-0.949
-331.216	-81.738	0.713	-0.232
-330.202	93.656	-0.232	0.261
-329.187	-200.000	-0.006	-0.263
-328.172	95.560	-0.116	-0.131
-327.158	-200.000	0.027	0.440
-326.143	378.746	-0.307	0.623
-325.129	47.086	-0.070	-0.065
-324.114	-121.109	-0.165	-0.027
-323.099	220.227	-0.087	-0.139
-322.085	-27.377	-0.245	-0.142
-321.070	327.002	-0.294	0.559
-320.056	121.999	-0.084	0.103
-319.041	-52.020	0.287	-0.132
-318.026	-61.635	-0.823	-0.343
-317.012	-108.008	-0.745	0.161
-315.997	412.721	-0.311	0.657
-314.983	126.208	-0.481	0.604
-313.968	11.437	0.824	0.627
-312.953	-88.380	-0.594	-0.176
-311.939	-200.000	-0.105	-0.602
-310.924	772.171	0.190	-0.514
-309.910	56.296	0.287	0.277
-308.895	-73.862	0.066	0.024
-307.880	114.900	0.351	-0.425
-306.866	163.966	0.301	-0.420
-305.851	13.964	-0.514	-0.397
-304.837	338.565	-0.241	0.466
-303.822	-200.000	0.106	1.012
-302.807	-70.270	0.398	-0.150
-301.793	-77.366	-0.284	-0.098
-300.778	-107.914	-0.477	0.103
-299.764	-50.720	-0.691	0.323
-298.749	111.552	0.427	-0.511
-297.735	-85.302	-0.150	0.046
-296.720	51.776	0.766	-0.723
-295.705	-200.000	0.043	0.224
-294.691	-31.207	-0.768	0.429
-293.676	-96.864	-0.335	0.087
-292.662	-200.000	0.040	0.233
-291.647	11.676	0.857	0.652
-290.632	323.541	0.275	0.519
-289.618	-142.397	-0.344	-0.034
-288.603	-200.000	-0.135	0.702
-287.589	-130.914	-0.532	-0.071
-286.574	800.000	0.200	-0.832
-285.559	-96.838	-0.569	0.148
-284.545	15.373	0.246	0.191
-283.530	289.484	0.277	-0.498
-282.516	25.294	0.306	0.252
-281.501	-64.984	0.958	-0.384
-280.486	800.000	0.085	0.259
-279.472	84.726	0.704	0.764
-278.457	800.000	-0.226	0.637
-277.443	-200.000	-0.039	0.317
-276.428	21.355	-0.624	0.502
-275.413	413.853	-0.139	0.293
-274.399	100.140	0.496	0.570
-273.384	155.348	-0.194	-0.265
-272.370	7.999	0.390	0.290
-271.355	197.087	0.496	0.749
-270.340	-114.465	0.156	-0.030
-269.326	-11.460	0.103	0.067
-268.311	-200.000	0.211	-0.962
-267.297	71.139	-0.325	-0.333
-266.282	800.000	0.153	-0.649
-265.267	-35.630	-0.637	0.342
-264.253	12.716	0.416	-0.318
-263.238	294.823	-0.127	-0.230
-262.224	25.163	-0.448	-0.369
-261.209	-111.957	1.002	-0.200
-260.195	15.635	0.543	-0.422
-259.180	-0.618	0.715	0.502
-258.165	-76.388	0.390	0.136
-257.151	800.000	0.250	0.716
-256.136	-200.000	0.091	0.536
-255.122	169.344	0.420	-0.593
-254.107	254.758	-0.606	-1.027
-253.092	-200.000	0.086	1.219
-252.078	-63.054	0.671	-0.274
-251.063	800.000	0.093	0.393
-250.049	-6.381	-0.402	0.272
-249.034	-112.495	-0.771	-0.152
-248.019	161.445	0.447	-0.619
-247.005	-33.311	-0.208	-0.114
-245.990	-200.000	-0.155	0.883
-244.976	-94.894	-0.300	0.080
-243.961	800.000	0.214	0.606
-242.946	402.304	-0.148	-0.307
-241.932	-62.764	0.592	-0.243
-240.917	-43.333	-0.331	0.166
-239.903	-200.000	-0.157	0.683
-238.888	74.006	-0.186	-0.193
-237.873	289.053	-0.109	0.195
-236.859	9.318	0.263	-0.197
-235.844	-56.973	0.639	-0.279
-234.830	-200.000	0.023	-0.150
-233.815	-18.288	0.946	0.585
-232.800	800.000	0.076	0.284
-231.786	-113.043	0.700	-0.137
-230.771	-180.677	0.351	0.007
-229.757	-111.699	0.416	0.083
-228.742	-200.000	0.055	-0.473
-227.727	800.000	-0.264	0.739
-226.713	312.644	-0.136	-0.252
-225.698	-67.425	0.599	0.233
-224.684	-15.754	0.804	-0.507
-223.669	269.161	-0.414	-0.718
-222.655	-102.939	0.225	0.053
-221.640	167.573	-0.593	-0.834
-220.625	-108.272	0.692	-0.148
-219.611	-9.410	0.399	0.263
-218.596	-18.015	0.081	-0.050
-217.582	-33.076	-0.331	0.182
-216.567	172.847	0.254	0.361
-215.552	41.889	-0.175	0.157
-214.538	-132.079	0.730	-0.094
-213.523	800.000	0.111	0.322
-212.509	-146.157	-0.114	0.010
-211.494	580.371	-0.301	0.729
-210.479	-1.245	-0.351	0.245
-209.465	-109.853	-0.421	0.087
-208.450	-200.000	-0.032	0.646
-207.436	63.588	0.501	0.497
-206.421	-200.000	0.083	-0.421
-205.406	800.000	-0.140	0.521
-204.392	-42.503	0.115	-0.058
-203.377	195.262	0.288	-0.432
-202.363	243.932	0.322	0.534
-201.348	590.458	0.303	0.738
-200.333	69.443	0.311	0.316
-199.319	-200.000	0.154	-0.994
-198.304	29.492	0.667	-0.560
-197.290	-35.911	0.447	-0.239
-196.275	154.649	-0.311	-0.421
-195.260	-174.346	-0.982	0.028
-194.246	-82.748	0.231	0.074
-193.231	-50.559	-0.631	-0.294
-192.217	-54.770	-0.502	0.224
-191.202	-200.000	0.003	-0.332
-190.187	515.797	0.141	-0.324
-189.173	-45.308	-0.738	0.362
-188.158	14.805	0.017	0.013
-187.144	90.842	-0.508	-0.563
-186.129	747.257	0.140	-0.373
-185.114	-31.917	-0.742	-0.410
-184.100	141.880	-0.336	0.439
-183.085	339.755	0.332	0.639
-182.071	47.180	0.367	0.337
-181.056	3.275	0.308	0.221
-180.042	-51.205	0.165	0.076
-179.027	103.634	-0.436	0.505
-178.012	-98.458	-0.357	0.090
-176.998	-107.165	0.292	0.063
-175.983	572.156	-0.192	-0.462
-174.969	-11.435	0.451	-0.293
-173.954	-55.036	0.214	-0.095
-172.939	106.890	0.098	0.115
-171.925	-100.967	0.637	0.154
-170.910	-200.000	-0.028	0.441
-169.896	38.974	-0.416	-0.367
-168.881	214.516	-0.507	0.792
-167.866	-5.731	-0.169	0.114
-166.852	-91.236	-0.503	0.142
-165.837	353.793	-0.267	0.523
-164.823	-200.000	-0.035	-0.215
-163.808	-88.305	-0.526	0.155
-162.793	-200.000	-0.118	-1.160
-161.779	418.123	0.034	-0.071
-160.764	55.953	-0.360	-0.345
-159.750	793.079	0.397	1.079
-158.735	245.820	-0.142	0.236
-157.720	800.000	0.107	0.418
-156.706	-113.329	-0.201	0.039
-155.691	-180.984	-0.740	0.015
-154.677	-148.193	0.717	0.058
-153.662	333.292	-0.474	0.904
-152.647	44.782	0.457	0.415
-151.633	-61.830	0.636	0.262
-150.618	-145.623	0.305	0.027
-149.604	-155.745	-0.031	0.002
-148.589	232.417	0.298	-0.482
-147.574	-200.000	0.070	0.314
-146.560	-58.179	-0.952	0.409
-145.545	-61.889	0.416	0.172
-144.531	-77.779	0.717	0.244
-143.516	-73.953	-0.529	0.189
-142.502	197.704	0.225	0.339
-141.487	-96.521	0.552	0.144
-140.472	-59.513	-0.475	-0.201
-139.458	280.401	-0.236	0.415
-138.443	-200.000	0.063	-0.683
-137.429	2.905	0.755	-0.540
-136.414	-91.088	-0.931	0.263
-135.399	-199.103	-0.224	0.001
-134.385	-1.789	-0.040	-0.028
-133.370	-200.000	-0.134	0.750
-132.356	-26.255	0.637	0.368
-131.341	-145.688	-0.456	-0.040
-130.326	2.686	-0.685	-0.490
-129.312	-95.473	0.171	0.045
-128.297	-98.033	-0.131	-0.033
-127.283	-90.757	0.632	0.180
-126.268	-55.964	0.429	0.188
-125.253	800.000	-0.129	0.517
-124.239	-60.922	-0.749	-0.312
-123.224	-39.184	0.216	0.112
-122.210	-200.000	0.125	-0.899
-121.195	10.336	-0.490	-0.367
