DTS Sentinel unit serial number:	SN413079Multiplexer serial number:	ORYXHardware model number:	OX4-SRSoftware version number:	ORYX F/W v4.00 Oryx Data Collector v3.7.2.0data status	okinstallation	princeton_trtdifferential loss correction	single-endedforward channel	channel 2reverse channel	N/Adate	2019/09/14time	01:19:34forward acquisition time	60.00reverse acquisition time	0.00gamma	496.2192k internal	0.2337k external	0.2337temperature offset calibration	1.0126default loss term (dB/km)	0.3790temperature slope calibration	1.0000multiplexer offset coefficient	1.0000multiplexer slope coefficient	1.0000fibre end	0.00T internal ref (°C)	26.37T ext. ref 1 (°C)	3.18T ext. ref 2 (°C)	21.41length (m)	temperature (°C)	Stokes	anti-Stokes-747.200	146.956	0.068	0.092
-746.185	28.640	-0.236	0.201
-745.171	608.249	-0.035	-0.088
-744.156	-126.707	-0.326	-0.048
-743.142	-14.058	-0.187	-0.121
-742.127	148.001	-0.018	0.025
-741.112	-63.090	-0.199	0.082
-740.098	66.062	-0.135	0.137
-739.083	-200.000	-0.017	0.105
-738.069	-107.002	0.072	0.016
-737.054	4.235	0.164	-0.120
-736.039	-135.298	-0.125	-0.015
-735.025	-28.006	0.044	0.026
-734.010	-63.601	0.297	-0.122
-732.996	46.205	0.191	-0.177
-731.981	-42.060	-0.152	-0.078
-730.966	203.331	-0.060	0.094
-729.952	15.695	0.116	0.091
-728.937	675.127	-0.127	-0.330
-727.923	-166.670	0.213	-0.009
-726.908	-119.210	-0.391	-0.068
-725.894	342.685	-0.097	0.191
-724.879	-54.120	-0.186	0.085
-723.864	89.424	-0.226	-0.252
-722.850	-115.137	-0.415	0.079
-721.835	58.306	0.179	0.176
-720.821	800.000	0.041	0.158
-719.806	249.347	-0.197	-0.335
-718.791	103.567	0.238	-0.280
-717.777	-41.293	0.298	-0.154
-716.762	-158.048	-0.205	-0.012
-715.748	294.468	0.174	-0.319
-714.733	-99.485	0.059	0.015
-713.718	-200.000	0.019	0.240
-712.704	-115.565	0.260	-0.049
-711.689	262.872	0.060	0.105
-710.675	-200.000	0.007	0.084
-709.660	-130.692	-0.346	-0.047
-708.645	-113.739	-0.178	0.035
-707.631	-200.000	-0.007	-0.114
-706.616	-200.000	-0.085	-0.566
-705.602	-200.000	0.002	-0.267
-704.587	519.014	-0.114	-0.269
-703.572	-82.503	0.236	-0.077
-702.558	-170.213	-0.124	0.004
-701.543	5.406	-0.160	-0.118
-700.529	317.015	-0.131	0.248
-699.514	58.781	-0.165	-0.162
-698.499	91.837	-0.209	-0.235
-697.485	-200.000	0.009	-0.131
-696.470	-131.465	0.219	-0.029
-695.456	-23.219	0.197	-0.119
-694.441	-200.000	-0.004	0.074
-693.426	-200.000	-0.064	0.323
-692.412	676.174	-0.066	-0.172
-691.397	111.633	-0.166	0.201
-690.383	-200.000	-0.055	0.417
-689.368	86.929	0.029	0.032
-688.354	60.755	-0.142	-0.141
-687.339	800.000	0.030	-0.093
-686.324	37.078	-0.250	0.222
-685.310	-22.044	-0.163	-0.099
-684.295	21.196	-0.386	-0.314
-683.281	-7.962	-0.116	-0.078
-682.266	163.265	-0.132	-0.186
-681.251	-115.612	0.379	0.071
-680.237	-17.282	0.370	-0.234
-679.222	65.611	-0.029	0.029
-678.208	-200.000	0.004	0.203
-677.193	-106.080	0.284	0.064
-676.178	-200.000	0.011	0.143
-675.164	-5.605	-0.122	0.084
-674.149	294.304	-0.078	0.142
-673.135	26.021	0.163	-0.136
-672.120	156.418	-0.095	-0.131
-671.105	38.477	0.056	-0.050
-670.091	-51.341	-0.088	0.041
-669.076	-200.000	-0.005	0.309
-668.062	-200.000	-0.006	0.178
-667.047	-133.759	0.231	0.029
-666.032	78.674	0.149	-0.159
-665.018	-200.000	0.007	0.322
-664.003	593.932	-0.127	-0.315
-662.989	-200.000	0.036	-0.175
-661.974	91.567	-0.213	-0.240
-660.959	-74.692	-0.206	-0.074
-659.945	278.194	-0.008	-0.014
-658.930	92.254	0.080	0.091
-657.916	81.183	0.074	-0.080
-656.901	-26.969	-0.249	0.145
-655.886	81.677	-0.134	0.145
-654.872	-177.738	-0.231	-0.006
-653.857	597.853	0.115	-0.286
-652.843	71.541	-0.118	-0.123
-651.828	768.806	-0.082	-0.222
-650.814	11.426	-0.289	0.221
-649.799	106.344	0.131	-0.155
-648.784	-158.853	-0.061	0.003
-647.770	124.250	-0.250	-0.314
-646.755	-45.468	0.441	-0.218
-645.741	475.906	-0.142	-0.321
-644.726	359.186	0.166	-0.332
-643.711	17.265	0.159	-0.126
-642.697	800.000	-0.022	-0.068
-641.682	-143.814	-0.125	-0.012
-640.668	-149.536	-0.365	-0.029
-639.653	-85.471	-0.517	-0.161
-638.638	-200.000	0.029	-0.172
-637.624	-72.342	0.282	0.104
-636.609	-114.576	0.197	0.038
-635.595	-44.296	-0.209	-0.104
-634.580	800.000	0.026	-0.108
-633.565	-104.984	0.226	-0.052
-632.551	-35.191	0.297	0.162
-631.536	468.721	0.073	-0.163
-630.522	-200.000	0.090	-0.000
-629.507	534.244	-0.109	0.259
-628.492	482.391	0.038	-0.087
-627.478	-200.000	0.005	0.193
-626.463	-96.110	0.218	0.058
-625.449	-200.000	-0.012	-0.234
-624.434	800.000	0.018	-0.076
-623.419	65.606	0.160	0.162
-622.405	800.000	0.081	0.281
-621.390	188.027	0.125	0.186
-620.376	361.717	-0.061	-0.123
-619.361	-126.713	-0.071	0.010
-618.346	-70.612	0.247	-0.093
-617.332	162.730	0.244	-0.343
-616.317	-122.842	0.243	-0.039
-615.303	-109.076	-0.117	-0.025
-614.288	171.426	0.087	0.125
-613.273	60.206	-0.258	0.255
-612.259	-200.000	0.055	0.481
-611.244	16.325	-0.125	0.098
-610.230	-123.108	0.167	-0.027
-609.215	-121.135	0.437	-0.073
-608.201	-163.827	-0.185	0.009
-607.186	82.465	-0.134	0.145
-606.171	412.356	0.061	-0.129
-605.157	-200.000	-0.047	0.235
-604.142	-59.135	-0.063	0.027
-603.128	20.543	0.254	-0.205
-602.113	800.000	-0.081	-0.315
-601.098	-200.000	0.007	-0.092
-600.084	-100.435	0.119	-0.029
-599.069	-136.318	-0.237	0.028
-598.055	-71.753	0.279	0.104
-597.040	26.546	-0.190	0.159
-596.025	75.375	-0.064	-0.068
-595.011	234.537	-0.031	-0.051
-593.996	-200.000	0.027	-0.129
-592.982	800.000	0.080	0.241
-591.967	-200.000	-0.031	0.186
-590.952	-16.532	0.184	-0.116
-589.938	800.000	-0.059	0.203
-588.923	416.127	-0.143	-0.303
-587.909	-6.251	-0.201	0.137
-586.894	37.479	0.176	-0.156
-585.879	-3.507	-0.229	0.159
-584.865	-200.000	0.105	0.000
-583.850	-33.692	0.213	0.117
-582.836	-200.000	0.039	0.309
-581.821	-70.151	-0.166	-0.063
-580.806	54.063	-0.176	0.169
-579.792	800.000	0.088	-0.302
-578.777	800.000	0.062	0.240
-577.763	800.000	-0.058	0.171
-576.748	-115.250	-0.176	-0.033
-575.733	-130.335	-0.212	0.029
-574.719	-200.000	-0.010	-0.131
-573.704	11.188	-0.240	-0.183
-572.690	-200.000	-0.029	-0.154
-571.675	1.376	-0.037	-0.027
-570.661	214.642	0.098	0.155
-569.646	117.133	0.047	0.057
-568.631	-102.765	-0.246	-0.058
-567.617	-69.015	-0.151	-0.058
-566.602	58.805	-0.113	0.110
-565.588	185.232	0.163	-0.241
-564.573	-200.000	-0.021	-0.120
-563.558	295.756	-0.098	-0.178
-562.544	107.939	-0.146	0.173
-561.529	341.431	-0.084	-0.164
-560.515	-200.000	0.015	0.125
-559.500	-200.000	0.004	0.176
-558.485	-200.000	-0.020	-0.109
-557.471	112.096	0.178	-0.214
-556.456	-185.123	-0.120	0.002
-555.442	178.016	-0.013	0.019
-554.427	-188.474	0.672	-0.008
-553.412	-200.000	-0.003	0.034
-552.398	-103.059	-0.262	0.062
-551.383	543.626	-0.086	-0.205
-550.369	800.000	0.039	0.134
-549.354	-66.291	0.293	0.116
-548.339	-200.000	0.014	0.242
-547.325	40.859	0.120	0.108
-546.310	185.641	-0.149	-0.221
-545.296	465.009	-0.067	0.149
-544.281	102.473	-0.136	-0.159
-543.266	-74.104	-0.240	-0.087
-542.252	800.000	0.038	0.107
-541.237	800.000	-0.140	-0.415
-540.223	289.232	-0.090	-0.162
-539.208	281.036	0.095	-0.170
-538.193	260.034	0.109	-0.188
-537.179	78.821	0.168	0.179
-536.164	526.725	0.110	-0.259
-535.150	129.797	-0.099	0.126
-534.135	-200.000	0.013	-0.305
-533.121	-65.952	-0.378	0.150
-532.106	-200.000	0.029	0.268
-531.091	383.335	-0.062	0.126
-530.077	800.000	0.118	-0.467
-529.062	28.892	0.086	-0.073
-528.048	-64.487	-0.081	0.033
-527.033	204.512	0.153	0.237
-526.018	-162.163	0.156	-0.008
-525.004	-71.448	0.166	0.062
-523.989	482.078	-0.063	-0.142
-522.975	-176.056	0.083	-0.002
-521.960	800.000	-0.098	-0.340
-520.945	-161.134	0.155	0.008
-519.931	16.088	-0.193	0.152
-518.916	-200.000	0.006	-0.183
-517.902	86.543	0.158	-0.173
-516.887	-27.118	-0.292	-0.169
-515.872	391.722	0.247	-0.512
-514.858	-190.462	-0.211	0.002
-513.843	800.000	0.037	-0.111
-512.829	163.157	-0.075	0.105
-511.814	209.966	0.017	-0.027
-510.799	48.245	-0.163	-0.151
-509.785	62.769	-0.129	0.129
-508.770	-161.369	0.181	-0.009
-507.756	-2.923	-0.254	-0.176
-506.741	-200.000	-0.006	0.058
-505.726	-140.047	-0.185	0.019
-504.712	-200.000	0.003	-0.060
-503.697	162.036	0.156	-0.218
-502.683	-97.333	-0.122	0.031
-501.668	100.452	0.118	-0.136
-500.653	656.538	0.023	-0.060
-499.639	-10.470	0.113	0.074
-498.624	-162.692	-0.308	0.015
-497.610	800.000	-0.059	-0.236
-496.595	-184.376	-0.306	-0.005
-495.581	-200.000	-0.004	-0.149
-494.566	511.165	0.097	-0.225
-493.551	-34.313	-0.239	0.130
-492.537	39.988	-0.267	-0.239
-491.522	104.659	0.081	-0.095
-490.508	-198.957	-0.455	-0.002
-489.493	31.608	0.073	0.062
-488.478	-63.530	0.381	-0.155
-487.464	178.169	0.091	-0.132
-486.449	-148.758	-0.187	-0.015
-485.435	-33.686	-0.149	-0.081
-484.420	-200.000	-0.035	-0.353
-483.405	501.965	0.016	0.038
-482.391	-86.851	0.130	-0.039
-481.376	-200.000	-0.002	0.112
-480.362	541.672	0.114	0.270
-479.347	118.203	0.120	0.148
-478.332	-200.000	0.080	-0.391
-477.318	-142.997	0.134	0.013
-476.303	-147.930	-0.274	-0.023
-475.289	69.264	0.195	0.199
-474.274	-200.000	-0.100	0.551
-473.259	20.262	0.119	0.096
-472.245	-200.000	-0.094	0.521
-471.230	240.455	0.157	0.261
-470.216	-143.772	0.166	0.016
-469.201	-54.012	0.342	-0.155
-468.186	800.000	0.085	-0.263
-467.172	434.763	-0.120	0.259
-466.157	247.539	-0.063	0.106
-465.143	212.913	-0.172	-0.270
-464.128	800.000	-0.026	0.098
-463.113	-200.000	0.023	-0.138
-462.099	800.000	0.069	-0.224
-461.084	-103.050	0.180	-0.042
-460.070	32.158	0.368	-0.315
-459.055	115.612	0.195	0.237
-458.040	800.000	-0.066	0.188
-457.026	-200.000	0.072	-0.452
-456.011	-34.674	0.246	0.134
-454.997	590.950	-0.058	0.143
-453.982	-200.000	0.060	0.277
-452.968	-97.548	0.214	-0.055
-451.953	205.848	-0.181	-0.279
-450.938	-80.762	0.042	0.014
-449.924	-200.000	0.012	-0.214
-448.909	177.881	-0.106	0.154
-447.895	800.000	0.059	0.210
-446.880	-76.060	0.095	-0.033
-445.865	-200.000	-0.001	-0.030
-444.851	-77.674	0.108	0.037
-443.836	759.294	0.092	0.247
-442.822	-0.036	0.407	0.287
-441.807	35.625	0.248	0.216
-440.792	-65.600	-0.187	0.075
-439.778	-181.315	0.116	0.002
-438.763	800.000	-0.052	0.185
-437.749	175.174	-0.216	-0.310
-436.734	403.034	-0.036	-0.076
-435.719	-130.387	-0.386	-0.052
-434.705	161.868	-0.051	0.071
-433.690	-60.182	0.324	0.137
-432.676	157.879	-0.172	-0.236
-431.661	4.478	0.121	-0.088
-430.646	-180.706	0.171	-0.003
-429.632	800.000	-0.064	0.197
-428.617	-180.349	-0.117	-0.002
-427.603	8.484	-0.179	0.134
-426.588	-149.909	0.327	0.025
-425.573	515.670	-0.131	-0.303
-424.559	94.231	0.150	0.169
-423.544	191.548	-0.072	-0.107
-422.530	-159.234	-0.113	0.006
-421.515	411.199	0.042	0.089
-420.500	-53.845	-0.155	-0.070
-419.486	-148.894	-0.371	0.030
-418.471	4.579	-0.432	-0.315
-417.457	722.948	0.055	-0.146
-416.442	69.363	0.311	0.317
-415.428	330.003	0.175	0.334
-414.413	-188.805	0.127	-0.002
-413.398	-108.412	0.117	0.025
-412.384	-200.000	-0.003	0.326
-411.369	103.195	-0.020	0.023
-410.355	-0.648	-0.082	-0.058
-409.340	-115.919	0.188	0.035
-408.325	-25.018	-0.194	0.114
-407.311	23.142	-0.150	0.122
-406.296	-11.447	0.216	0.141
-405.282	-132.251	0.397	0.051
-404.267	-153.951	0.063	0.004
-403.252	800.000	0.096	-0.326
-402.238	135.355	0.046	-0.059
-401.223	-47.047	-0.103	0.050
-400.209	800.000	0.087	0.302
-399.194	488.220	0.091	-0.205
-398.179	209.207	0.067	-0.103
-397.165	218.550	-0.078	-0.123
-396.150	73.566	0.161	-0.167
-395.136	-89.939	0.333	0.096
-394.121	47.107	-0.214	0.197
-393.106	42.454	-0.163	0.147
-392.092	-38.936	-0.091	0.047
-391.077	-200.000	-0.011	-0.256
-390.063	-62.635	-0.176	-0.072
-389.048	113.349	0.117	0.141
-388.033	-200.000	0.014	-0.146
-387.019	-43.199	0.375	0.188
-386.004	597.283	-0.049	0.119
-384.990	163.191	-0.120	0.167
-383.975	62.537	0.099	0.098
-382.960	258.884	-0.098	0.167
-381.946	800.000	0.006	-0.024
-380.931	799.459	-0.037	0.100
-379.917	-55.692	-0.484	0.214
-378.902	56.077	0.104	-0.100
-377.888	800.000	-0.035	-0.151
-376.873	-200.000	0.040	0.181
-375.858	-200.000	-0.036	0.347
-374.844	-168.580	-0.302	-0.011
-373.829	-200.000	-0.029	-0.206
-372.815	219.295	0.065	0.103
-371.800	301.261	-0.031	-0.056
-370.785	616.689	0.039	-0.098
-369.771	-100.326	0.314	-0.077
-368.756	800.000	0.089	0.354
-367.742	115.690	0.083	-0.100
-366.727	-124.527	-0.157	-0.024
-365.712	800.000	-0.048	-0.170
-364.698	-200.000	0.006	0.111
-363.683	-24.121	0.094	-0.055
-362.669	-155.765	0.095	0.006
-361.654	-185.072	-0.111	0.002
-360.639	51.793	0.173	0.163
-359.625	-69.347	-0.464	0.176
-358.610	329.184	-0.116	-0.221
-357.596	24.747	0.192	0.157
-356.581	-200.000	0.033	0.183
-355.566	27.968	-0.157	0.131
-354.552	143.754	-0.130	0.171
-353.537	-173.801	-0.482	-0.014
-352.523	-172.795	0.146	0.005
-351.508	112.481	0.174	0.209
-350.493	-200.000	-0.024	-0.226
-349.479	800.000	-0.042	0.127
-348.464	-200.000	0.059	0.307
-347.450	208.772	0.184	0.284
-346.435	8.505	-0.079	-0.059
-345.420	195.680	0.081	-0.122
-344.406	25.787	0.232	-0.191
-343.391	684.307	-0.064	-0.166
-342.377	-177.892	0.392	-0.009
-341.362	-71.742	-0.264	0.097
-340.348	-200.000	0.025	-0.169
-339.333	196.231	-0.010	-0.014
-338.318	-127.648	-0.295	-0.042
-337.304	-42.442	0.373	0.188
-336.289	310.630	-0.148	0.275
-335.275	148.575	-0.150	-0.200
-334.260	-153.866	0.190	0.013
-333.245	800.000	-0.022	-0.074
-332.231	131.561	-0.204	-0.259
-331.216	539.699	-0.105	0.246
-330.202	-62.673	0.134	-0.055
-329.187	800.000	0.081	0.318
-328.172	-200.000	0.013	-0.114
-327.158	-15.527	-0.274	0.173
-326.143	-159.181	0.231	-0.013
-325.129	-43.112	-0.110	-0.055
-324.114	29.520	-0.080	-0.067
-323.099	800.000	0.046	0.151
-322.085	302.197	-0.141	-0.257
-321.070	-27.802	0.363	-0.208
-320.056	-200.000	-0.144	-0.639
-319.041	26.502	-0.124	0.102
-318.026	787.730	0.040	0.109
-317.012	-73.047	0.393	-0.142
-315.997	-200.000	0.024	0.147
-314.983	44.667	-0.025	-0.023
-313.968	520.181	0.078	-0.181
-312.953	-200.000	-0.017	-0.288
-311.939	222.502	-0.139	-0.221
-310.924	119.155	-0.191	-0.233
-309.910	178.364	0.175	0.252
-308.895	192.516	0.066	-0.098
-307.880	-159.062	0.145	-0.008
-306.866	-200.000	-0.004	0.087
-305.851	107.279	0.118	-0.138
-304.837	-6.677	-0.188	0.126
-303.822	-100.297	-0.301	-0.074
-302.807	-27.293	0.270	0.155
-301.793	-200.000	0.008	-0.364
-300.778	-70.259	0.293	-0.110
-299.764	-113.968	0.140	0.027
-298.749	24.703	0.049	-0.040
-297.735	334.329	-0.043	0.081
-296.720	-81.269	-0.139	-0.045
-295.705	-79.737	-0.033	-0.011
-294.691	90.918	-0.134	0.148
-293.676	269.385	-0.114	0.198
-292.662	-200.000	-0.032	-0.165
-291.647	161.081	-0.218	-0.301
-290.632	-200.000	-0.017	0.094
-289.618	-147.737	-0.076	0.006
-288.603	567.555	-0.091	0.217
-287.589	467.942	-0.088	0.194
-286.574	-200.000	-0.010	0.153
-285.559	-123.546	0.199	-0.031
-284.545	14.815	0.117	-0.090
-283.530	197.732	0.163	-0.246
-282.516	292.839	-0.060	-0.108
-281.501	-83.580	-0.053	0.017
-280.486	11.658	0.160	-0.121
-279.472	800.000	-0.089	0.260
-278.457	33.143	-0.223	0.191
-277.443	114.420	0.039	0.047
-276.428	15.166	-0.178	-0.138
-275.413	-200.000	-0.019	-0.082
-274.399	445.902	0.152	0.329
-273.384	-7.935	-0.197	0.131
-272.370	578.127	0.080	-0.192
-271.355	-200.000	0.007	0.108
-270.340	800.000	-0.082	0.308
-269.326	-144.136	-0.147	-0.014
-268.311	86.416	-0.061	0.067
-267.297	800.000	-0.054	-0.181
-266.282	-200.000	-0.056	0.279
-265.267	-170.260	0.357	-0.012
-264.253	-172.675	0.420	0.013
-263.238	-91.281	0.143	-0.040
-262.224	228.461	0.061	-0.097
-261.209	-200.000	-0.010	0.107
-260.195	800.000	0.053	-0.222
-259.180	789.828	-0.111	0.300
-258.165	-143.538	0.222	-0.021
-257.151	705.302	0.096	-0.250
-256.136	-62.893	0.148	-0.060
-255.122	-45.025	-0.153	-0.075
-254.107	147.388	0.046	0.061
-253.092	-65.595	0.186	0.073
-252.078	-107.384	-0.301	-0.065
-251.063	-200.000	0.016	-0.119
-250.049	800.000	0.089	-0.384
-249.034	-200.000	0.003	-0.278
-248.019	175.675	-0.115	0.165
-247.005	83.821	-0.020	-0.021
-245.990	87.105	-0.125	-0.136
-244.976	800.000	-0.016	0.045
-243.961	-32.706	-0.234	0.128
-242.946	569.698	0.079	-0.190
-241.932	-122.938	0.187	-0.030
-240.917	22.548	-0.092	0.074
-239.903	628.411	0.158	0.394
-238.888	161.874	0.140	0.193
-237.873	800.000	-0.071	0.240
-236.859	-200.000	-0.011	0.074
-235.844	-13.472	0.124	0.079
-234.830	800.000	0.072	-0.235
-233.815	-66.154	0.191	-0.075
-232.800	-128.869	0.173	0.024
-231.786	-200.000	0.011	-0.080
-230.771	123.270	0.055	0.068
-229.757	-123.831	-0.194	-0.030
-228.742	214.234	-0.218	0.340
-227.727	800.000	-0.038	0.140
-226.713	279.118	0.050	-0.088
-225.698	800.000	0.080	-0.225
-224.684	-42.458	0.234	-0.118
-223.669	104.659	0.117	0.136
-222.655	184.767	-0.114	0.166
-221.640	-200.000	-0.004	-0.277
-220.625	-104.647	0.142	0.032
-219.611	800.000	-0.034	0.108
-218.596	35.927	-0.065	0.056
-217.582	288.646	-0.033	-0.059
-216.567	-77.191	-0.273	-0.093
-215.552	-43.531	0.126	-0.063
-214.538	71.018	0.219	0.223
-213.523	-111.452	0.116	-0.023
-212.509	107.066	-0.241	0.281
-211.494	-24.254	0.165	-0.097
-210.479	-53.589	0.186	0.084
-209.465	-200.000	-0.040	0.174
-208.450	-175.205	-0.025	-0.001
-207.436	-200.000	0.051	0.326
-206.421	9.203	0.055	-0.041
-205.406	-135.240	-0.144	-0.017
-204.392	141.401	0.021	-0.027
-203.377	-101.922	-0.063	0.015
-202.363	40.601	-0.153	0.136
-201.348	-158.403	-0.064	0.004
-200.333	-148.476	-0.237	0.019
-199.319	-177.340	-0.290	-0.007
-198.304	-19.384	-0.465	-0.283
-197.290	39.826	0.105	-0.093
-196.275	183.476	-0.130	-0.189
-195.260	-69.184	0.173	0.065
-194.246	-114.463	0.057	0.011
-193.231	-45.923	-0.157	-0.076
-192.217	-137.942	-0.106	0.012
-191.202	121.568	0.129	0.158
-190.187	377.846	-0.073	0.146
-189.173	-200.000	-0.004	0.189
-188.158	4.158	-0.313	0.225
-187.144	-200.000	0.052	0.339
-186.129	97.535	-0.030	-0.034
-185.114	-102.956	-0.214	0.050
-184.100	36.676	-0.340	0.295
-183.085	-51.595	0.118	0.054
-182.071	-133.781	-0.170	0.021
-181.056	72.436	0.078	-0.080
-180.042	-109.520	0.345	0.072
-179.027	146.214	-0.054	-0.072
-178.012	-140.942	-0.224	-0.023
-176.998	-171.387	-0.441	0.014
-175.983	18.028	0.089	-0.070
-174.969	360.326	0.113	-0.223
-173.954	134.163	-0.059	0.075
-172.939	18.243	0.129	-0.101
-171.925	130.253	-0.112	0.140
-170.910	-200.000	0.001	-0.106
-169.896	-44.826	0.239	-0.117
-168.881	-200.000	0.005	0.111
-167.866	133.305	0.317	0.402
-166.852	800.000	0.042	-0.166
-165.837	103.029	-0.199	0.229
-164.823	75.919	0.046	0.048
-163.808	42.445	-0.126	0.112
-162.793	-28.165	-0.130	-0.074
-161.779	800.000	-0.062	-0.208
-160.764	-85.457	-0.145	0.044
-159.750	66.059	0.067	0.067
-158.735	369.511	-0.180	-0.358
-157.720	51.368	-0.079	0.073
-156.706	112.085	-0.160	0.190
-155.691	7.927	0.232	0.171
-154.677	407.361	0.098	-0.204
-153.662	179.746	0.057	-0.083
-152.647	-85.365	-0.300	0.092
-151.633	237.414	-0.101	-0.165
-150.618	-2.442	0.240	-0.165
-149.604	-200.000	-0.048	0.363
-148.589	-39.773	0.134	-0.069
-147.574	-53.835	-0.205	0.092
-146.560	800.000	-0.082	0.290
-145.545	22.710	0.257	0.207
-144.531	-200.000	0.029	-0.180
-143.516	289.086	-0.138	0.245
-142.502	189.466	-0.071	0.104
-141.487	-142.787	-0.378	0.036
-140.472	-91.320	0.299	0.084
-139.458	800.000	0.035	0.132
-138.443	-178.345	0.328	0.008
-137.429	-58.283	0.277	-0.118
-136.414	-147.466	0.040	-0.003
-135.399	111.553	-0.107	-0.127
-134.385	566.092	-0.025	-0.060
-133.370	-133.608	-0.402	0.049
-132.356	-140.509	0.167	0.017
-131.341	0.046	-0.282	0.197
-130.326	71.047	0.051	-0.052
-129.312	-122.392	0.225	0.036
-128.297	-156.465	-0.270	-0.017
-127.283	-200.000	-0.003	0.071
-126.268	-200.000	-0.025	-0.127
-125.253	-111.112	0.124	0.025
-124.239	-193.129	0.352	0.003
-123.224	-162.546	0.195	-0.009
-122.210	-74.640	0.126	0.045
