DTS Sentinel unit serial number:	SN413079Multiplexer serial number:	ORYXHardware model number:	OX4-SRSoftware version number:	ORYX F/W v4.00 Oryx Data Collector v3.7.2.0data status	okinstallation	princeton_trtdifferential loss correction	single-endedforward channel	channel 2reverse channel	N/Adate	2019/09/11time	02:21:10forward acquisition time	60.00reverse acquisition time	0.00gamma	496.2192k internal	0.2331k external	0.2331temperature offset calibration	0.9942default loss term (dB/km)	0.3790temperature slope calibration	1.0000multiplexer offset coefficient	1.0000multiplexer slope coefficient	1.0000fibre end	0.00T internal ref (°C)	29.19T ext. ref 1 (°C)	-0.30T ext. ref 2 (°C)	23.45length (m)	temperature (°C)	Stokes	anti-Stokes-747.200	800.000	-0.033	-0.109
-746.185	-167.437	0.266	-0.011
-745.171	40.175	0.142	-0.128
-744.156	800.000	0.061	0.225
-743.142	-0.386	-0.086	-0.061
-742.127	85.773	0.065	0.072
-741.112	800.000	0.085	0.302
-740.098	-155.573	0.377	0.024
-739.083	-75.776	-0.261	0.093
-738.069	-200.000	0.034	0.207
-737.054	-112.792	-0.204	0.041
-736.039	-167.887	-0.302	-0.012
-735.025	-135.276	-0.129	-0.015
-734.010	-200.000	-0.006	-0.226
-732.996	275.269	-0.148	-0.264
-731.981	800.000	0.049	-0.199
-730.966	800.000	0.030	0.098
-729.952	213.937	-0.261	-0.416
-728.937	-24.206	0.363	0.218
-727.923	29.460	-0.262	0.224
-726.908	-84.952	0.240	-0.076
-725.894	-91.559	-0.176	-0.050
-724.879	276.114	-0.090	0.161
-723.864	81.797	-0.124	0.135
-722.850	91.819	-0.231	-0.262
-721.835	-113.605	-0.285	-0.056
-720.821	22.862	-0.214	0.177
-719.806	278.183	0.141	-0.252
-718.791	-83.055	-0.318	-0.103
-717.777	-38.432	0.129	0.069
-716.762	-78.664	-0.391	-0.134
-715.748	-200.000	-0.055	0.347
-714.733	606.964	-0.124	0.311
-713.718	-106.020	0.156	-0.035
-712.704	270.708	-0.046	0.081
-711.689	493.051	0.128	0.294
-710.675	-131.954	0.152	0.020
-709.660	59.742	0.115	-0.114
-708.645	-25.666	-0.304	-0.180
-707.631	800.000	0.041	-0.120
-706.616	-2.735	0.158	-0.111
-705.602	244.714	-0.043	-0.072
-704.587	-200.000	-0.087	-0.389
-703.572	-186.440	0.210	-0.003
-702.558	166.046	-0.127	0.181
-701.543	347.830	0.191	-0.379
-700.529	-200.000	0.017	0.219
-699.514	170.017	0.135	-0.194
-698.499	800.000	0.037	-0.128
-697.485	-200.000	-0.006	-0.270
-696.470	90.664	-0.151	-0.170
-695.456	800.000	-0.059	-0.239
-694.441	-116.081	0.263	0.049
-693.426	17.918	-0.153	-0.123
-692.412	252.368	0.116	0.198
-691.397	493.066	0.096	0.221
-690.383	40.696	0.350	-0.317
-689.368	-105.077	-0.419	0.096
-688.354	-124.257	0.117	-0.018
-687.339	311.723	0.090	0.170
-686.324	-0.468	-0.226	0.161
-685.310	-200.000	0.052	-0.298
-684.295	172.596	-0.165	0.238
-683.281	-200.000	0.011	-0.198
-682.266	144.604	0.162	-0.218
-681.251	-51.760	-0.186	-0.087
-680.237	258.491	-0.082	0.141
-679.222	248.531	0.085	-0.144
-678.208	171.758	0.119	-0.172
-677.193	-33.111	0.159	-0.088
-676.178	-48.654	-0.162	0.078
-675.164	-102.264	-0.389	0.094
-674.149	106.451	0.148	0.176
-673.135	-9.506	0.151	-0.101
-672.120	-200.000	-0.025	-0.252
-671.105	-24.541	0.280	-0.167
-670.091	-152.349	0.206	0.015
-669.076	210.683	0.178	-0.280
-668.062	800.000	-0.061	0.201
-667.047	-200.000	-0.001	0.214
-666.032	117.567	-0.162	-0.200
-665.018	580.071	-0.059	0.144
-664.003	109.403	-0.087	-0.104
-662.989	-192.472	0.086	-0.001
-661.974	7.773	0.142	-0.107
-660.959	-174.184	0.180	-0.005
-659.945	267.322	-0.117	0.206
-658.930	205.520	-0.094	-0.147
-657.916	-200.000	0.011	-0.124
-656.901	321.508	-0.098	-0.187
-655.886	220.495	-0.123	0.198
-654.872	-200.000	0.019	-0.377
-653.857	-115.055	-0.127	0.024
-652.843	-5.928	-0.146	0.100
-651.828	-152.895	-0.369	-0.026
-650.814	-200.000	0.060	-0.274
-649.799	-200.000	0.055	-0.274
-648.784	225.601	-0.104	0.169
-647.770	-200.000	-0.007	0.194
-646.755	-200.000	0.038	-0.211
-645.741	-200.000	-0.007	-0.305
-644.726	-200.000	0.009	0.561
-643.711	-63.941	-0.188	0.077
-642.697	-113.186	0.230	0.045
-641.682	41.425	-0.214	0.194
-640.668	-97.931	-0.237	0.061
-639.653	61.365	-0.207	-0.206
-638.638	-54.342	-0.188	0.086
-637.624	-55.079	-0.315	-0.142
-636.609	148.532	0.136	0.184
-635.595	-87.995	0.150	0.045
-634.580	178.212	-0.176	0.258
-633.565	169.668	-0.133	-0.190
-632.551	-10.442	0.235	0.156
-631.536	-30.751	0.198	-0.112
-630.522	-200.000	-0.009	-0.165
-629.507	-200.000	-0.029	-0.240
-628.492	-200.000	0.017	-0.090
-627.478	588.110	-0.073	0.181
-626.463	-69.720	0.405	0.155
-625.449	397.163	0.094	-0.196
-624.434	-5.044	0.087	0.060
-623.419	26.300	-0.114	-0.095
-622.405	627.328	-0.041	0.104
-621.390	-22.814	-0.309	-0.187
-620.376	800.000	0.058	0.176
-619.361	135.007	-0.147	-0.192
-618.346	-200.000	0.276	0.000
-617.332	100.485	0.042	-0.049
-616.317	-140.147	-0.277	0.029
-615.303	94.486	0.223	0.254
-614.288	142.858	-0.252	-0.335
-613.273	-68.410	0.181	-0.070
-612.259	105.018	-0.108	0.128
-611.244	-39.671	0.202	-0.106
-610.230	-168.218	-0.155	0.006
-609.215	-37.420	0.318	0.170
-608.201	92.966	0.196	0.221
-607.186	800.000	-0.008	0.030
-606.171	-97.678	-0.303	-0.079
-605.157	-134.398	0.202	0.025
-604.142	290.945	-0.136	-0.247
-603.128	-32.532	-0.180	-0.101
-602.113	-25.913	-0.248	0.146
-601.098	734.379	-0.037	-0.099
-600.084	41.309	0.375	0.339
-599.069	163.119	0.111	0.156
-598.055	-150.216	-0.141	-0.011
-597.040	281.669	0.105	0.188
-596.025	-172.712	-0.480	-0.015
-595.011	402.180	-0.153	-0.323
-593.996	-200.000	-0.022	-0.157
-592.982	362.067	-0.128	-0.257
-591.967	-4.012	0.200	-0.139
-590.952	220.229	-0.165	-0.265
-589.938	-125.128	0.234	0.036
-588.923	-181.204	0.071	0.001
-587.909	-13.029	0.161	0.105
-586.894	-200.000	-0.009	-0.057
-585.879	37.334	0.256	0.227
-584.865	224.588	-0.155	0.251
-583.850	473.709	0.137	-0.310
-582.836	-51.941	-0.141	0.066
-581.821	-81.999	-0.176	0.057
-580.806	73.131	-0.071	-0.074
-579.792	800.000	0.083	-0.269
-578.777	99.809	0.066	-0.076
-577.763	223.964	-0.048	0.077
-576.748	189.692	0.217	-0.326
-575.733	408.720	0.024	-0.051
-574.719	-89.488	-0.141	-0.041
-573.704	268.069	0.141	0.246
-572.690	-200.000	0.006	0.441
-571.675	23.000	-0.108	0.088
-570.661	-157.395	0.267	0.016
-569.646	223.496	0.147	0.237
-568.631	127.372	-0.310	0.393
-567.617	7.557	0.061	0.046
-566.602	45.072	-0.225	0.207
-565.588	-104.500	0.323	-0.075
-564.573	-68.406	0.096	-0.037
-563.558	-75.706	0.127	0.045
-562.544	530.129	-0.115	-0.272
-561.529	37.157	-0.048	0.043
-560.515	-25.520	0.055	0.032
-559.500	800.000	0.023	0.075
-558.485	48.980	0.174	-0.163
-557.471	127.750	-0.099	0.126
-556.456	-200.000	0.010	0.193
-555.442	-42.370	-0.175	0.089
-554.427	-96.068	0.297	0.079
-553.412	-200.000	-0.022	0.189
-552.398	-200.000	0.027	0.246
-551.383	-95.893	0.073	-0.019
-550.369	800.000	-0.078	0.273
-549.354	-197.099	0.198	0.001
-548.339	231.466	-0.089	0.146
-547.325	-38.879	0.054	-0.028
-546.310	-200.000	0.003	0.030
-545.296	201.173	0.150	-0.230
-544.281	-200.000	-0.023	0.253
-543.266	-44.870	0.281	-0.140
-542.252	395.593	0.011	0.022
-541.237	274.973	-0.127	-0.224
-540.223	285.165	-0.223	-0.401
-539.208	-1.591	-0.299	-0.210
-538.193	208.407	-0.103	-0.161
-537.179	800.000	-0.047	0.149
-536.164	70.196	0.001	-0.001
-535.150	-65.845	-0.101	0.040
-534.135	-78.121	0.247	0.085
-533.121	-2.776	-0.218	0.152
-532.106	-130.020	0.135	0.018
-531.091	-172.563	0.318	0.010
-530.077	27.071	-0.124	-0.104
-529.062	-200.000	0.087	0.416
-528.048	-122.542	0.262	-0.042
-527.033	61.203	-0.147	-0.146
-526.018	-121.395	0.514	0.085
-525.004	800.000	-0.072	-0.247
-523.989	800.000	0.045	-0.139
-522.975	800.000	0.079	0.263
-521.960	217.616	0.069	-0.110
-520.945	49.815	0.160	-0.151
-519.931	515.719	-0.134	-0.312
-518.916	576.037	0.092	-0.225
-517.902	150.489	-0.148	0.200
-516.887	10.674	-0.183	0.139
-515.872	43.177	0.430	-0.391
-514.858	-55.133	-0.280	-0.126
-513.843	587.365	-0.036	0.087
-512.829	208.725	0.047	-0.074
-511.814	-30.921	-0.225	0.127
-510.799	374.998	0.027	-0.055
-509.785	-66.537	-0.467	0.185
-508.770	67.548	0.168	-0.171
-507.756	-49.477	-0.319	-0.152
-506.741	-71.576	0.358	0.133
-505.726	297.720	-0.124	0.227
-504.712	220.018	-0.209	0.334
-503.697	-29.774	0.362	0.206
-502.683	68.867	-0.153	0.156
-501.668	-62.965	-0.210	0.086
-500.653	-86.045	0.207	-0.064
-499.639	163.520	0.061	0.085
-498.624	800.000	-0.070	-0.203
-497.610	-86.441	-0.248	0.076
-496.595	800.000	-0.038	-0.154
-495.581	40.818	0.032	0.029
-494.566	615.557	0.174	-0.434
-493.551	68.770	-0.128	0.131
-492.537	-200.000	-0.017	-0.229
-491.522	90.989	-0.056	-0.063
-490.508	208.982	0.180	-0.281
-489.493	-128.473	0.141	0.020
-488.478	-43.901	-0.189	0.095
-487.464	106.849	-0.261	-0.309
-486.449	335.937	-0.139	0.268
-485.435	-5.565	-0.274	-0.187
-484.420	-200.000	0.016	0.073
-483.405	-141.268	-0.067	-0.007
-482.391	190.420	-0.078	-0.116
-481.376	-68.205	0.230	-0.089
-480.362	-94.582	0.054	-0.015
-479.347	-200.000	0.029	-0.191
-478.332	15.337	-0.087	0.068
-477.318	-111.192	0.118	-0.024
-476.303	-5.502	-0.151	-0.103
-475.289	-53.701	-0.065	0.030
-474.274	-101.121	-0.291	-0.071
-473.259	-29.205	-0.094	-0.053
-472.245	-54.983	0.070	0.032
-471.230	-118.722	-0.141	-0.025
-470.216	78.449	0.043	-0.046
-469.201	276.946	-0.169	-0.300
-468.186	54.134	0.232	0.222
-467.172	21.770	-0.078	-0.063
-466.157	560.240	-0.118	-0.283
-465.143	638.541	-0.013	0.033
-464.128	425.587	0.133	-0.285
-463.113	459.009	-0.100	-0.221
-462.099	-114.847	0.164	-0.031
-461.084	155.649	0.065	0.089
-460.070	-200.000	0.012	0.102
-459.055	-147.985	-0.463	-0.038
-458.040	-107.767	0.184	0.040
-457.026	256.480	0.142	0.243
-456.011	120.736	-0.163	-0.201
-454.997	-141.368	-0.327	-0.033
-453.982	-94.437	-0.231	0.063
-452.968	-35.755	-0.118	-0.064
-451.953	-142.676	-0.416	0.040
-450.938	-157.230	0.373	-0.022
-449.924	51.540	-0.146	0.138
-448.909	304.580	-0.151	-0.278
-447.895	-116.620	0.164	-0.030
-446.880	-162.736	-0.190	0.009
-445.865	-57.982	-0.200	0.087
-444.851	85.212	-0.180	-0.196
-443.836	423.161	-0.061	-0.130
-442.822	-14.697	0.219	0.140
-441.807	-200.000	0.011	0.309
-440.792	781.754	-0.041	0.113
-439.778	-179.031	0.203	0.005
-438.763	-65.343	-0.045	0.018
-437.749	-200.000	-0.012	0.163
-436.734	89.209	0.121	-0.135
-435.719	-160.823	0.379	-0.020
-434.705	-118.686	-0.094	-0.017
-433.690	-200.000	0.020	-0.124
-432.676	-200.000	-0.023	-0.101
-431.661	176.301	-0.174	0.251
-430.646	54.443	0.251	0.240
-429.632	-66.116	0.177	0.070
-428.617	263.212	-0.134	-0.231
-427.603	369.092	0.091	-0.183
-426.588	-65.973	0.088	0.035
-425.573	800.000	0.047	-0.145
-424.559	-36.485	-0.187	-0.100
-423.544	-107.566	-0.229	-0.050
-422.530	42.234	-0.098	0.088
-421.515	-200.000	0.006	0.251
-420.500	232.277	-0.207	0.338
-419.486	60.594	-0.026	-0.026
-418.471	800.000	-0.052	0.143
-417.457	36.294	-0.245	0.215
-416.442	-120.162	0.343	-0.058
-415.428	46.889	0.154	-0.142
-414.413	-87.967	0.294	0.088
-413.398	800.000	-0.071	-0.286
-412.384	68.727	0.124	0.126
-411.369	-163.140	0.244	0.012
-410.355	29.434	-0.238	0.201
-409.340	800.000	-0.049	-0.203
-408.325	47.257	0.088	0.082
-407.311	-200.000	-0.009	0.217
-406.296	-46.391	0.397	0.194
-405.282	-74.318	-0.206	-0.074
-404.267	-200.000	0.010	-0.332
-403.252	-34.413	0.213	0.116
-402.238	-133.458	0.567	-0.071
-401.223	-92.148	-0.181	-0.051
-400.209	-200.000	-0.004	0.174
-399.194	24.637	0.161	0.132
-398.179	-64.477	-0.070	0.028
-397.165	800.000	0.075	-0.262
-396.150	487.173	0.108	0.244
-395.136	180.127	-0.119	0.173
-394.121	-13.149	-0.082	0.053
-393.106	-200.000	-0.007	0.067
-392.092	93.001	-0.171	-0.191
-391.077	-78.924	-0.464	-0.157
-390.063	4.801	-0.393	-0.286
-389.048	-174.425	-0.097	0.003
-388.033	85.764	0.326	0.356
-387.019	-192.378	-0.467	-0.004
-386.004	-73.578	-0.067	0.024
-384.990	-137.405	0.175	0.020
-383.975	82.244	-0.173	-0.186
-382.960	-87.336	-0.236	-0.071
-381.946	800.000	-0.042	-0.155
-380.931	-200.000	-0.030	-0.161
-379.917	596.538	-0.043	-0.104
-378.902	14.085	0.150	0.116
-377.888	-116.933	0.376	0.068
-376.873	-137.869	-0.094	0.010
-375.858	500.596	0.137	-0.313
-374.844	-158.296	0.173	0.010
-373.829	66.584	0.159	0.160
-372.815	-137.387	-0.143	0.016
-371.800	89.507	0.281	-0.311
-370.785	47.843	-0.098	-0.091
-369.771	800.000	0.062	0.255
-368.756	163.410	0.112	0.156
-367.742	-200.000	0.009	-0.057
-366.727	11.336	0.120	-0.091
-365.712	-69.885	0.151	-0.057
-364.698	-94.233	0.158	0.043
-363.683	-113.567	0.336	0.065
-362.669	737.457	-0.094	-0.250
-361.654	250.072	-0.058	0.098
-360.639	-93.557	-0.186	0.051
-359.625	103.670	0.133	0.155
-358.610	201.743	-0.213	0.326
-357.596	-200.000	-0.018	-0.198
-356.581	800.000	-0.104	-0.319
-355.566	-56.696	0.090	0.039
-354.552	-66.617	-0.106	-0.042
-353.537	300.393	0.070	-0.128
-352.523	-132.722	-0.326	0.041
-351.508	-118.168	0.147	-0.026
-350.493	-31.283	0.157	-0.088
-349.479	-152.627	0.106	0.007
-348.464	-110.403	0.159	0.033
-347.450	65.769	0.045	-0.045
-346.435	387.663	0.136	-0.279
-345.420	-32.317	0.096	0.053
-344.406	-95.015	0.177	-0.047
-343.391	-14.898	-0.204	-0.130
-342.377	493.672	0.068	-0.156
-341.362	376.285	-0.048	-0.097
-340.348	-200.000	-0.003	-0.245
-339.333	800.000	0.141	-0.415
-338.318	229.596	0.039	-0.063
-337.304	-81.064	-0.356	-0.117
-336.289	206.670	0.185	0.286
-335.275	800.000	-0.111	0.375
-334.260	-200.000	0.019	-0.104
-333.245	201.487	-0.046	-0.071
-332.231	-90.130	0.206	-0.059
-331.216	-81.733	-0.265	0.086
-330.202	-77.145	-0.338	-0.117
-329.187	30.759	-0.182	0.154
-328.172	29.796	0.039	0.033
-327.158	-200.000	0.004	0.036
-326.143	800.000	-0.056	-0.227
-325.129	-118.498	-0.104	-0.018
-324.114	-200.000	0.036	-0.173
-323.099	-37.738	-0.103	0.054
-322.085	-198.381	-0.428	-0.002
-321.070	303.180	0.131	0.240
-320.056	224.483	0.099	-0.158
-319.041	-15.068	-0.142	0.090
-318.026	-32.638	-0.301	-0.166
-317.012	-88.688	0.150	0.044
-315.997	88.587	-0.054	0.059
-314.983	-70.815	0.133	0.050
-313.968	-143.841	0.223	0.021
-312.953	27.126	-0.077	-0.064
-311.939	-200.000	-0.003	0.099
-310.924	-113.631	-0.350	0.068
-309.910	-152.692	0.269	0.019
-308.895	78.544	-0.129	-0.136
-307.880	-49.552	-0.022	-0.010
-306.866	473.085	0.052	-0.117
-305.851	-44.138	0.104	-0.052
-304.837	-158.230	-0.160	-0.009
-303.822	-200.000	-0.020	-0.449
-302.807	231.869	0.266	0.432
-301.793	-107.380	0.138	0.030
-300.778	-75.043	-0.093	0.033
-299.764	-169.967	0.216	0.008
-298.749	-200.000	0.039	-0.196
-297.735	633.083	0.073	-0.183
-296.720	-200.000	-0.027	-0.163
-295.705	107.595	-0.261	0.307
-294.691	-161.419	-0.170	-0.009
-293.676	244.283	0.375	0.622
-292.662	338.759	0.111	0.214
-291.647	-1.864	-0.321	0.223
-290.632	-200.000	-0.003	0.094
-289.618	-69.542	0.199	-0.075
-288.603	-20.505	0.236	-0.143
-287.589	-86.461	-0.214	-0.065
-286.574	439.979	-0.144	0.311
-285.559	611.643	0.095	-0.235
-284.545	-11.669	-0.179	-0.116
-283.530	-200.000	-0.045	-0.323
-282.516	-8.470	0.141	0.094
-281.501	-9.451	0.075	0.050
-280.486	-103.418	-0.242	-0.056
-279.472	96.486	-0.156	-0.177
-278.457	-200.000	0.004	0.075
-277.443	201.762	-0.070	0.106
-276.428	126.492	-0.109	-0.137
-275.413	188.249	-0.089	-0.131
-274.399	488.702	-0.157	-0.354
-273.384	-61.943	-0.339	0.140
-272.370	24.752	-0.208	-0.170
-271.355	-180.691	-0.179	-0.004
-270.340	74.021	0.249	-0.258
-269.326	-54.178	-0.392	0.176
-268.311	253.845	0.163	0.276
-267.297	-5.172	0.469	0.319
-266.282	-31.781	0.172	0.095
-265.267	800.000	0.089	0.377
-264.253	800.000	-0.008	-0.025
-263.238	-200.000	-0.038	-0.201
-262.224	-68.947	0.179	-0.068
-261.209	436.496	0.099	0.212
-260.195	-125.897	0.065	0.010
-259.180	-83.814	0.128	0.040
-258.165	-200.000	0.020	0.222
-257.151	-113.090	0.109	0.021
-256.136	-12.695	0.501	0.322
-255.122	-96.533	-0.229	0.060
-254.107	429.178	0.102	-0.217
-253.092	150.419	-0.195	0.261
-252.078	-85.124	0.279	-0.086
-251.063	-200.000	-0.010	0.174
-250.049	-161.483	-0.086	0.004
-249.034	800.000	0.087	0.352
-248.019	49.868	-0.249	-0.231
-247.005	138.959	-0.122	-0.159
-245.990	-3.055	-0.218	-0.150
-244.976	39.445	0.206	-0.182
-243.961	-4.817	-0.123	-0.083
-242.946	70.223	-0.094	-0.096
-241.932	800.000	-0.050	0.149
-240.917	-116.196	-0.217	-0.040
-239.903	-173.387	0.236	-0.007
-238.888	37.977	-0.134	0.117
-237.873	491.640	0.078	0.177
-236.859	-3.700	0.227	0.156
-235.844	-95.175	0.120	0.032
-234.830	-73.549	-0.252	-0.091
-233.815	-130.184	0.207	-0.028
-232.800	86.370	-0.140	0.153
-231.786	800.000	-0.047	0.136
-230.771	25.422	-0.111	-0.091
-229.757	-50.218	0.223	-0.104
-228.742	-102.467	-0.025	-0.006
-227.727	-17.941	0.217	0.134
-226.713	800.000	-0.044	0.124
-225.698	-23.186	-0.185	0.110
-224.684	419.243	-0.082	-0.173
-223.669	630.732	0.066	0.164
-222.655	-127.415	-0.163	-0.023
-221.640	-200.000	-0.016	0.153
-220.625	338.849	0.130	-0.250
-219.611	13.940	-0.211	-0.162
-218.596	-59.188	0.160	0.068
-217.582	-129.698	-0.219	0.030
-216.567	800.000	0.034	0.111
-215.552	-79.528	-0.275	0.092
-214.538	-95.030	-0.068	0.018
-213.523	-200.000	0.008	-0.062
-212.509	-160.808	0.394	0.021
-211.494	-200.000	0.006	-0.138
-210.479	20.061	0.048	0.038
-209.465	-33.357	0.219	0.120
-208.450	800.000	0.085	-0.255
-207.436	-200.000	0.051	0.282
-206.421	800.000	-0.062	-0.226
-205.406	170.889	-0.166	-0.235
-204.392	-18.865	-0.067	0.041
-203.377	229.149	0.197	0.316
-202.363	135.009	0.076	0.098
-201.348	-200.000	-0.013	-0.178
-200.333	-146.207	-0.280	-0.024
-199.319	296.554	-0.095	-0.172
-198.304	-200.000	-0.018	-0.325
-197.290	-42.523	-0.127	0.064
-196.275	-26.245	0.212	-0.123
-195.260	-48.364	0.225	0.107
-194.246	-200.000	-0.006	-0.059
-193.231	-104.063	0.280	0.064
-192.217	-200.000	0.010	-0.193
-191.202	50.943	-0.356	-0.333
-190.187	-198.214	0.114	-0.001
-189.173	115.374	-0.031	0.038
-188.158	-59.965	-0.042	0.018
-187.144	-153.573	-0.215	-0.015
-186.129	-196.295	-0.009	0.000
-185.114	-96.859	0.160	-0.041
-184.100	246.056	0.039	0.064
-183.085	-23.377	0.273	0.161
-182.071	-121.094	0.335	0.055
-181.056	61.758	0.260	0.255
-180.042	322.263	0.057	0.106
-179.027	-114.770	-0.180	0.034
-178.012	800.000	-0.082	-0.245
-176.998	-200.000	-0.019	0.245
-175.983	114.459	-0.197	0.236
-174.969	-63.006	0.103	0.042
-173.954	-135.881	0.281	0.033
-172.939	-29.623	-0.053	-0.030
-171.925	782.053	0.051	0.138
-170.910	373.313	0.136	0.273
-169.896	-29.962	0.429	0.241
-168.881	800.000	-0.080	0.289
-167.866	-168.585	0.211	-0.008
-166.852	800.000	0.028	0.118
-165.837	-120.255	0.195	-0.033
-164.823	28.025	0.143	-0.118
-163.808	300.640	0.037	-0.067
-162.793	-148.513	0.171	0.014
-161.779	68.066	0.062	0.063
-160.764	9.513	0.105	0.078
-159.750	-82.613	0.238	-0.076
-158.735	-200.000	0.004	-0.296
-157.720	-56.252	-0.187	0.082
-156.706	189.160	-0.067	0.098
-155.691	32.900	-0.051	-0.043
-154.677	800.000	-0.070	0.285
-153.662	-36.852	0.220	-0.116
-152.647	5.882	-0.209	-0.152
-151.633	-123.089	-0.312	-0.049
-150.618	-12.224	-0.105	0.068
-149.604	-55.545	0.153	0.067
-148.589	-78.843	0.347	0.116
-147.574	8.864	0.130	0.096
-146.560	82.016	0.037	0.039
-145.545	800.000	-0.114	0.366
-144.531	-128.167	0.199	-0.028
-143.516	-116.667	-0.073	0.013
-142.502	514.762	0.081	0.186
-141.487	800.000	-0.047	-0.169
-140.472	-120.343	0.219	-0.037
-139.458	-200.000	0.022	0.197
-138.443	135.410	0.182	0.233
-137.429	222.852	0.187	-0.297
-136.414	-200.000	-0.030	-0.160
-135.399	3.601	0.046	0.033
-134.385	284.481	0.031	-0.054
-133.370	800.000	0.103	-0.288
-132.356	-152.214	0.414	0.029
-131.341	-200.000	-0.018	-0.210
-130.326	754.457	0.072	-0.192
-129.312	-119.271	-0.276	-0.047
-128.297	800.000	0.036	0.114
-127.283	12.237	0.139	0.105
-126.268	-120.366	-0.050	-0.008
-125.253	35.251	-0.104	-0.090
-124.239	-63.425	-0.258	-0.104
-123.224	430.080	-0.059	0.126
-122.210	800.000	-0.095	0.395
-121.195	800.000	0.130	0.390
