DTS Sentinel unit serial number:	SN413079Multiplexer serial number:	ORYXHardware model number:	OX4-SRSoftware version number:	ORYX F/W v4.00 Oryx Data Collector v3.7.2.0data status	okinstallation	princeton_trtdifferential loss correction	single-endedforward channel	channel 2reverse channel	N/Adate	2019/09/18time	06:07:35forward acquisition time	60.00reverse acquisition time	0.00gamma	496.2192k internal	0.2349k external	0.2349temperature offset calibration	0.9985default loss term (dB/km)	0.3790temperature slope calibration	1.0000multiplexer offset coefficient	1.0000multiplexer slope coefficient	1.0000fibre end	0.00T internal ref (°C)	23.19T ext. ref 1 (°C)	0.19T ext. ref 2 (°C)	17.61length (m)	temperature (°C)	Stokes	anti-Stokes-747.200	-140.713	0.386	-0.040
-746.185	800.000	0.162	-0.581
-745.171	-121.642	-0.113	-0.019
-744.156	-12.478	0.017	0.011
-743.142	7.014	0.110	0.082
-742.127	-91.446	-0.229	-0.065
-741.112	-74.820	-0.248	0.089
-740.098	-57.247	-0.327	-0.144
-739.083	-200.000	0.033	0.285
-738.069	353.919	-0.060	-0.119
-737.054	-130.190	0.440	0.060
-736.039	-200.000	-0.029	0.131
-735.025	-23.202	0.168	0.101
-734.010	250.754	-0.108	-0.183
-732.996	-74.495	-0.107	-0.039
-731.981	112.178	-0.027	-0.033
-730.966	-200.000	-0.029	-0.443
-729.952	-70.603	-0.344	-0.130
-728.937	-23.067	0.179	-0.108
-727.923	-104.650	-0.094	-0.022
-726.908	-36.776	-0.275	-0.148
-725.894	-176.684	-0.415	-0.011
-724.879	-107.170	0.099	-0.022
-723.864	420.384	-0.077	-0.166
-722.850	237.703	0.026	0.043
-721.835	-200.000	0.070	0.337
-720.821	-36.153	-0.033	-0.018
-719.806	-104.137	-0.222	-0.052
-718.791	70.453	-0.209	-0.215
-717.777	800.000	-0.016	-0.055
-716.762	-21.834	-0.201	0.122
-715.748	-34.457	0.294	-0.161
-714.733	-86.042	-0.040	-0.012
-713.718	244.290	-0.198	0.331
-712.704	523.549	0.038	-0.088
-711.689	800.000	-0.046	-0.149
-710.675	2.958	-0.062	-0.045
-709.660	-49.423	0.502	-0.239
-708.645	84.887	-0.098	0.107
-707.631	-200.000	0.002	-0.061
-706.616	-9.731	-0.130	-0.086
-705.602	484.847	0.144	-0.327
-704.587	-38.696	-0.060	-0.032
-703.572	21.637	0.352	0.286
-702.558	18.358	-0.196	0.156
-701.543	-200.000	-0.074	0.439
-700.529	800.000	0.055	0.233
-699.514	43.861	-0.146	-0.134
-698.499	57.330	0.102	0.099
-697.485	32.330	-0.249	0.214
-696.470	-46.425	0.407	0.199
-695.456	12.849	-0.123	0.094
-694.441	107.315	-0.111	-0.131
-693.426	109.179	0.140	-0.167
-692.412	215.891	0.214	-0.340
-691.397	-65.128	-0.198	0.079
-690.383	557.373	0.143	0.344
-689.368	4.228	0.106	0.077
-688.354	275.903	-0.057	-0.100
-687.339	209.954	-0.107	-0.167
-686.324	-62.119	0.396	-0.165
-685.310	-76.490	-0.207	0.072
-684.295	800.000	-0.055	-0.237
-683.281	-144.718	0.313	-0.029
-682.266	-20.385	-0.114	-0.070
-681.251	33.374	0.253	-0.219
-680.237	57.618	0.025	-0.024
-679.222	-88.523	0.065	-0.019
-678.208	-12.173	-0.435	0.284
-677.193	121.330	-0.122	0.152
-676.178	30.622	-0.203	-0.173
-675.164	-129.824	-0.174	-0.024
-674.149	800.000	0.064	-0.218
-673.135	409.827	-0.097	0.205
-672.120	-200.000	0.000	0.163
-671.105	208.954	0.283	-0.441
-670.091	239.957	-0.046	-0.077
-669.076	-179.975	0.255	0.005
-668.062	385.343	0.128	0.262
-667.047	24.038	-0.220	0.181
-666.032	-135.087	0.130	0.016
-665.018	-200.000	-0.059	-0.265
-664.003	262.222	-0.111	0.191
-662.989	81.255	-0.193	0.208
-661.974	-7.794	-0.311	0.209
-660.959	800.000	0.058	-0.239
-659.945	-200.000	0.002	-0.304
-658.930	316.487	-0.048	-0.090
-657.916	-97.621	-0.039	-0.010
-656.901	252.962	-0.098	-0.166
-655.886	-55.831	-0.191	-0.085
-654.872	-149.433	-0.224	0.018
-653.857	-191.846	0.152	0.001
-652.843	55.431	0.062	-0.060
-651.828	-53.229	0.244	0.111
-650.814	-200.000	0.009	-0.264
-649.799	168.288	-0.111	0.158
-648.784	150.629	-0.170	0.230
-647.770	208.480	0.173	-0.270
-646.755	-110.096	-0.185	-0.038
-645.741	-130.901	0.214	0.028
-644.726	558.365	-0.042	-0.102
-643.711	84.678	0.106	0.115
-642.697	-66.700	-0.654	0.258
-641.682	216.982	-0.093	-0.147
-640.668	-200.000	-0.004	0.249
-639.653	-109.192	-0.409	0.086
-638.638	-15.360	-0.289	-0.184
-637.624	-30.294	-0.106	0.060
-636.609	124.972	-0.101	0.127
-635.595	-82.298	0.170	-0.055
-634.580	800.000	-0.016	0.069
-633.565	-200.000	-0.096	0.487
-632.551	322.103	-0.141	0.267
-631.536	-147.983	-0.120	-0.010
-630.522	-200.000	-0.005	0.135
-629.507	-154.419	-0.293	0.020
-628.492	26.855	-0.180	-0.150
-627.478	-143.189	0.169	-0.016
-626.463	785.571	0.080	0.217
-625.449	-137.281	0.194	-0.022
-624.434	-158.393	-0.477	-0.028
-623.419	71.021	0.131	0.135
-622.405	528.866	0.118	-0.277
-621.390	23.609	0.338	-0.276
-620.376	-159.887	-0.295	0.016
-619.361	800.000	0.023	-0.071
-618.346	-181.971	-0.106	-0.002
-617.332	-171.112	-0.322	0.011
-616.317	-200.000	-0.002	0.016
-615.303	214.847	0.094	-0.148
-614.288	800.000	0.036	0.128
-613.273	-117.614	0.257	0.046
-612.259	-15.037	-0.183	-0.117
-611.244	91.754	0.137	-0.153
-610.230	-200.000	-0.016	-0.191
-609.215	800.000	0.043	-0.161
-608.201	-119.299	0.076	0.013
-607.186	-68.383	0.183	0.071
-606.171	-127.398	-0.226	0.033
-605.157	23.570	-0.335	0.274
-604.142	229.395	0.075	-0.122
-603.128	112.691	0.107	-0.129
-602.113	110.917	0.174	-0.208
-601.098	-83.671	0.090	0.029
-600.084	39.742	-0.126	0.112
-599.069	-151.656	0.429	-0.031
-598.055	2.803	-0.266	0.192
-597.040	-164.311	0.088	-0.004
-596.025	-63.248	0.109	-0.044
-595.011	-121.597	-0.228	-0.038
-593.996	-163.456	0.105	0.005
-592.982	-111.505	0.175	-0.035
-591.967	128.086	-0.187	-0.237
-590.952	-84.429	-0.105	0.033
-589.938	-36.179	0.203	0.109
-588.923	64.648	-0.049	-0.049
-587.909	800.000	-0.122	-0.375
-586.894	189.189	-0.074	0.111
-585.879	-75.026	-0.160	-0.057
-584.865	-114.870	0.324	-0.061
-583.850	66.699	-0.216	0.218
-582.836	-146.574	0.157	-0.013
-581.821	800.000	0.041	-0.154
-580.806	-200.000	-0.016	-0.204
-579.792	800.000	0.067	-0.183
-578.777	-48.508	0.193	0.092
-577.763	157.689	-0.172	0.237
-576.748	-200.000	0.013	0.462
-575.733	-29.002	0.315	-0.180
-574.719	270.360	-0.094	-0.164
-573.704	56.580	0.347	0.335
-572.690	800.000	-0.089	-0.259
-571.675	237.711	-0.018	-0.029
-570.661	-152.612	-0.220	0.016
-569.646	-200.000	-0.016	-0.409
-568.631	97.558	0.153	-0.174
-567.617	263.947	0.153	-0.265
-566.602	49.198	-0.166	-0.154
-565.588	501.646	-0.138	0.316
-564.573	-156.845	0.054	-0.003
-563.558	800.000	0.014	0.048
-562.544	-54.593	-0.096	0.043
-561.529	-67.820	-0.135	-0.052
-560.515	685.993	-0.025	-0.064
-559.500	-175.184	0.197	-0.005
-558.485	5.997	0.169	0.124
-557.471	31.661	0.092	0.079
-556.456	43.627	-0.229	-0.208
-555.442	-78.469	0.188	0.064
-554.427	449.578	-0.070	0.153
-553.412	800.000	0.058	-0.159
-552.398	173.688	0.142	-0.204
-551.383	-69.147	-0.098	-0.037
-550.369	-96.597	0.335	0.088
-549.354	-200.000	-0.015	0.570
-548.339	-200.000	-0.257	0.001
-547.325	85.841	0.217	-0.236
-546.310	-200.000	-0.012	-0.233
-545.296	188.743	0.139	-0.206
-544.281	-104.848	-0.119	-0.027
-543.266	237.928	0.041	0.068
-542.252	-56.859	0.247	-0.108
-541.237	-67.040	-0.284	-0.111
-540.223	-142.692	0.060	-0.006
-539.208	-88.296	-0.232	0.069
-538.193	-58.759	-0.343	-0.147
-537.179	1.802	-0.128	-0.091
-536.164	-39.727	0.183	0.095
-535.150	-200.000	-0.040	-0.257
-534.135	-152.142	-0.345	-0.025
-533.121	194.112	0.055	0.082
-532.106	136.398	0.182	-0.235
-531.091	117.919	-0.063	0.077
-530.077	60.395	0.138	-0.135
-529.062	-200.000	-0.046	0.224
-528.048	-200.000	0.003	0.319
-527.033	800.000	-0.029	-0.094
-526.018	59.654	0.182	0.178
-525.004	-3.407	0.072	0.049
-523.989	113.903	-0.154	-0.186
-522.975	800.000	-0.018	-0.074
-521.960	-46.742	0.026	0.013
-520.945	800.000	0.097	0.314
-519.931	623.392	-0.040	-0.101
-518.916	-200.000	0.021	0.309
-517.902	800.000	-0.040	-0.135
-516.887	-200.000	0.002	0.218
-515.872	-108.699	-0.300	-0.064
-514.858	533.830	-0.072	-0.169
-513.843	-200.000	0.023	0.168
-512.829	-200.000	0.036	-0.175
-511.814	59.266	0.148	-0.145
-510.799	171.168	0.050	0.071
-509.785	-200.000	0.028	0.370
-508.770	800.000	0.084	0.314
-507.756	234.772	-0.097	0.158
-506.741	-19.460	0.229	-0.140
-505.726	-61.317	-0.133	0.055
-504.712	61.349	0.102	0.100
-503.697	-92.041	0.116	-0.032
-502.683	-61.750	0.205	-0.085
-501.668	-200.000	-0.023	0.125
-500.653	-165.788	0.266	0.011
-499.639	-93.681	0.064	-0.018
-498.624	800.000	-0.089	-0.306
-497.610	346.175	-0.158	0.307
-496.595	-22.690	0.138	0.082
-495.581	26.772	-0.107	0.089
-494.566	-200.000	0.008	0.077
-493.551	150.161	0.089	-0.120
-492.537	-43.176	0.186	0.093
-491.522	-27.808	-0.215	-0.123
-490.508	764.361	-0.108	-0.290
-489.493	-84.241	0.177	0.055
-488.478	-113.645	0.263	-0.051
-487.464	-35.858	-0.207	-0.111
-486.449	-200.000	0.003	0.028
-485.435	-21.640	-0.102	-0.062
-484.420	-72.498	-0.012	0.004
-483.405	30.248	0.139	-0.117
-482.391	800.000	0.031	-0.114
-481.376	127.799	0.088	-0.110
-480.362	-62.659	-0.164	0.067
-479.347	-74.893	0.378	-0.134
-478.332	-66.629	-0.269	-0.105
-477.318	249.791	0.055	-0.093
-476.303	25.089	-0.169	-0.139
-475.289	-1.205	-0.080	0.056
-474.274	124.463	-0.101	0.125
-473.259	-122.472	0.220	-0.035
-472.245	-91.990	0.063	-0.018
-471.230	214.350	-0.045	0.070
-470.216	-35.829	0.133	-0.071
-469.201	-63.514	0.208	-0.084
-468.186	323.202	-0.055	-0.103
-467.172	-89.162	-0.283	0.083
-466.157	235.324	0.071	-0.116
-465.143	155.234	0.247	-0.336
-464.128	-60.967	0.205	0.086
-463.113	-84.828	-0.298	0.092
-462.099	-80.887	-0.251	-0.082
-461.084	226.369	-0.113	0.182
-460.070	162.224	0.222	0.308
-459.055	-165.615	-0.149	-0.006
-458.040	800.000	-0.090	0.294
-457.026	196.125	-0.214	-0.322
-456.011	-52.446	0.185	-0.085
-454.997	-32.077	-0.065	0.036
-453.982	68.932	0.131	0.133
-452.968	-71.029	-0.371	0.138
-451.953	-59.675	0.296	0.125
-450.938	-200.000	-0.017	-0.234
-449.924	-200.000	0.027	-0.174
-448.909	213.942	-0.143	-0.223
-447.895	-200.000	-0.002	-0.017
-446.880	-9.794	0.220	0.145
-445.865	800.000	0.064	-0.208
-444.851	-70.644	0.223	-0.083
-443.836	24.621	-0.080	0.065
-442.822	-97.866	0.288	-0.073
-441.807	-7.115	0.075	-0.050
-440.792	-6.086	0.214	0.145
-439.778	-200.000	-0.012	0.128
-438.763	800.000	-0.011	0.035
-437.749	-153.737	-0.159	0.011
-436.734	-145.792	0.140	0.012
-435.719	61.177	-0.072	0.070
-434.705	-62.600	0.008	-0.003
-433.690	538.500	-0.095	-0.222
-432.676	800.000	0.029	0.117
-431.661	10.148	-0.172	-0.129
-430.646	41.434	0.112	-0.100
-429.632	-33.932	0.167	0.091
-428.617	571.085	-0.041	0.098
-427.603	-71.651	-0.203	0.075
-426.588	472.168	0.131	-0.291
-425.573	159.256	0.241	-0.331
-424.559	-173.413	-0.452	-0.013
-423.544	262.627	0.101	0.174
-422.530	-87.723	-0.306	0.091
-421.515	800.000	-0.085	0.242
-420.500	470.085	0.169	0.375
-419.486	-71.292	-0.086	0.032
-418.471	-200.000	-0.229	0.001
-417.457	68.749	0.167	0.169
-416.442	-200.000	-0.018	0.165
-415.428	72.942	0.077	-0.079
-414.413	-200.000	-0.075	0.401
-413.398	47.477	-0.223	-0.205
-412.384	800.000	-0.075	-0.292
-411.369	504.940	0.073	0.166
-410.355	-12.700	0.109	0.070
-409.340	418.630	-0.111	0.235
-408.325	-115.274	0.382	0.071
-407.311	-54.439	-0.096	-0.043
-406.296	800.000	-0.084	-0.271
-405.282	-200.000	0.010	0.108
-404.267	800.000	-0.055	0.189
-403.252	-83.710	0.132	0.042
-402.238	-200.000	-0.051	-0.241
-401.223	-200.000	-0.028	-0.181
-400.209	-111.942	-0.137	-0.027
-399.194	800.000	-0.053	-0.217
-398.179	-200.000	-0.048	0.264
-397.165	800.000	0.063	0.175
-396.150	-200.000	-0.023	0.167
-395.136	330.706	0.146	0.276
-394.121	-111.824	-0.068	0.014
-393.106	-200.000	0.002	0.197
-392.092	-36.895	-0.234	-0.123
-391.077	265.070	0.118	0.202
-390.063	-37.797	0.273	-0.143
-389.048	139.285	-0.135	0.174
-388.033	800.000	0.088	-0.285
-387.019	-31.758	0.154	-0.085
-386.004	800.000	0.027	-0.090
-384.990	-97.154	0.244	0.063
-383.975	673.363	-0.114	0.291
-382.960	-200.000	-0.007	0.104
-381.946	9.982	-0.122	0.091
-380.931	-130.828	-0.185	0.024
-379.917	143.742	-0.172	0.226
-378.902	-77.231	0.083	0.029
-377.888	-112.956	-0.277	-0.054
-376.873	164.863	-0.119	-0.165
-375.858	106.122	-0.286	-0.333
-374.844	399.358	0.173	-0.356
-373.829	335.248	-0.071	-0.136
-372.815	-127.372	0.285	0.041
-371.800	-116.923	-0.256	-0.046
-370.785	-163.500	-0.370	-0.017
-369.771	15.878	0.234	0.181
-368.756	456.232	0.094	0.206
-367.742	369.788	0.145	0.289
-366.727	-103.904	0.064	0.015
-365.712	-188.195	-0.355	-0.004
-364.698	-148.298	-0.190	0.015
-363.683	163.501	-0.244	-0.338
-362.669	724.238	0.082	0.216
-361.654	-89.352	0.130	0.038
-360.639	-200.000	0.004	-0.307
-359.625	117.675	-0.051	0.062
-358.610	800.000	0.082	-0.240
-357.596	-200.000	0.069	-0.312
-356.581	393.211	-0.212	0.434
-355.566	-74.009	-0.045	-0.016
-354.552	-200.000	0.006	-0.105
-353.537	-200.000	0.011	-0.213
-352.523	800.000	-0.117	0.348
-351.508	-200.000	0.046	-0.210
-350.493	-200.000	-0.046	-0.262
-349.479	-200.000	0.068	0.394
-348.464	-2.993	0.144	0.099
-347.450	-82.631	0.317	0.101
-346.435	800.000	-0.087	-0.268
-345.420	-200.000	-0.047	-0.291
-344.406	800.000	-0.059	0.167
-343.391	-69.420	0.283	0.107
-342.377	374.654	0.152	-0.305
-341.362	-89.288	0.323	0.094
-340.348	800.000	-0.084	0.230
-339.333	11.436	0.180	-0.136
-338.318	155.732	0.155	-0.210
-337.304	258.385	0.163	-0.277
-336.289	114.002	0.139	0.167
-335.275	-6.524	-0.188	0.126
-334.260	-75.016	0.207	0.073
-333.245	119.627	0.144	-0.176
-332.231	248.144	0.006	0.010
-331.216	-200.000	-0.006	-0.299
-330.202	800.000	-0.056	-0.241
-329.187	631.203	0.029	0.071
-328.172	331.201	-0.080	-0.151
-327.158	66.062	-0.131	-0.131
-326.143	3.822	-0.202	-0.145
-325.129	100.669	-0.210	-0.240
-324.114	-200.000	0.008	0.166
-323.099	386.707	-0.099	0.202
-322.085	-200.000	0.024	-0.363
-321.070	-152.314	0.188	-0.013
-320.056	-47.027	0.202	0.097
-319.041	-59.754	0.276	0.116
-318.026	713.095	-0.124	0.323
-317.012	-2.226	-0.275	-0.189
-315.997	800.000	-0.047	-0.139
-314.983	262.417	0.059	-0.100
-313.968	-200.000	-0.047	0.362
-312.953	-33.808	-0.317	-0.172
-311.939	23.200	-0.026	-0.021
-310.924	-49.217	0.394	0.185
-309.910	-28.550	0.228	-0.129
-308.895	-122.720	0.034	0.005
-307.880	113.119	-0.191	0.227
-306.866	-19.712	0.188	0.114
-305.851	560.825	-0.038	0.091
-304.837	-81.487	-0.498	0.161
-303.822	800.000	0.072	0.195
-302.807	676.224	0.061	-0.155
-301.793	-48.350	0.171	-0.081
-300.778	800.000	0.041	0.122
-299.764	-94.279	-0.306	-0.082
-298.749	557.537	-0.148	0.350
-297.735	-109.027	0.129	0.027
-296.720	-114.497	-0.164	0.031
-295.705	-154.136	0.030	0.002
-294.691	406.497	0.116	0.240
-293.676	30.118	0.244	-0.204
-292.662	96.716	0.114	-0.129
-291.647	126.398	0.095	0.118
-290.632	530.913	0.083	-0.193
-289.618	-16.124	-0.288	-0.180
-288.603	800.000	0.017	0.055
-287.589	234.976	0.081	0.132
-286.574	-174.859	-0.145	-0.004
-285.559	-200.000	0.043	0.257
-284.545	-96.235	0.214	0.056
-283.530	20.616	0.122	0.097
-282.516	-166.008	0.428	0.018
-281.501	16.930	-0.195	-0.152
-280.486	-147.689	0.193	0.016
-279.472	35.680	-0.054	0.047
-278.457	-200.000	0.003	-0.153
-277.443	-55.602	0.109	0.048
-276.428	-103.960	0.226	0.052
-275.413	-77.048	-0.338	-0.116
-274.399	-43.155	-0.312	0.155
-273.384	453.618	0.046	0.100
-272.370	7.594	0.190	-0.139
-271.355	-200.000	-0.053	-0.276
-270.340	-93.394	0.190	-0.052
-269.326	-18.648	-0.204	-0.124
-268.311	-200.000	0.025	0.124
-267.297	-9.114	0.215	0.141
-266.282	-63.111	0.290	-0.117
-265.267	176.273	0.041	-0.059
-264.253	339.816	0.073	0.140
-263.238	800.000	-0.084	0.240
-262.224	-10.156	0.018	-0.011
-261.209	-106.664	-0.482	0.105
-260.195	148.179	-0.172	0.228
-259.180	-200.000	0.017	0.283
-258.165	-1.303	0.256	-0.177
-257.151	221.297	0.177	-0.278
-256.136	157.264	-0.250	-0.339
-255.122	316.497	-0.071	-0.132
-254.107	293.245	-0.118	0.211
-253.092	-200.000	-0.007	-0.188
-252.078	-200.000	-0.021	0.124
-251.063	69.561	0.143	0.144
-250.049	-29.923	-0.101	0.056
-249.034	-200.000	0.057	0.275
-248.019	-132.810	0.145	0.018
-247.005	44.538	0.103	0.093
-245.990	-113.850	-0.205	0.039
-244.976	-68.779	0.286	-0.108
-243.961	-200.000	0.004	0.546
-242.946	-200.000	0.063	0.336
-241.932	216.468	0.108	0.168
-240.917	118.115	-0.063	-0.076
-239.903	206.006	0.118	-0.179
-238.888	-200.000	0.030	0.173
-237.873	104.329	-0.104	-0.120
-236.859	113.566	0.266	-0.317
-235.844	-79.660	-0.225	-0.074
-234.830	-200.000	0.013	-0.373
-233.815	800.000	-0.035	0.116
-232.800	-44.173	0.336	-0.165
-231.786	-70.122	0.292	-0.109
-230.771	-109.809	-0.395	0.081
-229.757	-200.000	-0.025	0.175
-228.742	-200.000	-0.014	-0.076
-227.727	289.176	0.043	-0.077
-226.713	-27.086	-0.134	0.076
-225.698	-80.156	-0.151	0.049
-224.684	524.432	0.142	0.327
-223.669	-87.668	-0.275	0.081
-222.655	3.729	0.288	-0.206
-221.640	202.743	-0.046	-0.070
-220.625	-81.387	0.118	0.038
-219.611	88.806	-0.203	0.221
-218.596	-139.482	0.071	-0.007
-217.582	-33.969	-0.223	-0.120
-216.567	59.525	0.144	-0.139
-215.552	-21.809	0.252	0.150
-214.538	260.008	0.191	0.323
-213.523	-65.139	0.189	0.074
-212.509	98.433	0.253	-0.285
-211.494	40.714	-0.152	-0.134
-210.479	-53.339	0.234	0.105
-209.465	132.832	-0.230	-0.290
-208.450	571.949	-0.140	-0.335
-207.436	-124.020	-0.130	0.020
-206.421	26.100	0.067	-0.055
-205.406	-105.269	-0.138	0.031
-204.392	800.000	-0.084	0.316
-203.377	-200.000	-0.050	0.294
-202.363	-23.774	-0.241	0.141
-201.348	408.458	-0.021	0.043
-200.333	-200.000	-0.055	-0.288
-199.319	-68.167	-0.336	-0.128
-198.304	608.042	0.112	-0.272
-197.290	223.409	0.051	-0.081
-196.275	-131.981	-0.272	-0.035
-195.260	-133.211	0.299	0.037
-194.246	-37.479	-0.099	0.052
-193.231	295.597	0.094	-0.169
-192.217	-200.000	-0.029	-0.528
-191.202	800.000	-0.020	0.060
-190.187	-61.719	-0.032	0.013
-189.173	-200.000	0.030	0.225
-188.158	-200.000	0.010	0.101
-187.144	800.000	-0.059	-0.246
-186.129	-71.959	0.125	-0.046
-185.114	-200.000	-0.008	0.076
-184.100	22.693	0.109	0.087
-183.085	-31.298	-0.249	-0.137
-182.071	-200.000	-0.022	-0.138
-181.056	365.437	0.097	0.190
-180.042	-200.000	0.002	-0.067
-179.027	-90.485	0.238	0.067
-178.012	-200.000	0.072	-0.567
-176.998	-4.113	-0.252	0.171
-175.983	471.294	-0.143	0.314
-174.969	337.589	-0.187	0.356
-173.954	-140.226	-0.059	0.006
-172.939	-200.000	0.001	-0.054
-171.925	-200.000	0.026	0.282
-170.910	396.471	0.095	0.193
-169.896	161.695	-0.112	0.153
-168.881	-200.000	0.018	-0.230
-167.866	-141.348	0.264	0.026
-166.852	-200.000	0.002	0.192
-165.837	-84.633	-0.482	-0.148
-164.823	-186.615	0.171	0.002
-163.808	-16.614	-0.349	0.216
-162.793	-200.000	0.014	0.152
-161.779	-157.055	-0.041	-0.002
-160.764	800.000	-0.037	-0.109
-159.750	400.631	-0.066	0.134
-158.735	-200.000	0.009	0.170
-157.720	800.000	0.080	-0.265
-156.706	-65.445	0.149	0.058
-155.691	8.761	0.353	-0.260
-154.677	-200.000	0.005	-0.221
-153.662	220.498	0.199	-0.311
-152.647	465.209	-0.080	0.176
-151.633	344.771	0.043	-0.081
-150.618	-30.166	-0.095	0.053
-149.604	-17.706	0.084	0.051
-148.589	693.628	-0.035	-0.089
-147.574	60.011	-0.197	-0.190
-146.560	680.456	0.128	0.324
-145.545	-1.853	0.200	0.137
-144.531	-112.607	0.300	-0.058
-143.516	-14.052	0.158	-0.100
-142.502	-71.820	-0.333	0.121
-141.487	-39.478	0.239	0.122
-140.472	301.825	0.062	0.111
-139.458	142.473	0.210	-0.272
-138.443	105.697	0.141	0.162
-137.429	-75.407	0.197	-0.068
-136.414	158.462	-0.133	0.180
-135.399	-200.000	0.023	-0.278
-134.385	95.199	0.082	0.091
-133.370	-88.058	0.305	-0.089
-132.356	800.000	-0.098	0.297
-131.341	-17.139	-0.051	-0.031
-130.326	49.900	0.263	0.241
-129.312	-16.241	-0.078	0.048
-128.297	250.780	-0.104	0.172
-127.283	-200.000	-0.015	-0.078
-126.268	177.912	0.126	-0.179
-125.253	800.000	-0.062	-0.213
-124.239	-200.000	-0.040	-0.199
-123.224	-200.000	-0.016	-0.242
-122.210	-200.000	-0.038	-0.199
-121.195	-109.424	0.131	-0.027
