DTS Sentinel unit serial number:	SN413079Multiplexer serial number:	ORYXHardware model number:	OX4-SRSoftware version number:	ORYX F/W v4.00 Oryx Data Collector v3.7.2.0data status	okinstallation	princeton_trtdifferential loss correction	single-endedforward channel	channel 2reverse channel	N/Adate	2019/09/14time	20:59:35forward acquisition time	60.00reverse acquisition time	0.00gamma	496.2192k internal	0.2323k external	0.2323temperature offset calibration	1.0082default loss term (dB/km)	0.3790temperature slope calibration	1.0000multiplexer offset coefficient	1.0000multiplexer slope coefficient	1.0000fibre end	0.00T internal ref (°C)	33.19T ext. ref 1 (°C)	4.79T ext. ref 2 (°C)	27.89length (m)	temperature (°C)	Stokes	anti-Stokes-747.200	146.824	-0.146	0.199
-746.185	190.918	0.245	0.372
-745.171	-200.000	0.028	0.348
-744.156	97.059	0.330	0.383
-743.142	-83.725	0.205	0.066
-742.127	-21.985	0.114	0.070
-741.112	-6.400	-0.243	0.168
-740.098	-200.000	0.027	0.214
-739.083	43.927	-0.184	0.170
-738.069	-200.000	-0.012	0.227
-737.054	111.818	-0.113	-0.137
-736.039	-200.000	0.023	-0.280
-735.025	439.257	-0.085	0.188
-734.010	-100.144	-0.066	-0.016
-732.996	-200.000	0.033	-0.365
-731.981	-41.372	-0.273	0.142
-730.966	232.322	0.074	0.123
-729.952	800.000	0.085	-0.239
-728.937	-200.000	-0.006	-0.187
-727.923	626.544	-0.053	0.134
-726.908	35.245	0.085	-0.075
-725.894	-114.097	-0.298	0.058
-724.879	-200.000	0.013	-0.272
-723.864	-139.846	-0.083	0.009
-722.850	208.943	0.116	-0.184
-721.835	-200.000	-0.041	-0.311
-720.821	168.051	-0.135	-0.194
-719.806	104.333	0.176	-0.209
-718.791	58.021	-0.130	-0.128
-717.777	376.540	-0.207	-0.427
-716.762	147.462	-0.175	-0.237
-715.748	87.321	0.198	0.221
-714.733	31.474	-0.284	0.246
-713.718	-139.331	0.169	0.018
-712.704	110.434	-0.191	-0.232
-711.689	32.180	0.394	-0.343
-710.675	-189.542	-0.269	0.003
-709.660	-200.000	-0.046	-0.221
-708.645	-200.000	0.055	-0.337
-707.631	165.399	0.193	0.275
-706.616	-200.000	0.007	-0.177
-705.602	28.881	-0.034	-0.029
-704.587	20.386	-0.200	-0.163
-703.572	800.000	0.062	-0.265
-702.558	-200.000	0.007	-0.226
-701.543	2.202	0.317	0.231
-700.529	-137.503	-0.330	0.038
-699.514	-21.113	0.264	0.163
-698.499	-50.094	-0.095	-0.045
-697.485	-46.856	-0.177	0.087
-696.470	39.757	-0.211	0.191
-695.456	-84.931	-0.110	-0.035
-694.441	-200.000	-0.028	0.189
-693.426	-77.125	-0.333	0.117
-692.412	-200.000	0.007	0.195
-691.397	19.585	0.113	0.092
-690.383	-58.118	0.070	0.031
-689.368	148.550	-0.137	0.186
-688.354	181.505	0.118	-0.175
-687.339	24.013	0.117	0.098
-686.324	-28.998	0.232	-0.134
-685.310	-49.510	0.181	0.087
-684.295	328.002	-0.082	0.158
-683.281	-200.000	-0.043	-0.309
-682.266	800.000	0.001	0.004
-681.251	106.767	0.130	-0.155
-680.237	800.000	0.058	0.197
-679.222	-200.000	-0.025	0.119
-678.208	-112.365	0.213	0.043
-677.193	-66.474	-0.198	-0.079
-676.178	-87.187	-0.123	0.038
-675.164	-120.054	-0.381	-0.066
-674.149	-82.768	0.084	0.027
-673.135	153.965	-0.251	0.347
-672.120	800.000	0.036	0.117
-671.105	-45.689	0.074	-0.037
-670.091	-200.000	-0.004	0.449
-669.076	-200.000	-0.018	0.223
-668.062	431.799	-0.113	0.248
-667.047	150.445	-0.062	-0.084
-666.032	-3.930	-0.319	-0.223
-665.018	800.000	0.046	-0.153
-664.003	-30.158	-0.362	-0.207
-662.989	-7.250	-0.117	0.080
-661.974	-59.880	-0.283	0.122
-660.959	607.814	-0.057	-0.142
-659.945	334.898	0.135	-0.262
-658.930	45.364	0.115	-0.106
-657.916	333.216	-0.067	0.130
-656.901	116.909	-0.130	-0.161
-655.886	38.652	-0.159	0.142
-654.872	201.813	0.199	0.309
-653.857	-200.000	0.000	-0.116
-652.843	-84.871	0.066	0.021
-651.828	184.368	0.094	-0.139
-650.814	381.010	-0.119	-0.246
-649.799	170.459	-0.055	-0.080
-648.784	-200.000	-0.015	-0.323
-647.770	112.776	0.080	0.098
-646.755	-77.678	-0.504	-0.176
-645.741	800.000	0.015	-0.056
-644.726	-67.847	0.287	-0.113
-643.711	707.176	-0.072	0.192
-642.697	68.620	0.305	0.315
-641.682	-200.000	-0.040	-0.260
-640.668	800.000	-0.081	-0.228
-639.653	169.750	0.179	0.257
-638.638	-104.152	0.165	0.039
-637.624	33.938	0.132	0.115
-636.609	15.438	-0.242	-0.191
-635.595	48.665	-0.277	0.262
-634.580	800.000	-0.033	0.100
-633.565	4.415	-0.089	-0.066
-632.551	-60.209	-0.122	-0.052
-631.536	315.424	-0.084	-0.159
-630.522	367.977	-0.118	-0.239
-629.507	184.711	0.184	-0.274
-628.492	-200.000	0.005	-0.076
-627.478	6.956	0.263	-0.197
-626.463	-27.806	0.090	0.052
-625.449	19.574	-0.240	-0.194
-624.434	234.623	-0.174	0.289
-623.419	-200.000	0.000	-0.402
-622.405	527.462	-0.059	0.140
-621.390	494.087	0.102	-0.235
-620.376	-47.099	-0.053	0.026
-619.361	-89.404	0.375	-0.111
-618.346	-40.697	-0.064	0.033
-617.332	-147.120	0.202	-0.017
-616.317	-200.000	0.020	0.191
-615.303	-133.438	-0.210	0.027
-614.288	439.788	0.019	0.042
-613.273	-200.000	0.008	0.262
-612.259	-21.730	0.099	0.061
-611.244	555.924	-0.041	-0.098
-610.230	-62.354	-0.334	-0.140
-609.215	250.687	0.077	0.131
-608.201	-104.846	0.242	-0.056
-607.186	-2.945	0.133	-0.093
-606.171	-200.000	0.003	-0.467
-605.157	-31.201	-0.118	0.067
-604.142	-19.403	-0.328	-0.204
-603.128	-200.000	0.004	-0.438
-602.113	800.000	-0.026	0.093
-601.098	-94.538	-0.199	-0.054
-600.084	68.351	0.223	0.229
-599.069	800.000	0.044	0.182
-598.055	119.635	-0.118	0.146
-597.040	-55.166	0.252	0.114
-596.025	-100.565	0.349	-0.086
-595.011	273.119	-0.124	-0.219
-593.996	-45.464	0.114	0.057
-592.982	-137.795	-0.098	0.011
-591.967	-165.302	0.085	-0.004
-590.952	181.237	-0.157	-0.232
-589.938	257.235	0.149	-0.257
-588.923	-142.296	-0.256	0.025
-587.909	188.751	-0.059	-0.089
-586.894	-13.796	-0.166	0.108
-585.879	-51.522	-0.177	0.083
-584.865	157.806	0.151	0.210
-583.850	-76.226	0.258	0.091
-582.836	-45.146	0.253	-0.126
-581.821	-80.778	-0.218	-0.073
-580.806	795.122	-0.099	0.273
-579.792	800.000	-0.073	0.217
-578.777	-97.173	0.128	-0.033
-577.763	38.224	0.313	-0.279
-576.748	-200.000	-0.010	-0.172
-575.733	158.359	0.276	-0.384
-574.719	108.466	-0.088	0.106
-573.704	-152.810	-0.239	0.017
-572.690	-200.000	0.012	-0.302
-571.675	-13.404	-0.226	0.147
-570.661	80.683	-0.150	0.162
-569.646	800.000	-0.037	-0.160
-568.631	16.019	-0.421	0.333
-567.617	-149.438	0.367	-0.029
-566.602	430.590	0.076	-0.165
-565.588	604.764	-0.082	-0.205
-564.573	-200.000	0.033	-0.212
-563.558	-85.283	0.198	0.062
-562.544	-194.894	0.272	0.002
-561.529	-200.000	-0.057	-0.270
-560.515	-109.317	-0.158	0.034
-559.500	62.099	0.165	-0.165
-558.485	-166.801	-0.019	0.001
-557.471	116.815	0.036	0.044
-556.456	-85.538	0.049	0.015
-555.442	51.879	0.148	0.141
-554.427	-18.600	0.195	-0.122
-553.412	-200.000	0.026	0.258
-552.398	-200.000	0.018	-0.133
-551.383	374.536	-0.162	-0.331
-550.369	-107.182	-0.258	-0.057
-549.354	-42.839	-0.265	-0.135
-548.339	-104.017	-0.248	-0.058
-547.325	-200.000	-0.032	-0.306
-546.310	159.994	-0.287	0.401
-545.296	800.000	-0.032	-0.096
-544.281	-200.000	0.026	-0.256
-543.266	-77.697	0.171	0.059
-542.252	67.195	0.238	0.243
-541.237	-56.984	0.120	0.053
-540.223	-200.000	0.001	0.235
-539.208	-60.013	0.171	-0.073
-538.193	-73.961	-0.443	0.161
-537.179	-174.397	-0.263	-0.008
-536.164	137.237	0.107	-0.141
-535.150	167.489	-0.123	0.175
-534.135	-170.392	-0.178	0.006
-533.121	-60.040	0.500	0.214
-532.106	137.685	-0.099	0.130
-531.091	-200.000	-0.027	0.235
-530.077	97.695	-0.122	-0.141
-529.062	-200.000	0.018	0.165
-528.048	101.393	-0.196	0.229
-527.033	158.071	0.160	-0.222
-526.018	-42.662	0.124	-0.063
-525.004	22.677	-0.023	-0.019
-523.989	88.754	-0.141	0.157
-522.975	800.000	0.044	-0.163
-521.960	800.000	0.053	-0.180
-520.945	65.204	0.129	0.131
-519.931	94.228	0.114	0.129
-518.916	133.327	0.015	-0.019
-517.902	-200.000	-0.031	0.294
-516.887	-200.000	0.033	-0.231
-515.872	-200.000	-0.026	0.324
-514.858	-12.789	-0.107	0.070
-513.843	88.764	0.288	0.321
-512.829	-98.350	0.205	0.052
-511.814	-200.000	0.041	-0.255
-510.799	-158.860	0.253	-0.014
-509.785	480.722	0.047	0.106
-508.770	141.815	0.061	-0.081
-507.756	-53.538	-0.112	0.051
-506.741	52.490	0.153	-0.146
-505.726	-95.771	-0.179	0.048
-504.712	-200.000	0.177	0.000
-503.697	302.737	-0.103	-0.191
-502.683	-131.833	0.339	-0.044
-501.668	-128.573	0.127	0.018
-500.653	316.959	0.084	0.158
-499.639	-88.481	0.226	0.067
-498.624	164.010	0.116	-0.164
-497.610	-44.361	0.249	-0.125
-496.595	-40.966	-0.104	-0.054
-495.581	-25.126	0.044	0.026
-494.566	107.535	-0.241	0.287
-493.551	413.907	0.159	0.338
-492.537	-139.679	-0.371	-0.039
-491.522	34.053	-0.226	0.197
-490.508	800.000	0.105	-0.296
-489.493	553.902	0.151	-0.364
-488.478	800.000	0.047	0.198
-487.464	-49.678	0.179	-0.085
-486.449	64.992	-0.101	-0.102
-485.435	-35.247	-0.079	0.043
-484.420	799.904	0.112	0.309
-483.405	19.524	-0.084	-0.067
-482.391	-200.000	-0.009	-0.179
-481.376	5.933	-0.427	0.316
-480.362	68.265	0.346	0.354
-479.347	800.000	0.075	-0.301
-478.332	800.000	0.091	0.273
-477.318	800.000	-0.058	-0.229
-476.303	323.939	-0.178	0.340
-475.289	-115.291	0.308	0.058
-474.274	-200.000	-0.009	-0.414
-473.259	800.000	0.130	-0.367
-472.245	-158.104	0.178	-0.010
-471.230	-68.341	-0.481	0.187
-470.216	182.217	0.215	0.316
-469.201	-60.599	-0.112	-0.047
-468.186	57.236	-0.132	-0.128
-467.172	-103.876	-0.448	-0.105
-466.157	-109.552	0.136	0.029
-465.143	-200.000	0.059	0.313
-464.128	-68.062	-0.209	0.081
-463.113	-3.745	-0.222	-0.154
-462.099	-115.876	-0.266	0.050
-461.084	-89.116	0.207	-0.061
-460.070	-31.983	-0.262	-0.147
-459.055	-38.778	-0.261	0.138
-458.040	-200.000	0.026	0.452
-457.026	-186.052	-0.150	-0.002
-456.011	-200.000	0.035	-0.204
-454.997	-200.000	0.006	0.164
-453.982	216.929	-0.161	-0.255
-452.968	259.307	-0.135	-0.232
-451.953	197.785	-0.064	-0.097
-450.938	800.000	-0.087	0.250
-449.924	-200.000	-0.068	0.418
-448.909	-54.604	0.046	0.021
-447.895	214.691	0.058	-0.092
-446.880	-150.133	0.088	-0.007
-445.865	-147.355	-0.459	0.039
-444.851	215.556	-0.066	0.105
-443.836	-200.000	-0.032	0.232
-442.822	63.430	-0.241	0.242
-441.807	264.717	-0.053	0.092
-440.792	-200.000	0.034	-0.365
-439.778	-200.000	0.068	-0.369
-438.763	501.687	-0.081	0.186
-437.749	800.000	0.071	0.203
-436.734	-200.000	-0.058	-0.328
-435.719	-200.000	0.051	-0.235
-434.705	-110.881	0.107	-0.022
-433.690	-200.000	0.073	0.321
-432.676	-200.000	0.014	-0.075
-431.661	74.108	0.088	-0.092
-430.646	-200.000	-0.054	0.449
-429.632	-92.540	0.108	-0.030
-428.617	-159.303	0.128	0.007
-427.603	630.909	-0.056	-0.142
-426.588	-13.763	0.241	-0.155
-425.573	-111.823	-0.204	0.041
-424.559	240.688	-0.168	-0.279
-423.544	800.000	0.069	0.227
-422.530	2.774	-0.262	-0.189
-421.515	74.007	-0.082	-0.086
-420.500	250.071	0.020	-0.034
-419.486	-51.590	0.145	0.067
-418.471	158.881	0.010	-0.015
-417.457	64.672	0.038	0.038
-416.442	-139.565	-0.166	-0.018
-415.428	3.337	0.250	0.182
-414.413	-147.060	-0.110	0.009
-413.398	-96.945	-0.417	0.109
-412.384	800.000	0.008	0.021
-411.369	-108.462	0.326	0.070
-410.355	-74.934	-0.141	-0.050
-409.340	-36.948	-0.201	0.107
-408.325	800.000	-0.123	0.347
-407.311	-200.000	0.004	0.087
-406.296	-49.490	0.083	0.040
-405.282	-136.893	0.096	-0.011
-404.267	-200.000	0.013	0.119
-403.252	-200.000	0.004	0.395
-402.238	-200.000	0.012	-0.194
-401.223	525.339	-0.149	-0.349
-400.209	49.802	-0.074	-0.070
-399.194	-42.653	-0.126	0.064
-398.179	116.311	0.013	0.016
-397.165	-123.798	0.242	0.038
-396.150	35.064	0.308	-0.269
-395.136	295.590	-0.161	0.294
-394.121	-200.000	-0.015	-0.152
-393.106	112.727	-0.073	-0.088
-392.092	-200.000	-0.026	0.137
-391.077	-18.523	0.162	0.101
-390.063	800.000	0.024	0.084
-389.048	-54.435	0.012	-0.006
-388.033	-177.992	-0.161	-0.004
-387.019	800.000	-0.059	0.246
-386.004	800.000	0.135	-0.372
-384.990	-200.000	-0.003	-0.166
-383.975	-76.175	0.269	0.095
-382.960	-145.549	0.371	-0.033
-381.946	8.739	-0.150	-0.113
-380.931	-79.614	-0.290	-0.097
-379.917	-26.009	-0.254	-0.149
-378.902	-200.000	-0.018	-0.390
-377.888	-69.673	0.215	-0.082
-376.873	-118.300	-0.101	0.018
-375.858	-107.599	0.429	0.093
-374.844	-25.726	-0.418	0.245
-373.829	-172.160	0.172	0.006
-372.815	-200.000	-0.036	-0.203
-371.800	19.010	0.199	-0.158
-370.785	94.281	0.019	0.021
-369.771	123.708	0.085	-0.107
-368.756	-177.836	-0.162	-0.004
-367.742	-200.000	0.004	-0.202
-366.727	-104.620	-0.328	-0.075
-365.712	800.000	0.052	-0.180
-364.698	258.441	-0.094	-0.162
-363.683	-16.180	0.111	0.070
-362.669	104.088	-0.241	-0.282
-361.654	800.000	0.027	-0.096
-360.639	464.403	0.090	-0.201
-359.625	-140.373	-0.283	-0.029
-358.610	486.496	0.056	-0.127
-357.596	800.000	0.053	0.210
-356.581	-129.830	-0.148	-0.020
-355.566	99.301	0.060	-0.068
-354.552	-47.417	0.214	-0.103
-353.537	-200.000	-0.052	0.332
-352.523	800.000	0.049	0.140
-351.508	231.889	0.083	-0.135
-350.493	600.065	0.064	0.158
-349.479	43.038	-0.171	-0.156
-348.464	800.000	-0.068	-0.247
-347.450	-75.381	0.258	-0.091
-346.435	-60.398	-0.065	-0.027
-345.420	-178.282	-0.323	-0.008
-344.406	510.880	0.030	-0.069
-343.391	262.263	-0.112	-0.194
-342.377	150.526	0.334	0.451
-341.362	371.980	0.073	0.147
-340.348	-76.988	-0.507	0.176
-339.333	585.959	-0.086	0.210
-338.318	-20.356	0.051	0.031
-337.304	-200.000	-0.026	0.339
-336.289	-200.000	0.029	-0.170
-335.275	-142.220	-0.187	-0.018
-334.260	9.221	-0.409	0.307
-333.245	-60.503	0.213	0.090
-332.231	373.721	-0.079	0.160
-331.216	269.037	-0.117	0.204
-330.202	800.000	-0.037	0.142
-329.187	161.550	-0.081	0.112
-328.172	488.767	-0.098	0.222
-327.158	4.029	0.180	-0.131
-326.143	779.311	-0.056	-0.153
-325.129	-46.476	0.323	0.158
-324.114	84.629	-0.202	0.220
-323.099	-21.591	-0.087	0.052
-322.085	-104.929	-0.098	-0.022
-321.070	-41.079	0.264	-0.135
-320.056	-40.860	0.058	-0.030
-319.041	-144.918	0.075	-0.007
-318.026	-119.934	0.241	-0.041
-317.012	554.814	-0.082	0.197
-315.997	-39.119	-0.164	0.086
-314.983	-200.000	-0.006	0.040
-313.968	-200.000	0.012	-0.200
-312.953	-130.017	0.216	-0.029
-311.939	800.000	0.084	-0.357
-310.924	12.095	0.092	-0.070
-309.910	210.765	0.164	0.257
-308.895	-149.130	-0.202	0.016
-307.880	187.767	-0.067	0.100
-306.866	-54.174	0.402	0.182
-305.851	751.887	0.074	-0.198
-304.837	255.403	0.022	0.038
-303.822	-200.000	-0.020	-0.297
-302.807	-42.323	0.241	0.122
-301.793	521.123	0.041	-0.096
-300.778	-30.111	0.036	-0.020
-299.764	-200.000	-0.006	0.124
-298.749	-98.858	-0.129	-0.033
-297.735	208.173	0.207	-0.322
-296.720	134.759	0.292	-0.376
-295.705	800.000	-0.067	0.203
-294.691	-23.635	-0.258	0.154
-293.676	-200.000	0.025	0.159
-292.662	85.001	-0.284	0.309
-291.647	728.434	-0.020	0.054
-290.632	-200.000	0.022	-0.232
-289.618	53.817	-0.174	-0.166
-288.603	-50.715	-0.195	0.091
-287.589	-65.340	0.061	-0.024
-286.574	-167.561	-0.157	-0.006
-285.559	-200.000	-0.278	-0.001
-284.545	504.358	-0.054	0.124
-283.530	58.382	0.259	0.252
-282.516	39.770	0.436	0.388
-281.501	18.472	-0.328	0.260
-280.486	185.573	0.168	-0.248
-279.472	66.352	-0.084	0.085
-278.457	567.344	0.106	-0.255
-277.443	176.278	-0.051	-0.074
-276.428	-200.000	0.077	0.580
-275.413	-10.478	0.299	-0.196
-274.399	-200.000	0.047	-0.215
-273.384	800.000	0.148	0.409
-272.370	283.218	-0.108	-0.192
-271.355	-185.347	-0.212	0.003
-270.340	800.000	-0.034	-0.136
-269.326	800.000	0.037	-0.150
-268.311	52.996	0.158	-0.150
-267.297	114.737	-0.155	0.187
-266.282	-8.335	0.196	0.131
-265.267	-66.356	0.014	0.005
-264.253	-200.000	-0.008	0.040
-263.238	90.945	-0.148	0.165
-262.224	-128.374	0.224	-0.032
-261.209	94.192	-0.295	-0.331
-260.195	-30.679	0.197	0.110
-259.180	-106.606	0.263	0.058
-258.165	-100.967	-0.206	0.050
-257.151	800.000	0.110	0.409
-256.136	-138.106	-0.114	-0.013
-255.122	-182.703	-0.056	0.001
-254.107	-132.652	-0.322	-0.041
-253.092	-9.046	0.032	0.021
-252.078	-76.726	-0.303	-0.105
-251.063	-116.934	0.071	-0.013
-250.049	-161.190	-0.052	0.003
-249.034	-108.454	-0.351	-0.075
-248.019	-109.082	-0.128	-0.027
-247.005	-200.000	0.019	0.312
-245.990	181.077	-0.130	-0.190
-244.976	-200.000	0.000	-0.146
-243.961	-82.683	-0.224	0.072
-242.946	-14.480	0.176	0.112
-241.932	-200.000	0.030	-0.280
-240.917	414.066	0.078	-0.164
-239.903	-134.262	-0.208	-0.025
-238.888	-200.000	0.024	0.243
-237.873	128.218	0.213	-0.269
-236.859	41.612	-0.111	-0.100
-235.844	-200.000	0.023	-0.147
-234.830	289.875	0.006	-0.010
-233.815	57.440	-0.153	0.148
-232.800	-200.000	-0.027	0.145
-231.786	-89.535	-0.409	-0.119
-230.771	-200.000	0.078	-0.342
-229.757	-35.774	0.238	-0.128
-228.742	161.630	-0.105	-0.146
-227.727	46.912	0.187	-0.172
-226.713	489.309	0.073	-0.166
-225.698	-200.000	0.017	0.196
-224.684	9.947	-0.012	0.009
-223.669	-200.000	0.008	0.243
-222.655	136.735	-0.197	-0.254
-221.640	-41.227	0.215	0.110
-220.625	-200.000	0.005	-0.191
-219.611	5.864	0.212	0.155
-218.596	343.789	0.036	-0.069
-217.582	165.565	-0.039	0.055
-216.567	367.544	-0.068	-0.136
-215.552	63.562	-0.107	0.106
-214.538	-200.000	-0.042	0.482
-213.523	-29.836	-0.248	-0.140
-212.509	17.190	0.093	-0.073
-211.494	189.933	0.058	0.086
-210.479	-3.441	-0.282	-0.194
-209.465	-200.000	0.016	0.168
-208.450	-121.644	0.167	-0.027
-207.436	-114.267	-0.158	0.030
-206.421	-153.989	0.320	-0.022
-205.406	-11.140	0.214	-0.140
-204.392	-115.798	-0.114	0.021
-203.377	266.680	0.039	0.068
-202.363	-200.000	0.015	-0.249
-201.348	-39.930	0.232	-0.120
-200.333	36.603	0.360	-0.315
-199.319	-30.892	0.097	0.054
-198.304	-200.000	0.048	0.302
-197.290	-200.000	0.068	-0.309
-196.275	800.000	0.049	-0.174
-195.260	-62.030	0.378	-0.156
-194.246	-179.167	0.059	0.001
-193.231	148.714	0.264	0.353
-192.217	-83.022	-0.226	0.072
-191.202	-82.611	0.174	-0.056
-190.187	52.702	-0.041	-0.039
-189.173	97.736	-0.176	0.200
-188.158	-200.000	0.014	-0.129
-187.144	-200.000	0.068	-0.303
-186.129	-158.067	0.367	0.021
-185.114	800.000	0.056	0.194
-184.100	-200.000	-0.014	0.162
-183.085	-49.775	-0.152	-0.071
-182.071	800.000	0.062	0.191
-181.056	459.438	0.096	-0.211
-180.042	92.246	-0.149	0.165
-179.027	181.302	0.114	0.166
-178.012	-120.194	0.056	-0.009
-176.998	-142.187	0.523	0.051
-175.983	-175.937	0.396	-0.010
-174.969	-200.000	0.026	0.476
-173.954	754.759	-0.080	0.214
-172.939	-39.592	-0.197	0.102
-171.925	-200.000	-0.046	0.240
-170.910	-109.403	-0.144	0.030
-169.896	-200.000	0.017	-0.300
-168.881	-71.041	0.232	0.086
-167.866	-150.931	0.133	0.010
-166.852	-53.815	0.109	-0.049
-165.837	444.645	0.193	-0.419
-164.823	-104.241	0.202	-0.046
-163.808	209.241	0.126	0.195
-162.793	-104.798	-0.139	0.032
-161.779	31.237	-0.174	0.148
-160.764	-58.398	-0.225	-0.097
-159.750	-95.469	-0.025	-0.007
-158.735	164.252	0.138	-0.192
-157.720	-200.000	-0.032	-0.146
-156.706	-152.091	-0.244	-0.017
-155.691	-85.426	0.146	0.045
-154.677	-55.801	0.032	0.014
-153.662	800.000	-0.022	0.076
-152.647	379.093	-0.200	0.404
-151.633	800.000	-0.041	0.166
-150.618	800.000	-0.041	0.156
-149.604	-153.901	-0.226	0.015
-148.589	386.799	0.074	0.151
-147.574	-94.270	-0.136	0.037
-146.560	-91.958	-0.036	0.010
-145.545	94.353	-0.038	0.043
-144.531	-200.000	-0.009	0.067
-143.516	-12.342	-0.303	-0.195
-142.502	-129.822	-0.345	0.047
-141.487	9.717	-0.160	0.119
-140.472	-200.000	0.015	0.100
-139.458	97.813	-0.057	-0.065
-138.443	-37.056	0.118	-0.063
-137.429	149.536	0.206	-0.275
-136.414	-50.409	-0.302	0.141
-135.399	106.785	-0.114	-0.133
-134.385	130.498	-0.202	-0.255
-133.370	-124.998	-0.113	0.017
-132.356	-200.000	-0.032	0.421
-131.341	488.947	-0.040	0.091
-130.326	-139.255	-0.129	0.014
-129.312	-200.000	0.050	-0.241
-128.297	800.000	0.122	-0.415
-127.283	-57.871	-0.229	0.099
-126.268	59.732	-0.117	-0.114
-125.253	70.826	0.186	-0.190
-124.239	194.563	-0.054	0.081
-123.224	-133.204	-0.132	-0.016
-122.210	800.000	-0.041	0.139
