DTS Sentinel unit serial number:	SN413079Multiplexer serial number:	ORYXHardware model number:	OX4-SRSoftware version number:	ORYX F/W v4.00 Oryx Data Collector v3.7.2.0data status	okinstallation	princeton_trtdifferential loss correction	single-endedforward channel	channel 2reverse channel	N/Adate	2019/09/15time	22:39:35forward acquisition time	60.00reverse acquisition time	0.00gamma	496.2192k internal	0.2335k external	0.2335temperature offset calibration	0.9950default loss term (dB/km)	0.3790temperature slope calibration	1.0000multiplexer offset coefficient	1.0000multiplexer slope coefficient	1.0000fibre end	0.00T internal ref (°C)	28.97T ext. ref 1 (°C)	8.81T ext. ref 2 (°C)	22.42length (m)	temperature (°C)	Stokes	anti-Stokes-747.200	-200.000	0.025	0.160
-746.185	800.000	-0.041	0.167
-745.171	268.210	0.215	-0.378
-744.156	800.000	-0.085	-0.237
-743.142	-44.500	-0.205	0.103
-742.127	-3.034	-0.280	0.196
-741.112	436.914	-0.113	0.247
-740.098	-200.000	0.015	0.312
-739.083	47.541	0.128	-0.120
-738.069	-200.000	0.005	-0.110
-737.054	31.556	-0.075	-0.065
-736.039	-55.634	-0.287	-0.129
-735.025	-5.873	0.278	-0.191
-734.010	-103.673	-0.214	0.050
-732.996	24.752	-0.111	0.093
-731.981	521.618	-0.042	0.098
-730.966	800.000	-0.075	-0.226
-729.952	-48.090	0.373	-0.181
-728.937	224.576	-0.092	0.149
-727.923	-200.000	-0.057	0.258
-726.908	58.523	0.092	0.091
-725.894	-36.434	0.261	-0.141
-724.879	-113.975	-0.157	-0.031
-723.864	453.601	0.137	-0.304
-722.850	37.647	0.247	-0.220
-721.835	127.378	-0.262	-0.334
-720.821	800.000	-0.012	-0.046
-719.806	575.575	-0.096	-0.235
-718.791	800.000	0.078	-0.269
-717.777	27.530	0.149	-0.126
-716.762	-148.892	-0.222	0.018
-715.748	-54.958	0.200	-0.091
-714.733	-200.000	-0.022	0.131
-713.718	400.443	0.131	-0.276
-712.704	34.934	-0.325	-0.285
-711.689	-74.518	-0.043	-0.016
-710.675	511.846	-0.095	-0.221
-709.660	68.318	0.019	0.020
-708.645	131.914	-0.042	0.054
-707.631	331.041	0.110	0.212
-706.616	-117.823	-0.310	-0.056
-705.602	-14.432	0.257	-0.166
-704.587	-187.959	-0.134	-0.002
-703.572	-110.954	-0.223	-0.046
-702.558	800.000	0.068	-0.252
-701.543	498.982	-0.169	-0.391
-700.529	-103.695	0.400	-0.094
-699.514	-111.016	-0.418	-0.086
-698.499	-200.000	-0.061	0.287
-697.485	414.143	-0.172	-0.368
-696.470	-126.615	-0.262	-0.039
-695.456	-200.000	0.133	0.001
-694.441	39.042	0.118	-0.106
-693.426	72.631	-0.236	0.247
-692.412	31.646	-0.136	0.117
-691.397	-79.517	0.228	-0.077
-690.383	676.672	-0.055	-0.142
-689.368	-63.599	-0.151	0.062
-688.354	16.490	-0.225	-0.178
-687.339	32.284	-0.036	0.031
-686.324	-153.623	-0.425	0.029
-685.310	63.054	-0.170	0.171
-684.295	-171.889	0.046	0.002
-683.281	-200.000	0.012	-0.137
-682.266	-200.000	0.051	-0.377
-681.251	-200.000	0.012	-0.126
-680.237	-200.000	0.072	0.365
-679.222	186.972	0.266	0.397
-678.208	-106.851	-0.097	-0.021
-677.193	463.809	0.024	0.054
-676.178	402.182	-0.119	0.251
-675.164	86.993	0.172	0.190
-674.149	-60.951	0.211	0.089
-673.135	-200.000	-0.012	-0.079
-672.120	224.266	0.138	-0.223
-671.105	149.364	-0.108	-0.146
-670.091	43.075	0.266	-0.243
-669.076	275.357	-0.121	-0.215
-668.062	-149.999	-0.133	-0.010
-667.047	-71.001	0.088	0.033
-666.032	24.549	-0.138	0.114
-665.018	126.889	-0.062	0.079
-664.003	-200.000	0.011	0.255
-662.989	-77.786	-0.118	0.041
-661.974	-85.739	0.097	0.030
-660.959	-200.000	0.004	0.104
-659.945	65.440	0.004	-0.004
-658.930	-200.000	0.018	0.112
-657.916	-200.000	0.060	0.355
-656.901	103.960	-0.218	0.256
-655.886	-5.011	-0.342	-0.236
-654.872	261.787	0.079	0.137
-653.857	741.238	-0.057	-0.153
-652.843	-31.778	-0.105	-0.059
-651.828	-144.792	-0.255	0.023
-650.814	-74.463	0.200	0.072
-649.799	-113.762	-0.211	-0.041
-648.784	-71.546	-0.213	0.080
-647.770	7.430	-0.304	0.227
-646.755	-200.000	0.000	-0.286
-645.741	-8.506	-0.017	-0.012
-644.726	-185.381	-0.131	-0.002
-643.711	265.485	-0.142	-0.247
-642.697	800.000	0.019	-0.064
-641.682	-165.187	0.060	-0.003
-640.668	-131.892	0.574	-0.075
-639.653	593.560	0.042	-0.104
-638.638	-159.416	0.293	-0.016
-637.624	-108.531	-0.230	0.050
-636.609	140.296	0.089	-0.117
-635.595	-58.222	0.122	0.053
-634.580	-143.433	-0.213	0.020
-633.565	800.000	-0.072	-0.278
-632.551	314.380	0.022	-0.041
-631.536	-200.000	0.035	-0.241
-630.522	800.000	0.076	-0.324
-629.507	-200.000	0.018	0.242
-628.492	347.684	0.162	0.319
-627.478	-67.526	-0.039	0.015
-626.463	61.958	0.196	0.196
-625.449	800.000	0.050	-0.155
-624.434	-122.676	-0.170	0.028
-623.419	-54.438	0.323	0.146
-622.405	800.000	-0.027	-0.104
-621.390	800.000	-0.021	-0.068
-620.376	-70.870	0.223	0.084
-619.361	-74.985	-0.059	-0.021
-618.346	800.000	0.049	0.202
-617.332	-51.486	-0.276	-0.129
-616.317	137.378	-0.037	0.048
-615.303	291.876	-0.095	0.172
-614.288	-200.000	-0.019	0.190
-613.273	800.000	0.072	0.263
-612.259	-70.094	0.280	-0.106
-611.244	-200.000	0.006	0.034
-610.230	236.071	0.073	-0.121
-609.215	449.179	0.073	0.160
-608.201	-124.659	-0.061	-0.009
-607.186	800.000	0.077	0.325
-606.171	-187.551	-0.228	0.003
-605.157	-58.130	-0.327	-0.142
-604.142	86.712	0.219	0.242
-603.128	81.302	0.124	-0.134
-602.113	-200.000	-0.031	0.322
-601.098	-162.325	0.153	0.008
-600.084	22.021	0.129	0.105
-599.069	-160.892	-0.313	0.016
-598.055	-109.184	-0.144	0.030
-597.040	334.235	0.086	0.166
-596.025	86.164	0.155	0.171
-595.011	-200.000	0.008	-0.298
-593.996	243.231	0.136	-0.228
-592.982	64.277	-0.057	-0.057
-591.967	494.355	0.040	-0.093
-590.952	-200.000	-0.030	-0.130
-589.938	-54.926	0.149	0.067
-588.923	-97.907	-0.178	0.046
-587.909	-40.684	-0.211	-0.109
-586.894	343.167	0.126	0.245
-585.879	-200.000	0.020	0.173
-584.865	160.441	0.328	-0.457
-583.850	-200.000	0.003	-0.015
-582.836	-45.950	-0.129	-0.064
-581.821	-27.035	-0.133	-0.077
-580.806	-29.287	-0.401	-0.229
-579.792	-200.000	-0.084	-0.402
-578.777	-200.000	0.005	0.081
-577.763	-88.589	0.016	0.005
-576.748	189.391	-0.096	0.144
-575.733	325.935	0.090	0.171
-574.719	138.569	0.099	-0.129
-573.704	-200.000	0.016	-0.394
-572.690	-200.000	0.013	-0.133
-571.675	-23.272	0.134	0.080
-570.661	-119.271	0.110	0.019
-569.646	-85.207	0.075	0.023
-568.631	-200.000	-0.060	-0.302
-567.617	800.000	-0.033	-0.106
-566.602	-200.000	-0.013	0.130
-565.588	-56.418	0.258	-0.114
-564.573	-62.762	0.128	0.053
-563.558	7.206	0.195	0.145
-562.544	-200.000	0.008	0.054
-561.529	612.936	-0.054	-0.134
-560.515	-150.064	-0.181	-0.014
-559.500	-85.562	-0.168	-0.052
-558.485	268.508	0.080	0.140
-557.471	27.320	-0.176	0.148
-556.456	-200.000	-0.038	-0.195
-555.442	-93.021	0.225	-0.063
-554.427	342.531	-0.155	-0.302
-553.412	800.000	-0.048	0.202
-552.398	-200.000	0.006	0.061
-551.383	-146.748	0.242	0.021
-550.369	800.000	-0.100	-0.352
-549.354	264.028	0.045	-0.079
-548.339	800.000	0.043	0.186
-547.325	800.000	0.029	-0.117
-546.310	-200.000	0.002	-0.103
-545.296	53.544	0.147	-0.141
-544.281	-13.625	-0.064	0.041
-543.266	-75.530	0.057	0.020
-542.252	-200.000	0.088	0.398
-541.237	-104.917	-0.247	-0.056
-540.223	-195.808	0.192	0.001
-539.208	-139.690	-0.377	-0.040
-538.193	150.671	-0.075	-0.102
-537.179	164.892	-0.235	-0.331
-536.164	-51.361	-0.061	0.029
-535.150	89.149	-0.025	0.028
-534.135	38.604	0.023	-0.021
-533.121	-200.000	-0.043	0.233
-532.106	-200.000	-0.037	-0.278
-531.091	-120.475	0.272	-0.046
-530.077	-115.643	0.390	0.073
-529.062	15.450	-0.040	0.031
-528.048	-159.768	0.071	0.004
-527.033	32.603	-0.159	0.137
-526.018	161.955	0.036	-0.050
-525.004	-151.189	0.287	0.021
-523.989	358.703	-0.074	0.147
-522.975	-89.186	-0.240	-0.071
-521.960	-96.802	0.170	-0.044
-520.945	423.835	-0.056	0.120
-519.931	800.000	0.060	-0.211
-518.916	72.280	-0.029	-0.030
-517.902	181.732	0.047	-0.068
-516.887	-200.000	0.000	-0.162
-515.872	-91.655	0.104	-0.029
-514.858	-88.755	-0.252	-0.075
-513.843	-80.952	0.141	0.047
-512.829	37.542	-0.304	-0.269
-511.814	-107.391	-0.090	0.020
-510.799	-161.783	-0.209	-0.011
-509.785	-200.000	-0.047	-0.269
-508.770	-200.000	-0.026	0.445
-507.756	-125.074	-0.496	-0.076
-506.741	657.167	0.008	-0.022
-505.726	-200.000	0.003	0.206
-504.712	119.761	0.137	0.169
-503.697	686.854	0.023	0.061
-502.683	77.681	-0.063	-0.067
-501.668	-106.526	-0.383	-0.085
-500.653	-61.944	-0.387	-0.161
-499.639	10.796	-0.141	-0.107
-498.624	-200.000	0.022	0.363
-497.610	45.460	0.082	0.075
-496.595	-115.534	-0.100	-0.019
-495.581	-62.009	0.034	-0.014
-494.566	-94.040	-0.246	-0.067
-493.551	-175.065	0.382	0.011
-492.537	800.000	-0.011	0.044
-491.522	-102.010	-0.183	0.044
-490.508	-37.546	0.237	-0.126
-489.493	118.805	-0.084	-0.104
-488.478	539.979	-0.127	0.301
-487.464	-200.000	-0.125	0.000
-486.449	48.139	0.134	-0.125
-485.435	-91.174	-0.309	-0.088
-484.420	100.637	-0.290	-0.335
-483.405	800.000	0.050	0.141
-482.391	800.000	0.101	0.391
-481.376	461.150	-0.099	0.218
-480.362	23.642	-0.080	0.065
-479.347	38.640	-0.273	-0.242
-478.332	-104.075	0.244	-0.056
-477.318	238.445	0.103	-0.169
-476.303	37.295	-0.169	-0.149
-475.289	198.979	-0.054	-0.083
-474.274	-200.000	0.016	-0.214
-473.259	-44.605	0.244	0.121
-472.245	-200.000	0.020	0.193
-471.230	-200.000	0.021	0.337
-470.216	-2.217	0.051	0.035
-469.201	56.069	0.204	-0.197
-468.186	-200.000	-0.094	-0.417
-467.172	-200.000	0.029	0.288
-466.157	184.875	0.273	0.402
-465.143	393.925	0.098	-0.204
-464.128	-35.398	0.139	-0.075
-463.113	117.191	0.259	0.317
-462.099	92.152	0.186	0.208
-461.084	-62.191	-0.274	0.114
-460.070	688.408	-0.073	0.191
-459.055	800.000	0.029	-0.119
-458.040	119.616	-0.034	0.041
-457.026	81.486	0.138	0.148
-456.011	-200.000	-0.032	-0.155
-454.997	110.745	0.077	0.092
-453.982	-66.268	0.130	-0.051
-452.968	-8.280	0.098	-0.066
-451.953	-200.000	-0.030	-0.216
-450.938	-62.701	-0.146	0.060
-449.924	418.519	-0.094	0.199
-448.909	-200.000	0.006	0.267
-447.895	-64.911	0.056	-0.022
-446.880	800.000	-0.139	-0.432
-445.865	800.000	0.072	0.227
-444.851	2.064	0.078	0.056
-443.836	-72.031	-0.308	-0.114
-442.822	-60.768	-0.286	0.120
-441.807	-200.000	-0.005	-0.034
-440.792	270.279	-0.086	0.151
-439.778	142.313	-0.122	0.161
-438.763	236.182	-0.216	0.355
-437.749	-112.139	0.217	0.043
-436.734	83.729	-0.100	-0.109
-435.719	-174.042	-0.089	-0.003
-434.705	67.476	-0.175	0.177
-433.690	-200.000	0.013	-0.067
-432.676	-22.268	0.144	0.087
-431.661	258.924	-0.156	-0.268
-430.646	87.966	0.217	0.239
-429.632	522.132	0.092	-0.215
-428.617	-200.000	-0.008	-0.083
-427.603	800.000	-0.036	-0.150
-426.588	17.731	-0.099	-0.078
-425.573	-200.000	-0.061	-0.340
-424.559	4.294	0.008	0.006
-423.544	-43.326	-0.334	-0.168
-422.530	4.370	0.216	-0.157
-421.515	-200.000	0.020	-0.117
-420.500	47.727	-0.119	0.110
-419.486	-170.092	-0.305	-0.011
-418.471	317.588	0.064	0.120
-417.457	108.378	0.174	-0.206
-416.442	35.190	0.080	0.069
-415.428	800.000	-0.059	0.221
-414.413	-200.000	0.008	-0.150
-413.398	50.607	0.169	-0.159
-412.384	-200.000	0.016	0.168
-411.369	4.062	-0.269	-0.195
-410.355	-12.540	0.124	0.081
-409.340	800.000	-0.029	0.120
-408.325	584.740	-0.145	0.354
-407.311	774.877	-0.022	0.060
-406.296	-187.766	0.060	0.001
-405.282	-113.440	0.080	-0.016
-404.267	-63.879	0.173	0.070
-403.252	-7.011	0.097	0.065
-402.238	-200.000	-0.007	-0.184
-401.223	-113.630	-0.179	0.035
-400.209	41.029	-0.131	0.117
-399.194	-28.270	0.149	-0.085
-398.179	-146.225	-0.349	-0.030
-397.165	-21.967	0.065	-0.039
-396.150	-200.000	-0.008	0.107
-395.136	-200.000	0.075	-0.341
-394.121	181.279	-0.056	-0.081
-393.106	315.444	0.104	0.195
-392.092	-110.260	-0.271	-0.056
-391.077	-104.080	0.282	0.065
-390.063	68.513	-0.196	-0.200
-389.048	-200.000	-0.032	0.219
-388.033	-151.874	-0.341	-0.025
-387.019	251.877	0.129	-0.218
-386.004	-149.394	-0.142	0.011
-384.990	296.789	-0.090	0.163
-383.975	5.353	-0.314	-0.230
-382.960	44.706	0.086	-0.078
-381.946	4.727	0.078	-0.057
-380.931	70.370	-0.128	-0.131
-379.917	-165.237	0.276	0.012
-378.902	126.082	-0.276	-0.345
-377.888	-200.000	0.052	-0.272
-376.873	142.486	-0.145	0.191
-375.858	-200.000	0.070	0.349
-374.844	-20.897	0.249	-0.151
-373.829	-172.088	0.157	-0.005
-372.815	-87.793	0.219	0.065
-371.800	5.210	-0.168	0.122
-370.785	-94.414	-0.219	0.059
-369.771	-61.056	0.194	-0.081
-368.756	-71.873	0.112	-0.041
-367.742	-33.297	-0.072	-0.040
-366.727	246.447	0.189	-0.316
-365.712	-103.752	0.395	0.092
-364.698	127.135	0.192	0.242
-363.683	88.195	0.244	0.268
-362.669	-13.979	0.164	-0.105
-361.654	-200.000	-0.008	0.093
-360.639	37.891	-0.219	0.192
-359.625	-107.410	0.658	-0.143
-358.610	12.677	-0.324	-0.248
-357.596	-33.885	0.277	-0.151
-356.581	103.206	0.119	0.138
-355.566	800.000	-0.121	0.379
-354.552	19.922	-0.079	-0.063
-353.537	-153.385	-0.073	-0.005
-352.523	-126.093	-0.103	0.015
-351.508	-190.000	0.284	0.003
-350.493	-200.000	-0.028	0.193
-349.479	11.622	-0.385	0.292
-348.464	-122.535	-0.096	-0.015
-347.450	-14.082	-0.036	0.023
-346.435	9.780	-0.090	0.068
-345.420	469.492	0.121	0.268
-344.406	-38.606	0.314	0.164
-343.391	800.000	-0.029	0.107
-342.377	-152.074	-0.238	-0.017
-341.362	-156.198	0.163	0.010
-340.348	-200.000	-0.250	0.000
-339.333	-18.813	0.163	-0.100
-338.318	800.000	0.039	0.149
-337.304	800.000	0.027	-0.091
-336.289	-115.295	-0.114	-0.021
-335.275	253.768	0.146	0.247
-334.260	110.331	0.089	0.106
-333.245	-200.000	0.011	0.167
-332.231	469.355	0.165	-0.367
-331.216	-190.885	-0.510	-0.005
-330.202	-79.972	-0.198	0.066
-329.187	17.105	0.253	-0.199
-328.172	-101.096	-0.269	0.065
-327.158	163.705	0.105	-0.146
-326.143	766.228	-0.026	-0.071
-325.129	-99.045	0.130	0.033
-324.114	122.775	0.155	-0.191
-323.099	58.708	-0.205	0.199
-322.085	62.411	-0.142	0.141
-321.070	78.451	0.281	-0.296
-320.056	109.382	-0.021	-0.025
-319.041	37.805	0.124	-0.109
-318.026	46.255	0.203	0.186
-317.012	-84.732	0.237	0.074
-315.997	-35.739	-0.035	0.019
-314.983	680.184	-0.160	0.411
-313.968	41.788	-0.297	-0.266
-312.953	-82.216	-0.094	0.030
-311.939	74.333	-0.292	0.303
-310.924	-82.511	0.480	0.154
-309.910	50.041	-0.228	-0.213
-308.895	2.965	0.317	-0.228
-307.880	-73.089	0.052	0.019
-306.866	-30.315	0.065	0.036
-305.851	216.569	-0.035	0.055
-304.837	325.742	0.165	-0.312
-303.822	6.382	0.301	-0.221
-302.807	-6.766	-0.159	-0.107
-301.793	-200.000	-0.017	-0.273
-300.778	-130.364	0.084	0.011
-299.764	-200.000	0.032	-0.158
-298.749	187.792	-0.079	-0.116
-297.735	12.461	0.147	-0.112
-296.720	-17.561	0.325	-0.202
-295.705	192.251	0.094	0.141
-294.691	800.000	0.054	0.147
-293.676	759.862	-0.061	-0.163
-292.662	800.000	-0.047	-0.172
-291.647	-132.559	-0.358	0.045
-290.632	-88.579	-0.206	0.061
-289.618	275.920	-0.030	-0.053
-288.603	502.077	0.042	-0.095
-287.589	-200.000	0.003	0.304
-286.574	19.044	0.218	0.173
-285.559	-24.395	-0.181	0.106
-284.545	-20.940	-0.155	0.094
-283.530	290.084	0.057	0.102
-282.516	800.000	-0.022	0.085
-281.501	-42.196	-0.222	0.112
-280.486	800.000	0.072	0.297
-279.472	800.000	0.113	-0.311
-278.457	-15.425	0.284	0.179
-277.443	-200.000	0.085	0.438
-276.428	102.457	-0.235	0.271
-275.413	37.949	0.172	0.150
-274.399	-200.000	0.024	0.126
-273.384	-18.134	0.192	0.119
-272.370	-152.239	-0.242	0.017
-271.355	-118.735	-0.157	-0.027
-270.340	800.000	-0.091	0.263
-269.326	345.314	0.097	0.188
-268.311	183.327	0.075	-0.109
-267.297	780.503	0.150	-0.405
-266.282	-147.536	0.102	0.008
-265.267	-119.149	-0.417	-0.072
-264.253	-177.612	0.230	0.006
-263.238	-168.238	-0.340	-0.013
-262.224	34.784	0.185	-0.159
-261.209	-200.000	0.014	0.178
-260.195	-78.019	0.211	-0.072
-259.180	33.284	-0.342	0.293
-258.165	-200.000	0.013	0.401
-257.151	74.273	0.276	0.285
-256.136	-35.020	0.147	-0.079
-255.122	-40.669	-0.141	0.072
-254.107	162.874	0.104	-0.144
-253.092	25.616	0.179	0.147
-252.078	-200.000	0.010	-0.159
-251.063	86.631	-0.132	0.143
-250.049	800.000	-0.088	0.278
-249.034	-200.000	0.003	0.022
-248.019	192.625	-0.214	-0.319
-247.005	-200.000	-0.008	0.145
-245.990	-2.538	0.227	0.157
-244.976	-170.960	-0.210	0.007
-243.961	-182.590	-0.266	0.005
-242.946	-92.621	0.423	-0.117
-241.932	-200.000	0.033	0.207
-240.917	-116.362	-0.188	-0.034
-239.903	44.380	0.349	-0.315
-238.888	-52.457	0.083	-0.038
-237.873	87.692	-0.204	-0.223
-236.859	-200.000	0.016	0.245
-235.844	800.000	-0.100	-0.281
-234.830	-127.368	-0.162	-0.023
-233.815	-50.352	-0.297	-0.138
-232.800	800.000	-0.049	0.166
-231.786	30.823	-0.088	-0.074
-230.771	-200.000	0.021	-0.309
-229.757	800.000	0.098	-0.276
-228.742	189.219	-0.200	-0.294
-227.727	241.328	-0.212	-0.349
-226.713	-200.000	0.031	-0.189
-225.698	127.902	0.140	-0.175
-224.684	70.867	0.096	0.098
-223.669	-160.926	-0.115	0.006
-222.655	102.624	0.126	-0.145
-221.640	-85.734	0.023	-0.007
-220.625	-91.544	0.217	0.061
-219.611	-200.000	-0.015	-0.132
-218.596	-200.000	-0.036	0.259
-217.582	-200.000	-0.027	-0.173
-216.567	-106.108	0.332	-0.073
-215.552	-49.629	0.308	-0.144
-214.538	118.967	0.237	-0.288
-213.523	366.166	-0.241	0.478
-212.509	-200.000	0.015	0.126
-211.494	-78.694	0.146	-0.049
-210.479	-200.000	-0.021	-0.118
-209.465	-200.000	-0.009	0.159
-208.450	-18.496	-0.071	0.044
-207.436	29.088	0.070	0.058
-206.421	76.137	-0.091	0.095
-205.406	-187.847	0.171	-0.002
-204.392	-66.377	-0.258	0.101
-203.377	-52.757	-0.332	0.151
-202.363	-3.705	-0.057	-0.039
-201.348	14.352	0.156	0.120
-200.333	-81.020	-0.049	0.016
-199.319	-80.554	-0.221	-0.072
-198.304	800.000	0.039	0.134
-197.290	800.000	0.099	-0.318
-196.275	52.495	-0.244	0.229
-195.260	-120.066	-0.216	-0.036
-194.246	-94.270	0.285	0.077
-193.231	32.052	-0.193	-0.164
-192.217	5.162	0.063	0.046
-191.202	109.835	-0.157	-0.186
-190.187	-200.000	-0.019	0.165
-189.173	53.154	-0.127	0.120
-188.158	800.000	0.087	-0.253
-187.144	-125.266	-0.136	-0.020
-186.129	-200.000	-0.014	0.187
-185.114	95.743	-0.105	0.118
-184.100	-33.213	0.120	0.065
-183.085	-134.603	0.315	0.038
-182.071	29.244	0.122	-0.102
-181.056	-79.315	-0.252	-0.084
-180.042	-5.728	-0.211	0.142
-179.027	-79.926	-0.193	-0.064
-178.012	-75.634	0.071	-0.025
-176.998	-187.666	0.197	0.003
-175.983	-73.715	0.074	0.027
-174.969	16.327	0.159	0.123
-173.954	29.584	-0.107	-0.089
-172.939	-32.708	0.175	0.096
-171.925	67.278	-0.100	0.100
-170.910	-200.000	0.000	-0.272
-169.896	-120.738	0.134	0.022
-168.881	-200.000	0.017	0.195
-167.866	-115.132	0.423	0.079
-166.852	800.000	0.111	-0.355
-165.837	800.000	0.064	-0.235
-164.823	397.460	0.135	0.277
-163.808	-65.181	-0.112	-0.044
-162.793	-84.841	0.075	0.023
-161.779	-70.041	0.291	0.109
-160.764	-24.117	-0.152	0.089
-159.750	-200.000	-0.016	0.153
-158.735	800.000	-0.083	-0.290
-157.720	-29.738	0.165	-0.093
-156.706	174.740	-0.206	0.293
-155.691	-36.673	0.102	-0.054
-154.677	344.743	-0.163	-0.314
-153.662	-158.067	0.235	-0.014
-152.647	-200.000	0.014	0.072
-151.633	-60.267	0.204	0.085
-150.618	-50.353	-0.207	-0.096
-149.604	-200.000	0.050	0.218
-148.589	-200.000	0.036	0.301
-147.574	800.000	0.075	0.227
-146.560	-58.702	-0.181	0.077
-145.545	-200.000	0.019	0.184
-144.531	289.805	0.171	0.304
-143.516	-200.000	0.033	0.285
-142.502	-186.174	0.148	0.002
-141.487	-14.352	0.073	0.046
-140.472	45.149	-0.064	0.058
-139.458	-49.631	-0.311	-0.145
-138.443	92.470	0.112	-0.124
-137.429	242.335	0.067	-0.110
-136.414	-2.144	0.167	0.115
-135.399	-147.326	-0.323	0.027
-134.385	-28.804	0.280	0.158
-133.370	136.128	-0.140	-0.179
-132.356	-67.656	0.299	0.115
-131.341	-110.430	-0.241	-0.049
-130.326	140.468	-0.045	0.058
-129.312	49.956	0.084	-0.078
-128.297	153.555	0.102	0.137
-127.283	-200.000	0.040	0.259
-126.268	122.340	0.039	0.047
-125.253	20.954	0.118	-0.094
-124.239	315.758	-0.083	-0.153
-123.224	-197.962	0.240	0.001
-122.210	480.357	-0.040	0.090
-121.195	-35.176	0.499	0.266
-120.180	116.262	-0.034	0.041
