DTS Sentinel unit serial number:	SN413079Multiplexer serial number:	ORYXHardware model number:	OX4-SRSoftware version number:	ORYX F/W v4.00 Oryx Data Collector v3.7.2.0data status	okinstallation	princeton_trtdifferential loss correction	single-endedforward channel	channel 2reverse channel	N/Adate	2019/09/17time	03:43:35forward acquisition time	60.00reverse acquisition time	0.00gamma	496.2192k internal	0.2327k external	0.2327temperature offset calibration	0.9971default loss term (dB/km)	0.3790temperature slope calibration	1.0000multiplexer offset coefficient	1.0000multiplexer slope coefficient	1.0000fibre end	0.00T internal ref (°C)	30.00T ext. ref 1 (°C)	0.14T ext. ref 2 (°C)	24.46length (m)	temperature (°C)	Stokes	anti-Stokes-747.200	-44.437	0.247	0.124
-746.185	-119.451	-0.106	-0.019
-745.171	-64.568	-0.286	-0.117
-744.156	-200.000	0.003	-0.034
-743.142	-1.977	0.156	-0.111
-742.127	-200.000	-0.020	0.239
-741.112	142.565	0.043	-0.058
-740.098	95.956	-0.167	0.192
-739.083	253.977	0.067	-0.116
-738.069	378.264	-0.094	0.193
-737.054	5.857	0.125	-0.093
-736.039	-132.991	-0.080	0.010
-735.025	291.294	0.163	0.299
-734.010	-115.339	-0.147	-0.028
-732.996	-200.000	-0.021	-0.526
-731.981	1.956	-0.048	0.035
-730.966	251.095	-0.087	-0.148
-729.952	800.000	-0.146	-0.428
-728.937	-126.442	-0.135	-0.020
-727.923	-29.055	0.139	-0.081
-726.908	83.268	-0.071	0.078
-725.894	-118.009	-0.334	-0.060
-724.879	-160.796	-0.273	-0.015
-723.864	-40.537	-0.298	0.156
-722.850	-101.853	0.297	-0.072
-721.835	-173.856	-0.204	-0.006
-720.821	-38.756	-0.110	0.059
-719.806	8.609	0.109	0.083
-718.791	-200.000	0.044	0.279
-717.777	89.138	-0.217	-0.243
-716.762	-75.351	0.145	0.052
-715.748	-74.436	-0.468	-0.170
-714.733	800.000	-0.108	0.305
-713.718	439.003	0.101	0.222
-712.704	465.620	0.031	-0.070
-711.689	65.874	0.120	-0.122
-710.675	626.382	0.051	0.130
-709.660	52.460	-0.114	0.110
-708.645	-37.481	0.075	0.040
-707.631	323.756	-0.085	-0.163
-706.616	-65.746	0.285	-0.115
-705.602	-100.295	0.121	-0.030
-704.587	-1.153	0.280	0.199
-703.572	30.683	-0.174	0.150
-702.558	-200.000	0.021	-0.191
-701.543	25.678	-0.113	-0.095
-700.529	10.668	-0.211	0.162
-699.514	62.821	0.040	-0.041
-698.499	-21.142	0.342	0.211
-697.485	107.643	-0.039	0.047
-696.470	-105.838	-0.185	-0.042
-695.456	333.538	0.044	0.086
-694.441	-52.105	-0.266	-0.124
-693.426	800.000	-0.072	-0.247
-692.412	513.132	-0.129	-0.303
-691.397	-84.624	-0.186	-0.059
-690.383	-200.000	0.034	-0.185
-689.368	151.774	0.116	-0.158
-688.354	-24.342	-0.351	0.211
-687.339	125.396	-0.065	0.082
-686.324	-200.000	-0.023	-0.170
-685.310	-143.047	-0.180	0.018
-684.295	-127.301	-0.167	0.025
-683.281	53.583	-0.136	-0.132
-682.266	-6.919	0.130	0.089
-681.251	800.000	0.073	-0.263
-680.237	-54.387	0.116	-0.053
-679.222	-0.059	-0.132	0.095
-678.208	-104.277	0.308	0.072
-677.193	-6.954	-0.190	0.130
-676.178	-64.872	-0.149	0.061
-675.164	-78.745	0.185	-0.064
-674.149	-200.000	0.006	0.394
-673.135	-200.000	-0.040	0.338
-672.120	-6.054	0.103	-0.071
-671.105	60.121	-0.095	0.095
-670.091	790.276	-0.142	-0.392
-669.076	-110.617	0.313	0.065
-668.062	-148.221	-0.204	-0.017
-667.047	800.000	-0.022	0.071
-666.032	22.170	-0.119	-0.098
-665.018	800.000	0.082	-0.247
-664.003	-200.000	0.006	0.244
-662.989	-85.681	-0.144	0.045
-661.974	800.000	0.097	-0.287
-660.959	113.227	-0.213	-0.259
-659.945	-200.000	-0.022	0.106
-658.930	310.644	0.074	0.140
-657.916	37.078	0.186	-0.165
-656.901	-109.045	0.310	-0.066
-655.886	800.000	0.043	-0.153
-654.872	-143.649	0.394	0.038
-653.857	656.723	0.056	0.144
-652.843	-126.825	-0.110	-0.016
-651.828	-200.000	-0.073	-0.333
-650.814	-5.330	0.517	-0.357
-649.799	800.000	-0.031	-0.114
-648.784	800.000	-0.046	-0.172
-647.770	20.641	0.190	-0.155
-646.755	-200.000	-0.022	-0.177
-645.741	589.295	-0.032	-0.080
-644.726	-200.000	0.031	-0.223
-643.711	-200.000	-0.023	-0.152
-642.697	-200.000	0.072	0.341
-641.682	14.888	0.035	0.027
-640.668	-9.931	0.154	0.103
-639.653	28.115	0.203	0.172
-638.638	-184.739	0.268	0.004
-637.624	65.690	0.082	-0.083
-636.609	217.650	-0.055	-0.089
-635.595	-200.000	-0.023	0.118
-634.580	-200.000	-0.007	0.098
-633.565	156.251	-0.101	-0.140
-632.551	237.474	-0.060	0.100
-631.536	-70.252	-0.175	0.067
-630.522	135.593	-0.073	0.095
-629.507	208.188	0.144	0.226
-628.492	800.000	-0.099	0.289
-627.478	-200.000	0.021	0.292
-626.463	-34.785	-0.172	-0.094
-625.449	-108.673	-0.259	-0.056
-624.434	-116.423	0.066	-0.012
-623.419	-200.000	0.005	-0.107
-622.405	-84.872	-0.270	-0.085
-621.390	-185.120	-0.266	0.004
-620.376	800.000	-0.078	-0.259
-619.361	-106.717	-0.138	0.031
-618.346	-56.417	-0.284	0.127
-617.332	-50.126	0.162	0.077
-616.317	-19.361	-0.046	-0.028
-615.303	-48.551	0.249	-0.120
-614.288	206.601	-0.013	-0.021
-613.273	62.425	0.044	0.044
-612.259	-118.822	-0.295	0.052
-611.244	-121.939	0.155	-0.026
-610.230	51.047	-0.106	-0.101
-609.215	-137.415	0.174	0.020
-608.201	1.607	0.271	-0.196
-607.186	-116.640	-0.326	0.060
-606.171	24.213	0.066	-0.054
-605.157	-57.490	-0.415	-0.183
-604.142	-108.741	0.187	0.040
-603.128	111.072	0.102	0.123
-602.113	-44.966	0.123	-0.061
-601.098	-200.000	0.018	-0.101
-600.084	63.787	-0.083	0.083
-599.069	17.286	0.165	0.131
-598.055	37.262	-0.118	0.105
-597.040	800.000	-0.025	-0.098
-596.025	-200.000	0.034	0.294
-595.011	800.000	-0.036	0.105
-593.996	250.515	-0.096	-0.164
-592.982	330.726	0.131	0.253
-591.967	-60.152	0.045	-0.019
-590.952	-200.000	0.054	-0.289
-589.938	-71.912	0.157	0.059
-588.923	64.273	0.173	0.175
-587.909	-98.452	0.252	-0.065
-586.894	157.350	-0.052	0.072
-585.879	179.837	-0.238	0.349
-584.865	43.755	-0.288	-0.264
-583.850	-9.210	-0.245	-0.164
-582.836	-200.000	0.051	-0.386
-581.821	-92.798	0.110	-0.031
-580.806	-136.735	-0.139	-0.016
-579.792	-79.101	-0.292	0.100
-578.777	-46.196	-0.132	0.065
-577.763	340.453	-0.083	-0.161
-576.748	132.442	-0.209	0.270
-575.733	-119.822	-0.156	-0.027
-574.719	9.049	-0.102	-0.077
-573.704	11.637	-0.199	-0.153
-572.690	-32.458	0.311	0.174
-571.675	-200.000	-0.032	0.206
-570.661	35.539	0.111	0.098
-569.646	-96.693	-0.202	0.053
-568.631	-92.645	-0.173	-0.049
-567.617	800.000	-0.042	-0.158
-566.602	136.236	-0.282	-0.368
-565.588	318.745	-0.097	0.183
-564.573	316.577	-0.231	-0.437
-563.558	29.347	-0.253	-0.216
-562.544	-12.817	0.188	-0.122
-561.529	-103.571	-0.120	-0.028
-560.515	-151.549	-0.130	-0.010
-559.500	-58.462	-0.375	-0.163
-558.485	-200.000	-0.019	-0.312
-557.471	178.827	0.157	-0.230
-556.456	-200.000	-0.036	0.311
-555.442	0.403	0.181	0.129
-554.427	-120.663	0.054	0.009
-553.412	-14.700	0.173	0.111
-552.398	525.325	-0.086	-0.202
-551.383	-152.733	0.230	0.016
-550.369	-35.099	-0.255	0.139
-549.354	167.199	0.225	-0.320
-548.339	-200.000	-0.007	0.064
-547.325	800.000	-0.100	0.428
-546.310	-95.363	-0.104	-0.028
-545.296	24.757	-0.174	-0.144
-544.281	34.098	0.158	0.138
-543.266	168.287	0.100	-0.143
-542.252	786.433	0.109	0.300
-541.237	36.621	-0.206	0.182
-540.223	-159.525	-0.120	-0.007
-539.208	-200.000	-0.047	0.248
-538.193	281.012	-0.233	-0.418
-537.179	-48.796	-0.251	-0.121
-536.164	-200.000	-0.025	0.194
-535.150	-97.655	0.338	0.088
-534.135	31.470	0.101	-0.087
-533.121	-200.000	0.046	-0.261
-532.106	800.000	-0.045	0.138
-531.091	-118.926	0.123	-0.022
-530.077	-200.000	-0.007	0.034
-529.062	72.753	0.109	-0.113
-528.048	-71.716	-0.203	-0.076
-527.033	57.708	-0.272	-0.266
-526.018	-24.724	0.214	-0.127
-525.004	-2.934	-0.369	-0.258
-523.989	403.514	-0.104	-0.219
-522.975	582.006	-0.113	0.277
-521.960	55.746	-0.226	0.219
-520.945	-200.000	0.051	0.463
-519.931	800.000	-0.097	-0.275
-518.916	-200.000	0.006	0.199
-517.902	-96.554	-0.210	-0.055
-516.887	25.304	0.111	0.092
-515.872	-131.239	0.245	-0.033
-514.858	-162.919	0.162	0.008
-513.843	-87.008	-0.252	-0.077
-512.829	84.717	0.206	0.226
-511.814	800.000	0.084	-0.325
-510.799	-200.000	-0.017	-0.215
-509.785	120.049	0.154	-0.191
-508.770	-90.201	-0.352	-0.102
-507.756	137.362	-0.193	0.252
-506.741	-58.644	-0.229	0.099
-505.726	-154.367	0.325	0.022
-504.712	98.735	-0.129	-0.149
-503.697	443.509	-0.103	-0.226
-502.683	24.969	-0.053	0.044
-501.668	219.856	-0.197	-0.316
-500.653	181.557	0.165	0.243
-499.639	153.293	-0.142	0.194
-498.624	352.214	-0.218	0.432
-497.610	108.261	0.180	0.214
-496.595	-200.000	-0.009	-0.190
-495.581	316.110	0.094	0.177
-494.566	367.785	-0.078	-0.158
-493.551	476.481	0.021	0.047
-492.537	-89.141	0.185	-0.054
-491.522	-95.601	0.104	0.028
-490.508	-12.926	-0.325	0.211
-489.493	-14.453	-0.346	-0.222
-488.478	64.740	-0.313	-0.315
-487.464	800.000	0.059	-0.187
-486.449	89.626	0.185	-0.206
-485.435	157.462	0.222	-0.306
-484.420	2.734	-0.324	0.234
-483.405	-200.000	0.019	-0.289
-482.391	-29.986	0.186	0.106
-481.376	-55.844	0.228	0.101
-480.362	-159.558	-0.359	-0.020
-479.347	-52.543	-0.169	0.078
-478.332	336.840	0.101	0.196
-477.318	-77.106	0.025	-0.009
-476.303	13.101	-0.211	0.163
-475.289	-200.000	0.013	-0.218
-474.274	286.306	-0.161	0.290
-473.259	-70.424	0.264	0.100
-472.245	800.000	-0.093	0.320
-471.230	278.304	0.155	-0.275
-470.216	-17.997	0.068	-0.043
-469.201	222.652	0.136	-0.218
-468.186	800.000	-0.053	-0.157
-467.172	440.536	-0.083	0.181
-466.157	-200.000	0.033	-0.170
-465.143	-200.000	0.024	-0.193
-464.128	-200.000	0.010	0.123
-463.113	729.696	-0.138	0.368
-462.099	-174.642	-0.246	-0.007
-461.084	159.926	-0.035	0.048
-460.070	-26.173	-0.518	0.303
-459.055	316.244	-0.081	-0.153
-458.040	-200.000	-0.008	-0.168
-457.026	216.437	-0.072	0.114
-456.011	800.000	-0.116	0.422
-454.997	-200.000	0.025	0.128
-453.982	-200.000	-0.031	-0.168
-452.968	-6.528	0.151	0.102
-451.953	-99.854	0.114	-0.028
-450.938	-200.000	0.006	-0.071
-449.924	-138.001	0.211	-0.023
-448.909	-88.763	0.252	0.075
-447.895	421.240	0.130	0.277
-446.880	-200.000	-0.041	-0.271
-445.865	566.154	0.086	-0.208
-444.851	141.088	0.171	-0.225
-443.836	-200.000	0.022	0.446
-442.822	-200.000	-0.038	0.352
-441.807	-45.887	-0.272	0.134
-440.792	5.025	0.028	0.020
-439.778	-148.966	-0.059	0.005
-438.763	-48.023	-0.136	0.065
-437.749	-61.505	0.241	-0.101
-436.734	800.000	-0.062	0.271
-435.719	-200.000	0.017	-0.285
-434.705	261.882	-0.080	-0.139
-433.690	213.171	0.352	0.554
-432.676	146.679	-0.154	0.206
-431.661	-200.000	0.003	-0.061
-430.646	34.945	-0.157	-0.137
-429.632	-200.000	-0.050	-0.224
-428.617	800.000	-0.130	0.450
-427.603	-85.004	-0.068	0.021
-426.588	-117.414	-0.067	-0.012
-425.573	-200.000	0.035	0.344
-424.559	-200.000	-0.003	-0.255
-423.544	178.710	0.045	0.065
-422.530	800.000	-0.036	0.100
-421.515	-200.000	-0.031	-0.422
-420.500	-200.000	0.012	-0.374
-419.486	17.871	0.239	-0.189
-418.471	22.239	0.195	-0.159
-417.457	25.857	0.187	0.155
-416.442	-14.905	0.291	0.186
-415.428	-200.000	0.040	-0.313
-414.413	63.936	-0.110	0.110
-413.398	324.843	-0.085	-0.161
-412.384	738.072	-0.028	-0.074
-411.369	83.284	-0.060	-0.065
-410.355	-146.767	0.112	0.010
-409.340	-27.452	0.302	0.175
-408.325	290.081	0.035	0.062
-407.311	-97.944	0.186	-0.048
-406.296	547.956	0.072	0.172
-405.282	-200.000	-0.042	-0.204
-404.267	-144.050	-0.110	0.010
-403.252	98.257	-0.236	-0.270
-402.238	200.560	0.194	0.297
-401.223	800.000	-0.041	-0.129
-400.209	-20.352	0.254	-0.155
-399.194	-101.729	-0.246	-0.059
-398.179	-75.181	0.131	-0.046
-397.165	17.542	0.159	0.126
-396.150	1.235	-0.055	-0.039
-395.136	42.972	0.109	0.098
-394.121	-200.000	0.036	0.173
-393.106	549.837	0.052	-0.123
-392.092	169.466	-0.044	-0.063
-391.077	-44.330	0.172	-0.086
-390.063	-200.000	-0.031	-0.164
-389.048	-49.059	-0.181	0.086
-388.033	-200.000	-0.001	0.029
-387.019	-26.748	0.291	0.169
-386.004	127.379	-0.254	0.320
-384.990	220.374	0.027	-0.044
-383.975	58.977	-0.191	-0.187
-382.960	-135.604	0.362	-0.043
-381.946	84.885	0.225	-0.245
-380.931	-164.380	-0.261	0.012
-379.917	272.973	0.144	0.253
-378.902	-101.135	-0.201	-0.049
-377.888	72.914	0.263	0.273
-376.873	238.555	0.198	0.326
-375.858	28.517	0.217	0.183
-374.844	421.054	0.140	-0.297
-373.829	-92.042	-0.196	0.055
-372.815	-7.213	-0.069	-0.047
-371.800	-74.802	0.054	0.019
-370.785	-79.646	0.079	-0.027
-369.771	421.710	-0.060	0.127
-368.756	-27.540	-0.124	0.072
-367.742	-141.662	-0.489	0.049
-366.727	800.000	0.022	0.071
-365.712	-115.732	-0.284	-0.053
-364.698	-20.672	-0.091	-0.055
-363.683	236.197	-0.205	-0.337
-362.669	-12.585	0.174	-0.113
-361.654	-27.038	-0.059	-0.034
-360.639	113.868	0.079	0.095
-359.625	800.000	-0.065	0.221
-358.610	196.485	-0.128	-0.193
-357.596	12.544	0.114	0.087
-356.581	-48.336	-0.083	0.040
-355.566	303.648	0.113	0.208
-354.552	-52.716	-0.124	0.057
-353.537	-95.376	0.234	-0.062
-352.523	-108.609	-0.324	0.069
-351.508	-81.154	0.109	0.036
-350.493	-200.000	-0.003	-0.034
-349.479	-200.000	-0.008	-0.185
-348.464	-200.000	0.011	0.098
-347.450	-100.080	-0.256	0.063
-346.435	-63.740	0.359	0.146
-345.420	774.324	-0.114	0.308
-344.406	-53.908	-0.187	0.085
-343.391	-200.000	0.057	-0.352
-342.377	-200.000	-0.004	-0.279
-341.362	-8.478	0.122	-0.082
-340.348	-34.172	0.170	-0.093
-339.333	49.031	0.025	0.023
-338.318	-200.000	-0.006	0.107
-337.304	-12.271	0.126	-0.082
-336.289	341.471	0.057	-0.110
-335.275	-139.118	-0.299	-0.032
-334.260	267.946	0.083	0.144
-333.245	-200.000	0.038	0.207
-332.231	69.729	-0.145	0.148
-331.216	-200.000	0.014	0.101
-330.202	180.291	0.068	0.099
-329.187	800.000	-0.026	-0.079
-328.172	127.639	0.161	-0.203
-327.158	114.895	0.164	0.199
-326.143	344.665	0.106	0.207
-325.129	602.280	-0.055	0.136
-324.114	71.332	-0.143	-0.147
-323.099	800.000	0.099	-0.319
-322.085	-200.000	0.009	-0.153
-321.070	722.980	-0.031	-0.081
-320.056	409.526	0.124	0.260
-319.041	-200.000	-0.233	0.000
-318.026	223.581	0.139	-0.223
-317.012	78.140	-0.252	0.267
-315.997	41.203	0.276	-0.248
-314.983	-87.577	0.216	-0.065
-313.968	-62.443	0.262	0.108
-312.953	-127.524	-0.352	-0.051
-311.939	133.084	0.150	-0.192
-310.924	-122.280	-0.379	-0.061
-309.910	250.950	0.151	0.255
-308.895	-94.047	-0.169	-0.046
-307.880	-200.000	-0.012	-0.414
-306.866	800.000	0.072	0.275
-305.851	-138.612	0.092	0.010
-304.837	-29.142	-0.087	0.049
-303.822	358.149	0.105	0.208
-302.807	-200.000	-0.054	0.276
-301.793	-154.908	0.205	0.013
-300.778	62.334	0.187	-0.185
-299.764	294.415	-0.182	0.329
-298.749	200.499	0.028	0.043
-297.735	467.888	-0.042	0.094
-296.720	-200.000	0.019	0.139
-295.705	454.610	0.154	0.337
-294.691	-10.662	0.085	-0.056
-293.676	800.000	0.028	-0.113
-292.662	70.303	0.231	0.236
-291.647	334.276	-0.119	0.228
-290.632	800.000	-0.080	0.249
-289.618	-120.414	-0.113	0.019
-288.603	-180.871	-0.385	-0.008
-287.589	103.245	0.253	-0.294
-286.574	29.413	0.202	0.170
-285.559	-200.000	-0.028	-0.219
-284.545	-200.000	-0.009	-0.045
-283.530	-45.534	-0.326	0.160
-282.516	169.221	-0.081	-0.114
-281.501	800.000	0.012	-0.048
-280.486	330.314	-0.054	0.103
-279.472	58.391	0.083	0.080
-278.457	-200.000	0.016	-0.164
-277.443	-200.000	0.011	0.098
-276.428	443.067	0.012	-0.027
-275.413	-200.000	0.027	0.316
-274.399	-66.299	0.152	-0.060
-273.384	340.772	-0.015	0.029
-272.370	-200.000	-0.046	0.344
-271.355	238.416	0.172	-0.283
-270.340	19.632	-0.059	-0.047
-269.326	67.937	-0.121	0.123
-268.311	429.107	-0.030	-0.064
-267.297	-130.170	-0.211	0.029
-266.282	-200.000	-0.043	0.362
-265.267	-200.000	-0.045	-0.226
-264.253	-64.823	0.106	-0.043
-263.238	800.000	-0.054	-0.156
-262.224	4.096	0.112	-0.081
-261.209	205.676	0.066	0.102
-260.195	106.379	-0.068	0.080
-259.180	-148.402	0.159	0.013
-258.165	278.471	0.029	-0.052
-257.151	-72.284	0.285	-0.104
-256.136	-17.700	0.210	-0.130
-255.122	-17.623	0.133	0.083
-254.107	-38.371	-0.149	-0.078
-253.092	-75.210	0.223	-0.079
-252.078	-91.580	0.254	0.072
-251.063	131.582	-0.076	0.097
-250.049	-55.178	-0.307	0.137
-249.034	-200.000	0.057	0.369
-248.019	233.351	-0.081	0.132
-247.005	-200.000	-0.001	-0.278
-245.990	517.715	-0.024	0.055
-244.976	120.523	0.054	-0.066
-243.961	60.090	0.141	-0.138
-242.946	33.175	-0.242	-0.207
-241.932	-200.000	-0.024	0.202
-240.917	-17.429	-0.369	0.230
-239.903	225.421	-0.183	-0.293
-238.888	94.095	0.137	0.153
-237.873	-138.140	-0.087	0.010
-236.859	-75.915	0.396	-0.139
-235.844	-64.277	0.384	0.155
-234.830	84.010	-0.163	-0.176
-233.815	-200.000	0.020	-0.114
-232.800	-124.722	-0.161	-0.025
-231.786	63.588	0.233	0.231
-230.771	800.000	0.003	0.010
-229.757	-9.630	0.243	-0.160
-228.742	-95.867	0.301	0.079
-227.727	-113.217	0.107	-0.021
-226.713	84.494	-0.159	0.172
-225.698	493.193	-0.072	0.163
-224.684	217.410	0.114	0.179
-223.669	214.325	-0.029	-0.046
-222.655	96.162	0.041	0.047
-221.640	-200.000	-0.024	-0.444
-220.625	-115.327	0.197	0.037
-219.611	-135.144	-0.305	0.036
-218.596	-146.430	0.065	0.006
-217.582	-80.365	0.107	0.035
-216.567	-200.000	-0.049	-0.772
-215.552	-149.877	0.098	0.008
-214.538	-200.000	0.063	0.349
-213.523	5.104	-0.147	-0.107
-212.509	-86.646	-0.027	0.008
-211.494	-200.000	0.039	0.381
-210.479	-135.876	0.275	-0.032
-209.465	590.463	-0.089	0.218
-208.450	97.709	-0.167	0.190
-207.436	136.820	0.068	-0.088
-206.421	-200.000	0.016	-0.618
-205.406	-81.403	0.319	0.104
-204.392	173.972	-0.250	0.357
-203.377	582.392	0.150	-0.362
-202.363	-200.000	-0.014	-0.131
-201.348	489.884	0.157	-0.354
-200.333	96.199	-0.180	-0.203
-199.319	800.000	-0.054	-0.212
-198.304	-80.483	0.285	0.094
-197.290	-200.000	0.004	0.038
-196.275	58.585	0.254	-0.246
-195.260	-200.000	0.067	-0.294
-194.246	-56.189	-0.165	-0.072
-193.231	-133.936	0.620	0.076
-192.217	85.691	0.156	0.169
-191.202	-91.867	0.032	0.009
-190.187	-131.056	0.111	0.015
-189.173	-33.901	-0.122	-0.067
-188.158	-200.000	0.008	-0.109
-187.144	-200.000	0.088	0.538
-186.129	-49.243	-0.308	-0.145
-185.114	-68.172	0.273	0.105
-184.100	-49.477	0.174	0.082
-183.085	-175.624	-0.045	0.001
-182.071	140.109	-0.080	0.104
-181.056	224.407	0.102	-0.163
-180.042	500.746	-0.075	-0.170
-179.027	-2.164	-0.327	-0.226
-178.012	165.271	0.293	-0.408
-176.998	-109.556	-0.148	-0.031
-175.983	-20.783	0.170	-0.103
-174.969	149.570	0.198	-0.264
-173.954	-179.425	0.281	0.006
-172.939	306.206	0.075	0.138
-171.925	-57.741	-0.296	-0.128
-170.910	-54.430	0.093	-0.042
-169.896	-200.000	0.010	0.104
-168.881	-200.000	-0.009	0.251
-167.866	-10.282	-0.082	0.053
-166.852	800.000	0.145	-0.479
-165.837	-200.000	-0.009	0.229
-164.823	-141.564	-0.379	-0.038
-163.808	-200.000	0.018	0.220
-162.793	721.581	0.099	0.260
-161.779	-23.406	0.136	0.081
-160.764	-61.529	0.288	0.119
-159.750	309.161	0.084	-0.154
-158.735	-200.000	-0.009	0.124
-157.720	800.000	0.086	-0.233
-156.706	-70.500	0.254	0.095
-155.691	51.189	0.244	-0.229
-154.677	484.802	0.034	0.077
-153.662	477.853	-0.110	0.245
-152.647	-147.150	-0.161	-0.014
-151.633	800.000	-0.079	-0.290
-150.618	167.755	0.213	-0.298
-149.604	-112.332	0.253	-0.050
-148.589	208.867	0.148	-0.229
-147.574	-140.844	-0.325	-0.033
-146.560	422.953	0.018	0.038
-145.545	800.000	-0.054	-0.185
-144.531	458.747	0.079	-0.172
-143.516	27.719	-0.186	-0.154
-142.502	-15.210	-0.124	-0.078
-141.487	-200.000	-0.003	0.111
-140.472	-121.138	0.223	-0.037
-139.458	800.000	-0.038	0.114
-138.443	-200.000	0.002	0.079
-137.429	25.391	0.073	-0.060
-136.414	217.951	0.071	-0.111
-135.399	36.359	0.223	0.194
-134.385	235.182	-0.224	-0.365
-133.370	-200.000	0.023	0.312
-132.356	-27.235	-0.255	0.146
-131.341	128.438	0.160	0.201
-130.326	-200.000	0.019	-0.110
-129.312	-143.639	0.113	-0.011
-128.297	800.000	-0.040	0.150
-127.283	653.995	0.032	0.080
-126.268	429.228	-0.073	0.156
-125.253	-87.923	0.355	-0.105
-124.239	-200.000	-0.001	-0.153
-123.224	14.456	-0.083	-0.063
-122.210	8.698	-0.092	0.068
-121.195	-92.187	0.224	-0.062
