DTS Sentinel unit serial number:	SN413079Multiplexer serial number:	ORYXHardware model number:	OX4-SRSoftware version number:	ORYX F/W v4.00 Oryx Data Collector v3.7.2.0data status	okinstallation	princeton_trtdifferential loss correction	single-endedforward channel	channel 2reverse channel	N/Adate	2019/09/12time	13:57:11forward acquisition time	60.00reverse acquisition time	0.00gamma	496.2192k internal	0.2300k external	0.2300temperature offset calibration	1.0084default loss term (dB/km)	0.3790temperature slope calibration	1.0000multiplexer offset coefficient	1.0000multiplexer slope coefficient	1.0000fibre end	0.00T internal ref (°C)	40.69T ext. ref 1 (°C)	2.19T ext. ref 2 (°C)	33.94length (m)	temperature (°C)	Stokes	anti-Stokes-747.200	-84.097	-0.258	0.084
-746.185	800.000	-0.112	0.373
-745.171	586.770	-0.158	-0.397
-744.156	-83.780	0.371	0.121
-743.142	181.154	0.108	-0.161
-742.127	-52.173	0.073	-0.035
-741.112	-200.000	-0.010	0.267
-740.098	800.000	-0.048	0.148
-739.083	800.000	-0.020	0.058
-738.069	-24.884	0.172	0.104
-737.054	-29.826	-0.133	-0.077
-736.039	-192.426	-0.231	0.002
-735.025	293.633	0.158	0.294
-734.010	-200.000	0.039	-0.226
-732.996	-70.432	-0.489	-0.189
-731.981	-56.518	-0.182	-0.082
-730.966	-123.833	-0.448	-0.072
-729.952	-100.263	-0.161	0.041
-728.937	-134.236	-0.260	0.033
-727.923	-0.056	0.282	-0.205
-726.908	-200.000	0.024	-0.201
-725.894	487.991	0.091	0.212
-724.879	-73.403	-0.259	-0.096
-723.864	800.000	-0.015	-0.048
-722.850	-44.135	-0.140	0.072
-721.835	138.669	-0.027	-0.036
-720.821	99.835	0.272	-0.321
-719.806	85.728	-0.205	0.230
-718.791	117.326	-0.118	-0.148
-717.777	-23.685	-0.190	0.116
-716.762	401.455	0.151	-0.323
-715.748	32.288	0.119	-0.105
-714.733	133.734	0.272	-0.358
-713.718	-200.000	0.018	0.130
-712.704	-26.277	0.215	-0.128
-711.689	156.701	-0.158	0.223
-710.675	492.206	-0.163	-0.380
-709.660	-95.054	0.191	-0.053
-708.645	-200.000	-0.040	0.392
-707.631	-81.659	-0.237	0.079
-706.616	-138.030	0.429	0.049
-705.602	800.000	-0.065	-0.206
-704.587	8.423	0.380	-0.291
-703.572	-40.194	0.380	0.201
-702.558	-22.208	-0.330	0.204
-701.543	91.795	-0.212	0.243
-700.529	263.629	0.030	-0.054
-699.514	-200.000	0.006	0.055
-698.499	-200.000	0.164	0.001
-697.485	-200.000	0.035	0.246
-696.470	187.676	0.057	0.087
-695.456	-200.000	0.068	0.400
-694.441	22.872	-0.094	-0.079
-693.426	-112.842	0.199	0.040
-692.412	149.097	0.069	-0.095
-691.397	232.791	-0.084	0.141
-690.383	-91.313	0.156	0.045
-689.368	291.746	-0.176	-0.325
-688.354	-200.000	0.016	0.124
-687.339	800.000	-0.056	0.165
-686.324	59.446	0.233	-0.234
-685.310	195.104	0.058	-0.089
-684.295	268.244	-0.041	0.074
-683.281	-51.428	-0.341	0.162
-682.266	-200.000	0.012	0.095
-681.251	-70.618	-0.256	-0.098
-680.237	21.471	-0.155	0.128
-679.222	119.584	-0.088	0.111
-678.208	331.394	0.034	-0.068
-677.193	583.037	-0.048	-0.120
-676.178	177.782	0.181	0.269
-675.164	-39.379	-0.183	-0.097
-674.149	352.805	0.019	-0.038
-673.135	-129.924	-0.366	-0.051
-672.120	800.000	0.081	-0.350
-671.105	-65.821	0.190	0.077
-670.091	331.029	-0.095	0.186
-669.076	-46.899	0.371	0.184
-668.062	47.241	-0.060	-0.056
-667.047	800.000	-0.039	-0.116
-666.032	800.000	-0.019	0.074
-665.018	71.105	-0.103	-0.109
-664.003	153.463	0.087	0.121
-662.989	-9.857	-0.140	-0.095
-661.974	-86.203	0.406	-0.127
-660.959	-200.000	0.040	-0.280
-659.945	-200.000	0.008	-0.213
-658.930	279.701	-0.088	-0.161
-657.916	-78.881	-0.106	0.037
-656.901	-70.152	0.113	0.043
-655.886	-112.356	0.504	0.102
-654.872	-200.000	-0.005	-0.439
-653.857	-200.000	0.002	-0.109
-652.843	-5.264	0.207	0.145
-651.828	-72.940	0.157	0.059
-650.814	-200.000	0.023	0.145
-649.799	66.943	-0.319	-0.330
-648.784	800.000	-0.112	-0.363
-647.770	800.000	-0.045	-0.152
-646.755	-14.741	-0.057	0.037
-645.741	800.000	0.045	-0.153
-644.726	172.345	-0.084	0.123
-643.711	800.000	-0.019	0.065
-642.697	84.494	0.221	0.245
-641.682	552.042	0.124	-0.301
-640.668	-153.411	-0.532	-0.038
-639.653	114.685	-0.095	0.118
-638.638	-111.482	-0.328	0.068
-637.624	-29.838	-0.425	-0.246
-636.609	-28.286	-0.224	-0.132
-635.595	-151.215	0.219	-0.017
-634.580	800.000	0.082	-0.289
-633.565	-65.463	-0.263	0.107
-632.551	109.387	-0.131	-0.159
-631.536	625.404	0.061	0.156
-630.522	159.738	-0.043	0.061
-629.507	417.018	0.047	0.102
-628.492	656.814	0.046	0.119
-627.478	52.247	-0.269	0.260
-626.463	800.000	-0.021	-0.063
-625.449	104.677	0.142	-0.170
-624.434	-114.046	0.299	0.059
-623.419	-200.000	0.068	-0.338
-622.405	-200.000	0.026	-0.213
-621.390	-32.352	-0.062	0.035
-620.376	-200.000	-0.015	0.296
-619.361	365.428	0.195	0.399
-618.346	314.245	-0.021	-0.040
-617.332	408.569	0.208	0.447
-616.317	-163.814	0.113	-0.005
-615.303	-52.776	-0.209	-0.098
-614.288	-200.000	0.009	0.170
-613.273	800.000	-0.017	0.073
-612.259	495.834	-0.092	-0.214
-611.244	-59.515	-0.117	-0.051
-610.230	-111.908	0.103	-0.021
-609.215	35.094	0.231	-0.206
-608.201	-200.000	-0.056	0.427
-607.186	-141.841	0.231	-0.023
-606.171	185.115	0.215	-0.323
-605.157	-62.921	-0.156	-0.066
-604.142	-175.912	0.155	-0.004
-603.128	-106.330	-0.268	0.061
-602.113	25.771	0.029	0.025
-601.098	-200.000	0.030	-0.304
-600.084	51.309	-0.220	0.211
-599.069	20.346	-0.287	-0.235
-598.055	-144.293	-0.060	-0.006
-597.040	-68.379	0.031	0.012
-596.025	238.027	-0.072	-0.121
-595.011	800.000	-0.057	-0.168
-593.996	-70.175	-0.109	-0.042
-592.982	-200.000	0.019	0.119
-591.967	-22.887	-0.134	0.082
-590.952	800.000	-0.084	0.344
-589.938	496.568	-0.076	0.177
-588.923	63.404	-0.121	0.123
-587.909	-46.740	0.411	0.204
-586.894	694.356	0.069	-0.184
-585.879	58.632	0.120	-0.119
-584.865	309.454	0.154	0.293
-583.850	800.000	0.106	-0.365
-582.836	-200.000	-0.001	0.224
-581.821	800.000	0.033	0.119
-580.806	-200.000	0.003	-0.113
-579.792	46.284	0.125	0.117
-578.777	800.000	-0.039	0.151
-577.763	800.000	-0.042	-0.184
-576.748	294.923	0.101	-0.186
-575.733	-40.191	-0.213	0.112
-574.719	800.000	-0.037	0.130
-573.704	800.000	-0.093	-0.281
-572.690	-200.000	0.008	0.057
-571.675	293.151	0.053	-0.098
-570.661	7.588	0.181	0.137
-569.646	800.000	-0.073	-0.291
-568.631	-144.177	-0.008	-0.001
-567.617	17.760	0.144	0.116
-566.602	800.000	-0.108	0.305
-565.588	76.879	0.141	-0.151
-564.573	-28.369	-0.202	-0.118
-563.558	-143.412	-0.112	0.011
-562.544	135.710	-0.125	-0.165
-561.529	-200.000	0.014	0.373
-560.515	344.525	-0.027	0.053
-559.500	622.087	-0.049	0.125
-558.485	136.146	0.182	0.241
-557.471	-3.936	0.197	0.138
-556.456	-181.150	-0.104	0.002
-555.442	-185.435	0.346	-0.005
-554.427	565.793	-0.070	0.173
-553.412	-66.496	0.385	-0.155
-552.398	586.627	0.106	-0.263
-551.383	-74.868	0.041	-0.015
-550.369	-101.245	-0.463	-0.115
-549.354	-105.003	-0.179	0.041
-548.339	-19.082	-0.202	0.127
-547.325	290.867	-0.027	-0.049
-546.310	-173.756	0.331	0.010
-545.296	155.348	-0.263	-0.367
-544.281	800.000	-0.067	0.198
-543.266	-134.784	0.231	0.028
-542.252	-13.429	-0.195	-0.128
-541.237	-24.799	-0.140	-0.084
-540.223	-33.089	-0.277	-0.156
-539.208	-59.629	-0.199	-0.087
-538.193	30.359	0.070	-0.061
-537.179	-11.345	-0.280	0.186
-536.164	-31.038	-0.122	-0.070
-535.150	66.502	-0.308	0.317
-534.135	685.466	0.036	-0.096
-533.121	-200.000	-0.021	0.159
-532.106	-141.952	-0.209	0.021
-531.091	-72.275	0.274	-0.103
-530.077	173.639	-0.213	-0.311
-529.062	-200.000	0.023	-0.133
-528.048	245.469	0.224	-0.381
-527.033	-74.234	-0.176	0.064
-526.018	155.461	0.106	-0.147
-525.004	-106.611	-0.272	-0.061
-523.989	31.481	0.034	-0.030
-522.975	-79.550	-0.159	0.054
-521.960	-200.000	0.019	-0.098
-520.945	342.157	-0.121	-0.239
-519.931	706.690	0.175	0.466
-518.916	-84.163	0.319	0.102
-517.902	20.943	0.091	0.075
-516.887	70.156	0.152	0.159
-515.872	74.464	-0.144	0.153
-514.858	429.593	0.092	0.201
-513.843	-46.796	-0.393	0.195
-512.829	-92.852	0.142	0.040
-511.814	-59.421	0.102	0.044
-510.799	-200.000	0.009	-0.059
-509.785	-200.000	-0.003	-0.060
-508.770	-135.362	-0.316	0.038
-507.756	-122.472	-0.312	0.051
-506.741	-13.784	0.141	-0.092
-505.726	-8.104	-0.072	0.049
-504.712	-138.272	0.246	-0.027
-503.697	238.224	-0.173	-0.291
-502.683	301.763	-0.121	0.227
-501.668	-200.000	0.017	-0.235
-500.653	-16.776	-0.177	-0.113
-499.639	800.000	-0.106	-0.388
-498.624	57.933	0.201	0.199
-497.610	-200.000	0.025	-0.203
-496.595	-92.380	0.150	0.043
-495.581	-81.581	-0.225	0.075
-494.566	551.328	-0.090	0.219
-493.551	-200.000	-0.007	0.494
-492.537	47.560	-0.304	0.286
-491.522	-144.351	0.354	-0.033
-490.508	132.077	0.088	0.114
-489.493	-94.167	-0.382	0.106
-488.478	-26.558	0.318	0.188
-487.464	-165.713	0.132	-0.006
-486.449	800.000	0.152	0.431
-485.435	-200.000	-0.001	-0.056
-484.420	-200.000	0.024	-0.207
-483.405	-200.000	-0.034	0.163
-482.391	-200.000	0.050	-0.292
-481.376	-200.000	0.011	0.184
-480.362	-172.007	-0.235	0.008
-479.347	-59.263	-0.123	0.053
-478.332	553.428	-0.123	0.300
-477.318	529.850	0.112	0.267
-476.303	35.008	-0.135	0.119
-475.289	135.745	-0.138	-0.181
-474.274	5.670	-0.035	0.026
-473.259	-39.700	-0.164	-0.087
-472.245	234.359	-0.110	-0.183
-471.230	153.486	0.199	-0.275
-470.216	-66.288	0.129	-0.052
-469.201	-7.003	-0.227	0.156
-468.186	-200.000	-0.007	0.365
-467.172	-200.000	0.081	-0.000
-466.157	-122.197	-0.119	0.020
-465.143	-50.751	-0.231	-0.110
-464.128	-51.889	-0.230	0.108
-463.113	114.329	-0.041	-0.051
-462.099	-75.333	-0.218	-0.079
-461.084	800.000	-0.120	0.490
-460.070	800.000	0.110	0.407
-459.055	252.550	-0.083	-0.144
-458.040	-115.292	0.108	-0.021
-457.026	23.868	-0.154	-0.128
-456.011	177.030	0.019	0.028
-454.997	65.674	0.137	-0.140
-453.982	132.680	0.081	-0.105
-452.968	-108.002	0.124	0.027
-451.953	31.039	-0.183	0.158
-450.938	778.964	0.068	0.188
-449.924	288.230	0.030	-0.055
-448.909	53.467	-0.199	0.193
-447.895	203.631	-0.097	-0.151
-446.880	-44.880	-0.050	-0.025
-445.865	-142.815	-0.168	-0.017
-444.851	800.000	-0.081	-0.275
-443.836	-145.386	-0.043	-0.004
-442.822	18.766	-0.094	0.076
-441.807	298.214	0.168	0.311
-440.792	7.100	0.229	-0.172
-439.778	-139.788	-0.419	0.045
-438.763	-90.116	0.237	-0.069
-437.749	-58.597	0.078	-0.034
-436.734	-139.209	0.234	-0.025
-435.719	-42.279	-0.140	-0.072
-434.705	62.468	-0.172	0.173
-433.690	-200.000	0.061	-0.348
-432.676	14.299	0.075	-0.059
-431.661	-115.013	-0.280	-0.054
-430.646	305.860	0.074	-0.139
-429.632	501.685	-0.093	-0.217
-428.617	-96.921	-0.144	-0.038
-427.603	-51.575	0.304	0.143
-426.588	-188.327	0.245	-0.003
-425.573	492.036	0.059	-0.137
-424.559	-65.886	0.194	0.078
-423.544	800.000	-0.211	0.635
-422.530	-200.000	0.001	-0.046
-421.515	-184.761	0.137	0.002
-420.500	110.160	-0.174	-0.211
-419.486	-151.711	0.614	0.046
-418.471	-120.588	0.151	0.026
-417.457	684.930	-0.128	-0.337
-416.442	-84.590	0.151	-0.048
-415.428	-200.000	0.022	-0.272
-414.413	-71.782	0.128	-0.048
-413.398	-62.686	-0.140	-0.058
-412.384	33.077	0.319	-0.278
-411.369	800.000	-0.045	0.155
-410.355	-200.000	0.001	-0.462
-409.340	-200.000	0.018	0.110
-408.325	132.848	0.111	-0.144
-407.311	-49.888	-0.122	-0.058
-406.296	-98.132	-0.168	-0.044
-405.282	-25.303	0.017	0.010
-404.267	-125.512	0.270	-0.041
-403.252	20.757	-0.121	-0.098
-402.238	-125.621	0.194	0.030
-401.223	-18.758	0.094	-0.059
-400.209	116.255	0.096	0.118
-399.194	447.421	0.184	-0.408
-398.179	-88.489	-0.210	-0.063
-397.165	-93.105	-0.208	-0.058
-396.150	80.726	0.112	-0.121
-395.136	-27.831	0.120	0.070
-394.121	-117.662	-0.224	0.041
-393.106	-122.593	0.311	0.051
-392.092	69.232	0.094	-0.097
-391.077	-33.745	0.093	-0.052
-390.063	-82.615	0.127	0.041
-389.048	72.020	-0.150	0.157
-388.033	126.780	-0.102	-0.130
-387.019	568.351	-0.064	-0.155
-386.004	-149.802	0.218	0.017
-384.990	800.000	0.041	-0.120
-383.975	800.000	-0.069	-0.230
-382.960	-47.844	-0.204	-0.099
-381.946	-75.842	-0.549	0.196
-380.931	-200.000	0.022	0.303
-379.917	214.188	-0.059	0.093
-378.902	415.053	0.078	0.166
-377.888	83.311	0.142	0.156
-376.873	544.748	0.138	-0.332
-375.858	-33.529	-0.196	0.109
-374.844	305.598	-0.111	-0.207
-373.829	-200.000	-0.043	0.250
-372.815	69.672	0.050	0.052
-371.800	780.766	0.102	-0.282
-370.785	575.256	-0.039	-0.095
-369.771	11.762	-0.137	0.106
-368.756	-124.262	-0.104	-0.016
-367.742	-78.243	0.185	-0.064
-366.727	44.385	-0.236	-0.218
-365.712	60.581	-0.178	0.178
-364.698	-56.435	-0.228	0.102
-363.683	-87.131	0.054	-0.016
-362.669	84.039	-0.136	0.149
-361.654	-112.979	0.426	0.085
-360.639	102.961	0.173	-0.204
-359.625	-200.000	0.007	-0.274
-358.610	732.302	0.052	0.141
-357.596	22.007	0.175	0.144
-356.581	98.333	0.131	0.152
-355.566	4.478	-0.241	0.178
-354.552	142.574	0.077	-0.103
-353.537	85.068	0.035	0.039
-352.523	435.032	0.101	0.221
-351.508	216.987	-0.140	-0.224
-350.493	800.000	0.066	0.282
-349.479	11.484	0.039	-0.030
-348.464	124.984	0.160	-0.202
-347.450	44.487	-0.124	-0.114
-346.435	511.633	-0.034	-0.080
-345.420	268.843	-0.072	-0.127
-344.406	-78.410	-0.141	0.049
-343.391	-158.699	0.224	-0.013
-342.377	-171.538	-0.258	0.009
-341.362	-200.000	-0.029	0.262
-340.348	-98.893	-0.102	0.026
-339.333	-97.703	0.373	0.097
-338.318	-126.437	-0.076	0.011
-337.304	-101.584	-0.002	-0.001
-336.289	-96.018	0.147	-0.039
-335.275	140.478	0.111	-0.147
-334.260	800.000	0.033	-0.136
-333.245	800.000	0.051	-0.207
-332.231	-33.491	0.130	0.072
-331.216	-200.000	0.061	-0.363
-330.202	-29.364	-0.146	-0.084
-329.187	611.123	-0.104	-0.260
-328.172	-8.705	-0.123	0.083
-327.158	800.000	0.074	0.206
-326.143	-168.749	0.255	-0.010
-325.129	9.197	0.117	0.089
-324.114	-96.640	0.139	-0.037
-323.099	259.648	0.113	0.195
-322.085	-158.176	0.136	0.008
-321.070	800.000	0.152	0.462
-320.056	-200.000	0.020	0.126
-319.041	-61.827	0.005	0.002
-318.026	206.719	0.177	-0.276
-317.012	-57.051	0.129	0.057
-315.997	578.303	-0.072	0.177
-314.983	-60.864	0.214	0.091
-313.968	540.443	-0.114	-0.273
-312.953	-108.055	-0.420	0.091
-311.939	-116.109	-0.244	0.046
-310.924	470.108	-0.101	0.229
-309.910	227.006	0.069	0.112
-308.895	800.000	0.030	-0.106
-307.880	-35.442	-0.197	-0.107
-306.866	-31.987	-0.280	0.157
-305.851	-79.418	0.168	0.057
-304.837	724.832	0.095	0.255
-303.822	-78.084	-0.122	0.042
-302.807	608.250	0.020	-0.050
-301.793	-12.507	-0.261	-0.171
-300.778	-200.000	-0.025	0.166
-299.764	182.805	0.109	0.162
-298.749	144.138	-0.096	-0.128
-297.735	103.441	0.200	-0.235
-296.720	-60.790	0.121	-0.051
-295.705	429.300	0.024	-0.052
-294.691	70.881	0.164	0.170
-293.676	-200.000	0.029	0.245
-292.662	-45.410	0.349	-0.174
-291.647	-200.000	0.031	-0.314
-290.632	-82.091	0.243	0.080
-289.618	362.921	-0.071	0.143
-288.603	352.637	-0.050	-0.099
-287.589	92.105	0.103	-0.117
-286.574	88.493	0.151	-0.168
-285.559	-200.000	0.007	0.142
-284.545	327.719	0.070	0.135
-283.530	155.053	0.102	-0.140
-282.516	-64.521	0.114	0.046
-281.501	-8.104	0.160	0.108
-280.486	15.545	0.139	-0.109
-279.472	-35.614	0.246	0.134
-278.457	-200.000	0.004	-0.117
-277.443	-200.000	0.055	-0.378
-276.428	-50.359	-0.259	-0.123
-275.413	174.368	-0.170	-0.247
-274.399	195.716	-0.133	-0.203
-273.384	-91.788	0.331	0.094
-272.370	354.012	-0.031	0.061
-271.355	183.112	-0.042	-0.062
-270.340	51.831	0.225	-0.214
-269.326	-77.995	0.305	-0.105
-268.311	79.940	0.069	0.074
-267.297	300.002	-0.180	0.333
-266.282	67.871	0.231	0.236
-265.267	137.270	0.088	-0.115
-264.253	151.609	-0.076	-0.104
-263.238	474.787	0.073	-0.165
-262.224	406.403	0.096	-0.202
-261.209	800.000	-0.036	-0.141
-260.195	148.655	-0.114	0.154
-259.180	158.491	0.140	0.194
-258.165	71.695	0.284	-0.296
-257.151	99.362	0.010	-0.011
-256.136	208.761	-0.033	0.052
-255.122	669.817	-0.032	0.082
-254.107	-57.770	-0.081	0.036
-253.092	800.000	-0.076	-0.272
-252.078	800.000	0.091	0.364
-251.063	800.000	-0.054	-0.229
-250.049	-79.508	0.264	0.089
-249.034	610.825	0.114	0.284
-248.019	59.493	-0.154	0.151
-247.005	800.000	0.031	0.125
-245.990	252.135	0.056	0.096
-244.976	-89.837	-0.260	-0.076
-243.961	-124.758	0.110	-0.017
-242.946	72.402	0.314	0.327
-241.932	-200.000	-0.029	-0.173
-240.917	-200.000	0.053	-0.275
-239.903	800.000	-0.059	-0.236
-238.888	-200.000	0.075	0.439
-237.873	-200.000	-0.022	0.128
-236.859	-7.679	-0.163	-0.110
-235.844	172.223	-0.101	0.146
-234.830	36.458	0.063	0.055
-233.815	-200.000	0.115	0.000
-232.800	267.477	-0.098	-0.171
-231.786	-200.000	0.015	-0.181
-230.771	455.191	0.026	0.057
-229.757	180.137	-0.159	-0.233
-228.742	652.866	-0.064	0.164
-227.727	-200.000	0.047	-0.244
-226.713	800.000	-0.045	-0.184
-225.698	-87.343	0.173	0.053
-224.684	-70.362	-0.394	-0.150
-223.669	-200.000	-0.002	-0.025
-222.655	-43.163	-0.180	0.091
-221.640	77.857	-0.168	0.179
-220.625	-135.350	-0.213	-0.025
-219.611	-200.000	-0.078	-0.384
-218.596	95.732	-0.153	-0.174
-217.582	-200.000	0.021	0.156
-216.567	387.256	0.185	0.382
-215.552	-135.586	-0.112	-0.013
-214.538	-200.000	0.020	-0.136
-213.523	378.754	0.020	-0.042
-212.509	-200.000	0.446	0.002
-211.494	-75.602	0.160	0.057
-210.479	-47.591	-0.350	-0.170
-209.465	800.000	-0.104	0.436
-208.450	-200.000	0.021	0.293
-207.436	-130.810	0.203	0.027
-206.421	-151.307	-0.062	-0.005
-205.406	-94.728	0.296	0.080
-204.392	-92.312	0.143	-0.040
-203.377	91.949	-0.178	0.200
-202.363	-59.368	-0.145	0.062
-201.348	142.690	0.189	0.251
-200.333	-140.466	-0.193	0.020
-199.319	113.646	0.185	0.225
-198.304	-60.448	0.077	0.033
-197.290	-72.036	-0.161	0.060
-196.275	-161.494	0.344	-0.018
-195.260	275.459	0.177	0.313
-194.246	489.342	-0.122	-0.279
-193.231	-26.017	0.071	-0.041
-192.217	-134.130	0.103	-0.013
-191.202	-129.113	-0.114	0.016
-190.187	-27.936	0.156	0.090
-189.173	800.000	-0.067	0.288
-188.158	24.357	0.189	0.156
-187.144	-145.378	-0.145	-0.013
-186.129	-21.188	0.109	-0.066
-185.114	800.000	0.090	0.283
-184.100	186.451	0.109	0.162
-183.085	-30.611	0.155	0.088
-182.071	800.000	0.018	-0.057
-181.056	800.000	0.018	-0.074
-180.042	-14.740	0.249	0.159
-179.027	87.281	-0.077	-0.085
-178.012	355.189	0.198	-0.392
-176.998	-200.000	-0.009	-0.150
-175.983	216.002	-0.199	0.316
-174.969	40.636	0.063	-0.057
-173.954	-200.000	-0.011	-0.098
-172.939	-11.309	-0.408	-0.268
-171.925	303.479	-0.073	0.134
-170.910	-14.815	0.057	0.037
-169.896	-72.258	0.265	-0.098
-168.881	-200.000	-0.004	0.446
-167.866	800.000	-0.075	0.287
-166.852	17.050	-0.147	-0.116
-165.837	-96.703	-0.104	-0.027
-164.823	-156.568	0.278	0.017
-163.808	324.045	0.065	-0.124
-162.793	-120.478	-0.047	0.008
-161.779	122.144	0.177	-0.221
-160.764	-72.919	0.185	-0.068
-159.750	4.194	0.180	-0.131
-158.735	472.980	-0.154	-0.347
-157.720	-86.835	-0.425	-0.130
-156.706	109.726	0.062	0.075
-155.691	-71.505	-0.179	-0.067
-154.677	150.375	-0.191	-0.259
-153.662	-40.563	0.117	0.060
-152.647	281.445	-0.087	0.155
-151.633	800.000	0.060	-0.188
-150.618	35.740	0.238	-0.209
-149.604	-53.437	-0.127	0.058
-148.589	233.167	0.169	-0.277
-147.574	-104.855	0.212	-0.048
-146.560	10.522	0.362	0.275
-145.545	-84.548	0.468	0.147
-144.531	-48.341	0.267	0.128
-143.516	800.000	0.042	0.138
-142.502	-200.000	-0.025	0.113
-141.487	237.985	0.048	0.079
-140.472	148.368	0.152	0.205
-139.458	-103.170	0.171	0.040
-138.443	-45.761	-0.256	-0.126
-137.429	673.495	0.091	0.236
-136.414	-21.163	0.348	-0.212
-135.399	-200.000	0.007	-0.456
-134.385	215.375	0.071	0.113
-133.370	269.245	-0.139	0.242
-132.356	800.000	0.071	-0.208
-131.341	-2.753	-0.210	-0.146
-130.326	756.879	0.121	-0.326
-129.312	16.297	0.136	-0.107
-128.297	-60.638	0.239	-0.101
-127.283	339.007	0.080	-0.154
-126.268	-200.000	-0.002	0.127
-125.253	-196.866	0.316	0.002
-124.239	50.943	-0.166	0.157
-123.224	111.105	0.104	0.124
-122.210	800.000	-0.055	0.180
-121.195	47.075	-0.239	0.221
-120.180	118.093	0.117	0.144
