DTS Sentinel unit serial number:	SN413079Multiplexer serial number:	ORYXHardware model number:	OX4-SRSoftware version number:	ORYX F/W v4.00 Oryx Data Collector v3.7.2.0data status	okinstallation	princeton_trtdifferential loss correction	single-endedforward channel	channel 2reverse channel	N/Adate	2019/09/17time	07:47:35forward acquisition time	60.00reverse acquisition time	0.00gamma	496.2192k internal	0.2334k external	0.2334temperature offset calibration	0.9977default loss term (dB/km)	0.3790temperature slope calibration	1.0000multiplexer offset coefficient	1.0000multiplexer slope coefficient	1.0000fibre end	0.00T internal ref (°C)	27.19T ext. ref 1 (°C)	0.12T ext. ref 2 (°C)	22.14length (m)	temperature (°C)	Stokes	anti-Stokes-747.200	-200.000	-0.028	-0.398
-746.185	30.891	0.150	-0.129
-745.171	-95.141	0.418	-0.113
-744.156	-24.688	-0.313	0.187
-743.142	-192.351	0.043	0.000
-742.127	800.000	-0.031	0.104
-741.112	800.000	0.075	-0.293
-740.098	-108.593	-0.292	-0.063
-739.083	143.631	0.031	0.042
-738.069	-87.561	0.363	0.110
-737.054	388.883	-0.137	-0.285
-736.039	-8.421	-0.511	-0.345
-735.025	122.433	0.078	-0.098
-734.010	190.490	-0.199	-0.301
-732.996	311.497	-0.257	-0.485
-731.981	-148.125	0.046	0.004
-730.966	-78.705	-0.299	0.103
-729.952	-73.953	-0.307	0.112
-728.937	-31.186	-0.164	-0.093
-727.923	563.019	0.095	-0.230
-726.908	123.231	-0.049	0.062
-725.894	-73.987	-0.052	0.019
-724.879	-200.000	-0.014	0.081
-723.864	-200.000	-0.181	0.000
-722.850	-14.073	0.198	-0.128
-721.835	-200.000	-0.013	-0.317
-720.821	-200.000	-0.001	0.081
-719.806	-62.788	0.133	-0.056
-718.791	51.712	-0.212	0.202
-717.777	-123.914	0.306	-0.048
-716.762	178.391	-0.092	-0.135
-715.748	180.544	-0.172	-0.253
-714.733	97.473	0.300	-0.346
-713.718	294.885	0.203	-0.372
-712.704	-200.000	-0.024	0.176
-711.689	-134.482	0.195	-0.024
-710.675	-200.000	-0.046	0.470
-709.660	-36.617	0.138	-0.074
-708.645	800.000	-0.019	0.056
-707.631	-124.270	0.150	-0.024
-706.616	34.632	-0.127	0.111
-705.602	19.210	0.298	-0.240
-704.587	800.000	0.016	-0.052
-703.572	-16.365	0.248	-0.158
-702.558	-200.000	-0.045	-0.688
-701.543	-200.000	0.005	-0.289
-700.529	800.000	0.025	-0.078
-699.514	35.262	0.270	0.238
-698.499	-99.507	0.191	-0.048
-697.485	-36.489	-0.186	-0.101
-696.470	21.744	0.017	0.014
-695.456	-200.000	0.021	-0.300
-694.441	-88.934	-0.697	-0.207
-693.426	-133.358	-0.076	0.010
-692.412	-200.000	-0.046	0.231
-691.397	-94.912	0.270	-0.073
-690.383	75.392	-0.183	0.194
-689.368	-69.314	0.058	0.022
-688.354	-49.510	0.202	0.096
-687.339	73.944	0.302	-0.318
-686.324	-156.793	0.181	-0.011
-685.310	104.577	0.046	0.055
-684.295	-151.410	-0.156	-0.012
-683.281	-33.329	-0.317	0.176
-682.266	565.311	0.024	-0.059
-681.251	641.003	0.072	0.183
-680.237	-94.185	0.324	-0.089
-679.222	-183.162	0.218	-0.004
-678.208	-134.666	-0.496	-0.061
-677.193	89.345	-0.166	0.186
-676.178	81.238	0.339	-0.367
-675.164	332.427	0.121	0.235
-674.149	800.000	0.106	-0.297
-673.135	11.494	-0.221	-0.169
-672.120	-27.086	-0.367	-0.214
-671.105	-200.000	-0.029	0.173
-670.091	-167.117	-0.045	-0.002
-669.076	-39.408	0.051	0.027
-668.062	-5.209	-0.212	-0.146
-667.047	-200.000	-0.018	0.218
-666.032	0.213	0.234	-0.168
-665.018	-200.000	-0.005	0.354
-664.003	148.846	-0.074	0.100
-662.989	-200.000	-0.003	-0.058
-661.974	282.018	-0.196	-0.352
-660.959	757.823	0.020	-0.055
-659.945	722.546	0.086	-0.229
-658.930	-10.296	0.247	0.164
-657.916	15.019	0.083	-0.065
-656.901	800.000	0.054	0.166
-655.886	800.000	0.016	-0.056
-654.872	73.009	-0.184	-0.192
-653.857	-109.008	0.158	0.034
-652.843	-154.468	-0.299	-0.020
-651.828	800.000	-0.107	-0.389
-650.814	-137.817	-0.184	-0.021
-649.799	54.994	-0.152	-0.147
-648.784	800.000	-0.060	0.180
-647.770	54.979	-0.328	0.318
-646.755	-151.682	0.157	-0.012
-645.741	384.244	-0.068	-0.139
-644.726	-154.958	0.072	0.005
-643.711	800.000	-0.046	-0.145
-642.697	198.938	0.208	-0.319
-641.682	-36.565	-0.180	-0.097
-640.668	14.629	0.177	0.139
-639.653	168.066	0.047	0.068
-638.638	-146.961	-0.240	-0.021
-637.624	153.245	0.115	0.158
-636.609	10.471	-0.091	0.069
-635.595	371.487	-0.139	0.283
-634.580	147.221	0.249	-0.335
-633.565	-120.089	0.303	0.052
-632.551	351.729	-0.082	0.163
-631.536	-200.000	-0.014	-0.119
-630.522	-200.000	0.036	0.370
-629.507	-153.216	0.299	-0.021
-628.492	88.715	0.121	-0.134
-627.478	-21.718	-0.062	0.038
-626.463	57.327	-0.219	-0.214
-625.449	27.643	0.175	-0.147
-624.434	76.892	0.229	0.243
-623.419	207.454	-0.130	0.203
-622.405	39.737	0.207	0.186
-621.390	630.048	-0.064	0.161
-620.376	-103.880	-0.310	0.072
-619.361	-43.903	0.156	-0.079
-618.346	-1.974	0.213	0.149
-617.332	-82.916	0.271	-0.088
-616.317	-69.018	0.396	-0.153
-615.303	-105.772	-0.364	0.082
-614.288	-68.142	0.045	0.017
-613.273	523.983	0.134	0.314
-612.259	-169.466	0.244	-0.009
-611.244	-110.054	-0.391	0.082
-610.230	-6.781	-0.249	-0.169
-609.215	738.580	-0.076	-0.203
-608.201	13.421	-0.046	-0.036
-607.186	-53.252	-0.211	-0.097
-606.171	613.149	-0.077	-0.191
-605.157	33.615	-0.099	-0.086
-604.142	152.932	-0.235	0.321
-603.128	800.000	-0.032	-0.102
-602.113	321.808	0.115	0.218
-601.098	800.000	-0.054	0.205
-600.084	-25.142	-0.180	0.107
-599.069	-50.038	0.268	0.127
-598.055	321.585	0.021	-0.039
-597.040	-200.000	0.035	0.357
-596.025	352.693	-0.025	0.050
-595.011	-10.833	-0.257	-0.170
-593.996	-58.781	0.349	-0.151
-592.982	-38.426	0.263	-0.139
-591.967	17.447	0.245	-0.194
-590.952	-200.000	0.034	-0.185
-589.938	-198.406	-0.130	-0.001
-588.923	-29.946	-0.291	0.166
-587.909	338.512	0.176	-0.342
-586.894	95.511	-0.030	-0.034
-585.879	-150.830	-0.147	-0.011
-584.865	32.776	0.343	-0.297
-583.850	233.182	0.120	-0.197
-582.836	-200.000	0.012	-0.459
-581.821	268.839	-0.093	0.163
-580.806	-32.324	-0.108	0.060
-579.792	-90.800	0.171	-0.049
-578.777	-200.000	-0.002	0.044
-577.763	-134.684	-0.169	0.020
-576.748	48.349	0.057	0.054
-575.733	286.228	-0.051	-0.092
-574.719	-103.232	0.382	0.090
-573.704	-36.248	-0.239	0.129
-572.690	-158.471	0.552	0.032
-571.675	-197.734	0.415	0.003
-570.661	-34.615	0.193	0.106
-569.646	-62.874	-0.102	0.042
-568.631	-81.766	0.206	0.067
-567.617	-200.000	0.019	0.265
-566.602	-200.000	0.019	-0.086
-565.588	-200.000	-0.023	-0.137
-564.573	756.236	-0.050	-0.135
-563.558	130.553	0.185	-0.236
-562.544	12.037	-0.108	-0.083
-561.529	-45.439	-0.189	0.093
-560.515	168.080	-0.121	0.172
-559.500	-116.028	0.275	-0.051
-558.485	353.212	0.181	-0.358
-557.471	184.503	-0.217	-0.320
-556.456	-133.225	0.430	-0.054
-555.442	100.000	-0.212	0.245
-554.427	-145.460	-0.277	-0.025
-553.412	-9.035	0.196	-0.131
-552.398	84.140	0.151	-0.164
-551.383	174.044	-0.125	-0.180
-550.369	-170.331	0.327	-0.011
-549.354	-200.000	0.025	0.272
-548.339	-200.000	0.026	0.200
-547.325	88.812	-0.109	-0.121
-546.310	40.405	0.080	0.072
-545.296	-200.000	0.039	-0.173
-544.281	-200.000	0.014	-0.411
-543.266	104.958	0.097	0.115
-542.252	800.000	0.017	0.049
-541.237	62.747	-0.188	0.188
-540.223	-136.896	-0.329	0.038
-539.208	800.000	0.037	-0.161
-538.193	134.274	-0.112	-0.145
-537.179	144.929	0.334	-0.445
-536.164	201.057	-0.191	-0.293
-535.150	-24.676	0.159	0.094
-534.135	-18.032	-0.296	0.185
-533.121	134.172	-0.261	0.337
-532.106	-114.696	-0.073	0.014
-531.091	-200.000	-0.041	-0.385
-530.077	-200.000	0.003	0.205
-529.062	-7.398	-0.313	-0.211
-528.048	20.173	0.435	-0.350
-527.033	77.625	-0.266	-0.282
-526.018	-130.238	0.370	-0.050
-525.004	-163.372	0.240	-0.011
-523.989	113.631	-0.231	0.280
-522.975	-50.710	0.303	0.142
-521.960	336.181	-0.058	0.113
-520.945	-124.045	0.214	0.034
-519.931	-92.200	-0.397	0.112
-518.916	-8.549	-0.198	-0.133
-517.902	14.894	0.296	0.231
-516.887	518.711	0.089	-0.207
-515.872	32.671	0.100	-0.087
-514.858	-19.190	-0.122	0.076
-513.843	8.976	0.181	0.136
-512.829	141.035	0.114	0.150
-511.814	800.000	-0.112	-0.336
-510.799	800.000	-0.031	-0.101
-509.785	-200.000	-0.110	-0.493
-508.770	171.766	0.111	-0.159
-507.756	372.039	-0.049	-0.099
-506.741	187.344	-0.199	0.295
-505.726	-57.925	0.334	0.145
-504.712	232.776	0.086	0.140
-503.697	-61.033	0.132	-0.056
-502.683	37.051	-0.376	-0.331
-501.668	-200.000	-0.031	-0.262
-500.653	-200.000	-0.042	0.387
-499.639	154.931	0.241	-0.329
-498.624	-200.000	0.031	0.291
-497.610	-92.494	0.291	-0.081
-496.595	800.000	0.038	0.123
-495.581	-174.329	0.130	-0.004
-494.566	35.715	0.054	0.047
-493.551	14.745	-0.297	0.231
-492.537	75.119	-0.092	-0.097
-491.522	-200.000	0.024	-0.279
-490.508	-109.167	0.322	-0.068
-489.493	-115.112	0.229	0.043
-488.478	-33.911	-0.055	-0.030
-487.464	800.000	-0.040	-0.160
-486.449	82.745	0.089	0.096
-485.435	506.664	0.136	-0.314
-484.420	-91.630	-0.180	-0.051
-483.405	0.207	0.016	-0.011
-482.391	800.000	-0.037	0.138
-481.376	250.806	-0.082	0.138
-480.362	-152.682	-0.260	0.018
-479.347	678.318	-0.137	0.354
-478.332	-71.092	-0.125	-0.047
-477.318	236.106	-0.145	0.239
-476.303	521.044	-0.123	0.288
-475.289	114.761	0.164	-0.199
-474.274	-121.787	0.125	-0.020
-473.259	51.289	-0.132	-0.124
-472.245	-54.484	-0.055	-0.025
-471.230	-41.422	0.141	0.072
-470.216	141.220	0.038	0.050
-469.201	800.000	0.070	-0.305
-468.186	800.000	0.074	-0.221
-467.172	-36.637	-0.051	0.027
-466.157	-136.167	0.140	-0.016
-465.143	800.000	-0.051	0.193
-464.128	278.635	-0.052	-0.092
-463.113	95.902	-0.168	0.190
-462.099	20.818	0.240	0.194
-461.084	-200.000	0.006	-0.035
-460.070	800.000	-0.095	-0.302
-459.055	706.979	-0.112	-0.294
-458.040	-134.303	0.318	-0.039
-457.026	57.179	0.152	0.147
-456.011	726.232	-0.068	0.180
-454.997	91.919	0.283	0.317
-453.982	-31.196	0.164	-0.092
-452.968	155.310	-0.233	0.319
-451.953	98.412	-0.053	-0.060
-450.938	112.815	-0.117	0.141
-449.924	-106.281	-0.356	-0.079
-448.909	-200.000	-0.057	0.284
-447.895	260.482	0.109	0.187
-446.880	60.749	-0.183	-0.180
-445.865	131.155	-0.182	-0.232
-444.851	472.519	0.053	-0.118
-443.836	-110.767	-0.093	0.019
-442.822	-200.000	-0.039	-0.178
-441.807	19.687	-0.473	0.378
-440.792	-15.538	-0.111	-0.070
-439.778	-55.327	0.313	0.140
-438.763	33.100	-0.153	0.131
-437.749	-200.000	-0.023	-0.335
-436.734	42.435	-0.154	-0.139
-435.719	800.000	0.051	0.198
-434.705	95.924	-0.078	-0.088
-433.690	-200.000	0.010	-0.085
-432.676	-27.680	-0.118	-0.068
-431.661	-200.000	-0.019	0.101
-430.646	-98.478	-0.226	-0.057
-429.632	235.385	-0.132	0.217
-428.617	205.805	0.170	0.262
-427.603	137.760	-0.084	0.109
-426.588	-163.100	-0.317	-0.015
-425.573	-200.000	-0.007	-0.055
-424.559	-96.976	-0.195	-0.051
-423.544	-178.296	-0.294	-0.007
-422.530	-15.284	-0.171	-0.109
-421.515	519.805	-0.116	0.270
-420.500	-152.840	-0.192	0.013
-419.486	-200.000	-0.023	-0.349
-418.471	12.360	0.114	0.087
-417.457	199.760	-0.110	-0.168
-416.442	-200.000	0.023	0.340
-415.428	-111.602	-0.067	0.014
-414.413	-167.015	-0.061	0.002
-413.398	375.772	-0.037	-0.075
-412.384	-200.000	-0.009	-0.172
-411.369	234.379	-0.117	0.192
-410.355	42.140	0.111	0.100
-409.340	303.525	0.178	0.327
-408.325	800.000	0.034	0.118
-407.311	-200.000	0.019	0.085
-406.296	245.035	-0.271	-0.452
-405.282	-200.000	0.068	-0.466
-404.267	210.116	-0.097	-0.151
-403.252	13.277	-0.138	-0.106
-402.238	-105.964	-0.045	-0.010
-401.223	-53.940	0.202	0.091
-400.209	-164.640	-0.125	0.006
-399.194	-41.671	0.261	0.133
-398.179	-124.908	-0.323	-0.049
-397.165	-200.000	-0.019	-0.194
-396.150	-58.233	0.023	0.010
-395.136	-32.775	-0.140	-0.077
-394.121	-102.516	0.092	-0.022
-393.106	-109.705	-0.408	0.085
-392.092	40.302	0.317	0.283
-391.077	669.180	-0.085	-0.217
-390.063	-53.024	0.167	0.076
-389.048	-113.173	-0.211	-0.041
-388.033	1.929	0.099	0.070
-387.019	-200.000	0.028	0.210
-386.004	-200.000	0.091	0.520
-384.990	33.001	0.039	-0.034
-383.975	800.000	0.079	-0.251
-382.960	-200.000	-0.019	0.162
-381.946	4.829	0.158	0.115
-380.931	800.000	-0.106	-0.313
-379.917	800.000	-0.054	-0.193
-378.902	-25.736	-0.334	-0.195
-377.888	140.357	-0.109	-0.143
-376.873	331.568	-0.127	0.242
-375.858	614.609	-0.063	0.157
-374.844	693.020	0.082	-0.213
-373.829	175.880	0.059	0.084
-372.815	800.000	-0.089	-0.307
-371.800	-75.654	-0.240	0.084
-370.785	-200.000	-0.002	0.077
-369.771	-106.122	-0.240	-0.053
-368.756	-10.502	0.379	-0.249
-367.742	224.613	-0.121	0.194
-366.727	459.683	0.049	-0.109
-365.712	136.661	-0.084	0.108
-364.698	27.512	-0.055	0.046
-363.683	340.878	0.212	-0.409
-362.669	-122.529	-0.114	0.018
-361.654	-200.000	-0.065	0.388
-360.639	64.631	0.124	-0.124
-359.625	-51.568	-0.071	0.033
-358.610	198.961	-0.170	-0.258
-357.596	-63.667	-0.215	-0.087
-356.581	52.696	-0.067	0.064
-355.566	-115.812	-0.104	-0.019
-354.552	-126.956	-0.129	-0.019
-353.537	-47.056	-0.296	-0.143
-352.523	800.000	0.048	-0.138
-351.508	-14.123	0.111	-0.071
-350.493	61.705	0.235	0.232
-349.479	-153.417	-0.326	-0.022
-348.464	78.130	-0.182	0.192
-347.450	-156.282	0.059	0.004
-346.435	-46.373	-0.110	0.054
-345.420	-149.673	-0.248	-0.019
-344.406	-152.127	0.287	-0.021
-343.391	-200.000	-0.010	-0.132
-342.377	800.000	-0.038	-0.156
-341.362	-23.466	0.126	0.075
-340.348	-10.640	-0.034	0.022
-339.333	-7.899	0.097	-0.065
-338.318	5.024	0.239	0.174
-337.304	32.275	0.138	0.118
-336.289	118.743	-0.067	-0.081
-335.275	800.000	0.066	0.187
-334.260	-200.000	0.082	0.359
-333.245	-57.982	-0.170	-0.073
-332.231	-118.309	0.318	0.056
-331.216	800.000	-0.071	-0.265
-330.202	800.000	0.074	0.213
-329.187	-107.266	0.305	0.066
-328.172	147.974	0.128	-0.171
-327.158	800.000	0.100	0.307
-326.143	93.118	-0.185	-0.206
-325.129	-200.000	0.011	-0.093
-324.114	-149.914	-0.229	-0.018
-323.099	28.112	-0.127	0.106
-322.085	-200.000	-0.291	-0.000
-321.070	-200.000	-0.306	0.001
-320.056	-200.000	0.021	0.242
-319.041	-200.000	0.030	-0.169
-318.026	384.952	-0.047	-0.096
-317.012	468.999	0.083	-0.184
-315.997	-176.078	0.046	-0.001
-314.983	35.774	0.298	-0.259
-313.968	182.853	-0.246	-0.359
-312.953	-200.000	-0.012	0.097
-311.939	19.102	-0.182	0.144
-310.924	751.922	0.114	0.303
-309.910	-152.656	0.388	0.027
-308.895	-42.920	-0.254	-0.127
-307.880	710.291	-0.125	0.326
-306.866	-200.000	-0.018	0.262
-305.851	-8.741	-0.176	0.117
-304.837	-12.915	-0.166	-0.107
-303.822	65.836	0.063	0.063
-302.807	321.099	0.040	0.076
-301.793	-65.008	0.304	0.121
-300.778	-175.000	0.252	0.007
-299.764	15.042	-0.181	-0.140
-298.749	-132.251	0.118	0.015
-297.735	-32.069	-0.206	-0.114
-296.720	800.000	-0.111	0.321
-295.705	-135.242	0.182	-0.022
-294.691	-200.000	0.096	0.434
-293.676	-13.000	-0.187	0.120
-292.662	217.512	0.052	-0.082
-291.647	352.042	0.145	-0.283
-290.632	495.665	0.093	0.211
-289.618	343.366	0.171	-0.331
-288.603	396.562	-0.106	-0.219
-287.589	209.054	0.068	-0.105
-286.574	-58.882	-0.152	0.065
-285.559	17.999	-0.063	-0.050
-284.545	-200.000	-0.040	-0.321
-283.530	408.055	0.190	-0.398
-282.516	491.304	-0.135	0.306
-281.501	-89.323	-0.090	0.026
-280.486	-70.049	-0.139	0.052
-279.472	800.000	0.076	0.213
-278.457	3.381	-0.108	-0.078
-277.443	-28.536	-0.258	0.146
-276.428	-110.042	-0.126	0.026
-275.413	-106.608	0.183	0.040
-274.399	-200.000	-0.020	0.336
-273.384	-88.153	0.275	0.081
-272.370	800.000	0.099	-0.330
-271.355	4.824	-0.103	-0.075
-270.340	290.474	0.142	0.254
-269.326	-195.229	-0.120	0.001
-268.311	-75.873	0.152	0.053
-267.297	-200.000	-0.062	0.289
-266.282	-200.000	0.030	-0.275
-265.267	757.377	0.023	0.060
-264.253	800.000	0.063	0.202
-263.238	534.527	-0.054	0.127
-262.224	800.000	0.072	0.197
-261.209	381.300	0.123	-0.249
-260.195	-45.918	0.103	-0.050
-259.180	-34.570	0.176	-0.095
-258.165	-58.482	-0.195	0.083
-257.151	800.000	-0.034	0.094
-256.136	-159.946	0.056	-0.003
-255.122	-27.012	0.152	0.088
-254.107	118.175	-0.115	-0.140
-253.092	-127.794	0.174	0.025
-252.078	-200.000	0.040	-0.322
-251.063	-200.000	0.002	-0.112
-250.049	555.873	-0.140	-0.333
-249.034	325.579	-0.060	0.113
-248.019	800.000	0.077	0.311
-247.005	190.073	0.131	-0.194
-245.990	-38.292	0.116	-0.060
-244.976	800.000	-0.094	-0.264
-243.961	14.741	0.334	-0.257
-242.946	-42.547	-0.086	0.043
-241.932	533.704	0.028	-0.067
-240.917	-200.000	-0.065	-0.313
-239.903	419.728	0.229	0.482
-238.888	800.000	0.038	0.138
-237.873	-147.546	-0.202	-0.017
-236.859	-200.000	-0.025	0.119
-235.844	800.000	0.082	-0.264
-234.830	186.326	-0.082	0.121
-233.815	314.610	0.101	0.187
-232.800	64.704	-0.155	0.154
-231.786	192.190	0.280	0.417
-230.771	800.000	0.146	0.439
-229.757	-200.000	-0.017	0.211
-228.742	-144.549	0.571	-0.052
-227.727	147.915	0.162	-0.215
-226.713	204.934	0.036	0.055
-225.698	-93.791	-0.260	0.070
-224.684	195.943	-0.189	-0.284
-223.669	39.541	-0.271	-0.240
-222.655	-63.260	-0.015	-0.006
-221.640	-157.804	0.126	0.007
-220.625	-188.312	0.059	0.001
-219.611	211.392	-0.060	0.092
-218.596	800.000	-0.073	0.228
-217.582	53.844	-0.233	0.221
-216.567	792.613	0.069	0.187
-215.552	229.127	0.004	0.006
-214.538	459.306	-0.166	0.365
-213.523	73.693	0.043	-0.045
-212.509	-131.292	-0.076	-0.010
-211.494	800.000	-0.083	0.334
-210.479	-115.385	-0.053	-0.010
-209.465	109.288	0.098	0.116
-208.450	-26.804	0.145	-0.084
-207.436	-54.799	-0.133	-0.059
-206.421	56.679	0.388	0.372
-205.406	800.000	-0.002	0.007
-204.392	-98.331	-0.041	-0.010
-203.377	-200.000	0.019	-0.175
-202.363	-200.000	-0.022	0.126
-201.348	121.695	0.147	-0.181
-200.333	525.002	0.094	0.218
-199.319	800.000	0.084	0.316
-198.304	-85.723	0.190	0.058
-197.290	257.267	-0.116	-0.197
-196.275	800.000	-0.076	-0.216
-195.260	-200.000	0.021	0.161
-194.246	310.175	-0.006	-0.011
-193.231	-200.000	-0.018	0.130
-192.217	77.468	0.222	-0.232
-191.202	59.935	-0.419	-0.407
-190.187	-152.179	0.048	0.003
-189.173	230.817	0.125	0.201
-188.158	107.136	0.117	0.136
-187.144	-200.000	-0.019	-0.142
-186.129	-118.996	-0.383	-0.066
-185.114	33.838	0.149	-0.127
-184.100	-92.491	0.300	0.083
-183.085	-97.700	0.286	-0.073
-182.071	9.093	-0.231	-0.171
-181.056	291.984	0.073	0.131
-180.042	-40.072	0.147	-0.076
-179.027	122.927	0.238	0.293
-178.012	26.099	0.067	0.055
-176.998	256.362	0.054	-0.092
-175.983	-105.473	-0.330	0.074
-174.969	223.441	0.108	-0.171
-173.954	-95.866	-0.087	-0.023
-172.939	-200.000	0.018	0.297
-171.925	-200.000	-0.002	-0.123
-170.910	-200.000	-0.007	0.264
-169.896	-200.000	0.018	-0.159
-168.881	230.873	0.218	-0.350
-167.866	54.789	0.098	0.093
-166.852	800.000	-0.092	-0.326
-165.837	-200.000	-0.008	0.135
-164.823	-200.000	0.042	-0.405
-163.808	-158.863	-0.037	0.002
-162.793	83.935	0.166	-0.178
-161.779	-200.000	0.037	0.360
-160.764	140.094	0.214	0.278
-159.750	-77.131	-0.332	0.114
-158.735	105.169	-0.292	-0.338
-157.720	447.043	-0.111	0.239
-156.706	800.000	0.061	0.212
-155.691	800.000	0.071	-0.202
-154.677	-200.000	-0.026	0.158
-153.662	-200.000	0.002	0.105
-152.647	234.296	-0.138	-0.224
-151.633	-200.000	0.071	-0.418
-150.618	115.077	0.078	0.094
-149.604	-1.351	0.275	-0.191
-148.589	-200.000	0.019	-0.225
-147.574	535.983	-0.056	-0.130
-146.560	186.688	-0.085	0.124
-145.545	-106.447	0.097	-0.021
-144.531	214.204	0.176	-0.273
-143.516	20.648	0.223	-0.177
-142.502	-178.411	-0.284	0.006
-141.487	260.652	0.030	-0.051
-140.472	193.889	-0.181	0.269
-139.458	45.495	-0.023	0.021
-138.443	-134.711	0.534	0.064
-137.429	9.213	-0.232	-0.172
-136.414	198.589	0.060	0.090
-135.399	318.625	0.107	0.199
-134.385	-199.233	-0.262	-0.001
-133.370	-167.482	0.144	-0.006
-132.356	4.653	0.219	-0.158
-131.341	-109.097	0.097	-0.020
-130.326	-43.068	-0.216	-0.108
-129.312	-102.749	-0.347	0.081
-128.297	-22.812	-0.011	-0.006
-127.283	41.644	0.135	-0.120
-126.268	800.000	0.032	-0.095
-125.253	-200.000	0.002	0.065
-124.239	-55.855	0.326	0.143
-123.224	-98.203	-0.191	0.048
-122.210	355.998	0.099	0.192
