DTS Sentinel unit serial number:	SN413079Multiplexer serial number:	ORYXHardware model number:	OX4-SRSoftware version number:	ORYX F/W v4.00 Oryx Data Collector v3.7.2.0data status	okinstallation	princeton_trtdifferential loss correction	single-endedforward channel	channel 2reverse channel	N/Adate	2019/09/12time	19:26:48forward acquisition time	15.00reverse acquisition time	0.00gamma	496.2192k internal	0.2326k external	0.2326temperature offset calibration	1.0146default loss term (dB/km)	0.3790temperature slope calibration	1.0000multiplexer offset coefficient	1.0000multiplexer slope coefficient	1.0000fibre end	0.00T internal ref (°C)	32.31T ext. ref 1 (°C)	3.32T ext. ref 2 (°C)	26.93length (m)	temperature (°C)	Stokes	anti-Stokes-747.200	-103.678	0.695	-0.164
-746.185	-65.414	-1.025	-0.416
-745.171	-200.000	0.056	-0.858
-744.156	85.678	-0.072	-0.080
-743.142	-200.000	-0.079	0.497
-742.127	-55.936	-0.391	-0.176
-741.112	-200.000	0.001	-0.296
-740.098	155.433	-0.167	0.231
-739.083	400.619	0.149	0.314
-738.069	-200.000	0.066	0.474
-737.054	541.066	0.121	0.290
-736.039	-200.000	-0.085	-1.168
-735.025	-137.617	0.915	-0.104
-734.010	-200.000	-0.128	-0.647
-732.996	800.000	0.050	0.159
-731.981	-200.000	0.137	1.222
-730.966	-200.000	0.008	-0.562
-729.952	161.370	-0.721	-1.016
-728.937	-200.000	-0.041	-0.501
-727.923	800.000	0.264	0.958
-726.908	800.000	0.123	-0.448
-725.894	358.895	0.486	-0.979
-724.879	-93.293	0.563	-0.158
-723.864	-47.526	-0.258	0.126
-722.850	118.657	-0.266	-0.330
-721.835	-2.738	0.415	0.292
-720.821	-137.057	-0.190	0.022
-719.806	306.978	-0.282	0.529
-718.791	505.331	-0.285	0.665
-717.777	-200.000	0.018	0.578
-716.762	800.000	0.450	-1.684
-715.748	800.000	-0.172	0.735
-714.733	-10.121	-0.543	0.364
-713.718	800.000	0.029	0.123
-712.704	-19.696	0.528	0.329
-711.689	643.973	-0.138	-0.354
-710.675	-200.000	-0.058	-0.382
-709.660	-115.158	0.143	-0.027
-708.645	-200.000	-0.074	-0.352
-707.631	800.000	-0.131	0.458
-706.616	263.318	0.073	0.128
-705.602	-187.100	-0.174	-0.002
-704.587	-9.353	-0.035	-0.024
-703.572	452.576	0.218	-0.486
-702.558	259.386	0.128	0.223
-701.543	106.867	-0.161	-0.192
-700.529	121.353	0.503	-0.630
-699.514	800.000	0.183	0.805
-698.499	-53.102	0.605	-0.280
-697.485	-156.313	-0.105	0.007
-696.470	235.556	0.210	-0.349
-695.456	-200.000	0.076	0.354
-694.441	-5.218	0.296	0.205
-693.426	-7.411	-0.646	0.441
-692.412	-17.731	0.275	-0.174
-691.397	274.407	0.238	-0.425
-690.383	-76.043	-0.241	0.086
-689.368	-27.070	-0.290	-0.170
-688.354	-200.000	-0.040	-0.309
-687.339	534.998	-0.238	0.567
-686.324	91.825	0.355	-0.402
-685.310	-200.000	0.054	-0.286
-684.295	170.163	0.200	-0.288
-683.281	-102.057	-0.991	0.240
-682.266	323.783	-0.213	-0.409
-681.251	304.815	-0.101	-0.188
-680.237	-47.701	-0.500	0.244
-679.222	-162.443	0.251	0.013
-678.208	52.342	-0.400	-0.384
-677.193	-200.000	0.017	0.406
-676.178	800.000	-0.170	0.596
-675.164	20.642	0.604	-0.492
-674.149	-76.585	-0.842	0.297
-673.135	-148.308	-0.573	0.047
-672.120	-200.000	-0.003	0.047
-671.105	800.000	-0.256	-1.103
-670.091	270.626	0.376	-0.665
-669.076	-10.561	0.197	0.131
-668.062	467.186	0.212	-0.478
-667.047	-19.398	-0.417	0.260
-666.032	-200.000	-0.124	0.625
-665.018	82.398	0.221	0.241
-664.003	-11.531	0.629	-0.416
-662.989	3.076	-0.197	0.144
-661.974	135.535	0.132	0.173
-660.959	-200.000	0.060	0.520
-659.945	-132.648	1.323	0.170
-658.930	23.413	0.321	-0.265
-657.916	348.216	-0.235	-0.465
-656.901	-88.017	0.663	-0.200
-655.886	188.954	0.287	-0.432
-654.872	-200.000	-0.020	0.473
-653.857	-179.836	0.164	0.004
-652.843	-200.000	0.277	-1.231
-651.828	-200.000	-0.002	-0.586
-650.814	-114.125	0.633	0.123
-649.799	-26.628	0.837	-0.492
-648.784	-52.476	0.138	0.064
-647.770	-68.477	-0.826	0.322
-646.755	80.750	-0.173	0.187
-645.741	-109.818	1.013	-0.214
-644.726	258.666	-0.595	1.030
-643.711	4.559	-0.208	-0.153
-642.697	-94.401	0.707	-0.194
-641.682	800.000	-0.098	0.388
-640.668	-1.881	0.185	0.130
-639.653	800.000	0.067	-0.286
-638.638	-137.650	-0.121	-0.014
-637.624	-10.428	0.363	0.241
-636.609	41.463	-0.124	0.113
-635.595	-35.015	-0.079	-0.043
-634.580	34.667	0.255	0.224
-633.565	-134.661	-0.347	0.042
-632.551	-157.939	-0.097	-0.006
-631.536	-200.000	-0.019	1.020
-630.522	-50.894	0.348	0.164
-629.507	-143.930	0.723	0.068
-628.492	-62.748	0.481	-0.200
-627.478	-58.512	-0.480	0.209
-626.463	-58.715	0.372	-0.162
-625.449	30.097	-0.146	-0.125
-624.434	217.951	0.360	-0.577
-623.419	113.984	-0.553	-0.675
-622.405	-158.454	-0.847	0.049
-621.390	-200.000	-0.035	-0.257
-620.376	70.963	-0.499	-0.519
-619.361	-200.000	-0.105	-0.500
-618.346	800.000	0.492	-1.404
-617.332	-64.583	0.966	-0.393
-616.317	-133.459	-0.335	0.042
-615.303	129.122	0.314	0.402
-614.288	-165.179	0.967	0.043
-613.273	-200.000	-0.183	-1.471
-612.259	-200.000	-0.156	-1.078
-611.244	-200.000	-0.102	0.000
-610.230	-200.000	0.065	-0.506
-609.215	161.051	0.414	-0.580
-608.201	455.230	0.011	-0.024
-607.186	-200.000	-0.078	0.375
-606.171	-168.223	-0.515	-0.020
-605.157	-20.045	0.782	-0.484
-604.142	-72.748	-0.405	0.150
-603.128	75.830	0.297	0.315
-602.113	-109.793	-0.589	0.124
-601.098	-102.551	-0.557	0.133
-600.084	-157.825	0.420	0.025
-599.069	162.913	-0.078	0.109
-598.055	-200.000	0.036	-0.237
-597.040	-45.439	0.864	0.429
-596.025	-29.437	-0.480	-0.275
-595.011	584.346	0.234	-0.575
-593.996	-32.269	0.476	0.267
-592.982	-200.000	0.220	0.001
-591.967	4.201	0.163	0.120
-590.952	-75.737	-0.904	-0.321
-589.938	-130.791	0.319	-0.043
-588.923	100.731	0.360	-0.419
-587.909	-92.010	-0.549	-0.156
-586.894	-17.335	0.109	0.069
-585.879	132.787	-0.266	-0.344
-584.865	-83.729	0.107	0.034
-583.850	-157.854	0.429	-0.025
-582.836	-183.341	0.259	0.005
-581.821	-144.460	0.427	-0.040
-580.806	-200.000	-0.019	-0.693
-579.792	127.906	-0.611	-0.778
-578.777	-36.627	-0.851	-0.458
-577.763	800.000	0.172	0.500
-576.748	-13.513	0.227	-0.147
-575.733	363.065	0.273	0.550
-574.719	-200.000	-0.118	0.615
-573.704	-95.067	-0.281	0.076
-572.690	-79.932	-0.067	0.023
-571.675	63.713	-0.516	-0.520
-570.661	125.803	-0.576	-0.728
-569.646	-182.230	-0.396	-0.007
-568.631	452.776	0.463	1.025
-567.617	58.642	0.406	0.399
-566.602	147.992	-0.323	-0.437
-565.588	-200.000	0.129	0.665
-564.573	-41.576	-0.315	-0.162
-563.558	263.361	0.454	0.789
-562.544	-130.069	-0.191	-0.026
-561.529	6.018	0.963	0.714
-560.515	-143.636	0.643	-0.061
-559.500	-200.000	-0.025	0.421
-558.485	-102.235	-0.352	0.085
-557.471	-106.895	-0.539	-0.120
-556.456	16.385	0.612	-0.484
-555.442	-105.486	-0.177	-0.040
-554.427	-200.000	-0.119	1.023
-553.412	-200.000	-0.049	-0.736
-552.398	64.830	0.440	0.445
-551.383	-200.000	0.029	-0.232
-550.369	95.128	-0.490	0.558
-549.354	-64.477	-0.455	0.185
-548.339	-62.206	0.440	0.184
-547.325	800.000	0.136	0.398
-546.310	339.630	-0.270	-0.526
-545.296	631.129	-0.305	0.773
-544.281	-40.242	-0.582	0.303
-543.266	-43.012	0.608	0.309
-542.252	-200.000	-0.030	-0.585
-541.237	6.825	-0.319	-0.238
-540.223	-98.278	-0.700	-0.180
-539.208	-105.766	-0.493	-0.111
-538.193	158.362	0.731	1.014
-537.179	118.161	0.231	0.285
-536.164	156.400	-0.402	0.555
-535.150	800.000	0.264	1.123
-534.135	-200.000	0.067	-0.415
-533.121	26.308	0.428	0.357
-532.106	-93.755	-0.446	0.123
-531.091	299.769	-0.125	0.230
-530.077	119.877	0.253	0.313
-529.062	-200.000	-0.089	-0.752
-528.048	-200.000	0.039	-0.217
-527.033	-200.000	0.063	0.277
-526.018	-164.839	0.900	0.040
-525.004	-117.083	0.760	0.139
-523.989	-32.081	0.446	0.250
-522.975	522.546	-0.067	0.157
-521.960	96.470	0.275	0.315
-520.945	-200.000	-0.046	0.272
-519.931	186.240	-0.157	0.233
-518.916	-141.207	0.222	-0.023
-517.902	-76.838	-1.025	0.358
-516.887	75.956	-0.316	0.334
-515.872	10.835	0.707	-0.539
-514.858	739.673	-0.457	-1.225
-513.843	-130.565	0.140	-0.019
-512.829	290.101	-0.210	-0.381
-511.814	269.223	0.320	0.561
-510.799	-48.580	0.459	0.220
-509.785	-96.333	-0.541	0.143
-508.770	-116.155	-0.283	0.053
-507.756	800.000	0.203	0.818
-506.741	-200.000	0.109	0.553
-505.726	-91.370	0.722	-0.206
-504.712	-47.144	-0.545	0.265
-503.697	-29.114	0.289	0.166
-502.683	-124.157	-0.359	0.056
-501.668	-82.312	0.300	0.097
-500.653	800.000	0.140	0.455
-499.639	7.384	1.207	0.901
-498.624	-104.651	-0.521	0.120
-497.610	-75.935	-1.127	-0.398
-496.595	318.247	-0.458	-0.866
-495.581	-200.000	-0.014	0.100
-494.566	-82.101	-0.244	0.079
-493.551	-38.553	-0.217	0.114
-492.537	800.000	-0.238	0.941
-491.522	-76.041	1.023	0.361
-490.508	40.086	0.371	0.333
-489.493	-94.211	-0.282	-0.077
-488.478	14.478	-0.383	-0.298
-487.464	70.330	0.365	-0.377
-486.449	202.985	-0.469	-0.724
-485.435	-30.772	-0.531	-0.300
-484.420	-17.009	0.237	0.150
-483.405	-200.000	0.071	-0.496
-482.391	-200.000	0.023	-0.483
-481.376	384.860	-0.289	-0.595
-480.362	10.760	0.580	-0.441
-479.347	775.351	-0.216	0.587
-478.332	42.252	-0.506	0.459
-477.318	-98.018	0.308	-0.079
-476.303	-16.652	0.194	-0.123
-475.289	-189.290	-0.887	0.010
-474.274	-200.000	-0.036	0.343
-473.259	-116.088	0.681	0.126
-472.245	-67.928	-0.912	-0.355
-471.230	-49.138	-1.183	-0.564
-470.216	800.000	0.067	-0.290
-469.201	92.730	0.158	-0.178
-468.186	-114.892	0.032	0.006
-467.172	-200.000	-0.126	0.838
-466.157	-140.452	1.180	-0.123
-465.143	388.342	0.192	0.396
-464.128	-139.426	0.613	-0.066
-463.113	206.476	-0.441	0.685
-462.099	-51.566	-0.840	-0.391
-461.084	-161.488	0.713	0.037
-460.070	-125.059	0.502	0.077
-459.055	254.348	0.300	0.512
-458.040	108.303	-0.340	-0.405
-457.026	-200.000	0.033	-0.198
-456.011	800.000	-0.167	-0.598
-454.997	-93.582	-0.155	-0.043
-453.982	415.661	-0.163	-0.346
-452.968	-200.000	-0.051	-0.343
-451.953	43.587	-0.518	-0.472
-450.938	-200.000	-0.026	0.115
-449.924	-135.617	0.544	0.064
-448.909	132.606	-0.236	0.304
-447.895	30.970	0.213	0.182
-446.880	-94.306	-0.782	0.213
-445.865	-36.981	-0.422	0.225
-444.851	-136.360	-0.387	0.045
-443.836	230.436	0.065	0.105
-442.822	-95.722	0.233	-0.062
-441.807	344.872	0.303	-0.592
-440.792	136.207	-0.329	0.427
-439.778	-141.594	0.268	0.027
-438.763	221.016	0.668	-1.068
-437.749	-29.712	-0.645	0.367
-436.734	345.522	0.307	-0.600
-435.719	-19.105	-0.458	0.284
-434.705	409.708	-0.312	0.659
-433.690	138.857	-0.433	-0.566
-432.676	753.983	-0.007	-0.020
-431.661	17.482	-0.171	-0.136
-430.646	-200.000	-0.098	-0.440
-429.632	-109.554	0.394	0.083
-428.617	-167.600	0.834	-0.033
-427.603	-103.942	-0.563	0.131
-426.588	-200.000	-0.011	-0.247
-425.573	68.279	0.352	-0.359
-424.559	53.913	0.195	-0.187
-423.544	244.147	0.390	0.652
-422.530	-200.000	-0.018	0.640
-421.515	467.861	-0.274	-0.613
-420.500	-120.060	0.111	-0.019
-419.486	-26.637	-0.495	0.288
-418.471	-128.118	-0.229	0.033
-417.457	-29.701	0.373	0.212
-416.442	-100.137	-0.989	-0.245
-415.428	625.204	0.176	-0.441
-414.413	426.704	-0.068	0.146
-413.398	106.314	-0.157	-0.186
-412.384	-200.000	0.009	0.297
-411.369	-200.000	0.140	-0.808
-410.355	-200.000	0.107	0.574
-409.340	630.441	0.113	-0.285
-408.325	-200.000	-0.015	0.819
-407.311	800.000	0.189	-0.546
-406.296	-181.888	-0.365	-0.007
-405.282	800.000	0.259	0.848
-404.267	-89.369	-0.360	0.105
-403.252	-117.614	-0.639	0.115
-402.238	-135.236	0.158	0.019
-401.223	-61.810	0.093	0.039
-400.209	800.000	-0.111	-0.410
-399.194	295.976	-0.147	-0.269
-398.179	-200.000	0.077	-0.445
-397.165	-200.000	0.065	0.357
-396.150	-107.013	0.073	0.016
-395.136	329.479	0.023	0.043
-394.121	800.000	-0.211	0.648
-393.106	145.631	0.336	0.448
-392.092	135.199	0.227	0.293
-391.077	-155.086	-0.150	-0.010
-390.063	41.582	-0.679	0.611
-389.048	294.280	-0.322	0.585
-388.033	-200.000	0.028	-0.190
-387.019	73.944	-0.297	-0.310
-386.004	26.422	0.489	-0.407
-384.990	-84.563	-0.560	0.176
-383.975	340.442	-0.381	-0.739
-382.960	-165.128	0.287	0.013
-381.946	-50.838	-0.120	0.056
-380.931	-148.975	0.605	-0.048
-379.917	309.552	-0.224	0.416
-378.902	-28.139	0.808	0.464
-377.888	42.811	0.349	-0.316
-376.873	-43.105	0.271	-0.137
-375.858	-21.133	-0.231	0.141
-374.844	32.014	-0.975	-0.836
-373.829	-200.000	-0.042	0.219
-372.815	-200.000	0.035	-0.330
-371.800	313.124	0.100	0.188
-370.785	-91.639	0.665	0.188
-369.771	18.737	-0.354	0.281
-368.756	-200.000	-0.088	0.412
-367.742	-2.201	0.630	-0.439
-366.727	-98.569	-0.562	0.143
-365.712	21.638	0.232	-0.188
-364.698	359.716	-0.084	-0.166
-363.683	-23.565	0.218	0.130
-362.669	-115.228	-0.345	-0.065
-361.654	-44.059	0.389	-0.194
-360.639	126.798	0.140	0.176
-359.625	-38.353	0.707	0.372
-358.610	-200.000	0.027	-0.285
-357.596	-108.614	0.564	0.120
-356.581	103.269	0.461	0.537
-355.566	246.820	-0.395	0.661
-354.552	800.000	0.085	0.336
-353.537	94.928	-0.599	0.677
-352.523	-200.000	0.001	-0.384
-351.508	-200.000	0.120	0.773
-350.493	-168.408	1.102	0.042
-349.479	-200.000	0.167	-1.081
-348.464	-66.994	0.330	-0.129
-347.450	-12.609	0.526	-0.341
-346.435	24.546	-0.115	0.095
-345.420	228.111	-0.501	0.810
-344.406	537.393	0.128	0.301
-343.391	2.663	0.576	-0.414
-342.377	-27.767	0.367	-0.211
-341.362	-55.457	0.709	-0.316
-340.348	-200.000	0.012	0.548
-339.333	-200.000	1.369	0.002
-338.318	139.659	0.952	-1.244
-337.304	-95.321	-1.085	0.290
-336.289	-185.652	0.182	0.003
-335.275	454.066	0.365	-0.803
-334.260	-84.396	-0.449	-0.141
-333.245	285.540	0.128	-0.229
-332.231	33.830	0.443	0.382
-331.216	11.548	0.861	-0.655
-330.202	-99.744	-0.681	0.169
-329.187	-135.709	-0.563	0.066
-328.172	162.659	0.261	-0.363
-327.158	-200.000	-0.044	-0.557
-326.143	-125.225	0.305	-0.046
-325.129	-200.000	-0.030	-1.036
-324.114	248.068	0.426	0.714
-323.099	82.020	-0.415	0.446
-322.085	-200.000	0.010	-0.372
-321.070	-16.634	-0.463	-0.291
-320.056	-25.837	0.947	-0.553
-319.041	70.404	-0.444	0.455
-318.026	118.336	0.218	0.266
-317.012	-90.788	-0.425	-0.122
-315.997	-79.154	-0.203	0.068
-314.983	377.376	-0.422	-0.856
-313.968	133.464	-0.103	-0.132
-312.953	-0.297	0.452	-0.318
-311.939	-200.000	0.272	1.402
-310.924	-200.000	-0.040	0.361
-309.910	-143.167	0.738	-0.071
-308.895	800.000	0.070	-0.236
-307.880	-129.695	1.009	0.138
-306.866	590.819	-0.452	-1.106
-305.851	27.245	0.423	-0.352
-304.837	-200.000	-0.043	-0.391
-303.822	75.348	-0.314	0.328
-302.807	-52.822	0.858	0.392
-301.793	231.620	0.175	0.284
-300.778	138.572	-0.292	0.380
-299.764	769.172	0.346	0.933
-298.749	-162.507	-0.481	0.024
-297.735	-79.074	0.608	0.205
-296.720	-158.039	-0.182	-0.011
-295.705	-128.675	-1.105	-0.155
-294.691	140.819	-0.516	0.676
-293.676	-49.180	0.467	-0.221
-292.662	-200.000	0.040	0.329
-291.647	545.990	-0.212	0.502
-290.632	-85.725	-0.850	0.261
-289.618	62.964	0.365	-0.362
-288.603	800.000	0.198	0.693
-287.589	-30.908	0.401	0.224
-286.574	85.276	-0.644	-0.700
-285.559	12.795	-0.220	-0.168
-284.545	-116.348	-0.782	0.143
-283.530	-36.010	-0.821	0.439
-282.516	-200.000	-0.098	0.541
-281.501	800.000	-0.081	-0.251
-280.486	73.336	-0.414	-0.429
-279.472	108.773	0.424	-0.501
-278.457	800.000	-0.249	0.985
-277.443	-27.770	-0.286	-0.164
-276.428	-153.735	-0.828	-0.056
-275.413	-200.000	-0.061	-0.277
-274.399	-102.362	-0.414	0.098
-273.384	-93.925	0.180	0.049
-272.370	178.125	0.446	0.645
-271.355	-200.000	0.304	-1.346
-270.340	-200.000	0.006	-0.760
-269.326	800.000	0.083	-0.266
-268.311	321.935	0.204	-0.384
-267.297	-148.891	-0.571	0.046
-266.282	-100.850	0.894	0.218
-265.267	69.286	-0.356	-0.362
-264.253	131.496	0.278	-0.353
-263.238	-189.126	-0.420	-0.005
-262.224	-180.805	0.200	-0.004
-261.209	-200.000	-0.111	0.966
-260.195	5.138	0.322	0.235
-259.180	800.000	0.249	-0.821
-258.165	-200.000	-0.166	-0.794
-257.151	645.421	-0.120	-0.304
-256.136	800.000	-0.203	-0.871
-255.122	20.372	0.178	-0.142
-254.107	166.941	-0.348	-0.488
-253.092	81.858	-0.495	0.530
-252.078	-200.000	0.001	0.675
-251.063	73.833	-0.444	0.460
-250.049	-116.652	-0.361	-0.066
-249.034	508.851	-0.100	-0.231
-248.019	205.918	-0.228	-0.351
-247.005	800.000	-0.056	-0.240
-245.990	-39.598	-0.584	-0.302
-244.976	2.876	-0.325	0.234
-243.961	-200.000	0.171	-0.816
-242.946	-200.000	-0.047	0.335
-241.932	251.270	0.396	0.665
-240.917	13.309	0.124	0.095
-239.903	569.600	0.130	-0.312
-238.888	316.605	0.260	0.486
-237.873	19.715	-0.642	0.511
-236.859	-119.631	-0.980	-0.167
-235.844	-21.322	-0.535	0.323
-234.830	43.497	0.626	0.566
-233.815	157.666	0.301	0.413
-232.800	-150.018	-1.337	0.103
-231.786	-55.988	0.396	0.175
-230.771	-200.000	0.025	-0.605
-229.757	-200.000	0.154	-0.773
-228.742	-200.000	-0.092	0.419
-227.727	-15.711	-0.704	-0.444
-226.713	-111.197	-0.573	-0.116
-225.698	800.000	-0.119	-0.514
-224.684	800.000	-0.339	-1.049
-223.669	-54.474	0.862	-0.386
-222.655	-106.824	0.222	0.049
-221.640	-122.564	0.554	-0.089
-220.625	251.126	0.090	0.151
-219.611	14.073	-0.517	0.397
-218.596	-20.420	0.237	0.144
-217.582	-89.174	-0.279	0.081
-216.567	50.858	-0.505	-0.472
-215.552	93.114	0.307	0.342
-214.538	-200.000	0.011	0.132
-213.523	608.887	-0.304	0.750
-212.509	800.000	-0.027	-0.099
-211.494	-55.546	-0.515	0.228
-210.479	50.398	-0.379	0.354
-209.465	466.597	-0.313	-0.693
-208.450	-99.908	-0.523	-0.129
-207.436	366.323	0.269	-0.536
-206.421	132.141	0.637	-0.810
-205.406	-200.000	0.052	0.504
-204.392	4.666	-0.373	0.270
-203.377	276.644	-0.069	-0.122
-202.363	350.299	0.172	-0.336
-201.348	-113.693	0.352	-0.068
-200.333	-66.550	-0.232	0.091
-199.319	-67.493	-0.613	0.237
-198.304	-200.000	-0.016	0.162
-197.290	403.415	-0.238	-0.495
-196.275	-66.488	0.894	0.350
-195.260	375.981	0.318	0.641
-194.246	197.282	0.231	0.348
-193.231	-26.871	0.211	0.122
-192.217	-157.902	-0.304	-0.018
-191.202	39.475	-0.689	-0.609
-190.187	106.383	0.230	-0.269
-189.173	348.993	-0.155	0.302
-188.158	-200.000	-0.060	-0.663
-187.144	-28.615	0.342	0.194
-186.129	-88.836	-0.195	-0.057
-185.114	2.218	-0.144	0.103
-184.100	11.994	-0.081	-0.061
-183.085	800.000	0.091	-0.297
-182.071	-110.134	-0.476	-0.098
-181.056	-92.802	0.234	-0.065
-180.042	280.243	-0.384	0.676
-179.027	162.519	0.077	-0.106
-178.012	-107.485	-0.520	-0.112
-176.998	800.000	-0.068	0.246
-175.983	-200.000	0.098	0.531
-174.969	50.890	0.227	0.212
-173.954	11.453	0.623	0.471
-172.939	-200.000	-0.033	-0.147
-171.925	-72.198	0.587	-0.215
-170.910	-200.000	0.074	0.378
-169.896	-200.000	-0.042	-0.580
-168.881	-200.000	0.133	0.749
-167.866	-200.000	-0.046	-0.258
-166.852	-27.061	0.756	-0.435
-165.837	62.714	-0.118	0.116
-164.823	-59.294	0.294	-0.125
-163.808	-43.384	0.481	0.240
-162.793	64.806	-0.124	0.123
-161.779	233.444	-0.230	0.372
-160.764	335.275	0.133	0.255
-159.750	-41.636	0.142	0.072
-158.735	21.929	0.302	0.243
-157.720	124.105	0.578	0.715
-156.706	797.802	-0.125	-0.339
-155.691	168.588	-0.341	-0.479
-154.677	-102.799	0.599	-0.140
-153.662	-133.891	-0.500	0.061
-152.647	345.130	-0.199	-0.384
-151.633	356.357	0.218	0.427
-150.618	-102.506	0.938	-0.221
-149.604	-200.000	0.022	0.699
-148.589	-19.826	0.917	-0.558
-147.574	-39.475	0.408	-0.211
-146.560	271.668	0.338	-0.586
-145.545	-142.958	0.285	-0.027
-144.531	86.164	0.374	-0.406
-143.516	800.000	0.069	-0.227
-142.502	56.124	0.568	-0.543
-141.487	-200.000	0.094	-0.716
-140.472	-200.000	-0.010	-0.410
-139.458	-144.739	1.677	-0.152
-138.443	-107.402	1.150	0.249
-137.429	-200.000	0.092	0.494
-136.414	-89.065	0.808	0.235
-135.399	800.000	0.195	-0.787
-134.385	-147.362	-1.279	-0.107
-133.370	194.722	-0.428	0.640
-132.356	451.502	0.132	0.287
-131.341	-73.963	-0.287	-0.103
-130.326	-14.480	-0.710	0.450
-129.312	800.000	0.092	-0.352
-128.297	40.629	0.347	0.308
-127.283	203.268	0.307	0.467
-126.268	-90.459	0.847	0.242
-125.253	-188.960	0.613	0.007
-124.239	186.253	-0.260	0.380
-123.224	-8.835	-0.282	-0.186
-122.210	-137.242	1.015	-0.114
