DTS Sentinel unit serial number:	SN413079Multiplexer serial number:	ORYXHardware model number:	OX4-SRSoftware version number:	ORYX F/W v4.00 Oryx Data Collector v3.7.2.0data status	okinstallation	princeton_trtdifferential loss correction	single-endedforward channel	channel 2reverse channel	N/Adate	2019/09/13time	03:03:34forward acquisition time	60.00reverse acquisition time	0.00gamma	496.2192k internal	0.2335k external	0.2335temperature offset calibration	1.0189default loss term (dB/km)	0.3790temperature slope calibration	1.0000multiplexer offset coefficient	1.0000multiplexer slope coefficient	1.0000fibre end	0.00T internal ref (°C)	27.42T ext. ref 1 (°C)	4.07T ext. ref 2 (°C)	22.18length (m)	temperature (°C)	Stokes	anti-Stokes-747.200	318.032	0.205	-0.390
-746.185	647.155	-0.246	0.633
-745.171	-70.969	-0.308	0.116
-744.156	800.000	-0.044	0.190
-743.142	-200.000	0.021	-0.212
-742.127	28.655	-0.230	-0.196
-741.112	-125.175	-0.323	0.050
-740.098	-138.758	-0.066	-0.007
-739.083	-163.775	-0.247	-0.012
-738.069	160.161	0.215	0.301
-737.054	-41.305	0.049	-0.025
-736.039	-153.106	-0.521	0.037
-735.025	23.235	0.194	0.160
-734.010	800.000	-0.084	0.313
-732.996	-96.680	-0.193	-0.051
-731.981	-200.000	-0.024	-0.365
-730.966	-108.821	-0.142	0.030
-729.952	-22.483	-0.049	0.030
-728.937	-140.889	-0.197	-0.020
-727.923	107.685	-0.039	-0.047
-726.908	-163.723	0.061	-0.003
-725.894	138.527	-0.090	0.119
-724.879	-200.000	-0.139	0.000
-723.864	306.562	0.041	0.076
-722.850	-90.242	-0.227	-0.066
-721.835	-161.807	0.093	-0.005
-720.821	-52.964	-0.202	-0.093
-719.806	264.879	-0.148	-0.258
-718.791	113.656	0.268	-0.326
-717.777	800.000	-0.072	0.269
-716.762	-41.983	0.151	-0.078
-715.748	724.450	-0.062	0.166
-714.733	-200.000	-0.014	-0.079
-713.718	-26.247	-0.211	-0.124
-712.704	-35.927	0.110	-0.060
-711.689	226.490	0.060	-0.098
-710.675	103.235	0.234	0.275
-709.660	-200.000	0.053	0.296
-708.645	49.161	0.096	0.090
-707.631	173.990	0.162	0.235
-706.616	40.838	-0.221	-0.200
-705.602	300.267	0.103	-0.190
-704.587	9.809	0.267	-0.203
-703.572	-92.726	0.132	0.037
-702.558	-200.000	0.002	0.182
-701.543	-200.000	0.042	-0.229
-700.529	501.932	0.065	-0.152
-699.514	-200.000	-0.002	-0.139
-698.499	100.100	0.119	0.139
-697.485	158.553	-0.221	-0.308
-696.470	246.908	-0.068	-0.115
-695.456	-200.000	-0.035	-0.212
-694.441	41.555	0.175	-0.159
-693.426	28.534	0.140	0.119
-692.412	-27.473	0.128	0.074
-691.397	-118.294	-0.096	0.017
-690.383	-139.695	-0.113	-0.012
-689.368	-116.659	0.099	-0.018
-688.354	-124.046	0.084	0.013
-687.339	-147.783	0.245	0.021
-686.324	-92.807	0.039	0.011
-685.310	-136.860	-0.222	-0.026
-684.295	-134.793	0.149	0.018
-683.281	-200.000	0.046	-0.398
-682.266	-76.299	0.113	-0.040
-681.251	-25.250	-0.299	-0.178
-680.237	-101.197	0.201	-0.049
-679.222	181.037	-0.109	-0.161
-678.208	-121.044	0.138	-0.023
-677.193	127.298	0.176	-0.224
-676.178	-29.606	-0.303	-0.174
-675.164	314.640	-0.055	0.103
-674.149	-169.599	-0.218	-0.008
-673.135	-9.779	-0.109	-0.073
-672.120	287.990	0.174	-0.315
-671.105	41.890	0.146	0.133
-670.091	-96.790	0.232	-0.061
-669.076	295.174	-0.153	-0.281
-668.062	348.215	-0.048	-0.095
-667.047	49.457	0.150	-0.141
-666.032	42.836	-0.159	0.145
-665.018	204.276	-0.110	-0.171
-664.003	103.814	-0.082	-0.096
-662.989	800.000	0.079	0.238
-661.974	-57.834	0.293	-0.128
-660.959	110.638	0.134	-0.161
-659.945	800.000	0.008	-0.030
-658.930	-93.785	-0.321	-0.089
-657.916	245.242	0.137	0.231
-656.901	-160.361	0.240	-0.013
-655.886	50.402	0.110	0.104
-654.872	544.981	0.101	-0.241
-653.857	34.759	0.150	-0.131
-652.843	-98.851	-0.199	-0.051
-651.828	-149.294	-0.369	0.029
-650.814	8.212	-0.132	0.099
-649.799	800.000	-0.051	-0.148
-648.784	800.000	0.091	-0.295
-647.770	146.743	0.055	0.075
-646.755	-141.951	-0.082	-0.008
-645.741	282.450	-0.153	0.275
-644.726	241.930	0.191	-0.319
-643.711	-109.576	-0.241	-0.051
-642.697	218.451	0.118	0.189
-641.682	-54.250	-0.506	-0.230
-640.668	800.000	-0.064	0.271
-639.653	216.655	-0.122	0.194
-638.638	-64.797	-0.110	0.044
-637.624	12.604	0.111	0.085
-636.609	-10.157	-0.289	-0.192
-635.595	-148.991	-0.032	-0.003
-634.580	800.000	-0.104	-0.322
-633.565	72.514	-0.198	-0.206
-632.551	508.259	0.085	0.198
-631.536	-129.843	-0.282	-0.039
-630.522	-200.000	-0.028	0.240
-629.507	800.000	-0.067	-0.190
-628.492	-17.337	0.110	-0.069
-627.478	63.823	-0.078	-0.079
-626.463	-51.727	-0.049	0.023
-625.449	140.370	0.114	-0.150
-624.434	-200.000	0.037	0.202
-623.419	-32.423	-0.262	-0.146
-622.405	213.085	-0.202	-0.319
-621.390	301.177	0.016	-0.030
-620.376	-200.000	-0.027	0.426
-619.361	-200.000	0.023	-0.155
-618.346	366.084	-0.055	-0.112
-617.332	623.784	0.067	-0.169
-616.317	127.531	0.041	-0.053
-615.303	-94.734	-0.054	-0.015
-614.288	447.934	-0.156	-0.344
-613.273	212.415	-0.202	0.319
-612.259	97.227	0.203	-0.233
-611.244	-161.733	0.077	-0.004
-610.230	262.302	-0.039	-0.068
-609.215	228.432	-0.139	0.226
-608.201	-200.000	0.006	-0.242
-607.186	-200.000	0.002	-0.107
-606.171	575.703	-0.097	-0.236
-605.157	800.000	0.077	0.231
-604.142	62.374	-0.086	0.086
-603.128	225.352	-0.153	-0.248
-602.113	500.617	0.107	0.247
-601.098	57.434	-0.057	-0.056
-600.084	800.000	0.102	-0.349
-599.069	225.533	0.178	0.289
-598.055	400.861	-0.095	-0.199
-597.040	800.000	-0.047	0.146
-596.025	-200.000	-0.033	0.282
-595.011	-135.422	-0.229	-0.027
-593.996	113.828	-0.094	-0.114
-592.982	156.884	0.121	-0.167
-591.967	-110.930	0.408	-0.084
-590.952	182.122	0.101	-0.149
-589.938	-167.956	-0.121	0.005
-588.923	-200.000	0.030	-0.203
-587.909	-4.030	-0.178	0.123
-586.894	202.918	0.133	-0.205
-585.879	231.499	0.216	0.353
-584.865	150.442	-0.125	-0.169
-583.850	105.685	0.103	-0.121
-582.836	-95.926	-0.150	-0.040
-581.821	800.000	-0.058	-0.163
-580.806	14.650	-0.229	0.178
-579.792	9.978	0.102	0.078
-578.777	-62.865	0.027	0.011
-577.763	-200.000	0.014	0.137
-576.748	-173.810	0.128	0.004
-575.733	52.527	-0.371	0.354
-574.719	13.608	-0.073	-0.057
-573.704	688.968	-0.087	0.227
-572.690	800.000	-0.051	0.153
-571.675	-200.000	0.023	0.270
-570.661	129.197	-0.078	0.099
-569.646	-80.794	0.220	0.073
-568.631	-51.176	0.186	-0.087
-567.617	-200.000	-0.005	-0.138
-566.602	-133.165	0.125	-0.016
-565.588	-98.619	-0.250	0.064
-564.573	-200.000	-0.000	-0.060
-563.558	44.368	-0.156	0.143
-562.544	-200.000	0.031	-0.183
-561.529	-62.685	0.181	0.075
-560.515	-130.869	0.076	-0.010
-559.500	365.440	-0.102	0.204
-558.485	-95.292	-0.223	0.060
-557.471	140.430	0.042	-0.056
-556.456	800.000	0.069	-0.289
-555.442	117.792	0.162	-0.199
-554.427	-75.136	-0.201	-0.072
-553.412	49.430	-0.166	-0.156
-552.398	-180.793	-0.120	-0.002
-551.383	105.245	0.057	0.067
-550.369	106.988	-0.092	-0.109
-549.354	-200.000	-0.391	0.001
-548.339	-88.997	0.420	-0.124
-547.325	50.676	0.176	-0.166
-546.310	-111.733	-0.174	-0.035
-545.296	-89.865	0.348	-0.101
-544.281	-200.000	0.055	0.263
-543.266	-200.000	-0.066	0.493
-542.252	146.581	0.055	0.073
-541.237	-200.000	0.027	-0.254
-540.223	-200.000	-0.035	-0.348
-539.208	-200.000	-0.041	0.281
-538.193	-200.000	0.024	0.118
-537.179	542.437	-0.045	-0.108
-536.164	9.561	-0.266	-0.201
-535.150	-164.439	0.340	-0.015
-534.135	101.771	0.146	-0.170
-533.121	-5.305	-0.112	-0.077
-532.106	-92.312	0.070	-0.020
-531.091	80.858	-0.097	0.104
-530.077	59.646	-0.072	-0.071
-529.062	-3.217	0.235	-0.163
-528.048	-200.000	-0.004	0.027
-527.033	-64.112	0.070	0.028
-526.018	481.404	0.114	0.258
-525.004	-16.263	-0.210	-0.133
-523.989	712.039	0.042	-0.112
-522.975	-78.009	0.127	-0.044
-521.960	800.000	0.067	0.247
-520.945	-200.000	-0.007	-0.106
-519.931	-138.166	-0.218	0.024
-518.916	417.109	0.052	-0.110
-517.902	23.102	-0.198	0.162
-516.887	-52.899	0.037	-0.017
-515.872	-104.285	0.274	0.063
-514.858	-94.025	0.356	-0.097
-513.843	147.870	0.225	-0.302
-512.829	20.933	-0.169	-0.137
-511.814	-200.000	0.013	0.272
-510.799	-28.772	0.239	0.137
-509.785	420.957	0.044	-0.094
-508.770	-49.758	0.194	0.092
-507.756	58.899	0.118	-0.115
-506.741	341.249	-0.060	0.117
-505.726	-1.600	-0.142	0.099
-504.712	-109.788	-0.052	0.011
-503.697	68.963	0.093	0.096
-502.683	-168.440	-0.393	-0.015
-501.668	-200.000	0.085	-0.403
-500.653	-155.087	-0.232	0.015
-499.639	116.782	-0.134	0.163
-498.624	-200.000	0.055	-0.273
-497.610	-111.992	-0.246	0.049
-496.595	800.000	0.008	-0.029
-495.581	600.873	-0.119	0.293
-494.566	442.883	0.020	-0.044
-493.551	-54.095	-0.059	-0.027
-492.537	119.845	-0.167	-0.206
-491.522	83.533	0.083	-0.090
-490.508	156.842	0.124	0.170
-489.493	578.162	-0.183	-0.446
-488.478	-200.000	-0.003	0.103
-487.464	-126.061	-0.093	-0.014
-486.449	3.587	-0.362	-0.263
-485.435	-137.898	-0.300	0.033
-484.420	-57.049	-0.466	0.204
-483.405	142.554	0.163	-0.215
-482.391	129.223	0.126	-0.160
-481.376	800.000	0.070	0.196
-480.362	123.432	0.172	0.215
-479.347	49.673	-0.027	-0.025
-478.332	122.417	-0.115	0.142
-477.318	-200.000	-0.025	0.272
-476.303	-132.848	-0.211	0.027
-475.289	-101.330	0.528	0.128
-474.274	-52.419	0.285	-0.131
-473.259	-20.859	-0.168	0.102
-472.245	39.189	-0.095	-0.085
-471.230	771.234	0.080	0.215
-470.216	800.000	-0.019	-0.074
-469.201	153.281	0.141	-0.192
-468.186	230.804	-0.049	0.079
-467.172	186.191	0.058	0.086
-466.157	-28.835	-0.243	-0.139
-465.143	252.146	0.147	0.249
-464.128	-88.656	0.352	-0.104
-463.113	-78.493	0.058	-0.020
-462.099	-200.000	-0.072	0.408
-461.084	0.440	0.248	0.176
-460.070	800.000	0.047	-0.189
-459.055	72.156	-0.175	0.181
-458.040	-148.693	-0.186	-0.015
-457.026	26.574	0.187	0.156
-456.011	-132.660	0.263	0.033
-454.997	-200.000	-0.094	-0.437
-453.982	171.494	-0.143	-0.205
-452.968	-200.000	0.021	0.260
-451.953	-107.150	-0.086	0.019
-450.938	78.772	-0.217	-0.231
-449.924	-129.517	0.091	-0.012
-448.909	-200.000	0.056	0.248
-447.895	38.821	-0.352	-0.312
-446.880	488.051	0.083	-0.188
-445.865	-94.905	0.086	-0.023
-444.851	-68.580	0.052	0.020
-443.836	800.000	-0.053	0.213
-442.822	-200.000	0.005	0.171
-441.807	800.000	0.062	-0.218
-440.792	-7.000	0.091	0.061
-439.778	-200.000	0.034	0.261
-438.763	-200.000	-0.017	-0.158
-437.749	-194.076	-0.166	-0.001
-436.734	-200.000	-0.081	0.000
-435.719	179.716	0.131	0.191
-434.705	-103.676	-0.259	0.060
-433.690	485.663	0.016	0.037
-432.676	68.935	-0.232	0.236
-431.661	-115.093	0.225	-0.042
-430.646	66.289	-0.140	-0.141
-429.632	-21.474	-0.280	0.170
-428.617	24.962	0.219	0.180
-427.603	-200.000	-0.024	-0.214
-426.588	128.587	-0.173	0.218
-425.573	800.000	-0.196	0.570
-424.559	800.000	-0.048	0.141
-423.544	74.918	0.225	-0.235
-422.530	695.355	0.069	-0.180
-421.515	-77.128	0.319	0.110
-420.500	296.775	0.054	-0.099
-419.486	-182.456	-0.026	-0.000
-418.471	12.369	-0.274	-0.209
-417.457	-84.779	0.149	-0.047
-416.442	-34.691	0.275	-0.149
-415.428	800.000	-0.034	-0.105
-414.413	800.000	-0.021	0.076
-413.398	800.000	-0.015	-0.060
-412.384	203.737	-0.270	-0.415
-411.369	-70.881	0.216	0.081
-410.355	-42.877	0.351	-0.177
-409.340	800.000	-0.049	-0.137
-408.325	-123.494	0.225	0.036
-407.311	650.782	0.099	0.253
-406.296	-200.000	-0.017	0.217
-405.282	5.987	-0.180	0.133
-404.267	95.579	-0.111	0.125
-403.252	-186.389	0.282	-0.004
-402.238	115.971	-0.074	0.090
-401.223	-200.000	-0.011	0.185
-400.209	-113.079	0.383	0.075
-399.194	-40.837	0.123	0.063
-398.179	543.112	-0.136	-0.321
-397.165	347.800	0.063	-0.122
-396.150	-79.401	0.148	-0.050
-395.136	476.370	-0.062	0.139
-394.121	-200.000	0.017	-0.119
-393.106	-154.917	-0.186	0.012
-392.092	167.241	0.183	-0.258
-391.077	-108.976	-0.107	0.023
-390.063	800.000	0.025	-0.083
-389.048	-15.784	-0.105	-0.066
-388.033	267.499	0.067	0.116
-387.019	-115.373	0.161	0.030
-386.004	-200.000	-0.006	0.483
-384.990	227.992	0.078	0.126
-383.975	-140.892	0.034	-0.003
-382.960	-154.153	-0.266	-0.018
-381.946	800.000	-0.055	-0.167
-380.931	138.831	-0.087	0.113
-379.917	3.184	-0.030	0.022
-378.902	99.402	0.132	-0.151
-377.888	-200.000	-0.003	0.018
-376.873	-200.000	0.025	0.221
-375.858	576.930	0.103	0.250
-374.844	105.592	0.112	-0.131
-373.829	-200.000	0.071	0.389
-372.815	604.548	0.169	0.417
-371.800	-32.937	0.132	0.073
-370.785	800.000	0.078	0.245
-369.771	-95.293	-0.302	0.080
-368.756	161.127	0.077	-0.106
-367.742	-99.408	-0.173	0.043
-366.727	147.852	-0.066	-0.088
-365.712	800.000	-0.093	0.336
-364.698	105.770	0.100	-0.117
-363.683	800.000	0.150	-0.549
-362.669	-139.081	0.274	-0.029
-361.654	-47.188	0.307	-0.148
-360.639	68.113	0.036	-0.037
-359.625	112.391	0.249	0.298
-358.610	-200.000	0.010	0.340
-357.596	-163.650	-0.138	0.006
-356.581	-65.531	-0.223	0.089
-355.566	-39.181	-0.375	0.195
-354.552	441.478	0.056	0.122
-353.537	35.717	0.058	0.050
-352.523	67.808	-0.112	0.113
-351.508	133.985	0.162	0.207
-350.493	800.000	-0.014	0.050
-349.479	-39.353	-0.226	0.117
-348.464	-200.000	-0.030	0.195
-347.450	339.372	-0.130	-0.251
-346.435	572.568	0.089	0.214
-345.420	659.292	-0.146	-0.371
-344.406	270.753	-0.108	-0.188
-343.391	-77.261	-0.191	0.066
-342.377	33.674	0.083	-0.072
-341.362	-200.000	-0.036	-0.173
-340.348	105.913	0.103	0.120
-339.333	89.691	-0.043	0.047
-338.318	456.325	-0.101	-0.222
-337.304	-172.034	-0.234	0.007
-336.289	-91.290	-0.236	-0.067
-335.275	475.083	-0.113	0.252
-334.260	-33.501	-0.296	-0.162
-333.245	-200.000	-0.004	0.255
-332.231	-37.079	0.040	0.021
-331.216	738.660	0.082	-0.217
-330.202	-134.541	-0.132	0.016
-329.187	129.981	0.061	-0.077
-328.172	-35.097	0.257	-0.139
-327.158	-200.000	0.115	-0.000
-326.143	-126.376	0.156	0.023
-325.129	-49.266	0.429	-0.202
-324.114	320.140	-0.150	-0.282
-323.099	-42.821	-0.173	0.087
-322.085	-33.217	-0.065	0.036
-321.070	-11.752	0.360	0.233
-320.056	-200.000	0.012	-0.066
-319.041	-200.000	0.004	-0.272
-318.026	89.050	-0.170	-0.187
-317.012	-122.037	0.275	-0.045
-315.997	-114.446	0.311	0.059
-314.983	-200.000	0.065	0.347
-313.968	-50.967	0.181	0.084
-312.953	-136.933	-0.067	0.008
-311.939	-92.369	0.210	-0.058
-310.924	26.619	0.474	-0.392
-309.910	-200.000	0.004	0.101
-308.895	245.444	-0.138	-0.229
-307.880	800.000	-0.154	-0.454
-306.866	-42.961	0.104	0.052
-305.851	81.664	0.085	-0.090
-304.837	800.000	-0.074	-0.221
-303.822	-83.888	-0.104	0.033
-302.807	-12.959	-0.012	0.008
-301.793	-140.027	0.169	0.018
-300.778	258.045	0.133	0.226
-299.764	176.422	-0.147	0.210
-298.749	-200.000	-0.010	0.055
-297.735	125.193	-0.008	0.010
-296.720	14.082	0.178	0.137
-295.705	155.204	-0.097	-0.132
-294.691	-43.113	-0.250	-0.125
-293.676	-26.687	-0.229	0.132
-292.662	32.397	0.147	-0.125
-291.647	-71.975	-0.344	-0.126
-290.632	-136.667	-0.047	-0.005
-289.618	800.000	0.008	-0.034
-288.603	-183.459	0.022	0.000
-287.589	26.671	0.253	-0.209
-286.574	-91.351	0.179	0.051
-285.559	800.000	-0.124	0.374
-284.545	637.621	-0.041	0.102
-283.530	509.670	0.047	-0.107
-282.516	-24.779	0.225	0.132
-281.501	210.972	-0.052	-0.081
-280.486	-200.000	0.057	-0.257
-279.472	80.359	-0.185	0.197
-278.457	409.384	0.142	-0.297
-277.443	-107.840	0.186	0.040
-276.428	-105.575	-0.230	0.051
-275.413	-145.592	0.268	0.024
-274.399	-200.000	-0.016	0.478
-273.384	-200.000	-0.012	0.072
-272.370	222.200	-0.109	-0.173
-271.355	-61.168	0.372	0.155
-270.340	-86.276	0.066	0.020
-269.326	-122.231	0.361	-0.058
-268.311	-100.632	-0.170	-0.041
-267.297	429.358	0.084	-0.180
-266.282	-200.000	-0.078	-0.418
-265.267	-200.000	-0.005	0.061
-264.253	-8.612	-0.097	0.064
-263.238	-36.969	-0.360	0.190
-262.224	-148.351	0.182	-0.015
-261.209	-129.357	0.076	-0.010
-260.195	-200.000	0.012	-0.160
-259.180	160.661	0.149	0.206
-258.165	800.000	0.045	0.150
-257.151	84.754	0.129	-0.139
-256.136	30.785	0.260	-0.220
-255.122	315.728	-0.101	0.188
-254.107	-111.339	0.253	-0.051
-253.092	-110.735	-0.240	0.049
-252.078	-80.353	-0.308	0.102
-251.063	-30.336	-0.111	-0.062
-250.049	800.000	-0.080	0.244
-249.034	-90.557	0.181	-0.052
-248.019	-110.464	-0.209	-0.043
-247.005	-11.497	0.281	0.182
-245.990	800.000	0.035	-0.129
-244.976	-102.540	-0.163	-0.038
-243.961	104.907	-0.177	-0.206
-242.946	376.332	0.153	-0.307
-241.932	649.154	-0.044	0.111
-240.917	161.802	-0.124	-0.171
-239.903	364.661	0.060	0.119
-238.888	230.418	0.245	0.395
-237.873	-105.932	-0.180	-0.040
-236.859	9.811	0.254	0.190
-235.844	-67.131	-0.119	-0.046
-234.830	31.227	-0.216	-0.182
-233.815	93.096	-0.218	0.243
-232.800	75.879	0.132	0.138
-231.786	224.266	-0.087	0.139
-230.771	31.416	-0.057	-0.048
-229.757	-177.036	-0.117	0.003
-228.742	-200.000	0.019	0.352
-227.727	-200.000	0.006	0.205
-226.713	147.591	0.193	-0.256
-225.698	337.272	0.086	-0.165
-224.684	-12.543	-0.199	-0.128
-223.669	26.238	-0.363	0.298
-222.655	800.000	0.064	0.211
-221.640	-55.292	0.418	-0.185
-220.625	-70.362	0.097	-0.036
-219.611	81.189	0.041	0.043
-218.596	-93.880	-0.288	-0.078
-217.582	-88.362	0.249	0.073
-216.567	-200.000	-0.003	0.080
-215.552	-65.476	0.253	-0.100
-214.538	-140.822	-0.212	0.021
-213.523	44.175	-0.142	-0.128
-212.509	168.116	-0.096	-0.135
-211.494	-200.000	0.015	0.198
-210.479	-200.000	-0.106	-0.559
-209.465	800.000	0.050	-0.136
-208.450	60.471	0.160	-0.156
-207.436	-200.000	-0.015	-0.091
-206.421	800.000	0.078	-0.243
-205.406	-200.000	0.047	-0.368
-204.392	-88.442	0.321	0.094
-203.377	407.747	0.061	0.127
-202.363	-200.000	0.010	-0.086
-201.348	-200.000	0.041	0.212
-200.333	-200.000	-0.021	0.132
-199.319	29.865	0.128	-0.107
-198.304	-200.000	0.032	0.291
-197.290	19.369	0.111	-0.088
-196.275	-18.198	-0.165	-0.101
-195.260	-155.955	-0.433	0.027
-194.246	-76.822	-0.194	-0.067
-193.231	-23.039	0.152	0.090
-192.217	-3.185	-0.108	-0.074
-191.202	-129.195	0.299	-0.041
-190.187	-200.000	0.004	-0.176
-189.173	-3.497	-0.168	0.115
-188.158	48.954	-0.176	0.162
-187.144	-30.026	0.383	-0.214
-186.129	280.002	0.216	-0.380
-185.114	34.498	-0.158	0.136
-184.100	-42.393	-0.172	0.086
-183.085	436.210	-0.135	0.288
-182.071	-36.878	0.129	-0.068
-181.056	-121.366	-0.325	0.053
-180.042	-150.903	0.262	-0.019
-179.027	-200.000	0.013	0.273
-178.012	800.000	-0.040	0.172
-176.998	-40.480	-0.116	-0.059
-175.983	665.459	-0.114	0.289
-174.969	-85.624	0.134	-0.041
-173.954	-24.004	-0.128	-0.075
-172.939	199.454	0.035	-0.053
-171.925	-200.000	0.036	0.206
-170.910	-91.260	0.117	-0.033
-169.896	-72.361	-0.178	-0.065
-168.881	775.365	-0.040	-0.108
-167.866	-58.364	0.087	0.037
-166.852	-200.000	0.026	0.220
-165.837	800.000	0.088	-0.281
-164.823	-99.279	0.519	0.129
-163.808	-200.000	0.021	0.405
-162.793	6.359	0.224	-0.164
-161.779	-80.643	-0.279	0.091
-160.764	-95.541	0.350	-0.092
-159.750	-89.902	-0.240	0.069
-158.735	-92.338	0.062	0.017
-157.720	800.000	0.125	-0.405
-156.706	-29.249	-0.103	0.058
-155.691	69.917	-0.047	-0.047
-154.677	-59.092	-0.128	-0.054
-153.662	-176.924	0.204	-0.005
-152.647	254.154	-0.240	0.403
-151.633	-200.000	-0.033	-0.309
-150.618	-83.833	-0.290	-0.091
-149.604	74.447	-0.140	-0.144
-148.589	-89.662	-0.284	0.082
-147.574	-87.923	-0.247	-0.073
-146.560	-90.244	-0.097	0.028
-145.545	-3.061	0.161	0.111
-144.531	-108.636	0.176	0.037
-143.516	53.375	-0.090	-0.085
-142.502	-59.933	0.292	-0.123
-141.487	-64.732	-0.263	0.105
-140.472	187.193	0.046	0.067
-139.458	37.480	-0.078	-0.068
-138.443	125.874	0.201	0.249
-137.429	800.000	0.024	0.091
-136.414	-200.000	0.463	0.002
-135.399	-170.802	-0.304	-0.010
-134.385	-113.981	0.131	-0.025
-133.370	-200.000	-0.007	0.408
-132.356	800.000	-0.035	0.141
-131.341	800.000	-0.092	-0.262
-130.326	360.575	-0.130	-0.255
-129.312	-200.000	-0.015	-0.136
-128.297	-200.000	0.006	0.138
-127.283	34.396	-0.094	-0.080
-126.268	425.223	0.093	0.196
-125.253	800.000	-0.091	0.260
-124.239	-200.000	-0.003	0.164
-123.224	175.134	0.180	-0.255
-122.210	-200.000	-0.010	0.110
