DTS Sentinel unit serial number:	SN413079Multiplexer serial number:	ORYXHardware model number:	OX4-SRSoftware version number:	ORYX F/W v4.00 Oryx Data Collector v3.7.2.0data status	okinstallation	princeton_trtdifferential loss correction	single-endedforward channel	channel 2reverse channel	N/Adate	2019/09/18time	10:23:34forward acquisition time	60.00reverse acquisition time	0.00gamma	496.2192k internal	0.2332k external	0.2332temperature offset calibration	0.9982default loss term (dB/km)	0.3790temperature slope calibration	1.0000multiplexer offset coefficient	1.0000multiplexer slope coefficient	1.0000fibre end	0.00T internal ref (°C)	28.16T ext. ref 1 (°C)	0.34T ext. ref 2 (°C)	24.73length (m)	temperature (°C)	Stokes	anti-Stokes-747.200	-62.408	-0.313	0.131
-746.185	-191.508	0.216	-0.002
-745.171	-64.531	-0.187	0.076
-744.156	9.945	-0.118	0.090
-743.142	-117.569	0.247	0.045
-742.127	-85.819	-0.214	-0.067
-741.112	-136.425	0.290	0.034
-740.098	-49.524	0.124	-0.059
-739.083	-28.380	-0.323	0.188
-738.069	237.281	-0.070	-0.117
-737.054	211.635	-0.167	0.265
-736.039	-38.446	-0.097	-0.051
-735.025	354.695	-0.044	-0.088
-734.010	-0.623	-0.312	-0.223
-732.996	19.471	-0.266	0.215
-731.981	-124.803	-0.544	0.085
-730.966	-130.025	-0.290	0.040
-729.952	-109.453	-0.292	-0.062
-728.937	-13.312	0.156	0.102
-727.923	99.634	-0.236	0.275
-726.908	-26.938	-0.071	-0.042
-725.894	-27.814	-0.255	0.149
-724.879	-200.000	0.003	-0.152
-723.864	-200.000	-0.002	0.134
-722.850	133.998	0.164	0.214
-721.835	-175.679	-0.155	0.004
-720.821	147.424	0.089	-0.121
-719.806	-200.000	0.046	-0.257
-718.791	-70.538	-0.258	0.098
-717.777	-123.524	-0.316	0.050
-716.762	-94.103	0.093	0.026
-715.748	21.562	0.100	-0.082
-714.733	-200.000	0.001	0.106
-713.718	-200.000	-0.041	-0.248
-712.704	731.100	-0.097	-0.260
-711.689	-200.000	-0.003	0.221
-710.675	-149.767	0.203	0.016
-709.660	128.034	-0.099	-0.126
-708.645	557.137	0.051	-0.124
-707.631	78.527	-0.231	0.248
-706.616	45.214	0.109	-0.101
-705.602	-24.657	-0.210	-0.125
-704.587	-173.191	0.434	0.013
-703.572	800.000	0.086	0.296
-702.558	-140.025	-0.317	-0.034
-701.543	-135.462	-0.135	-0.016
-700.529	-200.000	-0.017	-0.097
-699.514	-144.097	-0.356	-0.033
-698.499	201.044	0.163	-0.252
-697.485	-200.000	-0.046	-0.250
-696.470	-78.284	0.413	-0.142
-695.456	-89.105	0.302	0.090
-694.441	-9.780	-0.070	-0.047
-693.426	82.766	0.085	-0.093
-692.412	288.997	0.126	0.229
-691.397	-147.819	-0.393	0.033
-690.383	423.773	-0.055	0.119
-689.368	-17.256	0.188	-0.119
-688.354	275.794	0.072	0.128
-687.339	-114.158	-0.106	0.021
-686.324	131.595	0.071	0.092
-685.310	634.370	0.163	-0.415
-684.295	800.000	0.087	-0.321
-683.281	800.000	0.059	-0.175
-682.266	234.726	0.239	-0.396
-681.251	69.175	0.318	-0.328
-680.237	-200.000	-0.023	-0.194
-679.222	800.000	-0.080	0.256
-678.208	150.280	0.079	0.107
-677.193	-115.206	-0.193	0.037
-676.178	-20.622	0.164	-0.101
-675.164	-200.000	0.053	-0.236
-674.149	800.000	-0.016	0.058
-673.135	-149.401	0.160	0.013
-672.120	-72.714	0.292	-0.108
-671.105	800.000	0.101	0.282
-670.091	-200.000	-0.009	-0.168
-669.076	-37.249	-0.208	-0.111
-668.062	146.240	-0.184	0.247
-667.047	-62.345	0.170	-0.071
-666.032	-5.536	0.146	-0.100
-665.018	-200.000	0.005	-0.219
-664.003	-38.456	0.233	-0.123
-662.989	-200.000	-0.004	-0.084
-661.974	245.979	-0.011	0.019
-660.959	-85.552	-0.386	0.120
-659.945	74.336	-0.065	-0.068
-658.930	-33.200	-0.294	-0.163
-657.916	-200.000	0.014	0.105
-656.901	-200.000	-0.018	-0.121
-655.886	674.281	0.064	0.167
-654.872	-200.000	-0.032	-0.237
-653.857	-200.000	0.036	0.404
-652.843	-71.706	-0.197	-0.074
-651.828	-69.182	0.195	0.075
-650.814	-114.304	0.026	0.005
-649.799	222.971	0.225	-0.364
-648.784	97.998	0.220	0.254
-647.770	-36.425	-0.069	-0.038
-646.755	-200.000	0.019	-0.153
-645.741	160.447	0.155	0.217
-644.726	535.693	0.122	-0.291
-643.711	-200.000	-0.025	-0.216
-642.697	800.000	0.058	-0.165
-641.682	-124.685	-0.334	-0.052
-640.668	-157.734	-0.039	-0.002
-639.653	499.788	-0.037	-0.086
-638.638	-200.000	-0.009	-0.242
-637.624	-44.043	-0.075	-0.038
-636.609	188.583	0.121	0.181
-635.595	123.616	-0.032	-0.040
-634.580	2.517	-0.127	-0.092
-633.565	-87.812	0.105	0.032
-632.551	-194.295	0.370	0.003
-631.536	800.000	-0.046	0.150
-630.522	-51.877	-0.131	0.061
-629.507	74.095	-0.352	0.370
-628.492	800.000	0.019	0.067
-627.478	58.371	0.120	-0.118
-626.463	800.000	0.035	0.132
-625.449	800.000	-0.050	-0.147
-624.434	-200.000	0.006	-0.203
-623.419	11.416	0.129	-0.099
-622.405	255.123	-0.183	0.313
-621.390	-200.000	-0.015	-0.147
-620.376	800.000	-0.044	-0.152
-619.361	369.798	-0.112	-0.227
-618.346	-200.000	-0.029	0.180
-617.332	54.737	-0.115	-0.111
-616.317	-138.667	0.282	0.031
-615.303	286.596	0.031	0.055
-614.288	800.000	-0.049	0.141
-613.273	22.624	-0.142	-0.117
-612.259	174.209	0.128	-0.185
-611.244	-14.713	0.099	0.064
-610.230	35.030	-0.164	0.143
-609.215	-116.676	0.124	0.023
-608.201	-129.594	0.237	0.033
-607.186	800.000	0.101	-0.383
-606.171	101.224	-0.266	-0.310
-605.157	-200.000	0.012	0.305
-604.142	483.679	0.045	-0.103
-603.128	252.311	-0.102	-0.173
-602.113	69.547	0.093	0.096
-601.098	-30.296	-0.167	0.095
-600.084	-146.405	-0.336	0.029
-599.069	-200.000	-0.003	-0.057
-598.055	790.718	0.038	0.105
-597.040	-26.423	0.319	0.187
-596.025	115.522	-0.074	-0.090
-595.011	116.851	-0.090	0.111
-593.996	1.229	0.191	-0.137
-592.982	-90.252	0.421	0.122
-591.967	-144.926	-0.281	0.026
-590.952	166.849	-0.218	0.310
-589.938	59.453	-0.175	-0.172
-588.923	800.000	0.041	0.118
-587.909	-61.045	-0.259	0.109
-586.894	16.817	0.184	-0.146
-585.879	800.000	0.118	-0.464
-584.865	-200.000	0.018	-0.091
-583.850	46.572	-0.083	0.077
-582.836	800.000	-0.022	0.077
-581.821	800.000	0.011	-0.038
-580.806	773.083	-0.059	-0.162
-579.792	29.099	0.189	-0.160
-578.777	-69.021	0.237	-0.091
-577.763	289.985	-0.056	-0.101
-576.748	409.721	0.077	0.164
-575.733	352.165	0.195	-0.387
-574.719	63.234	-0.308	0.309
-573.704	800.000	-0.059	0.194
-572.690	-62.589	0.277	0.115
-571.675	-55.979	0.184	-0.082
-570.661	0.801	0.138	0.099
-569.646	-174.870	-0.268	-0.008
-568.631	41.569	-0.196	-0.177
-567.617	105.445	-0.107	0.127
-566.602	60.460	0.074	-0.073
-565.588	-92.053	-0.099	-0.028
-564.573	325.063	0.083	-0.159
-563.558	5.962	0.205	0.151
-562.544	-57.100	-0.083	0.036
-561.529	800.000	-0.083	-0.252
-560.515	800.000	0.057	-0.224
-559.500	-128.542	0.099	-0.014
-558.485	49.961	-0.150	0.141
-557.471	232.208	-0.142	0.233
-556.456	-83.668	0.255	0.081
-555.442	238.917	0.072	-0.119
-554.427	-200.000	0.022	0.147
-553.412	273.477	0.087	0.153
-552.398	16.432	0.184	0.145
-551.383	800.000	-0.022	-0.070
-550.369	529.401	0.109	-0.257
-549.354	-200.000	0.082	0.394
-548.339	800.000	-0.065	-0.242
-547.325	-15.378	-0.298	0.190
-546.310	-66.358	0.273	-0.108
-545.296	585.880	-0.108	-0.266
-544.281	-36.747	0.258	-0.138
-543.266	800.000	0.059	-0.212
-542.252	-200.000	-0.025	-0.275
-541.237	-160.400	-0.106	0.006
-540.223	800.000	-0.072	0.225
-539.208	-115.309	-0.407	-0.077
-538.193	-75.355	0.098	0.035
-537.179	-200.000	-0.012	-0.067
-536.164	389.018	-0.066	-0.137
-535.150	-81.663	0.581	-0.190
-534.135	-186.231	-0.368	-0.005
-533.121	-95.017	-0.108	-0.029
-532.106	286.972	0.167	0.302
-531.091	-200.000	0.017	-0.188
-530.077	400.281	0.078	0.162
-529.062	800.000	-0.077	0.287
-528.048	-71.265	-0.213	-0.080
-527.033	64.686	-0.207	0.208
-526.018	-117.740	-0.145	0.026
-525.004	800.000	0.030	0.116
-523.989	134.361	-0.290	0.375
-522.975	800.000	0.025	-0.087
-521.960	-90.986	-0.054	-0.015
-520.945	-125.952	-0.308	0.046
-519.931	-72.797	-0.178	0.065
-518.916	-144.065	0.226	0.021
-517.902	83.487	0.099	0.107
-516.887	58.166	-0.084	-0.082
-515.872	56.658	0.122	0.118
-514.858	101.826	-0.181	-0.210
-513.843	-82.708	-0.059	-0.019
-512.829	-21.244	-0.036	0.022
-511.814	-200.000	0.006	-0.037
-510.799	-200.000	0.011	-0.381
-509.785	120.850	0.139	0.172
-508.770	-200.000	-0.107	0.476
-507.756	13.226	0.279	-0.215
-506.741	-113.206	-0.310	-0.061
-505.726	-92.019	-0.250	-0.070
-504.712	96.435	0.081	-0.092
-503.697	-200.000	0.011	0.327
-502.683	257.883	-0.072	0.124
-501.668	-39.315	-0.181	-0.095
-500.653	-109.364	-0.059	-0.012
-499.639	267.475	-0.014	-0.024
-498.624	-200.000	0.026	0.322
-497.610	-200.000	0.007	-0.159
-496.595	-42.042	0.069	0.035
-495.581	-62.362	0.214	0.089
-494.566	-59.273	-0.045	0.019
-493.551	9.381	0.267	0.201
-492.537	-24.207	-0.267	0.159
-491.522	-200.000	0.017	0.142
-490.508	-149.720	0.291	-0.023
-489.493	-200.000	-0.014	0.157
-488.478	296.447	0.093	-0.170
-487.464	-48.794	-0.170	-0.081
-486.449	30.114	0.206	-0.175
-485.435	-200.000	0.024	-0.184
-484.420	-86.220	-0.187	0.057
-483.405	800.000	-0.089	-0.254
-482.391	800.000	-0.020	0.086
-481.376	-101.303	0.067	-0.016
-480.362	56.775	-0.216	0.210
-479.347	-14.626	-0.084	-0.054
-478.332	132.852	-0.085	-0.109
-477.318	-134.579	0.120	-0.015
-476.303	-171.900	0.257	0.008
-475.289	223.606	-0.080	0.129
-474.274	-41.207	-0.218	-0.112
-473.259	-166.765	-0.382	-0.016
-472.245	-200.000	-0.052	0.327
-471.230	-17.808	0.184	0.115
-470.216	-98.180	0.229	0.058
-469.201	535.681	-0.207	-0.488
-468.186	175.324	-0.029	0.042
-467.172	141.706	0.148	0.195
-466.157	-68.360	0.197	0.076
-465.143	-66.770	-0.312	0.123
-464.128	-38.871	-0.495	-0.260
-463.113	440.789	0.145	-0.316
-462.099	-200.000	-0.006	0.164
-461.084	24.524	-0.226	-0.186
-460.070	-59.049	-0.508	-0.218
-459.055	-200.000	0.025	-0.138
-458.040	-200.000	0.006	0.251
-457.026	90.147	0.268	0.298
-456.011	-200.000	-0.023	-0.105
-454.997	-168.580	0.399	-0.015
-453.982	44.720	0.188	0.172
-452.968	-200.000	-0.028	0.212
-451.953	-14.079	-0.230	-0.148
-450.938	-102.729	-0.170	-0.040
-449.924	76.763	0.091	0.096
-448.909	800.000	0.041	-0.136
-447.895	-78.968	-0.063	-0.021
-446.880	-25.604	0.100	0.059
-445.865	109.353	-0.047	-0.056
-444.851	-99.986	0.227	-0.056
-443.836	150.778	0.158	0.213
-442.822	-200.000	0.037	0.240
-441.807	650.917	0.040	-0.102
-440.792	120.585	0.206	-0.255
-439.778	101.418	0.355	-0.411
-438.763	-200.000	0.022	-0.294
-437.749	-108.196	-0.051	0.011
-436.734	-149.910	0.344	0.027
-435.719	800.000	0.035	-0.141
-434.705	52.701	-0.150	-0.142
-433.690	98.238	-0.116	-0.133
-432.676	-61.825	-0.219	-0.091
-431.661	-145.534	0.049	-0.004
-430.646	-68.320	-0.329	-0.127
-429.632	-80.914	-0.227	-0.075
-428.617	-101.103	-0.178	-0.043
-427.603	800.000	0.057	0.192
-426.588	231.924	-0.078	-0.128
-425.573	-57.218	0.240	0.105
-424.559	28.262	0.165	-0.139
-423.544	90.771	-0.165	-0.184
-422.530	-200.000	-0.016	0.428
-421.515	13.659	0.320	-0.247
-420.500	-200.000	0.036	0.172
-419.486	129.354	-0.095	0.120
-418.471	-142.792	-0.185	-0.018
-417.457	-149.246	0.330	0.026
-416.442	-143.049	-0.403	-0.039
-415.428	-200.000	0.004	0.315
-414.413	-0.116	-0.175	-0.124
-413.398	-59.839	0.345	0.146
-412.384	62.051	0.142	-0.140
-411.369	-115.915	0.230	-0.043
-410.355	-200.000	0.145	0.001
-409.340	800.000	0.019	0.075
-408.325	24.797	0.305	-0.251
-407.311	-200.000	0.042	0.208
-406.296	16.123	-0.229	-0.179
-405.282	-200.000	0.039	-0.406
-404.267	-200.000	-0.009	-0.409
-403.252	800.000	0.038	-0.109
-402.238	661.223	0.114	-0.291
-401.223	-200.000	-0.010	0.141
-400.209	-51.776	-0.347	0.160
-399.194	618.541	0.104	-0.258
-398.179	118.046	-0.277	0.339
-397.165	662.094	-0.177	0.453
-396.150	84.153	0.214	-0.232
-395.136	235.279	0.281	-0.461
-394.121	-200.000	-0.048	-0.264
-393.106	800.000	0.016	-0.045
-392.092	-80.487	-0.218	-0.072
-391.077	-200.000	0.036	-0.224
-390.063	-200.000	-0.001	0.094
-389.048	42.233	-0.214	-0.192
-388.033	800.000	0.064	0.237
-387.019	27.270	-0.043	0.036
-386.004	-200.000	0.033	0.151
-384.990	388.299	-0.085	-0.175
-383.975	229.405	0.072	-0.117
-382.960	800.000	0.030	0.103
-381.946	192.346	-0.155	-0.232
-380.931	542.319	0.187	-0.442
-379.917	277.775	0.068	0.119
-378.902	10.928	-0.132	0.100
-377.888	595.903	-0.128	0.315
-376.873	-200.000	0.001	-0.136
-375.858	-11.958	-0.098	0.064
-374.844	-118.345	-0.184	-0.032
-373.829	-158.538	-0.143	0.008
-372.815	77.170	-0.142	0.150
-371.800	-200.000	0.034	-0.330
-370.785	29.272	0.177	-0.149
-369.771	-28.087	0.174	0.100
-368.756	-91.828	-0.264	0.074
-367.742	-96.936	-0.159	0.041
-366.727	-200.000	-0.025	-0.185
-365.712	266.008	-0.058	0.101
-364.698	399.292	-0.186	0.386
-363.683	800.000	-0.071	0.245
-362.669	169.513	-0.178	0.252
-361.654	-73.042	-0.371	-0.135
-360.639	-69.780	0.063	-0.024
-359.625	93.154	0.203	-0.227
-358.610	170.050	-0.027	-0.038
-357.596	800.000	-0.041	-0.141
-356.581	89.818	0.294	0.325
-355.566	65.480	0.189	0.189
-354.552	-23.262	-0.482	-0.287
-353.537	20.221	0.192	-0.153
-352.523	437.258	0.031	0.068
-351.508	-200.000	0.016	-0.250
-350.493	-87.568	-0.144	0.043
-349.479	-86.067	0.266	0.081
-348.464	415.611	-0.100	-0.211
-347.450	-9.341	0.136	-0.090
-346.435	39.949	0.077	-0.069
-345.420	-200.000	-0.008	-0.237
-344.406	148.624	-0.157	-0.210
-343.391	-200.000	0.025	-0.176
-342.377	-32.541	0.330	-0.182
-341.362	356.829	-0.041	0.080
-340.348	-3.600	0.148	0.102
-339.333	-74.021	0.413	-0.148
-338.318	-103.666	-0.164	-0.038
-337.304	22.683	0.045	-0.036
-336.289	72.867	-0.105	-0.108
-335.275	-200.000	-0.001	0.354
-334.260	15.856	-0.079	0.061
-333.245	-34.795	-0.146	-0.079
-332.231	475.396	0.105	-0.235
-331.216	-66.547	-0.043	-0.017
-330.202	800.000	-0.032	-0.133
-329.187	-137.775	0.143	0.016
-328.172	401.144	-0.091	0.190
-327.158	-13.123	-0.163	-0.105
-326.143	209.776	-0.096	0.149
-325.129	286.659	0.151	0.270
-324.114	38.280	-0.142	0.125
-323.099	-102.215	0.328	0.078
-322.085	-49.492	0.310	-0.146
-321.070	267.464	-0.029	-0.050
-320.056	800.000	-0.090	-0.268
-319.041	176.052	0.197	-0.283
-318.026	203.844	-0.150	-0.229
-317.012	-200.000	0.005	-0.355
-315.997	-130.199	-0.348	0.047
-314.983	-68.362	-0.145	0.056
-313.968	-22.437	0.176	0.105
-312.953	-200.000	-0.022	0.169
-311.939	-21.064	-0.156	0.095
-310.924	-45.223	-0.416	0.204
-309.910	1.832	0.407	0.290
-308.895	4.334	-0.088	-0.064
-307.880	11.053	0.259	0.196
-306.866	-26.312	0.073	-0.043
-305.851	-86.035	-0.336	0.103
-304.837	-200.000	0.060	0.302
-303.822	-47.615	0.303	-0.146
-302.807	800.000	0.086	0.244
-301.793	-164.674	0.044	0.002
-300.778	800.000	0.106	0.309
-299.764	800.000	-0.063	-0.262
-298.749	13.828	0.187	0.144
-297.735	-96.726	-0.167	0.043
-296.720	185.041	-0.095	-0.140
-295.705	-200.000	0.061	0.475
-294.691	494.006	-0.123	0.279
-293.676	11.078	0.260	0.196
-292.662	738.100	-0.102	0.272
-291.647	-200.000	-0.023	0.146
-290.632	98.178	-0.063	-0.071
-289.618	800.000	0.085	-0.317
-288.603	-60.670	-0.090	0.038
-287.589	-110.891	0.274	-0.056
-286.574	321.008	-0.159	0.298
-285.559	-95.826	-0.207	0.054
-284.545	15.703	0.289	0.225
-283.530	26.648	-0.077	-0.064
-282.516	68.375	-0.041	0.041
-281.501	171.795	-0.114	-0.161
-280.486	-37.971	0.351	-0.184
-279.472	800.000	-0.077	0.244
-278.457	196.441	-0.180	-0.271
-277.443	-148.519	-0.059	0.005
-276.428	-15.376	-0.174	-0.110
-275.413	-171.754	-0.056	0.002
-274.399	800.000	0.096	-0.270
-273.384	39.695	0.187	-0.165
-272.370	358.372	-0.183	0.361
-271.355	-18.466	0.226	-0.139
-270.340	-85.778	-0.116	-0.036
-269.326	-200.000	-0.019	0.095
-268.311	-200.000	-0.035	-0.155
-267.297	-47.811	0.421	0.201
-266.282	56.503	0.058	-0.055
-265.267	23.416	0.207	0.168
-264.253	290.041	-0.064	0.114
-263.238	108.576	-0.133	-0.156
-262.224	46.127	-0.048	0.044
-261.209	278.275	0.071	-0.125
-260.195	462.322	0.125	-0.276
-259.180	4.212	0.245	-0.177
-258.165	-35.810	-0.127	-0.068
-257.151	-200.000	-0.009	0.541
-256.136	477.764	0.048	-0.108
-255.122	196.349	-0.084	-0.126
-254.107	-156.060	-0.026	-0.002
-253.092	622.767	-0.151	0.374
-252.078	-181.619	0.007	-0.000
-251.063	121.189	0.188	0.231
-250.049	800.000	0.021	0.064
-249.034	-200.000	-0.008	0.204
-248.019	-200.000	-0.001	0.011
-247.005	-24.850	0.227	0.133
-245.990	162.370	0.102	-0.141
-244.976	338.632	0.137	0.264
-243.961	99.878	0.129	-0.148
-242.946	4.324	-0.299	0.216
-241.932	230.945	0.159	0.257
-240.917	177.029	-0.163	-0.234
-239.903	-200.000	0.006	-0.228
-238.888	800.000	0.045	0.122
-237.873	320.940	-0.096	-0.180
-236.859	800.000	-0.011	-0.031
-235.844	800.000	0.123	0.341
-234.830	-167.445	-0.245	0.010
-233.815	-149.268	0.245	-0.019
-232.800	52.997	0.146	-0.138
-231.786	70.628	0.071	0.072
-230.771	167.622	0.053	-0.074
-229.757	629.526	-0.067	-0.167
-228.742	512.649	-0.165	0.380
-227.727	800.000	0.102	-0.290
-226.713	-70.126	-0.371	0.139
-225.698	4.845	-0.253	-0.183
-224.684	-22.686	0.131	-0.078
-223.669	-122.535	0.090	-0.014
-222.655	-36.652	0.286	0.152
-221.640	-31.351	-0.056	0.031
-220.625	-200.000	-0.028	-0.161
-219.611	548.020	-0.056	0.131
-218.596	-161.336	-0.169	0.009
-217.582	38.769	-0.219	0.193
-216.567	-88.395	0.458	0.135
-215.552	-200.000	-0.009	-0.280
-214.538	-167.322	0.107	-0.004
-213.523	800.000	0.071	0.259
-212.509	128.144	-0.186	0.233
-211.494	265.868	-0.198	0.340
-210.479	-42.213	0.109	-0.055
-209.465	247.289	-0.099	0.164
-208.450	-141.393	0.329	0.033
-207.436	-31.958	0.053	0.029
-206.421	-3.287	0.210	-0.144
-205.406	-108.702	-0.347	0.073
-204.392	-108.631	-0.275	-0.058
-203.377	-42.290	0.112	-0.056
-202.363	11.250	-0.201	0.152
-201.348	372.379	0.053	0.107
-200.333	-79.094	-0.327	0.109
-199.319	-78.479	-0.195	0.066
-198.304	-200.000	0.001	0.094
-197.290	125.945	0.212	0.263
-196.275	-200.000	0.022	0.233
-195.260	31.560	0.057	-0.049
-194.246	26.332	0.268	-0.221
-193.231	-129.360	-0.134	0.018
-192.217	-200.000	0.052	0.261
-191.202	111.454	0.116	0.138
-190.187	-200.000	0.050	-0.283
-189.173	205.259	0.056	-0.086
-188.158	-130.975	0.216	0.028
-187.144	-108.263	0.281	-0.060
-186.129	193.692	0.025	-0.037
-185.114	-27.251	-0.311	0.178
-184.100	93.808	-0.168	0.187
-183.085	718.318	-0.094	0.246
-182.071	147.036	0.093	-0.123
-181.056	449.098	0.046	-0.099
-180.042	800.000	0.057	-0.194
-179.027	-200.000	-0.008	0.059
-178.012	530.976	-0.104	0.242
-176.998	50.899	0.049	0.046
-175.983	-166.676	-0.346	0.014
-174.969	-114.730	-0.415	0.078
-173.954	128.134	0.117	-0.146
-172.939	-75.327	0.224	-0.079
-171.925	475.716	0.076	-0.169
-170.910	-7.541	0.449	0.299
-169.896	55.570	0.061	-0.058
-168.881	-57.739	-0.345	0.149
-167.866	274.012	0.158	0.274
-166.852	-23.990	0.234	-0.138
-165.837	594.088	-0.084	-0.204
-164.823	-113.641	0.318	-0.061
-163.808	-200.000	-0.035	-0.247
-162.793	800.000	0.055	0.213
-161.779	688.301	0.139	-0.357
-160.764	-200.000	0.028	-0.318
-159.750	45.317	0.247	-0.224
-158.735	109.618	-0.177	0.209
-157.720	6.696	-0.338	0.247
-156.706	136.159	-0.083	0.107
-155.691	147.318	0.216	0.286
-154.677	-200.000	0.020	0.270
-153.662	-52.574	-0.088	0.040
-152.647	38.156	-0.308	-0.269
-151.633	69.804	0.044	0.045
-150.618	223.769	-0.146	0.231
-149.604	136.936	0.368	0.473
-148.589	336.809	-0.079	0.150
-147.574	-12.377	0.351	-0.225
-146.560	-141.824	-0.197	-0.019
-145.545	-65.709	0.335	-0.132
-144.531	-103.275	0.098	-0.023
-143.516	510.612	0.198	-0.453
-142.502	4.804	0.047	-0.034
-141.487	-2.155	-0.440	0.303
-140.472	-200.000	0.025	-0.124
-139.458	378.469	-0.099	0.199
-138.443	122.288	0.083	0.102
-137.429	777.072	-0.044	0.117
-136.414	-21.855	-0.333	-0.199
-135.399	-160.612	-0.236	0.012
-134.385	3.510	0.076	0.055
-133.370	-63.622	-0.168	-0.068
-132.356	-106.869	-0.136	-0.030
-131.341	61.859	0.207	0.202
-130.326	-155.371	0.328	0.021
-129.312	-96.926	0.297	-0.076
-128.297	-54.317	0.125	-0.056
-127.283	-200.000	0.036	0.416
-126.268	67.537	-0.132	0.132
-125.253	4.662	0.377	-0.272
-124.239	-200.000	-0.014	0.210
-123.224	-157.188	0.156	-0.009
-122.210	800.000	0.048	-0.137
-121.195	-200.000	0.015	0.068
