DTS Sentinel unit serial number:	SN413079Multiplexer serial number:	ORYXHardware model number:	OX4-SRSoftware version number:	ORYX F/W v4.00 Oryx Data Collector v3.7.2.0data status	okinstallation	princeton_trtdifferential loss correction	single-endedforward channel	channel 2reverse channel	N/Adate	2019/09/18time	12:23:34forward acquisition time	60.00reverse acquisition time	0.00gamma	496.2192k internal	0.2324k external	0.2324temperature offset calibration	0.9985default loss term (dB/km)	0.3790temperature slope calibration	1.0000multiplexer offset coefficient	1.0000multiplexer slope coefficient	1.0000fibre end	0.00T internal ref (°C)	32.00T ext. ref 1 (°C)	0.51T ext. ref 2 (°C)	29.39length (m)	temperature (°C)	Stokes	anti-Stokes-747.200	-200.000	-0.039	0.174
-746.185	-44.422	-0.407	0.206
-745.171	-200.000	0.040	-0.272
-744.156	373.822	0.117	0.240
-743.142	61.378	-0.230	0.231
-742.127	-200.000	-0.048	0.259
-741.112	-0.599	0.280	0.200
-740.098	309.718	-0.071	0.135
-739.083	241.939	0.264	0.445
-738.069	800.000	-0.034	0.127
-737.054	8.369	-0.104	-0.079
-736.039	-54.496	-0.388	0.178
-735.025	-25.826	-0.031	0.018
-734.010	142.529	0.037	0.049
-732.996	-139.231	0.515	-0.056
-731.981	292.134	0.030	-0.056
-730.966	-96.869	-0.462	-0.122
-729.952	421.941	0.131	0.284
-728.937	-200.000	-0.003	0.064
-727.923	-192.747	-0.485	-0.004
-726.908	-95.404	0.370	0.100
-725.894	-84.600	-0.148	-0.047
-724.879	-105.944	0.145	0.033
-723.864	800.000	-0.067	0.187
-722.850	215.745	-0.145	0.232
-721.835	204.027	-0.150	0.234
-720.821	-200.000	0.033	-0.218
-719.806	-70.907	-0.129	-0.049
-718.791	-70.530	0.063	-0.024
-717.777	-54.526	-0.229	0.104
-716.762	-200.000	0.032	-0.163
-715.748	215.604	-0.036	-0.057
-714.733	-53.495	0.085	0.039
-713.718	60.669	-0.211	-0.210
-712.704	-8.432	0.300	-0.204
-711.689	-49.015	0.181	-0.087
-710.675	800.000	0.072	-0.219
-709.660	-101.419	-0.233	-0.057
-708.645	-200.000	-0.053	-0.347
-707.631	126.721	-0.325	0.416
-706.616	494.861	-0.133	0.307
-705.602	122.698	-0.278	0.351
-704.587	359.184	0.039	-0.079
-703.572	-200.000	-0.032	-0.202
-702.558	210.180	-0.052	0.082
-701.543	65.969	-0.164	0.167
-700.529	112.226	-0.087	0.105
-699.514	-106.935	-0.285	0.064
-698.499	305.152	-0.157	-0.293
-697.485	-200.000	0.010	0.154
-696.470	-125.325	-0.062	0.010
-695.456	197.843	0.103	0.159
-694.441	-200.000	0.025	-0.191
-693.426	-106.223	-0.278	0.063
-692.412	-200.000	0.006	-0.044
-691.397	54.638	-0.250	-0.242
-690.383	-46.402	-0.122	-0.060
-689.368	-161.736	-0.280	0.014
-688.354	800.000	0.072	-0.275
-687.339	35.631	-0.445	0.394
-686.324	451.956	0.097	0.217
-685.310	-115.632	-0.546	0.103
-684.295	-200.000	-0.027	0.187
-683.281	-2.172	-0.173	-0.122
-682.266	108.710	0.127	-0.153
-681.251	-188.840	-0.107	0.001
-680.237	107.136	0.214	-0.256
-679.222	-115.359	0.139	0.026
-678.208	-200.000	-0.003	0.112
-677.193	53.699	-0.069	0.067
-676.178	478.206	-0.079	0.181
-675.164	425.705	-0.162	0.351
-674.149	-88.842	-0.166	0.050
-673.135	-55.355	-0.081	0.037
-672.120	563.938	0.085	-0.207
-671.105	-85.808	0.037	-0.012
-670.091	-200.000	0.004	-0.093
-669.076	-91.442	-0.071	-0.020
-668.062	-200.000	-0.007	-0.177
-667.047	86.486	-0.136	-0.151
-666.032	13.522	-0.240	0.188
-665.018	-91.222	0.160	0.046
-664.003	-128.757	0.092	-0.013
-662.989	138.039	0.127	-0.168
-661.974	-71.313	-0.456	-0.172
-660.959	-200.000	-0.056	0.383
-659.945	-200.000	0.012	-0.158
-658.930	-200.000	-0.022	-0.247
-657.916	-77.060	-0.165	0.058
-656.901	-200.000	-0.040	-0.221
-655.886	-57.704	-0.356	-0.157
-654.872	-33.258	0.302	-0.168
-653.857	-72.245	-0.361	-0.135
-652.843	125.853	0.074	0.093
-651.828	-115.524	-0.090	-0.017
-650.814	-200.000	0.013	0.223
-649.799	180.090	-0.033	-0.048
-648.784	77.442	-0.315	-0.337
-647.770	-95.553	0.142	-0.038
-646.755	-200.000	-0.003	-0.079
-645.741	81.236	0.125	-0.136
-644.726	-25.946	-0.074	-0.044
-643.711	118.670	0.164	0.204
-642.697	340.624	0.082	0.160
-641.682	-159.590	0.132	0.007
-640.668	-200.000	0.040	0.266
-639.653	800.000	-0.065	-0.283
-638.638	30.812	-0.130	-0.112
-637.624	580.928	0.098	-0.241
-636.609	-17.273	0.005	-0.003
-635.595	-57.767	-0.151	-0.067
-634.580	56.494	-0.120	-0.117
-633.565	2.742	0.063	-0.046
-632.551	94.184	0.102	-0.116
-631.536	12.308	-0.097	-0.075
-630.522	-71.928	-0.311	-0.116
-629.507	457.655	-0.123	-0.274
-628.492	141.458	0.149	-0.199
-627.478	71.144	0.109	-0.113
-626.463	-81.495	-0.285	-0.094
-625.449	366.463	0.074	0.149
-624.434	55.342	0.119	-0.115
-623.419	2.729	-0.122	-0.089
-622.405	177.591	0.244	-0.357
-621.390	-34.817	0.265	0.146
-620.376	-200.000	-0.006	0.188
-619.361	-200.000	-0.028	0.218
-618.346	-200.000	-0.029	-0.149
-617.332	-59.658	-0.086	-0.037
-616.317	-200.000	0.004	-0.143
-615.303	6.582	-0.238	0.177
-614.288	800.000	0.052	-0.194
-613.273	100.986	-0.201	0.234
-612.259	800.000	0.037	0.148
-611.244	191.433	-0.237	-0.358
-610.230	800.000	0.112	-0.391
-609.215	-200.000	0.041	-0.223
-608.201	426.837	-0.124	0.268
-607.186	360.379	0.106	0.212
-606.171	-67.173	0.258	-0.102
-605.157	675.454	-0.019	0.048
-604.142	800.000	0.056	-0.173
-603.128	57.379	0.310	-0.304
-602.113	-16.222	-0.215	-0.137
-601.098	-138.944	-0.523	0.057
-600.084	31.553	-0.152	-0.131
-599.069	334.121	0.075	-0.146
-598.055	34.338	-0.385	-0.337
-597.040	-200.000	0.055	0.390
-596.025	-200.000	0.013	0.204
-595.011	765.874	-0.087	-0.238
-593.996	-200.000	0.031	-0.156
-592.982	3.336	-0.171	0.125
-591.967	-42.547	0.104	-0.053
-590.952	-64.399	-0.171	0.070
-589.938	119.298	-0.192	0.239
-588.923	-72.105	0.134	0.050
-587.909	84.553	0.169	-0.185
-586.894	-104.044	0.308	-0.072
-585.879	-200.000	-0.004	0.151
-584.865	94.496	0.176	0.201
-583.850	-95.686	0.412	0.111
-582.836	-200.000	0.020	-0.127
-581.821	385.207	-0.075	-0.154
-580.806	-83.367	-0.065	-0.021
-579.792	-63.322	-0.060	0.025
-578.777	-200.000	-0.011	0.290
-577.763	-200.000	-0.022	-0.156
-576.748	141.706	0.231	-0.306
-575.733	174.469	-0.093	0.135
-574.719	-30.513	-0.285	0.162
-573.704	57.467	0.191	-0.187
-572.690	800.000	0.018	-0.061
-571.675	-76.893	-0.190	0.067
-570.661	-200.000	-0.045	-0.244
-569.646	-200.000	-0.028	-0.251
-568.631	-41.319	-0.109	-0.056
-567.617	129.876	-0.165	-0.211
-566.602	637.971	0.046	0.117
-565.588	-97.871	0.380	0.098
-564.573	194.753	-0.191	-0.291
-563.558	-63.154	-0.047	0.019
-562.544	-0.442	0.238	-0.169
-561.529	1.124	0.027	-0.019
-560.515	-200.000	0.006	0.165
-559.500	-120.199	-0.237	-0.041
-558.485	-46.784	0.209	-0.102
-557.471	-13.614	0.211	-0.137
-556.456	546.621	-0.084	-0.201
-555.442	-102.726	0.340	-0.081
-554.427	204.865	-0.147	-0.229
-553.412	-39.497	0.121	-0.064
-552.398	276.151	0.131	0.232
-551.383	343.553	-0.104	-0.203
-550.369	800.000	-0.025	-0.071
-549.354	324.211	-0.192	0.367
-548.339	169.725	-0.206	-0.295
-547.325	-79.037	0.137	-0.047
-546.310	240.669	0.217	-0.362
-545.296	5.791	-0.116	-0.086
-544.281	-150.409	0.240	0.018
-543.266	-64.226	-0.208	-0.085
-542.252	32.010	-0.141	0.121
-541.237	-58.586	-0.224	0.097
-540.223	-200.000	0.089	0.490
-539.208	-84.446	0.193	0.061
-538.193	-49.586	-0.025	0.012
-537.179	376.899	-0.050	0.101
-536.164	-95.733	0.282	0.075
-535.150	-140.663	-0.369	0.038
-534.135	-200.000	0.021	0.251
-533.121	156.016	0.151	0.209
-532.106	687.131	-0.098	-0.256
-531.091	302.094	0.111	-0.205
-530.077	-13.317	0.356	0.231
-529.062	-200.000	0.020	-0.096
-528.048	800.000	-0.091	-0.300
-527.033	-41.323	-0.306	-0.158
-526.018	-105.093	0.344	-0.079
-525.004	-31.677	-0.226	-0.127
-523.989	-200.000	0.004	-0.037
-522.975	551.943	-0.069	-0.167
-521.960	624.154	0.096	0.242
-520.945	172.513	-0.070	0.101
-519.931	-200.000	0.006	-0.148
-518.916	-108.944	-0.350	-0.075
-517.902	786.386	-0.013	-0.034
-516.887	80.151	0.079	-0.085
-515.872	10.933	0.310	-0.237
-514.858	-4.568	0.210	0.145
-513.843	147.206	-0.118	-0.159
-512.829	-97.192	-0.161	0.042
-511.814	800.000	-0.054	-0.170
-510.799	800.000	-0.015	-0.041
-509.785	529.530	-0.099	-0.233
-508.770	-23.960	-0.055	-0.033
-507.756	-49.714	0.305	0.145
-506.741	-22.303	0.305	-0.185
-505.726	394.027	-0.057	-0.118
-504.712	-178.983	-0.203	0.005
-503.697	-45.534	-0.204	0.101
-502.683	5.546	0.050	0.037
-501.668	42.402	0.016	0.015
-500.653	-49.085	0.217	-0.104
-499.639	323.674	-0.074	-0.142
-498.624	65.829	0.112	0.114
-497.610	128.083	-0.072	0.091
-496.595	786.534	0.072	0.198
-495.581	214.621	-0.109	-0.172
-494.566	235.933	0.178	0.294
-493.551	13.890	0.268	0.208
-492.537	-24.976	0.281	0.166
-491.522	-200.000	-0.021	-0.172
-490.508	8.719	0.345	-0.260
-489.493	592.838	-0.053	0.131
-488.478	195.397	-0.094	0.142
-487.464	-37.847	-0.212	0.113
-486.449	-57.988	-0.156	0.068
-485.435	-2.766	-0.166	0.116
-484.420	-39.996	-0.277	0.144
-483.405	-138.847	0.227	-0.025
-482.391	126.486	-0.086	0.109
-481.376	270.896	-0.247	0.434
-480.362	-200.000	-0.042	-0.310
-479.347	-200.000	-0.011	0.050
-478.332	25.856	-0.113	0.094
-477.318	244.273	0.038	-0.064
-476.303	-32.772	-0.102	0.057
-475.289	160.192	0.063	0.088
-474.274	-200.000	-0.053	0.363
-473.259	-33.710	-0.087	-0.048
-472.245	37.701	0.049	-0.044
-471.230	98.239	0.088	0.101
-470.216	-131.594	0.083	0.011
-469.201	18.237	0.201	-0.160
-468.186	800.000	-0.049	-0.189
-467.172	-83.257	-0.091	-0.029
-466.157	-130.766	0.152	0.020
-465.143	-200.000	0.185	0.000
-464.128	-200.000	-0.011	-0.082
-463.113	-31.818	-0.157	-0.088
-462.099	-131.779	0.443	-0.058
-461.084	800.000	0.029	0.097
-460.070	-111.591	-0.136	0.028
-459.055	-11.523	0.122	-0.080
-458.040	-175.261	-0.182	0.005
-457.026	17.044	-0.035	-0.027
-456.011	140.315	0.049	0.064
-454.997	-29.252	0.157	-0.090
-453.982	-96.636	-0.309	0.081
-452.968	-132.443	-0.243	0.031
-451.953	-30.390	-0.087	-0.049
-450.938	-200.000	0.010	0.118
-449.924	6.357	0.128	0.094
-448.909	-70.192	0.406	0.154
-447.895	170.377	-0.139	0.199
-446.880	-100.097	-0.148	-0.037
-445.865	0.416	0.141	-0.101
-444.851	800.000	-0.024	-0.102
-443.836	432.388	-0.071	-0.154
-442.822	-137.328	0.175	-0.020
-441.807	-27.513	0.082	0.047
-440.792	-142.436	-0.263	0.026
-439.778	262.654	-0.078	0.135
-438.763	310.816	-0.100	0.187
-437.749	-34.947	-0.230	0.125
-436.734	-200.000	-0.017	-0.100
-435.719	156.546	0.187	-0.257
-434.705	-129.369	0.213	-0.030
-433.690	67.259	-0.076	-0.078
-432.676	68.533	0.129	-0.132
-431.661	-200.000	0.012	-0.079
-430.646	179.155	0.191	-0.278
-429.632	1.274	-0.082	0.059
-428.617	-200.000	0.023	-0.322
-427.603	394.130	0.071	0.147
-426.588	-200.000	0.013	0.152
-425.573	-138.638	-0.246	-0.027
-424.559	40.851	0.346	-0.311
-423.544	-72.107	-0.188	-0.070
-422.530	-48.161	0.394	0.190
-421.515	800.000	0.032	-0.106
-420.500	-45.047	0.062	0.031
-419.486	-200.000	0.001	-0.347
-418.471	65.802	0.214	-0.216
-417.457	800.000	0.047	0.132
-416.442	308.137	-0.094	0.175
-415.428	86.033	0.230	0.252
-414.413	-62.789	-0.309	0.128
-413.398	511.678	0.026	0.060
-412.384	800.000	-0.123	0.474
-411.369	-96.542	0.220	0.058
-410.355	140.952	-0.019	-0.025
-409.340	-102.540	-0.195	0.046
-408.325	-135.262	-0.045	-0.005
-407.311	-96.644	-0.147	-0.039
-406.296	6.749	0.077	-0.057
-405.282	-73.371	-0.286	0.104
-404.267	-163.148	-0.165	-0.008
-403.252	-32.242	-0.114	-0.064
-402.238	-42.158	-0.163	-0.083
-401.223	800.000	-0.011	-0.037
-400.209	613.704	0.015	0.038
-399.194	-200.000	-0.041	-0.230
-398.179	-86.092	0.242	0.074
-397.165	-200.000	0.007	0.042
-396.150	-200.000	0.012	0.168
-395.136	0.683	-0.103	-0.074
-394.121	-161.556	0.146	-0.007
-393.106	459.100	-0.082	-0.182
-392.092	37.068	0.246	-0.217
-391.077	-200.000	-0.020	-0.109
-390.063	-70.402	-0.248	-0.094
-389.048	-42.261	-0.263	0.134
-388.033	-31.480	-0.066	0.037
-387.019	471.611	-0.191	0.428
-386.004	146.081	0.127	0.170
-384.990	-200.000	-0.027	-0.404
-383.975	-200.000	0.011	-0.237
-382.960	-200.000	-0.007	0.041
-381.946	-133.203	0.153	0.019
-380.931	-200.000	-0.015	-0.080
-379.917	1.522	-0.168	-0.120
-378.902	-66.241	-0.211	0.084
-377.888	147.755	-0.181	-0.243
-376.873	105.961	0.121	-0.142
-375.858	-72.720	-0.130	0.048
-374.844	-200.000	0.022	-0.242
-373.829	-92.906	-0.461	-0.128
-372.815	663.065	0.111	0.285
-371.800	591.516	0.051	0.124
-370.785	-133.426	-0.054	0.007
-369.771	55.189	-0.093	-0.089
-368.756	800.000	-0.071	0.263
-367.742	153.835	0.022	0.029
-366.727	714.221	0.015	-0.041
-365.712	-103.626	-0.309	0.072
-364.698	-200.000	0.020	0.401
-363.683	186.877	-0.156	-0.231
-362.669	-83.749	0.428	0.136
-361.654	800.000	-0.106	0.395
-360.639	-15.668	0.291	0.184
-359.625	294.639	0.091	0.166
-358.610	-23.105	0.071	0.043
-357.596	-200.000	0.027	-0.337
-356.581	-200.000	0.019	0.239
-355.566	235.574	-0.154	0.254
-354.552	-200.000	0.039	-0.193
-353.537	-58.132	-0.101	0.044
-352.523	110.910	0.232	0.277
-351.508	39.711	0.170	0.152
-350.493	800.000	-0.044	0.173
-349.479	-200.000	-0.027	-0.136
-348.464	-1.812	-0.190	-0.133
-347.450	114.942	-0.172	0.209
-346.435	417.575	-0.107	0.228
-345.420	-200.000	-0.001	0.268
-344.406	-100.345	-0.235	0.058
-343.391	2.349	-0.097	0.070
-342.377	-65.285	-0.074	-0.030
-341.362	-89.932	0.380	-0.110
-340.348	-200.000	0.047	-0.271
-339.333	92.029	0.070	-0.078
-338.318	-200.000	0.005	-0.207
-337.304	-41.038	0.223	-0.115
-336.289	-200.000	-0.017	-0.112
-335.275	-153.294	0.132	0.009
-334.260	538.361	-0.149	-0.351
-333.245	-6.399	0.187	-0.127
-332.231	-54.935	-0.141	-0.063
-331.216	-10.640	0.071	0.047
-330.202	63.862	-0.016	-0.016
-329.187	375.574	-0.087	-0.176
-328.172	17.830	0.283	0.224
-327.158	-168.621	0.223	0.008
-326.143	-162.546	-0.172	0.008
-325.129	-78.346	-0.220	0.075
-324.114	-119.226	0.328	-0.057
-323.099	-24.479	-0.315	0.187
-322.085	10.403	-0.053	-0.040
-321.070	-200.000	0.030	-0.260
-320.056	-200.000	-0.016	0.197
-319.041	-64.707	0.179	-0.072
-318.026	-109.453	-0.122	-0.026
-317.012	135.822	-0.114	-0.147
-315.997	800.000	-0.094	0.312
-314.983	-200.000	0.002	0.132
-313.968	-200.000	-0.006	-0.056
-312.953	46.641	0.357	0.329
-311.939	229.050	-0.070	-0.113
-310.924	20.015	0.080	-0.064
-309.910	-143.245	0.204	0.019
-308.895	15.764	-0.165	0.129
-307.880	163.168	-0.100	-0.139
-306.866	17.393	-0.276	0.217
-305.851	113.326	0.038	-0.046
-304.837	-55.302	0.124	-0.055
-303.822	-63.116	0.207	-0.085
-302.807	-48.015	-0.042	-0.020
-301.793	-200.000	0.026	0.236
-300.778	-200.000	-0.048	-0.476
-299.764	-125.876	0.018	-0.003
-298.749	-200.000	0.031	0.179
-297.735	800.000	-0.068	0.238
-296.720	37.463	0.194	-0.171
-295.705	-127.474	0.217	0.031
-294.691	-148.580	-0.274	0.022
-293.676	800.000	0.076	-0.299
-292.662	557.148	0.106	-0.254
-291.647	-159.293	-0.141	0.008
-290.632	455.093	-0.079	-0.174
-289.618	9.552	0.183	0.137
-288.603	188.883	0.150	-0.222
-287.589	779.463	-0.072	-0.195
-286.574	-200.000	0.019	-0.136
-285.559	-106.999	-0.305	0.067
-284.545	-42.895	-0.257	0.130
-283.530	800.000	0.054	0.202
-282.516	159.818	0.103	0.143
-281.501	85.028	-0.124	0.134
-280.486	548.888	0.121	0.287
-279.472	130.299	0.041	-0.052
-278.457	800.000	-0.137	0.406
-277.443	428.028	0.132	-0.283
-276.428	309.204	-0.068	-0.125
-275.413	-91.115	-0.128	0.036
-274.399	55.656	-0.129	0.124
-273.384	800.000	0.068	-0.236
-272.370	-28.029	0.088	-0.050
-271.355	800.000	0.091	0.330
-270.340	72.453	-0.334	0.345
-269.326	-165.009	0.202	-0.009
-268.311	31.332	-0.233	0.199
-267.297	-174.949	-0.133	0.004
-266.282	172.620	0.284	-0.405
-265.267	293.243	0.096	0.173
-264.253	-25.348	-0.222	0.130
-263.238	-27.507	0.295	0.170
-262.224	-63.524	0.233	-0.095
-261.209	-22.766	0.385	-0.230
-260.195	71.400	0.058	0.059
-259.180	43.490	0.042	0.038
-258.165	-25.940	0.132	-0.077
-257.151	65.612	0.178	-0.179
-256.136	-146.852	0.465	0.040
-255.122	-74.291	0.482	0.172
-254.107	58.643	-0.151	-0.146
-253.092	-17.179	0.174	0.109
-252.078	27.153	-0.137	0.114
-251.063	-200.000	0.044	-0.249
-250.049	-25.148	-0.199	0.117
-249.034	5.068	0.207	-0.151
-248.019	-34.247	-0.327	0.178
-247.005	69.958	0.022	0.023
-245.990	-200.000	-0.018	-0.150
-244.976	800.000	0.030	0.108
-243.961	116.486	-0.232	0.282
-242.946	-133.337	0.068	0.008
-241.932	-200.000	0.010	0.095
-240.917	432.186	-0.224	-0.481
-239.903	83.137	-0.017	-0.019
-238.888	-200.000	0.036	0.331
-237.873	-123.109	0.275	-0.044
-236.859	310.658	0.077	-0.143
-235.844	-200.000	-0.045	-0.243
-234.830	-101.271	-0.047	-0.011
-233.815	31.902	0.174	0.148
-232.800	464.485	0.020	-0.043
-231.786	-180.384	0.242	0.005
-230.771	-200.000	-0.001	-0.042
-229.757	800.000	-0.103	0.290
-228.742	43.225	0.099	0.090
-227.727	396.886	0.085	0.175
-226.713	642.431	0.077	0.193
-225.698	-74.375	-0.293	0.105
-224.684	38.278	0.175	-0.154
-223.669	-71.892	0.053	-0.019
-222.655	-14.471	0.265	0.169
-221.640	145.830	0.157	-0.208
-220.625	-116.419	-0.078	-0.014
-219.611	-200.000	-0.003	0.221
-218.596	-200.000	-0.023	-0.167
-217.582	800.000	-0.053	0.181
-216.567	677.653	-0.113	0.289
-215.552	800.000	0.107	-0.366
-214.538	282.118	0.157	-0.278
-213.523	-36.610	-0.321	0.171
-212.509	-56.932	-0.397	0.173
-211.494	27.908	-0.245	0.205
-210.479	-158.937	0.061	-0.003
-209.465	-156.756	0.171	-0.010
-208.450	-122.031	-0.153	0.025
-207.436	-200.000	-0.022	-0.184
-206.421	-173.833	0.254	-0.007
-205.406	698.456	-0.059	0.152
-204.392	-200.000	0.035	0.261
-203.377	51.564	0.179	0.168
-202.363	293.354	-0.245	-0.442
-201.348	72.277	-0.082	0.085
-200.333	-90.815	-0.364	-0.104
-199.319	-140.830	-0.353	-0.036
-198.304	-155.854	0.339	0.021
-197.290	-36.180	0.142	0.075
-196.275	-69.865	-0.344	-0.130
-195.260	704.395	0.041	0.107
-194.246	-142.461	-0.168	-0.016
-193.231	-151.026	0.499	-0.037
-192.217	-118.876	0.074	-0.013
-191.202	-57.513	0.106	0.046
-190.187	-200.000	-0.015	0.310
-189.173	-44.073	-0.376	0.187
-188.158	-200.000	0.005	0.304
-187.144	-200.000	-0.033	-0.376
-186.129	800.000	-0.059	0.208
-185.114	221.948	-0.110	0.174
-184.100	146.202	-0.098	-0.130
-183.085	49.016	0.174	-0.162
-182.071	77.980	0.244	0.257
-181.056	645.384	-0.033	-0.083
-180.042	-102.299	0.177	-0.042
-179.027	-48.640	-0.086	-0.041
-178.012	-93.828	-0.387	0.105
-176.998	-112.375	0.266	-0.053
-175.983	192.419	-0.182	0.271
-174.969	-170.284	-0.142	-0.005
-173.954	82.732	0.100	0.108
-172.939	800.000	0.072	0.250
-171.925	-52.362	-0.027	0.012
-170.910	113.526	-0.111	0.133
-169.896	523.997	0.018	-0.043
-168.881	-121.247	-0.060	-0.010
-167.866	-69.677	0.198	0.075
-166.852	800.000	0.031	-0.136
-165.837	195.386	0.032	0.048
-164.823	-111.054	0.091	0.018
-163.808	-130.071	0.318	0.043
-162.793	-22.019	-0.220	0.132
-161.779	-171.542	-0.282	-0.009
-160.764	15.779	-0.219	-0.170
-159.750	-200.000	0.056	-0.296
-158.735	52.123	-0.116	0.109
-157.720	3.636	0.037	0.027
-156.706	-31.620	-0.151	0.084
-155.691	370.888	0.243	0.485
-154.677	-174.650	-0.372	-0.010
-153.662	-200.000	-0.089	0.460
-152.647	-60.418	0.205	0.086
-151.633	74.537	0.109	0.113
-150.618	34.588	-0.242	0.209
-149.604	6.396	0.155	0.113
-148.589	-200.000	-0.037	0.160
-147.574	500.214	-0.111	0.252
-146.560	-200.000	0.007	0.363
-145.545	800.000	-0.104	0.434
-144.531	-1.850	-0.103	-0.072
-143.516	-15.171	-0.218	-0.137
-142.502	4.660	-0.128	-0.093
-141.487	-138.956	-0.134	0.014
-140.472	231.095	0.087	-0.141
-139.458	56.291	0.220	-0.210
-138.443	800.000	0.119	-0.344
-137.429	48.167	0.060	0.056
-136.414	-36.168	-0.111	0.059
-135.399	39.149	0.178	0.157
-134.385	649.459	0.069	0.175
-133.370	-143.571	0.174	0.016
-132.356	-23.209	0.192	0.114
-131.341	79.148	0.439	0.463
-130.326	-99.493	0.220	-0.055
-129.312	-35.572	0.388	-0.207
-128.297	800.000	-0.071	0.236
-127.283	-21.887	0.100	0.060
-126.268	-110.661	-0.181	-0.037
-125.253	56.876	-0.112	-0.107
-124.239	463.125	0.125	0.274
-123.224	-189.270	-0.296	-0.003
-122.210	-200.000	0.032	0.187
-121.195	178.809	-0.024	0.035
