DTS Sentinel unit serial number:	SN413079Multiplexer serial number:	ORYXHardware model number:	OX4-SRSoftware version number:	ORYX F/W v4.00 Oryx Data Collector v3.7.2.0data status	okinstallation	princeton_trtdifferential loss correction	single-endedforward channel	channel 2reverse channel	N/Adate	2019/09/11time	10:45:10forward acquisition time	60.00reverse acquisition time	0.00gamma	496.2192k internal	0.2310k external	0.2310temperature offset calibration	0.9969default loss term (dB/km)	0.3790temperature slope calibration	1.0000multiplexer offset coefficient	1.0000multiplexer slope coefficient	1.0000fibre end	0.00T internal ref (°C)	36.81T ext. ref 1 (°C)	0.17T ext. ref 2 (°C)	33.68length (m)	temperature (°C)	Stokes	anti-Stokes-747.200	-174.016	-0.572	-0.017
-746.185	492.660	-0.207	0.481
-745.171	-116.050	-0.232	0.044
-744.156	251.755	-0.110	0.190
-743.142	21.185	-0.313	-0.258
-742.127	-129.423	-0.018	-0.003
-741.112	688.720	0.073	0.195
-740.098	8.447	0.352	0.269
-739.083	367.309	-0.111	0.227
-738.069	800.000	0.040	0.179
-737.054	230.988	0.118	-0.196
-736.039	257.025	0.221	-0.385
-735.025	-152.157	0.322	-0.024
-734.010	6.497	-0.143	0.108
-732.996	-89.950	-0.020	0.006
-731.981	800.000	0.076	0.276
-730.966	88.462	0.027	-0.031
-729.952	140.724	-0.142	-0.190
-728.937	109.414	0.172	-0.210
-727.923	-200.000	-0.006	0.039
-726.908	98.416	-0.102	-0.119
-725.894	-166.543	0.083	0.004
-724.879	-44.592	-0.054	-0.027
-723.864	800.000	-0.034	-0.109
-722.850	-66.393	0.186	-0.075
-721.835	-200.000	-0.034	-0.312
-720.821	179.105	-0.155	0.230
-719.806	-17.057	0.052	-0.034
-718.791	-89.914	-0.211	-0.063
-717.777	-53.346	0.053	0.025
-716.762	460.654	-0.106	-0.239
-715.748	6.131	-0.216	-0.163
-714.733	800.000	-0.065	-0.248
-713.718	800.000	0.011	0.040
-712.704	800.000	0.062	0.229
-711.689	-200.000	-0.003	-0.034
-710.675	211.799	0.053	-0.085
-709.660	225.579	0.151	0.248
-708.645	-200.000	0.038	0.171
-707.631	-200.000	-0.010	0.144
-706.616	208.599	0.165	-0.261
-705.602	375.878	-0.082	-0.170
-704.587	63.751	0.013	-0.013
-703.572	-200.000	-0.007	-0.334
-702.558	-200.000	-0.012	0.293
-701.543	-200.000	0.061	-0.328
-700.529	-98.691	-0.203	-0.052
-699.514	800.000	-0.083	-0.279
-698.499	173.883	-0.089	0.130
-697.485	-200.000	-0.014	0.084
-696.470	-51.236	0.162	0.077
-695.456	-104.844	-0.132	0.031
-694.441	-176.659	0.297	0.008
-693.426	-45.100	0.022	-0.011
-692.412	33.722	-0.177	-0.156
-691.397	-200.000	0.010	-0.070
-690.383	9.723	0.265	0.204
-689.368	-124.277	0.218	-0.035
-688.354	129.427	-0.259	-0.335
-687.339	96.657	-0.139	0.162
-686.324	-121.953	0.257	0.043
-685.310	-64.555	0.148	0.061
-684.295	-111.085	-0.153	-0.032
-683.281	-77.171	-0.102	0.036
-682.266	-105.568	-0.067	0.015
-681.251	-91.766	0.307	0.088
-680.237	-62.630	0.144	0.060
-679.222	122.054	-0.125	0.158
-678.208	120.597	0.058	0.073
-677.193	-1.448	0.139	0.099
-676.178	334.949	-0.137	0.268
-675.164	667.654	0.044	-0.114
-674.149	343.713	0.138	-0.274
-673.135	105.401	-0.196	0.234
-672.120	-105.501	0.256	0.059
-671.105	56.718	-0.173	-0.170
-670.091	-200.000	0.051	-0.278
-669.076	-44.410	0.077	-0.039
-668.062	310.091	-0.074	0.140
-667.047	-104.418	-0.246	0.058
-666.032	-115.810	0.295	-0.056
-665.018	280.666	0.082	-0.148
-664.003	35.820	-0.351	-0.313
-662.989	-200.000	0.006	-0.171
-661.974	148.436	-0.130	-0.178
-660.959	-90.583	-0.188	-0.055
-659.945	662.723	-0.039	-0.102
-658.930	11.062	0.183	0.141
-657.916	318.296	-0.083	-0.159
-656.901	-200.000	0.021	-0.164
-655.886	-200.000	-0.025	-0.169
-654.872	-117.804	-0.258	-0.047
-653.857	-200.000	-0.005	-0.099
-652.843	305.945	-0.042	0.080
-651.828	-54.467	0.227	0.104
-650.814	-12.646	-0.120	0.079
-649.799	-200.000	-0.033	-0.233
-648.784	-89.127	-0.374	0.112
-647.770	-124.506	0.500	0.079
-646.755	-106.583	-0.157	-0.035
-645.741	164.190	-0.138	-0.197
-644.726	81.366	-0.041	0.045
-643.711	-200.000	-0.014	-0.235
-642.697	-44.819	-0.079	0.040
-641.682	1.483	-0.192	-0.139
-640.668	-24.130	0.247	-0.149
-639.653	108.302	0.149	0.180
-638.638	472.994	-0.034	0.078
-637.624	-77.348	-0.104	-0.036
-636.609	-92.259	0.208	-0.059
-635.595	800.000	-0.013	0.039
-634.580	-52.167	-0.185	-0.087
-633.565	-10.972	0.378	-0.252
-632.551	274.955	0.071	0.128
-631.536	374.368	0.006	-0.012
-630.522	-31.010	0.203	0.116
-629.507	-57.965	-0.285	0.126
-628.492	384.826	0.113	0.236
-627.478	-86.369	0.197	0.061
-626.463	-132.333	0.262	0.034
-625.449	-200.000	-0.021	-0.200
-624.434	-141.439	-0.164	-0.017
-623.419	-139.425	0.125	0.014
-622.405	-51.131	-0.142	-0.067
-621.390	-104.422	0.143	0.034
-620.376	-113.031	-0.108	0.022
-619.361	90.082	0.124	0.140
-618.346	189.608	-0.132	-0.200
-617.332	358.207	-0.063	-0.126
-616.317	-200.000	-0.005	0.077
-615.303	-34.898	-0.296	-0.163
-614.288	-182.325	0.176	-0.003
-613.273	27.124	-0.027	-0.023
-612.259	194.061	-0.105	-0.161
-611.244	-74.136	-0.350	-0.128
-610.230	-20.635	-0.261	0.162
-609.215	-24.483	0.416	0.250
-608.201	-37.021	-0.061	-0.033
-607.186	-200.000	-0.052	0.274
-606.171	164.361	0.219	0.312
-605.157	-177.380	-0.578	0.014
-604.142	800.000	0.119	-0.473
-603.128	183.070	-0.141	-0.211
-602.113	149.715	-0.164	0.224
-601.098	800.000	-0.058	-0.231
-600.084	-12.013	0.116	0.076
-599.069	-14.115	-0.194	0.127
-598.055	76.259	-0.062	0.066
-597.040	-200.000	-0.055	-0.264
-596.025	137.955	-0.231	-0.306
-595.011	357.644	-0.177	0.358
-593.996	60.448	-0.149	-0.149
-592.982	-145.601	-0.139	-0.013
-591.967	-200.000	0.049	-0.356
-590.952	735.047	0.077	-0.209
-589.938	-171.959	0.161	0.005
-588.923	115.927	0.040	-0.050
-587.909	-116.948	-0.152	0.028
-586.894	337.393	0.128	-0.251
-585.879	-36.057	0.260	0.142
-584.865	205.209	0.188	0.295
-583.850	-153.495	0.241	0.017
-582.836	-200.000	-0.011	-0.362
-581.821	-62.152	-0.215	0.091
-580.806	800.000	-0.010	0.045
-579.792	-18.063	0.341	0.215
-578.777	-91.677	-0.339	-0.097
-577.763	-104.063	-0.107	-0.025
-576.748	32.978	-0.282	-0.247
-575.733	21.245	-0.221	-0.181
-574.719	-99.587	-0.121	-0.031
-573.704	-107.674	-0.044	0.010
-572.690	13.933	-0.360	0.283
-571.675	-133.002	-0.311	0.040
-570.661	-28.573	0.107	0.062
-569.646	90.997	0.164	0.186
-568.631	195.877	-0.106	0.162
-567.617	-200.000	0.033	-0.359
-566.602	-132.509	0.074	0.010
-565.588	63.622	0.176	-0.178
-564.573	-200.000	-0.028	0.220
-563.558	-115.911	0.224	0.042
-562.544	193.816	0.086	0.131
-561.529	-50.018	0.489	0.234
-560.515	800.000	0.033	-0.125
-559.500	141.371	-0.121	-0.162
-558.485	-200.000	0.001	0.026
-557.471	-200.000	0.006	-0.035
-556.456	-51.700	0.186	0.087
-555.442	-111.069	0.218	-0.045
-554.427	94.577	-0.090	0.103
-553.412	-150.480	0.166	0.013
-552.398	800.000	-0.042	-0.138
-551.383	-88.081	-0.388	0.117
-550.369	34.455	0.181	0.159
-549.354	292.223	-0.065	-0.120
-548.339	800.000	-0.038	0.116
-547.325	255.323	-0.024	0.041
-546.310	194.032	0.156	-0.238
-545.296	-36.281	0.075	-0.041
-544.281	77.876	-0.179	0.192
-543.266	-53.769	0.360	-0.166
-542.252	382.012	0.155	-0.321
-541.237	174.601	0.100	-0.146
-540.223	-200.000	0.047	-0.280
-539.208	-56.740	0.393	0.175
-538.193	295.532	-0.077	0.142
-537.179	-22.750	-0.156	0.095
-536.164	-149.858	0.118	-0.009
-535.150	-47.417	0.242	-0.118
-534.135	714.666	0.030	-0.079
-533.121	179.058	0.225	0.332
-532.106	-33.321	0.198	0.111
-531.091	-200.000	-0.036	-0.380
-530.077	157.637	-0.147	-0.206
-529.062	106.003	0.113	-0.134
-528.048	315.788	0.140	0.267
-527.033	-140.834	0.165	0.017
-526.018	-48.629	0.178	-0.086
-525.004	178.372	0.123	0.181
-523.989	-150.750	-0.318	-0.024
-522.975	-23.922	-0.115	0.069
-521.960	800.000	0.020	-0.080
-520.945	99.470	0.232	-0.270
-519.931	-200.000	0.048	0.382
-518.916	-200.000	-0.011	0.176
-517.902	-45.049	0.213	-0.106
-516.887	-25.711	0.271	0.161
-515.872	-27.819	0.303	-0.177
-514.858	-0.967	0.222	0.158
-513.843	227.603	0.048	0.078
-512.829	800.000	-0.106	-0.320
-511.814	121.339	0.325	-0.407
-510.799	-46.992	-0.175	-0.086
-509.785	-61.272	-0.243	-0.103
-508.770	-37.351	-0.262	-0.141
-507.756	-165.889	-0.264	-0.011
-506.741	-200.000	-0.055	0.382
-505.726	449.101	0.024	-0.053
-504.712	-186.584	0.246	0.004
-503.697	349.247	0.060	0.120
-502.683	-200.000	0.012	0.280
-501.668	800.000	0.058	0.176
-500.653	-52.588	-0.118	-0.055
-499.639	173.406	0.023	-0.033
-498.624	-200.000	-0.006	-0.104
-497.610	206.750	-0.134	0.211
-496.595	-70.132	-0.319	0.122
-495.581	-51.024	0.146	0.069
-494.566	274.993	0.083	-0.149
-493.551	-49.112	0.260	0.125
-492.537	230.801	-0.028	-0.046
-491.522	18.725	-0.121	-0.097
-490.508	-41.144	0.257	0.134
-489.493	574.269	0.180	-0.443
-488.478	48.748	0.196	-0.185
-487.464	124.329	0.105	-0.132
-486.449	-200.000	0.007	-0.313
-485.435	-6.823	-0.314	0.215
-484.420	11.570	-0.150	0.115
-483.405	-126.040	0.243	-0.037
-482.391	369.732	0.102	-0.208
-481.376	167.687	-0.217	-0.310
-480.362	30.508	0.176	0.151
-479.347	-41.948	0.118	0.061
-478.332	-200.000	-0.026	-0.222
-477.318	800.000	0.123	0.368
-476.303	379.211	-0.088	0.180
-475.289	-200.000	0.035	0.184
-474.274	800.000	0.091	0.361
-473.259	158.356	-0.110	-0.154
-472.245	21.361	-0.130	-0.106
-471.230	-156.623	0.114	0.007
-470.216	800.000	-0.084	-0.242
-469.201	27.447	0.221	-0.187
-468.186	375.318	0.043	0.088
-467.172	-32.003	0.286	-0.161
-466.157	800.000	-0.101	-0.303
-465.143	114.657	0.047	-0.058
-464.128	-72.829	0.173	-0.064
-463.113	-54.875	-0.233	-0.105
-462.099	800.000	0.119	0.344
-461.084	276.496	-0.134	0.239
-460.070	-181.308	-0.162	0.003
-459.055	-200.000	0.011	-0.143
-458.040	-200.000	-0.068	0.319
-457.026	-200.000	0.065	0.347
-456.011	-200.000	0.294	-0.001
-454.997	-35.586	0.084	0.046
-453.982	-108.422	0.572	-0.124
-452.968	800.000	0.127	-0.376
-451.953	298.225	-0.045	-0.084
-450.938	-200.000	-0.062	-0.406
-449.924	56.642	0.036	0.036
-448.909	14.481	-0.234	-0.184
-447.895	-135.027	-0.234	-0.028
-446.880	75.384	-0.126	0.133
-445.865	183.347	0.038	0.057
-444.851	713.407	-0.151	-0.403
-443.836	487.641	0.179	-0.411
-442.822	-29.593	0.326	0.187
-441.807	-84.447	0.251	0.079
-440.792	-62.463	0.269	-0.112
-439.778	564.702	-0.108	0.263
-438.763	-200.000	-0.010	0.081
-437.749	0.263	-0.298	-0.214
-436.734	-83.226	-0.245	-0.079
-435.719	-115.177	-0.285	0.054
-434.705	-166.902	0.187	0.008
-433.690	-94.783	-0.074	-0.020
-432.676	-86.214	-0.356	0.110
-431.661	92.086	-0.045	0.050
-430.646	224.423	0.160	-0.259
-429.632	9.950	-0.252	0.192
-428.617	-81.600	-0.113	0.037
-427.603	-46.816	-0.138	0.068
-426.588	58.785	-0.225	0.222
-425.573	113.133	0.086	0.105
-424.559	800.000	0.045	-0.139
-423.544	-96.852	0.219	-0.058
-422.530	-69.398	0.064	-0.025
-421.515	-62.609	0.283	0.118
-420.500	-174.658	-0.203	0.006
-419.486	28.433	-0.367	0.311
-418.471	-100.687	0.197	0.049
-417.457	54.371	-0.160	0.154
-416.442	252.292	-0.191	-0.326
-415.428	160.945	0.009	0.012
-414.413	-169.037	0.162	-0.006
-413.398	286.422	0.089	0.161
-412.384	51.420	-0.208	-0.198
-411.369	93.645	-0.108	-0.123
-410.355	-200.000	-0.062	-0.400
-409.340	10.727	-0.111	-0.085
-408.325	-200.000	-0.036	0.254
-407.311	-200.000	0.014	-0.252
-406.296	-200.000	-0.039	-0.297
-405.282	-200.000	-0.046	0.203
-404.267	-200.000	-0.006	-0.227
-403.252	800.000	-0.075	0.321
-402.238	194.826	-0.117	0.179
-401.223	-200.000	-0.035	-0.326
-400.209	212.089	-0.095	0.149
-399.194	-95.222	0.138	0.037
-398.179	375.814	0.191	0.391
-397.165	-119.743	-0.234	0.040
-396.150	-56.197	-0.336	-0.150
-395.136	800.000	0.109	-0.313
-394.121	265.344	-0.024	-0.042
-393.106	5.193	0.107	0.079
-392.092	6.683	0.023	-0.017
-391.077	-11.356	-0.285	-0.188
-390.063	0.716	0.247	0.177
-389.048	-200.000	-0.027	-0.195
-388.033	-13.834	-0.079	-0.051
-387.019	800.000	0.037	-0.105
-386.004	515.550	-0.211	-0.494
-384.990	241.825	0.067	-0.112
-383.975	-35.387	-0.290	-0.158
-382.960	510.672	-0.177	-0.412
-381.946	-163.772	-0.139	-0.007
-380.931	-118.377	-0.230	-0.041
-379.917	62.688	-0.169	0.169
-378.902	-135.160	0.172	-0.021
-377.888	452.086	-0.174	0.386
-376.873	20.177	0.180	-0.146
-375.858	743.627	0.039	0.106
-374.844	-11.021	0.235	0.155
-373.829	-200.000	0.008	0.121
-372.815	800.000	-0.065	-0.234
-371.800	-58.114	-0.088	-0.039
-370.785	-200.000	0.010	0.136
-369.771	231.016	0.113	0.186
-368.756	108.125	-0.177	0.211
-367.742	35.461	-0.183	0.160
-366.727	-113.158	-0.099	-0.020
-365.712	-120.279	-0.056	-0.009
-364.698	-146.917	0.051	0.004
-363.683	-92.783	-0.373	0.104
-362.669	-114.157	-0.442	-0.085
-361.654	54.807	-0.167	-0.161
-360.639	-110.946	0.027	0.006
-359.625	289.599	0.085	-0.154
-358.610	-180.692	0.092	0.002
-357.596	800.000	0.041	-0.120
-356.581	40.678	-0.051	0.046
-355.566	-19.851	0.197	0.121
-354.552	-200.000	0.019	0.222
-353.537	-200.000	0.010	-0.146
-352.523	457.489	0.087	-0.192
-351.508	-157.251	-0.323	0.020
-350.493	37.592	-0.118	-0.105
-349.479	-87.657	0.037	-0.011
-348.464	-40.752	-0.164	-0.085
-347.450	246.009	0.059	0.100
-346.435	171.211	-0.064	-0.091
-345.420	-5.991	-0.160	0.110
-344.406	222.923	-0.122	0.196
-343.391	-24.941	-0.080	0.048
-342.377	-200.000	-0.002	0.057
-341.362	-200.000	-0.038	-0.171
-340.348	-152.898	-0.140	0.010
-339.333	-117.671	-0.147	0.026
-338.318	65.130	-0.218	0.220
-337.304	-127.043	-0.327	0.048
-336.289	-50.436	0.089	-0.042
-335.275	-150.346	0.277	-0.021
-334.260	182.365	0.085	-0.125
-333.245	-200.000	0.008	0.199
-332.231	56.399	-0.218	0.212
-331.216	-169.452	-0.187	0.007
-330.202	434.773	-0.167	0.363
-329.187	39.581	0.062	0.055
-328.172	-8.913	0.341	0.228
-327.158	-26.011	0.112	0.066
-326.143	156.036	0.229	-0.315
-325.129	-117.632	-0.198	0.036
-324.114	-0.712	-0.377	0.267
-323.099	-61.130	-0.036	0.015
-322.085	-163.994	0.200	0.009
-321.070	-116.411	-0.410	0.076
-320.056	-46.894	-0.312	0.153
-319.041	-95.247	0.114	-0.031
-318.026	-43.807	0.258	0.130
-317.012	-120.092	-0.220	-0.038
-315.997	-108.522	0.158	-0.034
-314.983	-106.838	-0.191	-0.042
-313.968	-200.000	0.048	0.361
-312.953	36.592	-0.105	-0.093
-311.939	145.662	0.089	-0.119
-310.924	12.261	-0.103	0.079
-309.910	-58.639	0.132	0.057
-308.895	-83.492	0.059	-0.019
-307.880	138.090	0.105	-0.137
-306.866	74.941	0.100	0.105
-305.851	-124.705	-0.183	0.028
-304.837	121.344	0.195	0.243
-303.822	-138.508	-0.170	0.019
-302.807	-200.000	0.019	0.134
-301.793	310.775	-0.176	-0.328
-300.778	800.000	-0.025	-0.095
-299.764	108.020	0.103	0.122
-298.749	-84.585	0.331	-0.104
-297.735	800.000	-0.072	0.235
-296.720	-200.000	0.003	0.166
-295.705	-21.859	-0.108	-0.066
-294.691	-56.846	0.300	-0.132
-293.676	-154.809	-0.358	-0.024
-292.662	368.873	-0.093	0.187
-291.647	-172.483	0.123	-0.004
-290.632	-37.714	0.087	-0.046
-289.618	34.904	-0.135	-0.118
-288.603	-200.000	0.024	-0.109
-287.589	-3.449	-0.278	-0.193
-286.574	61.988	-0.047	-0.046
-285.559	71.434	0.077	0.079
-284.545	31.238	-0.195	-0.167
-283.530	-176.948	0.078	-0.002
-282.516	-142.777	-0.153	-0.015
-281.501	-137.655	0.482	0.054
-280.486	216.336	-0.102	-0.161
-279.472	-200.000	0.042	-0.283
-278.457	-200.000	-0.003	0.039
-277.443	181.266	0.140	0.205
-276.428	-200.000	0.015	-0.150
-275.413	-104.558	0.267	0.062
-274.399	-200.000	0.001	0.219
-273.384	15.217	-0.187	-0.146
-272.370	-4.179	0.063	0.044
-271.355	-9.612	0.070	-0.047
-270.340	-16.915	0.366	-0.230
-269.326	-200.000	0.019	0.153
-268.311	-200.000	-0.005	0.351
-267.297	-200.000	0.048	0.218
-266.282	-41.889	0.194	0.099
-265.267	-154.349	-0.139	0.009
-264.253	-200.000	0.008	-0.047
-263.238	800.000	-0.020	-0.071
-262.224	-162.244	0.068	-0.003
-261.209	-55.274	-0.261	-0.117
-260.195	-49.110	-0.244	-0.117
-259.180	195.907	0.174	-0.264
-258.165	-86.409	0.030	0.009
-257.151	-24.331	0.065	-0.039
-256.136	63.663	0.185	0.185
-255.122	-112.968	0.346	0.068
-254.107	280.968	0.154	0.275
-253.092	-200.000	-0.011	0.242
-252.078	800.000	0.041	-0.168
-251.063	800.000	0.074	-0.305
-250.049	-31.925	0.349	-0.195
-249.034	-5.913	0.030	-0.021
-248.019	155.593	0.308	0.422
-247.005	96.084	-0.096	-0.109
-245.990	800.000	-0.123	0.495
-244.976	-200.000	-0.018	0.137
-243.961	-200.000	0.033	-0.225
-242.946	800.000	-0.030	0.100
-241.932	700.637	-0.122	-0.321
-240.917	-74.972	-0.306	-0.109
-239.903	450.891	0.097	0.212
-238.888	443.298	-0.275	-0.600
-237.873	440.664	0.104	-0.227
-236.859	39.491	0.044	0.039
-235.844	649.402	0.037	0.093
-234.830	129.868	-0.151	-0.192
-233.815	-73.377	0.237	-0.086
-232.800	-3.395	-0.089	0.062
-231.786	-139.605	-0.404	0.043
-230.771	-200.000	-0.015	-0.184
-229.757	94.373	0.100	0.113
-228.742	323.500	-0.166	0.316
-227.727	80.769	-0.017	0.018
-226.713	-200.000	-0.023	0.296
-225.698	800.000	0.050	0.181
-224.684	-102.955	0.241	0.057
-223.669	161.644	0.063	-0.088
-222.655	5.818	0.092	0.068
-221.640	69.839	0.231	0.237
-220.625	-95.167	-0.546	0.147
-219.611	310.674	-0.023	0.043
-218.596	-69.277	-0.229	-0.088
-217.582	800.000	-0.075	0.212
-216.567	569.480	0.092	0.223
-215.552	-20.175	0.198	0.121
-214.538	-200.000	0.012	-0.115
-213.523	122.600	-0.015	0.018
-212.509	-141.968	-0.291	0.029
-211.494	-132.233	0.097	0.012
-210.479	-102.764	0.108	-0.026
-209.465	-17.149	0.055	0.034
-208.450	-19.199	-0.197	-0.121
-207.436	-123.839	-0.087	-0.014
-206.421	-106.110	0.289	-0.065
-205.406	71.361	0.091	0.094
-204.392	98.886	-0.146	-0.167
-203.377	-200.000	0.179	-0.000
-202.363	85.712	0.111	-0.122
-201.348	-125.586	0.297	0.045
-200.333	-200.000	-0.026	0.128
-199.319	62.925	0.224	-0.223
-198.304	324.463	0.075	-0.143
-197.290	-200.000	-0.024	-0.108
-196.275	-104.590	-0.196	0.045
-195.260	-200.000	0.014	0.128
-194.246	-104.898	0.094	0.021
-193.231	-47.780	0.163	0.079
-192.217	238.437	0.100	0.165
-191.202	-30.037	-0.024	0.014
-190.187	800.000	-0.047	0.161
-189.173	-98.627	0.040	0.010
-188.158	557.710	0.112	0.268
-187.144	-200.000	0.016	0.227
-186.129	99.448	-0.024	-0.028
-185.114	-93.590	0.415	-0.114
-184.100	-138.653	0.310	-0.034
-183.085	-100.987	-0.312	-0.076
-182.071	800.000	0.095	-0.349
-181.056	212.381	0.203	0.318
-180.042	-200.000	-0.005	0.214
-179.027	659.953	0.054	0.137
-178.012	-45.121	0.048	0.024
-176.998	-92.308	-0.111	0.031
-175.983	-39.036	0.115	-0.060
-174.969	-6.158	-0.040	-0.027
-173.954	-0.230	0.282	-0.200
-172.939	200.150	0.032	-0.049
-171.925	-200.000	0.020	0.275
-170.910	163.612	-0.094	-0.131
-169.896	-200.000	0.000	-0.382
-168.881	87.852	-0.242	0.266
-167.866	131.014	-0.111	0.141
-166.852	-141.384	0.112	-0.011
-165.837	-27.989	-0.171	0.098
-164.823	194.402	0.085	-0.128
-163.808	-200.000	0.052	-0.314
-162.793	800.000	-0.090	0.387
-161.779	-136.519	-0.106	-0.012
-160.764	-200.000	-0.018	-0.192
-159.750	-200.000	-0.057	0.306
-158.735	9.812	0.088	0.066
-157.720	-75.505	0.064	0.023
-156.706	-200.000	-0.022	0.186
-155.691	43.333	0.265	0.240
-154.677	-54.202	0.118	-0.053
-153.662	-40.109	-0.341	0.176
-152.647	63.234	0.035	0.035
-151.633	340.887	-0.055	-0.107
-150.618	-39.349	0.207	0.108
-149.604	-106.254	0.118	-0.026
-148.589	324.617	-0.153	0.289
-147.574	-200.000	0.020	0.262
-146.560	-65.897	0.296	0.118
-145.545	-200.000	-0.000	-0.048
-144.531	800.000	0.080	-0.292
-143.516	800.000	-0.065	0.184
-142.502	-81.177	0.110	-0.036
-141.487	-200.000	0.031	-0.202
-140.472	-186.801	0.150	0.002
-139.458	554.066	-0.009	0.021
-138.443	800.000	0.058	0.211
-137.429	-43.510	0.316	-0.158
-136.414	-131.456	0.159	0.021
-135.399	-110.520	-0.304	0.063
-134.385	-200.000	-0.041	0.285
-133.370	-30.942	0.148	0.083
-132.356	326.916	-0.172	-0.327
-131.341	-104.812	0.115	0.026
-130.326	800.000	0.090	0.279
-129.312	48.770	0.185	-0.172
-128.297	-35.512	0.144	-0.078
-127.283	30.620	-0.134	-0.114
-126.268	-193.850	0.232	0.002
-125.253	634.074	-0.028	0.069
-124.239	-200.000	0.034	0.372
-123.224	620.343	-0.176	-0.440
-122.210	-39.589	0.241	-0.125
-121.195	-119.807	-0.058	0.010
