DTS Sentinel unit serial number:	SN413079Multiplexer serial number:	ORYXHardware model number:	OX4-SRSoftware version number:	ORYX F/W v4.00 Oryx Data Collector v3.7.2.0data status	okinstallation	princeton_trtdifferential loss correction	single-endedforward channel	channel 2reverse channel	N/Adate	2019/09/17time	21:03:35forward acquisition time	60.00reverse acquisition time	0.00gamma	496.2192k internal	0.2337k external	0.2337temperature offset calibration	0.9985default loss term (dB/km)	0.3790temperature slope calibration	1.0000multiplexer offset coefficient	1.0000multiplexer slope coefficient	1.0000fibre end	0.00T internal ref (°C)	28.47T ext. ref 1 (°C)	0.20T ext. ref 2 (°C)	20.02length (m)	temperature (°C)	Stokes	anti-Stokes-747.200	-114.872	-0.100	0.019
-746.185	-105.811	-0.018	-0.004
-745.171	-183.232	-0.129	0.002
-744.156	99.261	-0.102	-0.118
-743.142	-200.000	-0.037	0.263
-742.127	390.122	-0.155	0.322
-741.112	196.913	-0.051	0.078
-740.098	86.757	-0.216	0.239
-739.083	287.750	0.059	0.108
-738.069	800.000	-0.144	0.422
-737.054	-63.364	-0.178	0.073
-736.039	-89.692	-0.508	-0.149
-735.025	-16.988	0.134	0.085
-734.010	169.099	0.254	0.364
-732.996	-200.000	0.018	-0.266
-731.981	178.706	-0.063	0.092
-730.966	570.694	0.037	0.090
-729.952	-39.845	-0.100	0.053
-728.937	-15.950	0.479	-0.306
-727.923	221.204	-0.269	-0.434
-726.908	-200.000	0.023	-0.238
-725.894	294.830	-0.166	-0.304
-724.879	136.088	-0.114	0.148
-723.864	156.746	0.033	0.046
-722.850	800.000	-0.042	-0.158
-721.835	721.481	0.068	-0.182
-720.821	50.960	-0.102	0.097
-719.806	-97.959	-0.227	-0.059
-718.791	-133.120	-0.248	0.031
-717.777	-171.247	-0.199	-0.007
-716.762	-200.000	0.017	-0.168
-715.748	132.420	-0.190	-0.246
-714.733	-18.483	0.084	0.052
-713.718	59.473	0.188	0.186
-712.704	-200.000	-0.043	-0.221
-711.689	-14.083	0.258	0.167
-710.675	-105.640	-0.040	0.009
-709.660	470.600	-0.161	-0.364
-708.645	-39.202	0.352	0.185
-707.631	-166.552	0.145	0.006
-706.616	-16.264	0.016	0.010
-705.602	-59.851	-0.214	0.092
-704.587	-200.000	-0.031	-0.188
-703.572	-200.000	0.028	-0.160
-702.558	-144.343	0.130	-0.012
-701.543	240.568	0.094	-0.156
-700.529	-103.410	-0.230	-0.054
-699.514	-200.000	0.017	-0.338
-698.499	27.827	0.109	-0.092
-697.485	-133.057	-0.423	-0.054
-696.470	-77.462	0.185	0.064
-695.456	340.769	-0.111	-0.218
-694.441	-82.945	0.086	-0.028
-693.426	381.104	-0.104	-0.213
-692.412	-200.000	-0.006	0.159
-691.397	-172.595	-0.229	0.007
-690.383	-77.426	-0.335	-0.116
-689.368	62.329	0.072	0.072
-688.354	-93.725	-0.411	0.114
-687.339	89.519	0.119	0.133
-686.324	672.811	-0.071	-0.184
-685.310	800.000	-0.088	0.283
-684.295	140.866	-0.142	-0.188
-683.281	21.962	0.277	-0.226
-682.266	800.000	-0.112	0.315
-681.251	126.903	-0.203	-0.258
-680.237	-155.966	-0.211	0.013
-679.222	50.563	-0.053	-0.050
-678.208	-127.724	0.098	0.014
-677.193	195.173	0.329	-0.500
-676.178	800.000	0.060	-0.188
-675.164	486.306	-0.085	-0.193
-674.149	191.884	0.093	0.140
-673.135	-55.867	-0.138	0.062
-672.120	800.000	-0.023	-0.065
-671.105	-200.000	-0.104	-0.528
-670.091	-200.000	0.052	0.340
-669.076	-5.527	-0.108	-0.074
-668.062	-161.809	-0.176	0.009
-667.047	260.154	0.126	0.218
-666.032	800.000	-0.038	-0.157
-665.018	315.743	0.077	-0.146
-664.003	-200.000	0.023	-0.413
-662.989	-200.000	0.016	-0.222
-661.974	800.000	-0.056	0.186
-660.959	37.562	0.166	-0.147
-659.945	15.683	0.244	-0.192
-658.930	-55.467	-0.403	-0.181
-657.916	-33.206	-0.212	-0.118
-656.901	310.447	0.082	-0.154
-655.886	253.495	-0.233	0.398
-654.872	-155.078	-0.243	-0.016
-653.857	-49.313	-0.133	0.064
-652.843	6.161	0.238	-0.177
-651.828	29.085	0.187	0.159
-650.814	-101.371	0.210	-0.051
-649.799	5.266	-0.184	0.136
-648.784	-200.000	-0.029	0.267
-647.770	143.231	-0.111	0.147
-646.755	-47.999	0.132	-0.064
-645.741	-187.582	0.264	-0.004
-644.726	138.369	0.105	-0.138
-643.711	-200.000	-0.021	-0.123
-642.697	-43.441	0.141	-0.071
-641.682	71.885	0.363	-0.377
-640.668	-40.500	-0.017	-0.009
-639.653	-6.006	-0.251	0.171
-638.638	-109.496	0.239	0.051
-637.624	-100.866	0.098	-0.024
-636.609	5.690	-0.117	-0.087
-635.595	-85.789	-0.050	-0.015
-634.580	386.669	-0.105	0.217
-633.565	-25.502	0.086	-0.051
-632.551	800.000	0.021	-0.072
-631.536	-200.000	-0.040	0.250
-630.522	-48.458	0.056	0.027
-629.507	60.870	0.149	-0.148
-628.492	-200.000	-0.054	-0.354
-627.478	-200.000	-0.006	-0.072
-626.463	-200.000	0.031	-0.568
-625.449	215.531	-0.091	-0.144
-624.434	-200.000	0.099	-0.438
-623.419	-30.852	-0.052	0.029
-622.405	138.920	-0.172	-0.226
-621.390	227.797	0.117	0.190
-620.376	4.559	0.302	0.222
-619.361	-47.624	-0.066	0.032
-618.346	768.902	-0.076	0.207
-617.332	-124.413	-0.253	-0.039
-616.317	64.803	0.093	0.094
-615.303	446.447	0.039	-0.086
-614.288	136.652	0.149	-0.194
-613.273	177.437	0.136	-0.198
-612.259	-162.326	0.409	-0.020
-611.244	-88.575	-0.162	-0.048
-610.230	-146.522	-0.215	0.019
-609.215	-200.000	0.136	0.000
-608.201	-61.652	0.186	-0.078
-607.186	-51.341	0.134	0.063
-606.171	-123.927	-0.281	0.044
-605.157	-0.069	-0.155	0.110
-604.142	257.572	0.069	0.118
-603.128	-154.129	-0.597	0.040
-602.113	-200.000	-0.037	0.254
-601.098	-41.831	-0.434	0.222
-600.084	61.595	-0.169	-0.168
-599.069	-154.539	-0.268	-0.018
-598.055	119.260	-0.137	0.169
-597.040	686.021	0.125	-0.325
-596.025	-7.994	-0.225	-0.152
-595.011	800.000	0.030	-0.096
-593.996	-200.000	-0.029	-0.445
-592.982	800.000	-0.091	0.297
-591.967	132.965	-0.217	-0.279
-590.952	-94.564	0.235	-0.064
-589.938	729.411	0.166	0.442
-588.923	-51.086	-0.095	-0.044
-587.909	-62.086	0.268	-0.112
-586.894	29.339	0.269	0.228
-585.879	106.764	0.068	0.081
-584.865	-200.000	0.010	-0.312
-583.850	98.798	-0.123	-0.141
-582.836	43.834	0.071	0.064
-581.821	-200.000	-0.006	-0.075
-580.806	111.008	0.046	0.056
-579.792	-77.894	-0.592	0.204
-578.777	-82.697	0.186	-0.060
-577.763	-124.854	-0.256	0.039
-576.748	-99.113	-0.170	-0.043
-575.733	800.000	-0.043	-0.174
-574.719	27.382	-0.276	0.231
-573.704	-81.475	-0.187	0.061
-572.690	22.909	-0.027	-0.022
-571.675	-124.251	-0.031	0.005
-570.661	310.997	0.126	0.235
-569.646	-33.204	0.239	0.132
-568.631	-200.000	0.030	-0.316
-567.617	-150.103	0.352	0.027
-566.602	83.088	0.333	-0.361
-565.588	-76.585	0.337	0.118
-564.573	-94.619	-0.161	0.044
-563.558	167.914	-0.094	0.134
-562.544	-200.000	-0.070	-0.313
-561.529	164.459	-0.114	0.160
-560.515	53.127	-0.336	0.321
-559.500	-54.321	0.363	-0.164
-558.485	-200.000	0.044	0.255
-557.471	163.215	-0.154	0.216
-556.456	87.860	0.180	0.199
-555.442	-200.000	0.011	0.192
-554.427	-131.430	-0.458	0.060
-553.412	-200.000	0.012	-0.210
-552.398	-145.173	0.158	0.014
-551.383	-154.045	-0.176	-0.012
-550.369	737.178	-0.047	-0.125
-549.354	-65.958	0.268	0.107
-548.339	99.950	-0.167	0.193
-547.325	-80.842	-0.264	0.087
-546.310	64.643	0.095	0.095
-545.296	-94.051	-0.338	-0.092
-544.281	36.830	-0.096	-0.085
-543.266	-170.188	0.270	-0.010
-542.252	8.232	-0.141	0.106
-541.237	407.335	-0.117	0.247
-540.223	298.682	0.041	0.076
-539.208	125.163	-0.226	-0.283
-538.193	375.186	-0.106	-0.215
-537.179	-200.000	0.066	0.327
-536.164	-200.000	-0.018	0.277
-535.150	800.000	-0.107	0.352
-534.135	397.349	0.076	-0.158
-533.121	800.000	-0.038	-0.157
-532.106	548.177	0.026	-0.062
-531.091	18.431	-0.196	-0.156
-530.077	800.000	-0.101	0.302
-529.062	-133.243	-0.160	-0.020
-528.048	31.754	-0.161	0.138
-527.033	-34.845	0.199	-0.108
-526.018	305.843	0.170	-0.315
-525.004	283.163	0.140	-0.251
-523.989	-200.000	-0.066	-0.411
-522.975	-156.504	0.306	0.019
-521.960	-96.960	0.065	-0.017
-520.945	-200.000	-0.013	0.159
-519.931	449.450	0.126	-0.276
-518.916	114.766	-0.108	0.131
-517.902	-105.556	-0.099	0.022
-516.887	299.065	-0.047	-0.087
-515.872	-200.000	-0.023	0.178
-514.858	-90.088	-0.260	0.075
-513.843	21.354	0.091	0.074
-512.829	-83.447	0.167	0.053
-511.814	17.221	0.161	0.127
-510.799	-127.431	-0.203	0.029
-509.785	448.980	-0.077	0.169
-508.770	-166.314	-0.463	0.019
-507.756	791.809	0.069	-0.190
-506.741	-95.290	-0.185	-0.049
-505.726	-22.433	-0.204	-0.123
-504.712	-102.095	0.180	-0.043
-503.697	800.000	0.055	-0.157
-502.683	-59.929	0.222	0.094
-501.668	-51.443	-0.227	-0.105
-500.653	-162.705	0.179	0.009
-499.639	230.201	0.073	0.118
-498.624	-86.873	-0.536	-0.163
-497.610	-68.822	-0.239	-0.092
-496.595	17.622	-0.070	0.056
-495.581	434.764	-0.063	0.137
-494.566	-127.196	-0.156	-0.023
-493.551	28.715	-0.120	-0.101
-492.537	-200.000	0.015	-0.090
-491.522	-200.000	-0.010	0.060
-490.508	-200.000	-0.030	0.137
-489.493	144.670	0.120	-0.160
-488.478	-200.000	-0.002	-0.306
-487.464	-200.000	0.022	-0.140
-486.449	-82.043	0.165	0.054
-485.435	-117.772	0.299	-0.053
-484.420	248.930	0.035	-0.059
-483.405	800.000	-0.066	-0.200
-482.391	102.585	-0.088	-0.102
-481.376	103.335	-0.091	-0.106
-480.362	462.313	0.173	-0.383
-479.347	-105.485	0.059	0.013
-478.332	-175.161	-0.128	0.004
-477.318	221.962	-0.150	0.240
-476.303	-200.000	-0.092	0.476
-475.289	-5.921	-0.109	0.074
-474.274	-2.935	-0.168	-0.116
-473.259	-95.289	0.232	0.062
-472.245	-135.446	-0.443	0.052
-471.230	-63.020	-0.169	-0.069
-470.216	-196.944	-0.063	0.000
-469.201	287.924	-0.143	-0.257
-468.186	-200.000	0.045	0.301
-467.172	99.427	-0.123	-0.141
-466.157	485.942	0.202	0.456
-465.143	77.699	0.077	0.081
-464.128	-43.728	-0.171	0.086
-463.113	-49.191	0.354	0.168
-462.099	-200.000	-0.012	0.309
-461.084	80.000	-0.003	-0.003
-460.070	-198.164	0.184	-0.001
-459.055	800.000	-0.040	-0.137
-458.040	-190.659	-0.283	-0.003
-457.026	800.000	-0.017	-0.067
-456.011	-53.043	-0.108	-0.049
-454.997	-85.186	-0.243	0.075
-453.982	243.467	-0.134	0.223
-452.968	40.887	0.057	-0.051
-451.953	-200.000	0.042	-0.233
-450.938	68.058	-0.147	-0.149
-449.924	46.328	0.087	0.080
-448.909	-200.000	0.010	0.062
-447.895	589.693	0.035	-0.087
-446.880	-32.164	0.197	0.110
-445.865	426.068	0.154	0.329
-444.851	-88.233	0.240	0.071
-443.836	35.084	0.091	0.079
-442.822	-200.000	0.019	0.322
-441.807	-147.602	0.166	-0.014
-440.792	-85.928	0.179	0.055
-439.778	362.453	-0.166	0.331
-438.763	-70.127	-0.153	0.058
-437.749	727.145	0.023	0.061
-436.734	68.028	0.098	0.100
-435.719	-200.000	-0.020	-0.199
-434.705	161.530	-0.077	0.106
-433.690	-154.075	0.163	0.011
-432.676	-200.000	-0.017	-0.377
-431.661	309.723	-0.166	0.309
-430.646	-105.514	0.128	-0.029
-429.632	-67.570	-0.268	-0.104
-428.617	127.957	0.176	-0.222
-427.603	81.166	-0.100	0.107
-426.588	-123.996	0.374	0.058
-425.573	-35.368	-0.222	-0.120
-424.559	259.862	0.028	-0.048
-423.544	250.525	-0.172	-0.290
-422.530	277.602	-0.048	0.085
-421.515	146.289	0.132	0.176
-420.500	800.000	-0.042	0.153
-419.486	235.726	0.095	0.156
-418.471	103.092	-0.114	0.132
-417.457	-200.000	0.017	0.121
-416.442	-200.000	0.012	0.059
-415.428	298.109	0.095	-0.173
-414.413	-151.701	0.253	-0.018
-413.398	79.087	-0.234	0.249
-412.384	6.745	0.173	0.127
-411.369	-182.235	0.347	-0.006
-410.355	-200.000	0.002	-0.041
-409.340	-168.157	-0.105	-0.004
-408.325	-92.251	-0.159	-0.044
-407.311	-200.000	-0.072	-0.328
-406.296	340.530	0.095	-0.183
-405.282	34.813	0.144	-0.125
-404.267	190.666	0.145	0.216
-403.252	-57.191	-0.258	0.113
-402.238	-71.237	-0.317	0.118
-401.223	115.266	-0.242	-0.292
-400.209	568.651	0.105	-0.251
-399.194	800.000	-0.019	-0.053
-398.179	-114.848	0.161	0.030
-397.165	72.395	-0.142	0.147
-396.150	438.199	0.116	0.251
-395.136	174.672	0.122	-0.175
-394.121	-82.653	-0.212	-0.068
-393.106	-90.846	-0.036	0.010
-392.092	-84.817	-0.127	0.040
-391.077	79.241	0.132	-0.140
-390.063	-116.156	0.516	-0.095
-389.048	-96.555	0.253	-0.066
-388.033	53.469	-0.126	0.119
-387.019	774.990	0.082	0.222
-386.004	-114.185	0.346	0.066
-384.990	274.918	-0.160	0.281
-383.975	-107.965	0.111	-0.024
-382.960	-200.000	-0.021	-0.177
-381.946	-42.901	-0.284	0.143
-380.931	43.058	-0.171	0.155
-379.917	543.961	-0.175	0.413
-378.902	-20.718	-0.176	0.107
-377.888	61.987	0.129	-0.127
-376.873	-23.916	-0.260	-0.154
-375.858	94.883	0.123	-0.138
-374.844	37.772	-0.353	-0.310
-373.829	7.364	0.133	0.098
-372.815	-200.000	0.009	-0.161
-371.800	295.736	0.251	-0.455
-370.785	329.763	-0.049	-0.093
-369.771	-10.208	0.227	-0.149
-368.756	-93.127	-0.113	-0.031
-367.742	-76.578	0.235	0.081
-366.727	-66.168	0.058	-0.023
-365.712	68.086	0.110	-0.111
-364.698	-41.452	0.146	-0.074
-363.683	-108.197	0.163	-0.035
-362.669	800.000	0.106	0.305
-361.654	800.000	-0.027	0.082
-360.639	316.927	-0.043	-0.080
-359.625	141.857	-0.120	-0.157
-358.610	-18.166	0.222	0.137
-357.596	-27.116	-0.128	0.074
-356.581	59.467	-0.300	-0.293
-355.566	-110.863	-0.214	-0.044
-354.552	685.113	0.054	-0.138
-353.537	242.398	0.123	-0.204
-352.523	-39.083	-0.173	-0.090
-351.508	204.831	-0.196	0.301
-350.493	-14.528	0.192	-0.122
-349.479	2.679	0.347	-0.249
-348.464	-55.686	0.317	-0.140
-347.450	-98.676	-0.325	-0.082
-346.435	164.659	0.174	-0.243
-345.420	-84.712	-0.241	-0.075
-344.406	-200.000	0.072	0.396
-343.391	381.500	-0.127	0.258
-342.377	81.267	0.216	-0.231
-341.362	97.721	-0.115	0.130
-340.348	-0.004	-0.110	-0.077
-339.333	-168.337	0.037	-0.001
-338.318	57.890	0.206	0.199
-337.304	24.310	-0.454	0.370
-336.289	800.000	0.042	0.164
-335.275	452.846	0.116	0.253
-334.260	265.560	0.136	-0.235
-333.245	22.770	-0.034	0.028
-332.231	139.751	0.205	0.267
-331.216	56.688	-0.129	-0.124
-330.202	800.000	-0.038	0.130
-329.187	800.000	0.023	-0.096
-328.172	800.000	-0.077	0.289
-327.158	124.913	-0.175	0.218
-326.143	110.968	0.174	0.207
-325.129	-88.137	0.081	0.024
-324.114	800.000	0.086	0.258
-323.099	111.955	-0.199	-0.237
-322.085	15.208	0.320	-0.248
-321.070	-200.000	-0.010	0.186
-320.056	790.939	0.124	0.335
-319.041	252.992	-0.198	0.333
-318.026	-5.134	0.210	0.142
-317.012	-144.208	0.107	-0.010
-315.997	-3.871	0.276	-0.189
-314.983	-9.884	0.061	-0.040
-313.968	252.874	-0.110	0.186
-312.953	0.403	-0.108	0.076
-311.939	-127.071	0.174	0.025
-310.924	-163.142	0.170	0.008
-309.910	-200.000	0.024	0.361
-308.895	52.853	0.145	0.137
-307.880	-145.999	-0.199	-0.017
-306.866	-38.182	-0.200	0.105
-305.851	-176.161	-0.379	-0.010
-304.837	-200.000	-0.076	0.481
-303.822	64.887	-0.032	-0.032
-302.807	800.000	-0.037	-0.128
-301.793	-138.583	0.180	-0.019
-300.778	800.000	0.046	-0.180
-299.764	160.217	-0.050	0.069
-298.749	329.305	-0.109	0.207
-297.735	-59.953	0.231	-0.097
-296.720	800.000	0.089	-0.312
-295.705	-20.218	-0.302	-0.184
-294.691	-33.096	-0.261	-0.143
-293.676	-200.000	0.028	-0.335
-292.662	-32.670	-0.130	0.071
-291.647	-200.000	-0.026	-0.128
-290.632	270.465	0.086	-0.150
-289.618	-11.986	0.279	-0.181
-288.603	30.838	0.175	-0.148
-287.589	-200.000	0.060	-0.265
-286.574	-200.000	-0.020	0.112
-285.559	-137.160	0.235	-0.026
-284.545	-162.609	0.515	-0.025
-283.530	-94.124	-0.300	0.081
-282.516	-200.000	0.030	0.189
-281.501	543.871	0.117	0.276
-280.486	-200.000	0.045	-0.280
-279.472	-200.000	0.028	-0.213
-278.457	-200.000	-0.016	-0.125
-277.443	77.096	-0.221	-0.231
-276.428	800.000	-0.063	-0.228
-275.413	-200.000	0.032	-0.174
-274.399	-164.312	-0.242	-0.011
-273.384	-26.214	0.220	-0.127
-272.370	767.090	-0.156	0.419
-271.355	99.454	0.154	0.175
-270.340	529.010	-0.049	-0.114
-269.326	-74.551	-0.217	-0.077
-268.311	-52.804	-0.287	0.130
-267.297	199.700	-0.164	-0.248
-266.282	113.429	0.130	-0.155
-265.267	-131.753	-0.341	-0.044
-264.253	155.605	0.059	0.080
-263.238	31.986	0.037	-0.031
-262.224	-127.772	0.182	-0.026
-261.209	42.578	0.236	0.212
-260.195	-107.983	0.039	0.008
-259.180	-40.088	0.071	0.036
-258.165	576.062	0.063	0.151
-257.151	-176.440	0.187	-0.005
-256.136	-200.000	-0.092	0.544
-255.122	-200.000	-0.027	-0.173
-254.107	455.828	0.167	-0.365
-253.092	-200.000	0.074	-0.768
-252.078	-150.442	0.093	-0.007
-251.063	-29.481	-0.219	0.123
-250.049	9.713	0.187	0.139
-249.034	127.395	-0.069	-0.086
-248.019	-91.778	-0.120	-0.034
-247.005	800.000	-0.058	0.221
-245.990	-133.007	0.193	-0.024
-244.976	0.208	0.175	-0.123
-243.961	-200.000	0.045	0.353
-242.946	-53.031	0.113	-0.051
-241.932	144.524	0.182	-0.239
-240.917	-0.613	-0.648	0.452
-239.903	800.000	-0.037	0.147
-238.888	-8.337	-0.105	0.069
-237.873	-31.766	-0.184	-0.102
-236.859	800.000	-0.046	-0.131
-235.844	800.000	0.078	0.314
-234.830	800.000	0.073	-0.285
-233.815	-46.474	0.311	0.150
-232.800	-104.391	0.220	-0.050
-231.786	23.142	0.198	0.160
-230.771	184.058	-0.013	0.019
-229.757	196.498	-0.175	-0.263
-228.742	-33.205	0.165	0.090
-227.727	-19.112	0.262	-0.160
-226.713	-200.000	-0.016	0.468
-225.698	800.000	-0.151	0.465
-224.684	-200.000	-0.026	0.434
-223.669	214.426	0.193	-0.301
-222.655	301.142	0.156	0.284
-221.640	-4.041	-0.100	-0.068
-220.625	-68.238	0.260	-0.100
-219.611	-90.113	-0.114	-0.033
-218.596	-93.845	0.376	0.102
-217.582	-119.822	-0.472	0.080
-216.567	618.197	-0.098	-0.241
-215.552	-64.260	0.109	0.044
-214.538	311.591	-0.113	-0.208
-213.523	-200.000	0.045	0.198
-212.509	-82.852	-0.316	-0.100
-211.494	98.438	0.113	-0.128
-210.479	378.148	-0.079	0.159
-209.465	-200.000	0.001	-0.169
-208.450	-200.000	-0.004	0.095
-207.436	-70.346	0.252	-0.094
-206.421	-78.156	0.451	0.153
-205.406	-200.000	0.043	-0.311
-204.392	53.824	-0.206	-0.195
-203.377	127.037	0.247	-0.308
-202.363	-200.000	0.073	-0.353
-201.348	62.308	0.125	0.123
-200.333	-200.000	0.296	-0.001
-199.319	167.452	-0.184	-0.256
-198.304	18.771	0.285	-0.224
-197.290	51.549	0.011	-0.010
-196.275	255.062	-0.054	-0.090
-195.260	-130.275	-0.113	0.015
-194.246	-69.041	0.259	0.098
-193.231	120.185	-0.127	0.154
-192.217	-182.596	-0.056	0.001
-191.202	-46.118	-0.144	0.070
-190.187	80.780	-0.270	0.286
-189.173	-36.973	-0.078	-0.041
-188.158	-19.211	-0.121	0.074
-187.144	800.000	0.137	-0.403
-186.129	-89.917	0.184	0.053
-185.114	14.882	-0.104	0.080
-184.100	-200.000	0.005	-0.220
-183.085	740.767	0.079	-0.208
-182.071	90.272	-0.154	0.169
-181.056	800.000	-0.046	0.155
-180.042	727.269	0.132	0.345
-179.027	-75.027	-0.092	0.032
-178.012	-200.000	-0.009	0.163
-176.998	800.000	0.014	-0.056
-175.983	265.396	0.125	-0.213
-174.969	-172.423	0.173	0.005
-173.954	271.556	-0.115	-0.199
-172.939	-200.000	-0.063	-0.327
-171.925	556.631	-0.138	-0.327
-170.910	-5.847	0.082	-0.055
-169.896	64.470	0.316	-0.312
-168.881	-113.640	-0.256	0.049
-167.866	800.000	-0.035	-0.102
-166.852	-133.098	-0.408	0.051
-165.837	570.685	0.167	0.399
-164.823	-96.577	0.161	0.042
-163.808	-200.000	-0.018	0.258
-162.793	295.061	-0.085	-0.153
-161.779	-59.775	0.327	-0.137
-160.764	14.466	-0.072	0.055
-159.750	161.715	0.185	0.254
-158.735	179.906	0.179	-0.257
-157.720	-200.000	0.022	-0.134
-156.706	-3.757	0.115	0.079
-155.691	11.406	0.196	0.147
-154.677	154.009	0.067	0.090
-153.662	-139.133	-0.407	0.043
-152.647	-15.180	0.183	0.115
-151.633	-138.345	-0.226	-0.025
-150.618	-18.687	0.327	-0.200
-149.604	-200.000	-0.007	0.045
-148.589	-81.299	-0.046	0.015
-147.574	179.950	0.087	0.125
-146.560	-200.000	-0.032	0.190
-145.545	0.107	0.174	0.122
-144.531	433.868	-0.077	-0.163
-143.516	-13.810	-0.190	0.121
-142.502	148.075	-0.229	0.302
-141.487	-22.120	0.229	0.136
-140.472	8.462	0.054	-0.040
-139.458	-129.086	0.285	0.039
-138.443	-200.000	0.032	0.319
-137.429	98.775	0.105	-0.118
-136.414	-63.124	0.153	0.062
-135.399	-87.570	0.169	0.050
-134.385	16.015	-0.139	-0.107
-133.370	554.490	0.016	-0.037
-132.356	164.078	-0.115	0.158
-131.341	-35.635	0.039	0.021
-130.326	-33.689	0.026	0.014
-129.312	-69.214	-0.157	0.059
-128.297	219.715	-0.107	0.167
-127.283	-200.000	-0.027	-0.159
-126.268	-94.070	-0.188	0.051
-125.253	58.828	0.130	-0.125
-124.239	88.759	-0.171	0.186
-123.224	-10.872	0.161	0.104
-122.210	-42.955	0.165	-0.082
-121.195	-46.049	-0.178	0.086
