DTS Sentinel unit serial number:	SN413079Multiplexer serial number:	ORYXHardware model number:	OX4-SRSoftware version number:	ORYX F/W v4.00 Oryx Data Collector v3.7.2.0data status	okinstallation	princeton_trtdifferential loss correction	single-endedforward channel	channel 2reverse channel	N/Adate	2019/09/17time	14:43:35forward acquisition time	60.00reverse acquisition time	0.00gamma	496.2192k internal	0.2311k external	0.2311temperature offset calibration	0.9984default loss term (dB/km)	0.3790temperature slope calibration	1.0000multiplexer offset coefficient	1.0000multiplexer slope coefficient	1.0000fibre end	0.00T internal ref (°C)	36.87T ext. ref 1 (°C)	0.39T ext. ref 2 (°C)	33.83length (m)	temperature (°C)	Stokes	anti-Stokes-747.200	101.208	0.212	0.250
-746.185	-28.222	0.320	0.188
-745.171	-104.594	0.160	0.037
-744.156	-200.000	-0.103	0.470
-743.142	65.718	-0.034	-0.035
-742.127	800.000	0.052	-0.226
-741.112	-197.427	0.254	0.002
-740.098	-200.000	-0.011	0.081
-739.083	10.819	-0.251	-0.194
-738.069	477.999	-0.063	0.145
-737.054	800.000	0.055	-0.156
-736.039	-41.223	0.077	-0.040
-735.025	5.484	-0.180	0.135
-734.010	-48.963	-0.298	0.145
-732.996	800.000	-0.068	-0.245
-731.981	-75.756	-0.050	0.018
-730.966	800.000	-0.050	-0.173
-729.952	-145.684	-0.255	0.023
-728.937	78.038	0.093	0.101
-727.923	-28.473	0.058	0.034
-726.908	-111.822	-0.076	-0.016
-725.894	32.973	0.120	-0.105
-724.879	92.619	0.095	-0.109
-723.864	800.000	0.059	0.215
-722.850	-132.932	-0.101	0.013
-721.835	122.401	0.219	-0.277
-720.821	3.740	-0.097	-0.072
-719.806	-146.590	0.192	0.017
-718.791	95.031	0.118	0.136
-717.777	-200.000	0.037	0.238
-716.762	79.378	0.183	-0.199
-715.748	404.537	-0.101	-0.216
-714.733	81.133	0.021	0.023
-713.718	43.001	-0.147	-0.136
-712.704	-200.000	-0.028	-0.285
-711.689	-75.210	-0.392	0.142
-710.675	268.927	-0.187	-0.332
-709.660	-200.000	-0.015	-0.115
-708.645	-200.000	-0.004	0.080
-707.631	743.370	-0.024	-0.065
-706.616	302.087	0.004	-0.008
-705.602	-90.160	-0.249	-0.073
-704.587	756.512	0.066	-0.180
-703.572	191.288	-0.094	0.144
-702.558	800.000	-0.031	-0.111
-701.543	33.686	0.141	-0.124
-700.529	800.000	-0.066	0.270
-699.514	-200.000	0.007	0.323
-698.499	517.858	0.016	-0.037
-697.485	176.360	-0.320	-0.471
-696.470	800.000	0.077	-0.226
-695.456	423.748	0.046	-0.099
-694.441	-75.065	0.285	-0.103
-693.426	800.000	-0.057	0.198
-692.412	123.045	-0.207	0.262
-691.397	-113.544	-0.062	-0.012
-690.383	-61.478	-0.228	0.097
-689.368	574.232	-0.090	0.221
-688.354	-154.663	0.099	-0.007
-687.339	-151.804	-0.145	0.011
-686.324	562.082	-0.011	0.027
-685.310	-104.688	-0.185	0.043
-684.295	-62.431	0.198	-0.084
-683.281	702.993	-0.083	0.223
-682.266	-200.000	-0.077	-0.529
-681.251	800.000	-0.053	0.152
-680.237	-102.372	0.418	0.101
-679.222	-2.863	-0.501	0.354
-678.208	186.006	0.147	0.222
-677.193	-21.584	-0.311	-0.192
-676.178	-11.072	0.288	-0.192
-675.164	800.000	-0.054	-0.215
-674.149	-20.363	0.026	0.016
-673.135	-91.770	0.083	0.024
-672.120	-32.472	-0.200	0.113
-671.105	-200.000	0.001	-0.267
-670.091	-152.186	-0.247	0.018
-669.076	-200.000	-0.000	-0.501
-668.062	178.724	-0.046	0.068
-667.047	-101.193	0.427	0.106
-666.032	800.000	0.068	-0.226
-665.018	-40.267	-0.011	0.006
-664.003	61.918	-0.350	-0.353
-662.989	-200.000	0.025	-0.193
-661.974	800.000	-0.027	-0.078
-660.959	-58.448	0.142	0.062
-659.945	-200.000	0.029	-0.163
-658.930	-125.700	-0.192	0.029
-657.916	-70.182	0.405	-0.156
-656.901	-118.064	-0.306	-0.055
-655.886	-200.000	-0.037	0.362
-654.872	84.265	0.036	-0.040
-653.857	66.295	0.041	0.042
-652.843	134.792	0.108	-0.142
-651.828	-46.861	0.150	-0.074
-650.814	-9.394	0.185	-0.125
-649.799	-71.103	0.171	-0.065
-648.784	139.358	-0.156	-0.208
-647.770	-7.688	-0.098	-0.067
-646.755	424.728	0.090	0.195
-645.741	203.240	0.279	0.437
-644.726	-177.763	0.226	-0.006
-643.711	618.584	0.015	0.038
-642.697	-125.887	0.234	0.036
-641.682	640.829	0.076	-0.195
-640.668	351.103	-0.104	0.209
-639.653	98.162	0.133	0.154
-638.638	-200.000	0.046	-0.281
-637.624	800.000	-0.124	0.409
-636.609	-200.000	-0.003	0.158
-635.595	-200.000	-0.042	-0.201
-634.580	-69.200	-0.164	-0.064
-633.565	50.974	0.142	-0.136
-632.551	22.219	0.053	0.044
-631.536	-108.488	-0.382	-0.083
-630.522	47.208	-0.185	0.174
-629.507	513.731	0.115	-0.270
-628.492	-50.403	-0.146	0.070
-627.478	800.000	-0.071	-0.230
-626.463	65.828	0.194	0.199
-625.449	345.318	-0.135	-0.268
-624.434	-162.883	-0.173	-0.008
-623.419	-200.000	-0.034	0.281
-622.405	-16.154	-0.210	-0.135
-621.390	43.321	-0.232	0.214
-620.376	-102.144	0.164	-0.040
-619.361	-200.000	0.074	-0.400
-618.346	-54.595	0.195	-0.089
-617.332	800.000	-0.037	-0.121
-616.317	113.368	0.175	-0.214
-615.303	-73.306	0.277	-0.102
-614.288	-200.000	0.027	0.454
-613.273	-170.415	-0.360	0.013
-612.259	800.000	-0.044	-0.149
-611.244	250.536	0.101	-0.174
-610.230	-200.000	0.001	-0.120
-609.215	800.000	-0.054	-0.204
-608.201	-25.551	-0.090	-0.054
-607.186	-200.000	0.004	-0.365
-606.171	-66.732	-0.066	-0.026
-605.157	800.000	0.032	0.131
-604.142	63.127	-0.295	-0.298
-603.128	116.336	-0.097	-0.120
-602.113	-45.355	0.295	-0.148
-601.098	-64.654	0.253	0.104
-600.084	-57.758	-0.082	0.036
-599.069	-69.333	-0.011	-0.004
-598.055	-200.000	-0.014	0.267
-597.040	154.051	0.008	0.011
-596.025	-31.259	0.128	0.073
-595.011	328.716	-0.066	0.129
-593.996	273.094	-0.140	0.250
-592.982	271.038	0.139	0.247
-591.967	10.414	0.181	0.139
-590.952	-15.651	0.161	0.104
-589.938	413.528	-0.173	0.371
-588.923	-96.901	-0.275	0.073
-587.909	-200.000	-0.001	0.126
-586.894	-200.000	-0.014	-0.137
-585.879	-85.685	0.304	-0.095
-584.865	424.873	-0.048	-0.105
-583.850	-61.256	-0.214	0.091
-582.836	-100.057	0.274	-0.069
-581.821	266.889	0.174	-0.307
-580.806	-81.285	0.163	-0.054
-579.792	-200.000	-0.045	0.201
-578.777	-200.000	0.038	0.297
-577.763	205.468	0.179	0.280
-576.748	-200.000	-0.013	-0.250
-575.733	-6.481	0.053	0.036
-574.719	88.546	0.228	0.256
-573.704	222.030	-0.208	-0.337
-572.690	478.051	-0.070	0.160
-571.675	800.000	-0.059	-0.212
-570.661	264.115	-0.300	0.526
-569.646	-1.911	-0.209	-0.148
-568.631	800.000	-0.125	-0.445
-567.617	800.000	-0.103	-0.391
-566.602	-66.540	-0.057	0.023
-565.588	-200.000	-0.006	-0.038
-564.573	-200.000	-0.027	0.473
-563.558	-135.549	0.105	-0.013
-562.544	-73.437	0.194	0.071
-561.529	-200.000	-0.065	0.320
-560.515	17.047	-0.254	0.203
-559.500	269.584	0.235	-0.416
-558.485	-37.955	-0.351	-0.188
-557.471	-200.000	0.014	-0.134
-556.456	-182.453	0.294	0.005
-555.442	-200.000	-0.032	0.147
-554.427	104.962	0.131	-0.155
-553.412	97.303	0.198	-0.229
-552.398	-114.172	-0.055	-0.011
-551.383	464.362	-0.047	-0.106
-550.369	297.699	-0.017	-0.031
-549.354	-200.000	0.021	0.108
-548.339	-35.021	0.265	0.146
-547.325	-200.000	0.029	0.194
-546.310	189.504	0.027	0.041
-545.296	185.226	0.101	0.151
-544.281	286.686	-0.061	0.111
-543.266	-39.315	-0.170	-0.090
-542.252	-56.450	-0.190	0.085
-541.237	-90.044	0.183	-0.054
-540.223	-117.414	-0.212	0.039
-539.208	336.741	0.193	0.377
-538.193	293.121	-0.167	-0.307
-537.179	800.000	-0.071	-0.252
-536.164	-59.029	-0.316	-0.137
-535.150	-129.039	-0.101	0.014
-534.135	364.102	0.075	-0.151
-533.121	-159.624	-0.135	0.008
-532.106	-200.000	-0.094	-0.427
-531.091	-134.252	-0.284	-0.035
-530.077	-180.254	-0.149	-0.003
-529.062	800.000	-0.046	0.183
-528.048	-117.663	-0.232	-0.042
-527.033	686.124	0.049	-0.129
-526.018	83.852	-0.032	-0.036
-525.004	-145.599	-0.250	0.023
-523.989	-79.334	0.121	0.041
-522.975	18.855	-0.173	-0.139
-521.960	-168.884	-0.350	-0.013
-520.945	104.838	0.194	-0.230
-519.931	160.203	0.182	-0.255
-518.916	679.472	-0.041	0.106
-517.902	-185.950	-0.228	0.003
-516.887	6.042	-0.183	0.136
-515.872	-200.000	-0.007	0.270
-514.858	28.375	0.069	0.058
-513.843	136.741	0.017	-0.023
-512.829	-0.151	-0.043	0.031
-511.814	-200.000	-0.001	0.304
-510.799	65.174	-0.402	0.409
-509.785	-35.596	-0.262	0.143
-508.770	226.114	0.057	0.092
-507.756	-114.036	0.219	0.043
-506.741	-200.000	-0.004	0.177
-505.726	-27.196	-0.240	0.141
-504.712	-200.000	-0.029	0.212
-503.697	52.966	-0.432	-0.416
-502.683	327.172	0.147	0.283
-501.668	468.121	0.054	0.122
-500.653	-100.743	0.245	0.061
-499.639	-200.000	0.022	0.159
-498.624	800.000	-0.042	0.166
-497.610	63.976	-0.222	0.224
-496.595	-143.407	-0.150	-0.014
-495.581	800.000	-0.004	0.015
-494.566	511.816	0.087	-0.204
-493.551	-200.000	-0.041	-0.232
-492.537	259.605	-0.163	-0.283
-491.522	-42.919	-0.210	0.107
-490.508	87.620	0.075	-0.083
-489.493	-119.980	-0.060	-0.010
-488.478	54.702	-0.120	0.117
-487.464	-42.464	-0.060	0.031
-486.449	-200.000	-0.032	-0.320
-485.435	800.000	0.035	0.149
-484.420	-25.786	0.126	-0.074
-483.405	-168.613	0.303	-0.012
-482.391	800.000	0.106	-0.304
-481.376	535.377	0.100	-0.238
-480.362	-200.000	-0.046	0.219
-479.347	-200.000	0.042	0.250
-478.332	-122.655	0.263	-0.043
-477.318	-31.633	-0.036	0.020
-476.303	-112.851	0.325	-0.065
-475.289	-57.785	0.246	0.108
-474.274	-200.000	-0.003	-0.039
-473.259	444.022	-0.136	-0.299
-472.245	800.000	0.022	0.064
-471.230	-200.000	-0.033	0.212
-470.216	-87.047	-0.306	0.094
-469.201	93.830	-0.077	-0.087
-468.186	52.420	-0.294	-0.281
-467.172	-200.000	-0.012	-0.098
-466.157	175.978	-0.112	0.164
-465.143	-6.066	-0.117	-0.080
-464.128	2.409	0.119	-0.086
-463.113	-200.000	0.018	0.159
-462.099	142.437	-0.134	-0.179
-461.084	-200.000	-0.004	-0.116
-460.070	-92.601	0.066	0.019
-459.055	-21.445	0.078	-0.048
-458.040	-200.000	-0.011	-0.245
-457.026	109.821	-0.197	0.237
-456.011	263.848	0.133	0.232
-454.997	40.055	0.091	-0.082
-453.982	241.442	0.057	-0.096
-452.968	-140.329	0.031	0.003
-451.953	-83.174	0.096	-0.031
-450.938	133.764	-0.091	0.119
-449.924	-200.000	-0.029	0.467
-448.909	112.993	0.140	0.170
-447.895	-8.510	0.139	-0.094
-446.880	58.472	-0.167	-0.165
-445.865	-200.000	0.000	-0.079
-444.851	-200.000	0.043	-0.231
-443.836	80.609	0.190	-0.206
-442.822	-46.368	0.100	0.049
-441.807	-164.105	-0.214	0.010
-440.792	-64.594	0.160	-0.065
-439.778	-152.386	-0.333	-0.024
-438.763	317.846	0.072	0.138
-437.749	7.324	0.044	-0.033
-436.734	246.377	-0.015	0.025
-435.719	669.324	0.111	0.287
-434.705	-200.000	0.007	-0.039
-433.690	196.706	0.249	-0.381
-432.676	372.350	0.074	-0.151
-431.661	-127.551	-0.190	0.028
-430.646	-124.196	0.273	-0.043
-429.632	163.210	-0.072	-0.101
-428.617	-200.000	-0.013	0.236
-427.603	738.410	-0.143	-0.386
-426.588	115.875	0.166	-0.204
-425.573	-20.711	0.122	0.075
-424.559	194.195	-0.177	-0.269
-423.544	-72.791	-0.115	-0.042
-422.530	-200.000	0.034	0.152
-421.515	800.000	-0.042	0.135
-420.500	304.490	0.133	-0.248
-419.486	-200.000	-0.048	-0.249
-418.471	-200.000	0.001	-0.192
-417.457	2.648	-0.246	-0.179
-416.442	62.882	0.185	0.185
-415.428	800.000	0.094	0.309
-414.413	-200.000	-0.026	-0.304
-413.398	-200.000	-0.008	-0.133
-412.384	-9.275	0.288	-0.193
-411.369	164.033	0.022	-0.031
-410.355	525.670	-0.063	0.148
-409.340	602.579	0.047	-0.118
-408.325	-68.620	0.160	-0.062
-407.311	440.111	-0.124	0.272
-406.296	-31.349	0.118	0.066
-405.282	-200.000	-0.045	0.292
-404.267	-200.000	0.052	-0.266
-403.252	-200.000	-0.011	0.056
-402.238	46.309	-0.055	-0.051
-401.223	-81.892	-0.381	0.125
-400.209	95.131	0.088	-0.101
-399.194	-157.979	0.120	0.007
-398.179	-200.000	-0.017	-0.276
-397.165	401.256	-0.138	-0.289
-396.150	800.000	-0.032	0.128
-395.136	250.713	-0.210	0.358
-394.121	-200.000	0.153	0.001
-393.106	-87.188	-0.212	0.064
-392.092	-90.223	0.387	-0.113
-391.077	794.741	-0.063	-0.173
-390.063	800.000	-0.030	-0.103
-389.048	273.585	-0.196	0.346
-388.033	-200.000	-0.080	0.382
-387.019	-200.000	-0.000	-0.548
-386.004	109.963	0.068	0.082
-384.990	-76.731	-0.182	-0.064
-383.975	68.783	0.123	-0.127
-382.960	-145.812	0.181	0.016
-381.946	334.141	-0.075	-0.146
-380.931	-144.392	0.071	-0.007
-379.917	-134.725	0.069	0.008
-378.902	646.089	0.143	-0.366
-377.888	-44.148	-0.058	-0.029
-376.873	800.000	0.044	-0.181
-375.858	93.597	-0.162	0.184
-374.844	-52.215	-0.060	0.028
-373.829	-3.165	-0.333	0.232
-372.815	357.373	0.148	0.294
-371.800	-9.764	-0.164	0.109
-370.785	526.839	-0.052	0.124
-369.771	681.429	0.096	0.250
-368.756	23.112	-0.215	-0.177
-367.742	83.776	-0.074	-0.081
-366.727	800.000	-0.080	0.328
-365.712	250.742	-0.103	0.175
-364.698	-19.507	-0.145	0.090
-363.683	199.309	-0.098	-0.150
-362.669	-34.201	-0.297	0.163
-361.654	-43.653	0.124	-0.062
-360.639	-107.274	0.251	0.055
-359.625	800.000	-0.022	0.096
-358.610	-76.011	-0.318	-0.112
-357.596	800.000	-0.017	0.065
-356.581	-74.342	-0.133	0.048
-355.566	800.000	0.017	-0.056
-354.552	267.189	-0.038	-0.066
-353.537	-118.514	0.155	-0.027
-352.523	129.378	0.116	0.148
-351.508	-45.603	0.113	-0.056
-350.493	-132.742	-0.136	-0.017
-349.479	137.161	-0.149	0.194
-348.464	-118.549	0.205	0.036
-347.450	-200.000	-0.011	-0.201
-346.435	-64.979	0.219	0.088
-345.420	76.242	0.098	0.104
-344.406	-200.000	-0.004	0.193
-343.391	230.790	0.178	0.292
-342.377	302.957	0.152	-0.281
-341.362	-96.808	-0.100	0.026
-340.348	800.000	0.005	-0.019
-339.333	-96.002	0.301	0.080
-338.318	16.238	-0.089	-0.070
-337.304	-77.006	-0.282	-0.098
-336.289	653.006	-0.037	-0.095
-335.275	-114.330	-0.090	-0.017
-334.260	182.549	-0.157	-0.231
-333.245	239.175	-0.025	0.042
-332.231	157.633	-0.076	-0.105
-331.216	-200.000	0.008	0.240
-330.202	-113.730	-0.332	-0.065
-329.187	28.219	-0.099	0.084
-328.172	-167.592	0.124	-0.005
-327.158	-169.434	0.289	-0.011
-326.143	-26.685	0.083	-0.048
-325.129	-5.975	0.383	0.261
-324.114	-200.000	-0.172	-0.001
-323.099	102.726	-0.119	0.139
-322.085	800.000	0.096	-0.319
-321.070	-162.204	-0.222	0.011
-320.056	175.609	0.047	0.068
-319.041	-200.000	-0.020	-0.111
-318.026	51.068	0.132	0.125
-317.012	800.000	0.035	-0.108
-315.997	-91.248	-0.135	-0.038
-314.983	258.831	0.071	0.122
-313.968	319.202	0.045	0.085
-312.953	-11.840	0.026	0.017
-311.939	527.623	0.052	-0.122
-310.924	189.968	0.024	-0.037
-309.910	-116.728	0.358	0.066
-308.895	67.390	-0.296	-0.301
-307.880	175.256	0.130	0.188
-306.866	-100.815	-0.143	-0.035
-305.851	-144.687	-0.134	0.012
-304.837	-181.207	0.149	0.003
-303.822	-112.393	0.093	-0.019
-302.807	62.525	0.162	0.161
-301.793	316.453	-0.058	0.110
-300.778	-200.000	0.049	-0.290
-299.764	-200.000	-0.032	0.198
-298.749	165.055	-0.148	-0.208
-297.735	56.843	0.174	0.169
-296.720	86.084	-0.197	0.216
-295.705	-80.082	-0.264	0.088
-294.691	800.000	0.097	-0.271
-293.676	-4.303	-0.169	0.117
-292.662	-78.711	0.201	-0.069
-291.647	66.946	0.119	0.121
-290.632	-38.824	0.315	-0.165
-289.618	363.384	0.149	-0.299
-288.603	-32.361	0.257	0.143
-287.589	9.703	-0.120	0.091
-286.574	720.761	0.014	0.038
-285.559	-200.000	-0.005	-0.054
-284.545	-98.701	-0.310	-0.079
-283.530	7.845	-0.258	-0.193
-282.516	-60.006	0.214	0.091
-281.501	-70.628	0.131	0.049
-280.486	800.000	0.051	-0.173
-279.472	-133.152	0.245	-0.031
-278.457	-119.777	0.247	-0.042
-277.443	475.207	0.027	0.061
-276.428	96.910	-0.269	0.307
-275.413	403.617	-0.085	-0.178
-274.399	-200.000	-0.014	0.272
-273.384	800.000	-0.049	-0.169
-272.370	88.290	0.275	-0.304
-271.355	102.920	0.263	-0.307
-270.340	-88.726	0.238	0.070
-269.326	-200.000	-0.000	-0.075
-268.311	-73.632	-0.185	-0.067
-267.297	-145.476	-0.108	-0.010
-266.282	800.000	-0.054	0.218
-265.267	-134.560	0.377	-0.046
-264.253	535.692	0.063	-0.148
-263.238	283.550	0.112	-0.201
-262.224	141.737	0.091	-0.120
-261.209	-200.000	0.002	0.358
-260.195	170.726	0.130	0.186
-259.180	179.179	0.207	0.301
-258.165	253.875	0.134	0.229
-257.151	800.000	0.137	-0.426
-256.136	800.000	0.050	-0.170
-255.122	-160.385	0.197	-0.011
-254.107	-196.517	-0.224	-0.002
-253.092	133.900	-0.103	0.132
-252.078	-88.116	-0.245	-0.073
-251.063	-200.000	0.019	-0.098
-250.049	-75.664	-0.136	-0.048
-249.034	-90.773	-0.156	0.045
-248.019	15.365	-0.264	-0.206
-247.005	617.197	-0.056	-0.140
-245.990	-169.890	0.166	0.006
-244.976	-103.721	-0.534	0.125
-243.961	-200.000	-0.004	-0.288
-242.946	206.502	0.119	0.184
-241.932	-200.000	-0.005	-0.050
-240.917	229.493	-0.049	-0.079
-239.903	-29.081	-0.189	0.108
-238.888	-0.285	0.107	-0.075
-237.873	-200.000	-0.038	0.241
-236.859	39.548	-0.041	0.037
-235.844	-200.000	0.029	-0.187
-234.830	-90.531	-0.115	0.033
-233.815	-200.000	0.017	-0.095
-232.800	-73.281	0.253	0.092
-231.786	800.000	0.123	-0.430
-230.771	-85.004	-0.088	-0.027
-229.757	800.000	-0.150	0.429
-228.742	10.834	0.118	-0.089
-227.727	-5.227	-0.167	0.115
-226.713	-200.000	-0.001	-0.201
-225.698	-136.664	-0.165	0.019
-224.684	-63.309	0.245	0.100
-223.669	786.325	0.033	-0.089
-222.655	348.538	-0.084	0.164
-221.640	28.754	-0.086	0.073
-220.625	6.805	0.128	0.095
-219.611	423.381	0.120	-0.256
-218.596	402.348	-0.047	0.098
-217.582	800.000	0.015	-0.065
-216.567	-108.192	0.410	0.088
-215.552	-136.912	-0.191	-0.022
-214.538	-200.000	0.048	0.271
-213.523	251.003	-0.110	-0.185
-212.509	800.000	0.075	0.243
-211.494	-6.271	0.242	0.164
-210.479	-129.894	0.183	-0.025
-209.465	258.038	0.093	-0.159
-208.450	-118.413	-0.239	-0.042
-207.436	245.738	-0.116	0.194
-206.421	75.763	-0.042	0.044
-205.406	506.763	0.094	-0.216
-204.392	800.000	-0.038	-0.124
-203.377	4.817	0.107	-0.079
-202.363	316.976	-0.115	-0.216
-201.348	-200.000	-0.003	0.227
-200.333	373.796	0.050	0.101
-199.319	-175.817	0.302	-0.008
-198.304	263.248	0.134	0.232
-197.290	91.465	0.323	-0.360
-196.275	475.322	-0.084	0.189
-195.260	-17.880	0.327	-0.204
-194.246	-200.000	0.194	0.000
-193.231	-162.310	-0.396	-0.020
-192.217	-91.406	-0.062	0.018
-191.202	-137.704	-0.069	0.008
-190.187	180.441	-0.056	-0.081
-189.173	-157.381	-0.184	-0.011
-188.158	-36.117	-0.193	-0.103
-187.144	476.021	-0.031	-0.069
-186.129	36.443	0.051	0.044
-185.114	-25.716	0.211	0.123
-184.100	107.505	-0.043	-0.051
-183.085	-100.164	0.037	0.009
-182.071	-75.359	0.396	0.140
-181.056	-103.986	0.197	0.046
-180.042	-4.291	0.085	0.058
-179.027	-200.000	-0.054	0.277
-178.012	-74.805	0.234	-0.083
-176.998	-7.541	0.199	0.134
-175.983	-159.143	0.031	0.002
-174.969	405.535	0.086	-0.181
-173.954	-200.000	0.031	-0.217
-172.939	-132.426	0.293	0.038
-171.925	-53.947	0.106	0.048
-170.910	131.630	-0.128	0.164
-169.896	78.283	-0.016	-0.017
-168.881	768.526	0.052	0.141
-167.866	51.015	-0.100	0.094
-166.852	213.645	-0.118	0.185
-165.837	730.442	0.132	0.349
-164.823	13.965	-0.519	0.401
-163.808	-99.377	0.188	-0.047
-162.793	800.000	0.022	0.080
-161.779	17.324	-0.187	-0.147
-160.764	20.276	-0.261	0.209
-159.750	-200.000	0.039	-0.261
-158.735	-33.052	0.054	0.030
-157.720	-72.036	0.213	-0.079
-156.706	-200.000	0.013	0.141
-155.691	-117.685	0.196	-0.035
-154.677	-200.000	0.026	-0.133
-153.662	800.000	-0.028	-0.077
-152.647	-200.000	0.037	0.206
-151.633	-51.418	-0.175	0.081
-150.618	-200.000	0.033	-0.360
-149.604	-144.112	0.230	-0.021
-148.589	116.797	0.059	0.072
-147.574	-200.000	0.047	-0.233
-146.560	-200.000	0.012	-0.106
-145.545	30.327	-0.121	0.102
-144.531	-135.638	-0.225	0.027
-143.516	150.512	0.234	-0.315
-142.502	-83.906	0.312	-0.098
-141.487	-130.037	-0.194	0.026
-140.472	-24.802	0.010	0.006
-139.458	-200.000	-0.047	-0.219
-138.443	-51.153	0.112	0.052
-137.429	106.543	0.161	-0.189
-136.414	-27.622	0.106	0.061
-135.399	-42.569	0.171	-0.086
-134.385	-180.947	0.214	0.004
-133.370	325.072	0.060	0.114
-132.356	256.224	0.123	0.210
-131.341	533.219	-0.124	0.291
-130.326	72.264	0.091	-0.094
-129.312	800.000	0.115	-0.326
-128.297	-91.252	0.071	-0.020
-127.283	664.916	-0.036	0.091
-126.268	-200.000	0.031	-0.385
-125.253	-200.000	-0.004	0.137
-124.239	34.715	0.193	0.167
-123.224	-200.000	-0.017	-0.149
-122.210	-141.327	0.239	0.024
