DTS Sentinel unit serial number:	SN413079Multiplexer serial number:	ORYXHardware model number:	OX4-SRSoftware version number:	ORYX F/W v4.00 Oryx Data Collector v3.7.2.0data status	okinstallation	princeton_trtdifferential loss correction	single-endedforward channel	channel 2reverse channel	N/Adate	2019/09/18time	13:43:34forward acquisition time	60.00reverse acquisition time	0.00gamma	496.2192k internal	0.2319k external	0.2319temperature offset calibration	0.9995default loss term (dB/km)	0.3790temperature slope calibration	1.0000multiplexer offset coefficient	1.0000multiplexer slope coefficient	1.0000fibre end	0.00T internal ref (°C)	34.44T ext. ref 1 (°C)	0.64T ext. ref 2 (°C)	30.07length (m)	temperature (°C)	Stokes	anti-Stokes-747.200	61.230	0.122	-0.122
-746.185	-31.993	-0.201	0.114
-745.171	-155.589	0.067	0.004
-744.156	-122.356	-0.262	0.043
-743.142	425.795	0.082	0.179
-742.127	-200.000	-0.023	0.127
-741.112	-200.000	-0.052	0.272
-740.098	-112.383	0.085	0.017
-739.083	91.013	-0.116	-0.132
-738.069	-164.211	-0.133	0.006
-737.054	-200.000	0.022	0.260
-736.039	-124.975	-0.221	0.034
-735.025	-82.917	0.200	-0.065
-734.010	-200.000	0.020	-0.363
-732.996	160.212	-0.094	-0.133
-731.981	-59.685	0.071	-0.031
-730.966	-39.441	-0.217	-0.115
-729.952	-70.283	0.018	0.007
-728.937	-200.000	0.015	-0.177
-727.923	-73.654	-0.331	0.122
-726.908	-50.051	-0.171	0.082
-725.894	199.413	-0.156	0.241
-724.879	-13.954	-0.065	-0.042
-723.864	8.932	0.122	0.093
-722.850	40.377	-0.197	-0.179
-721.835	-171.336	-0.115	-0.004
-720.821	-41.817	-0.393	-0.204
-719.806	-146.241	0.239	0.021
-718.791	-21.257	-0.219	-0.135
-717.777	-200.000	-0.011	0.189
-716.762	168.261	-0.091	0.131
-715.748	-99.537	-0.250	0.063
-714.733	-60.386	0.140	0.060
-713.718	-121.008	-0.297	-0.050
-712.704	515.638	0.147	-0.347
-711.689	800.000	-0.092	-0.322
-710.675	251.055	-0.100	-0.171
-709.660	800.000	-0.018	0.077
-708.645	429.758	-0.115	0.250
-707.631	523.357	-0.120	-0.285
-706.616	22.660	-0.226	-0.187
-705.602	-97.398	0.224	0.059
-704.587	487.002	-0.087	0.200
-703.572	18.976	-0.334	0.271
-702.558	41.541	-0.360	0.329
-701.543	-5.791	0.090	0.063
-700.529	-78.015	0.163	0.057
-699.514	-21.498	-0.086	0.053
-698.499	318.548	0.170	0.325
-697.485	84.370	0.146	-0.161
-696.470	291.421	-0.097	0.177
-695.456	490.415	-0.142	0.329
-694.441	-12.260	-0.327	0.216
-693.426	407.238	0.117	0.250
-692.412	-17.497	0.036	0.023
-691.397	235.297	0.115	0.192
-690.383	-200.000	0.036	-0.185
-689.368	-91.120	-0.325	-0.094
-688.354	-200.000	-0.003	0.019
-687.339	-41.205	-0.080	-0.041
-686.324	-144.110	-0.180	-0.017
-685.310	-200.000	-0.012	0.149
-684.295	605.618	0.022	-0.054
-683.281	-200.000	-0.011	-0.192
-682.266	-109.721	0.009	0.002
-681.251	5.764	0.167	0.124
-680.237	-94.881	0.158	0.043
-679.222	-200.000	0.010	0.079
-678.208	-38.112	-0.098	-0.053
-677.193	17.300	-0.159	-0.127
-676.178	-38.317	-0.270	-0.144
-675.164	438.558	-0.020	0.044
-674.149	-200.000	-0.010	0.211
-673.135	-96.931	-0.198	-0.052
-672.120	-200.000	0.058	-0.000
-671.105	-200.000	-0.021	0.128
-670.091	798.759	-0.101	0.281
-669.076	51.946	0.086	0.083
-668.062	-133.911	-0.212	0.027
-667.047	-200.000	0.012	-0.124
-666.032	-200.000	0.025	-0.169
-665.018	797.852	-0.117	0.324
-664.003	211.608	0.102	-0.161
-662.989	319.606	0.104	-0.199
-661.974	-64.690	0.197	0.080
-660.959	-32.054	-0.176	0.099
-659.945	-170.427	-0.424	-0.015
-658.930	385.636	-0.164	0.341
-657.916	-85.278	-0.246	0.077
-656.901	-126.057	-0.134	-0.020
-655.886	3.382	0.051	-0.037
-654.872	-52.579	-0.158	0.074
-653.857	-39.164	0.030	-0.016
-652.843	291.361	0.010	-0.018
-651.828	185.532	0.187	-0.281
-650.814	-47.272	0.109	0.053
-649.799	750.383	-0.052	-0.141
-648.784	-169.642	0.202	0.007
-647.770	73.565	-0.162	0.171
-646.755	74.604	0.148	0.157
-645.741	0.511	-0.161	0.116
-644.726	-92.378	0.238	0.067
-643.711	333.480	-0.068	-0.132
-642.697	-71.837	0.124	0.047
-641.682	-94.859	-0.220	0.060
-640.668	658.838	-0.015	0.038
-639.653	-200.000	0.019	-0.356
-638.638	-200.000	0.024	-0.186
-637.624	-110.807	-0.078	-0.016
-636.609	70.278	0.232	-0.241
-635.595	-125.877	0.273	0.041
-634.580	80.358	-0.082	-0.089
-633.565	800.000	-0.024	-0.096
-632.551	150.818	0.124	-0.170
-631.536	-96.467	0.123	0.033
-630.522	-200.000	0.014	-0.175
-629.507	-29.487	-0.180	0.104
-628.492	-170.518	0.087	0.003
-627.478	-200.000	-0.051	0.618
-626.463	255.726	0.051	-0.088
-625.449	13.552	-0.396	0.310
-624.434	-162.894	-0.263	0.013
-623.419	-35.221	-0.334	-0.183
-622.405	-200.000	0.020	-0.332
-621.390	290.395	0.093	0.171
-620.376	49.360	0.056	0.053
-619.361	-200.000	0.004	0.199
-618.346	14.055	-0.077	0.061
-617.332	-159.273	-0.200	0.011
-616.317	67.144	0.125	0.128
-615.303	12.370	0.336	0.261
-614.288	-200.000	-0.022	-0.420
-613.273	25.203	-0.303	-0.253
-612.259	-86.593	0.210	0.065
-611.244	-20.152	0.133	-0.083
-610.230	33.565	0.123	-0.108
-609.215	-2.897	-0.115	0.081
-608.201	-200.000	0.002	0.278
-607.186	800.000	-0.084	-0.340
-606.171	-28.234	0.140	-0.082
-605.157	-62.961	0.283	0.118
-604.142	-97.864	-0.056	-0.014
-603.128	94.990	-0.180	-0.206
-602.113	-189.085	0.312	-0.004
-601.098	280.325	-0.111	0.200
-600.084	800.000	0.037	0.134
-599.069	800.000	0.094	0.321
-598.055	371.756	-0.053	0.107
-597.040	31.992	-0.079	0.069
-596.025	208.476	0.061	-0.096
-595.011	166.558	0.090	0.128
-593.996	800.000	-0.018	-0.059
-592.982	-92.100	0.226	-0.064
-591.967	-179.754	0.162	0.004
-590.952	-127.028	-0.491	0.072
-589.938	245.260	-0.166	-0.282
-588.923	-200.000	-0.019	0.269
-587.909	-200.000	0.034	0.322
-586.894	69.315	-0.181	-0.187
-585.879	-141.795	0.239	-0.024
-584.865	247.150	-0.041	-0.069
-583.850	-17.845	-0.249	-0.157
-582.836	800.000	-0.105	0.310
-581.821	-86.335	-0.165	0.051
-580.806	-200.000	-0.001	-0.010
-579.792	-124.122	0.029	-0.005
-578.777	-22.068	-0.418	-0.255
-577.763	-132.565	-0.149	0.019
-576.748	218.581	0.065	-0.105
-575.733	-86.790	-0.132	-0.040
-574.719	-158.119	-0.239	-0.014
-573.704	127.596	0.157	0.201
-572.690	800.000	0.088	0.264
-571.675	-72.087	0.334	0.125
-570.661	270.691	-0.058	-0.102
-569.646	800.000	-0.069	-0.302
-568.631	109.410	0.211	-0.254
-567.617	-200.000	-0.027	-0.166
-566.602	-200.000	0.001	-0.148
-565.588	-97.480	0.243	0.063
-564.573	-200.000	0.016	-0.113
-563.558	-200.000	-0.086	-0.386
-562.544	-191.444	-0.216	-0.002
-561.529	-42.521	-0.355	0.182
-560.515	141.936	0.078	-0.104
-559.500	43.473	-0.085	-0.078
-558.485	-200.000	-0.050	-0.312
-557.471	-11.112	0.083	0.055
-556.456	-200.000	-0.019	-0.267
-555.442	-72.379	-0.351	0.130
-554.427	-63.015	-0.150	0.062
-553.412	-130.031	0.181	-0.025
-552.398	-75.100	0.271	-0.097
-551.383	-25.122	-0.237	-0.141
-550.369	-200.000	0.026	-0.244
-549.354	-200.000	-0.251	0.001
-548.339	41.822	0.211	-0.192
-547.325	-55.999	0.322	0.144
-546.310	-31.600	-0.375	-0.212
-545.296	455.933	0.121	0.270
-544.281	154.144	-0.231	0.318
-543.266	185.528	0.216	0.322
-542.252	615.961	0.066	0.167
-541.237	-26.660	0.171	-0.100
-540.223	-43.835	0.200	-0.101
-539.208	9.191	0.072	-0.055
-538.193	147.674	0.127	0.172
-537.179	241.196	0.032	-0.054
-536.164	-108.975	0.315	-0.067
-535.150	-88.579	0.083	0.025
-534.135	176.353	-0.018	-0.026
-533.121	350.306	-0.158	-0.314
-532.106	160.751	0.046	-0.065
-531.091	800.000	0.027	-0.096
-530.077	283.547	0.111	-0.201
-529.062	-141.297	0.312	0.032
-528.048	-103.329	-0.375	0.089
-527.033	350.608	0.202	-0.400
-526.018	35.598	0.116	-0.102
-525.004	22.115	-0.273	-0.224
-523.989	304.786	-0.159	0.297
-522.975	206.068	-0.211	0.330
-521.960	310.890	-0.109	0.205
-520.945	-200.000	-0.024	0.118
-519.931	-200.000	0.013	0.098
-518.916	294.333	-0.162	0.296
-517.902	-108.086	-0.102	0.022
-516.887	154.624	0.160	0.220
-515.872	-128.323	-0.268	-0.038
-514.858	-200.000	0.005	-0.212
-513.843	-50.596	-0.111	-0.052
-512.829	76.307	0.208	-0.221
-511.814	-163.759	-0.166	-0.008
-510.799	506.223	0.022	0.052
-509.785	103.278	-0.220	-0.259
-508.770	-1.800	-0.152	-0.107
-507.756	33.380	-0.104	0.091
-506.741	-31.495	-0.260	-0.146
-505.726	265.646	-0.074	-0.129
-504.712	217.290	-0.041	-0.065
-503.697	-200.000	0.008	-0.336
-502.683	800.000	-0.055	-0.164
-501.668	110.494	0.026	-0.031
-500.653	57.577	0.151	0.148
-499.639	-200.000	0.000	0.085
-498.624	-57.649	0.380	0.167
-497.610	-54.464	0.277	-0.126
-496.595	800.000	0.109	0.408
-495.581	218.124	0.157	-0.251
-494.566	84.426	0.235	-0.257
-493.551	-200.000	0.017	0.086
-492.537	41.421	-0.270	-0.245
-491.522	616.816	0.062	-0.156
-490.508	96.941	-0.119	-0.137
-489.493	-3.659	0.087	0.061
-488.478	216.253	0.186	0.296
-487.464	3.720	0.062	-0.045
-486.449	-174.861	0.125	0.004
-485.435	-51.463	-0.178	0.083
-484.420	28.802	-0.339	-0.287
-483.405	-29.934	-0.172	-0.098
-482.391	712.863	0.039	-0.103
-481.376	-94.271	-0.103	-0.028
-480.362	-200.000	0.006	-0.194
-479.347	303.536	-0.123	0.229
-478.332	-25.313	-0.206	-0.122
-477.318	-56.108	-0.562	0.251
-476.303	283.133	-0.167	0.301
-475.289	800.000	-0.051	-0.156
-474.274	-146.773	-0.045	-0.004
-473.259	172.916	0.091	-0.131
-472.245	-200.000	-0.018	0.254
-471.230	-94.203	-0.191	0.052
-470.216	154.564	-0.099	-0.136
-469.201	-200.000	0.016	-0.355
-468.186	-75.344	-0.318	-0.114
-467.172	-200.000	-0.050	0.265
-466.157	-200.000	0.101	0.471
-465.143	800.000	0.093	0.294
-464.128	-200.000	0.029	-0.218
-463.113	258.281	0.314	0.541
-462.099	3.074	-0.323	0.235
-461.084	215.881	-0.163	-0.260
-460.070	-128.487	0.293	-0.042
-459.055	690.034	0.065	0.170
-458.040	-129.611	-0.339	0.047
-457.026	104.378	0.128	0.150
-456.011	30.170	0.229	0.196
-454.997	-141.992	0.291	0.029
-453.982	-200.000	-0.009	-0.076
-452.968	-148.409	0.258	-0.021
-451.953	106.649	0.094	0.111
-450.938	-108.538	-0.381	-0.082
-449.924	-20.619	0.049	0.030
-448.909	-200.000	0.006	0.105
-447.895	-14.245	-0.235	-0.152
-446.880	-147.671	-0.182	0.015
-445.865	0.177	0.184	-0.131
-444.851	800.000	0.103	-0.392
-443.836	800.000	-0.020	-0.073
-442.822	145.783	-0.105	0.141
-441.807	-59.244	-0.167	-0.072
-440.792	269.309	0.059	0.103
-439.778	-200.000	0.010	0.078
-438.763	-137.345	0.202	-0.023
-437.749	-31.723	-0.105	-0.059
-436.734	564.847	-0.026	-0.063
-435.719	-116.829	0.143	-0.026
-434.705	-49.253	-0.595	0.284
-433.690	-78.478	-0.207	0.071
-432.676	564.337	0.069	0.167
-431.661	800.000	-0.057	0.238
-430.646	202.115	0.047	0.072
-429.632	-146.385	0.194	-0.017
-428.617	-50.686	0.015	-0.007
-427.603	-29.994	0.111	-0.063
-426.588	51.882	-0.326	0.310
-425.573	-200.000	-0.023	0.294
-424.559	505.738	-0.085	0.196
-423.544	306.636	0.082	0.153
-422.530	431.127	-0.123	0.267
-421.515	800.000	-0.039	-0.152
-420.500	180.814	0.169	0.248
-419.486	-50.686	0.108	0.051
-418.471	-26.563	-0.282	-0.165
-417.457	787.694	-0.118	0.324
-416.442	-200.000	0.002	-0.301
-415.428	-45.758	0.154	0.076
-414.413	-91.899	0.235	-0.067
-413.398	265.868	0.110	-0.191
-412.384	-126.687	0.389	-0.058
-411.369	-70.819	-0.059	0.022
-410.355	-84.582	0.157	0.050
-409.340	643.523	-0.036	0.091
-408.325	3.282	0.211	0.154
-407.311	-110.568	-0.136	0.028
-406.296	-53.726	0.277	-0.126
-405.282	414.544	-0.030	0.065
-404.267	-127.098	0.427	0.063
-403.252	-127.945	0.074	0.011
-402.238	-69.611	0.189	-0.072
-401.223	191.635	0.183	0.275
-400.209	520.753	0.023	0.054
-399.194	114.709	-0.265	-0.323
-398.179	-72.644	-0.335	-0.123
-397.165	-200.000	-0.004	-0.380
-396.150	24.362	-0.255	0.210
-395.136	271.241	-0.081	-0.142
-394.121	480.405	-0.063	-0.144
-393.106	-30.043	-0.234	0.133
-392.092	439.379	0.177	0.385
-391.077	13.999	0.414	0.321
-390.063	-51.248	-0.131	-0.061
-389.048	106.360	0.121	0.143
-388.033	470.942	0.069	-0.155
-387.019	-200.000	-0.018	-0.338
-386.004	-56.183	0.250	-0.111
-384.990	-42.377	0.170	0.087
-383.975	169.525	0.174	0.247
-382.960	16.744	0.058	0.046
-381.946	-38.173	0.221	0.117
-380.931	-200.000	-0.066	0.299
-379.917	-200.000	0.029	-0.281
-378.902	-129.259	-0.152	-0.021
-377.888	-37.501	0.160	-0.085
-376.873	0.610	0.374	-0.267
-375.858	-27.539	-0.169	-0.098
-374.844	800.000	-0.059	0.232
-373.829	16.266	-0.159	-0.125
-372.815	-133.344	0.089	0.011
-371.800	-43.613	0.229	-0.115
-370.785	84.912	0.108	-0.118
-369.771	800.000	0.051	0.149
-368.756	-200.000	-0.006	-0.204
-367.742	53.097	0.146	-0.139
-366.727	393.396	0.173	-0.359
-365.712	-200.000	-0.022	-0.242
-364.698	800.000	0.024	-0.102
-363.683	-200.000	0.032	0.197
-362.669	279.116	-0.186	0.331
-361.654	800.000	0.053	0.193
-360.639	-89.558	-0.218	-0.064
-359.625	9.604	-0.162	-0.123
-358.610	-139.307	0.081	0.009
-357.596	-98.870	-0.289	0.073
-356.581	-200.000	-0.010	-0.098
-355.566	-42.452	-0.191	-0.097
-354.552	-18.222	-0.040	0.025
-353.537	294.117	0.074	-0.134
-352.523	57.683	-0.035	-0.034
-351.508	-58.142	-0.064	0.028
-350.493	-200.000	0.011	-0.299
-349.479	103.275	0.057	0.067
-348.464	800.000	0.028	-0.093
-347.450	-107.759	0.332	-0.072
-346.435	-120.411	-0.176	0.030
-345.420	-31.390	-0.391	-0.219
-344.406	-200.000	-0.012	0.205
-343.391	-200.000	-0.032	0.292
-342.377	-82.775	-0.403	0.130
-341.362	-200.000	0.164	-0.000
-340.348	-77.451	0.182	-0.063
-339.333	-24.008	0.225	-0.134
-338.318	-73.693	-0.198	0.072
-337.304	-14.032	-0.225	0.145
-336.289	-122.131	-0.412	-0.067
-335.275	-200.000	0.044	-0.322
-334.260	382.080	0.105	0.216
-333.245	-200.000	-0.001	0.145
-332.231	260.922	0.020	-0.035
-331.216	775.439	0.140	0.381
-330.202	-134.592	0.333	-0.040
-329.187	-90.566	-0.301	-0.087
-328.172	-11.409	-0.131	0.086
-327.158	-66.509	-0.361	-0.143
-326.143	-190.700	0.214	-0.002
-325.129	800.000	0.081	-0.226
-324.114	329.271	-0.040	-0.077
-323.099	-200.000	0.003	-0.142
-322.085	130.398	0.018	-0.023
-321.070	156.963	0.240	-0.329
-320.056	13.856	-0.280	0.217
-319.041	-200.000	-0.035	0.206
-318.026	-132.460	0.153	-0.020
-317.012	34.300	-0.282	-0.245
-315.997	-50.913	0.231	0.108
-314.983	-152.376	0.230	0.017
-313.968	-200.000	-0.009	-0.200
-312.953	-5.753	0.386	-0.263
-311.939	-200.000	-0.005	0.031
-310.924	-82.076	0.216	0.070
-309.910	75.031	-0.265	-0.278
-308.895	-86.323	-0.095	-0.029
-307.880	-150.254	-0.312	0.024
-306.866	27.372	0.317	0.265
-305.851	-31.812	0.214	0.119
-304.837	800.000	-0.061	-0.201
-303.822	29.419	-0.002	-0.002
-302.807	-200.000	-0.011	0.379
-301.793	37.168	0.241	-0.212
-300.778	-52.817	-0.309	-0.142
-299.764	194.866	0.073	-0.110
-298.749	116.975	-0.038	0.046
-297.735	800.000	-0.042	0.123
-296.720	-56.610	-0.238	0.105
-295.705	-115.669	-0.413	0.077
-294.691	67.639	0.180	0.182
-293.676	13.618	0.179	0.139
-292.662	-90.264	-0.289	0.083
-291.647	-27.830	-0.253	-0.146
-290.632	125.699	0.260	0.326
-289.618	307.725	-0.019	0.036
-288.603	-177.593	-0.446	-0.011
-287.589	548.159	-0.095	0.226
-286.574	-73.270	0.191	0.069
-285.559	-116.787	-0.272	-0.050
-284.545	94.305	0.163	-0.184
-283.530	-47.850	-0.127	0.061
-282.516	-200.000	0.004	0.173
-281.501	-34.822	0.141	-0.076
-280.486	51.161	0.273	-0.258
-279.472	-76.462	-0.219	0.077
-278.457	377.007	-0.041	0.084
-277.443	-183.952	0.260	-0.004
-276.428	-200.000	0.048	-0.249
-275.413	-200.000	0.069	0.313
-274.399	-60.625	-0.170	-0.072
-273.384	800.000	0.126	-0.360
-272.370	-0.619	-0.210	0.148
-271.355	-23.326	0.260	0.155
-270.340	442.791	0.114	-0.247
-269.326	163.595	0.086	-0.120
-268.311	-200.000	-0.016	0.124
-267.297	293.364	0.207	0.376
-266.282	227.645	0.147	-0.238
-265.267	154.263	0.008	0.011
-264.253	594.697	0.025	0.061
-263.238	206.316	0.092	0.143
-262.224	-44.391	-0.130	-0.065
-261.209	-142.812	-0.194	-0.019
-260.195	-200.000	-0.011	0.080
-259.180	65.876	0.070	0.071
-258.165	563.593	-0.127	-0.304
-257.151	-153.025	0.338	-0.024
-256.136	57.165	0.230	0.223
-255.122	593.557	0.052	0.127
-254.107	-200.000	-0.017	-0.126
-253.092	-200.000	0.041	0.181
-252.078	195.598	-0.093	0.140
-251.063	-122.859	-0.081	-0.013
-250.049	-109.712	0.357	0.075
-249.034	-94.165	-0.069	0.019
-248.019	800.000	0.038	-0.165
-247.005	-10.670	0.273	-0.179
-245.990	635.373	0.101	0.253
-244.976	600.877	0.021	-0.053
-243.961	-128.996	0.519	0.072
-242.946	-87.025	-0.317	0.096
-241.932	620.323	-0.110	-0.274
-240.917	278.768	0.022	-0.038
-239.903	-94.944	-0.297	-0.080
-238.888	396.325	0.086	0.179
-237.873	230.983	-0.109	0.177
-236.859	31.672	-0.234	0.200
-235.844	-3.247	-0.202	-0.139
-234.830	38.878	-0.151	-0.134
-233.815	-14.195	0.312	-0.200
-232.800	-80.689	-0.202	0.067
-231.786	-34.300	-0.015	0.008
-230.771	99.400	-0.037	-0.043
-229.757	-46.904	0.111	0.054
-228.742	410.688	-0.073	-0.153
-227.727	-67.729	0.092	-0.036
-226.713	-81.095	-0.261	-0.086
-225.698	196.796	0.120	0.182
-224.684	-88.322	-0.238	0.070
-223.669	800.000	0.051	-0.171
-222.655	-200.000	-0.011	-0.058
-221.640	-134.884	0.183	0.022
-220.625	322.237	-0.049	0.092
-219.611	800.000	-0.041	-0.179
-218.596	-8.228	-0.175	-0.117
-217.582	143.631	-0.024	0.032
-216.567	800.000	-0.041	0.174
-215.552	313.453	0.069	0.129
-214.538	-106.312	-0.480	0.106
-213.523	-61.646	0.065	0.027
-212.509	-102.242	-0.125	-0.030
-211.494	800.000	0.112	0.330
-210.479	185.415	-0.064	0.094
-209.465	623.346	-0.114	-0.285
-208.450	-92.541	-0.202	-0.056
-207.436	396.983	0.085	0.177
-206.421	145.737	-0.338	-0.449
-205.406	339.420	-0.055	0.107
-204.392	226.317	-0.055	0.088
-203.377	-53.535	-0.111	-0.050
-202.363	-164.101	0.425	-0.019
-201.348	87.383	0.147	0.161
-200.333	800.000	0.081	-0.258
-199.319	146.357	0.209	-0.278
-198.304	83.710	0.246	0.266
-197.290	-70.332	0.328	-0.123
-196.275	-4.195	-0.180	-0.123
-195.260	-200.000	-0.011	0.368
-194.246	-178.374	-0.133	0.003
-193.231	506.113	0.084	-0.193
-192.217	27.356	0.060	0.050
-191.202	25.915	0.157	-0.130
-190.187	800.000	0.068	0.279
-189.173	-27.279	-0.038	-0.022
-188.158	-200.000	0.027	0.204
-187.144	-3.164	0.133	-0.092
-186.129	-44.105	0.178	0.088
-185.114	283.930	0.138	-0.246
-184.100	133.185	0.310	-0.396
-183.085	-200.000	0.024	-0.273
-182.071	183.592	-0.104	-0.152
-181.056	-200.000	-0.021	-0.139
-180.042	800.000	0.176	0.526
-179.027	-11.795	-0.233	0.152
-178.012	-111.138	0.303	0.061
-176.998	-200.000	-0.034	0.176
-175.983	-200.000	-0.041	-0.000
-174.969	-200.000	-0.023	-0.154
-173.954	243.833	-0.146	-0.242
-172.939	-170.324	0.325	0.011
-171.925	26.353	0.188	-0.155
-170.910	-110.743	-0.356	-0.073
-169.896	-112.303	0.087	0.017
-168.881	-36.757	0.117	0.062
-167.866	-147.848	-0.260	0.021
-166.852	-143.113	0.178	0.017
-165.837	-96.377	0.096	0.025
-164.823	723.933	0.191	0.504
-163.808	800.000	-0.066	-0.240
-162.793	800.000	0.057	-0.190
-161.779	340.636	-0.056	0.108
-160.764	-159.135	0.142	0.008
-159.750	2.735	-0.082	-0.059
-158.735	-40.438	-0.141	-0.072
-157.720	-76.008	0.420	0.147
-156.706	174.999	0.091	0.130
-155.691	800.000	-0.044	0.141
-154.677	248.523	-0.163	0.273
-153.662	-111.173	-0.300	-0.061
-152.647	-136.320	0.231	-0.027
-151.633	447.790	0.041	-0.090
-150.618	482.647	-0.050	0.113
-149.604	536.404	-0.133	-0.313
-148.589	-200.000	0.018	0.141
-147.574	-107.458	-0.192	-0.042
-146.560	193.133	-0.240	-0.359
-145.545	140.684	-0.081	-0.106
-144.531	-117.232	-0.177	-0.032
-143.516	-25.444	0.206	0.120
-142.502	-200.000	-0.018	-0.094
-141.487	223.969	0.141	0.226
-140.472	295.902	0.082	0.148
-139.458	-40.682	-0.036	0.019
-138.443	-22.005	-0.337	0.202
-137.429	-200.000	-0.062	0.287
-136.414	-200.000	0.035	-0.268
-135.399	-200.000	-0.012	-0.118
-134.385	-126.136	0.319	0.047
-133.370	-11.852	-0.103	-0.067
-132.356	-52.792	-0.379	0.172
-131.341	9.142	0.055	-0.041
-130.326	63.468	0.094	-0.093
-129.312	-72.998	0.157	-0.057
-128.297	6.260	0.132	-0.097
-127.283	17.360	0.185	-0.145
-126.268	-94.769	0.154	-0.041
-125.253	-49.634	-0.443	-0.208
-124.239	88.322	0.244	-0.267
-123.224	-84.593	-0.143	-0.044
-122.210	-200.000	0.001	-0.204
-121.195	-44.106	0.190	-0.094
