DTS Sentinel unit serial number:	SN413079Multiplexer serial number:	ORYXHardware model number:	OX4-SRSoftware version number:	ORYX F/W v4.00 Oryx Data Collector v3.7.2.0data status	okinstallation	princeton_trtdifferential loss correction	single-endedforward channel	channel 2reverse channel	N/Adate	2019/09/13time	16:51:34forward acquisition time	60.00reverse acquisition time	0.00gamma	496.2192k internal	0.2315k external	0.2315temperature offset calibration	1.0216default loss term (dB/km)	0.3790temperature slope calibration	1.0000multiplexer offset coefficient	1.0000multiplexer slope coefficient	1.0000fibre end	0.00T internal ref (°C)	34.89T ext. ref 1 (°C)	4.93T ext. ref 2 (°C)	30.19length (m)	temperature (°C)	Stokes	anti-Stokes-747.200	242.556	0.113	-0.192
-746.185	37.572	-0.579	0.520
-745.171	-110.092	-0.203	-0.043
-744.156	-61.041	-0.159	-0.068
-743.142	-134.755	0.162	-0.020
-742.127	195.734	-0.114	0.175
-741.112	-200.000	-0.001	-0.100
-740.098	41.506	-0.250	0.229
-739.083	-200.000	-0.005	-0.128
-738.069	-96.269	0.215	0.058
-737.054	-24.913	-0.196	0.118
-736.039	-41.041	-0.246	0.129
-735.025	691.219	-0.107	0.283
-734.010	-200.000	-0.019	-0.200
-732.996	-108.451	0.071	0.015
-731.981	-200.000	-0.012	-0.318
-730.966	82.447	-0.083	-0.091
-729.952	-170.454	-0.378	-0.013
-728.937	558.456	0.131	-0.319
-727.923	301.460	-0.063	-0.118
-726.908	-85.753	-0.163	-0.051
-725.894	800.000	-0.064	-0.229
-724.879	208.803	0.036	-0.057
-723.864	-200.000	0.047	-0.378
-722.850	768.194	0.072	-0.198
-721.835	-58.730	-0.243	-0.106
-720.821	-136.359	-0.030	-0.004
-719.806	-35.450	-0.237	-0.130
-718.791	-136.325	-0.372	-0.044
-717.777	1.062	-0.142	-0.103
-716.762	49.927	-0.182	-0.174
-715.748	-116.260	0.124	0.023
-714.733	1.529	-0.084	0.061
-713.718	-181.529	-0.113	-0.002
-712.704	15.008	0.111	-0.088
-711.689	-200.000	-0.010	-0.538
-710.675	719.751	0.085	-0.228
-709.660	-85.983	0.195	0.061
-708.645	-47.077	0.312	0.154
-707.631	-200.000	-0.034	-0.155
-706.616	-123.925	-0.180	0.029
-705.602	-11.051	0.307	-0.205
-704.587	-19.624	-0.223	0.140
-703.572	-200.000	0.005	-0.028
-702.558	12.569	0.072	0.056
-701.543	-68.367	0.169	-0.066
-700.529	-104.599	0.193	-0.045
-699.514	-200.000	-0.024	-0.143
-698.499	193.193	0.205	0.313
-697.485	-103.643	-0.224	-0.053
-696.470	576.965	-0.117	-0.288
-695.456	240.184	-0.102	-0.172
-694.441	-22.515	-0.312	-0.191
-693.426	19.029	-0.172	0.140
-692.412	798.425	-0.109	0.303
-691.397	800.000	0.077	0.250
-690.383	-36.565	-0.278	-0.151
-689.368	-200.000	0.018	-0.183
-688.354	-110.787	0.324	-0.067
-687.339	-33.650	-0.175	-0.098
-686.324	-145.802	-0.175	-0.016
-685.310	800.000	0.016	0.048
-684.295	800.000	0.026	0.106
-683.281	-17.175	0.117	0.074
-682.266	154.297	-0.174	-0.242
-681.251	-61.605	-0.203	0.086
-680.237	-59.760	-0.317	0.137
-679.222	-29.865	0.132	-0.076
-678.208	-90.841	-0.234	0.068
-677.193	114.939	0.255	-0.315
-676.178	-31.654	0.227	-0.129
-675.164	116.296	0.193	-0.239
-674.149	-15.656	-0.239	-0.154
-673.135	-161.999	0.099	-0.005
-672.120	90.533	0.047	0.053
-671.105	800.000	0.027	-0.087
-670.091	105.366	-0.239	0.286
-669.076	800.000	-0.096	-0.271
-668.062	58.962	0.051	0.051
-667.047	-83.868	-0.108	-0.035
-666.032	-200.000	-0.017	0.205
-665.018	-60.545	-0.319	0.137
-664.003	-200.000	0.010	-0.140
-662.989	800.000	0.082	-0.307
-661.974	-20.178	0.111	0.069
-660.959	800.000	-0.133	-0.419
-659.945	282.692	-0.024	0.044
-658.930	800.000	-0.035	0.123
-657.916	-20.897	0.311	0.192
-656.901	-200.000	0.003	-0.290
-655.886	26.198	0.104	-0.088
-654.872	-9.366	-0.147	0.099
-653.857	561.694	-0.037	0.089
-652.843	800.000	0.005	0.015
-651.828	20.663	0.131	-0.107
-650.814	-38.808	0.157	0.084
-649.799	-70.931	0.227	-0.086
-648.784	166.324	-0.161	0.230
-647.770	-107.336	-0.270	-0.060
-646.755	15.069	-0.153	0.121
-645.741	-200.000	-0.026	0.426
-644.726	800.000	0.057	0.177
-643.711	800.000	0.105	-0.342
-642.697	88.784	-0.308	0.346
-641.682	-115.625	0.138	0.026
-640.668	-55.904	-0.053	0.024
-639.653	391.423	0.065	0.136
-638.638	107.215	0.182	-0.218
-637.624	328.597	-0.071	-0.138
-636.609	-42.560	0.094	-0.048
-635.595	56.627	-0.098	0.096
-634.580	800.000	-0.093	-0.337
-633.565	-121.981	-0.455	-0.076
-632.551	27.711	0.247	0.210
-631.536	-89.368	0.144	-0.043
-630.522	-95.768	-0.088	0.024
-629.507	800.000	0.070	-0.218
-628.492	222.181	-0.102	-0.166
-627.478	-166.396	0.150	0.006
-626.463	-63.818	-0.123	0.051
-625.449	-200.000	-0.081	-0.382
-624.434	149.993	0.143	-0.195
-623.419	633.220	0.103	0.262
-622.405	-52.709	-0.197	-0.092
-621.390	800.000	-0.043	0.169
-620.376	9.102	-0.087	0.066
-619.361	186.747	-0.104	-0.156
-618.346	-59.265	0.164	0.071
-617.332	-143.905	-0.406	0.039
-616.317	-52.788	-0.024	-0.011
-615.303	165.786	0.142	-0.202
-614.288	301.740	0.157	-0.293
-613.273	-69.902	0.267	-0.103
-612.259	-46.713	0.111	0.055
-611.244	-200.000	0.006	0.176
-610.230	77.074	0.225	-0.241
-609.215	276.176	-0.020	0.035
-608.201	-23.557	0.142	-0.086
-607.186	-124.683	0.059	0.009
-606.171	27.860	0.236	0.200
-605.157	-200.000	0.022	-0.188
-604.142	508.742	-0.068	0.159
-603.128	-200.000	-0.035	-0.205
-602.113	-169.019	0.308	-0.012
-601.098	589.612	0.106	-0.264
-600.084	221.650	0.148	-0.239
-599.069	38.898	-0.155	-0.140
-598.055	466.828	-0.067	-0.151
-597.040	-200.000	-0.036	-0.218
-596.025	-132.623	0.110	0.014
-595.011	-200.000	-0.006	0.392
-593.996	257.432	-0.065	0.112
-592.982	-171.502	-0.407	0.014
-591.967	-200.000	-0.040	0.245
-590.952	-200.000	0.008	-0.258
-589.938	800.000	-0.076	-0.282
-588.923	-155.043	-0.092	-0.006
-587.909	163.020	-0.075	-0.106
-586.894	-200.000	0.102	-0.479
-585.879	334.856	-0.036	-0.070
-584.865	-88.940	0.187	-0.056
-583.850	-200.000	0.028	0.195
-582.836	2.686	-0.010	0.007
-581.821	11.173	0.115	-0.089
-580.806	-166.812	-0.132	0.005
-579.792	-200.000	-0.030	-0.183
-578.777	171.030	-0.279	-0.403
-577.763	-46.876	0.211	-0.104
-576.748	334.273	0.089	-0.174
-575.733	71.635	-0.135	-0.141
-574.719	416.275	-0.114	-0.245
-573.704	-36.105	0.332	0.180
-572.690	800.000	-0.069	0.216
-571.675	-100.284	-0.269	0.067
-570.661	-33.723	0.337	-0.187
-569.646	-200.000	0.011	0.264
-568.631	-200.000	-0.034	0.165
-567.617	-200.000	-0.099	-0.471
-566.602	299.516	-0.087	-0.161
-565.588	-64.845	-0.135	0.055
-564.573	92.626	0.070	0.079
-563.558	-143.782	0.475	0.045
-562.544	800.000	-0.051	0.219
-561.529	72.890	-0.107	0.112
-560.515	-14.900	-0.183	0.118
-559.500	-78.688	0.303	-0.104
-558.485	-173.348	0.203	0.006
-557.471	92.579	0.053	0.060
-556.456	-200.000	0.024	-0.244
-555.442	-39.640	0.041	0.021
-554.427	60.839	-0.232	0.232
-553.412	103.478	-0.166	0.196
-552.398	111.853	0.051	0.062
-551.383	-200.000	-0.002	0.322
-550.369	-42.507	-0.377	-0.193
-549.354	8.642	0.322	0.244
-548.339	-94.972	-0.320	-0.087
-547.325	41.380	-0.186	-0.169
-546.310	80.025	0.200	-0.216
-545.296	800.000	0.087	-0.252
-544.281	-138.047	-0.261	-0.029
-543.266	-200.000	-0.023	-0.337
-542.252	102.992	0.080	-0.094
-541.237	-136.017	0.165	-0.019
-540.223	422.748	-0.205	-0.442
-539.208	348.075	0.174	-0.344
-538.193	-78.643	0.134	0.046
-537.179	-200.000	0.021	-0.096
-536.164	1.866	-0.191	-0.139
-535.150	800.000	0.008	0.035
-534.135	68.655	0.024	-0.025
-533.121	800.000	-0.140	0.497
-532.106	-104.074	0.203	0.047
-531.091	90.058	-0.142	-0.159
-530.077	430.113	-0.114	-0.249
-529.062	800.000	-0.089	0.314
-528.048	-77.670	-0.291	0.101
-527.033	170.249	0.200	0.288
-526.018	-146.237	0.303	-0.027
-525.004	-200.000	-0.021	-0.172
-523.989	800.000	-0.082	-0.314
-522.975	84.940	0.102	-0.113
-521.960	-97.222	-0.132	0.035
-520.945	-145.017	-0.436	0.040
-519.931	275.771	-0.045	-0.081
-518.916	104.553	-0.099	-0.117
-517.902	243.464	0.125	0.211
-516.887	93.087	-0.301	-0.342
-515.872	54.811	-0.186	-0.180
-514.858	466.898	0.125	-0.281
-513.843	-59.473	0.290	0.125
-512.829	-200.000	0.033	-0.183
-511.814	800.000	0.041	0.179
-510.799	255.826	0.135	-0.233
-509.785	-61.851	-0.121	0.051
-508.770	124.229	-0.127	-0.160
-507.756	-21.756	0.150	0.092
-506.741	-46.607	-0.181	-0.089
-505.726	800.000	-0.074	-0.259
-504.712	-47.637	0.025	-0.012
-503.697	-13.657	-0.103	0.067
-502.683	-79.955	-0.161	0.054
-501.668	44.493	-0.274	-0.252
-500.653	133.363	-0.163	0.211
-499.639	174.222	0.129	0.188
-498.624	159.498	0.129	-0.180
-497.610	-129.126	-0.307	0.043
-496.595	29.930	0.181	0.155
-495.581	-200.000	0.002	0.240
-494.566	-106.649	-0.203	-0.045
-493.551	-200.000	-0.019	-0.263
-492.537	550.213	-0.101	-0.242
-491.522	259.626	0.021	0.037
-490.508	295.794	0.059	-0.109
-489.493	498.787	0.101	0.233
-488.478	800.000	-0.068	-0.214
-487.464	369.225	0.138	-0.281
-486.449	22.199	0.183	-0.150
-485.435	410.958	0.097	-0.207
-484.420	-89.508	-0.264	-0.078
-483.405	328.042	-0.235	0.453
-482.391	-162.193	-0.233	0.012
-481.376	3.922	-0.096	-0.070
-480.362	64.251	0.180	-0.181
-479.347	800.000	0.026	-0.097
-478.332	549.063	-0.126	-0.303
-477.318	-166.694	-0.178	0.007
-476.303	800.000	-0.043	-0.146
-475.289	-200.000	-0.041	0.240
-474.274	0.358	0.272	0.195
-473.259	-169.313	-0.156	0.006
-472.245	-58.969	-0.293	-0.127
-471.230	532.641	-0.042	-0.098
-470.216	-47.173	0.133	-0.065
-469.201	-107.254	-0.320	0.071
-468.186	-88.838	0.303	0.090
-467.172	7.277	-0.120	-0.089
-466.157	-156.860	0.084	-0.005
-465.143	-166.692	0.226	-0.009
-464.128	-101.880	0.193	-0.047
-463.113	424.784	0.058	-0.124
-462.099	800.000	-0.014	0.058
-461.084	516.889	0.180	0.422
-460.070	72.815	-0.162	0.169
-459.055	-98.821	0.216	0.055
-458.040	145.663	-0.052	0.070
-457.026	800.000	-0.044	-0.179
-456.011	112.826	0.195	0.236
-454.997	-63.732	0.174	0.072
-453.982	-131.424	-0.178	0.024
-452.968	132.317	-0.154	0.199
-451.953	-200.000	0.015	0.191
-450.938	38.064	0.037	0.033
-449.924	-200.000	-0.001	0.276
-448.909	78.401	-0.157	0.168
-447.895	-200.000	-0.014	-0.155
-446.880	87.381	-0.184	-0.204
-445.865	338.645	0.104	0.202
-444.851	-127.755	0.386	-0.056
-443.836	-200.000	0.018	-0.160
-442.822	272.914	-0.077	0.136
-441.807	-200.000	-0.019	0.565
-440.792	-53.395	-0.191	0.087
-439.778	-137.075	-0.226	-0.026
-438.763	169.218	0.143	0.205
-437.749	-200.000	0.019	-0.221
-436.734	-200.000	0.003	0.172
-435.719	800.000	-0.023	0.083
-434.705	240.968	0.049	-0.081
-433.690	-200.000	0.003	0.128
-432.676	0.951	0.063	-0.046
-431.661	-0.096	-0.288	0.205
-430.646	5.912	-0.229	-0.170
-429.632	800.000	-0.064	0.191
-428.617	565.169	-0.039	0.095
-427.603	145.028	0.200	0.268
-426.588	800.000	0.038	-0.115
-425.573	132.428	0.191	-0.246
-424.559	-186.608	0.228	0.003
-423.544	33.064	-0.039	0.034
-422.530	-126.473	0.199	-0.030
-421.515	50.260	0.169	0.160
-420.500	77.386	0.339	0.360
-419.486	-66.051	0.206	0.082
-418.471	188.465	0.113	-0.169
-417.457	-82.810	-0.252	-0.082
-416.442	353.844	0.134	0.267
-415.428	77.215	-0.146	-0.156
-414.413	178.913	-0.268	-0.392
-413.398	-48.704	-0.213	-0.102
-412.384	157.048	0.256	0.354
-411.369	-160.045	-0.378	0.021
-410.355	439.048	0.124	0.272
-409.340	665.315	-0.066	0.170
-408.325	-182.868	0.230	0.004
-407.311	0.584	-0.079	0.057
-406.296	-16.818	0.373	0.236
-405.282	3.750	-0.340	0.248
-404.267	51.195	0.136	-0.129
-403.252	-33.501	-0.271	-0.150
-402.238	-62.940	-0.235	-0.097
-401.223	590.814	-0.081	0.201
-400.209	41.244	0.186	-0.168
-399.194	-200.000	-0.040	0.242
-398.179	-80.472	0.258	0.086
-397.165	38.452	0.128	-0.114
-396.150	-200.000	0.014	-0.067
-395.136	-200.000	0.010	0.131
-394.121	-200.000	-0.010	0.096
-393.106	255.400	-0.059	0.102
-392.092	578.097	-0.098	-0.239
-391.077	208.268	0.142	0.221
-390.063	60.910	0.272	-0.270
-389.048	239.398	0.182	-0.303
-388.033	-5.960	0.239	-0.163
-387.019	-37.339	0.320	-0.171
-386.004	-103.851	0.264	-0.062
-384.990	-31.941	-0.280	-0.157
-383.975	80.934	0.053	-0.058
-382.960	-110.187	0.163	-0.034
-381.946	-200.000	-0.067	-0.386
-380.931	7.595	-0.260	-0.195
-379.917	-200.000	0.029	-0.444
-378.902	-127.116	0.073	0.011
-377.888	-89.621	-0.117	-0.034
-376.873	790.210	-0.213	-0.583
-375.858	-118.011	0.576	0.103
-374.844	516.782	-0.037	0.086
-373.829	779.238	-0.162	0.443
-372.815	492.794	0.136	0.311
-371.800	33.201	0.176	0.153
-370.785	-12.632	-0.135	-0.088
-369.771	130.463	-0.177	-0.227
-368.756	266.963	0.171	-0.299
-367.742	-7.786	0.152	0.102
-366.727	-123.664	-0.249	-0.039
-365.712	-200.000	0.003	0.356
-364.698	-14.958	-0.079	0.050
-363.683	-153.475	-0.467	0.032
-362.669	58.421	0.139	-0.136
-361.654	-37.113	-0.276	0.147
-360.639	-200.000	0.032	0.151
-359.625	-200.000	-0.024	0.183
-358.610	-97.751	0.220	0.057
-357.596	-92.192	0.198	-0.056
-356.581	800.000	0.078	0.261
-355.566	205.329	-0.159	0.246
-354.552	37.050	0.244	0.216
-353.537	-37.903	-0.053	0.028
-352.523	-165.560	-0.205	-0.009
-351.508	77.402	0.236	0.250
-350.493	46.709	-0.417	-0.387
-349.479	58.897	0.147	-0.144
-348.464	-39.148	0.218	-0.114
-347.450	-200.000	0.017	-0.196
-346.435	122.775	0.042	-0.053
-345.420	132.267	0.136	-0.174
-344.406	26.401	0.174	-0.145
-343.391	-92.596	-0.108	-0.030
-342.377	138.142	0.111	0.145
-341.362	281.122	0.158	0.281
-340.348	22.170	-0.349	0.284
-339.333	527.581	-0.022	0.053
-338.318	47.566	-0.234	0.218
-337.304	-27.362	-0.135	-0.078
-336.289	-200.000	-0.016	-0.089
-335.275	49.981	0.198	0.187
-334.260	-200.000	0.016	0.244
-333.245	800.000	-0.003	0.013
-332.231	18.740	0.080	0.064
-331.216	-24.585	0.072	0.043
-330.202	-120.553	0.092	-0.016
-329.187	800.000	-0.097	-0.277
-328.172	-70.396	0.161	-0.061
-327.158	71.887	-0.130	-0.135
-326.143	449.089	0.081	-0.177
-325.129	-200.000	0.024	0.245
-324.114	109.333	0.108	0.129
-323.099	-83.840	-0.352	0.112
-322.085	54.048	-0.038	0.036
-321.070	517.217	-0.035	-0.082
-320.056	46.122	-0.084	-0.077
-319.041	-200.000	0.008	0.489
-318.026	-37.026	-0.147	0.079
-317.012	-102.202	0.365	0.087
-315.997	-140.914	-0.226	0.023
-314.983	-200.000	0.014	-0.095
-313.968	202.684	-0.112	0.172
-312.953	-5.254	0.227	-0.155
-311.939	76.000	0.084	-0.089
-310.924	-107.616	-0.151	-0.033
-309.910	800.000	0.009	0.037
-308.895	800.000	-0.017	-0.051
-307.880	-200.000	-0.004	-0.047
-306.866	-118.532	-0.132	0.023
-305.851	800.000	-0.059	-0.221
-304.837	-86.377	-0.183	-0.056
-303.822	800.000	0.093	0.328
-302.807	-200.000	-0.017	0.079
-301.793	-200.000	0.110	0.570
-300.778	-200.000	0.039	0.448
-299.764	2.222	0.159	0.114
-298.749	83.762	-0.116	-0.125
-297.735	800.000	0.024	-0.072
-296.720	97.517	-0.131	0.150
-295.705	800.000	0.095	0.335
-294.691	75.217	0.084	-0.088
-293.676	182.140	-0.066	-0.096
-292.662	800.000	0.058	0.207
-291.647	14.249	0.199	-0.154
-290.632	-200.000	-0.030	0.155
-289.618	-38.234	-0.338	0.178
-288.603	-105.334	0.149	0.034
-287.589	294.108	0.069	0.125
-286.574	-149.979	0.147	0.011
-285.559	-200.000	0.046	-0.265
-284.545	-200.000	0.042	-0.196
-283.530	800.000	0.039	0.161
-282.516	-120.391	0.241	0.041
-281.501	151.736	-0.134	0.182
-280.486	-154.622	-0.179	0.012
-279.472	-116.486	0.105	-0.019
-278.457	0.050	-0.232	0.165
-277.443	17.068	0.214	0.168
-276.428	-137.472	0.247	-0.028
-275.413	-58.215	0.150	-0.065
-274.399	455.862	0.098	0.216
-273.384	-200.000	0.016	-0.150
-272.370	87.129	-0.216	0.238
-271.355	-200.000	0.047	0.452
-270.340	-191.042	0.069	0.001
-269.326	-25.621	-0.210	0.123
-268.311	-200.000	-0.004	0.146
-267.297	-44.655	0.097	-0.048
-266.282	-200.000	-0.005	0.078
-265.267	76.350	-0.032	0.033
-264.253	218.916	-0.075	0.120
-263.238	108.591	0.229	-0.272
-262.224	-200.000	-0.018	-0.163
-261.209	-141.618	-0.163	0.016
-260.195	16.198	-0.281	0.220
-259.180	800.000	0.077	0.303
-258.165	152.366	0.104	0.141
-257.151	-200.000	0.062	-0.280
-256.136	-6.483	-0.058	-0.039
-255.122	469.036	-0.038	-0.084
-254.107	22.192	-0.144	-0.117
-253.092	13.366	0.372	-0.287
-252.078	-108.458	-0.153	0.033
-251.063	800.000	0.038	-0.140
-250.049	171.769	0.139	0.198
-249.034	-200.000	0.018	0.137
-248.019	619.557	0.141	0.353
-247.005	-79.123	0.160	0.054
-245.990	148.639	-0.175	-0.236
-244.976	185.524	-0.030	0.044
-243.961	-34.191	-0.084	0.046
-242.946	-98.600	0.115	0.029
-241.932	800.000	0.038	0.165
-240.917	70.678	0.098	0.100
-239.903	-173.214	0.011	-0.000
-238.888	-200.000	0.076	0.333
-237.873	285.879	-0.137	0.246
-236.859	-200.000	0.063	-0.282
-235.844	-200.000	0.037	-0.268
-234.830	27.331	-0.189	-0.158
-233.815	-200.000	-0.005	-0.050
-232.800	-67.169	-0.163	0.064
-231.786	255.015	0.119	-0.203
-230.771	-60.853	-0.150	0.063
-229.757	150.329	-0.245	-0.330
-228.742	-66.347	-0.142	0.056
-227.727	-77.017	0.113	-0.039
-226.713	254.824	0.086	0.146
-225.698	800.000	0.108	0.385
-224.684	-10.074	0.143	0.094
-223.669	-119.339	-0.172	0.030
-222.655	-38.477	0.162	-0.085
-221.640	-200.000	0.017	-0.211
-220.625	-96.503	-0.221	0.058
-219.611	512.790	-0.204	0.472
-218.596	800.000	-0.039	0.137
-217.582	-111.633	0.139	-0.028
-216.567	800.000	0.093	0.392
-215.552	-14.472	0.081	0.051
-214.538	-0.090	0.253	0.179
-213.523	-161.519	-0.360	0.018
-212.509	800.000	0.160	-0.521
-211.494	800.000	-0.029	0.089
-210.479	12.708	-0.163	-0.125
-209.465	98.532	-0.189	0.217
-208.450	-9.291	-0.097	0.064
-207.436	81.019	0.176	-0.188
-206.421	495.371	0.062	-0.142
-205.406	-200.000	0.075	-0.437
-204.392	173.126	0.066	-0.094
-203.377	322.982	-0.061	-0.115
-202.363	800.000	0.091	-0.319
-201.348	-159.438	-0.278	0.015
-200.333	-144.039	0.359	-0.033
-199.319	-178.859	-0.322	0.007
-198.304	334.170	-0.124	-0.237
-197.290	800.000	-0.055	0.152
-196.275	59.087	-0.150	-0.147
-195.260	-137.441	0.308	0.035
-194.246	-200.000	-0.071	-0.364
-193.231	87.597	0.098	-0.108
-192.217	148.986	-0.126	0.169
-191.202	-58.817	-0.293	0.126
-190.187	-200.000	0.052	-0.267
-189.173	-173.141	0.210	-0.006
-188.158	719.492	-0.052	0.138
-187.144	226.603	0.051	-0.082
-186.129	-182.415	-0.323	0.006
-185.114	-99.855	-0.291	0.072
-184.100	51.831	0.096	0.090
-183.085	-73.568	0.312	0.113
-182.071	-116.028	-0.244	0.045
-181.056	800.000	-0.116	0.359
-180.042	19.627	-0.306	-0.244
-179.027	290.322	-0.077	0.139
-178.012	-200.000	0.021	-0.173
-176.998	-38.650	0.254	0.133
-175.983	201.170	0.175	0.266
-174.969	-200.000	0.072	-0.376
-173.954	18.691	-0.421	-0.334
-172.939	122.402	-0.133	0.165
-171.925	-100.870	-0.539	0.131
-170.910	-90.581	0.145	0.042
-169.896	-91.366	0.020	0.006
-168.881	-111.994	0.262	0.052
-167.866	-33.550	0.233	0.128
-166.852	-200.000	-0.003	-0.306
-165.837	64.285	0.087	0.087
-164.823	800.000	0.098	-0.289
-163.808	305.862	0.107	0.197
-162.793	-163.882	0.196	-0.009
-161.779	415.753	-0.135	0.286
-160.764	800.000	-0.055	-0.153
-159.750	-9.493	0.349	-0.231
-158.735	34.513	-0.148	-0.128
-157.720	49.098	0.067	-0.062
-156.706	-68.228	0.105	-0.041
-155.691	-128.034	0.296	-0.042
-154.677	-105.196	0.226	0.051
-153.662	180.774	0.051	0.074
-152.647	-35.967	0.152	0.081
-151.633	-132.956	-0.163	-0.020
-150.618	-16.833	-0.134	0.084
-149.604	-112.025	0.190	0.038
-148.589	-77.733	-0.136	0.046
-147.574	36.695	0.271	-0.237
-146.560	134.204	0.077	-0.099
-145.545	37.211	0.305	0.267
-144.531	110.093	-0.194	0.230
-143.516	-75.511	-0.278	-0.098
-142.502	-17.380	0.291	-0.181
-141.487	-48.582	0.262	-0.125
-140.472	-200.000	0.063	-0.283
-139.458	128.678	-0.057	0.072
-138.443	-71.074	-0.109	-0.041
-137.429	23.556	-0.045	0.037
-136.414	800.000	-0.027	0.081
-135.399	800.000	0.016	-0.052
-134.385	122.735	0.144	-0.178
-133.370	286.667	0.096	-0.172
-132.356	101.970	0.197	-0.227
-131.341	361.878	-0.056	-0.111
-130.326	-143.807	0.236	0.022
-129.312	50.984	0.294	0.275
-128.297	-9.437	0.189	0.125
-127.283	-99.870	-0.296	0.073
-126.268	-142.325	0.123	0.012
-125.253	-107.778	0.413	0.089
-124.239	-40.980	-0.095	-0.049
-123.224	3.928	0.162	-0.117
-122.210	-200.000	-0.076	-0.437
-121.195	800.000	-0.016	0.058
-120.180	256.094	0.217	-0.369
