DTS Sentinel unit serial number:	SN413079Multiplexer serial number:	ORYXHardware model number:	OX4-SRSoftware version number:	ORYX F/W v4.00 Oryx Data Collector v3.7.2.0data status	okinstallation	princeton_trtdifferential loss correction	single-endedforward channel	channel 2reverse channel	N/Adate	2019/09/12time	14:49:11forward acquisition time	60.00reverse acquisition time	0.00gamma	496.2192k internal	0.2300k external	0.2300temperature offset calibration	1.0091default loss term (dB/km)	0.3790temperature slope calibration	1.0000multiplexer offset coefficient	1.0000multiplexer slope coefficient	1.0000fibre end	0.00T internal ref (°C)	40.25T ext. ref 1 (°C)	2.32T ext. ref 2 (°C)	37.14length (m)	temperature (°C)	Stokes	anti-Stokes-747.200	393.306	0.066	0.140
-746.185	800.000	-0.079	0.310
-745.171	14.024	0.116	0.092
-744.156	236.978	0.281	0.475
-743.142	-54.125	0.275	0.127
-742.127	-200.000	0.018	0.258
-741.112	1.851	0.117	-0.086
-740.098	56.879	0.144	0.143
-739.083	-40.584	0.146	-0.077
-738.069	81.974	0.114	0.126
-737.054	-200.000	-0.015	-0.341
-736.039	12.821	-0.120	0.095
-735.025	-119.591	0.354	-0.063
-734.010	800.000	-0.074	-0.222
-732.996	-200.000	-0.004	0.136
-731.981	-200.000	0.025	-0.163
-730.966	99.329	0.161	-0.190
-729.952	68.103	-0.180	0.188
-728.937	-30.008	-0.445	0.258
-727.923	-182.790	-0.278	-0.005
-726.908	-200.000	-0.024	0.260
-725.894	35.336	-0.134	0.119
-724.879	112.782	0.026	0.033
-723.864	-86.546	-0.456	0.143
-722.850	563.865	-0.088	-0.217
-721.835	-101.305	-0.269	-0.067
-720.821	-32.788	-0.192	-0.109
-719.806	-162.082	-0.245	0.013
-718.791	800.000	0.062	-0.205
-717.777	29.151	-0.139	0.120
-716.762	-61.185	-0.119	0.051
-715.748	16.713	0.171	-0.138
-714.733	-11.791	-0.116	0.078
-713.718	-133.591	0.191	0.024
-712.704	-39.422	-0.151	-0.081
-711.689	800.000	0.059	-0.191
-710.675	-131.071	0.248	-0.034
-709.660	-16.826	-0.151	0.097
-708.645	576.599	-0.064	-0.160
-707.631	-200.000	-0.012	-0.072
-706.616	401.102	-0.141	-0.301
-705.602	217.299	0.222	-0.361
-704.587	92.269	-0.087	-0.100
-703.572	-200.000	-0.029	0.351
-702.558	-200.000	-0.017	-0.405
-701.543	800.000	-0.109	-0.310
-700.529	-200.000	0.033	0.234
-699.514	-159.170	0.014	0.001
-698.499	800.000	0.054	-0.234
-697.485	55.702	0.288	0.284
-696.470	800.000	0.062	0.220
-695.456	-48.798	-0.321	-0.157
-694.441	136.925	0.055	0.074
-693.426	60.285	0.096	-0.096
-692.412	-130.513	-0.195	0.027
-691.397	42.523	0.101	0.094
-690.383	-55.680	-0.282	-0.128
-689.368	37.146	-0.187	-0.168
-688.354	-35.506	-0.262	-0.145
-687.339	-150.049	0.236	0.019
-686.324	-122.658	-0.036	-0.006
-685.310	800.000	-0.042	0.148
-684.295	-200.000	-0.024	-0.396
-683.281	-43.068	0.184	0.095
-682.266	-92.017	-0.143	0.041
-681.251	-200.000	0.005	0.022
-680.237	397.084	0.047	0.099
-679.222	-13.895	-0.227	-0.149
-678.208	20.369	-0.172	0.141
-677.193	111.112	-0.145	-0.178
-676.178	-6.018	-0.164	-0.114
-675.164	96.456	-0.030	-0.035
-674.149	345.460	0.185	0.369
-673.135	99.085	0.077	-0.090
-672.120	43.032	0.119	0.111
-671.105	800.000	-0.046	-0.199
-670.091	144.945	0.068	0.092
-669.076	-90.514	-0.145	-0.043
-668.062	-115.895	-0.185	0.035
-667.047	-57.080	-0.225	0.101
-666.032	-149.124	-0.151	0.012
-665.018	-194.155	0.135	0.001
-664.003	800.000	-0.029	0.081
-662.989	649.845	-0.090	0.233
-661.974	-200.000	0.006	-0.262
-660.959	-200.000	0.042	-0.237
-659.945	-113.868	0.275	0.054
-658.930	-129.410	-0.167	0.024
-657.916	-124.749	-0.230	-0.036
-656.901	-115.727	0.120	-0.023
-655.886	-19.693	0.231	-0.145
-654.872	-126.413	-0.322	-0.049
-653.857	176.773	0.086	0.128
-652.843	170.021	0.216	-0.314
-651.828	800.000	0.047	-0.208
-650.814	800.000	-0.016	0.050
-649.799	13.951	-0.300	0.237
-648.784	680.102	-0.142	0.375
-647.770	-200.000	-0.013	-0.095
-646.755	800.000	-0.100	-0.361
-645.741	800.000	0.037	0.110
-644.726	-200.000	0.035	-0.367
-643.711	142.746	-0.132	-0.178
-642.697	-82.310	-0.082	-0.027
-641.682	781.708	0.009	0.026
-640.668	-124.671	0.105	-0.017
-639.653	26.012	0.207	0.176
-638.638	76.366	-0.205	0.220
-637.624	91.614	-0.200	-0.229
-636.609	-97.849	-0.171	0.045
-635.595	104.833	0.143	0.171
-634.580	-160.811	0.134	-0.007
-633.565	800.000	-0.108	-0.341
-632.551	-52.089	0.068	-0.032
-631.536	800.000	-0.094	-0.334
-630.522	-200.000	0.060	-0.517
-629.507	-19.517	0.151	-0.095
-628.492	57.111	-0.081	0.080
-627.478	-119.570	0.367	-0.064
-626.463	-200.000	-0.039	-0.334
-625.449	-23.311	0.116	0.071
-624.434	-100.707	-0.175	0.044
-623.419	469.731	0.074	0.170
-622.405	47.369	-0.171	-0.162
-621.390	-166.712	-0.340	-0.014
-620.376	178.794	-0.097	0.144
-619.361	62.484	0.223	0.226
-618.346	-66.283	-0.337	-0.136
-617.332	800.000	0.055	0.192
-616.317	-200.000	0.006	0.161
-615.303	-96.216	0.139	0.037
-614.288	-200.000	0.091	-0.447
-613.273	800.000	0.032	-0.124
-612.259	800.000	0.073	-0.290
-611.244	-100.793	-0.157	0.039
-610.230	-200.000	-0.036	0.190
-609.215	126.993	-0.263	0.338
-608.201	-200.000	-0.029	-0.408
-607.186	-59.581	0.276	0.120
-606.171	-110.490	-0.054	0.011
-605.157	-200.000	-0.020	0.107
-604.142	-105.405	0.128	0.030
-603.128	16.854	-0.154	-0.124
-602.113	74.253	0.069	-0.074
-601.098	-108.273	0.149	-0.033
-600.084	383.027	0.145	0.301
-599.069	199.296	0.227	-0.354
-598.055	63.004	0.355	0.361
-597.040	-51.105	-0.402	0.191
-596.025	-144.297	-0.141	-0.013
-595.011	-32.751	0.187	-0.105
-593.996	-91.757	-0.187	-0.054
-592.982	-14.586	-0.156	0.101
-591.967	800.000	-0.034	0.124
-590.952	-200.000	-0.029	0.200
-589.938	-118.898	-0.378	0.067
-588.923	-200.000	0.032	-0.488
-587.909	-43.537	0.178	-0.091
-586.894	-26.458	-0.276	-0.164
-585.879	-200.000	-0.002	0.140
-584.865	-200.000	-0.034	0.294
-583.850	121.796	0.210	-0.266
-582.836	-88.491	-0.401	-0.121
-581.821	212.408	-0.026	-0.042
-580.806	181.839	0.234	-0.349
-579.792	723.148	0.085	-0.230
-578.777	800.000	-0.035	-0.136
-577.763	43.547	0.130	0.121
-576.748	200.815	-0.051	-0.079
-575.733	498.193	-0.038	0.089
-574.719	-86.309	-0.230	0.072
-573.704	-54.516	-0.186	-0.085
-572.690	-180.382	0.310	0.007
-571.675	-200.000	-0.042	0.540
-570.661	159.164	-0.123	-0.173
-569.646	-200.000	-0.001	-0.270
-568.631	-200.000	-0.037	0.168
-567.617	-200.000	0.048	-0.271
-566.602	-200.000	0.042	-0.191
-565.588	-131.718	-0.384	-0.051
-564.573	-114.787	0.196	-0.038
-563.558	121.724	0.096	0.122
-562.544	173.731	0.073	-0.106
-561.529	-178.509	-0.199	-0.005
-560.515	99.382	0.122	0.143
-559.500	-68.298	0.380	0.149
-558.485	-192.819	0.275	-0.003
-557.471	108.024	0.124	-0.149
-556.456	13.588	-0.302	-0.238
-555.442	-200.000	-0.016	-0.145
-554.427	241.349	-0.058	-0.098
-553.412	-200.000	-0.018	0.103
-552.398	31.071	0.028	0.025
-551.383	-171.791	0.118	-0.004
-550.369	-97.022	0.178	-0.047
-549.354	140.198	0.138	0.184
-548.339	523.477	0.023	-0.054
-547.325	-200.000	-0.053	-0.287
-546.310	-153.165	-0.251	-0.018
-545.296	599.284	-0.154	-0.387
-544.281	-200.000	-0.011	-0.160
-543.266	326.729	-0.057	-0.111
-542.252	-135.336	0.108	-0.013
-541.237	290.631	0.107	0.197
-540.223	451.246	0.106	0.237
-539.208	155.193	0.210	0.292
-538.193	137.957	0.109	-0.144
-537.179	40.389	0.235	-0.214
-536.164	-200.000	0.034	-0.490
-535.150	-120.212	-0.074	0.013
-534.135	707.723	0.090	0.241
-533.121	-44.275	-0.225	0.114
-532.106	-167.344	0.273	0.011
-531.091	800.000	0.003	-0.015
-530.077	-200.000	-0.038	-0.407
-529.062	3.036	-0.170	-0.125
-528.048	800.000	0.040	-0.122
-527.033	-200.000	-0.050	0.000
-526.018	800.000	0.027	-0.115
-525.004	-22.976	0.209	-0.127
-523.989	-17.649	-0.345	0.219
-522.975	-119.714	-0.219	-0.038
-521.960	3.916	0.109	0.081
-520.945	527.596	-0.064	0.152
-519.931	-62.556	-0.394	-0.165
-518.916	800.000	0.050	-0.161
-517.902	-108.672	0.142	0.031
-516.887	80.441	-0.127	0.138
-515.872	-141.703	0.180	-0.018
-514.858	81.513	0.129	0.141
-513.843	1.653	0.162	-0.118
-512.829	-148.230	0.192	0.016
-511.814	36.981	-0.218	0.195
-510.799	-200.000	-0.001	0.065
-509.785	321.492	-0.083	-0.160
-508.770	-166.013	-0.126	-0.005
-507.756	-62.212	-0.157	0.066
-506.741	-31.484	-0.188	0.107
-505.726	44.450	0.083	0.077
-504.712	-1.429	-0.188	0.134
-503.697	-200.000	0.000	-0.069
-502.683	109.702	-0.131	0.159
-501.668	76.121	-0.181	-0.194
-500.653	-117.957	0.530	0.096
-499.639	-110.919	-0.065	0.014
-498.624	-73.384	0.164	-0.060
-497.610	-136.575	0.063	0.007
-496.595	486.560	-0.022	-0.051
-495.581	800.000	0.099	0.426
-494.566	-200.000	-0.022	0.188
-493.551	708.061	0.060	0.160
-492.537	-97.881	-0.099	-0.026
-491.522	-39.742	0.026	0.014
-490.508	83.323	0.109	-0.120
-489.493	800.000	-0.073	0.203
-488.478	800.000	-0.049	0.148
-487.464	38.400	-0.197	0.177
-486.449	800.000	-0.047	0.160
-485.435	611.469	0.073	-0.185
-484.420	-200.000	-0.003	-0.104
-483.405	-2.277	0.249	-0.176
-482.391	-200.000	0.051	-0.382
-481.376	-150.039	0.261	0.020
-480.362	676.606	0.117	-0.307
-479.347	633.787	-0.051	-0.130
-478.332	-42.009	0.358	-0.185
-477.318	-99.268	-0.362	0.092
-476.303	-100.035	0.121	0.030
-475.289	800.000	0.047	0.191
-474.274	-142.045	-0.225	-0.023
-473.259	-200.000	-0.017	-0.256
-472.245	800.000	-0.082	-0.264
-471.230	323.123	0.082	0.159
-470.216	691.882	0.114	0.302
-469.201	27.630	-0.192	0.163
-468.186	89.818	-0.043	-0.048
-467.172	9.083	0.139	-0.106
-466.157	217.376	0.141	0.227
-465.143	8.997	-0.113	-0.086
-464.128	-54.625	-0.343	-0.157
-463.113	411.733	-0.146	0.313
-462.099	800.000	0.090	0.334
-461.084	-152.590	-0.159	0.011
-460.070	-29.434	0.175	0.101
-459.055	762.197	0.033	-0.090
-458.040	-169.018	0.160	-0.006
-457.026	-2.248	0.051	0.036
-456.011	13.209	0.274	-0.214
-454.997	29.937	0.097	0.084
-453.982	-200.000	-0.011	0.159
-452.968	221.650	0.141	-0.228
-451.953	-159.959	-0.147	0.008
-450.938	33.386	-0.049	-0.042
-449.924	62.825	-0.197	-0.199
-448.909	800.000	-0.084	-0.274
-447.895	262.773	0.084	-0.147
-446.880	-200.000	-0.048	0.399
-445.865	-200.000	-0.032	0.198
-444.851	-65.898	-0.224	0.090
-443.836	-64.474	0.145	0.059
-442.822	-129.051	-0.217	0.031
-441.807	-200.000	0.003	0.267
-440.792	-67.723	0.279	0.110
-439.778	181.605	0.027	-0.039
-438.763	-200.000	-0.100	0.450
-437.749	-200.000	-0.069	0.307
-436.734	47.728	-0.119	0.112
-435.719	-200.000	0.031	-0.167
-434.705	-135.040	0.018	0.002
-433.690	27.437	0.436	0.369
-432.676	-160.378	-0.400	0.022
-431.661	-200.000	-0.008	-0.090
-430.646	800.000	0.047	0.167
-429.632	83.383	-0.095	-0.104
-428.617	-151.729	-0.034	-0.003
-427.603	-137.765	0.470	0.053
-426.588	-200.000	0.010	0.146
-425.573	-200.000	0.044	-0.280
-424.559	-71.308	-0.095	0.036
-423.544	112.400	0.245	-0.299
-422.530	72.068	-0.192	-0.201
-421.515	800.000	0.086	0.268
-420.500	-200.000	0.032	0.144
-419.486	-91.062	0.247	0.071
-418.471	-39.537	-0.193	-0.102
-417.457	-200.000	-0.014	0.201
-416.442	-140.786	0.323	-0.034
-415.428	800.000	0.031	-0.091
-414.413	-19.927	-0.241	0.150
-413.398	-21.657	-0.201	0.124
-412.384	285.356	0.119	-0.215
-411.369	800.000	0.042	0.137
-410.355	124.768	0.064	0.081
-409.340	156.750	0.084	-0.117
-408.325	-176.958	-0.047	-0.001
-407.311	-90.381	0.071	-0.021
-406.296	-200.000	0.008	-0.144
-405.282	-200.000	0.033	-0.259
-404.267	136.837	0.214	-0.282
-403.252	-96.015	-0.095	0.025
-402.238	-200.000	-0.048	0.214
-401.223	-68.391	-0.140	-0.055
-400.209	45.061	-0.079	0.073
-399.194	-143.861	0.210	-0.020
-398.179	-0.980	-0.127	-0.091
-397.165	-200.000	0.014	-0.213
-396.150	-96.293	0.341	0.091
-395.136	-200.000	0.020	0.121
-394.121	-41.521	-0.073	0.038
-393.106	-111.457	-0.266	-0.054
-392.092	-120.263	-0.105	0.018
-391.077	22.222	-0.129	-0.106
-390.063	155.044	-0.226	-0.312
-389.048	-47.846	0.099	-0.048
-388.033	800.000	0.060	0.223
-387.019	-66.051	0.533	0.214
-386.004	335.515	0.055	0.107
-384.990	800.000	0.089	0.263
-383.975	-42.556	0.405	0.207
-382.960	280.010	-0.095	0.171
-381.946	-21.905	-0.030	0.018
-380.931	-186.452	-0.068	0.001
-379.917	800.000	-0.073	-0.225
-378.902	34.938	-0.377	0.331
-377.888	160.364	0.168	-0.236
-376.873	74.411	0.141	0.149
-375.858	50.089	-0.176	-0.167
-374.844	-128.367	0.131	-0.019
-373.829	-84.137	-0.096	0.031
-372.815	33.130	-0.091	0.079
-371.800	-5.234	0.191	-0.132
-370.785	253.583	0.161	0.277
-369.771	800.000	0.144	0.486
-368.756	435.862	-0.184	0.402
-367.742	-155.375	0.273	0.018
-366.727	257.429	0.169	-0.291
-365.712	-38.972	-0.059	0.031
-364.698	-82.117	0.128	0.042
-363.683	451.741	0.091	-0.202
-362.669	74.832	0.094	-0.099
-361.654	-155.917	-0.467	0.030
-360.639	800.000	0.114	-0.330
-359.625	-200.000	-0.002	-0.161
-358.610	-129.393	0.213	-0.030
-357.596	-130.326	0.252	-0.034
-356.581	800.000	-0.052	0.174
-355.566	-200.000	0.043	-0.319
-354.552	-56.067	-0.123	-0.055
-353.537	-37.972	0.223	-0.119
-352.523	800.000	0.038	0.142
-351.508	36.458	0.068	0.060
-350.493	-22.312	-0.256	-0.156
-349.479	65.564	-0.312	0.317
-348.464	37.099	-0.275	-0.244
-347.450	1.148	-0.064	-0.046
-346.435	8.503	0.126	-0.095
-345.420	-139.971	0.231	-0.025
-344.406	800.000	0.036	0.139
-343.391	-111.355	0.164	0.034
-342.377	170.906	-0.116	-0.166
-341.362	-200.000	0.002	0.191
-340.348	-84.319	0.226	0.072
-339.333	-128.518	0.314	-0.045
-338.318	800.000	0.081	-0.331
-337.304	212.265	-0.103	-0.162
-336.289	-174.838	-0.228	-0.006
-335.275	104.493	-0.106	-0.125
-334.260	111.068	-0.069	-0.084
-333.245	-200.000	-0.021	-0.286
-332.231	-26.685	-0.071	-0.042
-331.216	570.661	-0.164	-0.400
-330.202	-200.000	-0.091	0.413
-329.187	-200.000	-0.088	0.530
-328.172	-81.865	-0.149	-0.049
-327.158	-17.218	-0.125	-0.079
-326.143	-200.000	-0.034	0.224
-325.129	800.000	-0.079	-0.221
-324.114	800.000	0.098	-0.273
-323.099	0.104	0.295	0.211
-322.085	800.000	-0.072	0.287
-321.070	235.331	-0.211	0.350
-320.056	-200.000	-0.010	0.228
-319.041	-200.000	0.008	-0.265
-318.026	48.541	0.100	0.094
-317.012	-78.568	0.070	0.024
-315.997	-149.798	0.218	0.017
-314.983	51.891	-0.081	0.078
-313.968	-200.000	0.064	0.350
-312.953	-12.840	0.238	-0.155
-311.939	-115.718	-0.206	-0.039
-310.924	-200.000	-0.005	-0.474
-309.910	-200.000	-0.007	0.174
-308.895	674.375	-0.083	-0.216
-307.880	13.289	0.198	-0.154
-306.866	-40.930	-0.178	-0.092
-305.851	191.714	-0.359	-0.543
-304.837	-200.000	-0.063	0.292
-303.822	-200.000	-0.006	-0.146
-302.807	-65.180	-0.377	0.152
-301.793	-82.115	-0.167	0.054
-300.778	158.132	0.184	-0.255
-299.764	45.917	-0.323	0.300
-298.749	-123.846	0.098	0.015
-297.735	-135.186	-0.319	0.038
-296.720	-154.609	0.318	0.021
-295.705	11.337	0.197	0.151
-294.691	-119.518	0.032	-0.006
-293.676	623.319	0.059	0.148
-292.662	-111.900	0.385	-0.078
-291.647	-75.074	0.418	-0.150
-290.632	-81.266	-0.306	-0.101
-289.618	402.532	-0.156	0.329
-288.603	201.154	0.118	0.181
-287.589	221.496	-0.223	-0.359
-286.574	-1.341	0.087	0.062
-285.559	-200.000	-0.016	0.242
-284.545	421.668	0.045	0.098
-283.530	800.000	-0.074	-0.233
-282.516	-32.323	0.182	0.102
-281.501	-81.535	0.194	-0.064
-280.486	-69.220	0.118	0.046
-279.472	-11.330	0.091	0.060
-278.457	800.000	0.014	-0.038
-277.443	-200.000	0.017	0.133
-276.428	-57.233	-0.471	0.207
-275.413	-22.141	0.490	0.298
-274.399	93.947	-0.050	0.056
-273.384	-144.076	-0.149	-0.014
-272.370	-200.000	-0.027	0.212
-271.355	286.658	-0.139	0.252
-270.340	13.045	-0.063	0.048
-269.326	800.000	0.077	-0.297
-268.311	466.936	-0.138	-0.310
-267.297	-200.000	0.069	-0.371
-266.282	127.203	0.142	0.180
-265.267	101.860	0.103	-0.120
-264.253	-104.016	-0.162	0.038
-263.238	-66.506	-0.140	-0.056
-262.224	93.543	-0.131	-0.148
-261.209	-200.000	-0.047	0.252
-260.195	-1.780	-0.242	0.171
-259.180	62.493	-0.243	-0.243
-258.165	800.000	0.055	0.176
-257.151	-55.222	0.297	0.134
-256.136	800.000	-0.007	0.021
-255.122	188.007	0.123	0.184
-254.107	-59.655	-0.132	0.056
-253.092	-55.067	-0.108	0.049
-252.078	249.749	-0.030	-0.050
-251.063	800.000	-0.078	-0.230
-250.049	-200.000	-0.075	-0.421
-249.034	800.000	-0.028	-0.110
-248.019	43.962	0.159	-0.145
-247.005	-120.231	0.371	-0.063
-245.990	204.594	-0.107	-0.167
-244.976	49.012	-0.228	-0.215
-243.961	49.464	-0.068	-0.064
-242.946	800.000	-0.063	-0.234
-241.932	-200.000	0.012	0.356
-240.917	251.425	-0.120	0.203
-239.903	-200.000	0.037	-0.249
-238.888	274.867	0.130	0.231
-237.873	90.007	0.170	0.189
-236.859	-200.000	-0.011	-0.158
-235.844	-200.000	0.026	-0.247
-234.830	317.625	0.006	-0.012
-233.815	177.191	-0.036	0.052
-232.800	132.137	0.182	-0.234
-231.786	-101.585	0.078	-0.019
-230.771	-130.371	0.209	-0.028
-229.757	800.000	-0.039	0.145
-228.742	239.731	0.190	0.316
-227.727	-200.000	-0.020	0.103
-226.713	55.216	-0.107	0.104
-225.698	-44.429	-0.058	0.029
-224.684	678.577	-0.136	0.353
-223.669	2.468	0.184	0.133
-222.655	-101.584	0.202	-0.049
-221.640	-121.271	0.205	0.034
-220.625	-68.885	-0.100	0.039
-219.611	12.026	0.237	0.182
-218.596	-200.000	-0.043	0.342
-217.582	-39.740	0.176	-0.092
-216.567	1.359	0.046	-0.033
-215.552	579.102	0.115	0.282
-214.538	-101.729	0.147	-0.036
-213.523	800.000	0.131	-0.486
-212.509	800.000	0.055	-0.198
-211.494	800.000	0.045	-0.176
-210.479	-100.441	-0.094	0.023
-209.465	-200.000	-0.020	-0.208
-208.450	219.053	-0.091	0.145
-207.436	800.000	-0.102	-0.402
-206.421	-89.497	-0.325	-0.095
-205.406	218.739	0.213	-0.339
-204.392	197.151	-0.137	-0.209
-203.377	-93.417	-0.166	0.046
-202.363	-121.547	-0.285	0.047
-201.348	-58.033	-0.340	0.148
-200.333	-147.947	0.101	-0.008
-199.319	-200.000	0.048	0.434
-198.304	800.000	-0.092	0.295
-197.290	-172.493	-0.207	0.007
-196.275	257.106	0.060	0.103
-195.260	-47.311	-0.153	0.074
-194.246	-126.550	-0.211	0.031
-193.231	546.537	-0.075	-0.179
-192.217	800.000	0.068	-0.228
-191.202	-109.554	-0.256	-0.054
-190.187	-54.811	0.219	-0.099
-189.173	308.692	-0.203	0.379
-188.158	-200.000	0.019	-0.420
-187.144	-80.798	0.160	0.053
-186.129	369.693	0.207	-0.418
-185.114	-153.605	-0.030	-0.002
-184.100	-200.000	-0.026	-0.217
-183.085	-200.000	0.006	0.399
-182.071	-113.594	-0.290	0.057
-181.056	-103.343	0.151	-0.036
-180.042	-125.675	-0.123	0.019
-179.027	22.049	0.062	0.051
-178.012	-35.909	-0.355	-0.192
-176.998	-0.068	-0.181	0.129
-175.983	682.835	-0.107	-0.278
-174.969	134.506	0.291	0.377
-173.954	45.346	0.118	0.109
-172.939	60.777	0.293	-0.290
-171.925	179.208	-0.199	0.290
-170.910	-200.000	-0.032	0.144
-169.896	-200.000	0.001	0.023
-168.881	-47.690	0.092	-0.044
-167.866	-110.381	0.063	-0.013
-166.852	51.937	0.077	0.073
-165.837	-71.270	-0.208	-0.078
-164.823	72.911	0.287	0.299
-163.808	405.696	0.112	0.235
-162.793	443.699	-0.076	0.167
-161.779	42.619	-0.182	-0.165
-160.764	25.777	0.148	0.123
-159.750	-128.838	-0.122	0.017
-158.735	-200.000	0.017	0.109
-157.720	-200.000	0.035	0.213
-156.706	-6.874	-0.159	-0.108
-155.691	800.000	0.095	0.341
-154.677	25.101	0.103	-0.085
-153.662	337.673	0.085	0.164
-152.647	267.964	-0.052	0.090
-151.633	-164.043	-0.204	0.009
-150.618	14.669	0.056	-0.044
-149.604	-57.954	-0.094	0.041
-148.589	528.806	0.048	0.113
-147.574	-200.000	-0.017	-0.375
-146.560	-170.671	-0.090	0.003
-145.545	800.000	-0.078	-0.231
-144.531	-200.000	0.048	-0.323
-143.516	-200.000	-0.033	0.211
-142.502	93.192	-0.105	0.118
-141.487	-200.000	-0.005	-0.073
-140.472	-200.000	-0.043	-0.353
-139.458	544.169	0.034	-0.080
-138.443	686.389	0.118	0.307
-137.429	122.608	-0.143	0.178
-136.414	110.742	0.211	-0.252
-135.399	-200.000	-0.008	0.079
-134.385	-106.761	0.046	-0.010
-133.370	-200.000	0.026	-0.257
-132.356	420.628	0.152	0.324
-131.341	-200.000	0.040	0.194
-130.326	61.336	-0.182	0.180
-129.312	-39.596	0.255	-0.133
-128.297	-113.327	0.311	0.061
-127.283	46.301	0.199	-0.184
-126.268	139.890	-0.098	0.128
-125.253	731.909	0.122	0.326
-124.239	77.165	-0.198	-0.210
-123.224	167.429	0.009	-0.012
-122.210	-200.000	0.025	-0.110
