DTS Sentinel unit serial number:	SN413079Multiplexer serial number:	ORYXHardware model number:	OX4-SRSoftware version number:	ORYX F/W v4.00 Oryx Data Collector v3.7.2.0data status	okinstallation	princeton_trtdifferential loss correction	single-endedforward channel	channel 2reverse channel	N/Adate	2019/09/15time	21:07:35forward acquisition time	60.00reverse acquisition time	0.00gamma	496.2192k internal	0.2333k external	0.2333temperature offset calibration	0.9941default loss term (dB/km)	0.3790temperature slope calibration	1.0000multiplexer offset coefficient	1.0000multiplexer slope coefficient	1.0000fibre end	0.00T internal ref (°C)	31.50T ext. ref 1 (°C)	8.12T ext. ref 2 (°C)	24.39length (m)	temperature (°C)	Stokes	anti-Stokes-747.200	145.520	-0.112	0.151
-746.185	-84.942	-0.261	0.082
-745.171	346.278	0.195	0.386
-744.156	-200.000	0.034	0.160
-743.142	150.147	0.034	-0.046
-742.127	87.231	-0.273	0.304
-741.112	4.601	-0.290	-0.214
-740.098	-74.998	0.259	0.093
-739.083	-145.936	0.118	0.011
-738.069	-61.279	0.077	-0.032
-737.054	-83.544	0.129	-0.041
-736.039	102.343	-0.157	0.184
-735.025	-94.336	0.437	0.120
-734.010	800.000	0.143	-0.438
-732.996	-92.596	-0.055	0.015
-731.981	763.558	0.074	-0.202
-730.966	684.976	-0.086	-0.226
-729.952	136.640	-0.234	-0.308
-728.937	-2.685	0.210	-0.148
-727.923	-200.000	-0.139	0.620
-726.908	39.838	-0.136	0.123
-725.894	22.391	0.144	-0.118
-724.879	582.826	-0.016	-0.038
-723.864	702.975	-0.079	0.210
-722.850	105.991	-0.036	0.043
-721.835	-78.870	0.238	0.081
-720.821	800.000	0.175	-0.526
-719.806	159.282	0.133	-0.185
-718.791	100.721	0.224	-0.261
-717.777	800.000	0.070	-0.291
-716.762	-32.798	-0.288	-0.161
-715.748	-134.446	-0.260	-0.032
-714.733	254.500	-0.212	-0.364
-713.718	-62.505	-0.213	-0.089
-712.704	-52.359	0.114	0.053
-711.689	-21.090	-0.281	-0.172
-710.675	-38.379	-0.104	-0.055
-709.660	38.489	-0.101	-0.090
-708.645	444.396	-0.061	0.134
-707.631	-95.184	0.239	-0.065
-706.616	-170.241	-0.264	0.009
-705.602	32.763	0.040	-0.035
-704.587	240.643	-0.100	-0.168
-703.572	-46.502	-0.223	-0.110
-702.558	-136.521	-0.433	0.050
-701.543	51.675	-0.109	-0.104
-700.529	-200.000	-0.039	-0.192
-699.514	-140.670	-0.253	-0.026
-698.499	-48.236	0.311	-0.151
-697.485	-11.016	0.157	0.104
-696.470	-200.000	-0.043	-0.219
-695.456	58.145	-0.101	-0.099
-694.441	-129.972	0.382	0.053
-693.426	194.218	0.094	0.143
-692.412	-152.979	-0.147	0.010
-691.397	-20.278	-0.094	0.058
-690.383	142.436	-0.085	-0.113
-689.368	-54.115	0.052	-0.024
-688.354	-115.533	-0.057	0.011
-687.339	454.194	-0.105	-0.233
-686.324	420.538	0.060	0.130
-685.310	418.625	-0.105	0.226
-684.295	-141.390	0.249	0.025
-683.281	102.409	0.061	-0.071
-682.266	-104.919	-0.101	0.023
-681.251	-200.000	0.005	-0.106
-680.237	243.130	0.153	0.257
-679.222	395.763	-0.090	0.189
-678.208	-60.745	0.194	0.082
-677.193	-41.544	0.093	0.048
-676.178	-38.578	-0.132	-0.070
-675.164	-200.000	-0.002	0.086
-674.149	-78.174	0.084	-0.029
-673.135	-86.894	0.316	0.097
-672.120	293.368	-0.118	-0.216
-671.105	51.022	0.149	-0.141
-670.091	-103.021	-0.099	0.024
-669.076	-200.000	-0.040	-0.207
-668.062	417.755	0.127	0.273
-667.047	2.241	0.329	-0.238
-666.032	-200.000	-0.003	-0.067
-665.018	-200.000	0.030	-0.312
-664.003	-27.966	-0.230	-0.133
-662.989	373.466	0.044	0.090
-661.974	800.000	-0.098	0.397
-660.959	-79.974	0.324	-0.109
-659.945	254.436	-0.238	-0.408
-658.930	800.000	-0.019	-0.081
-657.916	-139.305	-0.220	-0.024
-656.901	237.379	-0.152	-0.253
-655.886	-23.419	-0.182	0.110
-654.872	800.000	0.135	-0.394
-653.857	800.000	0.047	-0.189
-652.843	800.000	0.080	-0.282
-651.828	800.000	0.056	-0.241
-650.814	8.958	0.204	0.154
-649.799	-97.243	-0.276	0.072
-648.784	-125.872	0.277	-0.042
-647.770	469.504	0.025	0.056
-646.755	80.045	0.040	-0.043
-645.741	10.470	0.239	-0.182
-644.726	-200.000	-0.001	-0.094
-643.711	-200.000	0.006	0.234
-642.697	-25.959	-0.101	0.059
-641.682	186.065	-0.100	0.150
-640.668	-200.000	0.037	-0.380
-639.653	800.000	0.081	-0.297
-638.638	35.577	-0.084	0.074
-637.624	-170.996	0.157	-0.005
-636.609	85.562	-0.118	-0.130
-635.595	171.296	-0.197	-0.283
-634.580	800.000	0.065	-0.200
-633.565	-200.000	-0.012	0.532
-632.551	-200.000	-0.072	-0.345
-631.536	434.461	0.127	-0.276
-630.522	800.000	-0.064	0.258
-629.507	42.838	-0.167	-0.152
-628.492	272.587	0.148	-0.262
-627.478	-200.000	0.037	-0.449
-626.463	800.000	-0.005	0.019
-625.449	12.123	-0.082	-0.064
-624.434	-200.000	-0.054	-0.391
-623.419	-200.000	-0.259	0.000
-622.405	-77.780	0.116	0.040
-621.390	78.710	0.050	-0.053
-620.376	185.784	-0.262	0.390
-619.361	-85.123	0.247	0.077
-618.346	160.830	-0.132	0.185
-617.332	-169.653	-0.294	0.011
-616.317	48.174	-0.089	-0.083
-615.303	26.246	-0.095	0.079
-614.288	-42.102	0.217	0.111
-613.273	-200.000	0.011	-0.157
-612.259	180.465	0.157	-0.230
-611.244	-200.000	-0.042	-0.369
-610.230	3.703	-0.319	-0.233
-609.215	-128.633	-0.270	0.038
-608.201	-52.676	-0.049	0.023
-607.186	-200.000	0.048	0.223
-606.171	19.881	0.036	0.029
-605.157	-114.306	0.212	0.041
-604.142	635.967	-0.153	-0.390
-603.128	221.054	0.071	0.115
-602.113	47.002	0.013	-0.012
-601.098	800.000	0.057	-0.186
-600.084	677.228	0.035	0.091
-599.069	239.661	-0.036	0.059
-598.055	-83.229	-0.163	-0.052
-597.040	132.421	-0.180	-0.233
-596.025	-24.993	0.053	0.032
-595.011	-145.418	0.173	-0.016
-593.996	800.000	-0.093	-0.259
-592.982	-56.063	0.144	0.064
-591.967	-43.470	-0.226	-0.114
-590.952	-200.000	0.027	-0.137
-589.938	-47.583	-0.218	-0.106
-588.923	-162.260	-0.307	-0.015
-587.909	21.508	-0.213	0.173
-586.894	800.000	0.101	-0.294
-585.879	12.299	-0.103	0.079
-584.865	-57.167	-0.052	-0.023
-583.850	-200.000	-0.006	0.123
-582.836	389.799	0.046	-0.095
-581.821	800.000	0.146	0.420
-580.806	51.329	-0.211	0.200
-579.792	20.304	-0.086	-0.069
-578.777	-107.344	0.303	-0.067
-577.763	52.766	0.146	-0.140
-576.748	-30.442	-0.301	0.170
-575.733	541.204	0.066	-0.156
-574.719	-123.458	-0.051	0.008
-573.704	147.721	0.260	0.350
-572.690	-39.523	-0.297	0.155
-571.675	-200.000	0.015	-0.208
-570.661	-35.843	-0.130	-0.070
-569.646	800.000	-0.058	0.250
-568.631	800.000	-0.078	-0.279
-567.617	33.927	0.240	0.209
-566.602	-47.558	-0.043	0.021
-565.588	245.856	0.097	-0.163
-564.573	-27.684	0.071	-0.041
-563.558	-3.509	-0.224	0.155
-562.544	-161.027	0.051	0.003
-561.529	122.221	0.053	0.066
-560.515	76.763	-0.178	0.188
-559.500	-200.000	0.026	0.262
-558.485	800.000	0.038	0.125
-557.471	133.099	0.224	0.288
-556.456	-74.547	-0.315	0.113
-555.442	-40.459	0.153	-0.079
-554.427	-133.866	-0.176	0.022
-553.412	-127.822	0.190	0.027
-552.398	-69.495	-0.285	0.109
-551.383	-47.481	-0.206	0.100
-550.369	-200.000	-0.023	0.185
-549.354	143.946	0.184	0.246
-548.339	-82.692	-0.297	-0.096
-547.325	-163.215	0.272	0.013
-546.310	69.058	0.194	0.199
-545.296	-200.000	-0.082	-0.367
-544.281	-72.588	0.111	-0.041
-543.266	281.666	0.141	0.252
-542.252	-44.778	0.247	-0.123
-541.237	-89.850	-0.397	0.116
-540.223	-200.000	-0.037	-0.246
-539.208	-200.000	-0.058	-0.392
-538.193	246.894	-0.146	0.245
-537.179	-200.000	-0.017	-0.120
-536.164	-107.210	0.117	-0.026
-535.150	41.988	0.282	-0.255
-534.135	129.692	-0.119	-0.152
-533.121	-80.943	-0.485	0.160
-532.106	-141.188	-0.254	-0.026
-531.091	-47.898	0.174	0.084
-530.077	118.434	0.089	0.109
-529.062	-47.794	0.292	-0.141
-528.048	-200.000	-0.005	-0.409
-527.033	-113.539	0.316	0.062
-526.018	-106.581	0.130	-0.029
-525.004	-200.000	0.043	-0.381
-523.989	85.594	-0.187	-0.205
-522.975	541.897	-0.135	-0.322
-521.960	-200.000	0.009	-0.202
-520.945	25.915	-0.114	0.095
-519.931	515.613	-0.036	0.084
-518.916	-200.000	-0.034	-0.200
-517.902	120.000	0.046	0.057
-516.887	-127.684	-0.211	-0.030
-515.872	-200.000	-0.005	0.174
-514.858	-72.805	-0.285	0.105
-513.843	-19.104	0.249	-0.154
-512.829	-1.758	-0.115	-0.080
-511.814	-141.517	-0.479	-0.048
-510.799	-71.466	0.282	0.105
-509.785	-200.000	-0.024	0.169
-508.770	-158.329	-0.312	0.018
-507.756	-200.000	-0.020	-0.179
-506.741	-200.000	-0.002	-0.293
-505.726	800.000	0.054	0.172
-504.712	556.332	0.161	-0.388
-503.697	112.725	-0.074	-0.089
-502.683	800.000	-0.037	0.118
-501.668	-28.340	-0.080	-0.046
-500.653	72.054	0.277	-0.287
-499.639	-36.632	-0.034	0.018
-498.624	-200.000	-0.014	-0.265
-497.610	479.808	-0.052	0.118
-496.595	-128.342	0.146	-0.021
-495.581	262.778	-0.027	-0.047
-494.566	158.708	0.067	0.093
-493.551	119.297	0.251	0.309
-492.537	351.480	-0.086	0.169
-491.522	507.026	-0.115	-0.266
-490.508	-61.389	0.193	0.081
-489.493	63.269	0.197	-0.196
-488.478	-112.108	0.243	-0.049
-487.464	-168.846	0.321	0.012
-486.449	-35.467	0.251	0.135
-485.435	-116.940	0.250	0.046
-484.420	-200.000	-0.019	-0.181
-483.405	-153.313	0.229	0.016
-482.391	-200.000	-0.002	-0.074
-481.376	-97.070	-0.168	-0.044
-480.362	95.916	0.059	0.067
-479.347	430.070	0.185	-0.398
-478.332	672.323	-0.014	0.035
-477.318	-13.959	0.162	-0.104
-476.303	54.793	-0.059	0.057
-475.289	423.564	-0.053	-0.114
-474.274	624.869	0.101	0.253
-473.259	-200.000	0.011	0.174
-472.245	-200.000	0.018	-0.376
-471.230	-200.000	0.004	-0.072
-470.216	-200.000	-0.039	-0.422
-469.201	-157.074	0.497	0.030
-468.186	-68.579	-0.117	-0.045
-467.172	293.340	-0.193	0.351
-466.157	-81.216	0.264	0.087
-465.143	-200.000	0.039	-0.241
-464.128	-106.840	0.282	0.062
-463.113	-125.181	0.344	0.052
-462.099	-149.587	0.084	0.007
-461.084	-96.623	0.134	-0.035
-460.070	59.796	0.271	-0.266
-459.055	-200.000	0.056	-0.313
-458.040	121.156	0.150	-0.185
-457.026	-148.280	-0.223	-0.018
-456.011	15.681	-0.120	0.094
-454.997	-46.252	0.242	0.118
-453.982	-129.144	-0.203	0.028
-452.968	47.915	-0.135	-0.125
-451.953	-200.000	-0.008	0.294
-450.938	187.901	0.189	0.281
-449.924	-28.579	0.247	0.141
-448.909	16.176	0.300	-0.235
-447.895	114.115	-0.126	0.152
-446.880	-134.990	-0.178	0.021
-445.865	-200.000	0.006	-0.065
-444.851	-200.000	-0.041	-0.326
-443.836	638.248	0.077	0.194
-442.822	-200.000	0.011	0.101
-441.807	732.668	-0.105	0.279
-440.792	800.000	-0.034	0.121
-439.778	800.000	0.053	0.146
-438.763	177.110	-0.200	-0.289
-437.749	-99.920	-0.251	0.062
-436.734	-57.882	-0.262	0.114
-435.719	-24.768	0.189	0.112
-434.705	-72.782	0.224	0.082
-433.690	-76.718	0.152	-0.053
-432.676	-200.000	-0.008	0.042
-431.661	54.477	-0.081	-0.077
-430.646	-124.293	0.020	-0.003
-429.632	-65.392	-0.271	0.108
-428.617	41.793	-0.274	0.247
-427.603	133.657	-0.059	-0.075
-426.588	170.010	-0.214	-0.304
-425.573	5.296	0.127	-0.093
-424.559	-200.000	0.009	-0.274
-423.544	665.675	-0.096	-0.245
-422.530	65.800	-0.233	-0.234
-421.515	-101.627	-0.293	-0.071
-420.500	-32.180	-0.165	0.092
-419.486	157.993	-0.135	0.186
-418.471	226.848	-0.021	-0.034
-417.457	-200.000	0.008	0.232
-416.442	247.340	-0.225	0.377
-415.428	113.350	0.086	0.103
-414.413	-65.407	0.212	0.085
-413.398	85.017	0.221	-0.241
-412.384	133.993	0.224	0.288
-411.369	-168.286	0.230	-0.009
-410.355	-200.000	0.040	0.400
-409.340	-109.350	0.116	-0.024
-408.325	-200.000	0.023	-0.293
-407.311	-200.000	-0.008	-0.087
-406.296	-180.607	-0.349	0.007
-405.282	138.216	0.113	-0.147
-404.267	103.906	-0.156	-0.182
-403.252	800.000	-0.058	0.165
-402.238	100.771	0.136	0.157
-401.223	-166.115	-0.220	-0.009
-400.209	-108.868	0.206	-0.044
-399.194	-14.191	-0.209	0.133
-398.179	-56.962	-0.342	0.150
-397.165	-170.371	0.053	-0.002
-396.150	-6.887	-0.031	-0.021
-395.136	15.892	-0.154	0.120
-394.121	800.000	0.044	-0.164
-393.106	800.000	0.076	-0.219
-392.092	379.745	0.178	-0.362
-391.077	53.416	-0.352	0.334
-390.063	184.762	-0.113	0.167
-389.048	-200.000	0.006	0.084
-388.033	-98.186	0.087	0.022
-387.019	-69.077	-0.301	-0.115
-386.004	-114.738	0.081	0.015
-384.990	229.618	0.037	-0.060
-383.975	61.607	-0.041	-0.040
-382.960	469.395	-0.131	-0.291
-381.946	32.209	-0.130	0.111
-380.931	-29.854	0.210	-0.119
-379.917	-200.000	-0.018	-0.137
-378.902	176.587	0.134	-0.193
-377.888	-200.000	0.006	-0.035
-376.873	-68.064	0.428	-0.165
-375.858	-152.195	-0.186	-0.013
-374.844	72.547	0.039	-0.040
-373.829	120.601	0.257	0.316
-372.815	10.680	-0.202	-0.152
-371.800	72.904	0.217	-0.225
-370.785	13.699	0.289	-0.222
-369.771	800.000	0.082	0.319
-368.756	-40.040	0.125	-0.064
-367.742	-28.076	0.127	0.073
-366.727	-200.000	-0.002	0.099
-365.712	8.296	0.171	0.127
-364.698	-72.684	-0.343	-0.125
-363.683	-89.741	-0.208	-0.060
-362.669	41.790	-0.198	0.178
-361.654	13.439	-0.158	0.122
-360.639	701.645	-0.118	-0.307
-359.625	-75.797	0.134	-0.047
-358.610	276.931	-0.255	0.449
-357.596	72.288	0.091	-0.094
-356.581	188.521	0.147	0.217
-355.566	65.279	-0.120	-0.120
-354.552	-200.000	-0.001	0.055
-353.537	-81.271	0.271	0.089
-352.523	-80.884	-0.109	0.036
-351.508	800.000	0.052	-0.169
-350.493	-200.000	0.001	0.314
-349.479	-200.000	0.004	0.121
-348.464	196.967	0.038	-0.057
-347.450	49.855	-0.136	0.127
-346.435	574.623	0.043	-0.103
-345.420	138.666	-0.206	0.268
-344.406	-3.417	-0.059	0.041
-343.391	800.000	-0.078	0.338
-342.377	800.000	0.017	-0.070
-341.362	-200.000	-0.020	0.099
-340.348	-108.246	-0.347	0.074
-339.333	80.321	0.212	-0.226
-338.318	-200.000	0.019	0.532
-337.304	-33.254	-0.138	-0.076
-336.289	-200.000	0.007	0.147
-335.275	-200.000	-0.014	-0.167
-334.260	-76.598	0.214	-0.074
-333.245	-200.000	-0.092	-0.432
-332.231	96.306	-0.126	-0.142
-331.216	118.327	-0.041	-0.050
-330.202	214.935	-0.103	0.162
-329.187	-60.291	0.212	-0.089
-328.172	57.154	0.251	0.242
-327.158	82.450	0.093	0.100
-326.143	-200.000	0.011	0.395
-325.129	10.807	0.155	-0.117
-324.114	182.223	-0.230	0.335
-323.099	74.399	0.152	-0.158
-322.085	215.877	0.146	-0.229
-321.070	56.020	0.113	0.108
-320.056	-100.496	-0.027	0.007
-319.041	-200.000	0.042	-0.201
-318.026	-155.555	0.113	-0.007
-317.012	141.181	-0.104	-0.136
-315.997	-200.000	-0.011	0.121
-314.983	800.000	-0.068	0.238
-313.968	138.496	0.080	-0.104
-312.953	464.558	-0.184	-0.408
-311.939	-200.000	0.026	-0.246
-310.924	152.105	0.198	-0.267
-309.910	-47.555	-0.106	0.051
-308.895	-62.066	-0.064	-0.027
-307.880	-58.126	-0.277	-0.120
-306.866	281.799	-0.133	-0.236
-305.851	-149.002	0.005	0.000
-304.837	36.209	-0.091	-0.079
-303.822	-75.925	0.082	-0.029
-302.807	669.101	-0.119	0.303
-301.793	174.526	0.186	0.266
-300.778	-76.325	-0.112	0.039
-299.764	-16.184	-0.212	0.133
-298.749	-89.363	-0.387	0.113
-297.735	-8.471	-0.123	-0.082
-296.720	-8.581	0.064	0.043
-295.705	-200.000	-0.093	-0.484
-294.691	-50.523	0.060	-0.028
-293.676	-122.402	-0.244	-0.039
-292.662	-88.317	-0.137	-0.040
-291.647	111.705	-0.009	-0.011
-290.632	-4.935	0.146	-0.099
-289.618	188.112	0.073	0.108
-288.603	-56.896	0.201	-0.088
-287.589	-53.794	-0.079	0.035
-286.574	800.000	-0.021	0.069
-285.559	294.121	-0.066	0.120
-284.545	-200.000	0.034	-0.000
-283.530	0.719	-0.155	-0.109
-282.516	498.700	0.027	-0.062
-281.501	-94.535	-0.170	0.046
-280.486	234.316	0.060	0.097
-279.472	-121.335	-0.322	-0.053
-278.457	-24.869	-0.081	0.048
-277.443	305.706	-0.232	0.426
-276.428	101.400	0.159	0.182
-275.413	-103.223	0.215	0.050
-274.399	80.724	0.105	0.112
-273.384	114.846	0.159	-0.192
-272.370	160.699	-0.013	-0.018
-271.355	-200.000	0.034	0.245
-270.340	719.635	0.139	0.365
-269.326	397.809	-0.251	0.519
-268.311	800.000	-0.042	-0.153
-267.297	-128.893	0.206	-0.029
-266.282	-47.356	-0.142	-0.068
-265.267	-48.488	0.241	-0.114
-264.253	800.000	0.073	-0.311
-263.238	19.539	-0.044	-0.035
-262.224	220.462	0.112	-0.178
-261.209	-10.725	0.167	-0.109
-260.195	-95.227	-0.254	-0.067
-259.180	167.574	-0.139	0.195
-258.165	-74.356	0.204	0.073
-257.151	-105.811	0.260	0.058
-256.136	-25.612	0.117	-0.068
-255.122	242.879	-0.147	-0.244
-254.107	-51.941	0.132	-0.061
-253.092	72.053	-0.023	0.024
-252.078	333.197	-0.064	-0.122
-251.063	800.000	0.065	-0.198
-250.049	-6.491	-0.051	-0.034
-249.034	527.666	0.112	0.261
-248.019	-98.488	0.191	-0.048
-247.005	567.589	-0.027	-0.064
-245.990	-54.379	0.187	0.083
-244.976	-84.233	-0.442	0.138
-243.961	-200.000	-0.016	0.341
-242.946	196.380	0.241	-0.362
-241.932	255.861	-0.074	-0.125
-240.917	380.002	0.218	-0.440
-239.903	-67.489	-0.229	0.089
-238.888	-99.591	-0.093	0.023
-237.873	469.051	-0.121	0.268
-236.859	-63.224	0.127	0.052
-235.844	276.192	0.070	0.122
-234.830	96.109	0.128	0.144
-233.815	266.633	-0.134	0.231
-232.800	-39.960	-0.201	0.103
-231.786	151.882	-0.286	-0.384
-230.771	-68.026	0.108	0.042
-229.757	525.924	0.064	0.148
-228.742	369.203	-0.131	-0.262
-227.727	67.280	-0.287	0.288
-226.713	-103.702	0.108	-0.025
-225.698	659.609	0.040	0.103
-224.684	115.320	0.138	-0.166
-223.669	-7.320	-0.038	-0.026
-222.655	142.618	0.069	0.091
-221.640	-71.073	0.215	-0.080
-220.625	-163.690	0.153	0.007
-219.611	-91.882	-0.192	0.054
-218.596	-141.131	-0.163	0.016
-217.582	-82.613	0.117	-0.037
-216.567	-42.298	-0.388	-0.195
-215.552	-67.373	-0.089	0.034
-214.538	71.452	0.223	0.228
-213.523	108.924	0.065	0.076
-212.509	-140.444	0.366	0.038
-211.494	4.512	-0.061	-0.044
-210.479	606.384	-0.075	-0.185
-209.465	-136.084	0.048	-0.005
-208.450	-76.367	0.139	-0.048
-207.436	719.888	0.046	-0.120
-206.421	106.187	0.252	0.293
-205.406	85.924	0.223	-0.242
-204.392	800.000	-0.058	-0.161
-203.377	-174.862	-0.091	-0.003
-202.363	428.344	0.080	0.171
-201.348	652.596	0.077	-0.195
-200.333	-116.951	-0.090	-0.016
-199.319	-60.397	0.400	0.167
-198.304	-200.000	-0.040	0.203
-197.290	-7.926	0.158	0.105
-196.275	-200.000	0.002	0.092
-195.260	141.592	0.185	0.241
-194.246	-62.311	0.154	0.063
-193.231	682.369	0.096	0.246
-192.217	530.386	-0.088	-0.204
-191.202	-75.179	0.152	0.054
-190.187	75.297	0.075	0.077
-189.173	28.766	0.029	-0.024
-188.158	-168.068	-0.065	0.002
-187.144	-111.665	-0.199	0.040
-186.129	-200.000	-0.039	-0.185
-185.114	68.959	0.159	-0.160
-184.100	-21.713	-0.315	0.189
-183.085	-13.659	0.185	0.118
-182.071	-200.000	0.019	-0.393
-181.056	280.267	-0.111	0.195
-180.042	359.657	-0.025	0.048
-179.027	595.878	0.065	-0.159
-178.012	291.178	0.121	0.216
-176.998	-21.217	0.159	-0.095
-175.983	-92.164	-0.122	0.034
-174.969	88.482	-0.217	0.237
-173.954	-5.044	-0.200	-0.135
-172.939	457.205	0.052	0.115
-171.925	-200.000	0.239	-0.001
-170.910	37.322	-0.216	0.188
-169.896	-187.553	0.178	0.002
-168.881	-200.000	0.019	0.215
-167.866	-68.158	-0.217	-0.083
-166.852	3.754	-0.075	0.054
-165.837	155.962	-0.161	0.218
-164.823	257.258	0.154	0.261
-163.808	84.932	0.117	0.126
-162.793	-110.306	0.139	0.029
-161.779	800.000	-0.098	0.315
-160.764	-200.000	0.013	0.098
-159.750	43.966	-0.079	0.071
-158.735	575.298	-0.128	0.306
-157.720	-169.684	0.078	0.003
-156.706	94.019	-0.069	0.077
-155.691	-174.314	0.092	0.003
-154.677	3.086	0.123	0.088
-153.662	49.818	-0.066	0.061
-152.647	249.252	0.221	0.367
-151.633	54.476	0.195	0.185
-150.618	-59.446	-0.297	-0.125
-149.604	-200.000	-0.000	-0.114
-148.589	22.775	0.147	-0.118
-147.574	-153.368	0.166	-0.011
-146.560	-78.140	0.209	0.071
-145.545	-200.000	0.011	0.393
-144.531	-53.232	0.206	-0.093
-143.516	-125.805	0.224	0.033
-142.502	800.000	0.054	-0.210
-141.487	800.000	0.046	-0.167
-140.472	-131.600	-0.110	0.014
-139.458	-200.000	-0.042	0.310
-138.443	-200.000	0.013	0.205
-137.429	-140.752	0.190	0.019
-136.414	741.460	0.078	-0.206
-135.399	476.982	-0.100	0.222
-134.385	800.000	0.097	-0.343
-133.370	111.221	-0.187	-0.221
-132.356	-20.120	-0.276	-0.167
-131.341	-200.000	0.020	0.292
-130.326	800.000	-0.127	-0.367
-129.312	478.962	0.218	0.484
-128.297	181.352	-0.325	0.469
-127.283	-4.421	0.254	-0.172
-126.268	-89.324	-0.292	-0.084
-125.253	-69.118	-0.244	-0.092
-124.239	77.189	-0.230	0.240
-123.224	-42.075	0.199	-0.100
-122.210	470.953	-0.120	-0.265
-121.195	800.000	-0.066	-0.184
