DTS Sentinel unit serial number:	SN413079Multiplexer serial number:	ORYXHardware model number:	OX4-SRSoftware version number:	ORYX F/W v4.00 Oryx Data Collector v3.7.2.0data status	okinstallation	princeton_trtdifferential loss correction	single-endedforward channel	channel 2reverse channel	N/Adate	2019/09/19time	09:15:35forward acquisition time	60.00reverse acquisition time	0.00gamma	496.2192k internal	0.2352k external	0.2352temperature offset calibration	1.0000default loss term (dB/km)	0.3790temperature slope calibration	1.0000multiplexer offset coefficient	1.0000multiplexer slope coefficient	1.0000fibre end	0.00T internal ref (°C)	22.14T ext. ref 1 (°C)	0.61T ext. ref 2 (°C)	19.28length (m)	temperature (°C)	Stokes	anti-Stokes-747.200	-12.696	-0.143	0.093
-746.185	800.000	0.018	0.055
-745.171	-121.770	0.208	-0.034
-744.156	96.338	-0.235	0.268
-743.142	122.198	0.036	0.045
-742.127	800.000	-0.094	0.359
-741.112	108.336	0.100	-0.119
-740.098	11.259	-0.118	0.090
-739.083	-200.000	-0.020	-0.190
-738.069	-200.000	-0.016	-0.136
-737.054	800.000	-0.023	0.076
-736.039	33.084	-0.112	0.097
-735.025	667.718	-0.089	0.229
-734.010	-200.000	-0.038	-0.199
-732.996	183.355	0.008	0.012
-731.981	175.391	-0.138	0.199
-730.966	247.393	-0.063	-0.106
-729.952	31.025	-0.281	-0.240
-728.937	74.481	-0.121	0.127
-727.923	324.956	-0.162	-0.309
-726.908	31.349	0.015	0.013
-725.894	-35.301	-0.197	0.107
-724.879	-200.000	-0.006	0.192
-723.864	540.978	-0.037	-0.087
-722.850	-200.000	-0.015	-0.133
-721.835	-87.295	0.150	0.045
-720.821	33.289	0.083	0.072
-719.806	71.026	-0.316	-0.327
-718.791	170.908	0.106	-0.152
-717.777	344.279	-0.058	0.113
-716.762	72.375	-0.294	-0.305
-715.748	-200.000	0.020	0.134
-714.733	99.512	0.362	0.417
-713.718	57.592	0.284	-0.276
-712.704	-72.891	0.076	-0.028
-711.689	109.467	0.082	-0.098
-710.675	-5.087	0.352	0.241
-709.660	620.484	-0.087	0.218
-708.645	42.439	0.420	-0.381
-707.631	-200.000	-0.040	-0.348
-706.616	-25.899	0.229	-0.134
-705.602	451.158	0.071	0.155
-704.587	175.863	-0.136	0.197
-703.572	14.599	-0.325	0.253
-702.558	758.998	-0.053	0.142
-701.543	-1.028	-0.107	0.075
-700.529	39.344	-0.055	-0.049
-699.514	468.098	-0.082	0.183
-698.499	-113.098	-0.186	0.037
-697.485	-200.000	-0.011	0.190
-696.470	800.000	0.052	-0.200
-695.456	-200.000	0.078	-0.423
-694.441	780.394	-0.047	0.128
-693.426	-121.764	-0.272	-0.045
-692.412	-125.344	-0.221	-0.034
-691.397	463.037	-0.097	-0.215
-690.383	-86.311	-0.024	-0.007
-689.368	143.837	0.072	-0.095
-688.354	-28.177	-0.122	0.070
-687.339	-181.668	-0.512	0.010
-686.324	-200.000	0.016	-0.185
-685.310	9.646	-0.026	-0.020
-684.295	-157.643	-0.181	0.011
-683.281	-79.263	0.042	-0.014
-682.266	13.879	-0.159	-0.123
-681.251	-200.000	0.063	-0.414
-680.237	800.000	-0.087	0.246
-679.222	224.313	0.257	-0.413
-678.208	105.017	0.075	-0.088
-677.193	48.509	0.247	-0.230
-676.178	-84.788	-0.047	-0.015
-675.164	-200.000	-0.012	-0.181
-674.149	-200.000	-0.029	-0.256
-673.135	800.000	0.035	0.149
-672.120	-200.000	-0.089	0.394
-671.105	26.148	0.086	-0.071
-670.091	466.260	0.116	-0.259
-669.076	800.000	-0.089	0.295
-668.062	-108.861	-0.374	0.080
-667.047	-43.496	-0.140	0.070
-666.032	800.000	0.098	0.348
-665.018	225.495	-0.022	0.035
-664.003	29.088	0.205	-0.173
-662.989	204.118	0.156	-0.241
-661.974	-135.500	-0.181	0.021
-660.959	800.000	-0.088	-0.383
-659.945	-39.392	-0.135	-0.070
-658.930	-200.000	0.229	0.001
-657.916	209.457	-0.173	-0.270
-656.901	800.000	0.071	-0.226
-655.886	-155.520	0.244	0.016
-654.872	51.369	-0.242	0.228
-653.857	-68.227	-0.193	0.075
-652.843	48.438	-0.307	-0.286
-651.828	-200.000	-0.047	0.254
-650.814	112.193	0.109	-0.131
-649.799	-23.585	-0.092	-0.055
-648.784	167.950	-0.222	0.314
-647.770	373.061	0.076	0.153
-646.755	800.000	0.038	-0.132
-645.741	-86.522	-0.335	-0.102
-644.726	-126.003	0.336	-0.050
-643.711	800.000	-0.060	0.239
-642.697	201.230	-0.192	-0.293
-641.682	167.149	-0.101	-0.143
-640.668	85.828	-0.219	0.239
-639.653	-9.090	0.342	0.227
-638.638	174.711	-0.171	0.245
-637.624	-50.196	0.280	-0.132
-636.609	104.408	0.071	-0.083
-635.595	-3.580	0.297	-0.205
-634.580	-99.401	-0.128	0.032
-633.565	-69.877	0.163	0.062
-632.551	99.003	-0.052	-0.059
-631.536	-112.043	-0.193	0.039
-630.522	119.615	0.207	-0.254
-629.507	-14.298	-0.208	-0.133
-628.492	-16.006	-0.184	-0.117
-627.478	800.000	0.060	0.166
-626.463	-24.355	0.271	0.160
-625.449	138.310	-0.102	0.132
-624.434	-62.590	-0.151	-0.062
-623.419	-64.349	0.271	0.110
-622.405	227.092	-0.124	0.200
-621.390	-160.796	-0.235	0.012
-620.376	-109.424	0.185	-0.039
-619.361	800.000	0.116	0.341
-618.346	260.400	-0.007	-0.013
-617.332	-75.191	-0.374	-0.133
-616.317	-46.949	-0.297	-0.144
-615.303	-153.684	-0.140	0.010
-614.288	26.962	0.195	0.162
-613.273	8.689	0.239	-0.179
-612.259	-200.000	0.008	0.162
-611.244	288.995	-0.115	0.206
-610.230	-35.478	0.367	0.198
-609.215	627.236	-0.094	0.235
-608.201	-200.000	0.003	0.099
-607.186	159.368	0.142	0.196
-606.171	-200.000	0.017	-0.139
-605.157	48.840	-0.134	-0.125
-604.142	1.665	-0.143	-0.102
-603.128	398.450	0.056	-0.115
-602.113	4.814	-0.134	-0.098
-601.098	-108.562	0.157	0.034
-600.084	371.517	-0.061	0.123
-599.069	-38.723	-0.108	-0.056
-598.055	90.472	0.057	-0.063
-597.040	-178.295	0.277	0.006
-596.025	-200.000	-0.035	-0.255
-595.011	142.333	0.164	-0.216
-593.996	35.102	0.469	-0.408
-592.982	-200.000	-0.009	0.053
-591.967	-200.000	0.011	-0.089
-590.952	35.786	0.260	0.227
-589.938	-152.073	-0.116	0.008
-588.923	88.100	-0.183	-0.201
-587.909	58.643	0.170	0.166
-586.894	41.050	0.260	0.233
-585.879	-48.778	-0.272	0.130
-584.865	-183.415	-0.081	0.001
-583.850	-200.000	0.014	0.224
-582.836	232.081	0.129	-0.210
-581.821	172.058	-0.214	-0.304
-580.806	78.037	-0.107	0.113
-579.792	-52.575	0.204	0.093
-578.777	150.407	0.230	0.310
-577.763	-112.689	-0.179	-0.035
-576.748	418.652	0.039	-0.083
-575.733	-38.547	0.211	-0.111
-574.719	-84.088	0.145	0.046
-573.704	-200.000	-0.005	0.231
-572.690	-199.130	0.295	-0.002
-571.675	-200.000	0.063	-0.345
-570.661	127.177	0.124	-0.156
-569.646	-200.000	-0.022	0.149
-568.631	-200.000	0.011	-0.051
-567.617	-200.000	-0.031	0.142
-566.602	755.422	0.157	-0.420
-565.588	-26.365	0.228	0.133
-564.573	-200.000	-0.178	0.001
-563.558	-48.768	-0.126	0.060
-562.544	72.840	-0.131	0.136
-561.529	371.843	-0.118	-0.237
-560.515	800.000	0.119	0.332
-559.500	41.807	-0.234	0.210
-558.485	-79.516	-0.341	-0.114
-557.471	-26.007	0.141	-0.082
-556.456	800.000	-0.045	0.181
-555.442	728.698	-0.063	0.168
-554.427	-200.000	-0.059	-0.296
-553.412	-16.512	0.352	-0.221
-552.398	23.462	-0.147	0.119
-551.383	-94.777	-0.153	0.041
-550.369	-41.627	0.103	-0.053
-549.354	48.395	0.285	0.264
-548.339	80.608	0.197	-0.210
-547.325	112.692	-0.245	0.294
-546.310	-156.757	-0.329	0.020
-545.296	212.164	0.150	-0.234
-544.281	-103.411	0.105	-0.024
-543.266	-137.045	-0.065	-0.007
-542.252	231.429	-0.125	0.204
-541.237	-143.369	-0.173	-0.016
-540.223	392.094	-0.123	0.254
-539.208	-200.000	0.011	0.280
-538.193	16.088	-0.169	-0.132
-537.179	-135.024	-0.670	0.080
-536.164	80.768	0.130	-0.138
-535.150	67.370	-0.105	0.106
-534.135	56.898	0.117	-0.113
-533.121	2.959	0.237	-0.170
-532.106	-47.044	0.121	-0.058
-531.091	475.515	0.152	-0.339
-530.077	276.791	-0.030	-0.053
-529.062	-200.000	-0.022	0.099
-528.048	-0.692	-0.312	0.219
-527.033	-164.896	0.444	-0.020
-526.018	54.858	0.202	0.193
-525.004	-18.148	0.134	-0.083
-523.989	-156.388	0.246	-0.015
-522.975	-76.978	0.150	0.052
-521.960	37.261	-0.223	0.196
-520.945	-125.095	-0.237	-0.036
-519.931	-200.000	-0.008	0.135
-518.916	-147.970	-0.487	0.040
-517.902	-156.514	-0.203	0.013
-516.887	-112.183	-0.306	0.061
-515.872	133.816	0.116	-0.148
-514.858	-63.384	-0.118	0.048
-513.843	-200.000	0.063	0.308
-512.829	-145.750	-0.327	0.029
-511.814	-61.721	0.364	0.151
-510.799	31.392	-0.289	0.246
-509.785	-66.553	-0.209	0.082
-508.770	-159.979	0.112	-0.006
-507.756	210.979	0.133	0.207
-506.741	-23.634	-0.280	-0.166
-505.726	211.573	0.108	-0.168
-504.712	-132.916	-0.032	0.004
-503.697	-47.809	-0.218	0.104
-502.683	-80.287	0.268	-0.089
-501.668	336.345	0.055	-0.106
-500.653	165.526	-0.086	0.120
-499.639	800.000	0.020	0.081
-498.624	29.431	-0.158	0.132
-497.610	800.000	-0.171	-0.487
-496.595	20.256	-0.029	0.023
-495.581	-100.268	0.166	-0.041
-494.566	-94.544	-0.263	-0.071
-493.551	21.197	0.149	0.119
-492.537	-95.763	-0.392	-0.103
-491.522	-129.564	-0.098	-0.013
-490.508	69.458	-0.071	-0.073
-489.493	-200.000	0.028	-0.205
-488.478	561.784	0.124	0.297
-487.464	-32.689	-0.092	0.051
-486.449	-200.000	-0.027	0.428
-485.435	-141.916	-0.201	-0.020
-484.420	-47.778	0.108	-0.052
-483.405	214.320	-0.034	-0.053
-482.391	143.447	-0.114	0.150
-481.376	23.497	-0.128	-0.104
-480.362	122.856	0.042	0.052
-479.347	33.186	-0.160	0.137
-478.332	-25.317	0.147	-0.086
-477.318	-133.254	-0.131	0.016
-476.303	0.957	-0.138	-0.098
-475.289	472.512	0.065	0.145
-474.274	-147.200	0.063	-0.005
-473.259	102.806	-0.011	0.013
-472.245	541.338	-0.114	-0.267
-471.230	800.000	0.060	-0.177
-470.216	-200.000	0.008	-0.178
-469.201	-191.949	-0.225	-0.002
-468.186	2.615	0.066	0.047
-467.172	-200.000	0.022	-0.145
-466.157	-58.349	-0.077	0.033
-465.143	-100.512	-0.053	0.013
-464.128	87.863	-0.158	-0.173
-463.113	356.325	-0.136	0.268
-462.099	548.121	-0.146	0.344
-461.084	-84.302	-0.348	0.109
-460.070	45.289	0.117	-0.106
-459.055	-79.575	-0.127	0.042
-458.040	-200.000	-0.065	0.362
-457.026	1.473	0.260	-0.185
-456.011	267.081	0.073	-0.126
-454.997	-71.431	0.322	0.119
-453.982	312.412	0.056	-0.103
-452.968	97.679	0.192	0.218
-451.953	800.000	-0.035	0.130
-450.938	-49.624	0.314	-0.147
-449.924	40.461	0.097	0.086
-448.909	-11.246	0.185	-0.120
-447.895	-200.000	-0.044	-0.355
-446.880	50.948	0.103	0.096
-445.865	68.675	0.073	0.074
-444.851	800.000	-0.111	-0.403
-443.836	697.266	0.052	0.134
-442.822	134.462	0.050	0.064
-441.807	-59.045	0.314	0.134
-440.792	-7.008	0.210	-0.140
-439.778	-51.507	-0.031	0.014
-438.763	-107.737	0.443	0.095
-437.749	346.857	-0.135	0.262
-436.734	800.000	-0.078	0.234
-435.719	-158.831	-0.173	-0.010
-434.705	-99.384	0.377	0.094
-433.690	-106.393	0.323	0.071
-432.676	279.585	0.050	0.088
-431.661	-200.000	0.002	0.079
-430.646	-93.453	0.064	0.018
-429.632	726.657	-0.081	0.214
-428.617	-200.000	-0.016	0.288
-427.603	-42.088	-0.236	0.119
-426.588	-44.585	0.135	-0.067
-425.573	800.000	0.041	-0.150
-424.559	-37.115	-0.199	0.105
-423.544	264.371	-0.127	0.217
-422.530	271.536	-0.067	0.117
-421.515	727.597	-0.060	-0.158
-420.500	-86.148	-0.194	-0.059
-419.486	-200.000	-0.025	-0.135
-418.471	-200.000	-0.027	0.285
-417.457	-200.000	-0.010	0.173
-416.442	-56.918	0.344	0.150
-415.428	366.314	0.072	0.142
-414.413	-200.000	0.008	-0.231
-413.398	-44.387	0.089	-0.044
-412.384	166.523	0.119	-0.166
-411.369	-127.535	0.028	0.004
-410.355	-11.082	0.113	-0.073
-409.340	289.427	0.047	-0.085
-408.325	351.007	0.096	0.187
-407.311	-200.000	0.029	-0.158
-406.296	-39.451	-0.091	0.047
-405.282	47.754	0.294	-0.271
-404.267	-200.000	0.003	-0.077
-403.252	115.684	-0.137	0.165
-402.238	123.529	-0.084	-0.104
-401.223	-172.721	0.046	-0.001
-400.209	-200.000	0.013	-0.167
-399.194	314.546	-0.099	0.183
-398.179	722.904	-0.023	-0.061
-397.165	-200.000	-0.035	-0.352
-396.150	-134.692	-0.355	0.042
-395.136	-136.557	0.225	0.026
-394.121	-123.827	0.262	0.041
-393.106	51.212	0.068	0.063
-392.092	10.192	-0.074	0.055
-391.077	62.227	0.203	-0.200
-390.063	-127.673	-0.350	-0.050
-389.048	800.000	-0.067	0.245
-388.033	-200.000	-0.085	0.389
-387.019	432.741	-0.219	0.468
-386.004	-200.000	0.006	-0.228
-384.990	58.314	0.142	-0.137
-383.975	-130.099	0.217	-0.029
-382.960	465.644	0.106	-0.232
-381.946	322.834	0.175	-0.328
-380.931	-14.059	-0.199	0.126
-379.917	800.000	-0.045	0.161
-378.902	-65.682	0.126	-0.050
-377.888	-27.462	0.244	0.139
-376.873	-124.054	0.158	-0.024
-375.858	800.000	-0.121	-0.446
-374.844	497.726	0.035	0.079
-373.829	212.872	-0.151	-0.234
-372.815	45.879	0.092	-0.083
-371.800	3.804	0.069	-0.050
-370.785	-200.000	-0.072	-0.371
-369.771	-200.000	-0.034	-0.264
-368.756	-200.000	-0.086	0.430
-367.742	-116.644	-0.105	-0.019
-366.727	94.863	0.070	0.078
-365.712	47.760	-0.220	-0.202
-364.698	-34.286	0.070	0.038
-363.683	-200.000	0.031	-0.168
-362.669	101.526	0.078	0.090
-361.654	-138.713	0.441	-0.047
-360.639	6.171	0.202	0.147
-359.625	-144.576	-0.439	0.040
-358.610	-200.000	0.038	-0.175
-357.596	94.131	-0.110	0.123
-356.581	68.560	-0.079	-0.080
-355.566	-200.000	-0.026	-0.218
-354.552	293.652	-0.184	-0.329
-353.537	-99.717	-0.027	-0.007
-352.523	45.667	0.272	-0.247
-351.508	-200.000	0.004	-0.025
-350.493	-200.000	0.078	-0.413
-349.479	-101.431	-0.081	0.019
-348.464	83.624	-0.121	0.129
-347.450	184.007	0.147	0.214
-346.435	487.146	-0.145	0.325
-345.420	-200.000	-0.040	0.415
-344.406	322.537	-0.150	0.281
-343.391	188.842	-0.280	-0.412
-342.377	-200.000	-0.101	0.450
-341.362	600.547	0.152	-0.372
-340.348	800.000	0.044	0.143
-339.333	-35.950	-0.202	0.107
-338.318	-61.674	0.264	0.109
-337.304	-200.000	-0.039	0.283
-336.289	267.901	0.055	-0.094
-335.275	-200.000	0.023	-0.115
-334.260	136.761	-0.039	0.050
-333.245	-56.297	-0.176	0.077
-332.231	-32.322	-0.006	-0.003
-331.216	57.979	0.242	-0.232
-330.202	-200.000	0.026	0.408
-329.187	800.000	-0.131	0.467
-328.172	800.000	-0.041	-0.156
-327.158	460.967	0.095	-0.207
-326.143	-85.326	-0.087	-0.027
-325.129	276.043	-0.266	-0.464
-324.114	-97.742	0.138	-0.035
-323.099	-141.025	0.063	0.006
-322.085	-200.000	0.009	0.060
-321.070	-36.368	0.340	0.180
-320.056	0.598	0.177	-0.125
-319.041	800.000	0.048	-0.163
-318.026	-37.176	-0.244	0.128
-317.012	-122.522	0.355	-0.057
-315.997	14.225	-0.115	-0.088
-314.983	-200.000	-0.020	0.222
-313.968	-153.603	-0.286	-0.019
-312.953	800.000	-0.103	0.305
-311.939	67.610	0.140	0.141
-310.924	12.293	0.193	0.146
-309.910	-102.291	-0.191	-0.045
-308.895	-9.415	-0.295	0.193
-307.880	74.943	-0.086	-0.089
-306.866	-26.136	0.209	-0.120
-305.851	-75.147	-0.091	0.032
-304.837	-14.232	0.080	0.050
-303.822	5.020	0.135	0.098
-302.807	262.969	0.143	0.244
-301.793	367.869	0.105	-0.208
-300.778	-35.656	-0.231	0.123
-299.764	46.231	0.091	-0.082
-298.749	13.162	0.292	-0.222
-297.735	-39.552	0.067	0.035
-296.720	-188.155	-0.303	-0.004
-295.705	-51.689	0.324	-0.148
-294.691	-200.000	-0.059	-0.271
-293.676	190.734	0.140	0.207
-292.662	-200.000	-0.007	-0.214
-291.647	191.213	0.229	0.338
-290.632	125.146	-0.194	-0.240
-289.618	650.138	-0.166	-0.416
-288.603	800.000	-0.021	-0.077
-287.589	-51.301	-0.141	0.065
-286.574	81.421	-0.146	0.154
-285.559	-85.953	-0.061	-0.019
-284.545	-200.000	-0.027	-0.361
-283.530	-200.000	-0.044	-0.244
-282.516	-168.687	0.481	0.018
-281.501	104.998	0.157	0.181
-280.486	-37.950	-0.115	0.060
-279.472	253.853	0.167	-0.280
-278.457	661.760	0.056	-0.140
-277.443	-200.000	-0.013	-0.110
-276.428	800.000	-0.040	0.130
-275.413	-200.000	-0.012	0.091
-274.399	135.576	-0.093	0.118
-273.384	485.884	0.071	0.157
-272.370	149.023	0.083	0.110
-271.355	-140.661	0.087	0.009
-270.340	25.949	-0.334	-0.273
-269.326	-25.895	-0.123	0.071
-268.311	638.407	0.183	0.455
-267.297	800.000	-0.048	-0.156
-266.282	-54.918	-0.223	-0.099
-265.267	800.000	-0.048	-0.172
-264.253	-148.348	-0.143	0.011
-263.238	800.000	-0.057	0.163
-262.224	-31.987	0.193	0.106
-261.209	-85.217	-0.115	0.035
-260.195	-1.842	0.035	-0.024
-259.180	319.709	-0.058	0.107
-258.165	207.500	-0.217	0.332
-257.151	450.353	0.143	-0.309
-256.136	161.353	0.050	-0.069
-255.122	-200.000	-0.002	0.044
-254.107	-11.453	-0.214	0.138
-253.092	-200.000	0.044	-0.209
-252.078	-26.312	-0.272	-0.156
-251.063	397.778	-0.145	0.296
-250.049	-200.000	0.004	0.147
-249.034	280.595	0.120	0.210
-248.019	240.034	-0.045	0.073
-247.005	36.838	0.247	-0.213
-245.990	223.686	-0.098	0.155
-244.976	32.395	-0.098	0.083
-243.961	429.391	0.123	0.260
-242.946	-61.262	0.137	0.056
-241.932	-146.051	-0.173	-0.015
-240.917	388.439	0.070	-0.142
-239.903	-32.844	0.252	-0.137
-238.888	-19.420	0.110	0.066
-237.873	-196.794	-0.473	-0.003
-236.859	-200.000	0.039	0.262
-235.844	-179.537	-0.322	0.007
-234.830	-47.018	0.200	0.096
-233.815	105.633	-0.138	-0.160
-232.800	-75.809	-0.306	-0.106
-231.786	51.521	0.163	0.151
-230.771	-69.889	0.359	0.134
-229.757	-200.000	0.070	0.303
-228.742	-200.000	0.018	0.129
-227.727	65.612	-0.097	-0.096
-226.713	-114.149	-0.225	0.043
-225.698	-126.217	0.175	0.026
-224.684	-200.000	0.032	0.370
-223.669	-29.818	-0.182	-0.102
-222.655	519.052	0.058	-0.133
-221.640	4.535	0.168	0.120
-220.625	-116.845	0.185	0.033
-219.611	-10.784	-0.258	-0.167
-218.596	313.528	0.205	-0.378
-217.582	691.376	0.120	0.307
-216.567	-118.562	0.051	0.009
-215.552	220.039	-0.075	-0.117
-214.538	-19.516	0.195	-0.118
-213.523	-10.780	0.283	0.183
-212.509	274.035	0.100	-0.172
-211.494	163.914	-0.060	-0.083
-210.479	800.000	-0.072	0.217
-209.465	483.350	-0.026	-0.059
-208.450	800.000	0.007	-0.022
-207.436	-47.278	-0.125	-0.060
-206.421	271.042	0.055	0.095
-205.406	83.204	0.111	-0.118
-204.392	294.238	-0.193	-0.345
-203.377	-200.000	0.064	0.435
-202.363	-24.170	0.318	-0.185
-201.348	140.994	0.040	-0.052
-200.333	-98.033	0.299	-0.075
-199.319	211.092	0.098	-0.151
-198.304	266.859	0.132	-0.226
-197.290	402.454	0.069	-0.142
-196.275	160.024	-0.121	0.164
-195.260	391.740	-0.086	-0.174
-194.246	319.948	0.220	0.407
-193.231	486.283	0.102	0.227
-192.217	126.143	-0.053	-0.065
-191.202	463.679	-0.182	-0.397
-190.187	-51.722	-0.055	-0.025
-189.173	800.000	-0.091	-0.252
-188.158	-17.315	-0.181	-0.111
-187.144	249.044	-0.273	-0.451
-186.129	-200.000	-0.011	-0.129
-185.114	-200.000	0.019	-0.431
-184.100	-11.383	-0.155	0.099
-183.085	-38.857	-0.045	0.023
-182.071	-167.855	0.303	0.012
-181.056	-166.281	-0.268	0.011
-180.042	-132.658	0.189	-0.024
-179.027	-200.000	-0.008	0.130
-178.012	800.000	-0.077	-0.275
-176.998	-20.350	-0.041	-0.025
-175.983	-79.666	0.095	0.031
-174.969	-78.961	-0.143	0.048
-173.954	-21.495	-0.249	-0.148
-172.939	-1.620	0.368	-0.253
-171.925	309.593	0.070	-0.128
-170.910	277.090	0.105	-0.182
-169.896	13.788	-0.374	-0.284
-168.881	158.424	-0.063	0.086
-167.866	800.000	0.043	-0.134
-166.852	123.455	0.032	0.039
-165.837	-200.000	0.101	-0.462
-164.823	800.000	0.031	0.098
-163.808	295.826	-0.055	-0.098
-162.793	-32.457	-0.130	0.071
-161.779	-200.000	-0.027	-0.119
-160.764	-193.696	0.297	-0.002
-159.750	-200.000	0.067	-0.426
-158.735	-98.359	0.202	-0.051
-157.720	-186.971	0.128	-0.002
-156.706	-200.000	-0.022	0.230
-155.691	-23.651	-0.379	0.221
-154.677	4.728	-0.105	0.075
-153.662	321.777	-0.018	-0.033
-152.647	594.779	0.085	-0.205
-151.633	-15.703	-0.237	-0.147
-150.618	-151.698	0.201	0.014
-149.604	106.110	0.122	0.141
-148.589	-200.000	0.002	-0.044
-147.574	176.124	-0.127	-0.180
-146.560	48.975	0.180	-0.165
-145.545	-10.796	0.280	-0.180
-144.531	-60.016	-0.031	0.013
-143.516	-107.761	-0.386	-0.082
-142.502	-74.151	0.331	-0.117
-141.487	35.655	-0.045	0.039
-140.472	175.944	0.137	-0.194
-139.458	-200.000	-0.011	0.210
-138.443	176.164	0.145	-0.205
-137.429	800.000	-0.036	0.148
-136.414	-200.000	0.003	0.154
-135.399	136.111	0.263	0.334
-134.385	800.000	-0.074	-0.270
-133.370	-18.717	-0.128	0.077
-132.356	-200.000	-0.057	-0.426
-131.341	285.124	0.128	-0.224
-130.326	-77.016	0.167	0.057
-129.312	235.517	-0.044	0.070
-128.297	-200.000	-0.021	-0.335
-127.283	-138.499	0.095	0.010
-126.268	-80.814	-0.185	-0.060
-125.253	-200.000	0.068	-0.318
-124.239	98.052	-0.066	-0.074
-123.224	156.434	-0.126	0.169
-122.210	41.297	-0.153	0.135
-121.195	-111.683	0.111	0.022
