DTS Sentinel unit serial number:	SN413079Multiplexer serial number:	ORYXHardware model number:	OX4-SRSoftware version number:	ORYX F/W v4.00 Oryx Data Collector v3.7.2.0data status	okinstallation	princeton_trtdifferential loss correction	single-endedforward channel	channel 2reverse channel	N/Adate	2019/09/15time	18:07:35forward acquisition time	60.00reverse acquisition time	0.00gamma	496.2192k internal	0.2283k external	0.2283temperature offset calibration	0.9917default loss term (dB/km)	0.3790temperature slope calibration	1.0000multiplexer offset coefficient	1.0000multiplexer slope coefficient	1.0000fibre end	0.00T internal ref (°C)	44.64T ext. ref 1 (°C)	6.51T ext. ref 2 (°C)	39.21length (m)	temperature (°C)	Stokes	anti-Stokes-747.200	-200.000	-0.027	0.129
-746.185	314.804	0.115	0.223
-745.171	-18.958	-0.126	-0.081
-744.156	800.000	0.054	0.214
-743.142	440.935	0.087	-0.195
-742.127	800.000	0.033	-0.131
-741.112	-200.000	-0.000	0.069
-740.098	596.484	-0.201	0.511
-739.083	16.848	0.227	0.184
-738.069	152.544	0.088	0.124
-737.054	180.446	-0.193	-0.291
-736.039	48.234	-0.104	-0.100
-735.025	-109.403	0.406	0.088
-734.010	-200.000	-0.032	-0.227
-732.996	60.488	-0.099	-0.101
-731.981	183.959	-0.185	0.281
-730.966	189.554	-0.070	0.108
-729.952	245.722	0.208	-0.360
-728.937	-162.331	0.226	0.012
-727.923	148.126	0.241	-0.334
-726.908	262.679	-0.110	-0.196
-725.894	-104.933	-0.282	-0.067
-724.879	324.301	0.077	-0.151
-723.864	447.531	-0.039	-0.089
-722.850	-28.630	0.124	0.073
-721.835	689.875	-0.073	-0.195
-720.821	-101.764	-0.152	-0.038
-719.806	-117.280	0.396	0.074
-718.791	42.902	0.187	0.175
-717.777	91.901	-0.178	-0.206
-716.762	545.702	-0.074	-0.182
-715.748	28.683	-0.163	0.142
-714.733	-112.133	-0.224	-0.046
-713.718	800.000	-0.086	0.251
-712.704	-70.346	0.096	0.037
-711.689	97.003	0.172	-0.203
-710.675	-200.000	0.040	-0.339
-709.660	46.305	0.326	0.310
-708.645	-200.000	0.034	0.221
-707.631	-200.000	0.016	-0.187
-706.616	-149.666	-0.070	-0.006
-705.602	-200.000	-0.010	-0.158
-704.587	-15.003	-0.166	0.109
-703.572	-130.598	0.307	0.043
-702.558	-200.000	0.003	0.191
-701.543	64.361	0.095	-0.098
-700.529	-200.000	0.104	-0.600
-699.514	579.857	0.021	0.052
-698.499	-112.369	-0.306	0.063
-697.485	-157.419	0.143	-0.009
-696.470	123.253	-0.048	-0.062
-695.456	658.959	-0.145	0.383
-694.441	86.571	-0.194	0.219
-693.426	-6.062	0.142	-0.100
-692.412	-34.237	-0.179	0.101
-691.397	37.221	0.227	0.206
-690.383	-200.000	0.017	-0.161
-689.368	-187.096	0.172	-0.002
-688.354	-125.406	-0.362	-0.057
-687.339	240.276	-0.066	0.112
-686.324	112.003	-0.211	-0.261
-685.310	99.417	0.146	-0.173
-684.295	471.334	-0.024	0.056
-683.281	656.676	0.179	0.472
-682.266	179.607	0.242	0.363
-681.251	800.000	0.108	-0.308
-680.237	-200.000	0.029	0.140
-679.222	-105.718	-0.078	0.018
-678.208	515.028	0.067	-0.161
-677.193	48.867	-0.191	-0.184
-676.178	-123.837	0.292	0.047
-675.164	-200.000	0.012	-0.208
-674.149	-200.000	-0.010	-0.365
-673.135	492.587	0.127	0.298
-672.120	256.591	-0.101	0.177
-671.105	-200.000	-0.028	0.249
-670.091	418.722	0.124	0.271
-669.076	72.482	-0.056	0.060
-668.062	80.066	0.174	-0.191
-667.047	36.603	-0.516	-0.467
-666.032	383.725	0.083	-0.174
-665.018	-200.000	0.021	0.208
-664.003	-92.008	0.250	0.073
-662.989	-144.921	-0.077	0.007
-661.974	29.727	0.267	0.233
-660.959	-1.197	-0.093	-0.067
-659.945	367.498	0.097	-0.200
-658.930	-46.548	0.037	0.019
-657.916	-200.000	-0.025	-0.133
-656.901	-200.000	-0.029	-0.400
-655.886	-200.000	-0.024	0.199
-654.872	-6.710	0.118	-0.082
-653.857	682.477	-0.066	-0.176
-652.843	-200.000	-0.020	0.114
-651.828	25.033	-0.118	-0.100
-650.814	-200.000	0.011	-0.363
-649.799	310.656	0.205	0.393
-648.784	389.370	0.094	0.199
-647.770	187.835	-0.173	0.265
-646.755	33.470	0.185	0.165
-645.741	800.000	0.027	-0.090
-644.726	-75.490	-0.298	0.108
-643.711	-200.000	-0.073	0.342
-642.697	402.127	0.084	-0.180
-641.682	430.976	-0.099	-0.220
-640.668	250.334	-0.139	-0.242
-639.653	-79.660	-0.055	0.019
-638.638	-41.550	-0.119	-0.062
-637.624	44.903	-0.150	-0.141
-636.609	-11.042	0.039	0.026
-635.595	110.923	-0.098	-0.120
-634.580	62.212	-0.085	0.086
-633.565	-38.230	-0.183	0.099
-632.551	269.518	-0.209	0.375
-631.536	53.852	-0.264	-0.260
-630.522	128.052	-0.039	-0.050
-629.507	-98.203	0.226	-0.059
-628.492	-122.856	-0.012	-0.002
-627.478	-21.706	0.191	0.119
-626.463	128.297	0.145	-0.188
-625.449	326.738	-0.126	0.248
-624.434	249.275	0.033	0.057
-623.419	9.187	-0.254	-0.196
-622.405	30.802	-0.119	-0.104
-621.390	298.872	0.065	0.122
-620.376	49.994	-0.051	0.049
-619.361	800.000	0.085	-0.311
-618.346	4.722	0.134	0.101
-617.332	13.682	0.121	-0.096
-616.317	16.116	-0.067	0.054
-615.303	-109.819	0.179	0.038
-614.288	-117.370	-0.266	-0.049
-613.273	-113.510	0.159	0.032
-612.259	140.058	-0.061	0.082
-611.244	-200.000	-0.021	0.107
-610.230	0.318	-0.145	0.106
-609.215	59.636	-0.149	0.150
-608.201	-200.000	0.022	0.157
-607.186	-131.386	0.328	-0.044
-606.171	800.000	0.048	0.178
-605.157	13.229	-0.061	0.048
-604.142	285.961	-0.085	-0.157
-603.128	-200.000	-0.008	-0.197
-602.113	-200.000	0.035	-0.367
-601.098	-23.073	-0.079	-0.048
-600.084	65.367	-0.214	-0.222
-599.069	-90.366	-0.178	-0.053
-598.055	123.825	-0.089	0.114
-597.040	622.180	-0.147	0.379
-596.025	174.310	0.127	-0.187
-595.011	221.018	-0.060	0.099
-593.996	-29.458	0.116	-0.068
-592.982	35.007	0.335	0.299
-591.967	-20.313	0.182	-0.114
-590.952	-133.922	-0.187	-0.024
-589.938	356.324	0.052	-0.105
-588.923	249.268	-0.207	-0.358
-587.909	800.000	0.008	0.025
-586.894	-0.056	0.141	0.102
-585.879	-41.246	0.186	-0.098
-584.865	-19.125	-0.113	0.071
-583.850	242.025	-0.241	0.411
-582.836	41.270	0.084	0.077
-581.821	-86.406	-0.063	0.020
-580.806	4.917	-0.115	-0.086
-579.792	44.128	-0.198	0.185
-578.777	138.864	0.186	-0.249
-577.763	353.891	0.176	0.357
-576.748	800.000	0.033	-0.128
-575.733	-200.000	-0.005	-0.220
-574.719	-200.000	0.005	0.033
-573.704	219.147	-0.200	0.327
-572.690	800.000	0.069	0.261
-571.675	-138.912	0.208	0.023
-570.661	-150.147	-0.137	0.011
-569.646	160.926	0.129	-0.184
-568.631	-200.000	-0.014	-0.078
-567.617	8.725	0.244	0.187
-566.602	256.147	0.095	0.166
-565.588	-200.000	0.039	-0.302
-564.573	372.705	-0.066	-0.136
-563.558	-101.383	0.140	-0.035
-562.544	130.103	-0.159	0.207
-561.529	-124.032	0.107	-0.017
-560.515	800.000	-0.049	-0.150
-559.500	-19.470	0.165	-0.104
-558.485	-98.913	0.204	-0.053
-557.471	800.000	-0.046	-0.189
-556.456	104.741	-0.240	-0.289
-555.442	-200.000	-0.016	0.137
-554.427	-200.000	0.039	-0.243
-553.412	-134.241	-0.205	-0.026
-552.398	-8.435	0.038	-0.026
-551.383	79.872	0.058	-0.063
-550.369	-157.760	0.112	0.007
-549.354	0.698	-0.258	-0.188
-548.339	-137.950	0.063	-0.007
-547.325	279.935	-0.172	-0.314
-546.310	-32.391	-0.379	-0.216
-545.296	-32.649	0.232	0.132
-544.281	800.000	0.027	-0.086
-543.266	-200.000	0.006	-0.055
-542.252	65.172	0.126	0.129
-541.237	-121.518	-0.169	-0.029
-540.223	-200.000	-0.019	0.235
-539.208	800.000	0.024	-0.100
-538.193	-29.679	-0.423	0.246
-537.179	125.491	-0.125	0.161
-536.164	177.558	-0.031	0.046
-535.150	800.000	-0.104	-0.327
-534.135	258.577	0.057	-0.101
-533.121	-75.880	0.050	-0.018
-532.106	188.082	-0.032	0.048
-531.091	-200.000	0.061	-0.309
-530.077	-22.384	-0.246	-0.152
-529.062	-53.017	0.060	-0.028
-528.048	-200.000	-0.033	-0.226
-527.033	189.193	-0.182	-0.278
-526.018	126.324	0.040	-0.051
-525.004	-200.000	0.015	-0.367
-523.989	-83.480	-0.225	-0.073
-522.975	-164.244	-0.325	0.015
-521.960	-200.000	-0.062	0.296
-520.945	782.832	-0.016	-0.043
-519.931	-200.000	0.002	-0.311
-518.916	-57.914	-0.089	-0.040
-517.902	114.769	-0.268	0.332
-516.887	31.689	0.093	0.081
-515.872	-200.000	0.010	0.198
-514.858	12.301	0.146	0.114
-513.843	-34.303	0.434	-0.243
-512.829	-200.000	-0.023	-0.245
-511.814	-113.199	-0.087	-0.018
-510.799	-70.120	0.027	-0.011
-509.785	-152.020	-0.472	0.035
-508.770	800.000	-0.096	-0.364
-507.756	-167.863	0.126	-0.005
-506.741	-200.000	0.222	-0.000
-505.726	-20.941	-0.208	0.130
-504.712	-200.000	0.011	0.271
-503.697	800.000	0.112	0.474
-502.683	282.787	0.167	0.306
-501.668	-200.000	-0.017	0.135
-500.653	-21.469	-0.084	0.052
-499.639	-107.903	-0.174	-0.039
-498.624	-120.010	-0.166	0.029
-497.610	-28.442	-0.279	0.164
-496.595	-114.830	0.329	-0.064
-495.581	104.253	0.103	0.123
-494.566	-39.314	-0.139	-0.074
-493.551	-24.718	-0.327	-0.198
-492.537	-65.823	-0.214	-0.087
-491.522	15.856	0.221	0.177
-490.508	-22.748	0.209	0.129
-489.493	211.658	0.077	-0.123
-488.478	-200.000	-0.059	-0.404
-487.464	-13.367	0.127	-0.084
-486.449	-21.305	-0.163	-0.101
-485.435	500.226	-0.157	0.368
-484.420	-200.000	-0.004	0.044
-483.405	96.345	0.193	-0.225
-482.391	-124.787	0.240	0.038
-481.376	521.853	-0.073	-0.173
-480.362	-97.978	0.120	0.031
-479.347	-7.462	0.276	-0.190
-478.332	-52.221	0.061	-0.029
-477.318	110.770	0.114	-0.140
-476.303	-14.731	0.150	0.098
-475.289	-65.275	-0.148	-0.061
-474.274	54.716	0.127	0.124
-473.259	-149.096	0.338	0.028
-472.245	-14.548	-0.117	0.077
-471.230	149.214	0.092	-0.127
-470.216	-200.000	0.089	0.453
-469.201	800.000	-0.164	0.523
-468.186	-171.236	-0.176	0.006
-467.172	60.524	-0.256	-0.257
-466.157	29.550	0.199	0.172
-465.143	152.897	-0.069	0.095
-464.128	46.458	0.170	-0.161
-463.113	52.644	0.083	0.081
-462.099	-0.725	0.184	0.132
-461.084	-200.000	-0.044	0.532
-460.070	-47.812	0.316	0.155
-459.055	81.149	0.308	0.338
-458.040	-106.099	-0.197	0.045
-457.026	800.000	-0.077	-0.311
-456.011	-128.907	-0.362	-0.052
-454.997	-200.000	0.000	0.054
-453.982	800.000	0.096	-0.284
-452.968	-200.000	-0.046	-0.253
-451.953	177.638	-0.064	0.095
-450.938	588.270	0.026	0.065
-449.924	226.316	-0.179	-0.295
-448.909	-93.753	-0.280	0.078
-447.895	-72.195	-0.255	0.096
-446.880	475.842	-0.147	-0.336
-445.865	-41.447	-0.332	0.174
-444.851	-44.845	-0.238	0.121
-443.836	-110.367	-0.147	-0.031
-442.822	-200.000	-0.047	0.328
-441.807	23.046	0.299	0.249
-440.792	-3.512	-0.101	0.072
-439.778	-112.397	-0.247	0.050
-438.763	709.652	-0.127	0.340
-437.749	25.795	-0.299	0.253
-436.734	51.103	-0.242	-0.233
-435.719	800.000	-0.073	0.308
-434.705	-141.630	0.261	-0.027
-433.690	228.416	0.111	0.183
-432.676	213.698	-0.158	-0.254
-431.661	21.437	0.170	-0.140
-430.646	-33.895	0.390	0.218
-429.632	-200.000	0.009	0.044
-428.617	356.314	-0.073	-0.147
-427.603	48.485	0.044	0.041
-426.588	-48.257	0.207	0.101
-425.573	-200.000	0.018	-0.205
-424.559	-115.813	0.267	-0.051
-423.544	305.124	-0.118	-0.222
-422.530	-150.194	0.225	-0.018
-421.515	-200.000	0.005	-0.179
-420.500	-109.166	0.188	-0.041
-419.486	-31.129	-0.149	0.085
-418.471	-200.000	0.005	0.408
-417.457	-146.776	-0.333	0.029
-416.442	-125.279	0.049	-0.008
-415.428	-85.270	-0.092	0.029
-414.413	-29.206	-0.315	-0.183
-413.398	699.131	-0.079	-0.212
-412.384	58.159	0.199	0.197
-411.369	521.380	0.071	-0.169
-410.355	800.000	0.005	0.018
-409.340	-200.000	0.007	0.089
-408.325	180.774	0.250	-0.373
-407.311	800.000	0.057	-0.168
-406.296	-91.083	-0.229	-0.067
-405.282	250.689	0.114	-0.196
-404.267	-200.000	-0.014	-0.165
-403.252	31.034	0.094	0.081
-402.238	-200.000	-0.037	0.439
-401.223	-116.950	-0.130	0.024
-400.209	798.326	0.037	0.103
-399.194	537.113	-0.054	0.131
-398.179	800.000	-0.169	-0.511
-397.165	22.431	-0.145	-0.120
-396.150	-57.189	-0.365	-0.163
-395.136	6.288	0.084	-0.063
-394.121	162.052	-0.071	-0.101
-393.106	-57.052	0.158	0.070
-392.092	396.030	0.167	-0.352
-391.077	73.446	0.227	-0.241
-390.063	-37.137	0.196	0.106
-389.048	-41.023	-0.172	0.090
-388.033	-32.475	-0.136	0.077
-387.019	-200.000	-0.020	0.218
-386.004	-59.583	0.137	0.059
-384.990	557.589	0.074	-0.182
-383.975	39.117	0.226	-0.205
-382.960	-91.064	0.083	0.024
-381.946	9.968	0.064	-0.050
-380.931	-66.100	0.162	0.066
-379.917	-156.810	-0.219	0.014
-378.902	288.420	0.022	-0.041
-377.888	177.705	0.193	-0.285
-376.873	14.407	-0.258	-0.204
-375.858	-71.045	0.277	-0.106
-374.844	-173.502	-0.264	-0.008
-373.829	-160.346	0.269	-0.015
-372.815	-125.149	0.208	0.032
-371.800	-133.817	0.317	-0.040
-370.785	576.808	0.048	-0.118
-369.771	45.224	0.130	-0.121
-368.756	-71.068	0.048	0.018
-367.742	-200.000	0.050	0.269
-366.727	30.533	0.056	0.048
-365.712	800.000	0.030	-0.091
-364.698	61.890	-0.061	-0.061
-363.683	103.629	-0.208	-0.247
-362.669	-96.982	-0.270	0.072
-361.654	-200.000	0.052	-0.282
-360.639	-200.000	0.025	0.130
-359.625	-0.657	-0.257	-0.184
-358.610	800.000	0.026	0.095
-357.596	-111.640	0.144	-0.030
-356.581	88.694	0.068	-0.076
-355.566	212.031	-0.071	0.113
-354.552	151.236	-0.095	-0.130
-353.537	24.617	0.064	-0.054
-352.523	442.543	0.073	0.161
-351.508	-71.443	-0.120	-0.046
-350.493	-200.000	0.011	-0.054
-349.479	368.911	0.196	-0.400
-348.464	-200.000	-0.025	-0.121
-347.450	122.653	-0.163	0.206
-346.435	800.000	0.071	0.282
-345.420	-200.000	-0.013	-0.060
-344.406	49.348	0.067	-0.064
-343.391	-108.232	0.126	0.028
-342.377	-88.406	0.368	-0.111
-341.362	491.773	-0.179	-0.414
-340.348	88.483	-0.154	-0.173
-339.333	800.000	-0.073	0.263
-338.318	401.349	0.072	-0.153
-337.304	-164.927	0.410	-0.019
-336.289	248.252	0.145	-0.248
-335.275	176.198	0.023	-0.033
-334.260	-96.600	0.258	-0.069
-333.245	500.463	0.120	-0.279
-332.231	800.000	0.011	0.041
-331.216	434.192	-0.145	0.318
-330.202	19.814	-0.154	0.126
-329.187	15.278	-0.158	0.125
-328.172	202.972	0.101	0.158
-327.158	-40.858	0.118	0.062
-326.143	-80.531	0.331	-0.112
-325.129	264.881	0.117	-0.206
-324.114	-25.865	-0.120	-0.071
-323.099	-73.675	0.314	0.116
-322.085	-119.900	0.055	-0.010
-321.070	416.433	0.088	-0.189
-320.056	-200.000	-0.042	0.310
-319.041	-178.073	0.154	0.004
-318.026	12.770	0.323	-0.252
-317.012	-200.000	-0.186	0.001
-315.997	48.858	0.122	0.115
-314.983	-200.000	-0.016	-0.394
-313.968	-11.422	-0.096	-0.064
-312.953	-73.740	-0.190	-0.070
-311.939	-16.885	-0.260	0.166
-310.924	416.015	0.042	0.090
-309.910	-103.800	0.099	0.023
-308.895	-20.687	-0.231	-0.143
-307.880	-116.689	0.511	0.095
-306.866	-135.607	-0.009	-0.001
-305.851	80.553	-0.193	0.210
-304.837	-200.000	0.001	0.069
-303.822	-111.409	0.062	0.013
-302.807	-87.615	0.490	0.150
-301.793	-200.000	-0.020	0.277
-300.778	18.321	-0.098	0.079
-299.764	800.000	-0.024	0.093
-298.749	170.888	0.081	-0.117
-297.735	736.135	-0.121	0.327
-296.720	-200.000	0.167	-0.000
-295.705	91.370	0.181	-0.205
-294.691	-112.834	-0.200	-0.040
-293.676	-200.000	-0.017	0.097
-292.662	-135.342	-0.512	0.062
-291.647	-108.482	0.134	0.029
-290.632	1.438	-0.082	-0.059
-289.618	-63.012	0.259	-0.108
-288.603	374.221	-0.029	-0.059
-287.589	-200.000	0.073	-0.333
-286.574	90.239	-0.233	-0.263
-285.559	298.246	-0.114	-0.212
-284.545	346.202	0.110	0.219
-283.530	-200.000	0.061	0.313
-282.516	702.579	-0.095	0.253
-281.501	-86.492	-0.159	0.049
-280.486	800.000	0.100	0.279
-279.472	-43.667	-0.145	-0.074
-278.457	22.623	0.325	-0.268
-277.443	-73.663	0.213	-0.078
-276.428	-84.909	0.277	0.088
-275.413	35.660	0.119	-0.105
-274.399	268.369	0.149	0.264
-273.384	-200.000	0.008	0.086
-272.370	202.872	0.212	0.331
-271.355	113.312	0.038	-0.046
-270.340	-59.493	-0.288	-0.125
-269.326	-29.219	-0.077	0.044
-268.311	-124.824	0.206	-0.032
-267.297	634.689	-0.095	-0.244
-266.282	538.375	0.125	0.300
-265.267	-21.312	-0.234	0.144
-264.253	-85.524	0.160	-0.050
-263.238	800.000	-0.058	0.223
-262.224	-34.503	0.055	-0.030
-261.209	-136.664	-0.345	0.040
-260.195	-137.169	0.222	-0.026
-259.180	-200.000	-0.019	0.410
-258.165	657.632	0.115	0.298
-257.151	664.234	0.158	-0.410
-256.136	-103.475	-0.176	0.042
-255.122	649.050	0.046	0.120
-254.107	331.491	-0.118	0.229
-253.092	-40.364	-0.207	-0.108
-252.078	-105.234	0.279	-0.064
-251.063	-180.482	-0.389	0.008
-250.049	-6.736	-0.084	0.058
-249.034	-66.027	-0.171	-0.069
-248.019	-72.455	-0.293	-0.109
-247.005	-200.000	-0.041	0.225
-245.990	-89.803	0.201	0.059
-244.976	800.000	0.079	-0.281
-243.961	800.000	0.119	-0.434
-242.946	-200.000	-0.020	-0.102
-241.932	-101.182	0.088	0.022
-240.917	64.702	0.148	-0.150
-239.903	-99.603	0.299	-0.076
-238.888	331.426	0.157	0.304
-237.873	-73.643	0.116	0.042
-236.859	-181.700	-0.043	0.001
-235.844	-89.332	0.101	-0.030
-234.830	637.105	-0.059	0.150
-233.815	259.300	-0.065	0.113
-232.800	-81.316	0.174	0.058
-231.786	73.388	-0.163	0.172
-230.771	138.239	0.137	0.181
-229.757	102.302	0.132	-0.155
-228.742	506.461	0.022	-0.052
-227.727	61.014	0.047	-0.047
-226.713	136.557	-0.006	0.007
-225.698	-200.000	-0.016	-0.117
-224.684	-200.000	-0.031	-0.285
-223.669	74.166	0.197	0.208
-222.655	28.575	-0.344	0.293
-221.640	-43.371	0.307	-0.156
-220.625	-60.411	-0.320	0.137
-219.611	89.758	0.115	-0.129
-218.596	-78.534	0.088	-0.030
-217.582	-153.145	-0.162	-0.011
-216.567	-119.152	0.319	0.056
-215.552	800.000	-0.127	0.460
-214.538	11.457	0.347	0.268
-213.523	-61.705	0.067	0.028
-212.509	-108.692	0.185	0.040
-211.494	800.000	-0.085	-0.372
-210.479	-106.410	0.142	0.032
-209.465	-178.825	-0.421	0.010
-208.450	216.561	0.194	0.311
-207.436	384.881	-0.009	-0.019
-206.421	-128.677	0.192	-0.027
-205.406	372.282	-0.156	-0.318
-204.392	509.861	-0.084	-0.197
-203.377	-101.664	-0.118	0.029
-202.363	-0.810	0.175	0.125
-201.348	54.173	-0.280	0.271
-200.333	800.000	0.128	-0.365
-199.319	-200.000	0.008	-0.055
-198.304	28.603	0.052	-0.044
-197.290	-110.450	-0.186	-0.039
-196.275	342.855	-0.038	0.075
-195.260	-21.005	0.120	-0.074
-194.246	-6.234	-0.165	0.113
-193.231	-33.251	-0.126	-0.070
-192.217	800.000	-0.055	0.204
-191.202	-200.000	-0.017	-0.331
-190.187	-40.921	-0.196	-0.102
-189.173	-99.995	0.113	0.028
-188.158	737.544	-0.127	0.343
-187.144	493.346	0.087	-0.200
-186.129	492.854	0.104	-0.239
-185.114	-167.394	-0.455	0.018
-184.100	-79.826	-0.104	-0.035
-183.085	248.319	0.276	0.470
-182.071	-42.915	0.198	-0.101
-181.056	184.714	0.020	-0.029
-180.042	420.738	-0.096	-0.207
-179.027	-200.000	0.058	-0.292
-178.012	-63.129	0.329	-0.136
-176.998	-111.236	-0.130	0.027
-175.983	284.601	-0.104	-0.188
-174.969	-200.000	-0.018	0.321
-173.954	-75.151	-0.253	0.091
-172.939	800.000	0.047	0.136
-171.925	86.265	-0.100	0.110
-170.910	112.564	-0.132	0.160
-169.896	174.587	0.016	-0.023
-168.881	-200.000	0.005	-0.085
-167.866	-11.578	-0.283	0.187
-166.852	26.059	0.140	0.117
-165.837	148.445	0.221	-0.299
-164.823	53.889	0.193	0.186
-163.808	94.754	0.146	0.167
-162.793	-21.694	0.099	0.061
-161.779	55.820	0.071	0.069
-160.764	-89.755	-0.201	-0.059
-159.750	-91.239	-0.158	0.045
-158.735	241.841	0.100	0.169
-157.720	404.327	-0.077	0.164
-156.706	-12.368	-0.285	-0.187
-155.691	162.236	-0.172	-0.242
-154.677	-92.755	0.037	-0.010
-153.662	279.937	0.100	0.179
-152.647	-200.000	-0.028	0.209
-151.633	277.190	0.030	0.053
-150.618	-65.429	-0.083	-0.033
-149.604	209.549	0.091	0.143
-148.589	-88.992	-0.137	0.041
-147.574	-137.004	-0.231	0.027
-146.560	-200.000	-0.046	0.338
-145.545	-200.000	-0.030	0.394
-144.531	800.000	0.052	0.200
-143.516	244.365	0.117	-0.197
-142.502	-200.000	0.006	-0.096
-141.487	-200.000	-0.004	-0.177
-140.472	-74.618	0.206	-0.074
-139.458	-200.000	-0.093	0.588
-138.443	-100.858	-0.075	-0.019
-137.429	38.983	0.142	0.127
-136.414	263.471	0.077	0.134
-135.399	-200.000	0.081	0.418
-134.385	51.604	0.152	0.145
-133.370	-200.000	-0.047	0.472
-132.356	-167.544	0.333	0.013
-131.341	-200.000	0.010	-0.126
-130.326	30.127	-0.141	0.120
-129.312	800.000	0.028	0.117
-128.297	384.076	-0.060	0.124
-127.283	93.395	0.191	-0.217
-126.268	509.282	-0.098	0.227
-125.253	606.991	-0.050	0.124
-124.239	800.000	-0.109	0.379
-123.224	-101.950	0.056	-0.014
-122.210	-181.373	-0.278	0.005
-121.195	-54.854	0.218	-0.099
