DTS Sentinel unit serial number:	SN413079Multiplexer serial number:	ORYXHardware model number:	OX4-SRSoftware version number:	ORYX F/W v4.00 Oryx Data Collector v3.7.2.0data status	okinstallation	princeton_trtdifferential loss correction	single-endedforward channel	channel 2reverse channel	N/Adate	2019/09/12time	08:29:11forward acquisition time	60.00reverse acquisition time	0.00gamma	496.2192k internal	0.2318k external	0.2318temperature offset calibration	1.0062default loss term (dB/km)	0.3790temperature slope calibration	1.0000multiplexer offset coefficient	1.0000multiplexer slope coefficient	1.0000fibre end	0.00T internal ref (°C)	33.62T ext. ref 1 (°C)	1.70T ext. ref 2 (°C)	29.67length (m)	temperature (°C)	Stokes	anti-Stokes-747.200	-200.000	0.037	0.465
-746.185	590.345	-0.117	0.292
-745.171	64.658	0.023	-0.024
-744.156	276.900	-0.054	0.096
-743.142	-200.000	0.016	-0.094
-742.127	211.429	-0.183	0.291
-741.112	128.822	-0.036	0.046
-740.098	251.166	0.068	0.117
-739.083	-200.000	0.089	-0.427
-738.069	-112.944	-0.114	-0.023
-737.054	751.870	-0.086	0.234
-736.039	-101.961	-0.307	-0.075
-735.025	-54.972	-0.307	-0.140
-734.010	800.000	0.041	-0.150
-732.996	142.299	-0.165	-0.222
-731.981	-200.000	-0.023	-0.337
-730.966	49.351	0.162	-0.154
-729.952	352.013	0.014	-0.027
-728.937	174.217	0.103	-0.150
-727.923	103.024	-0.236	0.279
-726.908	-200.000	0.014	-0.297
-725.894	49.078	-0.101	-0.096
-724.879	-109.836	0.292	-0.062
-723.864	47.134	0.141	-0.133
-722.850	-70.937	-0.504	-0.192
-721.835	4.481	-0.198	-0.147
-720.821	-76.789	-0.439	-0.156
-719.806	-200.000	0.038	-0.188
-718.791	-65.715	0.036	-0.015
-717.777	583.213	-0.045	0.113
-716.762	-101.629	-0.124	-0.030
-715.748	-200.000	0.001	-0.144
-714.733	140.304	-0.161	-0.215
-713.718	-146.548	0.083	-0.007
-712.704	208.421	0.079	0.126
-711.689	-43.233	-0.224	0.114
-710.675	-19.109	0.124	0.078
-709.660	-2.097	0.056	0.040
-708.645	-200.000	-0.023	-0.353
-707.631	-200.000	0.063	-0.415
-706.616	86.615	-0.127	-0.141
-705.602	202.970	-0.145	-0.227
-704.587	250.234	-0.169	-0.290
-703.572	43.550	-0.170	-0.157
-702.558	151.685	-0.202	-0.278
-701.543	2.061	-0.158	0.115
-700.529	54.784	-0.168	0.164
-699.514	161.482	0.230	-0.325
-698.499	-200.000	0.003	0.015
-697.485	-131.697	-0.219	-0.029
-696.470	-77.386	-0.390	0.137
-695.456	-17.699	0.507	0.322
-694.441	204.778	0.206	-0.322
-693.426	-200.000	-0.007	-0.319
-692.412	-200.000	0.045	0.337
-691.397	-91.088	0.347	0.100
-690.383	800.000	0.028	0.123
-689.368	-15.629	-0.109	0.070
-688.354	37.657	0.064	0.057
-687.339	800.000	0.083	0.279
-686.324	-99.799	-0.185	-0.047
-685.310	-81.544	-0.169	-0.056
-684.295	-45.473	0.080	0.040
-683.281	800.000	0.079	0.262
-682.266	-81.326	0.254	0.084
-681.251	-124.159	-0.226	-0.036
-680.237	-139.411	0.314	0.034
-679.222	-49.827	-0.376	0.180
-678.208	351.158	-0.143	-0.285
-677.193	188.860	0.077	-0.116
-676.178	163.799	0.061	-0.087
-675.164	800.000	-0.097	-0.354
-674.149	-65.783	-0.070	0.028
-673.135	29.381	0.121	0.104
-672.120	-200.000	-0.069	-0.315
-671.105	66.415	0.091	0.094
-670.091	87.247	0.146	-0.163
-669.076	86.046	-0.177	-0.196
-668.062	105.515	-0.300	-0.358
-667.047	-200.000	0.062	-0.322
-666.032	709.278	-0.060	0.160
-665.018	37.580	0.085	-0.076
-664.003	63.305	0.187	0.189
-662.989	800.000	0.067	-0.189
-661.974	800.000	-0.088	0.354
-660.959	-200.000	-0.004	-0.050
-659.945	16.141	-0.396	-0.315
-658.930	-73.133	0.130	-0.048
-657.916	-152.583	-0.084	0.006
-656.901	-13.356	0.294	-0.193
-655.886	-155.040	0.570	-0.038
-654.872	42.748	-0.382	-0.351
-653.857	-95.851	-0.291	-0.078
-652.843	402.560	-0.048	0.101
-651.828	390.715	0.130	-0.272
-650.814	-133.664	-0.128	-0.016
-649.799	800.000	-0.095	-0.271
-648.784	-140.679	0.165	-0.017
-647.770	-11.408	-0.162	0.107
-646.755	-13.085	-0.044	0.029
-645.741	358.183	0.114	-0.230
-644.726	-67.010	-0.048	0.019
-643.711	-200.000	-0.014	-0.111
-642.697	-171.450	0.366	0.012
-641.682	15.910	-0.263	-0.209
-640.668	662.194	0.121	-0.314
-639.653	-200.000	-0.045	-0.209
-638.638	-10.947	0.151	-0.101
-637.624	441.943	-0.088	-0.194
-636.609	525.548	-0.024	-0.057
-635.595	800.000	-0.084	0.249
-634.580	-200.000	0.075	0.353
-633.565	736.833	0.074	-0.200
-632.551	235.022	-0.060	0.100
-631.536	-94.985	-0.245	-0.067
-630.522	56.521	0.219	0.214
-629.507	-53.865	-0.200	-0.092
-628.492	-200.000	0.025	0.213
-627.478	800.000	-0.031	0.113
-626.463	-200.000	0.002	-0.184
-625.449	-177.823	-0.311	0.008
-624.434	191.112	-0.223	-0.338
-623.419	800.000	0.007	-0.029
-622.405	-200.000	-0.004	-0.061
-621.390	-200.000	-0.004	-0.045
-620.376	263.822	-0.089	0.156
-619.361	-128.134	0.121	0.017
-618.346	-200.000	0.107	0.544
-617.332	-71.376	0.159	0.060
-616.317	-57.958	0.128	-0.056
-615.303	21.535	0.156	-0.128
-614.288	7.011	0.200	-0.150
-613.273	21.948	-0.107	-0.088
-612.259	325.675	-0.072	0.138
-611.244	-107.894	-0.193	-0.042
-610.230	-200.000	-0.018	-0.216
-609.215	1.093	-0.166	0.120
-608.201	-43.040	-0.227	0.116
-607.186	-49.480	-0.079	-0.038
-606.171	-200.000	-0.038	-0.219
-605.157	224.946	0.099	-0.161
-604.142	-200.000	0.067	-0.303
-603.128	-126.427	-0.070	0.011
-602.113	90.723	-0.078	-0.088
-601.098	-200.000	0.040	0.255
-600.084	59.015	0.131	-0.130
-599.069	-200.000	-0.067	0.316
-598.055	-142.879	-0.176	0.017
-597.040	-200.000	0.010	-0.118
-596.025	-16.518	0.238	-0.152
-595.011	-16.688	0.067	-0.043
-593.996	247.589	-0.213	0.362
-592.982	-161.249	0.184	0.010
-591.967	-23.834	0.449	0.271
-590.952	162.881	-0.007	-0.010
-589.938	-200.000	-0.002	-0.155
-588.923	-22.898	0.260	0.158
-587.909	-104.285	-0.313	-0.073
-586.894	-77.078	-0.228	-0.080
-585.879	119.883	0.353	-0.440
-584.865	160.290	-0.133	-0.187
-583.850	509.607	-0.067	0.157
-582.836	-61.658	0.236	-0.100
-581.821	-57.039	0.378	-0.168
-580.806	90.838	-0.075	-0.084
-579.792	-200.000	0.010	-0.098
-578.777	-87.523	-0.178	0.054
-577.763	800.000	-0.084	-0.329
-576.748	74.235	-0.274	0.290
-575.733	315.128	-0.024	-0.046
-574.719	-27.635	-0.244	-0.142
-573.704	-146.408	-0.200	-0.018
-572.690	-50.338	0.169	0.080
-571.675	-121.525	0.350	0.058
-570.661	78.710	-0.086	0.093
-569.646	3.510	-0.466	-0.342
-568.631	-80.316	-0.059	0.020
-567.617	800.000	-0.077	0.335
-566.602	189.193	0.332	-0.500
-565.588	58.262	-0.157	0.154
-564.573	115.951	0.181	-0.223
-563.558	-39.175	0.170	0.090
-562.544	53.577	0.145	-0.140
-561.529	-200.000	0.007	0.258
-560.515	150.747	-0.242	0.330
-559.500	-84.182	-0.202	0.064
-558.485	270.146	0.025	0.044
-557.471	145.512	-0.173	0.233
-556.456	-200.000	0.020	-0.108
-555.442	-141.181	-0.223	0.023
-554.427	-200.000	0.023	0.246
-553.412	146.102	-0.254	0.342
-552.398	111.462	0.330	0.399
-551.383	-33.037	-0.306	-0.171
-550.369	-152.085	-0.233	0.017
-549.354	-200.000	-0.049	-0.251
-548.339	-118.952	0.108	0.019
-547.325	-112.367	0.258	0.052
-546.310	-160.672	-0.294	0.016
-545.296	-125.981	0.288	-0.044
-544.281	-60.022	0.076	0.032
-543.266	-200.000	-0.010	0.290
-542.252	-200.000	0.029	-0.145
-541.237	134.151	0.073	-0.094
-540.223	207.750	-0.092	0.145
-539.208	329.657	0.145	-0.280
-538.193	34.245	-0.175	0.153
-537.179	265.207	-0.053	0.093
-536.164	-200.000	0.033	-0.171
-535.150	-44.455	0.265	0.133
-534.135	118.341	-0.120	-0.148
-533.121	-50.248	-0.388	-0.184
-532.106	448.248	-0.059	-0.131
-531.091	50.600	-0.078	0.074
-530.077	-105.409	0.139	-0.032
-529.062	-101.491	-0.084	0.021
-528.048	-99.835	0.238	0.060
-527.033	800.000	-0.042	0.162
-526.018	96.896	-0.187	-0.215
-525.004	-111.474	-0.212	0.043
-523.989	-80.835	-0.188	0.062
-522.975	800.000	0.048	-0.146
-521.960	-200.000	-0.017	-0.140
-520.945	3.239	-0.161	0.118
-519.931	-128.838	0.104	-0.015
-518.916	-200.000	-0.000	0.171
-517.902	-90.715	-0.224	0.065
-516.887	-33.397	-0.064	0.036
-515.872	333.463	-0.043	0.083
-514.858	13.721	0.276	-0.215
-513.843	-200.000	-0.030	0.399
-512.829	-99.183	-0.253	-0.064
-511.814	-82.862	-0.268	0.087
-510.799	-124.861	0.148	0.023
-509.785	434.552	-0.094	0.205
-508.770	343.870	0.091	-0.179
-507.756	-175.011	0.232	0.006
-506.741	-200.000	-0.002	0.214
-505.726	-200.000	0.032	-0.295
-504.712	12.813	-0.097	0.075
-503.697	408.109	0.030	0.065
-502.683	-45.394	0.177	-0.088
-501.668	714.101	-0.159	-0.423
-500.653	-200.000	0.026	-0.251
-499.639	-65.979	0.408	-0.164
-498.624	-54.927	-0.207	-0.094
-497.610	11.236	0.230	0.176
-496.595	-200.000	-0.090	-0.516
-495.581	-128.974	0.237	-0.033
-494.566	-200.000	-0.014	0.167
-493.551	-200.000	-0.035	0.205
-492.537	28.212	0.163	-0.138
-491.522	164.539	0.037	0.053
-490.508	800.000	-0.048	-0.189
-489.493	-25.923	0.284	-0.168
-488.478	579.239	-0.030	-0.074
-487.464	324.073	0.133	-0.254
-486.449	163.056	0.102	0.143
-485.435	454.296	0.104	0.231
-484.420	-200.000	-0.006	-0.056
-483.405	-14.246	0.329	-0.212
-482.391	356.034	-0.028	-0.056
-481.376	188.821	0.087	-0.131
-480.362	497.936	0.060	0.137
-479.347	-200.000	-0.000	0.219
-478.332	-18.815	0.123	0.077
-477.318	-167.059	0.090	0.004
-476.303	-200.000	0.051	0.250
-475.289	118.985	-0.123	0.153
-474.274	-141.604	-0.099	-0.010
-473.259	-126.914	0.151	-0.022
-472.245	18.586	-0.302	-0.242
-471.230	79.361	-0.191	-0.206
-470.216	-200.000	0.010	-0.108
-469.201	-110.477	0.234	0.049
-468.186	-200.000	-0.017	-0.179
-467.172	800.000	0.095	-0.297
-466.157	10.108	0.233	-0.177
-465.143	-200.000	-0.010	0.088
-464.128	800.000	-0.036	-0.123
-463.113	437.791	-0.147	0.320
-462.099	-158.066	0.080	0.005
-461.084	51.273	-0.043	0.041
-460.070	294.400	-0.100	0.183
-459.055	-28.987	-0.210	-0.121
-458.040	26.713	0.144	-0.121
-457.026	-50.762	0.063	0.030
-456.011	-200.000	-0.010	-0.079
-454.997	800.000	-0.096	0.343
-453.982	-200.000	0.031	-0.164
-452.968	-151.803	0.055	-0.004
-451.953	442.116	-0.073	-0.160
-450.938	-170.565	-0.219	-0.008
-449.924	-25.870	0.181	-0.107
-448.909	258.293	-0.084	-0.145
-447.895	140.151	0.109	-0.144
-446.880	-35.164	-0.140	-0.076
-445.865	45.154	0.234	-0.216
-444.851	-193.845	-0.057	-0.000
-443.836	-169.273	-0.116	0.004
-442.822	78.642	0.177	0.189
-441.807	-200.000	0.004	0.239
-440.792	8.563	0.062	-0.047
-439.778	-60.603	-0.055	-0.023
-438.763	145.192	0.042	0.056
-437.749	-162.276	0.078	-0.004
-436.734	-200.000	-0.002	-0.031
-435.719	-200.000	0.027	-0.142
-434.705	-79.620	0.162	0.055
-433.690	141.847	-0.176	0.234
-432.676	-33.383	0.168	-0.093
-431.661	800.000	0.064	0.192
-430.646	236.337	-0.262	-0.434
-429.632	41.986	0.116	-0.106
-428.617	-75.229	0.273	-0.097
-427.603	-69.185	0.130	-0.050
-426.588	-83.020	-0.143	-0.046
-425.573	395.142	-0.089	0.185
-424.559	800.000	0.049	0.204
-423.544	-83.694	-0.095	-0.030
-422.530	43.417	0.227	0.207
-421.515	-141.366	-0.107	-0.011
-420.500	-106.780	0.294	0.065
-419.486	800.000	0.072	0.229
-418.471	-100.282	-0.041	-0.010
-417.457	-119.709	0.133	0.023
-416.442	-200.000	0.005	0.042
-415.428	-200.000	0.000	-0.133
-414.413	249.508	0.219	-0.372
-413.398	386.614	0.123	0.254
-412.384	800.000	0.055	-0.158
-411.369	-200.000	0.001	-0.135
-410.355	123.606	0.099	-0.124
-409.340	800.000	-0.026	-0.105
-408.325	-29.780	0.159	-0.091
-407.311	80.058	-0.168	0.180
-406.296	89.698	-0.058	0.064
-405.282	-65.136	0.407	-0.164
-404.267	-200.000	0.052	-0.299
-403.252	-200.000	-0.044	0.278
-402.238	550.374	-0.062	-0.149
-401.223	-27.747	0.377	0.218
-400.209	-200.000	0.041	0.201
-399.194	572.878	-0.011	0.027
-398.179	-65.852	-0.178	0.071
-397.165	300.238	0.073	0.135
-396.150	-115.233	-0.108	0.020
-395.136	800.000	0.091	0.380
-394.121	-10.912	-0.236	-0.156
-393.106	800.000	-0.049	0.136
-392.092	-200.000	0.010	0.069
-391.077	-200.000	0.020	0.159
-390.063	347.647	0.012	-0.024
-389.048	-200.000	-0.011	0.213
-388.033	-40.342	-0.259	0.134
-387.019	35.125	-0.110	0.097
-386.004	-85.530	-0.591	-0.184
-384.990	-7.352	0.018	0.012
-383.975	109.176	-0.065	0.078
-382.960	-131.189	-0.114	0.015
-381.946	596.410	0.102	-0.253
-380.931	236.375	0.045	-0.074
-379.917	85.079	0.133	-0.145
-378.902	80.234	0.165	0.177
-377.888	-200.000	0.043	0.216
-376.873	96.533	0.034	0.039
-375.858	194.790	0.035	0.052
-374.844	-55.766	-0.096	-0.043
-373.829	-200.000	-0.007	-0.051
-372.815	-200.000	-0.032	-0.319
-371.800	250.466	-0.199	-0.337
-370.785	800.000	-0.081	0.262
-369.771	-87.256	-0.239	0.072
-368.756	-68.142	-0.239	-0.093
-367.742	-100.889	-0.193	0.047
-366.727	800.000	-0.041	0.127
-365.712	692.743	0.049	0.128
-364.698	-200.000	-0.033	0.213
-363.683	-200.000	-0.034	0.176
-362.669	130.260	-0.150	0.191
-361.654	-103.880	-0.264	0.061
-360.639	-93.316	-0.267	0.074
-359.625	-200.000	0.030	0.411
-358.610	-49.951	0.053	-0.025
-357.596	402.791	0.197	-0.413
-356.581	196.240	0.094	-0.143
-355.566	-200.000	0.002	-0.106
-354.552	340.400	-0.105	0.204
-353.537	-124.642	0.089	0.014
-352.523	83.158	-0.165	0.179
-351.508	-141.047	-0.218	0.022
-350.493	-92.001	0.250	-0.071
-349.479	-200.000	0.000	0.261
-348.464	-200.000	0.044	-0.222
-347.450	91.282	0.196	-0.220
-346.435	214.539	0.269	-0.424
-345.420	51.790	0.169	-0.160
-344.406	-109.453	-0.150	-0.032
-343.391	800.000	-0.074	-0.263
-342.377	377.554	0.107	-0.218
-341.362	155.673	0.137	-0.188
-340.348	479.451	0.202	-0.457
-339.333	238.661	0.094	0.155
-338.318	439.009	0.119	-0.259
-337.304	-82.761	0.325	-0.105
-336.289	91.566	-0.126	0.141
-335.275	-121.297	-0.159	0.026
-334.260	307.418	0.089	-0.165
-333.245	93.555	-0.101	-0.114
-332.231	-134.715	0.272	0.033
-331.216	-109.881	-0.072	0.015
-330.202	208.153	0.122	0.190
-329.187	56.573	-0.169	0.163
-328.172	-16.124	0.133	0.084
-327.158	0.542	0.170	0.121
-326.143	-86.036	-0.211	-0.065
-325.129	-200.000	-0.061	0.366
-324.114	-72.718	0.274	-0.100
-323.099	-200.000	-0.019	0.191
-322.085	-117.660	0.229	-0.041
-321.070	7.248	0.139	-0.103
-320.056	-40.865	0.144	-0.074
-319.041	63.911	0.050	-0.050
-318.026	223.322	0.233	0.374
-317.012	-154.618	0.488	0.032
-315.997	-23.329	-0.439	-0.263
-314.983	-25.059	0.125	0.074
-313.968	433.537	0.105	-0.226
-312.953	59.771	-0.188	0.185
-311.939	25.741	0.081	0.067
-310.924	-134.834	-0.162	0.020
-309.910	4.030	-0.212	0.154
-308.895	10.481	0.119	0.090
-307.880	-10.922	-0.447	-0.294
-306.866	-44.675	-0.180	-0.090
-305.851	-200.000	-0.003	-0.025
-304.837	54.786	0.103	-0.099
-303.822	158.875	-0.156	0.216
-302.807	-200.000	-0.007	0.091
-301.793	-97.486	-0.108	0.028
-300.778	-124.492	0.101	-0.016
-299.764	-111.972	-0.136	0.027
-298.749	-69.134	0.175	-0.067
-297.735	255.616	-0.117	0.199
-296.720	69.324	0.173	-0.177
-295.705	-76.081	-0.164	-0.058
-294.691	-199.728	-0.154	-0.001
-293.676	800.000	0.053	0.217
-292.662	-147.701	0.230	-0.019
-291.647	-200.000	0.007	0.382
-290.632	-194.120	-0.313	-0.003
-289.618	270.274	-0.084	-0.147
-288.603	800.000	-0.036	-0.139
-287.589	-132.796	-0.345	-0.044
-286.574	-39.844	0.320	0.166
-285.559	123.531	-0.093	-0.116
-284.545	-12.888	0.133	-0.086
-283.530	-121.305	-0.217	-0.036
-282.516	133.308	0.199	-0.255
-281.501	-136.379	0.290	0.034
-280.486	-200.000	-0.025	-0.157
-279.472	257.641	-0.094	-0.160
-278.457	-147.291	-0.226	0.019
-277.443	-93.576	-0.216	0.059
-276.428	-200.000	-0.014	0.064
-275.413	-1.569	0.135	0.095
-274.399	-37.470	-0.447	0.237
-273.384	-24.603	-0.357	0.211
-272.370	669.705	0.082	-0.210
-271.355	-127.116	-0.056	0.008
-270.340	-200.000	-0.050	0.346
-269.326	3.607	0.449	0.326
-268.311	800.000	0.067	0.219
-267.297	36.987	0.182	0.160
-266.282	-200.000	-0.058	0.434
-265.267	-106.963	-0.089	-0.019
-264.253	-116.498	-0.491	-0.090
-263.238	-200.000	0.014	0.269
-262.224	-200.000	0.028	0.208
-261.209	73.831	-0.069	-0.071
-260.195	117.572	-0.099	-0.121
-259.180	596.315	-0.047	0.117
-258.165	205.349	-0.081	0.124
-257.151	71.788	-0.168	0.173
-256.136	331.602	-0.080	-0.154
-255.122	-83.227	-0.123	-0.039
-254.107	-163.127	-0.162	-0.008
-253.092	800.000	-0.012	0.049
-252.078	-20.444	-0.100	0.061
-251.063	-200.000	0.018	0.192
-250.049	699.420	0.117	0.306
-249.034	-36.706	-0.296	-0.158
-248.019	-93.919	0.126	0.034
-247.005	113.478	-0.156	-0.188
-245.990	620.710	0.147	0.367
-244.976	780.009	0.004	-0.012
-243.961	-158.584	0.093	0.005
-242.946	164.163	0.085	0.119
-241.932	-17.362	0.151	0.094
-240.917	-127.596	0.142	0.020
-239.903	-103.263	0.171	-0.040
-238.888	-200.000	0.026	-0.231
-237.873	172.706	0.113	0.162
-236.859	-57.416	0.101	-0.044
-235.844	36.787	0.087	-0.076
-234.830	-86.683	0.180	0.055
-233.815	-54.109	0.211	0.095
-232.800	-200.000	-0.008	-0.163
-231.786	-200.000	0.049	0.255
-230.771	172.752	0.101	0.144
-229.757	-26.070	0.140	0.082
-228.742	-200.000	0.016	-0.249
-227.727	32.733	0.242	-0.207
-226.713	79.969	-0.181	0.193
-225.698	18.324	0.019	0.015
-224.684	800.000	-0.109	-0.338
-223.669	-200.000	0.029	-0.162
-222.655	-200.000	0.011	-0.165
-221.640	-200.000	-0.001	-0.131
-220.625	555.208	-0.047	0.111
-219.611	-121.628	-0.091	-0.015
-218.596	591.819	0.059	0.144
-217.582	279.418	0.173	0.305
-216.567	-174.996	0.361	-0.010
-215.552	-6.361	-0.159	0.108
-214.538	-200.000	0.008	0.205
-213.523	800.000	-0.019	0.061
-212.509	800.000	-0.039	-0.139
-211.494	33.630	0.122	-0.105
-210.479	274.026	0.127	-0.223
-209.465	-76.773	0.071	-0.025
-208.450	58.108	-0.187	0.181
-207.436	800.000	-0.124	0.356
-206.421	-48.653	-0.021	-0.010
-205.406	-200.000	-0.001	-0.163
-204.392	-200.000	0.011	-0.220
-203.377	-200.000	-0.023	0.375
-202.363	100.804	0.089	-0.103
-201.348	91.361	-0.232	0.258
-200.333	-200.000	-0.074	-0.377
-199.319	246.711	0.063	0.106
-198.304	-200.000	-0.066	0.387
-197.290	-176.021	-0.313	-0.008
-196.275	-88.243	0.041	-0.012
-195.260	-200.000	-0.002	-0.223
-194.246	181.317	0.160	0.233
-193.231	-53.640	-0.175	0.079
-192.217	-200.000	0.044	0.250
-191.202	-200.000	-0.004	-0.194
-190.187	77.784	0.079	-0.083
-189.173	26.520	-0.240	0.199
-188.158	115.796	-0.222	-0.269
-187.144	-142.250	0.194	-0.019
-186.129	-132.167	-0.526	-0.068
-185.114	264.659	-0.108	0.185
-184.100	155.826	-0.199	0.271
-183.085	-130.067	-0.016	0.002
-182.071	-200.000	0.008	-0.138
-181.056	789.939	-0.175	-0.477
-180.042	-21.599	0.270	-0.163
-179.027	100.078	0.093	0.107
-178.012	424.089	0.137	0.291
-176.998	61.190	0.145	0.143
-175.983	444.590	0.050	-0.109
-174.969	800.000	-0.068	0.190
-173.954	-98.358	0.322	0.082
-172.939	-17.476	0.326	-0.203
-171.925	-22.865	-0.309	0.185
-170.910	273.720	-0.096	-0.167
-169.896	-62.974	0.165	-0.067
-168.881	800.000	-0.046	0.165
-167.866	728.996	-0.161	-0.425
-166.852	53.229	0.228	-0.216
-165.837	800.000	-0.036	-0.138
-164.823	-49.234	-0.209	-0.099
-163.808	40.048	0.193	0.172
-162.793	-200.000	0.024	-0.111
-161.779	-200.000	0.066	0.308
-160.764	112.918	-0.099	0.119
-159.750	-32.670	0.467	-0.257
-158.735	264.519	-0.098	0.168
-157.720	-200.000	-0.455	-0.002
-156.706	-23.544	0.385	-0.229
-155.691	260.662	0.105	0.179
-154.677	586.033	-0.094	-0.230
-153.662	769.811	0.049	-0.132
-152.647	-77.144	0.132	0.046
-151.633	-134.370	-0.331	-0.040
-150.618	-57.295	-0.100	0.043
-149.604	-92.104	0.229	-0.064
-148.589	-10.302	-0.097	0.064
-147.574	-200.000	0.004	-0.248
-146.560	800.000	0.019	-0.054
-145.545	-36.330	-0.356	0.190
-144.531	-33.571	-0.117	0.064
-143.516	-200.000	0.000	-0.055
-142.502	-17.032	-0.088	-0.055
-141.487	68.105	0.165	-0.167
-140.472	-28.783	0.339	0.193
-139.458	498.564	-0.074	-0.168
-138.443	-142.803	0.152	-0.015
-137.429	9.855	0.059	-0.044
-136.414	24.900	-0.143	0.117
-135.399	800.000	0.103	0.427
-134.385	-153.773	0.295	0.020
-133.370	800.000	0.059	-0.209
-132.356	114.101	-0.196	0.235
-131.341	800.000	-0.052	-0.205
-130.326	800.000	0.058	0.196
-129.312	67.963	-0.084	-0.085
-128.297	470.793	0.060	0.133
-127.283	-56.105	0.237	-0.104
-126.268	203.806	-0.106	0.162
-125.253	499.672	-0.060	-0.136
-124.239	-169.073	-0.403	0.015
-123.224	800.000	-0.033	-0.090
