DTS Sentinel unit serial number:	SN413079Multiplexer serial number:	ORYXHardware model number:	OX4-SRSoftware version number:	ORYX F/W v4.00 Oryx Data Collector v3.7.2.0data status	okinstallation	princeton_trtdifferential loss correction	single-endedforward channel	channel 2reverse channel	N/Adate	2019/09/15time	05:15:35forward acquisition time	60.00reverse acquisition time	0.00gamma	496.2192k internal	0.2326k external	0.2326temperature offset calibration	1.0032default loss term (dB/km)	0.3790temperature slope calibration	1.0000multiplexer offset coefficient	1.0000multiplexer slope coefficient	1.0000fibre end	0.00T internal ref (°C)	30.62T ext. ref 1 (°C)	4.77T ext. ref 2 (°C)	25.45length (m)	temperature (°C)	Stokes	anti-Stokes-747.200	-200.000	-0.011	0.135
-746.185	151.916	-0.193	0.266
-745.171	-200.000	0.052	-0.230
-744.156	31.243	-0.163	0.141
-743.142	403.421	0.066	-0.139
-742.127	-123.504	0.052	0.008
-741.112	412.348	-0.092	-0.197
-740.098	5.221	0.110	0.082
-739.083	595.133	-0.115	0.287
-738.069	53.176	-0.211	0.204
-737.054	64.068	-0.150	-0.152
-736.039	-37.046	-0.238	-0.128
-735.025	164.286	0.202	-0.288
-734.010	257.872	-0.175	-0.303
-732.996	-200.000	-0.037	-0.297
-731.981	-200.000	-0.009	0.071
-730.966	-120.989	0.138	0.023
-729.952	206.815	0.019	-0.029
-728.937	-200.000	0.007	-0.106
-727.923	-165.315	-0.188	-0.008
-726.908	-6.154	0.281	0.194
-725.894	-59.815	-0.323	-0.139
-724.879	118.556	-0.110	-0.137
-723.864	6.831	-0.365	-0.274
-722.850	43.223	-0.042	0.039
-721.835	800.000	-0.036	-0.114
-720.821	-81.787	-0.029	0.009
-719.806	181.397	-0.248	-0.367
-718.791	-2.190	-0.091	-0.064
-717.777	479.942	0.052	-0.118
-716.762	201.711	-0.057	0.089
-715.748	270.725	-0.027	-0.048
-714.733	102.746	0.092	-0.108
-713.718	-16.760	-0.223	0.142
-712.704	-200.000	0.003	-0.152
-711.689	800.000	-0.092	-0.301
-710.675	-141.086	0.249	-0.026
-709.660	-200.000	-0.043	0.257
-708.645	258.798	-0.111	0.193
-707.631	554.422	-0.121	0.292
-706.616	269.199	0.038	-0.067
-705.602	-83.720	0.124	-0.040
-704.587	-200.000	0.073	-0.354
-703.572	44.496	0.133	-0.123
-702.558	-95.641	0.356	0.096
-701.543	-24.435	0.162	0.097
-700.529	-69.755	0.150	-0.058
-699.514	772.275	0.069	0.190
-698.499	-200.000	0.026	-0.383
-697.485	-200.000	0.022	-0.099
-696.470	61.741	-0.410	-0.411
-695.456	31.577	-0.146	-0.126
-694.441	-116.042	-0.019	0.003
-693.426	-183.170	0.226	-0.004
-692.412	-99.468	-0.292	-0.074
-691.397	151.619	-0.154	0.211
-690.383	-97.900	-0.305	-0.079
-689.368	-61.712	0.394	-0.166
-688.354	180.636	-0.035	0.052
-687.339	53.434	0.021	-0.021
-686.324	72.260	-0.078	-0.082
-685.310	-185.692	-0.294	-0.004
-684.295	42.661	0.138	0.127
-683.281	47.581	0.178	-0.167
-682.266	59.068	-0.318	0.315
-681.251	-200.000	-0.007	0.088
-680.237	-118.338	0.108	-0.019
-679.222	-69.805	-0.205	0.079
-678.208	451.078	0.140	-0.311
-677.193	-200.000	-0.011	-0.062
-676.178	448.390	0.050	-0.110
-675.164	43.654	0.136	0.125
-674.149	-115.276	0.271	-0.052
-673.135	-41.583	0.293	0.151
-672.120	120.774	-0.137	-0.171
-671.105	-128.799	0.244	0.035
-670.091	-49.505	-0.313	-0.150
-669.076	27.347	0.071	0.060
-668.062	76.363	-0.103	-0.110
-667.047	182.580	-0.160	-0.237
-666.032	-200.000	0.027	0.174
-665.018	-122.530	-0.172	-0.028
-664.003	-42.595	-0.166	0.085
-662.989	773.917	-0.117	0.320
-661.974	800.000	0.056	0.171
-660.959	99.464	-0.042	-0.049
-659.945	-9.354	-0.214	-0.144
-658.930	74.607	-0.135	0.143
-657.916	43.511	-0.104	-0.095
-656.901	-200.000	0.043	0.207
-655.886	-46.833	0.315	-0.155
-654.872	93.851	-0.404	-0.461
-653.857	-86.333	-0.116	-0.036
-652.843	35.057	-0.158	-0.139
-651.828	-32.279	0.099	0.055
-650.814	800.000	-0.056	0.171
-649.799	232.070	0.161	-0.266
-648.784	-58.819	-0.280	0.122
-647.770	37.494	0.110	0.098
-646.755	614.902	-0.069	-0.174
-645.741	-91.378	0.131	0.038
-644.726	10.202	0.106	0.081
-643.711	-96.359	0.205	-0.054
-642.697	-61.389	-0.434	-0.183
-641.682	136.526	0.179	-0.235
-640.668	-78.281	0.227	0.078
-639.653	27.575	-0.113	0.095
-638.638	250.649	0.073	0.124
-637.624	493.535	-0.048	0.112
-636.609	43.025	-0.072	-0.066
-635.595	195.924	0.074	-0.113
-634.580	-46.742	-0.105	-0.052
-633.565	163.876	-0.111	0.157
-632.551	124.063	-0.076	0.095
-631.536	800.000	0.034	-0.108
-630.522	161.123	0.150	0.210
-629.507	143.543	-0.214	0.286
-628.492	318.411	0.101	-0.192
-627.478	-200.000	0.030	-0.242
-626.463	-62.353	-0.122	0.051
-625.449	-137.138	-0.037	-0.004
-624.434	144.824	-0.142	0.191
-623.419	800.000	-0.053	-0.191
-622.405	-200.000	0.020	-0.180
-621.390	-144.388	0.251	-0.023
-620.376	264.085	0.101	0.176
-619.361	800.000	-0.018	-0.053
-618.346	-36.242	-0.305	0.165
-617.332	-162.875	-0.029	-0.001
-616.317	228.179	-0.127	-0.207
-615.303	800.000	-0.023	0.069
-614.288	70.691	-0.093	-0.097
-613.273	-62.816	-0.165	0.069
-612.259	704.001	0.079	-0.209
-611.244	800.000	-0.084	-0.270
-610.230	800.000	-0.075	-0.224
-609.215	-200.000	0.004	-0.081
-608.201	46.789	-0.135	0.126
-607.186	-200.000	-0.033	0.202
-606.171	-86.496	-0.008	0.002
-605.157	-53.232	0.142	0.065
-604.142	59.691	0.287	0.284
-603.128	45.755	0.215	0.199
-602.113	43.215	-0.209	-0.192
-601.098	-160.321	0.216	-0.012
-600.084	-200.000	0.019	0.096
-599.069	800.000	0.007	-0.024
-598.055	228.398	0.158	-0.258
-597.040	498.862	-0.101	-0.232
-596.025	-49.576	-0.105	-0.050
-595.011	800.000	0.047	0.190
-593.996	-14.597	0.139	0.090
-592.982	-200.000	0.008	0.077
-591.967	547.952	-0.188	-0.451
-590.952	269.525	-0.136	-0.239
-589.938	800.000	0.067	0.218
-588.923	39.319	-0.139	0.124
-587.909	-200.000	0.045	-0.301
-586.894	800.000	-0.071	0.230
-585.879	29.963	-0.157	-0.134
-584.865	340.766	-0.017	-0.033
-583.850	-26.354	-0.274	0.161
-582.836	-200.000	-0.003	0.196
-581.821	-84.491	0.298	-0.094
-580.806	-140.061	-0.109	0.012
-579.792	-69.042	-0.098	-0.038
-578.777	178.565	-0.095	0.139
-577.763	-159.389	-0.565	0.032
-576.748	-200.000	0.008	-0.233
-575.733	-200.000	-0.026	0.420
-574.719	-38.802	0.137	0.072
-573.704	800.000	-0.044	-0.124
-572.690	60.930	-0.161	-0.160
-571.675	87.496	0.145	0.160
-570.661	-71.427	-0.206	0.077
-569.646	-76.986	-0.136	0.048
-568.631	-64.453	0.275	0.112
-567.617	-14.286	0.237	0.153
-566.602	448.281	-0.149	-0.330
-565.588	178.401	-0.084	0.123
-564.573	171.189	-0.097	-0.140
-563.558	211.405	-0.111	0.175
-562.544	-108.876	0.335	0.072
-561.529	-200.000	0.054	-0.384
-560.515	140.198	-0.277	0.366
-559.500	-200.000	0.035	-0.230
-558.485	49.155	-0.085	-0.080
-557.471	-16.512	-0.226	0.143
-556.456	-29.565	-0.237	0.135
-555.442	-81.528	-0.060	0.020
-554.427	-77.584	-0.242	0.084
-553.412	424.502	-0.106	0.229
-552.398	-200.000	-0.011	0.110
-551.383	-130.762	-0.272	-0.037
-550.369	800.000	-0.036	-0.142
-549.354	37.982	0.248	-0.221
-548.339	-82.543	0.245	-0.080
-547.325	658.716	0.146	0.376
-546.310	38.500	0.084	0.075
-545.296	800.000	0.031	-0.107
-544.281	-133.569	0.274	-0.034
-543.266	-87.452	-0.231	0.070
-542.252	-200.000	0.016	0.283
-541.237	800.000	0.010	-0.032
-540.223	-200.000	-0.018	0.242
-539.208	-3.961	0.368	0.255
-538.193	-200.000	0.022	-0.448
-537.179	-39.208	0.256	-0.134
-536.164	-200.000	-0.004	0.143
-535.150	40.083	-0.184	0.165
-534.135	-71.269	0.278	-0.104
-533.121	66.897	0.103	0.105
-532.106	-75.902	0.135	0.048
-531.091	-113.959	0.065	-0.013
-530.077	800.000	0.098	-0.334
-529.062	-90.574	0.119	-0.034
-528.048	263.981	-0.036	-0.063
-527.033	-200.000	0.014	-0.150
-526.018	-14.729	0.026	-0.017
-525.004	-200.000	-0.046	-0.347
-523.989	-3.867	-0.213	-0.148
-522.975	-192.256	-0.375	-0.004
-521.960	786.283	-0.046	0.125
-520.945	49.430	0.098	0.092
-519.931	-147.785	-0.208	0.017
-518.916	800.000	0.023	0.083
-517.902	229.257	-0.062	0.102
-516.887	-89.923	-0.235	0.069
-515.872	-200.000	-0.012	0.179
-514.858	-153.383	-0.111	0.008
-513.843	-200.000	0.001	-0.057
-512.829	236.597	0.098	0.161
-511.814	21.058	-0.215	0.174
-510.799	-101.289	-0.080	-0.019
-509.785	-53.926	0.182	0.083
-508.770	-200.000	-0.067	-0.347
-507.756	767.413	-0.094	-0.256
-506.741	-39.430	0.071	-0.037
-505.726	800.000	-0.051	-0.214
-504.712	781.840	0.149	-0.406
-503.697	40.982	-0.051	0.046
-502.683	-147.144	-0.144	0.012
-501.668	-77.094	-0.542	0.189
-500.653	-200.000	0.011	0.069
-499.639	-109.367	-0.269	-0.057
-498.624	293.615	-0.164	0.299
-497.610	-4.586	0.161	-0.111
-496.595	175.123	-0.029	0.042
-495.581	-35.423	-0.074	0.040
-494.566	-200.000	-0.029	0.182
-493.551	104.693	0.092	-0.108
-492.537	117.520	0.084	-0.103
-491.522	52.476	-0.183	-0.175
-490.508	800.000	0.045	-0.154
-489.493	-200.000	0.050	-0.314
-488.478	800.000	-0.019	-0.059
-487.464	116.800	0.245	-0.300
-486.449	138.833	0.056	0.073
-485.435	275.600	-0.077	0.137
-484.420	65.056	0.068	0.069
-483.405	-38.348	-0.213	-0.113
-482.391	73.889	-0.200	-0.209
-481.376	-151.117	-0.393	0.029
-480.362	652.027	0.049	0.126
-479.347	306.165	0.079	-0.147
-478.332	-107.138	-0.251	0.055
-477.318	-200.000	-0.028	0.441
-476.303	-11.888	0.163	-0.107
-475.289	484.908	-0.092	-0.210
-474.274	-84.322	-0.048	0.015
-473.259	800.000	0.018	0.068
-472.245	-71.557	-0.292	0.109
-471.230	773.497	0.083	0.225
-470.216	293.523	0.213	-0.389
-469.201	147.885	0.114	-0.154
-468.186	-59.927	-0.101	0.043
-467.172	310.409	-0.078	-0.146
-466.157	-94.009	0.045	-0.012
-465.143	-43.779	0.286	0.144
-464.128	-200.000	0.030	-0.145
-463.113	-194.402	0.269	-0.002
-462.099	-107.313	-0.095	0.021
-461.084	-142.440	-0.432	0.042
-460.070	591.807	-0.100	0.245
-459.055	-51.470	0.248	-0.115
-458.040	563.695	0.131	-0.315
-457.026	-200.000	-0.018	-0.211
-456.011	-200.000	0.042	-0.199
-454.997	369.968	0.194	0.392
-453.982	-180.829	-0.110	-0.002
-452.968	20.874	0.043	-0.035
-451.953	-200.000	-0.046	-0.345
-450.938	-200.000	-0.005	-0.108
-449.924	-82.959	0.373	-0.120
-448.909	800.000	-0.059	-0.229
-447.895	-15.966	-0.334	0.212
-446.880	323.121	-0.150	0.286
-445.865	-17.700	-0.163	0.102
-444.851	-62.752	-0.187	0.077
-443.836	-90.550	-0.387	0.111
-442.822	-36.908	0.155	-0.083
-441.807	800.000	-0.037	-0.132
-440.792	202.770	0.156	-0.240
-439.778	800.000	-0.102	-0.413
-438.763	277.581	0.070	0.124
-437.749	-74.630	-0.145	0.052
-436.734	287.249	-0.051	-0.091
-435.719	-200.000	-0.013	-0.302
-434.705	61.226	0.049	0.048
-433.690	-200.000	-0.007	-0.552
-432.676	-125.982	0.056	0.008
-431.661	800.000	-0.082	-0.310
-430.646	-25.392	0.168	0.099
-429.632	800.000	-0.034	-0.133
-428.617	800.000	0.053	-0.180
-427.603	9.987	0.239	0.181
-426.588	-28.537	-0.334	0.192
-425.573	-139.578	-0.239	-0.025
-424.559	-159.935	0.159	0.009
-423.544	-166.486	-0.121	-0.005
-422.530	-132.257	0.135	-0.017
-421.515	680.974	0.151	-0.393
-420.500	49.958	0.211	0.199
-419.486	-37.912	0.028	-0.015
-418.471	35.312	0.135	0.118
-417.457	89.389	0.177	0.196
-416.442	0.227	-0.243	0.172
-415.428	-94.625	-0.150	0.041
-414.413	-55.131	-0.178	-0.080
-413.398	283.257	-0.090	0.161
-412.384	9.253	-0.075	0.056
-411.369	-200.000	0.064	-0.328
-410.355	-89.492	0.305	0.089
-409.340	256.639	-0.114	0.195
-408.325	17.784	-0.075	0.059
-407.311	8.797	0.209	0.157
-406.296	641.386	-0.133	-0.336
-405.282	-57.176	0.008	-0.004
-404.267	232.293	-0.160	-0.261
-403.252	-101.656	0.414	0.100
-402.238	626.957	-0.144	0.361
-401.223	321.028	-0.054	-0.103
-400.209	-142.676	0.161	0.016
-399.194	2.015	-0.104	0.075
-398.179	800.000	0.035	-0.141
-397.165	454.146	-0.075	0.166
-396.150	53.248	0.299	0.285
-395.136	94.681	0.126	0.142
-394.121	-113.834	0.293	-0.057
-393.106	-144.288	0.336	-0.031
-392.092	-115.786	-0.254	-0.047
-391.077	-200.000	-0.002	0.097
-390.063	363.065	-0.199	-0.397
-389.048	-109.078	-0.104	0.022
-388.033	113.074	0.015	-0.018
-387.019	-200.000	0.029	0.143
-386.004	-112.769	0.276	0.055
-384.990	-81.835	-0.109	-0.035
-383.975	-200.000	0.005	0.174
-382.960	-161.259	-0.138	0.007
-381.946	800.000	-0.073	0.239
-380.931	-77.350	0.158	0.054
-379.917	158.627	-0.043	0.059
-378.902	129.457	-0.123	0.156
-377.888	-200.000	0.014	-0.285
-376.873	-200.000	-0.035	-0.187
-375.858	-200.000	0.028	0.275
-374.844	149.928	0.121	0.163
-373.829	-139.737	0.323	0.034
-372.815	565.054	0.166	0.399
-371.800	304.071	-0.038	0.070
-370.785	29.848	0.179	-0.152
-369.771	-81.185	0.262	0.086
-368.756	-11.816	-0.139	0.090
-367.742	342.458	0.185	-0.360
-366.727	-200.000	0.010	-0.320
-365.712	34.426	-0.151	0.131
-364.698	-200.000	-0.021	0.168
-363.683	-38.406	-0.264	0.139
-362.669	800.000	-0.064	-0.192
-361.654	-200.000	0.017	-0.216
-360.639	94.460	0.037	0.042
-359.625	800.000	0.152	-0.455
-358.610	800.000	0.094	-0.391
-357.596	-88.724	-0.135	0.040
-356.581	794.858	0.113	0.308
-355.566	50.996	0.189	0.178
-354.552	692.511	0.155	-0.404
-353.537	52.142	-0.113	0.107
-352.523	-105.788	0.212	0.048
-351.508	185.534	-0.029	0.043
-350.493	550.823	-0.097	0.230
-349.479	0.837	0.204	0.145
-348.464	16.616	0.351	0.275
-347.450	800.000	0.069	-0.208
-346.435	35.681	0.214	-0.187
-345.420	-200.000	-0.015	0.181
-344.406	153.198	-0.117	-0.159
-343.391	188.374	0.069	0.102
-342.377	265.974	0.133	0.230
-341.362	158.914	0.062	-0.085
-340.348	800.000	-0.025	-0.072
-339.333	282.651	-0.103	0.184
-338.318	-174.738	0.190	0.005
-337.304	-133.010	0.085	0.011
-336.289	-104.759	0.204	0.047
-335.275	684.727	-0.047	-0.121
-334.260	5.669	-0.290	-0.213
-333.245	-110.277	-0.087	-0.018
-332.231	-125.912	0.293	0.044
-331.216	-42.055	-0.244	-0.124
-330.202	800.000	0.042	0.130
-329.187	800.000	0.116	0.378
-328.172	-200.000	-0.062	-0.341
-327.158	-200.000	0.019	0.338
-326.143	188.990	-0.066	0.098
-325.129	214.753	-0.147	0.232
-324.114	136.164	-0.044	0.057
-323.099	461.845	-0.109	0.241
-322.085	800.000	-0.046	0.164
-321.070	220.189	-0.192	0.306
-320.056	-66.895	0.126	0.050
-319.041	-36.676	0.349	0.186
-318.026	-112.438	0.199	-0.039
-317.012	-72.796	0.180	-0.066
-315.997	-141.080	-0.104	-0.011
-314.983	-200.000	-0.040	-0.199
-313.968	238.010	0.051	-0.084
-312.953	800.000	-0.040	-0.129
-311.939	228.675	0.066	0.107
-310.924	-124.515	0.213	-0.033
-309.910	-78.430	-0.223	0.076
-308.895	-112.519	-0.117	-0.023
-307.880	-200.000	0.030	-0.156
-306.866	-6.732	-0.177	0.119
-305.851	-200.000	-0.009	0.053
-304.837	-99.074	0.069	0.017
-303.822	165.828	-0.077	0.108
-302.807	126.404	0.027	-0.033
-301.793	-76.280	-0.436	-0.152
-300.778	691.548	-0.037	0.096
-299.764	40.653	0.173	0.154
-298.749	-200.000	-0.037	-0.328
-297.735	312.023	-0.132	-0.246
-296.720	800.000	0.091	-0.346
-295.705	-66.479	0.371	0.146
-294.691	526.345	-0.125	0.291
-293.676	-118.211	-0.279	0.049
-292.662	-4.764	-0.142	0.097
-291.647	140.891	0.205	0.268
-290.632	-136.724	0.362	0.041
-289.618	29.915	0.220	-0.186
-288.603	-92.856	-0.178	0.049
-287.589	45.066	0.294	-0.269
-286.574	-126.813	-0.157	-0.023
-285.559	10.609	0.185	-0.140
-284.545	54.649	-0.221	-0.211
-283.530	800.000	0.087	0.275
-282.516	800.000	-0.111	0.334
-281.501	-131.867	0.095	0.012
-280.486	649.337	0.052	0.132
-279.472	-78.518	-0.114	0.039
-278.457	18.136	0.145	-0.115
-277.443	-107.854	-0.261	0.056
-276.428	800.000	-0.129	-0.420
-275.413	-22.444	0.284	0.170
-274.399	-119.754	-0.205	-0.035
-273.384	-78.756	-0.132	0.045
-272.370	628.842	-0.151	-0.377
-271.355	160.524	-0.065	0.090
-270.340	90.124	0.112	-0.124
-269.326	800.000	-0.009	-0.025
-268.311	-89.118	-0.206	-0.060
-267.297	-137.949	0.237	0.026
-266.282	-200.000	-0.002	-0.111
-265.267	55.238	0.152	-0.146
-264.253	131.221	-0.140	0.178
-263.238	-34.103	0.175	0.095
-262.224	224.901	0.036	-0.057
-261.209	-124.140	-0.071	-0.011
-260.195	-36.804	0.072	0.038
-259.180	565.046	0.190	-0.455
-258.165	16.478	0.283	-0.221
-257.151	-49.223	-0.182	0.086
-256.136	-31.311	-0.296	0.165
-255.122	-200.000	-0.000	-0.056
-254.107	-16.615	-0.288	-0.180
-253.092	86.575	-0.176	-0.192
-252.078	264.382	-0.171	-0.295
-251.063	-86.940	0.266	-0.080
-250.049	-200.000	0.024	-0.286
-249.034	109.485	0.245	0.290
-248.019	-181.146	-0.320	0.006
-247.005	459.553	0.098	-0.215
-245.990	-28.881	-0.151	-0.086
-244.976	-40.160	-0.143	-0.074
-243.961	321.850	0.247	0.464
-242.946	108.642	0.042	-0.049
-241.932	16.847	0.229	0.179
-240.917	92.260	0.219	0.245
-239.903	636.950	-0.108	0.272
-238.888	674.274	0.166	0.426
-237.873	94.440	-0.248	-0.278
-236.859	-91.821	0.220	0.062
-235.844	235.219	-0.343	0.561
-234.830	800.000	0.036	0.157
-233.815	-132.595	0.123	-0.016
-232.800	-101.011	0.337	0.082
-231.786	-200.000	0.012	-0.198
-230.771	-34.425	-0.155	0.084
-229.757	-151.688	0.195	0.014
-228.742	349.178	-0.066	-0.129
-227.727	800.000	0.050	-0.155
-226.713	169.024	-0.151	-0.213
-225.698	-115.020	-0.124	0.023
-224.684	-135.177	0.251	-0.030
-223.669	-155.772	0.316	0.020
-222.655	30.518	-0.070	-0.059
-221.640	58.628	0.211	0.205
-220.625	-61.949	-0.082	0.034
-219.611	-28.440	-0.305	-0.174
-218.596	775.195	0.090	-0.243
-217.582	433.091	0.190	-0.407
-216.567	-200.000	-0.003	0.194
-215.552	-21.361	-0.245	-0.148
-214.538	149.456	-0.049	-0.065
-213.523	144.979	-0.210	0.277
-212.509	-36.052	-0.380	0.203
-211.494	101.919	0.064	-0.074
-210.479	-32.059	-0.343	0.190
-209.465	72.165	0.145	-0.149
-208.450	-11.291	-0.155	0.101
-207.436	14.480	-0.043	0.033
-206.421	35.696	-0.053	0.046
-205.406	653.245	-0.050	0.127
-204.392	-200.000	-0.017	0.268
-203.377	462.625	-0.103	0.226
-202.363	-79.524	-0.321	-0.107
-201.348	-200.000	0.039	-0.244
-200.333	-5.293	0.323	0.219
-199.319	800.000	-0.061	0.169
-198.304	-200.000	0.049	0.345
-197.290	-68.417	0.151	0.058
-196.275	161.413	-0.147	0.202
-195.260	-21.289	0.196	0.118
-194.246	-200.000	-0.025	-0.186
-193.231	187.992	-0.167	-0.246
-192.217	-115.951	0.511	-0.094
-191.202	-2.005	0.393	-0.273
-190.187	-200.000	-0.034	0.315
-189.173	567.914	0.075	-0.179
-188.158	17.329	-0.137	0.107
-187.144	-132.015	0.286	0.037
-186.129	-135.055	-0.146	-0.017
-185.114	-30.032	-0.160	0.090
-184.100	12.166	0.165	0.125
-183.085	-142.166	0.275	0.027
-182.071	800.000	0.052	0.219
-181.056	-135.192	-0.207	-0.025
-180.042	-25.447	-0.028	0.016
-179.027	-200.000	-0.018	0.082
-178.012	800.000	-0.065	0.227
-176.998	343.171	-0.207	-0.400
-175.983	309.450	0.091	-0.169
-174.969	-94.994	-0.084	0.022
-173.954	-27.398	0.200	0.115
-172.939	-83.992	0.226	-0.071
-171.925	128.716	-0.056	-0.070
-170.910	310.663	-0.131	0.242
-169.896	-81.964	0.113	0.037
-168.881	-118.237	0.135	-0.024
-167.866	464.781	0.057	-0.126
-166.852	-44.162	0.238	0.118
-165.837	4.549	-0.277	-0.200
-164.823	-200.000	0.016	0.266
-163.808	-93.596	0.185	0.050
-162.793	-148.009	0.193	0.016
-161.779	800.000	0.041	0.145
-160.764	206.181	-0.176	0.270
-159.750	-200.000	-0.048	-0.286
-158.735	51.598	0.284	0.266
-157.720	2.279	-0.101	-0.072
-156.706	-142.296	0.172	-0.017
-155.691	-200.000	0.015	0.309
-154.677	-65.932	0.249	-0.098
-153.662	800.000	0.058	-0.232
-152.647	376.649	-0.089	-0.179
-151.633	-65.012	-0.159	0.063
-150.618	-155.012	-0.194	-0.013
-149.604	22.904	0.202	0.163
-148.589	800.000	-0.076	0.230
-147.574	105.465	-0.242	-0.281
-146.560	289.907	0.037	0.067
-145.545	30.383	0.293	-0.246
-144.531	-197.460	-0.205	0.001
-143.516	282.542	-0.087	0.154
-142.502	-200.000	-0.012	0.151
-141.487	64.551	0.128	0.127
-140.472	800.000	0.047	0.161
-139.458	-200.000	-0.019	0.237
-138.443	-183.655	0.154	-0.003
-137.429	-60.656	-0.177	0.074
-136.414	-200.000	-0.014	-0.201
-135.399	-172.663	-0.350	0.011
-134.385	72.927	-0.370	0.381
-133.370	522.425	0.048	0.112
-132.356	-127.863	-0.146	-0.021
-131.341	68.092	-0.231	-0.233
-130.326	-86.518	0.072	0.022
-129.312	42.634	-0.182	-0.163
-128.297	213.058	-0.084	-0.130
-127.283	590.002	-0.090	-0.218
-126.268	248.776	0.099	0.165
-125.253	40.896	-0.247	0.220
-124.239	800.000	0.034	0.137
-123.224	373.193	0.092	-0.184
-122.210	-160.708	0.368	-0.019
-121.195	-28.811	-0.186	-0.105
