DTS Sentinel unit serial number:	SN413079Multiplexer serial number:	ORYXHardware model number:	OX4-SRSoftware version number:	ORYX F/W v4.00 Oryx Data Collector v3.7.2.0data status	okinstallation	princeton_trtdifferential loss correction	single-endedforward channel	channel 2reverse channel	N/Adate	2019/09/13time	01:03:34forward acquisition time	60.00reverse acquisition time	0.00gamma	496.2192k internal	0.2333k external	0.2333temperature offset calibration	1.0162default loss term (dB/km)	0.3790temperature slope calibration	1.0000multiplexer offset coefficient	1.0000multiplexer slope coefficient	1.0000fibre end	0.00T internal ref (°C)	28.00T ext. ref 1 (°C)	3.69T ext. ref 2 (°C)	22.58length (m)	temperature (°C)	Stokes	anti-Stokes-747.200	241.459	0.059	-0.099
-746.185	-116.748	-0.194	-0.036
-745.171	800.000	0.044	0.172
-744.156	800.000	-0.055	0.192
-743.142	22.168	0.127	-0.104
-742.127	-200.000	-0.002	0.128
-741.112	-3.489	0.387	0.271
-740.098	-131.275	-0.105	0.014
-739.083	-138.961	-0.162	-0.018
-738.069	230.497	0.259	0.425
-737.054	13.934	-0.131	-0.102
-736.039	-178.991	0.223	-0.005
-735.025	-69.211	0.226	-0.087
-734.010	-50.539	0.050	-0.024
-732.996	-10.910	-0.251	-0.167
-731.981	-200.000	-0.056	0.250
-730.966	-88.706	-0.609	-0.182
-729.952	-58.636	0.278	0.121
-728.937	-137.915	-0.199	0.022
-727.923	4.873	-0.174	0.129
-726.908	-25.488	-0.299	0.177
-725.894	52.483	-0.095	-0.092
-724.879	-200.000	0.011	0.191
-723.864	232.069	0.075	0.123
-722.850	2.967	-0.324	0.237
-721.835	71.954	-0.166	0.173
-720.821	-114.548	-0.481	0.093
-719.806	-27.917	-0.175	-0.102
-718.791	112.304	0.193	-0.234
-717.777	17.849	0.052	-0.042
-716.762	800.000	0.055	-0.226
-715.748	800.000	-0.036	0.139
-714.733	-164.075	0.234	0.011
-713.718	-200.000	0.008	0.059
-712.704	40.120	-0.161	0.146
-711.689	288.778	-0.088	0.160
-710.675	31.491	-0.088	-0.076
-709.660	232.864	-0.186	-0.308
-708.645	-113.580	0.201	0.039
-707.631	-200.000	-0.003	-0.247
-706.616	-155.184	-0.218	0.014
-705.602	-200.000	0.007	-0.131
-704.587	46.707	-0.072	-0.067
-703.572	-50.224	0.158	-0.075
-702.558	-59.611	-0.175	-0.075
-701.543	800.000	0.136	-0.378
-700.529	80.891	0.185	-0.200
-699.514	3.668	-0.111	-0.081
-698.499	-200.000	0.043	-0.475
-697.485	-48.408	-0.061	0.029
-696.470	-200.000	0.007	0.207
-695.456	262.069	-0.116	0.202
-694.441	-64.748	0.277	-0.113
-693.426	-60.235	0.068	0.029
-692.412	548.134	0.072	0.173
-691.397	258.876	0.198	-0.343
-690.383	119.781	0.146	0.181
-689.368	265.604	-0.204	0.356
-688.354	-200.000	-0.033	0.397
-687.339	35.705	-0.090	0.079
-686.324	-146.451	-0.162	-0.014
-685.310	311.089	-0.147	-0.276
-684.295	354.872	0.151	-0.301
-683.281	37.109	0.087	-0.077
-682.266	-75.680	-0.133	0.047
-681.251	-200.000	-0.015	0.071
-680.237	34.367	0.123	-0.108
-679.222	302.949	-0.097	0.181
-678.208	-149.119	-0.163	0.013
-677.193	209.328	-0.120	0.189
-676.178	-200.000	0.013	0.097
-675.164	-11.975	0.047	-0.031
-674.149	-128.824	0.371	0.052
-673.135	-73.317	0.084	-0.031
-672.120	-80.049	0.429	-0.144
-671.105	-44.358	-0.146	0.073
-670.091	1.551	-0.220	0.159
-669.076	774.309	-0.074	-0.204
-668.062	-105.952	-0.180	0.041
-667.047	-200.000	-0.003	-0.095
-666.032	-83.617	0.113	-0.036
-665.018	-172.541	0.304	0.010
-664.003	-200.000	0.016	0.154
-662.989	800.000	-0.135	-0.540
-661.974	-64.608	0.267	-0.109
-660.959	-10.983	-0.486	0.322
-659.945	-64.232	-0.132	0.054
-658.930	-200.000	-0.010	-0.145
-657.916	-200.000	0.020	-0.161
-656.901	-0.414	-0.121	0.086
-655.886	623.940	0.029	0.073
-654.872	162.338	-0.176	0.247
-653.857	-122.872	-0.165	-0.027
-652.843	-200.000	0.016	0.409
-651.828	-200.000	-0.065	-0.314
-650.814	-114.653	0.260	-0.050
-649.799	239.443	-0.027	-0.045
-648.784	269.504	-0.101	0.179
-647.770	220.660	0.133	-0.213
-646.755	41.542	-0.211	-0.191
-645.741	-200.000	-0.008	0.107
-644.726	-18.124	0.110	-0.069
-643.711	406.170	-0.081	0.171
-642.697	-69.512	0.186	-0.071
-641.682	-200.000	-0.011	0.088
-640.668	-200.000	0.006	-0.229
-639.653	267.082	0.153	-0.269
-638.638	292.067	-0.151	-0.276
-637.624	601.454	0.062	0.155
-636.609	-200.000	0.018	0.187
-635.595	-161.609	-0.320	0.016
-634.580	-3.826	-0.210	0.146
-633.565	-200.000	-0.015	-0.068
-632.551	346.020	0.105	-0.206
-631.536	-18.808	-0.094	-0.059
-630.522	800.000	0.091	0.395
-629.507	-200.000	-0.029	-0.513
-628.492	9.588	-0.241	-0.183
-627.478	-200.000	0.016	-0.339
-626.463	-105.803	0.159	0.036
-625.449	800.000	0.013	-0.043
-624.434	-14.533	0.585	0.377
-623.419	-112.790	0.200	0.040
-622.405	619.086	0.082	0.207
-621.390	-24.713	-0.224	-0.133
-620.376	23.937	0.115	-0.095
-619.361	-89.359	0.118	-0.035
-618.346	595.769	-0.114	-0.281
-617.332	5.278	-0.142	-0.105
-616.317	-69.379	-0.196	-0.075
-615.303	800.000	-0.080	-0.301
-614.288	116.524	-0.116	0.142
-613.273	67.959	-0.185	-0.189
-612.259	-143.718	0.314	0.030
-611.244	771.589	0.095	-0.260
-610.230	360.381	0.092	-0.185
-609.215	-30.357	-0.166	0.094
-608.201	-133.700	0.338	0.042
-607.186	82.341	-0.190	0.207
-606.171	149.750	-0.098	-0.133
-605.157	-200.000	0.022	-0.222
-604.142	65.742	-0.128	0.129
-603.128	80.012	0.193	-0.207
-602.113	-200.000	0.049	0.246
-601.098	-200.000	0.020	0.229
-600.084	-18.918	0.058	0.036
-599.069	118.785	-0.177	-0.218
-598.055	-95.673	-0.140	-0.038
-597.040	360.175	0.208	-0.416
-596.025	-158.611	-0.240	-0.014
-595.011	-198.756	0.252	-0.001
-593.996	-200.000	0.002	0.197
-592.982	-91.075	0.103	-0.030
-591.967	-52.491	0.151	0.070
-590.952	206.178	-0.133	0.207
-589.938	49.111	0.212	0.199
-588.923	800.000	0.022	0.084
-587.909	-48.150	-0.184	-0.089
-586.894	-200.000	-0.037	0.217
-585.879	408.930	0.059	-0.124
-584.865	-200.000	0.056	-0.485
-583.850	-47.147	-0.076	-0.037
-582.836	1.494	0.082	-0.059
-581.821	-200.000	-0.007	-0.091
-580.806	-153.418	-0.174	-0.012
-579.792	-60.020	-0.171	-0.073
-578.777	250.137	0.105	-0.177
-577.763	-92.446	-0.271	0.076
-576.748	-99.670	-0.217	-0.054
-575.733	308.478	-0.077	-0.144
-574.719	303.126	-0.084	-0.156
-573.704	800.000	-0.154	0.432
-572.690	800.000	-0.054	0.162
-571.675	343.862	-0.081	0.158
-570.661	-200.000	-0.004	-0.041
-569.646	-200.000	-0.036	0.194
-568.631	-86.066	-0.404	0.125
-567.617	96.008	0.392	0.448
-566.602	-149.538	0.048	-0.004
-565.588	-153.546	0.360	0.025
-564.573	-118.396	-0.081	-0.014
-563.558	-107.022	-0.192	0.042
-562.544	584.417	-0.155	-0.379
-561.529	-31.887	0.155	0.087
-560.515	-112.595	-0.147	0.029
-559.500	-200.000	-0.010	0.179
-558.485	-200.000	-0.039	-0.182
-557.471	-200.000	-0.000	-0.125
-556.456	-200.000	0.023	0.108
-555.442	800.000	-0.016	-0.067
-554.427	800.000	-0.051	-0.191
-553.412	800.000	0.044	0.187
-552.398	-200.000	-0.066	0.340
-551.383	468.034	-0.038	-0.084
-550.369	-200.000	-0.060	0.353
-549.354	-26.149	-0.080	-0.047
-548.339	-200.000	0.035	0.154
-547.325	299.033	-0.215	-0.395
-546.310	800.000	-0.033	0.118
-545.296	-67.183	0.437	0.172
-544.281	-180.193	0.209	0.004
-543.266	-98.686	-0.283	0.072
-542.252	223.521	0.102	-0.165
-541.237	104.306	0.107	-0.125
-540.223	-108.970	0.248	-0.053
-539.208	-200.000	0.024	0.144
-538.193	-25.460	-0.197	-0.116
-537.179	-200.000	-0.009	-0.171
-536.164	-92.032	-0.261	-0.074
-535.150	78.868	0.296	-0.316
-534.135	186.535	0.021	0.032
-533.121	-35.614	-0.124	0.067
-532.106	216.979	-0.025	-0.039
-531.091	166.076	0.111	0.156
-530.077	237.738	-0.057	0.094
-529.062	-200.000	-0.036	0.286
-528.048	-31.365	0.211	0.119
-527.033	-38.612	0.250	0.132
-526.018	-31.871	-0.115	-0.064
-525.004	-38.140	0.127	-0.067
-523.989	-108.085	-0.037	-0.008
-522.975	-200.000	-0.036	-0.169
-521.960	374.915	0.128	0.259
-520.945	-15.073	-0.140	-0.089
-519.931	397.908	0.066	-0.137
-518.916	389.623	0.114	0.235
-517.902	30.962	0.074	-0.063
-516.887	-4.393	-0.166	-0.115
-515.872	-78.363	0.231	0.079
-514.858	-176.515	-0.174	-0.004
-513.843	-63.706	0.095	0.039
-512.829	395.216	-0.135	-0.281
-511.814	-200.000	0.098	0.457
-510.799	87.121	-0.089	0.098
-509.785	22.219	0.121	-0.098
-508.770	253.613	-0.060	-0.102
-507.756	-200.000	-0.000	0.005
-506.741	-102.651	0.106	-0.025
-505.726	488.078	0.143	-0.325
-504.712	-200.000	-0.098	0.000
-503.697	168.093	-0.062	-0.088
-502.683	-200.000	0.051	0.352
-501.668	-200.000	-0.011	0.294
-500.653	302.002	-0.057	-0.104
-499.639	88.253	-0.262	0.289
-498.624	1.998	0.163	-0.117
-497.610	152.928	-0.160	0.218
-496.595	-41.082	0.412	-0.212
-495.581	216.594	-0.215	0.341
-494.566	800.000	0.075	0.285
-493.551	95.527	-0.117	0.133
-492.537	53.202	0.339	-0.323
-491.522	407.699	0.154	0.324
-490.508	26.939	-0.137	0.114
-489.493	-12.024	0.242	-0.158
-488.478	80.741	-0.193	0.207
-487.464	-103.080	-0.256	0.060
-486.449	-36.577	-0.176	0.094
-485.435	-5.716	-0.161	0.110
-484.420	-200.000	-0.036	0.341
-483.405	83.312	-0.231	-0.251
-482.391	1.050	-0.105	0.075
-481.376	-200.000	-0.039	-0.385
-480.362	190.459	-0.083	0.125
-479.347	-86.758	0.280	0.085
-478.332	172.804	-0.095	-0.136
-477.318	-15.740	0.331	-0.210
-476.303	378.874	0.167	-0.340
-475.289	316.645	0.153	-0.288
-474.274	279.293	0.087	0.155
-473.259	45.545	0.288	0.264
-472.245	-21.679	0.215	-0.130
-471.230	183.437	-0.062	-0.091
-470.216	200.117	-0.045	0.068
-469.201	-24.514	-0.171	-0.101
-468.186	-91.592	0.132	0.037
-467.172	-200.000	-0.003	-0.143
-466.157	-200.000	-0.072	-0.408
-465.143	-37.138	0.303	0.161
-464.128	800.000	-0.074	-0.306
-463.113	37.899	0.108	-0.095
-462.099	227.478	-0.087	-0.141
-461.084	499.280	0.118	0.271
-460.070	364.629	0.047	0.095
-459.055	800.000	0.056	-0.180
-458.040	429.298	-0.145	-0.312
-457.026	-93.461	0.128	0.035
-456.011	-17.558	-0.146	-0.091
-454.997	13.686	0.159	0.122
-453.982	443.800	0.158	-0.345
-452.968	-33.402	0.390	0.215
-451.953	292.092	0.151	-0.273
-450.938	-138.632	-0.167	-0.018
-449.924	-13.223	0.164	0.106
-448.909	-200.000	0.049	0.363
-447.895	-200.000	0.038	0.219
-446.880	537.517	-0.115	0.271
-445.865	-105.664	0.075	-0.017
-444.851	-40.027	0.394	-0.204
-443.836	-92.351	-0.101	0.028
-442.822	-66.465	0.319	0.126
-441.807	161.953	-0.113	-0.157
-440.792	-116.887	-0.389	0.071
-439.778	-57.931	-0.212	-0.092
-438.763	-73.503	-0.472	0.171
-437.749	-200.000	-0.010	-0.132
-436.734	-200.000	-0.013	-0.102
-435.719	756.517	0.139	0.374
-434.705	-200.000	0.007	0.286
-433.690	77.834	0.024	-0.025
-432.676	-200.000	-0.024	-0.250
-431.661	211.051	0.085	-0.133
-430.646	-80.852	0.478	-0.158
-429.632	-200.000	-0.053	-0.511
-428.617	330.673	0.168	-0.322
-427.603	-151.299	-0.154	-0.011
-426.588	-75.751	0.177	0.062
-425.573	598.788	-0.067	-0.165
-424.559	-83.658	0.135	0.043
-423.544	-133.956	-0.094	0.012
-422.530	300.675	-0.104	-0.190
-421.515	31.552	0.301	-0.257
-420.500	140.088	0.203	-0.265
-419.486	22.643	0.138	0.112
-418.471	152.966	-0.227	0.309
-417.457	-200.000	-0.032	0.169
-416.442	-200.000	-0.010	-0.288
-415.428	-132.812	-0.103	0.013
-414.413	-200.000	0.038	-0.166
-413.398	-59.528	-0.243	0.103
-412.384	80.504	0.166	-0.178
-411.369	-200.000	-0.018	-0.169
-410.355	92.645	-0.182	0.204
-409.340	120.632	0.114	-0.141
-408.325	103.670	0.024	-0.028
-407.311	-86.370	-0.214	0.065
-406.296	-37.472	-0.271	0.143
-405.282	531.604	-0.055	-0.129
-404.267	167.490	0.192	0.271
-403.252	45.132	0.123	0.112
-402.238	172.291	-0.188	-0.268
-401.223	-139.131	0.321	0.034
-400.209	-129.406	-0.178	-0.025
-399.194	223.312	-0.148	-0.238
-398.179	203.549	0.084	0.129
-397.165	124.252	-0.192	0.239
-396.150	-89.333	-0.229	-0.067
-395.136	104.455	0.215	0.251
-394.121	145.104	-0.243	0.322
-393.106	-143.217	0.159	-0.015
-392.092	800.000	-0.125	0.447
-391.077	-200.000	-0.015	0.381
-390.063	-200.000	-0.038	0.190
-389.048	284.391	0.125	-0.224
-388.033	-48.210	0.290	0.139
-387.019	-200.000	-0.025	-0.124
-386.004	-100.797	-0.173	-0.042
-384.990	142.817	-0.102	-0.135
-383.975	260.311	-0.109	-0.187
-382.960	-155.757	0.421	-0.027
-381.946	152.002	0.277	0.374
-380.931	415.951	-0.066	0.141
-379.917	-110.673	0.067	0.014
-378.902	-200.000	0.074	-0.371
-377.888	115.702	0.158	0.191
-376.873	-76.267	-0.236	0.082
-375.858	-42.495	-0.155	0.078
-374.844	-68.615	-0.220	-0.085
-373.829	800.000	0.116	0.329
-372.815	102.592	0.355	0.411
-371.800	-136.033	0.074	-0.009
-370.785	122.377	0.061	0.076
-369.771	757.950	-0.079	-0.211
-368.756	171.950	-0.066	-0.094
-367.742	-61.992	0.064	0.026
-366.727	-135.783	-0.079	-0.009
-365.712	-141.910	-0.335	-0.033
-364.698	-200.000	-0.014	-0.203
-363.683	-143.899	0.163	-0.015
-362.669	509.090	0.177	-0.408
-361.654	-30.036	0.012	0.007
-360.639	2.116	0.138	-0.099
-359.625	313.554	-0.114	-0.212
-358.610	-95.677	-0.184	-0.049
-357.596	-120.668	-0.230	-0.038
-356.581	280.115	0.099	-0.176
-355.566	-57.841	0.050	0.021
-354.552	800.000	-0.031	0.088
-353.537	99.274	0.257	-0.295
-352.523	241.482	-0.081	0.134
-351.508	-42.364	-0.165	0.083
-350.493	800.000	0.045	-0.176
-349.479	-75.905	-0.219	0.077
-348.464	181.571	-0.153	0.223
-347.450	-44.845	0.198	-0.097
-346.435	-89.396	0.184	0.054
-345.420	560.885	-0.108	0.259
-344.406	192.744	0.116	0.173
-343.391	-75.438	0.217	-0.076
-342.377	-200.000	-0.012	0.124
-341.362	-20.083	0.137	0.084
-340.348	189.336	0.061	-0.091
-339.333	-124.282	0.255	0.040
-338.318	-53.224	0.173	0.079
-337.304	238.099	0.069	-0.113
-336.289	-48.783	-0.216	-0.103
-335.275	-24.972	-0.201	0.118
-334.260	27.854	0.103	0.086
-333.245	-200.000	0.003	0.088
-332.231	56.801	-0.186	0.179
-331.216	-200.000	-0.002	-0.155
-330.202	511.052	-0.075	0.173
-329.187	-139.658	-0.064	-0.007
-328.172	800.000	0.141	-0.430
-327.158	465.910	0.080	0.177
-326.143	118.448	0.292	0.357
-325.129	759.917	-0.037	-0.099
-324.114	800.000	0.108	0.323
-323.099	800.000	0.035	0.148
-322.085	107.478	-0.058	0.069
-321.070	-200.000	0.007	-0.105
-320.056	-124.648	0.164	0.025
-319.041	44.280	-0.234	-0.213
-318.026	-17.503	-0.278	0.173
-317.012	37.445	0.112	0.099
-315.997	-200.000	-0.024	-0.121
-314.983	108.490	0.111	-0.131
-313.968	-200.000	0.023	0.235
-312.953	-200.000	-0.047	0.216
-311.939	800.000	-0.066	0.225
-310.924	800.000	-0.134	0.376
-309.910	-98.887	-0.281	0.071
-308.895	-22.272	-0.198	-0.119
-307.880	176.179	0.069	-0.099
-306.866	-9.385	0.097	0.064
-305.851	-200.000	-0.071	-0.346
-304.837	-4.046	0.135	-0.093
-303.822	262.766	0.037	0.064
-302.807	-137.144	-0.149	-0.017
-301.793	129.215	-0.161	-0.204
-300.778	-143.162	0.337	0.032
-299.764	42.183	-0.108	0.097
-298.749	655.260	-0.117	-0.297
-297.735	48.971	0.100	0.093
-296.720	800.000	-0.054	-0.181
-295.705	-24.737	-0.297	-0.174
-294.691	146.534	0.065	-0.086
-293.676	-163.828	-0.142	-0.007
-292.662	-200.000	0.001	0.092
-291.647	-114.556	-0.430	-0.081
-290.632	-88.721	-0.151	-0.044
-289.618	-34.828	0.166	-0.089
-288.603	166.343	-0.069	-0.097
-287.589	51.594	-0.027	-0.026
-286.574	167.576	0.054	0.076
-285.559	287.097	0.222	0.397
-284.545	-84.574	0.264	-0.082
-283.530	17.364	0.168	0.132
-282.516	13.786	0.225	-0.173
-281.501	83.132	-0.104	0.112
-280.486	800.000	-0.018	0.065
-279.472	17.315	-0.308	-0.242
-278.457	-1.193	0.143	0.100
-277.443	-200.000	0.001	0.199
-276.428	-200.000	-0.032	-0.255
-275.413	-200.000	-0.015	0.230
-274.399	-200.000	0.051	-0.281
-273.384	-162.963	-0.306	0.015
-272.370	18.943	0.188	-0.149
-271.355	-33.676	-0.091	-0.050
-270.340	-200.000	-0.031	0.149
-269.326	102.992	0.057	-0.066
-268.311	302.254	-0.077	0.141
-267.297	73.105	-0.153	-0.158
-266.282	-31.077	-0.214	0.119
-265.267	206.049	0.211	0.324
-264.253	-126.366	0.174	0.026
-263.238	-101.988	0.098	0.023
-262.224	177.644	-0.104	0.149
-261.209	0.896	-0.078	0.055
-260.195	-200.000	-0.001	0.049
-259.180	93.465	-0.283	-0.316
-258.165	559.723	-0.059	0.140
-257.151	-57.812	-0.072	0.031
-256.136	-89.624	-0.255	0.074
-255.122	-35.514	-0.167	0.090
-254.107	503.423	0.053	-0.121
-253.092	72.495	0.132	-0.136
-252.078	-155.767	0.295	-0.019
-251.063	-48.837	0.131	-0.062
-250.049	-136.547	-0.067	0.008
-249.034	138.572	0.188	-0.244
-248.019	-75.842	-0.209	-0.073
-247.005	-40.631	-0.110	-0.056
-245.990	108.002	-0.161	0.189
-244.976	45.405	-0.315	-0.287
-243.961	-200.000	0.023	-0.235
-242.946	70.153	-0.143	0.146
-241.932	79.270	0.090	-0.095
-240.917	-128.369	0.510	-0.071
-239.903	659.828	-0.047	0.120
-238.888	156.198	0.097	-0.132
-237.873	-68.297	-0.202	-0.077
-236.859	766.316	0.081	-0.217
-235.844	-59.286	0.322	-0.136
-234.830	-41.024	0.131	-0.067
-233.815	30.952	-0.062	0.052
-232.800	-165.076	0.128	0.006
-231.786	16.829	0.153	0.120
-230.771	-131.061	0.151	-0.020
-229.757	-130.940	-0.265	-0.035
-228.742	-65.750	-0.113	0.045
-227.727	12.468	0.134	0.102
-226.713	800.000	-0.053	0.178
-225.698	475.682	0.147	0.327
-224.684	460.973	0.088	-0.194
-223.669	576.406	0.039	0.095
-222.655	-87.757	0.157	0.047
-221.640	-54.760	0.105	0.047
-220.625	23.096	0.172	-0.139
-219.611	-200.000	0.042	0.211
-218.596	588.484	0.058	-0.141
-217.582	-200.000	-0.010	-0.177
-216.567	-126.157	-0.183	0.027
-215.552	120.086	-0.070	-0.086
-214.538	56.404	-0.035	-0.034
-213.523	-200.000	0.037	-0.313
-212.509	-200.000	0.010	-0.228
-211.494	-88.966	0.269	-0.079
-210.479	136.326	0.070	0.090
-209.465	800.000	-0.072	-0.206
-208.450	374.844	0.064	-0.129
-207.436	-200.000	-0.028	-0.270
-206.421	354.713	-0.191	0.374
-205.406	-135.565	0.330	-0.039
-204.392	-91.899	-0.434	0.121
-203.377	800.000	-0.063	0.191
-202.363	-200.000	-0.013	0.263
-201.348	23.531	0.079	0.064
-200.333	2.441	-0.071	-0.050
-199.319	800.000	-0.079	0.299
-198.304	-200.000	0.003	0.045
-197.290	4.380	-0.210	0.152
-196.275	59.523	0.165	0.160
-195.260	73.793	-0.169	-0.174
-194.246	-176.126	0.092	-0.002
-193.231	-77.038	0.233	-0.080
-192.217	12.582	0.297	0.226
-191.202	-200.000	0.013	0.145
-190.187	-39.173	-0.182	-0.094
-189.173	36.262	0.145	-0.125
-188.158	419.585	0.088	0.186
-187.144	800.000	0.045	0.168
-186.129	-136.214	-0.298	-0.034
-185.114	-200.000	-0.007	0.471
-184.100	159.414	-0.191	0.262
-183.085	-57.454	0.305	0.132
-182.071	800.000	0.045	0.132
-181.056	-23.487	-0.294	0.173
-180.042	111.570	-0.163	-0.193
-179.027	800.000	0.055	-0.221
-178.012	59.487	-0.178	0.172
-176.998	60.311	-0.247	-0.240
-175.983	249.476	0.113	-0.188
-174.969	-200.000	0.008	0.193
-173.954	-131.746	0.185	0.024
-172.939	-37.961	-0.279	-0.146
-171.925	-46.607	0.097	-0.047
-170.910	-121.405	-0.385	-0.063
-169.896	-26.430	-0.293	0.169
-168.881	-162.282	0.126	0.006
-167.866	-200.000	0.001	-0.186
-166.852	-105.309	-0.115	-0.026
-165.837	-200.000	0.016	-0.172
-164.823	-48.376	-0.225	0.107
-163.808	458.924	-0.108	-0.237
-162.793	558.419	0.077	0.184
-161.779	206.369	0.122	0.186
-160.764	7.017	-0.215	-0.157
-159.750	115.699	0.107	-0.129
-158.735	173.416	-0.030	-0.043
-157.720	37.818	0.192	0.167
-156.706	-57.564	-0.197	-0.085
-155.691	265.364	-0.101	0.174
-154.677	-200.000	-0.036	0.171
-153.662	-146.754	0.093	-0.008
-152.647	-51.673	0.119	-0.054
-151.633	-133.750	-0.303	-0.037
-150.618	-154.165	-0.090	0.006
-149.604	-200.000	-0.029	-0.205
-148.589	181.719	0.076	0.110
-147.574	-22.956	0.162	0.096
-146.560	105.846	0.024	0.028
-145.545	-200.000	0.070	-0.363
-144.531	685.969	-0.011	-0.029
-143.516	-200.000	-0.056	-0.258
-142.502	-200.000	0.010	-0.054
-141.487	-101.102	-0.141	-0.034
-140.472	201.883	0.091	-0.138
-139.458	77.011	-0.136	0.142
-138.443	-200.000	0.027	-0.141
-137.429	800.000	-0.089	0.261
-136.414	-98.323	0.141	-0.036
-135.399	-75.412	-0.291	0.102
-134.385	728.383	-0.114	0.300
-133.370	-200.000	0.011	0.338
-132.356	-165.349	-0.122	0.005
-131.341	-116.497	0.309	0.056
-130.326	-12.285	0.164	0.105
-129.312	-86.063	-0.193	0.059
-128.297	498.365	-0.047	0.106
-127.283	-81.999	0.178	-0.057
-126.268	-17.488	0.095	0.059
-125.253	-43.130	-0.324	0.161
-124.239	-136.645	0.134	-0.015
-123.224	-88.179	0.331	0.097
-122.210	-100.576	-0.136	-0.033
