DTS Sentinel unit serial number:	SN413079Multiplexer serial number:	ORYXHardware model number:	OX4-SRSoftware version number:	ORYX F/W v4.00 Oryx Data Collector v3.7.2.0data status	okinstallation	princeton_trtdifferential loss correction	single-endedforward channel	channel 2reverse channel	N/Adate	2019/09/17time	12:47:35forward acquisition time	60.00reverse acquisition time	0.00gamma	496.2192k internal	0.2320k external	0.2320temperature offset calibration	0.9990default loss term (dB/km)	0.3790temperature slope calibration	1.0000multiplexer offset coefficient	1.0000multiplexer slope coefficient	1.0000fibre end	0.00T internal ref (°C)	32.69T ext. ref 1 (°C)	0.41T ext. ref 2 (°C)	30.86length (m)	temperature (°C)	Stokes	anti-Stokes-747.200	-172.027	0.463	-0.015
-746.185	-163.051	-0.314	-0.015
-745.171	116.847	0.093	0.115
-744.156	-123.916	-0.198	-0.032
-743.142	800.000	0.114	-0.456
-742.127	-200.000	0.044	0.378
-741.112	-111.470	-0.225	-0.046
-740.098	-21.762	0.212	0.130
-739.083	91.024	0.096	0.108
-738.069	31.321	-0.190	0.165
-737.054	-123.650	0.406	-0.065
-736.039	-111.730	-0.337	0.069
-735.025	484.003	0.118	0.271
-734.010	265.386	-0.113	-0.200
-732.996	29.740	-0.118	0.101
-731.981	350.566	-0.034	0.068
-730.966	-200.000	-0.029	-0.224
-729.952	-29.405	0.182	-0.105
-728.937	516.519	-0.026	0.061
-727.923	45.635	0.070	-0.065
-726.908	-200.000	-0.010	-0.088
-725.894	-23.348	-0.259	0.157
-724.879	800.000	0.080	-0.315
-723.864	327.045	-0.125	-0.242
-722.850	116.431	-0.161	-0.199
-721.835	0.721	0.225	-0.162
-720.821	-200.000	0.027	-0.147
-719.806	-74.564	-0.247	0.090
-718.791	-57.433	0.193	0.086
-717.777	43.637	0.069	0.063
-716.762	800.000	0.054	-0.161
-715.748	-164.309	-0.194	-0.009
-714.733	188.108	-0.282	-0.426
-713.718	-173.169	0.204	-0.006
-712.704	-200.000	0.017	-0.181
-711.689	-32.049	0.116	0.065
-710.675	800.000	-0.055	0.173
-709.660	-200.000	0.025	-0.347
-708.645	543.808	-0.092	0.222
-707.631	-154.344	-0.104	-0.007
-706.616	-136.121	-0.168	0.020
-705.602	3.582	0.027	0.020
-704.587	-200.000	-0.039	0.184
-703.572	29.278	-0.232	0.199
-702.558	29.613	0.176	-0.151
-701.543	10.189	0.196	0.151
-700.529	373.159	-0.116	0.239
-699.514	208.576	0.173	0.274
-698.499	-200.000	-0.054	-0.344
-697.485	61.058	0.219	0.220
-696.470	-11.800	-0.218	0.144
-695.456	-30.621	-0.133	-0.076
-694.441	115.784	-0.192	-0.236
-693.426	148.784	0.016	0.022
-692.412	50.122	0.159	0.152
-691.397	191.648	-0.274	0.416
-690.383	172.140	-0.116	-0.168
-689.368	-80.420	0.399	0.134
-688.354	-130.802	-0.282	0.038
-687.339	40.425	-0.173	-0.157
-686.324	800.000	-0.040	0.142
-685.310	476.986	-0.153	-0.350
-684.295	73.426	-0.062	0.066
-683.281	70.438	0.169	-0.177
-682.266	800.000	-0.115	0.423
-681.251	-145.756	-0.133	-0.012
-680.237	-52.752	0.221	0.103
-679.222	-200.000	-0.040	-0.194
-678.208	138.590	-0.168	-0.223
-677.193	70.955	0.241	0.252
-676.178	543.092	0.108	0.261
-675.164	-200.000	0.007	-0.410
-674.149	800.000	0.020	0.061
-673.135	800.000	-0.073	-0.290
-672.120	28.062	-0.114	-0.097
-671.105	287.094	0.102	-0.186
-670.091	-108.242	-0.166	-0.036
-669.076	-200.000	0.007	-0.110
-668.062	-200.000	-0.020	-0.282
-667.047	9.277	-0.172	-0.131
-666.032	-129.062	-0.122	0.017
-665.018	-97.624	0.092	0.024
-664.003	120.936	0.108	-0.135
-662.989	-64.982	-0.089	0.036
-661.974	-200.000	0.063	-0.401
-660.959	151.974	0.053	0.073
-659.945	143.987	-0.129	-0.173
-658.930	-44.863	-0.271	0.136
-657.916	148.952	-0.188	0.256
-656.901	109.457	0.252	-0.304
-655.886	-14.525	0.250	0.162
-654.872	-12.750	-0.249	0.164
-653.857	-41.735	-0.111	-0.058
-652.843	493.511	0.102	-0.235
-651.828	800.000	0.031	-0.121
-650.814	539.012	0.053	0.127
-649.799	-83.635	-0.234	-0.075
-648.784	-122.332	0.139	-0.023
-647.770	-200.000	-0.073	-0.452
-646.755	800.000	0.042	0.151
-645.741	116.762	-0.154	0.191
-644.726	-109.286	-0.541	0.116
-643.711	565.693	-0.046	-0.113
-642.697	800.000	0.045	0.195
-641.682	96.370	-0.028	0.032
-640.668	-163.199	-0.314	-0.015
-639.653	-145.886	-0.594	0.053
-638.638	-145.780	-0.132	-0.012
-637.624	-144.815	-0.253	-0.023
-636.609	53.592	-0.136	-0.131
-635.595	106.859	-0.089	0.107
-634.580	800.000	-0.058	0.236
-633.565	-123.228	0.044	-0.007
-632.551	-105.837	-0.113	-0.026
-631.536	800.000	-0.166	-0.613
-630.522	354.967	-0.055	0.110
-629.507	-11.847	-0.331	0.218
-628.492	-200.000	0.029	0.313
-627.478	-200.000	-0.008	0.063
-626.463	141.683	0.063	0.084
-625.449	-73.071	0.062	-0.023
-624.434	-200.000	-0.020	0.247
-623.419	-72.383	0.034	0.013
-622.405	70.513	-0.062	0.065
-621.390	-116.847	-0.155	0.029
-620.376	-200.000	0.008	-0.161
-619.361	58.615	0.133	0.132
-618.346	-200.000	-0.007	-0.314
-617.332	127.409	-0.084	0.107
-616.317	-31.920	0.129	0.073
-615.303	298.008	-0.190	-0.352
-614.288	-200.000	-0.008	0.094
-613.273	216.008	0.066	0.106
-612.259	-9.252	-0.145	-0.097
-611.244	217.004	-0.066	0.106
-610.230	-200.000	0.026	-0.268
-609.215	-121.500	-0.170	-0.028
-608.201	-28.096	0.142	0.083
-607.186	-35.786	0.153	-0.084
-606.171	-192.168	0.239	-0.002
-605.157	-25.603	0.302	-0.179
-604.142	60.000	0.142	0.141
-603.128	184.278	-0.325	0.484
-602.113	0.737	0.217	0.156
-601.098	-166.185	-0.414	0.018
-600.084	-121.178	-0.181	0.031
-599.069	60.510	-0.146	-0.146
-598.055	-141.670	0.175	0.018
-597.040	-127.546	0.536	0.078
-596.025	195.873	-0.101	-0.154
-595.011	-60.312	-0.220	-0.094
-593.996	206.037	-0.106	0.165
-592.982	55.616	-0.154	-0.149
-591.967	697.662	-0.039	-0.104
-590.952	412.297	0.125	0.266
-589.938	175.701	0.137	-0.200
-588.923	146.189	0.090	-0.121
-587.909	-36.405	-0.127	0.068
-586.894	-132.712	0.295	0.038
-585.879	-105.555	0.170	-0.039
-584.865	-200.000	-0.021	-0.315
-583.850	-67.807	0.169	0.067
-582.836	-200.000	0.021	0.159
-581.821	-34.416	-0.113	-0.062
-580.806	-53.944	-0.255	-0.117
-579.792	-200.000	0.013	-0.278
-578.777	269.054	0.189	0.333
-577.763	-200.000	-0.031	-0.396
-576.748	-200.000	0.037	0.218
-575.733	179.691	-0.239	-0.351
-574.719	310.110	0.065	0.122
-573.704	-200.000	-0.028	-0.199
-572.690	241.198	0.105	-0.176
-571.675	49.752	0.200	-0.189
-570.661	800.000	-0.065	0.218
-569.646	-200.000	0.002	0.117
-568.631	-200.000	0.000	0.069
-567.617	270.695	-0.106	-0.187
-566.602	356.501	-0.276	-0.553
-565.588	-131.921	-0.378	-0.049
-564.573	151.628	0.153	0.209
-563.558	189.472	0.032	-0.048
-562.544	800.000	-0.053	-0.170
-561.529	-200.000	0.041	-0.406
-560.515	30.784	0.363	-0.312
-559.500	-106.763	0.224	0.050
-558.485	800.000	0.026	-0.076
-557.471	-39.000	-0.083	0.044
-556.456	-159.019	0.428	0.024
-555.442	800.000	0.028	0.085
-554.427	76.646	-0.158	-0.168
-553.412	800.000	-0.052	-0.150
-552.398	234.497	-0.214	0.354
-551.383	-93.281	-0.244	0.068
-550.369	-59.518	-0.118	0.051
-549.354	250.848	-0.148	0.252
-548.339	95.429	-0.075	0.085
-547.325	360.717	0.127	-0.254
-546.310	-159.085	-0.089	-0.005
-545.296	-88.184	0.302	-0.091
-544.281	302.724	0.016	0.030
-543.266	-110.141	0.211	-0.044
-542.252	-200.000	-0.006	-0.260
-541.237	800.000	0.077	0.241
-540.223	-61.637	0.238	0.100
-539.208	-200.000	0.018	-0.158
-538.193	529.877	0.124	0.295
-537.179	-200.000	-0.050	0.310
-536.164	-200.000	0.020	-0.164
-535.150	-66.360	0.193	-0.077
-534.135	-52.074	0.332	-0.155
-533.121	-133.959	0.187	-0.023
-532.106	148.973	0.123	-0.166
-531.091	-200.000	0.020	-0.095
-530.077	146.775	-0.059	0.079
-529.062	-200.000	-0.006	0.048
-528.048	51.649	0.212	-0.202
-527.033	-200.000	0.032	-0.500
-526.018	-200.000	-0.003	-0.019
-525.004	-200.000	-0.021	0.326
-523.989	-37.637	-0.221	-0.118
-522.975	-177.652	-0.211	0.005
-521.960	103.776	-0.155	0.183
-520.945	-200.000	0.026	0.302
-519.931	-200.000	0.006	0.116
-518.916	228.245	0.188	0.308
-517.902	-156.741	-0.065	-0.004
-516.887	122.248	-0.020	0.024
-515.872	284.698	-0.109	-0.196
-514.858	800.000	-0.047	-0.207
-513.843	222.585	0.096	0.155
-512.829	-43.531	-0.160	-0.081
-511.814	-23.251	-0.069	-0.042
-510.799	-54.733	-0.315	0.142
-509.785	36.742	0.077	0.068
-508.770	-132.168	-0.222	-0.029
-507.756	800.000	-0.062	-0.197
-506.741	800.000	-0.045	-0.147
-505.726	-117.646	-0.195	-0.035
-504.712	128.744	-0.233	0.297
-503.697	53.828	0.163	-0.157
-502.683	-200.000	-0.008	-0.252
-501.668	29.104	-0.238	-0.202
-500.653	-45.141	-0.266	-0.132
-499.639	-137.071	0.411	0.047
-498.624	261.765	0.087	-0.152
-497.610	-200.000	0.026	-0.238
-496.595	-200.000	0.267	0.001
-495.581	-200.000	-0.010	0.179
-494.566	-56.944	0.247	0.109
-493.551	5.406	-0.301	0.223
-492.537	-166.139	0.421	-0.018
-491.522	-200.000	0.004	-0.021
-490.508	-121.625	-0.146	0.024
-489.493	-200.000	-0.028	-0.142
-488.478	102.674	-0.221	0.259
-487.464	-89.284	-0.351	-0.104
-486.449	150.492	-0.121	-0.164
-485.435	330.034	-0.208	0.401
-484.420	-56.726	-0.160	0.071
-483.405	-200.000	-0.002	-0.298
-482.391	-85.052	0.150	0.047
-481.376	-200.000	-0.006	0.038
-480.362	-200.000	-0.039	0.256
-479.347	-78.866	-0.105	0.036
-478.332	-200.000	0.055	0.309
-477.318	498.435	-0.069	0.160
-476.303	66.779	-0.113	-0.115
-475.289	-74.464	-0.034	-0.012
-474.274	296.904	-0.045	-0.082
-473.259	-2.506	0.216	-0.151
-472.245	-200.000	0.010	0.197
-471.230	-23.468	-0.128	0.077
-470.216	221.699	0.116	0.187
-469.201	800.000	0.123	-0.431
-468.186	-141.519	0.258	0.026
-467.172	28.360	0.112	0.095
-466.157	-200.000	-0.011	0.121
-465.143	-93.613	0.084	-0.023
-464.128	-24.947	-0.081	-0.048
-463.113	-35.172	-0.254	-0.138
-462.099	92.208	-0.100	0.112
-461.084	-116.075	0.341	0.064
-460.070	-110.757	-0.375	-0.077
-459.055	11.763	-0.072	0.055
-458.040	-200.000	-0.066	-0.309
-457.026	776.638	0.014	0.039
-456.011	127.222	0.142	-0.180
-454.997	179.494	-0.193	0.282
-453.982	-200.000	0.004	-0.131
-452.968	-79.486	-0.327	-0.111
-451.953	-12.056	-0.055	0.036
-450.938	-86.316	0.362	-0.111
-449.924	-171.419	-0.145	-0.005
-448.909	-200.000	-0.016	0.263
-447.895	-200.000	0.064	0.491
-446.880	37.268	0.290	-0.256
-445.865	-200.000	0.039	-0.249
-444.851	193.566	0.211	0.319
-443.836	-49.328	-0.324	-0.155
-442.822	-4.409	0.118	-0.082
-441.807	376.346	0.133	0.270
-440.792	81.005	-0.276	-0.297
-439.778	50.855	-0.303	-0.287
-438.763	123.632	-0.049	0.061
-437.749	105.456	0.163	-0.192
-436.734	253.161	0.044	-0.075
-435.719	312.847	-0.064	0.121
-434.705	-153.375	0.391	0.027
-433.690	390.421	-0.032	-0.067
-432.676	-200.000	-0.025	0.265
-431.661	27.448	-0.439	-0.369
-430.646	-200.000	-0.010	-0.213
-429.632	14.131	-0.134	-0.104
-428.617	-72.332	-0.250	0.092
-427.603	-61.645	0.259	0.108
-426.588	174.620	-0.071	-0.103
-425.573	800.000	-0.077	0.272
-424.559	-200.000	0.018	0.257
-423.544	321.188	-0.150	0.284
-422.530	20.781	-0.071	0.057
-421.515	39.958	0.245	0.219
-420.500	-83.541	-0.182	-0.058
-419.486	-3.703	-0.262	0.181
-418.471	-22.081	-0.215	-0.130
-417.457	601.776	0.078	-0.192
-416.442	-200.000	-0.055	0.256
-415.428	-27.340	0.191	-0.111
-414.413	-110.634	-0.290	0.060
-413.398	256.457	0.165	0.282
-412.384	231.120	-0.021	-0.034
-411.369	102.278	-0.046	0.053
-410.355	-50.653	-0.285	0.134
-409.340	800.000	0.032	-0.117
-408.325	-119.671	0.140	0.024
-407.311	233.529	0.148	-0.244
-406.296	91.664	0.142	-0.159
-405.282	-200.000	0.023	0.103
-404.267	-96.679	0.131	0.034
-403.252	-63.663	0.088	-0.036
-402.238	-200.000	-0.042	-0.212
-401.223	800.000	0.091	-0.279
-400.209	-200.000	0.043	-0.280
-399.194	-200.000	-0.021	0.501
-398.179	21.035	0.204	-0.165
-397.165	-93.023	0.304	0.085
-396.150	93.469	-0.157	0.177
-395.136	-200.000	0.009	-0.074
-394.121	-85.355	0.030	-0.009
-393.106	-200.000	0.036	-0.284
-392.092	-125.464	0.434	-0.066
-391.077	-66.944	0.295	-0.116
-390.063	-32.246	0.087	0.049
-389.048	53.022	0.313	0.298
-388.033	-42.988	0.102	0.051
-387.019	37.111	-0.223	-0.196
-386.004	-71.977	-0.261	0.097
-384.990	-200.000	0.039	0.341
-383.975	42.325	0.139	0.126
-382.960	-149.012	0.273	0.022
-381.946	61.646	-0.297	0.294
-380.931	-38.279	0.143	-0.076
-379.917	293.454	0.182	-0.331
-378.902	-69.164	0.318	-0.122
-377.888	-5.754	0.095	-0.065
-376.873	68.899	0.287	-0.294
-375.858	25.589	0.061	-0.051
-374.844	-79.112	-0.183	0.062
-373.829	-74.205	-0.096	-0.035
-372.815	-1.091	-0.126	-0.089
-371.800	267.780	0.050	-0.086
-370.785	-200.000	0.010	0.054
-369.771	19.683	0.224	-0.179
-368.756	800.000	-0.041	0.117
-367.742	-200.000	0.220	-0.001
-366.727	6.549	0.074	0.055
-365.712	11.178	0.075	0.057
-364.698	800.000	-0.036	-0.127
-363.683	-200.000	-0.054	0.325
-362.669	203.010	-0.287	-0.441
-361.654	2.175	-0.169	0.122
-360.639	-166.094	-0.212	0.009
-359.625	-200.000	0.018	-0.122
-358.610	800.000	-0.133	0.493
-357.596	32.489	0.141	-0.121
-356.581	446.399	-0.170	-0.371
-355.566	-200.000	-0.033	-0.165
-354.552	78.723	0.223	-0.238
-353.537	522.554	-0.136	0.319
-352.523	283.743	-0.048	-0.085
-351.508	-64.187	0.354	0.144
-350.493	433.724	0.066	-0.143
-349.479	17.406	-0.210	0.166
-348.464	91.321	0.113	0.126
-347.450	462.474	0.108	-0.240
-346.435	-148.181	0.134	0.011
-345.420	416.634	-0.174	0.370
-344.406	-200.000	-0.025	-0.228
-343.391	642.842	-0.157	0.397
-342.377	800.000	-0.019	0.064
-341.362	-157.887	0.234	0.014
-340.348	-200.000	0.023	-0.103
-339.333	800.000	0.059	0.242
-338.318	-85.151	0.219	0.068
-337.304	-12.640	-0.124	0.081
-336.289	-16.029	-0.249	-0.157
-335.275	-200.000	0.009	-0.092
-334.260	369.794	-0.065	-0.132
-333.245	800.000	-0.070	-0.277
-332.231	441.017	0.063	0.136
-331.216	152.643	-0.021	0.029
-330.202	800.000	-0.085	0.268
-329.187	23.466	0.220	-0.180
-328.172	313.077	-0.106	-0.199
-327.158	-127.753	0.380	0.055
-326.143	-79.866	-0.343	-0.115
-325.129	-200.000	0.003	-0.431
-324.114	-107.876	0.234	0.051
-323.099	261.519	0.137	-0.235
-322.085	188.222	0.204	-0.303
-321.070	-24.307	-0.165	-0.098
-320.056	-50.110	0.096	0.045
-319.041	391.651	-0.240	0.495
-318.026	-109.373	0.039	0.008
-317.012	-200.000	-0.030	-0.145
-315.997	4.210	0.156	0.113
-314.983	-3.099	-0.135	-0.094
-313.968	-64.369	-0.260	-0.105
-312.953	-114.521	0.168	-0.032
-311.939	-87.296	0.351	0.106
-310.924	448.450	-0.211	0.462
-309.910	800.000	0.074	0.289
-308.895	-92.871	0.112	0.031
-307.880	-162.894	0.161	-0.008
-306.866	789.330	-0.059	-0.162
-305.851	-65.316	0.191	-0.076
-304.837	800.000	-0.031	0.097
-303.822	110.104	0.310	0.370
-302.807	-200.000	-0.063	0.320
-301.793	758.346	0.027	-0.073
-300.778	-38.952	-0.133	-0.070
-299.764	-169.600	-0.310	0.011
-298.749	461.108	-0.103	-0.228
-297.735	112.595	-0.210	0.253
-296.720	-113.358	-0.048	0.009
-295.705	-151.112	0.051	-0.004
-294.691	206.575	-0.093	0.145
-293.676	147.465	0.065	0.087
-292.662	21.338	0.201	-0.163
-291.647	800.000	0.150	0.537
-290.632	-88.773	0.135	-0.040
-289.618	-107.388	-0.133	0.029
-288.603	64.894	0.078	-0.079
-287.589	-200.000	-0.043	-0.252
-286.574	-72.143	0.487	0.179
-285.559	-69.899	0.468	0.177
-284.545	48.851	-0.298	0.277
-283.530	-65.820	-0.242	-0.096
-282.516	-161.420	0.382	0.020
-281.501	28.232	0.202	-0.170
-280.486	413.005	-0.103	-0.218
-279.472	-16.982	-0.370	-0.232
-278.457	362.836	-0.045	0.090
-277.443	262.675	-0.087	0.150
-276.428	-200.000	0.049	0.268
-275.413	-200.000	-0.023	-0.173
-274.399	-66.581	-0.111	0.044
-273.384	-200.000	0.057	0.391
-272.370	177.515	0.204	-0.295
-271.355	326.875	-0.087	-0.166
-270.340	-200.000	-0.037	0.327
-269.326	5.377	-0.082	0.060
-268.311	800.000	-0.048	0.196
-267.297	-68.826	-0.172	0.066
-266.282	216.241	0.096	-0.151
-265.267	124.104	-0.170	-0.211
-264.253	-145.687	0.047	0.004
-263.238	-200.000	0.054	-0.498
-262.224	309.954	0.032	0.060
-261.209	242.090	-0.185	0.307
-260.195	565.393	0.068	-0.163
-259.180	-10.754	-0.099	-0.065
-258.165	-53.934	-0.165	0.074
-257.151	95.018	-0.162	-0.183
-256.136	-128.156	-0.132	0.019
-255.122	-60.157	0.070	-0.030
-254.107	-167.924	0.068	0.003
-253.092	199.919	-0.246	-0.375
-252.078	-200.000	-0.017	-0.210
-251.063	800.000	0.090	-0.253
-250.049	23.378	0.132	-0.108
-249.034	81.189	0.087	-0.094
-248.019	-111.740	0.200	0.040
-247.005	-72.137	0.494	-0.182
-245.990	58.641	0.095	0.092
-244.976	800.000	-0.056	0.224
-243.961	-200.000	0.019	-0.143
-242.946	18.330	0.090	-0.071
-241.932	-141.130	0.486	0.049
-240.917	83.362	0.130	0.140
-239.903	-177.918	0.300	0.007
-238.888	377.041	0.186	-0.376
-237.873	800.000	-0.025	0.078
-236.859	748.625	0.065	0.172
-235.844	-200.000	-0.011	0.125
-234.830	68.729	0.033	0.034
-233.815	71.602	0.216	0.223
-232.800	265.514	-0.187	0.324
-231.786	-49.502	-0.290	0.137
-230.771	800.000	0.068	-0.199
-229.757	234.128	-0.184	-0.301
-228.742	-131.612	-0.293	-0.038
-227.727	-200.000	0.034	-0.340
-226.713	-78.105	-0.123	-0.042
-225.698	100.222	-0.175	-0.201
-224.684	800.000	-0.003	-0.014
-223.669	-110.291	0.209	0.043
-222.655	-200.000	-0.066	0.368
-221.640	-200.000	-0.003	0.129
-220.625	-121.836	0.204	-0.033
-219.611	42.168	0.241	0.217
-218.596	164.125	-0.080	-0.111
-217.582	-105.565	0.226	0.051
-216.567	-93.312	-0.046	0.013
-215.552	-200.000	-0.007	0.109
-214.538	488.354	0.086	-0.195
-213.523	800.000	0.034	0.114
-212.509	252.978	0.196	-0.331
-211.494	606.095	0.124	-0.307
-210.479	-180.821	0.461	-0.009
-209.465	-200.000	-0.022	0.110
-208.450	321.260	0.045	0.085
-207.436	-120.502	-0.189	0.032
-206.421	800.000	-0.023	0.079
-205.406	-2.786	-0.075	-0.052
-204.392	-47.595	0.452	-0.217
-203.377	-115.813	0.082	0.015
-202.363	-200.000	-0.004	0.262
-201.348	-136.277	-0.315	-0.036
-200.333	-200.000	-0.071	-0.377
-199.319	21.651	-0.197	0.158
-198.304	800.000	-0.060	0.185
-197.290	-36.764	0.451	-0.240
-196.275	87.317	-0.108	-0.119
-195.260	1.147	0.174	-0.124
-194.246	800.000	0.030	-0.088
-193.231	-79.858	-0.344	0.115
-192.217	118.863	-0.241	0.295
-191.202	-20.725	0.147	-0.089
-190.187	800.000	0.089	0.369
-189.173	-14.335	-0.167	0.107
-188.158	48.805	0.083	0.077
-187.144	67.893	0.217	0.219
-186.129	-200.000	0.013	0.395
-185.114	-200.000	0.001	0.154
-184.100	-16.512	0.096	-0.060
-183.085	-200.000	0.023	-0.162
-182.071	-76.102	0.383	-0.134
-181.056	-200.000	0.014	0.221
-180.042	-200.000	-0.029	0.232
-179.027	-89.256	-0.251	-0.073
-178.012	15.132	-0.262	-0.203
-176.998	-114.445	0.300	0.057
-175.983	800.000	0.053	-0.218
-174.969	-139.856	-0.401	0.042
-173.954	-111.669	-0.060	0.012
-172.939	105.067	0.123	-0.144
-171.925	71.605	-0.306	0.315
-170.910	-193.223	0.185	0.002
-169.896	-161.904	-0.179	-0.009
-168.881	-82.636	0.182	0.058
-167.866	317.186	-0.131	0.244
-166.852	-94.610	-0.102	-0.027
-165.837	-146.645	0.240	-0.021
-164.823	176.568	-0.170	0.244
-163.808	241.904	-0.051	-0.085
-162.793	38.071	-0.062	-0.054
-161.779	800.000	-0.151	0.413
-160.764	-200.000	-0.006	-0.125
-159.750	-200.000	0.055	0.264
-158.735	-139.287	-0.077	-0.008
-157.720	-167.372	-0.469	-0.019
-156.706	-200.000	0.007	-0.096
-155.691	207.911	-0.095	0.147
-154.677	-116.337	-0.209	-0.038
-153.662	-200.000	-0.021	-0.108
-152.647	-107.203	0.084	-0.018
-151.633	285.061	0.150	0.267
-150.618	-200.000	-0.036	0.383
-149.604	-102.320	0.234	-0.055
-148.589	347.300	0.104	-0.202
-147.574	80.317	0.108	-0.115
-146.560	-144.343	0.120	-0.011
-145.545	-200.000	-0.000	0.154
-144.531	-88.473	0.075	-0.022
-143.516	7.141	-0.357	-0.263
-142.502	-108.922	0.221	-0.047
-141.487	-108.437	-0.194	0.041
-140.472	115.000	-0.031	0.037
-139.458	-110.227	-0.144	0.030
-138.443	800.000	-0.038	-0.108
-137.429	12.387	0.118	-0.090
-136.414	800.000	0.062	-0.227
-135.399	56.859	0.024	0.023
-134.385	-116.872	-0.276	-0.050
-133.370	-44.712	-0.149	-0.074
-132.356	-92.299	0.357	-0.099
-131.341	-21.806	0.162	-0.097
-130.326	-137.830	0.159	-0.018
-129.312	800.000	-0.055	0.209
-128.297	52.004	-0.063	-0.059
-127.283	-128.567	0.346	-0.048
-126.268	-148.074	0.158	0.013
-125.253	800.000	-0.042	0.179
-124.239	800.000	-0.070	0.299
-123.224	-52.078	0.170	0.078
-122.210	178.688	-0.104	0.150
