DTS Sentinel unit serial number:	SN413079Multiplexer serial number:	ORYXHardware model number:	OX4-SRSoftware version number:	ORYX F/W v4.00 Oryx Data Collector v3.7.2.0data status	okinstallation	princeton_trtdifferential loss correction	single-endedforward channel	channel 2reverse channel	N/Adate	2019/09/10time	18:49:10forward acquisition time	60.00reverse acquisition time	0.00gamma	496.2192k internal	0.2323k external	0.2323temperature offset calibration	0.9936default loss term (dB/km)	0.3790temperature slope calibration	1.0000multiplexer offset coefficient	1.0000multiplexer slope coefficient	1.0000fibre end	0.00T internal ref (°C)	35.03T ext. ref 1 (°C)	-0.37T ext. ref 2 (°C)	27.06length (m)	temperature (°C)	Stokes	anti-Stokes-747.200	-8.462	0.146	-0.099
-746.185	57.738	0.198	0.196
-745.171	800.000	0.075	0.227
-744.156	596.119	-0.024	0.060
-743.142	3.316	0.196	0.144
-742.127	-43.398	0.220	-0.112
-741.112	800.000	-0.037	-0.152
-740.098	-72.554	-0.152	-0.057
-739.083	-40.878	-0.154	0.081
-738.069	-200.000	0.063	0.339
-737.054	116.376	0.063	0.077
-736.039	-101.791	-0.313	0.076
-735.025	621.293	0.114	0.290
-734.010	49.548	0.126	0.120
-732.996	145.509	-0.255	-0.345
-731.981	254.892	0.019	0.033
-730.966	178.335	-0.172	-0.253
-729.952	800.000	-0.086	0.277
-728.937	81.130	0.125	-0.136
-727.923	679.661	0.044	-0.116
-726.908	800.000	-0.062	-0.210
-725.894	-22.512	-0.356	-0.217
-724.879	168.263	0.107	-0.153
-723.864	43.759	-0.172	0.159
-722.850	-154.508	0.462	-0.031
-721.835	622.384	0.117	-0.296
-720.821	2.365	0.173	-0.126
-719.806	31.461	-0.212	-0.184
-718.791	353.692	-0.119	0.239
-717.777	-111.197	-0.045	-0.009
-716.762	277.537	-0.166	-0.298
-715.748	-200.000	0.037	-0.260
-714.733	87.911	0.223	-0.249
-713.718	-51.163	-0.265	-0.125
-712.704	168.285	-0.221	0.318
-711.689	800.000	-0.068	-0.194
-710.675	-77.147	0.143	0.050
-709.660	-127.030	-0.108	-0.016
-708.645	477.489	-0.200	-0.456
-707.631	-200.000	-0.054	-0.442
-706.616	-200.000	-0.063	0.331
-705.602	-139.832	-0.088	0.009
-704.587	-200.000	-0.238	0.000
-703.572	-65.425	0.136	-0.055
-702.558	18.847	-0.210	0.170
-701.543	-200.000	0.054	0.321
-700.529	-51.388	-0.211	0.099
-699.514	33.948	0.181	-0.159
-698.499	-141.252	0.164	-0.017
-697.485	800.000	0.039	0.110
-696.470	800.000	0.091	-0.356
-695.456	-200.000	-0.009	0.166
-694.441	35.331	0.147	-0.130
-693.426	105.947	0.087	0.104
-692.412	-200.000	0.022	-0.122
-691.397	584.163	-0.083	-0.205
-690.383	67.302	-0.268	-0.276
-689.368	126.399	0.190	-0.243
-688.354	521.661	0.114	-0.270
-687.339	-128.286	-0.172	-0.025
-686.324	-23.631	-0.188	0.114
-685.310	16.653	0.075	-0.060
-684.295	122.498	-0.119	0.150
-683.281	0.222	-0.081	0.058
-682.266	-200.000	-0.068	0.489
-681.251	-94.817	-0.359	0.098
-680.237	-77.593	-0.225	-0.079
-679.222	100.858	0.166	-0.194
-678.208	132.509	-0.128	-0.166
-677.193	198.846	0.126	-0.195
-676.178	130.543	-0.042	0.055
-675.164	-57.797	-0.248	-0.109
-674.149	-200.000	0.406	0.000
-673.135	-139.766	-0.231	-0.025
-672.120	-105.033	-0.392	-0.090
-671.105	84.104	0.136	0.149
-670.091	800.000	-0.060	-0.241
-669.076	24.878	0.091	-0.076
-668.062	-130.111	-0.195	0.027
-667.047	-200.000	-0.061	-0.341
-666.032	-200.000	-0.009	0.077
-665.018	-57.941	0.155	0.068
-664.003	-60.008	-0.172	0.074
-662.989	-200.000	-0.017	0.134
-661.974	800.000	0.005	-0.014
-660.959	28.814	-0.312	-0.266
-659.945	231.120	0.103	-0.170
-658.930	-156.510	-0.475	0.030
-657.916	-51.614	0.139	0.065
-656.901	-200.000	0.040	-0.178
-655.886	131.493	-0.190	-0.246
-654.872	270.000	0.156	-0.276
-653.857	-200.000	0.024	-0.244
-652.843	599.432	-0.057	-0.142
-651.828	330.269	-0.053	0.103
-650.814	302.288	-0.022	0.041
-649.799	154.983	-0.135	-0.187
-648.784	-103.659	0.331	-0.078
-647.770	800.000	0.073	0.220
-646.755	800.000	-0.067	0.281
-645.741	800.000	0.067	-0.219
-644.726	800.000	-0.079	-0.248
-643.711	84.551	0.095	-0.105
-642.697	18.352	0.068	0.055
-641.682	-90.149	-0.052	0.015
-640.668	-200.000	-0.016	-0.369
-639.653	-86.375	0.081	0.025
-638.638	79.490	0.116	0.125
-637.624	101.829	0.080	-0.094
-636.609	386.381	-0.087	0.181
-635.595	-155.201	-0.114	-0.007
-634.580	800.000	0.078	-0.241
-633.565	-26.049	0.054	-0.032
-632.551	37.943	-0.113	0.101
-631.536	483.121	0.048	-0.111
-630.522	-200.000	-0.013	-0.222
-629.507	-99.418	0.194	0.049
-628.492	800.000	-0.005	0.015
-627.478	117.322	-0.158	-0.196
-626.463	-30.704	0.051	0.029
-625.449	-200.000	0.000	-0.113
-624.434	47.050	0.204	0.191
-623.419	35.588	-0.182	-0.161
-622.405	-90.484	-0.142	-0.041
-621.390	-200.000	-0.015	-0.278
-620.376	-23.403	0.195	0.118
-619.361	-95.159	-0.208	-0.056
-618.346	88.914	0.069	0.077
-617.332	-143.130	-0.253	-0.025
-616.317	303.813	-0.063	-0.117
-615.303	514.241	-0.067	0.157
-614.288	-49.517	0.342	-0.164
-613.273	-175.963	0.176	0.005
-612.259	458.437	-0.013	0.029
-611.244	-44.961	0.369	0.184
-610.230	76.849	0.097	-0.104
-609.215	-59.551	-0.307	0.132
-608.201	-29.332	-0.042	0.024
-607.186	-40.566	0.414	0.216
-606.171	-20.802	0.151	-0.093
-605.157	800.000	0.119	-0.413
-604.142	9.020	-0.188	-0.142
-603.128	-13.697	-0.357	-0.232
-602.113	-90.075	-0.291	0.085
-601.098	800.000	-0.074	-0.262
-600.084	-200.000	-0.020	0.125
-599.069	-200.000	0.025	0.350
-598.055	-200.000	0.025	-0.160
-597.040	-107.419	0.306	-0.068
-596.025	-94.645	-0.102	0.028
-595.011	-200.000	-0.058	0.352
-593.996	-200.000	0.000	0.046
-592.982	-128.054	0.100	-0.014
-591.967	151.087	-0.176	-0.240
-590.952	167.358	-0.166	0.236
-589.938	274.637	0.057	0.101
-588.923	-200.000	-0.009	0.048
-587.909	14.132	-0.052	0.041
-586.894	-200.000	0.003	0.428
-585.879	-126.517	-0.177	-0.026
-584.865	800.000	0.063	0.266
-583.850	301.087	0.064	-0.118
-582.836	800.000	-0.020	0.088
-581.821	1.516	-0.352	-0.254
-580.806	-200.000	0.040	-0.350
-579.792	-192.557	0.089	0.001
-578.777	-180.538	-0.148	0.003
-577.763	567.828	-0.063	-0.153
-576.748	-200.000	-0.009	0.244
-575.733	176.224	-0.020	-0.030
-574.719	-40.365	0.094	-0.049
-573.704	115.476	0.092	-0.113
-572.690	800.000	-0.077	-0.276
-571.675	-12.733	0.187	-0.122
-570.661	352.996	-0.157	-0.312
-569.646	23.069	-0.236	0.194
-568.631	-159.534	0.265	0.015
-567.617	33.972	-0.152	-0.133
-566.602	24.000	0.098	0.081
-565.588	35.961	0.072	-0.064
-564.573	220.876	-0.154	0.247
-563.558	-66.050	0.449	0.180
-562.544	-80.713	0.232	0.077
-561.529	-136.130	-0.129	0.015
-560.515	90.077	0.253	0.284
-559.500	30.361	0.257	0.220
-558.485	-200.000	-0.041	-0.349
-557.471	35.838	-0.184	-0.162
-556.456	-200.000	-0.056	0.312
-555.442	420.845	0.092	0.197
-554.427	449.855	0.113	-0.250
-553.412	329.423	-0.045	0.086
-552.398	-200.000	0.028	-0.453
-551.383	-20.929	-0.104	-0.064
-550.369	54.357	-0.308	-0.297
-549.354	50.160	-0.168	0.159
-548.339	-200.000	-0.024	0.316
-547.325	37.798	-0.204	-0.182
-546.310	-97.869	-0.308	-0.080
-545.296	-109.167	0.140	0.030
-544.281	-12.554	-0.215	-0.140
-543.266	319.933	-0.057	0.109
-542.252	-200.000	-0.028	-0.132
-541.237	2.684	-0.254	0.185
-540.223	-8.786	-0.338	0.227
-539.208	500.999	-0.079	-0.183
-538.193	114.897	0.068	0.083
-537.179	800.000	-0.068	-0.243
-536.164	-200.000	-0.082	0.379
-535.150	-200.000	-0.037	0.290
-534.135	66.870	-0.142	0.145
-533.121	104.964	-0.209	-0.246
-532.106	800.000	0.062	0.215
-531.091	-200.000	-0.016	0.239
-530.077	-200.000	0.007	-0.036
-529.062	-31.342	0.180	-0.102
-528.048	124.979	-0.210	-0.265
-527.033	-193.483	0.250	0.002
-526.018	-108.689	0.471	0.101
-525.004	-49.642	-0.231	-0.110
-523.989	280.246	-0.202	-0.362
-522.975	98.578	0.126	-0.146
-521.960	78.387	-0.166	-0.178
-520.945	-53.354	0.101	-0.046
-519.931	114.213	0.145	-0.176
-518.916	254.295	0.259	-0.443
-517.902	-40.078	0.159	0.083
-516.887	-200.000	-0.018	-0.096
-515.872	235.073	-0.121	0.200
-514.858	734.403	0.071	0.190
-513.843	14.207	0.237	-0.185
-512.829	800.000	-0.064	0.241
-511.814	-200.000	-0.001	-0.087
-510.799	-64.977	0.098	0.040
-509.785	-20.314	-0.171	0.105
-508.770	-79.522	-0.017	0.006
-507.756	800.000	0.043	0.177
-506.741	-165.140	0.169	-0.007
-505.726	-152.949	-0.461	-0.033
-504.712	-95.383	0.207	0.056
-503.697	154.692	0.194	-0.267
-502.683	-49.191	0.175	0.084
-501.668	-122.500	-0.376	0.061
-500.653	227.739	0.081	-0.132
-499.639	-126.064	0.422	-0.063
-498.624	420.003	-0.125	-0.268
-497.610	78.269	-0.050	-0.053
-496.595	-200.000	0.037	-0.266
-495.581	-104.912	0.199	0.046
-494.566	800.000	-0.024	0.076
-493.551	-51.427	-0.062	0.029
-492.537	-94.552	0.146	0.040
-491.522	113.531	0.110	0.134
-490.508	127.878	0.259	0.330
-489.493	-52.782	-0.471	-0.217
-488.478	9.785	-0.096	0.072
-487.464	178.461	-0.110	-0.160
-486.449	-82.491	-0.287	-0.093
-485.435	29.175	0.114	0.096
-484.420	599.414	-0.087	0.217
-483.405	-13.136	0.145	-0.094
-482.391	-159.104	-0.214	-0.012
-481.376	210.415	-0.142	-0.222
-480.362	-143.904	0.224	0.021
-479.347	-22.639	-0.023	-0.014
-478.332	147.465	-0.062	0.083
-477.318	-106.581	0.182	0.040
-476.303	-153.437	0.270	-0.019
-475.289	-200.000	-0.024	0.167
-474.274	-126.558	-0.267	0.040
-473.259	-200.000	-0.059	-0.481
-472.245	-90.064	0.075	0.022
-471.230	-108.286	0.364	-0.079
-470.216	57.966	-0.352	0.344
-469.201	537.009	0.143	0.339
-468.186	-46.531	-0.053	0.026
-467.172	-200.000	-0.013	-0.081
-466.157	800.000	0.047	-0.156
-465.143	-148.769	-0.331	0.027
-464.128	-54.343	0.243	0.110
-463.113	-200.000	-0.003	-0.075
-462.099	-95.971	0.131	0.035
-461.084	-110.652	0.072	0.015
-460.070	800.000	0.041	0.146
-459.055	180.306	-0.099	-0.146
-458.040	-64.982	-0.233	-0.094
-457.026	793.851	0.123	0.339
-456.011	-29.438	-0.202	-0.115
-454.997	749.990	-0.119	-0.320
-453.982	-200.000	-0.039	0.192
-452.968	800.000	0.115	0.375
-451.953	-60.370	-0.154	0.065
-450.938	-74.608	0.079	0.028
-449.924	-99.432	0.072	-0.018
-448.909	-55.414	-0.113	0.051
-447.895	-10.033	-0.258	-0.171
-446.880	125.499	-0.109	0.137
-445.865	-120.003	0.417	0.071
-444.851	-145.369	-0.236	-0.021
-443.836	-80.758	-0.210	-0.070
-442.822	800.000	-0.067	-0.232
-441.807	24.595	-0.286	-0.236
-440.792	-68.665	-0.308	-0.119
-439.778	-82.869	0.174	0.056
-438.763	-69.216	-0.146	0.056
-437.749	-50.552	0.207	-0.097
-436.734	800.000	0.010	0.033
-435.719	-200.000	0.008	0.223
-434.705	65.301	-0.245	0.247
-433.690	-60.025	0.314	-0.134
-432.676	22.235	-0.271	0.221
-431.661	-107.184	-0.034	-0.007
-430.646	-137.503	-0.060	-0.007
-429.632	-26.872	-0.174	-0.101
-428.617	37.165	-0.259	0.229
-427.603	491.724	0.154	0.352
-426.588	2.534	-0.412	-0.297
-425.573	-45.019	-0.155	-0.077
-424.559	-86.557	0.068	0.021
-423.544	54.915	-0.070	0.068
-422.530	-138.381	-0.250	0.028
-421.515	43.755	0.051	0.047
-420.500	302.613	0.100	-0.184
-419.486	800.000	-0.112	-0.393
-418.471	200.439	0.158	-0.243
-417.457	-158.521	0.171	-0.010
-416.442	800.000	-0.092	-0.296
-415.428	260.719	0.075	0.129
-414.413	-114.954	0.125	0.024
-413.398	-123.268	0.083	-0.013
-412.384	3.487	0.201	0.146
-411.369	-200.000	0.031	-0.218
-410.355	-129.674	-0.075	0.010
-409.340	-200.000	-0.017	0.112
-408.325	800.000	0.079	-0.236
-407.311	282.520	-0.050	0.089
-406.296	257.965	-0.177	0.303
-405.282	11.503	0.101	-0.077
-404.267	-139.695	-0.167	0.018
-403.252	-200.000	0.053	-0.475
-402.238	800.000	-0.071	0.265
-401.223	-28.455	-0.215	-0.124
-400.209	143.094	-0.108	0.143
-399.194	184.190	0.175	0.258
-398.179	116.218	0.215	-0.262
-397.165	646.634	-0.205	-0.523
-396.150	-56.348	-0.232	-0.103
-395.136	-5.070	-0.181	-0.124
-394.121	-139.370	-0.214	-0.023
-393.106	-200.000	-0.043	0.236
-392.092	-35.864	0.186	-0.100
-391.077	-136.420	-0.239	-0.028
-390.063	647.439	-0.044	-0.112
-389.048	364.504	0.035	0.070
-388.033	70.559	-0.212	0.218
-387.019	-18.625	-0.078	0.048
-386.004	135.981	-0.143	0.185
-384.990	27.516	-0.184	0.154
-383.975	252.496	0.127	0.215
-382.960	21.108	0.223	0.181
-381.946	-166.116	-0.367	0.016
-380.931	-154.045	0.099	-0.007
-379.917	145.540	-0.118	0.158
-378.902	162.950	-0.025	-0.034
-377.888	-187.460	0.149	-0.002
-376.873	146.203	0.305	0.407
-375.858	45.386	0.146	0.134
-374.844	-83.365	0.118	-0.038
-373.829	582.318	0.122	0.297
-372.815	-97.639	-0.377	0.097
-371.800	-75.631	-0.108	0.038
-370.785	-64.037	-0.099	-0.040
-369.771	146.393	-0.144	0.192
-368.756	-89.286	0.229	-0.067
-367.742	384.749	-0.111	-0.228
-366.727	716.539	-0.074	-0.197
-365.712	82.201	0.067	-0.073
-364.698	-0.639	-0.113	-0.080
-363.683	516.925	-0.092	-0.215
-362.669	800.000	0.082	-0.326
-361.654	-110.698	-0.066	-0.014
-360.639	-200.000	0.000	-0.109
-359.625	652.658	-0.158	0.402
-358.610	10.762	0.036	0.028
-357.596	671.080	0.057	0.148
-356.581	121.174	-0.161	0.200
-355.566	800.000	0.050	0.218
-354.552	-20.802	0.274	-0.167
-353.537	57.499	0.078	0.076
-352.523	68.518	-0.063	0.064
-351.508	-200.000	-0.016	0.171
-350.493	-123.571	0.290	0.046
-349.479	116.468	-0.209	-0.255
-348.464	257.031	-0.043	-0.074
-347.450	800.000	-0.068	-0.191
-346.435	83.294	0.157	0.170
-345.420	199.997	0.072	0.110
-344.406	-200.000	-0.056	0.264
-343.391	271.424	-0.023	0.040
-342.377	130.143	-0.383	-0.487
-341.362	-200.000	-0.053	-0.376
-340.348	-17.734	0.045	-0.028
-339.333	-200.000	0.027	-0.276
-338.318	-200.000	-0.031	-0.373
-337.304	-74.645	-0.103	-0.037
-336.289	-109.545	-0.442	0.093
-335.275	152.235	0.180	-0.244
-334.260	73.688	0.177	-0.185
-333.245	53.173	0.296	-0.282
-332.231	440.268	-0.073	0.158
-331.216	-79.479	0.182	0.061
-330.202	-117.681	-0.232	-0.041
-329.187	800.000	-0.056	-0.164
-328.172	69.465	0.166	0.170
-327.158	-12.190	-0.228	-0.148
-326.143	41.145	0.243	0.218
-325.129	-95.987	0.115	0.030
-324.114	0.675	-0.179	0.127
-323.099	800.000	0.033	0.110
-322.085	87.414	0.172	0.189
-321.070	65.684	0.050	0.051
-320.056	-115.920	-0.136	0.025
-319.041	-200.000	-0.090	-0.392
-318.026	198.349	0.045	0.069
-317.012	800.000	-0.115	0.404
-315.997	800.000	0.099	0.342
-314.983	-200.000	0.015	0.096
-313.968	-2.547	0.203	0.141
-312.953	-83.929	0.007	0.002
-311.939	534.426	-0.057	0.133
-310.924	800.000	0.058	0.167
-309.910	2.424	0.222	0.159
-308.895	153.014	0.255	0.347
-307.880	-107.277	0.118	-0.026
-306.866	-93.503	-0.244	-0.067
-305.851	-71.074	-0.160	0.060
-304.837	80.563	0.218	0.233
-303.822	800.000	-0.058	-0.174
-302.807	800.000	0.081	0.278
-301.793	108.712	0.127	0.150
-300.778	800.000	-0.021	0.086
-299.764	179.590	-0.020	0.029
-298.749	-69.449	0.098	-0.037
-297.735	477.776	0.097	0.217
-296.720	-61.849	0.223	-0.093
-295.705	432.468	0.043	0.092
-294.691	-200.000	-0.050	-0.350
-293.676	189.999	0.092	0.137
-292.662	295.684	0.042	-0.076
-291.647	-188.215	0.089	0.001
-290.632	-124.588	0.078	0.012
-289.618	800.000	-0.088	0.256
-288.603	800.000	-0.019	0.063
-287.589	-23.023	0.272	-0.163
-286.574	131.167	-0.241	-0.307
-285.559	-200.000	0.009	-0.119
-284.545	-200.000	-0.084	0.538
-283.530	800.000	-0.032	0.117
-282.516	238.799	0.059	-0.097
-281.501	112.123	-0.175	-0.210
-280.486	-7.856	0.226	0.151
-279.472	-123.803	-0.473	0.074
-278.457	108.082	-0.344	-0.407
-277.443	121.754	-0.193	0.239
-276.428	-3.385	0.162	0.112
-275.413	-119.393	0.173	0.030
-274.399	26.299	0.203	0.168
-273.384	224.275	0.022	0.036
-272.370	-111.405	-0.207	0.042
-271.355	107.128	0.130	-0.154
-270.340	-200.000	-0.017	0.076
-269.326	88.063	0.181	0.199
-268.311	800.000	-0.069	-0.255
-267.297	-200.000	0.029	0.238
-266.282	66.636	-0.086	-0.087
-265.267	-173.470	0.354	-0.011
-264.253	245.654	0.106	-0.178
-263.238	800.000	0.039	0.121
-262.224	-200.000	0.000	0.055
-261.209	-98.686	-0.354	0.089
-260.195	93.253	-0.207	-0.232
-259.180	129.952	0.139	0.177
-258.165	-159.332	-0.287	-0.016
-257.151	411.950	0.168	0.353
-256.136	-123.631	0.133	-0.021
-255.122	-45.660	-0.075	0.037
-254.107	136.650	0.137	-0.178
-253.092	42.400	0.150	-0.135
-252.078	9.045	-0.134	-0.100
-251.063	-200.000	-0.054	-0.444
-250.049	-181.012	-0.092	-0.002
-249.034	204.901	0.148	-0.228
-248.019	-200.000	0.001	-0.023
-247.005	718.088	-0.094	-0.249
-245.990	-61.213	0.182	0.076
-244.976	800.000	0.093	-0.269
-243.961	85.592	0.085	-0.093
-242.946	-68.849	-0.212	-0.081
-241.932	800.000	0.025	0.077
-240.917	-82.820	-0.330	-0.105
-239.903	-84.377	0.227	-0.071
-238.888	-200.000	0.004	0.076
-237.873	337.246	0.097	0.186
-236.859	-111.243	0.172	-0.035
-235.844	55.965	0.135	0.129
-234.830	800.000	-0.072	-0.235
-233.815	-96.539	0.227	-0.059
-232.800	-99.021	0.286	0.072
-231.786	-6.936	-0.033	0.022
-230.771	70.188	-0.201	-0.206
-229.757	-200.000	-0.027	0.326
-228.742	88.726	-0.262	-0.289
-227.727	409.010	-0.088	-0.183
-226.713	-1.166	0.054	-0.037
-225.698	-167.072	-0.174	-0.007
-224.684	302.083	-0.059	0.108
-223.669	-90.272	0.076	-0.022
-222.655	-21.637	0.322	0.194
-221.640	28.262	0.125	0.105
-220.625	-150.576	0.169	-0.013
-219.611	-139.328	0.321	-0.034
-218.596	90.548	0.119	0.132
-217.582	174.589	0.137	-0.195
-216.567	-44.833	0.453	-0.224
-215.552	-176.779	0.409	-0.010
-214.538	-9.768	0.067	0.044
-213.523	-200.000	-0.049	-0.213
-212.509	-35.541	0.097	0.052
-211.494	-200.000	-0.027	-0.322
-210.479	29.647	-0.139	-0.117
-209.465	259.688	0.037	0.063
-208.450	-200.000	-0.042	-0.397
-207.436	9.633	0.405	0.303
-206.421	800.000	0.152	-0.430
-205.406	21.965	0.115	-0.093
-204.392	47.555	-0.104	-0.096
-203.377	-200.000	-0.009	0.124
-202.363	-200.000	0.019	0.446
-201.348	800.000	0.077	-0.259
-200.333	19.178	-0.306	-0.243
-199.319	-181.780	-0.224	0.004
-198.304	39.631	0.152	0.135
-197.290	27.872	0.238	-0.199
-196.275	-69.657	-0.421	-0.159
-195.260	72.392	-0.108	0.112
-194.246	77.162	0.078	-0.082
-193.231	-96.350	-0.156	-0.041
-192.217	413.383	0.082	-0.173
-191.202	-6.332	0.064	0.043
-190.187	-168.654	-0.208	0.008
-189.173	-165.293	0.298	-0.013
-188.158	-200.000	0.025	0.430
-187.144	204.645	0.188	0.288
-186.129	70.657	0.243	0.248
-185.114	-200.000	-0.013	-0.106
-184.100	21.208	-0.120	0.097
-183.085	-200.000	0.252	-0.000
-182.071	-200.000	-0.033	-0.245
-181.056	-193.316	-0.114	0.001
-180.042	-200.000	0.076	0.345
-179.027	615.845	-0.037	0.091
-178.012	800.000	-0.043	0.149
-176.998	93.852	0.255	-0.286
-175.983	-63.914	-0.184	-0.074
-174.969	-200.000	0.008	0.237
-173.954	-166.683	-0.133	0.005
-172.939	284.365	0.162	0.288
-171.925	-200.000	0.061	0.320
-170.910	-110.670	0.157	0.032
-169.896	81.661	-0.152	0.163
-168.881	-177.353	-0.173	-0.004
-167.866	-96.734	0.257	0.067
-166.852	-26.847	0.135	-0.078
-165.837	-132.514	-0.351	0.045
-164.823	-200.000	-0.021	0.144
-163.808	58.688	0.236	0.229
-162.793	171.073	0.161	0.228
-161.779	800.000	0.008	-0.023
-160.764	227.445	0.143	0.229
-159.750	-141.376	0.229	-0.023
-158.735	-200.000	0.039	0.175
-157.720	800.000	-0.021	0.071
-156.706	23.839	0.335	0.273
-155.691	-96.716	-0.158	-0.041
-154.677	-128.237	0.095	-0.013
-153.662	-105.910	-0.369	-0.082
-152.647	209.958	-0.085	-0.131
-151.633	-54.281	-0.260	-0.116
-150.618	-112.519	0.386	0.076
-149.604	-150.454	0.153	-0.012
-148.589	-158.035	-0.239	-0.014
-147.574	-120.290	-0.358	-0.060
-146.560	-44.638	-0.174	-0.086
-145.545	-127.539	-0.263	-0.038
-144.531	-190.192	-0.209	-0.002
-143.516	116.721	0.219	-0.266
-142.502	-34.529	-0.127	-0.069
-141.487	-157.730	0.072	-0.004
-140.472	800.000	0.020	-0.060
-139.458	-200.000	0.056	0.310
-138.443	163.835	-0.113	0.157
-137.429	107.119	0.119	-0.140
-136.414	13.933	0.247	-0.189
-135.399	800.000	-0.086	-0.296
-134.385	-12.516	0.099	-0.064
-133.370	-51.204	-0.294	0.136
-132.356	-200.000	-0.019	0.209
-131.341	363.833	-0.051	-0.101
-130.326	-121.838	-0.165	0.027
-129.312	-200.000	-0.016	0.203
-128.297	428.860	0.135	0.287
-127.283	195.494	-0.064	0.096
-126.268	243.131	-0.209	-0.345
-125.253	-179.367	0.078	-0.002
-124.239	-200.000	-0.017	-0.214
-123.224	477.543	-0.084	-0.188
-122.210	14.428	-0.060	-0.046
-121.195	-72.084	0.278	-0.102
