DTS Sentinel unit serial number:	SN413079Multiplexer serial number:	ORYXHardware model number:	OX4-SRSoftware version number:	ORYX F/W v4.00 Oryx Data Collector v3.7.2.0data status	okinstallation	princeton_trtdifferential loss correction	single-endedforward channel	channel 2reverse channel	N/Adate	2019/09/10time	18:01:10forward acquisition time	60.00reverse acquisition time	0.00gamma	496.2192k internal	0.2314k external	0.2314temperature offset calibration	0.9939default loss term (dB/km)	0.3790temperature slope calibration	1.0000multiplexer offset coefficient	1.0000multiplexer slope coefficient	1.0000fibre end	0.00T internal ref (°C)	37.11T ext. ref 1 (°C)	-0.35T ext. ref 2 (°C)	29.52length (m)	temperature (°C)	Stokes	anti-Stokes-747.200	-107.352	-0.273	-0.061
-746.185	800.000	-0.061	0.202
-745.171	-78.654	-0.490	0.170
-744.156	105.630	-0.012	-0.014
-743.142	-200.000	-0.001	-0.090
-742.127	18.767	-0.191	0.155
-741.112	800.000	-0.067	0.236
-740.098	-200.000	0.017	0.232
-739.083	-188.580	0.087	0.001
-738.069	-200.000	0.012	0.311
-737.054	800.000	-0.024	-0.077
-736.039	-200.000	0.027	-0.206
-735.025	442.809	-0.137	-0.305
-734.010	360.840	-0.106	-0.216
-732.996	800.000	-0.106	-0.310
-731.981	114.174	-0.114	0.141
-730.966	800.000	0.021	0.090
-729.952	-200.000	-0.008	-0.063
-728.937	41.260	-0.498	-0.456
-727.923	-113.774	0.071	0.014
-726.908	-37.621	-0.268	0.145
-725.894	-114.851	0.282	-0.054
-724.879	4.140	-0.215	-0.159
-723.864	-149.095	0.263	-0.021
-722.850	-99.939	0.121	0.031
-721.835	-200.000	-0.016	0.111
-720.821	95.724	-0.088	0.102
-719.806	7.543	0.124	-0.094
-718.791	-19.238	-0.188	-0.118
-717.777	-177.655	0.098	-0.002
-716.762	-18.195	-0.035	0.022
-715.748	-170.836	0.099	-0.003
-714.733	800.000	-0.013	-0.057
-713.718	-103.634	-0.140	0.033
-712.704	-175.341	0.302	-0.008
-711.689	163.313	0.115	-0.164
-710.675	-200.000	-0.007	0.172
-709.660	-118.721	0.244	-0.043
-708.645	-59.802	-0.261	-0.113
-707.631	-129.455	0.284	-0.040
-706.616	-139.979	-0.310	-0.033
-705.602	-63.949	-0.389	-0.161
-704.587	-60.856	0.186	-0.080
-703.572	-4.123	-0.352	0.247
-702.558	-65.223	-0.188	-0.077
-701.543	-200.000	0.004	-0.320
-700.529	-200.000	0.054	-0.246
-699.514	-148.934	0.199	0.016
-698.499	448.456	-0.107	0.237
-697.485	-172.568	0.175	0.006
-696.470	-91.656	-0.193	0.056
-695.456	54.129	0.251	-0.245
-694.441	38.232	-0.193	-0.173
-693.426	799.767	-0.014	-0.040
-692.412	-67.137	0.168	-0.067
-691.397	-153.341	-0.257	-0.018
-690.383	140.302	-0.115	-0.153
-689.368	-50.066	-0.227	-0.109
-688.354	59.826	0.252	-0.251
-687.339	-200.000	-0.032	-0.300
-686.324	800.000	0.034	-0.102
-685.310	-125.315	-0.147	0.023
-684.295	-102.750	-0.237	0.057
-683.281	69.177	0.054	0.056
-682.266	-152.721	-0.292	-0.021
-681.251	682.912	-0.051	0.133
-680.237	173.691	0.104	0.151
-679.222	-200.000	0.016	-0.241
-678.208	244.771	-0.195	-0.331
-677.193	-121.872	0.267	-0.045
-676.178	-54.188	0.105	-0.048
-675.164	20.204	-0.199	-0.162
-674.149	13.020	0.189	-0.148
-673.135	-61.123	-0.157	-0.067
-672.120	800.000	-0.057	0.239
-671.105	-200.000	-0.006	-0.128
-670.091	190.517	0.196	0.298
-669.076	249.006	-0.086	0.146
-668.062	142.303	-0.095	-0.128
-667.047	105.016	0.198	0.237
-666.032	19.342	-0.145	-0.118
-665.018	-75.334	0.129	0.047
-664.003	-147.393	-0.261	-0.022
-662.989	0.416	-0.230	-0.166
-661.974	-84.625	-0.274	0.087
-660.959	101.567	0.214	-0.252
-659.945	82.342	0.172	-0.189
-658.930	116.426	0.139	0.172
-657.916	-122.243	-0.197	-0.033
-656.901	800.000	-0.054	-0.167
-655.886	43.956	-0.367	-0.340
-654.872	800.000	0.017	0.052
-653.857	-87.511	0.367	0.112
-652.843	-200.000	0.030	-0.246
-651.828	-11.436	-0.186	0.124
-650.814	-68.749	0.117	-0.046
-649.799	-145.873	0.523	-0.047
-648.784	783.235	-0.099	0.274
-647.770	-96.817	-0.119	0.031
-646.755	12.510	0.207	-0.162
-645.741	-158.337	-0.117	0.007
-644.726	26.383	0.178	-0.150
-643.711	-56.234	0.142	-0.064
-642.697	463.320	0.092	0.208
-641.682	-200.000	0.005	0.029
-640.668	-200.000	-0.003	-0.237
-639.653	15.107	0.144	0.114
-638.638	-24.160	0.120	0.073
-637.624	-200.000	-0.084	0.000
-636.609	-74.256	0.314	0.115
-635.595	-200.000	0.012	0.446
-634.580	709.398	0.046	0.123
-633.565	-74.064	-0.153	0.056
-632.551	800.000	-0.043	-0.156
-631.536	-15.133	0.237	-0.153
-630.522	6.989	0.196	-0.148
-629.507	48.973	0.128	-0.121
-628.492	-200.000	-0.004	-0.113
-627.478	61.043	-0.253	0.253
-626.463	-87.361	-0.423	-0.129
-625.449	58.547	-0.184	-0.182
-624.434	79.306	0.054	0.058
-623.419	-156.855	0.257	-0.016
-622.405	-168.080	0.218	0.009
-621.390	-200.000	-0.001	0.124
-620.376	-200.000	-0.012	0.115
-619.361	380.091	-0.069	0.143
-618.346	-51.318	-0.197	0.093
-617.332	-75.069	-0.164	-0.059
-616.317	-151.957	0.376	0.028
-615.303	-60.894	0.155	0.066
-614.288	-112.586	0.278	0.056
-613.273	-151.232	0.223	-0.017
-612.259	-200.000	-0.268	0.000
-611.244	-75.265	0.190	0.068
-610.230	201.892	-0.069	-0.107
-609.215	684.717	0.088	-0.231
-608.201	-160.838	0.237	-0.013
-607.186	91.107	-0.263	-0.298
-606.171	-150.057	-0.090	0.007
-605.157	800.000	0.100	0.336
-604.142	-89.592	-0.138	0.041
-603.128	130.129	0.101	0.130
-602.113	15.241	0.123	0.097
-601.098	-8.870	-0.183	-0.123
-600.084	71.478	-0.109	-0.114
-599.069	88.834	0.072	-0.081
-598.055	-53.588	-0.164	0.075
-597.040	-200.000	-0.015	-0.225
-596.025	164.332	0.324	-0.460
-595.011	131.432	-0.111	0.144
-593.996	-29.712	0.219	-0.126
-592.982	18.694	-0.159	-0.128
-591.967	800.000	0.089	-0.267
-590.952	800.000	0.064	0.189
-589.938	302.317	0.125	-0.233
-588.923	-200.000	-0.043	-0.302
-587.909	-200.000	-0.055	-0.442
-586.894	166.052	0.152	-0.217
-585.879	27.782	0.256	0.218
-584.865	-106.811	-0.128	-0.029
-583.850	97.714	0.235	-0.272
-582.836	-133.190	0.143	-0.018
-581.821	-200.000	-0.080	-0.393
-580.806	10.796	0.363	-0.279
-579.792	311.673	0.144	-0.272
-578.777	-5.483	-0.201	-0.139
-577.763	800.000	-0.023	0.066
-576.748	217.763	0.154	0.247
-575.733	800.000	-0.045	-0.145
-574.719	-75.956	-0.369	-0.131
-573.704	-30.907	0.126	0.072
-572.690	800.000	0.010	-0.034
-571.675	-157.913	0.326	0.019
-570.661	-71.050	-0.175	-0.066
-569.646	-112.992	0.164	-0.033
-568.631	-90.397	0.191	-0.056
-567.617	-77.870	0.479	0.167
-566.602	767.003	-0.066	-0.180
-565.588	56.988	0.147	0.144
-564.573	568.785	-0.064	0.156
-563.558	183.745	0.088	-0.131
-562.544	-83.105	-0.128	0.042
-561.529	-65.080	0.420	0.171
-560.515	800.000	-0.128	0.416
-559.500	-85.310	0.497	-0.156
-558.485	-82.904	-0.183	-0.059
-557.471	-200.000	0.028	-0.219
-556.456	110.247	-0.168	-0.203
-555.442	177.406	0.100	-0.147
-554.427	11.655	0.178	-0.137
-553.412	-70.746	-0.276	0.105
-552.398	-89.227	0.265	-0.079
-551.383	800.000	0.061	0.176
-550.369	-153.990	-0.274	0.019
-549.354	-4.554	0.162	0.113
-548.339	-5.524	0.217	0.150
-547.325	604.110	0.179	-0.449
-546.310	-63.724	0.170	-0.070
-545.296	221.101	-0.027	-0.044
-544.281	159.711	-0.129	-0.181
-543.266	66.874	0.245	-0.251
-542.252	-94.564	-0.102	-0.028
-541.237	-69.350	-0.254	0.098
-540.223	-16.315	-0.034	0.022
-539.208	-80.803	0.115	-0.038
-538.193	261.441	0.242	-0.422
-537.179	2.763	-0.265	-0.193
-536.164	133.768	0.084	0.109
-535.150	762.884	-0.061	0.165
-534.135	-82.335	0.274	0.090
-533.121	-120.190	0.402	-0.069
-532.106	-46.163	0.207	0.103
-531.091	438.729	0.064	0.140
-530.077	38.024	0.036	0.032
-529.062	-8.523	-0.333	-0.225
-528.048	224.064	0.050	-0.082
-527.033	-49.160	0.041	0.020
-526.018	50.318	0.166	-0.158
-525.004	363.671	0.078	-0.157
-523.989	70.772	0.211	0.219
-522.975	-28.337	-0.342	-0.198
-521.960	210.811	-0.105	-0.165
-520.945	-152.662	-0.130	0.009
-519.931	-200.000	-0.011	-0.058
-518.916	-188.297	0.131	-0.002
-517.902	-200.000	0.005	-0.117
-516.887	800.000	-0.080	-0.347
-515.872	-65.096	-0.149	0.060
-514.858	-136.640	-0.245	0.028
-513.843	800.000	0.088	0.341
-512.829	-200.000	0.040	0.312
-511.814	-40.816	-0.114	-0.059
-510.799	39.277	-0.249	0.224
-509.785	-138.334	0.100	-0.011
-508.770	326.137	0.080	0.155
-507.756	-141.462	-0.138	0.014
-506.741	24.291	0.180	-0.149
-505.726	-172.358	-0.062	0.002
-504.712	-37.976	0.133	-0.071
-503.697	-200.000	0.014	-0.082
-502.683	214.863	-0.111	-0.176
-501.668	800.000	0.092	-0.365
-500.653	-200.000	0.003	-0.089
-499.639	106.820	-0.118	-0.140
-498.624	-15.872	-0.105	-0.067
-497.610	-90.718	0.124	-0.036
-496.595	103.962	-0.022	-0.026
-495.581	-200.000	0.016	0.298
-494.566	282.322	-0.208	-0.375
-493.551	800.000	-0.088	0.274
-492.537	-115.448	-0.603	-0.114
-491.522	728.257	-0.022	0.059
-490.508	-200.000	-0.046	-0.231
-489.493	291.816	0.228	-0.416
-488.478	-200.000	0.001	0.055
-487.464	92.416	-0.095	0.107
-486.449	-7.111	0.185	0.126
-485.435	-4.112	-0.192	0.134
-484.420	-200.000	0.073	-0.391
-483.405	17.539	-0.336	0.268
-482.391	130.292	0.029	0.038
-481.376	-200.000	-0.049	0.221
-480.362	284.426	0.199	0.359
-479.347	98.163	0.079	0.091
-478.332	800.000	0.088	0.316
-477.318	68.606	0.213	-0.219
-476.303	70.827	-0.212	-0.220
-475.289	-70.484	0.037	-0.014
-474.274	250.940	-0.065	0.111
-473.259	-94.742	-0.326	-0.089
-472.245	92.017	-0.303	-0.342
-471.230	-54.172	0.034	-0.016
-470.216	98.801	0.148	-0.171
-469.201	208.313	-0.175	0.275
-468.186	-70.866	0.117	0.044
-467.172	61.790	0.140	-0.140
-466.157	800.000	0.068	-0.280
-465.143	-200.000	-0.029	0.183
-464.128	126.262	-0.206	0.261
-463.113	-48.900	-0.159	0.077
-462.099	-103.289	-0.383	0.091
-461.084	-78.436	0.122	0.042
-460.070	-13.746	0.054	-0.035
-459.055	45.210	-0.227	-0.210
-458.040	149.535	0.316	-0.429
-457.026	-128.925	-0.496	-0.070
-456.011	4.438	-0.228	-0.168
-454.997	-99.637	-0.214	0.054
-453.982	-170.399	-0.094	-0.003
-452.968	800.000	0.029	0.088
-451.953	120.722	0.046	0.058
-450.938	185.929	-0.101	-0.151
-449.924	-68.312	0.219	-0.085
-448.909	800.000	0.047	-0.184
-447.895	-66.582	0.155	-0.062
-446.880	800.000	-0.025	0.086
-445.865	231.984	0.146	0.240
-444.851	276.049	-0.092	0.164
-443.836	-188.597	0.254	-0.003
-442.822	71.102	0.118	-0.123
-441.807	-122.663	0.176	-0.029
-440.792	800.000	0.166	-0.551
-439.778	273.327	-0.062	-0.110
-438.763	-115.446	0.298	0.056
-437.749	344.754	-0.096	0.189
-436.734	-70.491	-0.202	0.077
-435.719	-151.495	0.108	-0.008
-434.705	33.462	0.236	0.206
-433.690	-110.985	0.085	0.017
-432.676	-163.535	-0.204	0.010
-431.661	123.631	0.164	-0.206
-430.646	-200.000	0.027	0.131
-429.632	175.218	0.110	0.160
-428.617	64.276	-0.203	-0.205
-427.603	-14.973	-0.189	0.121
-426.588	-25.335	-0.199	0.118
-425.573	-172.816	-0.336	0.010
-424.559	-79.864	0.167	0.056
-423.544	800.000	0.092	0.254
-422.530	800.000	0.067	0.211
-421.515	-107.674	-0.162	0.035
-420.500	-118.131	0.242	-0.043
-419.486	-102.807	-0.239	-0.057
-418.471	93.832	0.248	-0.281
-417.457	128.671	0.072	-0.092
-416.442	429.631	0.072	-0.156
-415.428	45.015	-0.226	0.208
-414.413	-82.963	-0.610	-0.197
-413.398	245.224	-0.175	0.294
-412.384	-129.418	0.230	0.032
-411.369	800.000	0.075	0.250
-410.355	48.378	0.250	0.234
-409.340	44.118	-0.191	0.175
-408.325	-140.783	-0.176	0.018
-407.311	309.683	-0.075	0.140
-406.296	-200.000	0.002	-0.275
-405.282	-36.255	0.279	0.150
-404.267	-154.474	-0.448	0.030
-403.252	-200.000	0.002	0.447
-402.238	-126.373	-0.197	-0.029
-401.223	-200.000	-0.039	-0.250
-400.209	800.000	0.042	-0.141
-399.194	125.134	0.194	0.245
-398.179	164.870	-0.192	0.272
-397.165	-145.849	-0.107	-0.010
-396.150	-187.143	0.134	0.002
-395.136	-39.255	-0.397	-0.208
-394.121	-200.000	-0.016	0.142
-393.106	-183.537	0.385	0.007
-392.092	-200.000	0.015	0.299
-391.077	-200.000	-0.001	0.361
-390.063	81.800	0.079	-0.085
-389.048	-158.154	0.391	-0.023
-388.033	647.082	0.041	0.104
-387.019	-115.494	0.111	-0.021
-386.004	-84.930	-0.018	0.006
-384.990	-120.977	-0.031	-0.005
-383.975	-14.123	0.160	0.103
-382.960	379.053	-0.148	-0.303
-381.946	-81.107	-0.115	-0.038
-380.931	106.273	-0.102	0.121
-379.917	-116.966	-0.121	-0.022
-378.902	800.000	0.053	-0.188
-377.888	-200.000	-0.006	-0.079
-376.873	-200.000	0.044	-0.193
-375.858	-111.988	0.104	0.021
-374.844	729.417	-0.150	0.401
-373.829	-57.411	-0.214	-0.094
-372.815	664.339	0.124	0.319
-371.800	150.406	-0.186	-0.252
-370.785	800.000	-0.118	-0.405
-369.771	119.957	-0.130	0.162
-368.756	139.134	-0.193	-0.254
-367.742	179.989	0.138	0.202
-366.727	144.703	0.106	0.141
-365.712	-71.663	-0.213	0.080
-364.698	-200.000	-0.037	0.208
-363.683	92.827	0.194	0.219
-362.669	300.245	-0.227	-0.417
-361.654	-102.992	-0.144	0.034
-360.639	336.945	-0.192	-0.373
-359.625	108.721	0.262	-0.312
-358.610	800.000	0.079	0.238
-357.596	800.000	0.036	0.113
-356.581	-176.260	0.220	0.006
-355.566	-110.674	0.105	-0.022
-354.552	-200.000	-0.006	0.059
-353.537	786.450	0.039	0.107
-352.523	105.754	0.063	0.074
-351.508	-132.708	0.221	0.028
-350.493	-59.590	0.094	-0.040
-349.479	119.919	0.222	0.275
-348.464	104.719	-0.189	0.222
-347.450	800.000	0.026	-0.109
-346.435	121.022	0.121	0.150
-345.420	-190.191	-0.143	-0.002
-344.406	173.781	-0.178	-0.257
-343.391	5.433	-0.358	0.264
-342.377	-21.406	-0.150	0.091
-341.362	-200.000	-0.003	0.097
-340.348	52.248	0.041	0.039
-339.333	87.055	0.080	0.089
-338.318	-43.400	0.227	0.115
-337.304	-86.622	-0.443	-0.135
-336.289	583.257	-0.182	0.446
-335.275	-200.000	0.001	0.115
-334.260	22.857	-0.180	0.147
-333.245	-140.734	0.255	0.026
-332.231	-154.268	0.300	-0.020
-331.216	-200.000	0.020	-0.132
-330.202	800.000	-0.098	0.333
-329.187	800.000	-0.101	0.298
-328.172	650.797	-0.096	-0.245
-327.158	156.217	-0.149	-0.205
-326.143	68.358	0.172	0.176
-325.129	-158.404	-0.258	-0.015
-324.114	-40.489	-0.181	-0.094
-323.099	800.000	0.046	-0.162
-322.085	119.680	-0.207	-0.256
-321.070	-63.029	0.235	0.097
-320.056	88.657	-0.117	-0.129
-319.041	107.445	0.231	0.275
-318.026	298.144	0.049	0.091
-317.012	-200.000	0.013	-0.396
-315.997	37.528	-0.191	-0.169
-314.983	500.515	-0.181	-0.416
-313.968	-25.249	0.077	-0.045
-312.953	-200.000	0.011	-0.379
-311.939	225.909	-0.088	0.142
-310.924	308.425	-0.046	-0.085
-309.910	-200.000	-0.008	-0.165
-308.895	34.582	-0.124	0.108
-307.880	3.718	-0.248	-0.180
-306.866	800.000	0.056	0.211
-305.851	-76.201	-0.172	0.061
-304.837	-200.000	0.009	-0.122
-303.822	167.039	0.132	-0.186
-302.807	95.878	0.040	0.046
-301.793	443.310	0.119	-0.260
-300.778	-200.000	-0.023	0.128
-299.764	159.931	0.119	-0.165
-298.749	37.807	-0.112	-0.099
-297.735	130.505	-0.218	0.278
-296.720	367.234	0.012	0.024
-295.705	-51.430	-0.225	-0.105
-294.691	209.463	0.075	-0.118
-293.676	800.000	0.065	0.211
-292.662	-54.910	0.169	0.076
-291.647	173.497	-0.070	-0.101
-290.632	-200.000	0.000	-0.180
-289.618	-86.902	-0.195	-0.059
-288.603	117.669	-0.131	0.160
-287.589	800.000	-0.058	0.171
-286.574	-120.708	0.155	0.026
-285.559	397.830	0.070	0.147
-284.545	164.152	-0.108	-0.152
-283.530	800.000	0.031	0.120
-282.516	-146.695	0.157	0.014
-281.501	-110.241	-0.187	0.039
-280.486	-200.000	-0.002	-0.233
-279.472	-200.000	-0.014	0.200
-278.457	169.968	-0.131	-0.187
-277.443	-121.376	-0.228	0.038
-276.428	6.097	0.032	-0.024
-275.413	199.409	-0.266	-0.406
-274.399	143.608	-0.061	0.080
-273.384	-200.000	-0.066	0.495
-272.370	144.564	0.167	-0.223
-271.355	-188.942	0.096	0.001
-270.340	160.652	0.072	-0.099
-269.326	-39.944	-0.168	0.087
-268.311	422.212	-0.018	-0.037
-267.297	-200.000	-0.006	-0.105
-266.282	88.010	0.194	0.214
-265.267	-200.000	0.024	0.229
-264.253	800.000	-0.113	0.393
-263.238	78.411	0.141	0.149
-262.224	296.627	0.083	0.151
-261.209	-200.000	0.035	-0.352
-260.195	-190.253	-0.276	0.003
-259.180	87.576	-0.080	0.088
-258.165	113.015	-0.084	-0.101
-257.151	-200.000	0.033	0.217
-256.136	-76.340	0.455	0.159
-255.122	49.408	-0.022	-0.021
-254.107	-96.644	-0.065	0.017
-253.092	-200.000	0.030	-0.328
-252.078	140.617	-0.157	-0.207
-251.063	-200.000	0.061	0.422
-250.049	43.520	-0.100	0.091
-249.034	-107.454	-0.079	0.017
-248.019	419.613	-0.134	-0.285
-247.005	194.428	-0.138	-0.209
-245.990	-14.840	0.189	0.121
-244.976	-56.207	0.366	-0.162
-243.961	27.625	-0.053	-0.045
-242.946	-36.626	0.134	-0.072
-241.932	127.094	0.208	0.263
-240.917	-118.267	-0.290	0.051
-239.903	207.842	-0.113	0.175
-238.888	73.647	0.070	0.073
-237.873	53.342	-0.112	-0.106
-236.859	80.028	0.088	0.094
-235.844	552.931	0.046	0.109
-234.830	44.921	0.069	0.063
-233.815	425.491	0.062	0.133
-232.800	428.060	-0.031	0.066
-231.786	-122.388	0.242	-0.039
-230.771	-200.000	-0.044	-0.359
-229.757	-200.000	-0.033	-0.189
-228.742	-89.717	-0.271	0.079
-227.727	800.000	-0.084	-0.289
-226.713	-200.000	0.026	-0.263
-225.698	216.928	-0.060	0.095
-224.684	-0.993	0.159	0.112
-223.669	-157.545	0.418	-0.025
-222.655	54.397	-0.227	0.217
-221.640	65.050	-0.100	-0.100
-220.625	475.604	0.145	-0.325
-219.611	-147.258	0.073	-0.006
-218.596	-103.141	0.092	0.022
-217.582	-25.582	0.147	0.086
-216.567	-200.000	0.014	-0.334
-215.552	-56.511	-0.210	-0.093
-214.538	-200.000	-0.037	-0.217
-213.523	-200.000	-0.008	0.185
-212.509	31.016	-0.112	-0.096
-211.494	-45.171	0.148	0.073
-210.479	-200.000	0.010	0.051
-209.465	224.468	0.038	-0.061
-208.450	349.631	-0.087	0.170
-207.436	-141.389	-0.002	-0.000
-206.421	102.833	0.084	0.097
-205.406	-149.644	0.306	0.024
-204.392	617.243	-0.080	-0.200
-203.377	-22.262	0.115	-0.069
-202.363	800.000	-0.032	0.120
-201.348	596.229	-0.113	0.278
-200.333	-200.000	0.015	-0.228
-199.319	-53.266	0.043	0.020
-198.304	800.000	-0.067	0.194
-197.290	-122.510	-0.089	0.014
-196.275	-200.000	-0.086	0.480
-195.260	-200.000	0.028	0.133
-194.246	54.765	-0.231	-0.222
-193.231	-200.000	0.007	-0.375
-192.217	-97.609	-0.232	0.060
-191.202	315.922	0.126	0.235
-190.187	-200.000	-0.014	0.112
-189.173	24.321	0.312	0.256
-188.158	219.161	-0.166	0.263
-187.144	-8.792	0.018	-0.012
-186.129	-57.640	-0.149	0.065
-185.114	-200.000	0.056	-0.271
-184.100	-62.019	0.129	0.053
-183.085	159.059	-0.105	0.144
-182.071	-200.000	-0.026	0.293
-181.056	-113.313	0.359	0.070
-180.042	188.096	-0.163	0.242
-179.027	800.000	-0.026	0.111
-178.012	-200.000	0.030	0.224
-176.998	800.000	-0.048	-0.172
-175.983	-94.103	-0.141	0.038
-174.969	800.000	-0.070	-0.237
-173.954	800.000	-0.154	0.426
-172.939	149.699	-0.168	-0.226
-171.925	131.790	-0.100	0.128
-170.910	122.203	-0.135	0.167
-169.896	-76.268	-0.075	0.026
-168.881	90.018	-0.164	0.182
-167.866	800.000	-0.071	0.209
-166.852	-139.037	-0.338	-0.036
-165.837	-200.000	0.044	0.318
-164.823	-2.542	-0.171	0.118
-163.808	-200.000	0.020	0.172
-162.793	-200.000	0.366	-0.002
-161.779	-38.235	0.127	0.067
-160.764	-200.000	-0.041	-0.219
-159.750	-200.000	-0.034	-0.160
-158.735	-200.000	0.007	0.111
-157.720	-115.109	0.213	0.040
-156.706	75.392	-0.284	0.297
-155.691	37.956	0.093	-0.082
-154.677	-147.085	0.026	-0.002
-153.662	-1.469	0.260	0.181
-152.647	-200.000	0.053	0.256
-151.633	117.365	0.022	0.027
-150.618	-32.743	0.180	0.099
-149.604	-132.898	-0.161	-0.020
-148.589	800.000	-0.093	-0.255
-147.574	-200.000	-0.026	-0.117
-146.560	-129.865	-0.116	0.016
-145.545	75.001	-0.133	0.139
-144.531	-0.194	-0.306	0.216
-143.516	-78.424	0.151	-0.051
-142.502	-108.179	0.200	-0.043
-141.487	371.501	-0.191	0.383
-140.472	381.985	-0.120	0.245
-139.458	-119.883	-0.336	-0.057
-138.443	168.294	0.197	0.277
-137.429	-57.420	-0.111	0.048
-136.414	-39.733	-0.506	0.262
-135.399	137.338	-0.244	0.316
-134.385	-200.000	-0.028	0.177
-133.370	-85.935	0.184	-0.056
-132.356	46.035	0.229	-0.210
-131.341	-200.000	-0.024	-0.200
-130.326	13.448	-0.143	0.110
-129.312	-200.000	-0.035	-0.256
-128.297	20.491	0.336	-0.269
-127.283	800.000	-0.032	-0.097
-126.268	259.163	0.200	0.341
-125.253	148.842	0.081	0.108
-124.239	394.671	-0.183	-0.378
-123.224	-133.587	0.263	0.033
-122.210	-200.000	0.024	-0.218
-121.195	-93.183	0.224	-0.062
