DTS Sentinel unit serial number:	SN413079Multiplexer serial number:	ORYXHardware model number:	OX4-SRSoftware version number:	ORYX F/W v4.00 Oryx Data Collector v3.7.2.0data status	okinstallation	princeton_trtdifferential loss correction	single-endedforward channel	channel 2reverse channel	N/Adate	2019/09/15time	22:07:35forward acquisition time	60.00reverse acquisition time	0.00gamma	496.2192k internal	0.2335k external	0.2335temperature offset calibration	0.9945default loss term (dB/km)	0.3790temperature slope calibration	1.0000multiplexer offset coefficient	1.0000multiplexer slope coefficient	1.0000fibre end	0.00T internal ref (°C)	29.67T ext. ref 1 (°C)	8.59T ext. ref 2 (°C)	22.92length (m)	temperature (°C)	Stokes	anti-Stokes-747.200	-45.463	0.144	0.072
-746.185	-60.324	-0.160	-0.069
-745.171	57.649	0.103	-0.101
-744.156	-115.923	-0.431	0.081
-743.142	-90.205	-0.152	0.044
-742.127	-52.854	-0.388	0.179
-741.112	800.000	0.050	0.144
-740.098	-103.027	0.234	0.056
-739.083	430.410	0.128	-0.277
-738.069	-200.000	-0.042	0.542
-737.054	176.787	0.036	-0.052
-736.039	-169.993	-0.303	-0.011
-735.025	19.613	0.384	-0.310
-734.010	71.344	-0.147	-0.153
-732.996	58.884	0.073	-0.073
-731.981	-116.224	-0.124	-0.023
-730.966	-161.112	-0.261	0.014
-729.952	496.161	-0.086	0.198
-728.937	800.000	-0.011	0.042
-727.923	251.304	-0.119	0.204
-726.908	-63.841	-0.237	0.097
-725.894	-121.260	-0.342	0.057
-724.879	-200.000	0.047	-0.307
-723.864	-200.000	0.040	-0.213
-722.850	800.000	0.028	-0.113
-721.835	-74.631	-0.284	-0.103
-720.821	162.531	-0.238	0.335
-719.806	-91.425	-0.125	-0.036
-718.791	-200.000	0.021	-0.108
-717.777	-54.150	0.067	-0.030
-716.762	-133.302	-0.222	-0.028
-715.748	80.649	0.044	0.048
-714.733	-200.000	-0.047	0.516
-713.718	253.769	0.041	0.070
-712.704	0.890	0.113	0.081
-711.689	-85.004	-0.135	-0.042
-710.675	-94.944	0.233	0.063
-709.660	98.457	-0.148	-0.171
-708.645	-154.550	0.178	0.012
-707.631	82.338	-0.246	0.268
-706.616	-126.111	-0.204	0.031
-705.602	612.287	-0.136	0.341
-704.587	73.333	-0.151	0.158
-703.572	-161.849	0.274	0.014
-702.558	141.143	-0.057	0.076
-701.543	800.000	0.044	-0.139
-700.529	-127.775	-0.185	0.027
-699.514	654.535	-0.078	-0.201
-698.499	50.683	0.203	-0.192
-697.485	-139.384	0.309	-0.033
-696.470	-103.286	-0.248	0.059
-695.456	-182.013	0.289	0.005
-694.441	-26.584	-0.074	-0.043
-693.426	601.526	-0.044	-0.110
-692.412	-134.653	0.277	-0.034
-691.397	-32.939	0.087	0.048
-690.383	150.731	0.200	0.272
-689.368	-155.498	0.170	0.011
-688.354	0.222	-0.155	0.111
-687.339	113.393	0.083	-0.100
-686.324	-200.000	0.046	-0.205
-685.310	-67.196	0.217	-0.085
-684.295	-25.139	0.039	0.023
-683.281	-34.757	0.221	0.121
-682.266	365.572	0.220	-0.443
-681.251	336.114	0.097	-0.188
-680.237	-35.582	-0.114	-0.062
-679.222	11.461	0.202	-0.155
-678.208	180.072	-0.169	-0.248
-677.193	221.559	-0.153	-0.246
-676.178	-44.552	-0.365	0.183
-675.164	12.163	-0.109	0.084
-674.149	-200.000	-0.035	0.276
-673.135	-14.363	-0.345	-0.222
-672.120	-181.653	0.131	0.003
-671.105	800.000	-0.023	-0.093
-670.091	-63.659	-0.173	0.071
-669.076	-176.013	-0.235	0.006
-668.062	459.547	-0.079	-0.176
-667.047	-139.452	0.073	0.008
-666.032	11.338	-0.079	-0.061
-665.018	-48.741	0.203	-0.097
-664.003	-200.000	-0.016	-0.128
-662.989	800.000	-0.079	-0.252
-661.974	74.678	-0.272	-0.286
-660.959	-102.201	-0.027	0.007
-659.945	86.517	-0.224	0.248
-658.930	124.984	-0.091	0.115
-657.916	-200.000	-0.012	-0.318
-656.901	-80.015	-0.181	-0.061
-655.886	255.204	-0.176	-0.302
-654.872	337.567	0.086	-0.167
-653.857	491.916	0.070	0.161
-652.843	-46.977	0.253	0.123
-651.828	-63.425	-0.234	-0.096
-650.814	800.000	-0.025	-0.090
-649.799	1.038	-0.070	0.050
-648.784	-75.499	-0.115	0.041
-647.770	800.000	0.051	-0.150
-646.755	-167.234	0.099	-0.004
-645.741	278.967	-0.156	-0.278
-644.726	270.378	-0.220	-0.387
-643.711	-200.000	-0.031	0.154
-642.697	800.000	-0.050	-0.140
-641.682	20.777	-0.315	0.255
-640.668	243.971	-0.132	-0.221
-639.653	800.000	-0.072	-0.309
-638.638	-60.358	-0.265	-0.113
-637.624	89.612	-0.112	-0.126
-636.609	-24.698	-0.149	0.089
-635.595	-38.654	0.119	0.063
-634.580	-129.897	-0.380	-0.052
-633.565	-12.051	0.333	0.218
-632.551	739.661	-0.022	-0.060
-631.536	-174.421	-0.231	-0.007
-630.522	118.413	0.026	-0.033
-629.507	-87.653	0.223	-0.067
-628.492	-144.796	0.113	-0.010
-627.478	182.125	0.174	0.256
-626.463	-200.000	-0.021	0.185
-625.449	-54.548	-0.415	0.188
-624.434	-200.000	0.002	0.068
-623.419	454.990	0.114	0.252
-622.405	-32.262	0.279	-0.156
-621.390	-115.125	-0.301	-0.057
-620.376	107.364	-0.123	-0.146
-619.361	-200.000	-0.033	-0.313
-618.346	417.541	0.144	-0.307
-617.332	274.162	-0.191	-0.338
-616.317	-169.241	0.128	0.005
-615.303	-200.000	0.001	-0.351
-614.288	-200.000	0.009	-0.155
-613.273	-158.261	0.415	0.024
-612.259	-97.193	0.429	0.112
-611.244	800.000	-0.071	-0.209
-610.230	225.107	-0.128	-0.207
-609.215	800.000	-0.072	0.274
-608.201	8.702	0.041	0.031
-607.186	318.294	-0.096	-0.181
-606.171	-118.647	0.348	-0.061
-605.157	-200.000	-0.008	-0.085
-604.142	609.345	-0.077	-0.193
-603.128	172.870	-0.091	0.132
-602.113	-147.836	0.212	-0.018
-601.098	44.025	0.101	-0.092
-600.084	-91.841	0.121	-0.034
-599.069	800.000	0.072	0.249
-598.055	-52.273	-0.203	-0.094
-597.040	800.000	-0.097	-0.295
-596.025	-53.538	0.251	0.115
-595.011	234.273	0.073	0.120
-593.996	-200.000	-0.085	0.523
-592.982	-83.318	0.339	0.109
-591.967	208.841	-0.309	-0.482
-590.952	-30.626	0.046	0.026
-589.938	800.000	-0.090	-0.290
-588.923	-32.271	-0.281	0.157
-587.909	-200.000	0.039	-0.206
-586.894	73.793	0.107	-0.112
-585.879	-101.380	0.365	0.089
-584.865	219.333	-0.234	0.374
-583.850	10.596	-0.108	0.083
-582.836	-100.947	0.327	-0.080
-581.821	288.366	-0.110	-0.199
-580.806	-30.360	0.199	-0.113
-579.792	-62.756	0.277	0.115
-578.777	507.164	0.055	-0.128
-577.763	422.694	0.179	-0.384
-576.748	582.514	0.029	0.070
-575.733	60.459	-0.219	0.216
-574.719	83.201	0.126	-0.137
-573.704	800.000	0.061	0.239
-572.690	800.000	0.049	0.195
-571.675	122.866	-0.189	0.236
-570.661	-87.841	-0.048	-0.015
-569.646	-200.000	-0.005	0.115
-568.631	-52.639	-0.329	0.152
-567.617	-99.957	0.131	-0.033
-566.602	648.759	0.089	0.227
-565.588	-126.368	-0.206	-0.031
-564.573	225.513	0.147	-0.237
-563.558	-37.543	0.234	-0.124
-562.544	93.234	0.345	0.389
-561.529	91.329	0.058	-0.064
-560.515	5.113	0.114	0.083
-559.500	-137.290	0.090	-0.010
-558.485	628.784	-0.010	-0.025
-557.471	-174.862	-0.232	0.007
-556.456	-144.551	-0.324	0.030
-555.442	800.000	0.020	-0.078
-554.427	183.176	-0.122	-0.179
-553.412	-200.000	0.018	-0.160
-552.398	119.449	-0.272	-0.336
-551.383	-45.317	0.124	0.062
-550.369	-2.359	0.339	-0.237
-549.354	39.436	-0.155	0.138
-548.339	-200.000	0.016	-0.318
-547.325	30.120	0.191	-0.163
-546.310	800.000	-0.058	0.232
-545.296	-187.955	-0.356	0.005
-544.281	-77.040	0.265	-0.092
-543.266	-67.748	-0.257	-0.100
-542.252	800.000	0.050	-0.186
-541.237	197.312	0.079	0.120
-540.223	20.032	0.086	0.069
-539.208	800.000	-0.096	0.265
-538.193	181.320	-0.085	-0.124
-537.179	-123.332	0.546	0.087
-536.164	170.661	-0.067	0.096
-535.150	-49.239	0.199	-0.095
-534.135	-200.000	-0.036	0.418
-533.121	-200.000	-0.449	0.000
-532.106	-62.428	0.108	0.045
-531.091	-83.005	-0.090	-0.029
-530.077	30.785	0.185	-0.158
-529.062	-75.460	-0.150	-0.053
-528.048	800.000	0.048	0.177
-527.033	-129.101	0.053	0.007
-526.018	-200.000	0.008	0.108
-525.004	800.000	-0.037	0.146
-523.989	-67.561	-0.151	-0.059
-522.975	-33.380	-0.131	-0.072
-521.960	41.784	0.144	-0.130
-520.945	239.402	-0.243	-0.403
-519.931	26.131	-0.286	-0.238
-518.916	78.818	0.289	-0.308
-517.902	107.600	-0.193	0.228
-516.887	-200.000	-0.064	0.352
-515.872	-200.000	0.001	-0.099
-514.858	800.000	0.049	0.214
-513.843	137.421	0.086	0.112
-512.829	-62.363	0.156	-0.065
-511.814	-71.304	0.103	0.038
-510.799	-112.767	-0.396	0.078
-509.785	-154.262	-0.190	0.013
-508.770	-200.000	0.011	-0.127
-507.756	-104.961	0.323	0.074
-506.741	800.000	-0.065	-0.193
-505.726	45.700	-0.172	-0.158
-504.712	110.982	-0.044	-0.053
-503.697	131.311	0.075	0.095
-502.683	-200.000	-0.001	-0.203
-501.668	-52.466	0.096	-0.044
-500.653	330.784	0.032	0.062
-499.639	800.000	-0.136	-0.516
-498.624	214.918	-0.101	-0.160
-497.610	797.481	-0.166	0.454
-496.595	800.000	0.152	0.457
-495.581	348.462	0.155	-0.304
-494.566	439.230	-0.006	0.013
-493.551	364.781	0.103	0.207
-492.537	264.180	0.132	0.229
-491.522	345.273	-0.156	-0.305
-490.508	265.051	-0.042	0.072
-489.493	800.000	0.019	-0.055
-488.478	800.000	-0.104	0.355
-487.464	-170.188	0.144	0.005
-486.449	-200.000	-0.110	0.000
-485.435	462.669	-0.165	-0.367
-484.420	47.777	0.130	0.120
-483.405	800.000	-0.039	0.162
-482.391	-71.326	-0.065	-0.024
-481.376	800.000	-0.007	0.022
-480.362	354.016	-0.177	-0.349
-479.347	192.285	-0.317	-0.475
-478.332	-54.820	0.459	0.206
-477.318	800.000	0.090	0.310
-476.303	86.408	0.075	0.082
-475.289	18.704	0.103	-0.082
-474.274	376.544	-0.132	-0.268
-473.259	364.541	-0.172	-0.344
-472.245	800.000	-0.077	-0.267
-471.230	462.881	-0.097	0.216
-470.216	-140.295	0.203	-0.021
-469.201	-87.656	-0.170	-0.051
-468.186	10.770	-0.281	-0.213
-467.172	-200.000	-0.024	0.202
-466.157	-87.956	0.136	-0.041
-465.143	101.654	0.152	0.176
-464.128	-200.000	0.034	0.186
-463.113	35.760	-0.231	-0.202
-462.099	22.778	-0.061	0.050
-461.084	-98.024	-0.474	0.121
-460.070	-200.000	-0.044	0.247
-459.055	-45.873	0.050	-0.025
-458.040	468.480	0.058	0.128
-457.026	165.529	0.073	-0.102
-456.011	-97.985	-0.356	-0.091
-454.997	-149.516	-0.090	-0.007
-453.982	16.033	-0.245	-0.192
-452.968	232.027	0.248	0.404
-451.953	-200.000	-0.045	0.306
-450.938	-100.057	0.191	-0.047
-449.924	48.796	0.101	0.094
-448.909	800.000	0.045	-0.132
-447.895	-35.052	0.473	-0.256
-446.880	-94.201	0.136	-0.037
-445.865	421.032	0.083	-0.177
-444.851	-200.000	-0.020	0.239
-443.836	-200.000	0.007	0.182
-442.822	30.308	-0.085	0.072
-441.807	800.000	0.086	0.328
-440.792	620.704	-0.062	0.155
-439.778	78.830	-0.037	0.039
-438.763	-99.215	0.183	0.046
-437.749	491.400	0.096	0.219
-436.734	-27.161	-0.212	-0.122
-435.719	75.949	0.031	0.033
-434.705	800.000	0.025	-0.068
-433.690	21.082	-0.151	0.122
-432.676	52.737	-0.129	0.122
-431.661	-200.000	0.015	-0.188
-430.646	-173.620	0.325	0.010
-429.632	57.857	-0.167	0.162
-428.617	-200.000	-0.009	0.161
-427.603	-124.727	-0.249	-0.038
-426.588	-200.000	0.019	0.270
-425.573	-200.000	-0.006	-0.085
-424.559	-200.000	-0.005	0.152
-423.544	27.824	-0.059	0.050
-422.530	-115.794	-0.481	0.089
-421.515	-200.000	0.002	0.191
-420.500	-200.000	-0.036	0.335
-419.486	248.672	0.142	0.238
-418.471	551.418	0.037	0.089
-417.457	-129.293	-0.225	0.031
-416.442	270.071	0.148	0.257
-415.428	297.825	0.148	0.270
-414.413	-200.000	-0.083	0.410
-413.398	670.942	0.116	0.297
-412.384	-200.000	-0.012	-0.265
-411.369	35.133	0.190	0.165
-410.355	800.000	-0.071	-0.249
-409.340	800.000	0.084	-0.230
-408.325	-200.000	0.050	-0.403
-407.311	-84.428	0.185	0.058
-406.296	-130.552	0.335	0.045
-405.282	-74.943	0.320	0.114
-404.267	491.430	-0.104	-0.235
-403.252	-18.052	0.343	-0.213
-402.238	-200.000	0.020	-0.345
-401.223	800.000	0.046	-0.166
-400.209	161.049	0.147	-0.204
-399.194	800.000	0.066	0.185
-398.179	-200.000	-0.019	0.086
-397.165	15.710	0.322	-0.251
-396.150	-200.000	0.010	-0.150
-395.136	-117.674	-0.406	-0.072
-394.121	800.000	0.062	0.189
-393.106	-200.000	-0.040	-0.478
-392.092	-53.141	-0.294	0.134
-391.077	363.425	-0.134	0.267
-390.063	-136.398	0.311	-0.036
-389.048	-200.000	-0.043	0.204
-388.033	93.156	0.091	-0.102
-387.019	-81.550	-0.211	0.069
-386.004	-91.636	0.036	-0.010
-384.990	-38.876	-0.350	-0.183
-383.975	-76.742	0.530	0.184
-382.960	182.704	0.216	-0.315
-381.946	-138.420	-0.224	-0.024
-380.931	-200.000	-0.081	0.453
-379.917	134.358	-0.173	-0.223
-378.902	800.000	0.017	-0.067
-377.888	-200.000	0.014	0.258
-376.873	23.282	-0.239	-0.195
-375.858	-46.306	-0.113	-0.055
-374.844	-200.000	0.040	-0.216
-373.829	25.859	-0.262	0.216
-372.815	800.000	0.050	-0.186
-371.800	-47.998	0.212	-0.101
-370.785	-1.317	0.191	0.133
-369.771	800.000	-0.056	-0.220
-368.756	107.255	-0.150	-0.176
-367.742	-121.855	0.357	0.058
-366.727	416.727	0.070	-0.148
-365.712	-13.235	-0.124	-0.080
-364.698	-75.358	-0.424	-0.150
-363.683	-1.543	0.089	0.062
-362.669	-47.700	0.094	-0.045
-361.654	374.310	0.135	0.272
-360.639	351.917	-0.068	0.133
-359.625	1.280	-0.176	0.125
-358.610	-73.017	0.276	0.100
-357.596	-5.674	-0.303	0.206
-356.581	-200.000	0.001	0.234
-355.566	190.164	0.138	-0.206
-354.552	398.915	0.025	-0.052
-353.537	-200.000	-0.002	0.228
-352.523	-137.454	-0.273	-0.031
-351.508	-160.140	-0.514	0.028
-350.493	-89.560	0.363	-0.105
-349.479	18.442	-0.145	-0.115
-348.464	-200.000	-0.007	-0.103
-347.450	44.473	0.017	-0.015
-346.435	-96.324	-0.048	0.012
-345.420	48.951	-0.278	-0.258
-344.406	-135.630	0.193	-0.023
-343.391	226.423	-0.092	-0.147
-342.377	135.998	0.097	0.126
-341.362	-2.666	-0.135	-0.094
-340.348	-44.879	0.141	0.070
-339.333	18.852	-0.128	0.102
-338.318	800.000	0.142	0.391
-337.304	-7.745	-0.109	0.073
-336.289	800.000	0.099	0.296
-335.275	176.744	0.087	0.126
-334.260	-82.148	-0.423	0.137
-333.245	149.303	-0.086	-0.115
-332.231	162.255	-0.133	-0.185
-331.216	172.452	0.254	0.362
-330.202	320.228	0.142	-0.267
-329.187	296.648	-0.054	-0.097
-328.172	800.000	-0.042	0.136
-327.158	-200.000	-0.011	0.535
-326.143	-200.000	0.002	-0.080
-325.129	145.264	-0.069	0.091
-324.114	-105.957	0.239	-0.053
-323.099	-151.529	-0.158	-0.012
-322.085	-27.758	-0.069	-0.039
-321.070	-200.000	0.058	-0.256
-320.056	313.160	-0.038	-0.071
-319.041	-67.398	0.156	-0.060
-318.026	-111.352	0.071	-0.014
-317.012	-116.663	0.161	0.029
-315.997	-46.090	-0.159	0.078
-314.983	800.000	-0.073	-0.282
-313.968	800.000	0.038	0.106
-312.953	38.128	-0.165	0.145
-311.939	646.938	-0.104	0.262
-310.924	-200.000	-0.045	0.383
-309.910	-200.000	-0.012	-0.135
-308.895	148.781	-0.037	0.049
-307.880	-175.162	0.337	-0.009
-306.866	178.131	-0.053	0.076
-305.851	-15.842	-0.335	-0.210
-304.837	540.471	0.169	-0.397
-303.822	800.000	0.017	0.050
-302.807	-200.000	0.034	-0.166
-301.793	-80.929	-0.184	-0.060
-300.778	-47.937	-0.084	-0.040
-299.764	-200.000	0.024	-0.127
-298.749	194.482	-0.065	-0.097
-297.735	-167.514	-0.289	0.011
-296.720	-88.833	0.359	-0.105
-295.705	-200.000	0.022	-0.140
-294.691	-47.244	0.184	-0.089
-293.676	-29.099	0.337	-0.191
-292.662	-50.079	-0.194	0.091
-291.647	-200.000	0.052	0.396
-290.632	192.930	0.105	0.157
-289.618	1.424	-0.095	0.068
-288.603	-99.325	0.273	-0.068
-287.589	144.192	-0.161	0.213
-286.574	35.283	0.098	0.085
-285.559	800.000	-0.017	-0.054
-284.545	561.833	-0.080	-0.192
-283.530	-17.852	0.247	-0.153
-282.516	-11.090	-0.040	-0.026
-281.501	-34.940	0.198	0.107
-280.486	297.570	0.093	0.169
-279.472	-42.706	-0.107	-0.054
-278.457	-200.000	-0.072	-0.371
-277.443	-18.488	-0.152	-0.093
-276.428	-200.000	-0.063	-0.290
-275.413	-140.063	0.239	0.025
-274.399	-60.684	-0.161	-0.068
-273.384	186.123	-0.176	-0.258
-272.370	-58.005	-0.332	-0.143
-271.355	-200.000	0.001	-0.212
-270.340	42.526	0.194	-0.174
-269.326	76.026	0.104	0.109
-268.311	-200.000	-0.003	0.122
-267.297	-200.000	-0.012	-0.212
-266.282	51.776	0.183	-0.172
-265.267	94.206	-0.147	-0.164
-264.253	-81.521	0.232	-0.075
-263.238	-67.846	-0.421	-0.162
-262.224	225.122	-0.182	0.291
-261.209	-23.425	0.391	0.231
-260.195	-200.000	0.053	0.301
-259.180	-110.876	-0.042	0.009
-258.165	-200.000	-0.047	0.251
-257.151	186.970	0.149	-0.219
-256.136	-200.000	0.009	0.203
-255.122	-172.560	0.315	-0.010
-254.107	18.301	-0.105	0.083
-253.092	-200.000	-0.019	-0.190
-252.078	-47.119	0.316	-0.152
-251.063	-82.384	0.272	0.087
-250.049	241.737	0.105	0.173
-249.034	397.693	-0.037	-0.076
-248.019	-129.937	-0.319	-0.043
-247.005	800.000	0.043	0.136
-245.990	-101.358	0.255	0.061
-244.976	714.511	-0.043	0.113
-243.961	-76.241	-0.616	-0.214
-242.946	96.257	-0.112	0.126
-241.932	-144.014	-0.157	-0.015
-240.917	186.542	-0.150	0.219
-239.903	54.160	0.202	0.191
-238.888	63.921	-0.114	0.113
-237.873	-97.368	0.105	-0.027
-236.859	800.000	0.047	0.160
-235.844	-10.912	-0.311	0.203
-234.830	-200.000	-0.034	0.180
-233.815	311.343	0.218	-0.403
-232.800	-200.000	0.006	0.123
-231.786	-182.339	0.375	0.007
-230.771	-18.177	-0.145	-0.089
-229.757	-200.000	-0.030	0.141
-228.742	-45.758	-0.086	0.042
-227.727	-155.949	0.242	0.015
-226.713	-200.000	0.004	-0.217
-225.698	800.000	0.078	-0.284
-224.684	800.000	-0.137	0.448
-223.669	-179.652	0.159	-0.003
-222.655	645.062	-0.028	-0.071
-221.640	271.476	0.007	-0.012
-220.625	-7.740	0.250	-0.166
-219.611	515.654	-0.063	0.146
-218.596	68.479	-0.173	0.174
-217.582	86.592	0.112	-0.122
-216.567	-118.996	0.153	-0.026
-215.552	299.960	0.095	-0.172
-214.538	356.107	-0.059	0.115
-213.523	-200.000	0.063	-0.356
-212.509	-41.320	0.014	0.007
-211.494	426.493	-0.125	-0.266
-210.479	130.378	-0.178	-0.224
-209.465	373.411	0.107	0.215
-208.450	-96.790	-0.203	-0.052
-207.436	207.355	-0.073	0.111
-206.421	-69.980	-0.341	0.128
-205.406	605.373	-0.150	0.366
-204.392	800.000	0.083	0.304
-203.377	800.000	0.050	0.197
-202.363	149.624	0.209	0.278
-201.348	64.648	0.061	-0.060
-200.333	-126.807	-0.380	-0.055
-199.319	134.433	-0.140	0.178
-198.304	30.947	-0.051	0.043
-197.290	232.608	0.235	0.380
-196.275	9.372	0.106	-0.079
-195.260	800.000	-0.054	-0.194
-194.246	-74.255	0.230	-0.082
-193.231	-54.646	-0.178	0.079
-192.217	-66.143	0.311	-0.122
-191.202	-200.000	-0.028	0.375
-190.187	10.358	0.237	0.178
-189.173	102.491	0.122	0.140
-188.158	-200.000	0.014	-0.266
-187.144	575.103	0.119	-0.286
-186.129	-200.000	-0.008	0.250
-185.114	27.600	-0.240	0.199
-184.100	-183.219	0.145	0.003
-183.085	281.184	0.188	-0.330
-182.071	-40.981	-0.247	-0.126
-181.056	395.933	0.083	-0.170
-180.042	-200.000	0.006	-0.109
-179.027	-169.815	0.131	0.005
-178.012	230.086	-0.046	-0.074
-176.998	155.419	0.066	-0.090
-175.983	-7.201	-0.098	-0.065
-174.969	301.141	0.179	-0.326
-173.954	-200.000	-0.014	0.205
-172.939	289.170	0.037	-0.066
-171.925	-200.000	-0.013	0.402
-170.910	92.592	0.390	0.433
-169.896	800.000	0.054	0.159
-168.881	46.075	-0.269	-0.244
-167.866	-78.584	0.140	0.047
-166.852	-145.727	-0.092	0.008
-165.837	-73.561	0.206	0.074
-164.823	-200.000	-0.002	0.163
-163.808	-8.016	0.447	-0.296
-162.793	-92.453	0.087	-0.024
-161.779	-145.097	-0.198	-0.018
-160.764	-90.752	0.257	0.073
-159.750	800.000	-0.032	0.101
-158.735	-130.414	-0.316	-0.042
-157.720	-200.000	0.017	0.150
-156.706	-200.000	-0.008	0.062
-155.691	98.607	-0.238	0.270
-154.677	-83.893	-0.181	-0.057
-153.662	276.325	0.216	-0.376
-152.647	64.285	-0.076	-0.075
-151.633	-123.402	-0.304	-0.048
-150.618	187.233	-0.157	-0.229
-149.604	124.598	0.172	0.212
-148.589	212.136	0.110	-0.169
-147.574	-95.133	0.106	0.028
-146.560	68.772	0.399	0.402
-145.545	-143.220	-0.385	0.036
-144.531	27.260	-0.185	-0.152
-143.516	-200.000	-0.017	0.146
-142.502	715.016	0.111	0.288
-141.487	620.746	0.052	0.129
-140.472	-81.851	-0.104	0.033
-139.458	341.042	-0.259	0.497
-138.443	-200.000	-0.052	-0.223
-137.429	-200.000	-0.044	-0.223
-136.414	117.370	-0.055	-0.066
-135.399	-6.235	-0.230	-0.154
-134.385	-41.575	-0.234	0.118
-133.370	-76.325	0.423	0.146
-132.356	-111.849	-0.176	-0.035
-131.341	26.370	-0.148	0.121
-130.326	-200.000	0.014	-0.076
-129.312	-4.418	-0.053	-0.036
-128.297	4.160	0.183	0.131
-127.283	323.486	0.038	-0.071
-126.268	45.525	0.110	-0.100
-125.253	-79.994	-0.134	-0.044
-124.239	800.000	-0.087	-0.251
-123.224	-88.401	0.282	0.083
-122.210	-106.585	-0.033	-0.007
