DTS Sentinel unit serial number:	SN413079Multiplexer serial number:	ORYXHardware model number:	OX4-SRSoftware version number:	ORYX F/W v4.00 Oryx Data Collector v3.7.2.0data status	okinstallation	princeton_trtdifferential loss correction	single-endedforward channel	channel 2reverse channel	N/Adate	2019/09/17time	08:31:35forward acquisition time	60.00reverse acquisition time	0.00gamma	496.2192k internal	0.2332k external	0.2332temperature offset calibration	0.9974default loss term (dB/km)	0.3790temperature slope calibration	1.0000multiplexer offset coefficient	1.0000multiplexer slope coefficient	1.0000fibre end	0.00T internal ref (°C)	27.56T ext. ref 1 (°C)	0.14T ext. ref 2 (°C)	23.09length (m)	temperature (°C)	Stokes	anti-Stokes-747.200	109.747	0.128	-0.154
-746.185	-200.000	-0.017	0.115
-745.171	452.202	-0.049	-0.109
-744.156	-79.316	-0.286	0.097
-743.142	69.073	0.097	0.100
-742.127	325.299	-0.050	0.096
-741.112	-200.000	-0.014	0.090
-740.098	157.557	-0.198	0.276
-739.083	-5.741	-0.133	-0.091
-738.069	-139.674	-0.309	0.033
-737.054	-50.648	-0.129	-0.061
-736.039	-200.000	0.073	0.324
-735.025	31.871	-0.109	-0.094
-734.010	734.890	-0.065	0.175
-732.996	-163.181	0.183	-0.009
-731.981	530.771	-0.074	-0.175
-730.966	284.519	0.066	-0.119
-729.952	-131.038	-0.137	0.018
-728.937	-200.000	0.027	0.175
-727.923	-200.000	0.005	-0.284
-726.908	-200.000	-0.051	-0.294
-725.894	-54.053	-0.197	0.090
-724.879	161.157	-0.021	0.029
-723.864	92.346	-0.167	0.189
-722.850	-200.000	0.001	-0.070
-721.835	-131.817	0.183	0.024
-720.821	215.587	-0.130	0.208
-719.806	-200.000	0.019	0.209
-718.791	-200.000	0.010	0.298
-717.777	9.344	0.115	0.088
-716.762	-115.139	-0.189	-0.036
-715.748	-44.521	-0.200	0.100
-714.733	800.000	-0.044	-0.193
-713.718	162.470	-0.160	0.226
-712.704	-179.710	-0.366	-0.008
-711.689	72.702	-0.134	0.140
-710.675	800.000	-0.106	0.306
-709.660	43.811	0.288	0.265
-708.645	-27.257	0.135	0.079
-707.631	233.624	-0.047	0.078
-706.616	-129.600	0.063	-0.009
-705.602	159.078	-0.101	0.141
-704.587	253.483	0.145	0.248
-703.572	188.331	-0.064	-0.097
-702.558	7.225	0.181	-0.136
-701.543	-107.025	0.217	-0.048
-700.529	-200.000	-0.015	0.203
-699.514	-200.000	-0.032	0.214
-698.499	70.481	-0.140	0.146
-697.485	-200.000	0.004	-0.065
-696.470	-60.424	0.080	-0.034
-695.456	45.963	0.212	0.197
-694.441	800.000	-0.089	-0.384
-693.426	332.397	-0.079	0.153
-692.412	36.331	0.070	-0.062
-691.397	800.000	-0.051	-0.143
-690.383	-58.602	0.118	-0.051
-689.368	-35.230	-0.151	0.083
-688.354	212.815	0.147	0.233
-687.339	174.011	-0.241	-0.349
-686.324	800.000	-0.063	0.181
-685.310	180.558	0.046	0.067
-684.295	-19.389	-0.309	-0.193
-683.281	-44.676	0.072	-0.036
-682.266	70.128	-0.081	-0.084
-681.251	-109.567	-0.142	0.030
-680.237	4.009	-0.311	-0.228
-679.222	-34.476	0.351	-0.193
-678.208	371.932	-0.190	-0.386
-677.193	321.879	0.034	0.066
-676.178	58.700	-0.059	0.058
-675.164	35.093	-0.085	-0.075
-674.149	-23.882	-0.324	0.195
-673.135	65.703	-0.194	-0.197
-672.120	319.215	0.118	0.224
-671.105	176.297	-0.080	0.116
-670.091	184.463	-0.222	0.329
-669.076	330.460	-0.032	0.062
-668.062	-46.463	-0.404	-0.199
-667.047	800.000	0.080	-0.261
-666.032	118.232	-0.129	-0.160
-665.018	-200.000	-0.005	-0.148
-664.003	-122.018	-0.089	-0.015
-662.989	-107.703	-0.266	-0.058
-661.974	-111.817	0.174	0.035
-660.959	255.280	-0.046	-0.079
-659.945	276.563	-0.113	-0.201
-658.930	383.379	-0.111	0.229
-657.916	-200.000	-0.014	0.160
-656.901	-195.541	0.104	0.001
-655.886	-132.772	-0.103	0.013
-654.872	518.961	-0.026	-0.061
-653.857	125.486	-0.126	0.159
-652.843	-200.000	-0.017	-0.267
-651.828	-170.764	0.158	-0.005
-650.814	115.953	0.250	-0.307
-649.799	653.350	0.128	-0.330
-648.784	-135.686	-0.110	-0.013
-647.770	-137.606	-0.437	-0.049
-646.755	508.467	0.147	-0.343
-645.741	800.000	-0.032	0.116
-644.726	536.447	-0.090	-0.213
-643.711	111.207	0.249	0.301
-642.697	32.501	0.146	0.127
-641.682	-85.649	-0.302	-0.094
-640.668	-200.000	-0.068	0.306
-639.653	-154.323	0.459	-0.031
-638.638	-200.000	-0.027	-0.149
-637.624	-120.349	0.039	-0.007
-636.609	-200.000	-0.022	0.288
-635.595	216.228	-0.138	0.219
-634.580	-200.000	0.031	-0.171
-633.565	800.000	0.107	-0.347
-632.551	-136.478	0.231	0.027
-631.536	800.000	-0.104	0.432
-630.522	-18.535	-0.258	0.162
-629.507	-92.321	-0.265	-0.075
-628.492	34.576	0.051	-0.044
-627.478	53.363	0.249	-0.239
-626.463	-150.580	0.236	-0.018
-625.449	86.844	0.068	0.075
-624.434	800.000	-0.092	0.267
-623.419	564.044	0.104	-0.253
-622.405	189.903	-0.124	0.186
-621.390	71.422	-0.062	0.064
-620.376	-120.267	0.337	-0.058
-619.361	296.196	0.108	-0.198
-618.346	800.000	-0.069	-0.293
-617.332	6.201	0.063	0.047
-616.317	800.000	-0.086	-0.250
-615.303	-40.284	0.488	0.254
-614.288	45.360	0.125	0.115
-613.273	-200.000	0.003	-0.033
-612.259	-4.742	0.196	0.135
-611.244	-93.922	0.325	-0.090
-610.230	-112.076	-0.252	-0.051
-609.215	284.591	0.054	0.096
-608.201	40.147	0.118	-0.106
-607.186	400.173	-0.117	-0.246
-606.171	800.000	-0.069	0.302
-605.157	106.813	-0.156	0.185
-604.142	104.694	-0.130	0.153
-603.128	-34.196	0.133	0.073
-602.113	42.371	-0.183	-0.166
-601.098	-87.865	-0.347	0.104
-600.084	-200.000	0.049	0.263
-599.069	-143.701	-0.250	-0.024
-598.055	25.794	-0.333	0.278
-597.040	-115.636	0.374	-0.070
-596.025	-200.000	0.015	-0.104
-595.011	11.459	-0.007	-0.005
-593.996	-89.833	-0.310	0.091
-592.982	405.555	-0.059	0.124
-591.967	82.484	0.258	-0.281
-590.952	-104.737	-0.200	-0.046
-589.938	-16.454	0.078	-0.050
-588.923	738.755	-0.079	-0.211
-587.909	375.897	0.186	-0.379
-586.894	349.834	0.113	0.224
-585.879	-200.000	-0.038	0.647
-584.865	-100.743	-0.436	0.107
-583.850	-35.767	0.116	-0.063
-582.836	800.000	-0.078	0.302
-581.821	-166.005	-0.149	-0.006
-580.806	-56.220	0.162	-0.072
-579.792	119.537	0.114	-0.141
-578.777	19.443	-0.129	-0.104
-577.763	-163.309	-0.065	-0.003
-576.748	-38.335	-0.133	-0.070
-575.733	-62.585	-0.103	-0.043
-574.719	-56.864	-0.162	0.071
-573.704	-200.000	-0.023	-0.272
-572.690	-95.969	-0.288	0.077
-571.675	800.000	-0.016	0.063
-570.661	150.004	-0.088	-0.120
-569.646	531.278	0.100	-0.237
-568.631	454.903	0.072	-0.160
-567.617	800.000	0.089	0.252
-566.602	239.379	0.062	0.104
-565.588	88.126	-0.058	-0.064
-564.573	-94.467	-0.387	0.105
-563.558	-148.255	-0.228	-0.019
-562.544	-138.166	0.036	-0.004
-561.529	-200.000	0.002	-0.107
-560.515	-151.939	-0.287	0.021
-559.500	-55.098	-0.061	-0.028
-558.485	113.343	-0.031	-0.038
-557.471	251.582	0.093	0.159
-556.456	522.258	-0.099	-0.233
-555.442	-200.000	-0.101	0.543
-554.427	-200.000	0.015	0.150
-553.412	178.373	-0.260	-0.379
-552.398	-200.000	-0.011	0.275
-551.383	-97.675	0.207	-0.054
-550.369	-54.712	-0.337	-0.152
-549.354	-50.533	0.160	-0.075
-548.339	-47.503	0.197	0.096
-547.325	-111.332	-0.167	0.034
-546.310	152.979	-0.129	-0.177
-545.296	-94.169	0.233	-0.064
-544.281	800.000	0.164	-0.464
-543.266	367.199	0.068	0.138
-542.252	-81.081	-0.272	0.090
-541.237	-65.311	-0.066	0.027
-540.223	-22.899	-0.255	-0.153
-539.208	-200.000	-0.052	-0.395
-538.193	-97.610	0.112	-0.029
-537.179	-172.227	0.325	0.010
-536.164	-37.247	0.134	0.071
-535.150	248.137	0.051	-0.086
-534.135	-146.863	-0.206	0.018
-533.121	-191.692	-0.148	-0.001
-532.106	13.491	-0.347	-0.269
-531.091	-14.315	0.111	-0.071
-530.077	-63.500	0.382	-0.156
-529.062	149.785	-0.190	0.257
-528.048	-162.311	0.402	-0.020
-527.033	800.000	0.022	0.070
-526.018	-124.489	-0.196	-0.030
-525.004	-200.000	-0.006	-0.105
-523.989	42.306	0.249	0.225
-522.975	-59.087	0.115	-0.049
-521.960	-200.000	0.005	-0.290
-520.945	-200.000	-0.042	-0.223
-519.931	-47.451	0.193	0.094
-518.916	426.222	-0.102	0.218
-517.902	211.577	0.126	0.198
-516.887	-200.000	-0.024	-0.345
-515.872	-83.218	-0.206	-0.066
-514.858	25.438	0.071	0.059
-513.843	-200.000	0.013	0.276
-512.829	9.700	0.126	-0.095
-511.814	-200.000	0.022	0.322
-510.799	-200.000	0.000	0.118
-509.785	-200.000	-0.009	0.239
-508.770	21.198	0.153	-0.124
-507.756	-10.448	0.281	-0.186
-506.741	-180.752	-0.240	-0.005
-505.726	637.841	0.176	-0.445
-504.712	-12.516	0.067	-0.043
-503.697	-72.789	-0.327	-0.120
-502.683	-114.976	-0.080	-0.015
-501.668	-85.594	0.380	-0.118
-500.653	122.848	0.122	-0.152
-499.639	35.603	-0.124	0.109
-498.624	128.249	-0.235	0.298
-497.610	-200.000	-0.012	0.149
-496.595	-66.413	-0.011	-0.004
-495.581	-200.000	0.013	-0.112
-494.566	-76.728	-0.265	-0.093
-493.551	-92.614	0.369	-0.103
-492.537	7.879	-0.445	-0.332
-491.522	-200.000	-0.000	0.049
-490.508	432.029	-0.097	-0.209
-489.493	191.168	-0.099	0.148
-488.478	-103.248	0.146	0.034
-487.464	162.043	-0.376	-0.525
-486.449	81.119	-0.042	-0.045
-485.435	-200.000	-0.007	-0.052
-484.420	749.068	-0.074	-0.199
-483.405	457.048	0.083	-0.184
-482.391	-121.058	-0.280	0.047
-481.376	800.000	0.046	0.164
-480.362	172.278	0.093	-0.133
-479.347	-200.000	0.022	-0.183
-478.332	800.000	0.057	0.230
-477.318	201.148	-0.201	0.308
-476.303	41.066	0.145	0.130
-475.289	-8.233	0.155	-0.104
-474.274	72.878	-0.145	0.151
-473.259	460.320	-0.068	0.150
-472.245	800.000	0.049	-0.200
-471.230	-166.477	0.168	0.007
-470.216	800.000	0.080	0.252
-469.201	-192.467	-0.091	-0.001
-468.186	-112.016	0.297	0.059
-467.172	-200.000	-0.024	-0.156
-466.157	800.000	-0.093	0.288
-465.143	7.191	-0.228	-0.169
-464.128	-61.614	0.079	0.033
-463.113	-200.000	0.020	-0.183
-462.099	-39.310	-0.066	0.035
-461.084	-200.000	0.004	0.092
-460.070	341.825	-0.143	0.278
-459.055	-67.781	0.309	-0.120
-458.040	262.936	0.042	-0.073
-457.026	-200.000	0.001	0.118
-456.011	443.546	0.061	0.132
-454.997	53.754	-0.095	0.091
-453.982	292.386	0.272	-0.493
-452.968	-51.472	0.117	-0.054
-451.953	249.797	-0.051	0.086
-450.938	499.806	0.085	-0.196
-449.924	54.666	-0.205	-0.197
-448.909	56.153	-0.184	0.178
-447.895	194.156	-0.164	0.247
-446.880	-200.000	-0.042	0.185
-445.865	-81.395	-0.077	0.025
-444.851	-115.026	-0.440	-0.083
-443.836	100.299	0.063	0.073
-442.822	-200.000	0.017	0.326
-441.807	422.185	0.054	0.116
-440.792	800.000	0.047	-0.146
-439.778	-109.688	-0.262	-0.055
-438.763	-84.482	-0.089	0.028
-437.749	-145.693	-0.239	-0.021
-436.734	754.212	0.114	0.305
-435.719	-79.788	-0.040	0.013
-434.705	119.374	-0.196	0.241
-433.690	800.000	0.095	0.318
-432.676	52.086	0.019	0.018
-431.661	800.000	-0.096	0.310
-430.646	800.000	-0.138	0.398
-429.632	-134.203	-0.263	0.032
-428.617	-200.000	0.007	-0.084
-427.603	728.636	0.136	0.360
-426.588	224.879	0.148	0.238
-425.573	-200.000	0.030	-0.165
-424.559	294.599	0.112	-0.203
-423.544	-196.448	0.245	0.002
-422.530	-138.172	-0.083	-0.009
-421.515	127.313	0.178	-0.224
-420.500	754.516	0.072	0.194
-419.486	140.979	0.227	0.298
-418.471	800.000	-0.016	0.056
-417.457	746.914	-0.072	-0.194
-416.442	800.000	-0.065	-0.226
-415.428	725.712	-0.044	-0.118
-414.413	61.894	0.053	0.052
-413.398	445.211	0.141	0.307
-412.384	461.758	-0.067	-0.148
-411.369	213.397	-0.166	-0.260
-410.355	100.467	0.133	0.154
-409.340	-32.510	0.348	-0.192
-408.325	206.682	-0.147	-0.227
-407.311	-97.265	-0.083	0.022
-406.296	800.000	-0.012	-0.050
-405.282	-2.150	-0.361	-0.251
-404.267	-130.375	0.059	-0.008
-403.252	752.346	-0.045	-0.121
-402.238	-70.885	-0.362	0.136
-401.223	-200.000	0.036	0.183
-400.209	-199.869	-0.081	-0.000
-399.194	268.330	-0.057	0.100
-398.179	-29.484	0.135	-0.076
-397.165	130.060	-0.094	-0.120
-396.150	-4.688	0.220	-0.151
-395.136	-174.079	-0.096	-0.003
-394.121	-63.080	0.130	0.053
-393.106	800.000	0.049	-0.160
-392.092	-200.000	0.049	0.396
-391.077	-178.477	-0.162	0.004
-390.063	-130.147	0.115	-0.016
-389.048	-99.592	0.506	0.126
-388.033	-200.000	-0.141	0.000
-387.019	-142.117	-0.121	0.012
-386.004	-133.297	0.265	0.033
-384.990	185.144	-0.092	-0.135
-383.975	140.414	0.119	-0.156
-382.960	598.525	0.197	-0.485
-381.946	353.910	0.046	-0.090
-380.931	65.048	0.169	-0.170
-379.917	-40.542	-0.334	-0.172
-378.902	-2.461	0.080	-0.055
-377.888	-124.090	-0.196	0.031
-376.873	-200.000	-0.014	-0.429
-375.858	-118.592	-0.171	-0.030
-374.844	127.673	0.243	-0.306
-373.829	-111.073	0.100	0.020
-372.815	5.522	0.294	0.215
-371.800	83.936	0.098	0.106
-370.785	193.527	-0.013	0.020
-369.771	800.000	-0.097	-0.323
-368.756	-27.036	0.281	-0.163
-367.742	-200.000	0.001	-0.175
-366.727	-200.000	-0.003	-0.159
-365.712	30.664	0.320	-0.271
-364.698	-15.159	-0.162	-0.103
-363.683	800.000	0.038	-0.111
-362.669	-138.950	-0.138	0.015
-361.654	158.329	-0.113	-0.155
-360.639	130.126	-0.064	0.082
-359.625	22.172	0.403	0.326
-358.610	-32.596	-0.263	0.145
-357.596	305.359	-0.123	-0.226
-356.581	3.779	0.204	0.147
-355.566	210.897	-0.181	-0.282
-354.552	-200.000	0.008	0.121
-353.537	-106.883	-0.144	-0.032
-352.523	-107.340	0.418	-0.091
-351.508	585.823	-0.263	0.640
-350.493	351.620	0.067	-0.131
-349.479	386.824	0.151	0.308
-348.464	-96.335	-0.170	-0.044
-347.450	-12.810	-0.129	-0.083
-346.435	345.868	-0.154	-0.299
-345.420	190.641	0.076	0.113
-344.406	174.442	-0.028	0.041
-343.391	18.522	-0.206	-0.163
-342.377	326.970	0.153	-0.291
-341.362	-72.694	-0.301	0.110
-340.348	59.420	-0.145	-0.141
-339.333	-20.060	0.243	0.149
-338.318	-200.000	0.016	-0.129
-337.304	-16.153	-0.083	-0.052
-336.289	-98.431	-0.238	0.060
-335.275	-200.000	0.028	-0.189
-334.260	9.039	0.093	-0.069
-333.245	-117.775	0.161	-0.029
-332.231	-27.595	-0.291	0.167
-331.216	152.455	-0.083	0.112
-330.202	-67.414	0.258	0.100
-329.187	-38.671	0.225	-0.118
-328.172	286.535	0.201	-0.360
-327.158	88.320	0.157	-0.172
-326.143	90.676	0.114	0.126
-325.129	289.731	-0.181	-0.325
-324.114	-15.003	0.115	-0.073
-323.099	-30.391	0.062	0.035
-322.085	16.092	-0.375	0.293
-321.070	248.688	-0.110	-0.185
-320.056	61.588	-0.082	-0.081
-319.041	326.322	0.040	-0.076
-318.026	388.119	-0.171	0.351
-317.012	-91.004	-0.170	0.048
-315.997	51.911	0.096	0.090
-314.983	45.513	0.079	-0.072
-313.968	-78.856	-0.316	-0.107
-312.953	406.567	0.051	0.106
-311.939	800.000	0.072	0.205
-310.924	-89.155	-0.236	-0.069
-309.910	20.574	0.377	-0.302
-308.895	438.020	-0.044	-0.095
-307.880	271.530	-0.052	0.090
-306.866	91.491	0.258	0.286
-305.851	96.288	-0.151	-0.171
-304.837	18.995	0.056	0.044
-303.822	-200.000	-0.005	0.031
-302.807	265.322	0.130	-0.224
-301.793	207.846	0.152	0.235
-300.778	-78.900	0.302	0.102
-299.764	-130.264	-0.174	0.023
-298.749	133.447	-0.057	-0.073
-297.735	697.961	0.095	-0.248
-296.720	800.000	-0.020	0.060
-295.705	-200.000	0.008	0.256
-294.691	40.858	0.145	0.129
-293.676	-200.000	-0.002	-0.073
-292.662	-61.726	0.044	0.018
-291.647	800.000	0.038	0.156
-290.632	-200.000	0.014	-0.280
-289.618	-102.168	0.246	-0.058
-288.603	58.248	0.220	-0.213
-287.589	304.568	-0.144	-0.264
-286.574	800.000	-0.038	0.141
-285.559	-200.000	-0.009	0.189
-284.545	218.391	-0.170	-0.269
-283.530	-200.000	0.026	0.399
-282.516	91.386	0.118	0.131
-281.501	-76.771	-0.216	0.075
-280.486	796.690	-0.017	0.046
-279.472	-34.492	0.127	0.069
-278.457	15.428	0.089	0.069
-277.443	-127.588	0.238	0.034
-276.428	255.082	-0.085	-0.144
-275.413	128.314	0.147	-0.185
-274.399	-37.528	-0.123	-0.065
-273.384	-155.715	0.202	0.013
-272.370	-200.000	-0.026	0.224
-271.355	-98.933	0.243	-0.061
-270.340	377.249	-0.103	0.208
-269.326	-200.000	0.002	0.205
-268.311	-109.859	0.319	-0.066
-267.297	100.788	-0.159	0.183
-266.282	71.130	-0.033	0.034
-265.267	-77.032	0.167	0.057
-264.253	38.017	0.194	0.171
-263.238	-43.956	0.120	-0.059
-262.224	266.587	-0.020	0.035
-261.209	-200.000	-0.030	0.157
-260.195	467.536	0.181	-0.401
-259.180	24.309	0.031	0.025
-258.165	-166.354	-0.416	0.017
-257.151	31.724	-0.215	0.183
-256.136	421.519	0.147	0.312
-255.122	538.103	0.093	-0.218
-254.107	-75.673	-0.193	0.068
-253.092	49.872	0.076	-0.071
-252.078	49.457	0.277	-0.258
-251.063	800.000	0.019	-0.058
-250.049	271.972	-0.113	0.196
-249.034	74.920	-0.290	0.302
-248.019	800.000	-0.105	0.421
-247.005	-200.000	0.022	0.163
-245.990	186.103	-0.096	0.141
-244.976	-19.631	-0.074	0.045
-243.961	43.366	-0.092	-0.083
-242.946	-78.186	0.348	0.118
-241.932	-200.000	0.015	0.147
-240.917	-200.000	-0.015	-0.139
-239.903	-65.427	0.165	0.065
-238.888	2.378	-0.146	-0.104
-237.873	-173.080	-0.260	0.008
-236.859	800.000	-0.057	0.187
-235.844	741.813	0.221	0.585
-234.830	800.000	-0.027	0.114
-233.815	-41.150	0.285	-0.145
-232.800	158.457	-0.237	-0.325
-231.786	800.000	0.032	-0.117
-230.771	135.496	-0.086	0.111
-229.757	411.529	-0.028	-0.059
-228.742	169.731	-0.101	-0.142
-227.727	464.749	0.048	0.106
-226.713	-30.758	0.142	0.079
-225.698	155.873	0.166	-0.225
-224.684	-132.958	0.065	-0.008
-223.669	77.292	0.158	0.165
-222.655	41.190	-0.124	0.111
-221.640	-112.019	-0.258	-0.051
-220.625	290.362	0.093	0.167
-219.611	-110.106	0.235	-0.048
-218.596	289.526	0.134	-0.239
-217.582	322.195	-0.027	-0.050
-216.567	800.000	0.061	0.221
-215.552	141.689	-0.039	-0.051
-214.538	457.302	-0.054	-0.119
-213.523	-77.273	-0.355	0.122
-212.509	-167.436	0.108	-0.004
-211.494	117.557	-0.249	-0.302
-210.479	-144.056	-0.284	0.026
-209.465	49.510	-0.259	0.240
-208.450	263.911	-0.055	0.095
-207.436	-152.444	-0.142	-0.010
-206.421	-200.000	0.009	-0.245
-205.406	75.837	0.134	0.139
-204.392	537.088	0.084	0.197
-203.377	800.000	-0.086	0.285
-202.363	144.544	0.135	-0.178
-201.348	800.000	0.067	-0.209
-200.333	45.037	0.097	-0.088
-199.319	20.784	0.072	0.057
-198.304	-200.000	0.001	0.231
-197.290	-182.865	-0.321	0.006
-196.275	180.513	0.134	0.194
-195.260	324.822	0.045	0.084
-194.246	153.691	0.038	0.051
-193.231	-16.307	0.123	-0.077
-192.217	-200.000	-0.004	-0.028
-191.202	-9.630	0.096	0.063
-190.187	-200.000	-0.039	-0.181
-189.173	-85.347	0.408	0.125
-188.158	-200.000	-0.032	0.156
-187.144	554.844	0.092	0.217
-186.129	-200.000	0.048	0.236
-185.114	-171.066	-0.370	0.012
-184.100	-118.171	-0.164	0.029
-183.085	-110.512	0.454	0.093
-182.071	-133.834	-0.060	0.007
-181.056	256.311	0.127	0.215
-180.042	800.000	-0.038	-0.128
-179.027	-137.020	0.348	0.039
-178.012	-129.955	0.209	-0.028
-176.998	-94.563	0.061	0.016
-175.983	60.151	-0.290	0.283
-174.969	-78.487	0.334	-0.112
-173.954	-200.000	0.010	0.103
-172.939	-200.000	0.009	-0.110
-171.925	-108.609	-0.116	-0.024
-170.910	-153.743	0.411	0.028
-169.896	-132.654	-0.216	-0.027
-168.881	-130.459	-0.454	0.060
-167.866	286.139	0.107	-0.190
-166.852	549.620	0.153	-0.361
-165.837	-200.000	-0.030	-0.210
-164.823	-45.848	0.013	0.006
-163.808	800.000	0.032	-0.123
-162.793	113.960	0.126	0.151
-161.779	19.750	-0.090	0.071
-160.764	-200.000	-0.040	-0.271
-159.750	86.470	-0.179	-0.194
-158.735	-65.616	0.119	0.047
-157.720	-56.308	-0.143	-0.063
-156.706	-36.845	-0.219	0.116
-155.691	-39.913	0.274	0.140
-154.677	-16.098	-0.162	-0.101
-153.662	98.111	0.118	0.133
-152.647	81.084	-0.246	-0.261
-151.633	126.703	0.133	0.165
-150.618	-94.097	-0.194	-0.052
-149.604	-95.867	0.351	0.092
-148.589	-41.382	-0.428	0.216
-147.574	368.677	0.036	0.072
-146.560	-200.000	-0.023	0.101
-145.545	-20.915	-0.089	0.054
-144.531	-162.990	0.513	-0.024
-143.516	405.192	0.006	-0.012
-142.502	119.923	-0.163	0.198
-141.487	-200.000	0.046	0.263
-140.472	18.777	-0.014	0.011
-139.458	325.472	-0.069	-0.129
-138.443	-42.412	0.153	-0.077
-137.429	-6.438	0.147	0.098
-136.414	-141.089	-0.338	0.034
-135.399	-71.774	0.403	0.147
-134.385	800.000	0.023	-0.076
-133.370	675.094	-0.150	-0.381
-132.356	800.000	0.102	-0.332
-131.341	34.639	0.148	0.127
-130.326	-77.227	0.213	0.073
-129.312	218.954	-0.080	0.125
-128.297	146.905	-0.077	0.102
-127.283	-44.233	0.156	-0.077
-126.268	-54.578	0.241	0.107
-125.253	140.266	0.064	0.083
-124.239	-200.000	-0.005	-0.135
-123.224	-0.130	0.144	-0.100
-122.210	-34.006	0.481	-0.260
-121.195	269.049	-0.028	0.048
