DTS Sentinel unit serial number:	SN413079Multiplexer serial number:	ORYXHardware model number:	OX4-SRSoftware version number:	ORYX F/W v4.00 Oryx Data Collector v3.7.2.0data status	okinstallation	princeton_trtdifferential loss correction	single-endedforward channel	channel 2reverse channel	N/Adate	2019/09/18time	23:19:35forward acquisition time	60.00reverse acquisition time	0.00gamma	496.2192k internal	0.2349k external	0.2349temperature offset calibration	1.0020default loss term (dB/km)	0.3790temperature slope calibration	1.0000multiplexer offset coefficient	1.0000multiplexer slope coefficient	1.0000fibre end	0.00T internal ref (°C)	23.84T ext. ref 1 (°C)	0.78T ext. ref 2 (°C)	17.03length (m)	temperature (°C)	Stokes	anti-Stokes-747.200	-200.000	0.000	-0.258
-746.185	258.967	-0.156	0.269
-745.171	281.470	0.112	-0.200
-744.156	-52.764	-0.274	0.126
-743.142	800.000	-0.065	-0.227
-742.127	800.000	0.052	0.200
-741.112	-48.458	-0.167	-0.080
-740.098	201.430	0.128	0.197
-739.083	35.863	-0.068	0.060
-738.069	25.059	0.112	0.093
-737.054	-15.794	-0.193	0.123
-736.039	-83.777	-0.196	0.062
-735.025	68.165	-0.204	0.209
-734.010	40.507	-0.079	0.071
-732.996	-200.000	0.014	-0.329
-731.981	274.260	0.129	-0.227
-730.966	-94.924	0.041	-0.011
-729.952	-200.000	-0.011	0.052
-728.937	115.591	-0.180	0.219
-727.923	105.073	-0.011	0.013
-726.908	164.963	0.032	-0.045
-725.894	-200.000	0.030	-0.197
-724.879	771.815	-0.096	0.261
-723.864	-27.326	0.036	-0.021
-722.850	-74.317	-0.182	-0.065
-721.835	800.000	0.095	-0.345
-720.821	298.413	-0.128	-0.234
-719.806	-10.491	-0.139	-0.092
-718.791	-200.000	-0.013	-0.286
-717.777	800.000	0.093	-0.307
-716.762	263.135	0.080	-0.138
-715.748	181.010	0.231	0.339
-714.733	446.223	0.205	-0.449
-713.718	-0.252	-0.225	-0.160
-712.704	-109.120	-0.482	0.102
-711.689	534.647	-0.055	-0.131
-710.675	-89.565	-0.064	-0.019
-709.660	-9.520	0.302	0.201
-708.645	398.723	-0.092	0.192
-707.631	-200.000	0.033	0.187
-706.616	212.860	0.159	0.251
-705.602	-162.263	-0.354	0.018
-704.587	9.154	-0.251	-0.189
-703.572	-37.031	0.267	0.142
-702.558	800.000	0.079	-0.344
-701.543	-23.625	-0.166	0.099
-700.529	-2.427	-0.149	-0.104
-699.514	-29.388	-0.166	-0.095
-698.499	800.000	-0.031	0.104
-697.485	-26.021	0.352	0.206
-696.470	272.319	0.109	-0.192
-695.456	-200.000	-0.062	0.378
-694.441	40.593	-0.249	0.223
-693.426	156.740	-0.146	-0.201
-692.412	-146.368	-0.171	0.015
-691.397	120.375	0.171	-0.211
-690.383	-200.000	-0.009	-0.105
-689.368	-200.000	0.026	-0.268
-688.354	-103.981	-0.130	-0.030
-687.339	-200.000	-0.010	-0.088
-686.324	64.007	0.166	0.166
-685.310	-200.000	-0.048	-0.273
-684.295	428.773	0.101	-0.217
-683.281	2.340	-0.153	0.111
-682.266	351.102	-0.143	0.282
-681.251	259.266	0.185	-0.319
-680.237	-53.598	0.052	-0.024
-679.222	-1.372	0.299	-0.210
-678.208	-106.846	-0.412	-0.091
-677.193	523.401	-0.116	0.273
-676.178	159.432	0.146	0.202
-675.164	800.000	0.055	0.159
-674.149	775.825	-0.068	0.186
-673.135	-134.354	-0.293	-0.036
-672.120	488.460	0.047	-0.107
-671.105	-200.000	-0.005	0.420
-670.091	-200.000	0.004	-0.071
-669.076	40.919	-0.054	-0.048
-668.062	331.151	0.119	0.229
-667.047	-79.077	-0.060	-0.020
-666.032	174.157	0.096	-0.138
-665.018	10.855	-0.184	-0.140
-664.003	-200.000	-0.003	0.309
-662.989	-136.154	0.069	-0.008
-661.974	-132.971	-0.158	-0.020
-660.959	33.229	-0.124	-0.107
-659.945	-200.000	-0.042	0.320
-658.930	76.682	0.050	-0.052
-657.916	-139.753	0.097	0.010
-656.901	62.598	0.065	-0.065
-655.886	-200.000	-0.052	0.308
-654.872	30.044	0.247	0.210
-653.857	-77.375	-0.258	-0.089
-652.843	36.933	0.127	-0.111
-651.828	800.000	-0.064	0.266
-650.814	55.669	0.083	0.080
-649.799	-77.738	-0.119	0.041
-648.784	800.000	0.134	0.378
-647.770	-93.525	0.084	-0.023
-646.755	-41.461	-0.278	-0.142
-645.741	14.265	0.380	0.294
-644.726	-170.915	0.146	-0.005
-643.711	524.930	-0.107	0.250
-642.697	-200.000	-0.003	0.040
-641.682	-154.319	-0.516	-0.035
-640.668	800.000	-0.063	-0.189
-639.653	-29.608	-0.195	-0.111
-638.638	800.000	-0.017	0.071
-637.624	-30.231	-0.245	0.138
-636.609	-173.363	-0.258	-0.008
-635.595	-134.963	-0.363	0.044
-634.580	-100.794	0.060	0.015
-633.565	603.818	-0.083	-0.206
-632.551	-31.117	0.304	0.170
-631.536	-41.113	-0.288	0.148
-630.522	707.493	-0.059	0.155
-629.507	-107.999	-0.013	-0.003
-628.492	-88.617	-0.248	-0.073
-627.478	384.425	0.128	0.261
-626.463	-79.196	-0.255	-0.086
-625.449	-200.000	-0.033	0.386
-624.434	-165.142	0.046	0.002
-623.419	-46.644	-0.317	-0.154
-622.405	800.000	0.053	-0.197
-621.390	-200.000	0.040	-0.264
-620.376	507.493	-0.219	0.504
-619.361	29.735	0.231	-0.195
-618.346	106.700	0.050	0.060
-617.332	160.336	0.206	0.286
-616.317	800.000	-0.074	0.220
-615.303	67.955	-0.112	0.114
-614.288	-200.000	-0.017	-0.076
-613.273	-13.264	0.066	-0.042
-612.259	-115.215	-0.289	0.054
-611.244	380.798	0.141	0.288
-610.230	-139.773	0.056	-0.006
-609.215	-20.122	0.172	-0.105
-608.201	-21.511	0.056	-0.034
-607.186	-19.018	-0.239	-0.147
-606.171	-118.251	-0.211	-0.037
-605.157	615.280	0.102	-0.255
-604.142	5.013	-0.094	-0.069
-603.128	425.256	0.075	-0.160
-602.113	17.644	0.378	0.299
-601.098	21.740	-0.121	0.098
-600.084	-114.899	-0.345	0.065
-599.069	1.372	0.183	-0.131
-598.055	800.000	-0.138	0.410
-597.040	-29.273	-0.147	0.083
-596.025	298.965	-0.124	0.226
-595.011	-25.449	-0.127	0.075
-593.996	27.504	-0.096	0.080
-592.982	48.002	0.320	0.297
-591.967	-107.895	-0.281	-0.061
-590.952	221.723	-0.114	-0.182
-589.938	51.637	0.080	-0.076
-588.923	680.539	0.094	0.243
-587.909	-121.995	0.066	-0.011
-586.894	-114.994	0.323	-0.061
-585.879	283.389	-0.055	-0.099
-584.865	-146.111	-0.022	-0.002
-583.850	172.432	-0.129	0.184
-582.836	-51.559	0.124	0.058
-581.821	800.000	0.069	-0.219
-580.806	-116.989	-0.053	0.010
-579.792	53.516	0.413	-0.393
-578.777	99.458	0.193	0.222
-577.763	-71.905	0.244	0.090
-576.748	21.049	-0.096	0.078
-575.733	-2.399	0.196	0.136
-574.719	133.519	0.199	-0.256
-573.704	10.979	0.080	0.061
-572.690	-26.557	-0.192	-0.112
-571.675	60.924	-0.266	0.262
-570.661	-200.000	-0.082	0.436
-569.646	501.489	-0.098	-0.224
-568.631	-97.888	0.280	-0.072
-567.617	42.039	-0.148	0.133
-566.602	86.305	0.118	-0.129
-565.588	408.073	0.052	0.109
-564.573	-133.999	-0.247	0.030
-563.558	-66.686	0.208	-0.082
-562.544	800.000	-0.114	-0.392
-561.529	-100.090	0.210	-0.052
-560.515	-143.325	-0.110	0.010
-559.500	592.955	-0.057	0.140
-558.485	620.017	-0.068	-0.170
-557.471	169.081	-0.134	-0.190
-556.456	-44.532	-0.179	0.089
-555.442	194.566	-0.056	0.084
-554.427	800.000	0.114	-0.352
-553.412	-14.267	-0.169	-0.108
-552.398	6.240	-0.148	0.109
-551.383	-142.899	-0.146	0.014
-550.369	369.837	0.098	-0.197
-549.354	20.150	-0.320	-0.256
-548.339	-125.775	-0.290	-0.043
-547.325	120.171	-0.251	0.308
-546.310	-200.000	-0.030	-0.469
-545.296	-102.191	-0.135	-0.032
-544.281	-200.000	0.003	-0.170
-543.266	-200.000	-0.006	0.027
-542.252	355.258	0.195	-0.384
-541.237	59.142	0.329	-0.321
-540.223	800.000	-0.117	-0.374
-539.208	-58.297	-0.192	-0.083
-538.193	144.287	-0.169	-0.224
-537.179	-76.195	-0.237	-0.083
-536.164	-200.000	-0.011	0.093
-535.150	177.997	0.179	-0.259
-534.135	-119.353	-0.016	-0.003
-533.121	205.106	0.361	-0.556
-532.106	483.021	0.112	-0.251
-531.091	683.938	-0.116	-0.300
-530.077	-72.481	-0.329	0.120
-529.062	-90.585	0.335	-0.096
-528.048	131.868	0.248	0.316
-527.033	800.000	0.086	0.302
-526.018	28.163	0.146	-0.122
-525.004	800.000	-0.089	-0.263
-523.989	-143.724	0.142	-0.013
-522.975	98.617	0.179	-0.204
-521.960	628.776	0.043	0.108
-520.945	67.234	-0.081	-0.082
-519.931	16.434	-0.057	-0.044
-518.916	508.298	0.136	0.314
-517.902	-125.956	0.311	0.046
-516.887	800.000	0.014	-0.047
-515.872	800.000	0.041	-0.134
-514.858	-150.751	0.186	-0.014
-513.843	800.000	0.023	-0.086
-512.829	800.000	-0.046	-0.164
-511.814	71.806	0.091	-0.094
-510.799	329.666	0.032	-0.062
-509.785	-3.754	-0.197	0.136
-508.770	-29.776	0.259	0.146
-507.756	-200.000	-0.013	0.069
-506.741	-115.608	0.152	-0.028
-505.726	800.000	-0.110	0.332
-504.712	-38.140	0.100	0.053
-503.697	-135.708	-0.358	0.042
-502.683	19.206	-0.117	0.093
-501.668	-151.044	-0.102	0.008
-500.653	-200.000	0.039	-0.326
-499.639	49.043	0.131	0.122
-498.624	-200.000	0.003	0.080
-497.610	-16.354	-0.149	0.094
-496.595	-151.871	-0.311	0.023
-495.581	-93.608	-0.106	0.029
-494.566	510.045	-0.156	0.358
-493.551	87.855	0.291	0.319
-492.537	-200.000	0.004	-0.235
-491.522	13.421	-0.261	-0.200
-490.508	104.273	0.170	0.198
-489.493	-99.065	-0.406	-0.102
-488.478	69.570	-0.279	0.285
-487.464	11.302	0.301	0.227
-486.449	0.418	-0.270	0.191
-485.435	-104.586	-0.171	-0.039
-484.420	-86.091	-0.436	-0.133
-483.405	16.902	-0.096	0.075
-482.391	800.000	0.043	0.161
-481.376	42.618	-0.237	-0.213
-480.362	37.006	0.137	0.120
-479.347	-171.495	-0.225	-0.007
-478.332	-200.000	-0.005	0.134
-477.318	207.849	-0.060	-0.092
-476.303	-112.442	-0.155	0.031
-475.289	-200.000	-0.037	-0.479
-474.274	351.244	-0.067	-0.131
-473.259	-93.073	-0.145	-0.040
-472.245	-200.000	-0.026	-0.126
-471.230	-164.704	-0.302	-0.013
-470.216	-200.000	0.025	-0.193
-469.201	-200.000	-0.016	-0.252
-468.186	325.261	0.075	-0.142
-467.172	-96.370	0.326	0.085
-466.157	-200.000	-0.017	0.129
-465.143	89.092	-0.236	-0.260
-464.128	800.000	0.092	-0.255
-463.113	-14.529	-0.172	0.109
-462.099	109.031	-0.154	-0.182
-461.084	327.510	0.119	0.226
-460.070	-29.941	0.090	0.050
-459.055	311.492	-0.042	-0.078
-458.040	152.721	0.103	-0.139
-457.026	-200.000	0.008	-0.187
-456.011	188.153	-0.182	-0.268
-454.997	-43.792	0.198	0.099
-453.982	456.058	0.076	0.167
-452.968	33.510	0.167	-0.143
-451.953	-200.000	0.040	-0.238
-450.938	-62.851	-0.100	-0.041
-449.924	345.732	-0.151	0.292
-448.909	96.772	-0.202	0.229
-447.895	-46.152	0.106	-0.051
-446.880	38.283	-0.327	0.288
-445.865	355.954	-0.127	0.250
-444.851	800.000	0.038	-0.151
-443.836	-200.000	-0.018	0.239
-442.822	99.339	0.074	-0.085
-441.807	-200.000	0.013	0.222
-440.792	278.197	0.112	-0.197
-439.778	800.000	0.017	0.049
-438.763	-200.000	0.021	0.275
-437.749	-82.925	-0.249	0.079
-436.734	-47.185	0.380	0.183
-435.719	-84.060	0.123	-0.039
-434.705	-121.629	0.013	0.002
-433.690	60.519	-0.108	-0.106
-432.676	338.805	-0.087	-0.167
-431.661	-200.000	-0.076	0.411
-430.646	800.000	-0.085	-0.260
-429.632	124.773	0.085	0.105
-428.617	96.327	0.220	-0.248
-427.603	293.170	-0.087	-0.156
-426.588	13.119	-0.256	0.196
-425.573	-49.699	0.132	-0.062
-424.559	224.298	-0.077	-0.122
-423.544	-200.000	0.007	0.103
-422.530	-200.000	0.097	-0.566
-421.515	44.975	-0.153	-0.139
-420.500	-37.632	0.077	0.041
-419.486	-200.000	-0.006	0.192
-418.471	788.769	0.157	-0.425
-417.457	800.000	-0.055	0.230
-416.442	-200.000	0.003	0.105
-415.428	106.195	-0.118	0.138
-414.413	-200.000	0.058	0.297
-413.398	-104.069	0.289	0.066
-412.384	453.948	0.201	0.439
-411.369	-200.000	-0.038	-0.509
-410.355	56.616	-0.061	0.058
-409.340	-91.869	-0.057	0.016
-408.325	7.504	0.268	0.198
-407.311	-115.541	-0.262	0.049
-406.296	510.488	-0.108	-0.247
-405.282	362.817	0.050	-0.098
-404.267	434.740	-0.019	-0.040
-403.252	-200.000	0.018	-0.318
-402.238	800.000	-0.076	-0.286
-401.223	280.588	0.031	0.055
-400.209	492.012	-0.062	-0.139
-399.194	-135.221	-0.323	-0.038
-398.179	789.442	0.057	0.154
-397.165	-36.699	-0.228	0.121
-396.150	-22.239	0.299	0.179
-395.136	-62.528	0.021	0.009
-394.121	-34.356	-0.195	-0.105
-393.106	256.883	-0.075	0.126
-392.092	-67.322	-0.177	-0.069
-391.077	164.019	0.235	-0.326
-390.063	-137.515	0.175	0.019
-389.048	-179.859	0.215	0.005
-388.033	-200.000	-0.024	-0.199
-387.019	226.433	-0.175	-0.280
-386.004	800.000	0.084	0.279
-384.990	320.341	0.084	0.158
-383.975	-200.000	0.018	-0.141
-382.960	-200.000	0.011	-0.297
-381.946	124.843	-0.208	0.258
-380.931	126.289	-0.031	0.039
-379.917	-200.000	0.020	-0.165
-378.902	135.998	0.093	0.119
-377.888	-86.248	-0.349	0.106
-376.873	-123.783	0.224	0.035
-375.858	231.427	-0.113	0.182
-374.844	641.454	-0.095	-0.238
-373.829	-124.171	0.204	0.032
-372.815	28.974	-0.163	0.136
-371.800	-200.000	-0.027	0.148
-370.785	-68.223	0.264	-0.101
-369.771	-86.917	0.033	-0.010
-368.756	800.000	-0.007	0.028
-367.742	-200.000	-0.048	-0.292
-366.727	800.000	0.007	-0.020
-365.712	170.911	0.096	0.135
-364.698	0.799	-0.362	-0.255
-363.683	800.000	0.047	0.149
-362.669	167.639	0.260	-0.363
-361.654	-122.106	0.277	0.045
-360.639	195.041	0.149	0.223
-359.625	140.619	-0.049	0.064
-358.610	24.894	-0.181	0.147
-357.596	251.320	-0.134	-0.224
-356.581	200.546	0.113	0.171
-355.566	175.610	-0.035	0.049
-354.552	653.814	-0.091	0.229
-353.537	-116.824	0.309	0.056
-352.523	-100.662	0.280	0.068
-351.508	-200.000	-0.027	-0.146
-350.493	2.926	0.225	0.161
-349.479	-80.819	-0.055	-0.018
-348.464	-56.091	0.142	0.062
-347.450	-200.000	-0.056	-0.255
-346.435	-139.520	0.080	-0.008
-345.420	134.719	0.174	-0.222
-344.406	-46.505	-0.212	-0.102
-343.391	800.000	0.006	0.026
-342.377	131.887	0.304	0.385
-341.362	115.238	0.174	0.209
-340.348	-158.973	0.358	0.020
-339.333	-9.877	0.003	-0.002
-338.318	352.048	0.098	0.191
-337.304	800.000	-0.100	0.286
-336.289	-34.981	0.294	-0.158
-335.275	-104.528	0.058	-0.013
-334.260	-27.503	-0.388	-0.222
-333.245	-62.473	0.077	-0.031
-332.231	103.597	0.060	-0.069
-331.216	-200.000	-0.071	0.678
-330.202	294.787	0.151	-0.272
-329.187	73.000	-0.217	-0.223
-328.172	-9.477	0.124	0.081
-327.158	-134.667	-0.054	-0.007
-326.143	90.006	0.106	0.117
-325.129	-98.022	0.250	-0.063
-324.114	-32.898	-0.189	0.103
-323.099	-136.009	-0.307	-0.035
-322.085	284.787	0.059	-0.104
-321.070	13.690	-0.072	-0.055
-320.056	-198.031	-0.245	0.001
-319.041	-200.000	0.003	-0.311
-318.026	-5.667	0.439	0.296
-317.012	-22.920	0.185	0.109
-315.997	193.650	0.126	-0.187
-314.983	800.000	0.049	0.193
-313.968	-66.509	0.141	-0.055
-312.953	36.224	-0.151	0.130
-311.939	-127.986	-0.404	0.057
-310.924	-200.000	-0.036	0.178
-309.910	-200.000	0.012	0.071
-308.895	52.864	0.189	0.177
-307.880	383.073	0.092	-0.185
-306.866	-88.628	0.060	-0.017
-305.851	14.353	-0.219	-0.168
-304.837	-141.954	-0.261	-0.026
-303.822	468.239	0.214	0.471
-302.807	4.222	-0.027	-0.019
-301.793	153.453	0.209	-0.281
-300.778	165.480	0.151	-0.209
-299.764	147.076	-0.191	-0.252
-298.749	-110.360	0.112	0.023
-297.735	-200.000	-0.050	0.251
-296.720	-133.684	0.149	-0.018
-295.705	-43.465	-0.243	-0.121
-294.691	-171.636	0.359	0.012
-293.676	-200.000	0.009	-0.088
-292.662	-14.597	0.047	0.030
-291.647	387.510	-0.169	0.342
-290.632	-36.318	-0.091	0.048
-289.618	-98.002	-0.210	0.053
-288.603	-140.479	-0.371	-0.038
-287.589	-200.000	0.025	-0.158
-286.574	-152.093	0.333	-0.024
-285.559	-41.612	0.376	0.189
-284.545	-174.327	0.041	-0.001
-283.530	218.272	-0.114	-0.178
-282.516	-57.209	0.396	0.171
-281.501	-3.663	0.093	-0.063
-280.486	-98.843	0.341	0.085
-279.472	-200.000	0.004	0.158
-278.457	-200.000	-0.013	-0.304
-277.443	-146.956	-0.197	0.017
-276.428	-200.000	-0.045	-0.265
-275.413	-22.941	-0.287	0.169
-274.399	-200.000	0.016	-0.173
-273.384	266.355	-0.110	0.189
-272.370	-200.000	-0.022	0.325
-271.355	-92.988	0.085	0.023
-270.340	-200.000	0.122	0.000
-269.326	-88.080	-0.110	-0.032
-268.311	-159.299	-0.441	0.024
-267.297	241.491	-0.105	-0.172
-266.282	83.590	-0.197	-0.210
-265.267	134.599	0.062	-0.078
-264.253	-200.000	-0.063	0.292
-263.238	-89.330	-0.288	0.083
-262.224	-32.618	0.219	0.119
-261.209	-108.408	-0.387	-0.082
-260.195	-48.978	0.260	0.122
-259.180	139.345	0.103	-0.133
-258.165	-106.307	-0.307	-0.067
-257.151	99.753	-0.368	-0.417
-256.136	-13.594	-0.343	-0.217
-255.122	232.587	-0.245	0.395
-254.107	-99.031	0.178	0.044
-253.092	-117.221	-0.094	-0.017
-252.078	-200.000	0.046	0.263
-251.063	25.568	0.197	0.161
-250.049	55.823	0.133	-0.127
-249.034	-200.000	0.035	-0.156
-248.019	800.000	-0.042	-0.166
-247.005	-200.000	0.019	0.343
-245.990	800.000	0.041	-0.148
-244.976	-80.222	0.155	-0.051
-243.961	19.914	-0.139	0.109
-242.946	-200.000	-0.015	-0.267
-241.932	272.660	0.128	0.221
-240.917	800.000	0.061	-0.214
-239.903	32.684	0.041	-0.035
-238.888	-147.129	0.342	-0.029
-237.873	-148.439	0.345	0.028
-236.859	134.383	0.282	-0.357
-235.844	-129.636	0.372	0.050
-234.830	-13.472	0.155	-0.098
-233.815	214.477	0.209	0.324
-232.800	-82.413	-0.115	0.036
-231.786	-36.235	0.163	-0.086
-230.771	-158.070	-0.100	0.006
-229.757	800.000	0.113	-0.350
-228.742	241.401	0.233	-0.381
-227.727	-5.092	0.202	0.136
-226.713	-56.894	-0.277	0.120
-225.698	37.326	-0.256	-0.222
-224.684	-36.969	0.118	-0.062
-223.669	-200.000	0.001	0.289
-222.655	800.000	-0.138	-0.378
-221.640	-200.000	-0.072	-0.353
-220.625	-90.666	-0.086	-0.024
-219.611	-117.817	-0.208	-0.037
-218.596	-59.170	0.244	-0.103
-217.582	-200.000	0.005	-0.292
-216.567	26.506	-0.142	0.116
-215.552	800.000	-0.087	0.352
-214.538	85.302	0.200	0.214
-213.523	63.423	0.156	0.153
-212.509	-200.000	0.039	-0.423
-211.494	-128.932	-0.391	-0.054
-210.479	82.540	-0.022	0.024
-209.465	308.700	-0.166	0.304
-208.450	-133.214	0.116	0.014
-207.436	-57.476	-0.191	0.082
-206.421	-84.000	0.331	-0.103
-205.406	459.069	-0.065	0.142
-204.392	163.444	0.051	0.070
-203.377	-200.000	0.024	0.162
-202.363	519.765	-0.103	0.235
-201.348	-46.212	0.190	-0.091
-200.333	70.847	-0.063	-0.063
-199.319	-127.781	-0.134	-0.019
-198.304	445.151	-0.111	0.238
-197.290	-18.167	0.147	0.090
-196.275	209.306	0.142	-0.217
-195.260	-54.061	0.208	0.092
-194.246	39.208	0.458	0.401
-193.231	22.992	0.088	-0.070
-192.217	-200.000	0.012	0.155
-191.202	79.717	0.187	0.197
-190.187	260.008	0.146	0.246
-189.173	-38.445	-0.381	0.197
-188.158	-200.000	-0.014	0.270
-187.144	8.996	0.074	-0.055
-186.129	8.527	-0.227	-0.167
-185.114	-90.900	-0.157	0.044
-184.100	-200.000	0.062	-0.436
-183.085	109.343	-0.033	-0.039
-182.071	800.000	-0.064	0.206
-181.056	-106.529	0.038	-0.008
-180.042	-200.000	-0.024	0.216
-179.027	180.101	-0.088	0.126
-178.012	-116.284	0.188	-0.034
-176.998	-200.000	0.016	0.129
-175.983	42.394	0.043	-0.038
-174.969	-137.248	0.385	0.043
-173.954	289.309	0.013	-0.023
-172.939	297.173	-0.048	0.087
-171.925	-174.817	0.067	-0.002
-170.910	800.000	0.075	0.216
-169.896	362.953	0.095	-0.187
-168.881	77.845	-0.098	-0.102
-167.866	-68.952	0.261	-0.098
-166.852	-200.000	-0.007	-0.049
-165.837	-72.482	-0.309	0.112
-164.823	105.668	0.240	-0.277
-163.808	116.315	0.162	0.194
-162.793	120.583	0.231	-0.280
-161.779	800.000	0.060	-0.225
-160.764	353.073	0.092	-0.177
-159.750	-200.000	0.009	0.154
-158.735	-112.502	-0.113	0.022
-157.720	-21.450	0.348	0.207
-156.706	800.000	0.100	0.291
-155.691	45.237	-0.090	0.081
-154.677	436.073	-0.038	0.080
-153.662	66.345	0.244	-0.242
-152.647	-82.076	-0.141	0.045
-151.633	62.663	0.086	0.084
-150.618	-73.080	-0.083	-0.030
-149.604	-23.166	0.194	-0.114
-148.589	-98.823	0.218	-0.054
-147.574	265.262	-0.210	-0.357
-146.560	-0.568	0.338	0.234
-145.545	-200.000	0.023	-0.181
-144.531	9.981	-0.261	0.193
-143.516	-51.877	0.242	0.110
-142.502	-87.270	0.230	0.068
-141.487	-50.646	-0.183	0.084
-140.472	473.594	-0.161	0.354
-139.458	72.099	-0.131	0.133
-138.443	-200.000	0.005	-0.030
-137.429	-200.000	0.002	-0.194
-136.414	-61.523	-0.329	0.135
-135.399	-21.813	-0.223	0.132
-134.385	-22.166	0.135	-0.080
-133.370	-62.585	-0.254	-0.103
-132.356	-120.895	-0.230	0.038
-131.341	110.327	-0.043	-0.050
-130.326	-185.351	-0.319	0.005
-129.312	-200.000	0.000	-0.126
-128.297	289.597	-0.055	-0.098
-127.283	-200.000	-0.041	-0.293
-126.268	-167.726	-0.346	-0.013
-125.253	800.000	0.020	0.070
-124.239	-168.773	-0.356	0.013
-123.224	31.003	0.113	-0.095
-122.210	70.256	0.038	-0.038
-121.195	-29.015	0.116	-0.065
