DTS Sentinel unit serial number:	SN413079Multiplexer serial number:	ORYXHardware model number:	OX4-SRSoftware version number:	ORYX F/W v4.00 Oryx Data Collector v3.7.2.0data status	okinstallation	princeton_trtdifferential loss correction	single-endedforward channel	channel 2reverse channel	N/Adate	2019/09/19time	03:55:35forward acquisition time	60.00reverse acquisition time	0.00gamma	496.2192k internal	0.2352k external	0.2352temperature offset calibration	1.0016default loss term (dB/km)	0.3790temperature slope calibration	1.0000multiplexer offset coefficient	1.0000multiplexer slope coefficient	1.0000fibre end	0.00T internal ref (°C)	20.44T ext. ref 1 (°C)	0.63T ext. ref 2 (°C)	14.26length (m)	temperature (°C)	Stokes	anti-Stokes-747.200	-97.243	-0.175	-0.045
-746.185	-94.343	-0.323	-0.088
-745.171	-155.837	0.321	0.020
-744.156	-114.435	-0.326	0.062
-743.142	-101.904	0.174	-0.042
-742.127	-167.779	0.101	0.004
-741.112	2.130	-0.158	0.114
-740.098	-6.297	-0.137	0.093
-739.083	-26.690	0.060	0.035
-738.069	-11.375	0.247	-0.162
-737.054	-131.765	0.302	-0.039
-736.039	-28.068	-0.278	-0.161
-735.025	42.725	0.284	0.257
-734.010	-104.583	-0.481	-0.111
-732.996	-200.000	-0.010	-0.139
-731.981	-125.822	-0.219	-0.033
-730.966	-72.021	0.240	0.089
-729.952	-60.980	-0.111	0.047
-728.937	17.637	-0.186	0.147
-727.923	-200.000	0.019	-0.325
-726.908	-22.464	0.130	0.078
-725.894	-166.501	-0.128	0.005
-724.879	-53.852	-0.037	0.017
-723.864	800.000	-0.072	0.255
-722.850	54.517	0.246	-0.236
-721.835	22.890	-0.250	0.204
-720.821	800.000	-0.074	-0.203
-719.806	112.607	-0.250	-0.301
-718.791	-200.000	-0.076	-0.365
-717.777	-162.829	-0.397	-0.019
-716.762	800.000	0.085	-0.317
-715.748	-69.088	-0.159	-0.061
-714.733	367.578	0.121	0.244
-713.718	-131.777	0.058	-0.008
-712.704	-200.000	0.016	0.085
-711.689	91.592	-0.180	-0.201
-710.675	132.930	0.257	-0.331
-709.660	71.372	-0.287	-0.296
-708.645	69.001	0.331	-0.339
-707.631	264.533	-0.079	0.138
-706.616	-200.000	0.048	0.268
-705.602	-66.231	-0.121	0.048
-704.587	-200.000	0.020	-0.142
-703.572	388.977	0.103	-0.213
-702.558	-54.213	-0.270	0.122
-701.543	-3.882	-0.213	-0.147
-700.529	-32.016	-0.086	0.048
-699.514	-200.000	0.048	0.266
-698.499	-171.142	-0.170	-0.006
-697.485	52.448	-0.126	0.120
-696.470	-143.358	0.233	-0.022
-695.456	-200.000	-0.018	-0.204
-694.441	546.569	-0.114	0.271
-693.426	-108.781	-0.054	-0.011
-692.412	106.100	0.045	0.053
-691.397	-195.726	-0.210	-0.002
-690.383	-38.259	0.097	0.051
-689.368	-31.106	-0.376	0.211
-688.354	94.061	0.338	0.382
-687.339	-102.426	-0.183	-0.044
-686.324	-200.000	-0.006	-0.112
-685.310	-99.194	-0.226	-0.057
-684.295	-125.625	-0.152	0.023
-683.281	-200.000	0.046	0.330
-682.266	448.040	-0.062	-0.136
-681.251	-154.512	-0.255	-0.017
-680.237	-200.000	-0.006	-0.083
-679.222	-110.446	-0.415	-0.086
-678.208	-131.940	0.110	0.014
-677.193	-12.707	0.167	0.108
-676.178	-51.641	-0.172	0.080
-675.164	-200.000	0.003	0.124
-674.149	-190.699	0.231	-0.002
-673.135	-144.391	-0.223	0.021
-672.120	127.967	-0.069	0.087
-671.105	-127.137	0.145	-0.021
-670.091	47.644	-0.280	-0.260
-669.076	-33.243	-0.261	0.144
-668.062	235.648	0.037	-0.061
-667.047	-72.904	-0.197	-0.072
-666.032	128.436	-0.063	-0.080
-665.018	800.000	0.080	-0.254
-664.003	-6.495	0.013	0.009
-662.989	238.505	0.152	-0.252
-661.974	-153.260	0.110	0.008
-660.959	1.937	-0.105	-0.075
-659.945	6.696	-0.175	0.129
-658.930	129.401	-0.095	-0.120
-657.916	399.315	-0.054	-0.113
-656.901	-200.000	-0.031	-0.540
-655.886	-27.535	0.251	-0.145
-654.872	541.763	-0.046	0.109
-653.857	-200.000	-0.095	-0.481
-652.843	1.199	-0.212	-0.151
-651.828	296.086	-0.028	0.051
-650.814	-111.587	-0.131	0.027
-649.799	800.000	-0.014	-0.050
-648.784	-120.414	0.203	0.034
-647.770	-134.294	0.075	0.009
-646.755	349.707	0.147	0.289
-645.741	315.972	-0.078	0.147
-644.726	70.634	0.138	0.142
-643.711	249.086	0.162	0.272
-642.697	-200.000	-0.065	-0.473
-641.682	-200.000	-0.048	-0.252
-640.668	-68.373	-0.260	-0.100
-639.653	-119.276	-0.126	-0.022
-638.638	75.686	0.174	0.183
-637.624	-200.000	-0.013	0.121
-636.609	348.653	-0.182	-0.356
-635.595	-128.846	0.088	0.012
-634.580	134.962	0.183	0.236
-633.565	-200.000	-0.012	-0.164
-632.551	-200.000	0.042	0.217
-631.536	-47.454	0.233	-0.113
-630.522	-178.636	0.090	0.002
-629.507	800.000	-0.005	0.016
-628.492	-100.498	-0.286	-0.070
-627.478	-79.594	-0.078	0.026
-626.463	2.605	0.179	0.129
-625.449	-50.149	-0.447	-0.210
-624.434	363.347	-0.112	-0.223
-623.419	-94.921	-0.252	0.068
-622.405	74.442	0.100	-0.104
-621.390	298.287	-0.030	0.054
-620.376	-200.000	-0.012	0.158
-619.361	506.408	-0.030	-0.068
-618.346	800.000	-0.033	-0.114
-617.332	91.953	-0.156	0.174
-616.317	-66.904	-0.092	-0.036
-615.303	93.561	-0.132	0.148
-614.288	42.038	-0.182	-0.164
-613.273	-200.000	0.031	0.253
-612.259	-31.434	-0.419	-0.234
-611.244	-39.391	0.287	-0.149
-610.230	10.285	-0.123	0.093
-609.215	209.341	0.088	-0.136
-608.201	-81.187	0.322	0.106
-607.186	-200.000	-0.011	-0.326
-606.171	-70.578	-0.206	0.077
-605.157	-83.505	-0.067	0.021
-604.142	-200.000	0.015	0.268
-603.128	-66.263	-0.208	0.082
-602.113	-62.677	-0.230	-0.095
-601.098	-140.623	0.071	0.007
-600.084	-29.765	0.296	0.167
-599.069	-81.119	-0.140	0.046
-598.055	174.241	-0.165	0.236
-597.040	-200.000	-0.016	0.336
-596.025	-29.098	0.102	-0.058
-595.011	277.387	-0.069	-0.122
-593.996	-200.000	0.021	0.132
-592.982	-119.378	0.098	0.017
-591.967	800.000	-0.037	-0.131
-590.952	-200.000	0.024	-0.187
-589.938	-200.000	-0.132	-0.001
-588.923	800.000	0.033	-0.132
-587.909	204.863	-0.057	-0.087
-586.894	689.944	-0.058	0.152
-585.879	15.419	0.273	0.213
-584.865	-72.916	-0.113	-0.041
-583.850	-200.000	-0.014	-0.473
-582.836	49.615	-0.034	0.032
-581.821	-44.745	-0.310	-0.153
-580.806	-15.242	-0.285	0.181
-579.792	-76.313	0.216	0.075
-578.777	800.000	-0.041	-0.121
-577.763	-100.400	0.254	-0.062
-576.748	-200.000	0.009	-0.194
-575.733	800.000	0.053	-0.172
-574.719	-61.604	-0.143	0.059
-573.704	-48.044	0.132	-0.063
-572.690	-200.000	-0.023	-0.350
-571.675	43.743	-0.135	-0.123
-570.661	-18.295	-0.156	-0.096
-569.646	122.176	-0.054	0.067
-568.631	45.976	0.309	-0.284
-567.617	118.664	0.098	0.120
-566.602	-200.000	-0.067	0.345
-565.588	-172.828	0.284	-0.009
-564.573	282.257	0.058	0.104
-563.558	-107.148	0.174	-0.038
-562.544	75.008	-0.212	0.221
-561.529	479.744	-0.092	0.206
-560.515	-23.843	0.223	0.132
-559.500	-86.751	0.391	0.119
-558.485	-200.000	0.015	0.424
-557.471	39.167	0.312	0.276
-556.456	-153.721	0.212	0.014
-555.442	-25.550	-0.336	-0.196
-554.427	-148.647	-0.323	-0.026
-553.412	186.661	0.156	0.230
-552.398	17.401	0.297	-0.234
-551.383	800.000	-0.099	0.272
-550.369	60.056	-0.077	0.075
-549.354	-107.470	-0.359	-0.078
-548.339	284.977	0.121	-0.215
-547.325	-5.755	-0.054	-0.037
-546.310	-16.424	0.045	0.028
-545.296	-68.394	-0.140	-0.054
-544.281	-174.832	0.380	0.011
-543.266	23.428	-0.054	0.044
-542.252	800.000	-0.104	-0.372
-541.237	-156.640	0.310	-0.019
-540.223	102.467	0.074	0.086
-539.208	-68.777	0.326	-0.125
-538.193	800.000	0.066	-0.231
-537.179	5.154	-0.122	-0.089
-536.164	-104.219	-0.193	-0.044
-535.150	-39.936	-0.217	0.112
-534.135	-19.482	0.264	0.162
-533.121	717.758	0.027	-0.072
-532.106	341.716	0.182	0.351
-531.091	230.801	0.160	-0.259
-530.077	-67.730	-0.091	-0.035
-529.062	-110.797	-0.573	-0.117
-528.048	800.000	-0.141	-0.410
-527.033	-200.000	0.039	-0.179
-526.018	-36.555	-0.200	-0.106
-525.004	-200.000	-0.111	0.505
-523.989	-200.000	-0.027	0.133
-522.975	59.411	0.047	0.046
-521.960	-63.556	-0.054	0.022
-520.945	800.000	0.035	-0.135
-519.931	-168.567	0.494	0.019
-518.916	39.541	-0.294	-0.261
-517.902	439.384	-0.122	0.264
-516.887	-36.607	0.246	0.131
-515.872	-90.470	-0.430	-0.123
-514.858	525.455	-0.053	-0.123
-513.843	-122.339	-0.366	-0.059
-512.829	-200.000	0.089	-0.559
-511.814	800.000	0.050	-0.198
-510.799	-200.000	0.058	0.456
-509.785	-76.802	-0.089	0.031
-508.770	-200.000	-0.012	0.325
-507.756	800.000	0.083	0.300
-506.741	47.743	0.225	0.208
-505.726	-200.000	-0.045	-0.235
-504.712	117.735	0.162	0.197
-503.697	451.958	-0.079	0.173
-502.683	-149.299	-0.192	0.015
-501.668	800.000	-0.086	0.260
-500.653	-158.006	0.342	-0.020
-499.639	-20.759	0.048	-0.029
-498.624	-65.618	-0.400	-0.158
-497.610	-200.000	-0.009	-0.180
-496.595	-66.207	-0.036	0.014
-495.581	42.849	0.319	0.287
-494.566	142.363	0.104	0.137
-493.551	-160.169	0.073	0.004
-492.537	-105.095	0.211	0.048
-491.522	136.206	0.043	0.055
-490.508	-200.000	0.058	0.322
-489.493	800.000	-0.031	0.100
-488.478	-55.813	0.117	-0.052
-487.464	197.595	-0.105	-0.158
-486.449	-200.000	-0.004	-0.057
-485.435	525.752	0.048	-0.111
-484.420	667.269	0.095	-0.242
-483.405	-72.126	0.151	-0.055
-482.391	-110.403	-0.450	-0.092
-481.376	-119.728	-0.344	-0.059
-480.362	800.000	0.094	-0.265
-479.347	800.000	-0.048	-0.196
-478.332	800.000	-0.066	0.228
-477.318	-92.575	0.142	0.039
-476.303	-200.000	-0.010	-0.377
-475.289	439.708	0.068	0.148
-474.274	-127.790	-0.170	0.024
-473.259	-200.000	0.023	-0.181
-472.245	-140.867	-0.288	-0.029
-471.230	41.776	0.236	-0.211
-470.216	-119.474	0.027	-0.005
-469.201	106.169	0.159	0.186
-468.186	-37.148	0.094	-0.049
-467.172	-200.000	0.089	-0.403
-466.157	166.911	-0.145	0.204
-465.143	-8.527	-0.252	-0.167
-464.128	-19.165	-0.108	0.066
-463.113	17.201	-0.177	-0.138
-462.099	26.563	0.354	0.292
-461.084	-36.653	0.213	-0.113
-460.070	-200.000	0.258	0.000
-459.055	52.424	0.171	-0.161
-458.040	502.600	0.057	-0.130
-457.026	792.915	-0.082	-0.222
-456.011	-200.000	0.029	-0.195
-454.997	-143.908	-0.224	0.021
-453.982	800.000	0.033	0.133
-452.968	15.868	0.114	0.088
-451.953	-52.140	0.304	0.139
-450.938	-200.000	0.034	-0.242
-449.924	-35.497	0.361	-0.193
-448.909	800.000	0.028	-0.120
-447.895	800.000	0.123	0.345
-446.880	-130.823	0.316	-0.042
-445.865	-48.744	-0.131	0.062
-444.851	-200.000	0.012	0.133
-443.836	53.825	-0.271	-0.256
-442.822	-200.000	-0.022	0.341
-441.807	-115.001	0.097	-0.018
-440.792	350.860	0.098	0.191
-439.778	-26.724	-0.191	-0.110
-438.763	-200.000	-0.047	0.221
-437.749	-160.502	0.222	0.012
-436.734	-72.361	0.180	-0.066
-435.719	43.117	-0.057	-0.052
-434.705	-200.000	-0.024	0.148
-433.690	267.266	-0.114	0.196
-432.676	508.038	-0.183	0.419
-431.661	-181.350	-0.292	-0.006
-430.646	-27.906	-0.094	-0.053
-429.632	-77.636	-0.206	-0.070
-428.617	800.000	0.089	-0.330
-427.603	-62.292	-0.041	0.017
-426.588	-45.621	-0.057	-0.028
-425.573	-84.276	-0.050	-0.016
-424.559	-34.683	-0.342	0.184
-423.544	-119.771	-0.038	-0.006
-422.530	359.128	-0.118	-0.232
-421.515	-72.041	0.221	-0.081
-420.500	-148.478	-0.505	0.041
-419.486	-142.364	0.084	0.008
-418.471	-32.380	-0.253	0.139
-417.457	80.587	0.151	-0.161
-416.442	130.478	0.149	0.187
-415.428	306.117	0.150	-0.274
-414.413	-200.000	0.020	-0.099
-413.398	-3.674	-0.015	-0.010
-412.384	203.068	0.134	0.203
-411.369	-200.000	0.019	-0.171
-410.355	-38.414	-0.338	0.176
-409.340	-200.000	-0.005	0.290
-408.325	-200.000	0.000	-0.060
-407.311	0.169	0.123	-0.086
-406.296	-67.349	0.342	-0.132
-405.282	104.775	-0.240	-0.278
-404.267	-200.000	-0.032	0.317
-403.252	98.111	-0.059	-0.067
-402.238	-83.349	0.207	0.065
-401.223	-120.270	-0.057	-0.010
-400.209	-125.190	0.340	0.051
-399.194	-200.000	0.014	0.226
-398.179	106.358	-0.053	0.062
-397.165	716.817	-0.070	0.183
-396.150	45.835	0.153	-0.139
-395.136	-64.422	-0.127	0.051
-394.121	-13.048	0.351	-0.224
-393.106	-200.000	0.015	-0.265
-392.092	61.981	0.044	-0.043
-391.077	484.850	0.050	0.112
-390.063	-157.304	-0.128	0.008
-389.048	800.000	-0.046	0.177
-388.033	28.425	-0.216	-0.179
-387.019	800.000	0.094	-0.290
-386.004	138.726	-0.281	0.363
-384.990	-153.673	-0.191	-0.013
-383.975	-19.882	-0.227	-0.138
-382.960	-200.000	-0.041	0.313
-381.946	800.000	-0.045	0.128
-380.931	-29.727	0.290	-0.162
-379.917	274.523	0.261	-0.454
-378.902	41.713	0.064	-0.057
-377.888	43.044	-0.168	-0.151
-376.873	-200.000	0.034	-0.328
-375.858	-116.045	0.204	-0.037
-374.844	-200.000	-0.062	0.379
-373.829	-46.494	0.103	0.049
-372.815	-123.131	-0.030	0.005
-371.800	605.868	-0.062	-0.151
-370.785	-150.265	0.243	-0.018
-369.771	-33.017	-0.061	-0.033
-368.756	-27.678	0.204	0.116
-367.742	-163.252	0.156	-0.007
-366.727	114.009	-0.103	-0.124
-365.712	28.090	0.118	0.098
-364.698	-11.870	-0.187	0.120
-363.683	-5.599	-0.248	0.167
-362.669	-54.843	0.100	0.044
-361.654	453.069	-0.167	-0.364
-360.639	71.137	0.193	-0.196
-359.625	297.094	0.112	-0.201
-358.610	-56.677	-0.220	-0.096
-357.596	67.915	-0.213	-0.214
-356.581	102.840	-0.244	0.281
-355.566	800.000	0.015	-0.049
-354.552	-94.062	-0.203	0.055
-353.537	102.199	-0.022	0.025
-352.523	800.000	-0.073	-0.251
-351.508	-39.459	0.083	0.043
-350.493	185.251	0.134	-0.196
-349.479	11.960	-0.082	-0.062
-348.464	-200.000	-0.030	0.225
-347.450	800.000	-0.113	0.359
-346.435	-180.059	-0.129	-0.003
-345.420	510.475	0.120	0.274
-344.406	-200.000	-0.002	0.109
-343.391	89.365	-0.141	-0.154
-342.377	800.000	-0.102	0.324
-341.362	-200.000	-0.006	0.082
-340.348	17.369	0.101	-0.079
-339.333	-84.008	-0.208	0.065
-338.318	800.000	0.045	-0.147
-337.304	140.914	-0.214	-0.278
-336.289	-148.986	0.370	-0.029
-335.275	193.993	0.088	-0.131
-334.260	800.000	0.007	-0.024
-333.245	-76.725	0.316	0.109
-332.231	81.650	0.067	0.071
-331.216	34.671	-0.102	0.088
-330.202	-123.414	0.255	-0.040
-329.187	0.752	0.061	-0.043
-328.172	-108.861	-0.427	0.090
-327.158	-60.848	-0.247	-0.103
-326.143	-200.000	-0.039	-0.170
-325.129	6.825	-0.088	-0.064
-324.114	6.580	0.097	-0.071
-323.099	-58.475	0.157	0.067
-322.085	483.295	-0.169	-0.376
-321.070	-62.020	0.094	-0.039
-320.056	135.599	-0.043	0.055
-319.041	240.625	-0.045	-0.074
-318.026	24.267	-0.121	0.098
-317.012	-78.011	0.258	0.087
-315.997	-178.585	0.158	-0.004
-314.983	-88.506	0.318	-0.093
-313.968	800.000	-0.051	0.164
-312.953	800.000	0.022	0.062
-311.939	-45.333	-0.065	-0.032
-310.924	-151.698	0.387	0.028
-309.910	800.000	-0.072	-0.299
-308.895	300.155	-0.082	0.148
-307.880	609.240	0.102	0.249
-306.866	800.000	0.076	-0.269
-305.851	-123.783	-0.605	-0.094
-304.837	190.777	-0.078	0.114
-303.822	49.068	-0.154	-0.141
-302.807	291.006	0.130	-0.231
-301.793	613.440	-0.181	-0.445
-300.778	-24.642	0.336	-0.196
-299.764	-200.000	-0.008	-0.233
-298.749	-95.815	-0.304	0.079
-297.735	70.293	0.168	-0.170
-296.720	-57.876	-0.145	-0.062
-295.705	380.512	-0.055	0.112
-294.691	-200.000	-0.064	0.360
-293.676	27.323	0.181	0.149
-292.662	-174.749	-0.249	-0.007
-291.647	179.962	-0.136	-0.195
-290.632	-133.246	0.260	-0.032
-289.618	242.219	-0.084	0.138
-288.603	10.687	-0.195	0.146
-287.589	-83.870	-0.071	0.022
-286.574	-63.709	-0.358	0.144
-285.559	-200.000	0.007	0.250
-284.545	-200.000	-0.033	-0.143
-283.530	290.290	-0.228	-0.405
-282.516	-154.102	-0.327	0.022
-281.501	-200.000	0.041	0.365
-280.486	800.000	0.116	0.358
-279.472	4.542	-0.085	0.061
-278.457	-142.741	0.296	0.028
-277.443	237.487	-0.062	0.101
-276.428	-14.290	-0.206	-0.130
-275.413	-160.516	-0.090	0.005
-274.399	-23.709	0.246	0.144
-273.384	243.822	-0.042	-0.068
-272.370	38.170	0.164	0.143
-271.355	-9.980	0.067	0.044
-270.340	292.216	0.169	-0.301
-269.326	-200.000	-0.004	0.137
-268.311	418.609	-0.170	-0.356
-267.297	59.334	0.165	-0.160
-266.282	107.094	-0.199	-0.232
-265.267	312.221	0.060	0.111
-264.253	-200.000	-0.036	0.214
-263.238	23.997	0.059	0.047
-262.224	-75.918	-0.101	-0.035
-261.209	358.012	-0.097	0.189
-260.195	162.513	0.026	-0.035
-259.180	-109.551	-0.208	-0.043
-258.165	800.000	0.108	0.303
-257.151	23.893	0.217	-0.175
-256.136	-200.000	-0.023	-0.165
-255.122	-153.315	0.085	-0.006
-254.107	260.189	0.156	0.263
-253.092	71.930	-0.073	0.075
-252.078	-166.920	0.205	0.008
-251.063	-200.000	0.012	0.054
-250.049	800.000	0.083	0.233
-249.034	-88.066	0.211	-0.062
-248.019	800.000	-0.121	0.406
-247.005	-65.416	-0.148	0.058
-245.990	3.140	0.230	-0.163
-244.976	12.800	0.134	0.101
-243.961	197.393	0.173	-0.259
-242.946	-57.073	-0.361	0.156
-241.932	-8.826	0.170	-0.111
-240.917	-200.000	0.106	-0.508
-239.903	-51.150	-0.151	-0.069
-238.888	120.177	-0.192	0.233
-237.873	-200.000	-0.019	0.116
-236.859	-120.006	0.410	-0.069
-235.844	-25.258	0.094	-0.054
-234.830	232.586	0.029	0.047
-233.815	800.000	-0.039	-0.140
-232.800	-200.000	-0.038	-0.194
-231.786	112.622	0.151	0.179
-230.771	268.745	0.160	-0.274
-229.757	-163.027	0.177	-0.008
-228.742	-170.551	0.346	-0.012
-227.727	-200.000	0.052	0.286
-226.713	20.410	0.168	-0.133
-225.698	-72.584	-0.344	-0.124
-224.684	-45.592	0.234	0.113
-223.669	223.894	0.181	0.286
-222.655	111.387	-0.131	0.154
-221.640	581.722	-0.094	0.225
-220.625	-141.617	-0.110	0.011
-219.611	-3.201	0.082	-0.056
-218.596	-200.000	-0.023	0.161
-217.582	-200.000	-0.062	0.324
-216.567	19.664	-0.151	0.119
-215.552	-191.838	0.116	0.001
-214.538	12.563	0.127	-0.096
-213.523	51.210	0.103	-0.096
-212.509	-91.600	0.383	0.106
-211.494	185.265	-0.047	-0.069
-210.479	-71.941	-0.210	0.076
-209.465	114.406	0.186	-0.221
-208.450	-12.839	-0.137	-0.087
-207.436	-85.927	0.184	-0.056
-206.421	-44.550	0.178	0.087
-205.406	-200.000	-0.024	0.110
-204.392	-81.380	-0.066	0.021
-203.377	-191.541	0.174	0.002
-202.363	-151.299	0.377	-0.027
-201.348	97.749	-0.094	-0.106
-200.333	205.745	0.118	-0.179
-199.319	-200.000	0.013	-0.063
-198.304	-63.299	0.085	-0.034
-197.290	-59.460	-0.102	0.043
-196.275	-200.000	0.012	0.207
-195.260	-112.956	0.169	0.033
-194.246	369.984	-0.047	0.094
-193.231	1.635	0.079	-0.056
-192.217	800.000	0.075	0.266
-191.202	-0.798	0.072	-0.049
-190.187	21.233	-0.044	0.035
-189.173	135.780	-0.021	-0.026
-188.158	-131.856	0.259	-0.033
-187.144	800.000	-0.061	0.199
-186.129	181.619	-0.087	0.125
-185.114	160.778	-0.079	0.107
-184.100	-200.000	-0.005	0.187
-183.085	-57.315	-0.149	0.064
-182.071	159.166	-0.103	0.139
-181.056	-7.735	-0.144	0.095
-180.042	-16.400	-0.078	-0.048
-179.027	70.513	0.105	-0.106
-178.012	800.000	-0.129	-0.360
-176.998	800.000	-0.034	0.130
-175.983	-200.000	-0.039	0.263
-174.969	-80.852	0.260	-0.084
-173.954	-195.579	-0.295	-0.002
-172.939	718.543	0.025	0.064
-171.925	-190.279	0.081	0.001
-170.910	-129.095	-0.187	-0.025
-169.896	-127.097	-0.191	0.027
-168.881	-200.000	0.107	0.000
-167.866	-33.895	-0.204	0.109
-166.852	-176.988	-0.124	0.003
-165.837	-49.826	0.077	0.036
-164.823	215.215	-0.108	-0.167
-163.808	-93.061	-0.239	-0.065
-162.793	7.183	-0.124	0.090
-161.779	800.000	0.077	-0.259
-160.764	-109.993	-0.173	0.035
-159.750	72.598	0.167	0.169
-158.735	-200.000	-0.017	0.083
-157.720	182.753	0.089	-0.129
-156.706	196.083	0.168	-0.250
-155.691	589.996	-0.093	0.223
-154.677	-39.834	0.103	0.052
-153.662	-102.082	0.057	-0.013
-152.647	312.271	-0.076	0.138
-151.633	235.136	-0.056	-0.090
-150.618	800.000	-0.055	-0.197
-149.604	49.603	-0.245	0.225
-148.589	133.584	-0.112	-0.141
-147.574	-200.000	-0.041	-0.286
-146.560	-23.107	0.196	-0.115
-145.545	71.400	-0.050	0.051
-144.531	-2.558	-0.099	0.068
-143.516	529.479	-0.097	0.224
-142.502	-200.000	0.029	-0.133
-141.487	460.656	-0.059	0.128
-140.472	800.000	-0.098	-0.310
-139.458	-48.934	-0.050	0.023
-138.443	-158.253	0.176	0.010
-137.429	119.143	0.280	-0.337
-136.414	-200.000	-0.006	-0.031
-135.399	-46.545	0.294	-0.141
-134.385	-200.000	0.039	0.268
-133.370	240.099	0.034	0.055
-132.356	457.006	0.141	0.304
-131.341	154.464	-0.128	0.171
-130.326	800.000	0.104	0.378
-129.312	316.997	-0.148	-0.272
-128.297	-44.709	-0.290	0.141
-127.283	207.926	0.224	-0.341
-126.268	116.168	0.187	0.223
-125.253	750.517	-0.141	-0.370
-124.239	657.037	-0.021	-0.052
-123.224	511.370	-0.072	0.163
-122.210	-200.000	0.010	-0.066
