DTS Sentinel unit serial number:	SN413079Multiplexer serial number:	ORYXHardware model number:	OX4-SRSoftware version number:	ORYX F/W v4.00 Oryx Data Collector v3.7.2.0data status	okinstallation	princeton_trtdifferential loss correction	single-endedforward channel	channel 2reverse channel	N/Adate	2019/09/19time	00:23:34forward acquisition time	60.00reverse acquisition time	0.00gamma	496.2192k internal	0.2352k external	0.2352temperature offset calibration	1.0016default loss term (dB/km)	0.3790temperature slope calibration	1.0000multiplexer offset coefficient	1.0000multiplexer slope coefficient	1.0000fibre end	0.00T internal ref (°C)	22.62T ext. ref 1 (°C)	0.74T ext. ref 2 (°C)	15.61length (m)	temperature (°C)	Stokes	anti-Stokes-747.200	800.000	0.103	0.324
-746.185	-49.409	-0.100	-0.047
-745.171	-14.782	-0.063	-0.040
-744.156	-191.719	-0.304	-0.003
-743.142	-86.903	-0.058	-0.018
-742.127	-140.569	-0.280	0.029
-741.112	151.336	0.056	0.076
-740.098	159.318	-0.176	0.244
-739.083	-50.694	0.266	0.125
-738.069	-167.893	-0.239	-0.009
-737.054	-91.184	0.169	0.048
-736.039	-87.089	-0.424	0.129
-735.025	800.000	0.141	0.390
-734.010	82.314	-0.095	-0.102
-732.996	229.884	-0.236	-0.384
-731.981	-122.527	-0.142	-0.023
-730.966	250.690	0.135	-0.229
-729.952	-200.000	-0.016	-0.196
-728.937	59.539	0.087	-0.086
-727.923	191.677	-0.207	-0.311
-726.908	-79.093	-0.196	-0.066
-725.894	-127.570	-0.379	-0.055
-724.879	333.224	-0.118	-0.228
-723.864	-200.000	-0.036	-0.184
-722.850	-54.978	-0.120	-0.054
-721.835	-152.058	-0.127	-0.009
-720.821	800.000	-0.047	0.145
-719.806	20.299	-0.124	0.100
-718.791	-58.166	-0.244	0.106
-717.777	308.947	0.071	0.131
-716.762	-66.074	-0.431	0.171
-715.748	82.278	0.094	0.101
-714.733	-200.000	-0.039	-0.192
-713.718	-102.107	-0.177	0.042
-712.704	-35.634	-0.354	-0.191
-711.689	388.726	0.067	0.138
-710.675	-96.812	0.186	0.049
-709.660	41.067	0.002	0.001
-708.645	-51.994	0.083	-0.038
-707.631	-200.000	-0.032	-0.298
-706.616	-41.583	-0.053	0.027
-705.602	-200.000	-0.076	0.346
-704.587	41.663	0.373	-0.337
-703.572	5.971	0.094	-0.069
-702.558	-200.000	-0.010	0.124
-701.543	-118.002	-0.076	-0.014
-700.529	-186.961	-0.112	-0.002
-699.514	800.000	0.029	-0.107
-698.499	8.926	-0.278	0.209
-697.485	-39.530	0.137	-0.071
-696.470	-148.955	-0.245	0.020
-695.456	19.203	0.127	-0.101
-694.441	94.049	0.267	-0.302
-693.426	-28.924	-0.268	0.153
-692.412	196.686	0.151	0.230
-691.397	800.000	-0.030	-0.091
-690.383	36.943	-0.201	-0.177
-689.368	-200.000	0.036	-0.244
-688.354	-1.442	0.207	0.145
-687.339	10.925	-0.133	0.101
-686.324	101.310	0.238	0.276
-685.310	-6.398	-0.295	-0.200
-684.295	-150.508	0.197	0.015
-683.281	-200.000	-0.014	0.135
-682.266	-200.000	0.011	0.197
-681.251	338.176	0.006	-0.011
-680.237	-23.517	-0.450	-0.269
-679.222	-12.375	-0.256	-0.166
-678.208	-105.751	0.262	0.059
-677.193	-18.672	-0.315	-0.196
-676.178	-200.000	0.011	-0.114
-675.164	16.892	-0.194	0.153
-674.149	-200.000	-0.009	0.107
-673.135	19.707	0.174	-0.139
-672.120	-116.645	0.252	-0.046
-671.105	-118.433	-0.170	0.030
-670.091	800.000	-0.109	0.315
-669.076	-31.226	0.124	-0.069
-668.062	-117.048	-0.200	-0.036
-667.047	206.478	-0.078	-0.121
-666.032	800.000	-0.060	-0.239
-665.018	-198.115	0.400	0.002
-664.003	-73.029	-0.331	0.121
-662.989	-26.754	-0.116	0.067
-661.974	-200.000	-0.024	-0.157
-660.959	351.734	-0.074	0.146
-659.945	-44.263	0.065	0.033
-658.930	107.372	0.208	0.246
-657.916	-100.708	-0.314	-0.077
-656.901	-38.731	0.105	0.055
-655.886	-44.201	0.127	0.063
-654.872	80.367	-0.263	-0.281
-653.857	800.000	-0.077	-0.318
-652.843	144.313	0.103	0.137
-651.828	1.207	0.210	0.150
-650.814	227.057	0.153	0.247
-649.799	-200.000	0.019	-0.112
-648.784	-51.320	-0.285	-0.132
-647.770	-89.159	0.103	0.030
-646.755	-172.475	-0.046	0.001
-645.741	553.013	0.056	-0.134
-644.726	68.654	0.033	-0.034
-643.711	-200.000	0.030	-0.187
-642.697	175.943	0.089	-0.129
-641.682	168.757	-0.169	-0.240
-640.668	-142.208	0.306	0.030
-639.653	490.243	-0.040	-0.090
-638.638	-113.318	-0.216	0.042
-637.624	-200.000	0.011	-0.094
-636.609	-174.191	-0.114	-0.003
-635.595	-200.000	0.017	0.401
-634.580	64.623	-0.064	0.064
-633.565	44.758	-0.139	-0.127
-632.551	173.298	-0.160	0.229
-631.536	202.111	0.151	0.232
-630.522	800.000	0.025	-0.109
-629.507	271.160	-0.057	-0.099
-628.492	504.439	-0.014	0.031
-627.478	351.966	0.038	0.075
-626.463	-200.000	-0.020	-0.128
-625.449	-200.000	0.020	0.114
-624.434	800.000	0.046	0.161
-623.419	216.827	-0.110	-0.174
-622.405	800.000	-0.078	-0.281
-621.390	134.214	0.232	-0.298
-620.376	15.713	-0.049	-0.038
-619.361	-94.628	-0.290	0.078
-618.346	-5.015	0.256	0.175
-617.332	-2.856	-0.027	0.019
-616.317	-129.932	-0.262	-0.036
-615.303	209.663	-0.084	-0.131
-614.288	33.629	0.205	0.177
-613.273	-45.201	-0.089	0.044
-612.259	66.856	0.034	-0.035
-611.244	-90.200	-0.065	0.019
-610.230	220.852	0.190	0.302
-609.215	-186.872	-0.338	-0.005
-608.201	13.464	-0.225	-0.173
-607.186	330.318	-0.077	0.146
-606.171	20.186	0.227	-0.182
-605.157	49.791	-0.050	0.047
-604.142	-107.752	0.236	0.051
-603.128	-39.352	-0.147	0.077
-602.113	800.000	0.049	-0.201
-601.098	248.388	-0.073	0.123
-600.084	-109.653	0.290	-0.061
-599.069	627.342	-0.176	0.440
-598.055	800.000	-0.061	-0.195
-597.040	254.095	-0.124	0.211
-596.025	770.881	0.227	0.614
-595.011	-200.000	0.073	-0.408
-593.996	-200.000	-0.017	0.216
-592.982	-79.299	-0.099	0.033
-591.967	310.478	-0.094	-0.175
-590.952	439.140	0.155	0.337
-589.938	800.000	-0.086	0.252
-588.923	409.641	0.036	-0.076
-587.909	-119.040	-0.173	-0.030
-586.894	-61.078	0.233	-0.098
-585.879	-99.300	-0.213	0.053
-584.865	50.612	0.132	-0.123
-583.850	-200.000	0.064	0.313
-582.836	26.911	0.107	0.089
-581.821	-200.000	-0.037	0.183
-580.806	508.922	0.138	-0.318
-579.792	214.632	0.105	-0.164
-578.777	293.932	-0.027	-0.049
-577.763	-200.000	0.002	0.033
-576.748	-155.650	0.060	0.004
-575.733	19.131	0.231	0.184
-574.719	157.522	-0.231	0.316
-573.704	800.000	0.070	-0.257
-572.690	1.088	0.267	-0.190
-571.675	-43.890	0.250	-0.125
-570.661	-200.000	0.021	0.326
-569.646	-86.542	-0.303	0.092
-568.631	-107.714	0.083	0.018
-567.617	55.723	-0.162	-0.156
-566.602	-200.000	-0.046	-0.265
-565.588	-200.000	-0.044	0.199
-564.573	-93.869	0.106	-0.029
-563.558	56.782	0.098	-0.095
-562.544	132.493	-0.137	-0.175
-561.529	326.851	0.189	-0.359
-560.515	335.735	0.136	-0.261
-559.500	458.866	-0.102	-0.224
-558.485	54.669	0.194	0.185
-557.471	147.452	0.155	-0.207
-556.456	205.421	0.206	-0.317
-555.442	37.611	-0.157	0.138
-554.427	-69.980	0.118	-0.045
-553.412	-95.982	0.296	0.078
-552.398	-81.652	-0.113	-0.037
-551.383	16.123	-0.086	-0.067
-550.369	51.621	-0.242	-0.228
-549.354	41.926	0.193	-0.173
-548.339	763.411	-0.040	-0.108
-547.325	36.977	0.074	0.065
-546.310	-2.574	0.099	0.069
-545.296	-58.944	0.342	0.146
-544.281	-200.000	0.067	-0.324
-543.266	480.284	-0.124	-0.279
-542.252	-68.955	0.227	0.087
-541.237	-158.999	-0.217	-0.012
-540.223	25.099	0.093	0.076
-539.208	209.919	-0.179	-0.279
-538.193	62.863	0.030	0.029
-537.179	75.100	-0.070	-0.073
-536.164	-57.567	0.157	0.068
-535.150	-8.935	-0.120	-0.079
-534.135	-76.666	0.110	0.038
-533.121	44.624	0.169	0.153
-532.106	800.000	0.017	0.065
-531.091	7.236	-0.359	0.265
-530.077	-181.032	-0.184	0.004
-529.062	-71.548	-0.413	0.153
-528.048	-108.449	-0.091	-0.019
-527.033	-200.000	0.022	-0.222
-526.018	278.141	-0.095	-0.167
-525.004	800.000	-0.052	0.152
-523.989	136.260	0.212	0.274
-522.975	-200.000	-0.047	0.234
-521.960	-200.000	0.014	0.307
-520.945	-84.179	-0.256	-0.080
-519.931	12.372	0.148	0.112
-518.916	640.718	-0.135	-0.339
-517.902	32.208	0.118	0.101
-516.887	800.000	0.081	-0.249
-515.872	-200.000	0.033	-0.280
-514.858	333.986	0.149	-0.284
-513.843	-179.432	-0.228	-0.005
-512.829	-42.973	0.412	0.207
-511.814	800.000	-0.106	0.331
-510.799	362.310	-0.094	0.187
-509.785	-3.633	-0.237	-0.163
-508.770	56.595	0.205	0.197
-507.756	800.000	-0.146	-0.412
-506.741	38.471	0.070	0.062
-505.726	239.655	-0.013	0.022
-504.712	4.414	-0.056	-0.041
-503.697	-56.273	0.179	-0.079
-502.683	-200.000	-0.002	-0.340
-501.668	-161.977	0.150	-0.007
-500.653	40.620	-0.215	0.192
-499.639	170.017	0.103	-0.146
-498.624	198.080	0.117	0.176
-497.610	-106.945	-0.069	0.015
-496.595	63.353	-0.046	-0.045
-495.581	327.421	-0.098	-0.185
-494.566	-41.768	0.451	0.228
-493.551	-43.448	-0.098	0.049
-492.537	228.391	-0.032	0.052
-491.522	-32.990	-0.289	-0.158
-490.508	11.179	-0.090	-0.068
-489.493	-200.000	0.103	-0.468
-488.478	74.898	-0.145	-0.151
-487.464	-96.844	-0.121	-0.031
-486.449	800.000	0.051	0.164
-485.435	355.097	0.097	-0.190
-484.420	17.594	-0.284	0.223
-483.405	-200.000	0.008	0.220
-482.391	369.110	-0.159	0.319
-481.376	559.085	-0.074	0.177
-480.362	133.626	-0.054	-0.068
-479.347	-27.875	0.193	-0.110
-478.332	34.358	0.051	0.044
-477.318	-200.000	0.051	0.223
-476.303	-200.000	-0.043	-0.229
-475.289	119.107	-0.089	0.109
-474.274	-16.853	0.310	0.193
-473.259	-105.290	-0.400	0.090
-472.245	39.181	-0.113	-0.099
-471.230	-122.933	-0.121	-0.019
-470.216	438.289	-0.093	0.200
-469.201	800.000	0.067	0.198
-468.186	-180.562	0.228	-0.005
-467.172	-89.736	-0.247	0.071
-466.157	2.171	0.198	-0.141
-465.143	-144.684	0.094	-0.009
-464.128	-43.833	-0.166	-0.082
-463.113	-119.497	0.413	0.071
-462.099	800.000	0.086	-0.326
-461.084	-18.375	0.138	0.085
-460.070	-120.685	0.313	0.052
-459.055	-1.558	0.263	-0.183
-458.040	160.538	-0.017	-0.024
-457.026	-200.000	-0.014	-0.362
-456.011	-105.352	0.109	-0.025
-454.997	0.255	-0.106	-0.075
-453.982	130.927	0.198	-0.251
-452.968	183.143	0.130	0.189
-451.953	-200.000	0.039	-0.335
-450.938	244.031	0.159	0.263
-449.924	26.369	-0.335	-0.276
-448.909	17.115	0.109	0.086
-447.895	-86.998	0.375	-0.113
-446.880	535.090	0.042	0.099
-445.865	30.418	0.139	0.117
-444.851	-192.457	-0.152	-0.001
-443.836	800.000	-0.056	-0.196
-442.822	-9.710	-0.051	0.033
-441.807	-115.595	0.176	0.033
-440.792	104.640	-0.143	-0.167
-439.778	-200.000	0.010	0.164
-438.763	370.894	0.052	0.104
-437.749	-200.000	-0.027	0.295
-436.734	576.451	0.067	-0.162
-435.719	-200.000	-0.027	-0.378
-434.705	670.680	0.131	0.335
-433.690	-37.904	-0.428	-0.224
-432.676	-76.810	-0.155	0.054
-431.661	-200.000	-0.004	0.062
-430.646	22.407	0.148	-0.119
-429.632	48.007	-0.116	-0.107
-428.617	106.032	-0.168	-0.196
-427.603	-181.166	-0.130	-0.003
-426.588	-75.595	-0.183	0.064
-425.573	31.841	0.170	-0.144
-424.559	-200.000	-0.177	-0.001
-423.544	-145.102	-0.204	-0.018
-422.530	15.964	-0.215	-0.167
-421.515	198.528	0.166	-0.251
-420.500	-58.658	0.550	-0.235
-419.486	-51.776	-0.179	0.082
-418.471	40.929	-0.320	0.285
-417.457	-200.000	0.022	0.109
-416.442	-99.891	-0.250	0.061
-415.428	-137.479	0.181	0.020
-414.413	-40.151	-0.181	-0.093
-413.398	800.000	-0.045	0.127
-412.384	182.030	0.107	-0.155
-411.369	16.436	0.246	-0.191
-410.355	-200.000	-0.063	0.408
-409.340	105.755	-0.119	0.138
-408.325	800.000	0.056	-0.175
-407.311	-200.000	-0.033	-0.164
-406.296	-43.282	0.061	-0.030
-405.282	-200.000	0.001	0.023
-404.267	283.717	-0.114	-0.202
-403.252	132.390	0.063	0.080
-402.238	800.000	0.064	-0.226
-401.223	-177.258	-0.275	-0.007
-400.209	800.000	-0.056	-0.221
-399.194	57.272	0.148	-0.142
-398.179	-97.335	-0.374	-0.096
-397.165	-7.746	0.101	-0.067
-396.150	182.077	-0.112	0.162
-395.136	400.181	0.128	-0.264
-394.121	-27.265	-0.125	0.071
-393.106	-79.776	-0.136	0.045
-392.092	-161.798	0.182	-0.009
-391.077	648.357	0.077	-0.193
-390.063	-52.992	-0.360	-0.163
-389.048	210.075	0.118	0.181
-388.033	-96.645	-0.218	0.057
-387.019	321.263	-0.102	-0.190
-386.004	800.000	0.113	0.370
-384.990	152.901	-0.214	0.288
-383.975	-21.766	-0.293	-0.175
-382.960	800.000	0.057	0.210
-381.946	-200.000	-0.013	-0.100
-380.931	-200.000	-0.019	-0.159
-379.917	39.653	-0.379	0.334
-378.902	-67.728	0.381	-0.147
-377.888	-54.846	-0.250	0.111
-376.873	111.182	-0.073	0.086
-375.858	44.526	0.270	0.244
-374.844	800.000	-0.047	0.175
-373.829	6.733	0.246	0.180
-372.815	-84.118	-0.351	-0.109
-371.800	-200.000	-0.119	-0.000
-370.785	-72.118	-0.192	-0.070
-369.771	45.417	-0.196	0.178
-368.756	-56.927	0.133	0.058
-367.742	167.448	-0.236	-0.329
-366.727	71.155	-0.157	-0.160
-365.712	-109.748	0.068	0.014
-364.698	800.000	-0.042	0.116
-363.683	-200.000	-0.004	-0.118
-362.669	-15.877	-0.141	0.088
-361.654	134.709	0.255	-0.325
-360.639	-154.760	-0.227	0.015
-359.625	800.000	0.122	0.441
-358.610	558.181	0.037	0.087
-357.596	-106.245	0.208	-0.046
-356.581	-124.917	-0.257	-0.039
-355.566	-173.740	0.291	-0.009
-354.552	64.448	-0.173	-0.171
-353.537	133.850	-0.225	-0.286
-352.523	-21.650	-0.157	0.094
-351.508	-4.855	-0.070	0.048
-350.493	128.340	0.069	0.086
-349.479	-153.482	0.019	0.001
-348.464	501.511	0.068	0.153
-347.450	-200.000	0.040	-0.221
-346.435	-52.169	0.259	-0.118
-345.420	-47.832	-0.236	-0.112
-344.406	800.000	-0.048	-0.191
-343.391	-120.246	0.177	0.030
-342.377	-77.145	-0.132	-0.045
-341.362	174.001	-0.157	-0.223
-340.348	-200.000	-0.030	0.208
-339.333	-69.739	-0.145	0.054
-338.318	-47.431	0.132	-0.063
-337.304	343.557	0.079	0.152
-336.289	800.000	0.043	-0.122
-335.275	800.000	-0.097	0.289
-334.260	-51.607	0.121	-0.055
-333.245	127.374	-0.112	-0.140
-332.231	-200.000	0.005	0.022
-331.216	-27.515	0.246	0.140
-330.202	640.742	0.086	-0.214
-329.187	612.234	-0.038	0.094
-328.172	133.057	-0.120	0.152
-327.158	-200.000	0.025	-0.295
-326.143	-200.000	0.003	-0.108
-325.129	-32.877	-0.216	-0.118
-324.114	-186.325	0.065	-0.001
-323.099	306.959	-0.187	0.342
-322.085	376.696	0.191	0.382
-321.070	378.213	0.098	-0.197
-320.056	103.292	0.064	-0.074
-319.041	476.986	0.027	-0.059
-318.026	-174.555	-0.155	-0.004
-317.012	1.082	0.047	-0.033
-315.997	-81.240	0.247	0.080
-314.983	-200.000	-0.000	0.098
-313.968	-91.562	-0.040	-0.011
-312.953	93.680	-0.091	0.101
-311.939	16.188	0.111	0.086
-310.924	772.132	0.083	0.221
-309.910	228.288	-0.003	0.005
-308.895	-143.227	0.290	-0.027
-307.880	450.411	-0.088	-0.190
-306.866	-103.282	-0.272	0.063
-305.851	-112.169	-0.360	-0.071
-304.837	609.180	-0.075	-0.183
-303.822	-109.210	0.178	-0.037
-302.807	-78.169	-0.170	-0.057
-301.793	34.890	-0.088	-0.075
-300.778	113.521	0.093	0.110
-299.764	-68.580	0.395	-0.150
-298.749	-83.360	-0.279	0.088
-297.735	4.620	0.225	-0.162
-296.720	-142.196	-0.108	0.010
-295.705	-22.861	0.215	-0.127
-294.691	-36.785	-0.109	-0.057
-293.676	524.459	-0.094	0.216
-292.662	151.321	0.287	0.383
-291.647	-186.410	-0.266	-0.004
-290.632	392.464	-0.130	0.265
-289.618	-200.000	0.068	0.391
-288.603	194.466	0.080	0.119
-287.589	-62.779	0.118	0.048
-286.574	-200.000	0.028	0.179
-285.559	-200.000	-0.059	0.310
-284.545	-200.000	-0.030	0.174
-283.530	-73.579	0.336	-0.120
-282.516	-129.238	-0.069	0.009
-281.501	161.181	0.168	-0.231
-280.486	193.727	-0.100	-0.149
-279.472	-142.776	-0.255	-0.024
-278.457	-46.700	0.225	-0.108
-277.443	800.000	0.033	0.112
-276.428	77.671	0.183	0.191
-275.413	800.000	-0.013	-0.039
-274.399	-200.000	-0.007	0.055
-273.384	185.648	0.112	-0.162
-272.370	-155.551	0.255	0.016
-271.355	276.163	-0.176	0.306
-270.340	-200.000	0.094	0.431
-269.326	-66.143	-0.392	0.153
-268.311	-151.214	-0.272	-0.020
-267.297	762.335	0.070	0.185
-266.282	-129.275	0.202	-0.028
-265.267	-96.406	-0.334	0.087
-264.253	-99.484	0.157	-0.039
-263.238	23.930	-0.086	-0.069
-262.224	-200.000	-0.017	0.275
-261.209	157.899	0.166	0.225
-260.195	-200.000	0.003	0.154
-259.180	-66.761	0.086	0.033
-258.165	-200.000	-0.001	-0.184
-257.151	322.839	0.111	-0.208
-256.136	105.896	-0.076	0.088
-255.122	-106.646	0.508	-0.111
-254.107	-36.288	0.286	0.151
-253.092	-20.161	-0.223	-0.135
-252.078	-16.213	-0.104	0.065
-251.063	-190.505	-0.081	0.001
-250.049	185.695	-0.135	-0.196
-249.034	-54.942	-0.236	0.104
-248.019	-200.000	-0.013	-0.154
-247.005	690.471	-0.101	0.258
-245.990	-200.000	0.050	-0.243
-244.976	365.706	0.082	0.161
-243.961	-114.151	-0.037	0.007
-242.946	-33.217	0.159	0.086
-241.932	20.332	-0.214	-0.169
-240.917	800.000	-0.085	0.230
-239.903	-200.000	0.021	-0.313
-238.888	-77.975	-0.383	0.129
-237.873	800.000	0.071	-0.232
-236.859	15.175	0.211	-0.162
-235.844	-87.453	0.012	0.003
-234.830	-68.212	-0.213	-0.081
-233.815	-82.137	0.052	-0.017
-232.800	133.758	0.021	-0.026
-231.786	148.338	0.211	-0.278
-230.771	-97.541	-0.104	-0.026
-229.757	195.713	0.237	0.353
-228.742	52.651	0.337	0.314
-227.727	-22.291	-0.211	0.125
-226.713	93.024	-0.094	-0.104
-225.698	-200.000	0.024	0.321
-224.684	-200.000	-0.049	0.231
-223.669	-200.000	0.019	0.238
-222.655	-141.238	-0.246	-0.025
-221.640	441.979	-0.095	-0.204
-220.625	-200.000	0.029	-0.184
-219.611	674.439	-0.026	0.066
-218.596	-15.591	0.220	-0.137
-217.582	171.626	0.107	-0.150
-216.567	-153.675	-0.188	-0.013
-215.552	256.141	0.204	0.341
-214.538	92.196	0.122	0.134
-213.523	-19.292	0.136	0.082
-212.509	-200.000	0.057	0.279
-211.494	-31.759	0.098	0.054
-210.479	-66.619	-0.162	0.063
-209.465	672.928	0.072	-0.184
-208.450	-12.004	-0.128	0.082
-207.436	172.126	-0.161	0.226
-206.421	139.991	-0.052	-0.066
-205.406	19.402	-0.147	-0.115
-204.392	284.418	0.057	0.100
-203.377	-194.084	0.286	0.002
-202.363	15.980	-0.141	-0.109
-201.348	56.233	0.115	-0.109
-200.333	-2.945	-0.085	0.058
-199.319	214.283	-0.107	0.165
-198.304	-18.225	-0.170	-0.104
-197.290	-96.420	0.079	-0.020
-196.275	229.097	-0.016	-0.026
-195.260	-194.719	-0.243	0.002
-194.246	91.493	0.070	0.077
-193.231	-44.011	-0.309	-0.152
-192.217	13.358	-0.211	-0.160
-191.202	-200.000	0.035	0.480
-190.187	800.000	0.027	-0.107
-189.173	-200.000	0.040	-0.271
-188.158	-17.643	0.147	-0.090
-187.144	78.033	0.200	0.208
-186.129	800.000	-0.018	0.077
-185.114	73.820	0.180	0.184
-184.100	800.000	-0.090	0.375
-183.085	-21.403	0.173	0.103
-182.071	294.932	-0.071	0.127
-181.056	596.792	0.059	-0.141
-180.042	125.895	-0.085	0.105
-179.027	24.987	0.081	-0.065
-178.012	605.551	0.081	-0.196
-176.998	-68.144	-0.182	0.069
-175.983	-200.000	0.016	0.187
-174.969	800.000	-0.097	-0.348
-173.954	-129.106	0.436	0.059
-172.939	206.165	0.153	0.232
-171.925	-24.161	-0.251	0.146
-170.910	-11.174	0.340	0.219
-169.896	800.000	0.088	0.272
-168.881	800.000	-0.129	-0.515
-167.866	-62.670	-0.113	-0.046
-166.852	57.433	0.047	-0.045
-165.837	-96.890	0.146	-0.037
-164.823	800.000	-0.026	-0.092
-163.808	-81.390	0.141	0.045
-162.793	34.137	0.079	0.067
-161.779	-154.654	0.368	0.024
-160.764	97.898	-0.126	0.141
-159.750	-0.080	-0.084	-0.058
-158.735	-24.948	0.309	-0.179
-157.720	318.681	0.177	-0.326
-156.706	-34.829	0.100	0.053
-155.691	-80.473	0.087	0.028
-154.677	79.969	0.373	-0.391
-153.662	800.000	0.099	-0.387
-152.647	800.000	0.027	-0.088
-151.633	-92.268	-0.363	0.100
-150.618	-23.968	-0.341	-0.199
-149.604	800.000	-0.118	0.321
-148.589	460.084	0.078	-0.169
-147.574	28.994	0.258	-0.213
-146.560	-200.000	0.008	-0.048
-145.545	-36.093	0.027	0.014
-144.531	36.945	-0.267	-0.230
-143.516	-103.154	0.278	0.064
-142.502	-200.000	0.033	0.212
-141.487	-200.000	-0.027	0.329
-140.472	38.519	0.052	-0.045
-139.458	-181.768	0.054	0.001
-138.443	12.118	-0.309	0.232
-137.429	-162.245	0.248	-0.012
-136.414	800.000	0.084	0.319
-135.399	492.201	0.085	0.190
-134.385	-200.000	0.012	0.245
-133.370	-200.000	0.150	-0.000
-132.356	800.000	0.136	0.387
-131.341	356.818	-0.122	0.236
-130.326	-200.000	0.039	-0.464
-129.312	800.000	0.073	0.216
-128.297	108.906	-0.095	0.111
-127.283	-122.206	0.113	-0.018
-126.268	138.764	0.157	-0.201
-125.253	-101.202	-0.261	0.062
-124.239	-200.000	0.013	0.182
-123.224	-200.000	-0.004	0.181
-122.210	-191.079	-0.330	-0.003
-121.195	-200.000	-0.005	-0.138
